»»»»»»»»»»»»»»»»»»»»»»»»»»»»»»»»»»»» Hysteresis ««««««««««««««««««««««««««««««««««««
»»»  Executed Version:	5.48.1
»»»  Vision Version:	5.48.4 (R)
»»»  Vision Compiled:	9/18/24
»»»  Driver Version:	5.47.0
»»»  Windows Version:	Windows 8 or 8.1
»»»  Processor Information:	x86 (AMD or Intel) - 32 Processors
»»»  Tester Name:	PMF21124-494 (100V)
»»»  Tester S/N:	PMF21124-494
»»»  Internal Amp Type:	100V RevK 270k
»»»  Internal Amp S/N:	iAB2-596/K     
»»»  Execution Count:	1
»»»»»»»»»»»»»»»»»»»»»»»»»»»»»»»»»»»»»»»»»»««««««««««««««««««««««««««««««««««««««««««

Stored:	7/9/2025 - 15:11:18
Configured:	07/09/25 02:06:30 PM
Executed:	07/09/25 03:10:55 PM

»»»»»»»»»»»»»»»»»»»»»»»»»»»»»»»»»»» Sample Info ««««««««««««««««««««««««««««««««««««
Sample Name:	
Lot Name:	
Wafer Name:	
Die Row/Column:	0/0
Capacitor Number:	0
Sample Area (cm2):	1.00e-04
Sample Thickness (microns):	1.50e-01

Amplifier:	Internal

»»»»»»»»»»»»»»»»»»»»»»»»»»»»»»»»»»» Tester Info «««««««««««««««««««««««««««««««««««
Tester Name:	PMF21124-494 (100V)
Tester Serial Number:	PMF21124-494
Return Signal Amp. Level:	0.19 [Index: 3]

»»»»»»»»»»»»»»»»»»»»»»»»»»»»»»»» Hysteresis Info ««««««««««««««««««««««««««««««««««
Task Name:	Hyst-900
Volts:	10.00
Field:	666.67 (kV/cm)
DCBias:	0.00
DCField:	0.00 (kV/cm)
Hysteresis Period (ms):	1.00e+00
Preset:	Enabled
Preset Delay (ms):	1.00e+03
Profile:	Standard Bipolar

»»»»»»»»»»»»»»»»»»»»»»»»»»»»»»»»»»»»»» Data «««««««««««««««««««««««««««««««««««««««
Points:	2001

Valid Data

Point	Time (ms)	Drive Voltage	Measured Polarization (uC/cm2)	Capacitance (uF)	Normalized Capacitance (uF/cm2)	Dielectric Constant	Instantaneous Current (mA)
   1	0.0000e+00	0.0005	-0.524303	0.000444	4.442840	0.752638	0.017746
   2	5.0000e-04	0.0105	-0.435575	0.000444	4.442840	0.752638	0.017746
   3	1.0000e-03	0.0284	-0.318615	0.000586	5.856471	0.992113	0.023392
   4	1.5000e-03	0.0468	-0.048397	0.001353	13.530468	2.292123	0.054044
   5	2.0000e-03	0.0674	0.108894	0.000788	7.875944	1.334221	0.031458
   6	2.5000e-03	0.0876	0.254085	0.000727	7.270102	1.231589	0.029038
   7	3.0000e-03	0.1077	0.504137	0.001252	12.520732	2.121069	0.050010
   8	3.5000e-03	0.1272	0.717892	0.001070	10.703206	1.813172	0.042751
   9	4.0000e-03	0.1472	0.915513	0.000990	9.895417	1.676329	0.039524
  10	4.5000e-03	0.1675	1.064738	0.000747	7.472050	1.265799	0.029845
  11	5.0000e-03	0.1875	1.226062	0.000808	8.077891	1.368432	0.032265
  12	5.5000e-03	0.2077	1.459982	0.001171	11.712943	1.984226	0.046784
  13	6.0000e-03	0.2278	1.617273	0.000788	7.875944	1.334221	0.031458
  14	6.5000e-03	0.2486	1.794729	0.000889	8.885681	1.505275	0.035491
  15	7.0000e-03	0.2673	1.992351	0.000990	9.895417	1.676329	0.039524
  16	7.5000e-03	0.2879	2.218204	0.001131	11.309048	1.915805	0.045171
  17	8.0000e-03	0.3084	2.407760	0.000949	9.491522	1.607907	0.037911
  18	8.5000e-03	0.3275	2.581183	0.000868	8.683733	1.471064	0.034685
  19	9.0000e-03	0.3474	2.778805	0.000990	9.895417	1.676329	0.039524
  20	9.5000e-03	0.3678	3.024824	0.001232	12.318784	2.086859	0.049204
  21	1.0000e-02	0.3881	3.137751	0.000565	5.654524	0.957902	0.022585
  22	1.0500e-02	0.4074	3.492663	0.001777	17.771361	3.010550	0.070983
  23	1.1000e-02	0.4271	3.504763	0.000061	0.605842	0.102632	0.002420
  24	1.1500e-02	0.4478	3.783046	0.001393	13.934363	2.360545	0.055657
  25	1.2000e-02	0.4683	3.964536	0.000909	9.087628	1.539486	0.036298
  26	1.2500e-02	0.4868	4.210555	0.001232	12.318784	2.086859	0.049204
  27	1.3000e-02	0.5069	4.388011	0.000889	8.885681	1.505275	0.035491
  28	1.3500e-02	0.5286	4.549335	0.000808	8.077891	1.368432	0.032265
  29	1.4000e-02	0.5478	4.775189	0.001131	11.309048	1.915805	0.045171
  30	1.4500e-02	0.5682	4.976844	0.001010	10.097364	1.710540	0.040331
  31	1.5000e-02	0.5880	5.134135	0.000788	7.875944	1.334221	0.031458
  32	1.5500e-02	0.6081	5.307558	0.000868	8.683733	1.471064	0.034685
  33	1.6000e-02	0.6282	5.577775	0.001353	13.530468	2.292123	0.054044
  34	1.6500e-02	0.6491	5.751199	0.000868	8.683733	1.471064	0.034685
  35	1.7000e-02	0.6668	5.948820	0.000990	9.895417	1.676329	0.039524
  36	1.7500e-02	0.6878	6.118211	0.000848	8.481786	1.436853	0.033878
  37	1.8000e-02	0.7066	6.392461	0.001373	13.732415	2.326334	0.054850
  38	1.8500e-02	0.7272	6.537653	0.000727	7.270102	1.231589	0.029038
  39	1.9000e-02	0.7478	6.707043	0.000848	8.481786	1.436853	0.033878
  40	1.9500e-02	0.7678	6.924830	0.001091	10.905153	1.847383	0.043557
  41	2.0000e-02	0.7882	7.178916	0.001272	12.722679	2.155280	0.050817
  42	2.0500e-02	0.8081	7.376537	0.000990	9.895417	1.676329	0.039524
  43	2.1000e-02	0.8280	7.570126	0.000969	9.693470	1.642118	0.038718
  44	2.1500e-02	0.8479	7.747582	0.000889	8.885681	1.505275	0.035491
  45	2.2000e-02	0.8675	7.945204	0.000990	9.895417	1.676329	0.039524
  46	2.2500e-02	0.8874	8.122661	0.000889	8.885681	1.505275	0.035491
  47	2.3000e-02	0.9089	8.336415	0.001070	10.703206	1.813172	0.042751
  48	2.3500e-02	0.9277	8.489673	0.000767	7.673997	1.300010	0.030652
  49	2.4000e-02	0.9478	8.751824	0.001313	13.126574	2.223702	0.052430
  50	2.4500e-02	0.9677	8.901049	0.000747	7.472050	1.265799	0.029845
  51	2.5000e-02	0.9879	9.102704	0.001010	10.097364	1.710540	0.040331
  52	2.5500e-02	1.0080	9.288226	0.000929	9.289575	1.573697	0.037105
  53	2.6000e-02	1.0287	9.493914	0.001030	10.299312	1.744751	0.041138
  54	2.6500e-02	1.0483	9.683470	0.000949	9.491522	1.607907	0.037911
  55	2.7000e-02	1.0682	9.905290	0.001111	11.107101	1.881594	0.044364
  56	2.7500e-02	1.0881	10.090813	0.000929	9.289575	1.573697	0.037105
  57	2.8000e-02	1.1079	10.336832	0.001232	12.318784	2.086859	0.049204
  58	2.8500e-02	1.1283	10.526387	0.000949	9.491522	1.607907	0.037911
  59	2.9000e-02	1.1482	10.740142	0.001070	10.703206	1.813172	0.042751
  60	2.9500e-02	1.1679	10.921631	0.000909	9.087628	1.539486	0.036298
  61	3.0000e-02	1.1871	11.203948	0.001414	14.136310	2.394756	0.056463
  62	3.0500e-02	1.2093	11.316875	0.000565	5.654524	0.957902	0.022585
  63	3.1000e-02	1.2286	11.550794	0.001171	11.712943	1.984226	0.046784
  64	3.1500e-02	1.2482	11.728251	0.000889	8.885681	1.505275	0.035491
  65	3.2000e-02	1.2688	11.986369	0.001292	12.924626	2.189491	0.051624
  66	3.2500e-02	1.2877	12.151726	0.000828	8.279839	1.402643	0.033071
  67	3.3000e-02	1.3071	12.349348	0.000990	9.895417	1.676329	0.039524
  68	3.3500e-02	1.3268	12.551003	0.001010	10.097364	1.710540	0.040331
  69	3.4000e-02	1.3467	12.704261	0.000767	7.673997	1.300010	0.030652
  70	3.4500e-02	1.3681	12.970445	0.001333	13.328521	2.257913	0.053237
  71	3.5000e-02	1.3877	13.164034	0.000969	9.693470	1.642118	0.038718
  72	3.5500e-02	1.4078	13.361656	0.000990	9.895417	1.676329	0.039524
  73	3.6000e-02	1.4276	13.579443	0.001091	10.905153	1.847383	0.043557
  74	3.6500e-02	1.4468	13.752866	0.000868	8.683733	1.471064	0.034685
  75	3.7000e-02	1.4673	13.966620	0.001070	10.703206	1.813172	0.042751
  76	3.7500e-02	1.4869	14.188441	0.001111	11.107101	1.881594	0.044364
  77	3.8000e-02	1.5085	14.377997	0.000949	9.491522	1.607907	0.037911
  78	3.8500e-02	1.5280	14.603850	0.001131	11.309048	1.915805	0.045171
  79	3.9000e-02	1.5472	14.833737	0.001151	11.510995	1.950015	0.045977
  80	3.9500e-02	1.5678	15.007160	0.000868	8.683733	1.471064	0.034685
  81	4.0000e-02	1.5883	15.212848	0.001030	10.299312	1.744751	0.041138
  82	4.0500e-02	1.6077	15.410470	0.000990	9.895417	1.676329	0.039524
  83	4.1000e-02	1.6276	15.644389	0.001171	11.712943	1.984226	0.046784
  84	4.1500e-02	1.6472	15.749250	0.000525	5.250629	0.889481	0.020972
  85	4.2000e-02	1.6678	16.023501	0.001373	13.732415	2.326334	0.054850
  86	4.2500e-02	1.6872	16.249354	0.001131	11.309048	1.915805	0.045171
  87	4.3000e-02	1.7068	16.414711	0.000828	8.279839	1.402643	0.033071
  88	4.3500e-02	1.7278	16.664763	0.001252	12.520732	2.121069	0.050010
  89	4.4000e-02	1.7482	16.809955	0.000727	7.270102	1.231589	0.029038
  90	4.4500e-02	1.7676	17.092272	0.001414	14.136310	2.394756	0.056463
  91	4.5000e-02	1.7877	17.265695	0.000868	8.683733	1.471064	0.034685
  92	4.5500e-02	1.8076	17.459284	0.000969	9.693470	1.642118	0.038718
  93	4.6000e-02	1.8283	17.685137	0.001131	11.309048	1.915805	0.045171
  94	4.6500e-02	1.8478	17.910991	0.001131	11.309048	1.915805	0.045171
  95	4.7000e-02	1.8681	18.080381	0.000848	8.481786	1.436853	0.033878
  96	4.7500e-02	1.8887	18.346566	0.001333	13.328521	2.257913	0.053237
  97	4.8000e-02	1.9077	18.459492	0.000565	5.654524	0.957902	0.022585
  98	4.8500e-02	1.9279	18.697445	0.001191	11.914890	2.018437	0.047591
  99	4.9000e-02	1.9479	18.850703	0.000767	7.673997	1.300010	0.030652
 100	4.9500e-02	1.9682	19.112854	0.001313	13.126574	2.223702	0.052430
 101	5.0000e-02	1.9876	19.282244	0.000848	8.481786	1.436853	0.033878
 102	5.0500e-02	2.0071	19.471800	0.000949	9.491522	1.607907	0.037911
 103	5.1000e-02	2.0273	19.750084	0.001393	13.934363	2.360545	0.055657
 104	5.1500e-02	2.0480	19.951739	0.001010	10.097364	1.710540	0.040331
 105	5.2000e-02	2.0679	20.109030	0.000788	7.875944	1.334221	0.031458
 106	5.2500e-02	2.0889	20.391347	0.001414	14.136310	2.394756	0.056463
 107	5.3000e-02	2.1082	20.536538	0.000727	7.270102	1.231589	0.029038
 108	5.3500e-02	2.1279	20.750292	0.001070	10.703206	1.813172	0.042751
 109	5.4000e-02	2.1483	20.943881	0.000969	9.693470	1.642118	0.038718
 110	5.4500e-02	2.1684	21.177801	0.001171	11.712943	1.984226	0.046784
 111	5.5000e-02	2.1879	21.351224	0.000868	8.683733	1.471064	0.034685
 112	5.5500e-02	2.2079	21.540780	0.000949	9.491522	1.607907	0.037911
 113	5.6000e-02	2.2279	21.758567	0.001091	10.905153	1.847383	0.043557
 114	5.6500e-02	2.2479	21.936023	0.000889	8.885681	1.505275	0.035491
 115	5.7000e-02	2.2675	22.173976	0.001191	11.914890	2.018437	0.047591
 116	5.7500e-02	2.2880	22.363532	0.000949	9.491522	1.607907	0.037911
 117	5.8000e-02	2.3077	22.561154	0.000990	9.895417	1.676329	0.039524
 118	5.8500e-02	2.3280	22.787007	0.001131	11.309048	1.915805	0.045171
 119	5.9000e-02	2.3489	23.000761	0.001070	10.703206	1.813172	0.042751
 120	5.9500e-02	2.3683	23.218549	0.001091	10.905153	1.847383	0.043557
 121	6.0000e-02	2.3877	23.408104	0.000949	9.491522	1.607907	0.037911
 122	6.0500e-02	2.4073	23.581528	0.000868	8.683733	1.471064	0.034685
 123	6.1000e-02	2.4278	23.811414	0.001151	11.510995	1.950015	0.045977
 124	6.1500e-02	2.4478	24.025168	0.001070	10.703206	1.813172	0.042751
 125	6.2000e-02	2.4686	24.279254	0.001272	12.722679	2.155280	0.050817
 126	6.2500e-02	2.4875	24.380081	0.000505	5.048682	0.855270	0.020165
 127	6.3000e-02	2.5076	24.646266	0.001333	13.328521	2.257913	0.053237
 128	6.3500e-02	2.5290	24.924549	0.001393	13.934363	2.360545	0.055657
 129	6.4000e-02	2.5476	25.057642	0.000666	6.664260	1.128956	0.026618
 130	6.4500e-02	2.5681	25.299628	0.001212	12.116837	2.052648	0.048397
 131	6.5000e-02	2.5873	25.452885	0.000767	7.673997	1.300010	0.030652
 132	6.5500e-02	2.6076	25.678739	0.001131	11.309048	1.915805	0.045171
 133	6.6000e-02	2.6282	25.900559	0.001111	11.107101	1.881594	0.044364
 134	6.6500e-02	2.6474	26.102214	0.001010	10.097364	1.710540	0.040331
 135	6.7000e-02	2.6675	26.247406	0.000727	7.270102	1.231589	0.029038
 136	6.7500e-02	2.6883	26.493425	0.001232	12.318784	2.086859	0.049204
 137	6.8000e-02	2.7077	26.678947	0.000929	9.289575	1.573697	0.037105
 138	6.8500e-02	2.7280	26.852370	0.000868	8.683733	1.471064	0.034685
 139	6.9000e-02	2.7478	27.066125	0.001070	10.703206	1.813172	0.042751
 140	6.9500e-02	2.7679	27.308111	0.001212	12.116837	2.052648	0.048397
 141	7.0000e-02	2.7878	27.505732	0.000990	9.895417	1.676329	0.039524
 142	7.0500e-02	2.8073	27.735619	0.001151	11.510995	1.950015	0.045977
 143	7.1000e-02	2.8271	27.957440	0.001111	11.107101	1.881594	0.044364
 144	7.1500e-02	2.8473	28.106664	0.000747	7.472050	1.265799	0.029845
 145	7.2000e-02	2.8671	28.348650	0.001212	12.116837	2.052648	0.048397
 146	7.2500e-02	2.8873	28.530140	0.000909	9.087628	1.539486	0.036298
 147	7.3000e-02	2.9079	28.731794	0.001010	10.097364	1.710540	0.040331
 148	7.3500e-02	2.9282	28.893118	0.000808	8.077891	1.368432	0.032265
 149	7.4000e-02	2.9485	29.131071	0.001191	11.914890	2.018437	0.047591
 150	7.4500e-02	2.9688	29.288362	0.000788	7.875944	1.334221	0.031458
 151	7.5000e-02	2.9890	29.530348	0.001212	12.116837	2.052648	0.048397
 152	7.5500e-02	3.0075	29.695705	0.000828	8.279839	1.402643	0.033071
 153	7.6000e-02	3.0286	29.901393	0.001030	10.299312	1.744751	0.041138
 154	7.6500e-02	3.0478	30.107081	0.001030	10.299312	1.744751	0.041138
 155	7.7000e-02	3.0692	30.361166	0.001272	12.722679	2.155280	0.050817
 156	7.7500e-02	3.0880	30.522490	0.000808	8.077891	1.368432	0.032265
 157	7.8000e-02	3.1084	30.736244	0.001070	10.703206	1.813172	0.042751
 158	7.8500e-02	3.1280	30.901601	0.000828	8.279839	1.402643	0.033071
 159	7.9000e-02	3.1476	31.119389	0.001091	10.905153	1.847383	0.043557
 160	7.9500e-02	3.1680	31.325077	0.001030	10.299312	1.744751	0.041138
 161	8.0000e-02	3.1877	31.546897	0.001111	11.107101	1.881594	0.044364
 162	8.0500e-02	3.2083	31.716287	0.000848	8.481786	1.436853	0.033878
 163	8.1000e-02	3.2275	31.905843	0.000949	9.491522	1.607907	0.037911
 164	8.1500e-02	3.2487	32.135730	0.001151	11.510995	1.950015	0.045977
 165	8.2000e-02	3.2678	32.305120	0.000848	8.481786	1.436853	0.033878
 166	8.2500e-02	3.2880	32.498709	0.000969	9.693470	1.642118	0.038718
 167	8.3000e-02	3.3077	32.684231	0.000929	9.289575	1.573697	0.037105
 168	8.3500e-02	3.3273	32.918151	0.001171	11.712943	1.984226	0.046784
 169	8.4000e-02	3.3479	33.083508	0.000828	8.279839	1.402643	0.033071
 170	8.4500e-02	3.3682	33.317428	0.001171	11.712943	1.984226	0.046784
 171	8.5000e-02	3.3878	33.551347	0.001171	11.712943	1.984226	0.046784
 172	8.5500e-02	3.4078	33.712671	0.000808	8.077891	1.368432	0.032265
 173	8.6000e-02	3.4280	33.918359	0.001030	10.299312	1.744751	0.041138
 174	8.6500e-02	3.4482	34.095816	0.000889	8.885681	1.505275	0.035491
 175	8.7000e-02	3.4675	34.277305	0.000909	9.087628	1.539486	0.036298
 176	8.7500e-02	3.4877	34.519291	0.001212	12.116837	2.052648	0.048397
 177	8.8000e-02	3.5080	34.660449	0.000707	7.068155	1.197378	0.028232
 178	8.8500e-02	3.5278	34.878237	0.001091	10.905153	1.847383	0.043557
 179	8.9000e-02	3.5481	35.051660	0.000868	8.683733	1.471064	0.034685
 180	8.9500e-02	3.5684	35.249282	0.000990	9.895417	1.676329	0.039524
 181	9.0000e-02	3.5883	35.459003	0.001050	10.501259	1.778961	0.041944
 182	9.0500e-02	3.6084	35.624360	0.000828	8.279839	1.402643	0.033071
 183	9.1000e-02	3.6278	35.830048	0.001030	10.299312	1.744751	0.041138
 184	9.1500e-02	3.6482	36.051868	0.001111	11.107101	1.881594	0.044364
 185	9.2000e-02	3.6693	36.217225	0.000828	8.279839	1.402643	0.033071
 186	9.2500e-02	3.6886	36.463244	0.001232	12.318784	2.086859	0.049204
 187	9.3000e-02	3.7073	36.644734	0.000909	9.087628	1.539486	0.036298
 188	9.3500e-02	3.7286	36.781859	0.000687	6.866208	1.163167	0.027425
 189	9.4000e-02	3.7483	36.975448	0.000969	9.693470	1.642118	0.038718
 190	9.4500e-02	3.7692	37.237599	0.001313	13.126574	2.223702	0.052430
 191	9.5000e-02	3.7894	37.435221	0.000990	9.895417	1.676329	0.039524
 192	9.5500e-02	3.8083	37.580413	0.000727	7.270102	1.231589	0.029038
 193	9.6000e-02	3.8271	37.806266	0.001131	11.309048	1.915805	0.045171
 194	9.6500e-02	3.8478	37.971623	0.000828	8.279839	1.402643	0.033071
 195	9.7000e-02	3.8678	38.145047	0.000868	8.683733	1.471064	0.034685
 196	9.7500e-02	3.8867	38.358801	0.001070	10.703206	1.813172	0.042751
 197	9.8000e-02	3.9082	38.552390	0.000969	9.693470	1.642118	0.038718
 198	9.8500e-02	3.9276	38.733879	0.000909	9.087628	1.539486	0.036298
 199	9.9000e-02	3.9479	38.951666	0.001091	10.905153	1.847383	0.043557
 200	9.9500e-02	3.9673	39.104924	0.000767	7.673997	1.300010	0.030652
 201	1.0000e-01	3.9883	39.258182	0.000767	7.673997	1.300010	0.030652
 202	1.0050e-01	4.0085	39.540499	0.001414	14.136310	2.394756	0.056463
 203	1.0100e-01	4.0277	39.713922	0.000868	8.683733	1.471064	0.034685
 204	1.0150e-01	4.0491	39.842981	0.000646	6.462313	1.094745	0.025812
 205	1.0200e-01	4.0681	40.093033	0.001252	12.520732	2.121069	0.050010
 206	1.0250e-01	4.0884	40.302754	0.001050	10.501259	1.778961	0.041944
 207	1.0300e-01	4.1077	40.447946	0.000727	7.270102	1.231589	0.029038
 208	1.0350e-01	4.1278	40.802859	0.001777	17.771361	3.010550	0.070983
 209	1.0400e-01	4.1483	40.827057	0.000121	1.211684	0.205265	0.004840
 210	1.0450e-01	4.1678	41.028712	0.001010	10.097364	1.710540	0.040331
 211	1.0500e-01	4.1885	41.218268	0.000949	9.491522	1.607907	0.037911
 212	1.0550e-01	4.2078	41.367492	0.000747	7.472050	1.265799	0.029845
 213	1.0600e-01	4.2279	41.617544	0.001252	12.520732	2.121069	0.050010
 214	1.0650e-01	4.2480	41.762736	0.000727	7.270102	1.231589	0.029038
 215	1.0700e-01	4.2677	41.952292	0.000949	9.491522	1.607907	0.037911
 216	1.0750e-01	4.2874	42.137814	0.000929	9.289575	1.573697	0.037105
 217	1.0800e-01	4.3079	42.363668	0.001131	11.309048	1.915805	0.045171
 218	1.0850e-01	4.3280	42.537091	0.000868	8.683733	1.471064	0.034685
 219	1.0900e-01	4.3475	42.718580	0.000909	9.087628	1.539486	0.036298
 220	1.0950e-01	4.3683	42.871838	0.000767	7.673997	1.300010	0.030652
 221	1.1000e-01	4.3881	43.037195	0.000828	8.279839	1.402643	0.033071
 222	1.1050e-01	4.4089	43.250949	0.001070	10.703206	1.813172	0.042751
 223	1.1100e-01	4.4284	43.432439	0.000909	9.087628	1.539486	0.036298
 224	1.1150e-01	4.4476	43.577630	0.000727	7.270102	1.231589	0.029038
 225	1.1200e-01	4.4678	43.779285	0.001010	10.097364	1.710540	0.040331
 226	1.1250e-01	4.4885	43.944642	0.000828	8.279839	1.402643	0.033071
 227	1.1300e-01	4.5081	44.218893	0.001373	13.732415	2.326334	0.054850
 228	1.1350e-01	4.5282	44.351985	0.000666	6.664260	1.128956	0.026618
 229	1.1400e-01	4.5490	44.545574	0.000969	9.693470	1.642118	0.038718
 230	1.1450e-01	4.5676	44.710931	0.000828	8.279839	1.402643	0.033071
 231	1.1500e-01	4.5874	44.969049	0.001292	12.924626	2.189491	0.051624
 232	1.1550e-01	4.6080	45.134406	0.000828	8.279839	1.402643	0.033071
 233	1.1600e-01	4.6280	45.271532	0.000687	6.866208	1.163167	0.027425
 234	1.1650e-01	4.6489	45.473187	0.001010	10.097364	1.710540	0.040331
 235	1.1700e-01	4.6683	45.602246	0.000646	6.462313	1.094745	0.025812
 236	1.1750e-01	4.6893	45.795835	0.000969	9.693470	1.642118	0.038718
 237	1.1800e-01	4.7083	46.009589	0.001070	10.703206	1.813172	0.042751
 238	1.1850e-01	4.7278	46.203178	0.000969	9.693470	1.642118	0.038718
 239	1.1900e-01	4.7476	46.368535	0.000828	8.279839	1.402643	0.033071
 240	1.1950e-01	4.7690	46.586322	0.001091	10.905153	1.847383	0.043557
 241	1.2000e-01	4.7873	46.727480	0.000707	7.068155	1.197378	0.028232
 242	1.2050e-01	4.8083	46.908970	0.000909	9.087628	1.539486	0.036298
 243	1.2100e-01	4.8288	47.110625	0.001010	10.097364	1.710540	0.040331
 244	1.2150e-01	4.8486	47.271949	0.000808	8.077891	1.368432	0.032265
 245	1.2200e-01	4.8688	47.582497	0.001555	15.549941	2.634231	0.062110
 246	1.2250e-01	4.8889	47.550233	-0.000162	-1.615578	-0.273686	-0.006453
 247	1.2300e-01	4.9078	47.848682	0.001494	14.944099	2.531599	0.059690
 248	1.2350e-01	4.9288	48.026138	0.000889	8.885681	1.505275	0.035491
 249	1.2400e-01	4.9481	48.159230	0.000666	6.664260	1.128956	0.026618
 250	1.2450e-01	4.9689	48.348786	0.000949	9.491522	1.607907	0.037911
 251	1.2500e-01	4.9890	48.481878	0.000666	6.664260	1.128956	0.026618
 252	1.2550e-01	5.0092	48.707732	0.001131	11.309048	1.915805	0.045171
 253	1.2600e-01	5.0282	48.848890	0.000707	7.068155	1.197378	0.028232
 254	1.2650e-01	5.0494	49.078777	0.001151	11.510995	1.950015	0.045977
 255	1.2700e-01	5.0684	49.187671	0.000545	5.452577	0.923691	0.021779
 256	1.2750e-01	5.0885	49.429656	0.001212	12.116837	2.052648	0.048397
 257	1.2800e-01	5.1088	49.578881	0.000747	7.472050	1.265799	0.029845
 258	1.2850e-01	5.1282	49.768437	0.000949	9.491522	1.607907	0.037911
 259	1.2900e-01	5.1477	49.901529	0.000666	6.664260	1.128956	0.026618
 260	1.2950e-01	5.1680	50.066886	0.000828	8.279839	1.402643	0.033071
 261	1.3000e-01	5.1886	50.300806	0.001171	11.712943	1.984226	0.046784
 262	1.3050e-01	5.2080	50.490361	0.000949	9.491522	1.607907	0.037911
 263	1.3100e-01	5.2289	50.651685	0.000808	8.077891	1.368432	0.032265
 264	1.3150e-01	5.2480	50.833175	0.000909	9.087628	1.539486	0.036298
 265	1.3200e-01	5.2676	50.978366	0.000727	7.270102	1.231589	0.029038
 266	1.3250e-01	5.2878	51.188087	0.001050	10.501259	1.778961	0.041944
 267	1.3300e-01	5.3084	51.341345	0.000767	7.673997	1.300010	0.030652
 268	1.3350e-01	5.3278	51.474437	0.000666	6.664260	1.128956	0.026618
 269	1.3400e-01	5.3476	51.704324	0.001151	11.510995	1.950015	0.045977
 270	1.3450e-01	5.3680	51.784986	0.000404	4.038946	0.684216	0.016132
 271	1.3500e-01	5.3885	52.022939	0.001191	11.914890	2.018437	0.047591
 272	1.3550e-01	5.4071	52.208461	0.000929	9.289575	1.573697	0.037105
 273	1.3600e-01	5.4285	52.398017	0.000949	9.491522	1.607907	0.037911
 274	1.3650e-01	5.4475	52.523043	0.000626	6.260366	1.060535	0.025005
 275	1.3700e-01	5.4694	52.756963	0.001171	11.712943	1.984226	0.046784
 276	1.3750e-01	5.4886	52.890055	0.000666	6.664260	1.128956	0.026618
 277	1.3800e-01	5.5087	53.055412	0.000828	8.279839	1.402643	0.033071
 278	1.3850e-01	5.5286	53.285299	0.001151	11.510995	1.950015	0.045977
 279	1.3900e-01	5.5481	53.357895	0.000364	3.635051	0.615794	0.014519
 280	1.3950e-01	5.5682	53.583748	0.001131	11.309048	1.915805	0.045171
 281	1.4000e-01	5.5896	53.777337	0.000969	9.693470	1.642118	0.038718
 282	1.4050e-01	5.6085	53.922528	0.000727	7.270102	1.231589	0.029038
 283	1.4100e-01	5.6281	54.051587	0.000646	6.462313	1.094745	0.025812
 284	1.4150e-01	5.6494	54.233077	0.000909	9.087628	1.539486	0.036298
 285	1.4200e-01	5.6690	54.410533	0.000889	8.885681	1.505275	0.035491
 286	1.4250e-01	5.6873	54.575890	0.000828	8.279839	1.402643	0.033071
 287	1.4300e-01	5.7086	54.817876	0.001212	12.116837	2.052648	0.048397
 288	1.4350e-01	5.7288	54.926770	0.000545	5.452577	0.923691	0.021779
 289	1.4400e-01	5.7483	55.080028	0.000767	7.673997	1.300010	0.030652
 290	1.4450e-01	5.7674	55.305881	0.001131	11.309048	1.915805	0.045171
 291	1.4500e-01	5.7883	55.479304	0.000868	8.683733	1.471064	0.034685
 292	1.4550e-01	5.8076	55.620463	0.000707	7.068155	1.197378	0.028232
 293	1.4600e-01	5.8276	55.805985	0.000929	9.289575	1.573697	0.037105
 294	1.4650e-01	5.8478	55.922945	0.000586	5.856471	0.992113	0.023392
 295	1.4700e-01	5.8685	56.084269	0.000808	8.077891	1.368432	0.032265
 296	1.4750e-01	5.8881	56.310123	0.001131	11.309048	1.915805	0.045171
 297	1.4800e-01	5.9088	56.439182	0.000646	6.462313	1.094745	0.025812
 298	1.4850e-01	5.9286	56.596473	0.000788	7.875944	1.334221	0.031458
 299	1.4900e-01	5.9485	56.737631	0.000707	7.068155	1.197378	0.028232
 300	1.4950e-01	5.9692	56.927187	0.000949	9.491522	1.607907	0.037911
 301	1.5000e-01	5.9888	56.862657	-0.000323	-3.231157	-0.547373	-0.012906
 302	1.5050e-01	6.0077	57.358728	0.002484	24.839516	4.207928	0.099214
 303	1.5100e-01	6.0278	57.499887	0.000707	7.068155	1.197378	0.028232
 304	1.5150e-01	6.0489	57.600714	0.000505	5.048682	0.855270	0.020165
 305	1.5200e-01	6.0693	57.762038	0.000808	8.077891	1.368432	0.032265
 306	1.5250e-01	6.0883	57.951594	0.000949	9.491522	1.607907	0.037911
 307	1.5300e-01	6.1092	58.129050	0.000889	8.885681	1.505275	0.035491
 308	1.5350e-01	6.1285	58.225845	0.000485	4.846735	0.821059	0.019359
 309	1.5400e-01	6.1487	58.383135	0.000788	7.875944	1.334221	0.031458
 310	1.5450e-01	6.1694	58.564625	0.000909	9.087628	1.539486	0.036298
 311	1.5500e-01	6.1877	58.790478	0.001131	11.309048	1.915805	0.045171
 312	1.5550e-01	6.2082	58.891306	0.000505	5.048682	0.855270	0.020165
 313	1.5600e-01	6.2296	59.096994	0.001030	10.299312	1.744751	0.041138
 314	1.5650e-01	6.2482	59.250252	0.000767	7.673997	1.300010	0.030652
 315	1.5700e-01	6.2683	59.431741	0.000909	9.087628	1.539486	0.036298
 316	1.5750e-01	6.2891	59.532568	0.000505	5.048682	0.855270	0.020165
 317	1.5800e-01	6.3098	59.681793	0.000747	7.472050	1.265799	0.029845
 318	1.5850e-01	6.3277	59.915713	0.001171	11.712943	1.984226	0.046784
 319	1.5900e-01	6.3477	60.068971	0.000767	7.673997	1.300010	0.030652
 320	1.5950e-01	6.3675	60.234328	0.000828	8.279839	1.402643	0.033071
 321	1.6000e-01	6.3885	60.383552	0.000747	7.472050	1.265799	0.029845
 322	1.6050e-01	6.4081	60.512611	0.000646	6.462313	1.094745	0.025812
 323	1.6100e-01	6.4282	60.690068	0.000889	8.885681	1.505275	0.035491
 324	1.6150e-01	6.4484	60.903822	0.001070	10.703206	1.813172	0.042751
 325	1.6200e-01	6.4685	61.053047	0.000747	7.472050	1.265799	0.029845
 326	1.6250e-01	6.4880	61.174040	0.000606	6.058419	1.026324	0.024199
 327	1.6300e-01	6.5076	61.323264	0.000747	7.472050	1.265799	0.029845
 328	1.6350e-01	6.5283	61.528952	0.001030	10.299312	1.744751	0.041138
 329	1.6400e-01	6.5486	61.694309	0.000828	8.279839	1.402643	0.033071
 330	1.6450e-01	6.5680	61.839501	0.000727	7.270102	1.231589	0.029038
 331	1.6500e-01	6.5884	61.976626	0.000687	6.866208	1.163167	0.027425
 332	1.6550e-01	6.6083	62.174248	0.000990	9.895417	1.676329	0.039524
 333	1.6600e-01	6.6284	62.355737	0.000909	9.087628	1.539486	0.036298
 334	1.6650e-01	6.6476	62.412201	0.000283	2.827262	0.478951	0.011293
 335	1.6700e-01	6.6681	62.646121	0.001171	11.712943	1.984226	0.046784
 336	1.6750e-01	6.6882	62.746948	0.000505	5.048682	0.855270	0.020165
 337	1.6800e-01	6.7090	62.932471	0.000929	9.289575	1.573697	0.037105
 338	1.6850e-01	6.7291	63.134126	0.001010	10.097364	1.710540	0.040331
 339	1.6900e-01	6.7480	63.263185	0.000646	6.462313	1.094745	0.025812
 340	1.6950e-01	6.7685	63.420476	0.000788	7.875944	1.334221	0.031458
 341	1.7000e-01	6.7877	63.581799	0.000808	8.077891	1.368432	0.032265
 342	1.7050e-01	6.8079	63.694726	0.000565	5.654524	0.957902	0.022585
 343	1.7100e-01	6.8283	63.835885	0.000707	7.068155	1.197378	0.028232
 344	1.7150e-01	6.8488	64.025440	0.000949	9.491522	1.607907	0.037911
 345	1.7200e-01	6.8689	64.162566	0.000687	6.866208	1.163167	0.027425
 346	1.7250e-01	6.8878	64.344055	0.000909	9.087628	1.539486	0.036298
 347	1.7300e-01	6.9083	64.501346	0.000788	7.875944	1.334221	0.031458
 348	1.7350e-01	6.9284	64.622339	0.000606	6.058419	1.026324	0.024199
 349	1.7400e-01	6.9482	64.819961	0.000990	9.895417	1.676329	0.039524
 350	1.7450e-01	6.9684	65.021616	0.001010	10.097364	1.710540	0.040331
 351	1.7500e-01	6.9879	65.033715	0.000061	0.605842	0.102632	0.002420
 352	1.7550e-01	7.0084	65.316032	0.001414	14.136310	2.394756	0.056463
 353	1.7600e-01	7.0279	65.412826	0.000485	4.846735	0.821059	0.019359
 354	1.7650e-01	7.0479	65.590283	0.000889	8.885681	1.505275	0.035491
 355	1.7700e-01	7.0673	65.767739	0.000889	8.885681	1.505275	0.035491
 356	1.7750e-01	7.0877	65.900831	0.000666	6.664260	1.128956	0.026618
 357	1.7800e-01	7.1088	66.054089	0.000767	7.673997	1.300010	0.030652
 358	1.7850e-01	7.1283	66.223479	0.000848	8.481786	1.436853	0.033878
 359	1.7900e-01	7.1484	66.356571	0.000666	6.664260	1.128956	0.026618
 360	1.7950e-01	7.1680	66.469498	0.000565	5.654524	0.957902	0.022585
 361	1.8000e-01	7.1872	66.630822	0.000808	8.077891	1.368432	0.032265
 362	1.8050e-01	7.2076	66.832477	0.001010	10.097364	1.710540	0.040331
 363	1.8100e-01	7.2285	66.957503	0.000626	6.260366	1.060535	0.025005
 364	1.8150e-01	7.2485	67.151092	0.000969	9.693470	1.642118	0.038718
 365	1.8200e-01	7.2687	67.259985	0.000545	5.452577	0.923691	0.021779
 366	1.8250e-01	7.2882	67.421309	0.000808	8.077891	1.368432	0.032265
 367	1.8300e-01	7.3083	67.590699	0.000848	8.481786	1.436853	0.033878
 368	1.8350e-01	7.3279	67.731858	0.000707	7.068155	1.197378	0.028232
 369	1.8400e-01	7.3480	67.893182	0.000808	8.077891	1.368432	0.032265
 370	1.8450e-01	7.3682	68.018208	0.000626	6.260366	1.060535	0.025005
 371	1.8500e-01	7.3880	68.159366	0.000707	7.068155	1.197378	0.028232
 372	1.8550e-01	7.4078	68.348922	0.000949	9.491522	1.607907	0.037911
 373	1.8600e-01	7.4280	68.498147	0.000747	7.472050	1.265799	0.029845
 374	1.8650e-01	7.4481	68.619140	0.000606	6.058419	1.026324	0.024199
 375	1.8700e-01	7.4683	68.792563	0.000868	8.683733	1.471064	0.034685
 376	1.8750e-01	7.4878	68.945821	0.000767	7.673997	1.300010	0.030652
 377	1.8800e-01	7.5079	69.062780	0.000586	5.856471	0.992113	0.023392
 378	1.8850e-01	7.5262	69.216038	0.000767	7.673997	1.300010	0.030652
 379	1.8900e-01	7.5482	69.369296	0.000767	7.673997	1.300010	0.030652
 380	1.8950e-01	7.5690	69.558852	0.000949	9.491522	1.607907	0.037911
 381	1.9000e-01	7.5879	69.659679	0.000505	5.048682	0.855270	0.020165
 382	1.9050e-01	7.6074	69.796804	0.000687	6.866208	1.163167	0.027425
 383	1.9100e-01	7.6276	69.978294	0.000909	9.087628	1.539486	0.036298
 384	1.9150e-01	7.6483	70.143651	0.000828	8.279839	1.402643	0.033071
 385	1.9200e-01	7.6678	70.292876	0.000747	7.472050	1.265799	0.029845
 386	1.9250e-01	7.6880	70.442100	0.000747	7.472050	1.265799	0.029845
 387	1.9300e-01	7.7075	70.579226	0.000687	6.866208	1.163167	0.027425
 388	1.9350e-01	7.7283	70.708285	0.000646	6.462313	1.094745	0.025812
 389	1.9400e-01	7.7478	70.889774	0.000909	9.087628	1.539486	0.036298
 390	1.9450e-01	7.7679	71.022866	0.000666	6.664260	1.128956	0.026618
 391	1.9500e-01	7.7881	71.139826	0.000586	5.856471	0.992113	0.023392
 392	1.9550e-01	7.8076	71.305183	0.000828	8.279839	1.402643	0.033071
 393	1.9600e-01	7.8293	71.422143	0.000586	5.856471	0.992113	0.023392
 394	1.9650e-01	7.8474	71.635897	0.001070	10.703206	1.813172	0.042751
 395	1.9700e-01	7.8674	71.676228	0.000202	2.019473	0.342108	0.008066
 396	1.9750e-01	7.8882	71.889983	0.001070	10.703206	1.813172	0.042751
 397	1.9800e-01	7.9083	72.010976	0.000606	6.058419	1.026324	0.024199
 398	1.9850e-01	7.9285	72.204564	0.000969	9.693470	1.642118	0.038718
 399	1.9900e-01	7.9480	72.317491	0.000565	5.654524	0.957902	0.022585
 400	1.9950e-01	7.9675	72.430418	0.000565	5.654524	0.957902	0.022585
 401	2.0000e-01	7.9886	72.563510	0.000666	6.664260	1.128956	0.026618
 402	2.0050e-01	8.0090	72.749033	0.000929	9.289575	1.573697	0.037105
 403	2.0100e-01	8.0292	72.886158	0.000687	6.866208	1.163167	0.027425
 404	2.0150e-01	8.0481	73.047482	0.000808	8.077891	1.368432	0.032265
 405	2.0200e-01	8.0676	73.208806	0.000808	8.077891	1.368432	0.032265
 406	2.0250e-01	8.0878	73.325766	0.000586	5.856471	0.992113	0.023392
 407	2.0300e-01	8.1085	73.446759	0.000606	6.058419	1.026324	0.024199
 408	2.0350e-01	8.1281	73.632281	0.000929	9.289575	1.573697	0.037105
 409	2.0400e-01	8.1482	73.821837	0.000949	9.491522	1.607907	0.037911
 410	2.0450e-01	8.1683	73.922664	0.000505	5.048682	0.855270	0.020165
 411	2.0500e-01	8.1879	74.027525	0.000525	5.250629	0.889481	0.020972
 412	2.0550e-01	8.2074	74.225147	0.000990	9.895417	1.676329	0.039524
 413	2.0600e-01	8.2275	74.325974	0.000505	5.048682	0.855270	0.020165
 414	2.0650e-01	8.2477	74.515530	0.000949	9.491522	1.607907	0.037911
 415	2.0700e-01	8.2684	74.636523	0.000606	6.058419	1.026324	0.024199
 416	2.0750e-01	8.2880	74.749449	0.000565	5.654524	0.957902	0.022585
 417	2.0800e-01	8.3081	74.886575	0.000687	6.866208	1.163167	0.027425
 418	2.0850e-01	8.3270	75.059998	0.000868	8.683733	1.471064	0.034685
 419	2.0900e-01	8.3487	75.241488	0.000909	9.087628	1.539486	0.036298
 420	2.0950e-01	8.3685	75.330216	0.000444	4.442840	0.752638	0.017746
 421	2.1000e-01	8.3881	75.511705	0.000909	9.087628	1.539486	0.036298
 422	2.1050e-01	8.4088	75.600433	0.000444	4.442840	0.752638	0.017746
 423	2.1100e-01	8.4277	75.737559	0.000687	6.866208	1.163167	0.027425
 424	2.1150e-01	8.4479	75.870651	0.000666	6.664260	1.128956	0.026618
 425	2.1200e-01	8.4674	76.052140	0.000909	9.087628	1.539486	0.036298
 426	2.1250e-01	8.4888	76.193299	0.000707	7.068155	1.197378	0.028232
 427	2.1300e-01	8.5089	76.366722	0.000868	8.683733	1.471064	0.034685
 428	2.1350e-01	8.5278	76.439318	0.000364	3.635051	0.615794	0.014519
 429	2.1400e-01	8.5480	76.600642	0.000808	8.077891	1.368432	0.032265
 430	2.1450e-01	8.5675	76.741800	0.000707	7.068155	1.197378	0.028232
 431	2.1500e-01	8.5889	76.886992	0.000727	7.270102	1.231589	0.029038
 432	2.1550e-01	8.6084	77.028150	0.000707	7.068155	1.197378	0.028232
 433	2.1600e-01	8.6279	77.128978	0.000505	5.048682	0.855270	0.020165
 434	2.1650e-01	8.6487	77.306434	0.000889	8.885681	1.505275	0.035491
 435	2.1700e-01	8.6682	77.407261	0.000505	5.048682	0.855270	0.020165
 436	2.1750e-01	8.6877	77.556486	0.000747	7.472050	1.265799	0.029845
 437	2.1800e-01	8.7079	77.762174	0.001030	10.299312	1.744751	0.041138
 438	2.1850e-01	8.7280	77.810571	0.000242	2.423367	0.410530	0.009679
 439	2.1900e-01	8.7488	78.036425	0.001131	11.309048	1.915805	0.045171
 440	2.1950e-01	8.7689	78.157418	0.000606	6.058419	1.026324	0.024199
 441	2.2000e-01	8.7891	78.262278	0.000525	5.250629	0.889481	0.020972
 442	2.2050e-01	8.8074	78.399404	0.000687	6.866208	1.163167	0.027425
 443	2.2100e-01	8.8300	78.588959	0.000949	9.491522	1.607907	0.037911
 444	2.2150e-01	8.8477	78.665588	0.000384	3.836998	0.650005	0.015326
 445	2.2200e-01	8.8678	78.839011	0.000868	8.683733	1.471064	0.034685
 446	2.2250e-01	8.8879	78.931773	0.000464	4.644788	0.786848	0.018552
 447	2.2300e-01	8.9075	79.097130	0.000828	8.279839	1.402643	0.033071
 448	2.2350e-01	8.9282	79.262487	0.000828	8.279839	1.402643	0.033071
 449	2.2400e-01	8.9478	79.371380	0.000545	5.452577	0.923691	0.021779
 450	2.2450e-01	8.9679	79.496407	0.000626	6.260366	1.060535	0.025005
 451	2.2500e-01	8.9886	79.613366	0.000586	5.856471	0.992113	0.023392
 452	2.2550e-01	9.0076	79.815021	0.001010	10.097364	1.710540	0.040331
 453	2.2600e-01	9.0271	79.923915	0.000545	5.452577	0.923691	0.021779
 454	2.2650e-01	9.0479	80.036842	0.000565	5.654524	0.957902	0.022585
 455	2.2700e-01	9.0686	80.178000	0.000707	7.068155	1.197378	0.028232
 456	2.2750e-01	9.0881	80.303026	0.000626	6.260366	1.060535	0.025005
 457	2.2800e-01	9.1074	80.476450	0.000868	8.683733	1.471064	0.034685
 458	2.2850e-01	9.1284	80.633740	0.000788	7.875944	1.334221	0.031458
 459	2.2900e-01	9.1473	80.746667	0.000565	5.654524	0.957902	0.022585
 460	2.2950e-01	9.1669	80.863627	0.000586	5.856471	0.992113	0.023392
 461	2.3000e-01	9.1876	81.000752	0.000687	6.866208	1.163167	0.027425
 462	2.3050e-01	9.2072	81.117712	0.000586	5.856471	0.992113	0.023392
 463	2.3100e-01	9.2273	81.287102	0.000848	8.481786	1.436853	0.033878
 464	2.3150e-01	9.2480	81.371797	0.000424	4.240893	0.718427	0.016939
 465	2.3200e-01	9.2679	81.537154	0.000828	8.279839	1.402643	0.033071
 466	2.3250e-01	9.2871	81.706545	0.000848	8.481786	1.436853	0.033878
 467	2.3300e-01	9.3079	81.807372	0.000505	5.048682	0.855270	0.020165
 468	2.3350e-01	9.3280	81.952564	0.000727	7.270102	1.231589	0.029038
 469	2.3400e-01	9.3484	82.049358	0.000485	4.846735	0.821059	0.019359
 470	2.3450e-01	9.3677	82.194550	0.000727	7.270102	1.231589	0.029038
 471	2.3500e-01	9.3878	82.339741	0.000727	7.270102	1.231589	0.029038
 472	2.3550e-01	9.4073	82.440569	0.000505	5.048682	0.855270	0.020165
 473	2.3600e-01	9.4275	82.646257	0.001030	10.299312	1.744751	0.041138
 474	2.3650e-01	9.4476	82.730952	0.000424	4.240893	0.718427	0.016939
 475	2.3700e-01	9.4690	82.888242	0.000788	7.875944	1.334221	0.031458
 476	2.3750e-01	9.4879	83.009235	0.000606	6.058419	1.026324	0.024199
 477	2.3800e-01	9.5074	83.154427	0.000727	7.270102	1.231589	0.029038
 478	2.3850e-01	9.5282	83.343983	0.000949	9.491522	1.607907	0.037911
 479	2.3900e-01	9.5471	83.368181	0.000121	1.211684	0.205265	0.004840
 480	2.3950e-01	9.5673	83.448843	0.000404	4.038946	0.684216	0.016132
 481	2.4000e-01	9.5874	83.630333	0.000909	9.087628	1.539486	0.036298
 482	2.4050e-01	9.6075	83.795690	0.000828	8.279839	1.402643	0.033071
 483	2.4100e-01	9.6271	83.965080	0.000848	8.481786	1.436853	0.033878
 484	2.4150e-01	9.6472	84.065907	0.000505	5.048682	0.855270	0.020165
 485	2.4200e-01	9.6674	84.166735	0.000505	5.048682	0.855270	0.020165
 486	2.4250e-01	9.6875	84.340158	0.000868	8.683733	1.471064	0.034685
 487	2.4300e-01	9.7070	84.610376	0.001353	13.530468	2.292123	0.054044
 488	2.4350e-01	9.7272	84.485350	-0.000626	-6.260366	-1.060535	-0.025005
 489	2.4400e-01	9.7479	84.707170	0.001111	11.107101	1.881594	0.044364
 490	2.4450e-01	9.7681	84.812031	0.000525	5.250629	0.889481	0.020972
 491	2.4500e-01	9.7876	84.973354	0.000808	8.077891	1.368432	0.032265
 492	2.4550e-01	9.8071	85.110480	0.000687	6.866208	1.163167	0.027425
 493	2.4600e-01	9.8285	85.215340	0.000525	5.250629	0.889481	0.020972
 494	2.4650e-01	9.8480	85.320201	0.000525	5.250629	0.889481	0.020972
 495	2.4700e-01	9.8682	85.525889	0.001030	10.299312	1.744751	0.041138
 496	2.4750e-01	9.8877	85.638816	0.000565	5.654524	0.957902	0.022585
 497	2.4800e-01	9.9084	85.788040	0.000747	7.472050	1.265799	0.029845
 498	2.4850e-01	9.9280	85.965497	0.000889	8.885681	1.505275	0.035491
 499	2.4900e-01	9.9481	85.977596	0.000061	0.605842	0.102632	0.002420
 500	2.4950e-01	9.9680	86.106655	0.000646	6.462313	1.094745	0.025812
 501	2.5000e-01	9.9890	86.284111	0.000889	8.885681	1.505275	0.035491
 502	2.5050e-01	9.9854	86.199416	0.000424	4.240893	0.718427	-0.016939
 503	2.5100e-01	9.9701	86.118754	0.000404	4.038946	0.684216	-0.016132
 504	2.5150e-01	9.9524	86.050192	0.000343	3.433104	0.581584	-0.013713
 505	2.5200e-01	9.9329	85.953397	0.000485	4.846735	0.821059	-0.019359
 506	2.5250e-01	9.9127	85.808206	0.000727	7.270102	1.231589	-0.029038
 507	2.5300e-01	9.8932	85.743676	0.000323	3.231157	0.547373	-0.012906
 508	2.5350e-01	9.8737	85.679147	0.000323	3.231157	0.547373	-0.012906
 509	2.5400e-01	9.8526	85.550088	0.000646	6.462313	1.094745	-0.025812
 510	2.5450e-01	9.8322	85.368598	0.000909	9.087628	1.539486	-0.036298
 511	2.5500e-01	9.8126	85.291969	0.000384	3.836998	0.650005	-0.015326
 512	2.5550e-01	9.7937	85.187109	0.000525	5.250629	0.889481	-0.020972
 513	2.5600e-01	9.7729	85.086281	0.000505	5.048682	0.855270	-0.020165
 514	2.5650e-01	9.7528	84.977388	0.000545	5.452577	0.923691	-0.021779
 515	2.5700e-01	9.7333	84.892692	0.000424	4.240893	0.718427	-0.016939
 516	2.5750e-01	9.7131	84.832196	0.000303	3.029209	0.513162	-0.012099
 517	2.5800e-01	9.6936	84.687004	0.000727	7.270102	1.231589	-0.029038
 518	2.5850e-01	9.6729	84.586177	0.000505	5.048682	0.855270	-0.020165
 519	2.5900e-01	9.6523	84.473250	0.000565	5.654524	0.957902	-0.022585
 520	2.5950e-01	9.6338	84.372423	0.000505	5.048682	0.855270	-0.020165
 521	2.6000e-01	9.6130	84.299827	0.000364	3.635051	0.615794	-0.014519
 522	2.6050e-01	9.5935	84.118338	0.000909	9.087628	1.539486	-0.036298
 523	2.6100e-01	9.5728	84.037676	0.000404	4.038946	0.684216	-0.016132
 524	2.6150e-01	9.5532	83.981212	0.000283	2.827262	0.478951	-0.011293
 525	2.6200e-01	9.5331	83.807789	0.000868	8.683733	1.471064	-0.034685
 526	2.6250e-01	9.5126	83.698895	0.000545	5.452577	0.923691	-0.021779
 527	2.6300e-01	9.4922	83.614200	0.000424	4.240893	0.718427	-0.016939
 528	2.6350e-01	9.4733	83.456909	0.000788	7.875944	1.334221	-0.031458
 529	2.6400e-01	9.4528	83.295585	0.000808	8.077891	1.368432	-0.032265
 530	2.6450e-01	9.4342	83.271387	0.000121	1.211684	0.205265	-0.004840
 531	2.6500e-01	9.4135	83.138295	0.000666	6.664260	1.128956	-0.026618
 532	2.6550e-01	9.3930	82.993103	0.000727	7.270102	1.231589	-0.029038
 533	2.6600e-01	9.3750	82.904375	0.000444	4.442840	0.752638	-0.017746
 534	2.6650e-01	9.3530	82.787415	0.000586	5.856471	0.992113	-0.023392
 535	2.6700e-01	9.3338	82.634157	0.000767	7.673997	1.300010	-0.030652
 536	2.6750e-01	9.3127	82.573661	0.000303	3.029209	0.513162	-0.012099
 537	2.6800e-01	9.2938	82.484933	0.000444	4.442840	0.752638	-0.017746
 538	2.6850e-01	9.2731	82.347807	0.000687	6.866208	1.163167	-0.027425
 539	2.6900e-01	9.2535	82.238914	0.000545	5.452577	0.923691	-0.021779
 540	2.6950e-01	9.2340	82.138086	0.000505	5.048682	0.855270	-0.020165
 541	2.7000e-01	9.2139	82.000961	0.000687	6.866208	1.163167	-0.027425
 542	2.7050e-01	9.1931	81.851736	0.000747	7.472050	1.265799	-0.029845
 543	2.7100e-01	9.1742	81.758975	0.000464	4.644788	0.786848	-0.018552
 544	2.7150e-01	9.1531	81.670247	0.000444	4.442840	0.752638	-0.017746
 545	2.7200e-01	9.1333	81.537154	0.000666	6.664260	1.128956	-0.026618
 546	2.7250e-01	9.1132	81.375830	0.000808	8.077891	1.368432	-0.032265
 547	2.7300e-01	9.0936	81.287102	0.000444	4.442840	0.752638	-0.017746
 548	2.7350e-01	9.0735	81.218540	0.000343	3.433104	0.581584	-0.013713
 549	2.7400e-01	9.0533	81.065282	0.000767	7.673997	1.300010	-0.030652
 550	2.7450e-01	9.0338	80.948322	0.000586	5.856471	0.992113	-0.023392
 551	2.7500e-01	9.0137	80.815230	0.000666	6.664260	1.128956	-0.026618
 552	2.7550e-01	8.9929	80.746667	0.000343	3.433104	0.581584	-0.013713
 553	2.7600e-01	8.9740	80.625674	0.000606	6.058419	1.026324	-0.024199
 554	2.7650e-01	8.9529	80.476450	0.000747	7.472050	1.265799	-0.029845
 555	2.7700e-01	8.9331	80.355457	0.000606	6.058419	1.026324	-0.024199
 556	2.7750e-01	8.9130	80.246563	0.000545	5.452577	0.923691	-0.021779
 557	2.7800e-01	8.8934	80.145735	0.000505	5.048682	0.855270	-0.020165
 558	2.7850e-01	8.8733	80.032809	0.000565	5.654524	0.957902	-0.022585
 559	2.7900e-01	8.8538	79.907783	0.000626	6.260366	1.060535	-0.025005
 560	2.7950e-01	8.8318	79.790823	0.000586	5.856471	0.992113	-0.023392
 561	2.8000e-01	8.8135	79.661764	0.000646	6.462313	1.094745	-0.025812
 562	2.8050e-01	8.7933	79.544804	0.000586	5.856471	0.992113	-0.023392
 563	2.8100e-01	8.7732	79.439943	0.000525	5.250629	0.889481	-0.020972
 564	2.8150e-01	8.7532	79.266520	0.000868	8.683733	1.471064	-0.034685
 565	2.8200e-01	8.7335	79.129395	0.000687	6.866208	1.163167	-0.027425
 566	2.8250e-01	8.7128	79.056799	0.000364	3.635051	0.615794	-0.014519
 567	2.8300e-01	8.6938	78.935806	0.000606	6.058419	1.026324	-0.024199
 568	2.8350e-01	8.6743	78.847078	0.000444	4.442840	0.752638	-0.017746
 569	2.8400e-01	8.6542	78.738184	0.000545	5.452577	0.923691	-0.021779
 570	2.8450e-01	8.6337	78.556695	0.000909	9.087628	1.539486	-0.036298
 571	2.8500e-01	8.6139	78.423602	0.000666	6.664260	1.128956	-0.026618
 572	2.8550e-01	8.5938	78.375205	0.000242	2.423367	0.410530	-0.009679
 573	2.8600e-01	8.5742	78.217914	0.000788	7.875944	1.334221	-0.031458
 574	2.8650e-01	8.5529	78.080789	0.000687	6.866208	1.163167	-0.027425
 575	2.8700e-01	8.5339	77.939630	0.000707	7.068155	1.197378	-0.028232
 576	2.8750e-01	8.5138	77.810571	0.000646	6.462313	1.094745	-0.025812
 577	2.8800e-01	8.4937	77.697645	0.000565	5.654524	0.957902	-0.022585
 578	2.8850e-01	8.4735	77.580685	0.000586	5.856471	0.992113	-0.023392
 579	2.8900e-01	8.4531	77.455659	0.000626	6.260366	1.060535	-0.025005
 580	2.8950e-01	8.4332	77.403228	0.000263	2.625315	0.444740	-0.010486
 581	2.9000e-01	8.4137	77.274169	0.000646	6.462313	1.094745	-0.025812
 582	2.9050e-01	8.3936	77.076547	0.000990	9.895417	1.676329	-0.039524
 583	2.9100e-01	8.3731	76.983786	0.000464	4.644788	0.786848	-0.018552
 584	2.9150e-01	8.3536	76.939422	0.000222	2.221420	0.376319	-0.008873
 585	2.9200e-01	8.3344	76.705502	0.001171	11.712943	1.984226	-0.046784
 586	2.9250e-01	8.3133	76.608708	0.000485	4.846735	0.821059	-0.019359
 587	2.9300e-01	8.2935	76.503847	0.000525	5.250629	0.889481	-0.020972
 588	2.9350e-01	8.2739	76.282027	0.001111	11.107101	1.881594	-0.044364
 589	2.9400e-01	8.2538	76.197332	0.000424	4.240893	0.718427	-0.016939
 590	2.9450e-01	8.2327	76.140869	0.000283	2.827262	0.478951	-0.011293
 591	2.9500e-01	8.2135	75.983578	0.000788	7.875944	1.334221	-0.031458
 592	2.9550e-01	8.1931	75.874684	0.000545	5.452577	0.923691	-0.021779
 593	2.9600e-01	8.1735	75.753691	0.000606	6.058419	1.026324	-0.024199
 594	2.9650e-01	8.1531	75.564135	0.000949	9.491522	1.607907	-0.037911
 595	2.9700e-01	8.1329	75.447176	0.000586	5.856471	0.992113	-0.023392
 596	2.9750e-01	8.1128	75.398778	0.000242	2.423367	0.410530	-0.009679
 597	2.9800e-01	8.0939	75.253587	0.000727	7.270102	1.231589	-0.029038
 598	2.9850e-01	8.0725	75.043866	0.001050	10.501259	1.778961	-0.041944
 599	2.9900e-01	8.0533	74.995469	0.000242	2.423367	0.410530	-0.009679
 600	2.9950e-01	8.0328	74.854310	0.000707	7.068155	1.197378	-0.028232
 601	3.0000e-01	8.0139	74.672821	0.000909	9.087628	1.539486	-0.036298
 602	3.0050e-01	7.9926	74.604258	0.000343	3.433104	0.581584	-0.013713
 603	3.0100e-01	7.9736	74.491331	0.000565	5.654524	0.957902	-0.022585
 604	3.0150e-01	7.9535	74.346140	0.000727	7.270102	1.231589	-0.029038
 605	3.0200e-01	7.9333	74.221114	0.000626	6.260366	1.060535	-0.025005
 606	3.0250e-01	7.9126	74.079955	0.000707	7.068155	1.197378	-0.028232
 607	3.0300e-01	7.8931	73.926697	0.000767	7.673997	1.300010	-0.030652
 608	3.0350e-01	7.8735	73.854102	0.000364	3.635051	0.615794	-0.014519
 609	3.0400e-01	7.8528	73.721009	0.000666	6.664260	1.128956	-0.026618
 610	3.0450e-01	7.8333	73.608083	0.000565	5.654524	0.957902	-0.022585
 611	3.0500e-01	7.8137	73.495156	0.000565	5.654524	0.957902	-0.022585
 612	3.0550e-01	7.7930	73.337865	0.000788	7.875944	1.334221	-0.031458
 613	3.0600e-01	7.7728	73.148309	0.000949	9.491522	1.607907	-0.037911
 614	3.0650e-01	7.7527	73.075714	0.000364	3.635051	0.615794	-0.014519
 615	3.0700e-01	7.7321	72.910357	0.000828	8.279839	1.402643	-0.033071
 616	3.0750e-01	7.7136	72.769198	0.000707	7.068155	1.197378	-0.028232
 617	3.0800e-01	7.6935	72.712735	0.000283	2.827262	0.478951	-0.011293
 618	3.0850e-01	7.6733	72.527212	0.000929	9.289575	1.573697	-0.037105
 619	3.0900e-01	7.6532	72.450583	0.000384	3.836998	0.650005	-0.015326
 620	3.0950e-01	7.6331	72.289259	0.000808	8.077891	1.368432	-0.032265
 621	3.1000e-01	7.6132	72.160200	0.000646	6.462313	1.094745	-0.025812
 622	3.1050e-01	7.5934	72.031141	0.000646	6.462313	1.094745	-0.025812
 623	3.1100e-01	7.5726	71.849652	0.000909	9.087628	1.539486	-0.036298
 624	3.1150e-01	7.5534	71.760923	0.000444	4.442840	0.752638	-0.017746
 625	3.1200e-01	7.5336	71.635897	0.000626	6.260366	1.060535	-0.025005
 626	3.1250e-01	7.5134	71.474573	0.000808	8.077891	1.368432	-0.032265
 627	3.1300e-01	7.4939	71.377779	0.000485	4.846735	0.821059	-0.019359
 628	3.1350e-01	7.4731	71.256786	0.000606	6.058419	1.026324	-0.024199
 629	3.1400e-01	7.4536	71.135793	0.000606	6.058419	1.026324	-0.024199
 630	3.1450e-01	7.4335	70.950271	0.000929	9.289575	1.573697	-0.037105
 631	3.1500e-01	7.4135	70.869609	0.000404	4.038946	0.684216	-0.016132
 632	3.1550e-01	7.3935	70.651821	0.001091	10.905153	1.847383	-0.043557
 633	3.1600e-01	7.3744	70.555027	0.000485	4.846735	0.821059	-0.019359
 634	3.1650e-01	7.3529	70.442100	0.000565	5.654524	0.957902	-0.022585
 635	3.1700e-01	7.3331	70.329173	0.000565	5.654524	0.957902	-0.022585
 636	3.1750e-01	7.3135	70.188015	0.000707	7.068155	1.197378	-0.028232
 637	3.1800e-01	7.2931	70.002492	0.000929	9.289575	1.573697	-0.037105
 638	3.1850e-01	7.2729	69.954095	0.000242	2.423367	0.410530	-0.009679
 639	3.1900e-01	7.2528	69.768573	0.000929	9.289575	1.573697	-0.037105
 640	3.1950e-01	7.2327	69.679845	0.000444	4.442840	0.752638	-0.017746
 641	3.2000e-01	7.2127	69.526587	0.000767	7.673997	1.300010	-0.030652
 642	3.2050e-01	7.1930	69.361230	0.000828	8.279839	1.402643	-0.033071
 643	3.2100e-01	7.1741	69.260402	0.000505	5.048682	0.855270	-0.020165
 644	3.2150e-01	7.1530	69.062780	0.000990	9.895417	1.676329	-0.039524
 645	3.2200e-01	7.1338	68.982118	0.000404	4.038946	0.684216	-0.016132
 646	3.2250e-01	7.1130	68.800629	0.000909	9.087628	1.539486	-0.036298
 647	3.2300e-01	7.0935	68.679636	0.000606	6.058419	1.026324	-0.024199
 648	3.2350e-01	7.0734	68.546544	0.000666	6.664260	1.128956	-0.026618
 649	3.2400e-01	7.0544	68.429584	0.000586	5.856471	0.992113	-0.023392
 650	3.2450e-01	7.0328	68.312624	0.000586	5.856471	0.992113	-0.023392
 651	3.2500e-01	7.0135	68.147267	0.000828	8.279839	1.402643	-0.033071
 652	3.2550e-01	6.9937	68.014175	0.000666	6.664260	1.128956	-0.026618
 653	3.2600e-01	6.9733	67.828652	0.000929	9.289575	1.573697	-0.037105
 654	3.2650e-01	6.9537	67.703626	0.000626	6.260366	1.060535	-0.025005
 655	3.2700e-01	6.9330	67.614898	0.000444	4.442840	0.752638	-0.017746
 656	3.2750e-01	6.9135	67.518104	0.000485	4.846735	0.821059	-0.019359
 657	3.2800e-01	6.8939	67.344680	0.000868	8.683733	1.471064	-0.034685
 658	3.2850e-01	6.8736	67.159158	0.000929	9.289575	1.573697	-0.037105
 659	3.2900e-01	6.8536	67.046231	0.000565	5.654524	0.957902	-0.022585
 660	3.2950e-01	6.8344	66.888940	0.000788	7.875944	1.334221	-0.031458
 661	3.3000e-01	6.8134	66.751815	0.000687	6.866208	1.163167	-0.027425
 662	3.3050e-01	6.7938	66.667120	0.000424	4.240893	0.718427	-0.016939
 663	3.3100e-01	6.7737	66.505796	0.000808	8.077891	1.368432	-0.032265
 664	3.3150e-01	6.7532	66.376737	0.000646	6.462313	1.094745	-0.025812
 665	3.3200e-01	6.7337	66.251711	0.000626	6.260366	1.060535	-0.025005
 666	3.3250e-01	6.7133	66.062155	0.000949	9.491522	1.607907	-0.037911
 667	3.3300e-01	6.6940	65.900831	0.000808	8.077891	1.368432	-0.032265
 668	3.3350e-01	6.6739	65.791937	0.000545	5.452577	0.923691	-0.021779
 669	3.3400e-01	6.6544	65.674978	0.000586	5.856471	0.992113	-0.023392
 670	3.3450e-01	6.6338	65.558018	0.000586	5.856471	0.992113	-0.023392
 671	3.3500e-01	6.6138	65.388628	0.000848	8.481786	1.436853	-0.033878
 672	3.3550e-01	6.5930	65.259568	0.000646	6.462313	1.094745	-0.025812
 673	3.3600e-01	6.5741	65.070013	0.000949	9.491522	1.607907	-0.037911
 674	3.3650e-01	6.5524	65.017583	0.000263	2.625315	0.444740	-0.010486
 675	3.3700e-01	6.5329	64.811895	0.001030	10.299312	1.744751	-0.041138
 676	3.3750e-01	6.5143	64.690902	0.000606	6.058419	1.026324	-0.024199
 677	3.3800e-01	6.4929	64.408585	0.001414	14.136310	2.394756	-0.056463
 678	3.3850e-01	6.4734	64.428750	-0.000101	-1.009736	-0.171054	0.004033
 679	3.3900e-01	6.4532	64.247261	0.000909	9.087628	1.539486	-0.036298
 680	3.3950e-01	6.4337	64.094003	0.000767	7.673997	1.300010	-0.030652
 681	3.4000e-01	6.4136	63.968977	0.000626	6.260366	1.060535	-0.025005
 682	3.4050e-01	6.3922	63.803620	0.000828	8.279839	1.402643	-0.033071
 683	3.4100e-01	6.3730	63.698759	0.000525	5.250629	0.889481	-0.020972
 684	3.4150e-01	6.3522	63.577766	0.000606	6.058419	1.026324	-0.024199
 685	3.4200e-01	6.3330	63.388211	0.000949	9.491522	1.607907	-0.037911
 686	3.4250e-01	6.3138	63.162357	0.001131	11.309048	1.915805	-0.045171
 687	3.4300e-01	6.2933	63.077662	0.000424	4.240893	0.718427	-0.016939
 688	3.4350e-01	6.2735	62.964735	0.000565	5.654524	0.957902	-0.022585
 689	3.4400e-01	6.2537	62.767114	0.000990	9.895417	1.676329	-0.039524
 690	3.4450e-01	6.2335	62.686452	0.000404	4.038946	0.684216	-0.016132
 691	3.4500e-01	6.2140	62.521095	0.000828	8.279839	1.402643	-0.033071
 692	3.4550e-01	6.1938	62.404135	0.000586	5.856471	0.992113	-0.023392
 693	3.4600e-01	6.1737	62.279109	0.000626	6.260366	1.060535	-0.025005
 694	3.4650e-01	6.1523	62.081487	0.000990	9.895417	1.676329	-0.039524
 695	3.4700e-01	6.1340	62.000825	0.000404	4.038946	0.684216	-0.016132
 696	3.4750e-01	6.1145	61.835468	0.000828	8.279839	1.402643	-0.033071
 697	3.4800e-01	6.0933	61.674144	0.000808	8.077891	1.368432	-0.032265
 698	3.4850e-01	6.0736	61.484588	0.000949	9.491522	1.607907	-0.037911
 699	3.4900e-01	6.0541	61.399893	0.000424	4.240893	0.718427	-0.016939
 700	3.4950e-01	6.0330	61.266801	0.000666	6.664260	1.128956	-0.026618
 701	3.5000e-01	6.0138	61.133709	0.000666	6.664260	1.128956	-0.026618
 702	3.5050e-01	5.9937	60.992550	0.000707	7.068155	1.197378	-0.028232
 703	3.5100e-01	5.9729	60.762664	0.001151	11.510995	1.950015	-0.045977
 704	3.5150e-01	5.9531	60.601340	0.000808	8.077891	1.368432	-0.032265
 705	3.5200e-01	5.9334	60.500512	0.000505	5.048682	0.855270	-0.020165
 706	3.5250e-01	5.9137	60.335155	0.000828	8.279839	1.402643	-0.033071
 707	3.5300e-01	5.8932	60.177864	0.000788	7.875944	1.334221	-0.031458
 708	3.5350e-01	5.8729	60.060904	0.000586	5.856471	0.992113	-0.023392
 709	3.5400e-01	5.8533	59.919746	0.000707	7.068155	1.197378	-0.028232
 710	3.5450e-01	5.8337	59.770521	0.000747	7.472050	1.265799	-0.029845
 711	3.5500e-01	5.8127	59.605164	0.000828	8.279839	1.402643	-0.033071
 712	3.5550e-01	5.7935	59.464006	0.000707	7.068155	1.197378	-0.028232
 713	3.5600e-01	5.7730	59.294616	0.000848	8.481786	1.436853	-0.033878
 714	3.5650e-01	5.7535	59.137325	0.000788	7.875944	1.334221	-0.031458
 715	3.5700e-01	5.7336	58.943736	0.000969	9.693470	1.642118	-0.038718
 716	3.5750e-01	5.7129	58.818710	0.000626	6.260366	1.060535	-0.025005
 717	3.5800e-01	5.6934	58.721916	0.000485	4.846735	0.821059	-0.019359
 718	3.5850e-01	5.6723	58.552526	0.000848	8.481786	1.436853	-0.033878
 719	3.5900e-01	5.6526	58.399268	0.000767	7.673997	1.300010	-0.030652
 720	3.5950e-01	5.6335	58.225845	0.000868	8.683733	1.471064	-0.034685
 721	3.6000e-01	5.6129	58.116951	0.000545	5.452577	0.923691	-0.021779
 722	3.6050e-01	5.5939	57.943528	0.000868	8.683733	1.471064	-0.034685
 723	3.6100e-01	5.5740	57.826568	0.000586	5.856471	0.992113	-0.023392
 724	3.6150e-01	5.5536	57.657178	0.000848	8.481786	1.436853	-0.033878
 725	3.6200e-01	5.5341	57.532152	0.000626	6.260366	1.060535	-0.025005
 726	3.6250e-01	5.5136	57.306298	0.001131	11.309048	1.915805	-0.045171
 727	3.6300e-01	5.4932	57.197404	0.000545	5.452577	0.923691	-0.021779
 728	3.6350e-01	5.4724	57.056246	0.000707	7.068155	1.197378	-0.028232
 729	3.6400e-01	5.4532	56.870723	0.000929	9.289575	1.573697	-0.037105
 730	3.6450e-01	5.4333	56.757797	0.000565	5.654524	0.957902	-0.022585
 731	3.6500e-01	5.4132	56.685201	0.000364	3.635051	0.615794	-0.014519
 732	3.6550e-01	5.3934	56.499678	0.000929	9.289575	1.573697	-0.037105
 733	3.6600e-01	5.3725	56.318189	0.000909	9.087628	1.539486	-0.036298
 734	3.6650e-01	5.3516	56.160898	0.000788	7.875944	1.334221	-0.031458
 735	3.6700e-01	5.3333	55.959243	0.001010	10.097364	1.710540	-0.040331
 736	3.6750e-01	5.3137	55.793886	0.000828	8.279839	1.402643	-0.033071
 737	3.6800e-01	5.2933	55.652728	0.000707	7.068155	1.197378	-0.028232
 738	3.6850e-01	5.2731	55.475271	0.000889	8.885681	1.505275	-0.035491
 739	3.6900e-01	5.2533	55.354278	0.000606	6.058419	1.026324	-0.024199
 740	3.6950e-01	5.2332	55.192954	0.000808	8.077891	1.368432	-0.032265
 741	3.7000e-01	5.2126	55.011465	0.000909	9.087628	1.539486	-0.036298
 742	3.7050e-01	5.1935	54.838042	0.000868	8.683733	1.471064	-0.034685
 743	3.7100e-01	5.1736	54.725115	0.000565	5.654524	0.957902	-0.022585
 744	3.7150e-01	5.1529	54.499261	0.001131	11.309048	1.915805	-0.045171
 745	3.7200e-01	5.1332	54.382302	0.000586	5.856471	0.992113	-0.023392
 746	3.7250e-01	5.1129	54.253242	0.000646	6.462313	1.094745	-0.025812
 747	3.7300e-01	5.0925	54.047554	0.001030	10.299312	1.744751	-0.041138
 748	3.7350e-01	5.0726	53.958826	0.000444	4.442840	0.752638	-0.017746
 749	3.7400e-01	5.0513	53.797502	0.000808	8.077891	1.368432	-0.032265
 750	3.7450e-01	5.0336	53.660377	0.000687	6.866208	1.163167	-0.027425
 751	3.7500e-01	5.0137	53.446623	0.001070	10.703206	1.813172	-0.042751
 752	3.7550e-01	4.9933	53.341762	0.000525	5.250629	0.889481	-0.020972
 753	3.7600e-01	4.9733	53.176405	0.000828	8.279839	1.402643	-0.033071
 754	3.7650e-01	4.9533	52.978783	0.000990	9.895417	1.676329	-0.039524
 755	3.7700e-01	4.9341	52.837625	0.000707	7.068155	1.197378	-0.028232
 756	3.7750e-01	4.9136	52.656135	0.000909	9.087628	1.539486	-0.036298
 757	3.7800e-01	4.8932	52.506911	0.000747	7.472050	1.265799	-0.029845
 758	3.7850e-01	4.8727	52.333487	0.000868	8.683733	1.471064	-0.034685
 759	3.7900e-01	4.8529	52.188296	0.000727	7.270102	1.231589	-0.029038
 760	3.7950e-01	4.8334	52.002773	0.000929	9.289575	1.573697	-0.037105
 761	3.8000e-01	4.8132	51.821284	0.000909	9.087628	1.539486	-0.036298
 762	3.8050e-01	4.7932	51.696258	0.000626	6.260366	1.060535	-0.025005
 763	3.8100e-01	4.7736	51.571232	0.000626	6.260366	1.060535	-0.025005
 764	3.8150e-01	4.7528	51.381676	0.000949	9.491522	1.607907	-0.037911
 765	3.8200e-01	4.7327	51.196154	0.000929	9.289575	1.573697	-0.037105
 766	3.8250e-01	4.7125	51.103392	0.000464	4.644788	0.786848	-0.018552
 767	3.8300e-01	4.6936	50.958201	0.000727	7.270102	1.231589	-0.029038
 768	3.8350e-01	4.6732	50.704116	0.001272	12.722679	2.155280	-0.050817
 769	3.8400e-01	4.6530	50.591189	0.000565	5.654524	0.957902	-0.022585
 770	3.8450e-01	4.6332	50.393567	0.000990	9.895417	1.676329	-0.039524
 771	3.8500e-01	4.6124	50.276607	0.000586	5.856471	0.992113	-0.023392
 772	3.8550e-01	4.5920	50.062853	0.001070	10.703206	1.813172	-0.042751
 773	3.8600e-01	4.5728	49.921694	0.000707	7.068155	1.197378	-0.028232
 774	3.8650e-01	4.5512	49.768437	0.000767	7.673997	1.300010	-0.030652
 775	3.8700e-01	4.5331	49.599047	0.000848	8.481786	1.436853	-0.033878
 776	3.8750e-01	4.5129	49.393359	0.001030	10.299312	1.744751	-0.041138
 777	3.8800e-01	4.4925	49.223968	0.000848	8.481786	1.436853	-0.033878
 778	3.8850e-01	4.4733	49.107009	0.000586	5.856471	0.992113	-0.023392
 779	3.8900e-01	4.4528	48.957784	0.000747	7.472050	1.265799	-0.029845
 780	3.8950e-01	4.4333	48.748063	0.001050	10.501259	1.778961	-0.041944
 781	3.9000e-01	4.4119	48.594805	0.000767	7.673997	1.300010	-0.030652
 782	3.9050e-01	4.3933	48.437514	0.000788	7.875944	1.334221	-0.031458
 783	3.9100e-01	4.3732	48.312488	0.000626	6.260366	1.060535	-0.025005
 784	3.9150e-01	4.3521	48.066469	0.001232	12.318784	2.086859	-0.049204
 785	3.9200e-01	4.3329	47.941443	0.000626	6.260366	1.060535	-0.025005
 786	3.9250e-01	4.3126	47.780119	0.000808	8.077891	1.368432	-0.032265
 787	3.9300e-01	4.2929	47.582497	0.000990	9.895417	1.676329	-0.039524
 788	3.9350e-01	4.2731	47.469571	0.000565	5.654524	0.957902	-0.022585
 789	3.9400e-01	4.2529	47.239684	0.001151	11.510995	1.950015	-0.045977
 790	3.9450e-01	4.2319	47.094492	0.000727	7.270102	1.231589	-0.029038
 791	3.9500e-01	4.2130	46.945268	0.000747	7.472050	1.265799	-0.029845
 792	3.9550e-01	4.1931	46.767811	0.000889	8.885681	1.505275	-0.035491
 793	3.9600e-01	4.1736	46.582289	0.000929	9.289575	1.573697	-0.037105
 794	3.9650e-01	4.1522	46.429031	0.000767	7.673997	1.300010	-0.030652
 795	3.9700e-01	4.1333	46.295939	0.000666	6.664260	1.128956	-0.026618
 796	3.9750e-01	4.1125	46.102350	0.000969	9.693470	1.642118	-0.038718
 797	3.9800e-01	4.0913	45.904728	0.000990	9.895417	1.676329	-0.039524
 798	3.9850e-01	4.0732	45.703073	0.001010	10.097364	1.710540	-0.040331
 799	3.9900e-01	4.0521	45.545783	0.000788	7.875944	1.334221	-0.031458
 800	3.9950e-01	4.0323	45.388492	0.000788	7.875944	1.334221	-0.031458
 801	4.0000e-01	4.0125	45.231201	0.000788	7.875944	1.334221	-0.031458
 802	4.0050e-01	3.9923	45.073910	0.000788	7.875944	1.334221	-0.031458
 803	4.0100e-01	3.9719	44.856123	0.001091	10.905153	1.847383	-0.043557
 804	4.0150e-01	3.9529	44.702865	0.000767	7.673997	1.300010	-0.030652
 805	4.0200e-01	3.9331	44.553640	0.000747	7.472050	1.265799	-0.029845
 806	4.0250e-01	3.9120	44.392316	0.000808	8.077891	1.368432	-0.032265
 807	4.0300e-01	3.8932	44.174529	0.001091	10.905153	1.847383	-0.043557
 808	4.0350e-01	3.8727	44.033371	0.000707	7.068155	1.197378	-0.028232
 809	4.0400e-01	3.8528	43.835749	0.000990	9.895417	1.676329	-0.039524
 810	4.0450e-01	3.8330	43.646193	0.000949	9.491522	1.607907	-0.037911
 811	4.0500e-01	3.8129	43.501002	0.000727	7.270102	1.231589	-0.029038
 812	4.0550e-01	3.7915	43.319512	0.000909	9.087628	1.539486	-0.036298
 813	4.0600e-01	3.7730	43.182387	0.000687	6.866208	1.163167	-0.027425
 814	4.0650e-01	3.7527	42.944434	0.001191	11.914890	2.018437	-0.047591
 815	4.0700e-01	3.7335	42.863772	0.000404	4.038946	0.684216	-0.016132
 816	4.0750e-01	3.7128	42.621786	0.001212	12.116837	2.052648	-0.048397
 817	4.0800e-01	3.6929	42.412065	0.001050	10.501259	1.778961	-0.041944
 818	4.0850e-01	3.6725	42.299138	0.000565	5.654524	0.957902	-0.022585
 819	4.0900e-01	3.6530	42.117649	0.000909	9.087628	1.539486	-0.036298
 820	4.0950e-01	3.6317	41.940192	0.000889	8.885681	1.505275	-0.035491
 821	4.1000e-01	3.6122	41.762736	0.000889	8.885681	1.505275	-0.035491
 822	4.1050e-01	3.5925	41.585280	0.000889	8.885681	1.505275	-0.035491
 823	4.1100e-01	3.5735	41.371525	0.001070	10.703206	1.813172	-0.042751
 824	4.1150e-01	3.5522	41.198102	0.000868	8.683733	1.471064	-0.034685
 825	4.1200e-01	3.5339	41.028712	0.000848	8.481786	1.436853	-0.033878
 826	4.1250e-01	3.5130	40.859322	0.000848	8.481786	1.436853	-0.033878
 827	4.1300e-01	3.4932	40.710097	0.000747	7.472050	1.265799	-0.029845
 828	4.1350e-01	3.4729	40.572972	0.000687	6.866208	1.163167	-0.027425
 829	4.1400e-01	3.4529	40.330986	0.001212	12.116837	2.052648	-0.048397
 830	4.1450e-01	3.4332	40.101099	0.001151	11.510995	1.950015	-0.045977
 831	4.1500e-01	3.4131	39.976073	0.000626	6.260366	1.060535	-0.025005
 832	4.1550e-01	3.3929	39.790551	0.000929	9.289575	1.573697	-0.037105
 833	4.1600e-01	3.3729	39.600995	0.000949	9.491522	1.607907	-0.037911
 834	4.1650e-01	3.3527	39.427572	0.000868	8.683733	1.471064	-0.034685
 835	4.1700e-01	3.3321	39.238016	0.000949	9.491522	1.607907	-0.037911
 836	4.1750e-01	3.3123	39.092825	0.000727	7.270102	1.231589	-0.029038
 837	4.1800e-01	3.2932	38.883104	0.001050	10.501259	1.778961	-0.041944
 838	4.1850e-01	3.2730	38.669349	0.001070	10.703206	1.813172	-0.042751
 839	4.1900e-01	3.2522	38.548356	0.000606	6.058419	1.026324	-0.024199
 840	4.1950e-01	3.2330	38.374933	0.000868	8.683733	1.471064	-0.034685
 841	4.2000e-01	3.2126	38.161179	0.001070	10.703206	1.813172	-0.042751
 842	4.2050e-01	3.1927	37.967590	0.000969	9.693470	1.642118	-0.038718
 843	4.2100e-01	3.1720	37.890961	0.000384	3.836998	0.650005	-0.015326
 844	4.2150e-01	3.1527	37.620744	0.001353	13.530468	2.292123	-0.054044
 845	4.2200e-01	3.1327	37.463453	0.000788	7.875944	1.334221	-0.031458
 846	4.2250e-01	3.1128	37.257765	0.001030	10.299312	1.744751	-0.041138
 847	4.2300e-01	3.0930	37.084342	0.000868	8.683733	1.471064	-0.034685
 848	4.2350e-01	3.0728	36.906885	0.000889	8.885681	1.505275	-0.035491
 849	4.2400e-01	3.0525	36.705230	0.001010	10.097364	1.710540	-0.040331
 850	4.2450e-01	3.0331	36.543906	0.000808	8.077891	1.368432	-0.032265
 851	4.2500e-01	3.0122	36.301921	0.001212	12.116837	2.052648	-0.048397
 852	4.2550e-01	2.9929	36.164795	0.000687	6.866208	1.163167	-0.027425
 853	4.2600e-01	2.9727	36.015571	0.000747	7.472050	1.265799	-0.029845
 854	4.2650e-01	2.9533	35.777618	0.001191	11.914890	2.018437	-0.047591
 855	4.2700e-01	2.9330	35.632426	0.000727	7.270102	1.231589	-0.029038
 856	4.2750e-01	2.9124	35.382374	0.001252	12.520732	2.121069	-0.050010
 857	4.2800e-01	2.8925	35.212984	0.000848	8.481786	1.436853	-0.033878
 858	4.2850e-01	2.8723	35.051660	0.000808	8.077891	1.368432	-0.032265
 859	4.2900e-01	2.8529	34.890336	0.000808	8.077891	1.368432	-0.032265
 860	4.2950e-01	2.8320	34.692714	0.000990	9.895417	1.676329	-0.039524
 861	4.3000e-01	2.8119	34.470894	0.001111	11.107101	1.881594	-0.044364
 862	4.3050e-01	2.7893	34.289404	0.000909	9.087628	1.539486	-0.036298
 863	4.3100e-01	2.7730	34.184544	0.000525	5.250629	0.889481	-0.020972
 864	4.3150e-01	2.7527	33.882061	0.001515	15.146046	2.565810	-0.060496
 865	4.3200e-01	2.7319	33.712671	0.000848	8.481786	1.436853	-0.033878
 866	4.3250e-01	2.7119	33.563447	0.000747	7.472050	1.265799	-0.029845
 867	4.3300e-01	2.6923	33.329527	0.001171	11.712943	1.984226	-0.046784
 868	4.3350e-01	2.6716	33.168203	0.000808	8.077891	1.368432	-0.032265
 869	4.3400e-01	2.6521	32.990747	0.000889	8.885681	1.505275	-0.035491
 870	4.3450e-01	2.6324	32.809257	0.000909	9.087628	1.539486	-0.036298
 871	4.3500e-01	2.6123	32.619701	0.000949	9.491522	1.607907	-0.037911
 872	4.3550e-01	2.5917	32.446278	0.000868	8.683733	1.471064	-0.034685
 873	4.3600e-01	2.5726	32.196226	0.001252	12.520732	2.121069	-0.050010
 874	4.3650e-01	2.5523	32.018770	0.000889	8.885681	1.505275	-0.035491
 875	4.3700e-01	2.5314	31.800982	0.001091	10.905153	1.847383	-0.043557
 876	4.3750e-01	2.5128	31.651758	0.000747	7.472050	1.265799	-0.029845
 877	4.3800e-01	2.4924	31.442037	0.001050	10.501259	1.778961	-0.041944
 878	4.3850e-01	2.4722	31.292812	0.000747	7.472050	1.265799	-0.029845
 879	4.3900e-01	2.4524	31.046793	0.001232	12.318784	2.086859	-0.049204
 880	4.3950e-01	2.4328	30.913701	0.000666	6.664260	1.128956	-0.026618
 881	4.4000e-01	2.4125	30.699947	0.001070	10.703206	1.813172	-0.042751
 882	4.4050e-01	2.3926	30.461994	0.001191	11.914890	2.018437	-0.047591
 883	4.4100e-01	2.3737	30.341001	0.000606	6.058419	1.026324	-0.024199
 884	4.4150e-01	2.3518	30.082882	0.001292	12.924626	2.189491	-0.051624
 885	4.4200e-01	2.3335	29.933658	0.000747	7.472050	1.265799	-0.029845
 886	4.4250e-01	2.3125	29.715871	0.001091	10.905153	1.847383	-0.043557
 887	4.4300e-01	2.2922	29.502116	0.001070	10.703206	1.813172	-0.042751
 888	4.4350e-01	2.2722	29.352892	0.000747	7.472050	1.265799	-0.029845
 889	4.4400e-01	2.2529	29.110906	0.001212	12.116837	2.052648	-0.048397
 890	4.4450e-01	2.2324	28.917317	0.000969	9.693470	1.642118	-0.038718
 891	4.4500e-01	2.2124	28.747927	0.000848	8.481786	1.436853	-0.033878
 892	4.4550e-01	2.1924	28.457544	0.001454	14.540204	2.463177	-0.058077
 893	4.4600e-01	2.1731	28.336551	0.000606	6.058419	1.026324	-0.024199
 894	4.4650e-01	2.1529	28.126830	0.001050	10.501259	1.778961	-0.041944
 895	4.4700e-01	2.1326	27.953406	0.000868	8.683733	1.471064	-0.034685
 896	4.4750e-01	2.1121	27.784016	0.000848	8.481786	1.436853	-0.033878
 897	4.4800e-01	2.0927	27.566229	0.001091	10.905153	1.847383	-0.043557
 898	4.4850e-01	2.0728	27.396839	0.000848	8.481786	1.436853	-0.033878
 899	4.4900e-01	2.0520	27.183085	0.001070	10.703206	1.813172	-0.042751
 900	4.4950e-01	2.0319	26.973363	0.001050	10.501259	1.778961	-0.041944
 901	4.5000e-01	2.0125	26.775742	0.000990	9.895417	1.676329	-0.039524
 902	4.5050e-01	1.9919	26.578120	0.000990	9.895417	1.676329	-0.039524
 903	4.5100e-01	1.9721	26.372432	0.001030	10.299312	1.744751	-0.041138
 904	4.5150e-01	1.9528	26.150611	0.001111	11.107101	1.881594	-0.044364
 905	4.5200e-01	1.9322	25.952990	0.000990	9.895417	1.676329	-0.039524
 906	4.5250e-01	1.9122	25.791666	0.000808	8.077891	1.368432	-0.032265
 907	4.5300e-01	1.8918	25.505316	0.001434	14.338257	2.428967	-0.057270
 908	4.5350e-01	1.8718	25.364157	0.000707	7.068155	1.197378	-0.028232
 909	4.5400e-01	1.8524	25.154436	0.001050	10.501259	1.778961	-0.041944
 910	4.5450e-01	1.8324	24.993112	0.000808	8.077891	1.368432	-0.032265
 911	4.5500e-01	1.8127	24.743060	0.001252	12.520732	2.121069	-0.050010
 912	4.5550e-01	1.7912	24.605935	0.000687	6.866208	1.163167	-0.027425
 913	4.5600e-01	1.7725	24.428478	0.000889	8.885681	1.505275	-0.035491
 914	4.5650e-01	1.7523	24.182459	0.001232	12.318784	2.086859	-0.049204
 915	4.5700e-01	1.7323	23.920308	0.001313	13.126574	2.223702	-0.052430
 916	4.5750e-01	1.7116	23.787216	0.000666	6.664260	1.128956	-0.026618
 917	4.5800e-01	1.6922	23.545230	0.001212	12.116837	2.052648	-0.048397
 918	4.5850e-01	1.6725	23.347608	0.000990	9.895417	1.676329	-0.039524
 919	4.5900e-01	1.6519	23.141920	0.001030	10.299312	1.744751	-0.041138
 920	4.5950e-01	1.6324	22.924132	0.001091	10.905153	1.847383	-0.043557
 921	4.6000e-01	1.6126	22.766842	0.000788	7.875944	1.334221	-0.031458
 922	4.6050e-01	1.5919	22.561154	0.001030	10.299312	1.744751	-0.041138
 923	4.6100e-01	1.5723	22.311101	0.001252	12.520732	2.121069	-0.050010
 924	4.6150e-01	1.5521	22.169943	0.000707	7.068155	1.197378	-0.028232
 925	4.6200e-01	1.5318	21.996520	0.000868	8.683733	1.471064	-0.034685
 926	4.6250e-01	1.5123	21.677905	0.001595	15.953835	2.702653	-0.063723
 927	4.6300e-01	1.4925	21.504482	0.000868	8.683733	1.471064	-0.034685
 928	4.6350e-01	1.4725	21.331059	0.000868	8.683733	1.471064	-0.034685
 929	4.6400e-01	1.4510	21.089073	0.001212	12.116837	2.052648	-0.048397
 930	4.6450e-01	1.4316	20.903550	0.000929	9.289575	1.573697	-0.037105
 931	4.6500e-01	1.4114	20.653498	0.001252	12.520732	2.121069	-0.050010
 932	4.6550e-01	1.3920	20.467975	0.000929	9.289575	1.573697	-0.037105
 933	4.6600e-01	1.3713	20.274387	0.000969	9.693470	1.642118	-0.038718
 934	4.6650e-01	1.3520	20.024335	0.001252	12.520732	2.121069	-0.050010
 935	4.6700e-01	1.3315	19.907375	0.000586	5.856471	0.992113	-0.023392
 936	4.6750e-01	1.3115	19.693620	0.001070	10.703206	1.813172	-0.042751
 937	4.6800e-01	1.2923	19.447601	0.001232	12.318784	2.086859	-0.049204
 938	4.6850e-01	1.2711	19.258046	0.000949	9.491522	1.607907	-0.037911
 939	4.6900e-01	1.2527	19.012027	0.001232	12.318784	2.086859	-0.049204
 940	4.6950e-01	1.2332	18.834570	0.000889	8.885681	1.505275	-0.035491
 941	4.7000e-01	1.2128	18.673247	0.000808	8.077891	1.368432	-0.032265
 942	4.7050e-01	1.1922	18.415128	0.001292	12.924626	2.189491	-0.051624
 943	4.7100e-01	1.1726	18.225573	0.000949	9.491522	1.607907	-0.037911
 944	4.7150e-01	1.1527	18.015851	0.001050	10.501259	1.778961	-0.041944
 945	4.7200e-01	1.1330	17.769832	0.001232	12.318784	2.086859	-0.049204
 946	4.7250e-01	1.1130	17.568178	0.001010	10.097364	1.710540	-0.040331
 947	4.7300e-01	1.0922	17.386688	0.000909	9.087628	1.539486	-0.036298
 948	4.7350e-01	1.0730	17.193099	0.000969	9.693470	1.642118	-0.038718
 949	4.7400e-01	1.0522	16.947080	0.001232	12.318784	2.086859	-0.049204
 950	4.7450e-01	1.0323	16.765591	0.000909	9.087628	1.539486	-0.036298
 951	4.7500e-01	1.0128	16.563936	0.001010	10.097364	1.710540	-0.040331
 952	4.7550e-01	0.9918	16.269520	0.001474	14.742152	2.497388	-0.058883
 953	4.7600e-01	0.9722	15.842011	0.002141	21.406412	3.626344	-0.085502
 954	4.7650e-01	0.9518	16.015435	-0.000868	-8.683733	-1.471064	0.034685
 955	4.7700e-01	0.9317	15.729085	0.001434	14.338257	2.428967	-0.057270
 956	4.7750e-01	0.9123	15.495165	0.001171	11.712943	1.984226	-0.046784
 957	4.7800e-01	0.8927	15.237047	0.001292	12.924626	2.189491	-0.051624
 958	4.7850e-01	0.8722	15.047491	0.000949	9.491522	1.607907	-0.037911
 959	4.7900e-01	0.8521	14.853902	0.000969	9.693470	1.642118	-0.038718
 960	4.7950e-01	0.8324	14.628049	0.001131	11.309048	1.915805	-0.045171
 961	4.8000e-01	0.8125	14.390096	0.001191	11.914890	2.018437	-0.047591
 962	4.8050e-01	0.7922	14.220706	0.000848	8.481786	1.436853	-0.033878
 963	4.8100e-01	0.7730	14.067448	0.000767	7.673997	1.300010	-0.030652
 964	4.8150e-01	0.7527	13.813363	0.001272	12.722679	2.155280	-0.050817
 965	4.8200e-01	0.7314	13.579443	0.001171	11.712943	1.984226	-0.046784
 966	4.8250e-01	0.7119	13.353589	0.001131	11.309048	1.915805	-0.045171
 967	4.8300e-01	0.6924	13.164034	0.000949	9.491522	1.607907	-0.037911
 968	4.8350e-01	0.6721	12.970445	0.000969	9.693470	1.642118	-0.038718
 969	4.8400e-01	0.6516	12.776856	0.000969	9.693470	1.642118	-0.038718
 970	4.8450e-01	0.6323	12.514705	0.001313	13.126574	2.223702	-0.052430
 971	4.8500e-01	0.6123	12.349348	0.000828	8.279839	1.402643	-0.033071
 972	4.8550e-01	0.5923	12.131561	0.001091	10.905153	1.847383	-0.043557
 973	4.8600e-01	0.5724	11.909740	0.001111	11.107101	1.881594	-0.044364
 974	4.8650e-01	0.5519	11.712118	0.000990	9.895417	1.676329	-0.039524
 975	4.8700e-01	0.5320	11.462066	0.001252	12.520732	2.121069	-0.050010
 976	4.8750e-01	0.5121	11.240246	0.001111	11.107101	1.881594	-0.044364
 977	4.8800e-01	0.4916	10.957929	0.001414	14.136310	2.394756	-0.056463
 978	4.8850e-01	0.4716	10.784506	0.000868	8.683733	1.471064	-0.034685
 979	4.8900e-01	0.4519	10.562685	0.001111	11.107101	1.881594	-0.044364
 980	4.8950e-01	0.4320	10.405394	0.000788	7.875944	1.334221	-0.031458
 981	4.9000e-01	0.4134	10.159375	0.001232	12.318784	2.086859	-0.049204
 982	4.9050e-01	0.3922	9.953687	0.001030	10.299312	1.744751	-0.041138
 983	4.9100e-01	0.3722	9.735900	0.001091	10.905153	1.847383	-0.043557
 984	4.9150e-01	0.3519	9.481815	0.001272	12.722679	2.155280	-0.050817
 985	4.9200e-01	0.3326	9.264027	0.001091	10.905153	1.847383	-0.043557
 986	4.9250e-01	0.3115	9.013975	0.001252	12.520732	2.121069	-0.050010
 987	4.9300e-01	0.2914	8.840552	0.000868	8.683733	1.471064	-0.034685
 988	4.9350e-01	0.2719	8.687294	0.000767	7.673997	1.300010	-0.030652
 989	4.9400e-01	0.2511	8.437242	0.001252	12.520732	2.121069	-0.050010
 990	4.9450e-01	0.2324	8.219455	0.001091	10.905153	1.847383	-0.043557
 991	4.9500e-01	0.2134	7.997635	0.001111	11.107101	1.881594	-0.044364
 992	4.9550e-01	0.1914	7.755649	0.001212	12.116837	2.052648	-0.048397
 993	4.9600e-01	0.1722	7.558027	0.000990	9.895417	1.676329	-0.039524
 994	4.9650e-01	0.1516	7.275710	0.001414	14.136310	2.394756	-0.056463
 995	4.9700e-01	0.1312	7.090187	0.000929	9.289575	1.573697	-0.037105
 996	4.9750e-01	0.1121	6.860301	0.001151	11.510995	1.950015	-0.045977
 997	4.9800e-01	0.0922	6.682844	0.000889	8.885681	1.505275	-0.035491
 998	4.9850e-01	0.0723	6.477156	0.001030	10.299312	1.744751	-0.041138
 999	4.9900e-01	0.0520	6.194839	0.001414	14.136310	2.394756	-0.056463
1000	4.9950e-01	0.0320	6.013350	0.000909	9.087628	1.539486	-0.036298
1001	5.0000e-01	0.0121	5.795563	0.001091	10.905153	1.847383	-0.043557
1002	5.0050e-01	-0.0080	5.545511	0.001252	12.520732	2.121069	-0.050010
1003	5.0100e-01	-0.0259	5.416451	0.000646	6.462313	1.094745	-0.025812
1004	5.0150e-01	-0.0463	5.126068	0.001454	14.540204	2.463177	-0.058077
1005	5.0200e-01	-0.0665	4.932480	0.000969	9.693470	1.642118	-0.038718
1006	5.0250e-01	-0.0863	4.714692	0.001091	10.905153	1.847383	-0.043557
1007	5.0300e-01	-0.1069	4.565468	0.000747	7.472050	1.265799	-0.029845
1008	5.0350e-01	-0.1270	4.343647	0.001111	11.107101	1.881594	-0.044364
1009	5.0400e-01	-0.1472	4.105694	0.001191	11.914890	2.018437	-0.047591
1010	5.0450e-01	-0.1672	3.859675	0.001232	12.318784	2.086859	-0.049204
1011	5.0500e-01	-0.1864	3.706418	0.000767	7.673997	1.300010	-0.030652
1012	5.0550e-01	-0.2065	3.371670	0.001676	16.761625	2.839496	-0.066949
1013	5.0600e-01	-0.2259	3.202280	0.000848	8.481786	1.436853	-0.033878
1014	5.0650e-01	-0.2455	2.952228	0.001252	12.520732	2.121069	-0.050010
1015	5.0700e-01	-0.2665	2.726375	0.001131	11.309048	1.915805	-0.045171
1016	5.0750e-01	-0.2869	2.504554	0.001111	11.107101	1.881594	-0.044364
1017	5.0800e-01	-0.3059	2.343230	0.000808	8.077891	1.368432	-0.032265
1018	5.0850e-01	-0.3268	2.105277	0.001191	11.914890	2.018437	-0.047591
1019	5.0900e-01	-0.3461	1.867325	0.001191	11.914890	2.018437	-0.047591
1020	5.0950e-01	-0.3666	1.629372	0.001191	11.914890	2.018437	-0.047591
1021	5.1000e-01	-0.3869	1.455949	0.000868	8.683733	1.471064	-0.034685
1022	5.1050e-01	-0.4068	1.246227	0.001050	10.501259	1.778961	-0.041944
1023	5.1100e-01	-0.4269	1.008275	0.001191	11.914890	2.018437	-0.047591
1024	5.1150e-01	-0.4465	0.810653	0.000990	9.895417	1.676329	-0.039524
1025	5.1200e-01	-0.4668	0.488005	0.001616	16.155783	2.736864	-0.064530
1026	5.1250e-01	-0.4868	0.318615	0.000848	8.481786	1.436853	-0.033878
1027	5.1300e-01	-0.5071	0.137125	0.000909	9.087628	1.539486	-0.036298
1028	5.1350e-01	-0.5267	-0.116960	0.001272	12.722679	2.155280	-0.050817
1029	5.1400e-01	-0.5466	-0.338780	0.001111	11.107101	1.881594	-0.044364
1030	5.1450e-01	-0.5679	-0.576733	0.001191	11.914890	2.018437	-0.047591
1031	5.1500e-01	-0.5871	-0.790487	0.001070	10.703206	1.813172	-0.042751
1032	5.1550e-01	-0.6065	-0.996175	0.001030	10.299312	1.744751	-0.041138
1033	5.1600e-01	-0.6271	-1.270426	0.001373	13.732415	2.326334	-0.054850
1034	5.1650e-01	-0.6468	-1.423684	0.000767	7.673997	1.300010	-0.030652
1035	5.1700e-01	-0.6668	-1.645504	0.001111	11.107101	1.881594	-0.044364
1036	5.1750e-01	-0.6874	-1.867325	0.001111	11.107101	1.881594	-0.044364
1037	5.1800e-01	-0.7069	-2.105277	0.001191	11.914890	2.018437	-0.047591
1038	5.1850e-01	-0.7279	-2.319032	0.001070	10.703206	1.813172	-0.042751
1039	5.1900e-01	-0.7456	-2.528753	0.001050	10.501259	1.778961	-0.041944
1040	5.1950e-01	-0.7664	-2.742507	0.001070	10.703206	1.813172	-0.042751
1041	5.2000e-01	-0.7864	-2.964327	0.001111	11.107101	1.881594	-0.044364
1042	5.2050e-01	-0.8070	-3.157916	0.000969	9.693470	1.642118	-0.038718
1043	5.2100e-01	-0.8271	-3.480564	0.001616	16.155783	2.736864	-0.064530
1044	5.2150e-01	-0.8458	-3.637855	0.000788	7.875944	1.334221	-0.031458
1045	5.2200e-01	-0.8666	-3.887907	0.001252	12.520732	2.121069	-0.050010
1046	5.2250e-01	-0.8874	-3.928238	0.000202	2.019473	0.342108	-0.008066
1047	5.2300e-01	-0.9071	-4.331548	0.002019	20.194728	3.421080	-0.080662
1048	5.2350e-01	-0.9267	-4.500938	0.000848	8.481786	1.436853	-0.033878
1049	5.2400e-01	-0.9464	-4.755023	0.001272	12.722679	2.155280	-0.050817
1050	5.2450e-01	-0.9663	-4.908281	0.000767	7.673997	1.300010	-0.030652
1051	5.2500e-01	-0.9865	-5.206730	0.001494	14.944099	2.531599	-0.059690
1052	5.2550e-01	-1.0073	-5.444683	0.001191	11.914890	2.018437	-0.047591
1053	5.2600e-01	-1.0267	-5.654404	0.001050	10.501259	1.778961	-0.041944
1054	5.2650e-01	-1.0468	-5.880258	0.001131	11.309048	1.915805	-0.045171
1055	5.2700e-01	-1.0672	-6.114177	0.001171	11.712943	1.984226	-0.046784
1056	5.2750e-01	-1.0868	-6.307766	0.000969	9.693470	1.642118	-0.038718
1057	5.2800e-01	-1.1067	-6.509421	0.001010	10.097364	1.710540	-0.040331
1058	5.2850e-01	-1.1270	-6.731242	0.001111	11.107101	1.881594	-0.044364
1059	5.2900e-01	-1.1467	-6.993393	0.001313	13.126574	2.223702	-0.052430
1060	5.2950e-01	-1.1665	-7.239412	0.001232	12.318784	2.086859	-0.049204
1061	5.3000e-01	-1.1872	-7.368471	0.000646	6.462313	1.094745	-0.025812
1062	5.3050e-01	-1.2066	-7.626589	0.001292	12.924626	2.189491	-0.051624
1063	5.3100e-01	-1.2273	-7.860509	0.001171	11.712943	1.984226	-0.046784
1064	5.3150e-01	-1.2470	-8.082330	0.001111	11.107101	1.881594	-0.044364
1065	5.3200e-01	-1.2678	-8.360613	0.001393	13.934363	2.360545	-0.055657
1066	5.3250e-01	-1.2872	-8.473540	0.000565	5.654524	0.957902	-0.022585
1067	5.3300e-01	-1.3073	-8.727625	0.001272	12.722679	2.155280	-0.050817
1068	5.3350e-01	-1.3261	-8.937347	0.001050	10.501259	1.778961	-0.041944
1069	5.3400e-01	-1.3462	-9.195465	0.001292	12.924626	2.189491	-0.051624
1070	5.3450e-01	-1.3669	-9.409219	0.001070	10.703206	1.813172	-0.042751
1071	5.3500e-01	-1.3874	-9.606841	0.000990	9.895417	1.676329	-0.039524
1072	5.3550e-01	-1.4069	-9.808496	0.001010	10.097364	1.710540	-0.040331
1073	5.3600e-01	-1.4261	-10.010151	0.001010	10.097364	1.710540	-0.040331
1074	5.3650e-01	-1.4468	-10.264236	0.001272	12.722679	2.155280	-0.050817
1075	5.3700e-01	-1.4671	-10.514288	0.001252	12.520732	2.121069	-0.050010
1076	5.3750e-01	-1.4869	-10.715943	0.001010	10.097364	1.710540	-0.040331
1077	5.3800e-01	-1.5073	-10.929697	0.001070	10.703206	1.813172	-0.042751
1078	5.3850e-01	-1.5269	-11.135385	0.001030	10.299312	1.744751	-0.041138
1079	5.3900e-01	-1.5476	-11.349139	0.001070	10.703206	1.813172	-0.042751
1080	5.3950e-01	-1.5665	-11.518530	0.000848	8.481786	1.436853	-0.033878
1081	5.4000e-01	-1.5858	-11.736317	0.001091	10.905153	1.847383	-0.043557
1082	5.4050e-01	-1.6065	-12.042832	0.001535	15.347994	2.600021	-0.061303
1083	5.4100e-01	-1.6270	-12.208189	0.000828	8.279839	1.402643	-0.033071
1084	5.4150e-01	-1.6474	-12.450175	0.001212	12.116837	2.052648	-0.048397
1085	5.4200e-01	-1.6666	-12.647797	0.000990	9.895417	1.676329	-0.039524
1086	5.4250e-01	-1.6877	-12.853485	0.001030	10.299312	1.744751	-0.041138
1087	5.4300e-01	-1.7068	-13.151935	0.001494	14.944099	2.531599	-0.059690
1088	5.4350e-01	-1.7272	-13.293093	0.000707	7.068155	1.197378	-0.028232
1089	5.4400e-01	-1.7464	-13.543145	0.001252	12.520732	2.121069	-0.050010
1090	5.4450e-01	-1.7672	-13.768999	0.001131	11.309048	1.915805	-0.045171
1091	5.4500e-01	-1.7866	-13.958554	0.000949	9.491522	1.607907	-0.037911
1092	5.4550e-01	-1.8075	-14.212639	0.001272	12.722679	2.155280	-0.050817
1093	5.4600e-01	-1.8276	-14.402195	0.000949	9.491522	1.607907	-0.037911
1094	5.4650e-01	-1.8479	-14.632082	0.001151	11.510995	1.950015	-0.045977
1095	5.4700e-01	-1.8676	-14.845836	0.001070	10.703206	1.813172	-0.042751
1096	5.4750e-01	-1.8880	-15.083789	0.001191	11.914890	2.018437	-0.047591
1097	5.4800e-01	-1.9059	-15.257212	0.000868	8.683733	1.471064	-0.034685
1098	5.4850e-01	-1.9271	-15.470966	0.001070	10.703206	1.813172	-0.042751
1099	5.4900e-01	-1.9474	-15.761349	0.001454	14.540204	2.463177	-0.058077
1100	5.4950e-01	-1.9674	-15.938806	0.000889	8.885681	1.505275	-0.035491
1101	5.5000e-01	-1.9874	-16.124328	0.000929	9.289575	1.573697	-0.037105
1102	5.5050e-01	-2.0070	-16.374380	0.001252	12.520732	2.121069	-0.050010
1103	5.5100e-01	-2.0271	-16.547804	0.000868	8.683733	1.471064	-0.034685
1104	5.5150e-01	-2.0475	-16.765591	0.001091	10.905153	1.847383	-0.043557
1105	5.5200e-01	-2.0672	-17.011610	0.001232	12.318784	2.086859	-0.049204
1106	5.5250e-01	-2.0872	-17.217298	0.001030	10.299312	1.744751	-0.041138
1107	5.5300e-01	-2.1070	-17.422986	0.001030	10.299312	1.744751	-0.041138
1108	5.5350e-01	-2.1272	-17.640773	0.001091	10.905153	1.847383	-0.043557
1109	5.5400e-01	-2.1470	-17.846461	0.001030	10.299312	1.744751	-0.041138
1110	5.5450e-01	-2.1670	-18.088447	0.001212	12.116837	2.052648	-0.048397
1111	5.5500e-01	-2.1874	-18.282036	0.000969	9.693470	1.642118	-0.038718
1112	5.5550e-01	-2.2074	-18.540154	0.001292	12.924626	2.189491	-0.051624
1113	5.5600e-01	-2.2275	-18.697445	0.000788	7.875944	1.334221	-0.031458
1114	5.5650e-01	-2.2474	-18.939431	0.001212	12.116837	2.052648	-0.048397
1115	5.5700e-01	-2.2672	-19.149152	0.001050	10.501259	1.778961	-0.041944
1116	5.5750e-01	-2.2878	-19.366939	0.001091	10.905153	1.847383	-0.043557
1117	5.5800e-01	-2.3081	-19.572628	0.001030	10.299312	1.744751	-0.041138
1118	5.5850e-01	-2.3273	-19.733951	0.000808	8.077891	1.368432	-0.032265
1119	5.5900e-01	-2.3476	-19.988037	0.001272	12.722679	2.155280	-0.050817
1120	5.5950e-01	-2.3679	-20.197758	0.001050	10.501259	1.778961	-0.041944
1121	5.6000e-01	-2.3878	-20.443777	0.001232	12.318784	2.086859	-0.049204
1122	5.6050e-01	-2.4076	-20.593001	0.000747	7.472050	1.265799	-0.029845
1123	5.6100e-01	-2.4262	-20.802723	0.001050	10.501259	1.778961	-0.041944
1124	5.6150e-01	-2.4480	-21.028576	0.001131	11.309048	1.915805	-0.045171
1125	5.6200e-01	-2.4673	-21.290728	0.001313	13.126574	2.223702	-0.052430
1126	5.6250e-01	-2.4873	-21.480283	0.000949	9.491522	1.607907	-0.037911
1127	5.6300e-01	-2.5071	-21.669839	0.000949	9.491522	1.607907	-0.037911
1128	5.6350e-01	-2.5285	-21.919891	0.001252	12.520732	2.121069	-0.050010
1129	5.6400e-01	-2.5471	-22.101380	0.000909	9.087628	1.539486	-0.036298
1130	5.6450e-01	-2.5672	-22.294969	0.000969	9.693470	1.642118	-0.038718
1131	5.6500e-01	-2.5867	-22.512756	0.001091	10.905153	1.847383	-0.043557
1132	5.6550e-01	-2.6075	-22.750709	0.001191	11.914890	2.018437	-0.047591
1133	5.6600e-01	-2.6274	-22.940265	0.000949	9.491522	1.607907	-0.037911
1134	5.6650e-01	-2.6469	-23.137887	0.000990	9.895417	1.676329	-0.039524
1135	5.6700e-01	-2.6673	-23.331475	0.000969	9.693470	1.642118	-0.038718
1136	5.6750e-01	-2.6875	-23.585561	0.001272	12.722679	2.155280	-0.050817
1137	5.6800e-01	-2.7061	-23.823513	0.001191	11.914890	2.018437	-0.047591
1138	5.6850e-01	-2.7276	-23.952573	0.000646	6.462313	1.094745	-0.025812
1139	5.6900e-01	-2.7473	-24.319585	0.001838	18.377203	3.113182	-0.073402
1140	5.6950e-01	-2.7666	-24.363949	0.000222	2.221420	0.376319	-0.008873
1141	5.7000e-01	-2.7869	-24.593835	0.001151	11.510995	1.950015	-0.045977
1142	5.7050e-01	-2.8077	-24.743060	0.000747	7.472050	1.265799	-0.029845
1143	5.7100e-01	-2.8278	-25.041509	0.001494	14.944099	2.531599	-0.059690
1144	5.7150e-01	-2.8463	-25.198800	0.000788	7.875944	1.334221	-0.031458
1145	5.7200e-01	-2.8664	-25.424654	0.001131	11.309048	1.915805	-0.045171
1146	5.7250e-01	-2.8864	-25.626309	0.001010	10.097364	1.710540	-0.040331
1147	5.7300e-01	-2.9076	-25.823930	0.000990	9.895417	1.676329	-0.039524
1148	5.7350e-01	-2.9288	-26.021552	0.000990	9.895417	1.676329	-0.039524
1149	5.7400e-01	-2.9469	-26.227240	0.001030	10.299312	1.744751	-0.041138
1150	5.7450e-01	-2.9668	-26.493425	0.001333	13.328521	2.257913	-0.053237
1151	5.7500e-01	-2.9872	-26.634583	0.000707	7.068155	1.197378	-0.028232
1152	5.7550e-01	-3.0077	-26.884635	0.001252	12.520732	2.121069	-0.050010
1153	5.7600e-01	-3.0265	-27.090323	0.001030	10.299312	1.744751	-0.041138
1154	5.7650e-01	-3.0482	-27.283912	0.000969	9.693470	1.642118	-0.038718
1155	5.7700e-01	-3.0672	-27.513799	0.001151	11.510995	1.950015	-0.045977
1156	5.7750e-01	-3.0878	-27.667056	0.000767	7.673997	1.300010	-0.030652
1157	5.7800e-01	-3.1074	-27.868711	0.001010	10.097364	1.710540	-0.040331
1158	5.7850e-01	-3.1272	-28.102631	0.001171	11.712943	1.984226	-0.046784
1159	5.7900e-01	-3.1480	-28.284120	0.000909	9.087628	1.539486	-0.036298
1160	5.7950e-01	-3.1669	-28.457544	0.000868	8.683733	1.471064	-0.034685
1161	5.8000e-01	-3.1873	-28.727761	0.001353	13.530468	2.292123	-0.054044
1162	5.8050e-01	-3.2082	-28.901185	0.000868	8.683733	1.471064	-0.034685
1163	5.8100e-01	-3.2272	-29.131071	0.001151	11.510995	1.950015	-0.045977
1164	5.8150e-01	-3.2469	-29.308528	0.000889	8.885681	1.505275	-0.035491
1165	5.8200e-01	-3.2676	-29.498083	0.000949	9.491522	1.607907	-0.037911
1166	5.8250e-01	-3.2876	-29.639242	0.000707	7.068155	1.197378	-0.028232
1167	5.8300e-01	-3.3073	-29.885261	0.001232	12.318784	2.086859	-0.049204
1168	5.8350e-01	-3.3278	-30.103048	0.001091	10.905153	1.847383	-0.043557
1169	5.8400e-01	-3.3485	-30.328901	0.001131	11.309048	1.915805	-0.045171
1170	5.8450e-01	-3.3671	-30.486192	0.000788	7.875944	1.334221	-0.031458
1171	5.8500e-01	-3.3875	-30.679781	0.000969	9.693470	1.642118	-0.038718
1172	5.8550e-01	-3.4078	-30.905635	0.001131	11.309048	1.915805	-0.045171
1173	5.8600e-01	-3.4272	-31.083091	0.000889	8.885681	1.505275	-0.035491
1174	5.8650e-01	-3.4480	-31.280713	0.000990	9.895417	1.676329	-0.039524
1175	5.8700e-01	-3.4669	-31.506566	0.001131	11.309048	1.915805	-0.045171
1176	5.8750e-01	-3.4864	-31.720321	0.001070	10.703206	1.813172	-0.042751
1177	5.8800e-01	-3.5078	-31.893744	0.000868	8.683733	1.471064	-0.034685
1178	5.8850e-01	-3.5276	-32.079266	0.000929	9.289575	1.573697	-0.037105
1179	5.8900e-01	-3.5476	-32.284954	0.001030	10.299312	1.744751	-0.041138
1180	5.8950e-01	-3.5682	-32.474510	0.000949	9.491522	1.607907	-0.037911
1181	5.9000e-01	-3.5871	-32.704397	0.001151	11.510995	1.950015	-0.045977
1182	5.9050e-01	-3.6066	-32.914118	0.001050	10.501259	1.778961	-0.041944
1183	5.9100e-01	-3.6274	-33.055276	0.000707	7.068155	1.197378	-0.028232
1184	5.9150e-01	-3.6481	-33.232732	0.000889	8.885681	1.505275	-0.035491
1185	5.9200e-01	-3.6677	-33.482785	0.001252	12.520732	2.121069	-0.050010
1186	5.9250e-01	-3.6874	-33.664274	0.000909	9.087628	1.539486	-0.036298
1187	5.9300e-01	-3.7074	-33.914326	0.001252	12.520732	2.121069	-0.050010
1188	5.9350e-01	-3.7278	-34.027253	0.000565	5.654524	0.957902	-0.022585
1189	5.9400e-01	-3.7482	-34.245040	0.001091	10.905153	1.847383	-0.043557
1190	5.9450e-01	-3.7681	-34.426530	0.000909	9.087628	1.539486	-0.036298
1191	5.9500e-01	-3.7882	-34.648350	0.001111	11.107101	1.881594	-0.044364
1192	5.9550e-01	-3.8068	-34.821773	0.000868	8.683733	1.471064	-0.034685
1193	5.9600e-01	-3.8271	-35.039561	0.001091	10.905153	1.847383	-0.043557
1194	5.9650e-01	-3.8471	-35.196852	0.000788	7.875944	1.334221	-0.031458
1195	5.9700e-01	-3.8673	-35.410606	0.001070	10.703206	1.813172	-0.042751
1196	5.9750e-01	-3.8874	-35.584029	0.000868	8.683733	1.471064	-0.034685
1197	5.9800e-01	-3.9071	-35.733254	0.000747	7.472050	1.265799	-0.029845
1198	5.9850e-01	-3.9277	-35.959107	0.001131	11.309048	1.915805	-0.045171
1199	5.9900e-01	-3.9475	-36.164795	0.001030	10.299312	1.744751	-0.041138
1200	5.9950e-01	-3.9680	-36.414847	0.001252	12.520732	2.121069	-0.050010
1201	6.0000e-01	-3.9863	-36.560039	0.000727	7.270102	1.231589	-0.029038
1202	6.0050e-01	-4.0076	-36.733462	0.000868	8.683733	1.471064	-0.034685
1203	6.0100e-01	-4.0278	-36.927051	0.000969	9.693470	1.642118	-0.038718
1204	6.0150e-01	-4.0479	-37.136772	0.001050	10.501259	1.778961	-0.041944
1205	6.0200e-01	-4.0668	-37.310195	0.000868	8.683733	1.471064	-0.034685
1206	6.0250e-01	-4.0878	-37.495718	0.000929	9.289575	1.573697	-0.037105
1207	6.0300e-01	-4.1071	-37.669141	0.000868	8.683733	1.471064	-0.034685
1208	6.0350e-01	-4.1273	-37.858697	0.000949	9.491522	1.607907	-0.037911
1209	6.0400e-01	-4.1463	-38.044219	0.000929	9.289575	1.573697	-0.037105
1210	6.0450e-01	-4.1677	-38.270073	0.001131	11.309048	1.915805	-0.045171
1211	6.0500e-01	-4.1877	-38.479794	0.001050	10.501259	1.778961	-0.041944
1212	6.0550e-01	-4.2066	-38.624985	0.000727	7.270102	1.231589	-0.029038
1213	6.0600e-01	-4.2274	-38.822607	0.000990	9.895417	1.676329	-0.039524
1214	6.0650e-01	-4.2464	-38.975865	0.000767	7.673997	1.300010	-0.030652
1215	6.0700e-01	-4.2683	-39.250116	0.001373	13.732415	2.326334	-0.054850
1216	6.0750e-01	-4.2869	-39.346910	0.000485	4.846735	0.821059	-0.019359
1217	6.0800e-01	-4.3073	-39.560664	0.001070	10.703206	1.813172	-0.042751
1218	6.0850e-01	-4.3278	-39.742154	0.000909	9.087628	1.539486	-0.036298
1219	6.0900e-01	-4.3475	-39.968007	0.001131	11.309048	1.915805	-0.045171
1220	6.0950e-01	-4.3671	-40.189828	0.001111	11.107101	1.881594	-0.044364
1221	6.1000e-01	-4.3867	-40.294688	0.000525	5.250629	0.889481	-0.020972
1222	6.1050e-01	-4.4071	-40.512475	0.001091	10.905153	1.847383	-0.043557
1223	6.1100e-01	-4.4276	-40.677833	0.000828	8.279839	1.402643	-0.033071
1224	6.1150e-01	-4.4474	-40.863355	0.000929	9.289575	1.573697	-0.037105
1225	6.1200e-01	-4.4675	-41.044844	0.000909	9.087628	1.539486	-0.036298
1226	6.1250e-01	-4.4874	-41.250533	0.001030	10.299312	1.744751	-0.041138
1227	6.1300e-01	-4.5075	-41.419923	0.000848	8.481786	1.436853	-0.033878
1228	6.1350e-01	-4.5278	-41.569147	0.000747	7.472050	1.265799	-0.029845
1229	6.1400e-01	-4.5473	-41.799034	0.001151	11.510995	1.950015	-0.045977
1230	6.1450e-01	-4.5679	-41.968424	0.000848	8.481786	1.436853	-0.033878
1231	6.1500e-01	-4.5875	-42.109583	0.000707	7.068155	1.197378	-0.028232
1232	6.1550e-01	-4.6088	-42.331403	0.001111	11.107101	1.881594	-0.044364
1233	6.1600e-01	-4.6278	-42.444330	0.000565	5.654524	0.957902	-0.022585
1234	6.1650e-01	-4.6482	-42.706481	0.001313	13.126574	2.223702	-0.052430
1235	6.1700e-01	-4.6680	-42.883937	0.000889	8.885681	1.505275	-0.035491
1236	6.1750e-01	-4.6873	-43.146089	0.001313	13.126574	2.223702	-0.052430
1237	6.1800e-01	-4.7073	-43.186420	0.000202	2.019473	0.342108	-0.008066
1238	6.1850e-01	-4.7287	-43.432439	0.001232	12.318784	2.086859	-0.049204
1239	6.1900e-01	-4.7470	-43.581663	0.000747	7.472050	1.265799	-0.029845
1240	6.1950e-01	-4.7675	-43.726855	0.000727	7.270102	1.231589	-0.029038
1241	6.2000e-01	-4.7877	-43.956742	0.001151	11.510995	1.950015	-0.045977
1242	6.2050e-01	-4.8081	-44.130165	0.000868	8.683733	1.471064	-0.034685
1243	6.2100e-01	-4.8277	-44.323754	0.000969	9.693470	1.642118	-0.038718
1244	6.2150e-01	-4.8481	-44.456846	0.000666	6.664260	1.128956	-0.026618
1245	6.2200e-01	-4.8676	-44.666567	0.001050	10.501259	1.778961	-0.041944
1246	6.2250e-01	-4.8878	-44.860156	0.000969	9.693470	1.642118	-0.038718
1247	6.2300e-01	-4.9079	-45.049711	0.000949	9.491522	1.607907	-0.037911
1248	6.2350e-01	-4.9274	-45.239267	0.000949	9.491522	1.607907	-0.037911
1249	6.2400e-01	-4.9470	-45.364293	0.000626	6.260366	1.060535	-0.025005
1250	6.2450e-01	-4.9674	-45.578047	0.001070	10.703206	1.813172	-0.042751
1251	6.2500e-01	-4.9885	-45.759537	0.000909	9.087628	1.539486	-0.036298
1252	6.2550e-01	-5.0083	-45.916828	0.000788	7.875944	1.334221	-0.031458
1253	6.2600e-01	-5.0275	-46.126549	0.001050	10.501259	1.778961	-0.041944
1254	6.2650e-01	-5.0480	-46.308038	0.000909	9.087628	1.539486	-0.036298
1255	6.2700e-01	-5.0672	-46.412899	0.000525	5.250629	0.889481	-0.020972
1256	6.2750e-01	-5.0886	-46.590355	0.000889	8.885681	1.505275	-0.035491
1257	6.2800e-01	-5.1084	-46.796043	0.001030	10.299312	1.744751	-0.041138
1258	6.2850e-01	-5.1276	-46.997698	0.001010	10.097364	1.710540	-0.040331
1259	6.2900e-01	-5.1481	-47.122724	0.000626	6.260366	1.060535	-0.025005
1260	6.2950e-01	-5.1676	-47.332445	0.001050	10.501259	1.778961	-0.041944
1261	6.3000e-01	-5.1881	-47.489736	0.000788	7.875944	1.334221	-0.031458
1262	6.3050e-01	-5.2082	-47.671225	0.000909	9.087628	1.539486	-0.036298
1263	6.3100e-01	-5.2283	-47.828516	0.000788	7.875944	1.334221	-0.031458
1264	6.3150e-01	-5.2485	-48.001940	0.000868	8.683733	1.471064	-0.034685
1265	6.3200e-01	-5.2680	-48.187462	0.000929	9.289575	1.573697	-0.037105
1266	6.3250e-01	-5.2888	-48.304422	0.000586	5.856471	0.992113	-0.023392
1267	6.3300e-01	-5.3077	-48.538342	0.001171	11.712943	1.984226	-0.046784
1268	6.3350e-01	-5.3272	-48.679500	0.000707	7.068155	1.197378	-0.028232
1269	6.3400e-01	-5.3478	-48.901321	0.001111	11.107101	1.881594	-0.044364
1270	6.3450e-01	-5.3681	-49.082810	0.000909	9.087628	1.539486	-0.036298
1271	6.3500e-01	-5.3889	-49.135240	0.000263	2.625315	0.444740	-0.010486
1272	6.3550e-01	-5.4078	-49.425623	0.001454	14.540204	2.463177	-0.058077
1273	6.3600e-01	-5.4273	-49.538550	0.000565	5.654524	0.957902	-0.022585
1274	6.3650e-01	-5.4487	-49.707940	0.000848	8.481786	1.436853	-0.033878
1275	6.3700e-01	-5.4679	-49.909595	0.001010	10.097364	1.710540	-0.040331
1276	6.3750e-01	-5.4881	-50.091085	0.000909	9.087628	1.539486	-0.036298
1277	6.3800e-01	-5.5091	-50.216111	0.000626	6.260366	1.060535	-0.025005
1278	6.3850e-01	-5.5289	-50.397600	0.000909	9.087628	1.539486	-0.036298
1279	6.3900e-01	-5.5485	-50.587156	0.000949	9.491522	1.607907	-0.037911
1280	6.3950e-01	-5.5683	-50.752513	0.000828	8.279839	1.402643	-0.033071
1281	6.4000e-01	-5.5885	-50.925936	0.000868	8.683733	1.471064	-0.034685
1282	6.4050e-01	-5.6080	-51.111459	0.000929	9.289575	1.573697	-0.037105
1283	6.4100e-01	-5.6275	-51.236485	0.000626	6.260366	1.060535	-0.025005
1284	6.4150e-01	-5.6483	-51.401842	0.000828	8.279839	1.402643	-0.033071
1285	6.4200e-01	-5.6678	-51.579298	0.000889	8.885681	1.505275	-0.035491
1286	6.4250e-01	-5.6882	-51.736589	0.000788	7.875944	1.334221	-0.031458
1287	6.4300e-01	-5.7081	-51.938244	0.001010	10.097364	1.710540	-0.040331
1288	6.4350e-01	-5.7276	-52.051171	0.000565	5.654524	0.957902	-0.022585
1289	6.4400e-01	-5.7475	-52.281057	0.001151	11.510995	1.950015	-0.045977
1290	6.4450e-01	-5.7679	-52.410116	0.000646	6.462313	1.094745	-0.025812
1291	6.4500e-01	-5.7880	-52.583540	0.000868	8.683733	1.471064	-0.034685
1292	6.4550e-01	-5.8082	-52.748897	0.000828	8.279839	1.402643	-0.033071
1293	6.4600e-01	-5.8283	-52.902154	0.000767	7.673997	1.300010	-0.030652
1294	6.4650e-01	-5.8485	-53.079611	0.000889	8.885681	1.505275	-0.035491
1295	6.4700e-01	-5.8686	-53.236902	0.000788	7.875944	1.334221	-0.031458
1296	6.4750e-01	-5.8887	-53.329663	0.000464	4.644788	0.786848	-0.018552
1297	6.4800e-01	-5.9080	-53.575682	0.001232	12.318784	2.086859	-0.049204
1298	6.4850e-01	-5.9275	-53.724906	0.000747	7.472050	1.265799	-0.029845
1299	6.4900e-01	-5.9487	-53.918495	0.000969	9.693470	1.642118	-0.038718
1300	6.4950e-01	-5.9681	-54.071753	0.000767	7.673997	1.300010	-0.030652
1301	6.5000e-01	-5.9878	-54.233077	0.000808	8.077891	1.368432	-0.032265
1302	6.5050e-01	-6.0084	-54.378268	0.000727	7.270102	1.231589	-0.029038
1303	6.5100e-01	-6.0285	-54.555725	0.000889	8.885681	1.505275	-0.035491
1304	6.5150e-01	-6.0480	-54.753347	0.000990	9.895417	1.676329	-0.039524
1305	6.5200e-01	-6.0688	-54.846108	0.000464	4.644788	0.786848	-0.018552
1306	6.5250e-01	-6.0889	-54.991299	0.000727	7.270102	1.231589	-0.029038
1307	6.5300e-01	-6.1085	-55.164723	0.000868	8.683733	1.471064	-0.034685
1308	6.5350e-01	-6.1283	-55.309914	0.000727	7.270102	1.231589	-0.029038
1309	6.5400e-01	-6.1491	-55.568033	0.001292	12.924626	2.189491	-0.051624
1310	6.5450e-01	-6.1683	-55.697092	0.000646	6.462313	1.094745	-0.025812
1311	6.5500e-01	-6.1881	-55.793886	0.000485	4.846735	0.821059	-0.019359
1312	6.5550e-01	-6.2092	-55.999574	0.001030	10.299312	1.744751	-0.041138
1313	6.5600e-01	-6.2283	-56.144766	0.000727	7.270102	1.231589	-0.029038
1314	6.5650e-01	-6.2489	-56.354487	0.001050	10.501259	1.778961	-0.041944
1315	6.5700e-01	-6.2687	-56.511778	0.000788	7.875944	1.334221	-0.031458
1316	6.5750e-01	-6.2885	-56.681168	0.000848	8.481786	1.436853	-0.033878
1317	6.5800e-01	-6.3087	-56.842492	0.000808	8.077891	1.368432	-0.032265
1318	6.5850e-01	-6.3282	-56.931220	0.000444	4.442840	0.752638	-0.017746
1319	6.5900e-01	-6.3483	-57.104643	0.000868	8.683733	1.471064	-0.034685
1320	6.5950e-01	-6.3673	-57.314364	0.001050	10.501259	1.778961	-0.041944
1321	6.6000e-01	-6.3886	-57.495854	0.000909	9.087628	1.539486	-0.036298
1322	6.6050e-01	-6.4082	-57.620880	0.000626	6.260366	1.060535	-0.025005
1323	6.6100e-01	-6.4277	-57.741873	0.000606	6.058419	1.026324	-0.024199
1324	6.6150e-01	-6.4478	-57.870932	0.000646	6.462313	1.094745	-0.025812
1325	6.6200e-01	-6.4674	-58.096785	0.001131	11.309048	1.915805	-0.045171
1326	6.6250e-01	-6.4887	-58.108885	0.000061	0.605842	0.102632	-0.002420
1327	6.6300e-01	-6.5083	-58.375069	0.001333	13.328521	2.257913	-0.053237
1328	6.6350e-01	-6.5281	-58.524294	0.000747	7.472050	1.265799	-0.029845
1329	6.6400e-01	-6.5473	-58.697717	0.000868	8.683733	1.471064	-0.034685
1330	6.6450e-01	-6.5681	-58.871140	0.000868	8.683733	1.471064	-0.034685
1331	6.6500e-01	-6.5888	-59.020365	0.000747	7.472050	1.265799	-0.029845
1332	6.6550e-01	-6.6077	-59.189755	0.000848	8.481786	1.436853	-0.033878
1333	6.6600e-01	-6.6291	-59.314781	0.000626	6.260366	1.060535	-0.025005
1334	6.6650e-01	-6.6480	-59.459973	0.000727	7.270102	1.231589	-0.029038
1335	6.6700e-01	-6.6688	-59.641462	0.000909	9.087628	1.539486	-0.036298
1336	6.6750e-01	-6.6889	-59.802786	0.000808	8.077891	1.368432	-0.032265
1337	6.6800e-01	-6.7078	-59.943945	0.000707	7.068155	1.197378	-0.028232
1338	6.6850e-01	-6.7289	-60.129467	0.000929	9.289575	1.573697	-0.037105
1339	6.6900e-01	-6.7481	-60.266592	0.000687	6.866208	1.163167	-0.027425
1340	6.6950e-01	-6.7683	-60.440016	0.000868	8.683733	1.471064	-0.034685
1341	6.7000e-01	-6.7878	-60.561009	0.000606	6.058419	1.026324	-0.024199
1342	6.7050e-01	-6.8092	-60.718299	0.000788	7.875944	1.334221	-0.031458
1343	6.7100e-01	-6.8287	-60.911888	0.000969	9.693470	1.642118	-0.038718
1344	6.7150e-01	-6.8476	-61.065146	0.000767	7.673997	1.300010	-0.030652
1345	6.7200e-01	-6.8671	-61.218404	0.000767	7.673997	1.300010	-0.030652
1346	6.7250e-01	-6.8882	-61.387794	0.000848	8.481786	1.436853	-0.033878
1347	6.7300e-01	-6.9086	-61.520886	0.000666	6.664260	1.128956	-0.026618
1348	6.7350e-01	-6.9288	-61.710442	0.000949	9.491522	1.607907	-0.037911
1349	6.7400e-01	-6.9483	-61.774971	0.000323	3.231157	0.547373	-0.012906
1350	6.7450e-01	-6.9669	-61.960494	0.000929	9.289575	1.573697	-0.037105
1351	6.7500e-01	-6.9886	-62.186347	0.001131	11.309048	1.915805	-0.045171
1352	6.7550e-01	-7.0084	-62.299274	0.000565	5.654524	0.957902	-0.022585
1353	6.7600e-01	-7.0283	-62.460598	0.000808	8.077891	1.368432	-0.032265
1354	6.7650e-01	-7.0484	-62.625955	0.000828	8.279839	1.402643	-0.033071
1355	6.7700e-01	-7.0686	-62.787279	0.000808	8.077891	1.368432	-0.032265
1356	6.7750e-01	-7.0881	-62.936504	0.000747	7.472050	1.265799	-0.029845
1357	6.7800e-01	-7.1082	-63.113960	0.000889	8.885681	1.505275	-0.035491
1358	6.7850e-01	-7.1287	-63.206721	0.000464	4.644788	0.786848	-0.018552
1359	6.7900e-01	-7.1479	-63.392244	0.000929	9.289575	1.573697	-0.037105
1360	6.7950e-01	-7.1680	-63.521303	0.000646	6.462313	1.094745	-0.025812
1361	6.8000e-01	-7.1876	-63.694726	0.000868	8.683733	1.471064	-0.034685
1362	6.8050e-01	-7.2083	-63.827818	0.000666	6.664260	1.128956	-0.026618
1363	6.8100e-01	-7.2279	-63.960911	0.000666	6.664260	1.128956	-0.026618
1364	6.8150e-01	-7.2486	-64.166599	0.001030	10.299312	1.744751	-0.041138
1365	6.8200e-01	-7.2681	-64.327923	0.000808	8.077891	1.368432	-0.032265
1366	6.8250e-01	-7.2878	-64.444883	0.000586	5.856471	0.992113	-0.023392
1367	6.8300e-01	-7.3081	-64.594107	0.000747	7.472050	1.265799	-0.029845
1368	6.8350e-01	-7.3286	-64.755431	0.000808	8.077891	1.368432	-0.032265
1369	6.8400e-01	-7.3493	-64.944987	0.000949	9.491522	1.607907	-0.037911
1370	6.8450e-01	-7.3682	-65.098245	0.000767	7.673997	1.300010	-0.030652
1371	6.8500e-01	-7.3884	-65.231337	0.000666	6.664260	1.128956	-0.026618
1372	6.8550e-01	-7.4085	-65.392661	0.000808	8.077891	1.368432	-0.032265
1373	6.8600e-01	-7.4274	-65.570117	0.000889	8.885681	1.505275	-0.035491
1374	6.8650e-01	-7.4482	-65.687077	0.000586	5.856471	0.992113	-0.023392
1375	6.8700e-01	-7.4686	-65.872599	0.000929	9.289575	1.573697	-0.037105
1376	6.8750e-01	-7.4879	-65.993592	0.000606	6.058419	1.026324	-0.024199
1377	6.8800e-01	-7.5080	-66.175082	0.000909	9.087628	1.539486	-0.036298
1378	6.8850e-01	-7.5288	-66.336406	0.000808	8.077891	1.368432	-0.032265
1379	6.8900e-01	-7.5483	-66.489664	0.000767	7.673997	1.300010	-0.030652
1380	6.8950e-01	-7.5687	-66.602590	0.000565	5.654524	0.957902	-0.022585
1381	6.9000e-01	-7.5886	-66.751815	0.000747	7.472050	1.265799	-0.029845
1382	6.9050e-01	-7.6072	-66.876841	0.000626	6.260366	1.060535	-0.025005
1383	6.9100e-01	-7.6279	-67.054297	0.000889	8.885681	1.505275	-0.035491
1384	6.9150e-01	-7.6484	-67.211588	0.000788	7.875944	1.334221	-0.031458
1385	6.9200e-01	-7.6673	-67.413243	0.001010	10.097364	1.710540	-0.040331
1386	6.9250e-01	-7.6875	-67.590699	0.000889	8.885681	1.505275	-0.035491
1387	6.9300e-01	-7.7076	-67.723792	0.000666	6.664260	1.128956	-0.026618
1388	6.9350e-01	-7.7280	-67.873016	0.000747	7.472050	1.265799	-0.029845
1389	6.9400e-01	-7.7480	-68.042407	0.000848	8.481786	1.436853	-0.033878
1390	6.9450e-01	-7.7680	-68.231962	0.000949	9.491522	1.607907	-0.037911
1391	6.9500e-01	-7.7876	-68.296492	0.000323	3.231157	0.547373	-0.012906
1392	6.9550e-01	-7.8074	-68.510246	0.001070	10.703206	1.813172	-0.042751
1393	6.9600e-01	-7.8281	-68.631239	0.000606	6.058419	1.026324	-0.024199
1394	6.9650e-01	-7.8480	-68.796596	0.000828	8.279839	1.402643	-0.033071
1395	6.9700e-01	-7.8684	-69.006317	0.001050	10.501259	1.778961	-0.041944
1396	6.9750e-01	-7.8883	-69.107145	0.000505	5.048682	0.855270	-0.020165
1397	6.9800e-01	-7.9078	-69.300733	0.000969	9.693470	1.642118	-0.038718
1398	6.9850e-01	-7.9285	-69.421726	0.000606	6.058419	1.026324	-0.024199
1399	6.9900e-01	-7.9475	-69.574984	0.000767	7.673997	1.300010	-0.030652
1400	6.9950e-01	-7.9670	-69.736308	0.000808	8.077891	1.368432	-0.032265
1401	7.0000e-01	-7.9877	-69.901665	0.000828	8.279839	1.402643	-0.033071
1402	7.0050e-01	-8.0085	-70.038790	0.000687	6.866208	1.163167	-0.027425
1403	7.0100e-01	-8.0274	-70.200114	0.000808	8.077891	1.368432	-0.032265
1404	7.0150e-01	-8.0476	-70.385637	0.000929	9.289575	1.573697	-0.037105
1405	7.0200e-01	-8.0683	-70.534861	0.000747	7.472050	1.265799	-0.029845
1406	7.0250e-01	-8.0878	-70.692152	0.000788	7.875944	1.334221	-0.031458
1407	7.0300e-01	-8.1080	-70.897840	0.001030	10.299312	1.744751	-0.041138
1408	7.0350e-01	-8.1281	-70.986568	0.000444	4.442840	0.752638	-0.017746
1409	7.0400e-01	-8.1483	-71.111595	0.000626	6.260366	1.060535	-0.025005
1410	7.0450e-01	-8.1681	-71.309216	0.000990	9.895417	1.676329	-0.039524
1411	7.0500e-01	-8.1892	-71.482640	0.000868	8.683733	1.471064	-0.034685
1412	7.0550e-01	-8.2087	-71.643964	0.000808	8.077891	1.368432	-0.032265
1413	7.0600e-01	-8.2282	-71.833519	0.000949	9.491522	1.607907	-0.037911
1414	7.0650e-01	-8.2484	-71.938380	0.000525	5.250629	0.889481	-0.020972
1415	7.0700e-01	-8.2679	-72.079538	0.000707	7.068155	1.197378	-0.028232
1416	7.0750e-01	-8.2874	-72.244895	0.000828	8.279839	1.402643	-0.033071
1417	7.0800e-01	-8.3082	-72.394120	0.000747	7.472050	1.265799	-0.029845
1418	7.0850e-01	-8.3277	-72.563510	0.000848	8.481786	1.436853	-0.033878
1419	7.0900e-01	-8.3485	-72.926489	0.001818	18.175256	3.078972	-0.072596
1420	7.0950e-01	-8.3680	-72.849860	-0.000384	-3.836998	-0.650005	0.015326
1421	7.1000e-01	-8.3881	-73.103945	0.001272	12.722679	2.155280	-0.050817
1422	7.1050e-01	-8.4077	-73.200740	0.000485	4.846735	0.821059	-0.019359
1423	7.1100e-01	-8.4287	-73.366097	0.000828	8.279839	1.402643	-0.033071
1424	7.1150e-01	-8.4480	-73.515321	0.000747	7.472050	1.265799	-0.029845
1425	7.1200e-01	-8.4675	-73.684711	0.000848	8.481786	1.436853	-0.033878
1426	7.1250e-01	-8.4876	-73.858135	0.000868	8.683733	1.471064	-0.034685
1427	7.1300e-01	-8.5078	-74.023492	0.000828	8.279839	1.402643	-0.033071
1428	7.1350e-01	-8.5276	-74.172716	0.000747	7.472050	1.265799	-0.029845
1429	7.1400e-01	-8.5480	-74.285643	0.000565	5.654524	0.957902	-0.022585
1430	7.1450e-01	-8.5671	-74.511497	0.001131	11.309048	1.915805	-0.045171
1431	7.1500e-01	-8.5883	-74.644589	0.000666	6.664260	1.128956	-0.026618
1432	7.1550e-01	-8.6085	-74.818012	0.000868	8.683733	1.471064	-0.034685
1433	7.1600e-01	-8.6271	-74.995469	0.000889	8.885681	1.505275	-0.035491
1434	7.1650e-01	-8.6475	-75.120495	0.000626	6.260366	1.060535	-0.025005
1435	7.1700e-01	-8.6683	-75.322149	0.001010	10.097364	1.710540	-0.040331
1436	7.1750e-01	-8.6884	-75.427010	0.000525	5.250629	0.889481	-0.020972
1437	7.1800e-01	-8.7080	-75.612533	0.000929	9.289575	1.573697	-0.037105
1438	7.1850e-01	-8.7281	-75.761757	0.000747	7.472050	1.265799	-0.029845
1439	7.1900e-01	-8.7489	-75.967445	0.001030	10.299312	1.744751	-0.041138
1440	7.1950e-01	-8.7678	-76.124736	0.000788	7.875944	1.334221	-0.031458
1441	7.2000e-01	-8.7873	-76.265895	0.000707	7.068155	1.197378	-0.028232
1442	7.2050e-01	-8.8084	-76.411086	0.000727	7.270102	1.231589	-0.029038
1443	7.2100e-01	-8.8294	-76.616774	0.001030	10.299312	1.744751	-0.041138
1444	7.2150e-01	-8.8483	-76.774065	0.000788	7.875944	1.334221	-0.031458
1445	7.2200e-01	-8.8685	-76.931356	0.000788	7.875944	1.334221	-0.031458
1446	7.2250e-01	-8.8874	-77.044283	0.000565	5.654524	0.957902	-0.022585
1447	7.2300e-01	-8.9082	-77.237871	0.000969	9.693470	1.642118	-0.038718
1448	7.2350e-01	-8.9277	-77.399195	0.000808	8.077891	1.368432	-0.032265
1449	7.2400e-01	-8.9481	-77.540354	0.000707	7.068155	1.197378	-0.028232
1450	7.2450e-01	-8.9680	-77.737976	0.000990	9.895417	1.676329	-0.039524
1451	7.2500e-01	-8.9875	-77.871068	0.000666	6.664260	1.128956	-0.026618
1452	7.2550e-01	-9.0076	-78.092888	0.001111	11.107101	1.881594	-0.044364
1453	7.2600e-01	-9.0285	-78.221947	0.000646	6.462313	1.094745	-0.025812
1454	7.2650e-01	-9.0472	-78.371172	0.000747	7.472050	1.265799	-0.029845
1455	7.2700e-01	-9.0687	-78.576860	0.001030	10.299312	1.744751	-0.041138
1456	7.2750e-01	-9.0876	-78.701886	0.000626	6.260366	1.060535	-0.025005
1457	7.2800e-01	-9.1071	-78.839011	0.000687	6.866208	1.163167	-0.027425
1458	7.2850e-01	-9.1279	-79.032600	0.000969	9.693470	1.642118	-0.038718
1459	7.2900e-01	-9.1480	-79.197957	0.000828	8.279839	1.402643	-0.033071
1460	7.2950e-01	-9.1676	-79.419778	0.001111	11.107101	1.881594	-0.044364
1461	7.3000e-01	-9.1877	-79.504473	0.000424	4.240893	0.718427	-0.016939
1462	7.3050e-01	-9.2085	-79.730326	0.001131	11.309048	1.915805	-0.045171
1463	7.3100e-01	-9.2280	-79.851319	0.000606	6.058419	1.026324	-0.024199
1464	7.3150e-01	-9.2475	-80.061040	0.001050	10.501259	1.778961	-0.041944
1465	7.3200e-01	-9.2683	-80.218331	0.000788	7.875944	1.334221	-0.031458
1466	7.3250e-01	-9.2872	-80.347390	0.000646	6.462313	1.094745	-0.025812
1467	7.3300e-01	-9.3079	-80.524847	0.000889	8.885681	1.505275	-0.035491
1468	7.3350e-01	-9.3275	-80.686171	0.000808	8.077891	1.368432	-0.032265
1469	7.3400e-01	-9.3470	-80.831362	0.000727	7.270102	1.231589	-0.029038
1470	7.3450e-01	-9.3678	-81.028984	0.000990	9.895417	1.676329	-0.039524
1471	7.3500e-01	-9.3873	-81.226606	0.000990	9.895417	1.676329	-0.039524
1472	7.3550e-01	-9.4074	-81.307268	0.000404	4.038946	0.684216	-0.016132
1473	7.3600e-01	-9.4276	-81.565386	0.001292	12.924626	2.189491	-0.051624
1474	7.3650e-01	-9.4483	-81.694445	0.000646	6.462313	1.094745	-0.025812
1475	7.3700e-01	-9.4678	-81.851736	0.000788	7.875944	1.334221	-0.031458
1476	7.3750e-01	-9.4874	-82.000961	0.000747	7.472050	1.265799	-0.029845
1477	7.3800e-01	-9.5078	-82.218748	0.001091	10.905153	1.847383	-0.043557
1478	7.3850e-01	-9.5277	-82.339741	0.000606	6.058419	1.026324	-0.024199
1479	7.3900e-01	-9.5472	-82.521231	0.000909	9.087628	1.539486	-0.036298
1480	7.3950e-01	-9.5667	-82.722885	0.001010	10.097364	1.710540	-0.040331
1481	7.4000e-01	-9.5866	-82.847911	0.000626	6.260366	1.060535	-0.025005
1482	7.4050e-01	-9.6082	-83.053600	0.001030	10.299312	1.744751	-0.041138
1483	7.4100e-01	-9.6272	-83.194758	0.000707	7.068155	1.197378	-0.028232
1484	7.4150e-01	-9.6473	-83.360115	0.000828	8.279839	1.402643	-0.033071
1485	7.4200e-01	-9.6674	-83.573869	0.001070	10.703206	1.813172	-0.042751
1486	7.4250e-01	-9.6876	-83.723094	0.000747	7.472050	1.265799	-0.029845
1487	7.4300e-01	-9.7077	-83.920716	0.000990	9.895417	1.676329	-0.039524
1488	7.4350e-01	-9.7272	-84.082040	0.000808	8.077891	1.368432	-0.032265
1489	7.4400e-01	-9.7474	-84.190933	0.000545	5.452577	0.923691	-0.021779
1490	7.4450e-01	-9.7669	-84.408721	0.001091	10.905153	1.847383	-0.043557
1491	7.4500e-01	-9.7871	-84.574078	0.000828	8.279839	1.402643	-0.033071
1492	7.4550e-01	-9.8072	-84.779766	0.001030	10.299312	1.744751	-0.041138
1493	7.4600e-01	-9.8273	-84.933023	0.000767	7.673997	1.300010	-0.030652
1494	7.4650e-01	-9.8475	-85.078215	0.000727	7.270102	1.231589	-0.029038
1495	7.4700e-01	-9.8670	-85.215340	0.000687	6.866208	1.163167	-0.027425
1496	7.4750e-01	-9.8878	-85.416995	0.001010	10.097364	1.710540	-0.040331
1497	7.4800e-01	-9.9079	-85.586385	0.000848	8.481786	1.436853	-0.033878
1498	7.4850e-01	-9.9281	-85.779974	0.000969	9.693470	1.642118	-0.038718
1499	7.4900e-01	-9.9482	-85.937265	0.000788	7.875944	1.334221	-0.031458
1500	7.4950e-01	-9.9677	-86.155052	0.001091	10.905153	1.847383	-0.043557
1501	7.5000e-01	-9.9873	-86.284111	0.000646	6.462313	1.094745	-0.025812
1502	7.5050e-01	-9.9848	-86.215549	0.000343	3.433104	0.581584	0.013713
1503	7.5100e-01	-9.9708	-86.195383	0.000101	1.009736	0.171054	0.004033
1504	7.5150e-01	-9.9519	-86.276045	-0.000404	-4.038946	-0.684216	-0.016132
1505	7.5200e-01	-9.9311	-86.146986	0.000646	6.462313	1.094745	0.025812
1506	7.5250e-01	-9.9128	-86.046159	0.000505	5.048682	0.855270	0.020165
1507	7.5300e-01	-9.8933	-86.062291	-0.000081	-0.807789	-0.136843	-0.003226
1508	7.5350e-01	-9.8725	-85.953397	0.000545	5.452577	0.923691	0.021779
1509	7.5400e-01	-9.8527	-85.880802	0.000364	3.635051	0.615794	0.014519
1510	7.5450e-01	-9.8322	-85.844504	0.000182	1.817526	0.307897	0.007260
1511	7.5500e-01	-9.8127	-85.715445	0.000646	6.462313	1.094745	0.025812
1512	7.5550e-01	-9.7926	-85.650915	0.000323	3.231157	0.547373	0.012906
1513	7.5600e-01	-9.7727	-85.630750	0.000101	1.009736	0.171054	0.004033
1514	7.5650e-01	-9.7529	-85.465392	0.000828	8.279839	1.402643	0.033071
1515	7.5700e-01	-9.7327	-85.425061	0.000202	2.019473	0.342108	0.008066
1516	7.5750e-01	-9.7120	-85.372631	0.000263	2.625315	0.444740	0.010486
1517	7.5800e-01	-9.6922	-85.296002	0.000384	3.836998	0.650005	0.015326
1518	7.5850e-01	-9.6729	-85.215340	0.000404	4.038946	0.684216	0.016132
1519	7.5900e-01	-9.6531	-85.090314	0.000626	6.260366	1.060535	0.025005
1520	7.5950e-01	-9.6333	-85.025785	0.000323	3.231157	0.547373	0.012906
1521	7.6000e-01	-9.6125	-84.933023	0.000464	4.644788	0.786848	0.018552
1522	7.6050e-01	-9.5936	-84.868494	0.000323	3.231157	0.547373	0.012906
1523	7.6100e-01	-9.5725	-84.739435	0.000646	6.462313	1.094745	0.025812
1524	7.6150e-01	-9.5527	-84.666839	0.000364	3.635051	0.615794	0.014519
1525	7.6200e-01	-9.5338	-84.582144	0.000424	4.240893	0.718427	0.016939
1526	7.6250e-01	-9.5136	-84.477283	0.000525	5.250629	0.889481	0.020972
1527	7.6300e-01	-9.4941	-84.400654	0.000384	3.836998	0.650005	0.015326
1528	7.6350e-01	-9.4721	-84.271595	0.000646	6.462313	1.094745	0.025812
1529	7.6400e-01	-9.4532	-84.227231	0.000222	2.221420	0.376319	0.008873
1530	7.6450e-01	-9.4331	-84.102205	0.000626	6.260366	1.060535	0.025005
1531	7.6500e-01	-9.4141	-83.981212	0.000606	6.058419	1.026324	0.024199
1532	7.6550e-01	-9.3934	-83.888451	0.000464	4.644788	0.786848	0.018552
1533	7.6600e-01	-9.3739	-83.844087	0.000222	2.221420	0.376319	0.008873
1534	7.6650e-01	-9.3537	-83.690829	0.000767	7.673997	1.300010	0.030652
1535	7.6700e-01	-9.3336	-83.642432	0.000242	2.423367	0.410530	0.009679
1536	7.6750e-01	-9.3140	-83.477075	0.000828	8.279839	1.402643	0.033071
1537	7.6800e-01	-9.2927	-83.412545	0.000323	3.231157	0.547373	0.012906
1538	7.6850e-01	-9.2728	-83.263321	0.000747	7.472050	1.265799	0.029845
1539	7.6900e-01	-9.2530	-83.214923	0.000242	2.423367	0.410530	0.009679
1540	7.6950e-01	-9.2335	-83.101997	0.000565	5.654524	0.957902	0.022585
1541	7.7000e-01	-9.2133	-82.993103	0.000545	5.452577	0.923691	0.021779
1542	7.7050e-01	-9.1932	-82.868077	0.000626	6.260366	1.060535	0.025005
1543	7.7100e-01	-9.1737	-82.763216	0.000525	5.250629	0.889481	0.020972
1544	7.7150e-01	-9.1529	-82.702720	0.000303	3.029209	0.513162	0.012099
1545	7.7200e-01	-9.1334	-82.577694	0.000626	6.260366	1.060535	0.025005
1546	7.7250e-01	-9.1132	-82.408304	0.000848	8.481786	1.436853	0.033878
1547	7.7300e-01	-9.0937	-82.396204	0.000061	0.605842	0.102632	0.002420
1548	7.7350e-01	-9.0730	-82.299410	0.000485	4.846735	0.821059	0.019359
1549	7.7400e-01	-9.0525	-82.182450	0.000586	5.856471	0.992113	0.023392
1550	7.7450e-01	-9.0333	-82.045325	0.000687	6.866208	1.163167	0.027425
1551	7.7500e-01	-9.0141	-81.956597	0.000444	4.442840	0.752638	0.017746
1552	7.7550e-01	-8.9930	-81.867869	0.000444	4.442840	0.752638	0.017746
1553	7.7600e-01	-8.9732	-81.758975	0.000545	5.452577	0.923691	0.021779
1554	7.7650e-01	-8.9536	-81.666214	0.000464	4.644788	0.786848	0.018552
1555	7.7700e-01	-8.9338	-81.537154	0.000646	6.462313	1.094745	0.025812
1556	7.7750e-01	-8.9130	-81.440360	0.000485	4.846735	0.821059	0.019359
1557	7.7800e-01	-8.8935	-81.279036	0.000808	8.077891	1.368432	0.032265
1558	7.7850e-01	-8.8740	-81.202407	0.000384	3.836998	0.650005	0.015326
1559	7.7900e-01	-8.8535	-81.073348	0.000646	6.462313	1.094745	0.025812
1560	7.7950e-01	-8.8325	-80.976554	0.000485	4.846735	0.821059	0.019359
1561	7.8000e-01	-8.8129	-80.879759	0.000485	4.846735	0.821059	0.019359
1562	7.8050e-01	-8.7940	-80.730535	0.000747	7.472050	1.265799	0.029845
1563	7.8100e-01	-8.7733	-80.653906	0.000384	3.836998	0.650005	0.015326
1564	7.8150e-01	-8.7543	-80.500648	0.000767	7.673997	1.300010	0.030652
1565	7.8200e-01	-8.7337	-80.391754	0.000545	5.452577	0.923691	0.021779
1566	7.8250e-01	-8.7136	-80.286894	0.000525	5.250629	0.889481	0.020972
1567	7.8300e-01	-8.6939	-80.222364	0.000323	3.231157	0.547373	0.012906
1568	7.8350e-01	-8.6707	-79.948114	0.001373	13.732415	2.326334	0.054850
1569	7.8400e-01	-8.6543	-79.996511	-0.000242	-2.423367	-0.410530	-0.009679
1570	7.8450e-01	-8.6335	-79.827121	0.000848	8.481786	1.436853	0.033878
1571	7.8500e-01	-8.6140	-79.714194	0.000565	5.654524	0.957902	0.022585
1572	7.8550e-01	-8.5935	-79.641598	0.000364	3.635051	0.615794	0.014519
1573	7.8600e-01	-8.5737	-79.524638	0.000586	5.856471	0.992113	0.023392
1574	7.8650e-01	-8.5542	-79.431877	0.000464	4.644788	0.786848	0.018552
1575	7.8700e-01	-8.5337	-79.246354	0.000929	9.289575	1.573697	0.037105
1576	7.8750e-01	-8.5133	-79.149560	0.000485	4.846735	0.821059	0.019359
1577	7.8800e-01	-8.4937	-79.028567	0.000606	6.058419	1.026324	0.024199
1578	7.8850e-01	-8.4730	-78.919673	0.000545	5.452577	0.923691	0.021779
1579	7.8900e-01	-8.4541	-78.786581	0.000666	6.664260	1.128956	0.026618
1580	7.8950e-01	-8.4327	-78.689787	0.000485	4.846735	0.821059	0.019359
1581	7.9000e-01	-8.4132	-78.621224	0.000343	3.433104	0.581584	0.013713
1582	7.9050e-01	-8.3936	-78.492165	0.000646	6.462313	1.094745	0.025812
1583	7.9100e-01	-8.3738	-78.342940	0.000747	7.472050	1.265799	0.029845
1584	7.9150e-01	-8.3533	-78.225980	0.000586	5.856471	0.992113	0.023392
1585	7.9200e-01	-8.3341	-78.129186	0.000485	4.846735	0.821059	0.019359
1586	7.9250e-01	-8.3137	-78.028359	0.000505	5.048682	0.855270	0.020165
1587	7.9300e-01	-8.2935	-77.911399	0.000586	5.856471	0.992113	0.023392
1588	7.9350e-01	-8.2731	-77.717810	0.000969	9.693470	1.642118	0.038718
1589	7.9400e-01	-8.2533	-77.625049	0.000464	4.644788	0.786848	0.018552
1590	7.9450e-01	-8.2334	-77.528254	0.000485	4.846735	0.821059	0.019359
1591	7.9500e-01	-8.2130	-77.403228	0.000626	6.260366	1.060535	0.025005
1592	7.9550e-01	-8.1925	-77.282235	0.000606	6.058419	1.026324	0.024199
1593	7.9600e-01	-8.1739	-77.153176	0.000646	6.462313	1.094745	0.025812
1594	7.9650e-01	-8.1532	-77.012018	0.000707	7.068155	1.197378	0.028232
1595	7.9700e-01	-8.1336	-76.959588	0.000263	2.625315	0.444740	0.010486
1596	7.9750e-01	-8.1135	-76.814396	0.000727	7.270102	1.231589	0.029038
1597	7.9800e-01	-8.0933	-76.697436	0.000586	5.856471	0.992113	0.023392
1598	7.9850e-01	-8.0732	-76.540145	0.000788	7.875944	1.334221	0.031458
1599	7.9900e-01	-8.0531	-76.487715	0.000263	2.625315	0.444740	0.010486
1600	7.9950e-01	-8.0323	-76.326391	0.000808	8.077891	1.368432	0.032265
1601	8.0000e-01	-8.0128	-76.249762	0.000384	3.836998	0.650005	0.015326
1602	8.0050e-01	-7.9935	-76.100538	0.000747	7.472050	1.265799	0.029845
1603	8.0100e-01	-7.9737	-76.023909	0.000384	3.836998	0.650005	0.015326
1604	8.0150e-01	-7.9530	-75.846452	0.000889	8.885681	1.505275	0.035491
1605	8.0200e-01	-7.9328	-75.761757	0.000424	4.240893	0.718427	0.016939
1606	8.0250e-01	-7.9133	-75.616566	0.000727	7.270102	1.231589	0.029038
1607	8.0300e-01	-7.8928	-75.491540	0.000626	6.260366	1.060535	0.025005
1608	8.0350e-01	-7.8730	-75.354414	0.000687	6.866208	1.163167	0.027425
1609	8.0400e-01	-7.8522	-75.253587	0.000505	5.048682	0.855270	0.020165
1610	8.0450e-01	-7.8333	-75.120495	0.000666	6.664260	1.128956	0.026618
1611	8.0500e-01	-7.8132	-75.003535	0.000586	5.856471	0.992113	0.023392
1612	8.0550e-01	-7.7932	-74.894641	0.000545	5.452577	0.923691	0.021779
1613	8.0600e-01	-7.7720	-74.765582	0.000646	6.462313	1.094745	0.025812
1614	8.0650e-01	-7.7528	-74.656688	0.000545	5.452577	0.923691	0.021779
1615	8.0700e-01	-7.7326	-74.519563	0.000687	6.866208	1.163167	0.027425
1616	8.0750e-01	-7.7128	-74.362272	0.000788	7.875944	1.334221	0.031458
1617	8.0800e-01	-7.6917	-74.245312	0.000586	5.856471	0.992113	0.023392
1618	8.0850e-01	-7.6734	-74.088021	0.000788	7.875944	1.334221	0.031458
1619	8.0900e-01	-7.6527	-73.938797	0.000747	7.472050	1.265799	0.029845
1620	8.0950e-01	-7.6325	-73.842002	0.000485	4.846735	0.821059	0.019359
1621	8.1000e-01	-7.6124	-73.745208	0.000485	4.846735	0.821059	0.019359
1622	8.1050e-01	-7.5932	-73.604049	0.000707	7.068155	1.197378	0.028232
1623	8.1100e-01	-7.5721	-73.507255	0.000485	4.846735	0.821059	0.019359
1624	8.1150e-01	-7.5526	-73.345931	0.000808	8.077891	1.368432	0.032265
1625	8.1200e-01	-7.5336	-73.269302	0.000384	3.836998	0.650005	0.015326
1626	8.1250e-01	-7.5138	-73.192673	0.000384	3.836998	0.650005	0.015326
1627	8.1300e-01	-7.4928	-73.027316	0.000828	8.279839	1.402643	0.033071
1628	8.1350e-01	-7.4738	-72.878092	0.000747	7.472050	1.265799	0.029845
1629	8.1400e-01	-7.4531	-72.781297	0.000485	4.846735	0.821059	0.019359
1630	8.1450e-01	-7.4332	-72.700635	0.000404	4.038946	0.684216	0.016132
1631	8.1500e-01	-7.4128	-72.486881	0.001070	10.703206	1.813172	0.042751
1632	8.1550e-01	-7.3933	-72.382021	0.000525	5.250629	0.889481	0.020972
1633	8.1600e-01	-7.3725	-72.313458	0.000343	3.433104	0.581584	0.013713
1634	8.1650e-01	-7.3524	-72.140035	0.000868	8.683733	1.471064	0.034685
1635	8.1700e-01	-7.3331	-71.994843	0.000727	7.270102	1.231589	0.029038
1636	8.1750e-01	-7.3133	-71.821420	0.000868	8.683733	1.471064	0.034685
1637	8.1800e-01	-7.2932	-71.696394	0.000626	6.260366	1.060535	0.025005
1638	8.1850e-01	-7.2730	-71.611699	0.000424	4.240893	0.718427	0.016939
1639	8.1900e-01	-7.2523	-71.454408	0.000788	7.875944	1.334221	0.031458
1640	8.1950e-01	-7.2330	-71.349547	0.000525	5.250629	0.889481	0.020972
1641	8.2000e-01	-7.2126	-71.240654	0.000545	5.452577	0.923691	0.021779
1642	8.2050e-01	-7.1926	-71.123694	0.000586	5.856471	0.992113	0.023392
1643	8.2100e-01	-7.1726	-70.942204	0.000909	9.087628	1.539486	0.036298
1644	8.2150e-01	-7.1528	-70.829278	0.000565	5.654524	0.957902	0.022585
1645	8.2200e-01	-7.1326	-70.667954	0.000808	8.077891	1.368432	0.032265
1646	8.2250e-01	-7.1125	-70.595358	0.000364	3.635051	0.615794	0.014519
1647	8.2300e-01	-7.0924	-70.421935	0.000868	8.683733	1.471064	0.034685
1648	8.2350e-01	-7.0728	-70.361438	0.000303	3.029209	0.513162	0.012099
1649	8.2400e-01	-7.0527	-70.183982	0.000889	8.885681	1.505275	0.035491
1650	8.2450e-01	-7.0332	-70.054923	0.000646	6.462313	1.094745	0.025812
1651	8.2500e-01	-7.0130	-69.917797	0.000687	6.866208	1.163167	0.027425
1652	8.2550e-01	-6.9935	-69.800838	0.000586	5.856471	0.992113	0.023392
1653	8.2600e-01	-6.9721	-69.671778	0.000646	6.462313	1.094745	0.025812
1654	8.2650e-01	-6.9532	-69.542719	0.000646	6.462313	1.094745	0.025812
1655	8.2700e-01	-6.9324	-69.361230	0.000909	9.087628	1.539486	0.036298
1656	8.2750e-01	-6.9129	-69.240237	0.000606	6.058419	1.026324	0.024199
1657	8.2800e-01	-6.8928	-69.187807	0.000263	2.625315	0.444740	0.010486
1658	8.2850e-01	-6.8739	-68.970019	0.001091	10.905153	1.847383	0.043557
1659	8.2900e-01	-6.8531	-68.937754	0.000162	1.615578	0.273686	0.006453
1660	8.2950e-01	-6.8324	-68.792563	0.000727	7.270102	1.231589	0.029038
1661	8.3000e-01	-6.8128	-68.566709	0.001131	11.309048	1.915805	0.045171
1662	8.3050e-01	-6.7921	-68.429584	0.000687	6.866208	1.163167	0.027425
1663	8.3100e-01	-6.7722	-68.336823	0.000464	4.644788	0.786848	0.018552
1664	8.3150e-01	-6.7524	-68.215830	0.000606	6.058419	1.026324	0.024199
1665	8.3200e-01	-6.7323	-68.058539	0.000788	7.875944	1.334221	0.031458
1666	8.3250e-01	-6.7133	-67.949645	0.000545	5.452577	0.923691	0.021779
1667	8.3300e-01	-6.6938	-67.824619	0.000626	6.260366	1.060535	0.025005
1668	8.3350e-01	-6.6727	-67.659262	0.000828	8.279839	1.402643	0.033071
1669	8.3400e-01	-6.6535	-67.534236	0.000626	6.260366	1.060535	0.025005
1670	8.3450e-01	-6.6334	-67.413243	0.000606	6.058419	1.026324	0.024199
1671	8.3500e-01	-6.6135	-67.284184	0.000646	6.462313	1.094745	0.025812
1672	8.3550e-01	-6.5931	-66.977668	0.001535	15.347994	2.600021	0.061303
1673	8.3600e-01	-6.5723	-67.106728	-0.000646	-6.462313	-1.094745	-0.025812
1674	8.3650e-01	-6.5528	-66.816345	0.001454	14.540204	2.463177	0.058077
1675	8.3700e-01	-6.5334	-66.711484	0.000525	5.250629	0.889481	0.020972
1676	8.3750e-01	-6.5131	-66.630822	0.000404	4.038946	0.684216	0.016132
1677	8.3800e-01	-6.4931	-66.437233	0.000969	9.693470	1.642118	0.038718
1678	8.3850e-01	-6.4722	-66.267843	0.000848	8.481786	1.436853	0.033878
1679	8.3900e-01	-6.4527	-66.191214	0.000384	3.836998	0.650005	0.015326
1680	8.3950e-01	-6.4329	-66.017791	0.000868	8.683733	1.471064	0.034685
1681	8.4000e-01	-6.4127	-65.892765	0.000626	6.260366	1.060535	0.025005
1682	8.4050e-01	-6.3923	-65.747573	0.000727	7.270102	1.231589	0.029038
1683	8.4100e-01	-6.3721	-65.594316	0.000767	7.673997	1.300010	0.030652
1684	8.4150e-01	-6.3535	-65.509621	0.000424	4.240893	0.718427	0.016939
1685	8.4200e-01	-6.3326	-65.364429	0.000727	7.270102	1.231589	0.029038
1686	8.4250e-01	-6.3123	-65.170840	0.000969	9.693470	1.642118	0.038718
1687	8.4300e-01	-6.2928	-65.045814	0.000626	6.260366	1.060535	0.025005
1688	8.4350e-01	-6.2730	-64.940954	0.000525	5.250629	0.889481	0.020972
1689	8.4400e-01	-6.2519	-64.803828	0.000687	6.866208	1.163167	0.027425
1690	8.4450e-01	-6.2330	-64.614273	0.000949	9.491522	1.607907	0.037911
1691	8.4500e-01	-6.2124	-64.505379	0.000545	5.452577	0.923691	0.021779
1692	8.4550e-01	-6.1921	-64.368254	0.000687	6.866208	1.163167	0.027425
1693	8.4600e-01	-6.1732	-64.166599	0.001010	10.097364	1.710540	0.040331
1694	8.4650e-01	-6.1527	-64.081904	0.000424	4.240893	0.718427	0.016939
1695	8.4700e-01	-6.1329	-63.940745	0.000707	7.068155	1.197378	0.028232
1696	8.4750e-01	-6.1127	-63.807653	0.000666	6.664260	1.128956	0.026618
1697	8.4800e-01	-6.0932	-63.666495	0.000707	7.068155	1.197378	0.028232
1698	8.4850e-01	-6.0725	-63.489038	0.000889	8.885681	1.505275	0.035491
1699	8.4900e-01	-6.0535	-63.355946	0.000666	6.664260	1.128956	0.026618
1700	8.4950e-01	-6.0337	-63.218821	0.000687	6.866208	1.163167	0.027425
1701	8.5000e-01	-6.0126	-63.093795	0.000626	6.260366	1.060535	0.025005
1702	8.5050e-01	-5.9931	-62.932471	0.000808	8.077891	1.368432	0.032265
1703	8.5100e-01	-5.9730	-62.791312	0.000707	7.068155	1.197378	0.028232
1704	8.5150e-01	-5.9522	-62.678385	0.000565	5.654524	0.957902	0.022585
1705	8.5200e-01	-5.9333	-62.500929	0.000889	8.885681	1.505275	0.035491
1706	8.5250e-01	-5.9138	-62.363804	0.000687	6.866208	1.163167	0.027425
1707	8.5300e-01	-5.8933	-62.218612	0.000727	7.270102	1.231589	0.029038
1708	8.5350e-01	-5.8723	-62.101652	0.000586	5.856471	0.992113	0.023392
1709	8.5400e-01	-5.8521	-61.912097	0.000949	9.491522	1.607907	0.037911
1710	8.5450e-01	-5.8327	-61.803203	0.000545	5.452577	0.923691	0.021779
1711	8.5500e-01	-5.8131	-61.641879	0.000808	8.077891	1.368432	0.032265
1712	8.5550e-01	-5.7929	-61.524919	0.000586	5.856471	0.992113	0.023392
1713	8.5600e-01	-5.7719	-61.407959	0.000586	5.856471	0.992113	0.023392
1714	8.5650e-01	-5.7526	-61.194205	0.001070	10.703206	1.813172	0.042751
1715	8.5700e-01	-5.7331	-61.089345	0.000525	5.250629	0.889481	0.020972
1716	8.5750e-01	-5.7131	-60.911888	0.000889	8.885681	1.505275	0.035491
1717	8.5800e-01	-5.6922	-60.831226	0.000404	4.038946	0.684216	0.016132
1718	8.5850e-01	-5.6721	-60.601340	0.001151	11.510995	1.950015	0.045977
1719	8.5900e-01	-5.6532	-60.496479	0.000525	5.250629	0.889481	0.020972
1720	8.5950e-01	-5.6336	-60.391618	0.000525	5.250629	0.889481	0.020972
1721	8.6000e-01	-5.6123	-60.161732	0.001151	11.510995	1.950015	0.045977
1722	8.6050e-01	-5.5927	-60.060904	0.000505	5.048682	0.855270	0.020165
1723	8.6100e-01	-5.5729	-59.887481	0.000868	8.683733	1.471064	0.034685
1724	8.6150e-01	-5.5537	-59.726157	0.000808	8.077891	1.368432	0.032265
1725	8.6200e-01	-5.5323	-59.572899	0.000767	7.673997	1.300010	0.030652
1726	8.6250e-01	-5.5128	-59.451906	0.000606	6.058419	1.026324	0.024199
1727	8.6300e-01	-5.4920	-59.246218	0.001030	10.299312	1.744751	0.041138
1728	8.6350e-01	-5.4728	-59.113126	0.000666	6.664260	1.128956	0.026618
1729	8.6400e-01	-5.4530	-59.012299	0.000505	5.048682	0.855270	0.020165
1730	8.6450e-01	-5.4317	-58.838876	0.000868	8.683733	1.471064	0.034685
1731	8.6500e-01	-5.4127	-58.689651	0.000747	7.472050	1.265799	0.029845
1732	8.6550e-01	-5.3919	-58.576724	0.000565	5.654524	0.957902	0.022585
1733	8.6600e-01	-5.3724	-58.411367	0.000828	8.279839	1.402643	0.033071
1734	8.6650e-01	-5.3529	-58.254076	0.000788	7.875944	1.334221	0.031458
1735	8.6700e-01	-5.3327	-58.116951	0.000687	6.866208	1.163167	0.027425
1736	8.6750e-01	-5.3135	-57.943528	0.000868	8.683733	1.471064	0.034685
1737	8.6800e-01	-5.2924	-57.790270	0.000767	7.673997	1.300010	0.030652
1738	8.6850e-01	-5.2723	-57.681376	0.000545	5.452577	0.923691	0.021779
1739	8.6900e-01	-5.2534	-57.495854	0.000929	9.289575	1.573697	0.037105
1740	8.6950e-01	-5.2320	-57.334530	0.000808	8.077891	1.368432	0.032265
1741	8.7000e-01	-5.2125	-57.161106	0.000868	8.683733	1.471064	0.034685
1742	8.7050e-01	-5.1923	-57.060279	0.000505	5.048682	0.855270	0.020165
1743	8.7100e-01	-5.1728	-56.870723	0.000949	9.491522	1.607907	0.037911
1744	8.7150e-01	-5.1527	-56.729565	0.000707	7.068155	1.197378	0.028232
1745	8.7200e-01	-5.1315	-56.604539	0.000626	6.260366	1.060535	0.025005
1746	8.7250e-01	-5.1124	-56.414983	0.000949	9.491522	1.607907	0.037911
1747	8.7300e-01	-5.0928	-56.277858	0.000687	6.866208	1.163167	0.027425
1748	8.7350e-01	-5.0721	-56.132666	0.000727	7.270102	1.231589	0.029038
1749	8.7400e-01	-5.0510	-55.878581	0.001272	12.722679	2.155280	0.050817
1750	8.7450e-01	-5.0324	-55.733390	0.000727	7.270102	1.231589	0.029038
1751	8.7500e-01	-5.0120	-55.668860	0.000323	3.231157	0.547373	0.012906
1752	8.7550e-01	-4.9915	-55.455106	0.001070	10.703206	1.813172	0.042751
1753	8.7600e-01	-4.9728	-55.309914	0.000727	7.270102	1.231589	0.029038
1754	8.7650e-01	-4.9525	-55.164723	0.000727	7.270102	1.231589	0.029038
1755	8.7700e-01	-4.9323	-55.047763	0.000586	5.856471	0.992113	0.023392
1756	8.7750e-01	-4.9128	-54.886439	0.000808	8.077891	1.368432	0.032265
1757	8.7800e-01	-4.8933	-54.805777	0.000404	4.038946	0.684216	0.016132
1758	8.7850e-01	-4.8725	-54.531526	0.001373	13.732415	2.326334	0.054850
1759	8.7900e-01	-4.8524	-54.370202	0.000808	8.077891	1.368432	0.032265
1760	8.7950e-01	-4.8318	-54.208878	0.000808	8.077891	1.368432	0.032265
1761	8.8000e-01	-4.8124	-54.128216	0.000404	4.038946	0.684216	0.016132
1762	8.8050e-01	-4.7926	-53.950760	0.000889	8.885681	1.505275	0.035491
1763	8.8100e-01	-4.7718	-53.761204	0.000949	9.491522	1.607907	0.037911
1764	8.8150e-01	-4.7529	-53.607947	0.000767	7.673997	1.300010	0.030652
1765	8.8200e-01	-4.7330	-53.442590	0.000828	8.279839	1.402643	0.033071
1766	8.8250e-01	-4.7127	-53.313530	0.000646	6.462313	1.094745	0.025812
1767	8.8300e-01	-4.6918	-53.132041	0.000909	9.087628	1.539486	0.036298
1768	8.8350e-01	-4.6717	-52.950552	0.000909	9.087628	1.539486	0.036298
1769	8.8400e-01	-4.6522	-52.833592	0.000586	5.856471	0.992113	0.023392
1770	8.8450e-01	-4.6317	-52.656135	0.000889	8.885681	1.505275	0.035491
1771	8.8500e-01	-4.6125	-52.486745	0.000848	8.481786	1.436853	0.033878
1772	8.8550e-01	-4.5918	-52.305256	0.000909	9.087628	1.539486	0.036298
1773	8.8600e-01	-4.5722	-52.184263	0.000606	6.058419	1.026324	0.024199
1774	8.8650e-01	-4.5527	-52.031005	0.000767	7.673997	1.300010	0.030652
1775	8.8700e-01	-4.5325	-51.857582	0.000868	8.683733	1.471064	0.034685
1776	8.8750e-01	-4.5119	-51.720456	0.000687	6.866208	1.163167	0.027425
1777	8.8800e-01	-4.4917	-51.563166	0.000788	7.875944	1.334221	0.031458
1778	8.8850e-01	-4.4721	-51.381676	0.000909	9.087628	1.539486	0.036298
1779	8.8900e-01	-4.4532	-51.256650	0.000626	6.260366	1.060535	0.025005
1780	8.8950e-01	-4.4331	-51.115492	0.000707	7.068155	1.197378	0.028232
1781	8.9000e-01	-4.4117	-50.861406	0.001272	12.722679	2.155280	0.050817
1782	8.9050e-01	-4.3931	-50.696049	0.000828	8.279839	1.402643	0.033071
1783	8.9100e-01	-4.3728	-50.554891	0.000707	7.068155	1.197378	0.028232
1784	8.9150e-01	-4.3525	-50.401633	0.000767	7.673997	1.300010	0.030652
1785	8.9200e-01	-4.3320	-50.187879	0.001070	10.703206	1.813172	0.042751
1786	8.9250e-01	-4.3119	-50.070919	0.000586	5.856471	0.992113	0.023392
1787	8.9300e-01	-4.2921	-49.917661	0.000767	7.673997	1.300010	0.030652
1788	8.9350e-01	-4.2728	-49.711973	0.001030	10.299312	1.744751	0.041138
1789	8.9400e-01	-4.2524	-49.607113	0.000525	5.250629	0.889481	0.020972
1790	8.9450e-01	-4.2323	-49.373193	0.001171	11.712943	1.984226	0.046784
1791	8.9500e-01	-4.2127	-49.272366	0.000505	5.048682	0.855270	0.020165
1792	8.9550e-01	-4.1926	-49.115075	0.000788	7.875944	1.334221	0.031458
1793	8.9600e-01	-4.1721	-48.889221	0.001131	11.309048	1.915805	0.045171
1794	8.9650e-01	-4.1517	-48.735964	0.000767	7.673997	1.300010	0.030652
1795	8.9700e-01	-4.1322	-48.538342	0.000990	9.895417	1.676329	0.039524
1796	8.9750e-01	-4.1120	-48.381051	0.000788	7.875944	1.334221	0.031458
1797	8.9800e-01	-4.0913	-48.195528	0.000929	9.289575	1.573697	0.037105
1798	8.9850e-01	-4.0717	-48.066469	0.000646	6.462313	1.094745	0.025812
1799	8.9900e-01	-4.0522	-47.893046	0.000868	8.683733	1.471064	0.034685
1800	8.9950e-01	-4.0324	-47.723656	0.000848	8.481786	1.436853	0.033878
1801	9.0000e-01	-4.0116	-47.578464	0.000727	7.270102	1.231589	0.029038
1802	9.0050e-01	-3.9915	-47.405041	0.000868	8.683733	1.471064	0.034685
1803	9.0100e-01	-3.9724	-47.239684	0.000828	8.279839	1.402643	0.033071
1804	9.0150e-01	-3.9510	-47.122724	0.000586	5.856471	0.992113	0.023392
1805	9.0200e-01	-3.9321	-46.872672	0.001252	12.520732	2.121069	0.050010
1806	9.0250e-01	-3.9124	-46.759745	0.000565	5.654524	0.957902	0.022585
1807	9.0300e-01	-3.8929	-46.545991	0.001070	10.703206	1.813172	0.042751
1808	9.0350e-01	-3.8721	-46.392733	0.000767	7.673997	1.300010	0.030652
1809	9.0400e-01	-3.8514	-46.162847	0.001151	11.510995	1.950015	0.045977
1810	9.0450e-01	-3.8328	-46.045887	0.000586	5.856471	0.992113	0.023392
1811	9.0500e-01	-3.8110	-45.900695	0.000727	7.270102	1.231589	0.029038
1812	9.0550e-01	-3.7917	-45.670809	0.001151	11.510995	1.950015	0.045977
1813	9.0600e-01	-3.7727	-45.541749	0.000646	6.462313	1.094745	0.025812
1814	9.0650e-01	-3.7519	-45.392525	0.000747	7.472050	1.265799	0.029845
1815	9.0700e-01	-3.7318	-45.158605	0.001171	11.712943	1.984226	0.046784
1816	9.0750e-01	-3.7122	-45.005347	0.000767	7.673997	1.300010	0.030652
1817	9.0800e-01	-3.6924	-44.807725	0.000990	9.895417	1.676329	0.039524
1818	9.0850e-01	-3.6720	-44.662534	0.000727	7.270102	1.231589	0.029038
1819	9.0900e-01	-3.6525	-44.444747	0.001091	10.905153	1.847383	0.043557
1820	9.0950e-01	-3.6314	-44.315687	0.000646	6.462313	1.094745	0.025812
1821	9.1000e-01	-3.6118	-44.109999	0.001030	10.299312	1.744751	0.041138
1822	9.1050e-01	-3.5918	-43.964808	0.000727	7.270102	1.231589	0.029038
1823	9.1100e-01	-3.5715	-43.779285	0.000929	9.289575	1.573697	0.037105
1824	9.1150e-01	-3.5511	-43.597796	0.000909	9.087628	1.539486	0.036298
1825	9.1200e-01	-3.5319	-43.448571	0.000747	7.472050	1.265799	0.029845
1826	9.1250e-01	-3.5111	-43.242883	0.001030	10.299312	1.744751	0.041138
1827	9.1300e-01	-3.4919	-43.069460	0.000868	8.683733	1.471064	0.034685
1828	9.1350e-01	-3.4715	-42.887971	0.000909	9.087628	1.539486	0.036298
1829	9.1400e-01	-3.4519	-42.702448	0.000929	9.289575	1.573697	0.037105
1830	9.1450e-01	-3.4321	-42.549190	0.000767	7.673997	1.300010	0.030652
1831	9.1500e-01	-3.4126	-42.399966	0.000747	7.472050	1.265799	0.029845
1832	9.1550e-01	-3.3916	-42.182178	0.001091	10.905153	1.847383	0.043557
1833	9.1600e-01	-3.3717	-41.956325	0.001131	11.309048	1.915805	0.045171
1834	9.1650e-01	-3.3517	-41.887762	0.000343	3.433104	0.581584	0.013713
1835	9.1700e-01	-3.3308	-41.686107	0.001010	10.097364	1.710540	0.040331
1836	9.1750e-01	-3.3121	-41.492518	0.000969	9.693470	1.642118	0.038718
1837	9.1800e-01	-3.2917	-41.319095	0.000868	8.683733	1.471064	0.034685
1838	9.1850e-01	-3.2713	-41.157771	0.000808	8.077891	1.368432	0.032265
1839	9.1900e-01	-3.2517	-40.960149	0.000990	9.895417	1.676329	0.039524
1840	9.1950e-01	-3.2314	-40.762528	0.000990	9.895417	1.676329	0.039524
1841	9.2000e-01	-3.2117	-40.625402	0.000687	6.866208	1.163167	0.027425
1842	9.2050e-01	-3.1910	-40.625402	0.000000	0.000000	0.000000	0.000000
1843	9.2100e-01	-3.1714	-40.181761	0.002221	22.214201	3.763188	0.088728
1844	9.2150e-01	-3.1510	-40.093033	0.000444	4.442840	0.752638	0.017746
1845	9.2200e-01	-3.1321	-39.895411	0.000990	9.895417	1.676329	0.039524
1846	9.2250e-01	-3.1121	-39.709889	0.000929	9.289575	1.573697	0.037105
1847	9.2300e-01	-3.0918	-39.584863	0.000626	6.260366	1.060535	0.025005
1848	9.2350e-01	-3.0720	-39.306579	0.001393	13.934363	2.360545	0.055657
1849	9.2400e-01	-3.0507	-39.177520	0.000646	6.462313	1.094745	0.025812
1850	9.2450e-01	-3.0317	-38.959732	0.001091	10.905153	1.847383	0.043557
1851	9.2500e-01	-3.0119	-38.818574	0.000707	7.068155	1.197378	0.028232
1852	9.2550e-01	-2.9920	-38.629018	0.000949	9.491522	1.607907	0.037911
1853	9.2600e-01	-2.9719	-38.455595	0.000868	8.683733	1.471064	0.034685
1854	9.2650e-01	-2.9511	-38.221675	0.001171	11.712943	1.984226	0.046784
1855	9.2700e-01	-2.9316	-38.064385	0.000788	7.875944	1.334221	0.031458
1856	9.2750e-01	-2.9115	-37.878862	0.000929	9.289575	1.573697	0.037105
1857	9.2800e-01	-2.8910	-37.677207	0.001010	10.097364	1.710540	0.040331
1858	9.2850e-01	-2.8722	-37.499751	0.000889	8.885681	1.505275	0.035491
1859	9.2900e-01	-2.8516	-37.322294	0.000889	8.885681	1.505275	0.035491
1860	9.2950e-01	-2.8309	-37.112573	0.001050	10.501259	1.778961	0.041944
1861	9.3000e-01	-2.8120	-36.943183	0.000848	8.481786	1.436853	0.033878
1862	9.3050e-01	-2.7912	-36.818157	0.000626	6.260366	1.060535	0.025005
1863	9.3100e-01	-2.7714	-36.547940	0.001353	13.530468	2.292123	0.054044
1864	9.3150e-01	-2.7518	-36.346285	0.001010	10.097364	1.710540	0.040331
1865	9.3200e-01	-2.7314	-36.168828	0.000889	8.885681	1.505275	0.035491
1866	9.3250e-01	-2.7125	-36.035736	0.000666	6.664260	1.128956	0.026618
1867	9.3300e-01	-2.6908	-35.850213	0.000929	9.289575	1.573697	0.037105
1868	9.3350e-01	-2.6710	-35.668724	0.000909	9.087628	1.539486	0.036298
1869	9.3400e-01	-2.6508	-35.446904	0.001111	11.107101	1.881594	0.044364
1870	9.3450e-01	-2.6319	-35.289613	0.000788	7.875944	1.334221	0.031458
1871	9.3500e-01	-2.6119	-35.011329	0.001393	13.934363	2.360545	0.055657
1872	9.3550e-01	-2.5919	-34.833873	0.000889	8.885681	1.505275	0.035491
1873	9.3600e-01	-2.5718	-34.640284	0.000969	9.693470	1.642118	0.038718
1874	9.3650e-01	-2.5513	-34.491059	0.000747	7.472050	1.265799	0.029845
1875	9.3700e-01	-2.5309	-34.281338	0.001050	10.501259	1.778961	0.041944
1876	9.3750e-01	-2.5121	-34.087749	0.000969	9.693470	1.642118	0.038718
1877	9.3800e-01	-2.4921	-33.918359	0.000848	8.481786	1.436853	0.033878
1878	9.3850e-01	-2.4715	-33.757035	0.000808	8.077891	1.368432	0.032265
1879	9.3900e-01	-2.4519	-33.571513	0.000929	9.289575	1.573697	0.037105
1880	9.3950e-01	-2.4329	-33.377924	0.000969	9.693470	1.642118	0.038718
1881	9.4000e-01	-2.4116	-33.131905	0.001232	12.318784	2.086859	0.049204
1882	9.4050e-01	-2.3922	-33.047210	0.000424	4.240893	0.718427	0.016939
1883	9.4100e-01	-2.3707	-32.805224	0.001212	12.116837	2.052648	0.048397
1884	9.4150e-01	-2.3518	-32.587437	0.001091	10.905153	1.847383	0.043557
1885	9.4200e-01	-2.3323	-32.418047	0.000848	8.481786	1.436853	0.033878
1886	9.4250e-01	-2.3116	-32.192193	0.001131	11.309048	1.915805	0.045171
1887	9.4300e-01	-2.2919	-32.014737	0.000889	8.885681	1.505275	0.035491
1888	9.4350e-01	-2.2715	-31.841313	0.000868	8.683733	1.471064	0.034685
1889	9.4400e-01	-2.2511	-31.623526	0.001091	10.905153	1.847383	0.043557
1890	9.4450e-01	-2.2320	-31.442037	0.000909	9.087628	1.539486	0.036298
1891	9.4500e-01	-2.2129	-31.276680	0.000828	8.279839	1.402643	0.033071
1892	9.4550e-01	-2.1918	-31.034694	0.001212	12.116837	2.052648	0.048397
1893	9.4600e-01	-2.1717	-30.853204	0.000909	9.087628	1.539486	0.036298
1894	9.4650e-01	-2.1528	-30.695913	0.000788	7.875944	1.334221	0.031458
1895	9.4700e-01	-2.1310	-30.478126	0.001091	10.905153	1.847383	0.043557
1896	9.4750e-01	-2.1122	-30.304703	0.000868	8.683733	1.471064	0.034685
1897	9.4800e-01	-2.0914	-30.107081	0.000990	9.895417	1.676329	0.039524
1898	9.4850e-01	-2.0716	-29.921559	0.000929	9.289575	1.573697	0.037105
1899	9.4900e-01	-2.0515	-29.707804	0.001070	10.703206	1.813172	0.042751
1900	9.4950e-01	-2.0312	-29.498083	0.001050	10.501259	1.778961	0.041944
1901	9.5000e-01	-2.0113	-29.296428	0.001010	10.097364	1.710540	0.040331
1902	9.5050e-01	-1.9921	-29.094773	0.001010	10.097364	1.710540	0.040331
1903	9.5100e-01	-1.9718	-28.881019	0.001070	10.703206	1.813172	0.042751
1904	9.5150e-01	-1.9521	-28.764059	0.000586	5.856471	0.992113	0.023392
1905	9.5200e-01	-1.9314	-28.518040	0.001232	12.318784	2.086859	0.049204
1906	9.5250e-01	-1.9114	-28.308319	0.001050	10.501259	1.778961	0.041944
1907	9.5300e-01	-1.8900	-28.155061	0.000767	7.673997	1.300010	0.030652
1908	9.5350e-01	-1.8716	-27.973572	0.000909	9.087628	1.539486	0.036298
1909	9.5400e-01	-1.8525	-27.751751	0.001111	11.107101	1.881594	0.044364
1910	9.5450e-01	-1.8308	-27.546063	0.001030	10.299312	1.744751	0.041138
1911	9.5500e-01	-1.8114	-27.283912	0.001313	13.126574	2.223702	0.052430
1912	9.5550e-01	-1.7921	-27.150820	0.000666	6.664260	1.128956	0.026618
1913	9.5600e-01	-1.7710	-26.928999	0.001111	11.107101	1.881594	0.044364
1914	9.5650e-01	-1.7515	-26.743477	0.000929	9.289575	1.573697	0.037105
1915	9.5700e-01	-1.7318	-26.561987	0.000909	9.087628	1.539486	0.036298
1916	9.5750e-01	-1.7110	-26.324035	0.001191	11.914890	2.018437	0.047591
1917	9.5800e-01	-1.6911	-26.098181	0.001131	11.309048	1.915805	0.045171
1918	9.5850e-01	-1.6719	-25.961056	0.000687	6.866208	1.163167	0.027425
1919	9.5900e-01	-1.6518	-25.755368	0.001030	10.299312	1.744751	0.041138
1920	9.5950e-01	-1.6317	-25.521448	0.001171	11.712943	1.984226	0.046784
1921	9.6000e-01	-1.6113	-25.303661	0.001091	10.905153	1.847383	0.043557
1922	9.6050e-01	-1.5910	-25.174601	0.000646	6.462313	1.094745	0.025812
1923	9.6100e-01	-1.5713	-24.912450	0.001313	13.126574	2.223702	0.052430
1924	9.6150e-01	-1.5520	-24.714828	0.000990	9.895417	1.676329	0.039524
1925	9.6200e-01	-1.5317	-24.513173	0.001010	10.097364	1.710540	0.040331
1926	9.6250e-01	-1.5118	-24.327651	0.000929	9.289575	1.573697	0.037105
1927	9.6300e-01	-1.4915	-24.142128	0.000929	9.289575	1.573697	0.037105
1928	9.6350e-01	-1.4706	-23.875944	0.001333	13.328521	2.257913	0.053237
1929	9.6400e-01	-1.4507	-23.742851	0.000666	6.664260	1.128956	0.026618
1930	9.6450e-01	-1.4317	-23.492799	0.001252	12.520732	2.121069	0.050010
1931	9.6500e-01	-1.4111	-23.327442	0.000828	8.279839	1.402643	0.033071
1932	9.6550e-01	-1.3911	-23.109655	0.001091	10.905153	1.847383	0.043557
1933	9.6600e-01	-1.3711	-22.839437	0.001353	13.530468	2.292123	0.054044
1934	9.6650e-01	-1.3515	-22.710378	0.000646	6.462313	1.094745	0.025812
1935	9.6700e-01	-1.3319	-22.464359	0.001232	12.318784	2.086859	0.049204
1936	9.6750e-01	-1.3121	-22.331267	0.000666	6.664260	1.128956	0.026618
1937	9.6800e-01	-1.2907	-22.121546	0.001050	10.501259	1.778961	0.041944
1938	9.6850e-01	-1.2699	-21.847295	0.001373	13.732415	2.326334	0.054850
1939	9.6900e-01	-1.2516	-21.722269	0.000626	6.260366	1.060535	0.025005
1940	9.6950e-01	-1.2318	-21.464151	0.001292	12.924626	2.189491	0.051624
1941	9.7000e-01	-1.2119	-21.298794	0.000828	8.279839	1.402643	0.033071
1942	9.7050e-01	-1.1921	-21.085039	0.001070	10.703206	1.813172	0.042751
1943	9.7100e-01	-1.1720	-20.863219	0.001111	11.107101	1.881594	0.044364
1944	9.7150e-01	-1.1518	-20.649465	0.001070	10.703206	1.813172	0.042751
1945	9.7200e-01	-1.1320	-20.427644	0.001111	11.107101	1.881594	0.044364
1946	9.7250e-01	-1.1118	-20.213890	0.001070	10.703206	1.813172	0.042751
1947	9.7300e-01	-1.0917	-20.052566	0.000808	8.077891	1.368432	0.032265
1948	9.7350e-01	-1.0725	-19.810580	0.001212	12.116837	2.052648	0.048397
1949	9.7400e-01	-1.0517	-19.608925	0.001010	10.097364	1.710540	0.040331
1950	9.7450e-01	-1.0316	-19.354840	0.001272	12.722679	2.155280	0.050817
1951	9.7500e-01	-1.0117	-19.213682	0.000707	7.068155	1.197378	0.028232
1952	9.7550e-01	-0.9914	-18.999928	0.001070	10.703206	1.813172	0.042751
1953	9.7600e-01	-0.9712	-18.737776	0.001313	13.126574	2.223702	0.052430
1954	9.7650e-01	-0.9523	-18.584518	0.000767	7.673997	1.300010	0.030652
1955	9.7700e-01	-0.9312	-18.346566	0.001191	11.914890	2.018437	0.047591
1956	9.7750e-01	-0.9114	-18.132811	0.001070	10.703206	1.813172	0.042751
1957	9.7800e-01	-0.8916	-17.927123	0.001030	10.299312	1.744751	0.041138
1958	9.7850e-01	-0.8710	-17.765799	0.000808	8.077891	1.368432	0.032265
1959	9.7900e-01	-0.8511	-17.523813	0.001212	12.116837	2.052648	0.048397
1960	9.7950e-01	-0.8320	-17.362489	0.000808	8.077891	1.368432	0.032265
1961	9.8000e-01	-0.8122	-17.060007	0.001515	15.146046	2.565810	0.060496
1962	9.8050e-01	-0.7911	-16.850286	0.001050	10.501259	1.778961	0.041944
1963	9.8100e-01	-0.7711	-16.672830	0.000889	8.885681	1.505275	0.035491
1964	9.8150e-01	-0.7511	-16.467142	0.001030	10.299312	1.744751	0.041138
1965	9.8200e-01	-0.7309	-16.217089	0.001252	12.520732	2.121069	0.050010
1966	9.8250e-01	-0.7108	-16.063832	0.000767	7.673997	1.300010	0.030652
1967	9.8300e-01	-0.6905	-15.829912	0.001171	11.712943	1.984226	0.046784
1968	9.8350e-01	-0.6713	-15.644389	0.000929	9.289575	1.573697	0.037105
1969	9.8400e-01	-0.6509	-15.442735	0.001010	10.097364	1.710540	0.040331
1970	9.8450e-01	-0.6306	-15.220914	0.001111	11.107101	1.881594	0.044364
1971	9.8500e-01	-0.6108	-14.978928	0.001212	12.116837	2.052648	0.048397
1972	9.8550e-01	-0.5915	-14.801472	0.000889	8.885681	1.505275	0.035491
1973	9.8600e-01	-0.5718	-14.607883	0.000969	9.693470	1.642118	0.038718
1974	9.8650e-01	-0.5509	-14.353798	0.001272	12.722679	2.155280	0.050817
1975	9.8700e-01	-0.5310	-14.160209	0.000969	9.693470	1.642118	0.038718
1976	9.8750e-01	-0.5112	-13.934356	0.001131	11.309048	1.915805	0.045171
1977	9.8800e-01	-0.4919	-13.752866	0.000909	9.087628	1.539486	0.036298
1978	9.8850e-01	-0.4723	-13.486682	0.001333	13.328521	2.257913	0.053237
1979	9.8900e-01	-0.4513	-13.317292	0.000848	8.481786	1.436853	0.033878
1980	9.8950e-01	-0.4314	-13.079339	0.001191	11.914890	2.018437	0.047591
1981	9.9000e-01	-0.4121	-12.901882	0.000889	8.885681	1.505275	0.035491
1982	9.9050e-01	-0.3897	-12.635698	0.001333	13.328521	2.257913	0.053237
1983	9.9100e-01	-0.3709	-12.474374	0.000808	8.077891	1.368432	0.032265
1984	9.9150e-01	-0.3510	-12.252554	0.001111	11.107101	1.881594	0.044364
1985	9.9200e-01	-0.3311	-12.058965	0.000969	9.693470	1.642118	0.038718
1986	9.9250e-01	-0.3104	-11.788747	0.001353	13.530468	2.292123	0.054044
1987	9.9300e-01	-0.2914	-11.647589	0.000707	7.068155	1.197378	0.028232
1988	9.9350e-01	-0.2715	-11.441901	0.001030	10.299312	1.744751	0.041138
1989	9.9400e-01	-0.2510	-11.183782	0.001292	12.924626	2.189491	0.051624
1990	9.9450e-01	-0.2313	-10.994227	0.000949	9.491522	1.607907	0.037911
1991	9.9500e-01	-0.2106	-10.752241	0.001212	12.116837	2.052648	0.048397
1992	9.9550e-01	-0.1917	-10.522354	0.001151	11.510995	1.950015	0.045977
1993	9.9600e-01	-0.1707	-10.344898	0.000889	8.885681	1.505275	0.035491
1994	9.9650e-01	-0.1517	-10.066614	0.001393	13.934363	2.360545	0.055657
1995	9.9700e-01	-0.1310	-9.897224	0.000848	8.481786	1.436853	0.033878
1996	9.9750e-01	-0.1110	-9.691536	0.001030	10.299312	1.744751	0.041138
1997	9.9800e-01	-0.0905	-9.526179	0.000828	8.279839	1.402643	0.033071
1998	9.9850e-01	-0.0709	-9.272094	0.001272	12.722679	2.155280	0.050817
1999	9.9900e-01	-0.0510	-9.046240	0.001131	11.309048	1.915805	0.045171
2000	9.9950e-01	-0.0306	-8.832486	0.001070	10.703206	1.813172	0.042751
2001	1.0000e+00	-0.0100	-8.602599	0.001070	10.703206	1.813172	0.045977

Smooth data before PMax, +/-Pr and +/-Vc Calc.

PMax (uC/cm2):	8.68e+01
Pr (uC/cm2):	6.21e+00
-Pr (uC/cm2):	-8.13e+00
PLoss (uC/cm2):	-8.15e+00
-Vc:	-5.65e-01
C (Max-Eff) (nF):	8.68e-01
K (Eff):	1.47e+03
Vert. (+/-Pr) Shift (uC/cm2):	-9.63e-01
Offset (uC/cm2):	5.40e-01

A (Loop Area - uC/cm2·Volts):	-1.43e-02



Hysteresis Version: 5.48.1 - Radiant Technologies, Inc., 1999 - 9/12/24

