»»»»»»»»»»»»»»»»»»»»»»»»»»»»»»»»»»»» Hysteresis ««««««««««««««««««««««««««««««««««««
»»»  Executed Version:	5.48.1
»»»  Vision Version:	5.48.4 (R)
»»»  Vision Compiled:	9/18/24
»»»  Driver Version:	5.47.0
»»»  Windows Version:	Windows 8 or 8.1
»»»  Processor Information:	x86 (AMD or Intel) - 32 Processors
»»»  Tester Name:	PMF21124-494 (100V)
»»»  Tester S/N:	PMF21124-494
»»»  Internal Amp Type:	100V RevK 270k
»»»  Internal Amp S/N:	iAB2-596/K     
»»»  Execution Count:	1
»»»»»»»»»»»»»»»»»»»»»»»»»»»»»»»»»»»»»»»»»»««««««««««««««««««««««««««««««««««««««««««

Stored:	7/9/2025 - 15:17:44
Configured:	07/09/25 02:06:30 PM
Executed:	07/09/25 03:17:08 PM

»»»»»»»»»»»»»»»»»»»»»»»»»»»»»»»»»»» Sample Info ««««««««««««««««««««««««««««««««««««
Sample Name:	
Lot Name:	
Wafer Name:	
Die Row/Column:	0/0
Capacitor Number:	0
Sample Area (cm2):	1.00e-04
Sample Thickness (microns):	1.50e-01

Amplifier:	Internal

»»»»»»»»»»»»»»»»»»»»»»»»»»»»»»»»»»» Tester Info «««««««««««««««««««««««««««««««««««
Tester Name:	PMF21124-494 (100V)
Tester Serial Number:	PMF21124-494
Return Signal Amp. Level:	0.19 [Index: 3]

»»»»»»»»»»»»»»»»»»»»»»»»»»»»»»»» Hysteresis Info ««««««««««««««««««««««««««««««««««
Task Name:	Hyst-900
Volts:	10.00
Field:	666.67 (kV/cm)
DCBias:	0.00
DCField:	0.00 (kV/cm)
Hysteresis Period (ms):	1.00e+00
Preset:	Enabled
Preset Delay (ms):	1.00e+03
Profile:	Standard Bipolar

»»»»»»»»»»»»»»»»»»»»»»»»»»»»»»»»»»»»»» Data «««««««««««««««««««««««««««««««««««««««
Points:	2001

Valid Data

Point	Time (ms)	Drive Voltage	Measured Polarization (uC/cm2)	Capacitance (uF)	Normalized Capacitance (uF/cm2)	Dielectric Constant	Instantaneous Current (mA)
   1	0.0000e+00	-0.0002	-0.352896	0.000687	6.865919	1.163118	0.027425
   2	5.0000e-04	0.0100	-0.215771	0.000687	6.865919	1.163118	0.027425
   3	1.0000e-03	0.0285	-0.094778	0.000606	6.058164	1.026281	0.024199
   4	1.5000e-03	0.0472	0.082679	0.000889	8.885307	1.505212	0.035491
   5	2.0000e-03	0.0680	0.284333	0.001010	10.096940	1.710468	0.040331
   6	2.5000e-03	0.0874	0.461790	0.000889	8.885307	1.505212	0.035491
   7	3.0000e-03	0.1076	0.602948	0.000707	7.067858	1.197328	0.028232
   8	3.5000e-03	0.1280	0.776371	0.000868	8.683368	1.471002	0.034685
   9	4.0000e-03	0.1469	0.961894	0.000929	9.289185	1.573630	0.037105
  10	4.5000e-03	0.1672	1.199847	0.001191	11.914389	2.018352	0.047591
  11	5.0000e-03	0.1870	1.324873	0.000626	6.260103	1.060490	0.025005
  12	5.5000e-03	0.2071	1.502329	0.000889	8.885307	1.505212	0.035491
  13	6.0000e-03	0.2274	1.631388	0.000646	6.462042	1.094699	0.025812
  14	6.5000e-03	0.2471	1.853209	0.001111	11.106634	1.881515	0.044364
  15	7.0000e-03	0.2672	2.066963	0.001070	10.702756	1.813096	0.042751
  16	7.5000e-03	0.2872	2.236353	0.000848	8.481430	1.436793	0.033878
  17	8.0000e-03	0.3076	2.369445	0.000666	6.663980	1.128909	0.026618
  18	8.5000e-03	0.3275	2.546902	0.000889	8.885307	1.505212	0.035491
  19	9.0000e-03	0.3474	2.716292	0.000848	8.481430	1.436793	0.033878
  20	9.5000e-03	0.3673	2.901814	0.000929	9.289185	1.573630	0.037105
  21	1.0000e-02	0.3882	3.079271	0.000889	8.885307	1.505212	0.035491
  22	1.0500e-02	0.4075	3.240595	0.000808	8.077552	1.368374	0.032265
  23	1.1000e-02	0.4279	3.442250	0.001010	10.096940	1.710468	0.040331
  24	1.1500e-02	0.4479	3.656004	0.001070	10.702756	1.813096	0.042751
  25	1.2000e-02	0.4682	3.829427	0.000868	8.683368	1.471002	0.034685
  26	1.2500e-02	0.4877	3.974619	0.000727	7.269797	1.231537	0.029038
  27	1.3000e-02	0.5068	4.172241	0.000990	9.895001	1.676259	0.039524
  28	1.3500e-02	0.5276	4.369862	0.000990	9.895001	1.676259	0.039524
  29	1.4000e-02	0.5476	4.490855	0.000606	6.058164	1.026281	0.024199
  30	1.4500e-02	0.5679	4.692510	0.001010	10.096940	1.710468	0.040331
  31	1.5000e-02	0.5878	4.882066	0.000949	9.491124	1.607840	0.037911
  32	1.5500e-02	0.6075	5.067588	0.000929	9.289185	1.573630	0.037105
  33	1.6000e-02	0.6280	5.224879	0.000788	7.875613	1.334165	0.031458
  34	1.6500e-02	0.6479	5.406369	0.000909	9.087246	1.539421	0.036298
  35	1.7000e-02	0.6676	5.575759	0.000848	8.481430	1.436793	0.033878
  36	1.7500e-02	0.6873	5.757248	0.000909	9.087246	1.539421	0.036298
  37	1.8000e-02	0.7065	5.962936	0.001030	10.298879	1.744677	0.041138
  38	1.8500e-02	0.7275	6.172657	0.001050	10.500818	1.778887	0.041944
  39	1.9000e-02	0.7472	6.261386	0.000444	4.442654	0.752606	0.017746
  40	1.9500e-02	0.7671	6.483206	0.001111	11.106634	1.881515	0.044364
  41	2.0000e-02	0.7877	6.713093	0.001151	11.510512	1.949933	0.045977
  42	2.0500e-02	0.8081	6.830052	0.000586	5.856225	0.992071	0.023392
  43	2.1000e-02	0.8273	7.076071	0.001232	12.318267	2.086771	0.049204
  44	2.1500e-02	0.8470	7.233362	0.000788	7.875613	1.334165	0.031458
  45	2.2000e-02	0.8675	7.430984	0.000990	9.895001	1.676259	0.039524
  46	2.2500e-02	0.8881	7.551977	0.000606	6.058164	1.026281	0.024199
  47	2.3000e-02	0.9084	7.737500	0.000929	9.289185	1.573630	0.037105
  48	2.3500e-02	0.9276	7.902857	0.000828	8.279491	1.402584	0.033071
  49	2.4000e-02	0.9479	8.213405	0.001555	15.549288	2.634121	0.062110
  50	2.4500e-02	0.9688	8.314233	0.000505	5.048470	0.855234	0.020165
  51	2.5000e-02	0.9877	8.483623	0.000848	8.481430	1.436793	0.033878
  52	2.5500e-02	1.0075	8.640914	0.000788	7.875613	1.334165	0.031458
  53	2.6000e-02	1.0284	8.842569	0.001010	10.096940	1.710468	0.040331
  54	2.6500e-02	1.0476	9.024058	0.000909	9.087246	1.539421	0.036298
  55	2.7000e-02	1.0675	9.257978	0.001171	11.712450	1.984143	0.046784
  56	2.7500e-02	1.0871	9.403169	0.000727	7.269797	1.231537	0.029038
  57	2.8000e-02	1.1082	9.584659	0.000909	9.087246	1.539421	0.036298
  58	2.8500e-02	1.1279	9.774214	0.000949	9.491124	1.607840	0.037911
  59	2.9000e-02	1.1475	9.935538	0.000808	8.077552	1.368374	0.032265
  60	2.9500e-02	1.1676	10.149293	0.001070	10.702756	1.813096	0.042751
  61	3.0000e-02	1.1887	10.318683	0.000848	8.481430	1.436793	0.033878
  62	3.0500e-02	1.2076	10.536470	0.001090	10.904695	1.847305	0.043557
  63	3.1000e-02	1.2286	10.717960	0.000909	9.087246	1.539421	0.036298
  64	3.1500e-02	1.2486	10.891383	0.000868	8.683368	1.471002	0.034685
  65	3.2000e-02	1.2697	11.068839	0.000889	8.885307	1.505212	0.035491
  66	3.2500e-02	1.2871	11.242262	0.000868	8.683368	1.471002	0.034685
  67	3.3000e-02	1.3065	11.447950	0.001030	10.298879	1.744677	0.041138
  68	3.3500e-02	1.3281	11.613307	0.000828	8.279491	1.402584	0.033071
  69	3.4000e-02	1.3473	11.750433	0.000687	6.865919	1.163118	0.027425
  70	3.4500e-02	1.3674	11.992419	0.001212	12.116328	2.052562	0.048397
  71	3.5000e-02	1.3879	12.149710	0.000788	7.875613	1.334165	0.031458
  72	3.5500e-02	1.4079	12.298934	0.000747	7.471736	1.265746	0.029845
  73	3.6000e-02	1.4273	12.524788	0.001131	11.308573	1.915724	0.045171
  74	3.6500e-02	1.4468	12.686112	0.000808	8.077552	1.368374	0.032265
  75	3.7000e-02	1.4673	12.924064	0.001191	11.914389	2.018352	0.047591
  76	3.7500e-02	1.4873	13.105554	0.000909	9.087246	1.539421	0.036298
  77	3.8000e-02	1.5077	13.291076	0.000929	9.289185	1.573630	0.037105
  78	3.8500e-02	1.5274	13.484665	0.000969	9.693062	1.642049	0.038718
  79	3.9000e-02	1.5467	13.641956	0.000788	7.875613	1.334165	0.031458
  80	3.9500e-02	1.5674	13.803280	0.000808	8.077552	1.368374	0.032265
  81	4.0000e-02	1.5863	14.025100	0.001111	11.106634	1.881515	0.044364
  82	4.0500e-02	1.6072	14.174325	0.000747	7.471736	1.265746	0.029845
  83	4.1000e-02	1.6273	14.380013	0.001030	10.298879	1.744677	0.041138
  84	4.1500e-02	1.6473	14.565536	0.000929	9.289185	1.573630	0.037105
  85	4.2000e-02	1.6670	14.787356	0.001111	11.106634	1.881515	0.044364
  86	4.2500e-02	1.6876	14.888183	0.000505	5.048470	0.855234	0.020165
  87	4.3000e-02	1.7080	15.122103	0.001171	11.712450	1.984143	0.046784
  88	4.3500e-02	1.7274	15.327791	0.001030	10.298879	1.744677	0.041138
  89	4.4000e-02	1.7478	15.489115	0.000808	8.077552	1.368374	0.032265
  90	4.4500e-02	1.7680	15.682704	0.000969	9.693062	1.642049	0.038718
  91	4.5000e-02	1.7871	15.864193	0.000909	9.087246	1.539421	0.036298
  92	4.5500e-02	1.8076	16.025517	0.000808	8.077552	1.368374	0.032265
  93	4.6000e-02	1.8273	16.267503	0.001212	12.116328	2.052562	0.048397
  94	4.6500e-02	1.8471	16.396562	0.000646	6.462042	1.094699	0.025812
  95	4.7000e-02	1.8678	16.630482	0.001171	11.712450	1.984143	0.046784
  96	4.7500e-02	1.8874	16.807938	0.000889	8.885307	1.505212	0.035491
  97	4.8000e-02	1.9083	17.009593	0.001010	10.096940	1.710468	0.040331
  98	4.8500e-02	1.9272	17.158818	0.000747	7.471736	1.265746	0.029845
  99	4.9000e-02	1.9473	17.356440	0.000990	9.895001	1.676259	0.039524
 100	4.9500e-02	1.9670	17.586326	0.001151	11.510512	1.949933	0.045977
 101	5.0000e-02	1.9871	17.683121	0.000485	4.846531	0.821025	0.019359
 102	5.0500e-02	2.0070	17.925107	0.001212	12.116328	2.052562	0.048397
 103	5.1000e-02	2.0277	18.094497	0.000848	8.481430	1.436793	0.033878
 104	5.1500e-02	2.0483	18.235655	0.000707	7.067858	1.197328	0.028232
 105	5.2000e-02	2.0676	18.445376	0.001050	10.500818	1.778887	0.041944
 106	5.2500e-02	2.0882	18.655098	0.001050	10.500818	1.778887	0.041944
 107	5.3000e-02	2.1072	18.864819	0.001050	10.500818	1.778887	0.041944
 108	5.3500e-02	2.1274	18.985812	0.000606	6.058164	1.026281	0.024199
 109	5.4000e-02	2.1481	19.239897	0.001272	12.722144	2.155190	0.050817
 110	5.4500e-02	2.1677	19.401221	0.000808	8.077552	1.368374	0.032265
 111	5.5000e-02	2.1875	19.578677	0.000889	8.885307	1.505212	0.035491
 112	5.5500e-02	2.2084	19.828729	0.001252	12.520206	2.120980	0.050010
 113	5.6000e-02	2.2278	19.969888	0.000707	7.067858	1.197328	0.028232
 114	5.6500e-02	2.2467	20.175576	0.001030	10.298879	1.744677	0.041138
 115	5.7000e-02	2.2672	20.357065	0.000909	9.087246	1.539421	0.036298
 116	5.7500e-02	2.2879	20.542588	0.000929	9.289185	1.573630	0.037105
 117	5.8000e-02	2.3074	20.732143	0.000949	9.491124	1.607840	0.037911
 118	5.8500e-02	2.3283	20.937831	0.001030	10.298879	1.744677	0.041138
 119	5.9000e-02	2.3480	21.111255	0.000868	8.683368	1.471002	0.034685
 120	5.9500e-02	2.3683	21.264512	0.000767	7.673674	1.299956	0.030652
 121	6.0000e-02	2.3884	21.462134	0.000990	9.895001	1.676259	0.039524
 122	6.0500e-02	2.4081	21.683955	0.001111	11.106634	1.881515	0.044364
 123	6.1000e-02	2.4274	21.841245	0.000788	7.875613	1.334165	0.031458
 124	6.1500e-02	2.4478	21.998536	0.000788	7.875613	1.334165	0.031458
 125	6.2000e-02	2.4689	22.224390	0.001131	11.308573	1.915724	0.045171
 126	6.2500e-02	2.4886	22.381681	0.000788	7.875613	1.334165	0.031458
 127	6.3000e-02	2.5073	22.563170	0.000909	9.087246	1.539421	0.036298
 128	6.3500e-02	2.5296	22.736593	0.000868	8.683368	1.471002	0.034685
 129	6.4000e-02	2.5473	22.954381	0.001090	10.904695	1.847305	0.043557
 130	6.4500e-02	2.5676	23.135870	0.000909	9.087246	1.539421	0.036298
 131	6.5000e-02	2.5879	23.329459	0.000969	9.693062	1.642049	0.038718
 132	6.5500e-02	2.6071	23.514981	0.000929	9.289185	1.573630	0.037105
 133	6.6000e-02	2.6273	23.676305	0.000808	8.077552	1.368374	0.032265
 134	6.6500e-02	2.6475	23.877960	0.001010	10.096940	1.710468	0.040331
 135	6.7000e-02	2.6668	24.075582	0.000990	9.895001	1.676259	0.039524
 136	6.7500e-02	2.6868	24.232873	0.000788	7.875613	1.334165	0.031458
 137	6.8000e-02	2.7067	24.454693	0.001111	11.106634	1.881515	0.044364
 138	6.8500e-02	2.7277	24.616017	0.000808	8.077552	1.368374	0.032265
 139	6.9000e-02	2.7480	24.785407	0.000848	8.481430	1.436793	0.033878
 140	6.9500e-02	2.7679	24.970930	0.000929	9.289185	1.573630	0.037105
 141	7.0000e-02	2.7875	25.148386	0.000889	8.885307	1.505212	0.035491
 142	7.0500e-02	2.8073	25.354074	0.001030	10.298879	1.744677	0.041138
 143	7.1000e-02	2.8267	25.571862	0.001090	10.904695	1.847305	0.043557
 144	7.1500e-02	2.8480	25.676722	0.000525	5.250409	0.889443	0.020972
 145	7.2000e-02	2.8674	25.846112	0.000848	8.481430	1.436793	0.033878
 146	7.2500e-02	2.8868	26.075999	0.001151	11.510512	1.949933	0.045977
 147	7.3000e-02	2.9074	26.188926	0.000565	5.654286	0.957862	0.022585
 148	7.3500e-02	2.9274	26.459143	0.001353	13.529900	2.292027	0.054044
 149	7.4000e-02	2.9468	26.636600	0.000889	8.885307	1.505212	0.035491
 150	7.4500e-02	2.9681	26.773725	0.000687	6.865919	1.163118	0.027425
 151	7.5000e-02	2.9877	26.983446	0.001050	10.500818	1.778887	0.041944
 152	7.5500e-02	3.0080	27.164936	0.000909	9.087246	1.539421	0.036298
 153	7.6000e-02	3.0273	27.334326	0.000848	8.481430	1.436793	0.033878
 154	7.6500e-02	3.0470	27.572279	0.001191	11.914389	2.018352	0.047591
 155	7.7000e-02	3.0682	27.705371	0.000666	6.663980	1.128909	0.026618
 156	7.7500e-02	3.0884	27.902993	0.000990	9.895001	1.676259	0.039524
 157	7.8000e-02	3.1085	28.100615	0.000990	9.895001	1.676259	0.039524
 158	7.8500e-02	3.1277	28.322435	0.001111	11.106634	1.881515	0.044364
 159	7.9000e-02	3.1476	28.370832	0.000242	2.423266	0.410512	0.009679
 160	7.9500e-02	3.1677	28.641050	0.001353	13.529900	2.292027	0.054044
 161	8.0000e-02	3.1882	28.806407	0.000828	8.279491	1.402584	0.033071
 162	8.0500e-02	3.2080	28.999995	0.000969	9.693062	1.642049	0.038718
 163	8.1000e-02	3.2269	29.165353	0.000828	8.279491	1.402584	0.033071
 164	8.1500e-02	3.2477	29.338776	0.000868	8.683368	1.471002	0.034685
 165	8.2000e-02	3.2678	29.504133	0.000828	8.279491	1.402584	0.033071
 166	8.2500e-02	3.2870	29.685622	0.000909	9.087246	1.539421	0.036298
 167	8.3000e-02	3.3081	29.822748	0.000687	6.865919	1.163118	0.027425
 168	8.3500e-02	3.3282	30.044568	0.001111	11.106634	1.881515	0.044364
 169	8.4000e-02	3.3478	30.209925	0.000828	8.279491	1.402584	0.033071
 170	8.4500e-02	3.3679	30.435779	0.001131	11.308573	1.915724	0.045171
 171	8.5000e-02	3.3878	30.580970	0.000727	7.269797	1.231537	0.029038
 172	8.5500e-02	3.4079	30.766493	0.000929	9.289185	1.573630	0.037105
 173	8.6000e-02	3.4277	30.927817	0.000808	8.077552	1.368374	0.032265
 174	8.6500e-02	3.4476	31.101240	0.000868	8.683368	1.471002	0.034685
 175	8.7000e-02	3.4680	31.306928	0.001030	10.298879	1.744677	0.041138
 176	8.7500e-02	3.4885	31.496484	0.000949	9.491124	1.607840	0.037911
 177	8.8000e-02	3.5072	31.677973	0.000909	9.087246	1.539421	0.036298
 178	8.8500e-02	3.5280	31.843330	0.000828	8.279491	1.402584	0.033071
 179	8.9000e-02	3.5489	31.996588	0.000767	7.673674	1.299956	0.030652
 180	8.9500e-02	3.5680	32.174044	0.000889	8.885307	1.505212	0.035491
 181	9.0000e-02	3.5878	32.420063	0.001232	12.318267	2.086771	0.049204
 182	9.0500e-02	3.6075	32.541056	0.000606	6.058164	1.026281	0.024199
 183	9.1000e-02	3.6279	32.742711	0.001010	10.096940	1.710468	0.040331
 184	9.1500e-02	3.6470	32.875803	0.000666	6.663980	1.128909	0.026618
 185	9.2000e-02	3.6688	33.077458	0.001010	10.096940	1.710468	0.040331
 186	9.2500e-02	3.6884	33.178286	0.000505	5.048470	0.855234	0.020165
 187	9.3000e-02	3.7080	33.404139	0.001131	11.308573	1.915724	0.045171
 188	9.3500e-02	3.7283	33.617893	0.001070	10.702756	1.813096	0.042751
 189	9.4000e-02	3.7488	33.771151	0.000767	7.673674	1.299956	0.030652
 190	9.4500e-02	3.7677	33.896177	0.000626	6.260103	1.060490	0.025005
 191	9.5000e-02	3.7881	34.109931	0.001070	10.702756	1.813096	0.042751
 192	9.5500e-02	3.8071	34.303520	0.000969	9.693062	1.642049	0.038718
 193	9.6000e-02	3.8272	34.448712	0.000727	7.269797	1.231537	0.029038
 194	9.6500e-02	3.8472	34.658433	0.001050	10.500818	1.778887	0.041944
 195	9.7000e-02	3.8681	34.747161	0.000444	4.442654	0.752606	0.017746
 196	9.7500e-02	3.8873	34.952849	0.001030	10.298879	1.744677	0.041138
 197	9.8000e-02	3.9076	35.134338	0.000909	9.087246	1.539421	0.036298
 198	9.8500e-02	3.9276	35.352126	0.001090	10.904695	1.847305	0.043557
 199	9.9000e-02	3.9484	35.513450	0.000808	8.077552	1.368374	0.032265
 200	9.9500e-02	3.9661	35.634443	0.000606	6.058164	1.026281	0.024199
 201	1.0000e-01	3.9882	35.819965	0.000929	9.289185	1.573630	0.037105
 202	1.0050e-01	4.0082	36.021620	0.001010	10.096940	1.710468	0.040331
 203	1.0100e-01	4.0280	36.170845	0.000747	7.471736	1.265746	0.029845
 204	1.0150e-01	4.0472	36.303937	0.000666	6.663980	1.128909	0.026618
 205	1.0200e-01	4.0678	36.521724	0.001090	10.904695	1.847305	0.043557
 206	1.0250e-01	4.0894	36.723379	0.001010	10.096940	1.710468	0.040331
 207	1.0300e-01	4.1077	36.828240	0.000525	5.250409	0.889443	0.020972
 208	1.0350e-01	4.1266	37.046027	0.001090	10.904695	1.847305	0.043557
 209	1.0400e-01	4.1476	37.243649	0.000990	9.895001	1.676259	0.039524
 210	1.0450e-01	4.1678	37.388841	0.000727	7.269797	1.231537	0.029038
 211	1.0500e-01	4.1882	37.546131	0.000788	7.875613	1.334165	0.031458
 212	1.0550e-01	4.2079	37.784084	0.001191	11.914389	2.018352	0.047591
 213	1.0600e-01	4.2282	37.921210	0.000687	6.865919	1.163118	0.027425
 214	1.0650e-01	4.2476	38.062368	0.000707	7.067858	1.197328	0.028232
 215	1.0700e-01	4.2682	38.247891	0.000929	9.289185	1.573630	0.037105
 216	1.0750e-01	4.2877	38.421314	0.000868	8.683368	1.471002	0.034685
 217	1.0800e-01	4.3079	38.582638	0.000808	8.077552	1.368374	0.032265
 218	1.0850e-01	4.3279	38.756061	0.000868	8.683368	1.471002	0.034685
 219	1.0900e-01	4.3477	38.905286	0.000747	7.471736	1.265746	0.029845
 220	1.0950e-01	4.3683	39.026279	0.000606	6.058164	1.026281	0.024199
 221	1.1000e-01	4.3881	39.240033	0.001070	10.702756	1.813096	0.042751
 222	1.1050e-01	4.4089	39.397324	0.000788	7.875613	1.334165	0.031458
 223	1.1100e-01	4.4293	39.800634	0.002019	20.193880	3.420936	0.080662
 224	1.1150e-01	4.4479	39.707872	-0.000464	-4.644592	-0.786815	-0.018552
 225	1.1200e-01	4.4672	39.905494	0.000990	9.895001	1.676259	0.039524
 226	1.1250e-01	4.4888	40.062785	0.000788	7.875613	1.334165	0.031458
 227	1.1300e-01	4.5084	40.264440	0.001010	10.096940	1.710468	0.040331
 228	1.1350e-01	4.5282	40.373334	0.000545	5.452348	0.923653	0.021779
 229	1.1400e-01	4.5479	40.603220	0.001151	11.510512	1.949933	0.045977
 230	1.1450e-01	4.5687	40.708081	0.000525	5.250409	0.889443	0.020972
 231	1.1500e-01	4.5877	40.917802	0.001050	10.500818	1.778887	0.041944
 232	1.1550e-01	4.6088	41.079126	0.000808	8.077552	1.368374	0.032265
 233	1.1600e-01	4.6289	41.236417	0.000788	7.875613	1.334165	0.031458
 234	1.1650e-01	4.6472	41.357410	0.000606	6.058164	1.026281	0.024199
 235	1.1700e-01	4.6680	41.579230	0.001111	11.106634	1.881515	0.044364
 236	1.1750e-01	4.6887	41.724422	0.000727	7.269797	1.231537	0.029038
 237	1.1800e-01	4.7079	41.893812	0.000848	8.481430	1.436793	0.033878
 238	1.1850e-01	4.7293	42.103533	0.001050	10.500818	1.778887	0.041944
 239	1.1900e-01	4.7491	42.240658	0.000687	6.865919	1.163118	0.027425
 240	1.1950e-01	4.7687	42.422148	0.000909	9.087246	1.539421	0.036298
 241	1.2000e-01	4.7879	42.531041	0.000545	5.452348	0.923653	0.021779
 242	1.2050e-01	4.8083	42.692365	0.000808	8.077552	1.368374	0.032265
 243	1.2100e-01	4.8286	42.833524	0.000707	7.067858	1.197328	0.028232
 244	1.2150e-01	4.8483	43.075510	0.001212	12.116328	2.052562	0.048397
 245	1.2200e-01	4.8694	43.200536	0.000626	6.260103	1.060490	0.025005
 246	1.2250e-01	4.8889	43.317496	0.000586	5.856225	0.992071	0.023392
 247	1.2300e-01	4.9083	43.535283	0.001090	10.904695	1.847305	0.043557
 248	1.2350e-01	4.9283	43.700640	0.000828	8.279491	1.402584	0.033071
 249	1.2400e-01	4.9487	43.857931	0.000788	7.875613	1.334165	0.031458
 250	1.2450e-01	4.9683	44.027321	0.000848	8.481430	1.436793	0.033878
 251	1.2500e-01	4.9887	44.140248	0.000565	5.654286	0.957862	0.022585
 252	1.2550e-01	5.0079	44.265274	0.000626	6.260103	1.060490	0.025005
 253	1.2600e-01	5.0282	44.591955	0.001636	16.357043	2.770958	0.065336
 254	1.2650e-01	5.0494	44.692782	0.000505	5.048470	0.855234	0.020165
 255	1.2700e-01	5.0677	44.801676	0.000545	5.452348	0.923653	0.021779
 256	1.2750e-01	5.0879	45.019463	0.001090	10.904695	1.847305	0.043557
 257	1.2800e-01	5.1086	45.168688	0.000747	7.471736	1.265746	0.029845
 258	1.2850e-01	5.1285	45.293714	0.000626	6.260103	1.060490	0.025005
 259	1.2900e-01	5.1480	45.451005	0.000788	7.875613	1.334165	0.031458
 260	1.2950e-01	5.1682	45.640560	0.000949	9.491124	1.607840	0.037911
 261	1.3000e-01	5.1880	45.789785	0.000747	7.471736	1.265746	0.029845
 262	1.3050e-01	5.2081	45.967241	0.000889	8.885307	1.505212	0.035491
 263	1.3100e-01	5.2283	46.132598	0.000828	8.279491	1.402584	0.033071
 264	1.3150e-01	5.2484	46.269724	0.000687	6.865919	1.163118	0.027425
 265	1.3200e-01	5.2686	46.427015	0.000788	7.875613	1.334165	0.031458
 266	1.3250e-01	5.2884	46.596405	0.000848	8.481430	1.436793	0.033878
 267	1.3300e-01	5.3085	46.705298	0.000545	5.452348	0.923653	0.021779
 268	1.3350e-01	5.3282	46.890821	0.000929	9.289185	1.573630	0.037105
 269	1.3400e-01	5.3481	47.007781	0.000586	5.856225	0.992071	0.023392
 270	1.3450e-01	5.3680	47.201369	0.000969	9.693062	1.642049	0.038718
 271	1.3500e-01	5.3882	47.374793	0.000868	8.683368	1.471002	0.034685
 272	1.3550e-01	5.4080	47.532084	0.000788	7.875613	1.334165	0.031458
 273	1.3600e-01	5.4285	47.685341	0.000767	7.673674	1.299956	0.030652
 274	1.3650e-01	5.4486	47.818434	0.000666	6.663980	1.128909	0.026618
 275	1.3700e-01	5.4681	47.991857	0.000868	8.683368	1.471002	0.034685
 276	1.3750e-01	5.4883	48.157214	0.000828	8.279491	1.402584	0.033071
 277	1.3800e-01	5.5090	48.326604	0.000848	8.481430	1.436793	0.033878
 278	1.3850e-01	5.5286	48.459696	0.000666	6.663980	1.128909	0.026618
 279	1.3900e-01	5.5482	48.564557	0.000525	5.250409	0.889443	0.020972
 280	1.3950e-01	5.5688	48.754112	0.000949	9.491124	1.607840	0.037911
 281	1.4000e-01	5.5893	48.875105	0.000606	6.058164	1.026281	0.024199
 282	1.4050e-01	5.6091	49.072727	0.000990	9.895001	1.676259	0.039524
 283	1.4100e-01	5.6276	49.238084	0.000828	8.279491	1.402584	0.033071
 284	1.4150e-01	5.6482	49.407474	0.000848	8.481430	1.436793	0.033878
 285	1.4200e-01	5.6688	49.500236	0.000464	4.644592	0.786815	0.018552
 286	1.4250e-01	5.6874	49.665593	0.000828	8.279491	1.402584	0.033071
 287	1.4300e-01	5.7080	49.891446	0.001131	11.308573	1.915724	0.045171
 288	1.4350e-01	5.7286	50.012439	0.000606	6.058164	1.026281	0.024199
 289	1.4400e-01	5.7477	50.153598	0.000707	7.067858	1.197328	0.028232
 290	1.4450e-01	5.7684	50.306855	0.000767	7.673674	1.299956	0.030652
 291	1.4500e-01	5.7886	50.468179	0.000808	8.077552	1.368374	0.032265
 292	1.4550e-01	5.8076	50.605305	0.000687	6.865919	1.163118	0.027425
 293	1.4600e-01	5.8295	50.806960	0.001010	10.096940	1.710468	0.040331
 294	1.4650e-01	5.8472	50.879555	0.000363	3.634898	0.615768	0.014519
 295	1.4700e-01	5.8679	51.089277	0.001050	10.500818	1.778887	0.041944
 296	1.4750e-01	5.8881	51.242534	0.000767	7.673674	1.299956	0.030652
 297	1.4800e-01	5.9088	51.359494	0.000586	5.856225	0.992071	0.023392
 298	1.4850e-01	5.9283	51.468388	0.000545	5.452348	0.923653	0.021779
 299	1.4900e-01	5.9485	51.694241	0.001131	11.308573	1.915724	0.045171
 300	1.4950e-01	5.9680	51.827334	0.000666	6.663980	1.128909	0.026618
 301	1.5000e-01	5.9888	51.956393	0.000646	6.462042	1.094699	0.025812
 302	1.5050e-01	6.0071	52.085452	0.000646	6.462042	1.094699	0.025812
 303	1.5100e-01	6.0278	52.291140	0.001030	10.298879	1.744677	0.041138
 304	1.5150e-01	6.0492	52.432298	0.000707	7.067858	1.197328	0.028232
 305	1.5200e-01	6.0687	52.565391	0.000666	6.663980	1.128909	0.026618
 306	1.5250e-01	6.0880	52.726715	0.000808	8.077552	1.368374	0.032265
 307	1.5300e-01	6.1084	52.875939	0.000747	7.471736	1.265746	0.029845
 308	1.5350e-01	6.1273	53.009031	0.000666	6.663980	1.128909	0.026618
 309	1.5400e-01	6.1487	53.198587	0.000949	9.491124	1.607840	0.037911
 310	1.5450e-01	6.1676	53.355878	0.000788	7.875613	1.334165	0.031458
 311	1.5500e-01	6.1890	53.448639	0.000464	4.644592	0.786815	0.018552
 312	1.5550e-01	6.2085	53.682559	0.001171	11.712450	1.984143	0.046784
 313	1.5600e-01	6.2280	53.775320	0.000464	4.644592	0.786815	0.018552
 314	1.5650e-01	6.2482	53.928578	0.000767	7.673674	1.299956	0.030652
 315	1.5700e-01	6.2689	54.061670	0.000666	6.663980	1.128909	0.026618
 316	1.5750e-01	6.2874	54.210895	0.000747	7.471736	1.265746	0.029845
 317	1.5800e-01	6.3086	54.356086	0.000727	7.269797	1.231537	0.029038
 318	1.5850e-01	6.3287	54.521443	0.000828	8.279491	1.402584	0.033071
 319	1.5900e-01	6.3478	54.638403	0.000586	5.856225	0.992071	0.023392
 320	1.5950e-01	6.3681	54.743264	0.000525	5.250409	0.889443	0.020972
 321	1.6000e-01	6.3880	54.928786	0.000929	9.289185	1.573630	0.037105
 322	1.6050e-01	6.4075	55.073978	0.000727	7.269797	1.231537	0.029038
 323	1.6100e-01	6.4282	55.211103	0.000687	6.865919	1.163118	0.027425
 324	1.6150e-01	6.4478	55.400659	0.000949	9.491124	1.607840	0.037911
 325	1.6200e-01	6.4676	55.497453	0.000485	4.846531	0.821025	0.019359
 326	1.6250e-01	6.4880	55.670877	0.000868	8.683368	1.471002	0.034685
 327	1.6300e-01	6.5070	55.848333	0.000889	8.885307	1.505212	0.035491
 328	1.6350e-01	6.5277	55.969326	0.000606	6.058164	1.026281	0.024199
 329	1.6400e-01	6.5479	56.025789	0.000283	2.827143	0.478931	0.011293
 330	1.6450e-01	6.5680	56.235510	0.001050	10.500818	1.778887	0.041944
 331	1.6500e-01	6.5878	56.412967	0.000889	8.885307	1.505212	0.035491
 332	1.6550e-01	6.6077	56.578324	0.000828	8.279491	1.402584	0.033071
 333	1.6600e-01	6.6272	56.711416	0.000666	6.663980	1.128909	0.026618
 334	1.6650e-01	6.6473	56.856608	0.000727	7.269797	1.231537	0.029038
 335	1.6700e-01	6.6675	56.977601	0.000606	6.058164	1.026281	0.024199
 336	1.6750e-01	6.6882	57.066329	0.000444	4.442654	0.752606	0.017746
 337	1.6800e-01	6.7078	57.316381	0.001252	12.520206	2.120980	0.050010
 338	1.6850e-01	6.7285	57.425274	0.000545	5.452348	0.923653	0.021779
 339	1.6900e-01	6.7480	57.675327	0.001252	12.520206	2.120980	0.050010
 340	1.6950e-01	6.7676	57.622896	-0.000263	-2.625204	-0.444722	-0.010486
 341	1.7000e-01	6.7877	57.856816	0.001171	11.712450	1.984143	0.046784
 342	1.7050e-01	6.8066	57.949577	0.000464	4.644592	0.786815	0.018552
 343	1.7100e-01	6.8274	58.114934	0.000828	8.279491	1.402584	0.033071
 344	1.7150e-01	6.8484	58.276258	0.000808	8.077552	1.368374	0.032265
 345	1.7200e-01	6.8689	58.377086	0.000505	5.048470	0.855234	0.020165
 346	1.7250e-01	6.8881	58.570674	0.000969	9.693062	1.642049	0.038718
 347	1.7300e-01	6.9077	58.748131	0.000889	8.885307	1.505212	0.035491
 348	1.7350e-01	6.9278	58.808627	0.000303	3.029082	0.513140	0.012099
 349	1.7400e-01	6.9482	59.014315	0.001030	10.298879	1.744677	0.041138
 350	1.7450e-01	6.9678	59.131275	0.000586	5.856225	0.992071	0.023392
 351	1.7500e-01	6.9885	59.236136	0.000525	5.250409	0.889443	0.020972
 352	1.7550e-01	7.0074	59.397460	0.000808	8.077552	1.368374	0.032265
 353	1.7600e-01	7.0270	59.570883	0.000868	8.683368	1.471002	0.034685
 354	1.7650e-01	7.0465	59.651545	0.000404	4.038776	0.684187	0.016132
 355	1.7700e-01	7.0670	59.837067	0.000929	9.289185	1.573630	0.037105
 356	1.7750e-01	7.0874	59.966127	0.000646	6.462042	1.094699	0.025812
 357	1.7800e-01	7.1072	60.058888	0.000464	4.644592	0.786815	0.018552
 358	1.7850e-01	7.1277	60.260543	0.001010	10.096940	1.710468	0.040331
 359	1.7900e-01	7.1478	60.373470	0.000565	5.654286	0.957862	0.022585
 360	1.7950e-01	7.1674	60.530760	0.000788	7.875613	1.334165	0.031458
 361	1.8000e-01	7.1875	60.671919	0.000707	7.067858	1.197328	0.028232
 362	1.8050e-01	7.2076	60.821143	0.000747	7.471736	1.265746	0.029845
 363	1.8100e-01	7.2275	60.885673	0.000323	3.231021	0.547350	0.012906
 364	1.8150e-01	7.2485	61.046997	0.000808	8.077552	1.368374	0.032265
 365	1.8200e-01	7.2675	61.200255	0.000767	7.673674	1.299956	0.030652
 366	1.8250e-01	7.2870	61.357546	0.000788	7.875613	1.334165	0.031458
 367	1.8300e-01	7.3062	61.470472	0.000565	5.654286	0.957862	0.022585
 368	1.8350e-01	7.3268	61.615664	0.000727	7.269797	1.231537	0.029038
 369	1.8400e-01	7.3474	61.768922	0.000767	7.673674	1.299956	0.030652
 370	1.8450e-01	7.3676	61.881848	0.000565	5.654286	0.957862	0.022585
 371	1.8500e-01	7.3883	61.998808	0.000586	5.856225	0.992071	0.023392
 372	1.8550e-01	7.4072	62.123834	0.000626	6.260103	1.060490	0.025005
 373	1.8600e-01	7.4277	62.297258	0.000868	8.683368	1.471002	0.034685
 374	1.8650e-01	7.4469	62.438416	0.000707	7.067858	1.197328	0.028232
 375	1.8700e-01	7.4683	62.595707	0.000788	7.875613	1.334165	0.031458
 376	1.8750e-01	7.4869	62.757031	0.000808	8.077552	1.368374	0.032265
 377	1.8800e-01	7.5073	62.849792	0.000464	4.644592	0.786815	0.018552
 378	1.8850e-01	7.5262	62.970785	0.000606	6.058164	1.026281	0.024199
 379	1.8900e-01	7.5473	63.124043	0.000767	7.673674	1.299956	0.030652
 380	1.8950e-01	7.5677	63.277301	0.000767	7.673674	1.299956	0.030652
 381	1.9000e-01	7.5870	63.414426	0.000687	6.865919	1.163118	0.027425
 382	1.9050e-01	7.6068	63.478955	0.000323	3.231021	0.547350	0.012906
 383	1.9100e-01	7.6276	63.648346	0.000848	8.481430	1.436793	0.033878
 384	1.9150e-01	7.6477	63.773372	0.000626	6.260103	1.060490	0.025005
 385	1.9200e-01	7.6672	63.930662	0.000788	7.875613	1.334165	0.031458
 386	1.9250e-01	7.6868	64.039556	0.000545	5.452348	0.923653	0.021779
 387	1.9300e-01	7.7075	64.241211	0.001010	10.096940	1.710468	0.040331
 388	1.9350e-01	7.7271	64.358171	0.000586	5.856225	0.992071	0.023392
 389	1.9400e-01	7.7461	64.487230	0.000646	6.462042	1.094699	0.025812
 390	1.9450e-01	7.7667	64.588058	0.000505	5.048470	0.855234	0.020165
 391	1.9500e-01	7.7869	64.725183	0.000687	6.865919	1.163118	0.027425
 392	1.9550e-01	7.8082	64.870374	0.000727	7.269797	1.231537	0.029038
 393	1.9600e-01	7.8275	64.979268	0.000545	5.452348	0.923653	0.021779
 394	1.9650e-01	7.8473	65.092195	0.000565	5.654286	0.957862	0.022585
 395	1.9700e-01	7.8674	65.233353	0.000707	7.067858	1.197328	0.028232
 396	1.9750e-01	7.8879	65.430975	0.000990	9.895001	1.676259	0.039524
 397	1.9800e-01	7.9071	65.503571	0.000363	3.634898	0.615768	0.014519
 398	1.9850e-01	7.9279	65.668928	0.000828	8.279491	1.402584	0.033071
 399	1.9900e-01	7.9474	65.765722	0.000485	4.846531	0.821025	0.019359
 400	1.9950e-01	7.9681	65.935112	0.000848	8.481430	1.436793	0.033878
 401	2.0000e-01	7.9877	66.092403	0.000788	7.875613	1.334165	0.031458
 402	2.0050e-01	8.0075	66.306158	0.001070	10.702756	1.813096	0.042751
 403	2.0100e-01	8.0280	66.229529	-0.000384	-3.836837	-0.649978	-0.015326
 404	2.0150e-01	8.0487	66.471515	0.001212	12.116328	2.052562	0.048397
 405	2.0200e-01	8.0682	66.548143	0.000384	3.836837	0.649978	0.015326
 406	2.0250e-01	8.0872	66.737699	0.000949	9.491124	1.607840	0.037911
 407	2.0300e-01	8.1079	66.886924	0.000747	7.471736	1.265746	0.029845
 408	2.0350e-01	8.1281	67.011950	0.000626	6.260103	1.060490	0.025005
 409	2.0400e-01	8.1482	67.165208	0.000767	7.673674	1.299956	0.030652
 410	2.0450e-01	8.1683	67.274101	0.000545	5.452348	0.923653	0.021779
 411	2.0500e-01	8.1885	67.358796	0.000424	4.240715	0.718397	0.016939
 412	2.0550e-01	8.2080	67.508021	0.000747	7.471736	1.265746	0.029845
 413	2.0600e-01	8.2275	67.673378	0.000828	8.279491	1.402584	0.033071
 414	2.0650e-01	8.2477	67.745974	0.000363	3.634898	0.615768	0.014519
 415	2.0700e-01	8.2678	67.875033	0.000646	6.462042	1.094699	0.025812
 416	2.0750e-01	8.2886	68.020224	0.000727	7.269797	1.231537	0.029038
 417	2.0800e-01	8.3087	68.096853	0.000384	3.836837	0.649978	0.015326
 418	2.0850e-01	8.3270	68.262210	0.000828	8.279491	1.402584	0.033071
 419	2.0900e-01	8.3484	68.435634	0.000868	8.683368	1.471002	0.034685
 420	2.0950e-01	8.3691	68.540494	0.000525	5.250409	0.889443	0.020972
 421	2.1000e-01	8.3887	68.693752	0.000767	7.673674	1.299956	0.030652
 422	2.1050e-01	8.4079	68.810712	0.000586	5.856225	0.992071	0.023392
 423	2.1100e-01	8.4277	68.951870	0.000707	7.067858	1.197328	0.028232
 424	2.1150e-01	8.4482	69.056731	0.000525	5.250409	0.889443	0.020972
 425	2.1200e-01	8.4680	69.193856	0.000687	6.865919	1.163118	0.027425
 426	2.1250e-01	8.4882	69.314849	0.000606	6.058164	1.026281	0.024199
 427	2.1300e-01	8.5089	69.447941	0.000666	6.663980	1.128909	0.026618
 428	2.1350e-01	8.5272	69.540703	0.000464	4.644592	0.786815	0.018552
 429	2.1400e-01	8.5492	69.693960	0.000767	7.673674	1.299956	0.030652
 430	2.1450e-01	8.5681	69.802854	0.000545	5.452348	0.923653	0.021779
 431	2.1500e-01	8.5883	70.000476	0.000990	9.895001	1.676259	0.039524
 432	2.1550e-01	8.6084	70.024674	0.000121	1.211633	0.205256	0.004840
 433	2.1600e-01	8.6279	70.101303	0.000384	3.836837	0.649978	0.015326
 434	2.1650e-01	8.6475	70.351355	0.001252	12.520206	2.120980	0.050010
 435	2.1700e-01	8.6688	70.496547	0.000727	7.269797	1.231537	0.029038
 436	2.1750e-01	8.6890	70.585275	0.000444	4.442654	0.752606	0.017746
 437	2.1800e-01	8.7085	70.678036	0.000464	4.644592	0.786815	0.018552
 438	2.1850e-01	8.7286	70.823228	0.000727	7.269797	1.231537	0.029038
 439	2.1900e-01	8.7500	70.992618	0.000848	8.481430	1.436793	0.033878
 440	2.1950e-01	8.7677	71.081346	0.000444	4.442654	0.752606	0.017746
 441	2.2000e-01	8.7878	71.182174	0.000505	5.048470	0.855234	0.020165
 442	2.2050e-01	8.8080	71.331398	0.000747	7.471736	1.265746	0.029845
 443	2.2100e-01	8.8300	71.492722	0.000808	8.077552	1.368374	0.032265
 444	2.2150e-01	8.8489	71.605649	0.000565	5.654286	0.957862	0.022585
 445	2.2200e-01	8.8678	71.738741	0.000666	6.663980	1.128909	0.026618
 446	2.2250e-01	8.8879	71.843602	0.000525	5.250409	0.889443	0.020972
 447	2.2300e-01	8.9081	71.980727	0.000687	6.865919	1.163118	0.027425
 448	2.2350e-01	8.9270	72.081555	0.000505	5.048470	0.855234	0.020165
 449	2.2400e-01	8.9478	72.226746	0.000727	7.269797	1.231537	0.029038
 450	2.2450e-01	8.9679	72.339673	0.000565	5.654286	0.957862	0.022585
 451	2.2500e-01	8.9880	72.440501	0.000505	5.048470	0.855234	0.020165
 452	2.2550e-01	9.0076	72.573593	0.000666	6.663980	1.128909	0.026618
 453	2.2600e-01	9.0271	72.646189	0.000363	3.634898	0.615768	0.014519
 454	2.2650e-01	9.0472	72.843810	0.000990	9.895001	1.676259	0.039524
 455	2.2700e-01	9.0674	72.928505	0.000424	4.240715	0.718397	0.016939
 456	2.2750e-01	9.0881	73.118061	0.000949	9.491124	1.607840	0.037911
 457	2.2800e-01	9.1078	73.194690	0.000384	3.836837	0.649978	0.015326
 458	2.2850e-01	9.1284	73.343915	0.000747	7.471736	1.265746	0.029845
 459	2.2900e-01	9.1492	73.432643	0.000444	4.442654	0.752606	0.017746
 460	2.2950e-01	9.1675	73.569768	0.000687	6.865919	1.163118	0.027425
 461	2.3000e-01	9.1879	73.686728	0.000586	5.856225	0.992071	0.023392
 462	2.3050e-01	9.2078	73.839986	0.000767	7.673674	1.299956	0.030652
 463	2.3100e-01	9.2279	73.940813	0.000505	5.048470	0.855234	0.020165
 464	2.3150e-01	9.2480	74.077939	0.000687	6.865919	1.163118	0.027425
 465	2.3200e-01	9.2679	74.166667	0.000444	4.442654	0.752606	0.017746
 466	2.3250e-01	9.2871	74.279594	0.000565	5.654286	0.957862	0.022585
 467	2.3300e-01	9.3085	74.404620	0.000626	6.260103	1.060490	0.025005
 468	2.3350e-01	9.3286	74.545778	0.000707	7.067858	1.197328	0.028232
 469	2.3400e-01	9.3475	74.646605	0.000505	5.048470	0.855234	0.020165
 470	2.3450e-01	9.3683	74.751466	0.000525	5.250409	0.889443	0.020972
 471	2.3500e-01	9.3872	74.932955	0.000909	9.087246	1.539421	0.036298
 472	2.3550e-01	9.4080	75.090246	0.000788	7.875613	1.334165	0.031458
 473	2.3600e-01	9.4281	75.207206	0.000586	5.856225	0.992071	0.023392
 474	2.3650e-01	9.4482	75.295934	0.000444	4.442654	0.752606	0.017746
 475	2.3700e-01	9.4684	75.392729	0.000485	4.846531	0.821025	0.019359
 476	2.3750e-01	9.4879	75.457258	0.000323	3.231021	0.547350	0.012906
 477	2.3800e-01	9.5087	75.626648	0.000848	8.481430	1.436793	0.033878
 478	2.3850e-01	9.5288	75.715377	0.000444	4.442654	0.752606	0.017746
 479	2.3900e-01	9.5477	75.880734	0.000828	8.279491	1.402584	0.033071
 480	2.3950e-01	9.5673	76.046091	0.000828	8.279491	1.402584	0.033071
 481	2.4000e-01	9.5874	76.171117	0.000626	6.260103	1.060490	0.025005
 482	2.4050e-01	9.6088	76.239679	0.000343	3.432960	0.581559	0.013713
 483	2.4100e-01	9.6277	76.364705	0.000626	6.260103	1.060490	0.025005
 484	2.4150e-01	9.6478	76.473599	0.000545	5.452348	0.923653	0.021779
 485	2.4200e-01	9.6680	76.598625	0.000626	6.260103	1.060490	0.025005
 486	2.4250e-01	9.6875	76.707519	0.000545	5.452348	0.923653	0.021779
 487	2.4300e-01	9.7076	76.905141	0.000990	9.895001	1.676259	0.039524
 488	2.4350e-01	9.7281	76.965637	0.000303	3.029082	0.513140	0.012099
 489	2.4400e-01	9.7467	77.062432	0.000485	4.846531	0.821025	0.019359
 490	2.4450e-01	9.7675	77.235855	0.000868	8.683368	1.471002	0.034685
 491	2.4500e-01	9.7882	77.324583	0.000444	4.442654	0.752606	0.017746
 492	2.4550e-01	9.8090	77.368947	0.000222	2.221327	0.376303	0.008873
 493	2.4600e-01	9.8273	77.623032	0.001272	12.722144	2.155190	0.050817
 494	2.4650e-01	9.8474	77.667396	0.000222	2.221327	0.376303	0.008873
 495	2.4700e-01	9.8682	77.832753	0.000828	8.279491	1.402584	0.033071
 496	2.4750e-01	9.8871	77.913415	0.000404	4.038776	0.684187	0.016132
 497	2.4800e-01	9.9078	78.042475	0.000646	6.462042	1.094699	0.025812
 498	2.4850e-01	9.9280	78.139269	0.000485	4.846531	0.821025	0.019359
 499	2.4900e-01	9.9478	78.276394	0.000687	6.865919	1.163118	0.027425
 500	2.4950e-01	9.9677	78.421586	0.000727	7.269797	1.231537	0.029038
 501	2.5000e-01	9.9890	78.542579	0.000606	6.058164	1.026281	0.024199
 502	2.5050e-01	9.9860	78.461917	0.000404	4.038776	0.684187	-0.016132
 503	2.5100e-01	9.9701	78.324791	0.000687	6.865919	1.163118	-0.027425
 504	2.5150e-01	9.9512	78.227997	0.000485	4.846531	0.821025	-0.019359
 505	2.5200e-01	9.9335	78.090872	0.000687	6.865919	1.163118	-0.027425
 506	2.5250e-01	9.9133	78.107004	-0.000081	-0.807755	-0.136837	0.003226
 507	2.5300e-01	9.8920	78.002144	0.000525	5.250409	0.889443	-0.020972
 508	2.5350e-01	9.8724	77.824687	0.000889	8.885307	1.505212	-0.035491
 509	2.5400e-01	9.8517	77.764191	0.000303	3.029082	0.513140	-0.012099
 510	2.5450e-01	9.8322	77.675463	0.000444	4.442654	0.752606	-0.017746
 511	2.5500e-01	9.8126	77.594801	0.000404	4.038776	0.684187	-0.016132
 512	2.5550e-01	9.7925	77.489940	0.000525	5.250409	0.889443	-0.020972
 513	2.5600e-01	9.7723	77.316517	0.000868	8.683368	1.471002	-0.034685
 514	2.5650e-01	9.7528	77.243921	0.000363	3.634898	0.615768	-0.014519
 515	2.5700e-01	9.7327	77.203590	0.000202	2.019388	0.342094	-0.008066
 516	2.5750e-01	9.7125	77.086630	0.000586	5.856225	0.992071	-0.023392
 517	2.5800e-01	9.6918	76.997902	0.000444	4.442654	0.752606	-0.017746
 518	2.5850e-01	9.6729	76.929339	0.000343	3.432960	0.581559	-0.013713
 519	2.5900e-01	9.6521	76.824479	0.000525	5.250409	0.889443	-0.020972
 520	2.5950e-01	9.6326	76.711552	0.000565	5.654286	0.957862	-0.022585
 521	2.6000e-01	9.6127	76.582493	0.000646	6.462042	1.094699	-0.025812
 522	2.6050e-01	9.5935	76.481665	0.000505	5.048470	0.855234	-0.020165
 523	2.6100e-01	9.5721	76.320341	0.000808	8.077552	1.368374	-0.032265
 524	2.6150e-01	9.5526	76.288077	0.000162	1.615510	0.273675	-0.006453
 525	2.6200e-01	9.5325	76.195315	0.000464	4.644592	0.786815	-0.018552
 526	2.6250e-01	9.5129	76.078355	0.000586	5.856225	0.992071	-0.023392
 527	2.6300e-01	9.4922	75.969462	0.000545	5.452348	0.923653	-0.021779
 528	2.6350e-01	9.4720	75.884767	0.000424	4.240715	0.718397	-0.016939
 529	2.6400e-01	9.4525	75.743608	0.000707	7.067858	1.197328	-0.028232
 530	2.6450e-01	9.4324	75.626648	0.000586	5.856225	0.992071	-0.023392
 531	2.6500e-01	9.4122	75.537920	0.000444	4.442654	0.752606	-0.017746
 532	2.6550e-01	9.3927	75.489523	0.000242	2.423266	0.410512	-0.009679
 533	2.6600e-01	9.3726	75.429027	0.000303	3.029082	0.513140	-0.012099
 534	2.6650e-01	9.3524	75.299967	0.000646	6.462042	1.094699	-0.025812
 535	2.6700e-01	9.3323	75.134610	0.000828	8.279491	1.402584	-0.033071
 536	2.6750e-01	9.3127	75.033783	0.000505	5.048470	0.855234	-0.020165
 537	2.6800e-01	9.2932	74.916823	0.000586	5.856225	0.992071	-0.023392
 538	2.6850e-01	9.2725	74.820029	0.000485	4.846531	0.821025	-0.019359
 539	2.6900e-01	9.2529	74.747433	0.000363	3.634898	0.615768	-0.014519
 540	2.6950e-01	9.2328	74.626440	0.000606	6.058164	1.026281	-0.024199
 541	2.7000e-01	9.2133	74.537712	0.000444	4.442654	0.752606	-0.017746
 542	2.7050e-01	9.1925	74.420752	0.000586	5.856225	0.992071	-0.023392
 543	2.7100e-01	9.1724	74.336057	0.000424	4.240715	0.718397	-0.016939
 544	2.7150e-01	9.1528	74.231196	0.000525	5.250409	0.889443	-0.020972
 545	2.7200e-01	9.1321	74.057773	0.000868	8.683368	1.471002	-0.034685
 546	2.7250e-01	9.1116	73.989210	0.000343	3.432960	0.581559	-0.013713
 547	2.7300e-01	9.0924	73.880317	0.000545	5.452348	0.923653	-0.021779
 548	2.7350e-01	9.0741	73.791589	0.000444	4.442654	0.752606	-0.017746
 549	2.7400e-01	9.0540	73.658496	0.000666	6.663980	1.128909	-0.026618
 550	2.7450e-01	9.0327	73.585901	0.000363	3.634898	0.615768	-0.014519
 551	2.7500e-01	9.0125	73.448775	0.000687	6.865919	1.163118	-0.027425
 552	2.7550e-01	8.9923	73.372146	0.000384	3.836837	0.649978	-0.015326
 553	2.7600e-01	8.9728	73.214855	0.000788	7.875613	1.334165	-0.031458
 554	2.7650e-01	8.9532	73.158392	0.000283	2.827143	0.478931	-0.011293
 555	2.7700e-01	8.9325	72.984969	0.000868	8.683368	1.471002	-0.034685
 556	2.7750e-01	8.9136	72.952704	0.000162	1.615510	0.273675	-0.006453
 557	2.7800e-01	8.8916	72.815579	0.000687	6.865919	1.163118	-0.027425
 558	2.7850e-01	8.8727	72.734917	0.000404	4.038776	0.684187	-0.016132
 559	2.7900e-01	8.8525	72.589725	0.000727	7.269797	1.231537	-0.029038
 560	2.7950e-01	8.8312	72.496964	0.000464	4.644592	0.786815	-0.018552
 561	2.8000e-01	8.8141	72.396136	0.000505	5.048470	0.855234	-0.020165
 562	2.8050e-01	8.7930	72.263044	0.000666	6.663980	1.128909	-0.026618
 563	2.8100e-01	8.7738	72.150117	0.000565	5.654286	0.957862	-0.022585
 564	2.8150e-01	8.7527	72.029124	0.000606	6.058164	1.026281	-0.024199
 565	2.8200e-01	8.7329	71.976694	0.000263	2.625204	0.444722	-0.010486
 566	2.8250e-01	8.7134	71.819403	0.000788	7.875613	1.334165	-0.031458
 567	2.8300e-01	8.6932	71.762940	0.000283	2.827143	0.478931	-0.011293
 568	2.8350e-01	8.6731	71.597583	0.000828	8.279491	1.402584	-0.033071
 569	2.8400e-01	8.6536	71.512888	0.000424	4.240715	0.718397	-0.016939
 570	2.8450e-01	8.6322	71.383829	0.000646	6.462042	1.094699	-0.025812
 571	2.8500e-01	8.6127	71.278968	0.000525	5.250409	0.889443	-0.020972
 572	2.8550e-01	8.5938	71.153942	0.000626	6.260103	1.060490	-0.025005
 573	2.8600e-01	8.5730	71.028916	0.000626	6.260103	1.060490	-0.025005
 574	2.8650e-01	8.5529	70.944221	0.000424	4.240715	0.718397	-0.016939
 575	2.8700e-01	8.5333	70.835327	0.000545	5.452348	0.923653	-0.021779
 576	2.8750e-01	8.5135	70.718367	0.000586	5.856225	0.992071	-0.023392
 577	2.8800e-01	8.4937	70.625606	0.000464	4.644592	0.786815	-0.018552
 578	2.8850e-01	8.4735	70.504613	0.000606	6.058164	1.026281	-0.024199
 579	2.8900e-01	8.4537	70.311024	0.000969	9.693062	1.642049	-0.038718
 580	2.8950e-01	8.4338	70.238429	0.000363	3.634898	0.615768	-0.014519
 581	2.9000e-01	8.4137	70.089204	0.000747	7.471736	1.265746	-0.029845
 582	2.9050e-01	8.3936	70.028708	0.000303	3.029082	0.513140	-0.012099
 583	2.9100e-01	8.3722	69.839152	0.000949	9.491124	1.607840	-0.037911
 584	2.9150e-01	8.3524	69.802854	0.000182	1.817449	0.307884	-0.007260
 585	2.9200e-01	8.3331	69.758490	0.000222	2.221327	0.376303	-0.008873
 586	2.9250e-01	8.3136	69.597166	0.000808	8.077552	1.368374	-0.032265
 587	2.9300e-01	8.2922	69.447941	0.000747	7.471736	1.265746	-0.029845
 588	2.9350e-01	8.2727	69.351147	0.000485	4.846531	0.821025	-0.019359
 589	2.9400e-01	8.2532	69.205955	0.000727	7.269797	1.231537	-0.029038
 590	2.9450e-01	8.2330	69.193856	0.000061	0.605816	0.102628	-0.002420
 591	2.9500e-01	8.2129	68.972036	0.001111	11.106634	1.881515	-0.044364
 592	2.9550e-01	8.1927	68.891374	0.000404	4.038776	0.684187	-0.016132
 593	2.9600e-01	8.1735	68.810712	0.000404	4.038776	0.684187	-0.016132
 594	2.9650e-01	8.1531	68.697785	0.000565	5.654286	0.957862	-0.022585
 595	2.9700e-01	8.1329	68.552593	0.000727	7.269797	1.231537	-0.029038
 596	2.9750e-01	8.1125	68.475965	0.000384	3.836837	0.649978	-0.015326
 597	2.9800e-01	8.0939	68.314641	0.000808	8.077552	1.368374	-0.032265
 598	2.9850e-01	8.0725	68.157350	0.000788	7.875613	1.334165	-0.031458
 599	2.9900e-01	8.0530	68.088787	0.000343	3.432960	0.581559	-0.013713
 600	2.9950e-01	8.0328	67.927463	0.000808	8.077552	1.368374	-0.032265
 601	3.0000e-01	8.0133	67.822603	0.000525	5.250409	0.889443	-0.020972
 602	3.0050e-01	7.9938	67.661279	0.000808	8.077552	1.368374	-0.032265
 603	3.0100e-01	7.9730	67.572551	0.000444	4.442654	0.752606	-0.017746
 604	3.0150e-01	7.9535	67.487855	0.000424	4.240715	0.718397	-0.016939
 605	3.0200e-01	7.9330	67.435425	0.000263	2.625204	0.444722	-0.010486
 606	3.0250e-01	7.9132	67.282167	0.000767	7.673674	1.299956	-0.030652
 607	3.0300e-01	7.8925	67.132943	0.000747	7.471736	1.265746	-0.029845
 608	3.0350e-01	7.8723	67.072446	0.000303	3.029082	0.513140	-0.012099
 609	3.0400e-01	7.8534	66.923222	0.000747	7.471736	1.265746	-0.029845
 610	3.0450e-01	7.8326	66.753832	0.000848	8.481430	1.436793	-0.033878
 611	3.0500e-01	7.8133	66.685269	0.000343	3.432960	0.581559	-0.013713
 612	3.0550e-01	7.7933	66.515879	0.000848	8.481430	1.436793	-0.033878
 613	3.0600e-01	7.7728	66.451349	0.000323	3.231021	0.547350	-0.012906
 614	3.0650e-01	7.7527	66.326323	0.000626	6.260103	1.060490	-0.025005
 615	3.0700e-01	7.7325	66.233562	0.000464	4.644592	0.786815	-0.018552
 616	3.0750e-01	7.7124	66.120635	0.000565	5.654286	0.957862	-0.022585
 617	3.0800e-01	7.6923	65.967377	0.000767	7.673674	1.299956	-0.030652
 618	3.0850e-01	7.6715	65.906881	0.000303	3.029082	0.513140	-0.012099
 619	3.0900e-01	7.6532	65.765722	0.000707	7.067858	1.197328	-0.028232
 620	3.0950e-01	7.6324	65.612465	0.000767	7.673674	1.299956	-0.030652
 621	3.1000e-01	7.6126	65.467273	0.000727	7.269797	1.231537	-0.029038
 622	3.1050e-01	7.5931	65.358379	0.000545	5.452348	0.923653	-0.021779
 623	3.1100e-01	7.5714	65.273684	0.000424	4.240715	0.718397	-0.016939
 624	3.1150e-01	7.5526	65.080096	0.000969	9.693062	1.642049	-0.038718
 625	3.1200e-01	7.5330	65.019599	0.000303	3.029082	0.513140	-0.012099
 626	3.1250e-01	7.5128	64.850209	0.000848	8.481430	1.436793	-0.033878
 627	3.1300e-01	7.4933	64.757448	0.000464	4.644592	0.786815	-0.018552
 628	3.1350e-01	7.4738	64.624355	0.000666	6.663980	1.128909	-0.026618
 629	3.1400e-01	7.4530	64.515462	0.000545	5.452348	0.923653	-0.021779
 630	3.1450e-01	7.4329	64.426734	0.000444	4.442654	0.752606	-0.017746
 631	3.1500e-01	7.4133	64.273476	0.000767	7.673674	1.299956	-0.030652
 632	3.1550e-01	7.3932	64.172648	0.000505	5.048470	0.855234	-0.020165
 633	3.1600e-01	7.3730	64.087953	0.000424	4.240715	0.718397	-0.016939
 634	3.1650e-01	7.3529	63.934696	0.000767	7.673674	1.299956	-0.030652
 635	3.1700e-01	7.3322	63.805636	0.000646	6.462042	1.094699	-0.025812
 636	3.1750e-01	7.3126	63.737074	0.000343	3.432960	0.581559	-0.013713
 637	3.1800e-01	7.2931	63.563651	0.000868	8.683368	1.471002	-0.034685
 638	3.1850e-01	7.2723	63.454757	0.000545	5.452348	0.923653	-0.021779
 639	3.1900e-01	7.2525	63.313598	0.000707	7.067858	1.197328	-0.028232
 640	3.1950e-01	7.2327	63.245036	0.000343	3.432960	0.581559	-0.013713
 641	3.2000e-01	7.2131	63.095811	0.000747	7.471736	1.265746	-0.029845
 642	3.2050e-01	7.1930	62.942553	0.000767	7.673674	1.299956	-0.030652
 643	3.2100e-01	7.1732	62.785262	0.000788	7.875613	1.334165	-0.031458
 644	3.2150e-01	7.1530	62.712667	0.000363	3.634898	0.615768	-0.014519
 645	3.2200e-01	7.1332	62.559409	0.000767	7.673674	1.299956	-0.030652
 646	3.2250e-01	7.1130	62.482780	0.000384	3.836837	0.649978	-0.015326
 647	3.2300e-01	7.0929	62.341622	0.000707	7.067858	1.197328	-0.028232
 648	3.2350e-01	7.0737	62.204496	0.000687	6.865919	1.163118	-0.027425
 649	3.2400e-01	7.0532	62.047205	0.000788	7.875613	1.334165	-0.031458
 650	3.2450e-01	7.0331	61.970577	0.000384	3.836837	0.649978	-0.015326
 651	3.2500e-01	7.0123	61.861683	0.000545	5.452348	0.923653	-0.021779
 652	3.2550e-01	6.9937	61.720524	0.000707	7.067858	1.197328	-0.028232
 653	3.2600e-01	6.9733	61.672127	0.000242	2.423266	0.410512	-0.009679
 654	3.2650e-01	6.9531	61.506770	0.000828	8.279491	1.402584	-0.033071
 655	3.2700e-01	6.9333	61.329314	0.000889	8.885307	1.505212	-0.035491
 656	3.2750e-01	6.9135	61.192189	0.000687	6.865919	1.163118	-0.027425
 657	3.2800e-01	6.8933	61.111527	0.000404	4.038776	0.684187	-0.016132
 658	3.2850e-01	6.8719	61.002633	0.000545	5.452348	0.923653	-0.021779
 659	3.2900e-01	6.8536	60.938103	0.000323	3.231021	0.547350	-0.012906
 660	3.2950e-01	6.8335	60.688051	0.001252	12.520206	2.120980	-0.050010
 661	3.3000e-01	6.8130	60.579158	0.000545	5.452348	0.923653	-0.021779
 662	3.3050e-01	6.7932	60.518661	0.000303	3.029082	0.513140	-0.012099
 663	3.3100e-01	6.7728	60.373470	0.000727	7.269797	1.231537	-0.029038
 664	3.3150e-01	6.7542	60.200046	0.000868	8.683368	1.471002	-0.034685
 665	3.3200e-01	6.7337	60.042755	0.000788	7.875613	1.334165	-0.031458
 666	3.3250e-01	6.7133	59.974193	0.000343	3.432960	0.581559	-0.013713
 667	3.3300e-01	6.6937	59.841101	0.000666	6.663980	1.128909	-0.026618
 668	3.3350e-01	6.6730	59.703975	0.000687	6.865919	1.163118	-0.027425
 669	3.3400e-01	6.6533	59.574916	0.000646	6.462042	1.094699	-0.025812
 670	3.3450e-01	6.6321	59.474089	0.000505	5.048470	0.855234	-0.020165
 671	3.3500e-01	6.6144	59.377294	0.000485	4.846531	0.821025	-0.019359
 672	3.3550e-01	6.5930	59.191772	0.000929	9.289185	1.573630	-0.037105
 673	3.3600e-01	6.5735	59.002216	0.000949	9.491124	1.607840	-0.037911
 674	3.3650e-01	6.5534	58.881223	0.000606	6.058164	1.026281	-0.024199
 675	3.3700e-01	6.5323	58.857024	0.000121	1.211633	0.205256	-0.004840
 676	3.3750e-01	6.5131	58.687634	0.000848	8.481430	1.436793	-0.033878
 677	3.3800e-01	6.4929	58.522277	0.000828	8.279491	1.402584	-0.033071
 678	3.3850e-01	6.4731	58.453715	0.000343	3.432960	0.581559	-0.013713
 679	3.3900e-01	6.4532	58.288358	0.000828	8.279491	1.402584	-0.033071
 680	3.3950e-01	6.4326	58.183497	0.000525	5.250409	0.889443	-0.020972
 681	3.4000e-01	6.4136	58.034272	0.000747	7.471736	1.265746	-0.029845
 682	3.4050e-01	6.3922	57.868915	0.000828	8.279491	1.402584	-0.033071
 683	3.4100e-01	6.3733	57.804386	0.000323	3.231021	0.547350	-0.012906
 684	3.4150e-01	6.3525	57.663227	0.000707	7.067858	1.197328	-0.028232
 685	3.4200e-01	6.3321	57.518036	0.000727	7.269797	1.231537	-0.029038
 686	3.4250e-01	6.3113	57.352679	0.000828	8.279491	1.402584	-0.033071
 687	3.4300e-01	6.2936	57.259917	0.000464	4.644592	0.786815	-0.018552
 688	3.4350e-01	6.2729	57.074395	0.000929	9.289185	1.573630	-0.037105
 689	3.4400e-01	6.2540	56.993733	0.000404	4.038776	0.684187	-0.016132
 690	3.4450e-01	6.2332	56.800144	0.000969	9.693062	1.642049	-0.038718
 691	3.4500e-01	6.2141	56.687217	0.000565	5.654286	0.957862	-0.022585
 692	3.4550e-01	6.1938	56.630754	0.000283	2.827143	0.478931	-0.011293
 693	3.4600e-01	6.1737	56.481529	0.000747	7.471736	1.265746	-0.029845
 694	3.4650e-01	6.1526	56.255676	0.001131	11.308573	1.915724	-0.045171
 695	3.4700e-01	6.1340	56.211312	0.000222	2.221327	0.376303	-0.008873
 696	3.4750e-01	6.1127	56.102418	0.000545	5.452348	0.923653	-0.021779
 697	3.4800e-01	6.0941	55.965293	0.000687	6.865919	1.163118	-0.027425
 698	3.4850e-01	6.0731	55.828167	0.000687	6.865919	1.163118	-0.027425
 699	3.4900e-01	6.0529	55.674910	0.000767	7.673674	1.299956	-0.030652
 700	3.4950e-01	6.0336	55.553917	0.000606	6.058164	1.026281	-0.024199
 701	3.5000e-01	6.0132	55.412758	0.000707	7.067858	1.197328	-0.028232
 702	3.5050e-01	5.9927	55.251434	0.000808	8.077552	1.368374	-0.032265
 703	3.5100e-01	5.9723	55.090110	0.000808	8.077552	1.368374	-0.032265
 704	3.5150e-01	5.9534	54.957018	0.000666	6.663980	1.128909	-0.026618
 705	3.5200e-01	5.9332	54.900555	0.000283	2.827143	0.478931	-0.011293
 706	3.5250e-01	5.9137	54.674701	0.001131	11.308573	1.915724	-0.045171
 707	3.5300e-01	5.8936	54.581940	0.000464	4.644592	0.786815	-0.018552
 708	3.5350e-01	5.8728	54.400450	0.000909	9.087246	1.539421	-0.036298
 709	3.5400e-01	5.8542	54.323822	0.000384	3.836837	0.649978	-0.015326
 710	3.5450e-01	5.8328	54.218961	0.000525	5.250409	0.889443	-0.020972
 711	3.5500e-01	5.8128	54.073770	0.000727	7.269797	1.231537	-0.029038
 712	3.5550e-01	5.7941	53.912446	0.000808	8.077552	1.368374	-0.032265
 713	3.5600e-01	5.7727	53.743055	0.000848	8.481430	1.436793	-0.033878
 714	3.5650e-01	5.7532	53.666427	0.000384	3.836837	0.649978	-0.015326
 715	3.5700e-01	5.7324	53.533334	0.000666	6.663980	1.128909	-0.026618
 716	3.5750e-01	5.7129	53.327646	0.001030	10.298879	1.744677	-0.041138
 717	3.5800e-01	5.6934	53.186488	0.000707	7.067858	1.197328	-0.028232
 718	3.5850e-01	5.6723	53.081627	0.000525	5.250409	0.889443	-0.020972
 719	3.5900e-01	5.6526	52.960634	0.000606	6.058164	1.026281	-0.024199
 720	3.5950e-01	5.6328	52.746880	0.001070	10.702756	1.813096	-0.042751
 721	3.6000e-01	5.6143	52.702516	0.000222	2.221327	0.376303	-0.008873
 722	3.6050e-01	5.5930	52.541192	0.000808	8.077552	1.368374	-0.032265
 723	3.6100e-01	5.5730	52.396000	0.000727	7.269797	1.231537	-0.029038
 724	3.6150e-01	5.5530	52.287107	0.000545	5.452348	0.923653	-0.021779
 725	3.6200e-01	5.5341	52.093518	0.000969	9.693062	1.642049	-0.038718
 726	3.6250e-01	5.5133	51.944293	0.000747	7.471736	1.265746	-0.029845
 727	3.6300e-01	5.4938	51.827334	0.000586	5.856225	0.992071	-0.023392
 728	3.6350e-01	5.4733	51.714407	0.000565	5.654286	0.957862	-0.022585
 729	3.6400e-01	5.4529	51.629712	0.000424	4.240715	0.718397	-0.016939
 730	3.6450e-01	5.4321	51.403858	0.001131	11.308573	1.915724	-0.045171
 731	3.6500e-01	5.4126	51.303031	0.000505	5.048470	0.855234	-0.020165
 732	3.6550e-01	5.3934	51.194137	0.000545	5.452348	0.923653	-0.021779
 733	3.6600e-01	5.3729	51.028780	0.000828	8.279491	1.402584	-0.033071
 734	3.6650e-01	5.3525	50.919886	0.000545	5.452348	0.923653	-0.021779
 735	3.6700e-01	5.3334	50.734364	0.000929	9.289185	1.573630	-0.037105
 736	3.6750e-01	5.3133	50.609338	0.000626	6.260103	1.060490	-0.025005
 737	3.6800e-01	5.2930	50.431881	0.000889	8.885307	1.505212	-0.035491
 738	3.6850e-01	5.2727	50.322988	0.000545	5.452348	0.923653	-0.021779
 739	3.6900e-01	5.2533	50.185862	0.000687	6.865919	1.163118	-0.027425
 740	3.6950e-01	5.2325	50.044704	0.000707	7.067858	1.197328	-0.028232
 741	3.7000e-01	5.2124	49.895479	0.000747	7.471736	1.265746	-0.029845
 742	3.7050e-01	5.1929	49.726089	0.000848	8.481430	1.436793	-0.033878
 743	3.7100e-01	5.1724	49.552666	0.000868	8.683368	1.471002	-0.034685
 744	3.7150e-01	5.1529	49.431673	0.000606	6.058164	1.026281	-0.024199
 745	3.7200e-01	5.1332	49.330846	0.000505	5.048470	0.855234	-0.020165
 746	3.7250e-01	5.1123	49.169522	0.000808	8.077552	1.368374	-0.032265
 747	3.7300e-01	5.0922	49.036429	0.000666	6.663980	1.128909	-0.026618
 748	3.7350e-01	5.0726	48.834774	0.001010	10.096940	1.710468	-0.040331
 749	3.7400e-01	5.0519	48.709748	0.000626	6.260103	1.060490	-0.025005
 750	3.7450e-01	5.0328	48.564557	0.000727	7.269797	1.231537	-0.029038
 751	3.7500e-01	5.0128	48.495994	0.000343	3.432960	0.581559	-0.013713
 752	3.7550e-01	4.9927	48.310472	0.000929	9.289185	1.573630	-0.037105
 753	3.7600e-01	4.9734	48.145115	0.000828	8.279491	1.402584	-0.033071
 754	3.7650e-01	4.9530	48.003956	0.000707	7.067858	1.197328	-0.028232
 755	3.7700e-01	4.9338	47.886996	0.000586	5.856225	0.992071	-0.023392
 756	3.7750e-01	4.9130	47.770036	0.000586	5.856225	0.992071	-0.023392
 757	3.7800e-01	4.8926	47.576448	0.000969	9.693062	1.642049	-0.038718
 758	3.7850e-01	4.8730	47.479653	0.000485	4.846531	0.821025	-0.019359
 759	3.7900e-01	4.8526	47.326396	0.000767	7.673674	1.299956	-0.030652
 760	3.7950e-01	4.8343	47.120708	0.001030	10.298879	1.744677	-0.041138
 761	3.8000e-01	4.8132	47.015847	0.000525	5.250409	0.889443	-0.020972
 762	3.8050e-01	4.7916	46.854523	0.000808	8.077552	1.368374	-0.032265
 763	3.8100e-01	4.7729	46.681100	0.000868	8.683368	1.471002	-0.034685
 764	3.8150e-01	4.7530	46.588339	0.000464	4.644592	0.786815	-0.018552
 765	3.8200e-01	4.7323	46.418948	0.000848	8.481430	1.436793	-0.033878
 766	3.8250e-01	4.7119	46.281823	0.000687	6.865919	1.163118	-0.027425
 767	3.8300e-01	4.6930	46.152764	0.000646	6.462042	1.094699	-0.025812
 768	3.8350e-01	4.6729	45.955142	0.000990	9.895001	1.676259	-0.039524
 769	3.8400e-01	4.6527	45.842215	0.000565	5.654286	0.957862	-0.022585
 770	3.8450e-01	4.6326	45.692991	0.000747	7.471736	1.265746	-0.029845
 771	3.8500e-01	4.6124	45.588130	0.000525	5.250409	0.889443	-0.020972
 772	3.8550e-01	4.5923	45.346144	0.001212	12.116328	2.052562	-0.048397
 773	3.8600e-01	4.5718	45.249350	0.000485	4.846531	0.821025	-0.019359
 774	3.8650e-01	4.5515	45.055761	0.000969	9.693062	1.642049	-0.038718
 775	3.8700e-01	4.5325	44.882338	0.000868	8.683368	1.471002	-0.034685
 776	3.8750e-01	4.5123	44.737146	0.000727	7.269797	1.231537	-0.029038
 777	3.8800e-01	4.4923	44.608087	0.000646	6.462042	1.094699	-0.025812
 778	3.8850e-01	4.4727	44.450796	0.000788	7.875613	1.334165	-0.031458
 779	3.8900e-01	4.4525	44.341903	0.000545	5.452348	0.923653	-0.021779
 780	3.8950e-01	4.4324	44.192678	0.000747	7.471736	1.265746	-0.029845
 781	3.9000e-01	4.4125	44.003122	0.000949	9.491124	1.607840	-0.037911
 782	3.9050e-01	4.3915	43.914394	0.000444	4.442654	0.752606	-0.017746
 783	3.9100e-01	4.3723	43.732905	0.000909	9.087246	1.539421	-0.036298
 784	3.9150e-01	4.3527	43.595779	0.000687	6.865919	1.163118	-0.027425
 785	3.9200e-01	4.3323	43.426389	0.000848	8.481430	1.436793	-0.033878
 786	3.9250e-01	4.3126	43.273131	0.000767	7.673674	1.299956	-0.030652
 787	3.9300e-01	4.2920	43.156172	0.000586	5.856225	0.992071	-0.023392
 788	3.9350e-01	4.2720	42.966616	0.000949	9.491124	1.607840	-0.037911
 789	3.9400e-01	4.2522	42.785127	0.000909	9.087246	1.539421	-0.036298
 790	3.9450e-01	4.2322	42.668167	0.000586	5.856225	0.992071	-0.023392
 791	3.9500e-01	4.2126	42.531041	0.000687	6.865919	1.163118	-0.027425
 792	3.9550e-01	4.1925	42.389883	0.000707	7.067858	1.197328	-0.028232
 793	3.9600e-01	4.1730	42.192261	0.000990	9.895001	1.676259	-0.039524
 794	3.9650e-01	4.1525	42.075301	0.000586	5.856225	0.992071	-0.023392
 795	3.9700e-01	4.1321	41.845415	0.001151	11.510512	1.949933	-0.045977
 796	3.9750e-01	4.1125	41.776852	0.000343	3.432960	0.581559	-0.013713
 797	3.9800e-01	4.0912	41.603429	0.000868	8.683368	1.471002	-0.034685
 798	3.9850e-01	4.0726	41.397741	0.001030	10.298879	1.744677	-0.041138
 799	3.9900e-01	4.0524	41.309012	0.000444	4.442654	0.752606	-0.017746
 800	3.9950e-01	4.0320	41.163821	0.000727	7.269797	1.231537	-0.029038
 801	4.0000e-01	4.0121	40.986365	0.000889	8.885307	1.505212	-0.035491
 802	4.0050e-01	3.9923	40.829074	0.000788	7.875613	1.334165	-0.031458
 803	4.0100e-01	3.9722	40.691948	0.000687	6.865919	1.163118	-0.027425
 804	4.0150e-01	3.9522	40.502393	0.000949	9.491124	1.607840	-0.037911
 805	4.0200e-01	3.9322	40.337036	0.000828	8.279491	1.402584	-0.033071
 806	4.0250e-01	3.9124	40.163612	0.000868	8.683368	1.471002	-0.034685
 807	4.0300e-01	3.8922	39.994222	0.000848	8.481430	1.436793	-0.033878
 808	4.0350e-01	3.8721	39.828865	0.000828	8.279491	1.402584	-0.033071
 809	4.0400e-01	3.8525	39.651409	0.000889	8.885307	1.505212	-0.035491
 810	4.0450e-01	3.8321	39.582846	0.000343	3.432960	0.581559	-0.013713
 811	4.0500e-01	3.8123	39.413456	0.000848	8.481430	1.436793	-0.033878
 812	4.0550e-01	3.7915	39.312629	0.000505	5.048470	0.855234	-0.020165
 813	4.0600e-01	3.7721	39.090808	0.001111	11.106634	1.881515	-0.044364
 814	4.0650e-01	3.7524	38.901253	0.000949	9.491124	1.607840	-0.037911
 815	4.0700e-01	3.7329	38.776227	0.000626	6.260103	1.060490	-0.025005
 816	4.0750e-01	3.7128	38.627002	0.000747	7.471736	1.265746	-0.029845
 817	4.0800e-01	3.6933	38.449546	0.000889	8.885307	1.505212	-0.035491
 818	4.0850e-01	3.6728	38.312420	0.000687	6.865919	1.163118	-0.027425
 819	4.0900e-01	3.6524	38.138997	0.000868	8.683368	1.471002	-0.034685
 820	4.0950e-01	3.6322	37.997838	0.000707	7.067858	1.197328	-0.028232
 821	4.1000e-01	3.6131	37.892978	0.000525	5.250409	0.889443	-0.020972
 822	4.1050e-01	3.5925	37.703422	0.000949	9.491124	1.607840	-0.037911
 823	4.1100e-01	3.5725	37.485635	0.001090	10.904695	1.847305	-0.043557
 824	4.1150e-01	3.5524	37.308179	0.000889	8.885307	1.505212	-0.035491
 825	4.1200e-01	3.5329	37.146855	0.000808	8.077552	1.368374	-0.032265
 826	4.1250e-01	3.5129	36.977465	0.000848	8.481430	1.436793	-0.033878
 827	4.1300e-01	3.4927	36.844372	0.000666	6.663980	1.128909	-0.026618
 828	4.1350e-01	3.4723	36.707247	0.000687	6.865919	1.163118	-0.027425
 829	4.1400e-01	3.4521	36.509625	0.000990	9.895001	1.676259	-0.039524
 830	4.1450e-01	3.4320	36.336202	0.000868	8.683368	1.471002	-0.034685
 831	4.1500e-01	3.4123	36.223275	0.000565	5.654286	0.957862	-0.022585
 832	4.1550e-01	3.3920	36.065984	0.000788	7.875613	1.334165	-0.031458
 833	4.1600e-01	3.3725	35.900627	0.000828	8.279491	1.402584	-0.033071
 834	4.1650e-01	3.3533	35.719138	0.000909	9.087246	1.539421	-0.036298
 835	4.1700e-01	3.3325	35.557814	0.000808	8.077552	1.368374	-0.032265
 836	4.1750e-01	3.3125	35.404556	0.000767	7.673674	1.299956	-0.030652
 837	4.1800e-01	3.2928	35.239199	0.000828	8.279491	1.402584	-0.033071
 838	4.1850e-01	3.2721	35.073842	0.000828	8.279491	1.402584	-0.033071
 839	4.1900e-01	3.2524	34.904452	0.000848	8.481430	1.436793	-0.033878
 840	4.1950e-01	3.2325	34.755227	0.000747	7.471736	1.265746	-0.029845
 841	4.2000e-01	3.2123	34.557605	0.000990	9.895001	1.676259	-0.039524
 842	4.2050e-01	3.1922	34.335785	0.001111	11.106634	1.881515	-0.044364
 843	4.2100e-01	3.1718	34.259156	0.000384	3.836837	0.649978	-0.015326
 844	4.2150e-01	3.1517	34.101865	0.000788	7.875613	1.334165	-0.031458
 845	4.2200e-01	3.1325	33.880045	0.001111	11.106634	1.881515	-0.044364
 846	4.2250e-01	3.1119	33.750986	0.000646	6.462042	1.094699	-0.025812
 847	4.2300e-01	3.0928	33.537231	0.001070	10.702756	1.813096	-0.042751
 848	4.2350e-01	3.0733	33.375907	0.000808	8.077552	1.368374	-0.032265
 849	4.2400e-01	3.0530	33.234749	0.000707	7.067858	1.197328	-0.028232
 850	4.2450e-01	3.0316	33.081491	0.000767	7.673674	1.299956	-0.030652
 851	4.2500e-01	3.0122	32.928234	0.000767	7.673674	1.299956	-0.030652
 852	4.2550e-01	2.9926	32.710446	0.001090	10.904695	1.847305	-0.043557
 853	4.2600e-01	2.9718	32.589453	0.000606	6.058164	1.026281	-0.024199
 854	4.2650e-01	2.9523	32.383765	0.001030	10.298879	1.744677	-0.041138
 855	4.2700e-01	2.9321	32.206309	0.000889	8.885307	1.505212	-0.035491
 856	4.2750e-01	2.9112	32.040952	0.000828	8.279491	1.402584	-0.033071
 857	4.2800e-01	2.8918	31.843330	0.000990	9.895001	1.676259	-0.039524
 858	4.2850e-01	2.8720	31.698138	0.000727	7.269797	1.231537	-0.029038
 859	4.2900e-01	2.8525	31.536815	0.000808	8.077552	1.368374	-0.032265
 860	4.2950e-01	2.8317	31.359358	0.000889	8.885307	1.505212	-0.035491
 861	4.3000e-01	2.8114	31.242398	0.000586	5.856225	0.992071	-0.023392
 862	4.3050e-01	2.7930	31.044776	0.000990	9.895001	1.676259	-0.039524
 863	4.3100e-01	2.7728	30.903618	0.000707	7.067858	1.197328	-0.028232
 864	4.3150e-01	2.7524	30.681798	0.001111	11.106634	1.881515	-0.044364
 865	4.3200e-01	2.7326	30.552738	0.000646	6.462042	1.094699	-0.025812
 866	4.3250e-01	2.7119	30.330918	0.001111	11.106634	1.881515	-0.044364
 867	4.3300e-01	2.6922	30.133296	0.000990	9.895001	1.676259	-0.039524
 868	4.3350e-01	2.6730	30.020369	0.000565	5.654286	0.957862	-0.022585
 869	4.3400e-01	2.6520	29.810648	0.001050	10.500818	1.778887	-0.041944
 870	4.3450e-01	2.6323	29.621093	0.000949	9.491124	1.607840	-0.037911
 871	4.3500e-01	2.6118	29.471868	0.000747	7.471736	1.265746	-0.029845
 872	4.3550e-01	2.5919	29.298445	0.000868	8.683368	1.471002	-0.034685
 873	4.3600e-01	2.5723	29.173419	0.000626	6.260103	1.060490	-0.025005
 874	4.3650e-01	2.5520	28.971764	0.001010	10.096940	1.710468	-0.040331
 875	4.3700e-01	2.5316	28.749943	0.001111	11.106634	1.881515	-0.044364
 876	4.3750e-01	2.5122	28.604752	0.000727	7.269797	1.231537	-0.029038
 877	4.3800e-01	2.4922	28.443428	0.000808	8.077552	1.368374	-0.032265
 878	4.3850e-01	2.4725	28.306303	0.000687	6.865919	1.163118	-0.027425
 879	4.3900e-01	2.4527	28.076416	0.001151	11.510512	1.949933	-0.045977
 880	4.3950e-01	2.4326	27.999787	0.000384	3.836837	0.649978	-0.015326
 881	4.4000e-01	2.4127	27.777967	0.001111	11.106634	1.881515	-0.044364
 882	4.4050e-01	2.3920	27.620676	0.000788	7.875613	1.334165	-0.031458
 883	4.4100e-01	2.3721	27.386756	0.001171	11.712450	1.984143	-0.046784
 884	4.4150e-01	2.3518	27.249631	0.000687	6.865919	1.163118	-0.027425
 885	4.4200e-01	2.3328	27.072174	0.000889	8.885307	1.505212	-0.035491
 886	4.4250e-01	2.3124	26.906817	0.000828	8.279491	1.402584	-0.033071
 887	4.4300e-01	2.2923	26.668865	0.001191	11.914389	2.018352	-0.047591
 888	4.4350e-01	2.2720	26.535772	0.000666	6.663980	1.128909	-0.026618
 889	4.4400e-01	2.2524	26.334117	0.001010	10.096940	1.710468	-0.040331
 890	4.4450e-01	2.2324	26.184893	0.000747	7.471736	1.265746	-0.029845
 891	4.4500e-01	2.2123	25.950973	0.001171	11.712450	1.984143	-0.046784
 892	4.4550e-01	2.1933	25.773517	0.000889	8.885307	1.505212	-0.035491
 893	4.4600e-01	2.1722	25.660590	0.000565	5.654286	0.957862	-0.022585
 894	4.4650e-01	2.1519	25.491200	0.000848	8.481430	1.436793	-0.033878
 895	4.4700e-01	2.1320	25.269379	0.001111	11.106634	1.881515	-0.044364
 896	4.4750e-01	2.1120	25.112088	0.000788	7.875613	1.334165	-0.031458
 897	4.4800e-01	2.0919	24.958831	0.000767	7.673674	1.299956	-0.030652
 898	4.4850e-01	2.0724	24.712812	0.001232	12.318267	2.086771	-0.049204
 899	4.4900e-01	2.0514	24.543422	0.000848	8.481430	1.436793	-0.033878
 900	4.4950e-01	2.0319	24.430495	0.000565	5.654286	0.957862	-0.022585
 901	4.5000e-01	2.0126	24.180443	0.001252	12.520206	2.120980	-0.050010
 902	4.5050e-01	1.9918	24.031218	0.000747	7.471736	1.265746	-0.029845
 903	4.5100e-01	1.9730	23.914258	0.000586	5.856225	0.992071	-0.023392
 904	4.5150e-01	1.9529	23.664206	0.001252	12.520206	2.120980	-0.050010
 905	4.5200e-01	1.9328	23.494816	0.000848	8.481430	1.436793	-0.033878
 906	4.5250e-01	1.9118	23.317360	0.000889	8.885307	1.505212	-0.035491
 907	4.5300e-01	1.8914	23.176201	0.000707	7.067858	1.197328	-0.028232
 908	4.5350e-01	1.8720	22.897917	0.001393	13.933777	2.360446	-0.055657
 909	4.5400e-01	1.8531	22.776924	0.000606	6.058164	1.026281	-0.024199
 910	4.5450e-01	1.8318	22.579303	0.000990	9.895001	1.676259	-0.039524
 911	4.5500e-01	1.8118	22.438144	0.000707	7.067858	1.197328	-0.028232
 912	4.5550e-01	1.7911	22.232456	0.001030	10.298879	1.744677	-0.041138
 913	4.5600e-01	1.7713	22.034834	0.000990	9.895001	1.676259	-0.039524
 914	4.5650e-01	1.7522	21.760584	0.001373	13.731838	2.326236	-0.054850
 915	4.5700e-01	1.7319	21.643624	0.000586	5.856225	0.992071	-0.023392
 916	4.5750e-01	1.7120	21.470200	0.000868	8.683368	1.471002	-0.034685
 917	4.5800e-01	1.6922	21.333075	0.000687	6.865919	1.163118	-0.027425
 918	4.5850e-01	1.6718	21.083023	0.001252	12.520206	2.120980	-0.050010
 919	4.5900e-01	1.6518	20.933798	0.000747	7.471736	1.265746	-0.029845
 920	4.5950e-01	1.6327	20.716011	0.001090	10.904695	1.847305	-0.043557
 921	4.6000e-01	1.6127	20.510323	0.001030	10.298879	1.744677	-0.041138
 922	4.6050e-01	1.5913	20.361098	0.000747	7.471736	1.265746	-0.029845
 923	4.6100e-01	1.5726	20.159443	0.001010	10.096940	1.710468	-0.040331
 924	4.6150e-01	1.5519	20.042484	0.000586	5.856225	0.992071	-0.023392
 925	4.6200e-01	1.5314	19.812597	0.001151	11.510512	1.949933	-0.045977
 926	4.6250e-01	1.5116	19.614975	0.000990	9.895001	1.676259	-0.039524
 927	4.6300e-01	1.4915	19.437519	0.000889	8.885307	1.505212	-0.035491
 928	4.6350e-01	1.4719	19.292327	0.000727	7.269797	1.231537	-0.029038
 929	4.6400e-01	1.4523	19.058407	0.001171	11.712450	1.984143	-0.046784
 930	4.6450e-01	1.4316	18.872885	0.000929	9.289185	1.573630	-0.037105
 931	4.6500e-01	1.4113	18.731726	0.000707	7.067858	1.197328	-0.028232
 932	4.6550e-01	1.3923	18.509906	0.001111	11.106634	1.881515	-0.044364
 933	4.6600e-01	1.3718	18.332450	0.000889	8.885307	1.505212	-0.035491
 934	4.6650e-01	1.3514	18.207424	0.000626	6.260103	1.060490	-0.025005
 935	4.6700e-01	1.3318	17.957372	0.001252	12.520206	2.120980	-0.050010
 936	4.6750e-01	1.3116	17.747650	0.001050	10.500818	1.778887	-0.041944
 937	4.6800e-01	1.2914	17.590360	0.000788	7.875613	1.334165	-0.031458
 938	4.6850e-01	1.2714	17.356440	0.001171	11.712450	1.984143	-0.046784
 939	4.6900e-01	1.2523	17.348374	0.000040	0.403878	0.068419	-0.001613
 940	4.6950e-01	1.2321	17.025726	0.001616	16.155104	2.736749	-0.064530
 941	4.7000e-01	1.2118	16.824071	0.001010	10.096940	1.710468	-0.040331
 942	4.7050e-01	1.1924	16.699045	0.000626	6.260103	1.060490	-0.025005
 943	4.7100e-01	1.1728	16.404629	0.001474	14.741532	2.497283	-0.058883
 944	4.7150e-01	1.1521	16.267503	0.000687	6.865919	1.163118	-0.027425
 945	4.7200e-01	1.1328	16.057782	0.001050	10.500818	1.778887	-0.041944
 946	4.7250e-01	1.1114	15.860160	0.000990	9.895001	1.676259	-0.039524
 947	4.7300e-01	1.0925	15.690770	0.000848	8.481430	1.436793	-0.033878
 948	4.7350e-01	1.0721	15.493148	0.000990	9.895001	1.676259	-0.039524
 949	4.7400e-01	1.0520	15.339891	0.000767	7.673674	1.299956	-0.030652
 950	4.7450e-01	1.0317	15.122103	0.001090	10.904695	1.847305	-0.043557
 951	4.7500e-01	1.0123	14.932548	0.000949	9.491124	1.607840	-0.037911
 952	4.7550e-01	0.9922	14.698628	0.001171	11.712450	1.984143	-0.046784
 953	4.7600e-01	0.9731	14.496973	0.001010	10.096940	1.710468	-0.040331
 954	4.7650e-01	0.9521	14.347748	0.000747	7.471736	1.265746	-0.029845
 955	4.7700e-01	0.9323	14.170292	0.000889	8.885307	1.505212	-0.035491
 956	4.7750e-01	0.9116	14.037200	0.000666	6.663980	1.128909	-0.026618
 957	4.7800e-01	0.8926	13.787148	0.001252	12.520206	2.120980	-0.050010
 958	4.7850e-01	0.8717	13.613724	0.000868	8.683368	1.471002	-0.034685
 959	4.7900e-01	0.8528	13.444334	0.000848	8.481430	1.436793	-0.033878
 960	4.7950e-01	0.8321	13.170083	0.001373	13.731838	2.326236	-0.054850
 961	4.8000e-01	0.8135	13.000693	0.000848	8.481430	1.436793	-0.033878
 962	4.8050e-01	0.7912	12.786939	0.001070	10.702756	1.813096	-0.042751
 963	4.8100e-01	0.7723	12.621582	0.000828	8.279491	1.402584	-0.033071
 964	4.8150e-01	0.7520	12.444126	0.000889	8.885307	1.505212	-0.035491
 965	4.8200e-01	0.7320	12.250537	0.000969	9.693062	1.642049	-0.038718
 966	4.8250e-01	0.7125	12.036783	0.001070	10.702756	1.813096	-0.042751
 967	4.8300e-01	0.6915	11.827062	0.001050	10.500818	1.778887	-0.041944
 968	4.8350e-01	0.6725	11.693969	0.000666	6.663980	1.128909	-0.026618
 969	4.8400e-01	0.6523	11.476182	0.001090	10.904695	1.847305	-0.043557
 970	4.8450e-01	0.6310	11.242262	0.001171	11.712450	1.984143	-0.046784
 971	4.8500e-01	0.6124	11.101104	0.000707	7.067858	1.197328	-0.028232
 972	4.8550e-01	0.5915	11.012376	0.000444	4.442654	0.752606	-0.017746
 973	4.8600e-01	0.5724	10.697794	0.001575	15.751226	2.668330	-0.062916
 974	4.8650e-01	0.5513	10.532437	0.000828	8.279491	1.402584	-0.033071
 975	4.8700e-01	0.5323	10.318683	0.001070	10.702756	1.813096	-0.042751
 976	4.8750e-01	0.5115	10.084763	0.001171	11.712450	1.984143	-0.046784
 977	4.8800e-01	0.4908	9.895207	0.000949	9.491124	1.607840	-0.037911
 978	4.8850e-01	0.4718	9.709685	0.000929	9.289185	1.573630	-0.037105
 979	4.8900e-01	0.4523	9.471732	0.001191	11.914389	2.018352	-0.047591
 980	4.8950e-01	0.4315	9.290243	0.000909	9.087246	1.539421	-0.036298
 981	4.9000e-01	0.4109	9.128919	0.000808	8.077552	1.368374	-0.032265
 982	4.9050e-01	0.3922	8.866767	0.001313	13.126022	2.223608	-0.052430
 983	4.9100e-01	0.3723	8.733675	0.000666	6.663980	1.128909	-0.026618
 984	4.9150e-01	0.3516	8.596550	0.000687	6.865919	1.163118	-0.027425
 985	4.9200e-01	0.3317	8.322299	0.001373	13.731838	2.326236	-0.054850
 986	4.9250e-01	0.3123	8.169041	0.000767	7.673674	1.299956	-0.030652
 987	4.9300e-01	0.2920	7.991585	0.000889	8.885307	1.505212	-0.035491
 988	4.9350e-01	0.2715	7.806062	0.000929	9.289185	1.573630	-0.037105
 989	4.9400e-01	0.2517	7.556010	0.001252	12.520206	2.120980	-0.050010
 990	4.9450e-01	0.2318	7.314024	0.001212	12.116328	2.052562	-0.048397
 991	4.9500e-01	0.2118	7.152700	0.000808	8.077552	1.368374	-0.032265
 992	4.9550e-01	0.1920	6.967178	0.000929	9.289185	1.573630	-0.037105
 993	4.9600e-01	0.1728	6.765523	0.001010	10.096940	1.710468	-0.040331
 994	4.9650e-01	0.1514	6.580000	0.000929	9.289185	1.573630	-0.037105
 995	4.9700e-01	0.1308	6.342048	0.001191	11.914389	2.018352	-0.047591
 996	4.9750e-01	0.1115	6.140393	0.001010	10.096940	1.710468	-0.040331
 997	4.9800e-01	0.0906	5.950837	0.000949	9.491124	1.607840	-0.037911
 998	4.9850e-01	0.0713	5.793546	0.000788	7.875613	1.334165	-0.031458
 999	4.9900e-01	0.0522	5.587858	0.001030	10.298879	1.744677	-0.041138
1000	4.9950e-01	0.0308	5.337806	0.001252	12.520206	2.120980	-0.050010
1001	5.0000e-01	0.0124	5.144217	0.000969	9.693062	1.642049	-0.038718
1002	5.0050e-01	-0.0088	4.946595	0.000990	9.895001	1.676259	-0.039524
1003	5.0100e-01	-0.0275	4.761073	0.000929	9.289185	1.573630	-0.037105
1004	5.0150e-01	-0.0471	4.591683	0.000848	8.481430	1.436793	-0.033878
1005	5.0200e-01	-0.0663	4.418260	0.000868	8.683368	1.471002	-0.034685
1006	5.0250e-01	-0.0866	4.200472	0.001090	10.904695	1.847305	-0.043557
1007	5.0300e-01	-0.1068	4.014950	0.000929	9.289185	1.573630	-0.037105
1008	5.0350e-01	-0.1267	3.785063	0.001151	11.510512	1.949933	-0.045977
1009	5.0400e-01	-0.1478	3.635838	0.000747	7.471736	1.265746	-0.029845
1010	5.0450e-01	-0.1672	3.426117	0.001050	10.500818	1.778887	-0.041944
1011	5.0500e-01	-0.1869	3.200264	0.001131	11.308573	1.915724	-0.045171
1012	5.0550e-01	-0.2066	2.986510	0.001070	10.702756	1.813096	-0.042751
1013	5.0600e-01	-0.2261	2.788888	0.000990	9.895001	1.676259	-0.039524
1014	5.0650e-01	-0.2470	2.639663	0.000747	7.471736	1.265746	-0.029845
1015	5.0700e-01	-0.2669	2.429942	0.001050	10.500818	1.778887	-0.041944
1016	5.0750e-01	-0.2877	2.208121	0.001111	11.106634	1.881515	-0.044364
1017	5.0800e-01	-0.3065	1.982268	0.001131	11.308573	1.915724	-0.045171
1018	5.0850e-01	-0.3269	1.796745	0.000929	9.289185	1.573630	-0.037105
1019	5.0900e-01	-0.3464	1.566859	0.001151	11.510512	1.949933	-0.045977
1020	5.0950e-01	-0.3669	1.373270	0.000969	9.693062	1.642049	-0.038718
1021	5.1000e-01	-0.3870	1.199847	0.000868	8.683368	1.471002	-0.034685
1022	5.1050e-01	-0.4068	0.969960	0.001151	11.510512	1.949933	-0.045977
1023	5.1100e-01	-0.4263	0.812669	0.000788	7.875613	1.334165	-0.031458
1024	5.1150e-01	-0.4472	0.611014	0.001010	10.096940	1.710468	-0.040331
1025	5.1200e-01	-0.4662	0.413393	0.000990	9.895001	1.676259	-0.039524
1026	5.1250e-01	-0.4870	0.211738	0.001010	10.096940	1.710468	-0.040331
1027	5.1300e-01	-0.5073	-0.054447	0.001333	13.327961	2.257818	-0.053237
1028	5.1350e-01	-0.5278	-0.260135	0.001030	10.298879	1.744677	-0.041138
1029	5.1400e-01	-0.5471	-0.369029	0.000545	5.452348	0.923653	-0.021779
1030	5.1450e-01	-0.5666	-0.550518	0.000909	9.087246	1.539421	-0.036298
1031	5.1500e-01	-0.5866	-0.776371	0.001131	11.308573	1.915724	-0.045171
1032	5.1550e-01	-0.6074	-1.034490	0.001292	12.924083	2.189399	-0.051624
1033	5.1600e-01	-0.6271	-1.215979	0.000909	9.087246	1.539421	-0.036298
1034	5.1650e-01	-0.6469	-1.377303	0.000808	8.077552	1.368374	-0.032265
1035	5.1700e-01	-0.6666	-1.659620	0.001414	14.135716	2.394655	-0.056463
1036	5.1750e-01	-0.6872	-1.804812	0.000727	7.269797	1.231537	-0.029038
1037	5.1800e-01	-0.7061	-2.026632	0.001111	11.106634	1.881515	-0.044364
1038	5.1850e-01	-0.7267	-2.212155	0.000929	9.289185	1.573630	-0.037105
1039	5.1900e-01	-0.7475	-2.409776	0.000990	9.895001	1.676259	-0.039524
1040	5.1950e-01	-0.7669	-2.623531	0.001070	10.702756	1.813096	-0.042751
1041	5.2000e-01	-0.7864	-2.817119	0.000969	9.693062	1.642049	-0.038718
1042	5.2050e-01	-0.8069	-3.059105	0.001212	12.116328	2.052562	-0.048397
1043	5.2100e-01	-0.8279	-3.208330	0.000747	7.471736	1.265746	-0.029845
1044	5.2150e-01	-0.8472	-3.414018	0.001030	10.298879	1.744677	-0.041138
1045	5.2200e-01	-0.8669	-3.575342	0.000808	8.077552	1.368374	-0.032265
1046	5.2250e-01	-0.8875	-3.797162	0.001111	11.106634	1.881515	-0.044364
1047	5.2300e-01	-0.9074	-4.035115	0.001191	11.914389	2.018352	-0.047591
1048	5.2350e-01	-0.9269	-4.248869	0.001070	10.702756	1.813096	-0.042751
1049	5.2400e-01	-0.9467	-4.398094	0.000747	7.471736	1.265746	-0.029845
1050	5.2450e-01	-0.9681	-4.607815	0.001050	10.500818	1.778887	-0.041944
1051	5.2500e-01	-0.9875	-4.781238	0.000868	8.683368	1.471002	-0.034685
1052	5.2550e-01	-1.0078	-5.023224	0.001212	12.116328	2.052562	-0.048397
1053	5.2600e-01	-1.0271	-5.156317	0.000666	6.663980	1.128909	-0.026618
1054	5.2650e-01	-1.0470	-5.378137	0.001111	11.106634	1.881515	-0.044364
1055	5.2700e-01	-1.0670	-5.599957	0.001111	11.106634	1.881515	-0.044364
1056	5.2750e-01	-1.0883	-5.773381	0.000868	8.683368	1.471002	-0.034685
1057	5.2800e-01	-1.1070	-6.051664	0.001393	13.933777	2.360446	-0.055657
1058	5.2850e-01	-1.1282	-6.208955	0.000788	7.875613	1.334165	-0.031458
1059	5.2900e-01	-1.1466	-6.430776	0.001111	11.106634	1.881515	-0.044364
1060	5.2950e-01	-1.1676	-6.644530	0.001070	10.702756	1.813096	-0.042751
1061	5.3000e-01	-1.1872	-6.817953	0.000868	8.683368	1.471002	-0.034685
1062	5.3050e-01	-1.2074	-6.983310	0.000828	8.279491	1.402584	-0.033071
1063	5.3100e-01	-1.2276	-7.269660	0.001434	14.337655	2.428864	-0.057270
1064	5.3150e-01	-1.2479	-7.402752	0.000666	6.663980	1.128909	-0.026618
1065	5.3200e-01	-1.2684	-7.660871	0.001292	12.924083	2.189399	-0.051624
1066	5.3250e-01	-1.2873	-7.834294	0.000868	8.683368	1.471002	-0.034685
1067	5.3300e-01	-1.3066	-8.052081	0.001090	10.904695	1.847305	-0.043557
1068	5.3350e-01	-1.3270	-8.197273	0.000727	7.269797	1.231537	-0.029038
1069	5.3400e-01	-1.3472	-8.443292	0.001232	12.318267	2.086771	-0.049204
1070	5.3450e-01	-1.3667	-8.596550	0.000767	7.673674	1.299956	-0.030652
1071	5.3500e-01	-1.3876	-8.846602	0.001252	12.520206	2.120980	-0.050010
1072	5.3550e-01	-1.4066	-9.028091	0.000909	9.087246	1.539421	-0.036298
1073	5.3600e-01	-1.4261	-9.161183	0.000666	6.663980	1.128909	-0.026618
1074	5.3650e-01	-1.4463	-9.415269	0.001272	12.722144	2.155190	-0.050817
1075	5.3700e-01	-1.4675	-9.633056	0.001090	10.904695	1.847305	-0.043557
1076	5.3750e-01	-1.4870	-9.850843	0.001090	10.904695	1.847305	-0.043557
1077	5.3800e-01	-1.5064	-10.028300	0.000889	8.885307	1.505212	-0.035491
1078	5.3850e-01	-1.5272	-10.181557	0.000767	7.673674	1.299956	-0.030652
1079	5.3900e-01	-1.5473	-10.463874	0.001414	14.135716	2.394655	-0.056463
1080	5.3950e-01	-1.5672	-10.641331	0.000889	8.885307	1.505212	-0.035491
1081	5.4000e-01	-1.5860	-10.847019	0.001030	10.298879	1.744677	-0.041138
1082	5.4050e-01	-1.6071	-11.036574	0.000949	9.491124	1.607840	-0.037911
1083	5.4100e-01	-1.6277	-11.197898	0.000808	8.077552	1.368374	-0.032265
1084	5.4150e-01	-1.6480	-11.399553	0.001010	10.096940	1.710468	-0.040331
1085	5.4200e-01	-1.6661	-11.605241	0.001030	10.298879	1.744677	-0.041138
1086	5.4250e-01	-1.6872	-11.806896	0.001010	10.096940	1.710468	-0.040331
1087	5.4300e-01	-1.7069	-12.004518	0.000990	9.895001	1.676259	-0.039524
1088	5.4350e-01	-1.7268	-12.222305	0.001090	10.904695	1.847305	-0.043557
1089	5.4400e-01	-1.7470	-12.423960	0.001010	10.096940	1.710468	-0.040331
1090	5.4450e-01	-1.7667	-12.621582	0.000990	9.895001	1.676259	-0.039524
1091	5.4500e-01	-1.7860	-12.799038	0.000889	8.885307	1.505212	-0.035491
1092	5.4550e-01	-1.8061	-12.960362	0.000808	8.077552	1.368374	-0.032265
1093	5.4600e-01	-1.8272	-13.166050	0.001030	10.298879	1.744677	-0.041138
1094	5.4650e-01	-1.8476	-13.408036	0.001212	12.116328	2.052562	-0.048397
1095	5.4700e-01	-1.8674	-13.577426	0.000848	8.481430	1.436793	-0.033878
1096	5.4750e-01	-1.8885	-13.795214	0.001090	10.904695	1.847305	-0.043557
1097	5.4800e-01	-1.9067	-14.004935	0.001050	10.500818	1.778887	-0.041944
1098	5.4850e-01	-1.9268	-14.146093	0.000707	7.067858	1.197328	-0.028232
1099	5.4900e-01	-1.9471	-14.384046	0.001191	11.914389	2.018352	-0.047591
1100	5.4950e-01	-1.9674	-14.609900	0.001131	11.308573	1.915724	-0.045171
1101	5.5000e-01	-1.9874	-14.771224	0.000808	8.077552	1.368374	-0.032265
1102	5.5050e-01	-2.0069	-14.948680	0.000889	8.885307	1.505212	-0.035491
1103	5.5100e-01	-2.0272	-15.166467	0.001090	10.904695	1.847305	-0.043557
1104	5.5150e-01	-2.0478	-15.380222	0.001070	10.702756	1.813096	-0.042751
1105	5.5200e-01	-2.0666	-15.545579	0.000828	8.279491	1.402584	-0.033071
1106	5.5250e-01	-2.0875	-15.759333	0.001070	10.702756	1.813096	-0.042751
1107	5.5300e-01	-2.1069	-15.884359	0.000626	6.260103	1.060490	-0.025005
1108	5.5350e-01	-2.1278	-16.174742	0.001454	14.539594	2.463074	-0.058077
1109	5.5400e-01	-2.1479	-16.348165	0.000868	8.683368	1.471002	-0.034685
1110	5.5450e-01	-2.1680	-16.541754	0.000969	9.693062	1.642049	-0.038718
1111	5.5500e-01	-2.1879	-16.731310	0.000949	9.491124	1.607840	-0.037911
1112	5.5550e-01	-2.2083	-16.904733	0.000868	8.683368	1.471002	-0.034685
1113	5.5600e-01	-2.2279	-17.094288	0.000949	9.491124	1.607840	-0.037911
1114	5.5650e-01	-2.2480	-17.324175	0.001151	11.510512	1.949933	-0.045977
1115	5.5700e-01	-2.2670	-17.445168	0.000606	6.058164	1.026281	-0.024199
1116	5.5750e-01	-2.2883	-17.739584	0.001474	14.741532	2.497283	-0.058883
1117	5.5800e-01	-2.3081	-17.880743	0.000707	7.067858	1.197328	-0.028232
1118	5.5850e-01	-2.3267	-18.110629	0.001151	11.510512	1.949933	-0.045977
1119	5.5900e-01	-2.3478	-18.328417	0.001090	10.904695	1.847305	-0.043557
1120	5.5950e-01	-2.3679	-18.493774	0.000828	8.279491	1.402584	-0.033071
1121	5.6000e-01	-2.3878	-18.675263	0.000909	9.087246	1.539421	-0.036298
1122	5.6050e-01	-2.4067	-18.864819	0.000949	9.491124	1.607840	-0.037911
1123	5.6100e-01	-2.4278	-19.070507	0.001030	10.298879	1.744677	-0.041138
1124	5.6150e-01	-2.4473	-19.280228	0.001050	10.500818	1.778887	-0.041944
1125	5.6200e-01	-2.4683	-19.453651	0.000868	8.683368	1.471002	-0.034685
1126	5.6250e-01	-2.4879	-19.631107	0.000889	8.885307	1.505212	-0.035491
1127	5.6300e-01	-2.5082	-19.784365	0.000767	7.673674	1.299956	-0.030652
1128	5.6350e-01	-2.5282	-20.018285	0.001171	11.712450	1.984143	-0.046784
1129	5.6400e-01	-2.5474	-20.207841	0.000949	9.491124	1.607840	-0.037911
1130	5.6450e-01	-2.5672	-20.332867	0.000626	6.260103	1.060490	-0.025005
1131	5.6500e-01	-2.5880	-20.603084	0.001353	13.529900	2.292027	-0.054044
1132	5.6550e-01	-2.6075	-20.756342	0.000767	7.673674	1.299956	-0.030652
1133	5.6600e-01	-2.6276	-20.998328	0.001212	12.116328	2.052562	-0.048397
1134	5.6650e-01	-2.6479	-21.115288	0.000586	5.856225	0.992071	-0.023392
1135	5.6700e-01	-2.6673	-21.357274	0.001212	12.116328	2.052562	-0.048397
1136	5.6750e-01	-2.6878	-21.550862	0.000969	9.693062	1.642049	-0.038718
1137	5.6800e-01	-2.7067	-21.724286	0.000868	8.683368	1.471002	-0.034685
1138	5.6850e-01	-2.7278	-21.925941	0.001010	10.096940	1.710468	-0.040331
1139	5.6900e-01	-2.7468	-22.103397	0.000889	8.885307	1.505212	-0.035491
1140	5.6950e-01	-2.7671	-22.329250	0.001131	11.308573	1.915724	-0.045171
1141	5.7000e-01	-2.7876	-22.510740	0.000909	9.087246	1.539421	-0.036298
1142	5.7050e-01	-2.8078	-22.724494	0.001070	10.702756	1.813096	-0.042751
1143	5.7100e-01	-2.8269	-22.885818	0.000808	8.077552	1.368374	-0.032265
1144	5.7150e-01	-2.8480	-23.026976	0.000707	7.067858	1.197328	-0.028232
1145	5.7200e-01	-2.8663	-23.297194	0.001353	13.529900	2.292027	-0.054044
1146	5.7250e-01	-2.8872	-23.450452	0.000767	7.673674	1.299956	-0.030652
1147	5.7300e-01	-2.9072	-23.611776	0.000808	8.077552	1.368374	-0.032265
1148	5.7350e-01	-2.9273	-23.740835	0.000646	6.462042	1.094699	-0.025812
1149	5.7400e-01	-2.9469	-23.954589	0.001070	10.702756	1.813096	-0.042751
1150	5.7450e-01	-2.9678	-24.168343	0.001070	10.702756	1.813096	-0.042751
1151	5.7500e-01	-2.9880	-24.414362	0.001232	12.318267	2.086771	-0.049204
1152	5.7550e-01	-3.0085	-24.511157	0.000485	4.846531	0.821025	-0.019359
1153	5.7600e-01	-3.0279	-24.753143	0.001212	12.116328	2.052562	-0.048397
1154	5.7650e-01	-3.0470	-24.958831	0.001030	10.298879	1.744677	-0.041138
1155	5.7700e-01	-3.0674	-25.148386	0.000949	9.491124	1.607840	-0.037911
1156	5.7750e-01	-3.0874	-25.257280	0.000545	5.452348	0.923653	-0.021779
1157	5.7800e-01	-3.1068	-25.491200	0.001171	11.712450	1.984143	-0.046784
1158	5.7850e-01	-3.1275	-25.708987	0.001090	10.904695	1.847305	-0.043557
1159	5.7900e-01	-3.1478	-25.862245	0.000767	7.673674	1.299956	-0.030652
1160	5.7950e-01	-3.1681	-26.043734	0.000909	9.087246	1.539421	-0.036298
1161	5.8000e-01	-3.1879	-26.229257	0.000929	9.289185	1.573630	-0.037105
1162	5.8050e-01	-3.2075	-26.455110	0.001131	11.308573	1.915724	-0.045171
1163	5.8100e-01	-3.2276	-26.620467	0.000828	8.279491	1.402584	-0.033071
1164	5.8150e-01	-3.2465	-26.717262	0.000485	4.846531	0.821025	-0.019359
1165	5.8200e-01	-3.2674	-27.007645	0.001454	14.539594	2.463074	-0.058077
1166	5.8250e-01	-3.2880	-27.132671	0.000626	6.260103	1.060490	-0.025005
1167	5.8300e-01	-3.3082	-27.277862	0.000727	7.269797	1.231537	-0.029038
1168	5.8350e-01	-3.3277	-27.451286	0.000868	8.683368	1.471002	-0.034685
1169	5.8400e-01	-3.3469	-27.669073	0.001090	10.904695	1.847305	-0.043557
1170	5.8450e-01	-3.3671	-27.943324	0.001373	13.731838	2.326236	-0.054850
1171	5.8500e-01	-3.3878	-28.040118	0.000485	4.846531	0.821025	-0.019359
1172	5.8550e-01	-3.4083	-28.245806	0.001030	10.298879	1.744677	-0.041138
1173	5.8600e-01	-3.4278	-28.443428	0.000990	9.895001	1.676259	-0.039524
1174	5.8650e-01	-3.4473	-28.592653	0.000747	7.471736	1.265746	-0.029845
1175	5.8700e-01	-3.4678	-28.814473	0.001111	11.106634	1.881515	-0.044364
1176	5.8750e-01	-3.4868	-28.923367	0.000545	5.452348	0.923653	-0.021779
1177	5.8800e-01	-3.5072	-29.149220	0.001131	11.308573	1.915724	-0.045171
1178	5.8850e-01	-3.5274	-29.294412	0.000727	7.269797	1.231537	-0.029038
1179	5.8900e-01	-3.5476	-29.544464	0.001252	12.520206	2.120980	-0.050010
1180	5.8950e-01	-3.5676	-29.770317	0.001131	11.308573	1.915724	-0.045171
1181	5.9000e-01	-3.5871	-29.875178	0.000525	5.250409	0.889443	-0.020972
1182	5.9050e-01	-3.6073	-30.016336	0.000707	7.067858	1.197328	-0.028232
1183	5.9100e-01	-3.6274	-30.246223	0.001151	11.510512	1.949933	-0.045977
1184	5.9150e-01	-3.6478	-30.411580	0.000828	8.279491	1.402584	-0.033071
1185	5.9200e-01	-3.6677	-30.597103	0.000929	9.289185	1.573630	-0.037105
1186	5.9250e-01	-3.6878	-30.782625	0.000929	9.289185	1.573630	-0.037105
1187	5.9300e-01	-3.7086	-30.984280	0.001010	10.096940	1.710468	-0.040331
1188	5.9350e-01	-3.7275	-31.133505	0.000747	7.471736	1.265746	-0.029845
1189	5.9400e-01	-3.7482	-31.266597	0.000666	6.663980	1.128909	-0.026618
1190	5.9450e-01	-3.7678	-31.500517	0.001171	11.712450	1.984143	-0.046784
1191	5.9500e-01	-3.7888	-31.686039	0.000929	9.289185	1.573630	-0.037105
1192	5.9550e-01	-3.8081	-31.782834	0.000485	4.846531	0.821025	-0.019359
1193	5.9600e-01	-3.8276	-32.049018	0.001333	13.327961	2.257818	-0.053237
1194	5.9650e-01	-3.8465	-32.198243	0.000747	7.471736	1.265746	-0.029845
1195	5.9700e-01	-3.8673	-32.343434	0.000727	7.269797	1.231537	-0.029038
1196	5.9750e-01	-3.8874	-32.541056	0.000990	9.895001	1.676259	-0.039524
1197	5.9800e-01	-3.9069	-32.702380	0.000808	8.077552	1.368374	-0.032265
1198	5.9850e-01	-3.9274	-32.855638	0.000767	7.673674	1.299956	-0.030652
1199	5.9900e-01	-3.9475	-33.053260	0.000990	9.895001	1.676259	-0.039524
1200	5.9950e-01	-3.9674	-33.258948	0.001030	10.298879	1.744677	-0.041138
1201	6.0000e-01	-3.9869	-33.388007	0.000646	6.462042	1.094699	-0.025812
1202	6.0050e-01	-4.0079	-33.557397	0.000848	8.481430	1.436793	-0.033878
1203	6.0100e-01	-4.0278	-33.726787	0.000848	8.481430	1.436793	-0.033878
1204	6.0150e-01	-4.0482	-33.924409	0.000990	9.895001	1.676259	-0.039524
1205	6.0200e-01	-4.0668	-34.101865	0.000889	8.885307	1.505212	-0.035491
1206	6.0250e-01	-4.0879	-34.259156	0.000788	7.875613	1.334165	-0.031458
1207	6.0300e-01	-4.1077	-34.452745	0.000969	9.693062	1.642049	-0.038718
1208	6.0350e-01	-4.1273	-34.702797	0.001252	12.520206	2.120980	-0.050010
1209	6.0400e-01	-4.1465	-34.779426	0.000384	3.836837	0.649978	-0.015326
1210	6.0450e-01	-4.1677	-35.001246	0.001111	11.106634	1.881515	-0.044364
1211	6.0500e-01	-4.1869	-35.126272	0.000626	6.260103	1.060490	-0.025005
1212	6.0550e-01	-4.2072	-35.307762	0.000909	9.087246	1.539421	-0.036298
1213	6.0600e-01	-4.2271	-35.513450	0.001030	10.298879	1.744677	-0.041138
1214	6.0650e-01	-4.2467	-35.674774	0.000808	8.077552	1.368374	-0.032265
1215	6.0700e-01	-4.2677	-35.840131	0.000828	8.279491	1.402584	-0.033071
1216	6.0750e-01	-4.2873	-35.985322	0.000727	7.269797	1.231537	-0.029038
1217	6.0800e-01	-4.3076	-36.186977	0.001010	10.096940	1.710468	-0.040331
1218	6.0850e-01	-4.3278	-36.360400	0.000868	8.683368	1.471002	-0.034685
1219	6.0900e-01	-4.3479	-36.537857	0.000889	8.885307	1.505212	-0.035491
1220	6.0950e-01	-4.3671	-36.727412	0.000949	9.491124	1.607840	-0.037911
1221	6.1000e-01	-4.3882	-36.860505	0.000666	6.663980	1.128909	-0.026618
1222	6.1050e-01	-4.4080	-37.046027	0.000929	9.289185	1.573630	-0.037105
1223	6.1100e-01	-4.4282	-37.223484	0.000889	8.885307	1.505212	-0.035491
1224	6.1150e-01	-4.4471	-37.340443	0.000586	5.856225	0.992071	-0.023392
1225	6.1200e-01	-4.4663	-37.546131	0.001030	10.298879	1.744677	-0.041138
1226	6.1250e-01	-4.4877	-37.735687	0.000949	9.491124	1.607840	-0.037911
1227	6.1300e-01	-4.5081	-37.868779	0.000666	6.663980	1.128909	-0.026618
1228	6.1350e-01	-4.5277	-38.038169	0.000848	8.481430	1.436793	-0.033878
1229	6.1400e-01	-4.5478	-38.126898	0.000444	4.442654	0.752606	-0.017746
1230	6.1450e-01	-4.5686	-38.344685	0.001090	10.904695	1.847305	-0.043557
1231	6.1500e-01	-4.5875	-38.485843	0.000707	7.067858	1.197328	-0.028232
1232	6.1550e-01	-4.6082	-38.752028	0.001333	13.327961	2.257818	-0.053237
1233	6.1600e-01	-4.6275	-38.921418	0.000848	8.481430	1.436793	-0.033878
1234	6.1650e-01	-4.6476	-39.030312	0.000545	5.452348	0.923653	-0.021779
1235	6.1700e-01	-4.6680	-39.240033	0.001050	10.500818	1.778887	-0.041944
1236	6.1750e-01	-4.6879	-39.308596	0.000343	3.432960	0.581559	-0.013713
1237	6.1800e-01	-4.7077	-39.578813	0.001353	13.529900	2.292027	-0.054044
1238	6.1850e-01	-4.7285	-39.748203	0.000848	8.481430	1.436793	-0.033878
1239	6.1900e-01	-4.7471	-39.913560	0.000828	8.279491	1.402584	-0.033071
1240	6.1950e-01	-4.7678	-40.034553	0.000606	6.058164	1.026281	-0.024199
1241	6.2000e-01	-4.7880	-40.171679	0.000687	6.865919	1.163118	-0.027425
1242	6.2050e-01	-4.8081	-40.365267	0.000969	9.693062	1.642049	-0.038718
1243	6.2100e-01	-4.8286	-40.425764	0.000303	3.029082	0.513140	-0.012099
1244	6.2150e-01	-4.8475	-40.679849	0.001272	12.722144	2.155190	-0.050817
1245	6.2200e-01	-4.8682	-40.877471	0.000990	9.895001	1.676259	-0.039524
1246	6.2250e-01	-4.8878	-40.994431	0.000586	5.856225	0.992071	-0.023392
1247	6.2300e-01	-4.9079	-41.175920	0.000909	9.087246	1.539421	-0.036298
1248	6.2350e-01	-4.9274	-41.369509	0.000969	9.693062	1.642049	-0.038718
1249	6.2400e-01	-4.9476	-41.522767	0.000767	7.673674	1.299956	-0.030652
1250	6.2450e-01	-4.9674	-41.655859	0.000666	6.663980	1.128909	-0.026618
1251	6.2500e-01	-4.9879	-41.833315	0.000889	8.885307	1.505212	-0.035491
1252	6.2550e-01	-5.0080	-41.958341	0.000626	6.260103	1.060490	-0.025005
1253	6.2600e-01	-5.0275	-42.139831	0.000909	9.087246	1.539421	-0.036298
1254	6.2650e-01	-5.0486	-42.285022	0.000727	7.269797	1.231537	-0.029038
1255	6.2700e-01	-5.0678	-42.474578	0.000949	9.491124	1.607840	-0.037911
1256	6.2750e-01	-5.0874	-42.631869	0.000788	7.875613	1.334165	-0.031458
1257	6.2800e-01	-5.1081	-42.801259	0.000848	8.481430	1.436793	-0.033878
1258	6.2850e-01	-5.1276	-42.950484	0.000747	7.471736	1.265746	-0.029845
1259	6.2900e-01	-5.1484	-43.140039	0.000949	9.491124	1.607840	-0.037911
1260	6.2950e-01	-5.1676	-43.285231	0.000727	7.269797	1.231537	-0.029038
1261	6.3000e-01	-5.1881	-43.414290	0.000646	6.462042	1.094699	-0.025812
1262	6.3050e-01	-5.2076	-43.583680	0.000848	8.481430	1.436793	-0.033878
1263	6.3100e-01	-5.2280	-43.773236	0.000949	9.491124	1.607840	-0.037911
1264	6.3150e-01	-5.2479	-43.898262	0.000626	6.260103	1.060490	-0.025005
1265	6.3200e-01	-5.2674	-44.051519	0.000767	7.673674	1.299956	-0.030652
1266	6.3250e-01	-5.2876	-44.212843	0.000808	8.077552	1.368374	-0.032265
1267	6.3300e-01	-5.3074	-44.410465	0.000990	9.895001	1.676259	-0.039524
1268	6.3350e-01	-5.3275	-44.507260	0.000485	4.846531	0.821025	-0.019359
1269	6.3400e-01	-5.3475	-44.628253	0.000606	6.058164	1.026281	-0.024199
1270	6.3450e-01	-5.3681	-44.842007	0.001070	10.702756	1.813096	-0.042751
1271	6.3500e-01	-5.3876	-45.031562	0.000949	9.491124	1.607840	-0.037911
1272	6.3550e-01	-5.4072	-45.112224	0.000404	4.038776	0.684187	-0.016132
1273	6.3600e-01	-5.4273	-45.297747	0.000929	9.289185	1.573630	-0.037105
1274	6.3650e-01	-5.4475	-45.467137	0.000848	8.481430	1.436793	-0.033878
1275	6.3700e-01	-5.4679	-45.620395	0.000767	7.673674	1.299956	-0.030652
1276	6.3750e-01	-5.4884	-45.741388	0.000606	6.058164	1.026281	-0.024199
1277	6.3800e-01	-5.5079	-45.906745	0.000828	8.279491	1.402584	-0.033071
1278	6.3850e-01	-5.5280	-46.104367	0.000990	9.895001	1.676259	-0.039524
1279	6.3900e-01	-5.5482	-46.277790	0.000868	8.683368	1.471002	-0.034685
1280	6.3950e-01	-5.5683	-46.402816	0.000626	6.260103	1.060490	-0.025005
1281	6.4000e-01	-5.5885	-46.572206	0.000848	8.481430	1.436793	-0.033878
1282	6.4050e-01	-5.6083	-46.725464	0.000767	7.673674	1.299956	-0.030652
1283	6.4100e-01	-5.6290	-46.874689	0.000747	7.471736	1.265746	-0.029845
1284	6.4150e-01	-5.6483	-46.963417	0.000444	4.442654	0.752606	-0.017746
1285	6.4200e-01	-5.6681	-47.169105	0.001030	10.298879	1.744677	-0.041138
1286	6.4250e-01	-5.6889	-47.334462	0.000828	8.279491	1.402584	-0.033071
1287	6.4300e-01	-5.7069	-47.552249	0.001090	10.904695	1.847305	-0.043557
1288	6.4350e-01	-5.7276	-47.624845	0.000363	3.634898	0.615768	-0.014519
1289	6.4400e-01	-5.7475	-47.794235	0.000848	8.481430	1.436793	-0.033878
1290	6.4450e-01	-5.7682	-47.979758	0.000929	9.289185	1.573630	-0.037105
1291	6.4500e-01	-5.7874	-48.088651	0.000545	5.452348	0.923653	-0.021779
1292	6.4550e-01	-5.8076	-48.173346	0.000424	4.240715	0.718397	-0.016939
1293	6.4600e-01	-5.8277	-48.375001	0.001010	10.096940	1.710468	-0.040331
1294	6.4650e-01	-5.8482	-48.576656	0.001010	10.096940	1.710468	-0.040331
1295	6.4700e-01	-5.8680	-48.693616	0.000586	5.856225	0.992071	-0.023392
1296	6.4750e-01	-5.8875	-48.838808	0.000727	7.269797	1.231537	-0.029038
1297	6.4800e-01	-5.9083	-48.951734	0.000565	5.654286	0.957862	-0.022585
1298	6.4850e-01	-5.9290	-49.141290	0.000949	9.491124	1.607840	-0.037911
1299	6.4900e-01	-5.9473	-49.326812	0.000929	9.289185	1.573630	-0.037105
1300	6.4950e-01	-5.9687	-49.451839	0.000626	6.260103	1.060490	-0.025005
1301	6.5000e-01	-5.9876	-49.601063	0.000747	7.471736	1.265746	-0.029845
1302	6.5050e-01	-6.0081	-49.746255	0.000727	7.269797	1.231537	-0.029038
1303	6.5100e-01	-6.0285	-49.887413	0.000707	7.067858	1.197328	-0.028232
1304	6.5150e-01	-6.0480	-50.032605	0.000727	7.269797	1.231537	-0.029038
1305	6.5200e-01	-6.0679	-50.161664	0.000646	6.462042	1.094699	-0.025812
1306	6.5250e-01	-6.0879	-50.322988	0.000808	8.077552	1.368374	-0.032265
1307	6.5300e-01	-6.1079	-50.484312	0.000808	8.077552	1.368374	-0.032265
1308	6.5350e-01	-6.1292	-50.641603	0.000788	7.875613	1.334165	-0.031458
1309	6.5400e-01	-6.1481	-50.790827	0.000747	7.471736	1.265746	-0.029845
1310	6.5450e-01	-6.1689	-50.895688	0.000525	5.250409	0.889443	-0.020972
1311	6.5500e-01	-6.1890	-51.089277	0.000969	9.693062	1.642049	-0.038718
1312	6.5550e-01	-6.2092	-51.198170	0.000545	5.452348	0.923653	-0.021779
1313	6.5600e-01	-6.2289	-51.367560	0.000848	8.481430	1.436793	-0.033878
1314	6.5650e-01	-6.2486	-51.561149	0.000969	9.693062	1.642049	-0.038718
1315	6.5700e-01	-6.2678	-51.674076	0.000565	5.654286	0.957862	-0.022585
1316	6.5750e-01	-6.2879	-51.770870	0.000485	4.846531	0.821025	-0.019359
1317	6.5800e-01	-6.3096	-51.903962	0.000666	6.663980	1.128909	-0.026618
1318	6.5850e-01	-6.3288	-52.093518	0.000949	9.491124	1.607840	-0.037911
1319	6.5900e-01	-6.3479	-52.206445	0.000565	5.654286	0.957862	-0.022585
1320	6.5950e-01	-6.3688	-52.387934	0.000909	9.087246	1.539421	-0.036298
1321	6.6000e-01	-6.3880	-52.581523	0.000969	9.693062	1.642049	-0.038718
1322	6.6050e-01	-6.4079	-52.694450	0.000565	5.654286	0.957862	-0.022585
1323	6.6100e-01	-6.4277	-52.863840	0.000848	8.481430	1.436793	-0.033878
1324	6.6150e-01	-6.4487	-52.932403	0.000343	3.432960	0.581559	-0.013713
1325	6.6200e-01	-6.4686	-53.077594	0.000727	7.269797	1.231537	-0.029038
1326	6.6250e-01	-6.4885	-53.267150	0.000949	9.491124	1.607840	-0.037911
1327	6.6300e-01	-6.5076	-53.396209	0.000646	6.462042	1.094699	-0.025812
1328	6.6350e-01	-6.5285	-53.561566	0.000828	8.279491	1.402584	-0.033071
1329	6.6400e-01	-6.5485	-53.670460	0.000545	5.452348	0.923653	-0.021779
1330	6.6450e-01	-6.5675	-53.807585	0.000687	6.865919	1.163118	-0.027425
1331	6.6500e-01	-6.5888	-53.964876	0.000788	7.875613	1.334165	-0.031458
1332	6.6550e-01	-6.6080	-54.093935	0.000646	6.462042	1.094699	-0.025812
1333	6.6600e-01	-6.6279	-54.295590	0.001010	10.096940	1.710468	-0.040331
1334	6.6650e-01	-6.6474	-54.408517	0.000565	5.654286	0.957862	-0.022585
1335	6.6700e-01	-6.6691	-54.561774	0.000767	7.673674	1.299956	-0.030652
1336	6.6750e-01	-6.6883	-54.686800	0.000626	6.260103	1.060490	-0.025005
1337	6.6800e-01	-6.7085	-54.767462	0.000404	4.038776	0.684187	-0.016132
1338	6.6850e-01	-6.7286	-54.989283	0.001111	11.106634	1.881515	-0.044364
1339	6.6900e-01	-6.7481	-55.086077	0.000485	4.846531	0.821025	-0.019359
1340	6.6950e-01	-6.7683	-55.247401	0.000808	8.077552	1.368374	-0.032265
1341	6.7000e-01	-6.7890	-55.412758	0.000828	8.279491	1.402584	-0.033071
1342	6.7050e-01	-6.8080	-55.545851	0.000666	6.663980	1.128909	-0.026618
1343	6.7100e-01	-6.8278	-55.719274	0.000868	8.683368	1.471002	-0.034685
1344	6.7150e-01	-6.8482	-55.808002	0.000444	4.442654	0.752606	-0.017746
1345	6.7200e-01	-6.8684	-55.957227	0.000747	7.471736	1.265746	-0.029845
1346	6.7250e-01	-6.8887	-56.150815	0.000969	9.693062	1.642049	-0.038718
1347	6.7300e-01	-6.9086	-56.239543	0.000444	4.442654	0.752606	-0.017746
1348	6.7350e-01	-6.9294	-56.376669	0.000687	6.865919	1.163118	-0.027425
1349	6.7400e-01	-6.9486	-56.501695	0.000626	6.260103	1.060490	-0.025005
1350	6.7450e-01	-6.9691	-56.679151	0.000889	8.885307	1.505212	-0.035491
1351	6.7500e-01	-6.9881	-56.779979	0.000505	5.048470	0.855234	-0.020165
1352	6.7550e-01	-7.0081	-56.957435	0.000889	8.885307	1.505212	-0.035491
1353	6.7600e-01	-7.0289	-57.110693	0.000767	7.673674	1.299956	-0.030652
1354	6.7650e-01	-7.0484	-57.227653	0.000586	5.856225	0.992071	-0.023392
1355	6.7700e-01	-7.0689	-57.328480	0.000505	5.048470	0.855234	-0.020165
1356	6.7750e-01	-7.0887	-57.489804	0.000808	8.077552	1.368374	-0.032265
1357	6.7800e-01	-7.1084	-57.610797	0.000606	6.058164	1.026281	-0.024199
1358	6.7850e-01	-7.1290	-57.808419	0.000990	9.895001	1.676259	-0.039524
1359	6.7900e-01	-7.1485	-57.921346	0.000565	5.654286	0.957862	-0.022585
1360	6.7950e-01	-7.1699	-58.022173	0.000505	5.048470	0.855234	-0.020165
1361	6.8000e-01	-7.1882	-58.215762	0.000969	9.693062	1.642049	-0.038718
1362	6.8050e-01	-7.2080	-58.360953	0.000727	7.269797	1.231537	-0.029038
1363	6.8100e-01	-7.2288	-58.530343	0.000848	8.481430	1.436793	-0.033878
1364	6.8150e-01	-7.2486	-58.655370	0.000626	6.260103	1.060490	-0.025005
1365	6.8200e-01	-7.2681	-58.756197	0.000505	5.048470	0.855234	-0.020165
1366	6.8250e-01	-7.2883	-58.905422	0.000747	7.471736	1.265746	-0.029845
1367	6.8300e-01	-7.3084	-59.070779	0.000828	8.279491	1.402584	-0.033071
1368	6.8350e-01	-7.3283	-59.159507	0.000444	4.442654	0.752606	-0.017746
1369	6.8400e-01	-7.3487	-59.332930	0.000868	8.683368	1.471002	-0.034685
1370	6.8450e-01	-7.3682	-59.498287	0.000828	8.279491	1.402584	-0.033071
1371	6.8500e-01	-7.3893	-59.591048	0.000464	4.644592	0.786815	-0.018552
1372	6.8550e-01	-7.4091	-59.712041	0.000606	6.058164	1.026281	-0.024199
1373	6.8600e-01	-7.4284	-59.917729	0.001030	10.298879	1.744677	-0.041138
1374	6.8650e-01	-7.4488	-59.986292	0.000343	3.432960	0.581559	-0.013713
1375	6.8700e-01	-7.4689	-60.212146	0.001131	11.308573	1.915724	-0.045171
1376	6.8750e-01	-7.4891	-60.361370	0.000747	7.471736	1.265746	-0.029845
1377	6.8800e-01	-7.5071	-60.486396	0.000626	6.260103	1.060490	-0.025005
1378	6.8850e-01	-7.5282	-60.631588	0.000727	7.269797	1.231537	-0.029038
1379	6.8900e-01	-7.5480	-60.748548	0.000586	5.856225	0.992071	-0.023392
1380	6.8950e-01	-7.5690	-60.889706	0.000707	7.067858	1.197328	-0.028232
1381	6.9000e-01	-7.5892	-61.006666	0.000586	5.856225	0.992071	-0.023392
1382	6.9050e-01	-7.6081	-61.127659	0.000606	6.058164	1.026281	-0.024199
1383	6.9100e-01	-7.6289	-61.305115	0.000889	8.885307	1.505212	-0.035491
1384	6.9150e-01	-7.6484	-61.446274	0.000707	7.067858	1.197328	-0.028232
1385	6.9200e-01	-7.6676	-61.599532	0.000767	7.673674	1.299956	-0.030652
1386	6.9250e-01	-7.6881	-61.688260	0.000444	4.442654	0.752606	-0.017746
1387	6.9300e-01	-7.7082	-61.845551	0.000788	7.875613	1.334165	-0.031458
1388	6.9350e-01	-7.7283	-62.035106	0.000949	9.491124	1.607840	-0.037911
1389	6.9400e-01	-7.7482	-62.111735	0.000384	3.836837	0.649978	-0.015326
1390	6.9450e-01	-7.7686	-62.264993	0.000767	7.673674	1.299956	-0.030652
1391	6.9500e-01	-7.7879	-62.406151	0.000707	7.067858	1.197328	-0.028232
1392	6.9550e-01	-7.8086	-62.511012	0.000525	5.250409	0.889443	-0.020972
1393	6.9600e-01	-7.8272	-62.704601	0.000969	9.693062	1.642049	-0.038718
1394	6.9650e-01	-7.8477	-62.805428	0.000505	5.048470	0.855234	-0.020165
1395	6.9700e-01	-7.8690	-62.978851	0.000868	8.683368	1.471002	-0.034685
1396	6.9750e-01	-7.8889	-63.091778	0.000565	5.654286	0.957862	-0.022585
1397	6.9800e-01	-7.9090	-63.285367	0.000969	9.693062	1.642049	-0.038718
1398	6.9850e-01	-7.9285	-63.418459	0.000666	6.663980	1.128909	-0.026618
1399	6.9900e-01	-7.9487	-63.523320	0.000525	5.250409	0.889443	-0.020972
1400	6.9950e-01	-7.9688	-63.668511	0.000727	7.269797	1.231537	-0.029038
1401	7.0000e-01	-7.9874	-63.833868	0.000828	8.279491	1.402584	-0.033071
1402	7.0050e-01	-8.0085	-63.862100	0.000141	1.413572	0.239466	-0.005646
1403	7.0100e-01	-8.0283	-64.116185	0.001272	12.722144	2.155190	-0.050817
1404	7.0150e-01	-8.0488	-64.245244	0.000646	6.462042	1.094699	-0.025812
1405	7.0200e-01	-8.0683	-64.394469	0.000747	7.471736	1.265746	-0.029845
1406	7.0250e-01	-8.0878	-64.551760	0.000788	7.875613	1.334165	-0.031458
1407	7.0300e-01	-8.1080	-64.668720	0.000586	5.856225	0.992071	-0.023392
1408	7.0350e-01	-8.1287	-64.830043	0.000808	8.077552	1.368374	-0.032265
1409	7.0400e-01	-8.1489	-64.951036	0.000606	6.058164	1.026281	-0.024199
1410	7.0450e-01	-8.1675	-65.108327	0.000788	7.875613	1.334165	-0.031458
1411	7.0500e-01	-8.1886	-65.265618	0.000788	7.875613	1.334165	-0.031458
1412	7.0550e-01	-8.2078	-65.382578	0.000586	5.856225	0.992071	-0.023392
1413	7.0600e-01	-8.2276	-65.515670	0.000666	6.663980	1.128909	-0.026618
1414	7.0650e-01	-8.2484	-65.636663	0.000606	6.058164	1.026281	-0.024199
1415	7.0700e-01	-8.2682	-65.810086	0.000868	8.683368	1.471002	-0.034685
1416	7.0750e-01	-8.2880	-65.951245	0.000707	7.067858	1.197328	-0.028232
1417	7.0800e-01	-8.3076	-66.068205	0.000586	5.856225	0.992071	-0.023392
1418	7.0850e-01	-8.3277	-66.265827	0.000990	9.895001	1.676259	-0.039524
1419	7.0900e-01	-8.3488	-66.338422	0.000363	3.634898	0.615768	-0.014519
1420	7.0950e-01	-8.3680	-66.548143	0.001050	10.500818	1.778887	-0.041944
1421	7.1000e-01	-8.3881	-66.665103	0.000586	5.856225	0.992071	-0.023392
1422	7.1050e-01	-8.4086	-66.834493	0.000848	8.481430	1.436793	-0.033878
1423	7.1100e-01	-8.4290	-66.975652	0.000707	7.067858	1.197328	-0.028232
1424	7.1150e-01	-8.4476	-67.072446	0.000485	4.846531	0.821025	-0.019359
1425	7.1200e-01	-8.4675	-67.225704	0.000767	7.673674	1.299956	-0.030652
1426	7.1250e-01	-8.4882	-67.350730	0.000626	6.260103	1.060490	-0.025005
1427	7.1300e-01	-8.5078	-67.487855	0.000687	6.865919	1.163118	-0.027425
1428	7.1350e-01	-8.5282	-67.677411	0.000949	9.491124	1.607840	-0.037911
1429	7.1400e-01	-8.5474	-67.802437	0.000626	6.260103	1.060490	-0.025005
1430	7.1450e-01	-8.5670	-67.975860	0.000868	8.683368	1.471002	-0.034685
1431	7.1500e-01	-8.5883	-68.064589	0.000444	4.442654	0.752606	-0.017746
1432	7.1550e-01	-8.6073	-68.250111	0.000929	9.289185	1.573630	-0.037105
1433	7.1600e-01	-8.6275	-68.363038	0.000565	5.654286	0.957862	-0.022585
1434	7.1650e-01	-8.6483	-68.508229	0.000727	7.269797	1.231537	-0.029038
1435	7.1700e-01	-8.6677	-68.661487	0.000767	7.673674	1.299956	-0.030652
1436	7.1750e-01	-8.6878	-68.770381	0.000545	5.452348	0.923653	-0.021779
1437	7.1800e-01	-8.7080	-68.935738	0.000828	8.279491	1.402584	-0.033071
1438	7.1850e-01	-8.7281	-69.068830	0.000666	6.663980	1.128909	-0.026618
1439	7.1900e-01	-8.7482	-69.218055	0.000747	7.471736	1.265746	-0.029845
1440	7.1950e-01	-8.7678	-69.443908	0.001131	11.308573	1.915724	-0.045171
1441	7.2000e-01	-8.7879	-69.548769	0.000525	5.250409	0.889443	-0.020972
1442	7.2050e-01	-8.8081	-69.718159	0.000848	8.481430	1.436793	-0.033878
1443	7.2100e-01	-8.8288	-69.847218	0.000646	6.462042	1.094699	-0.025812
1444	7.2150e-01	-8.8483	-69.984343	0.000687	6.865919	1.163118	-0.027425
1445	7.2200e-01	-8.8673	-70.149701	0.000828	8.279491	1.402584	-0.033071
1446	7.2250e-01	-8.8868	-70.226329	0.000384	3.836837	0.649978	-0.015326
1447	7.2300e-01	-8.9082	-70.407819	0.000909	9.087246	1.539421	-0.036298
1448	7.2350e-01	-8.9283	-70.573176	0.000828	8.279491	1.402584	-0.033071
1449	7.2400e-01	-8.9478	-70.722401	0.000747	7.471736	1.265746	-0.029845
1450	7.2450e-01	-8.9674	-70.851460	0.000646	6.462042	1.094699	-0.025812
1451	7.2500e-01	-8.9869	-71.016817	0.000828	8.279491	1.402584	-0.033071
1452	7.2550e-01	-9.0072	-71.145876	0.000646	6.462042	1.094699	-0.025812
1453	7.2600e-01	-9.0284	-71.303167	0.000788	7.875613	1.334165	-0.031458
1454	7.2650e-01	-9.0479	-71.424160	0.000606	6.058164	1.026281	-0.024199
1455	7.2700e-01	-9.0687	-71.573384	0.000747	7.471736	1.265746	-0.029845
1456	7.2750e-01	-9.0876	-71.730675	0.000788	7.875613	1.334165	-0.031458
1457	7.2800e-01	-9.1071	-71.879900	0.000747	7.471736	1.265746	-0.029845
1458	7.2850e-01	-9.1279	-72.081555	0.001010	10.096940	1.710468	-0.040331
1459	7.2900e-01	-9.1474	-72.234813	0.000767	7.673674	1.299956	-0.030652
1460	7.2950e-01	-9.1676	-72.234813	-0.000000	-0.000000	-0.000000	0.000000
1461	7.3000e-01	-9.1871	-72.509063	0.001373	13.731838	2.326236	-0.054850
1462	7.3050e-01	-9.2078	-72.634089	0.000626	6.260103	1.060490	-0.025005
1463	7.3100e-01	-9.2280	-72.787347	0.000767	7.673674	1.299956	-0.030652
1464	7.3150e-01	-9.2481	-72.972870	0.000929	9.289185	1.573630	-0.037105
1465	7.3200e-01	-9.2670	-73.061598	0.000444	4.442654	0.752606	-0.017746
1466	7.3250e-01	-9.2881	-73.226955	0.000828	8.279491	1.402584	-0.033071
1467	7.3300e-01	-9.3079	-73.408444	0.000909	9.087246	1.539421	-0.036298
1468	7.3350e-01	-9.3281	-73.509272	0.000505	5.048470	0.855234	-0.020165
1469	7.3400e-01	-9.3470	-73.662529	0.000767	7.673674	1.299956	-0.030652
1470	7.3450e-01	-9.3678	-73.815787	0.000767	7.673674	1.299956	-0.030652
1471	7.3500e-01	-9.3879	-73.960979	0.000727	7.269797	1.231537	-0.029038
1472	7.3550e-01	-9.4074	-74.094071	0.000666	6.663980	1.128909	-0.026618
1473	7.3600e-01	-9.4276	-74.283627	0.000949	9.491124	1.607840	-0.037911
1474	7.3650e-01	-9.4474	-74.412686	0.000646	6.462042	1.094699	-0.025812
1475	7.3700e-01	-9.4685	-74.569977	0.000788	7.875613	1.334165	-0.031458
1476	7.3750e-01	-9.4868	-74.743400	0.000868	8.683368	1.471002	-0.034685
1477	7.3800e-01	-9.5075	-74.856327	0.000565	5.654286	0.957862	-0.022585
1478	7.3850e-01	-9.5283	-75.013617	0.000788	7.875613	1.334165	-0.031458
1479	7.3900e-01	-9.5472	-75.166875	0.000767	7.673674	1.299956	-0.030652
1480	7.3950e-01	-9.5673	-75.328199	0.000808	8.077552	1.368374	-0.032265
1481	7.4000e-01	-9.5884	-75.481457	0.000767	7.673674	1.299956	-0.030652
1482	7.4050e-01	-9.6082	-75.646814	0.000828	8.279491	1.402584	-0.033071
1483	7.4100e-01	-9.6284	-75.739575	0.000464	4.644592	0.786815	-0.018552
1484	7.4150e-01	-9.6479	-75.917032	0.000889	8.885307	1.505212	-0.035491
1485	7.4200e-01	-9.6671	-76.082389	0.000828	8.279491	1.402584	-0.033071
1486	7.4250e-01	-9.6876	-76.263878	0.000909	9.087246	1.539421	-0.036298
1487	7.4300e-01	-9.7092	-76.413103	0.000747	7.471736	1.265746	-0.029845
1488	7.4350e-01	-9.7285	-76.606691	0.000969	9.693062	1.642049	-0.038718
1489	7.4400e-01	-9.7477	-76.695420	0.000444	4.442654	0.752606	-0.017746
1490	7.4450e-01	-9.7681	-76.832545	0.000687	6.865919	1.163118	-0.027425
1491	7.4500e-01	-9.7883	-76.985803	0.000767	7.673674	1.299956	-0.030652
1492	7.4550e-01	-9.8072	-77.147127	0.000808	8.077552	1.368374	-0.032265
1493	7.4600e-01	-9.8277	-77.300384	0.000767	7.673674	1.299956	-0.030652
1494	7.4650e-01	-9.8487	-77.441543	0.000707	7.067858	1.197328	-0.028232
1495	7.4700e-01	-9.8682	-77.618999	0.000889	8.885307	1.505212	-0.035491
1496	7.4750e-01	-9.8884	-77.768224	0.000747	7.471736	1.265746	-0.029845
1497	7.4800e-01	-9.9085	-77.909382	0.000707	7.067858	1.197328	-0.028232
1498	7.4850e-01	-9.9281	-78.062640	0.000767	7.673674	1.299956	-0.030652
1499	7.4900e-01	-9.9482	-78.240096	0.000889	8.885307	1.505212	-0.035491
1500	7.4950e-01	-9.9677	-78.381255	0.000707	7.067858	1.197328	-0.028232
1501	7.5000e-01	-9.9879	-78.542579	0.000808	8.077552	1.368374	-0.032265
1502	7.5050e-01	-9.9848	-78.461917	0.000404	4.038776	0.684187	0.016132
1503	7.5100e-01	-9.9702	-78.437718	0.000121	1.211633	0.205256	0.004840
1504	7.5150e-01	-9.9525	-78.381255	0.000283	2.827143	0.478931	0.011293
1505	7.5200e-01	-9.9329	-78.357056	0.000121	1.211633	0.205256	0.004840
1506	7.5250e-01	-9.9128	-78.276394	0.000404	4.038776	0.684187	0.016132
1507	7.5300e-01	-9.8927	-78.207832	0.000343	3.432960	0.581559	0.013713
1508	7.5350e-01	-9.8731	-78.179600	0.000141	1.413572	0.239466	0.005646
1509	7.5400e-01	-9.8530	-78.102971	0.000384	3.836837	0.649978	0.015326
1510	7.5450e-01	-9.8335	-78.010210	0.000464	4.644592	0.786815	0.018552
1511	7.5500e-01	-9.8133	-77.977945	0.000162	1.615510	0.273675	0.006453
1512	7.5550e-01	-9.7932	-77.832753	0.000727	7.269797	1.231537	0.029038
1513	7.5600e-01	-9.7730	-77.848886	-0.000081	-0.807755	-0.136837	-0.003226
1514	7.5650e-01	-9.7538	-77.752091	0.000485	4.846531	0.821025	0.019359
1515	7.5700e-01	-9.7340	-77.651264	0.000505	5.048470	0.855234	0.020165
1516	7.5750e-01	-9.7138	-77.655297	-0.000020	-0.201939	-0.034209	-0.000807
1517	7.5800e-01	-9.6926	-77.485907	0.000848	8.481430	1.436793	0.033878
1518	7.5850e-01	-9.6732	-77.506072	-0.000101	-1.009694	-0.171047	-0.004033
1519	7.5900e-01	-9.6540	-77.429444	0.000384	3.836837	0.649978	0.015326
1520	7.5950e-01	-9.6333	-77.268120	0.000808	8.077552	1.368374	0.032265
1521	7.6000e-01	-9.6137	-77.207623	0.000303	3.029082	0.513140	0.012099
1522	7.6050e-01	-9.5933	-77.090663	0.000586	5.856225	0.992071	0.023392
1523	7.6100e-01	-9.5728	-77.054365	0.000182	1.817449	0.307884	0.007260
1524	7.6150e-01	-9.5533	-76.969670	0.000424	4.240715	0.718397	0.016939
1525	7.6200e-01	-9.5338	-76.876909	0.000464	4.644592	0.786815	0.018552
1526	7.6250e-01	-9.5136	-76.836578	0.000202	2.019388	0.342094	0.008066
1527	7.6300e-01	-9.4935	-76.699453	0.000687	6.865919	1.163118	0.027425
1528	7.6350e-01	-9.4727	-76.626857	0.000363	3.634898	0.615768	0.014519
1529	7.6400e-01	-9.4526	-76.493765	0.000666	6.663980	1.128909	0.026618
1530	7.6450e-01	-9.4337	-76.461500	0.000162	1.615510	0.273675	0.006453
1531	7.6500e-01	-9.4132	-76.401003	0.000303	3.029082	0.513140	0.012099
1532	7.6550e-01	-9.3940	-76.271944	0.000646	6.462042	1.094699	0.025812
1533	7.6600e-01	-9.3739	-76.171117	0.000505	5.048470	0.855234	0.020165
1534	7.6650e-01	-9.3537	-76.074322	0.000485	4.846531	0.821025	0.019359
1535	7.6700e-01	-9.3336	-76.038024	0.000182	1.817449	0.307884	0.007260
1536	7.6750e-01	-9.3134	-75.912998	0.000626	6.260103	1.060490	0.025005
1537	7.6800e-01	-9.2933	-75.816204	0.000485	4.846531	0.821025	0.019359
1538	7.6850e-01	-9.2738	-75.731509	0.000424	4.240715	0.718397	0.016939
1539	7.6900e-01	-9.2532	-75.618582	0.000565	5.654286	0.957862	0.022585
1540	7.6950e-01	-9.2335	-75.477424	0.000707	7.067858	1.197328	0.028232
1541	7.7000e-01	-9.2139	-75.445159	0.000162	1.615510	0.273675	0.006453
1542	7.7050e-01	-9.1932	-75.364497	0.000404	4.038776	0.684187	0.016132
1543	7.7100e-01	-9.1737	-75.235438	0.000646	6.462042	1.094699	0.025812
1544	7.7150e-01	-9.1541	-75.130577	0.000525	5.250409	0.889443	0.020972
1545	7.7200e-01	-9.1334	-75.062015	0.000343	3.432960	0.581559	0.013713
1546	7.7250e-01	-9.1138	-74.973286	0.000444	4.442654	0.752606	0.017746
1547	7.7300e-01	-9.0937	-74.884558	0.000444	4.442654	0.752606	0.017746
1548	7.7350e-01	-9.0730	-74.763565	0.000606	6.058164	1.026281	0.024199
1549	7.7400e-01	-9.0534	-74.638539	0.000626	6.260103	1.060490	0.025005
1550	7.7450e-01	-9.0339	-74.598208	0.000202	2.019388	0.342094	0.008066
1551	7.7500e-01	-9.0137	-74.457050	0.000707	7.067858	1.197328	0.028232
1552	7.7550e-01	-8.9936	-74.372355	0.000424	4.240715	0.718397	0.016939
1553	7.7600e-01	-8.9741	-74.247329	0.000626	6.260103	1.060490	0.025005
1554	7.7650e-01	-8.9536	-74.138435	0.000545	5.452348	0.923653	0.021779
1555	7.7700e-01	-8.9335	-74.098104	0.000202	2.019388	0.342094	0.008066
1556	7.7750e-01	-8.9137	-73.969045	0.000646	6.462042	1.094699	0.025812
1557	7.7800e-01	-8.8938	-73.860151	0.000545	5.452348	0.923653	0.021779
1558	7.7850e-01	-8.8740	-73.827886	0.000162	1.615510	0.273675	0.006453
1559	7.7900e-01	-8.8538	-73.686728	0.000707	7.067858	1.197328	0.028232
1560	7.7950e-01	-8.8325	-73.598000	0.000444	4.442654	0.752606	0.017746
1561	7.8000e-01	-8.8136	-73.505239	0.000464	4.644592	0.786815	0.018552
1562	7.8050e-01	-8.7940	-73.343915	0.000808	8.077552	1.368374	0.032265
1563	7.8100e-01	-8.7739	-73.271319	0.000363	3.634898	0.615768	0.014519
1564	7.8150e-01	-8.7539	-73.174524	0.000485	4.846531	0.821025	0.019359
1565	7.8200e-01	-8.7336	-73.017234	0.000788	7.875613	1.334165	0.031458
1566	7.8250e-01	-8.7132	-72.968836	0.000242	2.423266	0.410512	0.009679
1567	7.8300e-01	-8.6942	-72.900274	0.000343	3.432960	0.581559	0.013713
1568	7.8350e-01	-8.6738	-72.666354	0.001171	11.712450	1.984143	0.046784
1569	7.8400e-01	-8.6539	-72.630056	0.000182	1.817449	0.307884	0.007260
1570	7.8450e-01	-8.6335	-72.541328	0.000444	4.442654	0.752606	0.017746
1571	7.8500e-01	-8.6140	-72.468732	0.000363	3.634898	0.615768	0.014519
1572	7.8550e-01	-8.5944	-72.315474	0.000767	7.673674	1.299956	0.030652
1573	7.8600e-01	-8.5737	-72.363872	-0.000242	-2.423266	-0.410512	-0.009679
1574	7.8650e-01	-8.5523	-72.085588	0.001393	13.933777	2.360446	0.055657
1575	7.8700e-01	-8.5334	-72.025091	0.000303	3.029082	0.513140	0.012099
1576	7.8750e-01	-8.5133	-71.891999	0.000666	6.663980	1.128909	0.026618
1577	7.8800e-01	-8.4937	-71.754874	0.000687	6.865919	1.163118	0.027425
1578	7.8850e-01	-8.4742	-71.714543	0.000202	2.019388	0.342094	0.008066
1579	7.8900e-01	-8.4541	-71.589517	0.000626	6.260103	1.060490	0.025005
1580	7.8950e-01	-8.4336	-71.496755	0.000464	4.644592	0.786815	0.018552
1581	7.9000e-01	-8.4138	-71.387862	0.000545	5.452348	0.923653	0.021779
1582	7.9050e-01	-8.3936	-71.230571	0.000788	7.875613	1.334165	0.031458
1583	7.9100e-01	-8.3741	-71.125710	0.000525	5.250409	0.889443	0.020972
1584	7.9150e-01	-8.3540	-71.045048	0.000404	4.038776	0.684187	0.016132
1585	7.9200e-01	-8.3341	-70.976486	0.000343	3.432960	0.581559	0.013713
1586	7.9250e-01	-8.3131	-70.843393	0.000666	6.663980	1.128909	0.026618
1587	7.9300e-01	-8.2935	-70.714334	0.000646	6.462042	1.094699	0.025812
1588	7.9350e-01	-8.2728	-70.641739	0.000363	3.634898	0.615768	0.014519
1589	7.9400e-01	-8.2526	-70.484448	0.000788	7.875613	1.334165	0.031458
1590	7.9450e-01	-8.2331	-70.387653	0.000485	4.846531	0.821025	0.019359
1591	7.9500e-01	-8.2136	-70.323124	0.000323	3.231021	0.547350	0.012906
1592	7.9550e-01	-8.1922	-70.185998	0.000687	6.865919	1.163118	0.027425
1593	7.9600e-01	-8.1727	-70.044840	0.000707	7.067858	1.197328	0.028232
1594	7.9650e-01	-8.1533	-69.964178	0.000404	4.038776	0.684187	0.016132
1595	7.9700e-01	-8.1336	-69.911748	0.000263	2.625204	0.444722	0.010486
1596	7.9750e-01	-8.1135	-69.786722	0.000626	6.260103	1.060490	0.025005
1597	7.9800e-01	-8.0933	-69.637497	0.000747	7.471736	1.265746	0.029845
1598	7.9850e-01	-8.0732	-69.552802	0.000424	4.240715	0.718397	0.016939
1599	7.9900e-01	-8.0531	-69.508438	0.000222	2.221327	0.376303	0.008873
1600	7.9950e-01	-8.0332	-69.306783	0.001010	10.096940	1.710468	0.040331
1601	8.0000e-01	-8.0128	-69.250320	0.000283	2.827143	0.478931	0.011293
1602	8.0050e-01	-7.9926	-69.052698	0.000990	9.895001	1.676259	0.039524
1603	8.0100e-01	-7.9731	-68.968003	0.000424	4.240715	0.718397	0.016939
1604	8.0150e-01	-7.9536	-68.875241	0.000464	4.644592	0.786815	0.018552
1605	8.0200e-01	-7.9328	-68.778447	0.000485	4.846531	0.821025	0.019359
1606	8.0250e-01	-7.9136	-68.641322	0.000687	6.865919	1.163118	0.027425
1607	8.0300e-01	-7.8934	-68.528395	0.000565	5.654286	0.957862	0.022585
1608	8.0350e-01	-7.8730	-68.435634	0.000464	4.644592	0.786815	0.018552
1609	8.0400e-01	-7.8541	-68.290442	0.000727	7.269797	1.231537	0.029038
1610	8.0450e-01	-7.8324	-68.213813	0.000384	3.836837	0.649978	0.015326
1611	8.0500e-01	-7.8126	-68.088787	0.000626	6.260103	1.060490	0.025005
1612	8.0550e-01	-7.7926	-67.951662	0.000687	6.865919	1.163118	0.027425
1613	8.0600e-01	-7.7723	-67.887132	0.000323	3.231021	0.547350	0.012906
1614	8.0650e-01	-7.7528	-67.766139	0.000606	6.058164	1.026281	0.024199
1615	8.0700e-01	-7.7329	-67.645146	0.000606	6.058164	1.026281	0.024199
1616	8.0750e-01	-7.7125	-67.536253	0.000545	5.452348	0.923653	0.021779
1617	8.0800e-01	-7.6926	-67.427359	0.000545	5.452348	0.923653	0.021779
1618	8.0850e-01	-7.6740	-67.274101	0.000767	7.673674	1.299956	0.030652
1619	8.0900e-01	-7.6527	-67.205539	0.000343	3.432960	0.581559	0.013713
1620	8.0950e-01	-7.6328	-67.056314	0.000747	7.471736	1.265746	0.029845
1621	8.1000e-01	-7.6133	-66.919189	0.000687	6.865919	1.163118	0.027425
1622	8.1050e-01	-7.5928	-66.810295	0.000545	5.452348	0.923653	0.021779
1623	8.1100e-01	-7.5718	-66.681236	0.000646	6.462042	1.094699	0.025812
1624	8.1150e-01	-7.5532	-66.604607	0.000384	3.836837	0.649978	0.015326
1625	8.1200e-01	-7.5343	-66.495713	0.000545	5.452348	0.923653	0.021779
1626	8.1250e-01	-7.5135	-66.406985	0.000444	4.442654	0.752606	0.017746
1627	8.1300e-01	-7.4934	-66.245661	0.000808	8.077552	1.368374	0.032265
1628	8.1350e-01	-7.4732	-66.181132	0.000323	3.231021	0.547350	0.012906
1629	8.1400e-01	-7.4540	-66.015774	0.000828	8.279491	1.402584	0.033071
1630	8.1450e-01	-7.4335	-65.866550	0.000747	7.471736	1.265746	0.029845
1631	8.1500e-01	-7.4140	-65.822186	0.000222	2.221327	0.376303	0.008873
1632	8.1550e-01	-7.3939	-65.741524	0.000404	4.038776	0.684187	0.016132
1633	8.1600e-01	-7.3725	-65.527770	0.001070	10.702756	1.813096	0.042751
1634	8.1650e-01	-7.3536	-65.426942	0.000505	5.048470	0.855234	0.020165
1635	8.1700e-01	-7.3335	-65.269651	0.000788	7.875613	1.334165	0.031458
1636	8.1750e-01	-7.3124	-65.229320	0.000202	2.019388	0.342094	0.008066
1637	8.1800e-01	-7.2938	-65.031698	0.000990	9.895001	1.676259	0.039524
1638	8.1850e-01	-7.2736	-64.983301	0.000242	2.423266	0.410512	0.009679
1639	8.1900e-01	-7.2529	-64.854242	0.000646	6.462042	1.094699	0.025812
1640	8.1950e-01	-7.2340	-64.733249	0.000606	6.058164	1.026281	0.024199
1641	8.2000e-01	-7.2126	-64.644521	0.000444	4.442654	0.752606	0.017746
1642	8.2050e-01	-7.1937	-64.495296	0.000747	7.471736	1.265746	0.029845
1643	8.2100e-01	-7.1741	-64.446899	0.000242	2.423266	0.410512	0.009679
1644	8.2150e-01	-7.1525	-64.321873	0.000626	6.260103	1.060490	0.025005
1645	8.2200e-01	-7.1339	-64.136351	0.000929	9.289185	1.573630	0.037105
1646	8.2250e-01	-7.1125	-64.007291	0.000646	6.462042	1.094699	0.025812
1647	8.2300e-01	-7.0924	-63.902431	0.000525	5.250409	0.889443	0.020972
1648	8.2350e-01	-7.0722	-63.773372	0.000646	6.462042	1.094699	0.025812
1649	8.2400e-01	-7.0536	-63.692710	0.000404	4.038776	0.684187	0.016132
1650	8.2450e-01	-7.0335	-63.608015	0.000424	4.240715	0.718397	0.016939
1651	8.2500e-01	-7.0130	-63.495088	0.000565	5.654286	0.957862	0.022585
1652	8.2550e-01	-6.9929	-63.341830	0.000767	7.673674	1.299956	0.030652
1653	8.2600e-01	-6.9721	-63.236970	0.000525	5.250409	0.889443	0.020972
1654	8.2650e-01	-6.9532	-63.095811	0.000707	7.067858	1.197328	0.028232
1655	8.2700e-01	-6.9318	-63.003050	0.000464	4.644592	0.786815	0.018552
1656	8.2750e-01	-6.9129	-62.821560	0.000909	9.087246	1.539421	0.036298
1657	8.2800e-01	-6.8928	-62.700567	0.000606	6.058164	1.026281	0.024199
1658	8.2850e-01	-6.8739	-62.632005	0.000343	3.432960	0.581559	0.013713
1659	8.2900e-01	-6.8525	-62.523111	0.000545	5.452348	0.923653	0.021779
1660	8.2950e-01	-6.8330	-62.353721	0.000848	8.481430	1.436793	0.033878
1661	8.3000e-01	-6.8125	-62.273059	0.000404	4.038776	0.684187	0.016132
1662	8.3050e-01	-6.7927	-62.144000	0.000646	6.462042	1.094699	0.025812
1663	8.3100e-01	-6.7738	-61.978643	0.000828	8.279491	1.402584	0.033071
1664	8.3150e-01	-6.7532	-61.885882	0.000464	4.644592	0.786815	0.018552
1665	8.3200e-01	-6.7329	-61.760855	0.000626	6.260103	1.060490	0.025005
1666	8.3250e-01	-6.7127	-61.591465	0.000848	8.481430	1.436793	0.033878
1667	8.3300e-01	-6.6923	-61.466439	0.000626	6.260103	1.060490	0.025005
1668	8.3350e-01	-6.6724	-61.341413	0.000626	6.260103	1.060490	0.025005
1669	8.3400e-01	-6.6523	-61.204288	0.000687	6.865919	1.163118	0.027425
1670	8.3450e-01	-6.6337	-61.071196	0.000666	6.663980	1.128909	0.026618
1671	8.3500e-01	-6.6129	-60.990534	0.000404	4.038776	0.684187	0.016132
1672	8.3550e-01	-6.5928	-60.885673	0.000525	5.250409	0.889443	0.020972
1673	8.3600e-01	-6.5730	-60.752581	0.000666	6.663980	1.128909	0.026618
1674	8.3650e-01	-6.5528	-60.651753	0.000505	5.048470	0.855234	0.020165
1675	8.3700e-01	-6.5327	-60.478330	0.000868	8.683368	1.471002	0.034685
1676	8.3750e-01	-6.5125	-60.365403	0.000565	5.654286	0.957862	0.022585
1677	8.3800e-01	-6.4924	-60.224245	0.000707	7.067858	1.197328	0.028232
1678	8.3850e-01	-6.4731	-60.087120	0.000687	6.865919	1.163118	0.027425
1679	8.3900e-01	-6.4527	-60.066954	0.000101	1.009694	0.171047	0.004033
1680	8.3950e-01	-6.4327	-59.885465	0.000909	9.087246	1.539421	0.036298
1681	8.4000e-01	-6.4133	-59.708008	0.000889	8.885307	1.505212	0.035491
1682	8.4050e-01	-6.3926	-59.623313	0.000424	4.240715	0.718397	0.016939
1683	8.4100e-01	-6.3721	-59.474089	0.000747	7.471736	1.265746	0.029845
1684	8.4150e-01	-6.3520	-59.357129	0.000586	5.856225	0.992071	0.023392
1685	8.4200e-01	-6.3325	-59.236136	0.000606	6.058164	1.026281	0.024199
1686	8.4250e-01	-6.3123	-59.119176	0.000586	5.856225	0.992071	0.023392
1687	8.4300e-01	-6.2925	-58.994150	0.000626	6.260103	1.060490	0.025005
1688	8.4350e-01	-6.2720	-58.877190	0.000586	5.856225	0.992071	0.023392
1689	8.4400e-01	-6.2525	-58.764263	0.000565	5.654286	0.957862	0.022585
1690	8.4450e-01	-6.2324	-58.574708	0.000949	9.491124	1.607840	0.037911
1691	8.4500e-01	-6.2124	-58.514211	0.000303	3.029082	0.513140	0.012099
1692	8.4550e-01	-6.1927	-58.356920	0.000788	7.875613	1.334165	0.031458
1693	8.4600e-01	-6.1726	-58.175431	0.000909	9.087246	1.539421	0.036298
1694	8.4650e-01	-6.1521	-58.050405	0.000626	6.260103	1.060490	0.025005
1695	8.4700e-01	-6.1329	-57.989908	0.000303	3.029082	0.513140	0.012099
1696	8.4750e-01	-6.1117	-57.844717	0.000727	7.269797	1.231537	0.029038
1697	8.4800e-01	-6.0926	-57.679360	0.000828	8.279491	1.402584	0.033071
1698	8.4850e-01	-6.0725	-57.562400	0.000586	5.856225	0.992071	0.023392
1699	8.4900e-01	-6.0535	-57.441407	0.000606	6.058164	1.026281	0.024199
1700	8.4950e-01	-6.0329	-57.288149	0.000767	7.673674	1.299956	0.030652
1701	8.5000e-01	-6.0123	-57.163123	0.000626	6.260103	1.060490	0.025005
1702	8.5050e-01	-5.9928	-57.078428	0.000424	4.240715	0.718397	0.016939
1703	8.5100e-01	-5.9736	-56.933236	0.000727	7.269797	1.231537	0.029038
1704	8.5150e-01	-5.9534	-56.775946	0.000788	7.875613	1.334165	0.031458
1705	8.5200e-01	-5.9322	-56.586390	0.000949	9.491124	1.607840	0.037911
1706	8.5250e-01	-5.9132	-56.501695	0.000424	4.240715	0.718397	0.016939
1707	8.5300e-01	-5.8924	-56.384735	0.000586	5.856225	0.992071	0.023392
1708	8.5350e-01	-5.8732	-56.259709	0.000626	6.260103	1.060490	0.025005
1709	8.5400e-01	-5.8527	-56.058054	0.001010	10.096940	1.710468	0.040331
1710	8.5450e-01	-5.8321	-55.957227	0.000505	5.048470	0.855234	0.020165
1711	8.5500e-01	-5.8121	-55.844300	0.000565	5.654286	0.957862	0.022585
1712	8.5550e-01	-5.7923	-55.678943	0.000828	8.279491	1.402584	0.033071
1713	8.5600e-01	-5.7722	-55.582148	0.000485	4.846531	0.821025	0.019359
1714	8.5650e-01	-5.7533	-55.465189	0.000586	5.856225	0.992071	0.023392
1715	8.5700e-01	-5.7325	-55.344196	0.000606	6.058164	1.026281	0.024199
1716	8.5750e-01	-5.7124	-55.190938	0.000767	7.673674	1.299956	0.030652
1717	8.5800e-01	-5.6931	-55.090110	0.000505	5.048470	0.855234	0.020165
1718	8.5850e-01	-5.6715	-54.920720	0.000848	8.481430	1.436793	0.033878
1719	8.5900e-01	-5.6522	-54.791661	0.000646	6.462042	1.094699	0.025812
1720	8.5950e-01	-5.6330	-54.598072	0.000969	9.693062	1.642049	0.038718
1721	8.6000e-01	-5.6120	-54.569841	0.000141	1.413572	0.239466	0.005646
1722	8.6050e-01	-5.5927	-54.372219	0.000990	9.895001	1.676259	0.039524
1723	8.6100e-01	-5.5732	-54.247193	0.000626	6.260103	1.060490	0.025005
1724	8.6150e-01	-5.5527	-54.130233	0.000586	5.856225	0.992071	0.023392
1725	8.6200e-01	-5.5329	-53.960843	0.000848	8.481430	1.436793	0.033878
1726	8.6250e-01	-5.5125	-53.855982	0.000525	5.250409	0.889443	0.020972
1727	8.6300e-01	-5.4932	-53.706758	0.000747	7.471736	1.265746	0.029845
1728	8.6350e-01	-5.4731	-53.537367	0.000848	8.481430	1.436793	0.033878
1729	8.6400e-01	-5.4523	-53.412341	0.000626	6.260103	1.060490	0.025005
1730	8.6450e-01	-5.4331	-53.307481	0.000525	5.250409	0.889443	0.020972
1731	8.6500e-01	-5.4127	-53.186488	0.000606	6.058164	1.026281	0.024199
1732	8.6550e-01	-5.3919	-53.025164	0.000808	8.077552	1.368374	0.032265
1733	8.6600e-01	-5.3724	-52.892072	0.000666	6.663980	1.128909	0.026618
1734	8.6650e-01	-5.3529	-52.807377	0.000424	4.240715	0.718397	0.016939
1735	8.6700e-01	-5.3330	-52.569424	0.001191	11.914389	2.018352	0.047591
1736	8.6750e-01	-5.3126	-52.436331	0.000666	6.663980	1.128909	0.026618
1737	8.6800e-01	-5.2924	-52.311305	0.000626	6.260103	1.060490	0.025005
1738	8.6850e-01	-5.2729	-52.166114	0.000727	7.269797	1.231537	0.029038
1739	8.6900e-01	-5.2518	-52.045121	0.000606	6.058164	1.026281	0.024199
1740	8.6950e-01	-5.2329	-51.928161	0.000586	5.856225	0.992071	0.023392
1741	8.7000e-01	-5.2125	-51.730539	0.000990	9.895001	1.676259	0.039524
1742	8.7050e-01	-5.1917	-51.581315	0.000747	7.471736	1.265746	0.029845
1743	8.7100e-01	-5.1725	-51.468388	0.000565	5.654286	0.957862	0.022585
1744	8.7150e-01	-5.1530	-51.432090	0.000182	1.817449	0.307884	0.007260
1745	8.7200e-01	-5.1331	-51.169939	0.001313	13.126022	2.223608	0.052430
1746	8.7250e-01	-5.1124	-51.081210	0.000444	4.442654	0.752606	0.017746
1747	8.7300e-01	-5.0922	-50.944085	0.000687	6.865919	1.163118	0.027425
1748	8.7350e-01	-5.0733	-50.786794	0.000788	7.875613	1.334165	0.031458
1749	8.7400e-01	-5.0513	-50.609338	0.000889	8.885307	1.505212	0.035491
1750	8.7450e-01	-5.0330	-50.464146	0.000727	7.269797	1.231537	0.029038
1751	8.7500e-01	-5.0129	-50.306855	0.000788	7.875613	1.334165	0.031458
1752	8.7550e-01	-4.9929	-50.181829	0.000626	6.260103	1.060490	0.025005
1753	8.7600e-01	-4.9732	-50.056803	0.000626	6.260103	1.060490	0.025005
1754	8.7650e-01	-4.9525	-49.907579	0.000747	7.471736	1.265746	0.029845
1755	8.7700e-01	-4.9329	-49.770453	0.000687	6.865919	1.163118	0.027425
1756	8.7750e-01	-4.9116	-49.673659	0.000485	4.846531	0.821025	0.019359
1757	8.7800e-01	-4.8927	-49.540567	0.000666	6.663980	1.128909	0.026618
1758	8.7850e-01	-4.8725	-49.359077	0.000909	9.087246	1.539421	0.036298
1759	8.7900e-01	-4.8519	-49.250184	0.000545	5.452348	0.923653	0.021779
1760	8.7950e-01	-4.8328	-49.088860	0.000808	8.077552	1.368374	0.032265
1761	8.8000e-01	-4.8127	-48.931569	0.000788	7.875613	1.334165	0.031458
1762	8.8050e-01	-4.7935	-48.766212	0.000828	8.279491	1.402584	0.033071
1763	8.8100e-01	-4.7712	-48.596822	0.000848	8.481430	1.436793	0.033878
1764	8.8150e-01	-4.7523	-48.491961	0.000525	5.250409	0.889443	0.020972
1765	8.8200e-01	-4.7327	-48.387100	0.000525	5.250409	0.889443	0.020972
1766	8.8250e-01	-4.7129	-48.177379	0.001050	10.500818	1.778887	0.041944
1767	8.8300e-01	-4.6925	-48.068486	0.000545	5.452348	0.923653	0.021779
1768	8.8350e-01	-4.6723	-47.886996	0.000909	9.087246	1.539421	0.036298
1769	8.8400e-01	-4.6528	-47.729705	0.000788	7.875613	1.334165	0.031458
1770	8.8450e-01	-4.6320	-47.576448	0.000767	7.673674	1.299956	0.030652
1771	8.8500e-01	-4.6125	-47.443355	0.000666	6.663980	1.128909	0.026618
1772	8.8550e-01	-4.5918	-47.318329	0.000626	6.260103	1.060490	0.025005
1773	8.8600e-01	-4.5716	-47.132807	0.000929	9.289185	1.573630	0.037105
1774	8.8650e-01	-4.5524	-47.040046	0.000464	4.644592	0.786815	0.018552
1775	8.8700e-01	-4.5321	-46.886788	0.000767	7.673674	1.299956	0.030652
1776	8.8750e-01	-4.5136	-46.725464	0.000808	8.077552	1.368374	0.032265
1777	8.8800e-01	-4.4929	-46.624636	0.000505	5.048470	0.855234	0.020165
1778	8.8850e-01	-4.4730	-46.402816	0.001111	11.106634	1.881515	0.044364
1779	8.8900e-01	-4.4526	-46.261658	0.000707	7.067858	1.197328	0.028232
1780	8.8950e-01	-4.4331	-46.092267	0.000848	8.481430	1.436793	0.033878
1781	8.9000e-01	-4.4117	-45.963208	0.000646	6.462042	1.094699	0.025812
1782	8.9050e-01	-4.3916	-45.793818	0.000848	8.481430	1.436793	0.033878
1783	8.9100e-01	-4.3732	-45.725255	0.000343	3.432960	0.581559	0.013713
1784	8.9150e-01	-4.3523	-45.535700	0.000949	9.491124	1.607840	0.037911
1785	8.9200e-01	-4.3311	-45.330012	0.001030	10.298879	1.744677	0.041138
1786	8.9250e-01	-4.3128	-45.196919	0.000666	6.663980	1.128909	0.026618
1787	8.9300e-01	-4.2924	-45.063827	0.000666	6.663980	1.128909	0.026618
1788	8.9350e-01	-4.2725	-44.954934	0.000545	5.452348	0.923653	0.021779
1789	8.9400e-01	-4.2531	-44.777477	0.000889	8.885307	1.505212	0.035491
1790	8.9450e-01	-4.2323	-44.567756	0.001050	10.500818	1.778887	0.041944
1791	8.9500e-01	-4.2124	-44.446763	0.000606	6.058164	1.026281	0.024199
1792	8.9550e-01	-4.1917	-44.333836	0.000565	5.654286	0.957862	0.022585
1793	8.9600e-01	-4.1735	-44.180579	0.000767	7.673674	1.299956	0.030652
1794	8.9650e-01	-4.1526	-44.007155	0.000868	8.683368	1.471002	0.034685
1795	8.9700e-01	-4.1329	-43.833732	0.000868	8.683368	1.471002	0.034685
1796	8.9750e-01	-4.1128	-43.696607	0.000687	6.865919	1.163118	0.027425
1797	8.9800e-01	-4.0931	-43.591746	0.000525	5.250409	0.889443	0.020972
1798	8.9850e-01	-4.0723	-43.414290	0.000889	8.885307	1.505212	0.035491
1799	8.9900e-01	-4.0528	-43.277165	0.000687	6.865919	1.163118	0.027425
1800	8.9950e-01	-4.0324	-43.063410	0.001070	10.702756	1.813096	0.042751
1801	9.0000e-01	-4.0119	-42.922252	0.000707	7.067858	1.197328	0.028232
1802	9.0050e-01	-3.9918	-42.760928	0.000808	8.077552	1.368374	0.032265
1803	9.0100e-01	-3.9722	-42.643968	0.000586	5.856225	0.992071	0.023392
1804	9.0150e-01	-3.9518	-42.498777	0.000727	7.269797	1.231537	0.029038
1805	9.0200e-01	-3.9317	-42.289055	0.001050	10.500818	1.778887	0.041944
1806	9.0250e-01	-3.9127	-42.143864	0.000727	7.269797	1.231537	0.029038
1807	9.0300e-01	-3.8921	-42.006738	0.000687	6.865919	1.163118	0.027425
1808	9.0350e-01	-3.8721	-41.813150	0.000969	9.693062	1.642049	0.038718
1809	9.0400e-01	-3.8519	-41.688124	0.000626	6.260103	1.060490	0.025005
1810	9.0450e-01	-3.8316	-41.494535	0.000969	9.693062	1.642049	0.038718
1811	9.0500e-01	-3.8120	-41.361443	0.000666	6.663980	1.128909	0.026618
1812	9.0550e-01	-3.7911	-41.167854	0.000969	9.693062	1.642049	0.038718
1813	9.0600e-01	-3.7714	-41.038795	0.000646	6.462042	1.094699	0.025812
1814	9.0650e-01	-3.7519	-40.913769	0.000626	6.260103	1.060490	0.025005
1815	9.0700e-01	-3.7318	-40.748412	0.000828	8.279491	1.402584	0.033071
1816	9.0750e-01	-3.7125	-40.591121	0.000788	7.875613	1.334165	0.031458
1817	9.0800e-01	-3.6921	-40.478194	0.000565	5.654286	0.957862	0.022585
1818	9.0850e-01	-3.6726	-40.296705	0.000909	9.087246	1.539421	0.036298
1819	9.0900e-01	-3.6521	-40.099083	0.000990	9.895001	1.676259	0.039524
1820	9.0950e-01	-3.6329	-39.941792	0.000788	7.875613	1.334165	0.031458
1821	9.1000e-01	-3.6121	-39.768369	0.000868	8.683368	1.471002	0.034685
1822	9.1050e-01	-3.5920	-39.603012	0.000828	8.279491	1.402584	0.033071
1823	9.1100e-01	-3.5720	-39.433622	0.000848	8.481430	1.436793	0.033878
1824	9.1150e-01	-3.5523	-39.336827	0.000485	4.846531	0.821025	0.019359
1825	9.1200e-01	-3.5319	-39.123073	0.001070	10.702756	1.813096	0.042751
1826	9.1250e-01	-3.5114	-38.965782	0.000788	7.875613	1.334165	0.031458
1827	9.1300e-01	-3.4916	-38.844789	0.000606	6.058164	1.026281	0.024199
1828	9.1350e-01	-3.4724	-38.635068	0.001050	10.500818	1.778887	0.041944
1829	9.1400e-01	-3.4522	-38.510042	0.000626	6.260103	1.060490	0.025005
1830	9.1450e-01	-3.4319	-38.296288	0.001070	10.702756	1.813096	0.042751
1831	9.1500e-01	-3.4121	-38.171262	0.000626	6.260103	1.060490	0.025005
1832	9.1550e-01	-3.3924	-38.018004	0.000767	7.673674	1.299956	0.030652
1833	9.1600e-01	-3.3714	-37.776018	0.001212	12.116328	2.052562	0.048397
1834	9.1650e-01	-3.3521	-37.630827	0.000727	7.269797	1.231537	0.029038
1835	9.1700e-01	-3.3320	-37.534032	0.000485	4.846531	0.821025	0.019359
1836	9.1750e-01	-3.3131	-37.368675	0.000828	8.279491	1.402584	0.033071
1837	9.1800e-01	-3.2932	-37.231550	0.000687	6.865919	1.163118	0.027425
1838	9.1850e-01	-3.2716	-36.985531	0.001232	12.318267	2.086771	0.049204
1839	9.1900e-01	-3.2519	-36.864538	0.000606	6.058164	1.026281	0.024199
1840	9.1950e-01	-3.2316	-36.666916	0.000990	9.895001	1.676259	0.039524
1841	9.2000e-01	-3.2114	-36.541890	0.000626	6.260103	1.060490	0.025005
1842	9.2050e-01	-3.1907	-36.352334	0.000949	9.491124	1.607840	0.037911
1843	9.2100e-01	-3.1712	-36.239407	0.000565	5.654286	0.957862	0.022585
1844	9.2150e-01	-3.1510	-36.074050	0.000828	8.279491	1.402584	0.033071
1845	9.2200e-01	-3.1324	-35.864329	0.001050	10.500818	1.778887	0.041944
1846	9.2250e-01	-3.1120	-35.715105	0.000747	7.471736	1.265746	0.029845
1847	9.2300e-01	-3.0927	-35.582012	0.000666	6.663980	1.128909	0.026618
1848	9.2350e-01	-3.0715	-35.380357	0.001010	10.096940	1.710468	0.040331
1849	9.2400e-01	-3.0527	-35.231133	0.000747	7.471736	1.265746	0.029845
1850	9.2450e-01	-3.0320	-35.073842	0.000788	7.875613	1.334165	0.031458
1851	9.2500e-01	-3.0119	-34.864121	0.001050	10.500818	1.778887	0.041944
1852	9.2550e-01	-2.9910	-34.731029	0.000666	6.663980	1.128909	0.026618
1853	9.2600e-01	-2.9720	-34.541473	0.000949	9.491124	1.607840	0.037911
1854	9.2650e-01	-2.9519	-34.372083	0.000848	8.481430	1.436793	0.033878
1855	9.2700e-01	-2.9314	-34.210759	0.000808	8.077552	1.368374	0.032265
1856	9.2750e-01	-2.9109	-33.964740	0.001232	12.318267	2.086771	0.049204
1857	9.2800e-01	-2.8913	-33.831648	0.000666	6.663980	1.128909	0.026618
1858	9.2850e-01	-2.8718	-33.674357	0.000788	7.875613	1.334165	0.031458
1859	9.2900e-01	-2.8516	-33.541265	0.000666	6.663980	1.128909	0.026618
1860	9.2950e-01	-2.8310	-33.315411	0.001131	11.308573	1.915724	0.045171
1861	9.3000e-01	-2.8114	-33.186352	0.000646	6.462042	1.094699	0.025812
1862	9.3050e-01	-2.7913	-33.004862	0.000909	9.087246	1.539421	0.036298
1863	9.3100e-01	-2.7715	-32.835472	0.000848	8.481430	1.436793	0.033878
1864	9.3150e-01	-2.7518	-32.702380	0.000666	6.663980	1.128909	0.026618
1865	9.3200e-01	-2.7314	-32.500725	0.001010	10.096940	1.710468	0.040331
1866	9.3250e-01	-2.7113	-32.339401	0.000808	8.077552	1.368374	0.032265
1867	9.3300e-01	-2.6914	-32.141779	0.000990	9.895001	1.676259	0.039524
1868	9.3350e-01	-2.6716	-31.968356	0.000868	8.683368	1.471002	0.034685
1869	9.3400e-01	-2.6514	-31.811065	0.000788	7.875613	1.334165	0.031458
1870	9.3450e-01	-2.6318	-31.621510	0.000949	9.491124	1.607840	0.037911
1871	9.3500e-01	-2.6109	-31.496484	0.000626	6.260103	1.060490	0.025005
1872	9.3550e-01	-2.5922	-31.306928	0.000949	9.491124	1.607840	0.037911
1873	9.3600e-01	-2.5709	-31.117372	0.000949	9.491124	1.607840	0.037911
1874	9.3650e-01	-2.5510	-30.972181	0.000727	7.269797	1.231537	0.029038
1875	9.3700e-01	-2.5306	-30.758426	0.001070	10.702756	1.813096	0.042751
1876	9.3750e-01	-2.5123	-30.649533	0.000545	5.452348	0.923653	0.021779
1877	9.3800e-01	-2.4915	-30.455944	0.000969	9.693062	1.642049	0.038718
1878	9.3850e-01	-2.4720	-30.258322	0.000990	9.895001	1.676259	0.039524
1879	9.3900e-01	-2.4519	-30.084899	0.000868	8.683368	1.471002	0.034685
1880	9.3950e-01	-2.4317	-29.850979	0.001171	11.712450	1.984143	0.046784
1881	9.4000e-01	-2.4116	-29.729986	0.000606	6.058164	1.026281	0.024199
1882	9.4050e-01	-2.3909	-29.572696	0.000788	7.875613	1.334165	0.031458
1883	9.4100e-01	-2.3711	-29.403305	0.000848	8.481430	1.436793	0.033878
1884	9.4150e-01	-2.3512	-29.169386	0.001171	11.712450	1.984143	0.046784
1885	9.4200e-01	-2.3322	-29.012095	0.000788	7.875613	1.334165	0.031458
1886	9.4250e-01	-2.3124	-28.850771	0.000808	8.077552	1.368374	0.032265
1887	9.4300e-01	-2.2921	-28.693480	0.000788	7.875613	1.334165	0.031458
1888	9.4350e-01	-2.2720	-28.479726	0.001070	10.702756	1.813096	0.042751
1889	9.4400e-01	-2.2523	-28.330501	0.000747	7.471736	1.265746	0.029845
1890	9.4450e-01	-2.2306	-28.120780	0.001050	10.500818	1.778887	0.041944
1891	9.4500e-01	-2.2118	-27.987688	0.000666	6.663980	1.128909	0.026618
1892	9.4550e-01	-2.1912	-27.745702	0.001212	12.116328	2.052562	0.048397
1893	9.4600e-01	-2.1722	-27.495650	0.001252	12.520206	2.120980	0.050010
1894	9.4650e-01	-2.1522	-27.515815	-0.000101	-1.009694	-0.171047	-0.004033
1895	9.4700e-01	-2.1313	-27.237531	0.001393	13.933777	2.360446	0.055657
1896	9.4750e-01	-2.1125	-27.031843	0.001030	10.298879	1.744677	0.041138
1897	9.4800e-01	-2.0911	-26.882619	0.000747	7.471736	1.265746	0.029845
1898	9.4850e-01	-2.0712	-26.721295	0.000808	8.077552	1.368374	0.032265
1899	9.4900e-01	-2.0512	-26.523673	0.000990	9.895001	1.676259	0.039524
1900	9.4950e-01	-2.0315	-26.338150	0.000929	9.289185	1.573630	0.037105
1901	9.5000e-01	-2.0116	-26.192959	0.000727	7.269797	1.231537	0.029038
1902	9.5050e-01	-1.9914	-25.995337	0.000990	9.895001	1.676259	0.039524
1903	9.5100e-01	-1.9722	-25.801748	0.000969	9.693062	1.642049	0.038718
1904	9.5150e-01	-1.9523	-25.660590	0.000707	7.067858	1.197328	0.028232
1905	9.5200e-01	-1.9311	-25.406505	0.001272	12.722144	2.155190	0.050817
1906	9.5250e-01	-1.9115	-25.212916	0.000969	9.693062	1.642049	0.038718
1907	9.5300e-01	-1.8916	-25.059658	0.000767	7.673674	1.299956	0.030652
1908	9.5350e-01	-1.8716	-24.898334	0.000808	8.077552	1.368374	0.032265
1909	9.5400e-01	-1.8525	-24.724911	0.000868	8.683368	1.471002	0.034685
1910	9.5450e-01	-1.8324	-24.567620	0.000788	7.875613	1.334165	0.031458
1911	9.5500e-01	-1.8122	-24.333700	0.001171	11.712450	1.984143	0.046784
1912	9.5550e-01	-1.7915	-24.123979	0.001050	10.500818	1.778887	0.041944
1913	9.5600e-01	-1.7707	-24.002986	0.000606	6.058164	1.026281	0.024199
1914	9.5650e-01	-1.7513	-23.785199	0.001090	10.904695	1.847305	0.043557
1915	9.5700e-01	-1.7319	-23.563379	0.001111	11.106634	1.881515	0.044364
1916	9.5750e-01	-1.7118	-23.474650	0.000444	4.442654	0.752606	0.017746
1917	9.5800e-01	-1.6914	-23.260896	0.001070	10.702756	1.813096	0.042751
1918	9.5850e-01	-1.6712	-23.087473	0.000868	8.683368	1.471002	0.034685
1919	9.5900e-01	-1.6512	-22.910017	0.000889	8.885307	1.505212	0.035491
1920	9.5950e-01	-1.6313	-22.676097	0.001171	11.712450	1.984143	0.046784
1921	9.6000e-01	-1.6116	-22.498641	0.000889	8.885307	1.505212	0.035491
1922	9.6050e-01	-1.5923	-22.305052	0.000969	9.693062	1.642049	0.038718
1923	9.6100e-01	-1.5707	-22.135662	0.000848	8.481430	1.436793	0.033878
1924	9.6150e-01	-1.5517	-21.994503	0.000707	7.067858	1.197328	0.028232
1925	9.6200e-01	-1.5324	-21.804948	0.000949	9.491124	1.607840	0.037911
1926	9.6250e-01	-1.5118	-21.599260	0.001030	10.298879	1.744677	0.041138
1927	9.6300e-01	-1.4918	-21.433903	0.000828	8.279491	1.402584	0.033071
1928	9.6350e-01	-1.4704	-21.228214	0.001030	10.298879	1.744677	0.041138
1929	9.6400e-01	-1.4506	-21.058824	0.000848	8.481430	1.436793	0.033878
1930	9.6450e-01	-1.4311	-20.865236	0.000969	9.693062	1.642049	0.038718
1931	9.6500e-01	-1.4112	-20.655514	0.001050	10.500818	1.778887	0.041944
1932	9.6550e-01	-1.3918	-20.482091	0.000868	8.683368	1.471002	0.034685
1933	9.6600e-01	-1.3715	-20.300602	0.000909	9.087246	1.539421	0.036298
1934	9.6650e-01	-1.3506	-20.127179	0.000868	8.683368	1.471002	0.034685
1935	9.6700e-01	-1.3316	-19.949722	0.000889	8.885307	1.505212	0.035491
1936	9.6750e-01	-1.3111	-19.784365	0.000828	8.279491	1.402584	0.033071
1937	9.6800e-01	-1.2910	-19.510114	0.001373	13.731838	2.326236	0.054850
1938	9.6850e-01	-1.2708	-19.243930	0.001333	13.327961	2.257818	0.053237
1939	9.6900e-01	-1.2508	-19.114871	0.000646	6.462042	1.094699	0.025812
1940	9.6950e-01	-1.2318	-18.997911	0.000586	5.856225	0.992071	0.023392
1941	9.7000e-01	-1.2119	-18.772057	0.001131	11.308573	1.915724	0.045171
1942	9.7050e-01	-1.1909	-18.582502	0.000949	9.491124	1.607840	0.037911
1943	9.7100e-01	-1.1712	-18.401012	0.000909	9.087246	1.539421	0.036298
1944	9.7150e-01	-1.1518	-18.207424	0.000969	9.693062	1.642049	0.038718
1945	9.7200e-01	-1.1313	-18.013835	0.000969	9.693062	1.642049	0.038718
1946	9.7250e-01	-1.1118	-17.808147	0.001030	10.298879	1.744677	0.041138
1947	9.7300e-01	-1.0919	-17.634724	0.000868	8.683368	1.471002	0.034685
1948	9.7350e-01	-1.0713	-17.437102	0.000990	9.895001	1.676259	0.039524
1949	9.7400e-01	-1.0517	-17.211248	0.001131	11.308573	1.915724	0.045171
1950	9.7450e-01	-1.0310	-17.037825	0.000868	8.683368	1.471002	0.034685
1951	9.7500e-01	-1.0113	-16.872468	0.000828	8.279491	1.402584	0.033071
1952	9.7550e-01	-0.9909	-16.707111	0.000828	8.279491	1.402584	0.033071
1953	9.7600e-01	-0.9715	-16.493357	0.001070	10.702756	1.813096	0.042751
1954	9.7650e-01	-0.9510	-16.275569	0.001090	10.904695	1.847305	0.043557
1955	9.7700e-01	-0.9319	-16.102146	0.000868	8.683368	1.471002	0.034685
1956	9.7750e-01	-0.9113	-15.948888	0.000767	7.673674	1.299956	0.030652
1957	9.7800e-01	-0.8913	-15.727068	0.001111	11.106634	1.881515	0.044364
1958	9.7850e-01	-0.8717	-15.537512	0.000949	9.491124	1.607840	0.037911
1959	9.7900e-01	-0.8511	-15.347957	0.000949	9.491124	1.607840	0.037911
1960	9.7950e-01	-0.8323	-15.134203	0.001070	10.702756	1.813096	0.042751
1961	9.8000e-01	-0.8112	-14.948680	0.000929	9.289185	1.573630	0.037105
1962	9.8050e-01	-0.7917	-14.775257	0.000868	8.683368	1.471002	0.034685
1963	9.8100e-01	-0.7717	-14.613933	0.000808	8.077552	1.368374	0.032265
1964	9.8150e-01	-0.7519	-14.400179	0.001070	10.702756	1.813096	0.042751
1965	9.8200e-01	-0.7310	-14.210623	0.000949	9.491124	1.607840	0.037911
1966	9.8250e-01	-0.7118	-14.033167	0.000889	8.885307	1.505212	0.035491
1967	9.8300e-01	-0.6916	-13.795214	0.001191	11.914389	2.018352	0.047591
1968	9.8350e-01	-0.6716	-13.577426	0.001090	10.904695	1.847305	0.043557
1969	9.8400e-01	-0.6512	-13.428202	0.000747	7.471736	1.265746	0.029845
1970	9.8450e-01	-0.6303	-13.238646	0.000949	9.491124	1.607840	0.037911
1971	9.8500e-01	-0.6108	-13.028925	0.001050	10.500818	1.778887	0.041944
1972	9.8550e-01	-0.5915	-12.859535	0.000848	8.481430	1.436793	0.033878
1973	9.8600e-01	-0.5719	-12.682079	0.000889	8.885307	1.505212	0.035491
1974	9.8650e-01	-0.5521	-12.464291	0.001090	10.904695	1.847305	0.043557
1975	9.8700e-01	-0.5311	-12.246504	0.001090	10.904695	1.847305	0.043557
1976	9.8750e-01	-0.5117	-12.097279	0.000747	7.471736	1.265746	0.029845
1977	9.8800e-01	-0.4905	-11.859326	0.001191	11.914389	2.018352	0.047591
1978	9.8850e-01	-0.4714	-11.605241	0.001272	12.722144	2.155190	0.050817
1979	9.8900e-01	-0.4505	-11.480215	0.000626	6.260103	1.060490	0.025005
1980	9.8950e-01	-0.4318	-11.113203	0.001838	18.376431	3.113052	0.073402
1981	9.9000e-01	-0.4118	-11.113203	0.000000	0.000000	0.000000	0.000000
1982	9.9050e-01	-0.3920	-10.891383	0.001111	11.106634	1.881515	0.044364
1983	9.9100e-01	-0.3713	-10.677629	0.001070	10.702756	1.813096	0.042751
1984	9.9150e-01	-0.3508	-10.500172	0.000889	8.885307	1.505212	0.035491
1985	9.9200e-01	-0.3314	-10.274319	0.001131	11.308573	1.915724	0.045171
1986	9.9250e-01	-0.3100	-10.117028	0.000788	7.875613	1.334165	0.031458
1987	9.9300e-01	-0.2911	-9.935538	0.000909	9.087246	1.539421	0.036298
1988	9.9350e-01	-0.2717	-9.713718	0.001111	11.106634	1.881515	0.044364
1989	9.9400e-01	-0.2514	-9.479798	0.001171	11.712450	1.984143	0.046784
1990	9.9450e-01	-0.2309	-9.290243	0.000949	9.491124	1.607840	0.037911
1991	9.9500e-01	-0.2109	-9.201514	0.000444	4.442654	0.752606	0.017746
1992	9.9550e-01	-0.1908	-8.943396	0.001292	12.924083	2.189399	0.051624
1993	9.9600e-01	-0.1707	-8.733675	0.001050	10.500818	1.778887	0.041944
1994	9.9650e-01	-0.1514	-8.584450	0.000747	7.471736	1.265746	0.029845
1995	9.9700e-01	-0.1319	-8.342464	0.001212	12.116328	2.052562	0.048397
1996	9.9750e-01	-0.1108	-8.148876	0.000969	9.693062	1.642049	0.038718
1997	9.9800e-01	-0.0918	-7.951254	0.000990	9.895001	1.676259	0.039524
1998	9.9850e-01	-0.0714	-7.785897	0.000828	8.279491	1.402584	0.033071
1999	9.9900e-01	-0.0511	-7.560043	0.001131	11.308573	1.915724	0.045171
2000	9.9950e-01	-0.0314	-7.366455	0.000969	9.693062	1.642049	0.038718
2001	1.0000e+00	-0.0101	-7.285793	0.000969	9.693062	1.642049	0.016132

Smooth data before PMax, +/-Pr and +/-Vc Calc.

PMax (uC/cm2):	7.88e+01
Pr (uC/cm2):	5.36e+00
-Pr (uC/cm2):	-6.96e+00
PLoss (uC/cm2):	-6.98e+00
-Vc:	-5.40e-01
C (Max-Eff) (nF):	7.89e-01
K (Eff):	1.34e+03
Vert. (+/-Pr) Shift (uC/cm2):	-8.01e-01
Offset (uC/cm2):	3.33e-01

A (Loop Area - uC/cm2·Volts):	-1.57e-02



Hysteresis Version: 5.48.1 - Radiant Technologies, Inc., 1999 - 9/12/24

