»»»»»»»»»»»»»»»»»»»»»»»»»»»»»»»»»»»» Hysteresis ««««««««««««««««««««««««««««««««««««
»»»  Executed Version:	5.48.1
»»»  Vision Version:	5.48.4 (R)
»»»  Vision Compiled:	9/18/24
»»»  Driver Version:	5.47.0
»»»  Windows Version:	Windows 8 or 8.1
»»»  Processor Information:	x86 (AMD or Intel) - 32 Processors
»»»  Tester Name:	PMF21124-494 (100V)
»»»  Tester S/N:	PMF21124-494
»»»  Internal Amp Type:	100V RevK 270k
»»»  Internal Amp S/N:	iAB2-596/K     
»»»  Execution Count:	1
»»»»»»»»»»»»»»»»»»»»»»»»»»»»»»»»»»»»»»»»»»««««««««««««««««««««««««««««««««««««««««««

Stored:	7/10/2025 - 14:18:3
Configured:	07/10/25 01:31:25 PM
Executed:	07/10/25 02:17:34 PM

»»»»»»»»»»»»»»»»»»»»»»»»»»»»»»»»»»» Sample Info ««««««««««««««««««««««««««««««««««««
Sample Name:	
Lot Name:	
Wafer Name:	
Die Row/Column:	0/0
Capacitor Number:	0
Sample Area (cm2):	1.00e-04
Sample Thickness (microns):	1.50e-01

Amplifier:	Internal

»»»»»»»»»»»»»»»»»»»»»»»»»»»»»»»»»»» Tester Info «««««««««««««««««««««««««««««««««««
Tester Name:	PMF21124-494 (100V)
Tester Serial Number:	PMF21124-494
Return Signal Amp. Level:	0.19 [Index: 3]

»»»»»»»»»»»»»»»»»»»»»»»»»»»»»»»» Hysteresis Info ««««««««««««««««««««««««««««««««««
Task Name:	Hyst-3361
Volts:	10.00
Field:	666.67 (kV/cm)
DCBias:	0.00
DCField:	0.00 (kV/cm)
Hysteresis Period (ms):	2.00e+02
Preset:	Enabled
Preset Delay (ms):	1.00e+03
Profile:	Standard Bipolar

»»»»»»»»»»»»»»»»»»»»»»»»»»»»»»»»»»»»»» Data «««««««««««««««««««««««««««««««««««««««
Points:	2009

Valid Data

Point	Time (ms)	Drive Voltage	Measured Polarization (uC/cm2)	Capacitance (uF)	Normalized Capacitance (uF/cm2)	Dielectric Constant	Instantaneous Current (mA)
   1	0.0000e+00	0.0002	-4.719412	0.000831	8.310437	1.407826	0.000166
   2	9.9500e-02	0.0189	-4.553889	0.000831	8.310437	1.407826	0.000166
   3	1.9900e-01	0.0385	-4.368181	0.000932	9.323905	1.579512	0.000187
   4	2.9850e-01	0.0590	-4.210733	0.000791	7.905050	1.339152	0.000158
   5	3.9800e-01	0.0793	-4.033099	0.000892	8.918518	1.510838	0.000179
   6	4.9750e-01	0.0993	-3.867576	0.000831	8.310437	1.407826	0.000166
   7	5.9700e-01	0.1192	-3.669756	0.000993	9.931986	1.682524	0.000199
   8	6.9650e-01	0.1382	-3.496160	0.000872	8.715825	1.476501	0.000174
   9	7.9600e-01	0.1594	-3.310451	0.000932	9.323905	1.579512	0.000187
  10	8.9550e-01	0.1784	-3.169152	0.000709	7.094276	1.201803	0.000142
  11	9.9500e-01	0.1993	-2.991518	0.000892	8.918518	1.510838	0.000179
  12	1.0945e+00	0.2179	-2.797735	0.000973	9.729293	1.648187	0.000195
  13	1.1940e+00	0.2392	-2.620101	0.000892	8.918518	1.510838	0.000179
  14	1.2935e+00	0.2594	-2.426319	0.000973	9.729293	1.648187	0.000195
  15	1.3930e+00	0.2789	-2.236573	0.000953	9.526599	1.613850	0.000191
  16	1.4925e+00	0.2985	-2.071051	0.000831	8.310437	1.407826	0.000166
  17	1.5920e+00	0.3179	-1.921677	0.000750	7.499663	1.270477	0.000150
  18	1.6915e+00	0.3386	-1.699634	0.001115	11.148148	1.888547	0.000223
  19	1.7910e+00	0.3575	-1.542186	0.000791	7.905050	1.339152	0.000158
  20	1.8905e+00	0.3777	-1.348403	0.000973	9.729293	1.648187	0.000195
  21	1.9900e+00	0.3981	-1.203066	0.000730	7.296969	1.236140	0.000146
  22	2.0895e+00	0.4171	-1.021395	0.000912	9.121212	1.545175	0.000183
  23	2.1890e+00	0.4382	-0.811464	0.001054	10.540067	1.785536	0.000211
  24	2.2885e+00	0.4579	-0.662090	0.000750	7.499663	1.270477	0.000150
  25	2.3880e+00	0.4787	-0.431974	0.001155	11.553535	1.957222	0.000231
  26	2.4875e+00	0.4969	-0.262414	0.000851	8.513131	1.442163	0.000170
  27	2.5870e+00	0.5170	-0.084780	0.000892	8.918518	1.510838	0.000179
  28	2.6865e+00	0.5383	0.109003	0.000973	9.729293	1.648187	0.000195
  29	2.7860e+00	0.5579	0.306822	0.000993	9.931986	1.682524	0.000199
  30	2.8855e+00	0.5772	0.488493	0.000912	9.121212	1.545175	0.000183
  31	2.9850e+00	0.5976	0.662090	0.000872	8.715825	1.476501	0.000174
  32	3.0845e+00	0.6175	0.867984	0.001034	10.337373	1.751198	0.000207
  33	3.1840e+00	0.6389	1.061767	0.000973	9.729293	1.648187	0.000195
  34	3.2835e+00	0.6567	1.235364	0.000872	8.715825	1.476501	0.000174
  35	3.3830e+00	0.6775	1.461443	0.001135	11.350841	1.922885	0.000227
  36	3.4825e+00	0.6973	1.618891	0.000791	7.905050	1.339152	0.000158
  37	3.5820e+00	0.7170	1.836897	0.001095	10.945454	1.854210	0.000219
  38	3.6815e+00	0.7368	2.050865	0.001074	10.742761	1.819873	0.000215
  39	3.7810e+00	0.7568	2.236573	0.000932	9.323905	1.579512	0.000187
  40	3.8805e+00	0.7766	2.406133	0.000851	8.513131	1.442163	0.000170
  41	3.9800e+00	0.7970	2.612027	0.001034	10.337373	1.751198	0.000207
  42	4.0795e+00	0.8163	2.789661	0.000892	8.918518	1.510838	0.000179
  43	4.1790e+00	0.8369	3.007666	0.001095	10.945454	1.854210	0.000219
  44	4.2785e+00	0.8561	3.193374	0.000932	9.323905	1.579512	0.000187
  45	4.3780e+00	0.8767	3.383120	0.000953	9.526599	1.613850	0.000191
  46	4.4775e+00	0.8956	3.560754	0.000892	8.918518	1.510838	0.000179
  47	4.5770e+00	0.9167	3.762611	0.001013	10.134680	1.716861	0.000203
  48	4.6765e+00	0.9365	3.972542	0.001054	10.540067	1.785536	0.000211
  49	4.7760e+00	0.9566	4.194584	0.001115	11.148148	1.888547	0.000223
  50	4.8755e+00	0.9765	4.420664	0.001135	11.350841	1.922885	0.000227
  51	4.9750e+00	0.9962	4.561963	0.000709	7.094276	1.201803	0.000142
  52	5.0745e+00	1.0168	4.788043	0.001135	11.350841	1.922885	0.000227
  53	5.1740e+00	1.0354	4.989900	0.001013	10.134680	1.716861	0.000203
  54	5.2735e+00	1.0558	5.131200	0.000709	7.094276	1.201803	0.000142
  55	5.3730e+00	1.0750	5.389576	0.001297	12.972390	2.197582	0.000260
  56	5.4725e+00	1.0955	5.542987	0.000770	7.702357	1.304815	0.000154
  57	5.5720e+00	1.1163	5.801364	0.001297	12.972390	2.197582	0.000260
  58	5.6715e+00	1.1357	5.991109	0.000953	9.526599	1.613850	0.000191
  59	5.7710e+00	1.1555	6.184892	0.000973	9.729293	1.648187	0.000195
  60	5.8705e+00	1.1753	6.398860	0.001074	10.742761	1.819873	0.000215
  61	5.9700e+00	1.1962	6.608791	0.001054	10.540067	1.785536	0.000211
  62	6.0695e+00	1.2155	6.742017	0.000669	6.688889	1.133128	0.000134
  63	6.1690e+00	1.2342	6.960022	0.001095	10.945454	1.854210	0.000219
  64	6.2685e+00	1.2543	7.169953	0.001054	10.540067	1.785536	0.000211
  65	6.3680e+00	1.2751	7.400070	0.001155	11.553535	1.957222	0.000231
  66	6.4675e+00	1.2938	7.573667	0.000872	8.715825	1.476501	0.000174
  67	6.5670e+00	1.3145	7.771486	0.000993	9.931986	1.682524	0.000199
  68	6.6665e+00	1.3343	7.973343	0.001013	10.134680	1.716861	0.000203
  69	6.7660e+00	1.3535	8.195386	0.001115	11.148148	1.888547	0.000223
  70	6.8655e+00	1.3741	8.397242	0.001013	10.134680	1.716861	0.000203
  71	6.9650e+00	1.3950	8.586988	0.000953	9.526599	1.613850	0.000191
  72	7.0645e+00	1.4143	8.837290	0.001257	12.567003	2.128908	0.000252
  73	7.1640e+00	1.4342	9.006850	0.000851	8.513131	1.442163	0.000170
  74	7.2635e+00	1.4545	9.204669	0.000993	9.931986	1.682524	0.000199
  75	7.3630e+00	1.4728	9.394415	0.000953	9.526599	1.613850	0.000191
  76	7.4625e+00	1.4929	9.596272	0.001013	10.134680	1.716861	0.000203
  77	7.5620e+00	1.5140	9.794091	0.000993	9.931986	1.682524	0.000199
  78	7.6615e+00	1.5340	10.020171	0.001135	11.350841	1.922885	0.000227
  79	7.7610e+00	1.5535	10.234139	0.001074	10.742761	1.819873	0.000215
  80	7.8605e+00	1.5737	10.448107	0.001074	10.742761	1.819873	0.000215
  81	7.9600e+00	1.5941	10.605556	0.000791	7.905050	1.339152	0.000158
  82	8.0595e+00	1.6138	10.811450	0.001034	10.337373	1.751198	0.000207
  83	8.1590e+00	1.6328	11.017343	0.001034	10.337373	1.751198	0.000207
  84	8.2585e+00	1.6527	11.203052	0.000932	9.323905	1.579512	0.000187
  85	8.3580e+00	1.6738	11.429131	0.001135	11.350841	1.922885	0.000227
  86	8.4575e+00	1.6926	11.639062	0.001054	10.540067	1.785536	0.000211
  87	8.5570e+00	1.7128	11.824771	0.000932	9.323905	1.579512	0.000187
  88	8.6565e+00	1.7336	12.026627	0.001013	10.134680	1.716861	0.000203
  89	8.7560e+00	1.7522	12.232521	0.001034	10.337373	1.751198	0.000207
  90	8.8555e+00	1.7727	12.438415	0.001034	10.337373	1.751198	0.000207
  91	8.9550e+00	1.7929	12.648346	0.001054	10.540067	1.785536	0.000211
  92	9.0545e+00	1.8124	12.817906	0.000851	8.513131	1.442163	0.000170
  93	9.1540e+00	1.8330	13.035911	0.001095	10.945454	1.854210	0.000219
  94	9.2535e+00	1.8525	13.193360	0.000791	7.905050	1.339152	0.000158
  95	9.3530e+00	1.8720	13.443662	0.001257	12.567003	2.128908	0.000252
  96	9.4525e+00	1.8920	13.665704	0.001115	11.148148	1.888547	0.000223
  97	9.5520e+00	1.9122	13.831227	0.000831	8.310437	1.407826	0.000166
  98	9.6515e+00	1.9312	14.061344	0.001155	11.553535	1.957222	0.000231
  99	9.7510e+00	1.9524	14.226866	0.000831	8.310437	1.407826	0.000166
 100	9.8505e+00	1.9722	14.444872	0.001095	10.945454	1.854210	0.000219
 101	9.9500e+00	1.9913	14.646728	0.001013	10.134680	1.716861	0.000203
 102	1.0050e+01	2.0117	14.836474	0.000953	9.526599	1.613850	0.000191
 103	1.0149e+01	2.0332	15.086776	0.001257	12.567003	2.128908	0.000252
 104	1.0248e+01	2.0519	15.252299	0.000831	8.310437	1.407826	0.000166
 105	1.0348e+01	2.0711	15.506638	0.001277	12.769697	2.163245	0.000256
 106	1.0447e+01	2.0903	15.664087	0.000791	7.905050	1.339152	0.000158
 107	1.0547e+01	2.1120	15.833646	0.000851	8.513131	1.442163	0.000170
 108	1.0646e+01	2.1315	16.055689	0.001115	11.148148	1.888547	0.000223
 109	1.0746e+01	2.1520	16.257546	0.001013	10.134680	1.716861	0.000203
 110	1.0845e+01	2.1709	16.471514	0.001074	10.742761	1.819873	0.000215
 111	1.0945e+01	2.1911	16.685482	0.001074	10.742761	1.819873	0.000215
 112	1.1044e+01	2.2115	16.899450	0.001074	10.742761	1.819873	0.000215
 113	1.1144e+01	2.2308	17.020564	0.000608	6.080808	1.030117	0.000122
 114	1.1243e+01	2.2518	17.226458	0.001034	10.337373	1.751198	0.000207
 115	1.1343e+01	2.2707	17.460612	0.001176	11.756229	1.991559	0.000235
 116	1.1443e+01	2.2907	17.618060	0.000791	7.905050	1.339152	0.000158
 117	1.1542e+01	2.3106	17.832029	0.001074	10.742761	1.819873	0.000215
 118	1.1642e+01	2.3307	18.037922	0.001034	10.337373	1.751198	0.000207
 119	1.1741e+01	2.3508	18.231705	0.000973	9.729293	1.648187	0.000195
 120	1.1841e+01	2.3705	18.433562	0.001013	10.134680	1.716861	0.000203
 121	1.1940e+01	2.3912	18.635419	0.001013	10.134680	1.716861	0.000203
 122	1.2040e+01	2.4110	18.813053	0.000892	8.918518	1.510838	0.000179
 123	1.2139e+01	2.4303	19.010872	0.000993	9.931986	1.682524	0.000199
 124	1.2239e+01	2.4499	19.224840	0.001074	10.742761	1.819873	0.000215
 125	1.2338e+01	2.4709	19.414586	0.000953	9.526599	1.613850	0.000191
 126	1.2438e+01	2.4906	19.612405	0.000993	9.931986	1.682524	0.000199
 127	1.2537e+01	2.5105	19.798114	0.000932	9.323905	1.579512	0.000187
 128	1.2636e+01	2.5301	19.959599	0.000811	8.107744	1.373489	0.000162
 129	1.2736e+01	2.5494	20.145307	0.000932	9.323905	1.579512	0.000187
 130	1.2835e+01	2.5695	20.403684	0.001297	12.972390	2.197582	0.000260
 131	1.2935e+01	2.5890	20.549021	0.000730	7.296969	1.236140	0.000146
 132	1.3034e+01	2.6092	20.779138	0.001155	11.553535	1.957222	0.000231
 133	1.3134e+01	2.6298	20.993106	0.001074	10.742761	1.819873	0.000215
 134	1.3233e+01	2.6492	21.134406	0.000709	7.094276	1.201803	0.000142
 135	1.3333e+01	2.6688	21.299928	0.000831	8.310437	1.407826	0.000166
 136	1.3432e+01	2.6895	21.530045	0.001155	11.553535	1.957222	0.000231
 137	1.3532e+01	2.7088	21.687493	0.000791	7.905050	1.339152	0.000158
 138	1.3632e+01	2.7287	21.913573	0.001135	11.350841	1.922885	0.000227
 139	1.3731e+01	2.7488	22.091207	0.000892	8.918518	1.510838	0.000179
 140	1.3831e+01	2.7702	22.297101	0.001034	10.337373	1.751198	0.000207
 141	1.3930e+01	2.7885	22.490883	0.000973	9.729293	1.648187	0.000195
 142	1.4030e+01	2.8078	22.672554	0.000912	9.121212	1.545175	0.000183
 143	1.4129e+01	2.8283	22.834040	0.000811	8.107744	1.373489	0.000162
 144	1.4229e+01	2.8481	23.027822	0.000973	9.729293	1.648187	0.000195
 145	1.4328e+01	2.8689	23.221605	0.000973	9.729293	1.648187	0.000195
 146	1.4428e+01	2.8883	23.387127	0.000831	8.310437	1.407826	0.000166
 147	1.4527e+01	2.9082	23.548613	0.000811	8.107744	1.373489	0.000162
 148	1.4627e+01	2.9283	23.746432	0.000993	9.931986	1.682524	0.000199
 149	1.4726e+01	2.9485	23.972512	0.001135	11.350841	1.922885	0.000227
 150	1.4825e+01	2.9687	24.158220	0.000932	9.323905	1.579512	0.000187
 151	1.4925e+01	2.9879	24.347966	0.000953	9.526599	1.613850	0.000191
 152	1.5024e+01	3.0079	24.529637	0.000912	9.121212	1.545175	0.000183
 153	1.5124e+01	3.0280	24.731494	0.001013	10.134680	1.716861	0.000203
 154	1.5223e+01	3.0477	24.905090	0.000872	8.715825	1.476501	0.000174
 155	1.5323e+01	3.0672	25.070613	0.000831	8.310437	1.407826	0.000166
 156	1.5422e+01	3.0874	25.268433	0.000993	9.931986	1.682524	0.000199
 157	1.5522e+01	3.1074	25.462215	0.000973	9.729293	1.648187	0.000195
 158	1.5621e+01	3.1276	25.615626	0.000770	7.702357	1.304815	0.000154
 159	1.5721e+01	3.1478	25.825557	0.001054	10.540067	1.785536	0.000211
 160	1.5820e+01	3.1676	26.007228	0.000912	9.121212	1.545175	0.000183
 161	1.5920e+01	3.1872	26.164677	0.000791	7.905050	1.339152	0.000158
 162	1.6020e+01	3.2067	26.370571	0.001034	10.337373	1.751198	0.000207
 163	1.6119e+01	3.2271	26.576465	0.001034	10.337373	1.751198	0.000207
 164	1.6218e+01	3.2471	26.758136	0.000912	9.121212	1.545175	0.000183
 165	1.6318e+01	3.2670	26.923658	0.000831	8.310437	1.407826	0.000166
 166	1.6418e+01	3.2864	27.109366	0.000932	9.323905	1.579512	0.000187
 167	1.6517e+01	3.3069	27.274889	0.000831	8.310437	1.407826	0.000166
 168	1.6616e+01	3.3269	27.460597	0.000932	9.323905	1.579512	0.000187
 169	1.6716e+01	3.3466	27.646306	0.000932	9.323905	1.579512	0.000187
 170	1.6816e+01	3.3670	27.819902	0.000872	8.715825	1.476501	0.000174
 171	1.6915e+01	3.3873	27.993499	0.000872	8.715825	1.476501	0.000174
 172	1.7015e+01	3.4064	28.191319	0.000993	9.931986	1.682524	0.000199
 173	1.7114e+01	3.4268	28.401250	0.001054	10.540067	1.785536	0.000211
 174	1.7213e+01	3.4464	28.546587	0.000730	7.296969	1.236140	0.000146
 175	1.7313e+01	3.4662	28.716147	0.000851	8.513131	1.442163	0.000170
 176	1.7413e+01	3.4869	28.909929	0.000973	9.729293	1.648187	0.000195
 177	1.7512e+01	3.5062	29.079489	0.000851	8.513131	1.442163	0.000170
 178	1.7611e+01	3.5256	29.269234	0.000953	9.526599	1.613850	0.000191
 179	1.7711e+01	3.5458	29.442831	0.000872	8.715825	1.476501	0.000174
 180	1.7811e+01	3.5659	29.596242	0.000770	7.702357	1.304815	0.000154
 181	1.7910e+01	3.5854	29.765802	0.000851	8.513131	1.442163	0.000170
 182	1.8009e+01	3.6057	29.971696	0.001034	10.337373	1.751198	0.000207
 183	1.8109e+01	3.6269	30.153367	0.000912	9.121212	1.545175	0.000183
 184	1.8209e+01	3.6461	30.298704	0.000730	7.296969	1.236140	0.000146
 185	1.8308e+01	3.6657	30.452115	0.000770	7.702357	1.304815	0.000154
 186	1.8407e+01	3.6852	30.625712	0.000872	8.715825	1.476501	0.000174
 187	1.8507e+01	3.7066	30.803346	0.000892	8.918518	1.510838	0.000179
 188	1.8607e+01	3.7251	30.989054	0.000932	9.323905	1.579512	0.000187
 189	1.8706e+01	3.7461	31.130354	0.000709	7.094276	1.201803	0.000142
 190	1.8805e+01	3.7658	31.340285	0.001054	10.540067	1.785536	0.000211
 191	1.8905e+01	3.7847	31.481584	0.000709	7.094276	1.201803	0.000142
 192	1.9005e+01	3.8046	31.651144	0.000851	8.513131	1.442163	0.000170
 193	1.9104e+01	3.8255	31.836852	0.000932	9.323905	1.579512	0.000187
 194	1.9203e+01	3.8453	32.034672	0.000993	9.931986	1.682524	0.000199
 195	1.9303e+01	3.8647	32.171935	0.000689	6.891582	1.167466	0.000138
 196	1.9402e+01	3.8844	32.361680	0.000953	9.526599	1.613850	0.000191
 197	1.9502e+01	3.9046	32.547388	0.000932	9.323905	1.579512	0.000187
 198	1.9602e+01	3.9240	32.688688	0.000709	7.094276	1.201803	0.000142
 199	1.9701e+01	3.9439	32.866322	0.000892	8.918518	1.510838	0.000179
 200	1.9800e+01	3.9648	33.031845	0.000831	8.310437	1.407826	0.000166
 201	1.9900e+01	3.9837	33.193330	0.000811	8.107744	1.373489	0.000162
 202	2.0000e+01	4.0037	33.346741	0.000770	7.702357	1.304815	0.000154
 203	2.0099e+01	4.0237	33.532449	0.000932	9.323905	1.579512	0.000187
 204	2.0198e+01	4.0443	33.706046	0.000872	8.715825	1.476501	0.000174
 205	2.0298e+01	4.0638	33.883680	0.000892	8.918518	1.510838	0.000179
 206	2.0398e+01	4.0829	34.004794	0.000608	6.080808	1.030117	0.000122
 207	2.0497e+01	4.1039	34.202614	0.000993	9.931986	1.682524	0.000199
 208	2.0596e+01	4.1236	34.388322	0.000932	9.323905	1.579512	0.000187
 209	2.0696e+01	4.1443	34.537696	0.000750	7.499663	1.270477	0.000150
 210	2.0796e+01	4.1631	34.687070	0.000750	7.499663	1.270477	0.000150
 211	2.0895e+01	4.1827	34.840481	0.000770	7.702357	1.304815	0.000154
 212	2.0994e+01	4.2027	35.006004	0.000831	8.310437	1.407826	0.000166
 213	2.1094e+01	4.2233	35.224009	0.001095	10.945454	1.854210	0.000219
 214	2.1194e+01	4.2432	35.361272	0.000689	6.891582	1.167466	0.000138
 215	2.1293e+01	4.2637	35.538906	0.000892	8.918518	1.510838	0.000179
 216	2.1392e+01	4.2837	35.712503	0.000872	8.715825	1.476501	0.000174
 217	2.1492e+01	4.3035	35.869951	0.000791	7.905050	1.339152	0.000158
 218	2.1591e+01	4.3221	36.007214	0.000689	6.891582	1.167466	0.000138
 219	2.1691e+01	4.3426	36.168699	0.000811	8.107744	1.373489	0.000162
 220	2.1791e+01	4.3621	36.330185	0.000811	8.107744	1.373489	0.000162
 221	2.1890e+01	4.3830	36.515893	0.000932	9.323905	1.579512	0.000187
 222	2.1989e+01	4.4019	36.685452	0.000851	8.513131	1.442163	0.000170
 223	2.2089e+01	4.4225	36.834826	0.000750	7.499663	1.270477	0.000150
 224	2.2189e+01	4.4420	37.000349	0.000831	8.310437	1.407826	0.000166
 225	2.2288e+01	4.4616	37.145686	0.000730	7.296969	1.236140	0.000146
 226	2.2387e+01	4.4831	37.343506	0.000993	9.931986	1.682524	0.000199
 227	2.2487e+01	4.5022	37.488842	0.000730	7.296969	1.236140	0.000146
 228	2.2587e+01	4.5231	37.686662	0.000993	9.931986	1.682524	0.000199
 229	2.2686e+01	4.5419	37.827962	0.000709	7.094276	1.201803	0.000142
 230	2.2785e+01	4.5615	37.989447	0.000811	8.107744	1.373489	0.000162
 231	2.2885e+01	4.5823	38.159007	0.000851	8.513131	1.442163	0.000170
 232	2.2985e+01	4.6012	38.292232	0.000669	6.688889	1.133128	0.000134
 233	2.3084e+01	4.6224	38.490052	0.000993	9.931986	1.682524	0.000199
 234	2.3183e+01	4.6431	38.643463	0.000770	7.702357	1.304815	0.000154
 235	2.3283e+01	4.6613	38.780726	0.000689	6.891582	1.167466	0.000138
 236	2.3383e+01	4.6819	38.966434	0.000932	9.323905	1.579512	0.000187
 237	2.3482e+01	4.7010	39.095622	0.000649	6.486195	1.098791	0.000130
 238	2.3581e+01	4.7211	39.285368	0.000953	9.526599	1.613850	0.000191
 239	2.3681e+01	4.7414	39.442816	0.000791	7.905050	1.339152	0.000158
 240	2.3780e+01	4.7608	39.584116	0.000709	7.094276	1.201803	0.000142
 241	2.3880e+01	4.7811	39.737527	0.000770	7.702357	1.304815	0.000154
 242	2.3980e+01	4.8006	39.903050	0.000831	8.310437	1.407826	0.000166
 243	2.4079e+01	4.8219	40.092795	0.000953	9.526599	1.613850	0.000191
 244	2.4178e+01	4.8406	40.209872	0.000588	5.878114	0.995780	0.000118
 245	2.4278e+01	4.8613	40.363283	0.000770	7.702357	1.304815	0.000154
 246	2.4378e+01	4.8811	40.496509	0.000669	6.688889	1.133128	0.000134
 247	2.4477e+01	4.9008	40.657994	0.000811	8.107744	1.373489	0.000162
 248	2.4576e+01	4.9207	40.855814	0.000993	9.931986	1.682524	0.000199
 249	2.4676e+01	4.9414	40.976928	0.000608	6.080808	1.030117	0.000122
 250	2.4776e+01	4.9603	41.138413	0.000811	8.107744	1.373489	0.000162
 251	2.4875e+01	4.9810	41.340270	0.001013	10.134680	1.716861	0.000203
 252	2.4974e+01	5.0011	41.449273	0.000547	5.472727	0.927105	0.000110
 253	2.5074e+01	5.0205	41.610758	0.000811	8.107744	1.373489	0.000162
 254	2.5174e+01	5.0405	41.752058	0.000709	7.094276	1.201803	0.000142
 255	2.5273e+01	5.0591	41.925655	0.000872	8.715825	1.476501	0.000174
 256	2.5372e+01	5.0795	42.095214	0.000851	8.513131	1.442163	0.000170
 257	2.5472e+01	5.1011	42.208254	0.000568	5.675421	0.961442	0.000114
 258	2.5572e+01	5.1189	42.361665	0.000770	7.702357	1.304815	0.000154
 259	2.5671e+01	5.1398	42.527188	0.000831	8.310437	1.407826	0.000166
 260	2.5770e+01	5.1585	42.700785	0.000872	8.715825	1.476501	0.000174
 261	2.5870e+01	5.1800	42.817862	0.000588	5.878114	0.995780	0.000118
 262	2.5970e+01	5.1992	43.019718	0.001013	10.134680	1.716861	0.000203
 263	2.6069e+01	5.2178	43.100461	0.000405	4.053872	0.686744	0.000081
 264	2.6169e+01	5.2401	43.298281	0.000993	9.931986	1.682524	0.000199
 265	2.6268e+01	5.2596	43.488026	0.000953	9.526599	1.613850	0.000191
 266	2.6367e+01	5.2782	43.613177	0.000628	6.283501	1.064454	0.000126
 267	2.6467e+01	5.2988	43.774663	0.000811	8.107744	1.373489	0.000162
 268	2.6567e+01	5.3191	43.903851	0.000649	6.486195	1.098791	0.000130
 269	2.6666e+01	5.3390	44.101671	0.000993	9.931986	1.682524	0.000199
 270	2.6765e+01	5.3585	44.234896	0.000669	6.688889	1.133128	0.000134
 271	2.6865e+01	5.3777	44.396382	0.000811	8.107744	1.373489	0.000162
 272	2.6965e+01	5.3980	44.582090	0.000932	9.323905	1.579512	0.000187
 273	2.7064e+01	5.4186	44.687055	0.000527	5.270034	0.892768	0.000105
 274	2.7163e+01	5.4380	44.832392	0.000730	7.296969	1.236140	0.000146
 275	2.7263e+01	5.4588	45.010026	0.000892	8.918518	1.510838	0.000179
 276	2.7363e+01	5.4783	45.167475	0.000791	7.905050	1.339152	0.000158
 277	2.7462e+01	5.4981	45.280514	0.000568	5.675421	0.961442	0.000114
 278	2.7561e+01	5.5183	45.417777	0.000689	6.891582	1.167466	0.000138
 279	2.7661e+01	5.5383	45.579262	0.000811	8.107744	1.373489	0.000162
 280	2.7761e+01	5.5584	45.764971	0.000932	9.323905	1.579512	0.000187
 281	2.7860e+01	5.5785	45.906270	0.000709	7.094276	1.201803	0.000142
 282	2.7959e+01	5.5972	46.059682	0.000770	7.702357	1.304815	0.000154
 283	2.8059e+01	5.6179	46.213093	0.000770	7.702357	1.304815	0.000154
 284	2.8159e+01	5.6374	46.358430	0.000730	7.296969	1.236140	0.000146
 285	2.8258e+01	5.6564	46.471469	0.000568	5.675421	0.961442	0.000114
 286	2.8358e+01	5.6773	46.645066	0.000872	8.715825	1.476501	0.000174
 287	2.8457e+01	5.6969	46.762143	0.000588	5.878114	0.995780	0.000118
 288	2.8556e+01	5.7178	46.947851	0.000932	9.323905	1.579512	0.000187
 289	2.8656e+01	5.7378	47.081077	0.000669	6.688889	1.133128	0.000134
 290	2.8756e+01	5.7574	47.226414	0.000730	7.296969	1.236140	0.000146
 291	2.8855e+01	5.7778	47.383862	0.000791	7.905050	1.339152	0.000158
 292	2.8954e+01	5.7973	47.537273	0.000770	7.702357	1.304815	0.000154
 293	2.9054e+01	5.8160	47.706833	0.000851	8.513131	1.442163	0.000170
 294	2.9154e+01	5.8373	47.840058	0.000669	6.688889	1.133128	0.000134
 295	2.9253e+01	5.8569	47.949061	0.000547	5.472727	0.927105	0.000110
 296	2.9352e+01	5.8778	48.106509	0.000791	7.905050	1.339152	0.000158
 297	2.9452e+01	5.8958	48.263958	0.000791	7.905050	1.339152	0.000158
 298	2.9552e+01	5.9168	48.425443	0.000811	8.107744	1.373489	0.000162
 299	2.9651e+01	5.9374	48.554632	0.000649	6.486195	1.098791	0.000130
 300	2.9750e+01	5.9570	48.691894	0.000689	6.891582	1.167466	0.000138
 301	2.9850e+01	5.9759	48.853380	0.000811	8.107744	1.373489	0.000162
 302	2.9950e+01	5.9968	48.970457	0.000588	5.878114	0.995780	0.000118
 303	3.0049e+01	6.0163	49.115793	0.000730	7.296969	1.236140	0.000146
 304	3.0148e+01	6.0354	49.281316	0.000831	8.310437	1.407826	0.000166
 305	3.0248e+01	6.0558	49.410504	0.000649	6.486195	1.098791	0.000130
 306	3.0348e+01	6.0757	49.576027	0.000831	8.310437	1.407826	0.000166
 307	3.0447e+01	6.0958	49.705215	0.000649	6.486195	1.098791	0.000130
 308	3.0547e+01	6.1160	49.858626	0.000770	7.702357	1.304815	0.000154
 309	3.0646e+01	6.1356	50.016075	0.000791	7.905050	1.339152	0.000158
 310	3.0745e+01	6.1556	50.161412	0.000730	7.296969	1.236140	0.000146
 311	3.0845e+01	6.1752	50.262340	0.000507	5.067340	0.858431	0.000101
 312	3.0945e+01	6.1953	50.387491	0.000628	6.283501	1.064454	0.000126
 313	3.1044e+01	6.2155	50.544939	0.000791	7.905050	1.339152	0.000158
 314	3.1143e+01	6.2348	50.706425	0.000811	8.107744	1.373489	0.000162
 315	3.1243e+01	6.2556	50.847725	0.000709	7.094276	1.201803	0.000142
 316	3.1343e+01	6.2757	50.968839	0.000608	6.080808	1.030117	0.000122
 317	3.1442e+01	6.2957	51.126287	0.000791	7.905050	1.339152	0.000158
 318	3.1541e+01	6.3151	51.263550	0.000689	6.891582	1.167466	0.000138
 319	3.1641e+01	6.3351	51.404849	0.000709	7.094276	1.201803	0.000142
 320	3.1741e+01	6.3549	51.534038	0.000649	6.486195	1.098791	0.000130
 321	3.1840e+01	6.3750	51.671300	0.000689	6.891582	1.167466	0.000138
 322	3.1939e+01	6.3940	51.865083	0.000973	9.729293	1.648187	0.000195
 323	3.2039e+01	6.4143	51.966011	0.000507	5.067340	0.858431	0.000101
 324	3.2139e+01	6.4335	52.103274	0.000689	6.891582	1.167466	0.000138
 325	3.2238e+01	6.4538	52.240536	0.000689	6.891582	1.167466	0.000138
 326	3.2337e+01	6.4741	52.365688	0.000628	6.283501	1.064454	0.000126
 327	3.2437e+01	6.4944	52.494876	0.000649	6.486195	1.098791	0.000130
 328	3.2536e+01	6.5137	52.660399	0.000831	8.310437	1.407826	0.000166
 329	3.2636e+01	6.5334	52.781513	0.000608	6.080808	1.030117	0.000122
 330	3.2736e+01	6.5542	52.942998	0.000811	8.107744	1.373489	0.000162
 331	3.2835e+01	6.5736	53.096409	0.000770	7.702357	1.304815	0.000154
 332	3.2934e+01	6.5939	53.217523	0.000608	6.080808	1.030117	0.000122
 333	3.3034e+01	6.6135	53.326526	0.000547	5.472727	0.927105	0.000110
 334	3.3133e+01	6.6338	53.496086	0.000851	8.513131	1.442163	0.000170
 335	3.3233e+01	6.6537	53.621237	0.000628	6.283501	1.064454	0.000126
 336	3.3333e+01	6.6726	53.782722	0.000811	8.107744	1.373489	0.000162
 337	3.3432e+01	6.6932	53.924022	0.000709	7.094276	1.201803	0.000142
 338	3.3532e+01	6.7133	54.081470	0.000791	7.905050	1.339152	0.000158
 339	3.3631e+01	6.7327	54.198547	0.000588	5.878114	0.995780	0.000118
 340	3.3730e+01	6.7521	54.323698	0.000628	6.283501	1.064454	0.000126
 341	3.3830e+01	6.7724	54.485184	0.000811	8.107744	1.373489	0.000162
 342	3.3929e+01	6.7928	54.606298	0.000608	6.080808	1.030117	0.000122
 343	3.4029e+01	6.8133	54.739523	0.000669	6.688889	1.133128	0.000134
 344	3.4129e+01	6.8325	54.876786	0.000689	6.891582	1.167466	0.000138
 345	3.4228e+01	6.8523	54.997900	0.000608	6.080808	1.030117	0.000122
 346	3.4328e+01	6.8724	55.163423	0.000831	8.310437	1.407826	0.000166
 347	3.4427e+01	6.8928	55.260314	0.000486	4.864646	0.824093	0.000097
 348	3.4526e+01	6.9129	55.425837	0.000831	8.310437	1.407826	0.000166
 349	3.4626e+01	6.9324	55.546951	0.000608	6.080808	1.030117	0.000122
 350	3.4725e+01	6.9524	55.688250	0.000709	7.094276	1.201803	0.000142
 351	3.4825e+01	6.9720	55.829550	0.000709	7.094276	1.201803	0.000142
 352	3.4925e+01	6.9915	55.918367	0.000446	4.459259	0.755419	0.000089
 353	3.5024e+01	7.0126	56.055630	0.000689	6.891582	1.167466	0.000138
 354	3.5123e+01	7.0318	56.200967	0.000730	7.296969	1.236140	0.000146
 355	3.5223e+01	7.0515	56.334192	0.000669	6.688889	1.133128	0.000134
 356	3.5322e+01	7.0715	56.471455	0.000689	6.891582	1.167466	0.000138
 357	3.5422e+01	7.0921	56.604680	0.000669	6.688889	1.133128	0.000134
 358	3.5522e+01	7.1123	56.737906	0.000669	6.688889	1.133128	0.000134
 359	3.5621e+01	7.1319	56.859020	0.000608	6.080808	1.030117	0.000122
 360	3.5721e+01	7.1519	56.988208	0.000649	6.486195	1.098791	0.000130
 361	3.5820e+01	7.1715	57.133545	0.000730	7.296969	1.236140	0.000146
 362	3.5919e+01	7.1915	57.250622	0.000588	5.878114	0.995780	0.000118
 363	3.6019e+01	7.2107	57.404033	0.000770	7.702357	1.304815	0.000154
 364	3.6118e+01	7.2314	57.513036	0.000547	5.472727	0.927105	0.000110
 365	3.6218e+01	7.2506	57.658373	0.000730	7.296969	1.236140	0.000146
 366	3.6318e+01	7.2710	57.787561	0.000649	6.486195	1.098791	0.000130
 367	3.6417e+01	7.2918	57.892526	0.000527	5.270034	0.892768	0.000105
 368	3.6517e+01	7.3118	58.070160	0.000892	8.918518	1.510838	0.000179
 369	3.6616e+01	7.3312	58.195312	0.000628	6.283501	1.064454	0.000126
 370	3.6715e+01	7.3513	58.320463	0.000628	6.283501	1.064454	0.000126
 371	3.6815e+01	7.3719	58.445614	0.000628	6.283501	1.064454	0.000126
 372	3.6914e+01	7.3905	58.586914	0.000709	7.094276	1.201803	0.000142
 373	3.7014e+01	7.4108	58.724176	0.000689	6.891582	1.167466	0.000138
 374	3.7114e+01	7.4307	58.821068	0.000486	4.864646	0.824093	0.000097
 375	3.7213e+01	7.4499	58.978516	0.000791	7.905050	1.339152	0.000158
 376	3.7313e+01	7.4689	59.099630	0.000608	6.080808	1.030117	0.000122
 377	3.7412e+01	7.4899	59.208633	0.000547	5.472727	0.927105	0.000110
 378	3.7511e+01	7.5103	59.362044	0.000770	7.702357	1.304815	0.000154
 379	3.7611e+01	7.5298	59.479121	0.000588	5.878114	0.995780	0.000118
 380	3.7711e+01	7.5489	59.604272	0.000628	6.283501	1.064454	0.000126
 381	3.7810e+01	7.5692	59.741535	0.000689	6.891582	1.167466	0.000138
 382	3.7910e+01	7.5893	59.874760	0.000669	6.688889	1.133128	0.000134
 383	3.8009e+01	7.6102	59.983763	0.000547	5.472727	0.927105	0.000110
 384	3.8108e+01	7.6303	60.112951	0.000649	6.486195	1.098791	0.000130
 385	3.8208e+01	7.6493	60.250214	0.000689	6.891582	1.167466	0.000138
 386	3.8307e+01	7.6694	60.371328	0.000608	6.080808	1.030117	0.000122
 387	3.8407e+01	7.6890	60.532813	0.000811	8.107744	1.373489	0.000162
 388	3.8507e+01	7.7093	60.649890	0.000588	5.878114	0.995780	0.000118
 389	3.8606e+01	7.7296	60.758893	0.000547	5.472727	0.927105	0.000110
 390	3.8706e+01	7.7486	60.888081	0.000649	6.486195	1.098791	0.000130
 391	3.8805e+01	7.7676	60.993047	0.000527	5.270034	0.892768	0.000105
 392	3.8904e+01	7.7888	61.118198	0.000628	6.283501	1.064454	0.000126
 393	3.9004e+01	7.8097	61.303906	0.000932	9.323905	1.579512	0.000187
 394	3.9103e+01	7.8294	61.408872	0.000527	5.270034	0.892768	0.000105
 395	3.9203e+01	7.8483	61.570357	0.000811	8.107744	1.373489	0.000162
 396	3.9303e+01	7.8683	61.675323	0.000527	5.270034	0.892768	0.000105
 397	3.9402e+01	7.8890	61.812585	0.000689	6.891582	1.167466	0.000138
 398	3.9502e+01	7.9081	61.929662	0.000588	5.878114	0.995780	0.000118
 399	3.9601e+01	7.9285	62.038665	0.000547	5.472727	0.927105	0.000110
 400	3.9700e+01	7.9477	62.167853	0.000649	6.486195	1.098791	0.000130
 401	3.9800e+01	7.9688	62.301079	0.000669	6.688889	1.133128	0.000134
 402	3.9900e+01	7.9871	62.434304	0.000669	6.688889	1.133128	0.000134
 403	3.9999e+01	8.0074	62.571567	0.000689	6.891582	1.167466	0.000138
 404	4.0099e+01	8.0280	62.712867	0.000709	7.094276	1.201803	0.000142
 405	4.0198e+01	8.0482	62.809758	0.000486	4.864646	0.824093	0.000097
 406	4.0297e+01	8.0670	62.918760	0.000547	5.472727	0.927105	0.000110
 407	4.0397e+01	8.0874	63.084283	0.000831	8.310437	1.407826	0.000166
 408	4.0496e+01	8.1079	63.177137	0.000466	4.661953	0.789756	0.000093
 409	4.0596e+01	8.1274	63.330548	0.000770	7.702357	1.304815	0.000154
 410	4.0696e+01	8.1460	63.423402	0.000466	4.661953	0.789756	0.000093
 411	4.0795e+01	8.1671	63.532405	0.000547	5.472727	0.927105	0.000110
 412	4.0895e+01	8.1868	63.685816	0.000770	7.702357	1.304815	0.000154
 413	4.0994e+01	8.2075	63.815005	0.000649	6.486195	1.098791	0.000130
 414	4.1093e+01	8.2275	63.944193	0.000649	6.486195	1.098791	0.000130
 415	4.1193e+01	8.2471	64.117790	0.000872	8.715825	1.476501	0.000174
 416	4.1292e+01	8.2666	64.198533	0.000405	4.053872	0.686744	0.000081
 417	4.1392e+01	8.2879	64.319647	0.000608	6.080808	1.030117	0.000122
 418	4.1492e+01	8.3065	64.481132	0.000811	8.107744	1.373489	0.000162
 419	4.1591e+01	8.3257	64.565912	0.000426	4.256566	0.721082	0.000085
 420	4.1691e+01	8.3459	64.699137	0.000669	6.688889	1.133128	0.000134
 421	4.1790e+01	8.3665	64.832363	0.000669	6.688889	1.133128	0.000134
 422	4.1889e+01	8.3862	64.953477	0.000608	6.080808	1.030117	0.000122
 423	4.1989e+01	8.4071	65.066517	0.000568	5.675421	0.961442	0.000114
 424	4.2089e+01	8.4264	65.203779	0.000689	6.891582	1.167466	0.000138
 425	4.2188e+01	8.4463	65.341042	0.000689	6.891582	1.167466	0.000138
 426	4.2288e+01	8.4663	65.478305	0.000689	6.891582	1.167466	0.000138
 427	4.2387e+01	8.4869	65.587307	0.000547	5.472727	0.927105	0.000110
 428	4.2486e+01	8.5055	65.720533	0.000669	6.688889	1.133128	0.000134
 429	4.2586e+01	8.5254	65.825498	0.000527	5.270034	0.892768	0.000105
 430	4.2685e+01	8.5449	65.962761	0.000689	6.891582	1.167466	0.000138
 431	4.2785e+01	8.5662	66.087912	0.000628	6.283501	1.064454	0.000126
 432	4.2885e+01	8.5850	66.213063	0.000628	6.283501	1.064454	0.000126
 433	4.2984e+01	8.6059	66.358400	0.000730	7.296969	1.236140	0.000146
 434	4.3084e+01	8.6256	66.463366	0.000527	5.270034	0.892768	0.000105
 435	4.3183e+01	8.6460	66.604665	0.000709	7.094276	1.201803	0.000142
 436	4.3282e+01	8.6658	66.750002	0.000730	7.296969	1.236140	0.000146
 437	4.3382e+01	8.6854	66.830745	0.000405	4.053872	0.686744	0.000081
 438	4.3481e+01	8.7050	66.968008	0.000689	6.891582	1.167466	0.000138
 439	4.3581e+01	8.7256	67.125456	0.000791	7.905050	1.339152	0.000158
 440	4.3681e+01	8.7439	67.262719	0.000689	6.891582	1.167466	0.000138
 441	4.3780e+01	8.7650	67.375758	0.000568	5.675421	0.961442	0.000114
 442	4.3880e+01	8.7846	67.480724	0.000527	5.270034	0.892768	0.000105
 443	4.3979e+01	8.8054	67.605875	0.000628	6.283501	1.064454	0.000126
 444	4.4078e+01	8.8245	67.763323	0.000791	7.905050	1.339152	0.000158
 445	4.4178e+01	8.8445	67.908660	0.000730	7.296969	1.236140	0.000146
 446	4.4278e+01	8.8627	68.033811	0.000628	6.283501	1.064454	0.000126
 447	4.4377e+01	8.8834	68.150888	0.000588	5.878114	0.995780	0.000118
 448	4.4477e+01	8.9030	68.276040	0.000628	6.283501	1.064454	0.000126
 449	4.4576e+01	8.9246	68.409265	0.000669	6.688889	1.133128	0.000134
 450	4.4675e+01	8.9425	68.530379	0.000608	6.080808	1.030117	0.000122
 451	4.4775e+01	8.9637	68.675716	0.000730	7.296969	1.236140	0.000146
 452	4.4874e+01	8.9828	68.780682	0.000527	5.270034	0.892768	0.000105
 453	4.4974e+01	9.0035	68.909870	0.000649	6.486195	1.098791	0.000130
 454	4.5074e+01	9.0236	69.051170	0.000709	7.094276	1.201803	0.000142
 455	4.5173e+01	9.0431	69.152098	0.000507	5.067340	0.858431	0.000101
 456	4.5273e+01	9.0625	69.309546	0.000791	7.905050	1.339152	0.000158
 457	4.5372e+01	9.0820	69.430660	0.000608	6.080808	1.030117	0.000122
 458	4.5471e+01	9.1024	69.555812	0.000628	6.283501	1.064454	0.000126
 459	4.5571e+01	9.1222	69.685000	0.000649	6.486195	1.098791	0.000130
 460	4.5670e+01	9.1437	69.806114	0.000608	6.080808	1.030117	0.000122
 461	4.5770e+01	9.1626	69.923191	0.000588	5.878114	0.995780	0.000118
 462	4.5870e+01	9.1815	70.052379	0.000649	6.486195	1.098791	0.000130
 463	4.5969e+01	9.2017	70.181568	0.000649	6.486195	1.098791	0.000130
 464	4.6069e+01	9.2223	70.334979	0.000770	7.702357	1.304815	0.000154
 465	4.6168e+01	9.2432	70.448019	0.000568	5.675421	0.961442	0.000114
 466	4.6267e+01	9.2619	70.593356	0.000730	7.296969	1.236140	0.000146
 467	4.6367e+01	9.2831	70.698321	0.000527	5.270034	0.892768	0.000105
 468	4.6467e+01	9.3027	70.851732	0.000770	7.702357	1.304815	0.000154
 469	4.6566e+01	9.3221	70.984958	0.000669	6.688889	1.133128	0.000134
 470	4.6666e+01	9.3423	71.114146	0.000649	6.486195	1.098791	0.000130
 471	4.6765e+01	9.3616	71.231223	0.000588	5.878114	0.995780	0.000118
 472	4.6864e+01	9.3824	71.348300	0.000588	5.878114	0.995780	0.000118
 473	4.6964e+01	9.4025	71.501711	0.000770	7.702357	1.304815	0.000154
 474	4.7063e+01	9.4214	71.626862	0.000628	6.283501	1.064454	0.000126
 475	4.7163e+01	9.4411	71.760088	0.000669	6.688889	1.133128	0.000134
 476	4.7263e+01	9.4608	71.909462	0.000750	7.499663	1.270477	0.000150
 477	4.7362e+01	9.4811	72.002316	0.000466	4.661953	0.789756	0.000093
 478	4.7462e+01	9.5013	72.123430	0.000608	6.080808	1.030117	0.000122
 479	4.7561e+01	9.5210	72.280878	0.000791	7.905050	1.339152	0.000158
 480	4.7660e+01	9.5410	72.381807	0.000507	5.067340	0.858431	0.000101
 481	4.7760e+01	9.5608	72.527144	0.000730	7.296969	1.236140	0.000146
 482	4.7859e+01	9.5815	72.668443	0.000709	7.094276	1.201803	0.000142
 483	4.7959e+01	9.6008	72.801669	0.000669	6.688889	1.133128	0.000134
 484	4.8059e+01	9.6205	72.926820	0.000628	6.283501	1.064454	0.000126
 485	4.8158e+01	9.6404	73.064083	0.000689	6.891582	1.167466	0.000138
 486	4.8258e+01	9.6603	73.205382	0.000709	7.094276	1.201803	0.000142
 487	4.8357e+01	9.6799	73.290162	0.000426	4.256566	0.721082	0.000085
 488	4.8456e+01	9.6992	73.447610	0.000791	7.905050	1.339152	0.000158
 489	4.8556e+01	9.7205	73.592947	0.000730	7.296969	1.236140	0.000146
 490	4.8656e+01	9.7399	73.722136	0.000649	6.486195	1.098791	0.000130
 491	4.8755e+01	9.7603	73.843250	0.000608	6.080808	1.030117	0.000122
 492	4.8855e+01	9.7803	73.972438	0.000649	6.486195	1.098791	0.000130
 493	4.8954e+01	9.8005	74.117775	0.000730	7.296969	1.236140	0.000146
 494	4.9053e+01	9.8197	74.238889	0.000608	6.080808	1.030117	0.000122
 495	4.9153e+01	9.8403	74.380189	0.000709	7.094276	1.201803	0.000142
 496	4.9252e+01	9.8598	74.529563	0.000750	7.499663	1.270477	0.000150
 497	4.9352e+01	9.8798	74.687011	0.000791	7.905050	1.339152	0.000158
 498	4.9452e+01	9.9001	74.783902	0.000486	4.864646	0.824093	0.000097
 499	4.9551e+01	9.9191	74.945388	0.000811	8.107744	1.373489	0.000162
 500	4.9651e+01	9.9393	75.098799	0.000770	7.702357	1.304815	0.000154
 501	4.9750e+01	9.9592	75.183579	0.000426	4.256566	0.721082	0.000085
 502	4.9849e+01	9.9789	75.336990	0.000770	7.702357	1.304815	0.000154
 503	4.9949e+01	9.9982	75.478290	0.000709	7.094276	1.201803	0.000142
 504	5.0048e+01	9.9795	75.474253	0.000020	0.202694	0.034337	-0.000004
 505	5.0148e+01	9.9593	75.421770	0.000264	2.635017	0.446384	-0.000053
 506	5.0248e+01	9.9390	75.365250	0.000284	2.837710	0.480721	-0.000057
 507	5.0347e+01	9.9200	75.324879	0.000203	2.026936	0.343372	-0.000041
 508	5.0447e+01	9.8996	75.264322	0.000304	3.040404	0.515058	-0.000061
 509	5.0546e+01	9.8794	75.244136	0.000101	1.013468	0.171686	-0.000020
 510	5.0645e+01	9.8597	75.163393	0.000405	4.053872	0.686744	-0.000081
 511	5.0745e+01	9.8396	75.131096	0.000162	1.621549	0.274698	-0.000032
 512	5.0844e+01	9.8196	75.066502	0.000324	3.243098	0.549396	-0.000065
 513	5.0944e+01	9.8008	75.009982	0.000284	2.837710	0.480721	-0.000057
 514	5.1044e+01	9.7797	74.965574	0.000223	2.229630	0.377709	-0.000045
 515	5.1143e+01	9.7601	74.933276	0.000162	1.621549	0.274698	-0.000032
 516	5.1242e+01	9.7397	74.860608	0.000365	3.648485	0.618070	-0.000073
 517	5.1342e+01	9.7201	74.804088	0.000284	2.837710	0.480721	-0.000057
 518	5.1441e+01	9.6997	74.727383	0.000385	3.851178	0.652407	-0.000077
 519	5.1541e+01	9.6808	74.695085	0.000162	1.621549	0.274698	-0.000032
 520	5.1641e+01	9.6606	74.658751	0.000182	1.824242	0.309035	-0.000037
 521	5.1740e+01	9.6406	74.598194	0.000304	3.040404	0.515058	-0.000061
 522	5.1840e+01	9.6212	74.529563	0.000345	3.445791	0.583733	-0.000069
 523	5.1939e+01	9.6005	74.444783	0.000426	4.256566	0.721082	-0.000085
 524	5.2038e+01	9.5809	74.424597	0.000101	1.013468	0.171686	-0.000020
 525	5.2138e+01	9.5606	74.368077	0.000284	2.837710	0.480721	-0.000057
 526	5.2237e+01	9.5411	74.323669	0.000223	2.229630	0.377709	-0.000045
 527	5.2337e+01	9.5215	74.174295	0.000750	7.499663	1.270477	-0.000150
 528	5.2437e+01	9.5004	74.154109	0.000101	1.013468	0.171686	-0.000020
 529	5.2536e+01	9.4810	74.093552	0.000304	3.040404	0.515058	-0.000061
 530	5.2636e+01	9.4601	74.053181	0.000203	2.026936	0.343372	-0.000041
 531	5.2735e+01	9.4411	73.972438	0.000405	4.053872	0.686744	-0.000081
 532	5.2834e+01	9.4221	73.932067	0.000203	2.026936	0.343372	-0.000041
 533	5.2934e+01	9.4019	73.819027	0.000568	5.675421	0.961442	-0.000114
 534	5.3033e+01	9.3821	73.810953	0.000041	0.405387	0.068674	-0.000008
 535	5.3133e+01	9.3613	73.714061	0.000486	4.864646	0.824093	-0.000097
 536	5.3233e+01	9.3420	73.665616	0.000243	2.432323	0.412047	-0.000049
 537	5.3332e+01	9.3214	73.592947	0.000365	3.648485	0.618070	-0.000073
 538	5.3431e+01	9.3018	73.536427	0.000284	2.837710	0.480721	-0.000057
 539	5.3531e+01	9.2822	73.435499	0.000507	5.067340	0.858431	-0.000101
 540	5.3630e+01	9.2627	73.391091	0.000223	2.229630	0.377709	-0.000045
 541	5.3730e+01	9.2426	73.370905	0.000101	1.013468	0.171686	-0.000020
 542	5.3830e+01	9.2216	73.274014	0.000486	4.864646	0.824093	-0.000097
 543	5.3929e+01	9.2027	73.193271	0.000405	4.053872	0.686744	-0.000081
 544	5.4029e+01	9.1817	73.116565	0.000385	3.851178	0.652407	-0.000077
 545	5.4128e+01	9.1622	73.035823	0.000405	4.053872	0.686744	-0.000081
 546	5.4227e+01	9.1412	73.003526	0.000162	1.621549	0.274698	-0.000032
 547	5.4327e+01	9.1230	72.914709	0.000446	4.459259	0.755419	-0.000089
 548	5.4426e+01	9.1029	72.838003	0.000385	3.851178	0.652407	-0.000077
 549	5.4526e+01	9.0829	72.809743	0.000142	1.418855	0.240361	-0.000028
 550	5.4626e+01	9.0628	72.704778	0.000527	5.270034	0.892768	-0.000105
 551	5.4725e+01	9.0432	72.672480	0.000162	1.621549	0.274698	-0.000032
 552	5.4825e+01	9.0229	72.583663	0.000446	4.459259	0.755419	-0.000089
 553	5.4924e+01	9.0039	72.502921	0.000405	4.053872	0.686744	-0.000081
 554	5.5023e+01	8.9836	72.410067	0.000466	4.661953	0.789756	-0.000093
 555	5.5123e+01	8.9639	72.333361	0.000385	3.851178	0.652407	-0.000077
 556	5.5222e+01	8.9437	72.276841	0.000284	2.837710	0.480721	-0.000057
 557	5.5322e+01	8.9244	72.200136	0.000385	3.851178	0.652407	-0.000077
 558	5.5422e+01	8.9036	72.163801	0.000182	1.824242	0.309035	-0.000037
 559	5.5521e+01	8.8847	72.074984	0.000446	4.459259	0.755419	-0.000089
 560	5.5620e+01	8.8639	72.030576	0.000223	2.229630	0.377709	-0.000045
 561	5.5720e+01	8.8447	71.925610	0.000527	5.270034	0.892768	-0.000105
 562	5.5819e+01	8.8256	71.848905	0.000385	3.851178	0.652407	-0.000077
 563	5.5919e+01	8.8046	71.756051	0.000466	4.661953	0.789756	-0.000093
 564	5.6019e+01	8.7852	71.719716	0.000182	1.824242	0.309035	-0.000037
 565	5.6118e+01	8.7653	71.598602	0.000608	6.080808	1.030117	-0.000122
 566	5.6218e+01	8.7451	71.562268	0.000182	1.824242	0.309035	-0.000037
 567	5.6317e+01	8.7256	71.485563	0.000385	3.851178	0.652407	-0.000077
 568	5.6416e+01	8.7048	71.396746	0.000446	4.459259	0.755419	-0.000089
 569	5.6516e+01	8.6850	71.328114	0.000345	3.445791	0.583733	-0.000069
 570	5.6615e+01	8.6646	71.227186	0.000507	5.067340	0.858431	-0.000101
 571	5.6715e+01	8.6450	71.166629	0.000304	3.040404	0.515058	-0.000061
 572	5.6815e+01	8.6251	71.089923	0.000385	3.851178	0.652407	-0.000077
 573	5.6914e+01	8.6053	70.984958	0.000527	5.270034	0.892768	-0.000105
 574	5.7014e+01	8.5864	70.920364	0.000324	3.243098	0.549396	-0.000065
 575	5.7113e+01	8.5664	70.875955	0.000223	2.229630	0.377709	-0.000045
 576	5.7212e+01	8.5464	70.758878	0.000588	5.878114	0.995780	-0.000118
 577	5.7312e+01	8.5264	70.710432	0.000243	2.432323	0.412047	-0.000049
 578	5.7411e+01	8.5061	70.621615	0.000446	4.459259	0.755419	-0.000089
 579	5.7511e+01	8.4863	70.520687	0.000507	5.067340	0.858431	-0.000101
 580	5.7611e+01	8.4664	70.464167	0.000284	2.837710	0.480721	-0.000057
 581	5.7710e+01	8.4457	70.367276	0.000486	4.864646	0.824093	-0.000097
 582	5.7809e+01	8.4265	70.270385	0.000486	4.864646	0.824093	-0.000097
 583	5.7909e+01	8.4060	70.193679	0.000385	3.851178	0.652407	-0.000077
 584	5.8008e+01	8.3868	70.145233	0.000243	2.432323	0.412047	-0.000049
 585	5.8108e+01	8.3659	70.020082	0.000628	6.283501	1.064454	-0.000126
 586	5.8208e+01	8.3469	69.927228	0.000466	4.661953	0.789756	-0.000093
 587	5.8307e+01	8.3266	69.854560	0.000365	3.648485	0.618070	-0.000073
 588	5.8407e+01	8.3067	69.753631	0.000507	5.067340	0.858431	-0.000101
 589	5.8506e+01	8.2865	69.660777	0.000466	4.661953	0.789756	-0.000093
 590	5.8605e+01	8.2671	69.640591	0.000101	1.013468	0.171686	-0.000020
 591	5.8705e+01	8.2466	69.531589	0.000547	5.472727	0.927105	-0.000110
 592	5.8804e+01	8.2269	69.442772	0.000446	4.459259	0.755419	-0.000089
 593	5.8904e+01	8.2070	69.329732	0.000568	5.675421	0.961442	-0.000114
 594	5.9004e+01	8.1876	69.261101	0.000345	3.445791	0.583733	-0.000069
 595	5.9103e+01	8.1667	69.200544	0.000304	3.040404	0.515058	-0.000061
 596	5.9203e+01	8.1475	69.083467	0.000588	5.878114	0.995780	-0.000118
 597	5.9302e+01	8.1271	69.018873	0.000324	3.243098	0.549396	-0.000065
 598	5.9401e+01	8.1079	68.938130	0.000405	4.053872	0.686744	-0.000081
 599	5.9501e+01	8.0875	68.833164	0.000527	5.270034	0.892768	-0.000105
 600	5.9600e+01	8.0683	68.764533	0.000345	3.445791	0.583733	-0.000069
 601	5.9700e+01	8.0486	68.695902	0.000345	3.445791	0.583733	-0.000069
 602	5.9800e+01	8.0277	68.594973	0.000507	5.067340	0.858431	-0.000101
 603	5.9899e+01	8.0083	68.510193	0.000426	4.256566	0.721082	-0.000085
 604	5.9998e+01	7.9883	68.413302	0.000486	4.864646	0.824093	-0.000097
 605	6.0098e+01	7.9676	68.336597	0.000385	3.851178	0.652407	-0.000077
 606	6.0197e+01	7.9485	68.259891	0.000385	3.851178	0.652407	-0.000077
 607	6.0297e+01	7.9281	68.138777	0.000608	6.080808	1.030117	-0.000122
 608	6.0397e+01	7.9086	68.086294	0.000264	2.635017	0.446384	-0.000053
 609	6.0496e+01	7.8887	67.969217	0.000588	5.878114	0.995780	-0.000118
 610	6.0596e+01	7.8680	67.872326	0.000486	4.864646	0.824093	-0.000097
 611	6.0695e+01	7.8484	67.811769	0.000304	3.040404	0.515058	-0.000061
 612	6.0794e+01	7.8271	67.722952	0.000446	4.459259	0.755419	-0.000089
 613	6.0894e+01	7.8088	67.634135	0.000446	4.459259	0.755419	-0.000089
 614	6.0993e+01	7.7890	67.569541	0.000324	3.243098	0.549396	-0.000065
 615	6.1093e+01	7.7686	67.428241	0.000709	7.094276	1.201803	-0.000142
 616	6.1193e+01	7.7481	67.379795	0.000243	2.432323	0.412047	-0.000049
 617	6.1292e+01	7.7292	67.262719	0.000588	5.878114	0.995780	-0.000118
 618	6.1392e+01	7.7093	67.161790	0.000507	5.067340	0.858431	-0.000101
 619	6.1491e+01	7.6886	67.089122	0.000365	3.648485	0.618070	-0.000073
 620	6.1590e+01	7.6699	67.008379	0.000405	4.053872	0.686744	-0.000081
 621	6.1690e+01	7.6493	66.911488	0.000486	4.864646	0.824093	-0.000097
 622	6.1789e+01	7.6290	66.867079	0.000223	2.229630	0.377709	-0.000045
 623	6.1889e+01	7.6084	66.729817	0.000689	6.891582	1.167466	-0.000138
 624	6.1989e+01	7.5894	66.665222	0.000324	3.243098	0.549396	-0.000065
 625	6.2088e+01	7.5704	66.580443	0.000426	4.256566	0.721082	-0.000085
 626	6.2188e+01	7.5498	66.447217	0.000669	6.688889	1.133128	-0.000134
 627	6.2287e+01	7.5306	66.382623	0.000324	3.243098	0.549396	-0.000065
 628	6.2386e+01	7.5108	66.245360	0.000689	6.891582	1.167466	-0.000138
 629	6.2486e+01	7.4899	66.172692	0.000365	3.648485	0.618070	-0.000073
 630	6.2586e+01	7.4704	66.091949	0.000405	4.053872	0.686744	-0.000081
 631	6.2685e+01	7.4493	65.995058	0.000486	4.864646	0.824093	-0.000097
 632	6.2785e+01	7.4299	65.910278	0.000426	4.256566	0.721082	-0.000085
 633	6.2884e+01	7.4102	65.829535	0.000405	4.053872	0.686744	-0.000081
 634	6.2983e+01	7.3907	65.720533	0.000547	5.472727	0.927105	-0.000110
 635	6.3083e+01	7.3700	65.599419	0.000608	6.080808	1.030117	-0.000122
 636	6.3182e+01	7.3508	65.502527	0.000486	4.864646	0.824093	-0.000097
 637	6.3282e+01	7.3312	65.421785	0.000405	4.053872	0.686744	-0.000081
 638	6.3382e+01	7.3112	65.341042	0.000405	4.053872	0.686744	-0.000081
 639	6.3481e+01	7.2915	65.252225	0.000446	4.459259	0.755419	-0.000089
 640	6.3581e+01	7.2713	65.123037	0.000649	6.486195	1.098791	-0.000130
 641	6.3680e+01	7.2511	65.022108	0.000507	5.067340	0.858431	-0.000101
 642	6.3779e+01	7.2314	64.953477	0.000345	3.445791	0.583733	-0.000069
 643	6.3879e+01	7.2104	64.824289	0.000649	6.486195	1.098791	-0.000130
 644	6.3978e+01	7.1913	64.755657	0.000345	3.445791	0.583733	-0.000069
 645	6.4078e+01	7.1712	64.618395	0.000689	6.891582	1.167466	-0.000138
 646	6.4177e+01	7.1516	64.553800	0.000324	3.243098	0.549396	-0.000065
 647	6.4277e+01	7.1314	64.473058	0.000405	4.053872	0.686744	-0.000081
 648	6.4376e+01	7.1120	64.351944	0.000608	6.080808	1.030117	-0.000122
 649	6.4476e+01	7.0925	64.271201	0.000405	4.053872	0.686744	-0.000081
 650	6.4576e+01	7.0712	64.146050	0.000628	6.283501	1.064454	-0.000126
 651	6.4675e+01	7.0522	64.085493	0.000304	3.040404	0.515058	-0.000061
 652	6.4775e+01	7.0317	63.964379	0.000608	6.080808	1.030117	-0.000122
 653	6.4874e+01	7.0124	63.839227	0.000628	6.283501	1.064454	-0.000126
 654	6.4974e+01	6.9918	63.766559	0.000365	3.648485	0.618070	-0.000073
 655	6.5073e+01	6.9724	63.661593	0.000527	5.270034	0.892768	-0.000105
 656	6.5172e+01	6.9515	63.544517	0.000588	5.878114	0.995780	-0.000118
 657	6.5272e+01	6.9324	63.471848	0.000365	3.648485	0.618070	-0.000073
 658	6.5371e+01	6.9123	63.370920	0.000507	5.067340	0.858431	-0.000101
 659	6.5471e+01	6.8920	63.261917	0.000547	5.472727	0.927105	-0.000110
 660	6.5570e+01	6.8716	63.148877	0.000568	5.675421	0.961442	-0.000114
 661	6.5670e+01	6.8530	63.084283	0.000324	3.243098	0.549396	-0.000065
 662	6.5769e+01	6.8327	62.975280	0.000547	5.472727	0.927105	-0.000110
 663	6.5869e+01	6.8130	62.870315	0.000527	5.270034	0.892768	-0.000105
 664	6.5969e+01	6.7921	62.757275	0.000568	5.675421	0.961442	-0.000114
 665	6.6068e+01	6.7727	62.684607	0.000365	3.648485	0.618070	-0.000073
 666	6.6168e+01	6.7532	62.587715	0.000486	4.864646	0.824093	-0.000097
 667	6.6267e+01	6.7339	62.458527	0.000649	6.486195	1.098791	-0.000130
 668	6.6367e+01	6.7136	62.349524	0.000547	5.472727	0.927105	-0.000110
 669	6.6466e+01	6.6936	62.264744	0.000426	4.256566	0.721082	-0.000085
 670	6.6566e+01	6.6738	62.159779	0.000527	5.270034	0.892768	-0.000105
 671	6.6665e+01	6.6542	62.034628	0.000628	6.283501	1.064454	-0.000126
 672	6.6764e+01	6.6337	61.953885	0.000405	4.053872	0.686744	-0.000081
 673	6.6864e+01	6.6134	61.828734	0.000628	6.283501	1.064454	-0.000126
 674	6.6963e+01	6.5939	61.756065	0.000365	3.648485	0.618070	-0.000073
 675	6.7063e+01	6.5736	61.622840	0.000669	6.688889	1.133128	-0.000134
 676	6.7162e+01	6.5539	61.521912	0.000507	5.067340	0.858431	-0.000101
 677	6.7262e+01	6.5346	61.416946	0.000527	5.270034	0.892768	-0.000105
 678	6.7362e+01	6.5137	61.336203	0.000405	4.053872	0.686744	-0.000081
 679	6.7461e+01	6.4935	61.243349	0.000466	4.661953	0.789756	-0.000093
 680	6.7561e+01	6.4736	61.110124	0.000669	6.688889	1.133128	-0.000134
 681	6.7660e+01	6.4535	61.017270	0.000466	4.661953	0.789756	-0.000093
 682	6.7760e+01	6.4339	60.908267	0.000547	5.472727	0.927105	-0.000110
 683	6.7859e+01	6.4138	60.762930	0.000730	7.296969	1.236140	-0.000146
 684	6.7959e+01	6.3938	60.690262	0.000365	3.648485	0.618070	-0.000073
 685	6.8058e+01	6.3741	60.589333	0.000507	5.067340	0.858431	-0.000101
 686	6.8157e+01	6.3540	60.423811	0.000831	8.310437	1.407826	-0.000166
 687	6.8257e+01	6.3351	60.363254	0.000304	3.040404	0.515058	-0.000061
 688	6.8356e+01	6.3140	60.242139	0.000608	6.080808	1.030117	-0.000122
 689	6.8456e+01	6.2965	60.141211	0.000507	5.067340	0.858431	-0.000101
 690	6.8555e+01	6.2744	60.040283	0.000507	5.067340	0.858431	-0.000101
 691	6.8655e+01	6.2559	59.947429	0.000466	4.661953	0.789756	-0.000093
 692	6.8754e+01	6.2345	59.818240	0.000649	6.486195	1.098791	-0.000130
 693	6.8854e+01	6.2156	59.701163	0.000588	5.878114	0.995780	-0.000118
 694	6.8954e+01	6.1953	59.563901	0.000689	6.891582	1.167466	-0.000138
 695	6.9053e+01	6.1761	59.471047	0.000466	4.661953	0.789756	-0.000093
 696	6.9153e+01	6.1559	59.366081	0.000527	5.270034	0.892768	-0.000105
 697	6.9252e+01	6.1355	59.269190	0.000486	4.864646	0.824093	-0.000097
 698	6.9352e+01	6.1158	59.144039	0.000628	6.283501	1.064454	-0.000126
 699	6.9451e+01	6.0964	59.022924	0.000608	6.080808	1.030117	-0.000122
 700	6.9550e+01	6.0760	58.901810	0.000608	6.080808	1.030117	-0.000122
 701	6.9650e+01	6.0561	58.825105	0.000385	3.851178	0.652407	-0.000077
 702	6.9749e+01	6.0363	58.687842	0.000689	6.891582	1.167466	-0.000138
 703	6.9849e+01	6.0168	58.607100	0.000405	4.053872	0.686744	-0.000081
 704	6.9948e+01	5.9966	58.473874	0.000669	6.688889	1.133128	-0.000134
 705	7.0048e+01	5.9774	58.381020	0.000466	4.661953	0.789756	-0.000093
 706	7.0147e+01	5.9565	58.288166	0.000466	4.661953	0.789756	-0.000093
 707	7.0247e+01	5.9359	58.130717	0.000791	7.905050	1.339152	-0.000158
 708	7.0347e+01	5.9164	58.029789	0.000507	5.067340	0.858431	-0.000101
 709	7.0446e+01	5.8965	57.912712	0.000588	5.878114	0.995780	-0.000118
 710	7.0546e+01	5.8775	57.787561	0.000628	6.283501	1.064454	-0.000126
 711	7.0645e+01	5.8572	57.678558	0.000547	5.472727	0.927105	-0.000110
 712	7.0745e+01	5.8378	57.601853	0.000385	3.851178	0.652407	-0.000077
 713	7.0844e+01	5.8170	57.432293	0.000851	8.513131	1.442163	-0.000170
 714	7.0944e+01	5.7967	57.347513	0.000426	4.256566	0.721082	-0.000085
 715	7.1043e+01	5.7766	57.274845	0.000365	3.648485	0.618070	-0.000073
 716	7.1142e+01	5.7580	57.097211	0.000892	8.918518	1.510838	-0.000179
 717	7.1242e+01	5.7373	57.012431	0.000426	4.256566	0.721082	-0.000085
 718	7.1341e+01	5.7180	56.887280	0.000628	6.283501	1.064454	-0.000126
 719	7.1441e+01	5.6980	56.766166	0.000608	6.080808	1.030117	-0.000122
 720	7.1540e+01	5.6768	56.645052	0.000608	6.080808	1.030117	-0.000122
 721	7.1640e+01	5.6578	56.584495	0.000304	3.040404	0.515058	-0.000061
 722	7.1740e+01	5.6377	56.439158	0.000730	7.296969	1.236140	-0.000146
 723	7.1839e+01	5.6184	56.309969	0.000649	6.486195	1.098791	-0.000130
 724	7.1939e+01	5.5978	56.180781	0.000649	6.486195	1.098791	-0.000130
 725	7.2038e+01	5.5779	56.104075	0.000385	3.851178	0.652407	-0.000077
 726	7.2138e+01	5.5576	55.958738	0.000730	7.296969	1.236140	-0.000146
 727	7.2237e+01	5.5383	55.890107	0.000345	3.445791	0.583733	-0.000069
 728	7.2337e+01	5.5181	55.732659	0.000791	7.905050	1.339152	-0.000158
 729	7.2436e+01	5.4983	55.619619	0.000568	5.675421	0.961442	-0.000114
 730	7.2535e+01	5.4796	55.494468	0.000628	6.283501	1.064454	-0.000126
 731	7.2635e+01	5.4583	55.389502	0.000527	5.270034	0.892768	-0.000105
 732	7.2734e+01	5.4382	55.288574	0.000507	5.067340	0.858431	-0.000101
 733	7.2834e+01	5.4174	55.159386	0.000649	6.486195	1.098791	-0.000130
 734	7.2933e+01	5.3982	55.001937	0.000791	7.905050	1.339152	-0.000158
 735	7.3033e+01	5.3786	54.905046	0.000486	4.864646	0.824093	-0.000097
 736	7.3132e+01	5.3587	54.779895	0.000628	6.283501	1.064454	-0.000126
 737	7.3232e+01	5.3393	54.699152	0.000405	4.053872	0.686744	-0.000081
 738	7.3332e+01	5.3193	54.557852	0.000709	7.094276	1.201803	-0.000142
 739	7.3431e+01	5.2990	54.440775	0.000588	5.878114	0.995780	-0.000118
 740	7.3531e+01	5.2788	54.355996	0.000426	4.256566	0.721082	-0.000085
 741	7.3630e+01	5.2592	54.210659	0.000730	7.296969	1.236140	-0.000146
 742	7.3730e+01	5.2392	54.073396	0.000689	6.891582	1.167466	-0.000138
 743	7.3829e+01	5.2193	53.956319	0.000588	5.878114	0.995780	-0.000118
 744	7.3928e+01	5.1997	53.827131	0.000649	6.486195	1.098791	-0.000130
 745	7.4028e+01	5.1794	53.734277	0.000466	4.661953	0.789756	-0.000093
 746	7.4127e+01	5.1595	53.617200	0.000588	5.878114	0.995780	-0.000118
 747	7.4227e+01	5.1392	53.488011	0.000649	6.486195	1.098791	-0.000130
 748	7.4326e+01	5.1192	53.342675	0.000730	7.296969	1.236140	-0.000146
 749	7.4426e+01	5.1003	53.217523	0.000628	6.283501	1.064454	-0.000126
 750	7.4525e+01	5.0800	53.116595	0.000507	5.067340	0.858431	-0.000101
 751	7.4625e+01	5.0593	52.975295	0.000709	7.094276	1.201803	-0.000142
 752	7.4725e+01	5.0402	52.866292	0.000547	5.472727	0.927105	-0.000110
 753	7.4824e+01	5.0201	52.720956	0.000730	7.296969	1.236140	-0.000146
 754	7.4924e+01	5.0004	52.603879	0.000588	5.878114	0.995780	-0.000118
 755	7.5023e+01	4.9798	52.482765	0.000608	6.080808	1.030117	-0.000122
 756	7.5123e+01	4.9606	52.353576	0.000649	6.486195	1.098791	-0.000130
 757	7.5222e+01	4.9406	52.232462	0.000608	6.080808	1.030117	-0.000122
 758	7.5322e+01	4.9200	52.099237	0.000669	6.688889	1.133128	-0.000134
 759	7.5421e+01	4.9004	51.982160	0.000588	5.878114	0.995780	-0.000118
 760	7.5520e+01	4.8806	51.865083	0.000588	5.878114	0.995780	-0.000118
 761	7.5620e+01	4.8611	51.752043	0.000568	5.675421	0.961442	-0.000114
 762	7.5719e+01	4.8402	51.566335	0.000932	9.323905	1.579512	-0.000187
 763	7.5819e+01	4.8217	51.481555	0.000426	4.256566	0.721082	-0.000085
 764	7.5918e+01	4.8013	51.352367	0.000649	6.486195	1.098791	-0.000130
 765	7.6018e+01	4.7801	51.198955	0.000770	7.702357	1.304815	-0.000154
 766	7.6118e+01	4.7616	51.110138	0.000446	4.459259	0.755419	-0.000089
 767	7.6217e+01	4.7408	51.001136	0.000547	5.472727	0.927105	-0.000110
 768	7.6317e+01	4.7219	50.859836	0.000709	7.094276	1.201803	-0.000142
 769	7.6416e+01	4.7021	50.730648	0.000649	6.486195	1.098791	-0.000130
 770	7.6516e+01	4.6813	50.625682	0.000527	5.270034	0.892768	-0.000105
 771	7.6615e+01	4.6609	50.464197	0.000811	8.107744	1.373489	-0.000162
 772	7.6715e+01	4.6408	50.355194	0.000547	5.472727	0.927105	-0.000110
 773	7.6814e+01	4.6219	50.205820	0.000750	7.499663	1.270477	-0.000150
 774	7.6913e+01	4.6023	50.117003	0.000446	4.459259	0.755419	-0.000089
 775	7.7013e+01	4.5821	49.955518	0.000811	8.107744	1.373489	-0.000162
 776	7.7112e+01	4.5618	49.858626	0.000486	4.864646	0.824093	-0.000097
 777	7.7212e+01	4.5422	49.713289	0.000730	7.296969	1.236140	-0.000146
 778	7.7311e+01	4.5226	49.604287	0.000547	5.472727	0.927105	-0.000110
 779	7.7411e+01	4.5018	49.491247	0.000568	5.675421	0.961442	-0.000114
 780	7.7510e+01	4.4817	49.341873	0.000750	7.499663	1.270477	-0.000150
 781	7.7610e+01	4.4625	49.184425	0.000791	7.905050	1.339152	-0.000158
 782	7.7710e+01	4.4419	49.103682	0.000405	4.053872	0.686744	-0.000081
 783	7.7809e+01	4.4206	48.978531	0.000628	6.283501	1.064454	-0.000126
 784	7.7909e+01	4.4028	48.821082	0.000791	7.905050	1.339152	-0.000158
 785	7.8008e+01	4.3819	48.704006	0.000588	5.878114	0.995780	-0.000118
 786	7.8108e+01	4.3625	48.550594	0.000770	7.702357	1.304815	-0.000154
 787	7.8207e+01	4.3435	48.445629	0.000527	5.270034	0.892768	-0.000105
 788	7.8306e+01	4.3224	48.324515	0.000608	6.080808	1.030117	-0.000122
 789	7.8406e+01	4.3029	48.179178	0.000730	7.296969	1.236140	-0.000146
 790	7.8505e+01	4.2831	48.066138	0.000568	5.675421	0.961442	-0.000114
 791	7.8605e+01	4.2629	47.953098	0.000568	5.675421	0.961442	-0.000114
 792	7.8704e+01	4.2434	47.795650	0.000791	7.905050	1.339152	-0.000158
 793	7.8804e+01	4.2228	47.654350	0.000709	7.094276	1.201803	-0.000142
 794	7.8903e+01	4.2034	47.553422	0.000507	5.067340	0.858431	-0.000101
 795	7.9003e+01	4.1828	47.387899	0.000831	8.310437	1.407826	-0.000166
 796	7.9103e+01	4.1636	47.218340	0.000851	8.513131	1.442163	-0.000170
 797	7.9202e+01	4.1435	47.157783	0.000304	3.040404	0.515058	-0.000061
 798	7.9302e+01	4.1239	47.000334	0.000791	7.905050	1.339152	-0.000158
 799	7.9401e+01	4.1035	46.887294	0.000568	5.675421	0.961442	-0.000114
 800	7.9501e+01	4.0835	46.729846	0.000791	7.905050	1.339152	-0.000158
 801	7.9600e+01	4.0636	46.584509	0.000730	7.296969	1.236140	-0.000146
 802	7.9700e+01	4.0438	46.487618	0.000486	4.864646	0.824093	-0.000097
 803	7.9799e+01	4.0239	46.305947	0.000912	9.121212	1.545175	-0.000183
 804	7.9898e+01	4.0038	46.213093	0.000466	4.661953	0.789756	-0.000093
 805	7.9998e+01	3.9837	46.039496	0.000872	8.715825	1.476501	-0.000174
 806	8.0097e+01	3.9643	45.950679	0.000446	4.459259	0.755419	-0.000089
 807	8.0197e+01	3.9440	45.785156	0.000831	8.310437	1.407826	-0.000166
 808	8.0296e+01	3.9245	45.660005	0.000628	6.283501	1.064454	-0.000126
 809	8.0396e+01	3.9053	45.526780	0.000669	6.688889	1.133128	-0.000134
 810	8.0496e+01	3.8845	45.369331	0.000791	7.905050	1.339152	-0.000158
 811	8.0595e+01	3.8641	45.244180	0.000628	6.283501	1.064454	-0.000126
 812	8.0695e+01	3.8441	45.098843	0.000730	7.296969	1.236140	-0.000146
 813	8.0794e+01	3.8249	44.949469	0.000750	7.499663	1.270477	-0.000150
 814	8.0894e+01	3.8046	44.840467	0.000547	5.472727	0.927105	-0.000110
 815	8.0993e+01	3.7846	44.723390	0.000588	5.878114	0.995780	-0.000118
 816	8.1093e+01	3.7661	44.602276	0.000608	6.080808	1.030117	-0.000122
 817	8.1192e+01	3.7460	44.424642	0.000892	8.918518	1.510838	-0.000179
 818	8.1291e+01	3.7254	44.303528	0.000608	6.080808	1.030117	-0.000122
 819	8.1391e+01	3.7054	44.133968	0.000851	8.513131	1.442163	-0.000170
 820	8.1490e+01	3.6864	44.037077	0.000486	4.864646	0.824093	-0.000097
 821	8.1590e+01	3.6663	43.924037	0.000568	5.675421	0.961442	-0.000114
 822	8.1689e+01	3.6455	43.770626	0.000770	7.702357	1.304815	-0.000154
 823	8.1789e+01	3.6259	43.584917	0.000932	9.323905	1.579512	-0.000187
 824	8.1888e+01	3.6054	43.492063	0.000466	4.661953	0.789756	-0.000093
 825	8.1988e+01	3.5857	43.314429	0.000892	8.918518	1.510838	-0.000179
 826	8.2088e+01	3.5658	43.181204	0.000669	6.688889	1.133128	-0.000134
 827	8.2187e+01	3.5458	43.023756	0.000791	7.905050	1.339152	-0.000158
 828	8.2287e+01	3.5271	42.858233	0.000831	8.310437	1.407826	-0.000166
 829	8.2386e+01	3.5064	42.785565	0.000365	3.648485	0.618070	-0.000073
 830	8.2486e+01	3.4850	42.620042	0.000831	8.310437	1.407826	-0.000166
 831	8.2585e+01	3.4661	42.494891	0.000628	6.283501	1.064454	-0.000126
 832	8.2684e+01	3.4467	42.317257	0.000892	8.918518	1.510838	-0.000179
 833	8.2784e+01	3.4272	42.208254	0.000547	5.472727	0.927105	-0.000110
 834	8.2883e+01	3.4054	42.066954	0.000709	7.094276	1.201803	-0.000142
 835	8.2983e+01	3.3858	41.945840	0.000608	6.080808	1.030117	-0.000122
 836	8.3082e+01	3.3680	41.800503	0.000730	7.296969	1.236140	-0.000146
 837	8.3182e+01	3.3470	41.647092	0.000770	7.702357	1.304815	-0.000154
 838	8.3281e+01	3.3270	41.473495	0.000872	8.715825	1.476501	-0.000174
 839	8.3381e+01	3.3065	41.332196	0.000709	7.094276	1.201803	-0.000142
 840	8.3481e+01	3.2869	41.223193	0.000547	5.472727	0.927105	-0.000110
 841	8.3580e+01	3.2661	41.057670	0.000831	8.310437	1.407826	-0.000166
 842	8.3680e+01	3.2473	40.932519	0.000628	6.283501	1.064454	-0.000126
 843	8.3779e+01	3.2265	40.750848	0.000912	9.121212	1.545175	-0.000183
 844	8.3879e+01	3.2085	40.629734	0.000608	6.080808	1.030117	-0.000122
 845	8.3978e+01	3.1869	40.516694	0.000568	5.675421	0.961442	-0.000114
 846	8.4078e+01	3.1678	40.355209	0.000811	8.107744	1.373489	-0.000162
 847	8.4177e+01	3.1478	40.209872	0.000730	7.296969	1.236140	-0.000146
 848	8.4276e+01	3.1278	40.056461	0.000770	7.702357	1.304815	-0.000154
 849	8.4376e+01	3.1081	39.927272	0.000649	6.486195	1.098791	-0.000130
 850	8.4475e+01	3.0877	39.745601	0.000912	9.121212	1.545175	-0.000183
 851	8.4575e+01	3.0681	39.636599	0.000547	5.472727	0.927105	-0.000110
 852	8.4674e+01	3.0475	39.475113	0.000811	8.107744	1.373489	-0.000162
 853	8.4774e+01	3.0285	39.289405	0.000932	9.323905	1.579512	-0.000187
 854	8.4874e+01	3.0085	39.172328	0.000588	5.878114	0.995780	-0.000118
 855	8.4973e+01	2.9885	39.010843	0.000811	8.107744	1.373489	-0.000162
 856	8.5073e+01	2.9691	38.865506	0.000730	7.296969	1.236140	-0.000146
 857	8.5172e+01	2.9485	38.704020	0.000811	8.107744	1.373489	-0.000162
 858	8.5272e+01	2.9281	38.546572	0.000791	7.905050	1.339152	-0.000158
 859	8.5371e+01	2.9082	38.401235	0.000730	7.296969	1.236140	-0.000146
 860	8.5471e+01	2.8875	38.251861	0.000750	7.499663	1.270477	-0.000150
 861	8.5570e+01	2.8688	38.074227	0.000892	8.918518	1.510838	-0.000179
 862	8.5669e+01	2.8484	37.924853	0.000750	7.499663	1.270477	-0.000150
 863	8.5769e+01	2.8281	37.803739	0.000608	6.080808	1.030117	-0.000122
 864	8.5868e+01	2.8091	37.650328	0.000770	7.702357	1.304815	-0.000154
 865	8.5968e+01	2.7890	37.509028	0.000709	7.094276	1.201803	-0.000142
 866	8.6067e+01	2.7697	37.347543	0.000811	8.107744	1.373489	-0.000162
 867	8.6167e+01	2.7493	37.173946	0.000872	8.715825	1.476501	-0.000174
 868	8.6266e+01	2.7298	37.052832	0.000608	6.080808	1.030117	-0.000122
 869	8.6366e+01	2.7099	36.867124	0.000932	9.323905	1.579512	-0.000187
 870	8.6466e+01	2.6888	36.717750	0.000750	7.499663	1.270477	-0.000150
 871	8.6565e+01	2.6693	36.600673	0.000588	5.878114	0.995780	-0.000118
 872	8.6665e+01	2.6487	36.431113	0.000851	8.513131	1.442163	-0.000170
 873	8.6764e+01	2.6293	36.309999	0.000608	6.080808	1.030117	-0.000122
 874	8.6864e+01	2.6089	36.160625	0.000750	7.499663	1.270477	-0.000150
 875	8.6963e+01	2.5892	35.991065	0.000851	8.513131	1.442163	-0.000170
 876	8.7063e+01	2.5695	35.821505	0.000851	8.513131	1.442163	-0.000170
 877	8.7162e+01	2.5499	35.664057	0.000791	7.905050	1.339152	-0.000158
 878	8.7261e+01	2.5302	35.542943	0.000608	6.080808	1.030117	-0.000122
 879	8.7361e+01	2.5098	35.377420	0.000831	8.310437	1.407826	-0.000166
 880	8.7460e+01	2.4906	35.183638	0.000973	9.729293	1.648187	-0.000195
 881	8.7560e+01	2.4699	35.046375	0.000689	6.891582	1.167466	-0.000138
 882	8.7659e+01	2.4509	34.901038	0.000730	7.296969	1.236140	-0.000146
 883	8.7759e+01	2.4303	34.739553	0.000811	8.107744	1.373489	-0.000162
 884	8.7859e+01	2.4102	34.618439	0.000608	6.080808	1.030117	-0.000122
 885	8.7958e+01	2.3901	34.424656	0.000973	9.729293	1.648187	-0.000195
 886	8.8058e+01	2.3707	34.287394	0.000689	6.891582	1.167466	-0.000138
 887	8.8157e+01	2.3502	34.097648	0.000953	9.526599	1.613850	-0.000191
 888	8.8257e+01	2.3305	33.992683	0.000527	5.270034	0.892768	-0.000105
 889	8.8356e+01	2.3116	33.802938	0.000953	9.526599	1.613850	-0.000191
 890	8.8456e+01	2.2912	33.657601	0.000730	7.296969	1.236140	-0.000146
 891	8.8555e+01	2.2709	33.492078	0.000831	8.310437	1.407826	-0.000166
 892	8.8654e+01	2.2507	33.294258	0.000993	9.931986	1.682524	-0.000199
 893	8.8754e+01	2.2308	33.169107	0.000628	6.283501	1.064454	-0.000126
 894	8.8853e+01	2.2105	33.060105	0.000547	5.472727	0.927105	-0.000110
 895	8.8953e+01	2.1912	32.878433	0.000912	9.121212	1.545175	-0.000183
 896	8.9052e+01	2.1714	32.716948	0.000811	8.107744	1.373489	-0.000162
 897	8.9152e+01	2.1523	32.547388	0.000851	8.513131	1.442163	-0.000170
 898	8.9251e+01	2.1308	32.393977	0.000770	7.702357	1.304815	-0.000154
 899	8.9351e+01	2.1112	32.272863	0.000608	6.080808	1.030117	-0.000122
 900	8.9451e+01	2.0904	32.058895	0.001074	10.742761	1.819873	-0.000215
 901	8.9550e+01	2.0716	31.881261	0.000892	8.918518	1.510838	-0.000179
 902	8.9650e+01	2.0527	31.780333	0.000507	5.067340	0.858431	-0.000101
 903	8.9749e+01	2.0318	31.602699	0.000892	8.918518	1.510838	-0.000179
 904	8.9849e+01	2.0109	31.425065	0.000892	8.918518	1.510838	-0.000179
 905	8.9948e+01	1.9913	31.283765	0.000709	7.094276	1.201803	-0.000142
 906	9.0047e+01	1.9719	31.130354	0.000770	7.702357	1.304815	-0.000154
 907	9.0147e+01	1.9523	30.964831	0.000831	8.310437	1.407826	-0.000166
 908	9.0246e+01	1.9317	30.799309	0.000831	8.310437	1.407826	-0.000166
 909	9.0346e+01	1.9127	30.597452	0.001013	10.134680	1.716861	-0.000203
 910	9.0445e+01	1.8919	30.492486	0.000527	5.270034	0.892768	-0.000105
 911	9.0545e+01	1.8729	30.314852	0.000892	8.918518	1.510838	-0.000179
 912	9.0644e+01	1.8519	30.125107	0.000953	9.526599	1.613850	-0.000191
 913	9.0744e+01	1.8326	29.967659	0.000791	7.905050	1.339152	-0.000158
 914	9.0844e+01	1.8122	29.814247	0.000770	7.702357	1.304815	-0.000154
 915	9.0943e+01	1.7916	29.620465	0.000973	9.729293	1.648187	-0.000195
 916	9.1043e+01	1.7728	29.507425	0.000568	5.675421	0.961442	-0.000114
 917	9.1142e+01	1.7527	29.362088	0.000730	7.296969	1.236140	-0.000146
 918	9.1242e+01	1.7324	29.119860	0.001216	12.161616	2.060233	-0.000243
 919	9.1341e+01	1.7128	28.994709	0.000628	6.283501	1.064454	-0.000126
 920	9.1441e+01	1.6930	28.841298	0.000770	7.702357	1.304815	-0.000154
 921	9.1540e+01	1.6734	28.683849	0.000791	7.905050	1.339152	-0.000158
 922	9.1639e+01	1.6531	28.510253	0.000872	8.715825	1.476501	-0.000174
 923	9.1739e+01	1.6338	28.336656	0.000872	8.715825	1.476501	-0.000174
 924	9.1838e+01	1.6130	28.171133	0.000831	8.310437	1.407826	-0.000166
 925	9.1938e+01	1.5939	27.997536	0.000872	8.715825	1.476501	-0.000174
 926	9.2037e+01	1.5735	27.852199	0.000730	7.296969	1.236140	-0.000146
 927	9.2137e+01	1.5533	27.694751	0.000791	7.905050	1.339152	-0.000158
 928	9.2237e+01	1.5339	27.533266	0.000811	8.107744	1.373489	-0.000162
 929	9.2336e+01	1.5136	27.319298	0.001074	10.742761	1.819873	-0.000215
 930	9.2436e+01	1.4935	27.169924	0.000750	7.499663	1.270477	-0.000150
 931	9.2535e+01	1.4733	27.032661	0.000689	6.891582	1.167466	-0.000138
 932	9.2635e+01	1.4520	26.814656	0.001095	10.945454	1.854210	-0.000219
 933	9.2734e+01	1.4339	26.697579	0.000588	5.878114	0.995780	-0.000118
 934	9.2834e+01	1.4137	26.479573	0.001095	10.945454	1.854210	-0.000219
 935	9.2933e+01	1.3948	26.350385	0.000649	6.486195	1.098791	-0.000130
 936	9.3032e+01	1.3734	26.180825	0.000851	8.513131	1.442163	-0.000170
 937	9.3132e+01	1.3535	26.019340	0.000811	8.107744	1.373489	-0.000162
 938	9.3231e+01	1.3347	25.825557	0.000973	9.729293	1.648187	-0.000195
 939	9.3331e+01	1.3148	25.696369	0.000649	6.486195	1.098791	-0.000130
 940	9.3430e+01	1.2944	25.498549	0.000993	9.931986	1.682524	-0.000199
 941	9.3530e+01	1.2742	25.357250	0.000709	7.094276	1.201803	-0.000142
 942	9.3629e+01	1.2552	25.203838	0.000770	7.702357	1.304815	-0.000154
 943	9.3729e+01	1.2351	25.038316	0.000831	8.310437	1.407826	-0.000166
 944	9.3829e+01	1.2163	24.864719	0.000872	8.715825	1.476501	-0.000174
 945	9.3928e+01	1.1965	24.691122	0.000872	8.715825	1.476501	-0.000174
 946	9.4028e+01	1.1763	24.541748	0.000750	7.499663	1.270477	-0.000150
 947	9.4127e+01	1.1549	24.356040	0.000932	9.323905	1.579512	-0.000187
 948	9.4227e+01	1.1355	24.198592	0.000791	7.905050	1.339152	-0.000158
 949	9.4326e+01	1.1156	24.004809	0.000973	9.729293	1.648187	-0.000195
 950	9.4425e+01	1.0960	23.855435	0.000750	7.499663	1.270477	-0.000150
 951	9.4525e+01	1.0756	23.689913	0.000831	8.310437	1.407826	-0.000166
 952	9.4624e+01	1.0569	23.496130	0.000973	9.729293	1.648187	-0.000195
 953	9.4724e+01	1.0362	23.334645	0.000811	8.107744	1.373489	-0.000162
 954	9.4823e+01	1.0161	23.140862	0.000973	9.729293	1.648187	-0.000195
 955	9.4923e+01	0.9956	23.007637	0.000669	6.688889	1.133128	-0.000134
 956	9.5022e+01	0.9765	22.830003	0.000892	8.918518	1.510838	-0.000179
 957	9.5122e+01	0.9555	22.648331	0.000912	9.121212	1.545175	-0.000183
 958	9.5222e+01	0.9366	22.482809	0.000831	8.310437	1.407826	-0.000166
 959	9.5321e+01	0.9174	22.321323	0.000811	8.107744	1.373489	-0.000162
 960	9.5421e+01	0.8965	22.147727	0.000872	8.715825	1.476501	-0.000174
 961	9.5520e+01	0.8767	21.933758	0.001074	10.742761	1.819873	-0.000215
 962	9.5620e+01	0.8562	21.772273	0.000811	8.107744	1.373489	-0.000162
 963	9.5719e+01	0.8364	21.639048	0.000669	6.688889	1.133128	-0.000134
 964	9.5819e+01	0.8166	21.477562	0.000811	8.107744	1.373489	-0.000162
 965	9.5918e+01	0.7961	21.275705	0.001013	10.134680	1.716861	-0.000203
 966	9.6017e+01	0.7775	21.098071	0.000892	8.918518	1.510838	-0.000179
 967	9.6117e+01	0.7571	20.924475	0.000872	8.715825	1.476501	-0.000174
 968	9.6216e+01	0.7364	20.775101	0.000750	7.499663	1.270477	-0.000150
 969	9.6316e+01	0.7171	20.609578	0.000831	8.310437	1.407826	-0.000166
 970	9.6415e+01	0.6966	20.419833	0.000953	9.526599	1.613850	-0.000191
 971	9.6515e+01	0.6767	20.254310	0.000831	8.310437	1.407826	-0.000166
 972	9.6615e+01	0.6573	20.080713	0.000872	8.715825	1.476501	-0.000174
 973	9.6714e+01	0.6371	19.919228	0.000811	8.107744	1.373489	-0.000162
 974	9.6814e+01	0.6177	19.693148	0.001135	11.350841	1.922885	-0.000227
 975	9.6913e+01	0.5979	19.519551	0.000872	8.715825	1.476501	-0.000174
 976	9.7013e+01	0.5775	19.358066	0.000811	8.107744	1.373489	-0.000162
 977	9.7112e+01	0.5570	19.176395	0.000912	9.121212	1.545175	-0.000183
 978	9.7212e+01	0.5379	19.002798	0.000872	8.715825	1.476501	-0.000174
 979	9.7311e+01	0.5180	18.796904	0.001034	10.337373	1.751198	-0.000207
 980	9.7410e+01	0.4977	18.659641	0.000689	6.891582	1.167466	-0.000138
 981	9.7510e+01	0.4786	18.477970	0.000912	9.121212	1.545175	-0.000183
 982	9.7609e+01	0.4580	18.255928	0.001115	11.148148	1.888547	-0.000223
 983	9.7709e+01	0.4382	18.118665	0.000689	6.891582	1.167466	-0.000138
 984	9.7808e+01	0.4176	17.973328	0.000730	7.296969	1.236140	-0.000146
 985	9.7908e+01	0.3989	17.747249	0.001135	11.350841	1.922885	-0.000227
 986	9.8007e+01	0.3783	17.618060	0.000649	6.486195	1.098791	-0.000130
 987	9.8107e+01	0.3584	17.400055	0.001095	10.945454	1.854210	-0.000219
 988	9.8207e+01	0.3379	17.250681	0.000750	7.499663	1.270477	-0.000150
 989	9.8306e+01	0.3182	17.044787	0.001034	10.337373	1.751198	-0.000207
 990	9.8406e+01	0.2989	16.875227	0.000851	8.513131	1.442163	-0.000170
 991	9.8505e+01	0.2782	16.709705	0.000831	8.310437	1.407826	-0.000166
 992	9.8605e+01	0.2595	16.491699	0.001095	10.945454	1.854210	-0.000219
 993	9.8704e+01	0.2393	16.350400	0.000709	7.094276	1.201803	-0.000142
 994	9.8803e+01	0.2177	16.188914	0.000811	8.107744	1.373489	-0.000162
 995	9.8903e+01	0.1988	15.966872	0.001115	11.148148	1.888547	-0.000223
 996	9.9002e+01	0.1783	15.777126	0.000953	9.526599	1.613850	-0.000191
 997	9.9102e+01	0.1599	15.631790	0.000730	7.296969	1.236140	-0.000146
 998	9.9201e+01	0.1387	15.446081	0.000932	9.323905	1.579512	-0.000187
 999	9.9301e+01	0.1195	15.260373	0.000932	9.323905	1.579512	-0.000187
1000	9.9400e+01	0.1000	15.127148	0.000669	6.688889	1.133128	-0.000134
1001	9.9500e+01	0.0795	14.905105	0.001115	11.148148	1.888547	-0.000223
1002	9.9600e+01	0.0593	14.767843	0.000689	6.891582	1.167466	-0.000138
1003	9.9699e+01	0.0390	14.586171	0.000912	9.121212	1.545175	-0.000183
1004	9.9799e+01	0.0198	14.384315	0.001013	10.134680	1.716861	-0.000203
1005	9.9898e+01	-0.0006	14.206681	0.000892	8.918518	1.510838	-0.000179
1006	9.9998e+01	-0.0194	14.049232	0.000791	7.905050	1.339152	-0.000158
1007	1.0010e+02	-0.0388	13.847376	0.001013	10.134680	1.716861	-0.000203
1008	1.0020e+02	-0.0588	13.698002	0.000750	7.499663	1.270477	-0.000150
1009	1.0030e+02	-0.0783	13.492108	0.001034	10.337373	1.751198	-0.000207
1010	1.0040e+02	-0.0986	13.330622	0.000811	8.107744	1.373489	-0.000162
1011	1.0050e+02	-0.1182	13.161063	0.000851	8.513131	1.442163	-0.000170
1012	1.0059e+02	-0.1382	12.959206	0.001013	10.134680	1.716861	-0.000203
1013	1.0069e+02	-0.1572	12.793683	0.000831	8.310437	1.407826	-0.000166
1014	1.0079e+02	-0.1781	12.575678	0.001095	10.945454	1.854210	-0.000219
1015	1.0089e+02	-0.1979	12.410155	0.000831	8.310437	1.407826	-0.000166
1016	1.0099e+02	-0.2180	12.236558	0.000872	8.715825	1.476501	-0.000174
1017	1.0109e+02	-0.2377	12.022590	0.001074	10.742761	1.819873	-0.000215
1018	1.0119e+02	-0.2577	11.853031	0.000851	8.513131	1.442163	-0.000170
1019	1.0129e+02	-0.2771	11.687508	0.000831	8.310437	1.407826	-0.000166
1020	1.0139e+02	-0.2970	11.481614	0.001034	10.337373	1.751198	-0.000207
1021	1.0149e+02	-0.3170	11.308017	0.000872	8.715825	1.476501	-0.000174
1022	1.0159e+02	-0.3384	11.126346	0.000912	9.121212	1.545175	-0.000183
1023	1.0169e+02	-0.3574	10.956786	0.000851	8.513131	1.442163	-0.000170
1024	1.0179e+02	-0.3772	10.742818	0.001074	10.742761	1.819873	-0.000215
1025	1.0189e+02	-0.3971	10.577296	0.000831	8.310437	1.407826	-0.000166
1026	1.0199e+02	-0.4168	10.371402	0.001034	10.337373	1.751198	-0.000207
1027	1.0209e+02	-0.4374	10.226065	0.000730	7.296969	1.236140	-0.000146
1028	1.0219e+02	-0.4572	9.983837	0.001216	12.161616	2.060233	-0.000243
1029	1.0229e+02	-0.4774	9.818314	0.000831	8.310437	1.407826	-0.000166
1030	1.0239e+02	-0.4979	9.636643	0.000912	9.121212	1.545175	-0.000183
1031	1.0248e+02	-0.5174	9.438823	0.000993	9.931986	1.682524	-0.000199
1032	1.0258e+02	-0.5370	9.220818	0.001095	10.945454	1.854210	-0.000219
1033	1.0268e+02	-0.5571	9.051258	0.000851	8.513131	1.442163	-0.000170
1034	1.0278e+02	-0.5766	8.909959	0.000709	7.094276	1.201803	-0.000142
1035	1.0288e+02	-0.5963	8.708102	0.001013	10.134680	1.716861	-0.000203
1036	1.0298e+02	-0.6163	8.534505	0.000872	8.715825	1.476501	-0.000174
1037	1.0308e+02	-0.6362	8.320537	0.001074	10.742761	1.819873	-0.000215
1038	1.0318e+02	-0.6567	8.163088	0.000791	7.905050	1.339152	-0.000158
1039	1.0328e+02	-0.6763	7.985454	0.000892	8.918518	1.510838	-0.000179
1040	1.0338e+02	-0.6966	7.771486	0.001074	10.742761	1.819873	-0.000215
1041	1.0348e+02	-0.7158	7.618075	0.000770	7.702357	1.304815	-0.000154
1042	1.0358e+02	-0.7353	7.404107	0.001074	10.742761	1.819873	-0.000215
1043	1.0368e+02	-0.7563	7.250696	0.000770	7.702357	1.304815	-0.000154
1044	1.0378e+02	-0.7756	7.036728	0.001074	10.742761	1.819873	-0.000215
1045	1.0388e+02	-0.7959	6.863131	0.000872	8.715825	1.476501	-0.000174
1046	1.0398e+02	-0.8163	6.673385	0.000953	9.526599	1.613850	-0.000191
1047	1.0408e+02	-0.8360	6.475566	0.000993	9.931986	1.682524	-0.000199
1048	1.0418e+02	-0.8558	6.293895	0.000912	9.121212	1.545175	-0.000183
1049	1.0428e+02	-0.8758	6.112224	0.000912	9.121212	1.545175	-0.000183
1050	1.0438e+02	-0.8946	5.958812	0.000770	7.702357	1.304815	-0.000154
1051	1.0447e+02	-0.9155	5.724658	0.001176	11.756229	1.991559	-0.000235
1052	1.0457e+02	-0.9354	5.615656	0.000547	5.472727	0.927105	-0.000110
1053	1.0467e+02	-0.9552	5.377465	0.001196	11.958922	2.025896	-0.000239
1054	1.0477e+02	-0.9752	5.179645	0.000993	9.931986	1.682524	-0.000199
1055	1.0487e+02	-0.9955	5.006048	0.000872	8.715825	1.476501	-0.000174
1056	1.0497e+02	-1.0143	4.771894	0.001176	11.756229	1.991559	-0.000235
1057	1.0507e+02	-1.0354	4.598298	0.000872	8.715825	1.476501	-0.000174
1058	1.0517e+02	-1.0552	4.456998	0.000709	7.094276	1.201803	-0.000142
1059	1.0527e+02	-1.0749	4.279364	0.000892	8.918518	1.510838	-0.000179
1060	1.0537e+02	-1.0947	4.065396	0.001074	10.742761	1.819873	-0.000215
1061	1.0547e+02	-1.1145	3.875650	0.000953	9.526599	1.613850	-0.000191
1062	1.0557e+02	-1.1349	3.685905	0.000953	9.526599	1.613850	-0.000191
1063	1.0567e+02	-1.1551	3.475974	0.001054	10.540067	1.785536	-0.000211
1064	1.0577e+02	-1.1747	3.306414	0.000851	8.513131	1.442163	-0.000170
1065	1.0587e+02	-1.1942	3.116669	0.000953	9.526599	1.613850	-0.000191
1066	1.0597e+02	-1.2148	2.951146	0.000831	8.310437	1.407826	-0.000166
1067	1.0607e+02	-1.2347	2.721029	0.001155	11.553535	1.957222	-0.000231
1068	1.0617e+02	-1.2543	2.591841	0.000649	6.486195	1.098791	-0.000130
1069	1.0627e+02	-1.2733	2.369799	0.001115	11.148148	1.888547	-0.000223
1070	1.0637e+02	-1.2944	2.200239	0.000851	8.513131	1.442163	-0.000170
1071	1.0647e+02	-1.3134	1.986271	0.001074	10.742761	1.819873	-0.000215
1072	1.0656e+02	-1.3348	1.820748	0.000831	8.310437	1.407826	-0.000166
1073	1.0666e+02	-1.3528	1.614854	0.001034	10.337373	1.751198	-0.000207
1074	1.0676e+02	-1.3730	1.408960	0.001034	10.337373	1.751198	-0.000207
1075	1.0686e+02	-1.3934	1.243438	0.000831	8.310437	1.407826	-0.000166
1076	1.0696e+02	-1.4133	1.085990	0.000791	7.905050	1.339152	-0.000158
1077	1.0706e+02	-1.4333	0.884133	0.001013	10.134680	1.716861	-0.000203
1078	1.0716e+02	-1.4536	0.706499	0.000892	8.918518	1.510838	-0.000179
1079	1.0726e+02	-1.4729	0.496568	0.001054	10.540067	1.785536	-0.000211
1080	1.0736e+02	-1.4940	0.314897	0.000912	9.121212	1.545175	-0.000183
1081	1.0746e+02	-1.5130	0.137263	0.000892	8.918518	1.510838	-0.000179
1082	1.0756e+02	-1.5334	-0.092854	0.001155	11.553535	1.957222	-0.000231
1083	1.0766e+02	-1.5524	-0.242228	0.000750	7.499663	1.270477	-0.000150
1084	1.0776e+02	-1.5728	-0.448122	0.001034	10.337373	1.751198	-0.000207
1085	1.0786e+02	-1.5929	-0.609607	0.000811	8.107744	1.373489	-0.000162
1086	1.0796e+02	-1.6138	-0.795316	0.000932	9.323905	1.579512	-0.000187
1087	1.0806e+02	-1.6329	-1.005247	0.001054	10.540067	1.785536	-0.000211
1088	1.0816e+02	-1.6528	-1.190955	0.000932	9.323905	1.579512	-0.000187
1089	1.0826e+02	-1.6713	-1.384738	0.000973	9.729293	1.648187	-0.000195
1090	1.0836e+02	-1.6926	-1.586594	0.001013	10.134680	1.716861	-0.000203
1091	1.0845e+02	-1.7121	-1.744043	0.000791	7.905050	1.339152	-0.000158
1092	1.0855e+02	-1.7322	-1.974159	0.001155	11.553535	1.957222	-0.000231
1093	1.0865e+02	-1.7515	-2.131608	0.000791	7.905050	1.339152	-0.000158
1094	1.0875e+02	-1.7722	-2.321353	0.000953	9.526599	1.613850	-0.000191
1095	1.0885e+02	-1.7924	-2.490913	0.000851	8.513131	1.442163	-0.000170
1096	1.0895e+02	-1.8127	-2.704881	0.001074	10.742761	1.819873	-0.000215
1097	1.0905e+02	-1.8317	-2.874441	0.000851	8.513131	1.442163	-0.000170
1098	1.0915e+02	-1.8514	-3.088409	0.001074	10.742761	1.819873	-0.000215
1099	1.0925e+02	-1.8713	-3.233746	0.000730	7.296969	1.236140	-0.000146
1100	1.0935e+02	-1.8913	-3.431565	0.000993	9.931986	1.682524	-0.000199
1101	1.0945e+02	-1.9116	-3.601125	0.000851	8.513131	1.442163	-0.000170
1102	1.0955e+02	-1.9313	-3.798945	0.000993	9.931986	1.682524	-0.000199
1103	1.0965e+02	-1.9515	-3.992727	0.000973	9.729293	1.648187	-0.000195
1104	1.0975e+02	-1.9708	-4.190547	0.000993	9.931986	1.682524	-0.000199
1105	1.0985e+02	-1.9906	-4.384329	0.000973	9.729293	1.648187	-0.000195
1106	1.0995e+02	-2.0107	-4.561963	0.000892	8.918518	1.510838	-0.000179
1107	1.1005e+02	-2.0324	-4.739597	0.000892	8.918518	1.510838	-0.000179
1108	1.1015e+02	-2.0511	-4.925306	0.000932	9.323905	1.579512	-0.000187
1109	1.1025e+02	-2.0715	-5.106977	0.000912	9.121212	1.545175	-0.000183
1110	1.1035e+02	-2.0862	-5.288648	0.000912	9.121212	1.545175	-0.000183
1111	1.1044e+02	-2.1105	-5.482430	0.000973	9.729293	1.648187	-0.000195
1112	1.1054e+02	-2.1304	-5.635841	0.000770	7.702357	1.304815	-0.000154
1113	1.1064e+02	-2.1510	-5.781178	0.000730	7.296969	1.236140	-0.000146
1114	1.1074e+02	-2.1712	-6.039555	0.001297	12.972390	2.197582	-0.000260
1115	1.1084e+02	-2.1911	-6.229300	0.000953	9.526599	1.613850	-0.000191
1116	1.1094e+02	-2.2095	-6.410972	0.000912	9.121212	1.545175	-0.000183
1117	1.1104e+02	-2.2300	-6.572457	0.000811	8.107744	1.373489	-0.000162
1118	1.1114e+02	-2.2507	-6.786425	0.001074	10.742761	1.819873	-0.000215
1119	1.1124e+02	-2.2697	-6.931762	0.000730	7.296969	1.236140	-0.000146
1120	1.1134e+02	-2.2897	-7.161879	0.001155	11.553535	1.957222	-0.000231
1121	1.1144e+02	-2.3106	-7.307216	0.000730	7.296969	1.236140	-0.000146
1122	1.1154e+02	-2.3299	-7.513110	0.001034	10.337373	1.751198	-0.000207
1123	1.1164e+02	-2.3499	-7.694781	0.000912	9.121212	1.545175	-0.000183
1124	1.1174e+02	-2.3697	-7.864340	0.000851	8.513131	1.442163	-0.000170
1125	1.1184e+02	-2.3894	-8.005640	0.000709	7.094276	1.201803	-0.000142
1126	1.1194e+02	-2.4084	-8.255943	0.001257	12.567003	2.128908	-0.000252
1127	1.1204e+02	-2.4300	-8.441651	0.000932	9.323905	1.579512	-0.000187
1128	1.1214e+02	-2.4502	-8.627359	0.000932	9.323905	1.579512	-0.000187
1129	1.1224e+02	-2.4695	-8.772696	0.000730	7.296969	1.236140	-0.000146
1130	1.1234e+02	-2.4895	-8.958404	0.000932	9.323905	1.579512	-0.000187
1131	1.1244e+02	-2.5095	-9.107778	0.000750	7.499663	1.270477	-0.000150
1132	1.1253e+02	-2.5286	-9.345969	0.001196	11.958922	2.025896	-0.000239
1133	1.1263e+02	-2.5491	-9.523603	0.000892	8.918518	1.510838	-0.000179
1134	1.1273e+02	-2.5690	-9.668940	0.000730	7.296969	1.236140	-0.000146
1135	1.1283e+02	-2.5885	-9.874834	0.001034	10.337373	1.751198	-0.000207
1136	1.1293e+02	-2.6087	-10.052468	0.000892	8.918518	1.510838	-0.000179
1137	1.1303e+02	-2.6283	-10.246251	0.000973	9.729293	1.648187	-0.000195
1138	1.1313e+02	-2.6483	-10.379476	0.000669	6.688889	1.133128	-0.000134
1139	1.1323e+02	-2.6681	-10.609593	0.001155	11.553535	1.957222	-0.000231
1140	1.1333e+02	-2.6881	-10.750892	0.000709	7.094276	1.201803	-0.000142
1141	1.1343e+02	-2.7074	-10.964861	0.001074	10.742761	1.819873	-0.000215
1142	1.1353e+02	-2.7286	-11.142495	0.000892	8.918518	1.510838	-0.000179
1143	1.1363e+02	-2.7480	-11.348389	0.001034	10.337373	1.751198	-0.000207
1144	1.1373e+02	-2.7692	-11.521985	0.000872	8.715825	1.476501	-0.000174
1145	1.1383e+02	-2.7887	-11.695582	0.000872	8.715825	1.476501	-0.000174
1146	1.1393e+02	-2.8085	-11.885328	0.000953	9.526599	1.613850	-0.000191
1147	1.1403e+02	-2.8278	-12.062962	0.000892	8.918518	1.510838	-0.000179
1148	1.1413e+02	-2.8473	-12.260781	0.000993	9.931986	1.682524	-0.000199
1149	1.1423e+02	-2.8676	-12.406118	0.000730	7.296969	1.236140	-0.000146
1150	1.1433e+02	-2.8877	-12.624123	0.001095	10.945454	1.854210	-0.000219
1151	1.1442e+02	-2.9077	-12.797720	0.000872	8.715825	1.476501	-0.000174
1152	1.1452e+02	-2.9278	-12.963243	0.000831	8.310437	1.407826	-0.000166
1153	1.1462e+02	-2.9470	-13.181248	0.001095	10.945454	1.854210	-0.000219
1154	1.1472e+02	-2.9678	-13.334659	0.000770	7.702357	1.304815	-0.000154
1155	1.1482e+02	-2.9872	-13.504219	0.000851	8.513131	1.442163	-0.000170
1156	1.1492e+02	-3.0067	-13.698002	0.000973	9.729293	1.648187	-0.000195
1157	1.1502e+02	-3.0276	-13.871598	0.000872	8.715825	1.476501	-0.000174
1158	1.1512e+02	-3.0476	-14.057307	0.000932	9.323905	1.579512	-0.000187
1159	1.1522e+02	-3.0672	-14.243015	0.000932	9.323905	1.579512	-0.000187
1160	1.1532e+02	-3.0874	-14.420649	0.000892	8.918518	1.510838	-0.000179
1161	1.1542e+02	-3.1066	-14.610394	0.000953	9.526599	1.613850	-0.000191
1162	1.1552e+02	-3.1276	-14.767843	0.000791	7.905050	1.339152	-0.000158
1163	1.1562e+02	-3.1474	-14.953551	0.000932	9.323905	1.579512	-0.000187
1164	1.1572e+02	-3.1669	-15.187705	0.001176	11.756229	1.991559	-0.000235
1165	1.1582e+02	-3.1866	-15.316893	0.000649	6.486195	1.098791	-0.000130
1166	1.1592e+02	-3.2065	-15.498564	0.000912	9.121212	1.545175	-0.000183
1167	1.1602e+02	-3.2257	-15.708495	0.001054	10.540067	1.785536	-0.000211
1168	1.1612e+02	-3.2458	-15.865943	0.000791	7.905050	1.339152	-0.000158
1169	1.1622e+02	-3.2661	-16.039540	0.000872	8.715825	1.476501	-0.000174
1170	1.1632e+02	-3.2854	-16.201026	0.000811	8.107744	1.373489	-0.000162
1171	1.1642e+02	-3.3064	-16.362511	0.000811	8.107744	1.373489	-0.000162
1172	1.1651e+02	-3.3257	-16.532071	0.000851	8.513131	1.442163	-0.000170
1173	1.1661e+02	-3.3452	-16.746039	0.001074	10.742761	1.819873	-0.000215
1174	1.1671e+02	-3.3664	-16.943859	0.000993	9.931986	1.682524	-0.000199
1175	1.1681e+02	-3.3856	-17.085158	0.000709	7.094276	1.201803	-0.000142
1176	1.1691e+02	-3.4056	-17.242607	0.000791	7.905050	1.339152	-0.000158
1177	1.1701e+02	-3.4254	-17.416204	0.000872	8.715825	1.476501	-0.000174
1178	1.1711e+02	-3.4453	-17.585763	0.000851	8.513131	1.442163	-0.000170
1179	1.1721e+02	-3.4656	-17.763397	0.000892	8.918518	1.510838	-0.000179
1180	1.1731e+02	-3.4856	-17.941031	0.000892	8.918518	1.510838	-0.000179
1181	1.1741e+02	-3.5049	-18.159037	0.001095	10.945454	1.854210	-0.000219
1182	1.1751e+02	-3.5259	-18.288225	0.000649	6.486195	1.098791	-0.000130
1183	1.1761e+02	-3.5446	-18.473933	0.000932	9.323905	1.579512	-0.000187
1184	1.1771e+02	-3.5652	-18.647530	0.000872	8.715825	1.476501	-0.000174
1185	1.1781e+02	-3.5846	-18.861498	0.001074	10.742761	1.819873	-0.000215
1186	1.1791e+02	-3.6047	-19.043169	0.000912	9.121212	1.545175	-0.000183
1187	1.1801e+02	-3.6252	-19.180432	0.000689	6.891582	1.167466	-0.000138
1188	1.1811e+02	-3.6447	-19.378252	0.000993	9.931986	1.682524	-0.000199
1189	1.1821e+02	-3.6648	-19.588183	0.001054	10.540067	1.785536	-0.000211
1190	1.1831e+02	-3.6852	-19.753705	0.000831	8.310437	1.407826	-0.000166
1191	1.1841e+02	-3.7048	-19.907116	0.000770	7.702357	1.304815	-0.000154
1192	1.1850e+02	-3.7250	-20.088787	0.000912	9.121212	1.545175	-0.000183
1193	1.1860e+02	-3.7445	-20.326978	0.001196	11.958922	2.025896	-0.000239
1194	1.1870e+02	-3.7644	-20.431944	0.000527	5.270034	0.892768	-0.000105
1195	1.1880e+02	-3.7842	-20.605541	0.000872	8.715825	1.476501	-0.000174
1196	1.1890e+02	-3.8039	-20.783175	0.000892	8.918518	1.510838	-0.000179
1197	1.1900e+02	-3.8237	-20.997143	0.001074	10.742761	1.819873	-0.000215
1198	1.1910e+02	-3.8445	-21.114220	0.000588	5.878114	0.995780	-0.000118
1199	1.1920e+02	-3.8635	-21.312040	0.000993	9.931986	1.682524	-0.000199
1200	1.1930e+02	-3.8834	-21.542156	0.001155	11.553535	1.957222	-0.000231
1201	1.1940e+02	-3.9037	-21.687493	0.000730	7.296969	1.236140	-0.000146
1202	1.1950e+02	-3.9238	-21.828793	0.000709	7.094276	1.201803	-0.000142
1203	1.1960e+02	-3.9433	-22.034687	0.001034	10.337373	1.751198	-0.000207
1204	1.1970e+02	-3.9636	-22.220395	0.000932	9.323905	1.579512	-0.000187
1205	1.1980e+02	-3.9828	-22.385918	0.000831	8.310437	1.407826	-0.000166
1206	1.1990e+02	-4.0031	-22.527217	0.000709	7.094276	1.201803	-0.000142
1207	1.2000e+02	-4.0231	-22.700814	0.000872	8.715825	1.476501	-0.000174
1208	1.2010e+02	-4.0437	-22.918820	0.001095	10.945454	1.854210	-0.000219
1209	1.2020e+02	-4.0631	-23.080305	0.000811	8.107744	1.373489	-0.000162
1210	1.2030e+02	-4.0833	-23.217568	0.000689	6.891582	1.167466	-0.000138
1211	1.2039e+02	-4.1026	-23.423462	0.001034	10.337373	1.751198	-0.000207
1212	1.2049e+02	-4.1236	-23.580910	0.000791	7.905050	1.339152	-0.000158
1213	1.2059e+02	-4.1428	-23.726247	0.000730	7.296969	1.236140	-0.000146
1214	1.2069e+02	-4.1617	-23.920029	0.000973	9.729293	1.648187	-0.000195
1215	1.2079e+02	-4.1824	-24.053255	0.000669	6.688889	1.133128	-0.000134
1216	1.2089e+02	-4.2024	-24.303557	0.001257	12.567003	2.128908	-0.000252
1217	1.2099e+02	-4.2212	-24.408523	0.000527	5.270034	0.892768	-0.000105
1218	1.2109e+02	-4.2427	-24.606342	0.000993	9.931986	1.682524	-0.000199
1219	1.2119e+02	-4.2615	-24.747642	0.000709	7.094276	1.201803	-0.000142
1220	1.2129e+02	-4.2821	-25.022167	0.001378	13.783165	2.334931	-0.000276
1221	1.2139e+02	-4.3031	-25.110984	0.000446	4.459259	0.755419	-0.000089
1222	1.2149e+02	-4.3221	-25.337064	0.001135	11.350841	1.922885	-0.000227
1223	1.2159e+02	-4.3430	-25.490475	0.000770	7.702357	1.304815	-0.000154
1224	1.2169e+02	-4.3622	-25.611589	0.000608	6.080808	1.030117	-0.000122
1225	1.2179e+02	-4.3823	-25.805372	0.000973	9.729293	1.648187	-0.000195
1226	1.2189e+02	-4.4029	-26.003191	0.000993	9.931986	1.682524	-0.000199
1227	1.2199e+02	-4.4217	-26.176788	0.000872	8.715825	1.476501	-0.000174
1228	1.2209e+02	-4.4418	-26.342311	0.000831	8.310437	1.407826	-0.000166
1229	1.2219e+02	-4.4623	-26.499759	0.000791	7.905050	1.339152	-0.000158
1230	1.2229e+02	-4.4815	-26.689504	0.000953	9.526599	1.613850	-0.000191
1231	1.2239e+02	-4.5024	-26.842916	0.000770	7.702357	1.304815	-0.000154
1232	1.2248e+02	-4.5218	-27.000364	0.000791	7.905050	1.339152	-0.000158
1233	1.2258e+02	-4.5410	-27.165886	0.000831	8.310437	1.407826	-0.000166
1234	1.2268e+02	-4.5616	-27.327372	0.000811	8.107744	1.373489	-0.000162
1235	1.2278e+02	-4.5813	-27.541340	0.001074	10.742761	1.819873	-0.000215
1236	1.2288e+02	-4.6014	-27.654380	0.000568	5.675421	0.961442	-0.000114
1237	1.2298e+02	-4.6213	-27.832014	0.000892	8.918518	1.510838	-0.000179
1238	1.2308e+02	-4.6423	-28.017722	0.000932	9.323905	1.579512	-0.000187
1239	1.2318e+02	-4.6613	-28.154985	0.000689	6.891582	1.167466	-0.000138
1240	1.2328e+02	-4.6805	-28.360879	0.001034	10.337373	1.751198	-0.000207
1241	1.2338e+02	-4.7012	-28.494104	0.000669	6.688889	1.133128	-0.000134
1242	1.2348e+02	-4.7220	-28.659627	0.000831	8.310437	1.407826	-0.000166
1243	1.2358e+02	-4.7408	-28.857446	0.000993	9.931986	1.682524	-0.000199
1244	1.2368e+02	-4.7609	-29.022969	0.000831	8.310437	1.407826	-0.000166
1245	1.2378e+02	-4.7800	-29.172343	0.000750	7.499663	1.270477	-0.000150
1246	1.2388e+02	-4.8001	-29.358051	0.000932	9.323905	1.579512	-0.000187
1247	1.2398e+02	-4.8196	-29.523574	0.000831	8.310437	1.407826	-0.000166
1248	1.2408e+02	-4.8401	-29.709282	0.000932	9.323905	1.579512	-0.000187
1249	1.2418e+02	-4.8608	-29.862693	0.000770	7.702357	1.304815	-0.000154
1250	1.2428e+02	-4.8801	-30.032253	0.000851	8.513131	1.442163	-0.000170
1251	1.2438e+02	-4.9004	-30.161441	0.000649	6.486195	1.098791	-0.000130
1252	1.2447e+02	-4.9200	-30.383484	0.001115	11.148148	1.888547	-0.000223
1253	1.2457e+02	-4.9400	-30.500561	0.000588	5.878114	0.995780	-0.000118
1254	1.2467e+02	-4.9602	-30.710492	0.001054	10.540067	1.785536	-0.000211
1255	1.2477e+02	-4.9797	-30.843717	0.000669	6.688889	1.133128	-0.000134
1256	1.2487e+02	-5.0005	-31.013277	0.000851	8.513131	1.442163	-0.000170
1257	1.2497e+02	-5.0195	-31.170725	0.000791	7.905050	1.339152	-0.000158
1258	1.2507e+02	-5.0395	-31.356433	0.000932	9.323905	1.579512	-0.000187
1259	1.2517e+02	-5.0600	-31.521956	0.000831	8.310437	1.407826	-0.000166
1260	1.2527e+02	-5.0787	-31.671330	0.000750	7.499663	1.270477	-0.000150
1261	1.2537e+02	-5.0998	-31.828778	0.000791	7.905050	1.339152	-0.000158
1262	1.2547e+02	-5.1194	-32.046783	0.001095	10.945454	1.854210	-0.000219
1263	1.2557e+02	-5.1395	-32.175972	0.000649	6.486195	1.098791	-0.000130
1264	1.2567e+02	-5.1593	-32.345532	0.000851	8.513131	1.442163	-0.000170
1265	1.2577e+02	-5.1794	-32.470683	0.000628	6.283501	1.064454	-0.000126
1266	1.2587e+02	-5.1990	-32.660428	0.000953	9.526599	1.613850	-0.000191
1267	1.2597e+02	-5.2188	-32.834025	0.000872	8.715825	1.476501	-0.000174
1268	1.2607e+02	-5.2386	-33.031845	0.000993	9.931986	1.682524	-0.000199
1269	1.2617e+02	-5.2583	-33.144884	0.000568	5.675421	0.961442	-0.000114
1270	1.2627e+02	-5.2780	-33.326556	0.000912	9.121212	1.545175	-0.000183
1271	1.2636e+02	-5.2982	-33.479967	0.000770	7.702357	1.304815	-0.000154
1272	1.2646e+02	-5.3183	-33.657601	0.000892	8.918518	1.510838	-0.000179
1273	1.2656e+02	-5.3381	-33.827160	0.000851	8.513131	1.442163	-0.000170
1274	1.2666e+02	-5.3589	-33.988646	0.000811	8.107744	1.373489	-0.000162
1275	1.2676e+02	-5.3783	-34.117834	0.000649	6.486195	1.098791	-0.000130
1276	1.2686e+02	-5.3983	-34.291431	0.000872	8.715825	1.476501	-0.000174
1277	1.2696e+02	-5.4179	-34.428694	0.000689	6.891582	1.167466	-0.000138
1278	1.2706e+02	-5.4375	-34.622476	0.000973	9.729293	1.648187	-0.000195
1279	1.2716e+02	-5.4585	-34.763776	0.000709	7.094276	1.201803	-0.000142
1280	1.2726e+02	-5.4782	-34.937373	0.000872	8.715825	1.476501	-0.000174
1281	1.2736e+02	-5.4980	-35.086747	0.000750	7.499663	1.270477	-0.000150
1282	1.2746e+02	-5.5176	-35.224009	0.000689	6.891582	1.167466	-0.000138
1283	1.2756e+02	-5.5377	-35.433940	0.001054	10.540067	1.785536	-0.000211
1284	1.2766e+02	-5.5577	-35.575240	0.000709	7.094276	1.201803	-0.000142
1285	1.2776e+02	-5.5767	-35.736726	0.000811	8.107744	1.373489	-0.000162
1286	1.2786e+02	-5.5969	-35.898211	0.000811	8.107744	1.373489	-0.000162
1287	1.2796e+02	-5.6192	-36.023362	0.000628	6.283501	1.064454	-0.000126
1288	1.2806e+02	-5.6372	-36.200996	0.000892	8.918518	1.510838	-0.000179
1289	1.2816e+02	-5.6573	-36.370556	0.000851	8.513131	1.442163	-0.000170
1290	1.2826e+02	-5.6773	-36.540116	0.000851	8.513131	1.442163	-0.000170
1291	1.2835e+02	-5.6969	-36.649118	0.000547	5.472727	0.927105	-0.000110
1292	1.2845e+02	-5.7166	-36.855012	0.001034	10.337373	1.751198	-0.000207
1293	1.2855e+02	-5.7369	-37.000349	0.000730	7.296969	1.236140	-0.000146
1294	1.2865e+02	-5.7571	-37.141649	0.000709	7.094276	1.201803	-0.000142
1295	1.2875e+02	-5.7773	-37.323320	0.000912	9.121212	1.545175	-0.000183
1296	1.2885e+02	-5.7973	-37.521140	0.000993	9.931986	1.682524	-0.000199
1297	1.2895e+02	-5.8168	-37.650328	0.000649	6.486195	1.098791	-0.000130
1298	1.2905e+02	-5.8362	-37.827962	0.000892	8.918518	1.510838	-0.000179
1299	1.2915e+02	-5.8568	-37.949076	0.000608	6.080808	1.030117	-0.000122
1300	1.2925e+02	-5.8762	-38.102487	0.000770	7.702357	1.304815	-0.000154
1301	1.2935e+02	-5.8951	-38.292232	0.000953	9.526599	1.613850	-0.000191
1302	1.2945e+02	-5.9167	-38.421421	0.000649	6.486195	1.098791	-0.000130
1303	1.2955e+02	-5.9352	-38.603092	0.000912	9.121212	1.545175	-0.000183
1304	1.2965e+02	-5.9565	-38.744392	0.000709	7.094276	1.201803	-0.000142
1305	1.2975e+02	-5.9752	-38.922026	0.000892	8.918518	1.510838	-0.000179
1306	1.2985e+02	-5.9952	-39.091585	0.000851	8.513131	1.442163	-0.000170
1307	1.2995e+02	-6.0161	-39.192514	0.000507	5.067340	0.858431	-0.000101
1308	1.3005e+02	-6.0357	-39.370148	0.000892	8.918518	1.510838	-0.000179
1309	1.3015e+02	-6.0555	-39.499336	0.000649	6.486195	1.098791	-0.000130
1310	1.3025e+02	-6.0754	-39.685044	0.000932	9.323905	1.579512	-0.000187
1311	1.3034e+02	-6.0956	-39.854604	0.000851	8.513131	1.442163	-0.000170
1312	1.3044e+02	-6.1157	-40.003978	0.000750	7.499663	1.270477	-0.000150
1313	1.3054e+02	-6.1356	-40.181612	0.000892	8.918518	1.510838	-0.000179
1314	1.3064e+02	-6.1560	-40.302726	0.000608	6.080808	1.030117	-0.000122
1315	1.3074e+02	-6.1746	-40.476323	0.000872	8.715825	1.476501	-0.000174
1316	1.3084e+02	-6.1960	-40.613586	0.000689	6.891582	1.167466	-0.000138
1317	1.3094e+02	-6.2153	-40.803331	0.000953	9.526599	1.613850	-0.000191
1318	1.3104e+02	-6.2360	-40.924445	0.000608	6.080808	1.030117	-0.000122
1319	1.3114e+02	-6.2552	-41.118227	0.000973	9.729293	1.648187	-0.000195
1320	1.3124e+02	-6.2749	-41.263564	0.000730	7.296969	1.236140	-0.000146
1321	1.3134e+02	-6.2944	-41.425050	0.000811	8.107744	1.373489	-0.000162
1322	1.3144e+02	-6.3146	-41.554238	0.000649	6.486195	1.098791	-0.000130
1323	1.3154e+02	-6.3342	-41.752058	0.000993	9.931986	1.682524	-0.000199
1324	1.3164e+02	-6.3540	-41.893358	0.000709	7.094276	1.201803	-0.000142
1325	1.3174e+02	-6.3744	-42.058880	0.000831	8.310437	1.407826	-0.000166
1326	1.3184e+02	-6.3939	-42.196143	0.000689	6.891582	1.167466	-0.000138
1327	1.3194e+02	-6.4145	-42.377814	0.000912	9.121212	1.545175	-0.000183
1328	1.3204e+02	-6.4340	-42.494891	0.000588	5.878114	0.995780	-0.000118
1329	1.3214e+02	-6.4539	-42.648302	0.000770	7.702357	1.304815	-0.000154
1330	1.3224e+02	-6.4746	-42.805750	0.000791	7.905050	1.339152	-0.000158
1331	1.3234e+02	-6.4941	-42.983384	0.000892	8.918518	1.510838	-0.000179
1332	1.3243e+02	-6.5141	-43.080275	0.000486	4.864646	0.824093	-0.000097
1333	1.3253e+02	-6.5338	-43.249835	0.000851	8.513131	1.442163	-0.000170
1334	1.3263e+02	-6.5530	-43.415358	0.000831	8.310437	1.407826	-0.000166
1335	1.3273e+02	-6.5736	-43.584917	0.000851	8.513131	1.442163	-0.000170
1336	1.3283e+02	-6.5935	-43.697957	0.000568	5.675421	0.961442	-0.000114
1337	1.3293e+02	-6.6141	-43.847331	0.000750	7.499663	1.270477	-0.000150
1338	1.3303e+02	-6.6333	-44.024965	0.000892	8.918518	1.510838	-0.000179
1339	1.3313e+02	-6.6533	-44.210673	0.000932	9.323905	1.579512	-0.000187
1340	1.3323e+02	-6.6745	-44.323713	0.000568	5.675421	0.961442	-0.000114
1341	1.3333e+02	-6.6934	-44.493273	0.000851	8.513131	1.442163	-0.000170
1342	1.3343e+02	-6.7139	-44.638610	0.000730	7.296969	1.236140	-0.000146
1343	1.3353e+02	-6.7334	-44.796058	0.000791	7.905050	1.339152	-0.000158
1344	1.3363e+02	-6.7529	-44.933321	0.000689	6.891582	1.167466	-0.000138
1345	1.3373e+02	-6.7723	-45.094806	0.000811	8.107744	1.373489	-0.000162
1346	1.3383e+02	-6.7923	-45.244180	0.000750	7.499663	1.270477	-0.000150
1347	1.3393e+02	-6.8134	-45.413740	0.000851	8.513131	1.442163	-0.000170
1348	1.3403e+02	-6.8323	-45.538891	0.000628	6.283501	1.064454	-0.000126
1349	1.3413e+02	-6.8526	-45.724599	0.000932	9.323905	1.579512	-0.000187
1350	1.3423e+02	-6.8725	-45.865899	0.000709	7.094276	1.201803	-0.000142
1351	1.3432e+02	-6.8930	-46.031422	0.000831	8.310437	1.407826	-0.000166
1352	1.3442e+02	-6.9125	-46.176759	0.000730	7.296969	1.236140	-0.000146
1353	1.3452e+02	-6.9321	-46.326133	0.000750	7.499663	1.270477	-0.000150
1354	1.3462e+02	-6.9526	-46.487618	0.000811	8.107744	1.373489	-0.000162
1355	1.3472e+02	-6.9724	-46.632955	0.000730	7.296969	1.236140	-0.000146
1356	1.3482e+02	-6.9917	-46.790403	0.000791	7.905050	1.339152	-0.000158
1357	1.3492e+02	-7.0123	-46.959963	0.000851	8.513131	1.442163	-0.000170
1358	1.3502e+02	-7.0319	-47.137597	0.000892	8.918518	1.510838	-0.000179
1359	1.3512e+02	-7.0513	-47.295045	0.000791	7.905050	1.339152	-0.000158
1360	1.3522e+02	-7.0717	-47.452493	0.000791	7.905050	1.339152	-0.000158
1361	1.3532e+02	-7.0905	-47.597830	0.000730	7.296969	1.236140	-0.000146
1362	1.3542e+02	-7.1121	-47.727019	0.000649	6.486195	1.098791	-0.000130
1363	1.3552e+02	-7.1317	-47.928875	0.001013	10.134680	1.716861	-0.000203
1364	1.3562e+02	-7.1518	-48.058064	0.000649	6.486195	1.098791	-0.000130
1365	1.3572e+02	-7.1709	-48.235698	0.000892	8.918518	1.510838	-0.000179
1366	1.3582e+02	-7.1916	-48.397183	0.000811	8.107744	1.373489	-0.000162
1367	1.3592e+02	-7.2115	-48.554632	0.000791	7.905050	1.339152	-0.000158
1368	1.3602e+02	-7.2311	-48.691894	0.000689	6.891582	1.167466	-0.000138
1369	1.3612e+02	-7.2504	-48.861454	0.000851	8.513131	1.442163	-0.000170
1370	1.3622e+02	-7.2711	-48.998716	0.000689	6.891582	1.167466	-0.000138
1371	1.3631e+02	-7.2914	-49.152128	0.000770	7.702357	1.304815	-0.000154
1372	1.3641e+02	-7.3103	-49.321687	0.000851	8.513131	1.442163	-0.000170
1373	1.3651e+02	-7.3299	-49.450876	0.000649	6.486195	1.098791	-0.000130
1374	1.3661e+02	-7.3509	-49.636584	0.000932	9.323905	1.579512	-0.000187
1375	1.3671e+02	-7.3725	-49.781921	0.000730	7.296969	1.236140	-0.000146
1376	1.3681e+02	-7.3903	-49.955518	0.000872	8.715825	1.476501	-0.000174
1377	1.3691e+02	-7.4106	-50.100855	0.000730	7.296969	1.236140	-0.000146
1378	1.3701e+02	-7.4303	-50.274451	0.000872	8.715825	1.476501	-0.000174
1379	1.3711e+02	-7.4493	-50.435937	0.000811	8.107744	1.373489	-0.000162
1380	1.3721e+02	-7.4710	-50.589348	0.000770	7.702357	1.304815	-0.000154
1381	1.3731e+02	-7.4908	-50.722573	0.000669	6.688889	1.133128	-0.000134
1382	1.3741e+02	-7.5114	-50.896170	0.000872	8.715825	1.476501	-0.000174
1383	1.3751e+02	-7.5305	-51.053619	0.000791	7.905050	1.339152	-0.000158
1384	1.3761e+02	-7.5497	-51.186844	0.000669	6.688889	1.133128	-0.000134
1385	1.3771e+02	-7.5695	-51.348329	0.000811	8.107744	1.373489	-0.000162
1386	1.3781e+02	-7.5897	-51.558261	0.001054	10.540067	1.785536	-0.000211
1387	1.3791e+02	-7.6085	-51.663226	0.000527	5.270034	0.892768	-0.000105
1388	1.3801e+02	-7.6293	-51.844897	0.000912	9.121212	1.545175	-0.000183
1389	1.3811e+02	-7.6488	-52.022531	0.000892	8.918518	1.510838	-0.000179
1390	1.3821e+02	-7.6688	-52.159794	0.000689	6.891582	1.167466	-0.000138
1391	1.3831e+02	-7.6889	-52.369725	0.001054	10.540067	1.785536	-0.000211
1392	1.3840e+02	-7.7095	-52.474690	0.000527	5.270034	0.892768	-0.000105
1393	1.3850e+02	-7.7283	-52.611953	0.000689	6.891582	1.167466	-0.000138
1394	1.3860e+02	-7.7486	-52.825921	0.001074	10.742761	1.819873	-0.000215
1395	1.3870e+02	-7.7682	-52.987407	0.000811	8.107744	1.373489	-0.000162
1396	1.3880e+02	-7.7890	-53.108521	0.000608	6.080808	1.030117	-0.000122
1397	1.3890e+02	-7.8082	-53.298266	0.000953	9.526599	1.613850	-0.000191
1398	1.3900e+02	-7.8281	-53.500123	0.001013	10.134680	1.716861	-0.000203
1399	1.3910e+02	-7.8477	-53.584903	0.000426	4.256566	0.721082	-0.000085
1400	1.3920e+02	-7.8688	-53.778685	0.000973	9.729293	1.648187	-0.000195
1401	1.3930e+02	-7.8882	-53.960356	0.000912	9.121212	1.545175	-0.000183
1402	1.3940e+02	-7.9083	-54.137990	0.000892	8.918518	1.510838	-0.000179
1403	1.3950e+02	-7.9288	-54.299476	0.000811	8.107744	1.373489	-0.000162
1404	1.3960e+02	-7.9477	-54.456924	0.000791	7.905050	1.339152	-0.000158
1405	1.3970e+02	-7.9684	-54.606298	0.000750	7.499663	1.270477	-0.000150
1406	1.3980e+02	-7.9878	-54.767783	0.000811	8.107744	1.373489	-0.000162
1407	1.3990e+02	-8.0078	-54.977714	0.001054	10.540067	1.785536	-0.000211
1408	1.4000e+02	-8.0276	-55.135163	0.000791	7.905050	1.339152	-0.000158
1409	1.4010e+02	-8.0475	-55.280500	0.000730	7.296969	1.236140	-0.000146
1410	1.4020e+02	-8.0669	-55.462171	0.000912	9.121212	1.545175	-0.000183
1411	1.4029e+02	-8.0872	-55.615582	0.000770	7.702357	1.304815	-0.000154
1412	1.4039e+02	-8.1075	-55.809364	0.000973	9.729293	1.648187	-0.000195
1413	1.4049e+02	-8.1266	-55.934516	0.000628	6.283501	1.064454	-0.000126
1414	1.4059e+02	-8.1479	-56.136372	0.001013	10.134680	1.716861	-0.000203
1415	1.4069e+02	-8.1674	-56.309969	0.000872	8.715825	1.476501	-0.000174
1416	1.4079e+02	-8.1874	-56.463380	0.000770	7.702357	1.304815	-0.000154
1417	1.4089e+02	-8.2078	-56.665237	0.001013	10.134680	1.716861	-0.000203
1418	1.4099e+02	-8.2266	-56.814611	0.000750	7.499663	1.270477	-0.000150
1419	1.4109e+02	-8.2468	-56.972060	0.000791	7.905050	1.339152	-0.000158
1420	1.4119e+02	-8.2671	-57.169879	0.000993	9.931986	1.682524	-0.000199
1421	1.4129e+02	-8.2860	-57.339439	0.000851	8.513131	1.442163	-0.000170
1422	1.4139e+02	-8.3066	-57.529184	0.000953	9.526599	1.613850	-0.000191
1423	1.4149e+02	-8.3262	-57.694707	0.000831	8.310437	1.407826	-0.000166
1424	1.4159e+02	-8.3464	-57.860229	0.000831	8.310437	1.407826	-0.000166
1425	1.4169e+02	-8.3658	-58.013641	0.000770	7.702357	1.304815	-0.000154
1426	1.4179e+02	-8.3865	-58.227609	0.001074	10.742761	1.819873	-0.000215
1427	1.4189e+02	-8.4062	-58.381020	0.000770	7.702357	1.304815	-0.000154
1428	1.4199e+02	-8.4261	-58.599025	0.001095	10.945454	1.854210	-0.000219
1429	1.4209e+02	-8.4457	-58.728214	0.000649	6.486195	1.098791	-0.000130
1430	1.4219e+02	-8.4663	-58.926033	0.000993	9.931986	1.682524	-0.000199
1431	1.4228e+02	-8.4863	-59.079444	0.000770	7.702357	1.304815	-0.000154
1432	1.4238e+02	-8.5058	-59.285338	0.001034	10.337373	1.751198	-0.000207
1433	1.4248e+02	-8.5254	-59.458935	0.000872	8.715825	1.476501	-0.000174
1434	1.4258e+02	-8.5461	-59.632532	0.000872	8.715825	1.476501	-0.000174
1435	1.4268e+02	-8.5654	-59.802092	0.000851	8.513131	1.442163	-0.000170
1436	1.4278e+02	-8.5861	-59.987800	0.000932	9.323905	1.579512	-0.000187
1437	1.4288e+02	-8.6064	-60.145248	0.000791	7.905050	1.339152	-0.000158
1438	1.4298e+02	-8.6255	-60.363254	0.001095	10.945454	1.854210	-0.000219
1439	1.4308e+02	-8.6447	-60.504553	0.000709	7.094276	1.201803	-0.000142
1440	1.4318e+02	-8.6652	-60.710447	0.001034	10.337373	1.751198	-0.000207
1441	1.4328e+02	-8.6850	-60.884044	0.000872	8.715825	1.476501	-0.000174
1442	1.4338e+02	-8.7047	-61.077827	0.000973	9.729293	1.648187	-0.000195
1443	1.4348e+02	-8.7247	-61.243349	0.000831	8.310437	1.407826	-0.000166
1444	1.4358e+02	-8.7450	-61.461354	0.001095	10.945454	1.854210	-0.000219
1445	1.4368e+02	-8.7639	-61.630914	0.000851	8.513131	1.442163	-0.000170
1446	1.4378e+02	-8.7846	-61.808548	0.000892	8.918518	1.510838	-0.000179
1447	1.4388e+02	-8.8049	-61.978108	0.000851	8.513131	1.442163	-0.000170
1448	1.4398e+02	-8.8245	-62.171890	0.000973	9.729293	1.648187	-0.000195
1449	1.4408e+02	-8.8440	-62.373747	0.001013	10.134680	1.716861	-0.000203
1450	1.4418e+02	-8.8651	-62.563493	0.000953	9.526599	1.613850	-0.000191
1451	1.4428e+02	-8.8849	-62.789572	0.001135	11.350841	1.922885	-0.000227
1452	1.4437e+02	-8.9032	-62.975280	0.000932	9.323905	1.579512	-0.000187
1453	1.4447e+02	-8.9234	-63.156951	0.000912	9.121212	1.545175	-0.000183
1454	1.4457e+02	-8.9432	-63.326511	0.000851	8.513131	1.442163	-0.000170
1455	1.4467e+02	-8.9633	-63.516257	0.000953	9.526599	1.613850	-0.000191
1456	1.4477e+02	-8.9835	-63.697928	0.000912	9.121212	1.545175	-0.000183
1457	1.4487e+02	-9.0044	-63.895747	0.000993	9.931986	1.682524	-0.000199
1458	1.4497e+02	-9.0240	-64.105678	0.001054	10.540067	1.785536	-0.000211
1459	1.4507e+02	-9.0433	-64.327721	0.001115	11.148148	1.888547	-0.000223
1460	1.4517e+02	-9.0625	-64.485169	0.000791	7.905050	1.339152	-0.000158
1461	1.4527e+02	-9.0825	-64.658766	0.000872	8.715825	1.476501	-0.000174
1462	1.4537e+02	-9.1034	-64.872734	0.001074	10.742761	1.819873	-0.000215
1463	1.4547e+02	-9.1235	-65.074591	0.001013	10.134680	1.716861	-0.000203
1464	1.4557e+02	-9.1427	-65.280485	0.001034	10.337373	1.751198	-0.000207
1465	1.4567e+02	-9.1624	-65.486379	0.001034	10.337373	1.751198	-0.000207
1466	1.4577e+02	-9.1823	-65.672087	0.000932	9.323905	1.579512	-0.000187
1467	1.4587e+02	-9.2036	-65.861832	0.000953	9.526599	1.613850	-0.000191
1468	1.4597e+02	-9.2231	-66.116172	0.001277	12.769697	2.163245	-0.000256
1469	1.4607e+02	-9.2426	-66.277657	0.000811	8.107744	1.373489	-0.000162
1470	1.4617e+02	-9.2622	-66.527960	0.001257	12.567003	2.128908	-0.000252
1471	1.4626e+02	-9.2825	-66.737891	0.001054	10.540067	1.785536	-0.000211
1472	1.4636e+02	-9.3025	-66.891302	0.000770	7.702357	1.304815	-0.000154
1473	1.4646e+02	-9.3221	-67.137567	0.001236	12.364309	2.094571	-0.000248
1474	1.4656e+02	-9.3427	-67.339424	0.001013	10.134680	1.716861	-0.000203
1475	1.4666e+02	-9.3620	-67.553392	0.001074	10.742761	1.819873	-0.000215
1476	1.4676e+02	-9.3823	-67.735063	0.000912	9.121212	1.545175	-0.000183
1477	1.4686e+02	-9.4022	-67.953069	0.001095	10.945454	1.854210	-0.000219
1478	1.4696e+02	-9.4220	-68.187223	0.001176	11.756229	1.991559	-0.000235
1479	1.4706e+02	-9.4424	-68.376968	0.000953	9.526599	1.613850	-0.000191
1480	1.4716e+02	-9.4608	-68.570751	0.000973	9.729293	1.648187	-0.000195
1481	1.4726e+02	-9.4823	-68.833164	0.001318	13.175084	2.231920	-0.000264
1482	1.4736e+02	-9.5014	-69.083467	0.001257	12.567003	2.128908	-0.000252
1483	1.4746e+02	-9.5215	-69.277249	0.000973	9.729293	1.648187	-0.000195
1484	1.4756e+02	-9.5416	-69.495255	0.001095	10.945454	1.854210	-0.000219
1485	1.4766e+02	-9.5609	-69.689037	0.000973	9.729293	1.648187	-0.000195
1486	1.4776e+02	-9.5821	-69.886857	0.000993	9.931986	1.682524	-0.000199
1487	1.4786e+02	-9.6011	-70.137159	0.001257	12.567003	2.128908	-0.000252
1488	1.4796e+02	-9.6216	-70.387462	0.001257	12.567003	2.128908	-0.000252
1489	1.4806e+02	-9.6405	-70.585281	0.000993	9.931986	1.682524	-0.000199
1490	1.4816e+02	-9.6611	-70.819435	0.001176	11.756229	1.991559	-0.000235
1491	1.4825e+02	-9.6814	-71.033403	0.001074	10.742761	1.819873	-0.000215
1492	1.4835e+02	-9.7017	-71.255446	0.001115	11.148148	1.888547	-0.000223
1493	1.4845e+02	-9.7208	-71.485563	0.001155	11.553535	1.957222	-0.000231
1494	1.4855e+02	-9.7408	-71.727791	0.001216	12.161616	2.060233	-0.000243
1495	1.4865e+02	-9.7614	-71.921573	0.000973	9.729293	1.648187	-0.000195
1496	1.4875e+02	-9.7810	-72.179950	0.001297	12.972390	2.197582	-0.000260
1497	1.4885e+02	-9.8010	-72.401992	0.001115	11.148148	1.888547	-0.000223
1498	1.4895e+02	-9.8206	-72.668443	0.001338	13.377777	2.266257	-0.000268
1499	1.4905e+02	-9.8401	-72.878374	0.001054	10.540067	1.785536	-0.000211
1500	1.4915e+02	-9.8601	-73.156937	0.001399	13.985858	2.369269	-0.000280
1501	1.4925e+02	-9.8801	-73.362831	0.001034	10.337373	1.751198	-0.000207
1502	1.4935e+02	-9.9002	-73.613133	0.001257	12.567003	2.128908	-0.000252
1503	1.4945e+02	-9.9203	-73.831138	0.001095	10.945454	1.854210	-0.000219
1504	1.4955e+02	-9.9405	-74.057218	0.001135	11.350841	1.922885	-0.000227
1505	1.4965e+02	-9.9606	-74.319632	0.001318	13.175084	2.231920	-0.000264
1506	1.4975e+02	-9.9799	-74.594157	0.001378	13.783165	2.334931	-0.000276
1507	1.4985e+02	-9.9994	-74.848497	0.001277	12.769697	2.163245	-0.000256
1508	1.4995e+02	-9.9799	-74.888868	-0.000203	-2.026936	-0.343372	-0.000041
1509	1.5005e+02	-9.9606	-74.969611	-0.000405	-4.053872	-0.686744	-0.000081
1510	1.5015e+02	-9.9394	-74.997871	-0.000142	-1.418855	-0.240361	-0.000028
1511	1.5025e+02	-9.9191	-75.074576	-0.000385	-3.851178	-0.652407	-0.000077
1512	1.5034e+02	-9.9005	-75.110910	-0.000182	-1.824242	-0.309035	-0.000037
1513	1.5044e+02	-9.8799	-75.155319	-0.000223	-2.229630	-0.377709	-0.000045
1514	1.5054e+02	-9.8604	-75.199727	-0.000223	-2.229630	-0.377709	-0.000045
1515	1.5064e+02	-9.8402	-75.232024	-0.000162	-1.621549	-0.274698	-0.000032
1516	1.5074e+02	-9.8206	-75.276433	-0.000223	-2.229630	-0.377709	-0.000045
1517	1.5084e+02	-9.7998	-75.280470	-0.000020	-0.202694	-0.034337	-0.000004
1518	1.5094e+02	-9.7812	-75.345064	-0.000324	-3.243098	-0.549396	-0.000065
1519	1.5104e+02	-9.7610	-75.345064	0.000000	0.000000	0.000000	0.000000
1520	1.5114e+02	-9.7400	-75.377361	-0.000162	-1.621549	-0.274698	-0.000032
1521	1.5124e+02	-9.7202	-75.421770	-0.000223	-2.229630	-0.377709	-0.000045
1522	1.5134e+02	-9.7008	-75.365250	0.000284	2.837710	0.480721	0.000057
1523	1.5144e+02	-9.6808	-75.389473	-0.000122	-1.216162	-0.206023	-0.000024
1524	1.5154e+02	-9.6622	-75.437918	-0.000243	-2.432323	-0.412047	-0.000049
1525	1.5164e+02	-9.6411	-75.445993	-0.000041	-0.405387	-0.068674	-0.000008
1526	1.5174e+02	-9.6213	-75.433881	0.000061	0.608081	0.103012	0.000012
1527	1.5184e+02	-9.6008	-75.433881	0.000000	0.000000	0.000000	0.000000
1528	1.5194e+02	-9.5819	-75.478290	-0.000223	-2.229630	-0.377709	-0.000045
1529	1.5204e+02	-9.5610	-75.421770	0.000284	2.837710	0.480721	0.000057
1530	1.5214e+02	-9.5411	-75.462141	-0.000203	-2.026936	-0.343372	-0.000041
1531	1.5224e+02	-9.5215	-75.454067	0.000041	0.405387	0.068674	0.000008
1532	1.5233e+02	-9.5014	-75.462141	-0.000041	-0.405387	-0.068674	-0.000008
1533	1.5243e+02	-9.4824	-75.425807	0.000182	1.824242	0.309035	0.000037
1534	1.5253e+02	-9.4614	-75.433881	-0.000041	-0.405387	-0.068674	-0.000008
1535	1.5263e+02	-9.4420	-75.397547	0.000182	1.824242	0.309035	0.000037
1536	1.5273e+02	-9.4229	-75.365250	0.000162	1.621549	0.274698	0.000032
1537	1.5283e+02	-9.4016	-75.365250	0.000000	0.000000	0.000000	0.000000
1538	1.5293e+02	-9.3814	-75.328916	0.000182	1.824242	0.309035	0.000037
1539	1.5303e+02	-9.3616	-75.312767	0.000081	0.810774	0.137349	0.000016
1540	1.5313e+02	-9.3423	-75.280470	0.000162	1.621549	0.274698	0.000032
1541	1.5323e+02	-9.3221	-75.316804	-0.000182	-1.824242	-0.309035	-0.000037
1542	1.5333e+02	-9.3027	-75.240099	0.000385	3.851178	0.652407	0.000077
1543	1.5343e+02	-9.2827	-75.244136	-0.000020	-0.202694	-0.034337	-0.000004
1544	1.5353e+02	-9.2625	-75.187616	0.000284	2.837710	0.480721	0.000057
1545	1.5363e+02	-9.2436	-75.163393	0.000122	1.216162	0.206023	0.000024
1546	1.5373e+02	-9.2223	-75.135133	0.000142	1.418855	0.240361	0.000028
1547	1.5383e+02	-9.2026	-75.114948	0.000101	1.013468	0.171686	0.000020
1548	1.5393e+02	-9.1832	-75.086688	0.000142	1.418855	0.240361	0.000028
1549	1.5403e+02	-9.1631	-75.066502	0.000101	1.013468	0.171686	0.000020
1550	1.5413e+02	-9.1430	-75.030168	0.000182	1.824242	0.309035	0.000037
1551	1.5422e+02	-9.1230	-74.949425	0.000405	4.053872	0.686744	0.000081
1552	1.5432e+02	-9.1037	-74.929239	0.000101	1.013468	0.171686	0.000020
1553	1.5442e+02	-9.0829	-74.888868	0.000203	2.026936	0.343372	0.000041
1554	1.5452e+02	-9.0631	-74.848497	0.000203	2.026936	0.343372	0.000041
1555	1.5462e+02	-9.0436	-74.771791	0.000385	3.851178	0.652407	0.000077
1556	1.5472e+02	-9.0239	-74.723345	0.000243	2.432323	0.412047	0.000049
1557	1.5482e+02	-9.0034	-74.711234	0.000061	0.608081	0.103012	0.000012
1558	1.5492e+02	-8.9838	-74.682974	0.000142	1.418855	0.240361	0.000028
1559	1.5502e+02	-8.9639	-74.642603	0.000203	2.026936	0.343372	0.000041
1560	1.5512e+02	-8.9435	-74.537637	0.000527	5.270034	0.892768	0.000105
1561	1.5522e+02	-8.9230	-74.529563	0.000041	0.405387	0.068674	0.000008
1562	1.5532e+02	-8.9044	-74.537637	-0.000041	-0.405387	-0.068674	-0.000008
1563	1.5542e+02	-8.8843	-74.428634	0.000547	5.472727	0.927105	0.000110
1564	1.5552e+02	-8.8644	-74.388263	0.000203	2.026936	0.343372	0.000041
1565	1.5562e+02	-8.8443	-74.351929	0.000182	1.824242	0.309035	0.000037
1566	1.5572e+02	-8.8245	-74.323669	0.000142	1.418855	0.240361	0.000028
1567	1.5582e+02	-8.8049	-74.230815	0.000466	4.661953	0.789756	0.000093
1568	1.5592e+02	-8.7845	-74.186406	0.000223	2.229630	0.377709	0.000045
1569	1.5602e+02	-8.7648	-74.174295	0.000061	0.608081	0.103012	0.000012
1570	1.5612e+02	-8.7447	-74.069329	0.000527	5.270034	0.892768	0.000105
1571	1.5622e+02	-8.7254	-73.996661	0.000365	3.648485	0.618070	0.000073
1572	1.5631e+02	-8.7042	-74.000698	-0.000020	-0.202694	-0.034337	-0.000004
1573	1.5641e+02	-8.6853	-73.932067	0.000345	3.445791	0.583733	0.000069
1574	1.5651e+02	-8.6652	-73.883621	0.000243	2.432323	0.412047	0.000049
1575	1.5661e+02	-8.6447	-73.831138	0.000264	2.635017	0.446384	0.000053
1576	1.5671e+02	-8.6265	-73.726173	0.000527	5.270034	0.892768	0.000105
1577	1.5681e+02	-8.6047	-73.657542	0.000345	3.445791	0.583733	0.000069
1578	1.5691e+02	-8.5858	-73.617170	0.000203	2.026936	0.343372	0.000041
1579	1.5701e+02	-8.5651	-73.564687	0.000264	2.635017	0.446384	0.000053
1580	1.5711e+02	-8.5455	-73.532390	0.000162	1.621549	0.274698	0.000032
1581	1.5721e+02	-8.5254	-73.403202	0.000649	6.486195	1.098791	0.000130
1582	1.5731e+02	-8.5059	-73.374942	0.000142	1.418855	0.240361	0.000028
1583	1.5741e+02	-8.4865	-73.274014	0.000507	5.067340	0.858431	0.000101
1584	1.5751e+02	-8.4665	-73.249791	0.000122	1.216162	0.206023	0.000024
1585	1.5761e+02	-8.4459	-73.225568	0.000122	1.216162	0.206023	0.000024
1586	1.5771e+02	-8.4265	-73.108491	0.000588	5.878114	0.995780	0.000118
1587	1.5781e+02	-8.4062	-73.064083	0.000223	2.229630	0.377709	0.000045
1588	1.5791e+02	-8.3869	-73.011600	0.000264	2.635017	0.446384	0.000053
1589	1.5801e+02	-8.3658	-72.926820	0.000426	4.256566	0.721082	0.000085
1590	1.5811e+02	-8.3456	-72.850114	0.000385	3.851178	0.652407	0.000077
1591	1.5821e+02	-8.3276	-72.809743	0.000203	2.026936	0.343372	0.000041
1592	1.5830e+02	-8.3069	-72.720926	0.000446	4.459259	0.755419	0.000089
1593	1.5840e+02	-8.2867	-72.688629	0.000162	1.621549	0.274698	0.000032
1594	1.5850e+02	-8.2666	-72.599812	0.000446	4.459259	0.755419	0.000089
1595	1.5860e+02	-8.2468	-72.555403	0.000223	2.229630	0.377709	0.000045
1596	1.5870e+02	-8.2274	-72.466586	0.000446	4.459259	0.755419	0.000089
1597	1.5880e+02	-8.2066	-72.426215	0.000203	2.026936	0.343372	0.000041
1598	1.5890e+02	-8.1870	-72.321250	0.000527	5.270034	0.892768	0.000105
1599	1.5900e+02	-8.1668	-72.236470	0.000426	4.256566	0.721082	0.000085
1600	1.5910e+02	-8.1480	-72.151690	0.000426	4.256566	0.721082	0.000085
1601	1.5920e+02	-8.1262	-72.083059	0.000345	3.445791	0.583733	0.000069
1602	1.5930e+02	-8.1084	-72.042687	0.000203	2.026936	0.343372	0.000041
1603	1.5940e+02	-8.0872	-71.970019	0.000365	3.648485	0.618070	0.000073
1604	1.5950e+02	-8.0682	-71.893313	0.000385	3.851178	0.652407	0.000077
1605	1.5960e+02	-8.0473	-71.804496	0.000446	4.459259	0.755419	0.000089
1606	1.5970e+02	-8.0273	-71.747976	0.000284	2.837710	0.480721	0.000057
1607	1.5980e+02	-8.0073	-71.695494	0.000264	2.635017	0.446384	0.000053
1608	1.5990e+02	-7.9878	-71.574379	0.000608	6.080808	1.030117	0.000122
1609	1.6000e+02	-7.9675	-71.513822	0.000304	3.040404	0.515058	0.000061
1610	1.6010e+02	-7.9485	-71.445191	0.000345	3.445791	0.583733	0.000069
1611	1.6019e+02	-7.9283	-71.356374	0.000446	4.459259	0.755419	0.000089
1612	1.6029e+02	-7.9083	-71.271594	0.000426	4.256566	0.721082	0.000085
1613	1.6039e+02	-7.8879	-71.178740	0.000466	4.661953	0.789756	0.000093
1614	1.6049e+02	-7.8673	-71.146443	0.000162	1.621549	0.274698	0.000032
1615	1.6059e+02	-7.8470	-71.005143	0.000709	7.094276	1.201803	0.000142
1616	1.6069e+02	-7.8284	-70.924401	0.000405	4.053872	0.686744	0.000081
1617	1.6079e+02	-7.8082	-70.863844	0.000304	3.040404	0.515058	0.000061
1618	1.6089e+02	-7.7876	-70.779064	0.000426	4.256566	0.721082	0.000085
1619	1.6099e+02	-7.7686	-70.657950	0.000608	6.080808	1.030117	0.000122
1620	1.6109e+02	-7.7485	-70.613541	0.000223	2.229630	0.377709	0.000045
1621	1.6119e+02	-7.7293	-70.581244	0.000162	1.621549	0.274698	0.000032
1622	1.6129e+02	-7.7084	-70.460130	0.000608	6.080808	1.030117	0.000122
1623	1.6139e+02	-7.6894	-70.379387	0.000405	4.053872	0.686744	0.000081
1624	1.6149e+02	-7.6696	-70.334979	0.000223	2.229630	0.377709	0.000045
1625	1.6159e+02	-7.6485	-70.234050	0.000507	5.067340	0.858431	0.000101
1626	1.6169e+02	-7.6291	-70.133122	0.000507	5.067340	0.858431	0.000101
1627	1.6179e+02	-7.6092	-70.044305	0.000446	4.459259	0.755419	0.000089
1628	1.6189e+02	-7.5900	-69.971637	0.000365	3.648485	0.618070	0.000073
1629	1.6199e+02	-7.5702	-69.890894	0.000405	4.053872	0.686744	0.000081
1630	1.6209e+02	-7.5494	-69.794003	0.000486	4.864646	0.824093	0.000097
1631	1.6219e+02	-7.5299	-69.725371	0.000345	3.445791	0.583733	0.000069
1632	1.6228e+02	-7.5098	-69.680963	0.000223	2.229630	0.377709	0.000045
1633	1.6238e+02	-7.4902	-69.547737	0.000669	6.688889	1.133128	0.000134
1634	1.6248e+02	-7.4698	-69.471032	0.000385	3.851178	0.652407	0.000077
1635	1.6258e+02	-7.4495	-69.398363	0.000365	3.648485	0.618070	0.000073
1636	1.6268e+02	-7.4312	-69.325695	0.000365	3.648485	0.618070	0.000073
1637	1.6278e+02	-7.4098	-69.204581	0.000608	6.080808	1.030117	0.000122
1638	1.6288e+02	-7.3901	-69.127875	0.000385	3.851178	0.652407	0.000077
1639	1.6298e+02	-7.3705	-69.043095	0.000426	4.256566	0.721082	0.000085
1640	1.6308e+02	-7.3517	-68.942167	0.000507	5.067340	0.858431	0.000101
1641	1.6318e+02	-7.3315	-68.881610	0.000304	3.040404	0.515058	0.000061
1642	1.6328e+02	-7.3113	-68.808942	0.000365	3.648485	0.618070	0.000073
1643	1.6338e+02	-7.2906	-68.720125	0.000446	4.459259	0.755419	0.000089
1644	1.6348e+02	-7.2707	-68.611122	0.000547	5.472727	0.927105	0.000110
1645	1.6358e+02	-7.2516	-68.502119	0.000547	5.472727	0.927105	0.000110
1646	1.6368e+02	-7.2311	-68.433488	0.000345	3.445791	0.583733	0.000069
1647	1.6378e+02	-7.2115	-68.360819	0.000365	3.648485	0.618070	0.000073
1648	1.6388e+02	-7.1922	-68.267965	0.000466	4.661953	0.789756	0.000093
1649	1.6398e+02	-7.1707	-68.179148	0.000446	4.459259	0.755419	0.000089
1650	1.6408e+02	-7.1507	-68.078220	0.000507	5.067340	0.858431	0.000101
1651	1.6418e+02	-7.1313	-67.961143	0.000588	5.878114	0.995780	0.000118
1652	1.6427e+02	-7.1114	-67.884437	0.000385	3.851178	0.652407	0.000077
1653	1.6437e+02	-7.0914	-67.771398	0.000568	5.675421	0.961442	0.000114
1654	1.6447e+02	-7.0709	-67.739101	0.000162	1.621549	0.274698	0.000032
1655	1.6457e+02	-7.0514	-67.617986	0.000608	6.080808	1.030117	0.000122
1656	1.6467e+02	-7.0323	-67.553392	0.000324	3.243098	0.549396	0.000065
1657	1.6477e+02	-7.0117	-67.408055	0.000730	7.296969	1.236140	0.000146
1658	1.6487e+02	-6.9922	-67.323276	0.000426	4.256566	0.721082	0.000085
1659	1.6497e+02	-6.9725	-67.230421	0.000466	4.661953	0.789756	0.000093
1660	1.6507e+02	-6.9522	-67.177939	0.000264	2.635017	0.446384	0.000053
1661	1.6517e+02	-6.9329	-67.085085	0.000466	4.661953	0.789756	0.000093
1662	1.6527e+02	-6.9125	-66.996268	0.000446	4.459259	0.755419	0.000089
1663	1.6537e+02	-6.8930	-66.846894	0.000750	7.499663	1.270477	0.000150
1664	1.6547e+02	-6.8722	-66.790374	0.000284	2.837710	0.480721	0.000057
1665	1.6557e+02	-6.8513	-66.717705	0.000365	3.648485	0.618070	0.000073
1666	1.6567e+02	-6.8330	-66.580443	0.000689	6.891582	1.167466	0.000138
1667	1.6577e+02	-6.8134	-66.507774	0.000365	3.648485	0.618070	0.000073
1668	1.6587e+02	-6.7926	-66.414920	0.000466	4.661953	0.789756	0.000093
1669	1.6597e+02	-6.7725	-66.322066	0.000466	4.661953	0.789756	0.000093
1670	1.6607e+02	-6.7529	-66.204989	0.000588	5.878114	0.995780	0.000118
1671	1.6616e+02	-6.7337	-66.095986	0.000547	5.472727	0.927105	0.000110
1672	1.6626e+02	-6.7131	-66.063689	0.000162	1.621549	0.274698	0.000032
1673	1.6636e+02	-6.6930	-65.918352	0.000730	7.296969	1.236140	0.000146
1674	1.6646e+02	-6.6739	-65.833572	0.000426	4.256566	0.721082	0.000085
1675	1.6656e+02	-6.6534	-65.728607	0.000527	5.270034	0.892768	0.000105
1676	1.6666e+02	-6.6330	-65.607493	0.000608	6.080808	1.030117	0.000122
1677	1.6676e+02	-6.6135	-65.510602	0.000486	4.864646	0.824093	0.000097
1678	1.6686e+02	-6.5933	-65.437933	0.000365	3.648485	0.618070	0.000073
1679	1.6696e+02	-6.5735	-65.328931	0.000547	5.472727	0.927105	0.000110
1680	1.6706e+02	-6.5548	-65.187631	0.000709	7.094276	1.201803	0.000142
1681	1.6716e+02	-6.5340	-65.147259	0.000203	2.026936	0.343372	0.000041
1682	1.6726e+02	-6.5134	-65.054405	0.000466	4.661953	0.789756	0.000093
1683	1.6736e+02	-6.4928	-64.913106	0.000709	7.094276	1.201803	0.000142
1684	1.6746e+02	-6.4732	-64.816214	0.000486	4.864646	0.824093	0.000097
1685	1.6756e+02	-6.4534	-64.747583	0.000345	3.445791	0.583733	0.000069
1686	1.6766e+02	-6.4346	-64.622432	0.000628	6.283501	1.064454	0.000126
1687	1.6776e+02	-6.4145	-64.525541	0.000486	4.864646	0.824093	0.000097
1688	1.6786e+02	-6.3943	-64.448835	0.000385	3.851178	0.652407	0.000077
1689	1.6796e+02	-6.3742	-64.343869	0.000527	5.270034	0.892768	0.000105
1690	1.6806e+02	-6.3538	-64.238904	0.000527	5.270034	0.892768	0.000105
1691	1.6816e+02	-6.3342	-64.142013	0.000486	4.864646	0.824093	0.000097
1692	1.6825e+02	-6.3138	-64.057233	0.000426	4.256566	0.721082	0.000085
1693	1.6835e+02	-6.2955	-63.996676	0.000304	3.040404	0.515058	0.000061
1694	1.6845e+02	-6.2753	-63.827116	0.000851	8.513131	1.442163	0.000170
1695	1.6855e+02	-6.2546	-63.742336	0.000426	4.256566	0.721082	0.000085
1696	1.6865e+02	-6.2354	-63.637371	0.000527	5.270034	0.892768	0.000105
1697	1.6875e+02	-6.2151	-63.556628	0.000405	4.053872	0.686744	0.000081
1698	1.6885e+02	-6.1951	-63.455700	0.000507	5.067340	0.858431	0.000101
1699	1.6895e+02	-6.1755	-63.350734	0.000527	5.270034	0.892768	0.000105
1700	1.6905e+02	-6.1554	-63.253843	0.000486	4.864646	0.824093	0.000097
1701	1.6915e+02	-6.1359	-63.152914	0.000507	5.067340	0.858431	0.000101
1702	1.6925e+02	-6.1159	-63.056023	0.000486	4.864646	0.824093	0.000097
1703	1.6935e+02	-6.0962	-62.975280	0.000405	4.053872	0.686744	0.000081
1704	1.6945e+02	-6.0757	-62.842055	0.000669	6.688889	1.133128	0.000134
1705	1.6955e+02	-6.0559	-62.761312	0.000405	4.053872	0.686744	0.000081
1706	1.6965e+02	-6.0357	-62.636161	0.000628	6.283501	1.064454	0.000126
1707	1.6975e+02	-6.0159	-62.539270	0.000486	4.864646	0.824093	0.000097
1708	1.6985e+02	-5.9967	-62.434304	0.000527	5.270034	0.892768	0.000105
1709	1.6995e+02	-5.9750	-62.288967	0.000730	7.296969	1.236140	0.000146
1710	1.7005e+02	-5.9560	-62.196113	0.000466	4.661953	0.789756	0.000093
1711	1.7015e+02	-5.9358	-62.095185	0.000507	5.067340	0.858431	0.000101
1712	1.7024e+02	-5.9166	-62.006368	0.000446	4.459259	0.755419	0.000089
1713	1.7034e+02	-5.8960	-61.913514	0.000466	4.661953	0.789756	0.000093
1714	1.7044e+02	-5.8765	-61.804511	0.000547	5.472727	0.927105	0.000110
1715	1.7054e+02	-5.8565	-61.655137	0.000750	7.499663	1.270477	0.000150
1716	1.7064e+02	-5.8366	-61.586506	0.000345	3.445791	0.583733	0.000069
1717	1.7074e+02	-5.8173	-61.461354	0.000628	6.283501	1.064454	0.000126
1718	1.7084e+02	-5.7973	-61.372537	0.000446	4.459259	0.755419	0.000089
1719	1.7094e+02	-5.7773	-61.275646	0.000486	4.864646	0.824093	0.000097
1720	1.7104e+02	-5.7564	-61.142421	0.000669	6.688889	1.133128	0.000134
1721	1.7114e+02	-5.7368	-61.061678	0.000405	4.053872	0.686744	0.000081
1722	1.7124e+02	-5.7172	-60.904230	0.000791	7.905050	1.339152	0.000158
1723	1.7134e+02	-5.6963	-60.807338	0.000486	4.864646	0.824093	0.000097
1724	1.7144e+02	-5.6772	-60.742744	0.000324	3.243098	0.549396	0.000065
1725	1.7154e+02	-5.6573	-60.617593	0.000628	6.283501	1.064454	0.000126
1726	1.7164e+02	-5.6382	-60.488405	0.000649	6.486195	1.098791	0.000130
1727	1.7174e+02	-5.6183	-60.387476	0.000507	5.067340	0.858431	0.000101
1728	1.7184e+02	-5.5981	-60.262325	0.000628	6.283501	1.064454	0.000126
1729	1.7194e+02	-5.5771	-60.165434	0.000486	4.864646	0.824093	0.000097
1730	1.7204e+02	-5.5583	-60.096803	0.000345	3.445791	0.583733	0.000069
1731	1.7213e+02	-5.5374	-59.911094	0.000932	9.323905	1.579512	0.000187
1732	1.7223e+02	-5.5173	-59.814203	0.000486	4.864646	0.824093	0.000097
1733	1.7233e+02	-5.4970	-59.729423	0.000426	4.256566	0.721082	0.000085
1734	1.7243e+02	-5.4787	-59.596198	0.000669	6.688889	1.133128	0.000134
1735	1.7253e+02	-5.4581	-59.475084	0.000608	6.080808	1.030117	0.000122
1736	1.7263e+02	-5.4376	-59.378192	0.000486	4.864646	0.824093	0.000097
1737	1.7273e+02	-5.4179	-59.249004	0.000649	6.486195	1.098791	0.000130
1738	1.7283e+02	-5.3986	-59.160187	0.000446	4.459259	0.755419	0.000089
1739	1.7293e+02	-5.3787	-59.014850	0.000730	7.296969	1.236140	0.000146
1740	1.7303e+02	-5.3583	-58.970442	0.000223	2.229630	0.377709	0.000045
1741	1.7313e+02	-5.3387	-58.829142	0.000709	7.094276	1.201803	0.000142
1742	1.7323e+02	-5.3183	-58.708028	0.000608	6.080808	1.030117	0.000122
1743	1.7333e+02	-5.2984	-58.586914	0.000608	6.080808	1.030117	0.000122
1744	1.7343e+02	-5.2789	-58.506171	0.000405	4.053872	0.686744	0.000081
1745	1.7353e+02	-5.2583	-58.368909	0.000689	6.891582	1.167466	0.000138
1746	1.7363e+02	-5.2388	-58.259906	0.000547	5.472727	0.927105	0.000110
1747	1.7373e+02	-5.2182	-58.130717	0.000649	6.486195	1.098791	0.000130
1748	1.7383e+02	-5.1990	-57.985381	0.000730	7.296969	1.236140	0.000146
1749	1.7393e+02	-5.1784	-57.912712	0.000365	3.648485	0.618070	0.000073
1750	1.7403e+02	-5.1597	-57.819858	0.000466	4.661953	0.789756	0.000093
1751	1.7413e+02	-5.1397	-57.682595	0.000689	6.891582	1.167466	0.000138
1752	1.7422e+02	-5.1188	-57.557444	0.000628	6.283501	1.064454	0.000126
1753	1.7432e+02	-5.0995	-57.436330	0.000608	6.080808	1.030117	0.000122
1754	1.7442e+02	-5.0793	-57.347513	0.000446	4.459259	0.755419	0.000089
1755	1.7452e+02	-5.0594	-57.181991	0.000831	8.310437	1.407826	0.000166
1756	1.7462e+02	-5.0398	-57.081062	0.000507	5.067340	0.858431	0.000101
1757	1.7472e+02	-5.0204	-56.976097	0.000527	5.270034	0.892768	0.000105
1758	1.7482e+02	-5.0002	-56.883243	0.000466	4.661953	0.789756	0.000093
1759	1.7492e+02	-4.9802	-56.762128	0.000608	6.080808	1.030117	0.000122
1760	1.7502e+02	-4.9594	-56.649089	0.000568	5.675421	0.961442	0.000114
1761	1.7512e+02	-4.9406	-56.519900	0.000649	6.486195	1.098791	0.000130
1762	1.7522e+02	-4.9199	-56.386675	0.000669	6.688889	1.133128	0.000134
1763	1.7532e+02	-4.9005	-56.265561	0.000608	6.080808	1.030117	0.000122
1764	1.7542e+02	-4.8795	-56.160595	0.000527	5.270034	0.892768	0.000105
1765	1.7552e+02	-4.8607	-56.083890	0.000385	3.851178	0.652407	0.000077
1766	1.7562e+02	-4.8397	-55.938553	0.000730	7.296969	1.236140	0.000146
1767	1.7572e+02	-4.8206	-55.768993	0.000851	8.513131	1.442163	0.000170
1768	1.7582e+02	-4.8005	-55.631730	0.000689	6.891582	1.167466	0.000138
1769	1.7592e+02	-4.7803	-55.555025	0.000385	3.851178	0.652407	0.000077
1770	1.7602e+02	-4.7604	-55.462171	0.000466	4.661953	0.789756	0.000093
1771	1.7612e+02	-4.7409	-55.300685	0.000811	8.107744	1.373489	0.000162
1772	1.7621e+02	-4.7210	-55.183608	0.000588	5.878114	0.995780	0.000118
1773	1.7631e+02	-4.7007	-55.058457	0.000628	6.283501	1.064454	0.000126
1774	1.7641e+02	-4.6808	-54.901009	0.000791	7.905050	1.339152	0.000158
1775	1.7651e+02	-4.6606	-54.824303	0.000385	3.851178	0.652407	0.000077
1776	1.7661e+02	-4.6404	-54.622447	0.001013	10.134680	1.716861	0.000203
1777	1.7671e+02	-4.6213	-54.537667	0.000426	4.256566	0.721082	0.000085
1778	1.7681e+02	-4.6008	-54.424627	0.000568	5.675421	0.961442	0.000114
1779	1.7691e+02	-4.5822	-54.303513	0.000608	6.080808	1.030117	0.000122
1780	1.7701e+02	-4.5602	-54.218733	0.000426	4.256566	0.721082	0.000085
1781	1.7711e+02	-4.5416	-54.037062	0.000912	9.121212	1.545175	0.000183
1782	1.7721e+02	-4.5219	-53.944208	0.000466	4.661953	0.789756	0.000093
1783	1.7731e+02	-4.5016	-53.782722	0.000811	8.107744	1.373489	0.000162
1784	1.7741e+02	-4.4812	-53.661608	0.000608	6.080808	1.030117	0.000122
1785	1.7751e+02	-4.4614	-53.556643	0.000527	5.270034	0.892768	0.000105
1786	1.7761e+02	-4.4424	-53.415343	0.000709	7.094276	1.201803	0.000142
1787	1.7771e+02	-4.4225	-53.290192	0.000628	6.283501	1.064454	0.000126
1788	1.7781e+02	-4.4017	-53.140818	0.000750	7.499663	1.270477	0.000150
1789	1.7791e+02	-4.3822	-53.080261	0.000304	3.040404	0.515058	0.000061
1790	1.7801e+02	-4.3619	-52.894552	0.000932	9.323905	1.579512	0.000187
1791	1.7810e+02	-4.3427	-52.773438	0.000608	6.080808	1.030117	0.000122
1792	1.7820e+02	-4.3219	-52.688659	0.000426	4.256566	0.721082	0.000085
1793	1.7830e+02	-4.3024	-52.531210	0.000791	7.905050	1.339152	0.000158
1794	1.7840e+02	-4.2822	-52.381836	0.000750	7.499663	1.270477	0.000150
1795	1.7850e+02	-4.2627	-52.216314	0.000831	8.310437	1.407826	0.000166
1796	1.7860e+02	-4.2425	-52.115385	0.000507	5.067340	0.858431	0.000101
1797	1.7870e+02	-4.2221	-51.990234	0.000628	6.283501	1.064454	0.000126
1798	1.7880e+02	-4.2024	-51.889306	0.000507	5.067340	0.858431	0.000101
1799	1.7890e+02	-4.1825	-51.768192	0.000608	6.080808	1.030117	0.000122
1800	1.7900e+02	-4.1628	-51.574409	0.000973	9.729293	1.648187	0.000195
1801	1.7910e+02	-4.1427	-51.465406	0.000547	5.472727	0.927105	0.000110
1802	1.7920e+02	-4.1234	-51.328144	0.000689	6.891582	1.167466	0.000138
1803	1.7930e+02	-4.1031	-51.166658	0.000811	8.107744	1.373489	0.000162
1804	1.7940e+02	-4.0832	-51.061693	0.000527	5.270034	0.892768	0.000105
1805	1.7950e+02	-4.0622	-50.932504	0.000649	6.486195	1.098791	0.000130
1806	1.7960e+02	-4.0434	-50.835613	0.000486	4.864646	0.824093	0.000097
1807	1.7970e+02	-4.0225	-50.678165	0.000791	7.905050	1.339152	0.000158
1808	1.7980e+02	-4.0038	-50.536865	0.000709	7.094276	1.201803	0.000142
1809	1.7990e+02	-3.9845	-50.371343	0.000831	8.310437	1.407826	0.000166
1810	1.8000e+02	-3.9639	-50.230043	0.000709	7.094276	1.201803	0.000142
1811	1.8009e+02	-3.9424	-50.161412	0.000345	3.445791	0.583733	0.000069
1812	1.8019e+02	-3.9243	-49.991852	0.000851	8.513131	1.442163	0.000170
1813	1.8029e+02	-3.9038	-49.850552	0.000709	7.094276	1.201803	0.000142
1814	1.8039e+02	-3.8840	-49.737512	0.000568	5.675421	0.961442	0.000114
1815	1.8049e+02	-3.8635	-49.571990	0.000831	8.310437	1.407826	0.000166
1816	1.8059e+02	-3.8438	-49.491247	0.000405	4.053872	0.686744	0.000081
1817	1.8069e+02	-3.8248	-49.345910	0.000730	7.296969	1.236140	0.000146
1818	1.8079e+02	-3.8047	-49.135979	0.001054	10.540067	1.785536	0.000211
1819	1.8089e+02	-3.7840	-49.071385	0.000324	3.243098	0.549396	0.000065
1820	1.8099e+02	-3.7653	-48.909899	0.000811	8.107744	1.373489	0.000162
1821	1.8109e+02	-3.7448	-48.813008	0.000486	4.864646	0.824093	0.000097
1822	1.8119e+02	-3.7249	-48.635374	0.000892	8.918518	1.510838	0.000179
1823	1.8129e+02	-3.7048	-48.514260	0.000608	6.080808	1.030117	0.000122
1824	1.8139e+02	-3.6856	-48.348738	0.000831	8.310437	1.407826	0.000166
1825	1.8149e+02	-3.6652	-48.219549	0.000649	6.486195	1.098791	0.000130
1826	1.8159e+02	-3.6456	-48.138807	0.000405	4.053872	0.686744	0.000081
1827	1.8169e+02	-3.6249	-47.961173	0.000892	8.918518	1.510838	0.000179
1828	1.8179e+02	-3.6047	-47.819873	0.000709	7.094276	1.201803	0.000142
1829	1.8189e+02	-3.5847	-47.682610	0.000689	6.891582	1.167466	0.000138
1830	1.8199e+02	-3.5652	-47.529199	0.000770	7.702357	1.304815	0.000154
1831	1.8209e+02	-3.5458	-47.359639	0.000851	8.513131	1.442163	0.000170
1832	1.8218e+02	-3.5262	-47.222377	0.000689	6.891582	1.167466	0.000138
1833	1.8228e+02	-3.5048	-47.073003	0.000750	7.499663	1.270477	0.000150
1834	1.8238e+02	-3.4851	-46.935740	0.000689	6.891582	1.167466	0.000138
1835	1.8248e+02	-3.4657	-46.830775	0.000527	5.270034	0.892768	0.000105
1836	1.8258e+02	-3.4448	-46.685438	0.000730	7.296969	1.236140	0.000146
1837	1.8268e+02	-3.4251	-46.532027	0.000770	7.702357	1.304815	0.000154
1838	1.8278e+02	-3.4065	-46.410912	0.000608	6.080808	1.030117	0.000122
1839	1.8288e+02	-3.3858	-46.257501	0.000770	7.702357	1.304815	0.000154
1840	1.8298e+02	-3.3650	-46.108127	0.000750	7.499663	1.270477	0.000150
1841	1.8308e+02	-3.3459	-45.970865	0.000689	6.891582	1.167466	0.000138
1842	1.8318e+02	-3.3261	-45.837639	0.000669	6.688889	1.133128	0.000134
1843	1.8328e+02	-3.3065	-45.664042	0.000872	8.715825	1.476501	0.000174
1844	1.8338e+02	-3.2872	-45.518705	0.000730	7.296969	1.236140	0.000146
1845	1.8348e+02	-3.2651	-45.381443	0.000689	6.891582	1.167466	0.000138
1846	1.8358e+02	-3.2460	-45.223995	0.000791	7.905050	1.339152	0.000158
1847	1.8368e+02	-3.2259	-45.082695	0.000709	7.094276	1.201803	0.000142
1848	1.8378e+02	-3.2063	-44.949469	0.000669	6.688889	1.133128	0.000134
1849	1.8388e+02	-3.1857	-44.775872	0.000872	8.715825	1.476501	0.000174
1850	1.8398e+02	-3.1674	-44.630536	0.000730	7.296969	1.236140	0.000146
1851	1.8407e+02	-3.1477	-44.501347	0.000649	6.486195	1.098791	0.000130
1852	1.8417e+02	-3.1265	-44.339862	0.000811	8.107744	1.373489	0.000162
1853	1.8427e+02	-3.1067	-44.202599	0.000689	6.891582	1.167466	0.000138
1854	1.8437e+02	-3.0878	-44.073411	0.000649	6.486195	1.098791	0.000130
1855	1.8447e+02	-3.0682	-43.932111	0.000709	7.094276	1.201803	0.000142
1856	1.8457e+02	-3.0471	-43.750440	0.000912	9.121212	1.545175	0.000183
1857	1.8467e+02	-3.0258	-43.621252	0.000649	6.486195	1.098791	0.000130
1858	1.8477e+02	-3.0077	-43.467840	0.000770	7.702357	1.304815	0.000154
1859	1.8487e+02	-2.9877	-43.302318	0.000831	8.310437	1.407826	0.000166
1860	1.8497e+02	-2.9669	-43.144870	0.000791	7.905050	1.339152	0.000158
1861	1.8507e+02	-2.9474	-42.999533	0.000730	7.296969	1.236140	0.000146
1862	1.8517e+02	-2.9275	-42.894567	0.000527	5.270034	0.892768	0.000105
1863	1.8527e+02	-2.9063	-42.737119	0.000791	7.905050	1.339152	0.000158
1864	1.8537e+02	-2.8873	-42.571596	0.000831	8.310437	1.407826	0.000166
1865	1.8547e+02	-2.8673	-42.398000	0.000872	8.715825	1.476501	0.000174
1866	1.8557e+02	-2.8476	-42.248625	0.000750	7.499663	1.270477	0.000150
1867	1.8567e+02	-2.8272	-42.127511	0.000608	6.080808	1.030117	0.000122
1868	1.8577e+02	-2.8082	-41.990249	0.000689	6.891582	1.167466	0.000138
1869	1.8587e+02	-2.7879	-41.772243	0.001095	10.945454	1.854210	0.000219
1870	1.8597e+02	-2.7687	-41.687464	0.000426	4.256566	0.721082	0.000085
1871	1.8606e+02	-2.7475	-41.530015	0.000791	7.905050	1.339152	0.000158
1872	1.8616e+02	-2.7282	-41.340270	0.000953	9.526599	1.613850	0.000191
1873	1.8626e+02	-2.7084	-41.251453	0.000446	4.459259	0.755419	0.000089
1874	1.8636e+02	-2.6880	-41.045559	0.001034	10.337373	1.751198	0.000207
1875	1.8646e+02	-2.6678	-40.908296	0.000689	6.891582	1.167466	0.000138
1876	1.8656e+02	-2.6483	-40.762960	0.000730	7.296969	1.236140	0.000146
1877	1.8666e+02	-2.6283	-40.565140	0.000993	9.931986	1.682524	0.000199
1878	1.8676e+02	-2.6086	-40.399617	0.000831	8.310437	1.407826	0.000166
1879	1.8686e+02	-2.5871	-40.290615	0.000547	5.472727	0.927105	0.000110
1880	1.8696e+02	-2.5689	-40.125092	0.000831	8.310437	1.407826	0.000166
1881	1.8706e+02	-2.5484	-39.971681	0.000770	7.702357	1.304815	0.000154
1882	1.8716e+02	-2.5296	-39.785973	0.000932	9.323905	1.579512	0.000187
1883	1.8726e+02	-2.5098	-39.636599	0.000750	7.499663	1.270477	0.000150
1884	1.8736e+02	-2.4896	-39.463002	0.000872	8.715825	1.476501	0.000174
1885	1.8746e+02	-2.4712	-39.333813	0.000649	6.486195	1.098791	0.000130
1886	1.8756e+02	-2.4492	-39.160217	0.000872	8.715825	1.476501	0.000174
1887	1.8766e+02	-2.4298	-39.014880	0.000730	7.296969	1.236140	0.000146
1888	1.8776e+02	-2.4103	-38.813023	0.001013	10.134680	1.716861	0.000203
1889	1.8786e+02	-2.3895	-38.675760	0.000689	6.891582	1.167466	0.000138
1890	1.8796e+02	-2.3693	-38.510238	0.000831	8.310437	1.407826	0.000166
1891	1.8806e+02	-2.3504	-38.368938	0.000709	7.094276	1.201803	0.000142
1892	1.8815e+02	-2.3302	-38.215527	0.000770	7.702357	1.304815	0.000154
1893	1.8825e+02	-2.3095	-38.058079	0.000791	7.905050	1.339152	0.000158
1894	1.8835e+02	-2.2900	-37.872370	0.000932	9.323905	1.579512	0.000187
1895	1.8845e+02	-2.2692	-37.706848	0.000831	8.310437	1.407826	0.000166
1896	1.8855e+02	-2.2504	-37.541325	0.000831	8.310437	1.407826	0.000166
1897	1.8865e+02	-2.2310	-37.359654	0.000912	9.121212	1.545175	0.000183
1898	1.8875e+02	-2.2104	-37.214317	0.000730	7.296969	1.236140	0.000146
1899	1.8885e+02	-2.1899	-37.081092	0.000669	6.688889	1.133128	0.000134
1900	1.8895e+02	-2.1704	-36.887309	0.000973	9.729293	1.648187	0.000195
1901	1.8905e+02	-2.1509	-36.689490	0.000993	9.931986	1.682524	0.000199
1902	1.8915e+02	-2.1310	-36.540116	0.000750	7.499663	1.270477	0.000150
1903	1.8925e+02	-2.1108	-36.402853	0.000689	6.891582	1.167466	0.000138
1904	1.8935e+02	-2.0910	-36.253479	0.000750	7.499663	1.270477	0.000150
1905	1.8945e+02	-2.0712	-36.083919	0.000851	8.513131	1.442163	0.000170
1906	1.8955e+02	-2.0511	-35.918397	0.000831	8.310437	1.407826	0.000166
1907	1.8965e+02	-2.0301	-35.748837	0.000851	8.513131	1.442163	0.000170
1908	1.8975e+02	-2.0105	-35.559092	0.000953	9.526599	1.613850	0.000191
1909	1.8985e+02	-1.9912	-35.341086	0.001095	10.945454	1.854210	0.000219
1910	1.8995e+02	-1.9720	-35.280529	0.000304	3.040404	0.515058	0.000061
1911	1.9004e+02	-1.9524	-35.058487	0.001115	11.148148	1.888547	0.000223
1912	1.9014e+02	-1.9321	-34.884890	0.000872	8.715825	1.476501	0.000174
1913	1.9024e+02	-1.9116	-34.687070	0.000993	9.931986	1.682524	0.000199
1914	1.9034e+02	-1.8916	-34.513473	0.000872	8.715825	1.476501	0.000174
1915	1.9044e+02	-1.8718	-34.380248	0.000669	6.688889	1.133128	0.000134
1916	1.9054e+02	-1.8513	-34.198577	0.000912	9.121212	1.545175	0.000183
1917	1.9064e+02	-1.8311	-34.061314	0.000689	6.891582	1.167466	0.000138
1918	1.9074e+02	-1.8127	-33.891755	0.000851	8.513131	1.442163	0.000170
1919	1.9084e+02	-1.7915	-33.685861	0.001034	10.337373	1.751198	0.000207
1920	1.9094e+02	-1.7731	-33.536487	0.000750	7.499663	1.270477	0.000150
1921	1.9104e+02	-1.7523	-33.302333	0.001176	11.756229	1.991559	0.000235
1922	1.9114e+02	-1.7318	-33.185256	0.000588	5.878114	0.995780	0.000118
1923	1.9124e+02	-1.7122	-33.023770	0.000811	8.107744	1.373489	0.000162
1924	1.9134e+02	-1.6934	-32.817876	0.001034	10.337373	1.751198	0.000207
1925	1.9144e+02	-1.6731	-32.668502	0.000750	7.499663	1.270477	0.000150
1926	1.9154e+02	-1.6523	-32.462608	0.001034	10.337373	1.751198	0.000207
1927	1.9164e+02	-1.6327	-32.345532	0.000588	5.878114	0.995780	0.000118
1928	1.9174e+02	-1.6132	-32.188083	0.000791	7.905050	1.339152	0.000158
1929	1.9184e+02	-1.5925	-31.933744	0.001277	12.769697	2.163245	0.000256
1930	1.9194e+02	-1.5733	-31.784370	0.000750	7.499663	1.270477	0.000150
1931	1.9203e+02	-1.5530	-31.590587	0.000973	9.729293	1.648187	0.000195
1932	1.9213e+02	-1.5335	-31.449287	0.000709	7.094276	1.201803	0.000142
1933	1.9223e+02	-1.5133	-31.263579	0.000932	9.323905	1.579512	0.000187
1934	1.9233e+02	-1.4926	-31.118242	0.000730	7.296969	1.236140	0.000146
1935	1.9243e+02	-1.4729	-30.904274	0.001074	10.742761	1.819873	0.000215
1936	1.9253e+02	-1.4534	-30.722603	0.000912	9.121212	1.545175	0.000183
1937	1.9263e+02	-1.4331	-30.589377	0.000669	6.688889	1.133128	0.000134
1938	1.9273e+02	-1.4133	-30.367335	0.001115	11.148148	1.888547	0.000223
1939	1.9283e+02	-1.3939	-30.185664	0.000912	9.121212	1.545175	0.000183
1940	1.9293e+02	-1.3732	-29.967659	0.001095	10.945454	1.854210	0.000219
1941	1.9303e+02	-1.3538	-29.830396	0.000689	6.891582	1.167466	0.000138
1942	1.9313e+02	-1.3342	-29.636613	0.000973	9.729293	1.648187	0.000195
1943	1.9323e+02	-1.3138	-29.454942	0.000912	9.121212	1.545175	0.000183
1944	1.9333e+02	-1.2934	-29.273271	0.000912	9.121212	1.545175	0.000183
1945	1.9343e+02	-1.2738	-29.099674	0.000872	8.715825	1.476501	0.000174
1946	1.9353e+02	-1.2539	-28.922040	0.000892	8.918518	1.510838	0.000179
1947	1.9363e+02	-1.2338	-28.708072	0.001074	10.742761	1.819873	0.000215
1948	1.9373e+02	-1.2139	-28.522364	0.000932	9.323905	1.579512	0.000187
1949	1.9383e+02	-1.1936	-28.348767	0.000872	8.715825	1.476501	0.000174
1950	1.9393e+02	-1.1746	-28.167096	0.000912	9.121212	1.545175	0.000183
1951	1.9403e+02	-1.1550	-27.973314	0.000973	9.729293	1.648187	0.000195
1952	1.9412e+02	-1.1340	-27.795680	0.000892	8.918518	1.510838	0.000179
1953	1.9422e+02	-1.1145	-27.581711	0.001074	10.742761	1.819873	0.000215
1954	1.9432e+02	-1.0948	-27.448486	0.000669	6.688889	1.133128	0.000134
1955	1.9442e+02	-1.0754	-27.266815	0.000912	9.121212	1.545175	0.000183
1956	1.9452e+02	-1.0553	-27.012475	0.001277	12.769697	2.163245	0.000256
1957	1.9462e+02	-1.0349	-26.867138	0.000730	7.296969	1.236140	0.000146
1958	1.9472e+02	-1.0154	-26.661244	0.001034	10.337373	1.751198	0.000207
1959	1.9482e+02	-0.9953	-26.447276	0.001074	10.742761	1.819873	0.000215
1960	1.9492e+02	-0.9757	-26.310014	0.000689	6.891582	1.167466	0.000138
1961	1.9502e+02	-0.9560	-26.112194	0.000993	9.931986	1.682524	0.000199
1962	1.9512e+02	-0.9357	-25.926486	0.000932	9.323905	1.579512	0.000187
1963	1.9522e+02	-0.9156	-25.748852	0.000892	8.918518	1.510838	0.000179
1964	1.9532e+02	-0.8958	-25.563143	0.000932	9.323905	1.579512	0.000187
1965	1.9542e+02	-0.8757	-25.385510	0.000892	8.918518	1.510838	0.000179
1966	1.9552e+02	-0.8566	-25.187690	0.000993	9.931986	1.682524	0.000199
1967	1.9562e+02	-0.8364	-24.965647	0.001115	11.148148	1.888547	0.000223
1968	1.9572e+02	-0.8168	-24.779939	0.000932	9.323905	1.579512	0.000187
1969	1.9582e+02	-0.7956	-24.630565	0.000750	7.499663	1.270477	0.000150
1970	1.9592e+02	-0.7758	-24.400448	0.001155	11.553535	1.957222	0.000231
1971	1.9601e+02	-0.7563	-24.194554	0.001034	10.337373	1.751198	0.000207
1972	1.9611e+02	-0.7368	-24.045180	0.000750	7.499663	1.270477	0.000150
1973	1.9621e+02	-0.7152	-23.847361	0.000993	9.931986	1.682524	0.000199
1974	1.9631e+02	-0.6968	-23.641467	0.001034	10.337373	1.751198	0.000207
1975	1.9641e+02	-0.6760	-23.459796	0.000912	9.121212	1.545175	0.000183
1976	1.9651e+02	-0.6561	-23.193345	0.001338	13.377777	2.266257	0.000268
1977	1.9661e+02	-0.6366	-23.048008	0.000730	7.296969	1.236140	0.000146
1978	1.9671e+02	-0.6169	-22.834040	0.001074	10.742761	1.819873	0.000215
1979	1.9681e+02	-0.5959	-22.680629	0.000770	7.702357	1.304815	0.000154
1980	1.9691e+02	-0.5762	-22.482809	0.000993	9.931986	1.682524	0.000199
1981	1.9701e+02	-0.5565	-22.256729	0.001135	11.350841	1.922885	0.000227
1982	1.9711e+02	-0.5371	-22.066984	0.000953	9.526599	1.613850	0.000191
1983	1.9721e+02	-0.5170	-21.893387	0.000872	8.715825	1.476501	0.000174
1984	1.9731e+02	-0.4965	-21.671345	0.001115	11.148148	1.888547	0.000223
1985	1.9741e+02	-0.4771	-21.477562	0.000973	9.729293	1.648187	0.000195
1986	1.9751e+02	-0.4572	-21.267631	0.001054	10.540067	1.785536	0.000211
1987	1.9761e+02	-0.4364	-21.122294	0.000730	7.296969	1.236140	0.000146
1988	1.9771e+02	-0.4173	-20.912363	0.001054	10.540067	1.785536	0.000211
1989	1.9781e+02	-0.3973	-20.714543	0.000993	9.931986	1.682524	0.000199
1990	1.9791e+02	-0.3777	-20.512687	0.001013	10.134680	1.716861	0.000203
1991	1.9800e+02	-0.3577	-20.339090	0.000872	8.715825	1.476501	0.000174
1992	1.9810e+02	-0.3381	-20.100899	0.001196	11.958922	2.025896	0.000239
1993	1.9820e+02	-0.3178	-19.931339	0.000851	8.513131	1.442163	0.000170
1994	1.9830e+02	-0.2969	-19.725445	0.001034	10.337373	1.751198	0.000207
1995	1.9840e+02	-0.2768	-19.531663	0.000973	9.729293	1.648187	0.000195
1996	1.9850e+02	-0.2579	-19.321732	0.001054	10.540067	1.785536	0.000211
1997	1.9860e+02	-0.2385	-19.127949	0.000973	9.729293	1.648187	0.000195
1998	1.9870e+02	-0.2177	-18.901870	0.001135	11.350841	1.922885	0.000227
1999	1.9880e+02	-0.1979	-18.716161	0.000932	9.323905	1.579512	0.000187
2000	1.9890e+02	-0.1778	-18.526416	0.000953	9.526599	1.613850	0.000191
2001	1.9900e+02	-0.1588	-18.336671	0.000953	9.526599	1.613850	0.000191
2002	1.9910e+02	-0.1377	-18.150962	0.000932	9.323905	1.579512	0.000187
2003	1.9920e+02	-0.1183	-17.973328	0.000892	8.918518	1.510838	0.000179
2004	1.9930e+02	-0.0983	-17.735137	0.001196	11.958922	2.025896	0.000239
2005	1.9940e+02	-0.0788	-17.533281	0.001013	10.134680	1.716861	0.000203
2006	1.9950e+02	-0.0587	-17.295090	0.001196	11.958922	2.025896	0.000239
2007	1.9960e+02	-0.0397	-17.089196	0.001034	10.337373	1.751198	0.000207
2008	1.9970e+02	-0.0191	-16.875227	0.001074	10.742761	1.819873	0.000215
2009	1.9980e+02	-0.0009	-16.701631	0.001074	10.742761	1.819873	0.000174

Smooth data before PMax, +/-Pr and +/-Vc Calc.

PMax (uC/cm2):	8.02e+01
Pr (uC/cm2):	1.90e+01
-Pr (uC/cm2):	-1.20e+01
PLoss (uC/cm2):	-1.21e+01
-Vc:	-2.03e+00
C (Max-Eff) (nF):	8.02e-01
K (Eff):	1.36e+03
Vert. (+/-Pr) Shift (uC/cm2):	3.47e+00
Offset (uC/cm2):	4.74e+00

A (Loop Area - uC/cm2·Volts):	-3.17e-02



Hysteresis Version: 5.48.1 - Radiant Technologies, Inc., 1999 - 9/12/24

