»»»»»»»»»»»»»»»»»»»»»»»»»»»»»»»»»»»» Hysteresis ««««««««««««««««««««««««««««««««««««
»»»  Executed Version:	5.48.1
»»»  Vision Version:	5.48.4 (R)
»»»  Vision Compiled:	9/18/24
»»»  Driver Version:	5.47.0
»»»  Windows Version:	Windows 8 or 8.1
»»»  Processor Information:	x86 (AMD or Intel) - 32 Processors
»»»  Tester Name:	PMF21124-494 (100V)
»»»  Tester S/N:	PMF21124-494
»»»  Internal Amp Type:	100V RevK 270k
»»»  Internal Amp S/N:	iAB2-596/K     
»»»  Execution Count:	1
»»»»»»»»»»»»»»»»»»»»»»»»»»»»»»»»»»»»»»»»»»««««««««««««««««««««««««««««««««««««««««««

Stored:	7/10/2025 - 14:51:47
Configured:	07/10/25 01:31:25 PM
Executed:	07/10/25 02:51:24 PM

»»»»»»»»»»»»»»»»»»»»»»»»»»»»»»»»»»» Sample Info ««««««««««««««««««««««««««««««««««««
Sample Name:	
Lot Name:	
Wafer Name:	
Die Row/Column:	0/0
Capacitor Number:	0
Sample Area (cm2):	1.00e-04
Sample Thickness (microns):	1.50e-01

Amplifier:	Internal

»»»»»»»»»»»»»»»»»»»»»»»»»»»»»»»»»»» Tester Info «««««««««««««««««««««««««««««««««««
Tester Name:	PMF21124-494 (100V)
Tester Serial Number:	PMF21124-494
Return Signal Amp. Level:	1.79 [Index: 2]

»»»»»»»»»»»»»»»»»»»»»»»»»»»»»»»» Hysteresis Info ««««««««««««««««««««««««««««««««««
Task Name:	Hyst-3361
Volts:	10.00
Field:	666.67 (kV/cm)
DCBias:	0.00
DCField:	0.00 (kV/cm)
Hysteresis Period (ms):	1.00e+00
Preset:	Enabled
Preset Delay (ms):	1.00e+03
Profile:	Standard Bipolar

»»»»»»»»»»»»»»»»»»»»»»»»»»»»»»»»»»»»»» Data «««««««««««««««««««««««««««««««««««««««
Points:	2001

Valid Data

Point	Time (ms)	Drive Voltage	Measured Polarization (uC/cm2)	Capacitance (uF)	Normalized Capacitance (uF/cm2)	Dielectric Constant	Instantaneous Current (mA)
   1	0.0000e+00	-0.0021	0.347659	0.000612	6.115625	1.036015	0.024460
   2	5.0000e-04	0.0140	0.469960	0.000612	6.115625	1.036015	0.024460
   3	1.0000e-03	0.0401	0.582853	0.000565	5.645192	0.956321	0.022579
   4	1.5000e-03	0.0573	0.698740	0.000579	5.794875	0.981678	0.023177
   5	2.0000e-03	0.0745	0.808212	0.000547	5.474126	0.927342	0.021894
   6	2.5000e-03	0.0947	0.922815	0.000573	5.730725	0.970811	0.022921
   7	3.0000e-03	0.1172	1.043406	0.000603	6.030091	1.021525	0.024118
   8	3.5000e-03	0.1352	1.164851	0.000607	6.072858	1.028770	0.024289
   9	4.0000e-03	0.1568	1.285442	0.000603	6.030091	1.021525	0.024118
  10	4.5000e-03	0.1764	1.382513	0.000485	4.854010	0.822292	0.019414
  11	5.0000e-03	0.1944	1.523629	0.000706	7.056490	1.195402	0.028223
  12	5.5000e-03	0.2162	1.628397	0.000524	5.238909	0.887495	0.020954
  13	6.0000e-03	0.2386	1.741718	0.000567	5.666575	0.959944	0.022664
  14	6.5000e-03	0.2596	1.854611	0.000565	5.645192	0.956321	0.022579
  15	7.0000e-03	0.2757	1.980333	0.000629	6.286691	1.064994	0.025144
  16	7.5000e-03	0.2969	2.100068	0.000599	5.987325	1.014280	0.023947
  17	8.0000e-03	0.3162	2.218948	0.000594	5.944558	1.007035	0.023776
  18	8.5000e-03	0.3324	2.341248	0.000612	6.115625	1.036015	0.024460
  19	9.0000e-03	0.3577	2.464832	0.000618	6.179775	1.046882	0.024717
  20	9.5000e-03	0.3778	2.581574	0.000584	5.837642	0.988923	0.023348
  21	1.0000e-02	0.3968	2.702592	0.000605	6.051475	1.025148	0.024204
  22	1.0500e-02	0.4138	2.819333	0.000584	5.837642	0.988923	0.023348
  23	1.1000e-02	0.4351	2.942490	0.000616	6.158391	1.043260	0.024631
  24	1.1500e-02	0.4556	3.077191	0.000674	6.735740	1.141065	0.026940
  25	1.2000e-02	0.4729	3.169986	0.000464	4.640177	0.786067	0.018559
  26	1.2500e-02	0.4963	3.292715	0.000614	6.137008	1.039637	0.024546
  27	1.3000e-02	0.5135	3.406463	0.000569	5.687959	0.963566	0.022750
  28	1.3500e-02	0.5368	3.545869	0.000697	6.970957	1.180912	0.027881
  29	1.4000e-02	0.5556	3.648071	0.000511	5.110609	0.865761	0.020440
  30	1.4500e-02	0.5756	3.784911	0.000684	6.842657	1.159177	0.027368
  31	1.5000e-02	0.5984	3.889679	0.000524	5.238909	0.887495	0.020954
  32	1.5500e-02	0.6162	4.017112	0.000637	6.372224	1.079484	0.025486
  33	1.6000e-02	0.6357	4.151386	0.000671	6.714357	1.137443	0.026855
  34	1.6500e-02	0.6557	4.256582	0.000526	5.260293	0.891118	0.021039
  35	1.7000e-02	0.6753	4.370330	0.000569	5.687959	0.963566	0.022750
  36	1.7500e-02	0.6956	4.492204	0.000609	6.094241	1.032392	0.024375
  37	1.8000e-02	0.7138	4.623484	0.000656	6.564674	1.112086	0.026256
  38	1.8500e-02	0.7351	4.747923	0.000622	6.222541	1.054127	0.024888
  39	1.9000e-02	0.7530	4.865948	0.000590	5.901792	0.999791	0.023605
  40	1.9500e-02	0.7734	4.986538	0.000603	6.030091	1.021525	0.024118
  41	2.0000e-02	0.7973	5.105846	0.000597	5.965942	1.010658	0.023861
  42	2.0500e-02	0.8167	5.232423	0.000633	6.329458	1.072239	0.025315
  43	2.1000e-02	0.8394	5.352586	0.000601	6.008708	1.017903	0.024033
  44	2.1500e-02	0.8566	5.473604	0.000605	6.051475	1.025148	0.024204
  45	2.2000e-02	0.8752	5.596760	0.000616	6.158391	1.043260	0.024631
  46	2.2500e-02	0.8968	5.713501	0.000584	5.837642	0.988923	0.023348
  47	2.3000e-02	0.9153	5.837513	0.000620	6.201158	1.050505	0.024802
  48	2.3500e-02	0.9342	5.967083	0.000648	6.479141	1.097596	0.025914
  49	2.4000e-02	0.9587	6.094515	0.000637	6.372224	1.079484	0.025486
  50	2.4500e-02	0.9769	6.206126	0.000558	5.581042	0.945454	0.022322
  51	2.5000e-02	0.9964	6.330137	0.000620	6.201158	1.050505	0.024802
  52	2.5500e-02	1.0163	6.454576	0.000622	6.222541	1.054127	0.024888
  53	2.6000e-02	1.0359	6.574739	0.000601	6.008708	1.017903	0.024033
  54	2.6500e-02	1.0548	6.694901	0.000601	6.008708	1.017903	0.024033
  55	2.7000e-02	1.0755	6.834307	0.000697	6.970957	1.180912	0.027881
  56	2.7500e-02	1.0939	6.960457	0.000631	6.308074	1.068617	0.025230
  57	2.8000e-02	1.1139	7.087889	0.000637	6.372224	1.079484	0.025486
  58	2.8500e-02	1.1359	7.198216	0.000552	5.516892	0.934587	0.022065
  59	2.9000e-02	1.1566	7.330352	0.000661	6.607441	1.119331	0.026427
  60	2.9500e-02	1.1768	7.459495	0.000646	6.457758	1.093974	0.025829
  61	3.0000e-02	1.1954	7.568967	0.000547	5.474126	0.927342	0.021894
  62	3.0500e-02	1.2170	7.697255	0.000641	6.414991	1.086729	0.025658
  63	3.1000e-02	1.2365	7.819983	0.000614	6.137008	1.039637	0.024546
  64	3.1500e-02	1.2587	7.938863	0.000594	5.944558	1.007035	0.023776
  65	3.2000e-02	1.2762	8.088532	0.000748	7.484156	1.267850	0.029934
  66	3.2500e-02	1.2951	8.190735	0.000511	5.110609	0.865761	0.020440
  67	3.3000e-02	1.3161	8.322871	0.000661	6.607441	1.119331	0.026427
  68	3.3500e-02	1.3344	8.440468	0.000588	5.880408	0.996168	0.023519
  69	3.4000e-02	1.3601	8.574742	0.000671	6.714357	1.137443	0.026855
  70	3.4500e-02	1.3781	8.697043	0.000612	6.115625	1.036015	0.024460
  71	3.5000e-02	1.3947	8.821482	0.000622	6.222541	1.054127	0.024888
  72	3.5500e-02	1.4136	8.972434	0.000755	7.548306	1.278718	0.030190
  73	3.6000e-02	1.4360	9.077629	0.000526	5.260293	0.891118	0.021039
  74	3.6500e-02	1.4548	9.188812	0.000556	5.559659	0.941832	0.022237
  75	3.7000e-02	1.4755	9.333777	0.000725	7.248940	1.228004	0.028993
  76	3.7500e-02	1.4967	9.456078	0.000612	6.115625	1.036015	0.024460
  77	3.8000e-02	1.5155	9.587359	0.000656	6.564674	1.112086	0.026256
  78	3.8500e-02	1.5353	9.692982	0.000528	5.281676	0.894740	0.021125
  79	3.9000e-02	1.5567	9.825118	0.000661	6.607441	1.119331	0.026427
  80	3.9500e-02	1.5742	9.974787	0.000748	7.484156	1.267850	0.029934
  81	4.0000e-02	1.5976	10.088535	0.000569	5.687959	0.963566	0.022750
  82	4.0500e-02	1.6161	10.198435	0.000550	5.495509	0.930964	0.021980
  83	4.1000e-02	1.6370	10.348104	0.000748	7.484156	1.267850	0.029934
  84	4.1500e-02	1.6535	10.474681	0.000633	6.329458	1.072239	0.025315
  85	4.2000e-02	1.6771	10.604679	0.000650	6.500524	1.101219	0.026000
  86	4.2500e-02	1.6960	10.714151	0.000547	5.474126	0.927342	0.021894
  87	4.3000e-02	1.7162	10.842439	0.000641	6.414991	1.086729	0.025658
  88	4.3500e-02	1.7359	10.974147	0.000659	6.586057	1.115708	0.026342
  89	4.4000e-02	1.7570	11.104573	0.000652	6.521907	1.104841	0.026085
  90	4.4500e-02	1.7743	11.236282	0.000659	6.586057	1.115708	0.026342
  91	4.5000e-02	1.7915	11.373122	0.000684	6.842657	1.159177	0.027368
  92	4.5500e-02	1.8165	11.488581	0.000577	5.773492	0.978056	0.023092
  93	4.6000e-02	1.8379	11.619434	0.000654	6.543291	1.108463	0.026171
  94	4.6500e-02	1.8549	11.754136	0.000674	6.735740	1.141065	0.026940
  95	4.7000e-02	1.8768	11.864036	0.000550	5.495509	0.930964	0.021980
  96	4.7500e-02	1.8960	11.988047	0.000620	6.201158	1.050505	0.024802
  97	4.8000e-02	1.9162	12.115479	0.000637	6.372224	1.079484	0.025486
  98	4.8500e-02	1.9350	12.247615	0.000661	6.607441	1.119331	0.026427
  99	4.9000e-02	1.9547	12.380607	0.000665	6.650207	1.126576	0.026598
 100	4.9500e-02	1.9755	12.500770	0.000601	6.008708	1.017903	0.024033
 101	5.0000e-02	1.9955	12.624781	0.000620	6.201158	1.050505	0.024802
 102	5.0500e-02	2.0146	12.758200	0.000667	6.671591	1.130198	0.026684
 103	5.1000e-02	2.0357	12.876652	0.000592	5.923175	1.003413	0.023690
 104	5.1500e-02	2.0538	13.012637	0.000680	6.799890	1.151933	0.027197
 105	5.2000e-02	2.0735	13.142635	0.000650	6.500524	1.101219	0.026000
 106	5.2500e-02	2.0960	13.273061	0.000652	6.521907	1.104841	0.026085
 107	5.3000e-02	2.1182	13.385099	0.000560	5.602425	0.949077	0.022408
 108	5.3500e-02	2.1356	13.523222	0.000691	6.906807	1.170045	0.027625
 109	5.4000e-02	2.1556	13.649371	0.000631	6.308074	1.068617	0.025230
 110	5.4500e-02	2.1773	13.779369	0.000650	6.500524	1.101219	0.026000
 111	5.5000e-02	2.1966	13.907229	0.000639	6.393608	1.083106	0.025572
 112	5.5500e-02	2.2168	14.026964	0.000599	5.987325	1.014280	0.023947
 113	5.6000e-02	2.2359	14.152686	0.000629	6.286691	1.064994	0.025144
 114	5.6500e-02	2.2577	14.275842	0.000616	6.158391	1.043260	0.024631
 115	5.7000e-02	2.2763	14.407978	0.000661	6.607441	1.119331	0.026427
 116	5.7500e-02	2.2966	14.520016	0.000560	5.602425	0.949077	0.022408
 117	5.8000e-02	2.3177	14.642745	0.000614	6.137008	1.039637	0.024546
 118	5.8500e-02	2.3350	14.774026	0.000656	6.564674	1.112086	0.026256
 119	5.9000e-02	2.3592	14.922412	0.000742	7.420006	1.256983	0.029677
 120	5.9500e-02	2.3750	15.045568	0.000616	6.158391	1.043260	0.024631
 121	6.0000e-02	2.3950	15.176421	0.000654	6.543291	1.108463	0.026171
 122	6.0500e-02	2.4171	15.298294	0.000609	6.094241	1.032392	0.024375
 123	6.1000e-02	2.4347	15.432141	0.000669	6.692974	1.133820	0.026769
 124	6.1500e-02	2.4582	15.559573	0.000637	6.372224	1.079484	0.025486
 125	6.2000e-02	2.4748	15.668190	0.000543	5.431359	0.920097	0.021723
 126	6.2500e-02	2.4982	15.807168	0.000695	6.949573	1.177290	0.027796
 127	6.3000e-02	2.5185	15.929469	0.000612	6.115625	1.036015	0.024460
 128	6.3500e-02	2.5374	16.054336	0.000624	6.243924	1.057749	0.024973
 129	6.4000e-02	2.5555	16.177492	0.000616	6.158391	1.043260	0.024631
 130	6.4500e-02	2.5769	16.304496	0.000635	6.350841	1.075862	0.025401
 131	6.5000e-02	2.5972	16.434922	0.000652	6.521907	1.104841	0.026085
 132	6.5500e-02	2.6147	16.553374	0.000592	5.923175	1.003413	0.023690
 133	6.6000e-02	2.6337	16.685511	0.000661	6.607441	1.119331	0.026427
 134	6.6500e-02	2.6569	16.783437	0.000490	4.896776	0.829536	0.019585
 135	6.7000e-02	2.6776	16.915145	0.000659	6.586057	1.115708	0.026342
 136	6.7500e-02	2.6936	17.060966	0.000729	7.291706	1.235248	0.029164
 137	6.8000e-02	2.7161	17.175142	0.000571	5.709342	0.967189	0.022835
 138	6.8500e-02	2.7376	17.298298	0.000616	6.158391	1.043260	0.024631
 139	6.9000e-02	2.7567	17.413329	0.000575	5.752109	0.974434	0.023006
 140	6.9500e-02	2.7776	17.545893	0.000663	6.628824	1.122953	0.026513
 141	7.0000e-02	2.7979	17.681022	0.000676	6.757124	1.144688	0.027026
 142	7.0500e-02	2.8168	17.785363	0.000522	5.217526	0.883873	0.020868
 143	7.1000e-02	2.8375	17.927334	0.000710	7.099257	1.202647	0.028394
 144	7.1500e-02	2.8583	18.041510	0.000571	5.709342	0.967189	0.022835
 145	7.2000e-02	2.8760	18.163384	0.000609	6.094241	1.032392	0.024375
 146	7.2500e-02	2.8955	18.297658	0.000671	6.714357	1.137443	0.026855
 147	7.3000e-02	2.9166	18.408840	0.000556	5.559659	0.941832	0.022237
 148	7.3500e-02	2.9367	18.540977	0.000661	6.607441	1.119331	0.026427
 149	7.4000e-02	2.9562	18.651732	0.000554	5.538275	0.938209	0.022151
 150	7.4500e-02	2.9803	18.769756	0.000590	5.901792	0.999791	0.023605
 151	7.5000e-02	2.9968	18.904886	0.000676	6.757124	1.144688	0.027026
 152	7.5500e-02	3.0168	19.037022	0.000661	6.607441	1.119331	0.026427
 153	7.6000e-02	3.0347	19.162316	0.000627	6.265308	1.061372	0.025059
 154	7.6500e-02	3.0554	19.285045	0.000614	6.137008	1.039637	0.024546
 155	7.7000e-02	3.0743	19.412477	0.000637	6.372224	1.079484	0.025486
 156	7.7500e-02	3.0951	19.525798	0.000567	5.666575	0.959944	0.022664
 157	7.8000e-02	3.1157	19.647671	0.000609	6.094241	1.032392	0.024375
 158	7.8500e-02	3.1360	19.775103	0.000637	6.372224	1.079484	0.025486
 159	7.9000e-02	3.1564	19.890562	0.000577	5.773492	0.978056	0.023092
 160	7.9500e-02	3.1758	20.015001	0.000622	6.222541	1.054127	0.024888
 161	8.0000e-02	3.1955	20.147137	0.000661	6.607441	1.119331	0.026427
 162	8.0500e-02	3.2178	20.257465	0.000552	5.516892	0.934587	0.022065
 163	8.1000e-02	3.2375	20.375917	0.000592	5.923175	1.003413	0.023690
 164	8.1500e-02	3.2535	20.499500	0.000618	6.179775	1.046882	0.024717
 165	8.2000e-02	3.2759	20.619663	0.000601	6.008708	1.017903	0.024033
 166	8.2500e-02	3.2962	20.748378	0.000644	6.436374	1.090351	0.025743
 167	8.3000e-02	3.3197	20.859133	0.000554	5.538275	0.938209	0.022151
 168	8.3500e-02	3.3350	20.968178	0.000545	5.452742	0.923720	0.021809
 169	8.4000e-02	3.3566	21.091761	0.000618	6.179775	1.046882	0.024717
 170	8.4500e-02	3.3772	21.220049	0.000641	6.414991	1.086729	0.025658
 171	8.5000e-02	3.3960	21.334225	0.000571	5.709342	0.967189	0.022835
 172	8.5500e-02	3.4177	21.452250	0.000590	5.901792	0.999791	0.023605
 173	8.6000e-02	3.4372	21.579254	0.000635	6.350841	1.075862	0.025401
 174	8.6500e-02	3.4564	21.704121	0.000624	6.243924	1.057749	0.024973
 175	8.7000e-02	3.4766	21.815303	0.000556	5.559659	0.941832	0.022237
 176	8.7500e-02	3.4950	21.929907	0.000573	5.730725	0.970811	0.022921
 177	8.8000e-02	3.5146	22.071451	0.000708	7.077873	1.199024	0.028309
 178	8.8500e-02	3.5355	22.185199	0.000569	5.687959	0.963566	0.022750
 179	8.9000e-02	3.5553	22.293816	0.000543	5.431359	0.920097	0.021723
 180	8.9500e-02	3.5764	22.415689	0.000609	6.094241	1.032392	0.024375
 181	9.0000e-02	3.5962	22.540128	0.000622	6.222541	1.054127	0.024888
 182	9.0500e-02	3.6157	22.647035	0.000535	5.345826	0.905607	0.021381
 183	9.1000e-02	3.6343	22.774467	0.000637	6.372224	1.079484	0.025486
 184	9.1500e-02	3.6551	22.904037	0.000648	6.479141	1.097596	0.025914
 185	9.2000e-02	3.6761	23.012654	0.000543	5.431359	0.920097	0.021723
 186	9.2500e-02	3.6945	23.132389	0.000599	5.987325	1.014280	0.023947
 187	9.3000e-02	3.7158	23.235447	0.000515	5.153376	0.873006	0.020612
 188	9.3500e-02	3.7358	23.350906	0.000577	5.773492	0.978056	0.023092
 189	9.4000e-02	3.7570	23.468503	0.000588	5.880408	0.996168	0.023519
 190	9.4500e-02	3.7769	23.599356	0.000654	6.543291	1.108463	0.026171
 191	9.5000e-02	3.7968	23.725933	0.000633	6.329458	1.072239	0.025315
 192	9.5500e-02	3.8171	23.816162	0.000451	4.511877	0.764333	0.018046
 193	9.6000e-02	3.8345	23.937180	0.000605	6.051475	1.025148	0.024204
 194	9.6500e-02	3.8574	24.041093	0.000520	5.196143	0.880250	0.020783
 195	9.7000e-02	3.8751	24.167670	0.000633	6.329458	1.072239	0.025315
 196	9.7500e-02	3.8976	24.287833	0.000601	6.008708	1.017903	0.024033
 197	9.8000e-02	3.9182	24.412272	0.000622	6.222541	1.054127	0.024888
 198	9.8500e-02	3.9368	24.514046	0.000509	5.089226	0.862138	0.020355
 199	9.9000e-02	3.9581	24.634209	0.000601	6.008708	1.017903	0.024033
 200	9.9500e-02	3.9786	24.747530	0.000567	5.666575	0.959944	0.022664
 201	1.0000e-01	3.9966	24.865982	0.000592	5.923175	1.003413	0.023690
 202	1.0050e-01	4.0170	24.984862	0.000594	5.944558	1.007035	0.023776
 203	1.0100e-01	4.0369	25.084926	0.000500	5.003693	0.847649	0.020013
 204	1.0150e-01	4.0538	25.211503	0.000633	6.329458	1.072239	0.025315
 205	1.0200e-01	4.0756	25.317554	0.000530	5.303059	0.898363	0.021210
 206	1.0250e-01	4.1022	25.420612	0.000515	5.153376	0.873006	0.020612
 207	1.0300e-01	4.1159	25.529229	0.000543	5.431359	0.920097	0.021723
 208	1.0350e-01	4.1376	25.671628	0.000712	7.120640	1.206269	0.028480
 209	1.0400e-01	4.1541	25.772548	0.000505	5.046460	0.854893	0.020184
 210	1.0450e-01	4.1776	25.886296	0.000569	5.687959	0.963566	0.022750
 211	1.0500e-01	4.1975	26.001755	0.000577	5.773492	0.978056	0.023092
 212	1.0550e-01	4.2181	26.109516	0.000539	5.388592	0.912852	0.021552
 213	1.0600e-01	4.2403	26.232672	0.000616	6.158391	1.043260	0.024631
 214	1.0650e-01	4.2587	26.324184	0.000458	4.576027	0.775200	0.018302
 215	1.0700e-01	4.2772	26.463590	0.000697	6.970957	1.180912	0.027881
 216	1.0750e-01	4.2964	26.572207	0.000543	5.431359	0.920097	0.021723
 217	1.0800e-01	4.3149	26.682107	0.000550	5.495509	0.930964	0.021980
 218	1.0850e-01	4.3390	26.802697	0.000603	6.030091	1.021525	0.024118
 219	1.0900e-01	4.3575	26.903189	0.000503	5.025076	0.851271	0.020098
 220	1.0950e-01	4.3793	27.016937	0.000569	5.687959	0.963566	0.022750
 221	1.1000e-01	4.3989	27.127692	0.000554	5.538275	0.938209	0.022151
 222	1.1050e-01	4.4189	27.244434	0.000584	5.837642	0.988923	0.023348
 223	1.1100e-01	4.4360	27.353051	0.000543	5.431359	0.920097	0.021723
 224	1.1150e-01	4.4571	27.465944	0.000565	5.645192	0.956321	0.022579
 225	1.1200e-01	4.4788	27.576699	0.000554	5.538275	0.938209	0.022151
 226	1.1250e-01	4.4958	27.672487	0.000479	4.789860	0.811424	0.019158
 227	1.1300e-01	4.5157	27.786663	0.000571	5.709342	0.967189	0.022835
 228	1.1350e-01	4.5364	27.893569	0.000535	5.345826	0.905607	0.021381
 229	1.1400e-01	4.5553	28.018436	0.000624	6.243924	1.057749	0.024973
 230	1.1450e-01	4.5752	28.131756	0.000567	5.666575	0.959944	0.022664
 231	1.1500e-01	4.5959	28.227972	0.000481	4.811243	0.815047	0.019243
 232	1.1550e-01	4.6143	28.334878	0.000535	5.345826	0.905607	0.021381
 233	1.1600e-01	4.6350	28.452048	0.000586	5.859025	0.992546	0.023434
 234	1.1650e-01	4.6545	28.556388	0.000522	5.217526	0.883873	0.020868
 235	1.1700e-01	4.6811	28.674413	0.000590	5.901792	0.999791	0.023605
 236	1.1750e-01	4.6957	28.774477	0.000500	5.003693	0.847649	0.020013
 237	1.1800e-01	4.7165	28.877107	0.000513	5.131993	0.869383	0.020526
 238	1.1850e-01	4.7374	28.998125	0.000605	6.051475	1.025148	0.024204
 239	1.1900e-01	4.7565	29.109735	0.000558	5.581042	0.945454	0.022322
 240	1.1950e-01	4.7766	29.220490	0.000554	5.538275	0.938209	0.022151
 241	1.2000e-01	4.7955	29.314140	0.000468	4.682943	0.793312	0.018730
 242	1.2050e-01	4.8169	29.424895	0.000554	5.538275	0.938209	0.022151
 243	1.2100e-01	4.8389	29.530519	0.000528	5.281676	0.894740	0.021125
 244	1.2150e-01	4.8572	29.642556	0.000560	5.602425	0.949077	0.022408
 245	1.2200e-01	4.8770	29.752456	0.000550	5.495509	0.930964	0.021980
 246	1.2250e-01	4.8964	29.837554	0.000426	4.255277	0.720863	0.017019
 247	1.2300e-01	4.9170	29.959427	0.000609	6.094241	1.032392	0.024375
 248	1.2350e-01	4.9359	30.082155	0.000614	6.137008	1.039637	0.024546
 249	1.2400e-01	4.9576	30.183075	0.000505	5.046460	0.854893	0.020184
 250	1.2450e-01	4.9792	30.290409	0.000537	5.367209	0.909230	0.021467
 251	1.2500e-01	4.9957	30.388335	0.000490	4.896776	0.829536	0.019585
 252	1.2550e-01	5.0171	30.494386	0.000530	5.303059	0.898363	0.021210
 253	1.2600e-01	5.0375	30.602575	0.000541	5.409976	0.916475	0.021638
 254	1.2650e-01	5.0601	30.719317	0.000584	5.837642	0.988923	0.023348
 255	1.2700e-01	5.0793	30.812112	0.000464	4.640177	0.786067	0.018559
 256	1.2750e-01	5.0960	30.916452	0.000522	5.217526	0.883873	0.020868
 257	1.2800e-01	5.1168	31.025924	0.000547	5.474126	0.927342	0.021894
 258	1.2850e-01	5.1352	31.123850	0.000490	4.896776	0.829536	0.019585
 259	1.2900e-01	5.1559	31.232895	0.000545	5.452742	0.923720	0.021809
 260	1.2950e-01	5.1761	31.342367	0.000547	5.474126	0.927342	0.021894
 261	1.3000e-01	5.1956	31.447990	0.000528	5.281676	0.894740	0.021125
 262	1.3050e-01	5.2191	31.548910	0.000505	5.046460	0.854893	0.020184
 263	1.3100e-01	5.2362	31.655816	0.000535	5.345826	0.905607	0.021381
 264	1.3150e-01	5.2594	31.753315	0.000488	4.875393	0.825914	0.019500
 265	1.3200e-01	5.2789	31.862359	0.000545	5.452742	0.923720	0.021809
 266	1.3250e-01	5.2972	31.949595	0.000436	4.362194	0.738976	0.017447
 267	1.3300e-01	5.3168	32.052652	0.000515	5.153376	0.873006	0.020612
 268	1.3350e-01	5.3354	32.168539	0.000579	5.794875	0.981678	0.023177
 269	1.3400e-01	5.3580	32.271597	0.000515	5.153376	0.873006	0.020612
 270	1.3450e-01	5.3778	32.368240	0.000483	4.832626	0.818669	0.019329
 271	1.3500e-01	5.3964	32.474719	0.000532	5.324442	0.901985	0.021296
 272	1.3550e-01	5.4163	32.574783	0.000500	5.003693	0.847649	0.020013
 273	1.3600e-01	5.4340	32.668005	0.000466	4.661560	0.789690	0.018644
 274	1.3650e-01	5.4568	32.787740	0.000599	5.987325	1.014280	0.023947
 275	1.3700e-01	5.4788	32.886094	0.000492	4.918160	0.833159	0.019671
 276	1.3750e-01	5.4984	32.991290	0.000526	5.260293	0.891118	0.021039
 277	1.3800e-01	5.5203	33.096058	0.000524	5.238909	0.887495	0.020954
 278	1.3850e-01	5.5371	33.180300	0.000421	4.212511	0.713619	0.016848
 279	1.3900e-01	5.5527	33.296614	0.000582	5.816258	0.985301	0.023263
 280	1.3950e-01	5.5798	33.395823	0.000496	4.960926	0.840404	0.019842
 281	1.4000e-01	5.5988	33.483059	0.000436	4.362194	0.738976	0.017447
 282	1.4050e-01	5.6166	33.586117	0.000515	5.153376	0.873006	0.020612
 283	1.4100e-01	5.6372	33.696872	0.000554	5.538275	0.938209	0.022151
 284	1.4150e-01	5.6561	33.794370	0.000488	4.875393	0.825914	0.019500
 285	1.4200e-01	5.6805	33.884172	0.000449	4.490494	0.760710	0.017960
 286	1.4250e-01	5.6946	34.003051	0.000594	5.944558	1.007035	0.023776
 287	1.4300e-01	5.7196	34.091997	0.000445	4.447727	0.753465	0.017789
 288	1.4350e-01	5.7373	34.179661	0.000438	4.383577	0.742598	0.017533
 289	1.4400e-01	5.7568	34.297685	0.000590	5.901792	0.999791	0.023605
 290	1.4450e-01	5.7764	34.402453	0.000524	5.238909	0.887495	0.020954
 291	1.4500e-01	5.7959	34.478571	0.000381	3.806228	0.644792	0.015223
 292	1.4550e-01	5.8179	34.587615	0.000545	5.452742	0.923720	0.021809
 293	1.4600e-01	5.8386	34.678699	0.000455	4.554644	0.771578	0.018217
 294	1.4650e-01	5.8582	34.782612	0.000520	5.196143	0.880250	0.020783
 295	1.4700e-01	5.8765	34.900209	0.000588	5.880408	0.996168	0.023519
 296	1.4750e-01	5.8954	35.001984	0.000509	5.089226	0.862138	0.020355
 297	1.4800e-01	5.9174	35.088364	0.000432	4.319427	0.731731	0.017276
 298	1.4850e-01	5.9412	35.188429	0.000500	5.003693	0.847649	0.020013
 299	1.4900e-01	5.9558	35.302177	0.000569	5.687959	0.963566	0.022750
 300	1.4950e-01	5.9781	35.366321	0.000321	3.207495	0.543364	0.012829
 301	1.5000e-01	5.9985	35.479641	0.000567	5.666575	0.959944	0.022664
 302	1.5050e-01	6.0181	35.566449	0.000434	4.340811	0.735353	0.017362
 303	1.5100e-01	6.0358	35.672928	0.000532	5.324442	0.901985	0.021296
 304	1.5150e-01	6.0577	35.772137	0.000496	4.960926	0.840404	0.019842
 305	1.5200e-01	6.0793	35.864932	0.000464	4.640177	0.786067	0.018559
 306	1.5250e-01	6.0977	35.957726	0.000464	4.640177	0.786067	0.018559
 307	1.5300e-01	6.1151	36.059501	0.000509	5.089226	0.862138	0.020355
 308	1.5350e-01	6.1353	36.161704	0.000511	5.110609	0.865761	0.020440
 309	1.5400e-01	6.1572	36.259202	0.000488	4.875393	0.825914	0.019500
 310	1.5450e-01	6.1755	36.345583	0.000432	4.319427	0.731731	0.017276
 311	1.5500e-01	6.1975	36.434956	0.000447	4.469110	0.757088	0.017875
 312	1.5550e-01	6.2207	36.532882	0.000490	4.896776	0.829536	0.019585
 313	1.5600e-01	6.2350	36.629953	0.000485	4.854010	0.822292	0.019414
 314	1.5650e-01	6.2576	36.728307	0.000492	4.918160	0.833159	0.019671
 315	1.5700e-01	6.2759	36.824095	0.000479	4.789860	0.811424	0.019158
 316	1.5750e-01	6.3007	36.933140	0.000545	5.452742	0.923720	0.021809
 317	1.5800e-01	6.3187	37.010540	0.000387	3.870378	0.655660	0.015480
 318	1.5850e-01	6.3361	37.116591	0.000530	5.303059	0.898363	0.021210
 319	1.5900e-01	6.3550	37.196985	0.000402	4.020061	0.681017	0.016079
 320	1.5950e-01	6.3751	37.298332	0.000507	5.067843	0.858516	0.020269
 321	1.6000e-01	6.3940	37.403100	0.000524	5.238909	0.887495	0.020954
 322	1.6050e-01	6.4185	37.501026	0.000490	4.896776	0.829536	0.019585
 323	1.6100e-01	6.4374	37.572440	0.000357	3.571012	0.604946	0.014283
 324	1.6150e-01	6.4615	37.677208	0.000524	5.238909	0.887495	0.020954
 325	1.6200e-01	6.4758	37.765299	0.000440	4.404960	0.746220	0.017618
 326	1.6250e-01	6.4954	37.870922	0.000528	5.281676	0.894740	0.021125
 327	1.6300e-01	6.5170	37.964572	0.000468	4.682943	0.793312	0.018730
 328	1.6350e-01	6.5363	38.053946	0.000447	4.469110	0.757088	0.017875
 329	1.6400e-01	6.5564	38.146740	0.000464	4.640177	0.786067	0.018559
 330	1.6450e-01	6.5747	38.226706	0.000400	3.998678	0.677394	0.015993
 331	1.6500e-01	6.5982	38.333612	0.000535	5.345826	0.905607	0.021381
 332	1.6550e-01	6.6162	38.430256	0.000483	4.832626	0.818669	0.019329
 333	1.6600e-01	6.6397	38.513643	0.000417	4.169744	0.706374	0.016677
 334	1.6650e-01	6.6571	38.603444	0.000449	4.490494	0.760710	0.017960
 335	1.6700e-01	6.6748	38.698804	0.000477	4.768477	0.807802	0.019072
 336	1.6750e-01	6.6956	38.787751	0.000445	4.447727	0.753465	0.017789
 337	1.6800e-01	6.7139	38.891236	0.000517	5.174759	0.876628	0.020697
 338	1.6850e-01	6.7349	38.975906	0.000423	4.233894	0.717241	0.016934
 339	1.6900e-01	6.7554	39.072121	0.000481	4.811243	0.815047	0.019243
 340	1.6950e-01	6.7725	39.157219	0.000426	4.255277	0.720863	0.017019
 341	1.7000e-01	6.7975	39.249586	0.000462	4.618793	0.782445	0.018473
 342	1.7050e-01	6.8155	39.331262	0.000408	4.084211	0.691884	0.016335
 343	1.7100e-01	6.8359	39.439451	0.000541	5.409976	0.916475	0.021638
 344	1.7150e-01	6.8536	39.527542	0.000440	4.404960	0.746220	0.017618
 345	1.7200e-01	6.8774	39.622475	0.000475	4.747093	0.804179	0.018987
 346	1.7250e-01	6.8964	39.715270	0.000464	4.640177	0.786067	0.018559
 347	1.7300e-01	6.9159	39.807637	0.000462	4.618793	0.782445	0.018473
 348	1.7350e-01	6.9388	39.896155	0.000443	4.426344	0.749843	0.017704
 349	1.7400e-01	6.9592	39.977832	0.000408	4.084211	0.691884	0.016335
 350	1.7450e-01	6.9769	40.072764	0.000475	4.747093	0.804179	0.018987
 351	1.7500e-01	6.9971	40.158717	0.000430	4.298044	0.728108	0.017191
 352	1.7550e-01	7.0157	40.243815	0.000426	4.255277	0.720863	0.017019
 353	1.7600e-01	7.0386	40.342596	0.000494	4.939543	0.836781	0.019756
 354	1.7650e-01	7.0554	40.434108	0.000458	4.576027	0.775200	0.018302
 355	1.7700e-01	7.0752	40.526903	0.000464	4.640177	0.786067	0.018559
 356	1.7750e-01	7.0984	40.605158	0.000391	3.913144	0.662905	0.015651
 357	1.7800e-01	7.1121	40.715058	0.000550	5.495509	0.930964	0.021980
 358	1.7850e-01	7.1426	40.781340	0.000331	3.314412	0.561477	0.013256
 359	1.7900e-01	7.1576	40.886963	0.000528	5.281676	0.894740	0.021125
 360	1.7950e-01	7.1747	40.981896	0.000475	4.747093	0.804179	0.018987
 361	1.8000e-01	7.1960	41.062289	0.000402	4.020061	0.681017	0.016079
 362	1.8050e-01	7.2205	41.151663	0.000447	4.469110	0.757088	0.017875
 363	1.8100e-01	7.2394	41.241892	0.000451	4.511877	0.764333	0.018046
 364	1.8150e-01	7.2552	41.322713	0.000404	4.041444	0.684639	0.016164
 365	1.8200e-01	7.2797	41.407383	0.000423	4.233894	0.717241	0.016934
 366	1.8250e-01	7.2961	41.517283	0.000550	5.495509	0.930964	0.021980
 367	1.8300e-01	7.3163	41.584847	0.000338	3.378562	0.572344	0.013513
 368	1.8350e-01	7.3358	41.687478	0.000513	5.131993	0.869383	0.020526
 369	1.8400e-01	7.3584	41.771720	0.000421	4.212511	0.713619	0.016848
 370	1.8450e-01	7.3761	41.849975	0.000391	3.913144	0.662905	0.015651
 371	1.8500e-01	7.3962	41.937638	0.000438	4.383577	0.742598	0.017533
 372	1.8550e-01	7.4176	42.036420	0.000494	4.939543	0.836781	0.019756
 373	1.8600e-01	7.4356	42.125366	0.000445	4.447727	0.753465	0.017789
 374	1.8650e-01	7.4548	42.200628	0.000376	3.763461	0.637548	0.015052
 375	1.8700e-01	7.4771	42.299837	0.000496	4.960926	0.840404	0.019842
 376	1.8750e-01	7.4963	42.375099	0.000376	3.763461	0.637548	0.015052
 377	1.8800e-01	7.5183	42.470032	0.000475	4.747093	0.804179	0.018987
 378	1.8850e-01	7.5348	42.555129	0.000426	4.255277	0.720863	0.017019
 379	1.8900e-01	7.5551	42.648779	0.000468	4.682943	0.793312	0.018730
 380	1.8950e-01	7.5793	42.719337	0.000353	3.528245	0.597701	0.014112
 381	1.9000e-01	7.5977	42.807000	0.000438	4.383577	0.742598	0.017533
 382	1.9050e-01	7.6147	42.903216	0.000481	4.811243	0.815047	0.019243
 383	1.9100e-01	7.6352	42.990879	0.000438	4.383577	0.742598	0.017533
 384	1.9150e-01	7.6550	43.077260	0.000432	4.319427	0.731731	0.017276
 385	1.9200e-01	7.6736	43.158081	0.000404	4.041444	0.684639	0.016164
 386	1.9250e-01	7.6990	43.240613	0.000413	4.126977	0.699129	0.016506
 387	1.9300e-01	7.7161	43.322717	0.000411	4.105594	0.695506	0.016421
 388	1.9350e-01	7.7374	43.418932	0.000481	4.811243	0.815047	0.019243
 389	1.9400e-01	7.7551	43.499753	0.000404	4.041444	0.684639	0.016164
 390	1.9450e-01	7.7734	43.600245	0.000503	5.025076	0.851271	0.020098
 391	1.9500e-01	7.7979	43.672514	0.000361	3.613778	0.612191	0.014454
 392	1.9550e-01	7.8186	43.749487	0.000385	3.848995	0.652037	0.015395
 393	1.9600e-01	7.8357	43.840143	0.000453	4.533260	0.767955	0.018131
 394	1.9650e-01	7.8564	43.925241	0.000426	4.255277	0.720863	0.017019
 395	1.9700e-01	7.8748	44.000503	0.000376	3.763461	0.637548	0.015052
 396	1.9750e-01	7.8961	44.106126	0.000528	5.281676	0.894740	0.021125
 397	1.9800e-01	7.9147	44.176257	0.000351	3.506862	0.594078	0.014026
 398	1.9850e-01	7.9379	44.265203	0.000445	4.447727	0.753465	0.017789
 399	1.9900e-01	7.9553	44.354149	0.000445	4.447727	0.753465	0.017789
 400	1.9950e-01	7.9773	44.434542	0.000402	4.020061	0.681017	0.016079
 401	2.0000e-01	7.9950	44.515363	0.000404	4.041444	0.684639	0.016164
 402	2.0050e-01	8.0164	44.604737	0.000447	4.469110	0.757088	0.017875
 403	2.0100e-01	8.0359	44.700098	0.000477	4.768477	0.807802	0.019072
 404	2.0150e-01	8.0560	44.768945	0.000344	3.442712	0.583211	0.013770
 405	2.0200e-01	8.0792	44.859174	0.000451	4.511877	0.764333	0.018046
 406	2.0250e-01	8.0957	44.937857	0.000393	3.934528	0.666527	0.015737
 407	2.0300e-01	8.1198	45.019961	0.000411	4.105594	0.695506	0.016421
 408	2.0350e-01	8.1360	45.102493	0.000413	4.126977	0.699129	0.016506
 409	2.0400e-01	8.1607	45.194860	0.000462	4.618793	0.782445	0.018473
 410	2.0450e-01	8.1769	45.267556	0.000364	3.635162	0.615813	0.014539
 411	2.0500e-01	8.1964	45.350088	0.000413	4.126977	0.699129	0.016506
 412	2.0550e-01	8.2196	45.431764	0.000408	4.084211	0.691884	0.016335
 413	2.0600e-01	8.2397	45.514724	0.000415	4.148361	0.702751	0.016592
 414	2.0650e-01	8.2526	45.598966	0.000421	4.212511	0.713619	0.016848
 415	2.0700e-01	8.2764	45.695609	0.000483	4.832626	0.818669	0.019329
 416	2.0750e-01	8.2938	45.773865	0.000391	3.913144	0.662905	0.015651
 417	2.0800e-01	8.3173	45.840574	0.000334	3.335795	0.565099	0.013342
 418	2.0850e-01	8.3374	45.920540	0.000400	3.998678	0.677394	0.015993
 419	2.0900e-01	8.3557	46.015045	0.000473	4.725710	0.800557	0.018901
 420	2.0950e-01	8.3740	46.106129	0.000455	4.554644	0.771578	0.018217
 421	2.1000e-01	8.3997	46.179681	0.000368	3.677928	0.623058	0.014710
 422	2.1050e-01	8.4186	46.254943	0.000376	3.763461	0.637548	0.015052
 423	2.1100e-01	8.4369	46.325501	0.000353	3.528245	0.597701	0.014112
 424	2.1150e-01	8.4552	46.437967	0.000562	5.623809	0.952699	0.022493
 425	2.1200e-01	8.4769	46.511946	0.000370	3.699311	0.626680	0.014796
 426	2.1250e-01	8.4979	46.591057	0.000396	3.955911	0.670149	0.015822
 427	2.1300e-01	8.5165	46.659049	0.000340	3.399945	0.575966	0.013598
 428	2.1350e-01	8.5376	46.747140	0.000440	4.404960	0.746220	0.017618
 429	2.1400e-01	8.5574	46.833520	0.000432	4.319427	0.731731	0.017276
 430	2.1450e-01	8.5779	46.905789	0.000361	3.613778	0.612191	0.014454
 431	2.1500e-01	8.5980	46.977202	0.000357	3.571012	0.604946	0.014283
 432	2.1550e-01	8.6169	47.055458	0.000391	3.913144	0.662905	0.015651
 433	2.1600e-01	8.6371	47.158943	0.000517	5.174759	0.876628	0.020697
 434	2.1650e-01	8.6572	47.245751	0.000434	4.340811	0.735353	0.017362
 435	2.1700e-01	8.6774	47.311178	0.000327	3.271645	0.554232	0.013085
 436	2.1750e-01	8.7000	47.390288	0.000396	3.955911	0.670149	0.015822
 437	2.1800e-01	8.7183	47.472392	0.000411	4.105594	0.695506	0.016421
 438	2.1850e-01	8.7357	47.570318	0.000490	4.896776	0.829536	0.019585
 439	2.1900e-01	8.7561	47.640449	0.000351	3.506862	0.594078	0.014026
 440	2.1950e-01	8.7781	47.704165	0.000319	3.186112	0.539742	0.012743
 441	2.2000e-01	8.7946	47.783276	0.000396	3.955911	0.670149	0.015822
 442	2.2050e-01	8.8159	47.869656	0.000432	4.319427	0.731731	0.017276
 443	2.2100e-01	8.8379	47.956036	0.000432	4.319427	0.731731	0.017276
 444	2.2150e-01	8.8568	48.017614	0.000308	3.079196	0.521630	0.012316
 445	2.2200e-01	8.8770	48.101001	0.000417	4.169744	0.706374	0.016677
 446	2.2250e-01	8.8966	48.184816	0.000419	4.191127	0.709996	0.016763
 447	2.2300e-01	8.9178	48.270769	0.000430	4.298044	0.728108	0.017191
 448	2.2350e-01	8.9355	48.344748	0.000370	3.699311	0.626680	0.014796
 449	2.2400e-01	8.9569	48.427707	0.000415	4.148361	0.702751	0.016592
 450	2.2450e-01	8.9764	48.508101	0.000402	4.020061	0.681017	0.016079
 451	2.2500e-01	8.9972	48.579514	0.000357	3.571012	0.604946	0.014283
 452	2.2550e-01	9.0164	48.663329	0.000419	4.191127	0.709996	0.016763
 453	2.2600e-01	9.0387	48.733887	0.000353	3.528245	0.597701	0.014112
 454	2.2650e-01	9.0601	48.824971	0.000455	4.554644	0.771578	0.018217
 455	2.2700e-01	9.0771	48.898523	0.000368	3.677928	0.623058	0.014710
 456	2.2750e-01	9.0967	48.974212	0.000378	3.784845	0.641170	0.015138
 457	2.2800e-01	9.1193	49.065724	0.000458	4.576027	0.775200	0.018302
 458	2.2850e-01	9.1364	49.129440	0.000319	3.186112	0.539742	0.012743
 459	2.2900e-01	9.1571	49.202992	0.000368	3.677928	0.623058	0.014710
 460	2.2950e-01	9.1772	49.290227	0.000436	4.362194	0.738976	0.017447
 461	2.3000e-01	9.1980	49.348812	0.000293	2.929513	0.496273	0.011717
 462	2.3050e-01	9.2171	49.430916	0.000411	4.105594	0.695506	0.016421
 463	2.3100e-01	9.2389	49.524138	0.000466	4.661560	0.789690	0.018644
 464	2.3150e-01	9.2560	49.600683	0.000383	3.827611	0.648415	0.015309
 465	2.3200e-01	9.2780	49.675090	0.000372	3.720695	0.630303	0.014881
 466	2.3250e-01	9.2938	49.754201	0.000396	3.955911	0.670149	0.015822
 467	2.3300e-01	9.3164	49.831601	0.000387	3.870378	0.655660	0.015480
 468	2.3350e-01	9.3347	49.900876	0.000346	3.464095	0.586834	0.013855
 469	2.3400e-01	9.3561	49.984263	0.000417	4.169744	0.706374	0.016677
 470	2.3450e-01	9.3774	50.065084	0.000404	4.041444	0.684639	0.016164
 471	2.3500e-01	9.3973	50.136498	0.000357	3.571012	0.604946	0.014283
 472	2.3550e-01	9.4171	50.217319	0.000404	4.041444	0.684639	0.016164
 473	2.3600e-01	9.4336	50.278042	0.000304	3.036429	0.514385	0.012145
 474	2.3650e-01	9.4568	50.363139	0.000426	4.255277	0.720863	0.017019
 475	2.3700e-01	9.4788	50.435408	0.000361	3.613778	0.612191	0.014454
 476	2.3750e-01	9.4965	50.520505	0.000426	4.255277	0.720863	0.017019
 477	2.3800e-01	9.5145	50.599616	0.000396	3.955911	0.670149	0.015822
 478	2.3850e-01	9.5349	50.670174	0.000353	3.528245	0.597701	0.014112
 479	2.3900e-01	9.5551	50.741587	0.000357	3.571012	0.604946	0.014283
 480	2.3950e-01	9.5764	50.824119	0.000413	4.126977	0.699129	0.016506
 481	2.4000e-01	9.5959	50.905796	0.000408	4.084211	0.691884	0.016335
 482	2.4050e-01	9.6204	50.973360	0.000338	3.378562	0.572344	0.013513
 483	2.4100e-01	9.6387	51.040498	0.000336	3.357179	0.568721	0.013427
 484	2.4150e-01	9.6539	51.149114	0.000543	5.431359	0.920097	0.021723
 485	2.4200e-01	9.6771	51.198719	0.000248	2.480463	0.420202	0.009921
 486	2.4250e-01	9.6967	51.278257	0.000398	3.977294	0.673772	0.015908
 487	2.4300e-01	9.7180	51.346677	0.000342	3.421328	0.579589	0.013684
 488	2.4350e-01	9.7363	51.430919	0.000421	4.212511	0.713619	0.016848
 489	2.4400e-01	9.7583	51.506181	0.000376	3.763461	0.637548	0.015052
 490	2.4450e-01	9.7760	51.582726	0.000383	3.827611	0.648415	0.015309
 491	2.4500e-01	9.7961	51.650719	0.000340	3.399945	0.575966	0.013598
 492	2.4550e-01	9.8175	51.731540	0.000404	4.041444	0.684639	0.016164
 493	2.4600e-01	9.8364	51.805092	0.000368	3.677928	0.623058	0.014710
 494	2.4650e-01	9.8560	51.887196	0.000411	4.105594	0.695506	0.016421
 495	2.4700e-01	9.8749	51.962458	0.000376	3.763461	0.637548	0.015052
 496	2.4750e-01	9.8975	52.030022	0.000338	3.378562	0.572344	0.013513
 497	2.4800e-01	9.9152	52.115547	0.000428	4.276661	0.724486	0.017105
 498	2.4850e-01	9.9341	52.174987	0.000297	2.972279	0.503518	0.011888
 499	2.4900e-01	9.9585	52.256664	0.000408	4.084211	0.691884	0.016335
 500	2.4950e-01	9.9774	52.335774	0.000396	3.955911	0.670149	0.015822
 501	2.5000e-01	9.9976	52.400774	0.000325	3.250262	0.550609	0.013000
 502	2.5050e-01	9.9768	52.322518	0.000391	3.913144	0.662905	-0.015651
 503	2.5100e-01	9.9573	52.263933	0.000293	2.929513	0.496273	-0.011717
 504	2.5150e-01	9.9377	52.194658	0.000346	3.464095	0.586834	-0.013855
 505	2.5200e-01	9.9173	52.142060	0.000263	2.630146	0.445559	-0.010520
 506	2.5250e-01	9.8981	52.083048	0.000295	2.950896	0.499895	-0.011802
 507	2.5300e-01	9.8798	52.025319	0.000289	2.886746	0.489028	-0.011546
 508	2.5350e-01	9.8578	51.967162	0.000291	2.908129	0.492650	-0.011631
 509	2.5400e-01	9.8364	51.898314	0.000344	3.442712	0.583211	-0.013770
 510	2.5450e-01	9.8175	51.841012	0.000287	2.865363	0.485406	-0.011460
 511	2.5500e-01	9.7949	51.786276	0.000274	2.737063	0.463671	-0.010947
 512	2.5550e-01	9.7803	51.717001	0.000346	3.464095	0.586834	-0.013855
 513	2.5600e-01	9.7559	51.646015	0.000355	3.549628	0.601323	-0.014197
 514	2.5650e-01	9.7363	51.599831	0.000231	2.309397	0.391222	-0.009237
 515	2.5700e-01	9.7163	51.516872	0.000415	4.148361	0.702751	-0.016592
 516	2.5750e-01	9.6960	51.468550	0.000242	2.416313	0.409335	-0.009664
 517	2.5800e-01	9.6759	51.412959	0.000278	2.779829	0.470916	-0.011118
 518	2.5850e-01	9.6545	51.332566	0.000402	4.020061	0.681017	-0.016079
 519	2.5900e-01	9.6362	51.273126	0.000297	2.972279	0.503518	-0.011888
 520	2.5950e-01	9.6204	51.203850	0.000346	3.464095	0.586834	-0.013855
 521	2.6000e-01	9.5947	51.135003	0.000344	3.442712	0.583211	-0.013770
 522	2.6050e-01	9.5801	51.082405	0.000263	2.630146	0.445559	-0.010520
 523	2.6100e-01	9.5599	51.001584	0.000404	4.041444	0.684639	-0.016164
 524	2.6150e-01	9.5386	50.934019	0.000338	3.378562	0.572344	-0.013513
 525	2.6200e-01	9.5172	50.881849	0.000261	2.608763	0.441936	-0.010434
 526	2.6250e-01	9.4946	50.810008	0.000359	3.592395	0.608568	-0.014368
 527	2.6300e-01	9.4763	50.762969	0.000235	2.352163	0.398467	-0.009408
 528	2.6350e-01	9.4568	50.673167	0.000449	4.490494	0.760710	-0.017960
 529	2.6400e-01	9.4360	50.605175	0.000340	3.399945	0.575966	-0.013598
 530	2.6450e-01	9.4171	50.550439	0.000274	2.737063	0.463671	-0.010947
 531	2.6500e-01	9.3982	50.486295	0.000321	3.207495	0.543364	-0.012829
 532	2.6550e-01	9.3762	50.414454	0.000359	3.592395	0.608568	-0.014368
 533	2.6600e-01	9.3562	50.331922	0.000413	4.126977	0.699129	-0.016506
 534	2.6650e-01	9.3353	50.277186	0.000274	2.737063	0.463671	-0.010947
 535	2.6700e-01	9.3164	50.215608	0.000308	3.079196	0.521630	-0.012316
 536	2.6750e-01	9.2969	50.158734	0.000284	2.843979	0.481783	-0.011375
 537	2.6800e-01	9.2767	50.085183	0.000368	3.677928	0.623058	-0.014710
 538	2.6850e-01	9.2560	50.015480	0.000349	3.485478	0.590456	-0.013941
 539	2.6900e-01	9.2361	49.941073	0.000372	3.720695	0.630303	-0.014881
 540	2.6950e-01	9.2188	49.865811	0.000376	3.763461	0.637548	-0.015052
 541	2.7000e-01	9.1956	49.799529	0.000331	3.314412	0.561477	-0.013256
 542	2.7050e-01	9.1782	49.737523	0.000310	3.100579	0.525252	-0.012401
 543	2.7100e-01	9.1571	49.679794	0.000289	2.886746	0.489028	-0.011546
 544	2.7150e-01	9.1382	49.593414	0.000432	4.319427	0.731731	-0.017276
 545	2.7200e-01	9.1162	49.524994	0.000342	3.421328	0.579589	-0.013684
 546	2.7250e-01	9.0945	49.465554	0.000297	2.972279	0.503518	-0.011888
 547	2.7300e-01	9.0741	49.403548	0.000310	3.100579	0.525252	-0.012401
 548	2.7350e-01	9.0552	49.327858	0.000378	3.784845	0.641170	-0.015138
 549	2.7400e-01	9.0366	49.270984	0.000284	2.843979	0.481783	-0.011375
 550	2.7450e-01	9.0179	49.182038	0.000445	4.447727	0.753465	-0.017789
 551	2.7500e-01	8.9966	49.114046	0.000340	3.399945	0.575966	-0.013598
 552	2.7550e-01	8.9764	49.045626	0.000342	3.421328	0.579589	-0.013684
 553	2.7600e-01	8.9575	48.976350	0.000346	3.464095	0.586834	-0.013855
 554	2.7650e-01	8.9374	48.910496	0.000329	3.293029	0.557854	-0.013171
 555	2.7700e-01	8.9156	48.830102	0.000402	4.020061	0.681017	-0.016079
 556	2.7750e-01	8.8954	48.777932	0.000261	2.608763	0.441936	-0.010434
 557	2.7800e-01	8.8763	48.701815	0.000381	3.806228	0.644792	-0.015223
 558	2.7850e-01	8.8556	48.635961	0.000329	3.293029	0.557854	-0.013171
 559	2.7900e-01	8.8330	48.555567	0.000402	4.020061	0.681017	-0.016079
 560	2.7950e-01	8.8153	48.485864	0.000349	3.485478	0.590456	-0.013941
 561	2.8000e-01	8.7953	48.428990	0.000284	2.843979	0.481783	-0.011375
 562	2.8050e-01	8.7750	48.337906	0.000455	4.554644	0.771578	-0.018217
 563	2.8100e-01	8.7604	48.278466	0.000297	2.972279	0.503518	-0.011888
 564	2.8150e-01	8.7372	48.203204	0.000376	3.763461	0.637548	-0.015052
 565	2.8200e-01	8.7164	48.145047	0.000291	2.908129	0.492650	-0.011631
 566	2.8250e-01	8.6963	48.071923	0.000366	3.656545	0.619435	-0.014625
 567	2.8300e-01	8.6768	48.000509	0.000357	3.571012	0.604946	-0.014283
 568	2.8350e-01	8.6566	47.929951	0.000353	3.528245	0.597701	-0.014112
 569	2.8400e-01	8.6365	47.849130	0.000404	4.041444	0.684639	-0.016164
 570	2.8450e-01	8.6179	47.790118	0.000295	2.950896	0.499895	-0.011802
 571	2.8500e-01	8.5968	47.714428	0.000378	3.784845	0.641170	-0.015138
 572	2.8550e-01	8.5764	47.639166	0.000376	3.763461	0.637548	-0.015052
 573	2.8600e-01	8.5559	47.557917	0.000406	4.062828	0.688262	-0.016250
 574	2.8650e-01	8.5370	47.482228	0.000378	3.784845	0.641170	-0.015138
 575	2.8700e-01	8.5172	47.421505	0.000304	3.036429	0.514385	-0.012145
 576	2.8750e-01	8.4955	47.353512	0.000340	3.399945	0.575966	-0.013598
 577	2.8800e-01	8.4790	47.297494	0.000280	2.801213	0.474538	-0.011204
 578	2.8850e-01	8.4552	47.195291	0.000511	5.110609	0.865761	-0.020440
 579	2.8900e-01	8.4375	47.129864	0.000327	3.271645	0.554232	-0.013085
 580	2.8950e-01	8.4143	47.063582	0.000331	3.314412	0.561477	-0.013256
 581	2.9000e-01	8.3948	46.989603	0.000370	3.699311	0.626680	-0.014796
 582	2.9050e-01	8.3759	46.910065	0.000398	3.977294	0.673772	-0.015908
 583	2.9100e-01	8.3554	46.856612	0.000267	2.672913	0.452804	-0.010691
 584	2.9150e-01	8.3356	46.767666	0.000445	4.447727	0.753465	-0.017789
 585	2.9200e-01	8.3173	46.695825	0.000359	3.592395	0.608568	-0.014368
 586	2.9250e-01	8.2977	46.612010	0.000419	4.191127	0.709996	-0.016763
 587	2.9300e-01	8.2745	46.547011	0.000325	3.250262	0.550609	-0.013000
 588	2.9350e-01	8.2565	46.480729	0.000331	3.314412	0.561477	-0.013256
 589	2.9400e-01	8.2367	46.398625	0.000411	4.105594	0.695506	-0.016421
 590	2.9450e-01	8.2190	46.328495	0.000351	3.506862	0.594078	-0.014026
 591	2.9500e-01	8.1970	46.246391	0.000411	4.105594	0.695506	-0.016421
 592	2.9550e-01	8.1757	46.181392	0.000325	3.250262	0.550609	-0.013000
 593	2.9600e-01	8.1573	46.103564	0.000389	3.891761	0.659282	-0.015566
 594	2.9650e-01	8.1378	46.033006	0.000353	3.528245	0.597701	-0.014112
 595	2.9700e-01	8.1158	45.971000	0.000310	3.100579	0.525252	-0.012401
 596	2.9750e-01	8.0969	45.878633	0.000462	4.618793	0.782445	-0.018473
 597	2.9800e-01	8.0786	45.803798	0.000374	3.742078	0.633925	-0.014967
 598	2.9850e-01	8.0591	45.734523	0.000346	3.464095	0.586834	-0.013855
 599	2.9900e-01	8.0365	45.651991	0.000413	4.126977	0.699129	-0.016506
 600	2.9950e-01	8.0173	45.582289	0.000349	3.485478	0.590456	-0.013941
 601	3.0000e-01	7.9950	45.515151	0.000336	3.357179	0.568721	-0.013427
 602	3.0050e-01	7.9758	45.429626	0.000428	4.276661	0.724486	-0.017105
 603	3.0100e-01	7.9596	45.350516	0.000396	3.955911	0.670149	-0.015822
 604	3.0150e-01	7.9370	45.273543	0.000385	3.848995	0.652037	-0.015395
 605	3.0200e-01	7.9169	45.206834	0.000334	3.335795	0.565099	-0.013342
 606	3.0250e-01	7.8986	45.137131	0.000349	3.485478	0.590456	-0.013941
 607	3.0300e-01	7.8754	45.058875	0.000391	3.913144	0.662905	-0.015651
 608	3.0350e-01	7.8577	44.984041	0.000374	3.742078	0.633925	-0.014967
 609	3.0400e-01	7.8381	44.900654	0.000417	4.169744	0.706374	-0.016677
 610	3.0450e-01	7.8186	44.823681	0.000385	3.848995	0.652037	-0.015395
 611	3.0500e-01	7.7966	44.759537	0.000321	3.207495	0.543364	-0.012829
 612	3.0550e-01	7.7780	44.673157	0.000432	4.319427	0.731731	-0.017276
 613	3.0600e-01	7.7554	44.608586	0.000323	3.228879	0.546987	-0.012914
 614	3.0650e-01	7.7368	44.529903	0.000393	3.934528	0.666527	-0.015737
 615	3.0700e-01	7.7191	44.451647	0.000391	3.913144	0.662905	-0.015651
 616	3.0750e-01	7.6929	44.365267	0.000432	4.319427	0.731731	-0.017276
 617	3.0800e-01	7.6761	44.295992	0.000346	3.464095	0.586834	-0.013855
 618	3.0850e-01	7.6563	44.217309	0.000393	3.934528	0.666527	-0.015737
 619	3.0900e-01	7.6367	44.149316	0.000340	3.399945	0.575966	-0.013598
 620	3.0950e-01	7.6147	44.063791	0.000428	4.276661	0.724486	-0.017105
 621	3.1000e-01	7.5952	43.994944	0.000344	3.442712	0.583211	-0.013770
 622	3.1050e-01	7.5745	43.908136	0.000434	4.340811	0.735353	-0.017362
 623	3.1100e-01	7.5549	43.843137	0.000325	3.250262	0.550609	-0.013000
 624	3.1150e-01	7.5372	43.751197	0.000460	4.597410	0.778822	-0.018388
 625	3.1200e-01	7.5168	43.675080	0.000381	3.806228	0.644792	-0.015223
 626	3.1250e-01	7.4951	43.599818	0.000376	3.763461	0.637548	-0.015052
 627	3.1300e-01	7.4731	43.519852	0.000400	3.998678	0.677394	-0.015993
 628	3.1350e-01	7.4573	43.437320	0.000413	4.126977	0.699129	-0.016506
 629	3.1400e-01	7.4377	43.368045	0.000346	3.464095	0.586834	-0.013855
 630	3.1450e-01	7.4176	43.289789	0.000391	3.913144	0.662905	-0.015651
 631	3.1500e-01	7.3978	43.214100	0.000378	3.784845	0.641170	-0.015138
 632	3.1550e-01	7.3761	43.131568	0.000413	4.126977	0.699129	-0.016506
 633	3.1600e-01	7.3590	43.051175	0.000402	4.020061	0.681017	-0.016079
 634	3.1650e-01	7.3389	42.957952	0.000466	4.661560	0.789690	-0.018644
 635	3.1700e-01	7.3175	42.892526	0.000327	3.271645	0.554232	-0.013085
 636	3.1750e-01	7.2968	42.814698	0.000389	3.891761	0.659282	-0.015566
 637	3.1800e-01	7.2778	42.736442	0.000391	3.913144	0.662905	-0.015651
 638	3.1850e-01	7.2546	42.666739	0.000349	3.485478	0.590456	-0.013941
 639	3.1900e-01	7.2397	42.567958	0.000494	4.939543	0.836781	-0.019756
 640	3.1950e-01	7.2156	42.504669	0.000316	3.164729	0.536120	-0.012658
 641	3.2000e-01	7.1979	42.412730	0.000460	4.597410	0.778822	-0.018388
 642	3.2050e-01	7.1759	42.329343	0.000417	4.169744	0.706374	-0.016677
 643	3.2100e-01	7.1570	42.260923	0.000342	3.421328	0.579589	-0.013684
 644	3.2150e-01	7.1378	42.179674	0.000406	4.062828	0.688262	-0.016250
 645	3.2200e-01	7.1164	42.097143	0.000413	4.126977	0.699129	-0.016506
 646	3.2250e-01	7.0953	42.006914	0.000451	4.511877	0.764333	-0.018046
 647	3.2300e-01	7.0795	41.942770	0.000321	3.207495	0.543364	-0.012829
 648	3.2350e-01	7.0575	41.860666	0.000411	4.105594	0.695506	-0.016421
 649	3.2400e-01	7.0319	41.779417	0.000406	4.062828	0.688262	-0.016250
 650	3.2450e-01	7.0154	41.694320	0.000426	4.255277	0.720863	-0.017019
 651	3.2500e-01	6.9965	41.617347	0.000385	3.848995	0.652037	-0.015395
 652	3.2550e-01	6.9775	41.548927	0.000342	3.421328	0.579589	-0.013684
 653	3.2600e-01	6.9550	41.458270	0.000453	4.533260	0.767955	-0.018131
 654	3.2650e-01	6.9382	41.383864	0.000372	3.720695	0.630303	-0.014881
 655	3.2700e-01	6.9202	41.299194	0.000423	4.233894	0.717241	-0.016934
 656	3.2750e-01	6.8994	41.207682	0.000458	4.576027	0.775200	-0.018302
 657	3.2800e-01	6.8776	41.130709	0.000385	3.848995	0.652037	-0.015395
 658	3.2850e-01	6.8550	41.049888	0.000404	4.041444	0.684639	-0.016164
 659	3.2900e-01	6.8375	40.973771	0.000381	3.806228	0.644792	-0.015223
 660	3.2950e-01	6.8167	40.884397	0.000447	4.469110	0.757088	-0.017875
 661	3.3000e-01	6.7963	40.796306	0.000440	4.404960	0.746220	-0.017618
 662	3.3050e-01	6.7761	40.721900	0.000372	3.720695	0.630303	-0.014881
 663	3.3100e-01	6.7584	40.638513	0.000417	4.169744	0.706374	-0.016677
 664	3.3150e-01	6.7366	40.559402	0.000396	3.955911	0.670149	-0.015822
 665	3.3200e-01	6.7178	40.470456	0.000445	4.447727	0.753465	-0.017789
 666	3.3250e-01	6.6962	40.387497	0.000415	4.148361	0.702751	-0.016592
 667	3.3300e-01	6.6763	40.307531	0.000400	3.998678	0.677394	-0.015993
 668	3.3350e-01	6.6595	40.223716	0.000419	4.191127	0.709996	-0.016763
 669	3.3400e-01	6.6351	40.147171	0.000383	3.827611	0.648415	-0.015309
 670	3.3450e-01	6.6159	40.031712	0.000577	5.773492	0.978056	-0.023092
 671	3.3500e-01	6.5958	39.973983	0.000289	2.886746	0.489028	-0.011546
 672	3.3550e-01	6.5759	39.895728	0.000391	3.913144	0.662905	-0.015651
 673	3.3600e-01	6.5576	39.799084	0.000483	4.832626	0.818669	-0.019329
 674	3.3650e-01	6.5356	39.732802	0.000331	3.314412	0.561477	-0.013256
 675	3.3700e-01	6.5161	39.642573	0.000451	4.511877	0.764333	-0.018046
 676	3.3750e-01	6.4954	39.567311	0.000376	3.763461	0.637548	-0.015052
 677	3.3800e-01	6.4752	39.473661	0.000468	4.682943	0.793312	-0.018730
 678	3.3850e-01	6.4594	39.389847	0.000419	4.191127	0.709996	-0.016763
 679	3.3900e-01	6.4368	39.307743	0.000411	4.105594	0.695506	-0.016421
 680	3.3950e-01	6.4148	39.226494	0.000406	4.062828	0.688262	-0.016250
 681	3.4000e-01	6.3986	39.133699	0.000464	4.640177	0.786067	-0.018559
 682	3.4050e-01	6.3770	39.045609	0.000440	4.404960	0.746220	-0.017618
 683	3.4100e-01	6.3577	38.957945	0.000438	4.383577	0.742598	-0.017533
 684	3.4150e-01	6.3364	38.871993	0.000430	4.298044	0.728108	-0.017191
 685	3.4200e-01	6.3150	38.797158	0.000374	3.742078	0.633925	-0.014967
 686	3.4250e-01	6.2952	38.706074	0.000455	4.554644	0.771578	-0.018217
 687	3.4300e-01	6.2781	38.635516	0.000353	3.528245	0.597701	-0.014112
 688	3.4350e-01	6.2576	38.543577	0.000460	4.597410	0.778822	-0.018388
 689	3.4400e-01	6.2357	38.457624	0.000430	4.298044	0.728108	-0.017191
 690	3.4450e-01	6.2190	38.371244	0.000432	4.319427	0.731731	-0.017276
 691	3.4500e-01	6.1969	38.267758	0.000517	5.174759	0.876628	-0.020697
 692	3.4550e-01	6.1768	38.199338	0.000342	3.421328	0.579589	-0.013684
 693	3.4600e-01	6.1578	38.112958	0.000432	4.319427	0.731731	-0.017276
 694	3.4650e-01	6.1359	38.028716	0.000421	4.212511	0.713619	-0.016848
 695	3.4700e-01	6.1163	37.929079	0.000498	4.982310	0.844026	-0.019927
 696	3.4750e-01	6.0962	37.844409	0.000423	4.233894	0.717241	-0.016934
 697	3.4800e-01	6.0773	37.759312	0.000426	4.255277	0.720863	-0.017019
 698	3.4850e-01	6.0556	37.683194	0.000381	3.806228	0.644792	-0.015223
 699	3.4900e-01	6.0352	37.601518	0.000408	4.084211	0.691884	-0.016335
 700	3.4950e-01	6.0175	37.495039	0.000532	5.324442	0.901985	-0.021296
 701	3.5000e-01	5.9937	37.413791	0.000406	4.062828	0.688262	-0.016250
 702	3.5050e-01	5.9756	37.320996	0.000464	4.640177	0.786067	-0.018559
 703	3.5100e-01	5.9564	37.244451	0.000383	3.827611	0.648415	-0.015309
 704	3.5150e-01	5.9363	37.155932	0.000443	4.426344	0.749843	-0.017704
 705	3.5200e-01	5.9177	37.061427	0.000473	4.725710	0.800557	-0.018901
 706	3.5250e-01	5.8978	36.975902	0.000428	4.276661	0.724486	-0.017105
 707	3.5300e-01	5.8771	36.888239	0.000438	4.383577	0.742598	-0.017533
 708	3.5350e-01	5.8545	36.809984	0.000391	3.913144	0.662905	-0.015651
 709	3.5400e-01	5.8365	36.709919	0.000500	5.003693	0.847649	-0.020013
 710	3.5450e-01	5.8167	36.611993	0.000490	4.896776	0.829536	-0.019585
 711	3.5500e-01	5.7988	36.540580	0.000357	3.571012	0.604946	-0.014283
 712	3.5550e-01	5.7751	36.439233	0.000507	5.067843	0.858516	-0.020269
 713	3.5600e-01	5.7574	36.354135	0.000426	4.255277	0.720863	-0.017019
 714	3.5650e-01	5.7361	36.265189	0.000445	4.447727	0.753465	-0.017789
 715	3.5700e-01	5.7166	36.164697	0.000503	5.025076	0.851271	-0.020098
 716	3.5750e-01	5.6970	36.087725	0.000385	3.848995	0.652037	-0.015395
 717	3.5800e-01	5.6785	35.995357	0.000462	4.618793	0.782445	-0.018473
 718	3.5850e-01	5.6552	35.902563	0.000464	4.640177	0.786067	-0.018559
 719	3.5900e-01	5.6372	35.813617	0.000445	4.447727	0.753465	-0.017789
 720	3.5950e-01	5.6158	35.720394	0.000466	4.661560	0.789690	-0.018644
 721	3.6000e-01	5.5963	35.638290	0.000411	4.105594	0.695506	-0.016421
 722	3.6050e-01	5.5774	35.541219	0.000485	4.854010	0.822292	-0.019414
 723	3.6100e-01	5.5569	35.439445	0.000509	5.089226	0.862138	-0.020355
 724	3.6150e-01	5.5353	35.359906	0.000398	3.977294	0.673772	-0.015908
 725	3.6200e-01	5.5157	35.271816	0.000440	4.404960	0.746220	-0.017618
 726	3.6250e-01	5.4965	35.175172	0.000483	4.832626	0.818669	-0.019329
 727	3.6300e-01	5.4767	35.083233	0.000460	4.597410	0.778822	-0.018388
 728	3.6350e-01	5.4597	34.993004	0.000451	4.511877	0.764333	-0.018046
 729	3.6400e-01	5.4352	34.908762	0.000421	4.212511	0.713619	-0.016848
 730	3.6450e-01	5.4150	34.809553	0.000496	4.960926	0.840404	-0.019842
 731	3.6500e-01	5.3967	34.720179	0.000447	4.469110	0.757088	-0.017875
 732	3.6550e-01	5.3761	34.637220	0.000415	4.148361	0.702751	-0.016592
 733	3.6600e-01	5.3558	34.529886	0.000537	5.367209	0.909230	-0.021467
 734	3.6650e-01	5.3369	34.453341	0.000383	3.827611	0.648415	-0.015309
 735	3.6700e-01	5.3140	34.347717	0.000528	5.281676	0.894740	-0.021125
 736	3.6750e-01	5.2960	34.256206	0.000458	4.576027	0.775200	-0.018302
 737	3.6800e-01	5.2737	34.178378	0.000389	3.891761	0.659282	-0.015566
 738	3.6850e-01	5.2545	34.086866	0.000458	4.576027	0.775200	-0.018302
 739	3.6900e-01	5.2362	33.981242	0.000528	5.281676	0.894740	-0.021125
 740	3.6950e-01	5.2170	33.882889	0.000492	4.918160	0.833159	-0.019671
 741	3.7000e-01	5.1953	33.796936	0.000430	4.298044	0.728108	-0.017191
 742	3.7050e-01	5.1807	33.694306	0.000513	5.131993	0.869383	-0.020526
 743	3.7100e-01	5.1569	33.608353	0.000430	4.298044	0.728108	-0.017191
 744	3.7150e-01	5.1369	33.518124	0.000451	4.511877	0.764333	-0.018046
 745	3.7200e-01	5.1172	33.415922	0.000511	5.110609	0.865761	-0.020440
 746	3.7250e-01	5.0964	33.324410	0.000458	4.576027	0.775200	-0.018302
 747	3.7300e-01	5.0775	33.229050	0.000477	4.768477	0.807802	-0.019072
 748	3.7350e-01	5.0562	33.137538	0.000458	4.576027	0.775200	-0.018302
 749	3.7400e-01	5.0342	33.034908	0.000513	5.131993	0.869383	-0.020526
 750	3.7450e-01	5.0180	32.952376	0.000413	4.126977	0.699129	-0.016506
 751	3.7500e-01	4.9965	32.858298	0.000470	4.704327	0.796935	-0.018816
 752	3.7550e-01	4.9756	32.748826	0.000547	5.474126	0.927342	-0.021894
 753	3.7600e-01	4.9597	32.656032	0.000464	4.640177	0.786067	-0.018559
 754	3.7650e-01	4.9371	32.555967	0.000500	5.003693	0.847649	-0.020013
 755	3.7700e-01	4.9164	32.469587	0.000432	4.319427	0.731731	-0.017276
 756	3.7750e-01	4.8990	32.363108	0.000532	5.324442	0.901985	-0.021296
 757	3.7800e-01	4.8785	32.278011	0.000426	4.255277	0.720863	-0.017019
 758	3.7850e-01	4.8566	32.192486	0.000428	4.276661	0.724486	-0.017105
 759	3.7900e-01	4.8366	32.086435	0.000530	5.303059	0.898363	-0.021210
 760	3.7950e-01	4.8169	31.994495	0.000460	4.597410	0.778822	-0.018388
 761	3.8000e-01	4.7981	31.902556	0.000460	4.597410	0.778822	-0.018388
 762	3.8050e-01	4.7772	31.798643	0.000520	5.196143	0.880250	-0.020783
 763	3.8100e-01	4.7562	31.692592	0.000530	5.303059	0.898363	-0.021210
 764	3.8150e-01	4.7394	31.592100	0.000503	5.025076	0.851271	-0.020098
 765	3.8200e-01	4.7150	31.514700	0.000387	3.870378	0.655660	-0.015480
 766	3.8250e-01	4.6976	31.408649	0.000530	5.303059	0.898363	-0.021210
 767	3.8300e-01	4.6765	31.314571	0.000470	4.704327	0.796935	-0.018816
 768	3.8350e-01	4.6590	31.219211	0.000477	4.768477	0.807802	-0.019072
 769	3.8400e-01	4.6368	31.117436	0.000509	5.089226	0.862138	-0.020355
 770	3.8450e-01	4.6155	31.016944	0.000503	5.025076	0.851271	-0.020098
 771	3.8500e-01	4.5954	30.925432	0.000458	4.576027	0.775200	-0.018302
 772	3.8550e-01	4.5764	30.820236	0.000526	5.260293	0.891118	-0.021039
 773	3.8600e-01	4.5557	30.724021	0.000481	4.811243	0.815047	-0.019243
 774	3.8650e-01	4.5340	30.621818	0.000511	5.110609	0.865761	-0.020440
 775	3.8700e-01	4.5181	30.526458	0.000477	4.768477	0.807802	-0.019072
 776	3.8750e-01	4.4969	30.417841	0.000543	5.431359	0.920097	-0.021723
 777	3.8800e-01	4.4776	30.316066	0.000509	5.089226	0.862138	-0.020355
 778	3.8850e-01	4.4569	30.232252	0.000419	4.191127	0.709996	-0.016763
 779	3.8900e-01	4.4363	30.134753	0.000488	4.875393	0.825914	-0.019500
 780	3.8950e-01	4.4153	30.030840	0.000520	5.196143	0.880250	-0.020783
 781	3.9000e-01	4.3982	29.933769	0.000485	4.854010	0.822292	-0.019414
 782	3.9050e-01	4.3777	29.825580	0.000541	5.409976	0.916475	-0.021638
 783	3.9100e-01	4.3564	29.713542	0.000560	5.602425	0.949077	-0.022408
 784	3.9150e-01	4.3359	29.618182	0.000477	4.768477	0.807802	-0.019072
 785	3.9200e-01	4.3130	29.543775	0.000372	3.720695	0.630303	-0.014881
 786	3.9250e-01	4.2957	29.424040	0.000599	5.987325	1.014280	-0.023947
 787	3.9300e-01	4.2767	29.323976	0.000500	5.003693	0.847649	-0.020013
 788	3.9350e-01	4.2566	29.222628	0.000507	5.067843	0.858516	-0.020269
 789	3.9400e-01	4.2358	29.120854	0.000509	5.089226	0.862138	-0.020355
 790	3.9450e-01	4.2126	29.035756	0.000426	4.255277	0.720863	-0.017019
 791	3.9500e-01	4.1959	28.919442	0.000582	5.816258	0.985301	-0.023263
 792	3.9550e-01	4.1809	28.811681	0.000539	5.388592	0.912852	-0.021552
 793	3.9600e-01	4.1585	28.716320	0.000477	4.768477	0.807802	-0.019072
 794	3.9650e-01	4.1376	28.619249	0.000485	4.854010	0.822292	-0.019414
 795	3.9700e-01	4.1151	28.527737	0.000458	4.576027	0.775200	-0.018302
 796	3.9750e-01	4.0958	28.419548	0.000541	5.409976	0.916475	-0.021638
 797	3.9800e-01	4.0755	28.320767	0.000494	4.939543	0.836781	-0.019756
 798	3.9850e-01	4.0579	28.208729	0.000560	5.602425	0.949077	-0.022408
 799	3.9900e-01	4.0375	28.105671	0.000515	5.153376	0.873006	-0.020612
 800	3.9950e-01	4.0155	27.996627	0.000545	5.452742	0.923720	-0.021809
 801	4.0000e-01	3.9944	27.895707	0.000505	5.046460	0.854893	-0.020184
 802	4.0050e-01	3.9761	27.791794	0.000520	5.196143	0.880250	-0.020783
 803	4.0100e-01	3.9560	27.696434	0.000477	4.768477	0.807802	-0.019072
 804	4.0150e-01	3.9374	27.579264	0.000586	5.859025	0.992546	-0.023434
 805	4.0200e-01	3.9148	27.473641	0.000528	5.281676	0.894740	-0.021125
 806	4.0250e-01	3.8956	27.389826	0.000419	4.191127	0.709996	-0.016763
 807	4.0300e-01	3.8776	27.269664	0.000601	6.008708	1.017903	-0.024033
 808	4.0350e-01	3.8568	27.183711	0.000430	4.298044	0.728108	-0.017191
 809	4.0400e-01	3.8340	27.077232	0.000532	5.324442	0.901985	-0.021296
 810	4.0450e-01	3.8147	26.957497	0.000599	5.987325	1.014280	-0.023947
 811	4.0500e-01	3.7982	26.848025	0.000547	5.474126	0.927342	-0.021894
 812	4.0550e-01	3.7726	26.735560	0.000562	5.623809	0.952699	-0.022493
 813	4.0600e-01	3.7564	26.646614	0.000445	4.447727	0.753465	-0.017789
 814	4.0650e-01	3.7372	26.541846	0.000524	5.238909	0.887495	-0.020954
 815	4.0700e-01	3.7161	26.434512	0.000537	5.367209	0.909230	-0.021467
 816	4.0750e-01	3.6978	26.337013	0.000488	4.875393	0.825914	-0.019500
 817	4.0800e-01	3.6804	26.216423	0.000603	6.030091	1.021525	-0.024118
 818	4.0850e-01	3.6569	26.111227	0.000526	5.260293	0.891118	-0.021039
 819	4.0900e-01	3.6347	26.012018	0.000496	4.960926	0.840404	-0.019842
 820	4.0950e-01	3.6163	25.904256	0.000539	5.388592	0.912852	-0.021552
 821	4.1000e-01	3.5974	25.802909	0.000507	5.067843	0.858516	-0.020269
 822	4.1050e-01	3.5785	25.690871	0.000560	5.602425	0.949077	-0.022408
 823	4.1100e-01	3.5574	25.583965	0.000535	5.345826	0.905607	-0.021381
 824	4.1150e-01	3.5379	25.457815	0.000631	6.308074	1.068617	-0.025230
 825	4.1200e-01	3.5187	25.363738	0.000470	4.704327	0.796935	-0.018816
 826	4.1250e-01	3.4932	25.257687	0.000530	5.303059	0.898363	-0.021210
 827	4.1300e-01	3.4741	25.154202	0.000517	5.174759	0.876628	-0.020697
 828	4.1350e-01	3.4579	25.046440	0.000539	5.388592	0.912852	-0.021552
 829	4.1400e-01	3.4381	24.927988	0.000592	5.923175	1.003413	-0.023690
 830	4.1450e-01	3.4143	24.842035	0.000430	4.298044	0.728108	-0.017191
 831	4.1500e-01	3.3990	24.726576	0.000577	5.773492	0.978056	-0.023092
 832	4.1550e-01	3.3767	24.602993	0.000618	6.179775	1.046882	-0.024717
 833	4.1600e-01	3.3560	24.494376	0.000543	5.431359	0.920097	-0.021723
 834	4.1650e-01	3.3369	24.398588	0.000479	4.789860	0.811424	-0.019158
 835	4.1700e-01	3.3142	24.289116	0.000547	5.474126	0.927342	-0.021894
 836	4.1750e-01	3.2965	24.177078	0.000560	5.602425	0.949077	-0.022408
 837	4.1800e-01	3.2748	24.066323	0.000554	5.538275	0.938209	-0.022151
 838	4.1850e-01	3.2565	23.948298	0.000590	5.901792	0.999791	-0.023605
 839	4.1900e-01	3.2343	23.843958	0.000522	5.217526	0.883873	-0.020868
 840	4.1950e-01	3.2166	23.745176	0.000494	4.939543	0.836781	-0.019756
 841	4.2000e-01	3.1989	23.634849	0.000552	5.516892	0.934587	-0.022065
 842	4.2050e-01	3.1749	23.503996	0.000654	6.543291	1.108463	-0.026171
 843	4.2100e-01	3.1541	23.406069	0.000490	4.896776	0.829536	-0.019585
 844	4.2150e-01	3.1363	23.293176	0.000565	5.645192	0.956321	-0.022579
 845	4.2200e-01	3.1155	23.178573	0.000573	5.730725	0.970811	-0.022921
 846	4.2250e-01	3.0969	23.078081	0.000503	5.025076	0.851271	-0.020098
 847	4.2300e-01	3.0777	22.960056	0.000590	5.901792	0.999791	-0.023605
 848	4.2350e-01	3.0569	22.855716	0.000522	5.217526	0.883873	-0.020868
 849	4.2400e-01	3.0360	22.735125	0.000603	6.030091	1.021525	-0.024118
 850	4.2450e-01	3.0174	22.620949	0.000571	5.709342	0.967189	-0.022835
 851	4.2500e-01	2.9977	22.512760	0.000541	5.409976	0.916475	-0.021638
 852	4.2550e-01	2.9750	22.399867	0.000565	5.645192	0.956321	-0.022579
 853	4.2600e-01	2.9578	22.292961	0.000535	5.345826	0.905607	-0.021381
 854	4.2650e-01	2.9370	22.181778	0.000556	5.559659	0.941832	-0.022237
 855	4.2700e-01	2.9207	22.060333	0.000607	6.072858	1.028770	-0.024289
 856	4.2750e-01	2.8946	21.957275	0.000515	5.153376	0.873006	-0.020612
 857	4.2800e-01	2.8757	21.836685	0.000603	6.030091	1.021525	-0.024118
 858	4.2850e-01	2.8586	21.727640	0.000545	5.452742	0.923720	-0.021809
 859	4.2900e-01	2.8366	21.619451	0.000541	5.409976	0.916475	-0.021638
 860	4.2950e-01	2.8154	21.503137	0.000582	5.816258	0.985301	-0.023263
 861	4.3000e-01	2.7954	21.382547	0.000603	6.030091	1.021525	-0.024118
 862	4.3050e-01	2.7782	21.277778	0.000524	5.238909	0.887495	-0.020954
 863	4.3100e-01	2.7573	21.167451	0.000552	5.516892	0.934587	-0.022065
 864	4.3150e-01	2.7356	21.057979	0.000547	5.474126	0.927342	-0.021894
 865	4.3200e-01	2.7151	20.934395	0.000618	6.179775	1.046882	-0.024717
 866	4.3250e-01	2.6956	20.806108	0.000641	6.414991	1.086729	-0.025658
 867	4.3300e-01	2.6758	20.701767	0.000522	5.217526	0.883873	-0.020868
 868	4.3350e-01	2.6559	20.576045	0.000629	6.286691	1.064994	-0.025144
 869	4.3400e-01	2.6350	20.473415	0.000513	5.131993	0.869383	-0.020526
 870	4.3450e-01	2.6166	20.365654	0.000539	5.388592	0.912852	-0.021552
 871	4.3500e-01	2.5958	20.240360	0.000627	6.265308	1.061372	-0.025059
 872	4.3550e-01	2.5763	20.136874	0.000517	5.174759	0.876628	-0.020697
 873	4.3600e-01	2.5560	20.015001	0.000609	6.094241	1.032392	-0.024375
 874	4.3650e-01	2.5346	19.892273	0.000614	6.137008	1.039637	-0.024546
 875	4.3700e-01	2.5159	19.771682	0.000603	6.030091	1.021525	-0.024118
 876	4.3750e-01	2.4954	19.662638	0.000545	5.452742	0.923720	-0.021809
 877	4.3800e-01	2.4777	19.560435	0.000511	5.110609	0.865761	-0.020440
 878	4.3850e-01	2.4567	19.429154	0.000656	6.564674	1.112086	-0.026256
 879	4.3900e-01	2.4402	19.308136	0.000605	6.051475	1.025148	-0.024204
 880	4.3950e-01	2.4132	19.201658	0.000532	5.324442	0.901985	-0.021296
 881	4.4000e-01	2.3978	19.086627	0.000575	5.752109	0.974434	-0.023006
 882	4.4050e-01	2.3802	18.955346	0.000656	6.564674	1.112086	-0.026256
 883	4.4100e-01	2.3573	18.843308	0.000560	5.602425	0.949077	-0.022408
 884	4.4150e-01	2.3360	18.734263	0.000545	5.452742	0.923720	-0.021809
 885	4.4200e-01	2.3178	18.617522	0.000584	5.837642	0.988923	-0.023348
 886	4.4250e-01	2.2957	18.494366	0.000616	6.158391	1.043260	-0.024631
 887	4.4300e-01	2.2769	18.382755	0.000558	5.581042	0.945454	-0.022322
 888	4.4350e-01	2.2589	18.255751	0.000635	6.350841	1.075862	-0.025401
 889	4.4400e-01	2.2379	18.142430	0.000567	5.666575	0.959944	-0.022664
 890	4.4450e-01	2.2157	18.017136	0.000627	6.265308	1.061372	-0.025059
 891	4.4500e-01	2.1957	17.909374	0.000539	5.388592	0.912852	-0.021552
 892	4.4550e-01	2.1753	17.777666	0.000659	6.586057	1.115708	-0.026342
 893	4.4600e-01	2.1564	17.666055	0.000558	5.581042	0.945454	-0.022322
 894	4.4650e-01	2.1382	17.542472	0.000618	6.179775	1.046882	-0.024717
 895	4.4700e-01	2.1156	17.424019	0.000592	5.923175	1.003413	-0.023690
 896	4.4750e-01	2.0969	17.308561	0.000577	5.773492	0.978056	-0.023092
 897	4.4800e-01	2.0746	17.186687	0.000609	6.094241	1.032392	-0.024375
 898	4.4850e-01	2.0567	17.068235	0.000592	5.923175	1.003413	-0.023690
 899	4.4900e-01	2.0337	16.955342	0.000565	5.645192	0.956321	-0.022579
 900	4.4950e-01	2.0161	16.830048	0.000627	6.265308	1.061372	-0.025059
 901	4.5000e-01	1.9971	16.715444	0.000573	5.730725	0.970811	-0.022921
 902	4.5050e-01	1.9786	16.584163	0.000656	6.564674	1.112086	-0.026256
 903	4.5100e-01	1.9556	16.485810	0.000492	4.918160	0.833159	-0.019671
 904	4.5150e-01	1.9417	16.348542	0.000686	6.864040	1.162800	-0.027454
 905	4.5200e-01	1.9147	16.226241	0.000612	6.115625	1.036015	-0.024460
 906	4.5250e-01	1.8948	16.108216	0.000590	5.901792	0.999791	-0.023605
 907	4.5300e-01	1.8771	15.982922	0.000627	6.265308	1.061372	-0.025059
 908	4.5350e-01	1.8562	15.869174	0.000569	5.687959	0.963566	-0.022750
 909	4.5400e-01	1.8391	15.746445	0.000614	6.137008	1.039637	-0.024546
 910	4.5450e-01	1.8134	15.626710	0.000599	5.987325	1.014280	-0.023947
 911	4.5500e-01	1.7952	15.524936	0.000509	5.089226	0.862138	-0.020355
 912	4.5550e-01	1.7772	15.389378	0.000678	6.778507	1.148310	-0.027111
 913	4.5600e-01	1.7542	15.253821	0.000678	6.778507	1.148310	-0.027111
 914	4.5650e-01	1.7361	15.143494	0.000552	5.516892	0.934587	-0.022065
 915	4.5700e-01	1.7155	15.013068	0.000652	6.521907	1.104841	-0.026085
 916	4.5750e-01	1.6925	14.904451	0.000543	5.431359	0.920097	-0.021723
 917	4.5800e-01	1.6751	14.774026	0.000652	6.521907	1.104841	-0.026085
 918	4.5850e-01	1.6560	14.641462	0.000663	6.628824	1.122953	-0.026513
 919	4.5900e-01	1.6376	14.536266	0.000526	5.260293	0.891118	-0.021039
 920	4.5950e-01	1.6161	14.388735	0.000738	7.377240	1.249738	-0.029506
 921	4.6000e-01	1.5976	14.287816	0.000505	5.046460	0.854893	-0.020184
 922	4.6050e-01	1.5759	14.148837	0.000695	6.949573	1.177290	-0.027796
 923	4.6100e-01	1.5550	14.026537	0.000612	6.115625	1.036015	-0.024460
 924	4.6150e-01	1.5338	13.923479	0.000515	5.153376	0.873006	-0.020612
 925	4.6200e-01	1.5173	13.778514	0.000725	7.248940	1.228004	-0.028993
 926	4.6250e-01	1.4954	13.669897	0.000543	5.431359	0.920097	-0.021723
 927	4.6300e-01	1.4771	13.535623	0.000671	6.714357	1.137443	-0.026855
 928	4.6350e-01	1.4553	13.425723	0.000550	5.495509	0.930964	-0.021980
 929	4.6400e-01	1.4378	13.294870	0.000654	6.543291	1.108463	-0.026171
 930	4.6450e-01	1.4150	13.160595	0.000671	6.714357	1.137443	-0.026855
 931	4.6500e-01	1.3965	13.033591	0.000635	6.350841	1.075862	-0.025401
 932	4.6550e-01	1.3770	12.913000	0.000603	6.030091	1.021525	-0.024118
 933	4.6600e-01	1.3515	12.795831	0.000586	5.859025	0.992546	-0.023434
 934	4.6650e-01	1.3344	12.679945	0.000579	5.794875	0.981678	-0.023177
 935	4.6700e-01	1.3139	12.540966	0.000695	6.949573	1.177290	-0.027796
 936	4.6750e-01	1.3000	12.410968	0.000650	6.500524	1.101219	-0.026000
 937	4.6800e-01	1.2778	12.286957	0.000620	6.201158	1.050505	-0.024802
 938	4.6850e-01	1.2558	12.162518	0.000622	6.222541	1.054127	-0.024888
 939	4.6900e-01	1.2370	12.038079	0.000622	6.222541	1.054127	-0.024888
 940	4.6950e-01	1.2160	11.917489	0.000603	6.030091	1.021525	-0.024118
 941	4.7000e-01	1.1969	11.792195	0.000627	6.265308	1.061372	-0.025059
 942	4.7050e-01	1.1755	11.676308	0.000579	5.794875	0.981678	-0.023177
 943	4.7100e-01	1.1566	11.528777	0.000738	7.377240	1.249738	-0.029506
 944	4.7150e-01	1.1383	11.408187	0.000603	6.030091	1.021525	-0.024118
 945	4.7200e-01	1.1176	11.294439	0.000569	5.687959	0.963566	-0.022750
 946	4.7250e-01	1.0949	11.161447	0.000665	6.650207	1.126576	-0.026598
 947	4.7300e-01	1.0734	11.029739	0.000659	6.586057	1.115708	-0.026342
 948	4.7350e-01	1.0545	10.893754	0.000680	6.799890	1.151933	-0.027197
 949	4.7400e-01	1.0417	10.797966	0.000479	4.789860	0.811424	-0.019158
 950	4.7450e-01	1.0158	10.650863	0.000736	7.355856	1.246116	-0.029421
 951	4.7500e-01	0.9995	10.523430	0.000637	6.372224	1.079484	-0.025486
 952	4.7550e-01	0.9760	10.394288	0.000646	6.457758	1.093974	-0.025829
 953	4.7600e-01	0.9537	10.294223	0.000500	5.003693	0.847649	-0.020013
 954	4.7650e-01	0.9357	10.153107	0.000706	7.056490	1.195402	-0.028223
 955	4.7700e-01	0.9154	10.036365	0.000584	5.837642	0.988923	-0.023348
 956	4.7750e-01	0.8965	9.895249	0.000706	7.056490	1.195402	-0.028223
 957	4.7800e-01	0.8768	9.763540	0.000659	6.586057	1.115708	-0.026342
 958	4.7850e-01	0.8554	9.637818	0.000629	6.286691	1.064994	-0.025144
 959	4.7900e-01	0.8369	9.519366	0.000592	5.923175	1.003413	-0.023690
 960	4.7950e-01	0.8163	9.380388	0.000695	6.949573	1.177290	-0.027796
 961	4.8000e-01	0.7932	9.267495	0.000565	5.645192	0.956321	-0.022579
 962	4.8050e-01	0.7750	9.128517	0.000695	6.949573	1.177290	-0.027796
 963	4.8100e-01	0.7565	9.000229	0.000641	6.414991	1.086729	-0.025658
 964	4.8150e-01	0.7362	8.877073	0.000616	6.158391	1.043260	-0.024631
 965	4.8200e-01	0.7151	8.755200	0.000609	6.094241	1.032392	-0.024375
 966	4.8250e-01	0.6959	8.627768	0.000637	6.372224	1.079484	-0.025486
 967	4.8300e-01	0.6744	8.499908	0.000639	6.393608	1.083106	-0.025572
 968	4.8350e-01	0.6550	8.354515	0.000727	7.270323	1.231626	-0.029079
 969	4.8400e-01	0.6367	8.236918	0.000588	5.880408	0.996168	-0.023519
 970	4.8450e-01	0.6158	8.083401	0.000768	7.676606	1.300452	-0.030703
 971	4.8500e-01	0.5966	7.982481	0.000505	5.046460	0.854893	-0.020184
 972	4.8550e-01	0.5780	7.845641	0.000684	6.842657	1.159177	-0.027368
 973	4.8600e-01	0.5553	7.716926	0.000644	6.436374	1.090351	-0.025743
 974	4.8650e-01	0.5376	7.589921	0.000635	6.350841	1.075862	-0.025401
 975	4.8700e-01	0.5154	7.453081	0.000684	6.842657	1.159177	-0.027368
 976	4.8750e-01	0.4942	7.350451	0.000513	5.131993	0.869383	-0.020526
 977	4.8800e-01	0.4753	7.215749	0.000674	6.735740	1.141065	-0.026940
 978	4.8850e-01	0.4541	7.069929	0.000729	7.291706	1.235248	-0.029164
 979	4.8900e-01	0.4356	6.951476	0.000592	5.923175	1.003413	-0.023690
 980	4.8950e-01	0.4150	6.808650	0.000714	7.142023	1.209891	-0.028565
 981	4.9000e-01	0.3960	6.699605	0.000545	5.452742	0.923720	-0.021809
 982	4.9050e-01	0.3764	6.559344	0.000701	7.013723	1.188157	-0.028052
 983	4.9100e-01	0.3555	6.431057	0.000641	6.414991	1.086729	-0.025658
 984	4.9150e-01	0.3339	6.307473	0.000618	6.179775	1.046882	-0.024717
 985	4.9200e-01	0.3176	6.160797	0.000733	7.334473	1.242493	-0.029335
 986	4.9250e-01	0.2972	6.034220	0.000633	6.329458	1.072239	-0.025315
 987	4.9300e-01	0.2758	5.911064	0.000616	6.158391	1.043260	-0.024631
 988	4.9350e-01	0.2560	5.768665	0.000712	7.120640	1.206269	-0.028480
 989	4.9400e-01	0.2354	5.634391	0.000671	6.714357	1.137443	-0.026855
 990	4.9450e-01	0.2161	5.501399	0.000665	6.650207	1.126576	-0.026598
 991	4.9500e-01	0.1946	5.385513	0.000579	5.794875	0.981678	-0.023177
 992	4.9550e-01	0.1760	5.267061	0.000592	5.923175	1.003413	-0.023690
 993	4.9600e-01	0.1599	5.126799	0.000701	7.013723	1.188157	-0.028052
 994	4.9650e-01	0.1369	4.999367	0.000637	6.372224	1.079484	-0.025486
 995	4.9700e-01	0.1137	4.865520	0.000669	6.692974	1.133820	-0.026769
 996	4.9750e-01	0.0950	4.738088	0.000637	6.372224	1.079484	-0.025486
 997	4.9800e-01	0.0768	4.605524	0.000663	6.628824	1.122953	-0.026513
 998	4.9850e-01	0.0542	4.461842	0.000718	7.184790	1.217136	-0.028736
 999	4.9900e-01	0.0388	4.339541	0.000612	6.115625	1.036015	-0.024460
1000	4.9950e-01	0.0152	4.203129	0.000682	6.821274	1.155555	-0.027282
1001	5.0000e-01	-0.0034	4.080828	0.000612	6.115625	1.036015	-0.024460
1002	5.0050e-01	-0.0238	3.953823	0.000635	6.350841	1.075862	-0.025401
1003	5.0100e-01	-0.0402	3.832378	0.000607	6.072858	1.028770	-0.024289
1004	5.0150e-01	-0.0649	3.697676	0.000674	6.735740	1.141065	-0.026940
1005	5.0200e-01	-0.0831	3.567678	0.000650	6.500524	1.101219	-0.026000
1006	5.0250e-01	-0.1026	3.441956	0.000629	6.286691	1.064994	-0.025144
1007	5.0300e-01	-0.1222	3.312813	0.000646	6.457758	1.093974	-0.025829
1008	5.0350e-01	-0.1389	3.173835	0.000695	6.949573	1.177290	-0.027796
1009	5.0400e-01	-0.1620	3.050679	0.000616	6.158391	1.043260	-0.024631
1010	5.0450e-01	-0.1823	2.900582	0.000751	7.505539	1.271473	-0.030019
1011	5.0500e-01	-0.2028	2.787262	0.000567	5.666575	0.959944	-0.022664
1012	5.0550e-01	-0.2242	2.665388	0.000609	6.094241	1.032392	-0.024375
1013	5.0600e-01	-0.2450	2.525982	0.000697	6.970957	1.180912	-0.027881
1014	5.0650e-01	-0.2621	2.384866	0.000706	7.056490	1.195402	-0.028223
1015	5.0700e-01	-0.2793	2.258717	0.000631	6.308074	1.068617	-0.025230
1016	5.0750e-01	-0.3059	2.136416	0.000612	6.115625	1.036015	-0.024460
1017	5.0800e-01	-0.3252	1.990596	0.000729	7.291706	1.235248	-0.029164
1018	5.0850e-01	-0.3425	1.875137	0.000577	5.773492	0.978056	-0.023092
1019	5.0900e-01	-0.3635	1.733593	0.000708	7.077873	1.199024	-0.028309
1020	5.0950e-01	-0.3819	1.606161	0.000637	6.372224	1.079484	-0.025486
1021	5.1000e-01	-0.4024	1.471886	0.000671	6.714357	1.137443	-0.026855
1022	5.1050e-01	-0.4228	1.345737	0.000631	6.308074	1.068617	-0.025230
1023	5.1100e-01	-0.4426	1.211462	0.000671	6.714357	1.137443	-0.026855
1024	5.1150e-01	-0.4613	1.095148	0.000582	5.816258	0.985301	-0.023263
1025	5.1200e-01	-0.4826	0.953177	0.000710	7.099257	1.202647	-0.028394
1026	5.1250e-01	-0.5014	0.819758	0.000667	6.671591	1.130198	-0.026684
1027	5.1300e-01	-0.5210	0.694463	0.000627	6.265308	1.061372	-0.025059
1028	5.1350e-01	-0.5436	0.559761	0.000674	6.735740	1.141065	-0.026940
1029	5.1400e-01	-0.5615	0.424204	0.000678	6.778507	1.148310	-0.027111
1030	5.1450e-01	-0.5836	0.304042	0.000601	6.008708	1.017903	-0.024033
1031	5.1500e-01	-0.6024	0.161642	0.000712	7.120640	1.206269	-0.028480
1032	5.1550e-01	-0.6213	0.035065	0.000633	6.329458	1.072239	-0.025315
1033	5.1600e-01	-0.6422	-0.102630	0.000689	6.885424	1.166422	-0.027539
1034	5.1650e-01	-0.6621	-0.237760	0.000676	6.757124	1.144688	-0.027026
1035	5.1700e-01	-0.6855	-0.367758	0.000650	6.500524	1.101219	-0.026000
1036	5.1750e-01	-0.7027	-0.495190	0.000637	6.372224	1.079484	-0.025486
1037	5.1800e-01	-0.7220	-0.610649	0.000577	5.773492	0.978056	-0.023092
1038	5.1850e-01	-0.7426	-0.756041	0.000727	7.270323	1.231626	-0.029079
1039	5.1900e-01	-0.7600	-0.890316	0.000671	6.714357	1.137443	-0.026855
1040	5.1950e-01	-0.7823	-1.022024	0.000659	6.586057	1.115708	-0.026342
1041	5.2000e-01	-0.8019	-1.121233	0.000496	4.960926	0.840404	-0.019842
1042	5.2050e-01	-0.8255	-1.289290	0.000840	8.403638	1.423615	-0.033611
1043	5.2100e-01	-0.8424	-1.404321	0.000575	5.752109	0.974434	-0.023006
1044	5.2150e-01	-0.8628	-1.547148	0.000714	7.142023	1.209891	-0.028565
1045	5.2200e-01	-0.8824	-1.672442	0.000627	6.265308	1.061372	-0.025059
1046	5.2250e-01	-0.9056	-1.800302	0.000639	6.393608	1.083106	-0.025572
1047	5.2300e-01	-0.9225	-1.935432	0.000676	6.757124	1.144688	-0.027026
1048	5.2350e-01	-0.9471	-2.053457	0.000590	5.901792	0.999791	-0.023605
1049	5.2400e-01	-0.9631	-2.191580	0.000691	6.906807	1.170045	-0.027625
1050	5.2450e-01	-0.9840	-2.324999	0.000667	6.671591	1.130198	-0.026684
1051	5.2500e-01	-1.0006	-2.461839	0.000684	6.842657	1.159177	-0.027368
1052	5.2550e-01	-1.0229	-2.584140	0.000612	6.115625	1.036015	-0.024460
1053	5.2600e-01	-1.0445	-2.713710	0.000648	6.479141	1.097596	-0.025914
1054	5.2650e-01	-1.0635	-2.845419	0.000659	6.586057	1.115708	-0.026342
1055	5.2700e-01	-1.0847	-2.973706	0.000641	6.414991	1.086729	-0.025658
1056	5.2750e-01	-1.1006	-3.104987	0.000656	6.564674	1.112086	-0.026256
1057	5.2800e-01	-1.1246	-3.239261	0.000671	6.714357	1.137443	-0.026855
1058	5.2850e-01	-1.1419	-3.373963	0.000674	6.735740	1.141065	-0.026940
1059	5.2900e-01	-1.1631	-3.503534	0.000648	6.479141	1.097596	-0.025914
1060	5.2950e-01	-1.1842	-3.647644	0.000721	7.206173	1.220759	-0.028822
1061	5.3000e-01	-1.2012	-3.774221	0.000633	6.329458	1.072239	-0.025315
1062	5.3050e-01	-1.2235	-3.882837	0.000543	5.431359	0.920097	-0.021723
1063	5.3100e-01	-1.2429	-4.016684	0.000669	6.692974	1.133820	-0.026769
1064	5.3150e-01	-1.2640	-4.147110	0.000652	6.521907	1.104841	-0.026085
1065	5.3200e-01	-1.2849	-4.280957	0.000669	6.692974	1.133820	-0.026769
1066	5.3250e-01	-1.3010	-4.421218	0.000701	7.013723	1.188157	-0.028052
1067	5.3300e-01	-1.3221	-4.541380	0.000601	6.008708	1.017903	-0.024033
1068	5.3350e-01	-1.3411	-4.673944	0.000663	6.628824	1.122953	-0.026513
1069	5.3400e-01	-1.3654	-4.788975	0.000575	5.752109	0.974434	-0.023006
1070	5.3450e-01	-1.3837	-4.921539	0.000663	6.628824	1.122953	-0.026513
1071	5.3500e-01	-1.4030	-5.066077	0.000723	7.227556	1.224381	-0.028907
1072	5.3550e-01	-1.4227	-5.171272	0.000526	5.260293	0.891118	-0.021039
1073	5.3600e-01	-1.4423	-5.311534	0.000701	7.013723	1.188157	-0.028052
1074	5.3650e-01	-1.4637	-5.439393	0.000639	6.393608	1.083106	-0.025572
1075	5.3700e-01	-1.4843	-5.578799	0.000697	6.970957	1.180912	-0.027881
1076	5.3750e-01	-1.5014	-5.710080	0.000656	6.564674	1.112086	-0.026256
1077	5.3800e-01	-1.5257	-5.821263	0.000556	5.559659	0.941832	-0.022237
1078	5.3850e-01	-1.5421	-5.965800	0.000723	7.227556	1.224381	-0.028907
1079	5.3900e-01	-1.5623	-6.088529	0.000614	6.137008	1.039637	-0.024546
1080	5.3950e-01	-1.5867	-6.209547	0.000605	6.051475	1.025148	-0.024204
1081	5.4000e-01	-1.6022	-6.357933	0.000742	7.420006	1.256983	-0.029677
1082	5.4050e-01	-1.6238	-6.478095	0.000601	6.008708	1.017903	-0.024033
1083	5.4100e-01	-1.6412	-6.614508	0.000682	6.821274	1.155555	-0.027282
1084	5.4150e-01	-1.6616	-6.731249	0.000584	5.837642	0.988923	-0.023348
1085	5.4200e-01	-1.6822	-6.871083	0.000699	6.992340	1.184534	-0.027967
1086	5.4250e-01	-1.7030	-6.998943	0.000639	6.393608	1.083106	-0.025572
1087	5.4300e-01	-1.7228	-7.119106	0.000601	6.008708	1.017903	-0.024033
1088	5.4350e-01	-1.7421	-7.257656	0.000693	6.928190	1.173667	-0.027710
1089	5.4400e-01	-1.7634	-7.371832	0.000571	5.709342	0.967189	-0.022835
1090	5.4450e-01	-1.7822	-7.506962	0.000676	6.757124	1.144688	-0.027026
1091	5.4500e-01	-1.8040	-7.633111	0.000631	6.308074	1.068617	-0.025230
1092	5.4550e-01	-1.8233	-7.756267	0.000616	6.158391	1.043260	-0.024631
1093	5.4600e-01	-1.8406	-7.890969	0.000674	6.735740	1.141065	-0.026940
1094	5.4650e-01	-1.8626	-8.019257	0.000641	6.414991	1.086729	-0.025658
1095	5.4700e-01	-1.8821	-8.153103	0.000669	6.692974	1.133820	-0.026769
1096	5.4750e-01	-1.9032	-8.285667	0.000663	6.628824	1.122953	-0.026513
1097	5.4800e-01	-1.9205	-8.403264	0.000588	5.880408	0.996168	-0.023519
1098	5.4850e-01	-1.9416	-8.548657	0.000727	7.270323	1.231626	-0.029079
1099	5.4900e-01	-1.9624	-8.662833	0.000571	5.709342	0.967189	-0.022835
1100	5.4950e-01	-1.9834	-8.791548	0.000644	6.436374	1.090351	-0.025743
1101	5.5000e-01	-2.0030	-8.912138	0.000603	6.030091	1.021525	-0.024118
1102	5.5050e-01	-2.0234	-9.032729	0.000603	6.030091	1.021525	-0.024118
1103	5.5100e-01	-2.0432	-9.163154	0.000652	6.521907	1.104841	-0.026085
1104	5.5150e-01	-2.0637	-9.292725	0.000648	6.479141	1.097596	-0.025914
1105	5.5200e-01	-2.0795	-9.413743	0.000605	6.051475	1.025148	-0.024204
1106	5.5250e-01	-2.1012	-9.556570	0.000714	7.142023	1.209891	-0.028565
1107	5.5300e-01	-2.1238	-9.662621	0.000530	5.303059	0.898363	-0.021210
1108	5.5350e-01	-2.1432	-9.787915	0.000627	6.265308	1.061372	-0.025059
1109	5.5400e-01	-2.1641	-9.920051	0.000661	6.607441	1.119331	-0.026427
1110	5.5450e-01	-2.1835	-10.044490	0.000622	6.222541	1.054127	-0.024888
1111	5.5500e-01	-2.2023	-10.176199	0.000659	6.586057	1.115708	-0.026342
1112	5.5550e-01	-2.2236	-10.300638	0.000622	6.222541	1.054127	-0.024888
1113	5.5600e-01	-2.2425	-10.431063	0.000652	6.521907	1.104841	-0.026085
1114	5.5650e-01	-2.2660	-10.549088	0.000590	5.901792	0.999791	-0.023605
1115	5.5700e-01	-2.2814	-10.672672	0.000618	6.179775	1.046882	-0.024717
1116	5.5750e-01	-2.3037	-10.801387	0.000644	6.436374	1.090351	-0.025743
1117	5.5800e-01	-2.3231	-10.924543	0.000616	6.158391	1.043260	-0.024631
1118	5.5850e-01	-2.3444	-11.056251	0.000659	6.586057	1.115708	-0.026342
1119	5.5900e-01	-2.3634	-11.180263	0.000620	6.201158	1.050505	-0.024802
1120	5.5950e-01	-2.3847	-11.306840	0.000633	6.329458	1.072239	-0.025315
1121	5.6000e-01	-2.4038	-11.429996	0.000616	6.158391	1.043260	-0.024631
1122	5.6050e-01	-2.4239	-11.545455	0.000577	5.773492	0.978056	-0.023092
1123	5.6100e-01	-2.4451	-11.675025	0.000648	6.479141	1.097596	-0.025914
1124	5.6150e-01	-2.4656	-11.802458	0.000637	6.372224	1.079484	-0.025486
1125	5.6200e-01	-2.4836	-11.925614	0.000616	6.158391	1.043260	-0.024631
1126	5.6250e-01	-2.5037	-12.060316	0.000674	6.735740	1.141065	-0.026940
1127	5.6300e-01	-2.5234	-12.180478	0.000601	6.008708	1.017903	-0.024033
1128	5.6350e-01	-2.5444	-12.307911	0.000637	6.372224	1.079484	-0.025486
1129	5.6400e-01	-2.5626	-12.413534	0.000528	5.281676	0.894740	-0.021125
1130	5.6450e-01	-2.5843	-12.558071	0.000723	7.227556	1.224381	-0.028907
1131	5.6500e-01	-2.6023	-12.652149	0.000470	4.704327	0.796935	-0.018816
1132	5.6550e-01	-2.6237	-12.797969	0.000729	7.291706	1.235248	-0.029164
1133	5.6600e-01	-2.6414	-12.905731	0.000539	5.388592	0.912852	-0.021552
1134	5.6650e-01	-2.6612	-13.045137	0.000697	6.970957	1.180912	-0.027881
1135	5.6700e-01	-2.6826	-13.174707	0.000648	6.479141	1.097596	-0.025914
1136	5.6750e-01	-2.7021	-13.288455	0.000569	5.687959	0.963566	-0.022750
1137	5.6800e-01	-2.7224	-13.419736	0.000656	6.564674	1.112086	-0.026256
1138	5.6850e-01	-2.7424	-13.524077	0.000522	5.217526	0.883873	-0.020868
1139	5.6900e-01	-2.7642	-13.653220	0.000646	6.457758	1.093974	-0.025829
1140	5.6950e-01	-2.7845	-13.770389	0.000586	5.859025	0.992546	-0.023434
1141	5.7000e-01	-2.8029	-13.892262	0.000609	6.094241	1.032392	-0.024375
1142	5.7050e-01	-2.8242	-14.008576	0.000582	5.816258	0.985301	-0.023263
1143	5.7100e-01	-2.8419	-14.156962	0.000742	7.420006	1.256983	-0.029677
1144	5.7150e-01	-2.8645	-14.264296	0.000537	5.367209	0.909230	-0.021467
1145	5.7200e-01	-2.8834	-14.390873	0.000633	6.329458	1.072239	-0.025315
1146	5.7250e-01	-2.9038	-14.502056	0.000556	5.559659	0.941832	-0.022237
1147	5.7300e-01	-2.9230	-14.633337	0.000656	6.564674	1.112086	-0.026256
1148	5.7350e-01	-2.9414	-14.746658	0.000567	5.666575	0.959944	-0.022664
1149	5.7400e-01	-2.9630	-14.871952	0.000627	6.265308	1.061372	-0.025059
1150	5.7450e-01	-2.9847	-14.996818	0.000624	6.243924	1.057749	-0.024973
1151	5.7500e-01	-3.0024	-15.102442	0.000528	5.281676	0.894740	-0.021125
1152	5.7550e-01	-3.0210	-15.239710	0.000686	6.864040	1.162800	-0.027454
1153	5.7600e-01	-3.0445	-15.343195	0.000517	5.174759	0.876628	-0.020697
1154	5.7650e-01	-3.0628	-15.477469	0.000671	6.714357	1.137443	-0.026855
1155	5.7700e-01	-3.0820	-15.598915	0.000607	6.072858	1.028770	-0.024289
1156	5.7750e-01	-3.1031	-15.699407	0.000503	5.025076	0.851271	-0.020098
1157	5.7800e-01	-3.1242	-15.834536	0.000676	6.757124	1.144688	-0.027026
1158	5.7850e-01	-3.1446	-15.949995	0.000577	5.773492	0.978056	-0.023092
1159	5.7900e-01	-3.1647	-16.081704	0.000659	6.586057	1.115708	-0.026342
1160	5.7950e-01	-3.1831	-16.190748	0.000545	5.452742	0.923720	-0.021809
1161	5.8000e-01	-3.2001	-16.317753	0.000635	6.350841	1.075862	-0.025401
1162	5.8050e-01	-3.2236	-16.424659	0.000535	5.345826	0.905607	-0.021381
1163	5.8100e-01	-3.2438	-16.556368	0.000659	6.586057	1.115708	-0.026342
1164	5.8150e-01	-3.2645	-16.662846	0.000532	5.324442	0.901985	-0.021296
1165	5.8200e-01	-3.2835	-16.775740	0.000565	5.645192	0.956321	-0.022579
1166	5.8250e-01	-3.3027	-16.905738	0.000650	6.500524	1.101219	-0.026000
1167	5.8300e-01	-3.3241	-17.023762	0.000590	5.901792	0.999791	-0.023605
1168	5.8350e-01	-3.3424	-17.137511	0.000569	5.687959	0.963566	-0.022750
1169	5.8400e-01	-3.3613	-17.242279	0.000524	5.238909	0.887495	-0.020954
1170	5.8450e-01	-3.3842	-17.368001	0.000629	6.286691	1.064994	-0.025144
1171	5.8500e-01	-3.4034	-17.494578	0.000633	6.329458	1.072239	-0.025315
1172	5.8550e-01	-3.4226	-17.615168	0.000603	6.030091	1.021525	-0.024118
1173	5.8600e-01	-3.4450	-17.717370	0.000511	5.110609	0.865761	-0.020440
1174	5.8650e-01	-3.4660	-17.853355	0.000680	6.799890	1.151933	-0.027197
1175	5.8700e-01	-3.4849	-17.957268	0.000520	5.196143	0.880250	-0.020783
1176	5.8750e-01	-3.5014	-18.082562	0.000627	6.265308	1.061372	-0.025059
1177	5.8800e-01	-3.5218	-18.196738	0.000571	5.709342	0.967189	-0.022835
1178	5.8850e-01	-3.5435	-18.315618	0.000594	5.944558	1.007035	-0.023776
1179	5.8900e-01	-3.5630	-18.423380	0.000539	5.388592	0.912852	-0.021552
1180	5.8950e-01	-3.5842	-18.549102	0.000629	6.286691	1.064994	-0.025144
1181	5.9000e-01	-3.6060	-18.647455	0.000492	4.918160	0.833159	-0.019671
1182	5.9050e-01	-3.6234	-18.787716	0.000701	7.013723	1.188157	-0.028052
1183	5.9100e-01	-3.6463	-18.891202	0.000517	5.174759	0.876628	-0.020697
1184	5.9150e-01	-3.6636	-19.015641	0.000622	6.222541	1.054127	-0.024888
1185	5.9200e-01	-3.6854	-19.123830	0.000541	5.409976	0.916475	-0.021638
1186	5.9250e-01	-3.7028	-19.242282	0.000592	5.923175	1.003413	-0.023690
1187	5.9300e-01	-3.7244	-19.366721	0.000622	6.222541	1.054127	-0.024888
1188	5.9350e-01	-3.7449	-19.478331	0.000558	5.581042	0.945454	-0.022322
1189	5.9400e-01	-3.7638	-19.577968	0.000498	4.982310	0.844026	-0.019927
1190	5.9450e-01	-3.7836	-19.692144	0.000571	5.709342	0.967189	-0.022835
1191	5.9500e-01	-3.8078	-19.830694	0.000693	6.928190	1.173667	-0.027710
1192	5.9550e-01	-3.8227	-19.936318	0.000528	5.281676	0.894740	-0.021125
1193	5.9600e-01	-3.8413	-20.036382	0.000500	5.003693	0.847649	-0.020013
1194	5.9650e-01	-3.8648	-20.154407	0.000590	5.901792	0.999791	-0.023605
1195	5.9700e-01	-3.8825	-20.263879	0.000547	5.474126	0.927342	-0.021894
1196	5.9750e-01	-3.9042	-20.384897	0.000605	6.051475	1.025148	-0.024204
1197	5.9800e-01	-3.9252	-20.496507	0.000558	5.581042	0.945454	-0.022322
1198	5.9850e-01	-3.9414	-20.602558	0.000530	5.303059	0.898363	-0.021210
1199	5.9900e-01	-3.9658	-20.724004	0.000607	6.072858	1.028770	-0.024289
1200	5.9950e-01	-3.9828	-20.837324	0.000567	5.666575	0.959944	-0.022664
1201	6.0000e-01	-4.0034	-20.956632	0.000597	5.965942	1.010658	-0.023861
1202	6.0050e-01	-4.0250	-21.060117	0.000517	5.174759	0.876628	-0.020697
1203	6.0100e-01	-4.0415	-21.173865	0.000569	5.687959	0.963566	-0.022750
1204	6.0150e-01	-4.0623	-21.290180	0.000582	5.816258	0.985301	-0.023263
1205	6.0200e-01	-4.0827	-21.409915	0.000599	5.987325	1.014280	-0.023947
1206	6.0250e-01	-4.1051	-21.521525	0.000558	5.581042	0.945454	-0.022322
1207	6.0300e-01	-4.1261	-21.623727	0.000511	5.110609	0.865761	-0.020440
1208	6.0350e-01	-4.1459	-21.728923	0.000526	5.260293	0.891118	-0.021039
1209	6.0400e-01	-4.1642	-21.842671	0.000569	5.687959	0.963566	-0.022750
1210	6.0450e-01	-4.1846	-21.962406	0.000599	5.987325	1.014280	-0.023947
1211	6.0500e-01	-4.2042	-22.057339	0.000475	4.747093	0.804179	-0.018987
1212	6.0550e-01	-4.2252	-22.182633	0.000627	6.265308	1.061372	-0.025059
1213	6.0600e-01	-4.2472	-22.301086	0.000592	5.923175	1.003413	-0.023690
1214	6.0650e-01	-4.2642	-22.403716	0.000513	5.131993	0.869383	-0.020526
1215	6.0700e-01	-4.2854	-22.509339	0.000528	5.281676	0.894740	-0.021125
1216	6.0750e-01	-4.3046	-22.621377	0.000560	5.602425	0.949077	-0.022408
1217	6.0800e-01	-4.3229	-22.732132	0.000554	5.538275	0.938209	-0.022151
1218	6.0850e-01	-4.3433	-22.860847	0.000644	6.436374	1.090351	-0.025743
1219	6.0900e-01	-4.3641	-22.962194	0.000507	5.067843	0.858516	-0.020269
1220	6.0950e-01	-4.3861	-23.072522	0.000552	5.516892	0.934587	-0.022065
1221	6.1000e-01	-4.4032	-23.171303	0.000494	4.939543	0.836781	-0.019756
1222	6.1050e-01	-4.4247	-23.280348	0.000545	5.452742	0.923720	-0.021809
1223	6.1100e-01	-4.4453	-23.391103	0.000554	5.538275	0.938209	-0.022151
1224	6.1150e-01	-4.4648	-23.510838	0.000599	5.987325	1.014280	-0.023947
1225	6.1200e-01	-4.4849	-23.599356	0.000443	4.426344	0.749843	-0.017704
1226	6.1250e-01	-4.5029	-23.721229	0.000609	6.094241	1.032392	-0.024375
1227	6.1300e-01	-4.5246	-23.851227	0.000650	6.500524	1.101219	-0.026000
1228	6.1350e-01	-4.5405	-23.929483	0.000391	3.913144	0.662905	-0.015651
1229	6.1400e-01	-4.5631	-24.039810	0.000552	5.516892	0.934587	-0.022065
1230	6.1450e-01	-4.5856	-24.161683	0.000609	6.094241	1.032392	-0.024375
1231	6.1500e-01	-4.6043	-24.272438	0.000554	5.538275	0.938209	-0.022151
1232	6.1550e-01	-4.6241	-24.372930	0.000503	5.025076	0.851271	-0.020098
1233	6.1600e-01	-4.6429	-24.471284	0.000492	4.918160	0.833159	-0.019671
1234	6.1650e-01	-4.6638	-24.576907	0.000528	5.281676	0.894740	-0.021125
1235	6.1700e-01	-4.6833	-24.686807	0.000550	5.495509	0.930964	-0.021980
1236	6.1750e-01	-4.7059	-24.793713	0.000535	5.345826	0.905607	-0.021381
1237	6.1800e-01	-4.7254	-24.901903	0.000541	5.409976	0.916475	-0.021638
1238	6.1850e-01	-4.7456	-25.010519	0.000543	5.431359	0.920097	-0.021723
1239	6.1900e-01	-4.7651	-25.123413	0.000565	5.645192	0.956321	-0.022579
1240	6.1950e-01	-4.7834	-25.224332	0.000505	5.046460	0.854893	-0.020184
1241	6.2000e-01	-4.8037	-25.341501	0.000586	5.859025	0.992546	-0.023434
1242	6.2050e-01	-4.8261	-25.439855	0.000492	4.918160	0.833159	-0.019671
1243	6.2100e-01	-4.8441	-25.547189	0.000537	5.367209	0.909230	-0.021467
1244	6.2150e-01	-4.8634	-25.645115	0.000490	4.896776	0.829536	-0.019585
1245	6.2200e-01	-4.8841	-25.749456	0.000522	5.217526	0.883873	-0.020868
1246	6.2250e-01	-4.9055	-25.847382	0.000490	4.896776	0.829536	-0.019585
1247	6.2300e-01	-4.9232	-25.948729	0.000507	5.067843	0.858516	-0.020269
1248	6.2350e-01	-4.9451	-26.075306	0.000633	6.329458	1.072239	-0.025315
1249	6.2400e-01	-4.9628	-26.174943	0.000498	4.982310	0.844026	-0.019927
1250	6.2450e-01	-4.9851	-26.271159	0.000481	4.811243	0.815047	-0.019243
1251	6.2500e-01	-5.0051	-26.390894	0.000599	5.987325	1.014280	-0.023947
1252	6.2550e-01	-5.0205	-26.493952	0.000515	5.153376	0.873006	-0.020612
1253	6.2600e-01	-5.0436	-26.590167	0.000481	4.811243	0.815047	-0.019243
1254	6.2650e-01	-5.0654	-26.719310	0.000646	6.457758	1.093974	-0.025829
1255	6.2700e-01	-5.0861	-26.800131	0.000404	4.041444	0.684639	-0.016164
1256	6.2750e-01	-5.1041	-26.910031	0.000550	5.495509	0.930964	-0.021980
1257	6.2800e-01	-5.1252	-27.013089	0.000515	5.153376	0.873006	-0.020612
1258	6.2850e-01	-5.1453	-27.101607	0.000443	4.426344	0.749843	-0.017704
1259	6.2900e-01	-5.1643	-27.221342	0.000599	5.987325	1.014280	-0.023947
1260	6.2950e-01	-5.1841	-27.311571	0.000451	4.511877	0.764333	-0.018046
1261	6.3000e-01	-5.2067	-27.424036	0.000562	5.623809	0.952699	-0.022493
1262	6.3050e-01	-5.2244	-27.518542	0.000473	4.725710	0.800557	-0.018901
1263	6.3100e-01	-5.2430	-27.619034	0.000503	5.025076	0.851271	-0.020098
1264	6.3150e-01	-5.2644	-27.729789	0.000554	5.538275	0.938209	-0.022151
1265	6.3200e-01	-5.2818	-27.824721	0.000475	4.747093	0.804179	-0.018987
1266	6.3250e-01	-5.3034	-27.930772	0.000530	5.303059	0.898363	-0.021210
1267	6.3300e-01	-5.3254	-28.038106	0.000537	5.367209	0.909230	-0.021467
1268	6.3350e-01	-5.3438	-28.143302	0.000526	5.260293	0.891118	-0.021039
1269	6.3400e-01	-5.3658	-28.240373	0.000485	4.854010	0.822292	-0.019414
1270	6.3450e-01	-5.3858	-28.336161	0.000479	4.789860	0.811424	-0.019158
1271	6.3500e-01	-5.4038	-28.452903	0.000584	5.837642	0.988923	-0.023348
1272	6.3550e-01	-5.4237	-28.550829	0.000490	4.896776	0.829536	-0.019585
1273	6.3600e-01	-5.4440	-28.644051	0.000466	4.661560	0.789690	-0.018644
1274	6.3650e-01	-5.4649	-28.741978	0.000490	4.896776	0.829536	-0.019585
1275	6.3700e-01	-5.4855	-28.845891	0.000520	5.196143	0.880250	-0.020783
1276	6.3750e-01	-5.5042	-28.951942	0.000530	5.303059	0.898363	-0.021210
1277	6.3800e-01	-5.5256	-29.049868	0.000490	4.896776	0.829536	-0.019585
1278	6.3850e-01	-5.5457	-29.161906	0.000560	5.602425	0.949077	-0.022408
1279	6.3900e-01	-5.5647	-29.251707	0.000449	4.490494	0.760710	-0.017960
1280	6.3950e-01	-5.5854	-29.355620	0.000520	5.196143	0.880250	-0.020783
1281	6.4000e-01	-5.6051	-29.466375	0.000554	5.538275	0.938209	-0.022151
1282	6.4050e-01	-5.6239	-29.564301	0.000490	4.896776	0.829536	-0.019585
1283	6.4100e-01	-5.6434	-29.664365	0.000500	5.003693	0.847649	-0.020013
1284	6.4150e-01	-5.6654	-29.749035	0.000423	4.233894	0.717241	-0.016934
1285	6.4200e-01	-5.6855	-29.858507	0.000547	5.474126	0.927342	-0.021894
1286	6.4250e-01	-5.7032	-29.956433	0.000490	4.896776	0.829536	-0.019585
1287	6.4300e-01	-5.7243	-30.068044	0.000558	5.581042	0.945454	-0.022322
1288	6.4350e-01	-5.7459	-30.171529	0.000517	5.174759	0.876628	-0.020697
1289	6.4400e-01	-5.7648	-30.262613	0.000455	4.554644	0.771578	-0.018217
1290	6.4450e-01	-5.7850	-30.366526	0.000520	5.196143	0.880250	-0.020783
1291	6.4500e-01	-5.8067	-30.459748	0.000466	4.661560	0.789690	-0.018644
1292	6.4550e-01	-5.8234	-30.559813	0.000500	5.003693	0.847649	-0.020013
1293	6.4600e-01	-5.8455	-30.674844	0.000575	5.752109	0.974434	-0.023006
1294	6.4650e-01	-5.8619	-30.777046	0.000511	5.110609	0.865761	-0.020440
1295	6.4700e-01	-5.8863	-30.868986	0.000460	4.597410	0.778822	-0.018388
1296	6.4750e-01	-5.9031	-30.974182	0.000526	5.260293	0.891118	-0.021039
1297	6.4800e-01	-5.9241	-31.075101	0.000505	5.046460	0.854893	-0.020184
1298	6.4850e-01	-5.9437	-31.168751	0.000468	4.682943	0.793312	-0.018730
1299	6.4900e-01	-5.9626	-31.276940	0.000541	5.409976	0.916475	-0.021638
1300	6.4950e-01	-5.9866	-31.373156	0.000481	4.811243	0.815047	-0.019243
1301	6.5000e-01	-6.0041	-31.483056	0.000550	5.495509	0.930964	-0.021980
1302	6.5050e-01	-6.0267	-31.588251	0.000526	5.260293	0.891118	-0.021039
1303	6.5100e-01	-6.0444	-31.669073	0.000404	4.041444	0.684639	-0.016164
1304	6.5150e-01	-6.0645	-31.777262	0.000541	5.409976	0.916475	-0.021638
1305	6.5200e-01	-6.0835	-31.877326	0.000500	5.003693	0.847649	-0.020013
1306	6.5250e-01	-6.1024	-31.978246	0.000505	5.046460	0.854893	-0.020184
1307	6.5300e-01	-6.1237	-32.077455	0.000496	4.960926	0.840404	-0.019842
1308	6.5350e-01	-6.1448	-32.175381	0.000490	4.896776	0.829536	-0.019585
1309	6.5400e-01	-6.1689	-32.292123	0.000584	5.837642	0.988923	-0.023348
1310	6.5450e-01	-6.1842	-32.381496	0.000447	4.469110	0.757088	-0.017875
1311	6.5500e-01	-6.2061	-32.481988	0.000503	5.025076	0.851271	-0.020098
1312	6.5550e-01	-6.2238	-32.580770	0.000494	4.939543	0.836781	-0.019756
1313	6.5600e-01	-6.2452	-32.682117	0.000507	5.067843	0.858516	-0.020269
1314	6.5650e-01	-6.2666	-32.780043	0.000490	4.896776	0.829536	-0.019585
1315	6.5700e-01	-6.2861	-32.898923	0.000594	5.944558	1.007035	-0.023776
1316	6.5750e-01	-6.3026	-32.986158	0.000436	4.362194	0.738976	-0.017447
1317	6.5800e-01	-6.3258	-33.091782	0.000528	5.281676	0.894740	-0.021125
1318	6.5850e-01	-6.3419	-33.189708	0.000490	4.896776	0.829536	-0.019585
1319	6.5900e-01	-6.3654	-33.289772	0.000500	5.003693	0.847649	-0.020013
1320	6.5950e-01	-6.3862	-33.373587	0.000419	4.191127	0.709996	-0.016763
1321	6.6000e-01	-6.4051	-33.499309	0.000629	6.286691	1.064994	-0.025144
1322	6.6050e-01	-6.4234	-33.596807	0.000488	4.875393	0.825914	-0.019500
1323	6.6100e-01	-6.4417	-33.700720	0.000520	5.196143	0.880250	-0.020783
1324	6.6150e-01	-6.4639	-33.788811	0.000440	4.404960	0.746220	-0.017618
1325	6.6200e-01	-6.4845	-33.892296	0.000517	5.174759	0.876628	-0.020697
1326	6.6250e-01	-6.5060	-33.999203	0.000535	5.345826	0.905607	-0.021381
1327	6.6300e-01	-6.5247	-34.096701	0.000488	4.875393	0.825914	-0.019500
1328	6.6350e-01	-6.5482	-34.205318	0.000543	5.431359	0.920097	-0.021723
1329	6.6400e-01	-6.5650	-34.306238	0.000505	5.046460	0.854893	-0.020184
1330	6.6450e-01	-6.5852	-34.410151	0.000520	5.196143	0.880250	-0.020783
1331	6.6500e-01	-6.6048	-34.505939	0.000479	4.789860	0.811424	-0.019158
1332	6.6550e-01	-6.6236	-34.617976	0.000560	5.602425	0.949077	-0.022408
1333	6.6600e-01	-6.6465	-34.725310	0.000537	5.367209	0.909230	-0.021467
1334	6.6650e-01	-6.6608	-34.821526	0.000481	4.811243	0.815047	-0.019243
1335	6.6700e-01	-6.6840	-34.922446	0.000505	5.046460	0.854893	-0.020184
1336	6.6750e-01	-6.7054	-35.019089	0.000483	4.832626	0.818669	-0.019329
1337	6.6800e-01	-6.7243	-35.118726	0.000498	4.982310	0.844026	-0.019927
1338	6.6850e-01	-6.7439	-35.234612	0.000579	5.794875	0.981678	-0.023177
1339	6.6900e-01	-6.7640	-35.326124	0.000458	4.576027	0.775200	-0.018302
1340	6.6950e-01	-6.7823	-35.437307	0.000556	5.559659	0.941832	-0.022237
1341	6.7000e-01	-6.8055	-35.540792	0.000517	5.174759	0.876628	-0.020697
1342	6.7050e-01	-6.8241	-35.638718	0.000490	4.896776	0.829536	-0.019585
1343	6.7100e-01	-6.8421	-35.748618	0.000550	5.495509	0.930964	-0.021980
1344	6.7150e-01	-6.8616	-35.851248	0.000513	5.131993	0.869383	-0.020526
1345	6.7200e-01	-6.8855	-35.945325	0.000470	4.704327	0.796935	-0.018816
1346	6.7250e-01	-6.9035	-36.041969	0.000483	4.832626	0.818669	-0.019329
1347	6.7300e-01	-6.9233	-36.155717	0.000569	5.687959	0.963566	-0.022750
1348	6.7350e-01	-6.9459	-36.259630	0.000520	5.196143	0.880250	-0.020783
1349	6.7400e-01	-6.9663	-36.348576	0.000445	4.447727	0.753465	-0.017789
1350	6.7450e-01	-6.9868	-36.468311	0.000599	5.987325	1.014280	-0.023947
1351	6.7500e-01	-7.0017	-36.565382	0.000485	4.854010	0.822292	-0.019414
1352	6.7550e-01	-7.0246	-36.672288	0.000535	5.345826	0.905607	-0.021381
1353	6.7600e-01	-7.0454	-36.778767	0.000532	5.324442	0.901985	-0.021296
1354	6.7650e-01	-7.0631	-36.883963	0.000526	5.260293	0.891118	-0.021039
1355	6.7700e-01	-7.0856	-36.964356	0.000402	4.020061	0.681017	-0.016079
1356	6.7750e-01	-7.1046	-37.081098	0.000584	5.837642	0.988923	-0.023348
1357	6.7800e-01	-7.1259	-37.187149	0.000530	5.303059	0.898363	-0.021210
1358	6.7850e-01	-7.1449	-37.282082	0.000475	4.747093	0.804179	-0.018987
1359	6.7900e-01	-7.1650	-37.393692	0.000558	5.581042	0.945454	-0.022322
1360	6.7950e-01	-7.1845	-37.511289	0.000588	5.880408	0.996168	-0.023519
1361	6.8000e-01	-7.2060	-37.593393	0.000411	4.105594	0.695506	-0.016421
1362	6.8050e-01	-7.2248	-37.704148	0.000554	5.538275	0.938209	-0.022151
1363	6.8100e-01	-7.2440	-37.811054	0.000535	5.345826	0.905607	-0.021381
1364	6.8150e-01	-7.2654	-37.922237	0.000556	5.559659	0.941832	-0.022237
1365	6.8200e-01	-7.2840	-38.019736	0.000488	4.875393	0.825914	-0.019500
1366	6.8250e-01	-7.3049	-38.114241	0.000473	4.725710	0.800557	-0.018901
1367	6.8300e-01	-7.3212	-38.233121	0.000594	5.944558	1.007035	-0.023776
1368	6.8350e-01	-7.3444	-38.333612	0.000503	5.025076	0.851271	-0.020098
1369	6.8400e-01	-7.3621	-38.439236	0.000528	5.281676	0.894740	-0.021125
1370	6.8450e-01	-7.3847	-38.528610	0.000447	4.469110	0.757088	-0.017875
1371	6.8500e-01	-7.4043	-38.635516	0.000535	5.345826	0.905607	-0.021381
1372	6.8550e-01	-7.4250	-38.741995	0.000532	5.324442	0.901985	-0.021296
1373	6.8600e-01	-7.4470	-38.862585	0.000603	6.030091	1.021525	-0.024118
1374	6.8650e-01	-7.4635	-38.956663	0.000470	4.704327	0.796935	-0.018816
1375	6.8700e-01	-7.4836	-39.056299	0.000498	4.982310	0.844026	-0.019927
1376	6.8750e-01	-7.5031	-39.162778	0.000532	5.324442	0.901985	-0.021296
1377	6.8800e-01	-7.5245	-39.269684	0.000535	5.345826	0.905607	-0.021381
1378	6.8850e-01	-7.5434	-39.373170	0.000517	5.174759	0.876628	-0.020697
1379	6.8900e-01	-7.5642	-39.479221	0.000530	5.303059	0.898363	-0.021210
1380	6.8950e-01	-7.5861	-39.577574	0.000492	4.918160	0.833159	-0.019671
1381	6.9000e-01	-7.6044	-39.684908	0.000537	5.367209	0.909230	-0.021467
1382	6.9050e-01	-7.6258	-39.785828	0.000505	5.046460	0.854893	-0.020184
1383	6.9100e-01	-7.6453	-39.889313	0.000517	5.174759	0.876628	-0.020697
1384	6.9150e-01	-7.6667	-39.996220	0.000535	5.345826	0.905607	-0.021381
1385	6.9200e-01	-7.6838	-40.106975	0.000554	5.538275	0.938209	-0.022151
1386	6.9250e-01	-7.7052	-40.217729	0.000554	5.538275	0.938209	-0.022151
1387	6.9300e-01	-7.7235	-40.300689	0.000415	4.148361	0.702751	-0.016592
1388	6.9350e-01	-7.7442	-40.413154	0.000562	5.623809	0.952699	-0.022493
1389	6.9400e-01	-7.7668	-40.512363	0.000496	4.960926	0.840404	-0.019842
1390	6.9450e-01	-7.7863	-40.618414	0.000530	5.303059	0.898363	-0.021210
1391	6.9500e-01	-7.8022	-40.728314	0.000550	5.495509	0.930964	-0.021980
1392	6.9550e-01	-7.8266	-40.827951	0.000498	4.982310	0.844026	-0.019927
1393	6.9600e-01	-7.8446	-40.949824	0.000609	6.094241	1.032392	-0.024375
1394	6.9650e-01	-7.8645	-41.043901	0.000470	4.704327	0.796935	-0.018816
1395	6.9700e-01	-7.8828	-41.141828	0.000490	4.896776	0.829536	-0.019585
1396	6.9750e-01	-7.9047	-41.250444	0.000543	5.431359	0.920097	-0.021723
1397	6.9800e-01	-7.9230	-41.349226	0.000494	4.939543	0.836781	-0.019756
1398	6.9850e-01	-7.9450	-41.454422	0.000526	5.260293	0.891118	-0.021039
1399	6.9900e-01	-7.9630	-41.564321	0.000550	5.495509	0.930964	-0.021980
1400	6.9950e-01	-7.9841	-41.664386	0.000500	5.003693	0.847649	-0.020013
1401	7.0000e-01	-8.0027	-41.771720	0.000537	5.367209	0.909230	-0.021467
1402	7.0050e-01	-8.0238	-41.878198	0.000532	5.324442	0.901985	-0.021296
1403	7.0100e-01	-8.0457	-41.991091	0.000565	5.645192	0.956321	-0.022579
1404	7.0150e-01	-8.0647	-42.091156	0.000500	5.003693	0.847649	-0.020013
1405	7.0200e-01	-8.0784	-42.195924	0.000524	5.238909	0.887495	-0.020954
1406	7.0250e-01	-8.1055	-42.310100	0.000571	5.709342	0.967189	-0.022835
1407	7.0300e-01	-8.1257	-42.412730	0.000513	5.131993	0.869383	-0.020526
1408	7.0350e-01	-8.1458	-42.514505	0.000509	5.089226	0.862138	-0.020355
1409	7.0400e-01	-8.1660	-42.608155	0.000468	4.682943	0.793312	-0.018730
1410	7.0450e-01	-8.1855	-42.712923	0.000524	5.238909	0.887495	-0.020954
1411	7.0500e-01	-8.2044	-42.824961	0.000560	5.602425	0.949077	-0.022408
1412	7.0550e-01	-8.2258	-42.940420	0.000577	5.773492	0.978056	-0.023092
1413	7.0600e-01	-8.2441	-43.019530	0.000396	3.955911	0.670149	-0.015822
1414	7.0650e-01	-8.2630	-43.137555	0.000590	5.901792	0.999791	-0.023605
1415	7.0700e-01	-8.2850	-43.241895	0.000522	5.217526	0.883873	-0.020868
1416	7.0750e-01	-8.3033	-43.347946	0.000530	5.303059	0.898363	-0.021210
1417	7.0800e-01	-8.3241	-43.454853	0.000535	5.345826	0.905607	-0.021381
1418	7.0850e-01	-8.3454	-43.549786	0.000475	4.747093	0.804179	-0.018987
1419	7.0900e-01	-8.3649	-43.663962	0.000571	5.709342	0.967189	-0.022835
1420	7.0950e-01	-8.3857	-43.780703	0.000584	5.837642	0.988923	-0.023348
1421	7.1000e-01	-8.4046	-43.869222	0.000443	4.426344	0.749843	-0.017704
1422	7.1050e-01	-8.4278	-43.969286	0.000500	5.003693	0.847649	-0.020013
1423	7.1100e-01	-8.4461	-44.081751	0.000562	5.623809	0.952699	-0.022493
1424	7.1150e-01	-8.4638	-44.183954	0.000511	5.110609	0.865761	-0.020440
1425	7.1200e-01	-8.4855	-44.292143	0.000541	5.409976	0.916475	-0.021638
1426	7.1250e-01	-8.5035	-44.395628	0.000517	5.174759	0.876628	-0.020697
1427	7.1300e-01	-8.5267	-44.500397	0.000524	5.238909	0.887495	-0.020954
1428	7.1350e-01	-8.5450	-44.609869	0.000547	5.474126	0.927342	-0.021894
1429	7.1400e-01	-8.5664	-44.712071	0.000511	5.110609	0.865761	-0.020440
1430	7.1450e-01	-8.5853	-44.817695	0.000528	5.281676	0.894740	-0.021125
1431	7.1500e-01	-8.6051	-44.925884	0.000541	5.409976	0.916475	-0.021638
1432	7.1550e-01	-8.6225	-45.037066	0.000556	5.559659	0.941832	-0.022237
1433	7.1600e-01	-8.6445	-45.137558	0.000503	5.025076	0.851271	-0.020098
1434	7.1650e-01	-8.6652	-45.235484	0.000490	4.896776	0.829536	-0.019585
1435	7.1700e-01	-8.6845	-45.334266	0.000494	4.939543	0.836781	-0.019756
1436	7.1750e-01	-8.7037	-45.450152	0.000579	5.794875	0.981678	-0.023177
1437	7.1800e-01	-8.7251	-45.557059	0.000535	5.345826	0.905607	-0.021381
1438	7.1850e-01	-8.7464	-45.664820	0.000539	5.388592	0.912852	-0.021552
1439	7.1900e-01	-8.7641	-45.764029	0.000496	4.960926	0.840404	-0.019842
1440	7.1950e-01	-8.7836	-45.867942	0.000520	5.196143	0.880250	-0.020783
1441	7.2000e-01	-8.8007	-45.973138	0.000526	5.260293	0.891118	-0.021039
1442	7.2050e-01	-8.8227	-46.085176	0.000560	5.602425	0.949077	-0.022408
1443	7.2100e-01	-8.8465	-46.193793	0.000543	5.431359	0.920097	-0.021723
1444	7.2150e-01	-8.8630	-46.300699	0.000535	5.345826	0.905607	-0.021381
1445	7.2200e-01	-8.8845	-46.393494	0.000464	4.640177	0.786067	-0.018559
1446	7.2250e-01	-8.9060	-46.506814	0.000567	5.666575	0.959944	-0.022664
1447	7.2300e-01	-8.9246	-46.617569	0.000554	5.538275	0.938209	-0.022151
1448	7.2350e-01	-8.9429	-46.727041	0.000547	5.474126	0.927342	-0.021894
1449	7.2400e-01	-8.9646	-46.822829	0.000479	4.789860	0.811424	-0.019158
1450	7.2450e-01	-8.9863	-46.922894	0.000500	5.003693	0.847649	-0.020013
1451	7.2500e-01	-9.0067	-47.030655	0.000539	5.388592	0.912852	-0.021552
1452	7.2550e-01	-9.0247	-47.141410	0.000554	5.538275	0.938209	-0.022151
1453	7.2600e-01	-9.0461	-47.247034	0.000528	5.281676	0.894740	-0.021125
1454	7.2650e-01	-9.0632	-47.359072	0.000560	5.602425	0.949077	-0.022408
1455	7.2700e-01	-9.0833	-47.464267	0.000526	5.260293	0.891118	-0.021039
1456	7.2750e-01	-9.1053	-47.566470	0.000511	5.110609	0.865761	-0.020440
1457	7.2800e-01	-9.1230	-47.674659	0.000541	5.409976	0.916475	-0.021638
1458	7.2850e-01	-9.1462	-47.770875	0.000481	4.811243	0.815047	-0.019243
1459	7.2900e-01	-9.1682	-47.878209	0.000537	5.367209	0.909230	-0.021467
1460	7.2950e-01	-9.1877	-47.986398	0.000541	5.409976	0.916475	-0.021638
1461	7.3000e-01	-9.2042	-48.099719	0.000567	5.666575	0.959944	-0.022664
1462	7.3050e-01	-9.2262	-48.197217	0.000488	4.875393	0.825914	-0.019500
1463	7.3100e-01	-9.2457	-48.304551	0.000537	5.367209	0.909230	-0.021467
1464	7.3150e-01	-9.2646	-48.414451	0.000550	5.495509	0.930964	-0.021980
1465	7.3200e-01	-9.2835	-48.517508	0.000515	5.153376	0.873006	-0.020612
1466	7.3250e-01	-9.3049	-48.628263	0.000554	5.538275	0.938209	-0.022151
1467	7.3300e-01	-9.3262	-48.728328	0.000500	5.003693	0.847649	-0.020013
1468	7.3350e-01	-9.3458	-48.836089	0.000539	5.388592	0.912852	-0.021552
1469	7.3400e-01	-9.3665	-48.952831	0.000584	5.837642	0.988923	-0.023348
1470	7.3450e-01	-9.3867	-49.044343	0.000458	4.576027	0.775200	-0.018302
1471	7.3500e-01	-9.4032	-49.171775	0.000637	6.372224	1.079484	-0.025486
1472	7.3550e-01	-9.4251	-49.276543	0.000524	5.238909	0.887495	-0.020954
1473	7.3600e-01	-9.4428	-49.375752	0.000496	4.960926	0.840404	-0.019842
1474	7.3650e-01	-9.4637	-49.478382	0.000513	5.131993	0.869383	-0.020526
1475	7.3700e-01	-9.4849	-49.581440	0.000515	5.153376	0.873006	-0.020612
1476	7.3750e-01	-9.5039	-49.705879	0.000622	6.222541	1.054127	-0.024888
1477	7.3800e-01	-9.5258	-49.798246	0.000462	4.618793	0.782445	-0.018473
1478	7.3850e-01	-9.5466	-49.909001	0.000554	5.538275	0.938209	-0.022151
1479	7.3900e-01	-9.5661	-50.020184	0.000556	5.559659	0.941832	-0.022237
1480	7.3950e-01	-9.5875	-50.130511	0.000552	5.516892	0.934587	-0.022065
1481	7.4000e-01	-9.5997	-50.239555	0.000545	5.452742	0.923720	-0.021809
1482	7.4050e-01	-9.6259	-50.348600	0.000545	5.452742	0.923720	-0.021809
1483	7.4100e-01	-9.6461	-50.445243	0.000483	4.832626	0.818669	-0.019329
1484	7.4150e-01	-9.6674	-50.567116	0.000609	6.094241	1.032392	-0.024375
1485	7.4200e-01	-9.6845	-50.657773	0.000453	4.533260	0.767955	-0.018131
1486	7.4250e-01	-9.7034	-50.776225	0.000592	5.923175	1.003413	-0.023690
1487	7.4300e-01	-9.7236	-50.872441	0.000481	4.811243	0.815047	-0.019243
1488	7.4350e-01	-9.7449	-50.984479	0.000560	5.602425	0.949077	-0.022408
1489	7.4400e-01	-9.7645	-51.096516	0.000560	5.602425	0.949077	-0.022408
1490	7.4450e-01	-9.7846	-51.189311	0.000464	4.640177	0.786067	-0.018559
1491	7.4500e-01	-9.8048	-51.309901	0.000603	6.030091	1.021525	-0.024118
1492	7.4550e-01	-9.8261	-51.415953	0.000530	5.303059	0.898363	-0.021210
1493	7.4600e-01	-9.8457	-51.530984	0.000575	5.752109	0.974434	-0.023006
1494	7.4650e-01	-9.8670	-51.630193	0.000496	4.960926	0.840404	-0.019842
1495	7.4700e-01	-9.8856	-51.737099	0.000535	5.345826	0.905607	-0.021381
1496	7.4750e-01	-9.9036	-51.845288	0.000541	5.409976	0.916475	-0.021638
1497	7.4800e-01	-9.9259	-51.962458	0.000586	5.859025	0.992546	-0.023434
1498	7.4850e-01	-9.9451	-52.063377	0.000505	5.046460	0.854893	-0.020184
1499	7.4900e-01	-9.9653	-52.177981	0.000573	5.730725	0.970811	-0.022921
1500	7.4950e-01	-9.9837	-52.290019	0.000560	5.602425	0.949077	-0.022408
1501	7.5000e-01	-10.0000	-52.400774	0.000554	5.538275	0.938209	-0.022151
1502	7.5050e-01	-9.9836	-52.346893	0.000269	2.694296	0.456426	0.010776
1503	7.5100e-01	-9.9628	-52.328505	0.000092	0.919482	0.155764	0.003678
1504	7.5150e-01	-9.9433	-52.309689	0.000094	0.940865	0.159387	0.003763
1505	7.5200e-01	-9.9238	-52.272058	0.000188	1.881731	0.318774	0.007526
1506	7.5250e-01	-9.9049	-52.239131	0.000165	1.646514	0.278927	0.006585
1507	7.5300e-01	-9.8878	-52.207059	0.000160	1.603748	0.271682	0.006414
1508	7.5350e-01	-9.8661	-52.162586	0.000222	2.223864	0.376733	0.008895
1509	7.5400e-01	-9.8441	-52.134791	0.000139	1.389915	0.235458	0.005559
1510	7.5450e-01	-9.8237	-52.103146	0.000158	1.582364	0.268060	0.006329
1511	7.5500e-01	-9.8035	-52.056535	0.000233	2.330780	0.394845	0.009322
1512	7.5550e-01	-9.7858	-52.011635	0.000225	2.245247	0.380355	0.008980
1513	7.5600e-01	-9.7657	-51.962885	0.000244	2.437697	0.412957	0.009750
1514	7.5650e-01	-9.7449	-51.918840	0.000220	2.202480	0.373110	0.008809
1515	7.5700e-01	-9.7260	-51.879926	0.000195	1.945881	0.329641	0.007783
1516	7.5750e-01	-9.7047	-51.824335	0.000278	2.779829	0.470916	0.011118
1517	7.5800e-01	-9.6833	-51.792690	0.000158	1.582364	0.268060	0.006329
1518	7.5850e-01	-9.6638	-51.736244	0.000282	2.822596	0.478161	0.011289
1519	7.5900e-01	-9.6436	-51.696902	0.000197	1.967264	0.333264	0.007868
1520	7.5950e-01	-9.6241	-51.635324	0.000308	3.079196	0.521630	0.012316
1521	7.6000e-01	-9.6046	-51.590851	0.000222	2.223864	0.376733	0.008895
1522	7.6050e-01	-9.5863	-51.533122	0.000289	2.886746	0.489028	0.011546
1523	7.6100e-01	-9.5637	-51.480524	0.000263	2.630146	0.445559	0.010520
1524	7.6150e-01	-9.5448	-51.425360	0.000276	2.758446	0.467293	0.011033
1525	7.6200e-01	-9.5246	-51.377894	0.000237	2.373547	0.402090	0.009493
1526	7.6250e-01	-9.5057	-51.312895	0.000325	3.250262	0.550609	0.013000
1527	7.6300e-01	-9.4855	-51.259869	0.000265	2.651530	0.449181	0.010605
1528	7.6350e-01	-9.4630	-51.205133	0.000274	2.737063	0.463671	0.010947
1529	7.6400e-01	-9.4447	-51.150397	0.000274	2.737063	0.463671	0.010947
1530	7.6450e-01	-9.4230	-51.091385	0.000295	2.950896	0.499895	0.011802
1531	7.6500e-01	-9.3995	-51.042636	0.000244	2.437697	0.412957	0.009750
1532	7.6550e-01	-9.3836	-50.996025	0.000233	2.330780	0.394845	0.009322
1533	7.6600e-01	-9.3635	-50.914776	0.000406	4.062828	0.688262	0.016250
1534	7.6650e-01	-9.3452	-50.857902	0.000284	2.843979	0.481783	0.011375
1535	7.6700e-01	-9.3256	-50.810008	0.000239	2.394930	0.405712	0.009579
1536	7.6750e-01	-9.3043	-50.736456	0.000368	3.677928	0.623058	0.014710
1537	7.6800e-01	-9.2817	-50.680009	0.000282	2.822596	0.478161	0.011289
1538	7.6850e-01	-9.2652	-50.610734	0.000346	3.464095	0.586834	0.013855
1539	7.6900e-01	-9.2469	-50.551722	0.000295	2.950896	0.499895	0.011802
1540	7.6950e-01	-9.2249	-50.508104	0.000218	2.181097	0.369488	0.008724
1541	7.7000e-01	-9.2045	-50.438829	0.000346	3.464095	0.586834	0.013855
1542	7.7050e-01	-9.1871	-50.381527	0.000287	2.865363	0.485406	0.011460
1543	7.7100e-01	-9.1651	-50.324653	0.000284	2.843979	0.481783	0.011375
1544	7.7150e-01	-9.1444	-50.263502	0.000306	3.057812	0.518007	0.012230
1545	7.7200e-01	-9.1239	-50.196793	0.000334	3.335795	0.565099	0.013342
1546	7.7250e-01	-9.1053	-50.131366	0.000327	3.271645	0.554232	0.013085
1547	7.7300e-01	-9.0839	-50.073637	0.000289	2.886746	0.489028	0.011546
1548	7.7350e-01	-9.0614	-50.015052	0.000293	2.929513	0.496273	0.011717
1549	7.7400e-01	-9.0449	-49.959888	0.000276	2.758446	0.467293	0.011033
1550	7.7450e-01	-9.0253	-49.900021	0.000299	2.993662	0.507140	0.011974
1551	7.7500e-01	-9.0052	-49.816634	0.000417	4.169744	0.706374	0.016677
1552	7.7550e-01	-8.9845	-49.755056	0.000308	3.079196	0.521630	0.012316
1553	7.7600e-01	-8.9643	-49.690912	0.000321	3.207495	0.543364	0.012829
1554	7.7650e-01	-8.9472	-49.628479	0.000312	3.121962	0.528875	0.012487
1555	7.7700e-01	-8.9265	-49.561769	0.000334	3.335795	0.565099	0.013342
1556	7.7750e-01	-8.9045	-49.499336	0.000312	3.121962	0.528875	0.012487
1557	7.7800e-01	-8.8856	-49.433482	0.000329	3.293029	0.557854	0.013171
1558	7.7850e-01	-8.8660	-49.362924	0.000353	3.528245	0.597701	0.014112
1559	7.7900e-01	-8.8447	-49.307332	0.000278	2.779829	0.470916	0.011118
1560	7.7950e-01	-8.8239	-49.235064	0.000361	3.613778	0.612191	0.014454
1561	7.8000e-01	-8.8044	-49.174768	0.000302	3.015046	0.510763	0.012059
1562	7.8050e-01	-8.7855	-49.108059	0.000334	3.335795	0.565099	0.013342
1563	7.8100e-01	-8.7635	-49.047764	0.000302	3.015046	0.510763	0.012059
1564	7.8150e-01	-8.7452	-48.990034	0.000289	2.886746	0.489028	0.011546
1565	7.8200e-01	-8.7254	-48.904509	0.000428	4.276661	0.724486	0.017105
1566	7.8250e-01	-8.7043	-48.842504	0.000310	3.100579	0.525252	0.012401
1567	7.8300e-01	-8.6860	-48.774511	0.000340	3.399945	0.575966	0.013598
1568	7.8350e-01	-8.6652	-48.711650	0.000314	3.143346	0.532497	0.012572
1569	7.8400e-01	-8.6463	-48.645796	0.000329	3.293029	0.557854	0.013171
1570	7.8450e-01	-8.6237	-48.580369	0.000327	3.271645	0.554232	0.013085
1571	7.8500e-01	-8.6054	-48.496555	0.000419	4.191127	0.709996	0.016763
1572	7.8550e-01	-8.5871	-48.437970	0.000293	2.929513	0.496273	0.011717
1573	7.8600e-01	-8.5645	-48.360142	0.000389	3.891761	0.659282	0.015566
1574	7.8650e-01	-8.5447	-48.314814	0.000227	2.266630	0.383978	0.009066
1575	7.8700e-01	-8.5261	-48.240407	0.000372	3.720695	0.630303	0.014881
1576	7.8750e-01	-8.5035	-48.171132	0.000346	3.464095	0.586834	0.013855
1577	7.8800e-01	-8.4827	-48.097580	0.000368	3.677928	0.623058	0.014710
1578	7.8850e-01	-8.4632	-48.039423	0.000291	2.908129	0.492650	0.011631
1579	7.8900e-01	-8.4431	-47.964589	0.000374	3.742078	0.633925	0.014967
1580	7.8950e-01	-8.4235	-47.900873	0.000319	3.186112	0.539742	0.012743
1581	7.9000e-01	-8.4016	-47.832453	0.000342	3.421328	0.579589	0.013684
1582	7.9050e-01	-8.3863	-47.765743	0.000334	3.335795	0.565099	0.013342
1583	7.9100e-01	-8.3652	-47.695185	0.000353	3.528245	0.597701	0.014112
1584	7.9150e-01	-8.3442	-47.616074	0.000396	3.955911	0.670149	0.015822
1585	7.9200e-01	-8.3253	-47.546371	0.000349	3.485478	0.590456	0.013941
1586	7.9250e-01	-8.3033	-47.482655	0.000319	3.186112	0.539742	0.012743
1587	7.9300e-01	-8.2844	-47.419367	0.000316	3.164729	0.536120	0.012658
1588	7.9350e-01	-8.2636	-47.344960	0.000372	3.720695	0.630303	0.014881
1589	7.9400e-01	-8.2465	-47.265422	0.000398	3.977294	0.673772	0.015908
1590	7.9450e-01	-8.2246	-47.191015	0.000372	3.720695	0.630303	0.014881
1591	7.9500e-01	-8.2032	-47.134141	0.000284	2.843979	0.481783	0.011375
1592	7.9550e-01	-8.1837	-47.063155	0.000355	3.549628	0.601323	0.014197
1593	7.9600e-01	-8.1641	-46.987038	0.000381	3.806228	0.644792	0.015223
1594	7.9650e-01	-8.1449	-46.918190	0.000344	3.442712	0.583211	0.013770
1595	7.9700e-01	-8.1251	-46.857467	0.000304	3.036429	0.514385	0.012145
1596	7.9750e-01	-8.1037	-46.789475	0.000340	3.399945	0.575966	0.013598
1597	7.9800e-01	-8.0848	-46.718489	0.000355	3.549628	0.601323	0.014197
1598	7.9850e-01	-8.0648	-46.637668	0.000404	4.041444	0.684639	0.016164
1599	7.9900e-01	-8.0457	-46.570103	0.000338	3.378562	0.572344	0.013513
1600	7.9950e-01	-8.0262	-46.510235	0.000299	2.993662	0.507140	0.011974
1601	8.0000e-01	-8.0054	-46.426848	0.000417	4.169744	0.706374	0.016677
1602	8.0050e-01	-7.9829	-46.361422	0.000327	3.271645	0.554232	0.013085
1603	8.0100e-01	-7.9667	-46.290436	0.000355	3.549628	0.601323	0.014197
1604	8.0150e-01	-7.9469	-46.208332	0.000411	4.105594	0.695506	0.016421
1605	8.0200e-01	-7.9200	-46.143761	0.000323	3.228879	0.546987	0.012914
1606	8.0250e-01	-7.9047	-46.066360	0.000387	3.870378	0.655660	0.015480
1607	8.0300e-01	-7.8834	-45.988105	0.000391	3.913144	0.662905	0.015651
1608	8.0350e-01	-7.8645	-45.914126	0.000370	3.699311	0.626680	0.014796
1609	8.0400e-01	-7.8407	-45.854686	0.000297	2.972279	0.503518	0.011888
1610	8.0450e-01	-7.8236	-45.773009	0.000408	4.084211	0.691884	0.016335
1611	8.0500e-01	-7.8040	-45.702879	0.000351	3.506862	0.594078	0.014026
1612	8.0550e-01	-7.7839	-45.643439	0.000297	2.972279	0.503518	0.011888
1613	8.0600e-01	-7.7625	-45.557914	0.000428	4.276661	0.724486	0.017105
1614	8.0650e-01	-7.7464	-45.474955	0.000415	4.148361	0.702751	0.016592
1615	8.0700e-01	-7.7241	-45.406962	0.000340	3.399945	0.575966	0.013598
1616	8.0750e-01	-7.7052	-45.342391	0.000323	3.228879	0.546987	0.012914
1617	8.0800e-01	-7.6838	-45.266701	0.000378	3.784845	0.641170	0.015138
1618	8.0850e-01	-7.6667	-45.185025	0.000408	4.084211	0.691884	0.016335
1619	8.0900e-01	-7.6456	-45.115749	0.000346	3.464095	0.586834	0.013855
1620	8.0950e-01	-7.6221	-45.044336	0.000357	3.571012	0.604946	0.014283
1621	8.1000e-01	-7.6044	-44.971212	0.000366	3.656545	0.619435	0.014625
1622	8.1050e-01	-7.5831	-44.889963	0.000406	4.062828	0.688262	0.016250
1623	8.1100e-01	-7.5605	-44.827530	0.000312	3.121962	0.528875	0.012487
1624	8.1150e-01	-7.5446	-44.758255	0.000346	3.464095	0.586834	0.013855
1625	8.1200e-01	-7.5263	-44.671019	0.000436	4.362194	0.738976	0.017447
1626	8.1250e-01	-7.5007	-44.593619	0.000387	3.870378	0.655660	0.015480
1627	8.1300e-01	-7.4848	-44.530330	0.000316	3.164729	0.536120	0.012658
1628	8.1350e-01	-7.4635	-44.459772	0.000353	3.528245	0.597701	0.014112
1629	8.1400e-01	-7.4445	-44.382372	0.000387	3.870378	0.655660	0.015480
1630	8.1450e-01	-7.4265	-44.310959	0.000357	3.571012	0.604946	0.014283
1631	8.1500e-01	-7.4049	-44.216026	0.000475	4.747093	0.804179	0.018987
1632	8.1550e-01	-7.3859	-44.155303	0.000304	3.036429	0.514385	0.012145
1633	8.1600e-01	-7.3661	-44.062081	0.000466	4.661560	0.789690	0.018644
1634	8.1650e-01	-7.3463	-43.996226	0.000329	3.293029	0.557854	0.013171
1635	8.1700e-01	-7.3243	-43.931227	0.000325	3.250262	0.550609	0.013000
1636	8.1750e-01	-7.3054	-43.860669	0.000353	3.528245	0.597701	0.014112
1637	8.1800e-01	-7.2858	-43.777710	0.000415	4.148361	0.702751	0.016592
1638	8.1850e-01	-7.2645	-43.680211	0.000488	4.875393	0.825914	0.019500
1639	8.1900e-01	-7.2410	-43.627613	0.000263	2.630146	0.445559	0.010520
1640	8.1950e-01	-7.2279	-43.533963	0.000468	4.682943	0.793312	0.018730
1641	8.2000e-01	-7.2059	-43.476662	0.000287	2.865363	0.485406	0.011460
1642	8.2050e-01	-7.1864	-43.396268	0.000402	4.020061	0.681017	0.016079
1643	8.2100e-01	-7.1650	-43.310315	0.000430	4.298044	0.728108	0.017191
1644	8.2150e-01	-7.1461	-43.256007	0.000272	2.715679	0.460049	0.010862
1645	8.2200e-01	-7.1272	-43.171337	0.000423	4.233894	0.717241	0.016934
1646	8.2250e-01	-7.1043	-43.095648	0.000378	3.784845	0.641170	0.015138
1647	8.2300e-01	-7.0850	-43.005419	0.000451	4.511877	0.764333	0.018046
1648	8.2350e-01	-7.0643	-42.941275	0.000321	3.207495	0.543364	0.012829
1649	8.2400e-01	-7.0435	-42.859598	0.000408	4.084211	0.691884	0.016335
1650	8.2450e-01	-7.0246	-42.771935	0.000438	4.383577	0.742598	0.017533
1651	8.2500e-01	-7.0039	-42.707364	0.000323	3.228879	0.546987	0.012914
1652	8.2550e-01	-6.9849	-42.626543	0.000404	4.041444	0.684639	0.016164
1653	8.2600e-01	-6.9672	-42.549998	0.000383	3.827611	0.648415	0.015309
1654	8.2650e-01	-6.9422	-42.476019	0.000370	3.699311	0.626680	0.014796
1655	8.2700e-01	-6.9245	-42.390066	0.000430	4.298044	0.728108	0.017191
1656	8.2750e-01	-6.9038	-42.309245	0.000404	4.041444	0.684639	0.016164
1657	8.2800e-01	-6.8851	-42.234410	0.000374	3.742078	0.633925	0.014967
1658	8.2850e-01	-6.8647	-42.150596	0.000419	4.191127	0.709996	0.016763
1659	8.2900e-01	-6.8464	-42.073196	0.000387	3.870378	0.655660	0.015480
1660	8.2950e-01	-6.8262	-41.995368	0.000389	3.891761	0.659282	0.015566
1661	8.3000e-01	-6.8061	-41.927803	0.000338	3.378562	0.572344	0.013513
1662	8.3050e-01	-6.7847	-41.832015	0.000479	4.789860	0.811424	0.019158
1663	8.3100e-01	-6.7641	-41.764450	0.000338	3.378562	0.572344	0.013513
1664	8.3150e-01	-6.7451	-41.681491	0.000415	4.148361	0.702751	0.016592
1665	8.3200e-01	-6.7262	-41.601097	0.000402	4.020061	0.681017	0.016079
1666	8.3250e-01	-6.7030	-41.524980	0.000381	3.806228	0.644792	0.015223
1667	8.3300e-01	-6.6859	-41.443731	0.000406	4.062828	0.688262	0.016250
1668	8.3350e-01	-6.6651	-41.362482	0.000406	4.062828	0.688262	0.016250
1669	8.3400e-01	-6.6470	-41.294918	0.000338	3.378562	0.572344	0.013513
1670	8.3450e-01	-6.6251	-41.199557	0.000477	4.768477	0.807802	0.019072
1671	8.3500e-01	-6.6041	-41.124295	0.000376	3.763461	0.637548	0.015052
1672	8.3550e-01	-6.5845	-41.047322	0.000385	3.848995	0.652037	0.015395
1673	8.3600e-01	-6.5650	-40.963936	0.000417	4.169744	0.706374	0.016677
1674	8.3650e-01	-6.5415	-40.888674	0.000376	3.763461	0.637548	0.015052
1675	8.3700e-01	-6.5223	-40.803576	0.000426	4.255277	0.720863	0.017019
1676	8.3750e-01	-6.5034	-40.726604	0.000385	3.848995	0.652037	0.015395
1677	8.3800e-01	-6.4845	-40.631243	0.000477	4.768477	0.807802	0.019072
1678	8.3850e-01	-6.4646	-40.561540	0.000349	3.485478	0.590456	0.013941
1679	8.3900e-01	-6.4442	-40.472166	0.000447	4.469110	0.757088	0.017875
1680	8.3950e-01	-6.4246	-40.399043	0.000366	3.656545	0.619435	0.014625
1681	8.4000e-01	-6.4054	-40.316939	0.000411	4.105594	0.695506	0.016421
1682	8.4050e-01	-6.3850	-40.242532	0.000372	3.720695	0.630303	0.014881
1683	8.4100e-01	-6.3636	-40.147599	0.000475	4.747093	0.804179	0.018987
1684	8.4150e-01	-6.3456	-40.057798	0.000449	4.490494	0.760710	0.017960
1685	8.4200e-01	-6.3259	-39.990660	0.000336	3.357179	0.568721	0.013427
1686	8.4250e-01	-6.3023	-39.904280	0.000432	4.319427	0.731731	0.017276
1687	8.4300e-01	-6.2864	-39.823031	0.000406	4.062828	0.688262	0.016250
1688	8.4350e-01	-6.2647	-39.746486	0.000383	3.827611	0.648415	0.015309
1689	8.4400e-01	-6.2424	-39.665238	0.000406	4.062828	0.688262	0.016250
1690	8.4450e-01	-6.2247	-39.587410	0.000389	3.891761	0.659282	0.015566
1691	8.4500e-01	-6.2025	-39.492049	0.000477	4.768477	0.807802	0.019072
1692	8.4550e-01	-6.1860	-39.410373	0.000408	4.084211	0.691884	0.016335
1693	8.4600e-01	-6.1655	-39.332973	0.000387	3.870378	0.655660	0.015480
1694	8.4650e-01	-6.1451	-39.236329	0.000483	4.832626	0.818669	0.019329
1695	8.4700e-01	-6.1246	-39.158074	0.000391	3.913144	0.662905	0.015651
1696	8.4750e-01	-6.1042	-39.075542	0.000413	4.126977	0.699129	0.016506
1697	8.4800e-01	-6.0859	-38.989590	0.000430	4.298044	0.728108	0.017191
1698	8.4850e-01	-6.0639	-38.912189	0.000387	3.870378	0.655660	0.015480
1699	8.4900e-01	-6.0445	-38.810842	0.000507	5.067843	0.858516	0.020269
1700	8.4950e-01	-6.0249	-38.747554	0.000316	3.164729	0.536120	0.012658
1701	8.5000e-01	-6.0056	-38.668015	0.000398	3.977294	0.673772	0.015908
1702	8.5050e-01	-5.9840	-38.583773	0.000421	4.212511	0.713619	0.016848
1703	8.5100e-01	-5.9644	-38.494400	0.000447	4.469110	0.757088	0.017875
1704	8.5150e-01	-5.9415	-38.409730	0.000423	4.233894	0.717241	0.016934
1705	8.5200e-01	-5.9248	-38.331902	0.000389	3.891761	0.659282	0.015566
1706	8.5250e-01	-5.9064	-38.224568	0.000537	5.367209	0.909230	0.021467
1707	8.5300e-01	-5.8839	-38.152299	0.000361	3.613778	0.612191	0.014454
1708	8.5350e-01	-5.8640	-38.064209	0.000440	4.404960	0.746220	0.017618
1709	8.5400e-01	-5.8439	-37.994506	0.000349	3.485478	0.590456	0.013941
1710	8.5450e-01	-5.8229	-37.903421	0.000455	4.554644	0.771578	0.018217
1711	8.5500e-01	-5.8041	-37.814475	0.000445	4.447727	0.753465	0.017789
1712	8.5550e-01	-5.7807	-37.732799	0.000408	4.084211	0.691884	0.016335
1713	8.5600e-01	-5.7627	-37.644281	0.000443	4.426344	0.749843	0.017704
1714	8.5650e-01	-5.7450	-37.571157	0.000366	3.656545	0.619435	0.014625
1715	8.5700e-01	-5.7258	-37.488197	0.000415	4.148361	0.702751	0.016592
1716	8.5750e-01	-5.7032	-37.383002	0.000526	5.260293	0.891118	0.021039
1717	8.5800e-01	-5.6832	-37.299187	0.000419	4.191127	0.709996	0.016763
1718	8.5850e-01	-5.6635	-37.213662	0.000428	4.276661	0.724486	0.017105
1719	8.5900e-01	-5.6452	-37.138827	0.000374	3.742078	0.633925	0.014967
1720	8.5950e-01	-5.6229	-37.044750	0.000470	4.704327	0.796935	0.018816
1721	8.6000e-01	-5.6025	-36.958370	0.000432	4.319427	0.731731	0.017276
1722	8.6050e-01	-5.5833	-36.880114	0.000391	3.913144	0.662905	0.015651
1723	8.6100e-01	-5.5656	-36.781760	0.000492	4.918160	0.833159	0.019671
1724	8.6150e-01	-5.5436	-36.697946	0.000419	4.191127	0.709996	0.016763
1725	8.6200e-01	-5.5250	-36.618408	0.000398	3.977294	0.673772	0.015908
1726	8.6250e-01	-5.5073	-36.524758	0.000468	4.682943	0.793312	0.018730
1727	8.6300e-01	-5.4835	-36.430680	0.000470	4.704327	0.796935	0.018816
1728	8.6350e-01	-5.4652	-36.351997	0.000393	3.934528	0.666527	0.015737
1729	8.6400e-01	-5.4432	-36.263051	0.000445	4.447727	0.753465	0.017789
1730	8.6450e-01	-5.4206	-36.177953	0.000426	4.255277	0.720863	0.017019
1731	8.6500e-01	-5.4031	-36.090718	0.000436	4.362194	0.738976	0.017447
1732	8.6550e-01	-5.3828	-36.003482	0.000436	4.362194	0.738976	0.017447
1733	8.6600e-01	-5.3654	-35.905556	0.000490	4.896776	0.829536	0.019585
1734	8.6650e-01	-5.3431	-35.816610	0.000445	4.447727	0.753465	0.017789
1735	8.6700e-01	-5.3230	-35.743059	0.000368	3.677928	0.623058	0.014710
1736	8.6750e-01	-5.3037	-35.641284	0.000509	5.089226	0.862138	0.020355
1737	8.6800e-01	-5.2833	-35.561745	0.000398	3.977294	0.673772	0.015908
1738	8.6850e-01	-5.2631	-35.469806	0.000460	4.597410	0.778822	0.018388
1739	8.6900e-01	-5.2436	-35.382998	0.000434	4.340811	0.735353	0.017362
1740	8.6950e-01	-5.2238	-35.294052	0.000445	4.447727	0.753465	0.017789
1741	8.7000e-01	-5.2052	-35.198692	0.000477	4.768477	0.807802	0.019072
1742	8.7050e-01	-5.1856	-35.105042	0.000468	4.682943	0.793312	0.018730
1743	8.7100e-01	-5.1640	-35.027214	0.000389	3.891761	0.659282	0.015566
1744	8.7150e-01	-5.1447	-34.939551	0.000438	4.383577	0.742598	0.017533
1745	8.7200e-01	-5.1240	-34.846756	0.000464	4.640177	0.786067	0.018559
1746	8.7250e-01	-5.1029	-34.753106	0.000468	4.682943	0.793312	0.018730
1747	8.7300e-01	-5.0831	-34.671857	0.000406	4.062828	0.688262	0.016250
1748	8.7350e-01	-5.0617	-34.582056	0.000449	4.490494	0.760710	0.017960
1749	8.7400e-01	-5.0440	-34.463604	0.000592	5.923175	1.003413	0.023690
1750	8.7450e-01	-5.0269	-34.401598	0.000310	3.100579	0.525252	0.012401
1751	8.7500e-01	-5.0056	-34.310514	0.000455	4.554644	0.771578	0.018217
1752	8.7550e-01	-4.9842	-34.219430	0.000455	4.554644	0.771578	0.018217
1753	8.7600e-01	-4.9665	-34.124925	0.000473	4.725710	0.800557	0.018901
1754	8.7650e-01	-4.9458	-34.038117	0.000434	4.340811	0.735353	0.017362
1755	8.7700e-01	-4.9259	-33.944039	0.000470	4.704327	0.796935	0.018816
1756	8.7750e-01	-4.9055	-33.842692	0.000507	5.067843	0.858516	0.020269
1757	8.7800e-01	-4.8829	-33.762298	0.000402	4.020061	0.681017	0.016079
1758	8.7850e-01	-4.8646	-33.669504	0.000464	4.640177	0.786067	0.018559
1759	8.7900e-01	-4.8438	-33.581413	0.000440	4.404960	0.746220	0.017618
1760	8.7950e-01	-4.8277	-33.471941	0.000547	5.474126	0.927342	0.021894
1761	8.8000e-01	-4.8063	-33.399244	0.000364	3.635162	0.615813	0.014539
1762	8.8050e-01	-4.7837	-33.302174	0.000485	4.854010	0.822292	0.019414
1763	8.8100e-01	-4.7639	-33.208524	0.000468	4.682943	0.793312	0.018730
1764	8.8150e-01	-4.7449	-33.122143	0.000432	4.319427	0.731731	0.017276
1765	8.8200e-01	-4.7224	-33.020796	0.000507	5.067843	0.858516	0.020269
1766	8.8250e-01	-4.7038	-32.924153	0.000483	4.832626	0.818669	0.019329
1767	8.8300e-01	-4.6857	-32.842904	0.000406	4.062828	0.688262	0.016250
1768	8.8350e-01	-4.6644	-32.747971	0.000475	4.747093	0.804179	0.018987
1769	8.8400e-01	-4.6433	-32.659880	0.000440	4.404960	0.746220	0.017618
1770	8.8450e-01	-4.6238	-32.565375	0.000473	4.725710	0.800557	0.018901
1771	8.8500e-01	-4.6054	-32.466594	0.000494	4.939543	0.836781	0.019756
1772	8.8550e-01	-4.5838	-32.379358	0.000436	4.362194	0.738976	0.017447
1773	8.8600e-01	-4.5655	-32.274590	0.000524	5.238909	0.887495	0.020954
1774	8.8650e-01	-4.5455	-32.184789	0.000449	4.490494	0.760710	0.017960
1775	8.8700e-01	-4.5228	-32.105250	0.000398	3.977294	0.673772	0.015908
1776	8.8750e-01	-4.5023	-31.990647	0.000573	5.730725	0.970811	0.022921
1777	8.8800e-01	-4.4837	-31.913247	0.000387	3.870378	0.655660	0.015480
1778	8.8850e-01	-4.4624	-31.809334	0.000520	5.196143	0.880250	0.020783
1779	8.8900e-01	-4.4460	-31.731078	0.000391	3.913144	0.662905	0.015651
1780	8.8950e-01	-4.4242	-31.618185	0.000565	5.645192	0.956321	0.022579
1781	8.9000e-01	-4.4044	-31.522397	0.000479	4.789860	0.811424	0.019158
1782	8.9050e-01	-4.3842	-31.436017	0.000432	4.319427	0.731731	0.017276
1783	8.9100e-01	-4.3638	-31.337663	0.000492	4.918160	0.833159	0.019671
1784	8.9150e-01	-4.3418	-31.255131	0.000413	4.126977	0.699129	0.016506
1785	8.9200e-01	-4.3229	-31.144376	0.000554	5.538275	0.938209	0.022151
1786	8.9250e-01	-4.3024	-31.050726	0.000468	4.682943	0.793312	0.018730
1787	8.9300e-01	-4.2829	-30.960925	0.000449	4.490494	0.760710	0.017960
1788	8.9350e-01	-4.2646	-30.876255	0.000423	4.233894	0.717241	0.016934
1789	8.9400e-01	-4.2408	-30.762507	0.000569	5.687959	0.963566	0.022750
1790	8.9450e-01	-4.2231	-30.669712	0.000464	4.640177	0.786067	0.018559
1791	8.9500e-01	-4.2031	-30.574780	0.000475	4.747093	0.804179	0.018987
1792	8.9550e-01	-4.1828	-30.493958	0.000404	4.041444	0.684639	0.016164
1793	8.9600e-01	-4.1642	-30.378072	0.000579	5.794875	0.981678	0.023177
1794	8.9650e-01	-4.1450	-30.286132	0.000460	4.597410	0.778822	0.018388
1795	8.9700e-01	-4.1248	-30.191627	0.000473	4.725710	0.800557	0.018901
1796	8.9750e-01	-4.1018	-30.097977	0.000468	4.682943	0.793312	0.018730
1797	8.9800e-01	-4.0827	-29.996630	0.000507	5.067843	0.858516	0.020269
1798	8.9850e-01	-4.0626	-29.892717	0.000520	5.196143	0.880250	0.020783
1799	8.9900e-01	-4.0437	-29.799923	0.000464	4.640177	0.786067	0.018559
1800	8.9950e-01	-4.0234	-29.715680	0.000421	4.212511	0.713619	0.016848
1801	9.0000e-01	-4.0046	-29.616471	0.000496	4.960926	0.840404	0.019842
1802	9.0050e-01	-3.9835	-29.521111	0.000477	4.768477	0.807802	0.019072
1803	9.0100e-01	-3.9640	-29.407363	0.000569	5.687959	0.963566	0.022750
1804	9.0150e-01	-3.9420	-29.311574	0.000479	4.789860	0.811424	0.019158
1805	9.0200e-01	-3.9225	-29.218780	0.000464	4.640177	0.786067	0.018559
1806	9.0250e-01	-3.9017	-29.128978	0.000449	4.490494	0.760710	0.017960
1807	9.0300e-01	-3.8828	-29.022072	0.000535	5.345826	0.905607	0.021381
1808	9.0350e-01	-3.8609	-28.921580	0.000503	5.025076	0.851271	0.020098
1809	9.0400e-01	-3.8428	-28.822371	0.000496	4.960926	0.840404	0.019842
1810	9.0450e-01	-3.8233	-28.718886	0.000517	5.174759	0.876628	0.020697
1811	9.0500e-01	-3.8051	-28.632506	0.000432	4.319427	0.731731	0.017276
1812	9.0550e-01	-3.7800	-28.520468	0.000560	5.602425	0.949077	0.022408
1813	9.0600e-01	-3.7643	-28.432377	0.000440	4.404960	0.746220	0.017618
1814	9.0650e-01	-3.7440	-28.340010	0.000462	4.618793	0.782445	0.018473
1815	9.0700e-01	-3.7244	-28.238235	0.000509	5.089226	0.862138	0.020355
1816	9.0750e-01	-3.7019	-28.136888	0.000507	5.067843	0.858516	0.020269
1817	9.0800e-01	-3.6863	-28.021001	0.000579	5.794875	0.981678	0.023177
1818	9.0850e-01	-3.6637	-27.927779	0.000466	4.661560	0.789690	0.018644
1819	9.0900e-01	-3.6428	-27.829425	0.000492	4.918160	0.833159	0.019671
1820	9.0950e-01	-3.6239	-27.735348	0.000470	4.704327	0.796935	0.018816
1821	9.1000e-01	-3.6045	-27.619461	0.000579	5.794875	0.981678	0.023177
1822	9.1050e-01	-3.5863	-27.528805	0.000453	4.533260	0.767955	0.018131
1823	9.1100e-01	-3.5645	-27.425319	0.000517	5.174759	0.876628	0.020697
1824	9.1150e-01	-3.5423	-27.336801	0.000443	4.426344	0.749843	0.017704
1825	9.1200e-01	-3.5242	-27.233316	0.000517	5.174759	0.876628	0.020697
1826	9.1250e-01	-3.5059	-27.121705	0.000558	5.581042	0.945454	0.022322
1827	9.1300e-01	-3.4810	-27.023352	0.000492	4.918160	0.833159	0.019671
1828	9.1350e-01	-3.4632	-26.932267	0.000455	4.554644	0.771578	0.018217
1829	9.1400e-01	-3.4434	-26.832203	0.000500	5.003693	0.847649	0.020013
1830	9.1450e-01	-3.4214	-26.721021	0.000556	5.559659	0.941832	0.022237
1831	9.1500e-01	-3.4037	-26.628226	0.000464	4.640177	0.786067	0.018559
1832	9.1550e-01	-3.3839	-26.516616	0.000558	5.581042	0.945454	0.022322
1833	9.1600e-01	-3.3620	-26.417834	0.000494	4.939543	0.836781	0.019756
1834	9.1650e-01	-3.3436	-26.316487	0.000507	5.067843	0.858516	0.020269
1835	9.1700e-01	-3.3247	-26.216850	0.000498	4.982310	0.844026	0.019927
1836	9.1750e-01	-3.3051	-26.112937	0.000520	5.196143	0.880250	0.020783
1837	9.1800e-01	-3.2841	-26.010735	0.000511	5.110609	0.865761	0.020440
1838	9.1850e-01	-3.2639	-25.906822	0.000520	5.196143	0.880250	0.020783
1839	9.1900e-01	-3.2423	-25.801626	0.000526	5.260293	0.891118	0.021039
1840	9.1950e-01	-3.2197	-25.700707	0.000505	5.046460	0.854893	0.020184
1841	9.2000e-01	-3.2026	-25.609622	0.000455	4.554644	0.771578	0.018217
1842	9.2050e-01	-3.1831	-25.495874	0.000569	5.687959	0.963566	0.022750
1843	9.2100e-01	-3.1623	-25.386402	0.000547	5.474126	0.927342	0.021894
1844	9.2150e-01	-3.1425	-25.279068	0.000537	5.367209	0.909230	0.021467
1845	9.2200e-01	-3.1214	-25.183708	0.000477	4.768477	0.807802	0.019072
1846	9.2250e-01	-3.1001	-25.069959	0.000569	5.687959	0.963566	0.022750
1847	9.2300e-01	-3.0833	-24.970750	0.000496	4.960926	0.840404	0.019842
1848	9.2350e-01	-3.0643	-24.868120	0.000513	5.131993	0.869383	0.020526
1849	9.2400e-01	-3.0421	-24.761214	0.000535	5.345826	0.905607	0.021381
1850	9.2450e-01	-3.0235	-24.655163	0.000530	5.303059	0.898363	0.021210
1851	9.2500e-01	-3.0048	-24.546546	0.000543	5.431359	0.920097	0.021723
1852	9.2550e-01	-2.9841	-24.444344	0.000511	5.110609	0.865761	0.020440
1853	9.2600e-01	-2.9630	-24.343852	0.000503	5.025076	0.851271	0.020098
1854	9.2650e-01	-2.9462	-24.231814	0.000560	5.602425	0.949077	0.022408
1855	9.2700e-01	-2.9237	-24.126190	0.000528	5.281676	0.894740	0.021125
1856	9.2750e-01	-2.9044	-24.038100	0.000440	4.404960	0.746220	0.017618
1857	9.2800e-01	-2.8828	-23.920075	0.000590	5.901792	0.999791	0.023605
1858	9.2850e-01	-2.8646	-23.816590	0.000517	5.174759	0.876628	0.020697
1859	9.2900e-01	-2.8437	-23.713532	0.000515	5.153376	0.873006	0.020612
1860	9.2950e-01	-2.8236	-23.598073	0.000577	5.773492	0.978056	0.023092
1861	9.3000e-01	-2.8030	-23.509127	0.000445	4.447727	0.753465	0.017789
1862	9.3050e-01	-2.7847	-23.382978	0.000631	6.308074	1.068617	0.025230
1863	9.3100e-01	-2.7651	-23.285051	0.000490	4.896776	0.829536	0.019585
1864	9.3150e-01	-2.7422	-23.179428	0.000528	5.281676	0.894740	0.021125
1865	9.3200e-01	-2.7222	-23.063114	0.000582	5.816258	0.985301	0.023263
1866	9.3250e-01	-2.7046	-22.979299	0.000419	4.191127	0.709996	0.016763
1867	9.3300e-01	-2.6868	-22.854433	0.000624	6.243924	1.057749	0.024973
1868	9.3350e-01	-2.6631	-22.754368	0.000500	5.003693	0.847649	0.020013
1869	9.3400e-01	-2.6445	-22.645752	0.000543	5.431359	0.920097	0.021723
1870	9.3450e-01	-2.6249	-22.532003	0.000569	5.687959	0.963566	0.022750
1871	9.3500e-01	-2.6023	-22.420393	0.000558	5.581042	0.945454	0.022322
1872	9.3550e-01	-2.5846	-22.314342	0.000530	5.303059	0.898363	0.021210
1873	9.3600e-01	-2.5634	-22.226251	0.000440	4.404960	0.746220	0.017618
1874	9.3650e-01	-2.5435	-22.101385	0.000624	6.243924	1.057749	0.024973
1875	9.3700e-01	-2.5230	-21.989774	0.000558	5.581042	0.945454	0.022322
1876	9.3750e-01	-2.5031	-21.900828	0.000445	4.447727	0.753465	0.017789
1877	9.3800e-01	-2.4850	-21.763133	0.000689	6.885424	1.166422	0.027539
1878	9.3850e-01	-2.4636	-21.672904	0.000451	4.511877	0.764333	0.018046
1879	9.3900e-01	-2.4451	-21.556162	0.000584	5.837642	0.988923	0.023348
1880	9.3950e-01	-2.4224	-21.468499	0.000438	4.383577	0.742598	0.017533
1881	9.4000e-01	-2.4052	-21.348337	0.000601	6.008708	1.017903	0.024033
1882	9.4050e-01	-2.3850	-21.227319	0.000605	6.051475	1.025148	0.024204
1883	9.4100e-01	-2.3652	-21.139655	0.000438	4.383577	0.742598	0.017533
1884	9.4150e-01	-2.3430	-21.012651	0.000635	6.350841	1.075862	0.025401
1885	9.4200e-01	-2.3232	-20.909593	0.000515	5.153376	0.873006	0.020612
1886	9.4250e-01	-2.3051	-20.797555	0.000560	5.602425	0.949077	0.022408
1887	9.4300e-01	-2.2850	-20.698774	0.000494	4.939543	0.836781	0.019756
1888	9.4350e-01	-2.2673	-20.574335	0.000622	6.222541	1.054127	0.024888
1889	9.4400e-01	-2.2431	-20.466146	0.000541	5.409976	0.916475	0.021638
1890	9.4450e-01	-2.2236	-20.351114	0.000575	5.752109	0.974434	0.023006
1891	9.4500e-01	-2.2031	-20.247202	0.000520	5.196143	0.880250	0.020783
1892	9.4550e-01	-2.1836	-20.127894	0.000597	5.965942	1.010658	0.023861
1893	9.4600e-01	-2.1665	-20.024409	0.000517	5.174759	0.876628	0.020697
1894	9.4650e-01	-2.1424	-19.912371	0.000560	5.602425	0.949077	0.022408
1895	9.4700e-01	-2.1253	-19.805465	0.000535	5.345826	0.905607	0.021381
1896	9.4750e-01	-2.1052	-19.695993	0.000547	5.474126	0.927342	0.021894
1897	9.4800e-01	-2.0838	-19.565567	0.000652	6.521907	1.104841	0.026085
1898	9.4850e-01	-2.0628	-19.479614	0.000430	4.298044	0.728108	0.017191
1899	9.4900e-01	-2.0451	-19.347478	0.000661	6.607441	1.119331	0.026427
1900	9.4950e-01	-2.0231	-19.248269	0.000496	4.960926	0.840404	0.019842
1901	9.5000e-01	-2.0039	-19.125540	0.000614	6.137008	1.039637	0.024546
1902	9.5050e-01	-1.9846	-19.007943	0.000588	5.880408	0.996168	0.023519
1903	9.5100e-01	-1.9645	-18.912155	0.000479	4.789860	0.811424	0.019158
1904	9.5150e-01	-1.9422	-18.803111	0.000545	5.452742	0.923720	0.021809
1905	9.5200e-01	-1.9212	-18.679955	0.000616	6.158391	1.043260	0.024631
1906	9.5250e-01	-1.9044	-18.555944	0.000620	6.201158	1.050505	0.024802
1907	9.5300e-01	-1.8835	-18.451603	0.000522	5.217526	0.883873	0.020868
1908	9.5350e-01	-1.8639	-18.339993	0.000558	5.581042	0.945454	0.022322
1909	9.5400e-01	-1.8433	-18.233514	0.000532	5.324442	0.901985	0.021296
1910	9.5450e-01	-1.8237	-18.124042	0.000547	5.474126	0.927342	0.021894
1911	9.5500e-01	-1.8025	-17.994472	0.000648	6.479141	1.097596	0.025914
1912	9.5550e-01	-1.7835	-17.888848	0.000528	5.281676	0.894740	0.021125
1913	9.5600e-01	-1.7645	-17.774245	0.000573	5.730725	0.970811	0.022921
1914	9.5650e-01	-1.7439	-17.665628	0.000543	5.431359	0.920097	0.021723
1915	9.5700e-01	-1.7216	-17.551879	0.000569	5.687959	0.963566	0.022750
1916	9.5750e-01	-1.7014	-17.433427	0.000592	5.923175	1.003413	0.023690
1917	9.5800e-01	-1.6807	-17.326521	0.000535	5.345826	0.905607	0.021381
1918	9.5850e-01	-1.6605	-17.214055	0.000562	5.623809	0.952699	0.022493
1919	9.5900e-01	-1.6405	-17.098169	0.000579	5.794875	0.981678	0.023177
1920	9.5950e-01	-1.6245	-16.985276	0.000565	5.645192	0.956321	0.022579
1921	9.6000e-01	-1.6024	-16.868534	0.000584	5.837642	0.988923	0.023348
1922	9.6050e-01	-1.5830	-16.759062	0.000547	5.474126	0.927342	0.021894
1923	9.6100e-01	-1.5627	-16.632485	0.000633	6.329458	1.072239	0.025315
1924	9.6150e-01	-1.5437	-16.521730	0.000554	5.538275	0.938209	0.022151
1925	9.6200e-01	-1.5214	-16.400285	0.000607	6.072858	1.028770	0.024289
1926	9.6250e-01	-1.5040	-16.286964	0.000567	5.666575	0.959944	0.022664
1927	9.6300e-01	-1.4808	-16.180058	0.000535	5.345826	0.905607	0.021381
1928	9.6350e-01	-1.4594	-16.062888	0.000586	5.859025	0.992546	0.023434
1929	9.6400e-01	-1.4421	-15.943581	0.000597	5.965942	1.010658	0.023861
1930	9.6450e-01	-1.4243	-15.822135	0.000607	6.072858	1.028770	0.024289
1931	9.6500e-01	-1.4012	-15.712663	0.000547	5.474126	0.927342	0.021894
1932	9.6550e-01	-1.3842	-15.586086	0.000633	6.329458	1.072239	0.025315
1933	9.6600e-01	-1.3633	-15.479607	0.000532	5.324442	0.901985	0.021296
1934	9.6650e-01	-1.3392	-15.353885	0.000629	6.286691	1.064994	0.025144
1935	9.6700e-01	-1.3258	-15.246124	0.000539	5.388592	0.912852	0.021552
1936	9.6750e-01	-1.3046	-15.117836	0.000641	6.414991	1.086729	0.025658
1937	9.6800e-01	-1.2812	-15.004516	0.000567	5.666575	0.959944	0.022664
1938	9.6850e-01	-1.2629	-14.881360	0.000616	6.158391	1.043260	0.024631
1939	9.6900e-01	-1.2452	-14.771887	0.000547	5.474126	0.927342	0.021894
1940	9.6950e-01	-1.2263	-14.670113	0.000509	5.089226	0.862138	0.020355
1941	9.7000e-01	-1.2057	-14.538404	0.000659	6.586057	1.115708	0.026342
1942	9.7050e-01	-1.1833	-14.420807	0.000588	5.880408	0.996168	0.023519
1943	9.7100e-01	-1.1628	-14.309197	0.000558	5.581042	0.945454	0.022322
1944	9.7150e-01	-1.1402	-14.199297	0.000550	5.495509	0.930964	0.021980
1945	9.7200e-01	-1.1209	-14.079562	0.000599	5.987325	1.014280	0.023947
1946	9.7250e-01	-1.1008	-13.953413	0.000631	6.308074	1.068617	0.025230
1947	9.7300e-01	-1.0841	-13.837526	0.000579	5.794875	0.981678	0.023177
1948	9.7350e-01	-1.0648	-13.715225	0.000612	6.115625	1.036015	0.024460
1949	9.7400e-01	-1.0426	-13.596346	0.000594	5.944558	1.007035	0.023776
1950	9.7450e-01	-1.0224	-13.490295	0.000530	5.303059	0.898363	0.021210
1951	9.7500e-01	-1.0032	-13.362435	0.000639	6.393608	1.083106	0.025572
1952	9.7550e-01	-0.9811	-13.248686	0.000569	5.687959	0.963566	0.022750
1953	9.7600e-01	-0.9634	-13.136648	0.000560	5.602425	0.949077	0.022408
1954	9.7650e-01	-0.9388	-13.007933	0.000644	6.436374	1.090351	0.025743
1955	9.7700e-01	-0.9216	-12.889481	0.000592	5.923175	1.003413	0.023690
1956	9.7750e-01	-0.9035	-12.777016	0.000562	5.623809	0.952699	0.022493
1957	9.7800e-01	-0.8840	-12.663267	0.000569	5.687959	0.963566	0.022750
1958	9.7850e-01	-0.8640	-12.526427	0.000684	6.842657	1.159177	0.027368
1959	9.7900e-01	-0.8440	-12.422942	0.000517	5.174759	0.876628	0.020697
1960	9.7950e-01	-0.8216	-12.287812	0.000676	6.757124	1.144688	0.027026
1961	9.8000e-01	-0.8036	-12.168505	0.000597	5.965942	1.010658	0.023861
1962	9.8050e-01	-0.7813	-12.055612	0.000565	5.645192	0.956321	0.022579
1963	9.8100e-01	-0.7627	-11.941436	0.000571	5.709342	0.967189	0.022835
1964	9.8150e-01	-0.7450	-11.820845	0.000603	6.030091	1.021525	0.024118
1965	9.8200e-01	-0.7202	-11.704104	0.000584	5.837642	0.988923	0.023348
1966	9.8250e-01	-0.7000	-11.557001	0.000736	7.355856	1.246116	0.029421
1967	9.8300e-01	-0.6816	-11.445818	0.000556	5.559659	0.941832	0.022237
1968	9.8350e-01	-0.6612	-11.330787	0.000575	5.752109	0.974434	0.023006
1969	9.8400e-01	-0.6420	-11.213618	0.000586	5.859025	0.992546	0.023434
1970	9.8450e-01	-0.6233	-11.086185	0.000637	6.372224	1.079484	0.025486
1971	9.8500e-01	-0.5999	-10.992963	0.000466	4.661560	0.789690	0.018644
1972	9.8550e-01	-0.5844	-10.859544	0.000667	6.671591	1.130198	0.026684
1973	9.8600e-01	-0.5623	-10.735533	0.000620	6.201158	1.050505	0.024802
1974	9.8650e-01	-0.5448	-10.618363	0.000586	5.859025	0.992546	0.023434
1975	9.8700e-01	-0.5255	-10.493924	0.000622	6.222541	1.054127	0.024888
1976	9.8750e-01	-0.5022	-10.384880	0.000545	5.452742	0.923720	0.021809
1977	9.8800e-01	-0.4826	-10.248040	0.000684	6.842657	1.159177	0.027368
1978	9.8850e-01	-0.4624	-10.133864	0.000571	5.709342	0.967189	0.022835
1979	9.8900e-01	-0.4435	-10.009425	0.000622	6.222541	1.054127	0.024888
1980	9.8950e-01	-0.4240	-9.888407	0.000605	6.051475	1.025148	0.024204
1981	9.9000e-01	-0.4026	-9.772093	0.000582	5.816258	0.985301	0.023263
1982	9.9050e-01	-0.3858	-9.645516	0.000633	6.329458	1.072239	0.025315
1983	9.9100e-01	-0.3647	-9.524925	0.000603	6.030091	1.021525	0.024118
1984	9.9150e-01	-0.3424	-9.418874	0.000530	5.303059	0.898363	0.021210
1985	9.9200e-01	-0.3230	-9.284600	0.000671	6.714357	1.137443	0.026855
1986	9.9250e-01	-0.3028	-9.165720	0.000594	5.944558	1.007035	0.023776
1987	9.9300e-01	-0.2837	-9.038288	0.000637	6.372224	1.079484	0.025486
1988	9.9350e-01	-0.2630	-8.913849	0.000622	6.222541	1.054127	0.024888
1989	9.9400e-01	-0.2413	-8.805232	0.000543	5.431359	0.920097	0.021723
1990	9.9450e-01	-0.2233	-8.680793	0.000622	6.222541	1.054127	0.024888
1991	9.9500e-01	-0.2048	-8.556354	0.000622	6.222541	1.054127	0.024888
1992	9.9550e-01	-0.1817	-8.437047	0.000597	5.965942	1.010658	0.023861
1993	9.9600e-01	-0.1640	-8.309614	0.000637	6.372224	1.079484	0.025486
1994	9.9650e-01	-0.1429	-8.190307	0.000597	5.965942	1.010658	0.023861
1995	9.9700e-01	-0.1228	-8.062875	0.000637	6.372224	1.079484	0.025486
1996	9.9750e-01	-0.1020	-7.961527	0.000507	5.067843	0.858516	0.020269
1997	9.9800e-01	-0.0828	-7.832385	0.000646	6.457758	1.093974	0.025829
1998	9.9850e-01	-0.0626	-7.701959	0.000652	6.521907	1.104841	0.026085
1999	9.9900e-01	-0.0434	-7.580941	0.000605	6.051475	1.025148	0.024204
2000	9.9950e-01	-0.0235	-7.469331	0.000558	5.581042	0.945454	0.022322
2001	1.0000e+00	-0.0011	-7.329925	0.000558	5.581042	0.945454	0.027881

Smooth data before PMax, +/-Pr and +/-Vc Calc.

PMax (uC/cm2):	5.20e+01
Pr (uC/cm2):	3.75e+00
-Pr (uC/cm2):	-7.73e+00
PLoss (uC/cm2):	-7.76e+00
-Vc:	-5.74e-01
C (Max-Eff) (nF):	5.20e-01
K (Eff):	8.81e+02
Vert. (+/-Pr) Shift (uC/cm2):	-1.99e+00
Offset (uC/cm2):	-3.55e-01

A (Loop Area - uC/cm2·Volts):	3.82e-02



Hysteresis Version: 5.48.1 - Radiant Technologies, Inc., 1999 - 9/12/24

