»»»»»»»»»»»»»»»»»»»»»»»»»»»»»»»»»»»» Hysteresis ««««««««««««««««««««««««««««««««««««
»»»  Executed Version:	5.48.1
»»»  Vision Version:	5.48.4 (R)
»»»  Vision Compiled:	9/18/24
»»»  Driver Version:	5.47.0
»»»  Windows Version:	Windows 8 or 8.1
»»»  Processor Information:	x86 (AMD or Intel) - 32 Processors
»»»  Tester Name:	PMF21124-494 (100V)
»»»  Tester S/N:	PMF21124-494
»»»  Internal Amp Type:	100V RevK 270k
»»»  Internal Amp S/N:	iAB2-596/K     
»»»  Execution Count:	1
»»»»»»»»»»»»»»»»»»»»»»»»»»»»»»»»»»»»»»»»»»««««««««««««««««««««««««««««««««««««««««««

Stored:	7/10/2025 - 18:18:0
Configured:	07/10/25 01:31:25 PM
Executed:	07/10/25 06:16:30 PM

»»»»»»»»»»»»»»»»»»»»»»»»»»»»»»»»»»» Sample Info ««««««««««««««««««««««««««««««««««««
Sample Name:	
Lot Name:	
Wafer Name:	
Die Row/Column:	0/0
Capacitor Number:	0
Sample Area (cm2):	1.00e-04
Sample Thickness (microns):	1.50e-01

Amplifier:	Internal

»»»»»»»»»»»»»»»»»»»»»»»»»»»»»»»»»»» Tester Info «««««««««««««««««««««««««««««««««««
Tester Name:	PMF21124-494 (100V)
Tester Serial Number:	PMF21124-494
Return Signal Amp. Level:	1.79 [Index: 2]

»»»»»»»»»»»»»»»»»»»»»»»»»»»»»»»» Hysteresis Info ««««««««««««««««««««««««««««««««««
Task Name:	Hyst-3361
Volts:	10.00
Field:	666.67 (kV/cm)
DCBias:	0.00
DCField:	0.00 (kV/cm)
Hysteresis Period (ms):	1.00e+00
Preset:	Enabled
Preset Delay (ms):	1.00e+03
Profile:	Standard Bipolar

»»»»»»»»»»»»»»»»»»»»»»»»»»»»»»»»»»»»»» Data «««««««««««««««««««««««««««««««««««««««
Points:	2001

Valid Data

Point	Time (ms)	Drive Voltage	Measured Polarization (uC/cm2)	Capacitance (uF)	Normalized Capacitance (uF/cm2)	Dielectric Constant	Instantaneous Current (mA)
   1	0.0000e+00	-0.0029	-6.359857	0.000398	3.977772	0.673853	0.015908
   2	5.0000e-04	0.0159	-6.280319	0.000398	3.977772	0.673853	0.015908
   3	1.0000e-03	0.0337	-6.178544	0.000509	5.089838	0.862242	0.020355
   4	1.5000e-03	0.0565	-6.090881	0.000438	4.384104	0.742687	0.017533
   5	2.0000e-03	0.0755	-5.994237	0.000483	4.833207	0.818767	0.019329
   6	2.5000e-03	0.0951	-5.904008	0.000451	4.512419	0.764425	0.018046
   7	3.0000e-03	0.1160	-5.811641	0.000462	4.619349	0.782539	0.018473
   8	3.5000e-03	0.1346	-5.709439	0.000511	5.111224	0.865865	0.020440
   9	4.0000e-03	0.1551	-5.619638	0.000449	4.491033	0.760802	0.017960
  10	4.5000e-03	0.1731	-5.522567	0.000485	4.854593	0.822390	0.019414
  11	5.0000e-03	0.1929	-5.432765	0.000449	4.491033	0.760802	0.017960
  12	5.5000e-03	0.2151	-5.349378	0.000417	4.170245	0.706459	0.016677
  13	6.0000e-03	0.2366	-5.239906	0.000547	5.474783	0.927453	0.021894
  14	6.5000e-03	0.2543	-5.148822	0.000456	4.555191	0.771670	0.018217
  15	7.0000e-03	0.2774	-5.055600	0.000466	4.662120	0.789785	0.018644
  16	7.5000e-03	0.2953	-4.952114	0.000518	5.175381	0.876733	0.020697
  17	8.0000e-03	0.3158	-4.867872	0.000421	4.213017	0.713704	0.016848
  18	8.5000e-03	0.3357	-4.770374	0.000488	4.875979	0.826013	0.019500
  19	9.0000e-03	0.3548	-4.677579	0.000464	4.640734	0.786162	0.018559
  20	9.5000e-03	0.3756	-4.566824	0.000554	5.538941	0.938322	0.022151
  21	1.0000e-02	0.3959	-4.479589	0.000436	4.362718	0.739064	0.017447
  22	1.0500e-02	0.4150	-4.381662	0.000490	4.897365	0.829636	0.019585
  23	1.1000e-02	0.4369	-4.288868	0.000464	4.640734	0.786162	0.018559
  24	1.1500e-02	0.4550	-4.178968	0.000550	5.496169	0.931076	0.021980
  25	1.2000e-02	0.4753	-4.094298	0.000423	4.234403	0.717327	0.016934
  26	1.2500e-02	0.4983	-3.992523	0.000509	5.089838	0.862242	0.020355
  27	1.3000e-02	0.5136	-3.895025	0.000488	4.875979	0.826013	0.019500
  28	1.3500e-02	0.5350	-3.812066	0.000415	4.148859	0.702836	0.016592
  29	1.4000e-02	0.5540	-3.694896	0.000586	5.859729	0.992665	0.023434
  30	1.4500e-02	0.5768	-3.603812	0.000456	4.555191	0.771670	0.018217
  31	1.5000e-02	0.5953	-3.505886	0.000490	4.897365	0.829636	0.019585
  32	1.5500e-02	0.6178	-3.409243	0.000483	4.833207	0.818767	0.019329
  33	1.6000e-02	0.6382	-3.319869	0.000447	4.469647	0.757179	0.017875
  34	1.6500e-02	0.6535	-3.206976	0.000565	5.645870	0.956436	0.022579
  35	1.7000e-02	0.6773	-3.123161	0.000419	4.191631	0.710082	0.016763
  36	1.7500e-02	0.6952	-3.009840	0.000567	5.667256	0.960059	0.022664
  37	1.8000e-02	0.7143	-2.922605	0.000436	4.362718	0.739064	0.017447
  38	1.8500e-02	0.7334	-2.809284	0.000567	5.667256	0.960059	0.022664
  39	1.9000e-02	0.7558	-2.710503	0.000494	4.940137	0.836882	0.019756
  40	1.9500e-02	0.7747	-2.624978	0.000428	4.277175	0.724573	0.017105
  41	2.0000e-02	0.7966	-2.515933	0.000545	5.453398	0.923831	0.021809
  42	2.0500e-02	0.8171	-2.425704	0.000451	4.512419	0.764425	0.018046
  43	2.1000e-02	0.8339	-2.311101	0.000573	5.731414	0.970928	0.022921
  44	2.1500e-02	0.8562	-2.218734	0.000462	4.619349	0.782539	0.018473
  45	2.2000e-02	0.8768	-2.121663	0.000485	4.854593	0.822390	0.019414
  46	2.2500e-02	0.8939	-2.013474	0.000541	5.410626	0.916585	0.021638
  47	2.3000e-02	0.9132	-1.918541	0.000475	4.747664	0.804276	0.018987
  48	2.3500e-02	0.9351	-1.820615	0.000490	4.897365	0.829636	0.019585
  49	2.4000e-02	0.9574	-1.714136	0.000533	5.325082	0.902093	0.021296
  50	2.4500e-02	0.9763	-1.613216	0.000505	5.047066	0.854996	0.020184
  51	2.5000e-02	0.9975	-1.516573	0.000483	4.833207	0.818767	0.019329
  52	2.5500e-02	1.0152	-1.413088	0.000518	5.175381	0.876733	0.020697
  53	2.6000e-02	1.0355	-1.305754	0.000537	5.367854	0.909339	0.021467
  54	2.6500e-02	1.0567	-1.210393	0.000477	4.769050	0.807899	0.019072
  55	2.7000e-02	1.0733	-1.099211	0.000556	5.560327	0.941945	0.022237
  56	2.7500e-02	1.0960	-0.995298	0.000520	5.196767	0.880356	0.020783
  57	2.8000e-02	1.1169	-0.897799	0.000488	4.875979	0.826013	0.019500
  58	2.8500e-02	1.1366	-0.803294	0.000473	4.726278	0.800653	0.018901
  59	2.9000e-02	1.1539	-0.696388	0.000535	5.346468	0.905716	0.021381
  60	2.9500e-02	1.1763	-0.579646	0.000584	5.838343	0.989042	0.023348
  61	3.0000e-02	1.1977	-0.492411	0.000436	4.362718	0.739064	0.017447
  62	3.0500e-02	1.2160	-0.390636	0.000509	5.089838	0.862242	0.020355
  63	3.1000e-02	1.2366	-0.272611	0.000590	5.902501	0.999911	0.023605
  64	3.1500e-02	1.2573	-0.182810	0.000449	4.491033	0.760802	0.017960
  65	3.2000e-02	1.2756	-0.074193	0.000543	5.432012	0.920208	0.021723
  66	3.2500e-02	1.2935	0.027154	0.000507	5.068452	0.858619	0.020269
  67	3.3000e-02	1.3138	0.129784	0.000513	5.132610	0.869488	0.020526
  68	3.3500e-02	1.3348	0.236263	0.000533	5.325082	0.902093	0.021296
  69	3.4000e-02	1.3557	0.340176	0.000520	5.196767	0.880356	0.020783
  70	3.4500e-02	1.3751	0.447510	0.000537	5.367854	0.909339	0.021467
  71	3.5000e-02	1.3980	0.558692	0.000556	5.560327	0.941945	0.022237
  72	3.5500e-02	1.4133	0.655763	0.000485	4.854593	0.822390	0.019414
  73	3.6000e-02	1.4360	0.757538	0.000509	5.089838	0.862242	0.020355
  74	3.6500e-02	1.4540	0.861023	0.000518	5.175381	0.876733	0.020697
  75	3.7000e-02	1.4763	0.976910	0.000580	5.795572	0.981796	0.023177
  76	3.7500e-02	1.4941	1.072270	0.000477	4.769050	0.807899	0.019072
  77	3.8000e-02	1.5161	1.183453	0.000556	5.560327	0.941945	0.022237
  78	3.8500e-02	1.5338	1.274110	0.000453	4.533805	0.768047	0.018131
  79	3.9000e-02	1.5554	1.399404	0.000627	6.266061	1.061499	0.025059
  80	3.9500e-02	1.5759	1.495619	0.000481	4.811821	0.815145	0.019243
  81	4.0000e-02	1.5958	1.611933	0.000582	5.816957	0.985419	0.023263
  82	4.0500e-02	1.6153	1.710715	0.000494	4.940137	0.836882	0.019756
  83	4.1000e-02	1.6358	1.826601	0.000580	5.795572	0.981796	0.023177
  84	4.1500e-02	1.6521	1.923245	0.000483	4.833207	0.818767	0.019329
  85	4.2000e-02	1.6760	2.026302	0.000515	5.153995	0.873110	0.020612
  86	4.2500e-02	1.6954	2.141761	0.000577	5.774186	0.978174	0.023092
  87	4.3000e-02	1.7153	2.238405	0.000483	4.833207	0.818767	0.019329
  88	4.3500e-02	1.7356	2.341462	0.000515	5.153995	0.873110	0.020612
  89	4.4000e-02	1.7557	2.458632	0.000586	5.859729	0.992665	0.023434
  90	4.4500e-02	1.7770	2.556558	0.000490	4.897365	0.829636	0.019585
  91	4.5000e-02	1.7944	2.672872	0.000582	5.816957	0.985419	0.023263
  92	4.5500e-02	1.8143	2.778068	0.000526	5.260925	0.891225	0.021039
  93	4.6000e-02	1.8349	2.885829	0.000539	5.389240	0.912962	0.021552
  94	4.6500e-02	1.8539	2.991453	0.000528	5.282311	0.894848	0.021125
  95	4.7000e-02	1.8759	3.101780	0.000552	5.517555	0.934699	0.022065
  96	4.7500e-02	1.8964	3.212963	0.000556	5.560327	0.941945	0.022237
  97	4.8000e-02	1.9144	3.322007	0.000545	5.453398	0.923831	0.021809
  98	4.8500e-02	1.9368	3.417795	0.000479	4.790436	0.811522	0.019158
  99	4.9000e-02	1.9565	3.523846	0.000530	5.303697	0.898471	0.021210
 100	4.9500e-02	1.9776	3.642726	0.000595	5.945273	1.007156	0.023776
 101	5.0000e-02	1.9943	3.737659	0.000475	4.747664	0.804276	0.018987
 102	5.0500e-02	2.0148	3.864236	0.000633	6.330218	1.072368	0.025315
 103	5.1000e-02	2.0354	3.948906	0.000423	4.234403	0.717327	0.016934
 104	5.1500e-02	2.0567	4.080187	0.000657	6.565463	1.112220	0.026256
 105	5.2000e-02	2.0746	4.181106	0.000505	5.047066	0.854996	0.020184
 106	5.2500e-02	2.0944	4.291433	0.000552	5.517555	0.934699	0.022065
 107	5.3000e-02	2.1143	4.400906	0.000547	5.474783	0.927453	0.021894
 108	5.3500e-02	2.1352	4.500542	0.000498	4.982908	0.844128	0.019927
 109	5.4000e-02	2.1547	4.605738	0.000526	5.260925	0.891225	0.021039
 110	5.4500e-02	2.1735	4.725045	0.000597	5.966659	1.010779	0.023861
 111	5.5000e-02	2.1922	4.840077	0.000575	5.752800	0.974551	0.023006
 112	5.5500e-02	2.2174	4.942279	0.000511	5.111224	0.865865	0.020440
 113	5.6000e-02	2.2382	5.045337	0.000515	5.153995	0.873110	0.020612
 114	5.6500e-02	2.2553	5.151388	0.000530	5.303697	0.898471	0.021210
 115	5.7000e-02	2.2763	5.271123	0.000599	5.988044	1.014402	0.023947
 116	5.7500e-02	2.2952	5.369477	0.000492	4.918751	0.833259	0.019671
 117	5.8000e-02	2.3163	5.478521	0.000545	5.453398	0.923831	0.021809
 118	5.8500e-02	2.3379	5.593980	0.000577	5.774186	0.978174	0.023092
 119	5.9000e-02	2.3548	5.697465	0.000518	5.175381	0.876733	0.020697
 120	5.9500e-02	2.3746	5.808648	0.000556	5.560327	0.941945	0.022237
 121	6.0000e-02	2.3976	5.902298	0.000468	4.683506	0.793407	0.018730
 122	6.0500e-02	2.4158	6.019895	0.000588	5.881115	0.996288	0.023519
 123	6.1000e-02	2.4356	6.129794	0.000550	5.496169	0.931076	0.021980
 124	6.1500e-02	2.4574	6.229004	0.000496	4.961523	0.840505	0.019842
 125	6.2000e-02	2.4757	6.347883	0.000595	5.945273	1.007156	0.023776
 126	6.2500e-02	2.4966	6.456928	0.000545	5.453398	0.923831	0.021809
 127	6.3000e-02	2.5159	6.565117	0.000541	5.410626	0.916585	0.021638
 128	6.3500e-02	2.5360	6.678010	0.000565	5.645870	0.956436	0.022579
 129	6.4000e-02	2.5571	6.787482	0.000547	5.474783	0.927453	0.021894
 130	6.4500e-02	2.5751	6.896527	0.000545	5.453398	0.923831	0.021809
 131	6.5000e-02	2.5946	7.005999	0.000547	5.474783	0.927453	0.021894
 132	6.5500e-02	2.6154	7.095372	0.000447	4.469647	0.757179	0.017875
 133	6.6000e-02	2.6361	7.207410	0.000560	5.603099	0.949191	0.022408
 134	6.6500e-02	2.6557	7.320731	0.000567	5.667256	0.960059	0.022664
 135	6.7000e-02	2.6721	7.430203	0.000547	5.474783	0.927453	0.021894
 136	6.7500e-02	2.6965	7.541813	0.000558	5.581713	0.945568	0.022322
 137	6.8000e-02	2.7159	7.642733	0.000505	5.047066	0.854996	0.020184
 138	6.8500e-02	2.7365	7.747501	0.000524	5.239539	0.887602	0.020954
 139	6.9000e-02	2.7563	7.854407	0.000535	5.346468	0.905716	0.021381
 140	6.9500e-02	2.7774	7.969011	0.000573	5.731414	0.970928	0.022921
 141	7.0000e-02	2.7942	8.077628	0.000543	5.432012	0.920208	0.021723
 142	7.0500e-02	2.8162	8.190948	0.000567	5.667256	0.960059	0.022664
 143	7.1000e-02	2.8366	8.301276	0.000552	5.517555	0.934699	0.022065
 144	7.1500e-02	2.8541	8.412458	0.000556	5.560327	0.941945	0.022237
 145	7.2000e-02	2.8769	8.512523	0.000500	5.004294	0.847750	0.020013
 146	7.2500e-02	2.8943	8.619001	0.000533	5.325082	0.902093	0.021296
 147	7.3000e-02	2.9156	8.736171	0.000586	5.859729	0.992665	0.023434
 148	7.3500e-02	2.9355	8.832386	0.000481	4.811821	0.815145	0.019243
 149	7.4000e-02	2.9555	8.933733	0.000507	5.068452	0.858619	0.020269
 150	7.4500e-02	2.9742	9.047054	0.000567	5.667256	0.960059	0.022664
 151	7.5000e-02	2.9958	9.157381	0.000552	5.517555	0.934699	0.022065
 152	7.5500e-02	3.0173	9.262150	0.000524	5.239539	0.887602	0.020954
 153	7.6000e-02	3.0364	9.376326	0.000571	5.710028	0.967305	0.022835
 154	7.6500e-02	3.0557	9.486225	0.000550	5.496169	0.931076	0.021980
 155	7.7000e-02	3.0775	9.573888	0.000438	4.384104	0.742687	0.017533
 156	7.7500e-02	3.0949	9.681222	0.000537	5.367854	0.909339	0.021467
 157	7.8000e-02	3.1168	9.791550	0.000552	5.517555	0.934699	0.022065
 158	7.8500e-02	3.1372	9.892897	0.000507	5.068452	0.858619	0.020269
 159	7.9000e-02	3.1555	10.014770	0.000609	6.094974	1.032517	0.024375
 160	7.9500e-02	3.1775	10.107565	0.000464	4.640734	0.786162	0.018559
 161	8.0000e-02	3.1940	10.218747	0.000556	5.560327	0.941945	0.022237
 162	8.0500e-02	3.2169	10.319667	0.000505	5.047066	0.854996	0.020184
 163	8.1000e-02	3.2367	10.437264	0.000588	5.881115	0.996288	0.023519
 164	8.1500e-02	3.2556	10.542032	0.000524	5.239539	0.887602	0.020954
 165	8.2000e-02	3.2764	10.637393	0.000477	4.769050	0.807899	0.019072
 166	8.2500e-02	3.2938	10.756272	0.000595	5.945273	1.007156	0.023776
 167	8.3000e-02	3.3160	10.864462	0.000541	5.410626	0.916585	0.021638
 168	8.3500e-02	3.3340	10.964098	0.000498	4.982908	0.844128	0.019927
 169	8.4000e-02	3.3539	11.067584	0.000518	5.175381	0.876733	0.020697
 170	8.4500e-02	3.3754	11.171496	0.000520	5.196767	0.880356	0.020783
 171	8.5000e-02	3.3981	11.275837	0.000522	5.218153	0.883979	0.020868
 172	8.5500e-02	3.4172	11.377612	0.000509	5.089838	0.862242	0.020355
 173	8.6000e-02	3.4344	11.483235	0.000528	5.282311	0.894848	0.021125
 174	8.6500e-02	3.4552	11.586293	0.000515	5.153995	0.873110	0.020612
 175	8.7000e-02	3.4787	11.693199	0.000535	5.346468	0.905716	0.021381
 176	8.7500e-02	3.4999	11.794974	0.000509	5.089838	0.862242	0.020355
 177	8.8000e-02	3.5147	11.913426	0.000592	5.923887	1.003534	0.023690
 178	8.8500e-02	3.5370	12.000234	0.000434	4.341332	0.735442	0.017362
 179	8.9000e-02	3.5556	12.119969	0.000599	5.988044	1.014402	0.023947
 180	8.9500e-02	3.5749	12.223882	0.000520	5.196767	0.880356	0.020783
 181	9.0000e-02	3.5939	12.318815	0.000475	4.747664	0.804276	0.018987
 182	9.0500e-02	3.6179	12.419307	0.000503	5.025680	0.851373	0.020098
 183	9.1000e-02	3.6362	12.529634	0.000552	5.517555	0.934699	0.022065
 184	9.1500e-02	3.6578	12.629271	0.000498	4.982908	0.844128	0.019927
 185	9.2000e-02	3.6765	12.734467	0.000526	5.260925	0.891225	0.021039
 186	9.2500e-02	3.6972	12.843939	0.000547	5.474783	0.927453	0.021894
 187	9.3000e-02	3.7159	12.939299	0.000477	4.769050	0.807899	0.019072
 188	9.3500e-02	3.7360	13.044923	0.000528	5.282311	0.894848	0.021125
 189	9.4000e-02	3.7570	13.141994	0.000485	4.854593	0.822390	0.019414
 190	9.4500e-02	3.7769	13.247617	0.000528	5.282311	0.894848	0.021125
 191	9.5000e-02	3.7967	13.359227	0.000558	5.581713	0.945568	0.022322
 192	9.5500e-02	3.8162	13.460147	0.000505	5.047066	0.854996	0.020184
 193	9.6000e-02	3.8385	13.541396	0.000406	4.063316	0.688344	0.016250
 194	9.6500e-02	3.8550	13.662414	0.000605	6.052202	1.025271	0.024204
 195	9.7000e-02	3.8733	13.763761	0.000507	5.068452	0.858619	0.020269
 196	9.7500e-02	3.8959	13.863398	0.000498	4.982908	0.844128	0.019927
 197	9.8000e-02	3.9145	13.957903	0.000473	4.726278	0.800653	0.018901
 198	9.8500e-02	3.9346	14.075072	0.000586	5.859729	0.992665	0.023434
 199	9.9000e-02	3.9557	14.171288	0.000481	4.811821	0.815145	0.019243
 200	9.9500e-02	3.9775	14.263227	0.000460	4.597963	0.778916	0.018388
 201	1.0000e-01	3.9970	14.362864	0.000498	4.982908	0.844128	0.019927
 202	1.0050e-01	4.0143	14.483027	0.000601	6.009430	1.018025	0.024033
 203	1.0100e-01	4.0375	14.570690	0.000438	4.384104	0.742687	0.017533
 204	1.0150e-01	4.0570	14.685721	0.000575	5.752800	0.974551	0.023006
 205	1.0200e-01	4.0741	14.775950	0.000451	4.512419	0.764425	0.018046
 206	1.0250e-01	4.0982	14.874731	0.000494	4.940137	0.836882	0.019756
 207	1.0300e-01	4.1141	14.974368	0.000498	4.982908	0.844128	0.019927
 208	1.0350e-01	4.1357	15.071867	0.000488	4.875979	0.826013	0.019500
 209	1.0400e-01	4.1565	15.175352	0.000518	5.175381	0.876733	0.020697
 210	1.0450e-01	4.1779	15.275416	0.000500	5.004294	0.847750	0.020013
 211	1.0500e-01	4.1940	15.389165	0.000569	5.688642	0.963682	0.022750
 212	1.0550e-01	4.2151	15.485380	0.000481	4.811821	0.815145	0.019243
 213	1.0600e-01	4.2358	15.573043	0.000438	4.384104	0.742687	0.017533
 214	1.0650e-01	4.2554	15.683798	0.000554	5.538941	0.938322	0.022151
 215	1.0700e-01	4.2786	15.771462	0.000438	4.384104	0.742687	0.017533
 216	1.0750e-01	4.2941	15.879223	0.000539	5.389240	0.912962	0.021552
 217	1.0800e-01	4.3188	15.978005	0.000494	4.940137	0.836882	0.019756
 218	1.0850e-01	4.3353	16.075503	0.000488	4.875979	0.826013	0.019500
 219	1.0900e-01	4.3539	16.174712	0.000496	4.961523	0.840505	0.019842
 220	1.0950e-01	4.3747	16.283757	0.000545	5.453398	0.923831	0.021809
 221	1.1000e-01	4.3938	16.379117	0.000477	4.769050	0.807899	0.019072
 222	1.1050e-01	4.4177	16.471484	0.000462	4.619349	0.782539	0.018473
 223	1.1100e-01	4.4362	16.562996	0.000458	4.576577	0.775293	0.018302
 224	1.1150e-01	4.4556	16.665626	0.000513	5.132610	0.869488	0.020526
 225	1.1200e-01	4.4775	16.768256	0.000513	5.132610	0.869488	0.020526
 226	1.1250e-01	4.4958	16.866182	0.000490	4.897365	0.829636	0.019585
 227	1.1300e-01	4.5135	16.972233	0.000530	5.303697	0.898471	0.021210
 228	1.1350e-01	4.5395	17.044930	0.000364	3.635598	0.615887	0.014539
 229	1.1400e-01	4.5557	17.158678	0.000569	5.688642	0.963682	0.022750
 230	1.1450e-01	4.5770	17.260453	0.000509	5.089838	0.862242	0.020355
 231	1.1500e-01	4.5953	17.355813	0.000477	4.769050	0.807899	0.019072
 232	1.1550e-01	4.6149	17.462292	0.000533	5.325082	0.902093	0.021296
 233	1.1600e-01	4.6344	17.546962	0.000423	4.234403	0.717327	0.016934
 234	1.1650e-01	4.6558	17.639756	0.000464	4.640734	0.786162	0.018559
 235	1.1700e-01	4.6750	17.735117	0.000477	4.769050	0.807899	0.019072
 236	1.1750e-01	4.6970	17.837747	0.000513	5.132610	0.869488	0.020526
 237	1.1800e-01	4.7175	17.935245	0.000488	4.875979	0.826013	0.019500
 238	1.1850e-01	4.7388	18.025474	0.000451	4.512419	0.764425	0.018046
 239	1.1900e-01	4.7572	18.121262	0.000479	4.790436	0.811522	0.019158
 240	1.1950e-01	4.7754	18.225175	0.000520	5.196767	0.880356	0.020783
 241	1.2000e-01	4.7968	18.310273	0.000426	4.255789	0.720950	0.017019
 242	1.2050e-01	4.8146	18.414186	0.000520	5.196767	0.880356	0.020783
 243	1.2100e-01	4.8349	18.499711	0.000428	4.277175	0.724573	0.017105
 244	1.2150e-01	4.8553	18.617308	0.000588	5.881115	0.996288	0.023519
 245	1.2200e-01	4.8767	18.709247	0.000460	4.597963	0.778916	0.018388
 246	1.2250e-01	4.8941	18.802897	0.000468	4.683506	0.793407	0.018730
 247	1.2300e-01	4.9158	18.891416	0.000443	4.426876	0.749933	0.017704
 248	1.2350e-01	4.9362	18.985493	0.000470	4.704892	0.797030	0.018816
 249	1.2400e-01	4.9548	19.079571	0.000470	4.704892	0.797030	0.018816
 250	1.2450e-01	4.9753	19.185194	0.000528	5.282311	0.894848	0.021125
 251	1.2500e-01	4.9954	19.266443	0.000406	4.063316	0.688344	0.016250
 252	1.2550e-01	5.0146	19.370784	0.000522	5.218153	0.883979	0.020868
 253	1.2600e-01	5.0366	19.461440	0.000453	4.533805	0.768047	0.018131
 254	1.2650e-01	5.0574	19.565353	0.000520	5.196767	0.880356	0.020783
 255	1.2700e-01	5.0755	19.641043	0.000379	3.785300	0.641247	0.015138
 256	1.2750e-01	5.0952	19.743245	0.000511	5.111224	0.865865	0.020440
 257	1.2800e-01	5.1166	19.845875	0.000513	5.132610	0.869488	0.020526
 258	1.2850e-01	5.1346	19.938242	0.000462	4.619349	0.782539	0.018473
 259	1.2900e-01	5.1544	20.025905	0.000438	4.384104	0.742687	0.017533
 260	1.2950e-01	5.1807	20.115279	0.000447	4.469647	0.757179	0.017875
 261	1.3000e-01	5.1959	20.217482	0.000511	5.111224	0.865865	0.020440
 262	1.3050e-01	5.2155	20.298303	0.000404	4.041930	0.684721	0.016164
 263	1.3100e-01	5.2368	20.399222	0.000505	5.047066	0.854996	0.020184
 264	1.3150e-01	5.2554	20.492445	0.000466	4.662120	0.789785	0.018644
 265	1.3200e-01	5.2766	20.586522	0.000470	4.704892	0.797030	0.018816
 266	1.3250e-01	5.2966	20.690863	0.000522	5.218153	0.883979	0.020868
 267	1.3300e-01	5.3149	20.779809	0.000445	4.448262	0.753556	0.017789
 268	1.3350e-01	5.3406	20.870465	0.000453	4.533805	0.768047	0.018131
 269	1.3400e-01	5.3552	20.962832	0.000462	4.619349	0.782539	0.018473
 270	1.3450e-01	5.3757	21.062041	0.000496	4.961523	0.840505	0.019842
 271	1.3500e-01	5.3958	21.150560	0.000443	4.426876	0.749933	0.017704
 272	1.3550e-01	5.4170	21.239934	0.000447	4.469647	0.757179	0.017875
 273	1.3600e-01	5.4365	21.337432	0.000488	4.875979	0.826013	0.019500
 274	1.3650e-01	5.4572	21.419536	0.000411	4.106088	0.695590	0.016421
 275	1.3700e-01	5.4767	21.523022	0.000518	5.175381	0.876733	0.020697
 276	1.3750e-01	5.4987	21.609402	0.000432	4.319946	0.731819	0.017276
 277	1.3800e-01	5.5164	21.707328	0.000490	4.897365	0.829636	0.019585
 278	1.3850e-01	5.5344	21.800550	0.000466	4.662120	0.789785	0.018644
 279	1.3900e-01	5.5566	21.890779	0.000451	4.512419	0.764425	0.018046
 280	1.3950e-01	5.5783	21.974166	0.000417	4.170245	0.706459	0.016677
 281	1.4000e-01	5.5984	22.076369	0.000511	5.111224	0.865865	0.020440
 282	1.4050e-01	5.6152	22.172584	0.000481	4.811821	0.815145	0.019243
 283	1.4100e-01	5.6381	22.258109	0.000428	4.277175	0.724573	0.017105
 284	1.4150e-01	5.6546	22.347911	0.000449	4.491033	0.760802	0.017960
 285	1.4200e-01	5.6763	22.439850	0.000460	4.597963	0.778916	0.018388
 286	1.4250e-01	5.6924	22.544191	0.000522	5.218153	0.883979	0.020868
 287	1.4300e-01	5.7153	22.619025	0.000374	3.742528	0.634001	0.014967
 288	1.4350e-01	5.7364	22.718662	0.000498	4.982908	0.844128	0.019927
 289	1.4400e-01	5.7565	22.793496	0.000374	3.742528	0.634001	0.014967
 290	1.4450e-01	5.7758	22.896126	0.000513	5.132610	0.869488	0.020526
 291	1.4500e-01	5.7977	22.990204	0.000470	4.704892	0.797030	0.018816
 292	1.4550e-01	5.8157	23.074446	0.000421	4.213017	0.713704	0.016848
 293	1.4600e-01	5.8356	23.165530	0.000456	4.555191	0.771670	0.018217
 294	1.4650e-01	5.8556	23.249345	0.000419	4.191631	0.710082	0.016763
 295	1.4700e-01	5.8771	23.349837	0.000503	5.025680	0.851373	0.020098
 296	1.4750e-01	5.8974	23.434079	0.000421	4.213017	0.713704	0.016848
 297	1.4800e-01	5.9174	23.521742	0.000438	4.384104	0.742687	0.017533
 298	1.4850e-01	5.9366	23.610260	0.000443	4.426876	0.749933	0.017704
 299	1.4900e-01	5.9564	23.710325	0.000500	5.004294	0.847750	0.020013
 300	1.4950e-01	5.9755	23.792001	0.000408	4.084702	0.691967	0.016335
 301	1.5000e-01	5.9967	23.886934	0.000475	4.747664	0.804276	0.018987
 302	1.5050e-01	6.0153	23.973314	0.000432	4.319946	0.731819	0.017276
 303	1.5100e-01	6.0366	24.064826	0.000458	4.576577	0.775293	0.018302
 304	1.5150e-01	6.0556	24.143082	0.000391	3.913615	0.662984	0.015651
 305	1.5200e-01	6.0754	24.256402	0.000567	5.667256	0.960059	0.022664
 306	1.5250e-01	6.0953	24.320974	0.000323	3.229267	0.547053	0.012914
 307	1.5300e-01	6.1169	24.428308	0.000537	5.367854	0.909339	0.021467
 308	1.5350e-01	6.1348	24.514688	0.000432	4.319946	0.731819	0.017276
 309	1.5400e-01	6.1548	24.603206	0.000443	4.426876	0.749933	0.017704
 310	1.5450e-01	6.1775	24.680179	0.000385	3.849457	0.652116	0.015395
 311	1.5500e-01	6.1966	24.775112	0.000475	4.747664	0.804276	0.018987
 312	1.5550e-01	6.2177	24.860209	0.000426	4.255789	0.720950	0.017019
 313	1.5600e-01	6.2372	24.956852	0.000483	4.833207	0.818767	0.019329
 314	1.5650e-01	6.2567	25.047937	0.000456	4.555191	0.771670	0.018217
 315	1.5700e-01	6.2762	25.151850	0.000520	5.196767	0.880356	0.020783
 316	1.5750e-01	6.2982	25.212572	0.000304	3.036794	0.514447	0.012145
 317	1.5800e-01	6.3156	25.304939	0.000462	4.619349	0.782539	0.018473
 318	1.5850e-01	6.3354	25.389609	0.000423	4.234403	0.717327	0.016934
 319	1.5900e-01	6.3556	25.478983	0.000447	4.469647	0.757179	0.017875
 320	1.5950e-01	6.3751	25.575626	0.000483	4.833207	0.818767	0.019329
 321	1.6000e-01	6.3934	25.663289	0.000438	4.384104	0.742687	0.017533
 322	1.6050e-01	6.4169	25.744538	0.000406	4.063316	0.688344	0.016250
 323	1.6100e-01	6.4362	25.820656	0.000381	3.806685	0.644870	0.015223
 324	1.6150e-01	6.4566	25.920292	0.000498	4.982908	0.844128	0.019927
 325	1.6200e-01	6.4765	25.999831	0.000398	3.977772	0.673853	0.015908
 326	1.6250e-01	6.4966	26.094763	0.000475	4.747664	0.804276	0.018987
 327	1.6300e-01	6.5150	26.178150	0.000417	4.170245	0.706459	0.016677
 328	1.6350e-01	6.5335	26.264103	0.000430	4.298560	0.728196	0.017191
 329	1.6400e-01	6.5558	26.355187	0.000456	4.555191	0.771670	0.018217
 330	1.6450e-01	6.5771	26.444988	0.000449	4.491033	0.760802	0.017960
 331	1.6500e-01	6.5964	26.531369	0.000432	4.319946	0.731819	0.017276
 332	1.6550e-01	6.6150	26.617749	0.000432	4.319946	0.731819	0.017276
 333	1.6600e-01	6.6339	26.702846	0.000426	4.255789	0.720950	0.017019
 334	1.6650e-01	6.6554	26.790510	0.000438	4.384104	0.742687	0.017533
 335	1.6700e-01	6.6754	26.882021	0.000458	4.576577	0.775293	0.018302
 336	1.6750e-01	6.6949	26.965408	0.000417	4.170245	0.706459	0.016677
 337	1.6800e-01	6.7188	27.054354	0.000445	4.448262	0.753556	0.017789
 338	1.6850e-01	6.7365	27.135603	0.000406	4.063316	0.688344	0.016250
 339	1.6900e-01	6.7580	27.212576	0.000385	3.849457	0.652116	0.015395
 340	1.6950e-01	6.7737	27.309647	0.000485	4.854593	0.822390	0.019414
 341	1.7000e-01	6.7972	27.399876	0.000451	4.512419	0.764425	0.018046
 342	1.7050e-01	6.8164	27.493526	0.000468	4.683506	0.793407	0.018730
 343	1.7100e-01	6.8369	27.568360	0.000374	3.742528	0.634001	0.014967
 344	1.7150e-01	6.8549	27.654740	0.000432	4.319946	0.731819	0.017276
 345	1.7200e-01	6.8768	27.735989	0.000406	4.063316	0.688344	0.016250
 346	1.7250e-01	6.8964	27.827929	0.000460	4.597963	0.778916	0.018388
 347	1.7300e-01	6.9141	27.919868	0.000460	4.597963	0.778916	0.018388
 348	1.7350e-01	6.9391	27.992992	0.000366	3.656984	0.619510	0.014625
 349	1.7400e-01	6.9574	28.078945	0.000430	4.298560	0.728196	0.017191
 350	1.7450e-01	6.9769	28.179009	0.000500	5.004294	0.847750	0.020013
 351	1.7500e-01	6.9952	28.242297	0.000317	3.165109	0.536184	0.012658
 352	1.7550e-01	7.0148	28.326540	0.000421	4.213017	0.713704	0.016848
 353	1.7600e-01	7.0355	28.422328	0.000479	4.790436	0.811522	0.019158
 354	1.7650e-01	7.0551	28.504859	0.000413	4.127473	0.699213	0.016506
 355	1.7700e-01	7.0758	28.590812	0.000430	4.298560	0.728196	0.017191
 356	1.7750e-01	7.0953	28.674199	0.000417	4.170245	0.706459	0.016677
 357	1.7800e-01	7.1186	28.757586	0.000417	4.170245	0.706459	0.016677
 358	1.7850e-01	7.1362	28.846960	0.000447	4.469647	0.757179	0.017875
 359	1.7900e-01	7.1552	28.944031	0.000485	4.854593	0.822390	0.019414
 360	1.7950e-01	7.1765	29.014161	0.000351	3.507283	0.594150	0.014026
 361	1.8000e-01	7.1988	29.096265	0.000411	4.106088	0.695590	0.016421
 362	1.8050e-01	7.2144	29.186066	0.000449	4.491033	0.760802	0.017960
 363	1.8100e-01	7.2363	29.268170	0.000411	4.106088	0.695590	0.016421
 364	1.8150e-01	7.2552	29.352413	0.000421	4.213017	0.713704	0.016848
 365	1.8200e-01	7.2736	29.429813	0.000387	3.870843	0.655739	0.015480
 366	1.8250e-01	7.2955	29.522608	0.000464	4.640734	0.786162	0.018559
 367	1.8300e-01	7.3145	29.598725	0.000381	3.806685	0.644870	0.015223
 368	1.8350e-01	7.3358	29.686816	0.000441	4.405490	0.746310	0.017618
 369	1.8400e-01	7.3566	29.774051	0.000436	4.362718	0.739064	0.017447
 370	1.8450e-01	7.3737	29.851024	0.000385	3.849457	0.652116	0.015395
 371	1.8500e-01	7.3938	29.935266	0.000421	4.213017	0.713704	0.016848
 372	1.8550e-01	7.4146	30.027205	0.000460	4.597963	0.778916	0.018388
 373	1.8600e-01	7.4353	30.114441	0.000436	4.362718	0.739064	0.017447
 374	1.8650e-01	7.4567	30.200821	0.000432	4.319946	0.731819	0.017276
 375	1.8700e-01	7.4768	30.266248	0.000327	3.272039	0.554298	0.013085
 376	1.8750e-01	7.4945	30.362891	0.000483	4.833207	0.818767	0.019329
 377	1.8800e-01	7.5183	30.432594	0.000349	3.485897	0.590527	0.013941
 378	1.8850e-01	7.5348	30.529237	0.000483	4.833207	0.818767	0.019329
 379	1.8900e-01	7.5555	30.609203	0.000400	3.999158	0.677476	0.015993
 380	1.8950e-01	7.5781	30.676768	0.000338	3.378968	0.572413	0.013513
 381	1.9000e-01	7.5970	30.772129	0.000477	4.769050	0.807899	0.019072
 382	1.9050e-01	7.6160	30.845252	0.000366	3.656984	0.619510	0.014625
 383	1.9100e-01	7.6379	30.923936	0.000394	3.935001	0.666607	0.015737
 384	1.9150e-01	7.6563	31.013737	0.000449	4.491033	0.760802	0.017960
 385	1.9200e-01	7.6752	31.095413	0.000408	4.084702	0.691967	0.016335
 386	1.9250e-01	7.6979	31.178373	0.000415	4.148859	0.702836	0.016592
 387	1.9300e-01	7.7142	31.253207	0.000374	3.742528	0.634001	0.014967
 388	1.9350e-01	7.7362	31.348567	0.000477	4.769050	0.807899	0.019072
 389	1.9400e-01	7.7557	31.426395	0.000389	3.892229	0.659361	0.015566
 390	1.9450e-01	7.7747	31.510637	0.000421	4.213017	0.713704	0.016848
 391	1.9500e-01	7.7966	31.595735	0.000426	4.255789	0.720950	0.017019
 392	1.9550e-01	7.8162	31.684253	0.000443	4.426876	0.749933	0.017704
 393	1.9600e-01	7.8369	31.756522	0.000361	3.614213	0.612264	0.014454
 394	1.9650e-01	7.8558	31.843330	0.000434	4.341332	0.735442	0.017362
 395	1.9700e-01	7.8766	31.919875	0.000383	3.828071	0.648493	0.015309
 396	1.9750e-01	7.8955	31.991716	0.000359	3.592827	0.608641	0.014368
 397	1.9800e-01	7.9163	32.084083	0.000462	4.619349	0.782539	0.018473
 398	1.9850e-01	7.9352	32.168753	0.000423	4.234403	0.717327	0.016934
 399	1.9900e-01	7.9541	32.242304	0.000368	3.678370	0.623133	0.014710
 400	1.9950e-01	7.9761	32.328257	0.000430	4.298560	0.728196	0.017191
 401	2.0000e-01	7.9962	32.406940	0.000394	3.935001	0.666607	0.015737
 402	2.0050e-01	8.0139	32.489472	0.000413	4.127473	0.699213	0.016506
 403	2.0100e-01	8.0347	32.575424	0.000430	4.298560	0.728196	0.017191
 404	2.0150e-01	8.0548	32.655818	0.000402	4.020544	0.681099	0.016079
 405	2.0200e-01	8.0768	32.736211	0.000402	4.020544	0.681099	0.016079
 406	2.0250e-01	8.0939	32.815322	0.000396	3.956387	0.670230	0.015822
 407	2.0300e-01	8.1165	32.896571	0.000406	4.063316	0.688344	0.016250
 408	2.0350e-01	8.1372	32.981241	0.000423	4.234403	0.717327	0.016934
 409	2.0400e-01	8.1567	33.056503	0.000376	3.763914	0.637624	0.015052
 410	2.0450e-01	8.1787	33.130482	0.000370	3.699756	0.626756	0.014796
 411	2.0500e-01	8.1989	33.211303	0.000404	4.041930	0.684721	0.016164
 412	2.0550e-01	8.2141	33.298539	0.000436	4.362718	0.739064	0.017447
 413	2.0600e-01	8.2355	33.380215	0.000408	4.084702	0.691967	0.016335
 414	2.0650e-01	8.2593	33.458471	0.000391	3.913615	0.662984	0.015651
 415	2.0700e-01	8.2764	33.543568	0.000426	4.255789	0.720950	0.017019
 416	2.0750e-01	8.2961	33.622251	0.000394	3.935001	0.666607	0.015737
 417	2.0800e-01	8.3179	33.696658	0.000372	3.721142	0.630379	0.014881
 418	2.0850e-01	8.3362	33.774058	0.000387	3.870843	0.655739	0.015480
 419	2.0900e-01	8.3563	33.855307	0.000406	4.063316	0.688344	0.016250
 420	2.0950e-01	8.3777	33.935273	0.000400	3.999158	0.677476	0.015993
 421	2.1000e-01	8.3945	34.021225	0.000430	4.298560	0.728196	0.017191
 422	2.1050e-01	8.4192	34.098626	0.000387	3.870843	0.655739	0.015480
 423	2.1100e-01	8.4381	34.180730	0.000411	4.106088	0.695590	0.016421
 424	2.1150e-01	8.4552	34.250005	0.000346	3.464511	0.586904	0.013855
 425	2.1200e-01	8.4784	34.332109	0.000411	4.106088	0.695590	0.016421
 426	2.1250e-01	8.4949	34.427897	0.000479	4.790436	0.811522	0.019158
 427	2.1300e-01	8.5165	34.509573	0.000408	4.084702	0.691967	0.016335
 428	2.1350e-01	8.5358	34.582270	0.000364	3.635598	0.615887	0.014539
 429	2.1400e-01	8.5565	34.654966	0.000364	3.635598	0.615887	0.014539
 430	2.1450e-01	8.5779	34.746050	0.000456	4.555191	0.771670	0.018217
 431	2.1500e-01	8.5974	34.812332	0.000331	3.314810	0.561544	0.013256
 432	2.1550e-01	8.6151	34.890588	0.000391	3.913615	0.662984	0.015651
 433	2.1600e-01	8.6371	34.996211	0.000528	5.282311	0.894848	0.021125
 434	2.1650e-01	8.6572	35.044105	0.000240	2.395218	0.405761	0.009579
 435	2.1700e-01	8.6743	35.136900	0.000464	4.640734	0.786162	0.018559
 436	2.1750e-01	8.6957	35.210879	0.000370	3.699756	0.626756	0.014796
 437	2.1800e-01	8.7177	35.292555	0.000408	4.084702	0.691967	0.016335
 438	2.1850e-01	8.7378	35.365679	0.000366	3.656984	0.619510	0.014625
 439	2.1900e-01	8.7567	35.456336	0.000453	4.533805	0.768047	0.018131
 440	2.1950e-01	8.7756	35.519624	0.000317	3.165109	0.536184	0.012658
 441	2.2000e-01	8.7976	35.610281	0.000453	4.533805	0.768047	0.018131
 442	2.2050e-01	8.8147	35.677846	0.000338	3.378968	0.572413	0.013513
 443	2.2100e-01	8.8388	35.757384	0.000398	3.977772	0.673853	0.015908
 444	2.2150e-01	8.8550	35.833501	0.000381	3.806685	0.644870	0.015223
 445	2.2200e-01	8.8776	35.916033	0.000413	4.127473	0.699213	0.016506
 446	2.2250e-01	8.8984	36.003269	0.000436	4.362718	0.739064	0.017447
 447	2.2300e-01	8.9172	36.074254	0.000355	3.550055	0.601396	0.014197
 448	2.2350e-01	8.9349	36.154648	0.000402	4.020544	0.681099	0.016079
 449	2.2400e-01	8.9565	36.232048	0.000387	3.870843	0.655739	0.015480
 450	2.2450e-01	8.9734	36.313297	0.000406	4.063316	0.688344	0.016250
 451	2.2500e-01	8.9972	36.390697	0.000387	3.870843	0.655739	0.015480
 452	2.2550e-01	9.0170	36.462966	0.000361	3.614213	0.612264	0.014454
 453	2.2600e-01	9.0363	36.545925	0.000415	4.148859	0.702836	0.016592
 454	2.2650e-01	9.0546	36.628029	0.000411	4.106088	0.695590	0.016421
 455	2.2700e-01	9.0765	36.697304	0.000346	3.464511	0.586904	0.013855
 456	2.2750e-01	9.0942	36.789671	0.000462	4.619349	0.782539	0.018473
 457	2.2800e-01	9.1174	36.866216	0.000383	3.828071	0.648493	0.015309
 458	2.2850e-01	9.1388	36.935492	0.000346	3.464511	0.586904	0.013855
 459	2.2900e-01	9.1553	37.014602	0.000396	3.956387	0.670230	0.015822
 460	2.2950e-01	9.1754	37.099700	0.000426	4.255789	0.720950	0.017019
 461	2.3000e-01	9.1968	37.174534	0.000374	3.742528	0.634001	0.014967
 462	2.3050e-01	9.2163	37.258776	0.000421	4.213017	0.713704	0.016848
 463	2.3100e-01	9.2340	37.325914	0.000336	3.357582	0.568790	0.013427
 464	2.3150e-01	9.2572	37.414004	0.000441	4.405490	0.746310	0.017618
 465	2.3200e-01	9.2737	37.487128	0.000366	3.656984	0.619510	0.014625
 466	2.3250e-01	9.2950	37.559397	0.000361	3.614213	0.612264	0.014454
 467	2.3300e-01	9.3158	37.640646	0.000406	4.063316	0.688344	0.016250
 468	2.3350e-01	9.3347	37.727026	0.000432	4.319946	0.731819	0.017276
 469	2.3400e-01	9.3561	37.789032	0.000310	3.100952	0.525315	0.012401
 470	2.3450e-01	9.3750	37.863866	0.000374	3.742528	0.634001	0.014967
 471	2.3500e-01	9.3964	37.953667	0.000449	4.491033	0.760802	0.017960
 472	2.3550e-01	9.4147	38.042186	0.000443	4.426876	0.749933	0.017704
 473	2.3600e-01	9.4360	38.108468	0.000331	3.314810	0.561544	0.013256
 474	2.3650e-01	9.4543	38.186723	0.000391	3.913615	0.662984	0.015651
 475	2.3700e-01	9.4763	38.251295	0.000323	3.229267	0.547053	0.012914
 476	2.3750e-01	9.4965	38.344945	0.000468	4.683506	0.793407	0.018730
 477	2.3800e-01	9.5172	38.423200	0.000391	3.913615	0.662984	0.015651
 478	2.3850e-01	9.5337	38.486061	0.000314	3.143723	0.532561	0.012572
 479	2.3900e-01	9.5551	38.576290	0.000451	4.512419	0.764425	0.018046
 480	2.3950e-01	9.5758	38.644282	0.000340	3.400354	0.576036	0.013598
 481	2.4000e-01	9.5953	38.722110	0.000389	3.892229	0.659361	0.015566
 482	2.4050e-01	9.6143	38.798227	0.000381	3.806685	0.644870	0.015223
 483	2.4100e-01	9.6387	38.885035	0.000434	4.341332	0.735442	0.017362
 484	2.4150e-01	9.6558	38.949179	0.000321	3.207881	0.543430	0.012829
 485	2.4200e-01	9.6771	39.042829	0.000468	4.683506	0.793407	0.018730
 486	2.4250e-01	9.6948	39.109966	0.000336	3.357582	0.568790	0.013427
 487	2.4300e-01	9.7168	39.189077	0.000396	3.956387	0.670230	0.015822
 488	2.4350e-01	9.7369	39.263911	0.000374	3.742528	0.634001	0.014967
 489	2.4400e-01	9.7559	39.351147	0.000436	4.362718	0.739064	0.017447
 490	2.4450e-01	9.7742	39.425126	0.000370	3.699756	0.626756	0.014796
 491	2.4500e-01	9.7937	39.500388	0.000376	3.763914	0.637624	0.015052
 492	2.4550e-01	9.8145	39.589762	0.000447	4.469647	0.757179	0.017875
 493	2.4600e-01	9.8358	39.653050	0.000317	3.165109	0.536184	0.012658
 494	2.4650e-01	9.8523	39.737292	0.000421	4.213017	0.713704	0.016848
 495	2.4700e-01	9.8755	39.804430	0.000336	3.357582	0.568790	0.013427
 496	2.4750e-01	9.8944	39.891665	0.000436	4.362718	0.739064	0.017447
 497	2.4800e-01	9.9188	39.965217	0.000368	3.678370	0.623133	0.014710
 498	2.4850e-01	9.9347	40.040906	0.000379	3.785300	0.641247	0.015138
 499	2.4900e-01	9.9536	40.124293	0.000417	4.170245	0.706459	0.016677
 500	2.4950e-01	9.9731	40.202549	0.000391	3.913615	0.662984	0.015651
 501	2.5000e-01	9.9957	40.267548	0.000325	3.250653	0.550675	0.013000
 502	2.5050e-01	9.9768	40.236331	0.000156	1.561169	0.264469	-0.006243
 503	2.5100e-01	9.9567	40.201266	0.000175	1.753642	0.297075	-0.007013
 504	2.5150e-01	9.9359	40.179885	0.000107	1.069294	0.181143	-0.004276
 505	2.5200e-01	9.9164	40.159359	0.000103	1.026522	0.173898	-0.004105
 506	2.5250e-01	9.8956	40.134984	0.000122	1.218995	0.206503	-0.004875
 507	2.5300e-01	9.8767	40.108899	0.000130	1.304538	0.220995	-0.005217
 508	2.5350e-01	9.8560	40.075116	0.000169	1.689484	0.286206	-0.006756
 509	2.5400e-01	9.8358	40.049459	0.000128	1.283152	0.217372	-0.005132
 510	2.5450e-01	9.8163	40.026367	0.000115	1.154837	0.195635	-0.004618
 511	2.5500e-01	9.7943	39.990019	0.000182	1.817799	0.307944	-0.007270
 512	2.5550e-01	9.7760	39.963506	0.000133	1.325924	0.224618	-0.005303
 513	2.5600e-01	9.7577	39.933572	0.000150	1.497011	0.253601	-0.005987
 514	2.5650e-01	9.7345	39.899362	0.000171	1.710870	0.289829	-0.006842
 515	2.5700e-01	9.7174	39.866863	0.000163	1.625326	0.275338	-0.006500
 516	2.5750e-01	9.6967	39.842916	0.000120	1.197609	0.202880	-0.004789
 517	2.5800e-01	9.6759	39.812982	0.000150	1.497011	0.253601	-0.005987
 518	2.5850e-01	9.6539	39.789890	0.000115	1.154837	0.195635	-0.004618
 519	2.5900e-01	9.6350	39.736865	0.000265	2.651848	0.449235	-0.010605
 520	2.5950e-01	9.6161	39.711635	0.000126	1.261767	0.213749	-0.005046
 521	2.6000e-01	9.5972	39.671866	0.000199	1.988886	0.336926	-0.007954
 522	2.6050e-01	9.5752	39.646636	0.000126	1.261767	0.213749	-0.005046
 523	2.6100e-01	9.5572	39.600880	0.000229	2.288288	0.387647	-0.009151
 524	2.6150e-01	9.5361	39.568380	0.000163	1.625326	0.275338	-0.006500
 525	2.6200e-01	9.5215	39.535026	0.000167	1.668098	0.282583	-0.006671
 526	2.6250e-01	9.4958	39.508085	0.000135	1.347310	0.228240	-0.005388
 527	2.6300e-01	9.4775	39.465323	0.000214	2.138587	0.362286	-0.008553
 528	2.6350e-01	9.4531	39.432396	0.000165	1.646712	0.278961	-0.006585
 529	2.6400e-01	9.4360	39.402034	0.000152	1.518397	0.257223	-0.006072
 530	2.6450e-01	9.4159	39.359272	0.000214	2.138587	0.362286	-0.008553
 531	2.6500e-01	9.3976	39.323351	0.000180	1.796413	0.304321	-0.007184
 532	2.6550e-01	9.3750	39.281444	0.000210	2.095816	0.355041	-0.008381
 533	2.6600e-01	9.3567	39.251510	0.000150	1.497011	0.253601	-0.005987
 534	2.6650e-01	9.3372	39.213879	0.000188	1.881957	0.318812	-0.007526
 535	2.6700e-01	9.3158	39.169834	0.000220	2.202745	0.373155	-0.008809
 536	2.6750e-01	9.2947	39.142466	0.000137	1.368696	0.231863	-0.005474
 537	2.6800e-01	9.2761	39.100558	0.000210	2.095816	0.355041	-0.008381
 538	2.6850e-01	9.2587	39.054375	0.000231	2.309674	0.391269	-0.009237
 539	2.6900e-01	9.2365	39.015461	0.000195	1.946114	0.329681	-0.007783
 540	2.6950e-01	9.2169	38.988521	0.000135	1.347310	0.228240	-0.005388
 541	2.7000e-01	9.1974	38.937206	0.000257	2.566305	0.434744	-0.010263
 542	2.7050e-01	9.1754	38.895298	0.000210	2.095816	0.355041	-0.008381
 543	2.7100e-01	9.1589	38.865365	0.000150	1.497011	0.253601	-0.005987
 544	2.7150e-01	9.1345	38.840562	0.000124	1.240381	0.210126	-0.004960
 545	2.7200e-01	9.1150	38.789675	0.000254	2.544919	0.431121	-0.010177
 546	2.7250e-01	9.0948	38.746485	0.000216	2.159973	0.365909	-0.008638
 547	2.7300e-01	9.0741	38.708854	0.000188	1.881957	0.318812	-0.007526
 548	2.7350e-01	9.0585	38.665236	0.000218	2.181359	0.369532	-0.008724
 549	2.7400e-01	9.0393	38.627177	0.000190	1.903343	0.322435	-0.007612
 550	2.7450e-01	9.0155	38.580566	0.000233	2.331060	0.394892	-0.009322
 551	2.7500e-01	8.9972	38.545501	0.000175	1.753642	0.297075	-0.007013
 552	2.7550e-01	8.9783	38.508725	0.000184	1.839185	0.311566	-0.007355
 553	2.7600e-01	8.9557	38.459121	0.000248	2.480761	0.420252	-0.009921
 554	2.7650e-01	8.9355	38.433891	0.000126	1.261767	0.213749	-0.005046
 555	2.7700e-01	8.9178	38.376589	0.000287	2.865707	0.485464	-0.011460
 556	2.7750e-01	8.8983	38.338530	0.000190	1.903343	0.322435	-0.007612
 557	2.7800e-01	8.8763	38.294485	0.000220	2.202745	0.373155	-0.008809
 558	2.7850e-01	8.8550	38.252150	0.000212	2.117201	0.358664	-0.008467
 559	2.7900e-01	8.8354	38.204256	0.000240	2.395218	0.405761	-0.009579
 560	2.7950e-01	8.8147	38.179454	0.000124	1.240381	0.210126	-0.004960
 561	2.8000e-01	8.7970	38.121724	0.000289	2.887093	0.489087	-0.011546
 562	2.8050e-01	8.7787	38.081100	0.000203	2.031658	0.344172	-0.008125
 563	2.8100e-01	8.7561	38.044752	0.000182	1.817799	0.307944	-0.007270
 564	2.8150e-01	8.7372	37.997713	0.000235	2.352446	0.398515	-0.009408
 565	2.8200e-01	8.7180	37.954095	0.000218	2.181359	0.369532	-0.008724
 566	2.8250e-01	8.6963	37.901070	0.000265	2.651848	0.449235	-0.010605
 567	2.8300e-01	8.6755	37.871563	0.000148	1.475625	0.249978	-0.005901
 568	2.8350e-01	8.6566	37.822814	0.000244	2.437990	0.413007	-0.009750
 569	2.8400e-01	8.6371	37.774920	0.000240	2.395218	0.405761	-0.009579
 570	2.8450e-01	8.6145	37.739427	0.000178	1.775027	0.300698	-0.007099
 571	2.8500e-01	8.5962	37.691533	0.000240	2.395218	0.405761	-0.009579
 572	2.8550e-01	8.5768	37.642784	0.000244	2.437990	0.413007	-0.009750
 573	2.8600e-01	8.5541	37.596600	0.000231	2.309674	0.391269	-0.009237
 574	2.8650e-01	8.5352	37.547423	0.000246	2.459375	0.416629	-0.009835
 575	2.8700e-01	8.5156	37.508510	0.000195	1.946114	0.329681	-0.007783
 576	2.8750e-01	8.4979	37.468313	0.000201	2.010272	0.340549	-0.008039
 577	2.8800e-01	8.4778	37.411439	0.000284	2.844321	0.481841	-0.011375
 578	2.8850e-01	8.4555	37.373380	0.000190	1.903343	0.322435	-0.007612
 579	2.8900e-01	8.4338	37.326769	0.000233	2.331060	0.394892	-0.009322
 580	2.8950e-01	8.4164	37.280585	0.000231	2.309674	0.391269	-0.009237
 581	2.9000e-01	8.3984	37.229270	0.000257	2.566305	0.434744	-0.010263
 582	2.9050e-01	8.3759	37.186508	0.000214	2.138587	0.362286	-0.008553
 583	2.9100e-01	8.3578	37.133055	0.000267	2.673234	0.452858	-0.010691
 584	2.9150e-01	8.3362	37.093285	0.000199	1.988886	0.336926	-0.007954
 585	2.9200e-01	8.3191	37.046674	0.000233	2.331060	0.394892	-0.009322
 586	2.9250e-01	8.2965	37.002629	0.000220	2.202745	0.373155	-0.008809
 587	2.9300e-01	8.2770	36.948320	0.000272	2.716006	0.460104	-0.010862
 588	2.9350e-01	8.2556	36.909407	0.000195	1.946114	0.329681	-0.007783
 589	2.9400e-01	8.2355	36.864078	0.000227	2.266903	0.384024	-0.009066
 590	2.9450e-01	8.2169	36.798224	0.000329	3.293424	0.557921	-0.013171
 591	2.9500e-01	8.1970	36.765724	0.000163	1.625326	0.275338	-0.006500
 592	2.9550e-01	8.1769	36.722534	0.000216	2.159973	0.365909	-0.008638
 593	2.9600e-01	8.1555	36.661384	0.000306	3.058180	0.518070	-0.012230
 594	2.9650e-01	8.1363	36.622042	0.000197	1.967500	0.333304	-0.007868
 595	2.9700e-01	8.1183	36.557899	0.000321	3.207881	0.543430	-0.012829
 596	2.9750e-01	8.0988	36.511287	0.000233	2.331060	0.394892	-0.009322
 597	2.9800e-01	8.0768	36.462538	0.000244	2.437990	0.413007	-0.009750
 598	2.9850e-01	8.0554	36.427900	0.000173	1.732256	0.293452	-0.006928
 599	2.9900e-01	8.0347	36.371454	0.000282	2.822935	0.478218	-0.011289
 600	2.9950e-01	8.0188	36.317146	0.000272	2.716006	0.460104	-0.010862
 601	3.0000e-01	7.9977	36.271817	0.000227	2.266903	0.384024	-0.009066
 602	3.0050e-01	7.9736	36.228199	0.000218	2.181359	0.369532	-0.008724
 603	3.0100e-01	7.9541	36.185437	0.000214	2.138587	0.362286	-0.008553
 604	3.0150e-01	7.9352	36.124287	0.000306	3.058180	0.518070	-0.012230
 605	3.0200e-01	7.9138	36.078958	0.000227	2.266903	0.384024	-0.009066
 606	3.0250e-01	7.8973	36.015670	0.000317	3.165109	0.536184	-0.012658
 607	3.0300e-01	7.8735	35.965210	0.000252	2.523533	0.427498	-0.010092
 608	3.0350e-01	7.8558	35.927151	0.000190	1.903343	0.322435	-0.007612
 609	3.0400e-01	7.8394	35.868139	0.000295	2.951250	0.499955	-0.011802
 610	3.0450e-01	7.8186	35.803140	0.000325	3.250653	0.550675	-0.013000
 611	3.0500e-01	7.7948	35.765937	0.000186	1.860571	0.315189	-0.007441
 612	3.0550e-01	7.7777	35.710345	0.000278	2.780163	0.470972	-0.011118
 613	3.0600e-01	7.7551	35.662024	0.000242	2.416604	0.409384	-0.009664
 614	3.0650e-01	7.7351	35.609426	0.000263	2.630462	0.445612	-0.010520
 615	3.0700e-01	7.7124	35.561104	0.000242	2.416604	0.409384	-0.009664
 616	3.0750e-01	7.6947	35.515776	0.000227	2.266903	0.384024	-0.009066
 617	3.0800e-01	7.6746	35.458046	0.000289	2.887093	0.489087	-0.011546
 618	3.0850e-01	7.6575	35.395613	0.000312	3.122337	0.528938	-0.012487
 619	3.0900e-01	7.6392	35.352423	0.000216	2.159973	0.365909	-0.008638
 620	3.0950e-01	7.6160	35.293838	0.000293	2.929865	0.496333	-0.011717
 621	3.1000e-01	7.5970	35.241668	0.000261	2.609077	0.441990	-0.010434
 622	3.1050e-01	7.5751	35.189498	0.000261	2.609077	0.441990	-0.010434
 623	3.1100e-01	7.5549	35.141604	0.000240	2.395218	0.405761	-0.009579
 624	3.1150e-01	7.5342	35.083874	0.000289	2.887093	0.489087	-0.011546
 625	3.1200e-01	7.5159	35.047098	0.000184	1.839185	0.311566	-0.007355
 626	3.1250e-01	7.4945	34.970126	0.000385	3.849457	0.652116	-0.015395
 627	3.1300e-01	7.4774	34.917100	0.000265	2.651848	0.449235	-0.010605
 628	3.1350e-01	7.4542	34.862792	0.000272	2.716006	0.460104	-0.010862
 629	3.1400e-01	7.4365	34.821312	0.000207	2.074430	0.351418	-0.008296
 630	3.1450e-01	7.4158	34.771280	0.000250	2.502147	0.423875	-0.010006
 631	3.1500e-01	7.3978	34.703715	0.000338	3.378968	0.572413	-0.013513
 632	3.1550e-01	7.3773	34.655821	0.000240	2.395218	0.405761	-0.009579
 633	3.1600e-01	7.3584	34.611776	0.000220	2.202745	0.373155	-0.008809
 634	3.1650e-01	7.3340	34.544211	0.000338	3.378968	0.572413	-0.013513
 635	3.1700e-01	7.3170	34.501449	0.000214	2.138587	0.362286	-0.008553
 636	3.1750e-01	7.2950	34.435594	0.000329	3.293424	0.557921	-0.013171
 637	3.1800e-01	7.2760	34.382569	0.000265	2.651848	0.449235	-0.010605
 638	3.1850e-01	7.2537	34.330826	0.000259	2.587691	0.438367	-0.010349
 639	3.1900e-01	7.2339	34.284215	0.000233	2.331060	0.394892	-0.009322
 640	3.1950e-01	7.2174	34.216223	0.000340	3.400354	0.576036	-0.013598
 641	3.2000e-01	7.1942	34.164052	0.000261	2.609077	0.441990	-0.010434
 642	3.2050e-01	7.1765	34.113592	0.000252	2.523533	0.427498	-0.010092
 643	3.2100e-01	7.1576	34.049876	0.000319	3.186495	0.539807	-0.012743
 644	3.2150e-01	7.1405	33.982739	0.000336	3.357582	0.568790	-0.013427
 645	3.2200e-01	7.1158	33.937838	0.000225	2.245517	0.380401	-0.008980
 646	3.2250e-01	7.0972	33.880109	0.000289	2.887093	0.489087	-0.011546
 647	3.2300e-01	7.0764	33.821097	0.000295	2.951250	0.499955	-0.011802
 648	3.2350e-01	7.0551	33.767644	0.000267	2.673234	0.452858	-0.010691
 649	3.2400e-01	7.0367	33.707348	0.000302	3.015408	0.510824	-0.012059
 650	3.2450e-01	7.0154	33.660310	0.000235	2.352446	0.398515	-0.009408
 651	3.2500e-01	6.9977	33.603008	0.000287	2.865707	0.485464	-0.011460
 652	3.2550e-01	6.9765	33.532877	0.000351	3.507283	0.594150	-0.014026
 653	3.2600e-01	6.9574	33.494819	0.000190	1.903343	0.322435	-0.007612
 654	3.2650e-01	6.9373	33.432385	0.000312	3.122337	0.528938	-0.012487
 655	3.2700e-01	6.9159	33.367814	0.000323	3.229267	0.547053	-0.012914
 656	3.2750e-01	6.8945	33.301532	0.000331	3.314810	0.561544	-0.013256
 657	3.2800e-01	6.8762	33.254066	0.000237	2.373832	0.402138	-0.009493
 658	3.2850e-01	6.8549	33.183080	0.000355	3.550055	0.601396	-0.014197
 659	3.2900e-01	6.8347	33.137752	0.000227	2.266903	0.384024	-0.009066
 660	3.2950e-01	6.8149	33.084726	0.000265	2.651848	0.449235	-0.010605
 661	3.3000e-01	6.7969	33.015451	0.000346	3.464511	0.586904	-0.013855
 662	3.3050e-01	6.7755	32.958577	0.000284	2.844321	0.481841	-0.011375
 663	3.3100e-01	6.7566	32.904696	0.000269	2.694620	0.456481	-0.010776
 664	3.3150e-01	6.7365	32.844828	0.000299	2.994022	0.507201	-0.011974
 665	3.3200e-01	6.7169	32.778974	0.000329	3.293424	0.557921	-0.013171
 666	3.3250e-01	6.6949	32.731080	0.000240	2.395218	0.405761	-0.009579
 667	3.3300e-01	6.6760	32.663088	0.000340	3.400354	0.576036	-0.013598
 668	3.3350e-01	6.6565	32.607069	0.000280	2.801549	0.474595	-0.011204
 669	3.3400e-01	6.6382	32.557036	0.000250	2.502147	0.423875	-0.010006
 670	3.3450e-01	6.6162	32.480919	0.000381	3.806685	0.644870	-0.015223
 671	3.3500e-01	6.5952	32.415920	0.000325	3.250653	0.550675	-0.013000
 672	3.3550e-01	6.5778	32.371019	0.000225	2.245517	0.380401	-0.008980
 673	3.3600e-01	6.5564	32.301744	0.000346	3.464511	0.586904	-0.013855
 674	3.3650e-01	6.5344	32.245725	0.000280	2.801549	0.474595	-0.011204
 675	3.3700e-01	6.5155	32.183292	0.000312	3.122337	0.528938	-0.012487
 676	3.3750e-01	6.4960	32.125990	0.000287	2.865707	0.485464	-0.011460
 677	3.3800e-01	6.4749	32.052439	0.000368	3.678370	0.623133	-0.014710
 678	3.3850e-01	6.4560	32.001551	0.000254	2.544919	0.431121	-0.010177
 679	3.3900e-01	6.4352	31.932276	0.000346	3.464511	0.586904	-0.013855
 680	3.3950e-01	6.4160	31.873691	0.000293	2.929865	0.496333	-0.011717
 681	3.4000e-01	6.3948	31.818955	0.000274	2.737392	0.463727	-0.010947
 682	3.4050e-01	6.3782	31.753529	0.000327	3.272039	0.554298	-0.013085
 683	3.4100e-01	6.3556	31.694089	0.000297	2.972636	0.503578	-0.011888
 684	3.4150e-01	6.3339	31.630800	0.000317	3.165109	0.536184	-0.012658
 685	3.4200e-01	6.3162	31.563235	0.000338	3.378968	0.572413	-0.013513
 686	3.4250e-01	6.2946	31.511920	0.000257	2.566305	0.434744	-0.010263
 687	3.4300e-01	6.2735	31.451625	0.000302	3.015408	0.510824	-0.012059
 688	3.4350e-01	6.2610	31.380639	0.000355	3.550055	0.601396	-0.014197
 689	3.4400e-01	6.2369	31.316923	0.000319	3.186495	0.539807	-0.012743
 690	3.4450e-01	6.2164	31.253207	0.000319	3.186495	0.539807	-0.012743
 691	3.4500e-01	6.1975	31.187353	0.000329	3.293424	0.557921	-0.013171
 692	3.4550e-01	6.1755	31.127913	0.000297	2.972636	0.503578	-0.011888
 693	3.4600e-01	6.1588	31.059920	0.000340	3.400354	0.576036	-0.013598
 694	3.4650e-01	6.1356	30.995349	0.000323	3.229267	0.547053	-0.012914
 695	3.4700e-01	6.1165	30.931633	0.000319	3.186495	0.539807	-0.012743
 696	3.4750e-01	6.0956	30.876469	0.000276	2.758778	0.467350	-0.011033
 697	3.4800e-01	6.0767	30.817029	0.000297	2.972636	0.503578	-0.011888
 698	3.4850e-01	6.0571	30.742622	0.000372	3.721142	0.630379	-0.014881
 699	3.4900e-01	6.0388	30.670354	0.000361	3.614213	0.612264	-0.014454
 700	3.4950e-01	6.0153	30.619039	0.000257	2.566305	0.434744	-0.010263
 701	3.5000e-01	5.9985	30.554895	0.000321	3.207881	0.543430	-0.012829
 702	3.5050e-01	5.9769	30.489896	0.000325	3.250653	0.550675	-0.013000
 703	3.5100e-01	5.9555	30.429601	0.000302	3.015408	0.510824	-0.012059
 704	3.5150e-01	5.9357	30.357760	0.000359	3.592827	0.608641	-0.014368
 705	3.5200e-01	5.9177	30.287629	0.000351	3.507283	0.594150	-0.014026
 706	3.5250e-01	5.8937	30.220492	0.000336	3.357582	0.568790	-0.013427
 707	3.5300e-01	5.8792	30.163618	0.000284	2.844321	0.481841	-0.011375
 708	3.5350e-01	5.8563	30.093060	0.000353	3.528669	0.597773	-0.014112
 709	3.5400e-01	5.8365	30.027205	0.000329	3.293424	0.557921	-0.013171
 710	3.5450e-01	5.8154	29.970759	0.000282	2.822935	0.478218	-0.011289
 711	3.5500e-01	5.7951	29.898063	0.000364	3.635598	0.615887	-0.014539
 712	3.5550e-01	5.7770	29.831781	0.000331	3.314810	0.561544	-0.013256
 713	3.5600e-01	5.7565	29.767209	0.000323	3.229267	0.547053	-0.012914
 714	3.5650e-01	5.7361	29.696223	0.000355	3.550055	0.601396	-0.014197
 715	3.5700e-01	5.7190	29.633362	0.000314	3.143723	0.532561	-0.012572
 716	3.5750e-01	5.6955	29.558100	0.000376	3.763914	0.637624	-0.015052
 717	3.5800e-01	5.6766	29.498661	0.000297	2.972636	0.503578	-0.011888
 718	3.5850e-01	5.6564	29.440503	0.000291	2.908479	0.492710	-0.011631
 719	3.5900e-01	5.6390	29.363959	0.000383	3.828071	0.648493	-0.015309
 720	3.5950e-01	5.6146	29.292118	0.000359	3.592827	0.608641	-0.014368
 721	3.6000e-01	5.5963	29.216000	0.000381	3.806685	0.644870	-0.015223
 722	3.6050e-01	5.5762	29.165113	0.000254	2.544919	0.431121	-0.010177
 723	3.6100e-01	5.5569	29.098831	0.000331	3.314810	0.561544	-0.013256
 724	3.6150e-01	5.5353	29.037253	0.000308	3.079566	0.521693	-0.012316
 725	3.6200e-01	5.5185	28.953866	0.000417	4.170245	0.706459	-0.016677
 726	3.6250e-01	5.4965	28.887584	0.000331	3.314810	0.561544	-0.013256
 727	3.6300e-01	5.4755	28.823440	0.000321	3.207881	0.543430	-0.012829
 728	3.6350e-01	5.4544	28.747751	0.000379	3.785300	0.641247	-0.015138
 729	3.6400e-01	5.4367	28.689166	0.000293	2.929865	0.496333	-0.011717
 730	3.6450e-01	5.4175	28.599792	0.000447	4.469647	0.757179	-0.017875
 731	3.6500e-01	5.3961	28.536931	0.000314	3.143723	0.532561	-0.012572
 732	3.6550e-01	5.3799	28.462097	0.000374	3.742528	0.634001	-0.014967
 733	3.6600e-01	5.3555	28.405650	0.000282	2.822935	0.478218	-0.011289
 734	3.6650e-01	5.3358	28.329533	0.000381	3.806685	0.644870	-0.015223
 735	3.6700e-01	5.3162	28.258120	0.000357	3.571441	0.605018	-0.014283
 736	3.6750e-01	5.2960	28.202101	0.000280	2.801549	0.474595	-0.011204
 737	3.6800e-01	5.2759	28.126411	0.000379	3.785300	0.641247	-0.015138
 738	3.6850e-01	5.2546	28.054570	0.000359	3.592827	0.608641	-0.014368
 739	3.6900e-01	5.2365	27.991709	0.000314	3.143723	0.532561	-0.012572
 740	3.6950e-01	5.2148	27.910460	0.000406	4.063316	0.688344	-0.016250
 741	3.7000e-01	5.1959	27.849310	0.000306	3.058180	0.518070	-0.012230
 742	3.7050e-01	5.1782	27.773193	0.000381	3.806685	0.644870	-0.015223
 743	3.7100e-01	5.1581	27.698786	0.000372	3.721142	0.630379	-0.014881
 744	3.7150e-01	5.1379	27.621386	0.000387	3.870843	0.655739	-0.015480
 745	3.7200e-01	5.1166	27.549117	0.000361	3.614213	0.612264	-0.014454
 746	3.7250e-01	5.0966	27.481980	0.000336	3.357582	0.568790	-0.013427
 747	3.7300e-01	5.0757	27.415698	0.000331	3.314810	0.561544	-0.013256
 748	3.7350e-01	5.0565	27.349416	0.000331	3.314810	0.561544	-0.013256
 749	3.7400e-01	5.0372	27.269022	0.000402	4.020544	0.681099	-0.016079
 750	3.7450e-01	5.0189	27.201458	0.000338	3.378968	0.572413	-0.013513
 751	3.7500e-01	4.9951	27.139024	0.000312	3.122337	0.528938	-0.012487
 752	3.7550e-01	4.9765	27.059058	0.000400	3.999158	0.677476	-0.015993
 753	3.7600e-01	4.9555	26.974816	0.000421	4.213017	0.713704	-0.016848
 754	3.7650e-01	4.9353	26.917942	0.000284	2.844321	0.481841	-0.011375
 755	3.7700e-01	4.9164	26.837121	0.000404	4.041930	0.684721	-0.016164
 756	3.7750e-01	4.8963	26.769556	0.000338	3.378968	0.572413	-0.013513
 757	3.7800e-01	4.8764	26.683603	0.000430	4.298560	0.728196	-0.017191
 758	3.7850e-01	4.8584	26.610052	0.000368	3.678370	0.623133	-0.014710
 759	3.7900e-01	4.8361	26.543342	0.000334	3.336196	0.565167	-0.013342
 760	3.7950e-01	4.8183	26.471501	0.000359	3.592827	0.608641	-0.014368
 761	3.8000e-01	4.7968	26.389825	0.000408	4.084702	0.691967	-0.016335
 762	3.8050e-01	4.7763	26.308576	0.000406	4.063316	0.688344	-0.016250
 763	3.8100e-01	4.7566	26.239728	0.000344	3.443126	0.583281	-0.013770
 764	3.8150e-01	4.7339	26.178150	0.000308	3.079566	0.521693	-0.012316
 765	3.8200e-01	4.7168	26.082790	0.000477	4.769050	0.807899	-0.019072
 766	3.8250e-01	4.6957	26.024205	0.000293	2.929865	0.496333	-0.011717
 767	3.8300e-01	4.6759	25.938252	0.000430	4.298560	0.728196	-0.017191
 768	3.8350e-01	4.6548	25.878385	0.000299	2.994022	0.507201	-0.011974
 769	3.8400e-01	4.6352	25.808682	0.000349	3.485897	0.590527	-0.013941
 770	3.8450e-01	4.6191	25.710756	0.000490	4.897365	0.829636	-0.019585
 771	3.8500e-01	4.5941	25.656875	0.000269	2.694620	0.456481	-0.010776
 772	3.8550e-01	4.5734	25.579902	0.000385	3.849457	0.652116	-0.015395
 773	3.8600e-01	4.5551	25.497798	0.000411	4.106088	0.695590	-0.016421
 774	3.8650e-01	4.5361	25.417833	0.000400	3.999158	0.677476	-0.015993
 775	3.8700e-01	4.5166	25.330169	0.000438	4.384104	0.742687	-0.017533
 776	3.8750e-01	4.4945	25.269019	0.000306	3.058180	0.518070	-0.012230
 777	3.8800e-01	4.4775	25.193329	0.000379	3.785300	0.641247	-0.015138
 778	3.8850e-01	4.4547	25.121488	0.000359	3.592827	0.608641	-0.014368
 779	3.8900e-01	4.4344	25.042378	0.000396	3.956387	0.670230	-0.015822
 780	3.8950e-01	4.4168	24.955570	0.000434	4.341332	0.735442	-0.017362
 781	3.9000e-01	4.3956	24.883301	0.000361	3.614213	0.612264	-0.014454
 782	3.9050e-01	4.3768	24.809749	0.000368	3.678370	0.623133	-0.014710
 783	3.9100e-01	4.3565	24.727645	0.000411	4.106088	0.695590	-0.016421
 784	3.9150e-01	4.3359	24.654094	0.000368	3.678370	0.623133	-0.014710
 785	3.9200e-01	4.3176	24.573273	0.000404	4.041930	0.684721	-0.016164
 786	3.9250e-01	4.2946	24.498866	0.000372	3.721142	0.630379	-0.014881
 787	3.9300e-01	4.2760	24.404788	0.000470	4.704892	0.797030	-0.018816
 788	3.9350e-01	4.2560	24.345776	0.000295	2.951250	0.499955	-0.011802
 789	3.9400e-01	4.2395	24.251698	0.000470	4.704892	0.797030	-0.018816
 790	3.9450e-01	4.2164	24.184134	0.000338	3.378968	0.572413	-0.013513
 791	3.9500e-01	4.1922	24.099036	0.000426	4.255789	0.720950	-0.017019
 792	3.9550e-01	4.1772	24.022064	0.000385	3.849457	0.652116	-0.015395
 793	3.9600e-01	4.1583	23.948084	0.000370	3.699756	0.626756	-0.014796
 794	3.9650e-01	4.1350	23.865553	0.000413	4.127473	0.699213	-0.016506
 795	3.9700e-01	4.1162	23.788153	0.000387	3.870843	0.655739	-0.015480
 796	3.9750e-01	4.0961	23.709470	0.000394	3.935001	0.666607	-0.015737
 797	3.9800e-01	4.0771	23.626510	0.000415	4.148859	0.702836	-0.016592
 798	3.9850e-01	4.0552	23.550821	0.000379	3.785300	0.641247	-0.015138
 799	3.9900e-01	4.0393	23.458454	0.000462	4.619349	0.782539	-0.018473
 800	3.9950e-01	4.0190	23.393027	0.000327	3.272039	0.554298	-0.013085
 801	4.0000e-01	3.9954	23.301087	0.000460	4.597963	0.778916	-0.018388
 802	4.0050e-01	3.9771	23.219839	0.000406	4.063316	0.688344	-0.016250
 803	4.0100e-01	3.9532	23.152701	0.000336	3.357582	0.568790	-0.013427
 804	4.0150e-01	3.9395	23.053065	0.000498	4.982908	0.844128	-0.019927
 805	4.0200e-01	3.9160	22.988066	0.000325	3.250653	0.550675	-0.013000
 806	4.0250e-01	3.8971	22.900830	0.000436	4.362718	0.739064	-0.017447
 807	4.0300e-01	3.8748	22.821719	0.000396	3.956387	0.670230	-0.015822
 808	4.0350e-01	3.8550	22.747313	0.000372	3.721142	0.630379	-0.014881
 809	4.0400e-01	3.8367	22.647676	0.000498	4.982908	0.844128	-0.019927
 810	4.0450e-01	3.8165	22.571559	0.000381	3.806685	0.644870	-0.015223
 811	4.0500e-01	3.8000	22.492876	0.000394	3.935001	0.666607	-0.015737
 812	4.0550e-01	3.7726	22.427021	0.000329	3.293424	0.557921	-0.013171
 813	4.0600e-01	3.7567	22.337648	0.000447	4.469647	0.757179	-0.017875
 814	4.0650e-01	3.7390	22.243998	0.000468	4.683506	0.793407	-0.018730
 815	4.0700e-01	3.7180	22.172157	0.000359	3.592827	0.608641	-0.014368
 816	4.0750e-01	3.6987	22.084921	0.000436	4.362718	0.739064	-0.017447
 817	4.0800e-01	3.6768	21.998968	0.000430	4.298560	0.728196	-0.017191
 818	4.0850e-01	3.6562	21.913443	0.000428	4.277175	0.724573	-0.017105
 819	4.0900e-01	3.6388	21.831339	0.000411	4.106088	0.695590	-0.016421
 820	4.0950e-01	3.6188	21.744104	0.000436	4.362718	0.739064	-0.017447
 821	4.1000e-01	3.5944	21.676967	0.000336	3.357582	0.568790	-0.013427
 822	4.1050e-01	3.5749	21.575192	0.000509	5.089838	0.862242	-0.020355
 823	4.1100e-01	3.5550	21.493515	0.000408	4.084702	0.691967	-0.016335
 824	4.1150e-01	3.5358	21.406280	0.000436	4.362718	0.739064	-0.017447
 825	4.1200e-01	3.5150	21.341281	0.000325	3.250653	0.550675	-0.013000
 826	4.1250e-01	3.4961	21.236085	0.000526	5.260925	0.891225	-0.021039
 827	4.1300e-01	3.4741	21.163816	0.000361	3.614213	0.612264	-0.014454
 828	4.1350e-01	3.4555	21.074015	0.000449	4.491033	0.760802	-0.017960
 829	4.1400e-01	3.4357	20.990200	0.000419	4.191631	0.710082	-0.016763
 830	4.1450e-01	3.4158	20.911517	0.000394	3.935001	0.666607	-0.015737
 831	4.1500e-01	3.3968	20.810170	0.000507	5.068452	0.858619	-0.020269
 832	4.1550e-01	3.3747	20.728921	0.000406	4.063316	0.688344	-0.016250
 833	4.1600e-01	3.3557	20.655370	0.000368	3.678370	0.623133	-0.014710
 834	4.1650e-01	3.3377	20.563003	0.000462	4.619349	0.782539	-0.018473
 835	4.1700e-01	3.3179	20.480043	0.000415	4.148859	0.702836	-0.016592
 836	4.1750e-01	3.2989	20.388959	0.000456	4.555191	0.771670	-0.018217
 837	4.1800e-01	3.2825	20.308566	0.000402	4.020544	0.681099	-0.016079
 838	4.1850e-01	3.2564	20.213633	0.000475	4.747664	0.804276	-0.018987
 839	4.1900e-01	3.2338	20.141792	0.000359	3.592827	0.608641	-0.014368
 840	4.1950e-01	3.2172	20.040872	0.000505	5.047066	0.854996	-0.020184
 841	4.2000e-01	3.1946	19.964755	0.000381	3.806685	0.644870	-0.015223
 842	4.2050e-01	3.1744	19.872816	0.000460	4.597963	0.778916	-0.018388
 843	4.2100e-01	3.1577	19.780449	0.000462	4.619349	0.782539	-0.018473
 844	4.2150e-01	3.1329	19.703048	0.000387	3.870843	0.655739	-0.015480
 845	4.2200e-01	3.1149	19.617951	0.000426	4.255789	0.720950	-0.017019
 846	4.2250e-01	3.0962	19.531571	0.000432	4.319946	0.731819	-0.017276
 847	4.2300e-01	3.0792	19.426375	0.000526	5.260925	0.891225	-0.021039
 848	4.2350e-01	3.0563	19.348119	0.000391	3.913615	0.662984	-0.015651
 849	4.2400e-01	3.0357	19.268153	0.000400	3.999158	0.677476	-0.015993
 850	4.2450e-01	3.0154	19.171938	0.000481	4.811821	0.815145	-0.019243
 851	4.2500e-01	2.9941	19.090261	0.000408	4.084702	0.691967	-0.016335
 852	4.2550e-01	2.9750	18.997894	0.000462	4.619349	0.782539	-0.018473
 853	4.2600e-01	2.9581	18.904672	0.000466	4.662120	0.789785	-0.018644
 854	4.2650e-01	2.9364	18.818292	0.000432	4.319946	0.731819	-0.017276
 855	4.2700e-01	2.9155	18.722076	0.000481	4.811821	0.815145	-0.019243
 856	4.2750e-01	2.8979	18.635268	0.000434	4.341332	0.735442	-0.017362
 857	4.2800e-01	2.8775	18.548888	0.000432	4.319946	0.731819	-0.017276
 858	4.2850e-01	2.8549	18.455238	0.000468	4.683506	0.793407	-0.018730
 859	4.2900e-01	2.8374	18.362871	0.000462	4.619349	0.782539	-0.018473
 860	4.2950e-01	2.8162	18.280767	0.000411	4.106088	0.695590	-0.016421
 861	4.3000e-01	2.7955	18.183268	0.000488	4.875979	0.826013	-0.019500
 862	4.3050e-01	2.7733	18.113565	0.000349	3.485897	0.590527	-0.013941
 863	4.3100e-01	2.7596	18.013501	0.000500	5.004294	0.847750	-0.020013
 864	4.3150e-01	2.7380	17.906167	0.000537	5.367854	0.909339	-0.021467
 865	4.3200e-01	2.7167	17.823635	0.000413	4.127473	0.699213	-0.016506
 866	4.3250e-01	2.6964	17.742386	0.000406	4.063316	0.688344	-0.016250
 867	4.3300e-01	2.6715	17.638474	0.000520	5.196767	0.880356	-0.020783
 868	4.3350e-01	2.6547	17.558080	0.000402	4.020544	0.681099	-0.016079
 869	4.3400e-01	2.6337	17.454167	0.000520	5.196767	0.880356	-0.020783
 870	4.3450e-01	2.6178	17.364366	0.000449	4.491033	0.760802	-0.017960
 871	4.3500e-01	2.5961	17.280979	0.000417	4.170245	0.706459	-0.016677
 872	4.3550e-01	2.5773	17.182197	0.000494	4.940137	0.836882	-0.019756
 873	4.3600e-01	2.5577	17.085982	0.000481	4.811821	0.815145	-0.019243
 874	4.3650e-01	2.5345	17.015423	0.000353	3.528669	0.597773	-0.014112
 875	4.3700e-01	2.5132	16.908945	0.000533	5.325082	0.902093	-0.021296
 876	4.3750e-01	2.4987	16.824275	0.000423	4.234403	0.717327	-0.016934
 877	4.3800e-01	2.4740	16.734046	0.000451	4.512419	0.764425	-0.018046
 878	4.3850e-01	2.4540	16.649804	0.000421	4.213017	0.713704	-0.016848
 879	4.3900e-01	2.4377	16.547174	0.000513	5.132610	0.869488	-0.020526
 880	4.3950e-01	2.4158	16.446254	0.000505	5.047066	0.854996	-0.020184
 881	4.4000e-01	2.3957	16.353032	0.000466	4.662120	0.789785	-0.018644
 882	4.4050e-01	2.3747	16.267079	0.000430	4.298560	0.728196	-0.017191
 883	4.4100e-01	2.3563	16.178561	0.000443	4.426876	0.749933	-0.017704
 884	4.4150e-01	2.3346	16.078497	0.000500	5.004294	0.847750	-0.020013
 885	4.4200e-01	2.3180	15.989978	0.000443	4.426876	0.749933	-0.017704
 886	4.4250e-01	2.2961	15.880506	0.000547	5.474783	0.927453	-0.021894
 887	4.4300e-01	2.2736	15.799257	0.000406	4.063316	0.688344	-0.016250
 888	4.4350e-01	2.2571	15.709456	0.000449	4.491033	0.760802	-0.017960
 889	4.4400e-01	2.2398	15.607253	0.000511	5.111224	0.865865	-0.020440
 890	4.4450e-01	2.2154	15.519590	0.000438	4.384104	0.742687	-0.017533
 891	4.4500e-01	2.1954	15.413112	0.000533	5.325082	0.902093	-0.021296
 892	4.4550e-01	2.1754	15.324593	0.000443	4.426876	0.749933	-0.017704
 893	4.4600e-01	2.1588	15.232226	0.000462	4.619349	0.782539	-0.018473
 894	4.4650e-01	2.1364	15.137293	0.000475	4.747664	0.804276	-0.018987
 895	4.4700e-01	2.1149	15.044071	0.000466	4.662120	0.789785	-0.018644
 896	4.4750e-01	2.0955	14.949138	0.000475	4.747664	0.804276	-0.018987
 897	4.4800e-01	2.0765	14.837528	0.000558	5.581713	0.945568	-0.022322
 898	4.4850e-01	2.0538	14.764832	0.000364	3.635598	0.615887	-0.014539
 899	4.4900e-01	2.0364	14.672465	0.000462	4.619349	0.782539	-0.018473
 900	4.4950e-01	2.0166	14.560427	0.000560	5.603099	0.949191	-0.022408
 901	4.5000e-01	1.9974	14.463783	0.000483	4.833207	0.818767	-0.019329
 902	4.5050e-01	1.9769	14.367140	0.000483	4.833207	0.818767	-0.019329
 903	4.5100e-01	1.9554	14.278622	0.000443	4.426876	0.749933	-0.017704
 904	4.5150e-01	1.9354	14.185827	0.000464	4.640734	0.786162	-0.018559
 905	4.5200e-01	1.9174	14.081486	0.000522	5.218153	0.883979	-0.020868
 906	4.5250e-01	1.8983	13.982277	0.000496	4.961523	0.840505	-0.019842
 907	4.5300e-01	1.8758	13.887345	0.000475	4.747664	0.804276	-0.018987
 908	4.5350e-01	1.8574	13.790701	0.000483	4.833207	0.818767	-0.019329
 909	4.5400e-01	1.8359	13.681657	0.000545	5.453398	0.923831	-0.021809
 910	4.5450e-01	1.8164	13.594849	0.000434	4.341332	0.735442	-0.017362
 911	4.5500e-01	1.7938	13.502909	0.000460	4.597963	0.778916	-0.018388
 912	4.5550e-01	1.7796	13.403700	0.000496	4.961523	0.840505	-0.019842
 913	4.5600e-01	1.7575	13.311761	0.000460	4.597963	0.778916	-0.018388
 914	4.5650e-01	1.7354	13.210841	0.000505	5.047066	0.854996	-0.020184
 915	4.5700e-01	1.7159	13.115481	0.000477	4.769050	0.807899	-0.019072
 916	4.5750e-01	1.6956	13.009002	0.000533	5.325082	0.902093	-0.021296
 917	4.5800e-01	1.6734	12.919201	0.000449	4.491033	0.760802	-0.017960
 918	4.5850e-01	1.6551	12.815288	0.000520	5.196767	0.880356	-0.020783
 919	4.5900e-01	1.6382	12.714368	0.000505	5.047066	0.854996	-0.020184
 920	4.5950e-01	1.6151	12.625850	0.000443	4.426876	0.749933	-0.017704
 921	4.6000e-01	1.5982	12.528779	0.000485	4.854593	0.822390	-0.019414
 922	4.6050e-01	1.5759	12.426149	0.000513	5.132610	0.869488	-0.020526
 923	4.6100e-01	1.5556	12.316677	0.000547	5.474783	0.927453	-0.021894
 924	4.6150e-01	1.5359	12.228586	0.000441	4.405490	0.746310	-0.017618
 925	4.6200e-01	1.5121	12.136647	0.000460	4.597963	0.778916	-0.018388
 926	4.6250e-01	1.4962	12.028885	0.000539	5.389240	0.912962	-0.021552
 927	4.6300e-01	1.4785	11.930531	0.000492	4.918751	0.833259	-0.019671
 928	4.6350e-01	1.4559	11.820204	0.000552	5.517555	0.934699	-0.022065
 929	4.6400e-01	1.4363	11.734251	0.000430	4.298560	0.728196	-0.017191
 930	4.6450e-01	1.4163	11.625207	0.000545	5.453398	0.923831	-0.021809
 931	4.6500e-01	1.3954	11.543530	0.000408	4.084702	0.691967	-0.016335
 932	4.6550e-01	1.3792	11.422940	0.000603	6.030816	1.021648	-0.024118
 933	4.6600e-01	1.3550	11.333994	0.000445	4.448262	0.753556	-0.017789
 934	4.6650e-01	1.3351	11.232647	0.000507	5.068452	0.858619	-0.020269
 935	4.6700e-01	1.3171	11.133865	0.000494	4.940137	0.836882	-0.019756
 936	4.6750e-01	1.2940	11.028670	0.000526	5.260925	0.891225	-0.021039
 937	4.6800e-01	1.2738	10.932026	0.000483	4.833207	0.818767	-0.019329
 938	4.6850e-01	1.2560	10.824692	0.000537	5.367854	0.909339	-0.021467
 939	4.6900e-01	1.2341	10.739595	0.000426	4.255789	0.720950	-0.017019
 940	4.6950e-01	1.2162	10.632261	0.000537	5.367854	0.909339	-0.021467
 941	4.7000e-01	1.1945	10.525355	0.000535	5.346468	0.905716	-0.021381
 942	4.7050e-01	1.1771	10.425718	0.000498	4.982908	0.844128	-0.019927
 943	4.7100e-01	1.1573	10.327792	0.000490	4.897365	0.829636	-0.019585
 944	4.7150e-01	1.1359	10.224734	0.000515	5.153995	0.873110	-0.020612
 945	4.7200e-01	1.1156	10.133650	0.000456	4.555191	0.771670	-0.018217
 946	4.7250e-01	1.0947	10.030165	0.000518	5.175381	0.876733	-0.020697
 947	4.7300e-01	1.0751	9.922831	0.000537	5.367854	0.909339	-0.021467
 948	4.7350e-01	1.0555	9.829181	0.000468	4.683506	0.793407	-0.018730
 949	4.7400e-01	1.0342	9.727834	0.000507	5.068452	0.858619	-0.020269
 950	4.7450e-01	1.0151	9.612375	0.000577	5.774186	0.978174	-0.023092
 951	4.7500e-01	0.9959	9.512310	0.000500	5.004294	0.847750	-0.020013
 952	4.7550e-01	0.9744	9.417805	0.000473	4.726278	0.800653	-0.018901
 953	4.7600e-01	0.9579	9.321590	0.000481	4.811821	0.815145	-0.019243
 954	4.7650e-01	0.9345	9.203565	0.000590	5.902501	0.999911	-0.023605
 955	4.7700e-01	0.9149	9.103501	0.000500	5.004294	0.847750	-0.020013
 956	4.7750e-01	0.8974	9.011561	0.000460	4.597963	0.778916	-0.018388
 957	4.7800e-01	0.8755	8.894820	0.000584	5.838343	0.989042	-0.023348
 958	4.7850e-01	0.8553	8.812715	0.000411	4.106088	0.695590	-0.016421
 959	4.7900e-01	0.8374	8.699395	0.000567	5.667256	0.960059	-0.022664
 960	4.7950e-01	0.8157	8.601041	0.000492	4.918751	0.833259	-0.019671
 961	4.8000e-01	0.7973	8.503115	0.000490	4.897365	0.829636	-0.019585
 962	4.8050e-01	0.7764	8.388084	0.000575	5.752800	0.974551	-0.023006
 963	4.8100e-01	0.7563	8.293151	0.000475	4.747664	0.804276	-0.018987
 964	4.8150e-01	0.7375	8.178975	0.000571	5.710028	0.967305	-0.022835
 965	4.8200e-01	0.7153	8.077628	0.000507	5.068452	0.858619	-0.020269
 966	4.8250e-01	0.6973	7.982695	0.000475	4.747664	0.804276	-0.018987
 967	4.8300e-01	0.6754	7.874078	0.000543	5.432012	0.920208	-0.021723
 968	4.8350e-01	0.6599	7.777007	0.000485	4.854593	0.822390	-0.019414
 969	4.8400e-01	0.6374	7.670528	0.000533	5.325082	0.902093	-0.021296
 970	4.8450e-01	0.6136	7.563194	0.000537	5.367854	0.909339	-0.021467
 971	4.8500e-01	0.5952	7.476386	0.000434	4.341332	0.735442	-0.017362
 972	4.8550e-01	0.5742	7.351092	0.000627	6.266061	1.061499	-0.025059
 973	4.8600e-01	0.5594	7.257015	0.000470	4.704892	0.797030	-0.018816
 974	4.8650e-01	0.5357	7.153529	0.000518	5.175381	0.876733	-0.020697
 975	4.8700e-01	0.5182	7.045340	0.000541	5.410626	0.916585	-0.021638
 976	4.8750e-01	0.4967	6.939289	0.000530	5.303697	0.898471	-0.021210
 977	4.8800e-01	0.4769	6.840935	0.000492	4.918751	0.833259	-0.019671
 978	4.8850e-01	0.4588	6.734457	0.000533	5.325082	0.902093	-0.021296
 979	4.8900e-01	0.4359	6.629261	0.000526	5.260925	0.891225	-0.021039
 980	4.8950e-01	0.4156	6.524920	0.000522	5.218153	0.883979	-0.020868
 981	4.9000e-01	0.3953	6.411172	0.000569	5.688642	0.963682	-0.022750
 982	4.9050e-01	0.3766	6.326075	0.000426	4.255789	0.720950	-0.017019
 983	4.9100e-01	0.3546	6.228576	0.000488	4.875979	0.826013	-0.019500
 984	4.9150e-01	0.3342	6.108413	0.000601	6.009430	1.018025	-0.024033
 985	4.9200e-01	0.3138	6.028447	0.000400	3.999158	0.677476	-0.015993
 986	4.9250e-01	0.2957	5.900587	0.000639	6.394376	1.083237	-0.025572
 987	4.9300e-01	0.2779	5.795392	0.000526	5.260925	0.891225	-0.021039
 988	4.9350e-01	0.2548	5.709439	0.000430	4.298560	0.728196	-0.017191
 989	4.9400e-01	0.2355	5.581579	0.000639	6.394376	1.083237	-0.025572
 990	4.9450e-01	0.2164	5.485363	0.000481	4.811821	0.815145	-0.019243
 991	4.9500e-01	0.1971	5.376746	0.000543	5.432012	0.920208	-0.021723
 992	4.9550e-01	0.1772	5.273261	0.000518	5.175381	0.876733	-0.020697
 993	4.9600e-01	0.1563	5.183887	0.000447	4.469647	0.757179	-0.017875
 994	4.9650e-01	0.1358	5.071422	0.000562	5.624485	0.952813	-0.022493
 995	4.9700e-01	0.1142	4.972213	0.000496	4.961523	0.840505	-0.019842
 996	4.9750e-01	0.0938	4.860175	0.000560	5.603099	0.949191	-0.022408
 997	4.9800e-01	0.0735	4.760538	0.000498	4.982908	0.844128	-0.019927
 998	4.9850e-01	0.0543	4.651922	0.000543	5.432012	0.920208	-0.021723
 999	4.9900e-01	0.0370	4.547153	0.000524	5.239539	0.887602	-0.020954
1000	4.9950e-01	0.0172	4.447517	0.000498	4.982908	0.844128	-0.019927
1001	5.0000e-01	-0.0063	4.339327	0.000541	5.410626	0.916585	-0.021638
1002	5.0050e-01	-0.0241	4.229855	0.000547	5.474783	0.927453	-0.021894
1003	5.0100e-01	-0.0416	4.140482	0.000447	4.469647	0.757179	-0.017875
1004	5.0150e-01	-0.0616	4.036569	0.000520	5.196767	0.880356	-0.020783
1005	5.0200e-01	-0.0814	3.907854	0.000644	6.437148	1.090482	-0.025743
1006	5.0250e-01	-0.1035	3.821046	0.000434	4.341332	0.735442	-0.017362
1007	5.0300e-01	-0.1227	3.709008	0.000560	5.603099	0.949191	-0.022408
1008	5.0350e-01	-0.1445	3.620917	0.000441	4.405490	0.746310	-0.017618
1009	5.0400e-01	-0.1619	3.507169	0.000569	5.688642	0.963682	-0.022750
1010	5.0450e-01	-0.1817	3.399835	0.000537	5.367854	0.909339	-0.021467
1011	5.0500e-01	-0.2027	3.299343	0.000503	5.025680	0.851373	-0.020098
1012	5.0550e-01	-0.2244	3.182601	0.000584	5.838343	0.989042	-0.023348
1013	5.0600e-01	-0.2460	3.081254	0.000507	5.068452	0.858619	-0.020269
1014	5.0650e-01	-0.2606	2.986321	0.000475	4.747664	0.804276	-0.018987
1015	5.0700e-01	-0.2839	2.877704	0.000543	5.432012	0.920208	-0.021723
1016	5.0750e-01	-0.3042	2.778495	0.000496	4.961523	0.840505	-0.019842
1017	5.0800e-01	-0.3230	2.668596	0.000550	5.496169	0.931076	-0.021980
1018	5.0850e-01	-0.3432	2.562117	0.000533	5.325082	0.902093	-0.021296
1019	5.0900e-01	-0.3626	2.447513	0.000573	5.731414	0.970928	-0.022921
1020	5.0950e-01	-0.3833	2.344883	0.000513	5.132610	0.869488	-0.020526
1021	5.1000e-01	-0.4034	2.248668	0.000481	4.811821	0.815145	-0.019243
1022	5.1050e-01	-0.4263	2.143472	0.000526	5.260925	0.891225	-0.021039
1023	5.1100e-01	-0.4433	2.033144	0.000552	5.517555	0.934699	-0.022065
1024	5.1150e-01	-0.4607	1.927949	0.000526	5.260925	0.891225	-0.021039
1025	5.1200e-01	-0.4858	1.828312	0.000498	4.982908	0.844128	-0.019927
1026	5.1250e-01	-0.5019	1.717557	0.000554	5.538941	0.938322	-0.022151
1027	5.1300e-01	-0.5217	1.616637	0.000505	5.047066	0.854996	-0.020184
1028	5.1350e-01	-0.5423	1.497758	0.000595	5.945273	1.007156	-0.023776
1029	5.1400e-01	-0.5623	1.391706	0.000530	5.303697	0.898471	-0.021210
1030	5.1450e-01	-0.5843	1.297629	0.000470	4.704892	0.797030	-0.018816
1031	5.1500e-01	-0.6037	1.180032	0.000588	5.881115	0.996288	-0.023519
1032	5.1550e-01	-0.6230	1.080395	0.000498	4.982908	0.844128	-0.019927
1033	5.1600e-01	-0.6452	0.975627	0.000524	5.239539	0.887602	-0.020954
1034	5.1650e-01	-0.6655	0.875563	0.000500	5.004294	0.847750	-0.020013
1035	5.1700e-01	-0.6864	0.772077	0.000518	5.175381	0.876733	-0.020697
1036	5.1750e-01	-0.7031	0.671585	0.000503	5.025680	0.851373	-0.020098
1037	5.1800e-01	-0.7227	0.559975	0.000558	5.581713	0.945568	-0.022322
1038	5.1850e-01	-0.7441	0.451786	0.000541	5.410626	0.916585	-0.021638
1039	5.1900e-01	-0.7642	0.350011	0.000509	5.089838	0.862242	-0.020355
1040	5.1950e-01	-0.7844	0.251230	0.000494	4.940137	0.836882	-0.019756
1041	5.2000e-01	-0.8036	0.133205	0.000590	5.902501	0.999911	-0.023605
1042	5.2050e-01	-0.8200	0.035707	0.000488	4.875979	0.826013	-0.019500
1043	5.2100e-01	-0.8439	-0.078469	0.000571	5.710028	0.967305	-0.022835
1044	5.2150e-01	-0.8633	-0.174257	0.000479	4.790436	0.811522	-0.019158
1045	5.2200e-01	-0.8851	-0.285012	0.000554	5.538941	0.938322	-0.022151
1046	5.2250e-01	-0.9050	-0.382083	0.000485	4.854593	0.822390	-0.019414
1047	5.2300e-01	-0.9248	-0.478726	0.000483	4.833207	0.818767	-0.019329
1048	5.2350e-01	-0.9449	-0.588199	0.000547	5.474783	0.927453	-0.021894
1049	5.2400e-01	-0.9628	-0.711355	0.000616	6.159131	1.043385	-0.024631
1050	5.2450e-01	-0.9815	-0.811847	0.000503	5.025680	0.851373	-0.020098
1051	5.2500e-01	-1.0036	-0.904641	0.000464	4.640734	0.786162	-0.018559
1052	5.2550e-01	-1.0236	-1.017107	0.000562	5.624485	0.952813	-0.022493
1053	5.2600e-01	-1.0436	-1.109474	0.000462	4.619349	0.782539	-0.018473
1054	5.2650e-01	-1.0631	-1.224933	0.000577	5.774186	0.978174	-0.023092
1055	5.2700e-01	-1.0841	-1.327135	0.000511	5.111224	0.865865	-0.020440
1056	5.2750e-01	-1.1031	-1.438318	0.000556	5.560327	0.941945	-0.022237
1057	5.2800e-01	-1.1229	-1.537527	0.000496	4.961523	0.840505	-0.019842
1058	5.2850e-01	-1.1442	-1.638874	0.000507	5.068452	0.858619	-0.020269
1059	5.2900e-01	-1.1634	-1.745353	0.000533	5.325082	0.902093	-0.021296
1060	5.2950e-01	-1.1817	-1.856535	0.000556	5.560327	0.941945	-0.022237
1061	5.3000e-01	-1.2047	-1.931370	0.000374	3.742528	0.634001	-0.014967
1062	5.3050e-01	-1.2240	-2.063506	0.000661	6.608235	1.119465	-0.026427
1063	5.3100e-01	-1.2434	-2.162715	0.000496	4.961523	0.840505	-0.019842
1064	5.3150e-01	-1.2626	-2.270904	0.000541	5.410626	0.916585	-0.021638
1065	5.3200e-01	-1.2837	-2.380804	0.000550	5.496169	0.931076	-0.021980
1066	5.3250e-01	-1.3034	-2.482579	0.000509	5.089838	0.862242	-0.020355
1067	5.3300e-01	-1.3230	-2.584781	0.000511	5.111224	0.865865	-0.020440
1068	5.3350e-01	-1.3420	-2.692543	0.000539	5.389240	0.912962	-0.021552
1069	5.3400e-01	-1.3636	-2.785337	0.000464	4.640734	0.786162	-0.018559
1070	5.3450e-01	-1.3865	-2.890105	0.000524	5.239539	0.887602	-0.020954
1071	5.3500e-01	-1.4053	-2.998295	0.000541	5.410626	0.916585	-0.021638
1072	5.3550e-01	-1.4239	-3.107767	0.000547	5.474783	0.927453	-0.021894
1073	5.3600e-01	-1.4436	-3.196285	0.000443	4.426876	0.749933	-0.017704
1074	5.3650e-01	-1.4610	-3.316448	0.000601	6.009430	1.018025	-0.024033
1075	5.3700e-01	-1.4803	-3.416512	0.000500	5.004294	0.847750	-0.020013
1076	5.3750e-01	-1.5029	-3.514011	0.000488	4.875979	0.826013	-0.019500
1077	5.3800e-01	-1.5246	-3.614930	0.000505	5.047066	0.854996	-0.020184
1078	5.3850e-01	-1.5411	-3.714995	0.000500	5.004294	0.847750	-0.020013
1079	5.3900e-01	-1.5643	-3.824894	0.000550	5.496169	0.931076	-0.021980
1080	5.3950e-01	-1.5833	-3.931801	0.000535	5.346468	0.905716	-0.021381
1081	5.4000e-01	-1.6039	-4.027589	0.000479	4.790436	0.811522	-0.019158
1082	5.4050e-01	-1.6273	-4.142192	0.000573	5.731414	0.970928	-0.022921
1083	5.4100e-01	-1.6433	-4.239691	0.000488	4.875979	0.826013	-0.019500
1084	5.4150e-01	-1.6639	-4.353867	0.000571	5.710028	0.967305	-0.022835
1085	5.4200e-01	-1.6834	-4.440247	0.000432	4.319946	0.731819	-0.017276
1086	5.4250e-01	-1.7040	-4.541594	0.000507	5.068452	0.858619	-0.020269
1087	5.4300e-01	-1.7258	-4.638665	0.000485	4.854593	0.822390	-0.019414
1088	5.4350e-01	-1.7429	-4.761821	0.000616	6.159131	1.043385	-0.024631
1089	5.4400e-01	-1.7641	-4.864024	0.000511	5.111224	0.865865	-0.020440
1090	5.4450e-01	-1.7838	-4.965799	0.000509	5.089838	0.862242	-0.020355
1091	5.4500e-01	-1.8043	-5.064580	0.000494	4.940137	0.836882	-0.019756
1092	5.4550e-01	-1.8217	-5.155236	0.000453	4.533805	0.768047	-0.018131
1093	5.4600e-01	-1.8427	-5.271123	0.000580	5.795572	0.981796	-0.023177
1094	5.4650e-01	-1.8653	-5.379312	0.000541	5.410626	0.916585	-0.021638
1095	5.4700e-01	-1.8829	-5.466120	0.000434	4.341332	0.735442	-0.017362
1096	5.4750e-01	-1.9042	-5.571744	0.000528	5.282311	0.894848	-0.021125
1097	5.4800e-01	-1.9236	-5.679077	0.000537	5.367854	0.909339	-0.021467
1098	5.4850e-01	-1.9392	-5.785129	0.000530	5.303697	0.898471	-0.021210
1099	5.4900e-01	-1.9621	-5.882627	0.000488	4.875979	0.826013	-0.019500
1100	5.4950e-01	-1.9852	-5.995520	0.000565	5.645870	0.956436	-0.022579
1101	5.5000e-01	-2.0053	-6.086177	0.000453	4.533805	0.768047	-0.018131
1102	5.5050e-01	-2.0243	-6.178116	0.000460	4.597963	0.778916	-0.018388
1103	5.5100e-01	-2.0420	-6.282029	0.000520	5.196767	0.880356	-0.020783
1104	5.5150e-01	-2.0625	-6.380811	0.000494	4.940137	0.836882	-0.019756
1105	5.5200e-01	-2.0850	-6.479592	0.000494	4.940137	0.836882	-0.019756
1106	5.5250e-01	-2.1070	-6.590775	0.000556	5.560327	0.941945	-0.022237
1107	5.5300e-01	-2.1236	-6.684852	0.000470	4.704892	0.797030	-0.018816
1108	5.5350e-01	-2.1449	-6.796035	0.000556	5.560327	0.941945	-0.022237
1109	5.5400e-01	-2.1641	-6.892678	0.000483	4.833207	0.818767	-0.019329
1110	5.5450e-01	-2.1828	-6.987183	0.000473	4.726278	0.800653	-0.018901
1111	5.5500e-01	-2.2023	-7.099221	0.000560	5.603099	0.949191	-0.022408
1112	5.5550e-01	-2.2211	-7.198002	0.000494	4.940137	0.836882	-0.019756
1113	5.5600e-01	-2.2420	-7.294218	0.000481	4.811821	0.815145	-0.019243
1114	5.5650e-01	-2.2657	-7.404973	0.000554	5.538941	0.938322	-0.022151
1115	5.5700e-01	-2.2846	-7.495630	0.000453	4.533805	0.768047	-0.018131
1116	5.5750e-01	-2.3030	-7.596122	0.000503	5.025680	0.851373	-0.020098
1117	5.5800e-01	-2.3248	-7.692337	0.000481	4.811821	0.815145	-0.019243
1118	5.5850e-01	-2.3454	-7.777862	0.000428	4.277175	0.724573	-0.017105
1119	5.5900e-01	-2.3664	-7.897170	0.000597	5.966659	1.010779	-0.023861
1120	5.5950e-01	-2.3841	-7.990820	0.000468	4.683506	0.793407	-0.018730
1121	5.6000e-01	-2.4023	-8.099009	0.000541	5.410626	0.916585	-0.021638
1122	5.6050e-01	-2.4256	-8.188810	0.000449	4.491033	0.760802	-0.017960
1123	5.6100e-01	-2.4458	-8.289730	0.000505	5.047066	0.854996	-0.020184
1124	5.6150e-01	-2.4651	-8.401768	0.000560	5.603099	0.949191	-0.022408
1125	5.6200e-01	-2.4842	-8.493707	0.000460	4.597963	0.778916	-0.018388
1126	5.6250e-01	-2.5047	-8.595482	0.000509	5.089838	0.862242	-0.020355
1127	5.6300e-01	-2.5233	-8.705809	0.000552	5.517555	0.934699	-0.022065
1128	5.6350e-01	-2.5446	-8.797321	0.000458	4.576577	0.775293	-0.018302
1129	5.6400e-01	-2.5631	-8.887122	0.000449	4.491033	0.760802	-0.017960
1130	5.6450e-01	-2.5837	-8.988897	0.000509	5.089838	0.862242	-0.020355
1131	5.6500e-01	-2.6038	-9.088961	0.000500	5.004294	0.847750	-0.020013
1132	5.6550e-01	-2.6270	-9.177052	0.000441	4.405490	0.746310	-0.017618
1133	5.6600e-01	-2.6443	-9.287380	0.000552	5.517555	0.934699	-0.022065
1134	5.6650e-01	-2.6623	-9.368628	0.000406	4.063316	0.688344	-0.016250
1135	5.6700e-01	-2.6846	-9.472114	0.000518	5.175381	0.876733	-0.020697
1136	5.6750e-01	-2.7021	-9.572178	0.000500	5.004294	0.847750	-0.020013
1137	5.6800e-01	-2.7235	-9.674380	0.000511	5.111224	0.865865	-0.020440
1138	5.6850e-01	-2.7436	-9.769313	0.000475	4.747664	0.804276	-0.018987
1139	5.6900e-01	-2.7610	-9.868522	0.000496	4.961523	0.840505	-0.019842
1140	5.6950e-01	-2.7836	-9.960034	0.000458	4.576577	0.775293	-0.018302
1141	5.7000e-01	-2.8033	-10.052829	0.000464	4.640734	0.786162	-0.018559
1142	5.7050e-01	-2.8236	-10.164439	0.000558	5.581713	0.945568	-0.022322
1143	5.7100e-01	-2.8455	-10.253813	0.000447	4.469647	0.757179	-0.017875
1144	5.7150e-01	-2.8635	-10.345752	0.000460	4.597963	0.778916	-0.018388
1145	5.7200e-01	-2.8843	-10.455652	0.000550	5.496169	0.931076	-0.021980
1146	5.7250e-01	-2.9015	-10.549302	0.000468	4.683506	0.793407	-0.018730
1147	5.7300e-01	-2.9224	-10.648083	0.000494	4.940137	0.836882	-0.019756
1148	5.7350e-01	-2.9420	-10.744299	0.000481	4.811821	0.815145	-0.019243
1149	5.7400e-01	-2.9653	-10.828969	0.000423	4.234403	0.717327	-0.016934
1150	5.7450e-01	-2.9817	-10.937158	0.000541	5.410626	0.916585	-0.021638
1151	5.7500e-01	-3.0027	-11.026532	0.000447	4.469647	0.757179	-0.017875
1152	5.7550e-01	-3.0250	-11.125313	0.000494	4.940137	0.836882	-0.019756
1153	5.7600e-01	-3.0445	-11.223239	0.000490	4.897365	0.829636	-0.019585
1154	5.7650e-01	-3.0640	-11.314323	0.000456	4.555191	0.771670	-0.018217
1155	5.7700e-01	-3.0818	-11.414388	0.000500	5.004294	0.847750	-0.020013
1156	5.7750e-01	-3.1065	-11.509320	0.000475	4.747664	0.804276	-0.018987
1157	5.7800e-01	-3.1222	-11.605964	0.000483	4.833207	0.818767	-0.019329
1158	5.7850e-01	-3.1413	-11.705600	0.000498	4.982908	0.844128	-0.019927
1159	5.7900e-01	-3.1623	-11.797112	0.000458	4.576577	0.775293	-0.018302
1160	5.7950e-01	-3.1824	-11.882637	0.000428	4.277175	0.724573	-0.017105
1161	5.8000e-01	-3.2033	-11.973722	0.000456	4.555191	0.771670	-0.018217
1162	5.8050e-01	-3.2246	-12.081055	0.000537	5.367854	0.909339	-0.021467
1163	5.8100e-01	-3.2430	-12.164442	0.000417	4.170245	0.706459	-0.016677
1164	5.8150e-01	-3.2630	-12.264934	0.000503	5.025680	0.851373	-0.020098
1165	5.8200e-01	-3.2807	-12.362861	0.000490	4.897365	0.829636	-0.019585
1166	5.8250e-01	-3.3021	-12.445820	0.000415	4.148859	0.702836	-0.016592
1167	5.8300e-01	-3.3247	-12.553154	0.000537	5.367854	0.909339	-0.021467
1168	5.8350e-01	-3.3447	-12.646376	0.000466	4.662120	0.789785	-0.018644
1169	5.8400e-01	-3.3613	-12.737460	0.000456	4.555191	0.771670	-0.018217
1170	5.8450e-01	-3.3837	-12.833248	0.000479	4.790436	0.811522	-0.019158
1171	5.8500e-01	-3.4035	-12.916635	0.000417	4.170245	0.706459	-0.016677
1172	5.8550e-01	-3.4217	-13.014989	0.000492	4.918751	0.833259	-0.019671
1173	5.8600e-01	-3.4431	-13.106073	0.000456	4.555191	0.771670	-0.018217
1174	5.8650e-01	-3.4641	-13.209986	0.000520	5.196767	0.880356	-0.020783
1175	5.8700e-01	-3.4846	-13.290807	0.000404	4.041930	0.684721	-0.016164
1176	5.8750e-01	-3.5017	-13.377615	0.000434	4.341332	0.735442	-0.017362
1177	5.8800e-01	-3.5220	-13.485377	0.000539	5.389240	0.912962	-0.021552
1178	5.8850e-01	-3.5429	-13.574751	0.000447	4.469647	0.757179	-0.017875
1179	5.8900e-01	-3.5645	-13.661558	0.000434	4.341332	0.735442	-0.017362
1180	5.8950e-01	-3.5845	-13.756919	0.000477	4.769050	0.807899	-0.019072
1181	5.9000e-01	-3.6030	-13.842444	0.000428	4.277175	0.724573	-0.017105
1182	5.9050e-01	-3.6213	-13.942508	0.000500	5.004294	0.847750	-0.020013
1183	5.9100e-01	-3.6420	-14.032737	0.000451	4.512419	0.764425	-0.018046
1184	5.9150e-01	-3.6658	-14.117407	0.000423	4.234403	0.717327	-0.016934
1185	5.9200e-01	-3.6857	-14.214478	0.000485	4.854593	0.822390	-0.019414
1186	5.9250e-01	-3.7028	-14.310694	0.000481	4.811821	0.815145	-0.019243
1187	5.9300e-01	-3.7250	-14.397502	0.000434	4.341332	0.735442	-0.017362
1188	5.9350e-01	-3.7446	-14.492434	0.000475	4.747664	0.804276	-0.018987
1189	5.9400e-01	-3.7618	-14.581380	0.000445	4.448262	0.753556	-0.017789
1190	5.9450e-01	-3.7833	-14.666905	0.000428	4.277175	0.724573	-0.017105
1191	5.9500e-01	-3.8053	-14.770818	0.000520	5.196767	0.880356	-0.020783
1192	5.9550e-01	-3.8233	-14.854633	0.000419	4.191631	0.710082	-0.016763
1193	5.9600e-01	-3.8441	-14.941869	0.000436	4.362718	0.739064	-0.017447
1194	5.9650e-01	-3.8645	-15.030815	0.000445	4.448262	0.753556	-0.017789
1195	5.9700e-01	-3.8857	-15.121899	0.000456	4.555191	0.771670	-0.018217
1196	5.9750e-01	-3.9036	-15.231798	0.000550	5.496169	0.931076	-0.021980
1197	5.9800e-01	-3.9225	-15.305350	0.000368	3.678370	0.623133	-0.014710
1198	5.9850e-01	-3.9417	-15.387026	0.000408	4.084702	0.691967	-0.016335
1199	5.9900e-01	-3.9640	-15.481104	0.000470	4.704892	0.797030	-0.018816
1200	5.9950e-01	-3.9823	-15.567912	0.000434	4.341332	0.735442	-0.017362
1201	6.0000e-01	-4.0015	-15.670114	0.000511	5.111224	0.865865	-0.020440
1202	6.0050e-01	-4.0221	-15.741955	0.000359	3.592827	0.608641	-0.014368
1203	6.0100e-01	-4.0476	-15.859980	0.000590	5.902501	0.999911	-0.023605
1204	6.0150e-01	-4.0647	-15.930966	0.000355	3.550055	0.601396	-0.014197
1205	6.0200e-01	-4.0842	-16.016491	0.000428	4.277175	0.724573	-0.017105
1206	6.0250e-01	-4.1056	-16.109713	0.000466	4.662120	0.789785	-0.018644
1207	6.0300e-01	-4.1230	-16.199942	0.000451	4.512419	0.764425	-0.018046
1208	6.0350e-01	-4.1447	-16.288888	0.000445	4.448262	0.753556	-0.017789
1209	6.0400e-01	-4.1615	-16.382966	0.000470	4.704892	0.797030	-0.018816
1210	6.0450e-01	-4.1816	-16.463787	0.000404	4.041930	0.684721	-0.016164
1211	6.0500e-01	-4.2048	-16.541615	0.000389	3.892229	0.659361	-0.015566
1212	6.0550e-01	-4.2243	-16.638258	0.000483	4.833207	0.818767	-0.019329
1213	6.0600e-01	-4.2469	-16.714803	0.000383	3.828071	0.648493	-0.015309
1214	6.0650e-01	-4.2646	-16.817861	0.000515	5.153995	0.873110	-0.020612
1215	6.0700e-01	-4.2829	-16.892267	0.000372	3.721142	0.630379	-0.014881
1216	6.0750e-01	-4.3037	-16.981641	0.000447	4.469647	0.757179	-0.017875
1217	6.0800e-01	-4.3214	-17.070587	0.000445	4.448262	0.753556	-0.017789
1218	6.0850e-01	-4.3464	-17.154402	0.000419	4.191631	0.710082	-0.016763
1219	6.0900e-01	-4.3667	-17.233085	0.000394	3.935001	0.666607	-0.015737
1220	6.0950e-01	-4.3848	-17.333577	0.000503	5.025680	0.851373	-0.020098
1221	6.1000e-01	-4.4047	-17.413970	0.000402	4.020544	0.681099	-0.016079
1222	6.1050e-01	-4.4260	-17.508903	0.000475	4.747664	0.804276	-0.018987
1223	6.1100e-01	-4.4459	-17.596566	0.000438	4.384104	0.742687	-0.017533
1224	6.1150e-01	-4.4642	-17.680381	0.000419	4.191631	0.710082	-0.016763
1225	6.1200e-01	-4.4868	-17.765478	0.000426	4.255789	0.720950	-0.017019
1226	6.1250e-01	-4.5051	-17.848865	0.000417	4.170245	0.706459	-0.016677
1227	6.1300e-01	-4.5234	-17.931824	0.000415	4.148859	0.702836	-0.016592
1228	6.1350e-01	-4.5441	-18.022909	0.000456	4.555191	0.771670	-0.018217
1229	6.1400e-01	-4.5637	-18.108006	0.000426	4.255789	0.720950	-0.017019
1230	6.1450e-01	-4.5832	-18.183696	0.000379	3.785300	0.641247	-0.015138
1231	6.1500e-01	-4.6027	-18.285043	0.000507	5.068452	0.858619	-0.020269
1232	6.1550e-01	-4.6244	-18.353891	0.000344	3.443126	0.583281	-0.013770
1233	6.1600e-01	-4.6436	-18.462507	0.000543	5.432012	0.920208	-0.021723
1234	6.1650e-01	-4.6626	-18.527506	0.000325	3.250653	0.550675	-0.013000
1235	6.1700e-01	-4.6864	-18.606617	0.000396	3.956387	0.670230	-0.015822
1236	6.1750e-01	-4.7053	-18.702833	0.000481	4.811821	0.815145	-0.019243
1237	6.1800e-01	-4.7231	-18.793917	0.000456	4.555191	0.771670	-0.018217
1238	6.1850e-01	-4.7428	-18.880297	0.000432	4.319946	0.731819	-0.017276
1239	6.1900e-01	-4.7663	-18.954704	0.000372	3.721142	0.630379	-0.014881
1240	6.1950e-01	-4.7823	-19.042367	0.000438	4.384104	0.742687	-0.017533
1241	6.2000e-01	-4.8055	-19.125327	0.000415	4.148859	0.702836	-0.016592
1242	6.2050e-01	-4.8209	-19.215556	0.000451	4.512419	0.764425	-0.018046
1243	6.2100e-01	-4.8463	-19.292528	0.000385	3.849457	0.652116	-0.015395
1244	6.2150e-01	-4.8637	-19.383185	0.000453	4.533805	0.768047	-0.018131
1245	6.2200e-01	-4.8847	-19.464861	0.000408	4.084702	0.691967	-0.016335
1246	6.2250e-01	-4.9036	-19.541406	0.000383	3.828071	0.648493	-0.015309
1247	6.2300e-01	-4.9244	-19.628214	0.000434	4.341332	0.735442	-0.017362
1248	6.2350e-01	-4.9427	-19.701338	0.000366	3.656984	0.619510	-0.014625
1249	6.2400e-01	-4.9644	-19.804396	0.000515	5.153995	0.873110	-0.020612
1250	6.2450e-01	-4.9848	-19.874098	0.000349	3.485897	0.590527	-0.013941
1251	6.2500e-01	-5.0053	-19.957058	0.000415	4.148859	0.702836	-0.016592
1252	6.2550e-01	-5.0239	-20.041300	0.000421	4.213017	0.713704	-0.016848
1253	6.2600e-01	-5.0410	-20.122549	0.000406	4.063316	0.688344	-0.016250
1254	6.2650e-01	-5.0639	-20.206791	0.000421	4.213017	0.713704	-0.016848
1255	6.2700e-01	-5.0819	-20.283763	0.000385	3.849457	0.652116	-0.015395
1256	6.2750e-01	-5.1032	-20.363302	0.000398	3.977772	0.673853	-0.015908
1257	6.2800e-01	-5.1243	-20.449682	0.000432	4.319946	0.731819	-0.017276
1258	6.2850e-01	-5.1429	-20.532214	0.000413	4.127473	0.699213	-0.016506
1259	6.2900e-01	-5.1655	-20.612180	0.000400	3.999158	0.677476	-0.015993
1260	6.2950e-01	-5.1823	-20.697277	0.000426	4.255789	0.720950	-0.017019
1261	6.3000e-01	-5.2033	-20.783657	0.000432	4.319946	0.731819	-0.017276
1262	6.3050e-01	-5.2250	-20.854643	0.000355	3.550055	0.601396	-0.014197
1263	6.3100e-01	-5.2464	-20.931616	0.000385	3.849457	0.652116	-0.015395
1264	6.3150e-01	-5.2650	-21.015858	0.000421	4.213017	0.713704	-0.016848
1265	6.3200e-01	-5.2833	-21.086844	0.000355	3.550055	0.601396	-0.014197
1266	6.3250e-01	-5.3043	-21.185625	0.000494	4.940137	0.836882	-0.019756
1267	6.3300e-01	-5.3248	-21.253618	0.000340	3.400354	0.576036	-0.013598
1268	6.3350e-01	-5.3449	-21.339570	0.000430	4.298560	0.728196	-0.017191
1269	6.3400e-01	-5.3645	-21.414405	0.000374	3.742528	0.634001	-0.014967
1270	6.3450e-01	-5.3831	-21.499930	0.000428	4.277175	0.724573	-0.017105
1271	6.3500e-01	-5.4044	-21.576902	0.000385	3.849457	0.652116	-0.015395
1272	6.3550e-01	-5.4249	-21.656013	0.000396	3.956387	0.670230	-0.015822
1273	6.3600e-01	-5.4433	-21.732986	0.000385	3.849457	0.652116	-0.015395
1274	6.3650e-01	-5.4658	-21.812951	0.000400	3.999158	0.677476	-0.015993
1275	6.3700e-01	-5.4850	-21.892917	0.000400	3.999158	0.677476	-0.015993
1276	6.3750e-01	-5.5033	-21.977160	0.000421	4.213017	0.713704	-0.016848
1277	6.3800e-01	-5.5250	-22.071665	0.000473	4.726278	0.800653	-0.018901
1278	6.3850e-01	-5.5451	-22.130249	0.000293	2.929865	0.496333	-0.011717
1279	6.3900e-01	-5.5640	-22.205511	0.000376	3.763914	0.637624	-0.015052
1280	6.3950e-01	-5.5839	-22.300017	0.000473	4.726278	0.800653	-0.018901
1281	6.4000e-01	-5.6062	-22.373568	0.000368	3.678370	0.623133	-0.014710
1282	6.4050e-01	-5.6220	-22.456100	0.000413	4.127473	0.699213	-0.016506
1283	6.4100e-01	-5.6437	-22.521527	0.000327	3.272039	0.554298	-0.013085
1284	6.4150e-01	-5.6647	-22.613038	0.000458	4.576577	0.775293	-0.018302
1285	6.4200e-01	-5.6855	-22.683169	0.000351	3.507283	0.594150	-0.014026
1286	6.4250e-01	-5.7063	-22.762280	0.000396	3.956387	0.670230	-0.015822
1287	6.4300e-01	-5.7233	-22.851653	0.000447	4.469647	0.757179	-0.017875
1288	6.4350e-01	-5.7435	-22.912376	0.000304	3.036794	0.514447	-0.012145
1289	6.4400e-01	-5.7636	-23.005598	0.000466	4.662120	0.789785	-0.018644
1290	6.4450e-01	-5.7838	-23.079150	0.000368	3.678370	0.623133	-0.014710
1291	6.4500e-01	-5.8039	-23.151846	0.000364	3.635598	0.615887	-0.014539
1292	6.4550e-01	-5.8247	-23.231384	0.000398	3.977772	0.673853	-0.015908
1293	6.4600e-01	-5.8460	-23.308357	0.000385	3.849457	0.652116	-0.015395
1294	6.4650e-01	-5.8656	-23.391316	0.000415	4.148859	0.702836	-0.016592
1295	6.4700e-01	-5.8833	-23.454605	0.000317	3.165109	0.536184	-0.012658
1296	6.4750e-01	-5.9071	-23.547827	0.000466	4.662120	0.789785	-0.018644
1297	6.4800e-01	-5.9241	-23.632925	0.000426	4.255789	0.720950	-0.017019
1298	6.4850e-01	-5.9449	-23.697068	0.000321	3.207881	0.543430	-0.012829
1299	6.4900e-01	-5.9675	-23.774041	0.000385	3.849457	0.652116	-0.015395
1300	6.4950e-01	-5.9837	-23.842461	0.000342	3.421740	0.579658	-0.013684
1301	6.5000e-01	-6.0065	-23.919006	0.000383	3.828071	0.648493	-0.015309
1302	6.5050e-01	-6.0242	-24.007097	0.000441	4.405490	0.746310	-0.017618
1303	6.5100e-01	-6.0453	-24.081931	0.000374	3.742528	0.634001	-0.014967
1304	6.5150e-01	-6.0651	-24.160614	0.000394	3.935001	0.666607	-0.015737
1305	6.5200e-01	-6.0835	-24.232028	0.000357	3.571441	0.605018	-0.014283
1306	6.5250e-01	-6.1039	-24.311138	0.000396	3.956387	0.670230	-0.015822
1307	6.5300e-01	-6.1256	-24.383835	0.000364	3.635598	0.615887	-0.014539
1308	6.5350e-01	-6.1434	-24.462945	0.000396	3.956387	0.670230	-0.015822
1309	6.5400e-01	-6.1643	-24.555312	0.000462	4.619349	0.782539	-0.018473
1310	6.5450e-01	-6.1842	-24.621594	0.000331	3.314810	0.561544	-0.013256
1311	6.5500e-01	-6.2037	-24.694291	0.000364	3.635598	0.615887	-0.014539
1312	6.5550e-01	-6.2254	-24.775539	0.000406	4.063316	0.688344	-0.016250
1313	6.5600e-01	-6.2434	-24.848236	0.000364	3.635598	0.615887	-0.014539
1314	6.5650e-01	-6.2635	-24.926919	0.000394	3.935001	0.666607	-0.015737
1315	6.5700e-01	-6.2867	-24.994483	0.000338	3.378968	0.572413	-0.013513
1316	6.5750e-01	-6.3056	-25.077015	0.000413	4.127473	0.699213	-0.016506
1317	6.5800e-01	-6.3276	-25.155271	0.000391	3.913615	0.662984	-0.015651
1318	6.5850e-01	-6.3435	-25.220697	0.000327	3.272039	0.554298	-0.013085
1319	6.5900e-01	-6.3636	-25.301518	0.000404	4.041930	0.684721	-0.016164
1320	6.5950e-01	-6.3853	-25.367373	0.000329	3.293424	0.557921	-0.013171
1321	6.6000e-01	-6.4030	-25.452043	0.000423	4.234403	0.717327	-0.016934
1322	6.6050e-01	-6.4252	-25.526449	0.000372	3.721142	0.630379	-0.014881
1323	6.6100e-01	-6.4433	-25.602139	0.000379	3.785300	0.641247	-0.015138
1324	6.6150e-01	-6.4631	-25.676118	0.000370	3.699756	0.626756	-0.014796
1325	6.6200e-01	-6.4851	-25.750953	0.000374	3.742528	0.634001	-0.014967
1326	6.6250e-01	-6.5046	-25.826642	0.000379	3.785300	0.641247	-0.015138
1327	6.6300e-01	-6.5237	-25.903615	0.000385	3.849457	0.652116	-0.015395
1328	6.6350e-01	-6.5412	-25.975883	0.000361	3.614213	0.612264	-0.014454
1329	6.6400e-01	-6.5653	-26.052428	0.000383	3.828071	0.648493	-0.015309
1330	6.6450e-01	-6.5841	-26.124697	0.000361	3.614213	0.612264	-0.014454
1331	6.6500e-01	-6.6007	-26.204663	0.000400	3.999158	0.677476	-0.015993
1332	6.6550e-01	-6.6248	-26.282491	0.000389	3.892229	0.659361	-0.015566
1333	6.6600e-01	-6.6451	-26.356042	0.000368	3.678370	0.623133	-0.014710
1334	6.6650e-01	-6.6633	-26.437291	0.000406	4.063316	0.688344	-0.016250
1335	6.6700e-01	-6.6874	-26.506139	0.000344	3.443126	0.583281	-0.013770
1336	6.6750e-01	-6.7036	-26.588671	0.000413	4.127473	0.699213	-0.016506
1337	6.6800e-01	-6.7225	-26.662650	0.000370	3.699756	0.626756	-0.014796
1338	6.6850e-01	-6.7451	-26.734063	0.000357	3.571441	0.605018	-0.014283
1339	6.6900e-01	-6.7643	-26.799490	0.000327	3.272039	0.554298	-0.013085
1340	6.6950e-01	-6.7878	-26.876035	0.000383	3.828071	0.648493	-0.015309
1341	6.7000e-01	-6.8049	-26.964126	0.000441	4.405490	0.746310	-0.017618
1342	6.7050e-01	-6.8256	-27.037249	0.000366	3.656984	0.619510	-0.014625
1343	6.7100e-01	-6.8423	-27.118071	0.000404	4.041930	0.684721	-0.016164
1344	6.7150e-01	-6.8647	-27.187346	0.000346	3.464511	0.586904	-0.013855
1345	6.7200e-01	-6.8885	-27.263036	0.000379	3.785300	0.641247	-0.015138
1346	6.7250e-01	-6.9044	-27.342146	0.000396	3.956387	0.670230	-0.015822
1347	6.7300e-01	-6.9257	-27.419546	0.000387	3.870843	0.655739	-0.015480
1348	6.7350e-01	-6.9440	-27.496091	0.000383	3.828071	0.648493	-0.015309
1349	6.7400e-01	-6.9648	-27.565794	0.000349	3.485897	0.590527	-0.013941
1350	6.7450e-01	-6.9843	-27.638063	0.000361	3.614213	0.612264	-0.014454
1351	6.7500e-01	-7.0046	-27.700924	0.000314	3.143723	0.532561	-0.012572
1352	6.7550e-01	-7.0240	-27.807403	0.000533	5.325082	0.902093	-0.021296
1353	6.7600e-01	-7.0441	-27.865132	0.000289	2.887093	0.489087	-0.011546
1354	6.7650e-01	-7.0637	-27.948519	0.000417	4.170245	0.706459	-0.016677
1355	6.7700e-01	-7.0832	-28.022498	0.000370	3.699756	0.626756	-0.014796
1356	6.7750e-01	-7.1040	-28.089635	0.000336	3.357582	0.568790	-0.013427
1357	6.7800e-01	-7.1253	-28.179864	0.000451	4.512419	0.764425	-0.018046
1358	6.7850e-01	-7.1467	-28.245291	0.000327	3.272039	0.554298	-0.013085
1359	6.7900e-01	-7.1644	-28.331671	0.000432	4.319946	0.731819	-0.017276
1360	6.7950e-01	-7.1845	-28.409499	0.000389	3.892229	0.659361	-0.015566
1361	6.8000e-01	-7.2056	-28.483050	0.000368	3.678370	0.623133	-0.014710
1362	6.8050e-01	-7.2266	-28.564727	0.000408	4.084702	0.691967	-0.016335
1363	6.8100e-01	-7.2439	-28.621173	0.000282	2.822935	0.478218	-0.011289
1364	6.8150e-01	-7.2660	-28.712685	0.000458	4.576577	0.775293	-0.018302
1365	6.8200e-01	-7.2846	-28.791796	0.000396	3.956387	0.670230	-0.015822
1366	6.8250e-01	-7.3048	-28.866203	0.000372	3.721142	0.630379	-0.014881
1367	6.8300e-01	-7.3243	-28.964984	0.000494	4.940137	0.836882	-0.019756
1368	6.8350e-01	-7.3432	-29.018437	0.000267	2.673234	0.452858	-0.010691
1369	6.8400e-01	-7.3640	-29.100114	0.000408	4.084702	0.691967	-0.016335
1370	6.8450e-01	-7.3841	-29.178797	0.000394	3.935001	0.666607	-0.015737
1371	6.8500e-01	-7.4036	-29.255769	0.000385	3.849457	0.652116	-0.015395
1372	6.8550e-01	-7.4244	-29.331887	0.000381	3.806685	0.644870	-0.015223
1373	6.8600e-01	-7.4445	-29.409714	0.000389	3.892229	0.659361	-0.015566
1374	6.8650e-01	-7.4641	-29.486259	0.000383	3.828071	0.648493	-0.015309
1375	6.8700e-01	-7.4830	-29.556818	0.000353	3.528669	0.597773	-0.014112
1376	6.8750e-01	-7.5037	-29.642770	0.000430	4.298560	0.728196	-0.017191
1377	6.8800e-01	-7.5269	-29.728295	0.000428	4.277175	0.724573	-0.017105
1378	6.8850e-01	-7.5446	-29.795432	0.000336	3.357582	0.568790	-0.013427
1379	6.8900e-01	-7.5629	-29.870694	0.000376	3.763914	0.637624	-0.015052
1380	6.8950e-01	-7.5861	-29.947239	0.000383	3.828071	0.648493	-0.015309
1381	6.9000e-01	-7.6008	-30.032764	0.000428	4.277175	0.724573	-0.017105
1382	6.9050e-01	-7.6221	-30.113586	0.000404	4.041930	0.684721	-0.016164
1383	6.9100e-01	-7.6435	-30.178585	0.000325	3.250653	0.550675	-0.013000
1384	6.9150e-01	-7.6627	-30.268386	0.000449	4.491033	0.760802	-0.017960
1385	6.9200e-01	-7.6826	-30.335523	0.000336	3.357582	0.568790	-0.013427
1386	6.9250e-01	-7.7070	-30.416772	0.000406	4.063316	0.688344	-0.016250
1387	6.9300e-01	-7.7216	-30.505718	0.000445	4.448262	0.753556	-0.017789
1388	6.9350e-01	-7.7442	-30.580552	0.000374	3.742528	0.634001	-0.014967
1389	6.9400e-01	-7.7631	-30.664367	0.000419	4.191631	0.710082	-0.016763
1390	6.9450e-01	-7.7845	-30.736208	0.000359	3.592827	0.608641	-0.014368
1391	6.9500e-01	-7.8040	-30.827720	0.000458	4.576577	0.775293	-0.018302
1392	6.9550e-01	-7.8243	-30.900416	0.000364	3.635598	0.615887	-0.014539
1393	6.9600e-01	-7.8431	-30.976961	0.000383	3.828071	0.648493	-0.015309
1394	6.9650e-01	-7.8638	-31.056927	0.000400	3.999158	0.677476	-0.015993
1395	6.9700e-01	-7.8834	-31.136038	0.000396	3.956387	0.670230	-0.015822
1396	6.9750e-01	-7.9053	-31.215148	0.000396	3.956387	0.670230	-0.015822
1397	6.9800e-01	-7.9234	-31.299391	0.000421	4.213017	0.713704	-0.016848
1398	6.9850e-01	-7.9447	-31.373370	0.000370	3.699756	0.626756	-0.014796
1399	6.9900e-01	-7.9633	-31.461888	0.000443	4.426876	0.749933	-0.017704
1400	6.9950e-01	-7.9823	-31.531163	0.000346	3.464511	0.586904	-0.013855
1401	7.0000e-01	-8.0018	-31.620109	0.000445	4.448262	0.753556	-0.017789
1402	7.0050e-01	-8.0244	-31.697082	0.000385	3.849457	0.652116	-0.015395
1403	7.0100e-01	-8.0445	-31.781324	0.000421	4.213017	0.713704	-0.016848
1404	7.0150e-01	-8.0662	-31.849317	0.000340	3.400354	0.576036	-0.013598
1405	7.0200e-01	-8.0848	-31.939973	0.000453	4.533805	0.768047	-0.018131
1406	7.0250e-01	-8.1055	-32.026354	0.000432	4.319946	0.731819	-0.017276
1407	7.0300e-01	-8.1226	-32.107175	0.000404	4.041930	0.684721	-0.016164
1408	7.0350e-01	-8.1443	-32.181581	0.000372	3.721142	0.630379	-0.014881
1409	7.0400e-01	-8.1641	-32.271383	0.000449	4.491033	0.760802	-0.017960
1410	7.0450e-01	-8.1843	-32.345362	0.000370	3.699756	0.626756	-0.014796
1411	7.0500e-01	-8.2064	-32.424900	0.000398	3.977772	0.673853	-0.015908
1412	7.0550e-01	-8.2243	-32.518123	0.000466	4.662120	0.789785	-0.018644
1413	7.0600e-01	-8.2441	-32.601082	0.000415	4.148859	0.702836	-0.016592
1414	7.0650e-01	-8.2670	-32.680193	0.000396	3.956387	0.670230	-0.015822
1415	7.0700e-01	-8.2874	-32.750323	0.000351	3.507283	0.594150	-0.014026
1416	7.0750e-01	-8.3024	-32.837559	0.000436	4.362718	0.739064	-0.017447
1417	7.0800e-01	-8.3244	-32.923939	0.000432	4.319946	0.731819	-0.017276
1418	7.0850e-01	-8.3460	-33.013313	0.000447	4.469647	0.757179	-0.017875
1419	7.0900e-01	-8.3616	-33.098838	0.000428	4.277175	0.724573	-0.017105
1420	7.0950e-01	-8.3851	-33.174527	0.000379	3.785300	0.641247	-0.015138
1421	7.1000e-01	-8.4058	-33.268605	0.000470	4.704892	0.797030	-0.018816
1422	7.1050e-01	-8.4248	-33.334887	0.000331	3.314810	0.561544	-0.013256
1423	7.1100e-01	-8.4446	-33.428109	0.000466	4.662120	0.789785	-0.018644
1424	7.1150e-01	-8.4660	-33.502516	0.000372	3.721142	0.630379	-0.014881
1425	7.1200e-01	-8.4834	-33.590179	0.000438	4.384104	0.742687	-0.017533
1426	7.1250e-01	-8.5011	-33.678270	0.000441	4.405490	0.746310	-0.017618
1427	7.1300e-01	-8.5255	-33.756953	0.000394	3.935001	0.666607	-0.015737
1428	7.1350e-01	-8.5444	-33.851458	0.000473	4.726278	0.800653	-0.018901
1429	7.1400e-01	-8.5596	-33.922016	0.000353	3.528669	0.597773	-0.014112
1430	7.1450e-01	-8.5847	-34.007969	0.000430	4.298560	0.728196	-0.017191
1431	7.1500e-01	-8.6048	-34.097343	0.000447	4.469647	0.757179	-0.017875
1432	7.1550e-01	-8.6231	-34.174315	0.000385	3.849457	0.652116	-0.015395
1433	7.1600e-01	-8.6433	-34.256847	0.000413	4.127473	0.699213	-0.016506
1434	7.1650e-01	-8.6646	-34.342372	0.000428	4.277175	0.724573	-0.017105
1435	7.1700e-01	-8.6817	-34.431318	0.000445	4.448262	0.753556	-0.017789
1436	7.1750e-01	-8.7058	-34.511284	0.000400	3.999158	0.677476	-0.015993
1437	7.1800e-01	-8.7232	-34.589112	0.000389	3.892229	0.659361	-0.015566
1438	7.1850e-01	-8.7434	-34.674637	0.000428	4.277175	0.724573	-0.017105
1439	7.1900e-01	-8.7666	-34.758879	0.000421	4.213017	0.713704	-0.016848
1440	7.1950e-01	-8.7843	-34.854667	0.000479	4.790436	0.811522	-0.019158
1441	7.2000e-01	-8.8068	-34.943186	0.000443	4.426876	0.749933	-0.017704
1442	7.2050e-01	-8.8245	-35.008185	0.000325	3.250653	0.550675	-0.013000
1443	7.2100e-01	-8.8477	-35.113380	0.000526	5.260925	0.891225	-0.021039
1444	7.2150e-01	-8.8648	-35.200616	0.000436	4.362718	0.739064	-0.017447
1445	7.2200e-01	-8.8831	-35.284003	0.000417	4.170245	0.706459	-0.016677
1446	7.2250e-01	-8.9045	-35.364396	0.000402	4.020544	0.681099	-0.016079
1447	7.2300e-01	-8.9240	-35.450349	0.000430	4.298560	0.728196	-0.017191
1448	7.2350e-01	-8.9454	-35.524328	0.000370	3.699756	0.626756	-0.014796
1449	7.2400e-01	-8.9643	-35.615840	0.000458	4.576577	0.775293	-0.018302
1450	7.2450e-01	-8.9863	-35.700082	0.000421	4.213017	0.713704	-0.016848
1451	7.2500e-01	-9.0064	-35.784752	0.000423	4.234403	0.717327	-0.016934
1452	7.2550e-01	-9.0229	-35.871988	0.000436	4.362718	0.739064	-0.017447
1453	7.2600e-01	-9.0437	-35.971197	0.000496	4.961523	0.840505	-0.019842
1454	7.2650e-01	-9.0644	-36.043465	0.000361	3.614213	0.612264	-0.014454
1455	7.2700e-01	-9.0858	-36.148661	0.000526	5.260925	0.891225	-0.021039
1456	7.2750e-01	-9.1047	-36.225634	0.000385	3.849457	0.652116	-0.015395
1457	7.2800e-01	-9.1254	-36.313725	0.000441	4.405490	0.746310	-0.017618
1458	7.2850e-01	-9.1456	-36.397111	0.000417	4.170245	0.706459	-0.016677
1459	7.2900e-01	-9.1651	-36.495038	0.000490	4.897365	0.829636	-0.019585
1460	7.2950e-01	-9.1865	-36.569017	0.000370	3.699756	0.626756	-0.014796
1461	7.3000e-01	-9.2042	-36.662667	0.000468	4.683506	0.793407	-0.018730
1462	7.3050e-01	-9.2268	-36.749902	0.000436	4.362718	0.739064	-0.017447
1463	7.3100e-01	-9.2457	-36.824309	0.000372	3.721142	0.630379	-0.014881
1464	7.3150e-01	-9.2667	-36.909407	0.000426	4.255789	0.720950	-0.017019
1465	7.3200e-01	-9.2847	-37.015885	0.000533	5.325082	0.902093	-0.021296
1466	7.3250e-01	-9.3049	-37.099272	0.000417	4.170245	0.706459	-0.016677
1467	7.3300e-01	-9.3232	-37.199764	0.000503	5.025680	0.851373	-0.020098
1468	7.3350e-01	-9.3433	-37.288283	0.000443	4.426876	0.749933	-0.017704
1469	7.3400e-01	-9.3626	-37.373808	0.000428	4.277175	0.724573	-0.017105
1470	7.3450e-01	-9.3842	-37.459333	0.000428	4.277175	0.724573	-0.017105
1471	7.3500e-01	-9.4044	-37.542292	0.000415	4.148859	0.702836	-0.016592
1472	7.3550e-01	-9.4245	-37.638508	0.000481	4.811821	0.815145	-0.019243
1473	7.3600e-01	-9.4453	-37.724460	0.000430	4.298560	0.728196	-0.017191
1474	7.3650e-01	-9.4642	-37.821104	0.000483	4.833207	0.818767	-0.019329
1475	7.3700e-01	-9.4831	-37.903635	0.000413	4.127473	0.699213	-0.016506
1476	7.3750e-01	-9.5057	-37.974193	0.000353	3.528669	0.597773	-0.014112
1477	7.3800e-01	-9.5264	-38.080245	0.000530	5.303697	0.898471	-0.021210
1478	7.3850e-01	-9.5448	-38.164059	0.000419	4.191631	0.710082	-0.016763
1479	7.3900e-01	-9.5655	-38.256854	0.000464	4.640734	0.786162	-0.018559
1480	7.3950e-01	-9.5838	-38.347083	0.000451	4.512419	0.764425	-0.018046
1481	7.4000e-01	-9.6033	-38.438167	0.000456	4.555191	0.771670	-0.018217
1482	7.4050e-01	-9.6235	-38.538659	0.000503	5.025680	0.851373	-0.020098
1483	7.4100e-01	-9.6455	-38.615631	0.000385	3.849457	0.652116	-0.015395
1484	7.4150e-01	-9.6650	-38.705860	0.000451	4.512419	0.764425	-0.018046
1485	7.4200e-01	-9.6827	-38.798655	0.000464	4.640734	0.786162	-0.018559
1486	7.4250e-01	-9.7041	-38.888456	0.000449	4.491033	0.760802	-0.017960
1487	7.4300e-01	-9.7242	-38.985100	0.000483	4.833207	0.818767	-0.019329
1488	7.4350e-01	-9.7437	-39.076184	0.000456	4.555191	0.771670	-0.018217
1489	7.4400e-01	-9.7648	-39.162992	0.000434	4.341332	0.735442	-0.017362
1490	7.4450e-01	-9.7825	-39.254504	0.000458	4.576577	0.775293	-0.018302
1491	7.4500e-01	-9.8042	-39.351147	0.000483	4.833207	0.818767	-0.019329
1492	7.4550e-01	-9.8231	-39.437100	0.000430	4.298560	0.728196	-0.017191
1493	7.4600e-01	-9.8438	-39.530322	0.000466	4.662120	0.789785	-0.018644
1494	7.4650e-01	-9.8652	-39.621834	0.000458	4.576577	0.775293	-0.018302
1495	7.4700e-01	-9.8847	-39.718477	0.000483	4.833207	0.818767	-0.019329
1496	7.4750e-01	-9.9061	-39.804002	0.000428	4.277175	0.724573	-0.017105
1497	7.4800e-01	-9.9238	-39.896369	0.000462	4.619349	0.782539	-0.018473
1498	7.4850e-01	-9.9439	-39.990874	0.000473	4.726278	0.800653	-0.018901
1499	7.4900e-01	-9.9665	-40.083669	0.000464	4.640734	0.786162	-0.018559
1500	7.4950e-01	-9.9805	-40.180740	0.000485	4.854593	0.822390	-0.019414
1501	7.5000e-01	-10.0000	-40.267548	0.000434	4.341332	0.735442	-0.017362
1502	7.5050e-01	-9.9854	-40.253436	0.000071	0.705734	0.119555	0.002822
1503	7.5100e-01	-9.9616	-40.245739	0.000038	0.384946	0.065212	0.001539
1504	7.5150e-01	-9.9464	-40.248732	-0.000015	-0.149701	-0.025360	-0.000599
1505	7.5200e-01	-9.9229	-40.236331	0.000062	0.620190	0.105063	0.002480
1506	7.5250e-01	-9.9049	-40.217516	0.000094	0.940978	0.159406	0.003763
1507	7.5300e-01	-9.8841	-40.211529	0.000030	0.299402	0.050720	0.001197
1508	7.5350e-01	-9.8652	-40.187582	0.000120	1.197609	0.202880	0.004789
1509	7.5400e-01	-9.8475	-40.179029	0.000043	0.427717	0.072457	0.001711
1510	7.5450e-01	-9.8240	-40.145247	0.000169	1.689484	0.286206	0.006756
1511	7.5500e-01	-9.7987	-40.141826	0.000017	0.171087	0.028983	0.000684
1512	7.5550e-01	-9.7852	-40.109754	0.000160	1.603940	0.271715	0.006414
1513	7.5600e-01	-9.7639	-40.093504	0.000081	0.812663	0.137669	0.003250
1514	7.5650e-01	-9.7449	-40.056729	0.000184	1.839185	0.311566	0.007355
1515	7.5700e-01	-9.7272	-40.031926	0.000124	1.240381	0.210126	0.004960
1516	7.5750e-01	-9.7062	-40.005841	0.000130	1.304538	0.220995	0.005217
1517	7.5800e-01	-9.6833	-39.975052	0.000154	1.539783	0.260846	0.006158
1518	7.5850e-01	-9.6632	-39.964361	0.000053	0.534647	0.090572	0.002138
1519	7.5900e-01	-9.6461	-39.930151	0.000171	1.710870	0.289829	0.006842
1520	7.5950e-01	-9.6235	-39.894231	0.000180	1.796413	0.304321	0.007184
1521	7.6000e-01	-9.6064	-39.869001	0.000126	1.261767	0.213749	0.005046
1522	7.6050e-01	-9.5820	-39.842488	0.000133	1.325924	0.224618	0.005303
1523	7.6100e-01	-9.5649	-39.805713	0.000184	1.839185	0.311566	0.007355
1524	7.6150e-01	-9.5429	-39.768937	0.000184	1.839185	0.311566	0.007355
1525	7.6200e-01	-9.5240	-39.748411	0.000103	1.026522	0.173898	0.004105
1526	7.6250e-01	-9.5051	-39.709497	0.000195	1.946114	0.329681	0.007783
1527	7.6300e-01	-9.4843	-39.680418	0.000145	1.454239	0.246355	0.005816
1528	7.6350e-01	-9.4642	-39.636801	0.000218	2.181359	0.369532	0.008724
1529	7.6400e-01	-9.4459	-39.588051	0.000244	2.437990	0.413007	0.009750
1530	7.6450e-01	-9.4227	-39.573084	0.000075	0.748506	0.126800	0.002993
1531	7.6500e-01	-9.4038	-39.543151	0.000150	1.497011	0.253601	0.005987
1532	7.6550e-01	-9.3848	-39.496967	0.000231	2.309674	0.391269	0.009237
1533	7.6600e-01	-9.3641	-39.454205	0.000214	2.138587	0.362286	0.008553
1534	7.6650e-01	-9.3446	-39.425981	0.000141	1.411468	0.239109	0.005645
1535	7.6700e-01	-9.3262	-39.387067	0.000195	1.946114	0.329681	0.007783
1536	7.6750e-01	-9.3064	-39.340884	0.000231	2.309674	0.391269	0.009237
1537	7.6800e-01	-9.2829	-39.316082	0.000124	1.240381	0.210126	0.004960
1538	7.6850e-01	-9.2634	-39.270753	0.000227	2.266903	0.384024	0.009066
1539	7.6900e-01	-9.2469	-39.230984	0.000199	1.988886	0.336926	0.007954
1540	7.6950e-01	-9.2268	-39.193781	0.000186	1.860571	0.315189	0.007441
1541	7.7000e-01	-9.2036	-39.150163	0.000218	2.181359	0.369532	0.008724
1542	7.7050e-01	-9.1865	-39.118946	0.000156	1.561169	0.264469	0.006243
1543	7.7100e-01	-9.1645	-39.074473	0.000222	2.224131	0.376778	0.008895
1544	7.7150e-01	-9.1462	-39.035559	0.000195	1.946114	0.329681	0.007783
1545	7.7200e-01	-9.1242	-38.987238	0.000242	2.416604	0.409384	0.009664
1546	7.7250e-01	-9.1022	-38.947896	0.000197	1.967500	0.333304	0.007868
1547	7.7300e-01	-9.0845	-38.917962	0.000150	1.497011	0.253601	0.005987
1548	7.7350e-01	-9.0638	-38.867503	0.000252	2.523533	0.427498	0.010092
1549	7.7400e-01	-9.0449	-38.832010	0.000178	1.775027	0.300698	0.007099
1550	7.7450e-01	-9.0241	-38.793523	0.000192	1.924729	0.326058	0.007697
1551	7.7500e-01	-9.0052	-38.733656	0.000299	2.994022	0.507201	0.011974
1552	7.7550e-01	-8.9826	-38.702012	0.000158	1.582555	0.268092	0.006329
1553	7.7600e-01	-8.9631	-38.661815	0.000201	2.010272	0.340549	0.008039
1554	7.7650e-01	-8.9462	-38.612638	0.000246	2.459375	0.416629	0.009835
1555	7.7700e-01	-8.9252	-38.569020	0.000218	2.181359	0.369532	0.008724
1556	7.7750e-01	-8.9051	-38.525402	0.000218	2.181359	0.369532	0.008724
1557	7.7800e-01	-8.8834	-38.490337	0.000175	1.753642	0.297075	0.007013
1558	7.7850e-01	-8.8624	-38.440305	0.000250	2.502147	0.423875	0.010006
1559	7.7900e-01	-8.8447	-38.404812	0.000178	1.775027	0.300698	0.007099
1560	7.7950e-01	-8.8215	-38.364188	0.000203	2.031658	0.344172	0.008125
1561	7.8000e-01	-8.8044	-38.310735	0.000267	2.673234	0.452858	0.010691
1562	7.8050e-01	-8.7849	-38.273104	0.000188	1.881957	0.318812	0.007526
1563	7.8100e-01	-8.7629	-38.223071	0.000250	2.502147	0.423875	0.010006
1564	7.8150e-01	-8.7446	-38.188434	0.000173	1.732256	0.293452	0.006928
1565	7.8200e-01	-8.7275	-38.128139	0.000302	3.015408	0.510824	0.012059
1566	7.8250e-01	-8.7034	-38.096922	0.000156	1.561169	0.264469	0.006243
1567	7.8300e-01	-8.6842	-38.049883	0.000235	2.352446	0.398515	0.009408
1568	7.8350e-01	-8.6640	-38.000279	0.000248	2.480761	0.420252	0.009921
1569	7.8400e-01	-8.6402	-37.950246	0.000250	2.502147	0.423875	0.010006
1570	7.8450e-01	-8.6243	-37.898931	0.000257	2.566305	0.434744	0.010263
1571	7.8500e-01	-8.6054	-37.861728	0.000186	1.860571	0.315189	0.007441
1572	7.8550e-01	-8.5828	-37.816827	0.000225	2.245517	0.380401	0.008980
1573	7.8600e-01	-8.5639	-37.771927	0.000225	2.245517	0.380401	0.008980
1574	7.8650e-01	-8.5444	-37.719756	0.000261	2.609077	0.441990	0.010434
1575	7.8700e-01	-8.5249	-37.675283	0.000222	2.224131	0.376778	0.008895
1576	7.8750e-01	-8.5053	-37.630383	0.000225	2.245517	0.380401	0.008980
1577	7.8800e-01	-8.4821	-37.583772	0.000233	2.331060	0.394892	0.009322
1578	7.8850e-01	-8.4657	-37.524759	0.000295	2.951250	0.499955	0.011802
1579	7.8900e-01	-8.4455	-37.479859	0.000225	2.245517	0.380401	0.008980
1580	7.8950e-01	-8.4272	-37.440089	0.000199	1.988886	0.336926	0.007954
1581	7.9000e-01	-8.4016	-37.391768	0.000242	2.416604	0.409384	0.009664
1582	7.9050e-01	-8.3833	-37.347295	0.000222	2.224131	0.376778	0.008895
1583	7.9100e-01	-8.3686	-37.296407	0.000254	2.544919	0.431121	0.010177
1584	7.9150e-01	-8.3430	-37.248941	0.000237	2.373832	0.402138	0.009493
1585	7.9200e-01	-8.3265	-37.201902	0.000235	2.352446	0.398515	0.009408
1586	7.9250e-01	-8.3057	-37.152298	0.000248	2.480761	0.420252	0.009921
1587	7.9300e-01	-8.2838	-37.105259	0.000235	2.352446	0.398515	0.009408
1588	7.9350e-01	-8.2655	-37.053516	0.000259	2.587691	0.438367	0.010349
1589	7.9400e-01	-8.2465	-36.996214	0.000287	2.865707	0.485464	0.011460
1590	7.9450e-01	-8.2240	-36.953024	0.000216	2.159973	0.365909	0.008638
1591	7.9500e-01	-8.2014	-36.902992	0.000250	2.502147	0.423875	0.010006
1592	7.9550e-01	-8.1861	-36.856381	0.000233	2.331060	0.394892	0.009322
1593	7.9600e-01	-8.1629	-36.803355	0.000265	2.651848	0.449235	0.010605
1594	7.9650e-01	-8.1440	-36.751613	0.000259	2.587691	0.438367	0.010349
1595	7.9700e-01	-8.1208	-36.712271	0.000197	1.967500	0.333304	0.007868
1596	7.9750e-01	-8.1049	-36.658390	0.000269	2.694620	0.456481	0.010776
1597	7.9800e-01	-8.0842	-36.608786	0.000248	2.480761	0.420252	0.009921
1598	7.9850e-01	-8.0640	-36.571155	0.000188	1.881957	0.318812	0.007526
1599	7.9900e-01	-8.0424	-36.521550	0.000248	2.480761	0.420252	0.009921
1600	7.9950e-01	-8.0235	-36.458262	0.000317	3.165109	0.536184	0.012658
1601	8.0000e-01	-8.0054	-36.402671	0.000278	2.780163	0.470972	0.011118
1602	8.0050e-01	-7.9859	-36.367178	0.000178	1.775027	0.300698	0.007099
1603	8.0100e-01	-7.9639	-36.304317	0.000314	3.143723	0.532561	0.012572
1604	8.0150e-01	-7.9456	-36.259416	0.000225	2.245517	0.380401	0.008980
1605	8.0200e-01	-7.9224	-36.208101	0.000257	2.566305	0.434744	0.010263
1606	8.0250e-01	-7.9041	-36.151227	0.000284	2.844321	0.481841	0.011375
1607	8.0300e-01	-7.8858	-36.101195	0.000250	2.502147	0.423875	0.010006
1608	8.0350e-01	-7.8645	-36.043893	0.000287	2.865707	0.485464	0.011460
1609	8.0400e-01	-7.8431	-36.004124	0.000199	1.988886	0.336926	0.007954
1610	8.0450e-01	-7.8254	-35.948105	0.000280	2.801549	0.474595	0.011204
1611	8.0500e-01	-7.8053	-35.899356	0.000244	2.437990	0.413007	0.009750
1612	8.0550e-01	-7.7857	-35.847613	0.000259	2.587691	0.438367	0.010349
1613	8.0600e-01	-7.7650	-35.793305	0.000272	2.716006	0.460104	0.010862
1614	8.0650e-01	-7.7479	-35.738141	0.000276	2.758778	0.467350	0.011033
1615	8.0700e-01	-7.7229	-35.680411	0.000289	2.887093	0.489087	0.011546
1616	8.0750e-01	-7.7042	-35.632090	0.000242	2.416604	0.409384	0.009664
1617	8.0800e-01	-7.6844	-35.587189	0.000225	2.245517	0.380401	0.008980
1618	8.0850e-01	-7.6640	-35.551269	0.000180	1.796413	0.304321	0.007184
1619	8.0900e-01	-7.6441	-35.481138	0.000351	3.507283	0.594150	0.014026
1620	8.0950e-01	-7.6240	-35.419560	0.000308	3.079566	0.521693	0.012316
1621	8.1000e-01	-7.6054	-35.376370	0.000216	2.159973	0.365909	0.008638
1622	8.1050e-01	-7.5843	-35.328904	0.000237	2.373832	0.402138	0.009493
1623	8.1100e-01	-7.5623	-35.272457	0.000282	2.822935	0.478218	0.011289
1624	8.1150e-01	-7.5446	-35.216438	0.000280	2.801549	0.474595	0.011204
1625	8.1200e-01	-7.5263	-35.164268	0.000261	2.609077	0.441990	0.010434
1626	8.1250e-01	-7.5062	-35.112953	0.000257	2.566305	0.434744	0.010263
1627	8.1300e-01	-7.4866	-35.044533	0.000342	3.421740	0.579658	0.013684
1628	8.1350e-01	-7.4659	-35.003053	0.000207	2.074430	0.351418	0.008296
1629	8.1400e-01	-7.4458	-34.941047	0.000310	3.100952	0.525315	0.012401
1630	8.1450e-01	-7.4262	-34.885884	0.000276	2.758778	0.467350	0.011033
1631	8.1500e-01	-7.4058	-34.836707	0.000246	2.459375	0.416629	0.009835
1632	8.1550e-01	-7.3835	-34.788813	0.000240	2.395218	0.405761	0.009579
1633	8.1600e-01	-7.3652	-34.724669	0.000321	3.207881	0.543430	0.012829
1634	8.1650e-01	-7.3426	-34.682762	0.000210	2.095816	0.355041	0.008381
1635	8.1700e-01	-7.3267	-34.617763	0.000325	3.250653	0.550675	0.013000
1636	8.1750e-01	-7.3045	-34.568158	0.000248	2.480761	0.420252	0.009921
1637	8.1800e-01	-7.2865	-34.506580	0.000308	3.079566	0.521693	0.012316
1638	8.1850e-01	-7.2657	-34.453982	0.000263	2.630462	0.445612	0.010520
1639	8.1900e-01	-7.2428	-34.408654	0.000227	2.266903	0.384024	0.009066
1640	8.1950e-01	-7.2257	-34.354773	0.000269	2.694620	0.456481	0.010776
1641	8.2000e-01	-7.2028	-34.288064	0.000334	3.336196	0.565167	0.013342
1642	8.2050e-01	-7.1827	-34.237176	0.000254	2.544919	0.431121	0.010177
1643	8.2100e-01	-7.1635	-34.184578	0.000263	2.630462	0.445612	0.010520
1644	8.2150e-01	-7.1450	-34.123428	0.000306	3.058180	0.518070	0.012230
1645	8.2200e-01	-7.1284	-34.075106	0.000242	2.416604	0.409384	0.009664
1646	8.2250e-01	-7.1052	-34.008397	0.000334	3.336196	0.565167	0.013342
1647	8.2300e-01	-7.0838	-33.956654	0.000259	2.587691	0.438367	0.010349
1648	8.2350e-01	-7.0661	-33.903201	0.000267	2.673234	0.452858	0.010691
1649	8.2400e-01	-7.0448	-33.842478	0.000304	3.036794	0.514447	0.012145
1650	8.2450e-01	-7.0255	-33.784749	0.000289	2.887093	0.489087	0.011546
1651	8.2500e-01	-7.0045	-33.720605	0.000321	3.207881	0.543430	0.012829
1652	8.2550e-01	-6.9855	-33.670145	0.000252	2.523533	0.427498	0.010092
1653	8.2600e-01	-6.9645	-33.614981	0.000276	2.758778	0.467350	0.011033
1654	8.2650e-01	-6.9448	-33.552976	0.000310	3.100952	0.525315	0.012401
1655	8.2700e-01	-6.9239	-33.505509	0.000237	2.373832	0.402138	0.009493
1656	8.2750e-01	-6.9035	-33.442648	0.000314	3.143723	0.532561	0.012572
1657	8.2800e-01	-6.8848	-33.389623	0.000265	2.651848	0.449235	0.010605
1658	8.2850e-01	-6.8644	-33.334459	0.000276	2.758778	0.467350	0.011033
1659	8.2900e-01	-6.8452	-33.277585	0.000284	2.844321	0.481841	0.011375
1660	8.2950e-01	-6.8221	-33.213441	0.000321	3.207881	0.543430	0.012829
1661	8.3000e-01	-6.8055	-33.156139	0.000287	2.865707	0.485464	0.011460
1662	8.3050e-01	-6.7835	-33.107390	0.000244	2.437990	0.413007	0.009750
1663	8.3100e-01	-6.7622	-33.059069	0.000242	2.416604	0.409384	0.009664
1664	8.3150e-01	-6.7451	-32.989793	0.000346	3.464511	0.586904	0.013855
1665	8.3200e-01	-6.7252	-32.926505	0.000317	3.165109	0.536184	0.012658
1666	8.3250e-01	-6.7048	-32.863216	0.000317	3.165109	0.536184	0.012658
1667	8.3300e-01	-6.6828	-32.823875	0.000197	1.967500	0.333304	0.007868
1668	8.3350e-01	-6.6633	-32.760586	0.000317	3.165109	0.536184	0.012658
1669	8.3400e-01	-6.6438	-32.687035	0.000368	3.678370	0.623133	0.014710
1670	8.3450e-01	-6.6248	-32.637430	0.000248	2.480761	0.420252	0.009921
1671	8.3500e-01	-6.6047	-32.574141	0.000317	3.165109	0.536184	0.012658
1672	8.3550e-01	-6.5864	-32.518550	0.000278	2.780163	0.470972	0.011118
1673	8.3600e-01	-6.5650	-32.464242	0.000272	2.716006	0.460104	0.010862
1674	8.3650e-01	-6.5467	-32.393684	0.000353	3.528669	0.597773	0.014112
1675	8.3700e-01	-6.5241	-32.343224	0.000252	2.523533	0.427498	0.010092
1676	8.3750e-01	-6.5054	-32.280363	0.000314	3.143723	0.532561	0.012572
1677	8.3800e-01	-6.4826	-32.225627	0.000274	2.737392	0.463727	0.010947
1678	8.3850e-01	-6.4649	-32.165332	0.000302	3.015408	0.510824	0.012059
1679	8.3900e-01	-6.4466	-32.102471	0.000314	3.143723	0.532561	0.012572
1680	8.3950e-01	-6.4246	-32.040465	0.000310	3.100952	0.525315	0.012401
1681	8.4000e-01	-6.4021	-31.981453	0.000295	2.951250	0.499955	0.011802
1682	8.4050e-01	-6.3844	-31.918592	0.000314	3.143723	0.532561	0.012572
1683	8.4100e-01	-6.3633	-31.851455	0.000336	3.357582	0.568790	0.013427
1684	8.4150e-01	-6.3459	-31.803561	0.000240	2.395218	0.405761	0.009579
1685	8.4200e-01	-6.3239	-31.722312	0.000406	4.063316	0.688344	0.016250
1686	8.4250e-01	-6.3010	-31.677839	0.000222	2.224131	0.376778	0.008895
1687	8.4300e-01	-6.2849	-31.618399	0.000297	2.972636	0.503578	0.011888
1688	8.4350e-01	-6.2656	-31.551689	0.000334	3.336196	0.565167	0.013342
1689	8.4400e-01	-6.2467	-31.490111	0.000308	3.079566	0.521693	0.012316
1690	8.4450e-01	-6.2254	-31.441362	0.000244	2.437990	0.413007	0.009750
1691	8.4500e-01	-6.2058	-31.366955	0.000372	3.721142	0.630379	0.014881
1692	8.4550e-01	-6.1820	-31.325048	0.000210	2.095816	0.355041	0.008381
1693	8.4600e-01	-6.1652	-31.255345	0.000349	3.485897	0.590527	0.013941
1694	8.4650e-01	-6.1427	-31.197188	0.000291	2.908479	0.492710	0.011631
1695	8.4700e-01	-6.1243	-31.125775	0.000357	3.571441	0.605018	0.014283
1696	8.4750e-01	-6.1057	-31.074460	0.000257	2.566305	0.434744	0.010263
1697	8.4800e-01	-6.0859	-31.010743	0.000319	3.186495	0.539807	0.012743
1698	8.4850e-01	-6.0645	-30.932488	0.000391	3.913615	0.662984	0.015651
1699	8.4900e-01	-6.0468	-30.873903	0.000293	2.929865	0.496333	0.011717
1700	8.4950e-01	-6.0258	-30.817457	0.000282	2.822935	0.478218	0.011289
1701	8.5000e-01	-6.0047	-30.753741	0.000319	3.186495	0.539807	0.012743
1702	8.5050e-01	-5.9837	-30.687459	0.000331	3.314810	0.561544	0.013256
1703	8.5100e-01	-5.9660	-30.624170	0.000317	3.165109	0.536184	0.012658
1704	8.5150e-01	-5.9480	-30.560026	0.000321	3.207881	0.543430	0.012829
1705	8.5200e-01	-5.9284	-30.505718	0.000272	2.716006	0.460104	0.010862
1706	8.5250e-01	-5.9031	-30.440291	0.000327	3.272039	0.554298	0.013085
1707	8.5300e-01	-5.8829	-30.376148	0.000321	3.207881	0.543430	0.012829
1708	8.5350e-01	-5.8625	-30.317563	0.000293	2.929865	0.496333	0.011717
1709	8.5400e-01	-5.8454	-30.243156	0.000372	3.721142	0.630379	0.014881
1710	8.5450e-01	-5.8234	-30.172598	0.000353	3.528669	0.597773	0.014112
1711	8.5500e-01	-5.8039	-30.117007	0.000278	2.780163	0.470972	0.011118
1712	8.5550e-01	-5.7853	-30.050725	0.000331	3.314810	0.561544	0.013256
1713	8.5600e-01	-5.7639	-29.989574	0.000306	3.058180	0.518070	0.012230
1714	8.5650e-01	-5.7436	-29.934411	0.000276	2.758778	0.467350	0.011033
1715	8.5700e-01	-5.7233	-29.865563	0.000344	3.443126	0.583281	0.013770
1716	8.5750e-01	-5.7058	-29.800992	0.000323	3.229267	0.547053	0.012914
1717	8.5800e-01	-5.6840	-29.727868	0.000366	3.656984	0.619510	0.014625
1718	8.5850e-01	-5.6632	-29.667145	0.000304	3.036794	0.514447	0.012145
1719	8.5900e-01	-5.6453	-29.600435	0.000334	3.336196	0.565167	0.013342
1720	8.5950e-01	-5.6251	-29.531588	0.000344	3.443126	0.583281	0.013770
1721	8.6000e-01	-5.6025	-29.488825	0.000214	2.138587	0.362286	0.008553
1722	8.6050e-01	-5.5833	-29.414418	0.000372	3.721142	0.630379	0.014881
1723	8.6100e-01	-5.5671	-29.338729	0.000379	3.785300	0.641247	0.015138
1724	8.6150e-01	-5.5427	-29.283137	0.000278	2.780163	0.470972	0.011118
1725	8.6200e-01	-5.5244	-29.216428	0.000334	3.336196	0.565167	0.013342
1726	8.6250e-01	-5.5042	-29.151001	0.000327	3.272039	0.554298	0.013085
1727	8.6300e-01	-5.4816	-29.082581	0.000342	3.421740	0.579658	0.013684
1728	8.6350e-01	-5.4636	-29.029128	0.000267	2.673234	0.452858	0.010691
1729	8.6400e-01	-5.4444	-28.947024	0.000411	4.106088	0.695590	0.016421
1730	8.6450e-01	-5.4240	-28.878604	0.000342	3.421740	0.579658	0.013684
1731	8.6500e-01	-5.4031	-28.820874	0.000289	2.887093	0.489087	0.011546
1732	8.6550e-01	-5.3840	-28.746468	0.000372	3.721142	0.630379	0.014881
1733	8.6600e-01	-5.3617	-28.693870	0.000263	2.630462	0.445612	0.010520
1734	8.6650e-01	-5.3434	-28.613904	0.000400	3.999158	0.677476	0.015993
1735	8.6700e-01	-5.3217	-28.545911	0.000340	3.400354	0.576036	0.013598
1736	8.6750e-01	-5.3040	-28.491175	0.000274	2.737392	0.463727	0.010947
1737	8.6800e-01	-5.2819	-28.417196	0.000370	3.699756	0.626756	0.014796
1738	8.6850e-01	-5.2641	-28.349631	0.000338	3.378968	0.572413	0.013513
1739	8.6900e-01	-5.2433	-28.288481	0.000306	3.058180	0.518070	0.012230
1740	8.6950e-01	-5.2244	-28.220489	0.000340	3.400354	0.576036	0.013598
1741	8.7000e-01	-5.2039	-28.144371	0.000381	3.806685	0.644870	0.015223
1742	8.7050e-01	-5.1856	-28.075524	0.000344	3.443126	0.583281	0.013770
1743	8.7100e-01	-5.1637	-28.008386	0.000336	3.357582	0.568790	0.013427
1744	8.7150e-01	-5.1469	-27.941249	0.000336	3.357582	0.568790	0.013427
1745	8.7200e-01	-5.1252	-27.889934	0.000257	2.566305	0.434744	0.010263
1746	8.7250e-01	-5.1051	-27.805692	0.000421	4.213017	0.713704	0.016848
1747	8.7300e-01	-5.0855	-27.740693	0.000325	3.250653	0.550675	0.013000
1748	8.7350e-01	-5.0639	-27.668852	0.000359	3.592827	0.608641	0.014368
1749	8.7400e-01	-5.0434	-27.595728	0.000366	3.656984	0.619510	0.014625
1750	8.7450e-01	-5.0257	-27.545696	0.000250	2.502147	0.423875	0.010006
1751	8.7500e-01	-5.0072	-27.465302	0.000402	4.020544	0.681099	0.016079
1752	8.7550e-01	-4.9842	-27.406718	0.000293	2.929865	0.496333	0.011717
1753	8.7600e-01	-4.9638	-27.331456	0.000376	3.763914	0.637624	0.015052
1754	8.7650e-01	-4.9452	-27.258759	0.000364	3.635598	0.615887	0.014539
1755	8.7700e-01	-4.9213	-27.190339	0.000342	3.421740	0.579658	0.013684
1756	8.7750e-01	-4.9049	-27.112939	0.000387	3.870843	0.655739	0.015480
1757	8.7800e-01	-4.8853	-27.060341	0.000263	2.630462	0.445612	0.010520
1758	8.7850e-01	-4.8664	-26.977810	0.000413	4.127473	0.699213	0.016506
1759	8.7900e-01	-4.8438	-26.901692	0.000381	3.806685	0.644870	0.015223
1760	8.7950e-01	-4.8238	-26.840114	0.000308	3.079566	0.521693	0.012316
1761	8.8000e-01	-4.8042	-26.766563	0.000368	3.678370	0.623133	0.014710
1762	8.8050e-01	-4.7846	-26.698570	0.000340	3.400354	0.576036	0.013598
1763	8.8100e-01	-4.7636	-26.625446	0.000366	3.656984	0.619510	0.014625
1764	8.8150e-01	-4.7456	-26.555743	0.000349	3.485897	0.590527	0.013941
1765	8.8200e-01	-4.7260	-26.482619	0.000366	3.656984	0.619510	0.014625
1766	8.8250e-01	-4.7047	-26.424035	0.000293	2.929865	0.496333	0.011717
1767	8.8300e-01	-4.6815	-26.354332	0.000349	3.485897	0.590527	0.013941
1768	8.8350e-01	-4.6632	-26.276504	0.000389	3.892229	0.659361	0.015566
1769	8.8400e-01	-4.6436	-26.197393	0.000396	3.956387	0.670230	0.015822
1770	8.8450e-01	-4.6244	-26.137953	0.000297	2.972636	0.503578	0.011888
1771	8.8500e-01	-4.6033	-26.063974	0.000370	3.699756	0.626756	0.014796
1772	8.8550e-01	-4.5844	-25.987857	0.000381	3.806685	0.644870	0.015223
1773	8.8600e-01	-4.5661	-25.912167	0.000379	3.785300	0.641247	0.015138
1774	8.8650e-01	-4.5429	-25.841609	0.000353	3.528669	0.597773	0.014112
1775	8.8700e-01	-4.5240	-25.780886	0.000304	3.036794	0.514447	0.012145
1776	8.8750e-01	-4.5033	-25.697927	0.000415	4.148859	0.702836	0.016592
1777	8.8800e-01	-4.4846	-25.638915	0.000295	2.951250	0.499955	0.011802
1778	8.8850e-01	-4.4645	-25.553817	0.000426	4.255789	0.720950	0.017019
1779	8.8900e-01	-4.4419	-25.481549	0.000361	3.614213	0.612264	0.014454
1780	8.8950e-01	-4.4251	-25.410991	0.000353	3.528669	0.597773	0.014112
1781	8.9000e-01	-4.4050	-25.334446	0.000383	3.828071	0.648493	0.015309
1782	8.9050e-01	-4.3855	-25.267308	0.000336	3.357582	0.568790	0.013427
1783	8.9100e-01	-4.3620	-25.194612	0.000364	3.635598	0.615887	0.014539
1784	8.9150e-01	-4.3427	-25.127903	0.000334	3.336196	0.565167	0.013342
1785	8.9200e-01	-4.3232	-25.036391	0.000458	4.576577	0.775293	0.018302
1786	8.9250e-01	-4.3049	-24.970536	0.000329	3.293424	0.557921	0.013171
1787	8.9300e-01	-4.2832	-24.897413	0.000366	3.656984	0.619510	0.014625
1788	8.9350e-01	-4.2631	-24.820868	0.000383	3.828071	0.648493	0.015309
1789	8.9400e-01	-4.2423	-24.748599	0.000361	3.614213	0.612264	0.014454
1790	8.9450e-01	-4.2234	-24.679324	0.000346	3.464511	0.586904	0.013855
1791	8.9500e-01	-4.2057	-24.595509	0.000419	4.191631	0.710082	0.016763
1792	8.9550e-01	-4.1847	-24.532648	0.000314	3.143723	0.532561	0.012572
1793	8.9600e-01	-4.1624	-24.459524	0.000366	3.656984	0.619510	0.014625
1794	8.9650e-01	-4.1457	-24.378703	0.000404	4.041930	0.684721	0.016164
1795	8.9700e-01	-4.1212	-24.296171	0.000413	4.127473	0.699213	0.016506
1796	8.9750e-01	-4.1056	-24.227324	0.000344	3.443126	0.583281	0.013770
1797	8.9800e-01	-4.0804	-24.156338	0.000355	3.550055	0.601396	0.014197
1798	8.9850e-01	-4.0656	-24.074234	0.000411	4.106088	0.695590	0.016421
1799	8.9900e-01	-4.0440	-24.009662	0.000323	3.229267	0.547053	0.012914
1800	8.9950e-01	-4.0238	-23.929697	0.000400	3.999158	0.677476	0.015993
1801	9.0000e-01	-4.0028	-23.842033	0.000438	4.384104	0.742687	0.017533
1802	9.0050e-01	-3.9845	-23.780455	0.000308	3.079566	0.521693	0.012316
1803	9.0100e-01	-3.9632	-23.710752	0.000349	3.485897	0.590527	0.013941
1804	9.0150e-01	-3.9442	-23.630786	0.000400	3.999158	0.677476	0.015993
1805	9.0200e-01	-3.9228	-23.549538	0.000406	4.063316	0.688344	0.016250
1806	9.0250e-01	-3.9027	-23.481545	0.000340	3.400354	0.576036	0.013598
1807	9.0300e-01	-3.8825	-23.398158	0.000417	4.170245	0.706459	0.016677
1808	9.0350e-01	-3.8659	-23.322896	0.000376	3.763914	0.637624	0.015052
1809	9.0400e-01	-3.8416	-23.239082	0.000419	4.191631	0.710082	0.016763
1810	9.0450e-01	-3.8227	-23.177504	0.000308	3.079566	0.521693	0.012316
1811	9.0500e-01	-3.8041	-23.105235	0.000361	3.614213	0.612264	0.014454
1812	9.0550e-01	-3.7815	-23.016717	0.000443	4.426876	0.749933	0.017704
1813	9.0600e-01	-3.7623	-22.928198	0.000443	4.426876	0.749933	0.017704
1814	9.0650e-01	-3.7469	-22.855929	0.000361	3.614213	0.612264	0.014454
1815	9.0700e-01	-3.7223	-22.782806	0.000366	3.656984	0.619510	0.014625
1816	9.0750e-01	-3.7058	-22.704123	0.000394	3.935001	0.666607	0.015737
1817	9.0800e-01	-3.6857	-22.620736	0.000417	4.170245	0.706459	0.016677
1818	9.0850e-01	-3.6636	-22.545046	0.000379	3.785300	0.641247	0.015138
1819	9.0900e-01	-3.6420	-22.470211	0.000374	3.742528	0.634001	0.014967
1820	9.0950e-01	-3.6234	-22.403502	0.000334	3.336196	0.565167	0.013342
1821	9.1000e-01	-3.6028	-22.307286	0.000481	4.811821	0.815145	0.019243
1822	9.1050e-01	-3.5850	-22.231169	0.000381	3.806685	0.644870	0.015223
1823	9.1100e-01	-3.5635	-22.158900	0.000361	3.614213	0.612264	0.014454
1824	9.1150e-01	-3.5438	-22.074658	0.000421	4.213017	0.713704	0.016848
1825	9.1200e-01	-3.5233	-22.001534	0.000366	3.656984	0.619510	0.014625
1826	9.1250e-01	-3.5041	-21.916437	0.000426	4.255789	0.720950	0.017019
1827	9.1300e-01	-3.4835	-21.847589	0.000344	3.443126	0.583281	0.013770
1828	9.1350e-01	-3.4632	-21.761636	0.000430	4.298560	0.728196	0.017191
1829	9.1400e-01	-3.4456	-21.681670	0.000400	3.999158	0.677476	0.015993
1830	9.1450e-01	-3.4241	-21.601705	0.000400	3.999158	0.677476	0.015993
1831	9.1500e-01	-3.4010	-21.520028	0.000408	4.084702	0.691967	0.016335
1832	9.1550e-01	-3.3859	-21.432793	0.000436	4.362718	0.739064	0.017447
1833	9.1600e-01	-3.3640	-21.354110	0.000394	3.935001	0.666607	0.015737
1834	9.1650e-01	-3.3439	-21.282268	0.000359	3.592827	0.608641	0.014368
1835	9.1700e-01	-3.3248	-21.203158	0.000396	3.956387	0.670230	0.015822
1836	9.1750e-01	-3.3027	-21.118060	0.000426	4.255789	0.720950	0.017019
1837	9.1800e-01	-3.2856	-21.039377	0.000394	3.935001	0.666607	0.015737
1838	9.1850e-01	-3.2652	-20.956418	0.000415	4.148859	0.702836	0.016592
1839	9.1900e-01	-3.2417	-20.883294	0.000366	3.656984	0.619510	0.014625
1840	9.1950e-01	-3.2227	-20.805894	0.000387	3.870843	0.655739	0.015480
1841	9.2000e-01	-3.2040	-20.711389	0.000473	4.726278	0.800653	0.018901
1842	9.2050e-01	-3.1822	-20.625864	0.000428	4.277175	0.724573	0.017105
1843	9.2100e-01	-3.1629	-20.558299	0.000338	3.378968	0.572413	0.013513
1844	9.2150e-01	-3.1416	-20.467642	0.000453	4.533805	0.768047	0.018131
1845	9.2200e-01	-3.1248	-20.391097	0.000383	3.828071	0.648493	0.015309
1846	9.2250e-01	-3.1033	-20.308993	0.000411	4.106088	0.695590	0.016421
1847	9.2300e-01	-3.0808	-20.232448	0.000383	3.828071	0.648493	0.015309
1848	9.2350e-01	-3.0668	-20.138371	0.000470	4.704892	0.797030	0.018816
1849	9.2400e-01	-3.0442	-20.064819	0.000368	3.678370	0.623133	0.014710
1850	9.2450e-01	-3.0232	-19.981005	0.000419	4.191631	0.710082	0.016763
1851	9.2500e-01	-3.0033	-19.917289	0.000319	3.186495	0.539807	0.012743
1852	9.2550e-01	-2.9810	-19.811238	0.000530	5.303697	0.898471	0.021210
1853	9.2600e-01	-2.9627	-19.721864	0.000447	4.469647	0.757179	0.017875
1854	9.2650e-01	-2.9430	-19.645747	0.000381	3.806685	0.644870	0.015223
1855	9.2700e-01	-2.9227	-19.577754	0.000340	3.400354	0.576036	0.013598
1856	9.2750e-01	-2.9020	-19.481111	0.000483	4.833207	0.818767	0.019329
1857	9.2800e-01	-2.8823	-19.391310	0.000449	4.491033	0.760802	0.017960
1858	9.2850e-01	-2.8616	-19.310916	0.000402	4.020544	0.681099	0.016079
1859	9.2900e-01	-2.8441	-19.230950	0.000400	3.999158	0.677476	0.015993
1860	9.2950e-01	-2.8231	-19.149274	0.000408	4.084702	0.691967	0.016335
1861	9.3000e-01	-2.8045	-19.067597	0.000408	4.084702	0.691967	0.016335
1862	9.3050e-01	-2.7827	-18.989342	0.000391	3.913615	0.662984	0.015651
1863	9.3100e-01	-2.7639	-18.887139	0.000511	5.111224	0.865865	0.020440
1864	9.3150e-01	-2.7445	-18.802042	0.000426	4.255789	0.720950	0.017019
1865	9.3200e-01	-2.7242	-18.722504	0.000398	3.977772	0.673853	0.015908
1866	9.3250e-01	-2.7048	-18.642965	0.000398	3.977772	0.673853	0.015908
1867	9.3300e-01	-2.6826	-18.550598	0.000462	4.619349	0.782539	0.018473
1868	9.3350e-01	-2.6639	-18.473626	0.000385	3.849457	0.652116	0.015395
1869	9.3400e-01	-2.6432	-18.389383	0.000421	4.213017	0.713704	0.016848
1870	9.3450e-01	-2.6228	-18.294451	0.000475	4.747664	0.804276	0.018987
1871	9.3500e-01	-2.6057	-18.208070	0.000432	4.319946	0.731819	0.017276
1872	9.3550e-01	-2.5844	-18.134946	0.000366	3.656984	0.619510	0.014625
1873	9.3600e-01	-2.5623	-18.036593	0.000492	4.918751	0.833259	0.019671
1874	9.3650e-01	-2.5430	-17.957910	0.000394	3.935001	0.666607	0.015737
1875	9.3700e-01	-2.5227	-17.865115	0.000464	4.640734	0.786162	0.018559
1876	9.3750e-01	-2.5043	-17.790708	0.000372	3.721142	0.630379	0.014881
1877	9.3800e-01	-2.4836	-17.699624	0.000456	4.555191	0.771670	0.018217
1878	9.3850e-01	-2.4648	-17.614099	0.000428	4.277175	0.724573	0.017105
1879	9.3900e-01	-2.4439	-17.526863	0.000436	4.362718	0.739064	0.017447
1880	9.3950e-01	-2.4244	-17.443904	0.000415	4.148859	0.702836	0.016592
1881	9.4000e-01	-2.4041	-17.352392	0.000458	4.576577	0.775293	0.018302
1882	9.4050e-01	-2.3862	-17.267295	0.000426	4.255789	0.720950	0.017019
1883	9.4100e-01	-2.3649	-17.187329	0.000400	3.999158	0.677476	0.015993
1884	9.4150e-01	-2.3430	-17.095389	0.000460	4.597963	0.778916	0.018388
1885	9.4200e-01	-2.3237	-17.000029	0.000477	4.769050	0.807899	0.019072
1886	9.4250e-01	-2.3025	-16.917925	0.000411	4.106088	0.695590	0.016421
1887	9.4300e-01	-2.2865	-16.831545	0.000432	4.319946	0.731819	0.017276
1888	9.4350e-01	-2.2665	-16.732763	0.000494	4.940137	0.836882	0.019756
1889	9.4400e-01	-2.2428	-16.657929	0.000374	3.742528	0.634001	0.014967
1890	9.4450e-01	-2.2224	-16.564279	0.000468	4.683506	0.793407	0.018730
1891	9.4500e-01	-2.2044	-16.474905	0.000447	4.469647	0.757179	0.017875
1892	9.4550e-01	-2.1812	-16.386387	0.000443	4.426876	0.749933	0.017704
1893	9.4600e-01	-2.1656	-16.300434	0.000430	4.298560	0.728196	0.017191
1894	9.4650e-01	-2.1467	-16.210205	0.000451	4.512419	0.764425	0.018046
1895	9.4700e-01	-2.1223	-16.120831	0.000447	4.469647	0.757179	0.017875
1896	9.4750e-01	-2.1030	-16.033168	0.000438	4.384104	0.742687	0.017533
1897	9.4800e-01	-2.0847	-15.945505	0.000438	4.384104	0.742687	0.017533
1898	9.4850e-01	-2.0626	-15.859125	0.000432	4.319946	0.731819	0.017276
1899	9.4900e-01	-2.0451	-15.771889	0.000436	4.362718	0.739064	0.017447
1900	9.4950e-01	-2.0271	-15.667549	0.000522	5.218153	0.883979	0.020868
1901	9.5000e-01	-2.0004	-15.586300	0.000406	4.063316	0.688344	0.016250
1902	9.5050e-01	-1.9834	-15.505906	0.000402	4.020544	0.681099	0.016079
1903	9.5100e-01	-1.9654	-15.400283	0.000528	5.282311	0.894848	0.021125
1904	9.5150e-01	-1.9444	-15.326304	0.000370	3.699756	0.626756	0.014796
1905	9.5200e-01	-1.9227	-15.217259	0.000545	5.453398	0.923831	0.021809
1906	9.5250e-01	-1.9017	-15.146273	0.000355	3.550055	0.601396	0.014197
1907	9.5300e-01	-1.8838	-15.037229	0.000545	5.453398	0.923831	0.021809
1908	9.5350e-01	-1.8642	-14.954697	0.000413	4.127473	0.699213	0.016506
1909	9.5400e-01	-1.8429	-14.862758	0.000460	4.597963	0.778916	0.018388
1910	9.5450e-01	-1.8244	-14.772529	0.000451	4.512419	0.764425	0.018046
1911	9.5500e-01	-1.8025	-14.683155	0.000447	4.469647	0.757179	0.017875
1912	9.5550e-01	-1.7829	-14.600196	0.000415	4.148859	0.702836	0.016592
1913	9.5600e-01	-1.7603	-14.509539	0.000453	4.533805	0.768047	0.018131
1914	9.5650e-01	-1.7447	-14.412041	0.000488	4.875979	0.826013	0.019500
1915	9.5700e-01	-1.7231	-14.337206	0.000374	3.742528	0.634001	0.014967
1916	9.5750e-01	-1.7018	-14.230300	0.000535	5.346468	0.905716	0.021381
1917	9.5800e-01	-1.6846	-14.138361	0.000460	4.597963	0.778916	0.018388
1918	9.5850e-01	-1.6640	-14.054546	0.000419	4.191631	0.710082	0.016763
1919	9.5900e-01	-1.6438	-13.954909	0.000498	4.982908	0.844128	0.019927
1920	9.5950e-01	-1.6236	-13.857411	0.000488	4.875979	0.826013	0.019500
1921	9.6000e-01	-1.6041	-13.778728	0.000394	3.935001	0.666607	0.015737
1922	9.6050e-01	-1.5823	-13.671821	0.000535	5.346468	0.905716	0.021381
1923	9.6100e-01	-1.5639	-13.584586	0.000436	4.362718	0.739064	0.017447
1924	9.6150e-01	-1.5476	-13.476824	0.000539	5.389240	0.912962	0.021552
1925	9.6200e-01	-1.5217	-13.401135	0.000379	3.785300	0.641247	0.015138
1926	9.6250e-01	-1.5043	-13.306629	0.000473	4.726278	0.800653	0.018901
1927	9.6300e-01	-1.4832	-13.214262	0.000462	4.619349	0.782539	0.018473
1928	9.6350e-01	-1.4600	-13.124033	0.000451	4.512419	0.764425	0.018046
1929	9.6400e-01	-1.4426	-13.035515	0.000443	4.426876	0.749933	0.017704
1930	9.6450e-01	-1.4230	-12.935878	0.000498	4.982908	0.844128	0.019927
1931	9.6500e-01	-1.4021	-12.851209	0.000423	4.234403	0.717327	0.016934
1932	9.6550e-01	-1.3830	-12.743019	0.000541	5.410626	0.916585	0.021638
1933	9.6600e-01	-1.3625	-12.648942	0.000470	4.704892	0.797030	0.018816
1934	9.6650e-01	-1.3432	-12.561706	0.000436	4.362718	0.739064	0.017447
1935	9.6700e-01	-1.3228	-12.473615	0.000441	4.405490	0.746310	0.017618
1936	9.6750e-01	-1.3032	-12.382959	0.000453	4.533805	0.768047	0.018131
1937	9.6800e-01	-1.2832	-12.274770	0.000541	5.410626	0.916585	0.021638
1938	9.6850e-01	-1.2592	-12.180265	0.000473	4.726278	0.800653	0.018901
1939	9.6900e-01	-1.2437	-12.086187	0.000470	4.704892	0.797030	0.018816
1940	9.6950e-01	-1.2236	-12.007932	0.000391	3.913615	0.662984	0.015651
1941	9.7000e-01	-1.2049	-11.897604	0.000552	5.517555	0.934699	0.022065
1942	9.7050e-01	-1.1826	-11.811652	0.000430	4.298560	0.728196	0.017191
1943	9.7100e-01	-1.1635	-11.725699	0.000430	4.298560	0.728196	0.017191
1944	9.7150e-01	-1.1436	-11.621358	0.000522	5.218153	0.883979	0.020868
1945	9.7200e-01	-1.1251	-11.524715	0.000483	4.833207	0.818767	0.019329
1946	9.7250e-01	-1.1054	-11.414388	0.000552	5.517555	0.934699	0.022065
1947	9.7300e-01	-1.0828	-11.324586	0.000449	4.491033	0.760802	0.017960
1948	9.7350e-01	-1.0661	-11.241199	0.000417	4.170245	0.706459	0.016677
1949	9.7400e-01	-1.0444	-11.144984	0.000481	4.811821	0.815145	0.019243
1950	9.7450e-01	-1.0226	-11.044064	0.000505	5.047066	0.854996	0.020184
1951	9.7500e-01	-1.0038	-10.944000	0.000500	5.004294	0.847750	0.020013
1952	9.7550e-01	-0.9818	-10.844791	0.000496	4.961523	0.840505	0.019842
1953	9.7600e-01	-0.9627	-10.762259	0.000413	4.127473	0.699213	0.016506
1954	9.7650e-01	-0.9422	-10.663478	0.000494	4.940137	0.836882	0.019756
1955	9.7700e-01	-0.9266	-10.561275	0.000511	5.111224	0.865865	0.020440
1956	9.7750e-01	-0.9032	-10.473184	0.000441	4.405490	0.746310	0.017618
1957	9.7800e-01	-0.8823	-10.378252	0.000475	4.747664	0.804276	0.018987
1958	9.7850e-01	-0.8641	-10.288878	0.000447	4.469647	0.757179	0.017875
1959	9.7900e-01	-0.8411	-10.181116	0.000539	5.389240	0.912962	0.021552
1960	9.7950e-01	-0.8250	-10.080197	0.000505	5.047066	0.854996	0.020184
1961	9.8000e-01	-0.8042	-9.987402	0.000464	4.640734	0.786162	0.018559
1962	9.8050e-01	-0.7840	-9.896746	0.000453	4.533805	0.768047	0.018131
1963	9.8100e-01	-0.7628	-9.802668	0.000470	4.704892	0.797030	0.018816
1964	9.8150e-01	-0.7417	-9.696189	0.000533	5.325082	0.902093	0.021296
1965	9.8200e-01	-0.7207	-9.603822	0.000462	4.619349	0.782539	0.018473
1966	9.8250e-01	-0.7029	-9.496916	0.000535	5.346468	0.905716	0.021381
1967	9.8300e-01	-0.6833	-9.413529	0.000417	4.170245	0.706459	0.016677
1968	9.8350e-01	-0.6605	-9.307050	0.000533	5.325082	0.902093	0.021296
1969	9.8400e-01	-0.6431	-9.210407	0.000483	4.833207	0.818767	0.019329
1970	9.8450e-01	-0.6217	-9.114191	0.000481	4.811821	0.815145	0.019243
1971	9.8500e-01	-0.6049	-9.006857	0.000537	5.367854	0.909339	0.021467
1972	9.8550e-01	-0.5837	-8.929030	0.000389	3.892229	0.659361	0.015566
1973	9.8600e-01	-0.5615	-8.828538	0.000503	5.025680	0.851373	0.020098
1974	9.8650e-01	-0.5440	-8.727618	0.000505	5.047066	0.854996	0.020184
1975	9.8700e-01	-0.5247	-8.627126	0.000503	5.025680	0.851373	0.020098
1976	9.8750e-01	-0.5015	-8.532621	0.000473	4.726278	0.800653	0.018901
1977	9.8800e-01	-0.4823	-8.433412	0.000496	4.961523	0.840505	0.019842
1978	9.8850e-01	-0.4652	-8.335486	0.000490	4.897365	0.829636	0.019585
1979	9.8900e-01	-0.4435	-8.235421	0.000500	5.004294	0.847750	0.020013
1980	9.8950e-01	-0.4218	-8.137495	0.000490	4.897365	0.829636	0.019585
1981	9.9000e-01	-0.4029	-8.040424	0.000485	4.854593	0.822390	0.019414
1982	9.9050e-01	-0.3872	-7.939077	0.000507	5.068452	0.858619	0.020269
1983	9.9100e-01	-0.3630	-7.836447	0.000513	5.132610	0.869488	0.020526
1984	9.9150e-01	-0.3445	-7.740659	0.000479	4.790436	0.811522	0.019158
1985	9.9200e-01	-0.3236	-7.641450	0.000496	4.961523	0.840505	0.019842
1986	9.9250e-01	-0.3027	-7.542241	0.000496	4.961523	0.840505	0.019842
1987	9.9300e-01	-0.2839	-7.459709	0.000413	4.127473	0.699213	0.016506
1988	9.9350e-01	-0.2663	-7.340829	0.000595	5.945273	1.007156	0.023776
1989	9.9400e-01	-0.2427	-7.247179	0.000468	4.683506	0.793407	0.018730
1990	9.9450e-01	-0.2237	-7.148826	0.000492	4.918751	0.833259	0.019671
1991	9.9500e-01	-0.2004	-7.055603	0.000466	4.662120	0.789785	0.018644
1992	9.9550e-01	-0.1830	-6.949552	0.000530	5.303697	0.898471	0.021210
1993	9.9600e-01	-0.1630	-6.853336	0.000481	4.811821	0.815145	0.019243
1994	9.9650e-01	-0.1426	-6.747285	0.000530	5.303697	0.898471	0.021210
1995	9.9700e-01	-0.1240	-6.659195	0.000441	4.405490	0.746310	0.017618
1996	9.9750e-01	-0.1013	-6.552716	0.000533	5.325082	0.902093	0.021296
1997	9.9800e-01	-0.0824	-6.452652	0.000500	5.004294	0.847750	0.020013
1998	9.9850e-01	-0.0622	-6.352160	0.000503	5.025680	0.851373	0.020098
1999	9.9900e-01	-0.0442	-6.254233	0.000490	4.897365	0.829636	0.019585
2000	9.9950e-01	-0.0234	-6.157163	0.000485	4.854593	0.822390	0.019414
2001	1.0000e+00	-0.0030	-6.050684	0.000485	4.854593	0.822390	0.021296

Smooth data before PMax, +/-Pr and +/-Vc Calc.

PMax (uC/cm2):	4.66e+01
Pr (uC/cm2):	1.07e+01
-Pr (uC/cm2):	2.80e-01
PLoss (uC/cm2):	2.54e-01
Vc:	-6.17e-02
-Vc:	-2.06e+00
C (Max-Eff) (nF):	4.66e-01
K (Eff):	7.90e+02
Vert. (+/-Pr) Shift (uC/cm2):	5.50e+00
Horiz. Shift (+/-Vc):	-1.06e+00
Offset (uC/cm2):	6.36e+00

A (Loop Area - uC/cm2·Volts):	-9.37e-03



Hysteresis Version: 5.48.1 - Radiant Technologies, Inc., 1999 - 9/12/24

