»»»»»»»»»»»»»»»»»»»»»»»»»»»»»»»»»»»» Hysteresis ««««««««««««««««««««««««««««««««««««
»»»  Executed Version:	5.48.1
»»»  Vision Version:	5.48.4 (R)
»»»  Vision Compiled:	9/18/24
»»»  Driver Version:	5.47.0
»»»  Windows Version:	Windows 8 or 8.1
»»»  Processor Information:	x86 (AMD or Intel) - 32 Processors
»»»  Tester Name:	PMF21124-494 (100V)
»»»  Tester S/N:	PMF21124-494
»»»  Internal Amp Type:	100V RevK 270k
»»»  Internal Amp S/N:	iAB2-596/K     
»»»  Execution Count:	1
»»»»»»»»»»»»»»»»»»»»»»»»»»»»»»»»»»»»»»»»»»««««««««««««««««««««««««««««««««««««««««««

Stored:	7/11/2025 - 13:52:2
Configured:	07/11/25 01:34:37 PM
Executed:	07/11/25 01:51:39 PM

»»»»»»»»»»»»»»»»»»»»»»»»»»»»»»»»»»» Sample Info ««««««««««««««««««««««««««««««««««««
Sample Name:	
Lot Name:	
Wafer Name:	
Die Row/Column:	0/0
Capacitor Number:	0
Sample Area (cm2):	1.00e-04
Sample Thickness (microns):	1.50e-01

Amplifier:	Internal

»»»»»»»»»»»»»»»»»»»»»»»»»»»»»»»»»»» Tester Info «««««««««««««««««««««««««««««««««««
Tester Name:	PMF21124-494 (100V)
Tester Serial Number:	PMF21124-494
Return Signal Amp. Level:	1.79 [Index: 2]

»»»»»»»»»»»»»»»»»»»»»»»»»»»»»»»» Hysteresis Info ««««««««««««««««««««««««««««««««««
Task Name:	Hyst-1184
Volts:	10.00
Field:	666.67 (kV/cm)
DCBias:	0.00
DCField:	0.00 (kV/cm)
Hysteresis Period (ms):	1.00e+00
Preset:	Enabled
Preset Delay (ms):	1.00e+03
Profile:	Standard Bipolar

»»»»»»»»»»»»»»»»»»»»»»»»»»»»»»»»»»»»»» Data «««««««««««««««««««««««««««««««««««««««
Points:	2001

Valid Data

Point	Time (ms)	Drive Voltage	Measured Polarization (uC/cm2)	Capacitance (uF)	Normalized Capacitance (uF/cm2)	Dielectric Constant	Instantaneous Current (mA)
   1	0.0000e+00	-0.0033	-3.149888	0.000321	3.207771	0.543411	0.012829
   2	5.0000e-04	0.0183	-3.085744	0.000321	3.207771	0.543411	0.012829
   3	1.0000e-03	0.0375	-3.041699	0.000220	2.202669	0.373142	0.008809
   4	1.5000e-03	0.0552	-3.003212	0.000192	1.924662	0.326047	0.007697
   5	2.0000e-03	0.0769	-2.980976	0.000111	1.112027	0.188383	0.004447
   6	2.5000e-03	0.0978	-2.930088	0.000254	2.544832	0.431106	0.010177
   7	3.0000e-03	0.1167	-2.872787	0.000287	2.865609	0.485447	0.011460
   8	3.5000e-03	0.1372	-2.827458	0.000227	2.266825	0.384010	0.009066
   9	4.0000e-03	0.1581	-2.792393	0.000175	1.753581	0.297065	0.007013
  10	4.5000e-03	0.1760	-2.740223	0.000261	2.608987	0.441974	0.010434
  11	5.0000e-03	0.1976	-2.710717	0.000148	1.475575	0.249969	0.005901
  12	5.5000e-03	0.2181	-2.679072	0.000158	1.582500	0.268083	0.006329
  13	6.0000e-03	0.2388	-2.652560	0.000133	1.325879	0.224610	0.005303
  14	6.5000e-03	0.2586	-2.622626	0.000150	1.496960	0.253592	0.005987
  15	7.0000e-03	0.2778	-2.546081	0.000383	3.827940	0.648471	0.015309
  16	7.5000e-03	0.2998	-2.518713	0.000137	1.368649	0.231855	0.005474
  17	8.0000e-03	0.3182	-2.465260	0.000267	2.673142	0.452843	0.010691
  18	8.5000e-03	0.3377	-2.421642	0.000218	2.181284	0.369520	0.008724
  19	9.0000e-03	0.3580	-2.398123	0.000118	1.176183	0.199251	0.004704
  20	9.5000e-03	0.3793	-2.345525	0.000263	2.630372	0.445597	0.010520
  21	1.0000e-02	0.3964	-2.298058	0.000237	2.373750	0.402124	0.009493
  22	1.0500e-02	0.4181	-2.263421	0.000173	1.732196	0.293442	0.006928
  23	1.1000e-02	0.4379	-2.226645	0.000184	1.839122	0.311556	0.007355
  24	1.1500e-02	0.4552	-2.171909	0.000274	2.737298	0.463711	0.010947
  25	1.2000e-02	0.4800	-2.134278	0.000188	1.881892	0.318801	0.007526
  26	1.2500e-02	0.5013	-2.107337	0.000135	1.347264	0.228233	0.005388
  27	1.3000e-02	0.5193	-2.074410	0.000165	1.646656	0.278951	0.006585
  28	1.3500e-02	0.5409	-2.038490	0.000180	1.796352	0.304310	0.007184
  29	1.4000e-02	0.5577	-1.988458	0.000250	2.502061	0.423861	0.010006
  30	1.4500e-02	0.5791	-1.949116	0.000197	1.967433	0.333292	0.007868
  31	1.5000e-02	0.5976	-1.886683	0.000312	3.122230	0.528920	0.012487
  32	1.5500e-02	0.6195	-1.853756	0.000165	1.646656	0.278951	0.006585
  33	1.6000e-02	0.6413	-1.807144	0.000233	2.330980	0.394879	0.009322
  34	1.6500e-02	0.6589	-1.752836	0.000272	2.715913	0.460088	0.010862
  35	1.7000e-02	0.6792	-1.717343	0.000177	1.774967	0.300687	0.007099
  36	1.7500e-02	0.6980	-1.706225	0.000056	0.556014	0.094191	0.002224
  37	1.8000e-02	0.7178	-1.642081	0.000321	3.207771	0.543411	0.012829
  38	1.8500e-02	0.7394	-1.593332	0.000244	2.437906	0.412992	0.009750
  39	1.9000e-02	0.7578	-1.548431	0.000225	2.245440	0.380388	0.008980
  40	1.9500e-02	0.7803	-1.503103	0.000227	2.266825	0.384010	0.009066
  41	2.0000e-02	0.7998	-1.477018	0.000130	1.304493	0.220987	0.005217
  42	2.0500e-02	0.8185	-1.429124	0.000240	2.395136	0.405747	0.009579
  43	2.1000e-02	0.8398	-1.373532	0.000278	2.780068	0.470956	0.011118
  44	2.1500e-02	0.8583	-1.354289	0.000096	0.962331	0.163023	0.003849
  45	2.2000e-02	0.8800	-1.302119	0.000261	2.608987	0.441974	0.010434
  46	2.2500e-02	0.9003	-1.254653	0.000237	2.373750	0.402124	0.009493
  47	2.3000e-02	0.9189	-1.207186	0.000237	2.373750	0.402124	0.009493
  48	2.3500e-02	0.9390	-1.167417	0.000199	1.988818	0.336915	0.007954
  49	2.4000e-02	0.9598	-1.148601	0.000094	0.940946	0.159401	0.003763
  50	2.4500e-02	0.9764	-1.074622	0.000370	3.699629	0.626734	0.014796
  51	2.5000e-02	0.9966	-1.021597	0.000265	2.651757	0.449220	0.010605
  52	2.5500e-02	1.0194	-0.984821	0.000184	1.839122	0.311556	0.007355
  53	2.6000e-02	1.0366	-0.948900	0.000180	1.796352	0.304310	0.007184
  54	2.6500e-02	1.0579	-0.904855	0.000220	2.202669	0.373142	0.008809
  55	2.7000e-02	1.0786	-0.865086	0.000199	1.988818	0.336915	0.007954
  56	2.7500e-02	1.0990	-0.812060	0.000265	2.651757	0.449220	0.010605
  57	2.8000e-02	1.1196	-0.773574	0.000192	1.924662	0.326047	0.007697
  58	2.8500e-02	1.1392	-0.726963	0.000233	2.330980	0.394879	0.009322
  59	2.9000e-02	1.1591	-0.678641	0.000242	2.416521	0.409370	0.009664
  60	2.9500e-02	1.1799	-0.638872	0.000199	1.988818	0.336915	0.007954
  61	3.0000e-02	1.2000	-0.594399	0.000222	2.224054	0.376765	0.008895
  62	3.0500e-02	1.2211	-0.551637	0.000214	2.138514	0.362274	0.008553
  63	3.1000e-02	1.2386	-0.511440	0.000201	2.010203	0.340538	0.008039
  64	3.1500e-02	1.2579	-0.457559	0.000269	2.694527	0.456465	0.010776
  65	3.2000e-02	1.2782	-0.461835	-0.000021	-0.213851	-0.036227	-0.000855
  66	3.2500e-02	1.2968	-0.372034	0.000449	4.490879	0.760776	0.017960
  67	3.3000e-02	1.3197	-0.317298	0.000274	2.737298	0.463711	0.010947
  68	3.3500e-02	1.3377	-0.268976	0.000242	2.416521	0.409370	0.009664
  69	3.4000e-02	1.3599	-0.233056	0.000180	1.796352	0.304310	0.007184
  70	3.4500e-02	1.3775	-0.187300	0.000229	2.288210	0.387633	0.009151
  71	3.5000e-02	1.3989	-0.141116	0.000231	2.309595	0.391256	0.009237
  72	3.5500e-02	1.4188	-0.101775	0.000197	1.967433	0.333292	0.007868
  73	3.6000e-02	1.4400	-0.058585	0.000216	2.159899	0.365897	0.008638
  74	3.6500e-02	1.4588	-0.017533	0.000205	2.052973	0.347783	0.008210
  75	3.7000e-02	1.4804	0.025658	0.000216	2.159899	0.365897	0.008638
  76	3.7500e-02	1.4966	0.073124	0.000237	2.373750	0.402124	0.009493
  77	3.8000e-02	1.5169	0.129570	0.000282	2.822838	0.478202	0.011289
  78	3.8500e-02	1.5377	0.169767	0.000201	2.010203	0.340538	0.008039
  79	3.9000e-02	1.5565	0.222793	0.000265	2.651757	0.449220	0.010605
  80	3.9500e-02	1.5805	0.262562	0.000199	1.988818	0.336915	0.007954
  81	4.0000e-02	1.5997	0.311739	0.000246	2.459291	0.416615	0.009835
  82	4.0500e-02	1.6172	0.356212	0.000222	2.224054	0.376765	0.008895
  83	4.1000e-02	1.6400	0.406244	0.000250	2.502061	0.423861	0.010006
  84	4.1500e-02	1.6595	0.438744	0.000163	1.625271	0.275328	0.006500
  85	4.2000e-02	1.6787	0.488348	0.000248	2.480676	0.420238	0.009921
  86	4.2500e-02	1.6963	0.531538	0.000216	2.159899	0.365897	0.008638
  87	4.3000e-02	1.7176	0.566603	0.000175	1.753581	0.297065	0.007013
  88	4.3500e-02	1.7395	0.633741	0.000336	3.357467	0.568770	0.013427
  89	4.4000e-02	1.7590	0.688904	0.000276	2.758683	0.467334	0.011033
  90	4.4500e-02	1.7801	0.742357	0.000267	2.673142	0.452843	0.010691
  91	4.5000e-02	1.8002	0.776567	0.000171	1.710811	0.289819	0.006842
  92	4.5500e-02	1.8196	0.810778	0.000171	1.710811	0.289819	0.006842
  93	4.6000e-02	1.8422	0.849691	0.000195	1.946048	0.329669	0.007783
  94	4.6500e-02	1.8582	0.897585	0.000240	2.395136	0.405747	0.009579
  95	4.7000e-02	1.8822	0.945479	0.000240	2.395136	0.405747	0.009579
  96	4.7500e-02	1.9011	0.983538	0.000190	1.903277	0.322424	0.007612
  97	4.8000e-02	1.9177	1.052386	0.000344	3.443007	0.583261	0.013770
  98	4.8500e-02	1.9384	1.098142	0.000229	2.288210	0.387633	0.009151
  99	4.9000e-02	1.9574	1.140904	0.000214	2.138514	0.362274	0.008553
 100	4.9500e-02	1.9800	1.183667	0.000214	2.138514	0.362274	0.008553
 101	5.0000e-02	1.9995	1.232844	0.000246	2.459291	0.416615	0.009835
 102	5.0500e-02	2.0197	1.274323	0.000207	2.074358	0.351406	0.008296
 103	5.1000e-02	2.0377	1.334618	0.000302	3.015305	0.510806	0.012059
 104	5.1500e-02	2.0607	1.377809	0.000216	2.159899	0.365897	0.008638
 105	5.2000e-02	2.0810	1.405177	0.000137	1.368649	0.231855	0.005474
 106	5.2500e-02	2.0978	1.450933	0.000229	2.288210	0.387633	0.009151
 107	5.3000e-02	2.1185	1.516359	0.000327	3.271926	0.554279	0.013085
 108	5.3500e-02	2.1394	1.573233	0.000284	2.844223	0.481824	0.011375
 109	5.4000e-02	2.1608	1.609582	0.000182	1.817737	0.307933	0.007270
 110	5.4500e-02	2.1786	1.639088	0.000148	1.475575	0.249969	0.005901
 111	5.5000e-02	2.1991	1.711356	0.000361	3.614088	0.612243	0.014454
 112	5.5500e-02	2.2163	1.743001	0.000158	1.582500	0.268083	0.006329
 113	5.6000e-02	2.2383	1.789612	0.000233	2.330980	0.394879	0.009322
 114	5.6500e-02	2.2599	1.837078	0.000237	2.373750	0.402124	0.009493
 115	5.7000e-02	2.2763	1.901650	0.000323	3.229156	0.547034	0.012914
 116	5.7500e-02	2.2972	1.935004	0.000167	1.668041	0.282574	0.006671
 117	5.8000e-02	2.3181	1.996582	0.000308	3.079460	0.521675	0.012316
 118	5.8500e-02	2.3391	2.043194	0.000233	2.330980	0.394879	0.009322
 119	5.9000e-02	2.3575	2.094081	0.000254	2.544832	0.431106	0.010177
 120	5.9500e-02	2.3763	2.141975	0.000240	2.395136	0.405747	0.009579
 121	6.0000e-02	2.3988	2.195856	0.000269	2.694527	0.456465	0.010776
 122	6.0500e-02	2.4176	2.224079	0.000141	1.411419	0.239101	0.005645
 123	6.1000e-02	2.4379	2.290789	0.000334	3.336082	0.565148	0.013342
 124	6.1500e-02	2.4582	2.306611	0.000079	0.791250	0.134041	0.003164
 125	6.2000e-02	2.4776	2.389998	0.000417	4.170102	0.706434	0.016677
 126	6.2500e-02	2.4990	2.428484	0.000192	1.924662	0.326047	0.007697
 127	6.3000e-02	2.5191	2.486641	0.000291	2.908379	0.492693	0.011631
 128	6.3500e-02	2.5397	2.499042	0.000062	0.620169	0.105059	0.002480
 129	6.4000e-02	2.5574	2.581574	0.000413	4.127332	0.699189	0.016506
 130	6.4500e-02	2.5793	2.604666	0.000115	1.154797	0.195628	0.004618
 131	6.5000e-02	2.5971	2.660684	0.000280	2.801453	0.474579	0.011204
 132	6.5500e-02	2.6178	2.704302	0.000218	2.181284	0.369520	0.008724
 133	6.6000e-02	2.6351	2.755617	0.000257	2.566217	0.434729	0.010263
 134	6.6500e-02	2.6563	2.815057	0.000297	2.972534	0.503561	0.011888
 135	6.7000e-02	2.6805	2.854826	0.000199	1.988818	0.336915	0.007954
 136	6.7500e-02	2.6993	2.899727	0.000225	2.245440	0.380388	0.008980
 137	6.8000e-02	2.7193	2.948476	0.000244	2.437906	0.412992	0.009750
 138	6.8500e-02	2.7386	2.991239	0.000214	2.138514	0.362274	0.008553
 139	6.9000e-02	2.7589	3.036139	0.000225	2.245440	0.380388	0.008980
 140	6.9500e-02	2.7789	3.102421	0.000331	3.314696	0.561525	0.013256
 141	7.0000e-02	2.7986	3.145612	0.000216	2.159899	0.365897	0.008638
 142	7.0500e-02	2.8188	3.168276	0.000113	1.133412	0.192005	0.004533
 143	7.1000e-02	2.8427	3.235413	0.000336	3.357467	0.568770	0.013427
 144	7.1500e-02	2.8593	3.264919	0.000148	1.475575	0.249969	0.005901
 145	7.2000e-02	2.8796	3.322648	0.000289	2.886994	0.489070	0.011546
 146	7.2500e-02	2.8970	3.376102	0.000267	2.673142	0.452843	0.010691
 147	7.3000e-02	2.9186	3.429127	0.000265	2.651757	0.449220	0.010605
 148	7.3500e-02	2.9379	3.469324	0.000201	2.010203	0.340538	0.008039
 149	7.4000e-02	2.9575	3.503534	0.000171	1.710811	0.289819	0.006842
 150	7.4500e-02	2.9819	3.560408	0.000284	2.844223	0.481824	0.011375
 151	7.5000e-02	3.0005	3.598467	0.000190	1.903277	0.322424	0.007612
 152	7.5500e-02	3.0194	3.660472	0.000310	3.100845	0.525297	0.012401
 153	7.6000e-02	3.0396	3.722050	0.000308	3.079460	0.521675	0.012316
 154	7.6500e-02	3.0591	3.755405	0.000167	1.668041	0.282574	0.006671
 155	7.7000e-02	3.0800	3.812707	0.000287	2.865609	0.485447	0.011460
 156	7.7500e-02	3.0981	3.834516	0.000109	1.090642	0.184760	0.004362
 157	7.8000e-02	3.1186	3.910633	0.000381	3.806555	0.644848	0.015223
 158	7.8500e-02	3.1386	3.939284	0.000143	1.432804	0.242724	0.005730
 159	7.9000e-02	3.1604	3.968363	0.000145	1.454189	0.246346	0.005816
 160	7.9500e-02	3.1757	4.049184	0.000404	4.041791	0.684698	0.016164
 161	8.0000e-02	3.1971	4.088098	0.000195	1.946048	0.329669	0.007783
 162	8.0500e-02	3.2162	4.154380	0.000331	3.314696	0.561525	0.013256
 163	8.1000e-02	3.2379	4.192011	0.000188	1.881892	0.318801	0.007526
 164	8.1500e-02	3.2581	4.234773	0.000214	2.138514	0.362274	0.008553
 165	8.2000e-02	3.2790	4.272404	0.000188	1.881892	0.318801	0.007526
 166	8.2500e-02	3.2991	4.324574	0.000261	2.608987	0.441974	0.010434
 167	8.3000e-02	3.3215	4.354081	0.000148	1.475575	0.249969	0.005901
 168	8.3500e-02	3.3374	4.392139	0.000190	1.903277	0.322424	0.007612
 169	8.4000e-02	3.3594	4.471250	0.000396	3.956251	0.670207	0.015822
 170	8.4500e-02	3.3795	4.508453	0.000186	1.860507	0.315178	0.007441
 171	8.5000e-02	3.3987	4.540098	0.000158	1.582500	0.268083	0.006329
 172	8.5500e-02	3.4213	4.590557	0.000252	2.523446	0.427483	0.010092
 173	8.6000e-02	3.4378	4.640162	0.000248	2.480676	0.420238	0.009921
 174	8.6500e-02	3.4617	4.706871	0.000334	3.336082	0.565148	0.013342
 175	8.7000e-02	3.4781	4.746213	0.000197	1.967433	0.333292	0.007868
 176	8.7500e-02	3.5013	4.788120	0.000210	2.095744	0.355029	0.008381
 177	8.8000e-02	3.5193	4.833448	0.000227	2.266825	0.384010	0.009066
 178	8.8500e-02	3.5406	4.883053	0.000248	2.480676	0.420238	0.009921
 179	8.9000e-02	3.5596	4.900586	0.000088	0.876791	0.148532	0.003507
 180	8.9500e-02	3.5780	4.969433	0.000344	3.443007	0.583261	0.013770
 181	9.0000e-02	3.5999	5.019038	0.000248	2.480676	0.420238	0.009921
 182	9.0500e-02	3.6212	5.061373	0.000212	2.117129	0.358651	0.008467
 183	9.1000e-02	3.6389	5.113971	0.000263	2.630372	0.445597	0.010520
 184	9.1500e-02	3.6581	5.159299	0.000227	2.266825	0.384010	0.009066
 185	9.2000e-02	3.6816	5.197785	0.000192	1.924662	0.326047	0.007697
 186	9.2500e-02	3.6984	5.250383	0.000263	2.630372	0.445597	0.010520
 187	9.3000e-02	3.7204	5.306830	0.000282	2.822838	0.478202	0.011289
 188	9.3500e-02	3.7386	5.335053	0.000141	1.411419	0.239101	0.005645
 189	9.4000e-02	3.7592	5.388078	0.000265	2.651757	0.449220	0.010605
 190	9.4500e-02	3.7814	5.435972	0.000240	2.395136	0.405747	0.009579
 191	9.5000e-02	3.7985	5.467617	0.000158	1.582500	0.268083	0.006329
 192	9.5500e-02	3.8162	5.527484	0.000299	2.993919	0.507184	0.011974
 193	9.6000e-02	3.8409	5.580082	0.000263	2.630372	0.445597	0.010520
 194	9.6500e-02	3.8559	5.634391	0.000272	2.715913	0.460088	0.010862
 195	9.7000e-02	3.8791	5.657910	0.000118	1.176183	0.199251	0.004704
 196	9.7500e-02	3.8992	5.710936	0.000265	2.651757	0.449220	0.010605
 197	9.8000e-02	3.9194	5.770803	0.000299	2.993919	0.507184	0.011974
 198	9.8500e-02	3.9383	5.794750	0.000120	1.197568	0.202873	0.004789
 199	9.9000e-02	3.9601	5.859749	0.000325	3.250541	0.550657	0.013000
 200	9.9500e-02	3.9804	5.882841	0.000115	1.154797	0.195628	0.004618
 201	1.0000e-01	3.9996	5.946985	0.000321	3.207771	0.543411	0.012829
 202	1.0050e-01	4.0174	6.012839	0.000329	3.293311	0.557902	0.013171
 203	1.0100e-01	4.0405	6.017543	0.000024	0.235237	0.039850	0.000941
 204	1.0150e-01	4.0607	6.064154	0.000233	2.330980	0.394879	0.009322
 205	1.0200e-01	4.0782	6.108627	0.000222	2.224054	0.376765	0.008895
 206	1.0250e-01	4.1003	6.159942	0.000257	2.566217	0.434729	0.010263
 207	1.0300e-01	4.1188	6.202705	0.000214	2.138514	0.362274	0.008553
 208	1.0350e-01	4.1383	6.257441	0.000274	2.737298	0.463711	0.010947
 209	1.0400e-01	4.1589	6.292506	0.000175	1.753581	0.297065	0.007013
 210	1.0450e-01	4.1803	6.318163	0.000128	1.283108	0.217364	0.005132
 211	1.0500e-01	4.1974	6.369051	0.000254	2.544832	0.431106	0.010177
 212	1.0550e-01	4.2181	6.432767	0.000319	3.186386	0.539788	0.012743
 213	1.0600e-01	4.2383	6.474674	0.000210	2.095744	0.355029	0.008381
 214	1.0650e-01	4.2592	6.543522	0.000344	3.443007	0.583261	0.013770
 215	1.0700e-01	4.2798	6.590561	0.000235	2.352365	0.398501	0.009408
 216	1.0750e-01	4.2993	6.623060	0.000163	1.625271	0.275328	0.006500
 217	1.0800e-01	4.3184	6.661119	0.000190	1.903277	0.322424	0.007612
 218	1.0850e-01	4.3384	6.699605	0.000192	1.924662	0.326047	0.007697
 219	1.0900e-01	4.3600	6.750065	0.000252	2.523446	0.427483	0.010092
 220	1.0950e-01	4.3805	6.783420	0.000167	1.668041	0.282574	0.006671
 221	1.1000e-01	4.4003	6.840294	0.000284	2.844223	0.481824	0.011375
 222	1.1050e-01	4.4186	6.879208	0.000195	1.946048	0.329669	0.007783
 223	1.1100e-01	4.4403	6.918549	0.000197	1.967433	0.333292	0.007868
 224	1.1150e-01	4.4588	6.967726	0.000246	2.459291	0.416615	0.009835
 225	1.1200e-01	4.4812	7.003219	0.000177	1.774967	0.300687	0.007099
 226	1.1250e-01	4.4992	7.055817	0.000263	2.630372	0.445597	0.010520
 227	1.1300e-01	4.5180	7.111836	0.000280	2.801453	0.474579	0.011204
 228	1.1350e-01	4.5398	7.160585	0.000244	2.437906	0.412992	0.009750
 229	1.1400e-01	4.5599	7.187953	0.000137	1.368649	0.231855	0.005474
 230	1.1450e-01	4.5813	7.230288	0.000212	2.117129	0.358651	0.008467
 231	1.1500e-01	4.6027	7.267919	0.000188	1.881892	0.318801	0.007526
 232	1.1550e-01	4.6216	7.326504	0.000293	2.929764	0.496315	0.011717
 233	1.1600e-01	4.6387	7.361569	0.000175	1.753581	0.297065	0.007013
 234	1.1650e-01	4.6600	7.412029	0.000252	2.523446	0.427483	0.010092
 235	1.1700e-01	4.6802	7.437259	0.000126	1.261723	0.213742	0.005046
 236	1.1750e-01	4.6994	7.500975	0.000319	3.186386	0.539788	0.012743
 237	1.1800e-01	4.7192	7.535185	0.000171	1.710811	0.289819	0.006842
 238	1.1850e-01	4.7424	7.584789	0.000248	2.480676	0.420238	0.009921
 239	1.1900e-01	4.7583	7.621565	0.000184	1.839122	0.311556	0.007355
 240	1.1950e-01	4.7778	7.665611	0.000220	2.202669	0.373142	0.008809
 241	1.2000e-01	4.8000	7.730182	0.000323	3.229156	0.547034	0.012914
 242	1.2050e-01	4.8186	7.758405	0.000141	1.411419	0.239101	0.005645
 243	1.2100e-01	4.8395	7.817845	0.000297	2.972534	0.503561	0.011888
 244	1.2150e-01	4.8602	7.858897	0.000205	2.052973	0.347783	0.008210
 245	1.2200e-01	4.8767	7.899522	0.000203	2.031588	0.344160	0.008125
 246	1.2250e-01	4.8993	7.947843	0.000242	2.416521	0.409370	0.009664
 247	1.2300e-01	4.9200	7.996593	0.000244	2.437906	0.412992	0.009750
 248	1.2350e-01	4.9414	8.020540	0.000120	1.197568	0.202873	0.004789
 249	1.2400e-01	4.9615	8.068434	0.000240	2.395136	0.405747	0.009579
 250	1.2450e-01	4.9800	8.117183	0.000244	2.437906	0.412992	0.009750
 251	1.2500e-01	4.9988	8.153531	0.000182	1.817737	0.307933	0.007270
 252	1.2550e-01	5.0198	8.206129	0.000263	2.630372	0.445597	0.010520
 253	1.2600e-01	5.0378	8.251030	0.000225	2.245440	0.380388	0.008980
 254	1.2650e-01	5.0612	8.251885	0.000004	0.042770	0.007245	0.000171
 255	1.2700e-01	5.0797	8.331851	0.000400	3.999021	0.677452	0.015993
 256	1.2750e-01	5.0995	8.357936	0.000130	1.304493	0.220987	0.005217
 257	1.2800e-01	5.1227	8.398988	0.000205	2.052973	0.347783	0.008210
 258	1.2850e-01	5.1392	8.437902	0.000195	1.946048	0.329669	0.007783
 259	1.2900e-01	5.1599	8.499480	0.000308	3.079460	0.521675	0.012316
 260	1.2950e-01	5.1782	8.522572	0.000115	1.154797	0.195628	0.004618
 261	1.3000e-01	5.2010	8.577735	0.000276	2.758683	0.467334	0.011033
 262	1.3050e-01	5.2179	8.630333	0.000263	2.630372	0.445597	0.010520
 263	1.3100e-01	5.2380	8.685069	0.000274	2.737298	0.463711	0.010947
 264	1.3150e-01	5.2579	8.729970	0.000225	2.245440	0.380388	0.008980
 265	1.3200e-01	5.2771	8.760331	0.000152	1.518345	0.257215	0.006072
 266	1.3250e-01	5.2997	8.806515	0.000231	2.309595	0.391256	0.009237
 267	1.3300e-01	5.3186	8.849277	0.000214	2.138514	0.362274	0.008553
 268	1.3350e-01	5.3400	8.872797	0.000118	1.176183	0.199251	0.004704
 269	1.3400e-01	5.3589	8.917697	0.000225	2.245440	0.380388	0.008980
 270	1.3450e-01	5.3804	8.944638	0.000135	1.347264	0.228233	0.005388
 271	1.3500e-01	5.3992	9.009209	0.000323	3.229156	0.547034	0.012914
 272	1.3550e-01	5.4211	9.066083	0.000284	2.844223	0.481824	0.011375
 273	1.3600e-01	5.4384	9.086182	0.000101	1.005102	0.170269	0.004020
 274	1.3650e-01	5.4575	9.123813	0.000188	1.881892	0.318801	0.007526
 275	1.3700e-01	5.4779	9.171707	0.000240	2.395136	0.405747	0.009579
 276	1.3750e-01	5.4996	9.216608	0.000225	2.245440	0.380388	0.008980
 277	1.3800e-01	5.5206	9.263646	0.000235	2.352365	0.398501	0.009408
 278	1.3850e-01	5.5402	9.294863	0.000156	1.561115	0.264460	0.006243
 279	1.3900e-01	5.5591	9.338908	0.000220	2.202669	0.373142	0.008809
 280	1.3950e-01	5.5811	9.384664	0.000229	2.288210	0.387633	0.009151
 281	1.4000e-01	5.5989	9.416736	0.000160	1.603885	0.271706	0.006414
 282	1.4050e-01	5.6190	9.467196	0.000252	2.523446	0.427483	0.010092
 283	1.4100e-01	5.6386	9.500551	0.000167	1.668041	0.282574	0.006671
 284	1.4150e-01	5.6577	9.555287	0.000274	2.737298	0.463711	0.010947
 285	1.4200e-01	5.6799	9.578806	0.000118	1.176183	0.199251	0.004704
 286	1.4250e-01	5.7013	9.617292	0.000192	1.924662	0.326047	0.007697
 287	1.4300e-01	5.7184	9.654068	0.000184	1.839122	0.311556	0.007355
 288	1.4350e-01	5.7386	9.705383	0.000257	2.566217	0.434729	0.010263
 289	1.4400e-01	5.7584	9.746435	0.000205	2.052973	0.347783	0.008210
 290	1.4450e-01	5.7806	9.793046	0.000233	2.330980	0.394879	0.009322
 291	1.4500e-01	5.7977	9.815711	0.000113	1.133412	0.192005	0.004533
 292	1.4550e-01	5.8173	9.866170	0.000252	2.523446	0.427483	0.010092
 293	1.4600e-01	5.8411	9.921762	0.000278	2.780068	0.470956	0.011118
 294	1.4650e-01	5.8560	9.966235	0.000222	2.224054	0.376765	0.008895
 295	1.4700e-01	5.8771	10.021826	0.000278	2.780068	0.470956	0.011118
 296	1.4750e-01	5.9009	10.040641	0.000094	0.940946	0.159401	0.003763
 297	1.4800e-01	5.9186	10.075279	0.000173	1.732196	0.293442	0.006928
 298	1.4850e-01	5.9387	10.115903	0.000203	2.031588	0.344160	0.008125
 299	1.4900e-01	5.9576	10.167646	0.000259	2.587602	0.438352	0.010349
 300	1.4950e-01	5.9790	10.200573	0.000165	1.646656	0.278951	0.006585
 301	1.5000e-01	6.0002	10.224093	0.000118	1.176183	0.199251	0.004704
 302	1.5050e-01	6.0196	10.282250	0.000291	2.908379	0.492693	0.011631
 303	1.5100e-01	6.0388	10.319881	0.000188	1.881892	0.318801	0.007526
 304	1.5150e-01	6.0596	10.351953	0.000160	1.603885	0.271706	0.006414
 305	1.5200e-01	6.0817	10.378893	0.000135	1.347264	0.228233	0.005388
 306	1.5250e-01	6.0986	10.430636	0.000259	2.587602	0.438352	0.010349
 307	1.5300e-01	6.1206	10.473826	0.000216	2.159899	0.365897	0.008638
 308	1.5350e-01	6.1389	10.507181	0.000167	1.668041	0.282574	0.006671
 309	1.5400e-01	6.1592	10.556358	0.000246	2.459291	0.416615	0.009835
 310	1.5450e-01	6.1792	10.585008	0.000143	1.432804	0.242724	0.005730
 311	1.5500e-01	6.1996	10.639744	0.000274	2.737298	0.463711	0.010947
 312	1.5550e-01	6.2195	10.687638	0.000240	2.395136	0.405747	0.009579
 313	1.5600e-01	6.2396	10.706882	0.000096	0.962331	0.163023	0.003849
 314	1.5650e-01	6.2585	10.750927	0.000220	2.202669	0.373142	0.008809
 315	1.5700e-01	6.2764	10.785137	0.000171	1.710811	0.289819	0.006842
 316	1.5750e-01	6.3010	10.829610	0.000222	2.224054	0.376765	0.008895
 317	1.5800e-01	6.3185	10.834742	0.000026	0.256622	0.043473	0.001026
 318	1.5850e-01	6.3367	10.911287	0.000383	3.827940	0.648471	0.015309
 319	1.5900e-01	6.3580	10.948490	0.000186	1.860507	0.315178	0.007441
 320	1.5950e-01	6.3763	11.001943	0.000267	2.673142	0.452843	0.010691
 321	1.6000e-01	6.3971	11.031449	0.000148	1.475575	0.249969	0.005901
 322	1.6050e-01	6.4178	11.048127	0.000083	0.834020	0.141287	0.003335
 323	1.6100e-01	6.4423	11.093027	0.000225	2.245440	0.380388	0.008980
 324	1.6150e-01	6.4583	11.133224	0.000201	2.010203	0.340538	0.008039
 325	1.6200e-01	6.4795	11.184539	0.000257	2.566217	0.434729	0.010263
 326	1.6250e-01	6.4978	11.211479	0.000135	1.347264	0.228233	0.005388
 327	1.6300e-01	6.5179	11.258091	0.000233	2.330980	0.394879	0.009322
 328	1.6350e-01	6.5387	11.300426	0.000212	2.117129	0.358651	0.008467
 329	1.6400e-01	6.5607	11.360721	0.000302	3.015305	0.510806	0.012059
 330	1.6450e-01	6.5771	11.360721	0.000000	0.000000	0.000000	0.000000
 331	1.6500e-01	6.5997	11.414174	0.000267	2.673142	0.452843	0.010691
 332	1.6550e-01	6.6187	11.426575	0.000062	0.620169	0.105059	0.002480
 333	1.6600e-01	6.6383	11.474041	0.000237	2.373750	0.402124	0.009493
 334	1.6650e-01	6.6577	11.539896	0.000329	3.293311	0.557902	0.013171
 335	1.6700e-01	6.6797	11.559994	0.000101	1.005102	0.170269	0.004020
 336	1.6750e-01	6.6982	11.590783	0.000154	1.539730	0.260837	0.006158
 337	1.6800e-01	6.7212	11.635256	0.000222	2.224054	0.376765	0.008895
 338	1.6850e-01	6.7383	11.659631	0.000122	1.218953	0.206496	0.004875
 339	1.6900e-01	6.7580	11.705814	0.000231	2.309595	0.391256	0.009237
 340	1.6950e-01	6.7792	11.760550	0.000274	2.737298	0.463711	0.010947
 341	1.7000e-01	6.7957	11.783642	0.000115	1.154797	0.195628	0.004618
 342	1.7050e-01	6.8195	11.815286	0.000158	1.582500	0.268083	0.006329
 343	1.7100e-01	6.8390	11.856766	0.000207	2.074358	0.351406	0.008296
 344	1.7150e-01	6.8564	11.880713	0.000120	1.197568	0.202873	0.004789
 345	1.7200e-01	6.8794	11.914068	0.000167	1.668041	0.282574	0.006671
 346	1.7250e-01	6.9003	11.967093	0.000265	2.651757	0.449220	0.010605
 347	1.7300e-01	6.9177	11.993606	0.000133	1.325879	0.224610	0.005303
 348	1.7350e-01	6.9397	12.015415	0.000109	1.090642	0.184760	0.004362
 349	1.7400e-01	6.9568	12.085546	0.000351	3.507163	0.594129	0.014026
 350	1.7450e-01	6.9788	12.101368	0.000079	0.791250	0.134041	0.003164
 351	1.7500e-01	6.9983	12.148406	0.000235	2.352365	0.398501	0.009408
 352	1.7550e-01	7.0184	12.181761	0.000167	1.668041	0.282574	0.006671
 353	1.7600e-01	7.0404	12.217254	0.000177	1.774967	0.300687	0.007099
 354	1.7650e-01	7.0569	12.251036	0.000169	1.689426	0.286197	0.006756
 355	1.7700e-01	7.0770	12.284819	0.000169	1.689426	0.286197	0.006756
 356	1.7750e-01	7.0984	12.319884	0.000175	1.753581	0.297065	0.007013
 357	1.7800e-01	7.1191	12.367778	0.000240	2.395136	0.405747	0.009579
 358	1.7850e-01	7.1375	12.381035	0.000066	0.662939	0.112305	0.002651
 359	1.7900e-01	7.1619	12.424652	0.000218	2.181284	0.369520	0.008724
 360	1.7950e-01	7.1790	12.475540	0.000254	2.544832	0.431106	0.010177
 361	1.8000e-01	7.1985	12.498204	0.000113	1.133412	0.192005	0.004533
 362	1.8050e-01	7.2186	12.525144	0.000135	1.347264	0.228233	0.005388
 363	1.8100e-01	7.2388	12.579880	0.000274	2.737298	0.463711	0.010947
 364	1.8150e-01	7.2580	12.610669	0.000154	1.539730	0.260837	0.006158
 365	1.8200e-01	7.2781	12.646162	0.000177	1.774967	0.300687	0.007099
 366	1.8250e-01	7.2980	12.670109	0.000120	1.197568	0.202873	0.004789
 367	1.8300e-01	7.3206	12.719714	0.000248	2.480676	0.420238	0.009921
 368	1.8350e-01	7.3383	12.750930	0.000156	1.561115	0.264460	0.006243
 369	1.8400e-01	7.3596	12.802245	0.000257	2.566217	0.434729	0.010263
 370	1.8450e-01	7.3804	12.822344	0.000101	1.005102	0.170269	0.004020
 371	1.8500e-01	7.3999	12.860403	0.000190	1.903277	0.322424	0.007612
 372	1.8550e-01	7.4167	12.912145	0.000259	2.587602	0.438352	0.010349
 373	1.8600e-01	7.4396	12.932671	0.000103	1.026487	0.173892	0.004105
 374	1.8650e-01	7.4564	12.972868	0.000201	2.010203	0.340538	0.008039
 375	1.8700e-01	7.4770	13.001946	0.000145	1.454189	0.246346	0.005816
 376	1.8750e-01	7.4969	13.032308	0.000152	1.518345	0.257215	0.006072
 377	1.8800e-01	7.5189	13.069511	0.000186	1.860507	0.315178	0.007441
 378	1.8850e-01	7.5409	13.089182	0.000098	0.983716	0.166646	0.003934
 379	1.8900e-01	7.5592	13.130234	0.000205	2.052973	0.347783	0.008210
 380	1.8950e-01	7.5793	13.147339	0.000086	0.855406	0.144910	0.003421
 381	1.9000e-01	7.5990	13.198654	0.000257	2.566217	0.434729	0.010263
 382	1.9050e-01	7.6187	13.215331	0.000083	0.834020	0.141287	0.003335
 383	1.9100e-01	7.6379	13.262798	0.000237	2.373750	0.402124	0.009493
 384	1.9150e-01	7.6575	13.305988	0.000216	2.159899	0.365897	0.008638
 385	1.9200e-01	7.6782	13.345757	0.000199	1.988818	0.336915	0.007954
 386	1.9250e-01	7.6993	13.373125	0.000137	1.368649	0.231855	0.005474
 387	1.9300e-01	7.7161	13.432138	0.000295	2.951149	0.499938	0.011802
 388	1.9350e-01	7.7380	13.471907	0.000199	1.988818	0.336915	0.007954
 389	1.9400e-01	7.7585	13.471907	0.000000	0.000000	0.000000	0.000000
 390	1.9450e-01	7.7774	13.510821	0.000195	1.946048	0.329669	0.007783
 391	1.9500e-01	7.8027	13.532202	0.000107	1.069257	0.181137	0.004276
 392	1.9550e-01	7.8186	13.563418	0.000156	1.561115	0.264460	0.006243
 393	1.9600e-01	7.8375	13.586938	0.000118	1.176183	0.199251	0.004704
 394	1.9650e-01	7.8580	13.657924	0.000355	3.549933	0.601375	0.014197
 395	1.9700e-01	7.8769	13.687430	0.000148	1.475575	0.249969	0.005901
 396	1.9750e-01	7.8986	13.704962	0.000088	0.876791	0.148532	0.003507
 397	1.9800e-01	7.9196	13.739172	0.000171	1.710811	0.289819	0.006842
 398	1.9850e-01	7.9404	13.754567	0.000077	0.769865	0.130419	0.003079
 399	1.9900e-01	7.9591	13.800323	0.000229	2.288210	0.387633	0.009151
 400	1.9950e-01	7.9779	13.848645	0.000242	2.416521	0.409370	0.009664
 401	2.0000e-01	7.9974	13.881999	0.000167	1.668041	0.282574	0.006671
 402	2.0050e-01	8.0188	13.914926	0.000165	1.646656	0.278951	0.006585
 403	2.0100e-01	8.0396	13.940584	0.000128	1.283108	0.217364	0.005132
 404	2.0150e-01	8.0591	13.968380	0.000139	1.390034	0.235478	0.005559
 405	2.0200e-01	8.0780	14.032523	0.000321	3.207771	0.543411	0.012829
 406	2.0250e-01	8.0981	14.058609	0.000130	1.304493	0.220987	0.005217
 407	2.0300e-01	8.1177	14.068016	0.000047	0.470473	0.079700	0.001882
 408	2.0350e-01	8.1372	14.114627	0.000233	2.330980	0.394879	0.009322
 409	2.0400e-01	8.1577	14.137292	0.000113	1.133412	0.192005	0.004533
 410	2.0450e-01	8.1784	14.174495	0.000186	1.860507	0.315178	0.007441
 411	2.0500e-01	8.1976	14.198014	0.000118	1.176183	0.199251	0.004704
 412	2.0550e-01	8.2172	14.260875	0.000314	3.143615	0.532543	0.012572
 413	2.0600e-01	8.2391	14.260875	0.000000	0.000000	0.000000	0.000000
 414	2.0650e-01	8.2605	14.294230	0.000167	1.668041	0.282574	0.006671
 415	2.0700e-01	8.2800	14.314328	0.000101	1.005102	0.170269	0.004020
 416	2.0750e-01	8.2983	14.381466	0.000336	3.357467	0.568770	0.013427
 417	2.0800e-01	8.3197	14.395577	0.000071	0.705710	0.119550	0.002822
 418	2.0850e-01	8.3405	14.407978	0.000062	0.620169	0.105059	0.002480
 419	2.0900e-01	8.3588	14.447320	0.000197	1.967433	0.333292	0.007868
 420	2.0950e-01	8.3777	14.500345	0.000265	2.651757	0.449220	0.010605
 421	2.1000e-01	8.4009	14.510181	0.000049	0.491858	0.083323	0.001967
 422	2.1050e-01	8.4174	14.557647	0.000237	2.373750	0.402124	0.009493
 423	2.1100e-01	8.4387	14.583732	0.000130	1.304493	0.220987	0.005217
 424	2.1150e-01	8.4595	14.626067	0.000212	2.117129	0.358651	0.008467
 425	2.1200e-01	8.4790	14.664126	0.000190	1.903277	0.322424	0.007612
 426	2.1250e-01	8.4979	14.691494	0.000137	1.368649	0.231855	0.005474
 427	2.1300e-01	8.5187	14.728270	0.000184	1.839122	0.311556	0.007355
 428	2.1350e-01	8.5388	14.756921	0.000143	1.432804	0.242724	0.005730
 429	2.1400e-01	8.5620	14.771460	0.000073	0.727095	0.123173	0.002908
 430	2.1450e-01	8.5776	14.821920	0.000252	2.523446	0.427483	0.010092
 431	2.1500e-01	8.5999	14.848860	0.000135	1.347264	0.228233	0.005388
 432	2.1550e-01	8.6200	14.864255	0.000077	0.769865	0.130419	0.003079
 433	2.1600e-01	8.6383	14.911293	0.000235	2.352365	0.398501	0.009408
 434	2.1650e-01	8.6606	14.918563	0.000036	0.363547	0.061587	0.001454
 435	2.1700e-01	8.6804	14.962608	0.000220	2.202669	0.373142	0.008809
 436	2.1750e-01	8.6993	15.016917	0.000272	2.715913	0.460088	0.010862
 437	2.1800e-01	8.7186	15.032311	0.000077	0.769865	0.130419	0.003079
 438	2.1850e-01	8.7384	15.057969	0.000128	1.283108	0.217364	0.005132
 439	2.1900e-01	8.7613	15.103297	0.000227	2.266825	0.384010	0.009066
 440	2.1950e-01	8.7817	15.114843	0.000058	0.577399	0.097814	0.002309
 441	2.2000e-01	8.7994	15.143494	0.000143	1.432804	0.242724	0.005730
 442	2.2050e-01	8.8217	15.181980	0.000192	1.924662	0.326047	0.007697
 443	2.2100e-01	8.8409	15.181125	-0.000004	-0.042770	-0.007245	-0.000171
 444	2.2150e-01	8.8605	15.245269	0.000321	3.207771	0.543411	0.012829
 445	2.2200e-01	8.8788	15.272637	0.000137	1.368649	0.231855	0.005474
 446	2.2250e-01	8.8980	15.309840	0.000186	1.860507	0.315178	0.007441
 447	2.2300e-01	8.9185	15.321386	0.000058	0.577399	0.097814	0.002309
 448	2.2350e-01	8.9398	15.373984	0.000263	2.630372	0.445597	0.010520
 449	2.2400e-01	8.9569	15.403062	0.000145	1.454189	0.246346	0.005816
 450	2.2450e-01	8.9798	15.427437	0.000122	1.218953	0.206496	0.004875
 451	2.2500e-01	8.9990	15.460792	0.000167	1.668041	0.282574	0.006671
 452	2.2550e-01	9.0198	15.498423	0.000188	1.881892	0.318801	0.007526
 453	2.2600e-01	9.0393	15.517238	0.000094	0.940946	0.159401	0.003763
 454	2.2650e-01	9.0601	15.545034	0.000139	1.390034	0.235478	0.005559
 455	2.2700e-01	9.0814	15.599770	0.000274	2.737298	0.463711	0.010947
 456	2.2750e-01	9.0985	15.613026	0.000066	0.662939	0.112305	0.002651
 457	2.2800e-01	9.1187	15.635691	0.000113	1.133412	0.192005	0.004533
 458	2.2850e-01	9.1394	15.679736	0.000220	2.202669	0.373142	0.008809
 459	2.2900e-01	9.1602	15.687861	0.000041	0.406318	0.068832	0.001625
 460	2.2950e-01	9.1815	15.720360	0.000163	1.625271	0.275328	0.006500
 461	2.3000e-01	9.1986	15.747728	0.000137	1.368649	0.231855	0.005474
 462	2.3050e-01	9.2188	15.794340	0.000233	2.330980	0.394879	0.009322
 463	2.3100e-01	9.2401	15.815293	0.000105	1.047872	0.177514	0.004191
 464	2.3150e-01	9.2566	15.845227	0.000150	1.496960	0.253592	0.005987
 465	2.3200e-01	9.2798	15.888417	0.000216	2.159899	0.365897	0.008638
 466	2.3250e-01	9.2981	15.908515	0.000101	1.005102	0.170269	0.004020
 467	2.3300e-01	9.3192	15.939732	0.000156	1.561115	0.264460	0.006243
 468	2.3350e-01	9.3408	15.979929	0.000201	2.010203	0.340538	0.008039
 469	2.3400e-01	9.3591	15.998744	0.000094	0.940946	0.159401	0.003763
 470	2.3450e-01	9.3793	16.034665	0.000180	1.796352	0.304310	0.007184
 471	2.3500e-01	9.3982	16.051342	0.000083	0.834020	0.141287	0.003335
 472	2.3550e-01	9.4214	16.085552	0.000171	1.710811	0.289819	0.006842
 473	2.3600e-01	9.4379	16.107361	0.000109	1.090642	0.184760	0.004362
 474	2.3650e-01	9.4617	16.145847	0.000192	1.924662	0.326047	0.007697
 475	2.3700e-01	9.4800	16.150979	0.000026	0.256622	0.043473	0.001026
 476	2.3750e-01	9.5001	16.205715	0.000274	2.737298	0.463711	0.010947
 477	2.3800e-01	9.5209	16.233083	0.000137	1.368649	0.231855	0.005474
 478	2.3850e-01	9.5398	16.264727	0.000158	1.582500	0.268083	0.006329
 479	2.3900e-01	9.5581	16.287819	0.000115	1.154797	0.195628	0.004618
 480	2.3950e-01	9.5801	16.334003	0.000231	2.309595	0.391256	0.009237
 481	2.4000e-01	9.5999	16.331864	-0.000011	-0.106926	-0.018114	-0.000428
 482	2.4050e-01	9.6219	16.375910	0.000220	2.202669	0.373142	0.008809
 483	2.4100e-01	9.6381	16.393870	0.000090	0.898176	0.152155	0.003592
 484	2.4150e-01	9.6594	16.437488	0.000218	2.181284	0.369520	0.008724
 485	2.4200e-01	9.6832	16.453310	0.000079	0.791250	0.134041	0.003164
 486	2.4250e-01	9.6991	16.508046	0.000274	2.737298	0.463711	0.010947
 487	2.4300e-01	9.7192	16.546532	0.000192	1.924662	0.326047	0.007697
 488	2.4350e-01	9.7388	16.553374	0.000034	0.342162	0.057964	0.001368
 489	2.4400e-01	9.7571	16.578177	0.000124	1.240338	0.210119	0.004960
 490	2.4450e-01	9.7794	16.610676	0.000163	1.625271	0.275328	0.006500
 491	2.4500e-01	9.8004	16.646169	0.000177	1.774967	0.300687	0.007099
 492	2.4550e-01	9.8212	16.679524	0.000167	1.668041	0.282574	0.006671
 493	2.4600e-01	9.8401	16.692353	0.000064	0.641554	0.108682	0.002566
 494	2.4650e-01	9.8590	16.723569	0.000156	1.561115	0.264460	0.006243
 495	2.4700e-01	9.8767	16.761628	0.000190	1.903277	0.322424	0.007612
 496	2.4750e-01	9.8999	16.806956	0.000227	2.266825	0.384010	0.009066
 497	2.4800e-01	9.9194	16.809950	0.000015	0.149696	0.025359	0.000599
 498	2.4850e-01	9.9408	16.847581	0.000188	1.881892	0.318801	0.007526
 499	2.4900e-01	9.9591	16.861692	0.000071	0.705710	0.119550	0.002822
 500	2.4950e-01	9.9799	16.890343	0.000143	1.432804	0.242724	0.005730
 501	2.5000e-01	9.9969	16.918994	0.000143	1.432804	0.242724	0.005730
 502	2.5050e-01	9.9808	16.933961	-0.000075	-0.748480	-0.126796	0.002993
 503	2.5100e-01	9.9634	16.915145	0.000094	0.940946	0.159401	-0.003763
 504	2.5150e-01	9.9438	16.901461	0.000068	0.684324	0.115928	-0.002737
 505	2.5200e-01	9.9200	16.893764	0.000038	0.384932	0.065209	-0.001539
 506	2.5250e-01	9.8999	16.879225	0.000073	0.727095	0.123173	-0.002908
 507	2.5300e-01	9.8822	16.862547	0.000083	0.834020	0.141287	-0.003335
 508	2.5350e-01	9.8615	16.851002	0.000058	0.577399	0.097814	-0.002309
 509	2.5400e-01	9.8383	16.833897	0.000086	0.855406	0.144910	-0.003421
 510	2.5450e-01	9.8212	16.810805	0.000115	1.154797	0.195628	-0.004618
 511	2.5500e-01	9.8007	16.797121	0.000068	0.684324	0.115928	-0.002737
 512	2.5550e-01	9.7803	16.783437	0.000068	0.684324	0.115928	-0.002737
 513	2.5600e-01	9.7595	16.779588	0.000019	0.192466	0.032605	-0.000770
 514	2.5650e-01	9.7406	16.756069	0.000118	1.176183	0.199251	-0.004704
 515	2.5700e-01	9.7198	16.752220	0.000019	0.192466	0.032605	-0.000770
 516	2.5750e-01	9.7003	16.723997	0.000141	1.411419	0.239101	-0.005645
 517	2.5800e-01	9.6814	16.724852	-0.000004	-0.042770	-0.007245	0.000171
 518	2.5850e-01	9.6619	16.670116	0.000274	2.737298	0.463711	-0.010947
 519	2.5900e-01	9.6393	16.658998	0.000056	0.556014	0.094191	-0.002224
 520	2.5950e-01	9.6191	16.648735	0.000051	0.513243	0.086946	-0.002053
 521	2.6000e-01	9.5984	16.631630	0.000086	0.855406	0.144910	-0.003421
 522	2.6050e-01	9.5795	16.619229	0.000062	0.620169	0.105059	-0.002480
 523	2.6100e-01	9.5599	16.598275	0.000105	1.047872	0.177514	-0.004191
 524	2.6150e-01	9.5410	16.577749	0.000103	1.026487	0.173892	-0.004105
 525	2.6200e-01	9.5203	16.560644	0.000086	0.855406	0.144910	-0.003421
 526	2.6250e-01	9.5013	16.554230	0.000032	0.320777	0.054341	-0.001283
 527	2.6300e-01	9.4775	16.523868	0.000152	1.518345	0.257215	-0.006072
 528	2.6350e-01	9.4580	16.516599	0.000036	0.363547	0.061587	-0.001454
 529	2.6400e-01	9.4415	16.465284	0.000257	2.566217	0.434729	-0.010263
 530	2.6450e-01	9.4208	16.467422	-0.000011	-0.106926	-0.018114	0.000428
 531	2.6500e-01	9.4019	16.448606	0.000094	0.940946	0.159401	-0.003763
 532	2.6550e-01	9.3793	16.419100	0.000148	1.475575	0.249969	-0.005901
 533	2.6600e-01	9.3597	16.419528	-0.000002	-0.021385	-0.003623	0.000086
 534	2.6650e-01	9.3408	16.383607	0.000180	1.796352	0.304310	-0.007184
 535	2.6700e-01	9.3204	16.377193	0.000032	0.320777	0.054341	-0.001283
 536	2.6750e-01	9.3018	16.344266	0.000165	1.646656	0.278951	-0.006585
 537	2.6800e-01	9.2816	16.333147	0.000056	0.556014	0.094191	-0.002224
 538	2.6850e-01	9.2609	16.321601	0.000058	0.577399	0.097814	-0.002309
 539	2.6900e-01	9.2395	16.304496	0.000086	0.855406	0.144910	-0.003421
 540	2.6950e-01	9.2194	16.278839	0.000128	1.283108	0.217364	-0.005132
 541	2.7000e-01	9.2004	16.259168	0.000098	0.983716	0.166646	-0.003934
 542	2.7050e-01	9.1809	16.239497	0.000098	0.983716	0.166646	-0.003934
 543	2.7100e-01	9.1602	16.238642	0.000004	0.042770	0.007245	-0.000171
 544	2.7150e-01	9.1400	16.207853	0.000154	1.539730	0.260837	-0.006158
 545	2.7200e-01	9.1205	16.185617	0.000111	1.112027	0.188383	-0.004447
 546	2.7250e-01	9.0979	16.164235	0.000107	1.069257	0.181137	-0.004276
 547	2.7300e-01	9.0814	16.151834	0.000062	0.620169	0.105059	-0.002480
 548	2.7350e-01	9.0601	16.132163	0.000098	0.983716	0.166646	-0.003934
 549	2.7400e-01	9.0405	16.112920	0.000096	0.962331	0.163023	-0.003849
 550	2.7450e-01	9.0186	16.077855	0.000175	1.753581	0.297065	-0.007013
 551	2.7500e-01	8.9984	16.053908	0.000120	1.197568	0.202873	-0.004789
 552	2.7550e-01	8.9783	16.051770	0.000011	0.106926	0.018114	-0.000428
 553	2.7600e-01	8.9600	16.026968	0.000124	1.240338	0.210119	-0.004960
 554	2.7650e-01	8.9383	15.982922	0.000220	2.202669	0.373142	-0.008809
 555	2.7700e-01	8.9191	15.981639	0.000006	0.064155	0.010868	-0.000257
 556	2.7750e-01	8.8977	15.954271	0.000137	1.368649	0.231855	-0.005474
 557	2.7800e-01	8.8757	15.949567	0.000024	0.235237	0.039850	-0.000941
 558	2.7850e-01	8.8605	15.935028	0.000073	0.727095	0.123173	-0.002908
 559	2.7900e-01	8.8391	15.899963	0.000175	1.753581	0.297065	-0.007013
 560	2.7950e-01	8.8220	15.886707	0.000066	0.662939	0.112305	-0.002651
 561	2.8000e-01	8.8025	15.840951	0.000229	2.288210	0.387633	-0.009151
 562	2.8050e-01	8.7799	15.840523	0.000002	0.021385	0.003623	-0.000086
 563	2.8100e-01	8.7573	15.836674	0.000019	0.192466	0.032605	-0.000770
 564	2.8150e-01	8.7378	15.794767	0.000210	2.095744	0.355029	-0.008381
 565	2.8200e-01	8.7189	15.780228	0.000073	0.727095	0.123173	-0.002908
 566	2.8250e-01	8.6963	15.745163	0.000175	1.753581	0.297065	-0.007013
 567	2.8300e-01	8.6798	15.752005	-0.000034	-0.342162	-0.057964	0.001368
 568	2.8350e-01	8.6621	15.705393	0.000233	2.330980	0.394879	-0.009322
 569	2.8400e-01	8.6386	15.688288	0.000086	0.855406	0.144910	-0.003421
 570	2.8450e-01	8.6206	15.660920	0.000137	1.368649	0.231855	-0.005474
 571	2.8500e-01	8.5992	15.642960	0.000090	0.898176	0.152155	-0.003592
 572	2.8550e-01	8.5782	15.633552	0.000047	0.470473	0.079700	-0.001882
 573	2.8600e-01	8.5590	15.600198	0.000167	1.668041	0.282574	-0.006671
 574	2.8650e-01	8.5394	15.565988	0.000171	1.710811	0.289819	-0.006842
 575	2.8700e-01	8.5188	15.568981	-0.000015	-0.149696	-0.025359	0.000599
 576	2.8750e-01	8.4949	15.536054	0.000165	1.646656	0.278951	-0.006585
 577	2.8800e-01	8.4793	15.527501	0.000043	0.427703	0.072455	-0.001711
 578	2.8850e-01	8.4601	15.489015	0.000192	1.924662	0.326047	-0.007697
 579	2.8900e-01	8.4406	15.465068	0.000120	1.197568	0.202873	-0.004789
 580	2.8950e-01	8.4225	15.453095	0.000060	0.598784	0.101437	-0.002395
 581	2.9000e-01	8.4003	15.426582	0.000133	1.325879	0.224610	-0.005303
 582	2.9050e-01	8.3832	15.416319	0.000051	0.513243	0.086946	-0.002053
 583	2.9100e-01	8.3594	15.396220	0.000101	1.005102	0.170269	-0.004020
 584	2.9150e-01	8.3405	15.376122	0.000101	1.005102	0.170269	-0.004020
 585	2.9200e-01	8.3223	15.343195	0.000165	1.646656	0.278951	-0.006585
 586	2.9250e-01	8.2996	15.332932	0.000051	0.513243	0.086946	-0.002053
 587	2.9300e-01	8.2806	15.293590	0.000197	1.967433	0.333292	-0.007868
 588	2.9350e-01	8.2599	15.292307	0.000006	0.064155	0.010868	-0.000257
 589	2.9400e-01	8.2416	15.257670	0.000173	1.732196	0.293442	-0.006928
 590	2.9450e-01	8.2184	15.247407	0.000051	0.513243	0.086946	-0.002053
 591	2.9500e-01	8.1995	15.200368	0.000235	2.352365	0.398501	-0.009408
 592	2.9550e-01	8.1796	15.207638	-0.000036	-0.363547	-0.061587	0.001454
 593	2.9600e-01	8.1592	15.170862	0.000184	1.839122	0.311556	-0.007355
 594	2.9650e-01	8.1396	15.156750	0.000071	0.705710	0.119550	-0.002822
 595	2.9700e-01	8.1207	15.126389	0.000152	1.518345	0.257215	-0.006072
 596	2.9750e-01	8.0975	15.099448	0.000135	1.347264	0.228233	-0.005388
 597	2.9800e-01	8.0823	15.081488	0.000090	0.898176	0.152155	-0.003592
 598	2.9850e-01	8.0588	15.068232	0.000066	0.662939	0.112305	-0.002651
 599	2.9900e-01	8.0399	15.040864	0.000137	1.368649	0.231855	-0.005474
 600	2.9950e-01	8.0228	15.002805	0.000190	1.903277	0.322424	-0.007612
 601	3.0000e-01	7.9987	15.002378	0.000002	0.021385	0.003623	-0.000086
 602	3.0050e-01	7.9803	14.968595	0.000169	1.689426	0.286197	-0.006756
 603	3.0100e-01	7.9608	14.921984	0.000233	2.330980	0.394879	-0.009322
 604	3.0150e-01	7.9379	14.921556	0.000002	0.021385	0.003623	-0.000086
 605	3.0200e-01	7.9187	14.913431	0.000041	0.406318	0.068832	-0.001625
 606	3.0250e-01	7.8973	14.896326	0.000086	0.855406	0.144910	-0.003421
 607	3.0300e-01	7.8796	14.866393	0.000150	1.496960	0.253592	-0.005987
 608	3.0350e-01	7.8577	14.838169	0.000141	1.411419	0.239101	-0.005645
 609	3.0400e-01	7.8387	14.834748	0.000017	0.171081	0.028982	-0.000684
 610	3.0450e-01	7.8198	14.776591	0.000291	2.908379	0.492693	-0.011631
 611	3.0500e-01	7.7985	14.761624	0.000075	0.748480	0.126796	-0.002993
 612	3.0550e-01	7.7808	14.741954	0.000098	0.983716	0.166646	-0.003934
 613	3.0600e-01	7.7576	14.717579	0.000122	1.218953	0.206496	-0.004875
 614	3.0650e-01	7.7408	14.694487	0.000115	1.154797	0.195628	-0.004618
 615	3.0700e-01	7.7185	14.667119	0.000137	1.368649	0.231855	-0.005474
 616	3.0750e-01	7.6996	14.650014	0.000086	0.855406	0.144910	-0.003421
 617	3.0800e-01	7.6807	14.620936	0.000145	1.454189	0.246346	-0.005816
 618	3.0850e-01	7.6605	14.603403	0.000088	0.876791	0.148532	-0.003507
 619	3.0900e-01	7.6379	14.603403	-0.000000	-0.000000	-0.000000	0.000000
 620	3.0950e-01	7.6184	14.542253	0.000306	3.058075	0.518052	-0.012230
 621	3.1000e-01	7.6001	14.523010	0.000096	0.962331	0.163023	-0.003849
 622	3.1050e-01	7.5787	14.502056	0.000105	1.047872	0.177514	-0.004191
 623	3.1100e-01	7.5604	14.511464	-0.000047	-0.470473	-0.079700	0.001882
 624	3.1150e-01	7.5403	14.456728	0.000274	2.737298	0.463711	-0.010947
 625	3.1200e-01	7.5201	14.424228	0.000163	1.625271	0.275328	-0.006500
 626	3.1250e-01	7.5009	14.410544	0.000068	0.684324	0.115928	-0.002737
 627	3.1300e-01	7.4799	14.376334	0.000171	1.710811	0.289819	-0.006842
 628	3.1350e-01	7.4603	14.374196	0.000011	0.106926	0.018114	-0.000428
 629	3.1400e-01	7.4391	14.331861	0.000212	2.117129	0.358651	-0.008467
 630	3.1450e-01	7.4219	14.295941	0.000180	1.796352	0.304310	-0.007184
 631	3.1500e-01	7.3981	14.292947	0.000015	0.149696	0.025359	-0.000599
 632	3.1550e-01	7.3785	14.270711	0.000111	1.112027	0.188383	-0.004447
 633	3.1600e-01	7.3608	14.249757	0.000105	1.047872	0.177514	-0.004191
 634	3.1650e-01	7.3407	14.212981	0.000184	1.839122	0.311556	-0.007355
 635	3.1700e-01	7.3199	14.203146	0.000049	0.491858	0.083323	-0.001967
 636	3.1750e-01	7.2998	14.170219	0.000165	1.646656	0.278951	-0.006585
 637	3.1800e-01	7.2797	14.127884	0.000212	2.117129	0.358651	-0.008467
 638	3.1850e-01	7.2614	14.120187	0.000038	0.384932	0.065209	-0.001539
 639	3.1900e-01	7.2400	14.103082	0.000086	0.855406	0.144910	-0.003421
 640	3.1950e-01	7.2162	14.071010	0.000160	1.603885	0.271706	-0.006414
 641	3.2000e-01	7.1985	14.051767	0.000096	0.962331	0.163023	-0.003849
 642	3.2050e-01	7.1809	14.038083	0.000068	0.684324	0.115928	-0.002737
 643	3.2100e-01	7.1594	13.989333	0.000244	2.437906	0.412992	-0.009750
 644	3.2150e-01	7.1393	13.955978	0.000167	1.668041	0.282574	-0.006671
 645	3.2200e-01	7.1185	13.948709	0.000036	0.363547	0.061587	-0.001454
 646	3.2250e-01	7.0996	13.923479	0.000126	1.261723	0.213742	-0.005046
 647	3.2300e-01	7.0789	13.905091	0.000092	0.919561	0.155778	-0.003678
 648	3.2350e-01	7.0593	13.868743	0.000182	1.817737	0.307933	-0.007270
 649	3.2400e-01	7.0404	13.843941	0.000124	1.240338	0.210119	-0.004960
 650	3.2450e-01	7.0203	13.816573	0.000137	1.368649	0.231855	-0.005474
 651	3.2500e-01	6.9995	13.784073	0.000163	1.625271	0.275328	-0.006500
 652	3.2550e-01	6.9806	13.763975	0.000101	1.005102	0.170269	-0.004020
 653	3.2600e-01	6.9604	13.745159	0.000094	0.940946	0.159401	-0.003763
 654	3.2650e-01	6.9412	13.713515	0.000158	1.582500	0.268083	-0.006329
 655	3.2700e-01	6.9205	13.719502	-0.000030	-0.299392	-0.050718	0.001197
 656	3.2750e-01	6.8976	13.675884	0.000218	2.181284	0.369520	-0.008724
 657	3.2800e-01	6.8811	13.646378	0.000148	1.475575	0.249969	-0.005901
 658	3.2850e-01	6.8616	13.593780	0.000263	2.630372	0.445597	-0.010520
 659	3.2900e-01	6.8396	13.604043	-0.000051	-0.513243	-0.086946	0.002053
 660	3.2950e-01	6.8176	13.572399	0.000158	1.582500	0.268083	-0.006329
 661	3.3000e-01	6.8018	13.551017	0.000107	1.069257	0.181137	-0.004276
 662	3.3050e-01	6.7810	13.509965	0.000205	2.052973	0.347783	-0.008210
 663	3.3100e-01	6.7604	13.485591	0.000122	1.218953	0.206496	-0.004875
 664	3.3150e-01	6.7407	13.459078	0.000133	1.325879	0.224610	-0.005303
 665	3.3200e-01	6.7212	13.446677	0.000062	0.620169	0.105059	-0.002480
 666	3.3250e-01	6.7004	13.398355	0.000242	2.416521	0.409370	-0.009664
 667	3.3300e-01	6.6797	13.372270	0.000130	1.304493	0.220987	-0.005217
 668	3.3350e-01	6.6599	13.352172	0.000101	1.005102	0.170269	-0.004020
 669	3.3400e-01	6.6391	13.339770	0.000062	0.620169	0.105059	-0.002480
 670	3.3450e-01	6.6187	13.318817	0.000105	1.047872	0.177514	-0.004191
 671	3.3500e-01	6.5985	13.293159	0.000128	1.283108	0.217364	-0.005132
 672	3.3550e-01	6.5817	13.274771	0.000092	0.919561	0.155778	-0.003678
 673	3.3600e-01	6.5588	13.218752	0.000280	2.801453	0.474579	-0.011204
 674	3.3650e-01	6.5405	13.186253	0.000163	1.625271	0.275328	-0.006500
 675	3.3700e-01	6.5186	13.190529	-0.000021	-0.213851	-0.036227	0.000855
 676	3.3750e-01	6.4981	13.164016	0.000133	1.325879	0.224610	-0.005303
 677	3.3800e-01	6.4801	13.124675	0.000197	1.967433	0.333292	-0.007868
 678	3.3850e-01	6.4569	13.121682	0.000015	0.149696	0.025359	-0.000599
 679	3.3900e-01	6.4389	13.078491	0.000216	2.159899	0.365897	-0.008638
 680	3.3950e-01	6.4186	13.053262	0.000126	1.261723	0.213742	-0.005046
 681	3.4000e-01	6.4001	13.021617	0.000158	1.582500	0.268083	-0.006329
 682	3.4050e-01	6.3786	13.001519	0.000101	1.005102	0.170269	-0.004020
 683	3.4100e-01	6.3611	12.975006	0.000133	1.325879	0.224610	-0.005303
 684	3.4150e-01	6.3385	12.940368	0.000173	1.732196	0.293442	-0.006928
 685	3.4200e-01	6.3202	12.927112	0.000066	0.662939	0.112305	-0.002651
 686	3.4250e-01	6.3019	12.907441	0.000098	0.983716	0.166646	-0.003934
 687	3.4300e-01	6.2811	12.850567	0.000284	2.844223	0.481824	-0.011375
 688	3.4350e-01	6.2592	12.839449	0.000056	0.556014	0.094191	-0.002224
 689	3.4400e-01	6.2402	12.810370	0.000145	1.454189	0.246346	-0.005816
 690	3.4450e-01	6.2201	12.776160	0.000171	1.710811	0.289819	-0.006842
 691	3.4500e-01	6.1981	12.750930	0.000126	1.261723	0.213742	-0.005046
 692	3.4550e-01	6.1792	12.732543	0.000092	0.919561	0.155778	-0.003678
 693	3.4600e-01	6.1609	12.699188	0.000167	1.668041	0.282574	-0.006671
 694	3.4650e-01	6.1385	12.670537	0.000143	1.432804	0.242724	-0.005730
 695	3.4700e-01	6.1200	12.640175	0.000152	1.518345	0.257215	-0.006072
 696	3.4750e-01	6.0999	12.603827	0.000182	1.817737	0.307933	-0.007270
 697	3.4800e-01	6.0809	12.582446	0.000107	1.069257	0.181137	-0.004276
 698	3.4850e-01	6.0620	12.548664	0.000169	1.689426	0.286197	-0.006756
 699	3.4900e-01	6.0394	12.522579	0.000130	1.304493	0.220987	-0.005217
 700	3.4950e-01	6.0176	12.506756	0.000079	0.791250	0.134041	-0.003164
 701	3.5000e-01	6.0028	12.459290	0.000237	2.373750	0.402124	-0.009493
 702	3.5050e-01	5.9814	12.443895	0.000077	0.769865	0.130419	-0.003079
 703	3.5100e-01	5.9593	12.419521	0.000122	1.218953	0.206496	-0.004875
 704	3.5150e-01	5.9370	12.410968	0.000043	0.427703	0.072455	-0.001711
 705	3.5200e-01	5.9222	12.358798	0.000261	2.608987	0.441974	-0.010434
 706	3.5250e-01	5.8981	12.340410	0.000092	0.919561	0.155778	-0.003678
 707	3.5300e-01	5.8807	12.311332	0.000145	1.454189	0.246346	-0.005816
 708	3.5350e-01	5.8606	12.295082	0.000081	0.812635	0.137664	-0.003250
 709	3.5400e-01	5.8398	12.260444	0.000173	1.732196	0.293442	-0.006928
 710	3.5450e-01	5.8200	12.217682	0.000214	2.138514	0.362274	-0.008553
 711	3.5500e-01	5.7996	12.192024	0.000128	1.283108	0.217364	-0.005132
 712	3.5550e-01	5.7794	12.157814	0.000171	1.710811	0.289819	-0.006842
 713	3.5600e-01	5.7594	12.146696	0.000056	0.556014	0.094191	-0.002224
 714	3.5650e-01	5.7397	12.113341	0.000167	1.668041	0.282574	-0.006671
 715	3.5700e-01	5.7181	12.090249	0.000115	1.154797	0.195628	-0.004618
 716	3.5750e-01	5.6995	12.066730	0.000118	1.176183	0.199251	-0.004704
 717	3.5800e-01	5.6799	12.018408	0.000242	2.416521	0.409370	-0.009664
 718	3.5850e-01	5.6586	12.005580	0.000064	0.641554	0.108682	-0.002566
 719	3.5900e-01	5.6393	11.967949	0.000188	1.881892	0.318801	-0.007526
 720	3.5950e-01	5.6172	11.930745	0.000186	1.860507	0.315178	-0.007441
 721	3.6000e-01	5.6006	11.924331	0.000032	0.320777	0.054341	-0.001283
 722	3.6050e-01	5.5786	11.901239	0.000115	1.154797	0.195628	-0.004618
 723	3.6100e-01	5.5603	11.872588	0.000143	1.432804	0.242724	-0.005730
 724	3.6150e-01	5.5423	11.813148	0.000297	2.972534	0.503561	-0.011888
 725	3.6200e-01	5.5191	11.793050	0.000101	1.005102	0.170269	-0.004020
 726	3.6250e-01	5.4999	11.772951	0.000101	1.005102	0.170269	-0.004020
 727	3.6300e-01	5.4797	11.734465	0.000192	1.924662	0.326047	-0.007697
 728	3.6350e-01	5.4587	11.720781	0.000068	0.684324	0.115928	-0.002737
 729	3.6400e-01	5.4395	11.676736	0.000220	2.202669	0.373142	-0.008809
 730	3.6450e-01	5.4193	11.649368	0.000137	1.368649	0.231855	-0.005474
 731	3.6500e-01	5.3995	11.616441	0.000165	1.646656	0.278951	-0.006585
 732	3.6550e-01	5.3815	11.591211	0.000126	1.261723	0.213742	-0.005046
 733	3.6600e-01	5.3571	11.553152	0.000190	1.903277	0.322424	-0.007612
 734	3.6650e-01	5.3381	11.551014	0.000011	0.106926	0.018114	-0.000428
 735	3.6700e-01	5.3171	11.502265	0.000244	2.437906	0.412992	-0.009750
 736	3.6750e-01	5.2985	11.455226	0.000235	2.352365	0.398501	-0.009408
 737	3.6800e-01	5.2789	11.442825	0.000062	0.620169	0.105059	-0.002480
 738	3.6850e-01	5.2588	11.427003	0.000079	0.791250	0.134041	-0.003164
 739	3.6900e-01	5.2399	11.379109	0.000240	2.395136	0.405747	-0.009579
 740	3.6950e-01	5.2197	11.355589	0.000118	1.176183	0.199251	-0.004704
 741	3.7000e-01	5.1996	11.332497	0.000115	1.154797	0.195628	-0.004618
 742	3.7050e-01	5.1784	11.284176	0.000242	2.416521	0.409370	-0.009664
 743	3.7100e-01	5.1578	11.291873	-0.000038	-0.384932	-0.065209	0.001539
 744	3.7150e-01	5.1357	11.247400	0.000222	2.224054	0.376765	-0.008895
 745	3.7200e-01	5.1184	11.208058	0.000197	1.967433	0.333292	-0.007868
 746	3.7250e-01	5.0977	11.188388	0.000098	0.983716	0.166646	-0.003934
 747	3.7300e-01	5.0775	11.143487	0.000225	2.245440	0.380388	-0.008980
 748	3.7350e-01	5.0587	11.111843	0.000158	1.582500	0.268083	-0.006329
 749	3.7400e-01	5.0380	11.110560	0.000006	0.064155	0.010868	-0.000257
 750	3.7450e-01	5.0195	11.050692	0.000299	2.993919	0.507184	-0.011974
 751	3.7500e-01	4.9988	11.012634	0.000190	1.903277	0.322424	-0.007612
 752	3.7550e-01	4.9780	11.000233	0.000062	0.620169	0.105059	-0.002480
 753	3.7600e-01	4.9631	10.954904	0.000227	2.266825	0.384010	-0.009066
 754	3.7650e-01	4.9384	10.922832	0.000160	1.603885	0.271706	-0.006414
 755	3.7700e-01	4.9173	10.912142	0.000053	0.534628	0.090569	-0.002138
 756	3.7750e-01	4.9011	10.842439	0.000349	3.485778	0.590507	-0.013941
 757	3.7800e-01	4.8779	10.809939	0.000163	1.625271	0.275328	-0.006500
 758	3.7850e-01	4.8589	10.817209	-0.000036	-0.363547	-0.061587	0.001454
 759	3.7900e-01	4.8367	10.784709	0.000163	1.625271	0.275328	-0.006500
 760	3.7950e-01	4.8207	10.742802	0.000210	2.095744	0.355029	-0.008381
 761	3.8000e-01	4.7980	10.704316	0.000192	1.924662	0.326047	-0.007697
 762	3.8050e-01	4.7803	10.692770	0.000058	0.577399	0.097814	-0.002309
 763	3.8100e-01	4.7607	10.645304	0.000237	2.373750	0.402124	-0.009493
 764	3.8150e-01	4.7375	10.623495	0.000109	1.090642	0.184760	-0.004362
 765	3.8200e-01	4.7192	10.588429	0.000175	1.753581	0.297065	-0.007013
 766	3.8250e-01	4.6985	10.561489	0.000135	1.347264	0.228233	-0.005388
 767	3.8300e-01	4.6811	10.519154	0.000212	2.117129	0.358651	-0.008467
 768	3.8350e-01	4.6619	10.478957	0.000201	2.010203	0.340538	-0.008039
 769	3.8400e-01	4.6387	10.439188	0.000199	1.988818	0.336915	-0.007954
 770	3.8450e-01	4.6191	10.425932	0.000066	0.662939	0.112305	-0.002651
 771	3.8500e-01	4.5992	10.387446	0.000192	1.924662	0.326047	-0.007697
 772	3.8550e-01	4.5770	10.369485	0.000090	0.898176	0.152155	-0.003592
 773	3.8600e-01	4.5572	10.322447	0.000235	2.352365	0.398501	-0.009408
 774	3.8650e-01	4.5404	10.288236	0.000171	1.710811	0.289819	-0.006842
 775	3.8700e-01	4.5203	10.257020	0.000156	1.561115	0.264460	-0.006243
 776	3.8750e-01	4.4983	10.233928	0.000115	1.154797	0.195628	-0.004618
 777	3.8800e-01	4.4797	10.201429	0.000163	1.625271	0.275328	-0.006500
 778	3.8850e-01	4.4580	10.179620	0.000109	1.090642	0.184760	-0.004362
 779	3.8900e-01	4.4397	10.142416	0.000186	1.860507	0.315178	-0.007441
 780	3.8950e-01	4.4165	10.104358	0.000190	1.903277	0.322424	-0.007612
 781	3.9000e-01	4.3988	10.085542	0.000094	0.940946	0.159401	-0.003763
 782	3.9050e-01	4.3794	10.042780	0.000214	2.138514	0.362274	-0.008553
 783	3.9100e-01	4.3575	10.002583	0.000201	2.010203	0.340538	-0.008039
 784	3.9150e-01	4.3387	9.967518	0.000175	1.753581	0.297065	-0.007013
 785	3.9200e-01	4.3188	9.952978	0.000073	0.727095	0.123173	-0.002908
 786	3.9250e-01	4.2993	9.915347	0.000188	1.881892	0.318801	-0.007526
 787	3.9300e-01	4.2773	9.886269	0.000145	1.454189	0.246346	-0.005816
 788	3.9350e-01	4.2609	9.838802	0.000237	2.373750	0.402124	-0.009493
 789	3.9400e-01	4.2361	9.827684	0.000056	0.556014	0.094191	-0.002224
 790	3.9450e-01	4.2218	9.764823	0.000314	3.143615	0.532543	-0.012572
 791	3.9500e-01	4.1971	9.741304	0.000118	1.176183	0.199251	-0.004704
 792	3.9550e-01	4.1766	9.711798	0.000148	1.475575	0.249969	-0.005901
 793	3.9600e-01	4.1602	9.675022	0.000184	1.839122	0.311556	-0.007355
 794	3.9650e-01	4.1379	9.645516	0.000148	1.475575	0.249969	-0.005901
 795	3.9700e-01	4.1174	9.609595	0.000180	1.796352	0.304310	-0.007184
 796	3.9750e-01	4.0973	9.581372	0.000141	1.411419	0.239101	-0.005645
 797	3.9800e-01	4.0771	9.548872	0.000163	1.625271	0.275328	-0.006500
 798	3.9850e-01	4.0564	9.512097	0.000184	1.839122	0.311556	-0.007355
 799	3.9900e-01	4.0393	9.488577	0.000118	1.176183	0.199251	-0.004704
 800	3.9950e-01	4.0179	9.436407	0.000261	2.608987	0.441974	-0.010434
 801	4.0000e-01	3.9990	9.421012	0.000077	0.769865	0.130419	-0.003079
 802	4.0050e-01	3.9780	9.385947	0.000175	1.753581	0.297065	-0.007013
 803	4.0100e-01	3.9569	9.358152	0.000139	1.390034	0.235478	-0.005559
 804	4.0150e-01	3.9386	9.323086	0.000175	1.753581	0.297065	-0.007013
 805	4.0200e-01	3.9160	9.297429	0.000128	1.283108	0.217364	-0.005132
 806	4.0250e-01	3.8971	9.236278	0.000306	3.058075	0.518052	-0.012230
 807	4.0300e-01	3.8771	9.215325	0.000105	1.047872	0.177514	-0.004191
 808	4.0350e-01	3.8550	9.178549	0.000184	1.839122	0.311556	-0.007355
 809	4.0400e-01	3.8397	9.146049	0.000163	1.625271	0.275328	-0.006500
 810	4.0450e-01	3.8174	9.106708	0.000197	1.967433	0.333292	-0.007868
 811	4.0500e-01	3.7960	9.078912	0.000139	1.390034	0.235478	-0.005559
 812	4.0550e-01	3.7781	9.062662	0.000081	0.812635	0.137664	-0.003250
 813	4.0600e-01	3.7599	8.998091	0.000323	3.229156	0.547034	-0.012914
 814	4.0650e-01	3.7399	8.935230	0.000314	3.143615	0.532543	-0.012572
 815	4.0700e-01	3.7184	8.918125	0.000086	0.855406	0.144910	-0.003421
 816	4.0750e-01	3.6969	8.910428	0.000038	0.384932	0.065209	-0.001539
 817	4.0800e-01	3.6812	8.871942	0.000192	1.924662	0.326047	-0.007697
 818	4.0850e-01	3.6591	8.836876	0.000175	1.753581	0.297065	-0.007013
 819	4.0900e-01	3.6391	8.796252	0.000203	2.031588	0.344160	-0.008125
 820	4.0950e-01	3.6157	8.769739	0.000133	1.325879	0.224610	-0.005303
 821	4.1000e-01	3.5994	8.731253	0.000192	1.924662	0.326047	-0.007697
 822	4.1050e-01	3.5785	8.693622	0.000188	1.881892	0.318801	-0.007526
 823	4.1100e-01	3.5599	8.654280	0.000197	1.967433	0.333292	-0.007868
 824	4.1150e-01	3.5376	8.608097	0.000231	2.309595	0.391256	-0.009237
 825	4.1200e-01	3.5162	8.596979	0.000056	0.556014	0.094191	-0.002224
 826	4.1250e-01	3.4981	8.550367	0.000233	2.330980	0.394879	-0.009322
 827	4.1300e-01	3.4778	8.510598	0.000199	1.988818	0.336915	-0.007954
 828	4.1350e-01	3.4558	8.492638	0.000090	0.898176	0.152155	-0.003592
 829	4.1400e-01	3.4427	8.440040	0.000263	2.630372	0.445597	-0.010520
 830	4.1450e-01	3.4183	8.407968	0.000160	1.603885	0.271706	-0.006414
 831	4.1500e-01	3.3963	8.380173	0.000139	1.390034	0.235478	-0.005559
 832	4.1550e-01	3.3780	8.344252	0.000180	1.796352	0.304310	-0.007184
 833	4.1600e-01	3.3575	8.308759	0.000177	1.774967	0.300687	-0.007099
 834	4.1650e-01	3.3380	8.265141	0.000218	2.181284	0.369520	-0.008724
 835	4.1700e-01	3.3235	8.217247	0.000240	2.395136	0.405747	-0.009579
 836	4.1750e-01	3.2959	8.180899	0.000182	1.817737	0.307933	-0.007270
 837	4.1800e-01	3.2800	8.153959	0.000135	1.347264	0.228233	-0.005388
 838	4.1850e-01	3.2579	8.115045	0.000195	1.946048	0.329669	-0.007783
 839	4.1900e-01	3.2373	8.090243	0.000124	1.240338	0.210119	-0.004960
 840	4.1950e-01	3.2179	8.044487	0.000229	2.288210	0.387633	-0.009151
 841	4.2000e-01	3.1964	8.005573	0.000195	1.946048	0.329669	-0.007783
 842	4.2050e-01	3.1773	7.986330	0.000096	0.962331	0.163023	-0.003849
 843	4.2100e-01	3.1581	7.928173	0.000291	2.908379	0.492693	-0.011631
 844	4.2150e-01	3.1409	7.920903	0.000036	0.363547	0.061587	-0.001454
 845	4.2200e-01	3.1183	7.858042	0.000314	3.143615	0.532543	-0.012572
 846	4.2250e-01	3.0963	7.826825	0.000156	1.561115	0.264460	-0.006243
 847	4.2300e-01	3.0763	7.811431	0.000077	0.769865	0.130419	-0.003079
 848	4.2350e-01	3.0586	7.766103	0.000227	2.266825	0.384010	-0.009066
 849	4.2400e-01	3.0379	7.717353	0.000244	2.437906	0.412992	-0.009750
 850	4.2450e-01	3.0164	7.697255	0.000101	1.005102	0.170269	-0.004020
 851	4.2500e-01	2.9993	7.656631	0.000203	2.031588	0.344160	-0.008125
 852	4.2550e-01	2.9794	7.602750	0.000269	2.694527	0.456465	-0.010776
 853	4.2600e-01	2.9568	7.568967	0.000169	1.689426	0.286197	-0.006756
 854	4.2650e-01	2.9382	7.532192	0.000184	1.839122	0.311556	-0.007355
 855	4.2700e-01	2.9181	7.482587	0.000248	2.480676	0.420238	-0.009921
 856	4.2750e-01	2.8979	7.448377	0.000171	1.710811	0.289819	-0.006842
 857	4.2800e-01	2.8784	7.407753	0.000203	2.031588	0.344160	-0.008125
 858	4.2850e-01	2.8552	7.381240	0.000133	1.325879	0.224610	-0.005303
 859	4.2900e-01	2.8401	7.345319	0.000180	1.796352	0.304310	-0.007184
 860	4.2950e-01	2.8168	7.313247	0.000160	1.603885	0.271706	-0.006414
 861	4.3000e-01	2.7966	7.269630	0.000218	2.181284	0.369520	-0.008724
 862	4.3050e-01	2.7780	7.239696	0.000150	1.496960	0.253592	-0.005987
 863	4.3100e-01	2.7570	7.213611	0.000130	1.304493	0.220987	-0.005217
 864	4.3150e-01	2.7380	7.187098	0.000133	1.325879	0.224610	-0.005303
 865	4.3200e-01	2.7179	7.116112	0.000355	3.549933	0.601375	-0.014197
 866	4.3250e-01	2.6974	7.076343	0.000199	1.988818	0.336915	-0.007954
 867	4.3300e-01	2.6782	7.029304	0.000235	2.352365	0.398501	-0.009408
 868	4.3350e-01	2.6576	6.995949	0.000167	1.668041	0.282574	-0.006671
 869	4.3400e-01	2.6373	6.959174	0.000184	1.839122	0.311556	-0.007355
 870	4.3450e-01	2.6157	6.928812	0.000152	1.518345	0.257215	-0.006072
 871	4.3500e-01	2.5998	6.892464	0.000182	1.817737	0.307933	-0.007270
 872	4.3550e-01	2.5770	6.854833	0.000188	1.881892	0.318801	-0.007526
 873	4.3600e-01	2.5568	6.804373	0.000252	2.523446	0.427483	-0.010092
 874	4.3650e-01	2.5357	6.800097	0.000021	0.213851	0.036227	-0.000855
 875	4.3700e-01	2.5166	6.768025	0.000160	1.603885	0.271706	-0.006414
 876	4.3750e-01	2.4982	6.697039	0.000355	3.549933	0.601375	-0.014197
 877	4.3800e-01	2.4768	6.655132	0.000210	2.095744	0.355029	-0.008381
 878	4.3850e-01	2.4585	6.621350	0.000169	1.689426	0.286197	-0.006756
 879	4.3900e-01	2.4365	6.579442	0.000210	2.095744	0.355029	-0.008381
 880	4.3950e-01	2.4191	6.533687	0.000229	2.288210	0.387633	-0.009151
 881	4.4000e-01	2.3963	6.479806	0.000269	2.694527	0.456465	-0.010776
 882	4.4050e-01	2.3766	6.466549	0.000066	0.662939	0.112305	-0.002651
 883	4.4100e-01	2.3578	6.425070	0.000207	2.074358	0.351406	-0.008296
 884	4.4150e-01	2.3372	6.377603	0.000237	2.373750	0.402124	-0.009493
 885	4.4200e-01	2.3166	6.337407	0.000201	2.010203	0.340538	-0.008039
 886	4.4250e-01	2.2980	6.313032	0.000122	1.218953	0.206496	-0.004875
 887	4.4300e-01	2.2779	6.262145	0.000254	2.544832	0.431106	-0.010177
 888	4.4350e-01	2.2598	6.216816	0.000227	2.266825	0.384010	-0.009066
 889	4.4400e-01	2.2379	6.183034	0.000169	1.689426	0.286197	-0.006756
 890	4.4450e-01	2.2175	6.150534	0.000163	1.625271	0.275328	-0.006500
 891	4.4500e-01	2.1948	6.119745	0.000154	1.539730	0.260837	-0.006158
 892	4.4550e-01	2.1772	6.068003	0.000259	2.587602	0.438352	-0.010349
 893	4.4600e-01	2.1567	6.043200	0.000124	1.240338	0.210119	-0.004960
 894	4.4650e-01	2.1362	5.997017	0.000231	2.309595	0.391256	-0.009237
 895	4.4700e-01	2.1149	5.953399	0.000218	2.181284	0.369520	-0.008724
 896	4.4750e-01	2.0965	5.934156	0.000096	0.962331	0.163023	-0.003849
 897	4.4800e-01	2.0765	5.870440	0.000319	3.186386	0.539788	-0.012743
 898	4.4850e-01	2.0555	5.837513	0.000165	1.646656	0.278951	-0.006585
 899	4.4900e-01	2.0375	5.799882	0.000188	1.881892	0.318801	-0.007526
 900	4.4950e-01	2.0149	5.762678	0.000186	1.860507	0.315178	-0.007441
 901	4.5000e-01	1.9963	5.719916	0.000214	2.138514	0.362274	-0.008553
 902	4.5050e-01	1.9764	5.665607	0.000272	2.715913	0.460088	-0.010862
 903	4.5100e-01	1.9588	5.657482	0.000041	0.406318	0.068832	-0.001625
 904	4.5150e-01	1.9367	5.594621	0.000314	3.143615	0.532543	-0.012572
 905	4.5200e-01	1.9131	5.556990	0.000188	1.881892	0.318801	-0.007526
 906	4.5250e-01	1.8954	5.519359	0.000188	1.881892	0.318801	-0.007526
 907	4.5300e-01	1.8767	5.478735	0.000203	2.031588	0.344160	-0.008125
 908	4.5350e-01	1.8560	5.444525	0.000171	1.710811	0.289819	-0.006842
 909	4.5400e-01	1.8362	5.398769	0.000229	2.288210	0.387633	-0.009151
 910	4.5450e-01	1.8171	5.362421	0.000182	1.817737	0.307933	-0.007270
 911	4.5500e-01	1.7984	5.315810	0.000233	2.330980	0.394879	-0.009322
 912	4.5550e-01	1.7767	5.267916	0.000240	2.395136	0.405747	-0.009579
 913	4.5600e-01	1.7567	5.231995	0.000180	1.796352	0.304310	-0.007184
 914	4.5650e-01	1.7383	5.191798	0.000201	2.010203	0.340538	-0.008039
 915	4.5700e-01	1.7194	5.150319	0.000207	2.074358	0.351406	-0.008296
 916	4.5750e-01	1.6968	5.107129	0.000216	2.159899	0.365897	-0.008638
 917	4.5800e-01	1.6753	5.080616	0.000133	1.325879	0.224610	-0.005303
 918	4.5850e-01	1.6554	5.046406	0.000171	1.710811	0.289819	-0.006842
 919	4.5900e-01	1.6388	4.980979	0.000327	3.271926	0.554279	-0.013085
 920	4.5950e-01	1.6191	4.945059	0.000180	1.796352	0.304310	-0.007184
 921	4.6000e-01	1.5983	4.889467	0.000278	2.780068	0.470956	-0.011118
 922	4.6050e-01	1.5799	4.853974	0.000177	1.774967	0.300687	-0.007099
 923	4.6100e-01	1.5567	4.797528	0.000282	2.822838	0.478202	-0.011289
 924	4.6150e-01	1.5369	4.770160	0.000137	1.368649	0.231855	-0.005474
 925	4.6200e-01	1.5186	4.742364	0.000139	1.390034	0.235478	-0.005559
 926	4.6250e-01	1.4970	4.697036	0.000227	2.266825	0.384010	-0.009066
 927	4.6300e-01	1.4775	4.666247	0.000154	1.539730	0.260837	-0.006158
 928	4.6350e-01	1.4575	4.632037	0.000171	1.710811	0.289819	-0.006842
 929	4.6400e-01	1.4381	4.555492	0.000383	3.827940	0.648471	-0.015309
 930	4.6450e-01	1.4179	4.504605	0.000254	2.544832	0.431106	-0.010177
 931	4.6500e-01	1.3953	4.487500	0.000086	0.855406	0.144910	-0.003421
 932	4.6550e-01	1.3803	4.457138	0.000152	1.518345	0.257215	-0.006072
 933	4.6600e-01	1.3569	4.384442	0.000364	3.635474	0.615866	-0.014539
 934	4.6650e-01	1.3352	4.348521	0.000180	1.796352	0.304310	-0.007184
 935	4.6700e-01	1.3133	4.331416	0.000086	0.855406	0.144910	-0.003421
 936	4.6750e-01	1.2988	4.277963	0.000267	2.673142	0.452843	-0.010691
 937	4.6800e-01	1.2746	4.222800	0.000276	2.758683	0.467334	-0.011033
 938	4.6850e-01	1.2563	4.221089	0.000009	0.085541	0.014491	-0.000342
 939	4.6900e-01	1.2395	4.158656	0.000312	3.122230	0.528920	-0.012487
 940	4.6950e-01	1.2173	4.100499	0.000291	2.908379	0.492693	-0.011631
 941	4.7000e-01	1.1994	4.059447	0.000205	2.052973	0.347783	-0.008210
 942	4.7050e-01	1.1743	4.023954	0.000177	1.774967	0.300687	-0.007099
 943	4.7100e-01	1.1585	3.987606	0.000182	1.817737	0.307933	-0.007270
 944	4.7150e-01	1.1385	3.938856	0.000244	2.437906	0.412992	-0.009750
 945	4.7200e-01	1.1147	3.898232	0.000203	2.031588	0.344160	-0.008125
 946	4.7250e-01	1.0999	3.865305	0.000165	1.646656	0.278951	-0.006585
 947	4.7300e-01	1.0765	3.808858	0.000282	2.822838	0.478202	-0.011289
 948	4.7350e-01	1.0538	3.778497	0.000152	1.518345	0.257215	-0.006072
 949	4.7400e-01	1.0386	3.724616	0.000269	2.694527	0.456465	-0.010776
 950	4.7450e-01	1.0169	3.671163	0.000267	2.673142	0.452843	-0.010691
 951	4.7500e-01	0.9957	3.647644	0.000118	1.176183	0.199251	-0.004704
 952	4.7550e-01	0.9742	3.611723	0.000180	1.796352	0.304310	-0.007184
 953	4.7600e-01	0.9573	3.573237	0.000192	1.924662	0.326047	-0.007697
 954	4.7650e-01	0.9357	3.520639	0.000263	2.630372	0.445597	-0.010520
 955	4.7700e-01	0.9164	3.474028	0.000233	2.330980	0.394879	-0.009322
 956	4.7750e-01	0.8978	3.423140	0.000254	2.544832	0.431106	-0.010177
 957	4.7800e-01	0.8752	3.395345	0.000139	1.390034	0.235478	-0.005559
 958	4.7850e-01	0.8556	3.352582	0.000214	2.138514	0.362274	-0.008553
 959	4.7900e-01	0.8359	3.308964	0.000218	2.181284	0.369520	-0.008724
 960	4.7950e-01	0.8176	3.248669	0.000302	3.015305	0.510806	-0.012059
 961	4.8000e-01	0.7983	3.211038	0.000188	1.881892	0.318801	-0.007526
 962	4.8050e-01	0.7764	3.190940	0.000101	1.005102	0.170269	-0.004020
 963	4.8100e-01	0.7540	3.142191	0.000244	2.437906	0.412992	-0.009750
 964	4.8150e-01	0.7368	3.084889	0.000287	2.865609	0.485447	-0.011460
 965	4.8200e-01	0.7170	3.037850	0.000235	2.352365	0.398501	-0.009408
 966	4.8250e-01	0.6984	3.005778	0.000160	1.603885	0.271706	-0.006414
 967	4.8300e-01	0.6760	2.966009	0.000199	1.988818	0.336915	-0.007954
 968	4.8350e-01	0.6557	2.913411	0.000263	2.630372	0.445597	-0.010520
 969	4.8400e-01	0.6348	2.895878	0.000088	0.876791	0.148532	-0.003507
 970	4.8450e-01	0.6171	2.853543	0.000212	2.117129	0.358651	-0.008467
 971	4.8500e-01	0.5969	2.796669	0.000284	2.844223	0.481824	-0.011375
 972	4.8550e-01	0.5746	2.745354	0.000257	2.566217	0.434729	-0.010263
 973	4.8600e-01	0.5608	2.706868	0.000192	1.924662	0.326047	-0.007697
 974	4.8650e-01	0.5363	2.640158	0.000334	3.336082	0.565148	-0.013342
 975	4.8700e-01	0.5136	2.599106	0.000205	2.052973	0.347783	-0.008210
 976	4.8750e-01	0.4961	2.561903	0.000186	1.860507	0.315178	-0.007441
 977	4.8800e-01	0.4797	2.515719	0.000231	2.309595	0.391256	-0.009237
 978	4.8850e-01	0.4588	2.481509	0.000171	1.710811	0.289819	-0.006842
 979	4.8900e-01	0.4392	2.437036	0.000222	2.224054	0.376765	-0.008895
 980	4.8950e-01	0.4159	2.375031	0.000310	3.100845	0.525297	-0.012401
 981	4.9000e-01	0.3970	2.347235	0.000139	1.390034	0.235478	-0.005559
 982	4.9050e-01	0.3750	2.318157	0.000145	1.454189	0.246346	-0.005816
 983	4.9100e-01	0.3535	2.250164	0.000340	3.400237	0.576016	-0.013598
 984	4.9150e-01	0.3363	2.229638	0.000103	1.026487	0.173892	-0.004105
 985	4.9200e-01	0.3172	2.179606	0.000250	2.502061	0.423861	-0.010006
 986	4.9250e-01	0.2953	2.129574	0.000250	2.502061	0.423861	-0.010006
 987	4.9300e-01	0.2771	2.093226	0.000182	1.817737	0.307933	-0.007270
 988	4.9350e-01	0.2571	2.042338	0.000254	2.544832	0.431106	-0.010177
 989	4.9400e-01	0.2366	1.994017	0.000242	2.416521	0.409370	-0.009664
 990	4.9450e-01	0.2159	1.943984	0.000250	2.502061	0.423861	-0.010006
 991	4.9500e-01	0.1963	1.905498	0.000192	1.924662	0.326047	-0.007697
 992	4.9550e-01	0.1762	1.858887	0.000233	2.330980	0.394879	-0.009322
 993	4.9600e-01	0.1554	1.842210	0.000083	0.834020	0.141287	-0.003335
 994	4.9650e-01	0.1348	1.790895	0.000257	2.566217	0.434729	-0.010263
 995	4.9700e-01	0.1160	1.737441	0.000267	2.673142	0.452843	-0.010691
 996	4.9750e-01	0.0976	1.712212	0.000126	1.261723	0.213742	-0.005046
 997	4.9800e-01	0.0755	1.657476	0.000274	2.737298	0.463711	-0.010947
 998	4.9850e-01	0.0562	1.602740	0.000274	2.737298	0.463711	-0.010947
 999	4.9900e-01	0.0364	1.562543	0.000201	2.010203	0.340538	-0.008039
1000	4.9950e-01	0.0163	1.522774	0.000199	1.988818	0.336915	-0.007954
1001	5.0000e-01	-0.0037	1.463334	0.000297	2.972534	0.503561	-0.011888
1002	5.0050e-01	-0.0236	1.466755	-0.000017	-0.171081	-0.028982	0.000684
1003	5.0100e-01	-0.0451	1.386361	0.000402	4.020406	0.681075	-0.016079
1004	5.0150e-01	-0.0651	1.344881	0.000207	2.074358	0.351406	-0.008296
1005	5.0200e-01	-0.0840	1.310671	0.000171	1.710811	0.289819	-0.006842
1006	5.0250e-01	-0.1026	1.274751	0.000180	1.796352	0.304310	-0.007184
1007	5.0300e-01	-0.1250	1.225146	0.000248	2.480676	0.420238	-0.009921
1008	5.0350e-01	-0.1424	1.174687	0.000252	2.523446	0.427483	-0.010092
1009	5.0400e-01	-0.1619	1.115674	0.000295	2.951149	0.499938	-0.011802
1010	5.0450e-01	-0.1826	1.069063	0.000233	2.330980	0.394879	-0.009322
1011	5.0500e-01	-0.2009	1.025018	0.000220	2.202669	0.373142	-0.008809
1012	5.0550e-01	-0.2229	0.987814	0.000186	1.860507	0.315178	-0.007441
1013	5.0600e-01	-0.2403	0.947190	0.000203	2.031588	0.344160	-0.008125
1014	5.0650e-01	-0.2641	0.905710	0.000207	2.074358	0.351406	-0.008296
1015	5.0700e-01	-0.2831	0.866796	0.000195	1.946048	0.329669	-0.007783
1016	5.0750e-01	-0.3012	0.821468	0.000227	2.266825	0.384010	-0.009066
1017	5.0800e-01	-0.3211	0.768015	0.000267	2.673142	0.452843	-0.010691
1018	5.0850e-01	-0.3444	0.736371	0.000158	1.582500	0.268083	-0.006329
1019	5.0900e-01	-0.3633	0.682062	0.000272	2.715913	0.460088	-0.010862
1020	5.0950e-01	-0.3831	0.623050	0.000295	2.951149	0.499938	-0.011802
1021	5.1000e-01	-0.4029	0.578577	0.000222	2.224054	0.376765	-0.008895
1022	5.1050e-01	-0.4230	0.542229	0.000182	1.817737	0.307933	-0.007270
1023	5.1100e-01	-0.4438	0.517427	0.000124	1.240338	0.210119	-0.004960
1024	5.1150e-01	-0.4652	0.465256	0.000261	2.608987	0.441974	-0.010434
1025	5.1200e-01	-0.4814	0.412231	0.000265	2.651757	0.449220	-0.010605
1026	5.1250e-01	-0.5041	0.366475	0.000229	2.288210	0.387633	-0.009151
1027	5.1300e-01	-0.5227	0.333120	0.000167	1.668041	0.282574	-0.006671
1028	5.1350e-01	-0.5437	0.277956	0.000276	2.758683	0.467334	-0.011033
1029	5.1400e-01	-0.5620	0.236049	0.000210	2.095744	0.355029	-0.008381
1030	5.1450e-01	-0.5845	0.184734	0.000257	2.566217	0.434729	-0.010263
1031	5.1500e-01	-0.6042	0.135557	0.000246	2.459291	0.416615	-0.009835
1032	5.1550e-01	-0.6236	0.116742	0.000094	0.940946	0.159401	-0.003763
1033	5.1600e-01	-0.6445	0.073552	0.000216	2.159899	0.365897	-0.008638
1034	5.1650e-01	-0.6654	0.025230	0.000242	2.416521	0.409370	-0.009664
1035	5.1700e-01	-0.6812	-0.015395	0.000203	2.031588	0.344160	-0.008125
1036	5.1750e-01	-0.6995	-0.076973	0.000308	3.079460	0.521675	-0.012316
1037	5.1800e-01	-0.7232	-0.123156	0.000231	2.309595	0.391256	-0.009237
1038	5.1850e-01	-0.7417	-0.166774	0.000218	2.181284	0.369520	-0.008724
1039	5.1900e-01	-0.7627	-0.204405	0.000188	1.881892	0.318801	-0.007526
1040	5.1950e-01	-0.7810	-0.249733	0.000227	2.266825	0.384010	-0.009066
1041	5.2000e-01	-0.8035	-0.284371	0.000173	1.732196	0.293442	-0.006928
1042	5.2050e-01	-0.8247	-0.342528	0.000291	2.908379	0.492693	-0.011631
1043	5.2100e-01	-0.8430	-0.366475	0.000120	1.197568	0.202873	-0.004789
1044	5.2150e-01	-0.8604	-0.410948	0.000222	2.224054	0.376765	-0.008895
1045	5.2200e-01	-0.8851	-0.467394	0.000282	2.822838	0.478202	-0.011289
1046	5.2250e-01	-0.9028	-0.497328	0.000150	1.496960	0.253592	-0.005987
1047	5.2300e-01	-0.9232	-0.546933	0.000248	2.480676	0.420238	-0.009921
1048	5.2350e-01	-0.9416	-0.605090	0.000291	2.908379	0.492693	-0.011631
1049	5.2400e-01	-0.9624	-0.642293	0.000186	1.860507	0.315178	-0.007441
1050	5.2450e-01	-0.9825	-0.676503	0.000171	1.710811	0.289819	-0.006842
1051	5.2500e-01	-1.0070	-0.738936	0.000312	3.122230	0.528920	-0.012487
1052	5.2550e-01	-1.0226	-0.792390	0.000267	2.673142	0.452843	-0.010691
1053	5.2600e-01	-1.0444	-0.803080	0.000053	0.534628	0.090569	-0.002138
1054	5.2650e-01	-1.0625	-0.861665	0.000293	2.929764	0.496315	-0.011717
1055	5.2700e-01	-1.0815	-0.911269	0.000248	2.480676	0.420238	-0.009921
1056	5.2750e-01	-1.1034	-0.976696	0.000327	3.271926	0.554279	-0.013085
1057	5.2800e-01	-1.1245	-0.992518	0.000079	0.791250	0.134041	-0.003164
1058	5.2850e-01	-1.1433	-1.035708	0.000216	2.159899	0.365897	-0.008638
1059	5.2900e-01	-1.1642	-1.088734	0.000265	2.651757	0.449220	-0.010605
1060	5.2950e-01	-1.1830	-1.128931	0.000201	2.010203	0.340538	-0.008039
1061	5.3000e-01	-1.2051	-1.176825	0.000240	2.395136	0.405747	-0.009579
1062	5.3050e-01	-1.2242	-1.212318	0.000177	1.774967	0.300687	-0.007099
1063	5.3100e-01	-1.2449	-1.255935	0.000218	2.181284	0.369520	-0.008724
1064	5.3150e-01	-1.2644	-1.307250	0.000257	2.566217	0.434729	-0.010263
1065	5.3200e-01	-1.2818	-1.316658	0.000047	0.470473	0.079700	-0.001882
1066	5.3250e-01	-1.3023	-1.397479	0.000404	4.041791	0.684698	-0.016164
1067	5.3300e-01	-1.3230	-1.437249	0.000199	1.988818	0.336915	-0.007954
1068	5.3350e-01	-1.3406	-1.477873	0.000203	2.031588	0.344160	-0.008125
1069	5.3400e-01	-1.3631	-1.526622	0.000244	2.437906	0.412992	-0.009750
1070	5.3450e-01	-1.3827	-1.569385	0.000214	2.138514	0.362274	-0.008553
1071	5.3500e-01	-1.4054	-1.632673	0.000317	3.165001	0.536166	-0.012658
1072	5.3550e-01	-1.4236	-1.651489	0.000094	0.940946	0.159401	-0.003763
1073	5.3600e-01	-1.4405	-1.710929	0.000297	2.972534	0.503561	-0.011888
1074	5.3650e-01	-1.4634	-1.752836	0.000210	2.095744	0.355029	-0.008381
1075	5.3700e-01	-1.4820	-1.791750	0.000195	1.946048	0.329669	-0.007783
1076	5.3750e-01	-1.5012	-1.826815	0.000175	1.753581	0.297065	-0.007013
1077	5.3800e-01	-1.5241	-1.888393	0.000308	3.079460	0.521675	-0.012316
1078	5.3850e-01	-1.5460	-1.914906	0.000133	1.325879	0.224610	-0.005303
1079	5.3900e-01	-1.5644	-1.939281	0.000122	1.218953	0.206496	-0.004875
1080	5.3950e-01	-1.5830	-2.001714	0.000312	3.122230	0.528920	-0.012487
1081	5.4000e-01	-1.6041	-2.034641	0.000165	1.646656	0.278951	-0.006585
1082	5.4050e-01	-1.6242	-2.087667	0.000265	2.651757	0.449220	-0.010605
1083	5.4100e-01	-1.6413	-2.136416	0.000244	2.437906	0.412992	-0.009750
1084	5.4150e-01	-1.6627	-2.191580	0.000276	2.758683	0.467334	-0.011033
1085	5.4200e-01	-1.6817	-2.223651	0.000160	1.603885	0.271706	-0.006414
1086	5.4250e-01	-1.6999	-2.269407	0.000229	2.288210	0.387633	-0.009151
1087	5.4300e-01	-1.7232	-2.324571	0.000276	2.758683	0.467334	-0.011033
1088	5.4350e-01	-1.7429	-2.361774	0.000186	1.860507	0.315178	-0.007441
1089	5.4400e-01	-1.7632	-2.393846	0.000160	1.603885	0.271706	-0.006414
1090	5.4450e-01	-1.7839	-2.442596	0.000244	2.437906	0.412992	-0.009750
1091	5.4500e-01	-1.8013	-2.485358	0.000214	2.138514	0.362274	-0.008553
1092	5.4550e-01	-1.8237	-2.521706	0.000182	1.817737	0.307933	-0.007270
1093	5.4600e-01	-1.8444	-2.580291	0.000293	2.929764	0.496315	-0.011717
1094	5.4650e-01	-1.8655	-2.625192	0.000225	2.245440	0.380388	-0.008980
1095	5.4700e-01	-1.8837	-2.656408	0.000156	1.561115	0.264460	-0.006243
1096	5.4750e-01	-1.9019	-2.691046	0.000173	1.732196	0.293442	-0.006928
1097	5.4800e-01	-1.9202	-2.753907	0.000314	3.143615	0.532543	-0.012572
1098	5.4850e-01	-1.9434	-2.801373	0.000237	2.373750	0.402124	-0.009493
1099	5.4900e-01	-1.9619	-2.834300	0.000165	1.646656	0.278951	-0.006585
1100	5.4950e-01	-1.9831	-2.879629	0.000227	2.266825	0.384010	-0.009066
1101	5.5000e-01	-2.0036	-2.929233	0.000248	2.480676	0.420238	-0.009921
1102	5.5050e-01	-2.0234	-2.964726	0.000177	1.774967	0.300687	-0.007099
1103	5.5100e-01	-2.0426	-3.003640	0.000195	1.946048	0.329669	-0.007783
1104	5.5150e-01	-2.0649	-3.040843	0.000186	1.860507	0.315178	-0.007441
1105	5.5200e-01	-2.0844	-3.087454	0.000233	2.330980	0.394879	-0.009322
1106	5.5250e-01	-2.1006	-3.148605	0.000306	3.058075	0.518052	-0.012230
1107	5.5300e-01	-2.1239	-3.190512	0.000210	2.095744	0.355029	-0.008381
1108	5.5350e-01	-2.1452	-3.226860	0.000182	1.817737	0.307933	-0.007270
1109	5.5400e-01	-2.1613	-3.261070	0.000171	1.710811	0.289819	-0.006842
1110	5.5450e-01	-2.1830	-3.317089	0.000280	2.801453	0.474579	-0.011204
1111	5.5500e-01	-2.2039	-3.351727	0.000173	1.732196	0.293442	-0.006928
1112	5.5550e-01	-2.2234	-3.374391	0.000113	1.133412	0.192005	-0.004533
1113	5.5600e-01	-2.2433	-3.435541	0.000306	3.058075	0.518052	-0.012230
1114	5.5650e-01	-2.2643	-3.486001	0.000252	2.523446	0.427483	-0.010092
1115	5.5700e-01	-2.2820	-3.525770	0.000199	1.988818	0.336915	-0.007954
1116	5.5750e-01	-2.3031	-3.570243	0.000222	2.224054	0.376765	-0.008895
1117	5.5800e-01	-2.3215	-3.603171	0.000165	1.646656	0.278951	-0.006585
1118	5.5850e-01	-2.3426	-3.637808	0.000173	1.732196	0.293442	-0.006928
1119	5.5900e-01	-2.3627	-3.691261	0.000267	2.673142	0.452843	-0.010691
1120	5.5950e-01	-2.3830	-3.725899	0.000173	1.732196	0.293442	-0.006928
1121	5.6000e-01	-2.4046	-3.769517	0.000218	2.181284	0.369520	-0.008724
1122	5.6050e-01	-2.4247	-3.814417	0.000225	2.245440	0.380388	-0.008980
1123	5.6100e-01	-2.4458	-3.868298	0.000269	2.694527	0.456465	-0.010776
1124	5.6150e-01	-2.4628	-3.908923	0.000203	2.031588	0.344160	-0.008125
1125	5.6200e-01	-2.4842	-3.929876	0.000105	1.047872	0.177514	-0.004191
1126	5.6250e-01	-2.5031	-3.987606	0.000289	2.886994	0.489070	-0.011546
1127	5.6300e-01	-2.5246	-4.006421	0.000094	0.940946	0.159401	-0.003763
1128	5.6350e-01	-2.5448	-4.044907	0.000192	1.924662	0.326047	-0.007697
1129	5.6400e-01	-2.5611	-4.098788	0.000269	2.694527	0.456465	-0.010776
1130	5.6450e-01	-2.5814	-4.156090	0.000287	2.865609	0.485447	-0.011460
1131	5.6500e-01	-2.6042	-4.197997	0.000210	2.095744	0.355029	-0.008381
1132	5.6550e-01	-2.6231	-4.217668	0.000098	0.983716	0.166646	-0.003934
1133	5.6600e-01	-2.6429	-4.284805	0.000336	3.357467	0.568770	-0.013427
1134	5.6650e-01	-2.6624	-4.313029	0.000141	1.411419	0.239101	-0.005645
1135	5.6700e-01	-2.6826	-4.369903	0.000284	2.844223	0.481824	-0.011375
1136	5.6750e-01	-2.7018	-4.422928	0.000265	2.651757	0.449220	-0.010605
1137	5.6800e-01	-2.7226	-4.436185	0.000066	0.662939	0.112305	-0.002651
1138	5.6850e-01	-2.7427	-4.475954	0.000199	1.988818	0.336915	-0.007954
1139	5.6900e-01	-2.7641	-4.500756	0.000124	1.240338	0.210119	-0.004960
1140	5.6950e-01	-2.7821	-4.580722	0.000400	3.999021	0.677452	-0.015993
1141	5.7000e-01	-2.8022	-4.614504	0.000169	1.689426	0.286197	-0.006756
1142	5.7050e-01	-2.8214	-4.642728	0.000141	1.411419	0.239101	-0.005645
1143	5.7100e-01	-2.8434	-4.675655	0.000165	1.646656	0.278951	-0.006585
1144	5.7150e-01	-2.8635	-4.726542	0.000254	2.544832	0.431106	-0.010177
1145	5.7200e-01	-2.8822	-4.768449	0.000210	2.095744	0.355029	-0.008381
1146	5.7250e-01	-2.9038	-4.810784	0.000212	2.117129	0.358651	-0.008467
1147	5.7300e-01	-2.9211	-4.845422	0.000173	1.732196	0.293442	-0.006928
1148	5.7350e-01	-2.9426	-4.897165	0.000259	2.587602	0.438352	-0.010349
1149	5.7400e-01	-2.9624	-4.913842	0.000083	0.834020	0.141287	-0.003335
1150	5.7450e-01	-2.9841	-4.960881	0.000235	2.352365	0.398501	-0.009408
1151	5.7500e-01	-3.0042	-5.008775	0.000240	2.395136	0.405747	-0.009579
1152	5.7550e-01	-3.0231	-5.059662	0.000254	2.544832	0.431106	-0.010177
1153	5.7600e-01	-3.0445	-5.100287	0.000203	2.031588	0.344160	-0.008125
1154	5.7650e-01	-3.0611	-5.136207	0.000180	1.796352	0.304310	-0.007184
1155	5.7700e-01	-3.0844	-5.166569	0.000152	1.518345	0.257215	-0.006072
1156	5.7750e-01	-3.1037	-5.209759	0.000216	2.159899	0.365897	-0.008638
1157	5.7800e-01	-3.1229	-5.261929	0.000261	2.608987	0.441974	-0.010434
1158	5.7850e-01	-3.1428	-5.288014	0.000130	1.304493	0.220987	-0.005217
1159	5.7900e-01	-3.1641	-5.326928	0.000195	1.946048	0.329669	-0.007783
1160	5.7950e-01	-3.1818	-5.381236	0.000272	2.715913	0.460088	-0.010862
1161	5.8000e-01	-3.2052	-5.409460	0.000141	1.411419	0.239101	-0.005645
1162	5.8050e-01	-3.2206	-5.458637	0.000246	2.459291	0.416615	-0.009835
1163	5.8100e-01	-3.2432	-5.518932	0.000302	3.015305	0.510806	-0.012059
1164	5.8150e-01	-3.2623	-5.546727	0.000139	1.390034	0.235478	-0.005559
1165	5.8200e-01	-3.2832	-5.557418	0.000053	0.534628	0.090569	-0.002138
1166	5.8250e-01	-3.3030	-5.615575	0.000291	2.908379	0.492693	-0.011631
1167	5.8300e-01	-3.3222	-5.660048	0.000222	2.224054	0.376765	-0.008895
1168	5.8350e-01	-3.3444	-5.713074	0.000265	2.651757	0.449220	-0.010605
1169	5.8400e-01	-3.3625	-5.747284	0.000171	1.710811	0.289819	-0.006842
1170	5.8450e-01	-3.3829	-5.784915	0.000188	1.881892	0.318801	-0.007526
1171	5.8500e-01	-3.4052	-5.820408	0.000177	1.774967	0.300687	-0.007099
1172	5.8550e-01	-3.4229	-5.849486	0.000145	1.454189	0.246346	-0.005816
1173	5.8600e-01	-3.4431	-5.893104	0.000218	2.181284	0.369520	-0.008724
1174	5.8650e-01	-3.4608	-5.933728	0.000203	2.031588	0.344160	-0.008125
1175	5.8700e-01	-3.4835	-5.959386	0.000128	1.283108	0.217364	-0.005132
1176	5.8750e-01	-3.5030	-6.003859	0.000222	2.224054	0.376765	-0.008895
1177	5.8800e-01	-3.5226	-6.023957	0.000101	1.005102	0.170269	-0.004020
1178	5.8850e-01	-3.5444	-6.078266	0.000272	2.715913	0.460088	-0.010862
1179	5.8900e-01	-3.5627	-6.124022	0.000229	2.288210	0.387633	-0.009151
1180	5.8950e-01	-3.5838	-6.164646	0.000203	2.031588	0.344160	-0.008125
1181	5.9000e-01	-3.6018	-6.203132	0.000192	1.924662	0.326047	-0.007697
1182	5.9050e-01	-3.6231	-6.248033	0.000225	2.245440	0.380388	-0.008980
1183	5.9100e-01	-3.6430	-6.267704	0.000098	0.983716	0.166646	-0.003934
1184	5.9150e-01	-3.6646	-6.324150	0.000282	2.822838	0.478202	-0.011289
1185	5.9200e-01	-3.6829	-6.368623	0.000222	2.224054	0.376765	-0.008895
1186	5.9250e-01	-3.7049	-6.392998	0.000122	1.218953	0.206496	-0.004875
1187	5.9300e-01	-3.7220	-6.434905	0.000210	2.095744	0.355029	-0.008381
1188	5.9350e-01	-3.7428	-6.469543	0.000173	1.732196	0.293442	-0.006928
1189	5.9400e-01	-3.7650	-6.508029	0.000192	1.924662	0.326047	-0.007697
1190	5.9450e-01	-3.7830	-6.551647	0.000218	2.181284	0.369520	-0.008724
1191	5.9500e-01	-3.8050	-6.566186	0.000073	0.727095	0.123173	-0.002908
1192	5.9550e-01	-3.8241	-6.632896	0.000334	3.336082	0.565148	-0.013342
1193	5.9600e-01	-3.8438	-6.655132	0.000111	1.112027	0.188383	-0.004447
1194	5.9650e-01	-3.8627	-6.708585	0.000267	2.673142	0.452843	-0.010691
1195	5.9700e-01	-3.8847	-6.735526	0.000135	1.347264	0.228233	-0.005388
1196	5.9750e-01	-3.9027	-6.780426	0.000225	2.245440	0.380388	-0.008980
1197	5.9800e-01	-3.9239	-6.834307	0.000269	2.694527	0.456465	-0.010776
1198	5.9850e-01	-3.9423	-6.867234	0.000165	1.646656	0.278951	-0.006585
1199	5.9900e-01	-3.9631	-6.909997	0.000214	2.138514	0.362274	-0.008553
1200	5.9950e-01	-3.9816	-6.935227	0.000126	1.261723	0.213742	-0.005046
1201	6.0000e-01	-3.9991	-6.971147	0.000180	1.796352	0.304310	-0.007184
1202	6.0050e-01	-4.0241	-7.025028	0.000269	2.694527	0.456465	-0.010776
1203	6.0100e-01	-4.0432	-7.038712	0.000068	0.684324	0.115928	-0.002737
1204	6.0150e-01	-4.0638	-7.083613	0.000225	2.245440	0.380388	-0.008980
1205	6.0200e-01	-4.0849	-7.110981	0.000137	1.368649	0.231855	-0.005474
1206	6.0250e-01	-4.1026	-7.142197	0.000156	1.561115	0.264460	-0.006243
1207	6.0300e-01	-4.1236	-7.195223	0.000265	2.651757	0.449220	-0.010605
1208	6.0350e-01	-4.1438	-7.235420	0.000201	2.010203	0.340538	-0.008039
1209	6.0400e-01	-4.1602	-7.279893	0.000222	2.224054	0.376765	-0.008895
1210	6.0450e-01	-4.1834	-7.314530	0.000173	1.732196	0.293442	-0.006928
1211	6.0500e-01	-4.2023	-7.338905	0.000122	1.218953	0.206496	-0.004875
1212	6.0550e-01	-4.2239	-7.377391	0.000192	1.924662	0.326047	-0.007697
1213	6.0600e-01	-4.2426	-7.430844	0.000267	2.673142	0.452843	-0.010691
1214	6.0650e-01	-4.2631	-7.460778	0.000150	1.496960	0.253592	-0.005987
1215	6.0700e-01	-4.2817	-7.521073	0.000302	3.015305	0.510806	-0.012059
1216	6.0750e-01	-4.3031	-7.559560	0.000192	1.924662	0.326047	-0.007697
1217	6.0800e-01	-4.3252	-7.569823	0.000051	0.513243	0.086946	-0.002053
1218	6.0850e-01	-4.3410	-7.588210	0.000092	0.919561	0.155778	-0.003678
1219	6.0900e-01	-4.3635	-7.645940	0.000289	2.886994	0.489070	-0.011546
1220	6.0950e-01	-4.3793	-7.686137	0.000201	2.010203	0.340538	-0.008039
1221	6.1000e-01	-4.4019	-7.715215	0.000145	1.454189	0.246346	-0.005816
1222	6.1050e-01	-4.4239	-7.728472	0.000066	0.662939	0.112305	-0.002651
1223	6.1100e-01	-4.4430	-7.781497	0.000265	2.651757	0.449220	-0.010605
1224	6.1150e-01	-4.4633	-7.815280	0.000169	1.689426	0.286197	-0.006756
1225	6.1200e-01	-4.4801	-7.872154	0.000284	2.844223	0.481824	-0.011375
1226	6.1250e-01	-4.5051	-7.905508	0.000167	1.668041	0.282574	-0.006671
1227	6.1300e-01	-4.5234	-7.919620	0.000071	0.705710	0.119550	-0.002822
1228	6.1350e-01	-4.5444	-7.969652	0.000250	2.502061	0.423861	-0.010006
1229	6.1400e-01	-4.5628	-8.000869	0.000156	1.561115	0.264460	-0.006243
1230	6.1450e-01	-4.5840	-8.038500	0.000188	1.881892	0.318801	-0.007526
1231	6.1500e-01	-4.6049	-8.044487	0.000030	0.299392	0.050718	-0.001197
1232	6.1550e-01	-4.6241	-8.097085	0.000263	2.630372	0.445597	-0.010520
1233	6.1600e-01	-4.6430	-8.141985	0.000225	2.245440	0.380388	-0.008980
1234	6.1650e-01	-4.6626	-8.183893	0.000210	2.095744	0.355029	-0.008381
1235	6.1700e-01	-4.6847	-8.218530	0.000173	1.732196	0.293442	-0.006928
1236	6.1750e-01	-4.7031	-8.252313	0.000169	1.689426	0.286197	-0.006756
1237	6.1800e-01	-4.7236	-8.276687	0.000122	1.218953	0.206496	-0.004875
1238	6.1850e-01	-4.7437	-8.324581	0.000240	2.395136	0.405747	-0.009579
1239	6.1900e-01	-4.7645	-8.357081	0.000163	1.625271	0.275328	-0.006500
1240	6.1950e-01	-4.7828	-8.391291	0.000171	1.710811	0.289819	-0.006842
1241	6.2000e-01	-4.8044	-8.421225	0.000150	1.496960	0.253592	-0.005987
1242	6.2050e-01	-4.8225	-8.464842	0.000218	2.181284	0.369520	-0.008724
1243	6.2100e-01	-4.8464	-8.507605	0.000214	2.138514	0.362274	-0.008553
1244	6.2150e-01	-4.8618	-8.540104	0.000163	1.625271	0.275328	-0.006500
1245	6.2200e-01	-4.8835	-8.559347	0.000096	0.962331	0.163023	-0.003849
1246	6.2250e-01	-4.9043	-8.602110	0.000214	2.138514	0.362274	-0.008553
1247	6.2300e-01	-4.9238	-8.651287	0.000246	2.459291	0.416615	-0.009835
1248	6.2350e-01	-4.9421	-8.673951	0.000113	1.133412	0.192005	-0.004533
1249	6.2400e-01	-4.9641	-8.717996	0.000220	2.202669	0.373142	-0.008809
1250	6.2450e-01	-4.9845	-8.750924	0.000165	1.646656	0.278951	-0.006585
1251	6.2500e-01	-5.0043	-8.792403	0.000207	2.074358	0.351406	-0.008296
1252	6.2550e-01	-5.0260	-8.808225	0.000079	0.791250	0.134041	-0.003164
1253	6.2600e-01	-5.0413	-8.846284	0.000190	1.903277	0.322424	-0.007612
1254	6.2650e-01	-5.0629	-8.868521	0.000111	1.112027	0.188383	-0.004447
1255	6.2700e-01	-5.0834	-8.928816	0.000302	3.015305	0.510806	-0.012059
1256	6.2750e-01	-5.1038	-8.958750	0.000150	1.496960	0.253592	-0.005987
1257	6.2800e-01	-5.1246	-8.989966	0.000156	1.561115	0.264460	-0.006243
1258	6.2850e-01	-5.1429	-9.027170	0.000186	1.860507	0.315178	-0.007441
1259	6.2900e-01	-5.1624	-9.081906	0.000274	2.737298	0.463711	-0.010947
1260	6.2950e-01	-5.1826	-9.095162	0.000066	0.662939	0.112305	-0.002651
1261	6.3000e-01	-5.2055	-9.129372	0.000171	1.710811	0.289819	-0.006842
1262	6.3050e-01	-5.2235	-9.156312	0.000135	1.347264	0.228233	-0.005388
1263	6.3100e-01	-5.2413	-9.205489	0.000246	2.459291	0.416615	-0.009835
1264	6.3150e-01	-5.2628	-9.244831	0.000197	1.967433	0.333292	-0.007868
1265	6.3200e-01	-5.2845	-9.255521	0.000053	0.534628	0.090569	-0.002138
1266	6.3250e-01	-5.3040	-9.300422	0.000225	2.245440	0.380388	-0.008980
1267	6.3300e-01	-5.3242	-9.337198	0.000184	1.839122	0.311556	-0.007355
1268	6.3350e-01	-5.3437	-9.360290	0.000115	1.154797	0.195628	-0.004618
1269	6.3400e-01	-5.3645	-9.412460	0.000261	2.608987	0.441974	-0.010434
1270	6.3450e-01	-5.3828	-9.454795	0.000212	2.117129	0.358651	-0.008467
1271	6.3500e-01	-5.4017	-9.474893	0.000101	1.005102	0.170269	-0.004020
1272	6.3550e-01	-5.4237	-9.518939	0.000220	2.202669	0.373142	-0.008809
1273	6.3600e-01	-5.4429	-9.548872	0.000150	1.496960	0.253592	-0.005987
1274	6.3650e-01	-5.4658	-9.566405	0.000088	0.876791	0.148532	-0.003507
1275	6.3700e-01	-5.4847	-9.603608	0.000186	1.860507	0.315178	-0.007441
1276	6.3750e-01	-5.5021	-9.639529	0.000180	1.796352	0.304310	-0.007184
1277	6.3800e-01	-5.5235	-9.683147	0.000218	2.181284	0.369520	-0.008724
1278	6.3850e-01	-5.5436	-9.704100	0.000105	1.047872	0.177514	-0.004191
1279	6.3900e-01	-5.5637	-9.754133	0.000250	2.502061	0.423861	-0.010006
1280	6.3950e-01	-5.5866	-9.766961	0.000064	0.641554	0.108682	-0.002566
1281	6.4000e-01	-5.6046	-9.810151	0.000216	2.159899	0.365897	-0.008638
1282	6.4050e-01	-5.6232	-9.829395	0.000096	0.962331	0.163023	-0.003849
1283	6.4100e-01	-5.6437	-9.872585	0.000216	2.159899	0.365897	-0.008638
1284	6.4150e-01	-5.6641	-9.897815	0.000126	1.261723	0.213742	-0.005046
1285	6.4200e-01	-5.6858	-9.928176	0.000152	1.518345	0.257215	-0.006072
1286	6.4250e-01	-5.7023	-9.974787	0.000233	2.330980	0.394879	-0.009322
1287	6.4300e-01	-5.7230	-10.003866	0.000145	1.454189	0.246346	-0.005816
1288	6.4350e-01	-5.7441	-10.042780	0.000195	1.946048	0.329669	-0.007783
1289	6.4400e-01	-5.7655	-10.068437	0.000128	1.283108	0.217364	-0.005132
1290	6.4450e-01	-5.7850	-10.088963	0.000103	1.026487	0.173892	-0.004105
1291	6.4500e-01	-5.8047	-10.137712	0.000244	2.437906	0.412992	-0.009750
1292	6.4550e-01	-5.8222	-10.168929	0.000156	1.561115	0.264460	-0.006243
1293	6.4600e-01	-5.8442	-10.208698	0.000199	1.988818	0.336915	-0.007954
1294	6.4650e-01	-5.8646	-10.230935	0.000111	1.112027	0.188383	-0.004447
1295	6.4700e-01	-5.8833	-10.265145	0.000171	1.710811	0.289819	-0.006842
1296	6.4750e-01	-5.9058	-10.293368	0.000141	1.411419	0.239101	-0.005645
1297	6.4800e-01	-5.9219	-10.327150	0.000169	1.689426	0.286197	-0.006756
1298	6.4850e-01	-5.9455	-10.362216	0.000175	1.753581	0.297065	-0.007013
1299	6.4900e-01	-5.9644	-10.393860	0.000158	1.582500	0.268083	-0.006329
1300	6.4950e-01	-5.9827	-10.432774	0.000195	1.946048	0.329669	-0.007783
1301	6.5000e-01	-6.0004	-10.457576	0.000124	1.240338	0.210119	-0.004960
1302	6.5050e-01	-6.0255	-10.493924	0.000182	1.817737	0.307933	-0.007270
1303	6.5100e-01	-6.0444	-10.531983	0.000190	1.903277	0.322424	-0.007612
1304	6.5150e-01	-6.0639	-10.568759	0.000184	1.839122	0.311556	-0.007355
1305	6.5200e-01	-6.0835	-10.596127	0.000137	1.368649	0.231855	-0.005474
1306	6.5250e-01	-6.1042	-10.630337	0.000171	1.710811	0.289819	-0.006842
1307	6.5300e-01	-6.1189	-10.653001	0.000113	1.133412	0.192005	-0.004533
1308	6.5350e-01	-6.1439	-10.694908	0.000210	2.095744	0.355029	-0.008381
1309	6.5400e-01	-6.1640	-10.725697	0.000154	1.539730	0.260837	-0.006158
1310	6.5450e-01	-6.1851	-10.746651	0.000105	1.047872	0.177514	-0.004191
1311	6.5500e-01	-6.2049	-10.771453	0.000124	1.240338	0.210119	-0.004960
1312	6.5550e-01	-6.2269	-10.798821	0.000137	1.368649	0.231855	-0.005474
1313	6.5600e-01	-6.2428	-10.831748	0.000165	1.646656	0.278951	-0.006585
1314	6.5650e-01	-6.2635	-10.880925	0.000246	2.459291	0.416615	-0.009835
1315	6.5700e-01	-6.2840	-10.910859	0.000150	1.496960	0.253592	-0.005987
1316	6.5750e-01	-6.3052	-10.942931	0.000160	1.603885	0.271706	-0.006414
1317	6.5800e-01	-6.3245	-10.937372	-0.000028	-0.278007	-0.047096	0.001112
1318	6.5850e-01	-6.3450	-11.011778	0.000372	3.721014	0.630357	-0.014881
1319	6.5900e-01	-6.3657	-11.042995	0.000156	1.561115	0.264460	-0.006243
1320	6.5950e-01	-6.3837	-11.066942	0.000120	1.197568	0.202873	-0.004789
1321	6.6000e-01	-6.4051	-11.096448	0.000148	1.475575	0.249969	-0.005901
1322	6.6050e-01	-6.4216	-11.132369	0.000180	1.796352	0.304310	-0.007184
1323	6.6100e-01	-6.4442	-11.174276	0.000210	2.095744	0.355029	-0.008381
1324	6.6150e-01	-6.4628	-11.196940	0.000113	1.133412	0.192005	-0.004533
1325	6.6200e-01	-6.4838	-11.231578	0.000173	1.732196	0.293442	-0.006928
1326	6.6250e-01	-6.5049	-11.262367	0.000154	1.539730	0.260837	-0.006158
1327	6.6300e-01	-6.5253	-11.278189	0.000079	0.791250	0.134041	-0.003164
1328	6.6350e-01	-6.5461	-11.313682	0.000177	1.774967	0.300687	-0.007099
1329	6.6400e-01	-6.5668	-11.344899	0.000156	1.561115	0.264460	-0.006243
1330	6.6450e-01	-6.5833	-11.379536	0.000173	1.732196	0.293442	-0.006928
1331	6.6500e-01	-6.6029	-11.417167	0.000188	1.881892	0.318801	-0.007526
1332	6.6550e-01	-6.6236	-11.455226	0.000190	1.903277	0.322424	-0.007612
1333	6.6600e-01	-6.6450	-11.472331	0.000086	0.855406	0.144910	-0.003421
1334	6.6650e-01	-6.6673	-11.498844	0.000133	1.325879	0.224610	-0.005303
1335	6.6700e-01	-6.6840	-11.540751	0.000210	2.095744	0.355029	-0.008381
1336	6.6750e-01	-6.7036	-11.578810	0.000190	1.903277	0.322424	-0.007612
1337	6.6800e-01	-6.7231	-11.607033	0.000141	1.411419	0.239101	-0.005645
1338	6.6850e-01	-6.7439	-11.634828	0.000139	1.390034	0.235478	-0.005559
1339	6.6900e-01	-6.7670	-11.664335	0.000148	1.475575	0.249969	-0.005901
1340	6.6950e-01	-6.7841	-11.706242	0.000210	2.095744	0.355029	-0.008381
1341	6.7000e-01	-6.8043	-11.736603	0.000152	1.518345	0.257215	-0.006072
1342	6.7050e-01	-6.8208	-11.773379	0.000184	1.839122	0.311556	-0.007355
1343	6.7100e-01	-6.8443	-11.798181	0.000124	1.240338	0.210119	-0.004960
1344	6.7150e-01	-6.8653	-11.808017	0.000049	0.491858	0.083323	-0.001967
1345	6.7200e-01	-6.8836	-11.853345	0.000227	2.266825	0.384010	-0.009066
1346	6.7250e-01	-6.9059	-11.861470	0.000041	0.406318	0.068832	-0.001625
1347	6.7300e-01	-6.9227	-11.902094	0.000203	2.031588	0.344160	-0.008125
1348	6.7350e-01	-6.9447	-11.934594	0.000163	1.625271	0.275328	-0.006500
1349	6.7400e-01	-6.9640	-11.982060	0.000237	2.373750	0.402124	-0.009493
1350	6.7450e-01	-6.9855	-12.004724	0.000113	1.133412	0.192005	-0.004533
1351	6.7500e-01	-7.0029	-12.047059	0.000212	2.117129	0.358651	-0.008467
1352	6.7550e-01	-7.0246	-12.065019	0.000090	0.898176	0.152155	-0.003592
1353	6.7600e-01	-7.0466	-12.106499	0.000207	2.074358	0.351406	-0.008296
1354	6.7650e-01	-7.0649	-12.134295	0.000139	1.390034	0.235478	-0.005559
1355	6.7700e-01	-7.0844	-12.160808	0.000133	1.325879	0.224610	-0.005303
1356	6.7750e-01	-7.1015	-12.186465	0.000128	1.283108	0.217364	-0.005132
1357	6.7800e-01	-7.1235	-12.243339	0.000284	2.844223	0.481824	-0.011375
1358	6.7850e-01	-7.1442	-12.250609	0.000036	0.363547	0.061587	-0.001454
1359	6.7900e-01	-7.1644	-12.275411	0.000124	1.240338	0.210119	-0.004960
1360	6.7950e-01	-7.1857	-12.298503	0.000115	1.154797	0.195628	-0.004618
1361	6.8000e-01	-7.2034	-12.329720	0.000156	1.561115	0.264460	-0.006243
1362	6.8050e-01	-7.2236	-12.365212	0.000177	1.774967	0.300687	-0.007099
1363	6.8100e-01	-7.2456	-12.389587	0.000122	1.218953	0.206496	-0.004875
1364	6.8150e-01	-7.2657	-12.435771	0.000231	2.309595	0.391256	-0.009237
1365	6.8200e-01	-7.2858	-12.452020	0.000081	0.812635	0.137664	-0.003250
1366	6.8250e-01	-7.3035	-12.498632	0.000233	2.330980	0.394879	-0.009322
1367	6.8300e-01	-7.3232	-12.534124	0.000177	1.774967	0.300687	-0.007099
1368	6.8350e-01	-7.3432	-12.556789	0.000113	1.133412	0.192005	-0.004533
1369	6.8400e-01	-7.3637	-12.592709	0.000180	1.796352	0.304310	-0.007184
1370	6.8450e-01	-7.3835	-12.610669	0.000090	0.898176	0.152155	-0.003592
1371	6.8500e-01	-7.4049	-12.650011	0.000197	1.967433	0.333292	-0.007868
1372	6.8550e-01	-7.4250	-12.680800	0.000154	1.539730	0.260837	-0.006158
1373	6.8600e-01	-7.4445	-12.718431	0.000188	1.881892	0.318801	-0.007526
1374	6.8650e-01	-7.4653	-12.757772	0.000197	1.967433	0.333292	-0.007868
1375	6.8700e-01	-7.4854	-12.764187	0.000032	0.320777	0.054341	-0.001283
1376	6.8750e-01	-7.5025	-12.806522	0.000212	2.117129	0.358651	-0.008467
1377	6.8800e-01	-7.5245	-12.852705	0.000231	2.309595	0.391256	-0.009237
1378	6.8850e-01	-7.5452	-12.855271	0.000013	0.128311	0.021736	-0.000513
1379	6.8900e-01	-7.5648	-12.899744	0.000222	2.224054	0.376765	-0.008895
1380	6.8950e-01	-7.5806	-12.906586	0.000034	0.342162	0.057964	-0.001368
1381	6.9000e-01	-7.6051	-12.972440	0.000329	3.293311	0.557902	-0.013171
1382	6.9050e-01	-7.6237	-12.994249	0.000109	1.090642	0.184760	-0.004362
1383	6.9100e-01	-7.6456	-13.005795	0.000058	0.577399	0.097814	-0.002309
1384	6.9150e-01	-7.6600	-13.055827	0.000250	2.502061	0.423861	-0.010006
1385	6.9200e-01	-7.6832	-13.087899	0.000160	1.603885	0.271706	-0.006414
1386	6.9250e-01	-7.7021	-13.116122	0.000141	1.411419	0.239101	-0.005645
1387	6.9300e-01	-7.7229	-13.134938	0.000094	0.940946	0.159401	-0.003763
1388	6.9350e-01	-7.7454	-13.162734	0.000139	1.390034	0.235478	-0.005559
1389	6.9400e-01	-7.7637	-13.196088	0.000167	1.668041	0.282574	-0.006671
1390	6.9450e-01	-7.7857	-13.222173	0.000130	1.304493	0.220987	-0.005217
1391	6.9500e-01	-7.8046	-13.267502	0.000227	2.266825	0.384010	-0.009066
1392	6.9550e-01	-7.8242	-13.294870	0.000137	1.368649	0.231855	-0.005474
1393	6.9600e-01	-7.8451	-13.322238	0.000137	1.368649	0.231855	-0.005474
1394	6.9650e-01	-7.8651	-13.363290	0.000205	2.052973	0.347783	-0.008210
1395	6.9700e-01	-7.8846	-13.383816	0.000103	1.026487	0.173892	-0.004105
1396	6.9750e-01	-7.9020	-13.422302	0.000192	1.924662	0.326047	-0.007697
1397	6.9800e-01	-7.9249	-13.452664	0.000152	1.518345	0.257215	-0.006072
1398	6.9850e-01	-7.9450	-13.485163	0.000163	1.625271	0.275328	-0.006500
1399	6.9900e-01	-7.9627	-13.509538	0.000122	1.218953	0.206496	-0.004875
1400	6.9950e-01	-7.9810	-13.548024	0.000192	1.924662	0.326047	-0.007697
1401	7.0000e-01	-8.0030	-13.567695	0.000098	0.983716	0.166646	-0.003934
1402	7.0050e-01	-8.0215	-13.607036	0.000197	1.967433	0.333292	-0.007868
1403	7.0100e-01	-8.0421	-13.636970	0.000150	1.496960	0.253592	-0.005987
1404	7.0150e-01	-8.0647	-13.656213	0.000096	0.962331	0.163023	-0.003849
1405	7.0200e-01	-8.0830	-13.692561	0.000182	1.817737	0.307933	-0.007270
1406	7.0250e-01	-8.1022	-13.719074	0.000133	1.325879	0.224610	-0.005303
1407	7.0300e-01	-8.1226	-13.771672	0.000263	2.630372	0.445597	-0.010520
1408	7.0350e-01	-8.1434	-13.789632	0.000090	0.898176	0.152155	-0.003592
1409	7.0400e-01	-8.1611	-13.828546	0.000195	1.946048	0.329669	-0.007783
1410	7.0450e-01	-8.1837	-13.856769	0.000141	1.411419	0.239101	-0.005645
1411	7.0500e-01	-8.2063	-13.858908	0.000011	0.106926	0.018114	-0.000428
1412	7.0550e-01	-8.2246	-13.920058	0.000306	3.058075	0.518052	-0.012230
1413	7.0600e-01	-8.2447	-13.949992	0.000150	1.496960	0.253592	-0.005987
1414	7.0650e-01	-8.2612	-13.995320	0.000227	2.266825	0.384010	-0.009066
1415	7.0700e-01	-8.2844	-13.996603	0.000006	0.064155	0.010868	-0.000257
1416	7.0750e-01	-8.3015	-14.045780	0.000246	2.459291	0.416615	-0.009835
1417	7.0800e-01	-8.3241	-14.079135	0.000167	1.668041	0.282574	-0.006671
1418	7.0850e-01	-8.3448	-14.097095	0.000090	0.898176	0.152155	-0.003592
1419	7.0900e-01	-8.3662	-14.129167	0.000160	1.603885	0.271706	-0.006414
1420	7.0950e-01	-8.3848	-14.170646	0.000207	2.074358	0.351406	-0.008296
1421	7.1000e-01	-8.4058	-14.187751	0.000086	0.855406	0.144910	-0.003421
1422	7.1050e-01	-8.4235	-14.221961	0.000171	1.710811	0.289819	-0.006842
1423	7.1100e-01	-8.4455	-14.256171	0.000171	1.710811	0.289819	-0.006842
1424	7.1150e-01	-8.4647	-14.288243	0.000160	1.603885	0.271706	-0.006414
1425	7.1200e-01	-8.4846	-14.329295	0.000205	2.052973	0.347783	-0.008210
1426	7.1250e-01	-8.5035	-14.353670	0.000122	1.218953	0.206496	-0.004875
1427	7.1300e-01	-8.5242	-14.390446	0.000184	1.839122	0.311556	-0.007355
1428	7.1350e-01	-8.5438	-14.419097	0.000143	1.432804	0.242724	-0.005730
1429	7.1400e-01	-8.5629	-14.443471	0.000122	1.218953	0.206496	-0.004875
1430	7.1450e-01	-8.5810	-14.493503	0.000250	2.502061	0.423861	-0.010006
1431	7.1500e-01	-8.6042	-14.505905	0.000062	0.620169	0.105059	-0.002480
1432	7.1550e-01	-8.6250	-14.543963	0.000190	1.903277	0.322424	-0.007612
1433	7.1600e-01	-8.6451	-14.571331	0.000137	1.368649	0.231855	-0.005474
1434	7.1650e-01	-8.6671	-14.612811	0.000207	2.074358	0.351406	-0.008296
1435	7.1700e-01	-8.6829	-14.630771	0.000090	0.898176	0.152155	-0.003592
1436	7.1750e-01	-8.7043	-14.668830	0.000190	1.903277	0.322424	-0.007612
1437	7.1800e-01	-8.7254	-14.719717	0.000254	2.544832	0.431106	-0.010177
1438	7.1850e-01	-8.7464	-14.742809	0.000115	1.154797	0.195628	-0.004618
1439	7.1900e-01	-8.7641	-14.775308	0.000163	1.625271	0.275328	-0.006500
1440	7.1950e-01	-8.7836	-14.802249	0.000135	1.347264	0.228233	-0.005388
1441	7.2000e-01	-8.8038	-14.840308	0.000190	1.903277	0.322424	-0.007612
1442	7.2050e-01	-8.8251	-14.874090	0.000169	1.689426	0.286197	-0.006756
1443	7.2100e-01	-8.8441	-14.885208	0.000056	0.556014	0.094191	-0.002224
1444	7.2150e-01	-8.8660	-14.942938	0.000289	2.886994	0.489070	-0.011546
1445	7.2200e-01	-8.8856	-14.967312	0.000122	1.218953	0.206496	-0.004875
1446	7.2250e-01	-8.9039	-14.994680	0.000137	1.368649	0.231855	-0.005474
1447	7.2300e-01	-8.9234	-15.037015	0.000212	2.117129	0.358651	-0.008467
1448	7.2350e-01	-8.9442	-15.084909	0.000240	2.395136	0.405747	-0.009579
1449	7.2400e-01	-8.9631	-15.110567	0.000128	1.283108	0.217364	-0.005132
1450	7.2450e-01	-8.9834	-15.131520	0.000105	1.047872	0.177514	-0.004191
1451	7.2500e-01	-9.0028	-15.159316	0.000139	1.390034	0.235478	-0.005559
1452	7.2550e-01	-9.0247	-15.193098	0.000169	1.689426	0.286197	-0.006756
1453	7.2600e-01	-9.0430	-15.240137	0.000235	2.352365	0.398501	-0.009408
1454	7.2650e-01	-9.0650	-15.265367	0.000126	1.261723	0.213742	-0.005046
1455	7.2700e-01	-9.0839	-15.294446	0.000145	1.454189	0.246346	-0.005816
1456	7.2750e-01	-9.1059	-15.342767	0.000242	2.416521	0.409370	-0.009664
1457	7.2800e-01	-9.1242	-15.384247	0.000207	2.074358	0.351406	-0.008296
1458	7.2850e-01	-9.1431	-15.397503	0.000066	0.662939	0.112305	-0.002651
1459	7.2900e-01	-9.1651	-15.418885	0.000107	1.069257	0.181137	-0.004276
1460	7.2950e-01	-9.1828	-15.481318	0.000312	3.122230	0.528920	-0.012487
1461	7.3000e-01	-9.2054	-15.495429	0.000071	0.705710	0.119550	-0.002822
1462	7.3050e-01	-9.2243	-15.539047	0.000218	2.181284	0.369520	-0.008724
1463	7.3100e-01	-9.2435	-15.564277	0.000126	1.261723	0.213742	-0.005046
1464	7.3150e-01	-9.2634	-15.607895	0.000218	2.181284	0.369520	-0.008724
1465	7.3200e-01	-9.2860	-15.639539	0.000158	1.582500	0.268083	-0.006329
1466	7.3250e-01	-9.3073	-15.672894	0.000167	1.668041	0.282574	-0.006671
1467	7.3300e-01	-9.3241	-15.715656	0.000214	2.138514	0.362274	-0.008553
1468	7.3350e-01	-9.3421	-15.741314	0.000128	1.283108	0.217364	-0.005132
1469	7.3400e-01	-9.3629	-15.784077	0.000214	2.138514	0.362274	-0.008553
1470	7.3450e-01	-9.3842	-15.800754	0.000083	0.834020	0.141287	-0.003335
1471	7.3500e-01	-9.4044	-15.838813	0.000190	1.903277	0.322424	-0.007612
1472	7.3550e-01	-9.4251	-15.872167	0.000167	1.668041	0.282574	-0.006671
1473	7.3600e-01	-9.4440	-15.922627	0.000252	2.523446	0.427483	-0.010092
1474	7.3650e-01	-9.4648	-15.946574	0.000120	1.197568	0.202873	-0.004789
1475	7.3700e-01	-9.4880	-15.968811	0.000111	1.112027	0.188383	-0.004447
1476	7.3750e-01	-9.5057	-16.006014	0.000186	1.860507	0.315178	-0.007441
1477	7.3800e-01	-9.5271	-16.044073	0.000190	1.903277	0.322424	-0.007612
1478	7.3850e-01	-9.5438	-16.082559	0.000192	1.924662	0.326047	-0.007697
1479	7.3900e-01	-9.5606	-16.126177	0.000218	2.181284	0.369520	-0.008724
1480	7.3950e-01	-9.5838	-16.153545	0.000137	1.368649	0.231855	-0.005474
1481	7.4000e-01	-9.6033	-16.189038	0.000177	1.774967	0.300687	-0.007099
1482	7.4050e-01	-9.6247	-16.224531	0.000177	1.774967	0.300687	-0.007099
1483	7.4100e-01	-9.6473	-16.252754	0.000141	1.411419	0.239101	-0.005645
1484	7.4150e-01	-9.6616	-16.298510	0.000229	2.288210	0.387633	-0.009151
1485	7.4200e-01	-9.6833	-16.343410	0.000225	2.245440	0.380388	-0.008980
1486	7.4250e-01	-9.7056	-16.386601	0.000216	2.159899	0.365897	-0.008638
1487	7.4300e-01	-9.7248	-16.410548	0.000120	1.197568	0.202873	-0.004789
1488	7.4350e-01	-9.7456	-16.436205	0.000128	1.283108	0.217364	-0.005132
1489	7.4400e-01	-9.7651	-16.475119	0.000195	1.946048	0.329669	-0.007783
1490	7.4450e-01	-9.7852	-16.496928	0.000109	1.090642	0.184760	-0.004362
1491	7.4500e-01	-9.8054	-16.561072	0.000321	3.207771	0.543411	-0.012829
1492	7.4550e-01	-9.8219	-16.589295	0.000141	1.411419	0.239101	-0.005645
1493	7.4600e-01	-9.8438	-16.629492	0.000201	2.010203	0.340538	-0.008039
1494	7.4650e-01	-9.8646	-16.656004	0.000133	1.325879	0.224610	-0.005303
1495	7.4700e-01	-9.8841	-16.703471	0.000237	2.373750	0.402124	-0.009493
1496	7.4750e-01	-9.9043	-16.727418	0.000120	1.197568	0.202873	-0.004789
1497	7.4800e-01	-9.9268	-16.762911	0.000177	1.774967	0.300687	-0.007099
1498	7.4850e-01	-9.9458	-16.820640	0.000289	2.886994	0.489070	-0.011546
1499	7.4900e-01	-9.9653	-16.855705	0.000175	1.753581	0.297065	-0.007013
1500	7.4950e-01	-9.9860	-16.881363	0.000128	1.283108	0.217364	-0.005132
1501	7.5000e-01	-10.0000	-16.911724	0.000152	1.518345	0.257215	-0.006072
1502	7.5050e-01	-9.9836	-16.933961	-0.000111	-1.112027	-0.188383	-0.004447
1503	7.5100e-01	-9.9653	-16.907876	0.000130	1.304493	0.220987	0.005217
1504	7.5150e-01	-9.9470	-16.928402	-0.000103	-1.026487	-0.173892	-0.004105
1505	7.5200e-01	-9.9238	-16.913007	0.000077	0.769865	0.130419	0.003079
1506	7.5250e-01	-9.9067	-16.896330	0.000083	0.834020	0.141287	0.003335
1507	7.5300e-01	-9.8838	-16.892909	0.000017	0.171081	0.028982	0.000684
1508	7.5350e-01	-9.8652	-16.897185	-0.000021	-0.213851	-0.036227	-0.000855
1509	7.5400e-01	-9.8414	-16.876659	0.000103	1.026487	0.173892	0.004105
1510	7.5450e-01	-9.8255	-16.865541	0.000056	0.556014	0.094191	0.002224
1511	7.5500e-01	-9.8072	-16.852712	0.000064	0.641554	0.108682	0.002566
1512	7.5550e-01	-9.7865	-16.850574	0.000011	0.106926	0.018114	0.000428
1513	7.5600e-01	-9.7663	-16.837745	0.000064	0.641554	0.108682	0.002566
1514	7.5650e-01	-9.7449	-16.832614	0.000026	0.256622	0.043473	0.001026
1515	7.5700e-01	-9.7279	-16.814653	0.000090	0.898176	0.152155	0.003592
1516	7.5750e-01	-9.7059	-16.819785	-0.000026	-0.256622	-0.043473	-0.001026
1517	7.5800e-01	-9.6864	-16.799259	0.000103	1.026487	0.173892	0.004105
1518	7.5850e-01	-9.6650	-16.800542	-0.000006	-0.064155	-0.010868	-0.000257
1519	7.5900e-01	-9.6461	-16.776167	0.000122	1.218953	0.206496	0.004875
1520	7.5950e-01	-9.6250	-16.765904	0.000051	0.513243	0.086946	0.002053
1521	7.6000e-01	-9.6064	-16.760773	0.000026	0.256622	0.043473	0.001026
1522	7.6050e-01	-9.5850	-16.745806	0.000075	0.748480	0.126796	0.002993
1523	7.6100e-01	-9.5640	-16.730839	0.000075	0.748480	0.126796	0.002993
1524	7.6150e-01	-9.5466	-16.722714	0.000041	0.406318	0.068832	0.001625
1525	7.6200e-01	-9.5234	-16.715444	0.000036	0.363547	0.061587	0.001454
1526	7.6250e-01	-9.5051	-16.698767	0.000083	0.834020	0.141287	0.003335
1527	7.6300e-01	-9.4855	-16.703471	-0.000024	-0.235237	-0.039850	-0.000941
1528	7.6350e-01	-9.4636	-16.691070	0.000062	0.620169	0.105059	0.002480
1529	7.6400e-01	-9.4477	-16.647880	0.000216	2.159899	0.365897	0.008638
1530	7.6450e-01	-9.4270	-16.645314	0.000013	0.128311	0.021736	0.000513
1531	7.6500e-01	-9.4062	-16.646169	-0.000004	-0.042770	-0.007245	-0.000171
1532	7.6550e-01	-9.3855	-16.620939	0.000126	1.261723	0.213742	0.005046
1533	7.6600e-01	-9.3659	-16.614525	0.000032	0.320777	0.054341	0.001283
1534	7.6650e-01	-9.3446	-16.593144	0.000107	1.069257	0.181137	0.004276
1535	7.6700e-01	-9.3262	-16.564920	0.000141	1.411419	0.239101	0.005645
1536	7.6750e-01	-9.3043	-16.564065	0.000004	0.042770	0.007245	0.000171
1537	7.6800e-01	-9.2866	-16.543967	0.000101	1.005102	0.170269	0.004020
1538	7.6850e-01	-9.2652	-16.529000	0.000075	0.748480	0.126796	0.002993
1539	7.6900e-01	-9.2451	-16.506336	0.000113	1.133412	0.192005	0.004533
1540	7.6950e-01	-9.2262	-16.494790	0.000058	0.577399	0.097814	0.002309
1541	7.7000e-01	-9.2054	-16.498638	-0.000019	-0.192466	-0.032605	-0.000770
1542	7.7050e-01	-9.1865	-16.463573	0.000175	1.753581	0.297065	0.007013
1543	7.7100e-01	-9.1657	-16.436633	0.000135	1.347264	0.228233	0.005388
1544	7.7150e-01	-9.1444	-16.439198	-0.000013	-0.128311	-0.021736	-0.000513
1545	7.7200e-01	-9.1261	-16.422093	0.000086	0.855406	0.144910	0.003421
1546	7.7250e-01	-9.1077	-16.389594	0.000163	1.625271	0.275328	0.006500
1547	7.7300e-01	-9.0864	-16.387456	0.000011	0.106926	0.018114	0.000428
1548	7.7350e-01	-9.0675	-16.369068	0.000092	0.919561	0.155778	0.003678
1549	7.7400e-01	-9.0461	-16.345121	0.000120	1.197568	0.202873	0.004789
1550	7.7450e-01	-9.0266	-16.337424	0.000038	0.384932	0.065209	0.001539
1551	7.7500e-01	-9.0060	-16.314759	0.000113	1.133412	0.192005	0.004533
1552	7.7550e-01	-8.9840	-16.307490	0.000036	0.363547	0.061587	0.001454
1553	7.7600e-01	-8.9639	-16.265583	0.000210	2.095744	0.355029	0.008381
1554	7.7650e-01	-8.9436	-16.266438	-0.000004	-0.042770	-0.007245	-0.000171
1555	7.7700e-01	-8.9246	-16.245057	0.000107	1.069257	0.181137	0.004276
1556	7.7750e-01	-8.9057	-16.237787	0.000036	0.363547	0.061587	0.001454
1557	7.7800e-01	-8.8850	-16.215550	0.000111	1.112027	0.188383	0.004447
1558	7.7850e-01	-8.8648	-16.201439	0.000071	0.705710	0.119550	0.002822
1559	7.7900e-01	-8.8448	-16.195452	0.000030	0.299392	0.050718	0.001197
1560	7.7950e-01	-8.8239	-16.193314	0.000011	0.106926	0.018114	0.000428
1561	7.8000e-01	-8.8027	-16.165946	0.000137	1.368649	0.231855	0.005474
1562	7.8050e-01	-8.7843	-16.135584	0.000152	1.518345	0.257215	0.006072
1563	7.8100e-01	-8.7647	-16.092822	0.000214	2.138514	0.362274	0.008553
1564	7.8150e-01	-8.7458	-16.097526	-0.000024	-0.235237	-0.039850	-0.000941
1565	7.8200e-01	-8.7244	-16.107789	-0.000051	-0.513243	-0.086946	-0.002053
1566	7.8250e-01	-8.7067	-16.059040	0.000244	2.437906	0.412992	0.009750
1567	7.8300e-01	-8.6860	-16.045783	0.000066	0.662939	0.112305	0.002651
1568	7.8350e-01	-8.6658	-16.022691	0.000115	1.154797	0.195628	0.004618
1569	7.8400e-01	-8.6475	-16.021836	0.000004	0.042770	0.007245	0.000171
1570	7.8450e-01	-8.6250	-16.006869	0.000075	0.748480	0.126796	0.002993
1571	7.8500e-01	-8.6068	-15.975653	0.000156	1.561115	0.264460	0.006243
1572	7.8550e-01	-8.5853	-15.944864	0.000154	1.539730	0.260837	0.006158
1573	7.8600e-01	-8.5682	-15.927759	0.000086	0.855406	0.144910	0.003421
1574	7.8650e-01	-8.5426	-15.931607	-0.000019	-0.192466	-0.032605	-0.000770
1575	7.8700e-01	-8.5249	-15.892266	0.000197	1.967433	0.333292	0.007868
1576	7.8750e-01	-8.5029	-15.892266	0.000000	0.000000	0.000000	0.000000
1577	7.8800e-01	-8.4864	-15.882430	0.000049	0.491858	0.083323	0.001967
1578	7.8850e-01	-8.4657	-15.864898	0.000088	0.876791	0.148532	0.003507
1579	7.8900e-01	-8.4449	-15.831115	0.000169	1.689426	0.286197	0.006756
1580	7.8950e-01	-8.4248	-15.799471	0.000158	1.582500	0.268083	0.006329
1581	7.9000e-01	-8.4064	-15.780656	0.000094	0.940946	0.159401	0.003763
1582	7.9050e-01	-8.3839	-15.755426	0.000126	1.261723	0.213742	0.005046
1583	7.9100e-01	-8.3649	-15.737465	0.000090	0.898176	0.152155	0.003592
1584	7.9150e-01	-8.3424	-15.729768	0.000038	0.384932	0.065209	0.001539
1585	7.9200e-01	-8.3241	-15.696841	0.000165	1.646656	0.278951	0.006585
1586	7.9250e-01	-8.3021	-15.678881	0.000090	0.898176	0.152155	0.003592
1587	7.9300e-01	-8.2838	-15.672894	0.000030	0.299392	0.050718	0.001197
1588	7.9350e-01	-8.2648	-15.637829	0.000175	1.753581	0.297065	0.007013
1589	7.9400e-01	-8.2447	-15.645526	-0.000038	-0.384932	-0.065209	-0.001539
1590	7.9450e-01	-8.2215	-15.611744	0.000169	1.689426	0.286197	0.006756
1591	7.9500e-01	-8.2044	-15.602763	0.000045	0.449088	0.076078	0.001796
1592	7.9550e-01	-8.1861	-15.584803	0.000090	0.898176	0.152155	0.003592
1593	7.9600e-01	-8.1599	-15.539902	0.000225	2.245440	0.380388	0.008980
1594	7.9650e-01	-8.1452	-15.527501	0.000062	0.620169	0.105059	0.002480
1595	7.9700e-01	-8.1251	-15.497140	0.000152	1.518345	0.257215	0.006072
1596	7.9750e-01	-8.1037	-15.492008	0.000026	0.256622	0.043473	0.001026
1597	7.9800e-01	-8.0866	-15.478752	0.000066	0.662939	0.112305	0.002651
1598	7.9850e-01	-8.0653	-15.460364	0.000092	0.919561	0.155778	0.003678
1599	7.9900e-01	-8.0430	-15.437272	0.000115	1.154797	0.195628	0.004618
1600	7.9950e-01	-8.0231	-15.412470	0.000124	1.240338	0.210119	0.004960
1601	8.0000e-01	-8.0058	-15.390234	0.000111	1.112027	0.188383	0.004447
1602	8.0050e-01	-7.9841	-15.375694	0.000073	0.727095	0.123173	0.002908
1603	8.0100e-01	-7.9639	-15.343622	0.000160	1.603885	0.271706	0.006414
1604	8.0150e-01	-7.9450	-15.331221	0.000062	0.620169	0.105059	0.002480
1605	8.0200e-01	-7.9232	-15.321814	0.000047	0.470473	0.079700	0.001882
1606	8.0250e-01	-7.9050	-15.276485	0.000227	2.266825	0.384010	0.009066
1607	8.0300e-01	-7.8837	-15.274347	0.000011	0.106926	0.018114	0.000428
1608	8.0350e-01	-7.8663	-15.257670	0.000083	0.834020	0.141287	0.003335
1609	8.0400e-01	-7.8440	-15.230729	0.000135	1.347264	0.228233	0.005388
1610	8.0450e-01	-7.8223	-15.213624	0.000086	0.855406	0.144910	0.003421
1611	8.0500e-01	-7.8028	-15.188395	0.000126	1.261723	0.213742	0.005046
1612	8.0550e-01	-7.7851	-15.168724	0.000098	0.983716	0.166646	0.003934
1613	8.0600e-01	-7.7659	-15.140500	0.000141	1.411419	0.239101	0.005645
1614	8.0650e-01	-7.7436	-15.125106	0.000077	0.769865	0.130419	0.003079
1615	8.0700e-01	-7.7254	-15.106290	0.000094	0.940946	0.159401	0.003763
1616	8.0750e-01	-7.7052	-15.095172	0.000056	0.556014	0.094191	0.002224
1617	8.0800e-01	-7.6844	-15.068659	0.000133	1.325879	0.224610	0.005303
1618	8.0850e-01	-7.6649	-15.028463	0.000201	2.010203	0.340538	0.008039
1619	8.0900e-01	-7.6484	-15.001522	0.000135	1.347264	0.228233	0.005388
1620	8.0950e-01	-7.6240	-14.997246	0.000021	0.213851	0.036227	0.000855
1621	8.1000e-01	-7.6060	-14.978858	0.000092	0.919561	0.155778	0.003678
1622	8.1050e-01	-7.5840	-14.965174	0.000068	0.684324	0.115928	0.002737
1623	8.1100e-01	-7.5642	-14.943365	0.000109	1.090642	0.184760	0.004362
1624	8.1150e-01	-7.5446	-14.899747	0.000218	2.181284	0.369520	0.008724
1625	8.1200e-01	-7.5257	-14.896754	0.000015	0.149696	0.025359	0.000599
1626	8.1250e-01	-7.5068	-14.867676	0.000145	1.454189	0.246346	0.005816
1627	8.1300e-01	-7.4873	-14.844156	0.000118	1.176183	0.199251	0.004704
1628	8.1350e-01	-7.4689	-14.827051	0.000086	0.855406	0.144910	0.003421
1629	8.1400e-01	-7.4458	-14.807380	0.000098	0.983716	0.166646	0.003934
1630	8.1450e-01	-7.4256	-14.785571	0.000109	1.090642	0.184760	0.004362
1631	8.1500e-01	-7.4046	-14.770177	0.000077	0.769865	0.130419	0.003079
1632	8.1550e-01	-7.3850	-14.737250	0.000165	1.646656	0.278951	0.006585
1633	8.1600e-01	-7.3664	-14.716296	0.000105	1.047872	0.177514	0.004191
1634	8.1650e-01	-7.3447	-14.701757	0.000073	0.727095	0.123173	0.002908
1635	8.1700e-01	-7.3255	-14.687645	0.000071	0.705710	0.119550	0.002822
1636	8.1750e-01	-7.3014	-14.657284	0.000152	1.518345	0.257215	0.006072
1637	8.1800e-01	-7.2868	-14.633765	0.000118	1.176183	0.199251	0.004704
1638	8.1850e-01	-7.2639	-14.609390	0.000122	1.218953	0.206496	0.004875
1639	8.1900e-01	-7.2453	-14.578601	0.000154	1.539730	0.260837	0.006158
1640	8.1950e-01	-7.2248	-14.569193	0.000047	0.470473	0.079700	0.001882
1641	8.2000e-01	-7.2059	-14.531134	0.000190	1.903277	0.322424	0.007612
1642	8.2050e-01	-7.1848	-14.509326	0.000109	1.090642	0.184760	0.004362
1643	8.2100e-01	-7.1650	-14.506760	0.000013	0.128311	0.021736	0.000513
1644	8.2150e-01	-7.1467	-14.468701	0.000190	1.903277	0.322424	0.007612
1645	8.2200e-01	-7.1278	-14.449030	0.000098	0.983716	0.166646	0.003934
1646	8.2250e-01	-7.1058	-14.438340	0.000053	0.534628	0.090569	0.002138
1647	8.2300e-01	-7.0838	-14.410117	0.000141	1.411419	0.239101	0.005645
1648	8.2350e-01	-7.0638	-14.383604	0.000133	1.325879	0.224610	0.005303
1649	8.2400e-01	-7.0435	-14.366499	0.000086	0.855406	0.144910	0.003421
1650	8.2450e-01	-7.0267	-14.331861	0.000173	1.732196	0.293442	0.006928
1651	8.2500e-01	-7.0063	-14.324164	0.000038	0.384932	0.065209	0.001539
1652	8.2550e-01	-6.9859	-14.283967	0.000201	2.010203	0.340538	0.008039
1653	8.2600e-01	-6.9654	-14.275842	0.000041	0.406318	0.068832	0.001625
1654	8.2650e-01	-6.9440	-14.242915	0.000165	1.646656	0.278951	0.006585
1655	8.2700e-01	-6.9245	-14.237356	0.000028	0.278007	0.047096	0.001112
1656	8.2750e-01	-6.9044	-14.200580	0.000184	1.839122	0.311556	0.007355
1657	8.2800e-01	-6.8842	-14.161239	0.000197	1.967433	0.333292	0.007868
1658	8.2850e-01	-6.8665	-14.144134	0.000086	0.855406	0.144910	0.003421
1659	8.2900e-01	-6.8452	-14.129167	0.000075	0.748480	0.126796	0.002993
1660	8.2950e-01	-6.8259	-14.109496	0.000098	0.983716	0.166646	0.003934
1661	8.3000e-01	-6.8052	-14.092391	0.000086	0.855406	0.144910	0.003421
1662	8.3050e-01	-6.7854	-14.069727	0.000113	1.133412	0.192005	0.004533
1663	8.3100e-01	-6.7658	-14.027392	0.000212	2.117129	0.358651	0.008467
1664	8.3150e-01	-6.7457	-14.001307	0.000130	1.304493	0.220987	0.005217
1665	8.3200e-01	-6.7237	-13.976504	0.000124	1.240338	0.210119	0.004960
1666	8.3250e-01	-6.7060	-13.957689	0.000094	0.940946	0.159401	0.003763
1667	8.3300e-01	-6.6840	-13.935452	0.000111	1.112027	0.188383	0.004447
1668	8.3350e-01	-6.6657	-13.923907	0.000058	0.577399	0.097814	0.002309
1669	8.3400e-01	-6.6425	-13.901242	0.000113	1.133412	0.192005	0.004533
1670	8.3450e-01	-6.6236	-13.880289	0.000105	1.047872	0.177514	0.004191
1671	8.3500e-01	-6.6047	-13.852493	0.000139	1.390034	0.235478	0.005559
1672	8.3550e-01	-6.5853	-13.819994	0.000163	1.625271	0.275328	0.006500
1673	8.3600e-01	-6.5632	-13.805027	0.000075	0.748480	0.126796	0.002993
1674	8.3650e-01	-6.5455	-13.757133	0.000240	2.395136	0.405747	0.009579
1675	8.3700e-01	-6.5247	-13.731903	0.000126	1.261723	0.213742	0.005046
1676	8.3750e-01	-6.5034	-13.721640	0.000051	0.513243	0.086946	0.002053
1677	8.3800e-01	-6.4826	-13.698976	0.000113	1.133412	0.192005	0.004533
1678	8.3850e-01	-6.4668	-13.673746	0.000126	1.261723	0.213742	0.005046
1679	8.3900e-01	-6.4460	-13.636115	0.000188	1.881892	0.318801	0.007526
1680	8.3950e-01	-6.4259	-13.629273	0.000034	0.342162	0.057964	0.001368
1681	8.4000e-01	-6.4039	-13.595063	0.000171	1.710811	0.289819	0.006842
1682	8.4050e-01	-6.3856	-13.598484	-0.000017	-0.171081	-0.028982	-0.000684
1683	8.4100e-01	-6.3651	-13.554438	0.000220	2.202669	0.373142	0.008809
1684	8.4150e-01	-6.3456	-13.515952	0.000192	1.924662	0.326047	0.007697
1685	8.4200e-01	-6.3245	-13.515097	0.000004	0.042770	0.007245	0.000171
1686	8.4250e-01	-6.3035	-13.488584	0.000133	1.325879	0.224610	0.005303
1687	8.4300e-01	-6.2849	-13.434703	0.000269	2.694527	0.456465	0.010776
1688	8.4350e-01	-6.2659	-13.432138	0.000013	0.128311	0.021736	0.000513
1689	8.4400e-01	-6.2446	-13.410329	0.000109	1.090642	0.184760	0.004362
1690	8.4450e-01	-6.2269	-13.367138	0.000216	2.159899	0.365897	0.008638
1691	8.4500e-01	-6.2037	-13.340626	0.000133	1.325879	0.224610	0.005303
1692	8.4550e-01	-6.1855	-13.338915	0.000009	0.085541	0.014491	0.000342
1693	8.4600e-01	-6.1658	-13.288028	0.000254	2.544832	0.431106	0.010177
1694	8.4650e-01	-6.1414	-13.276482	0.000058	0.577399	0.097814	0.002309
1695	8.4700e-01	-6.1256	-13.250397	0.000130	1.304493	0.220987	0.005217
1696	8.4750e-01	-6.1054	-13.223884	0.000133	1.325879	0.224610	0.005303
1697	8.4800e-01	-6.0822	-13.192667	0.000156	1.561115	0.264460	0.006243
1698	8.4850e-01	-6.0627	-13.158030	0.000173	1.732196	0.293442	0.006928
1699	8.4900e-01	-6.0450	-13.148622	0.000047	0.470473	0.079700	0.001882
1700	8.4950e-01	-6.0236	-13.107570	0.000205	2.052973	0.347783	0.008210
1701	8.5000e-01	-6.0047	-13.105004	0.000013	0.128311	0.021736	0.000513
1702	8.5050e-01	-5.9864	-13.073788	0.000156	1.561115	0.264460	0.006243
1703	8.5100e-01	-5.9638	-13.022472	0.000257	2.566217	0.434729	0.010263
1704	8.5150e-01	-5.9443	-13.005795	0.000083	0.834020	0.141287	0.003335
1705	8.5200e-01	-5.9248	-12.992966	0.000064	0.641554	0.108682	0.002566
1706	8.5250e-01	-5.9052	-12.964743	0.000141	1.411419	0.239101	0.005645
1707	8.5300e-01	-5.8851	-12.932671	0.000160	1.603885	0.271706	0.006414
1708	8.5350e-01	-5.8640	-12.918560	0.000071	0.705710	0.119550	0.002822
1709	8.5400e-01	-5.8436	-12.891192	0.000137	1.368649	0.231855	0.005474
1710	8.5450e-01	-5.8228	-12.879646	0.000058	0.577399	0.097814	0.002309
1711	8.5500e-01	-5.8051	-12.822344	0.000287	2.865609	0.485447	0.011460
1712	8.5550e-01	-5.7825	-12.806949	0.000077	0.769865	0.130419	0.003079
1713	8.5600e-01	-5.7648	-12.780009	0.000135	1.347264	0.228233	0.005388
1714	8.5650e-01	-5.7453	-12.738529	0.000207	2.074358	0.351406	0.008296
1715	8.5700e-01	-5.7221	-12.737674	0.000004	0.042770	0.007245	0.000171
1716	8.5750e-01	-5.7050	-12.703036	0.000173	1.732196	0.293442	0.006928
1717	8.5800e-01	-5.6831	-12.660274	0.000214	2.138514	0.362274	0.008553
1718	8.5850e-01	-5.6638	-12.655998	0.000021	0.213851	0.036227	0.000855
1719	8.5900e-01	-5.6440	-12.628630	0.000137	1.368649	0.231855	0.005474
1720	8.5950e-01	-5.6248	-12.597841	0.000154	1.539730	0.260837	0.006158
1721	8.6000e-01	-5.6074	-12.564486	0.000167	1.668041	0.282574	0.006671
1722	8.6050e-01	-5.5845	-12.540539	0.000120	1.197568	0.202873	0.004789
1723	8.6100e-01	-5.5637	-12.518730	0.000109	1.090642	0.184760	0.004362
1724	8.6150e-01	-5.5408	-12.493500	0.000126	1.261723	0.213742	0.005046
1725	8.6200e-01	-5.5231	-12.461001	0.000163	1.625271	0.275328	0.006500
1726	8.6250e-01	-5.5042	-12.444323	0.000083	0.834020	0.141287	0.003335
1727	8.6300e-01	-5.4841	-12.396001	0.000242	2.416521	0.409370	0.009664
1728	8.6350e-01	-5.4646	-12.379752	0.000081	0.812635	0.137664	0.003250
1729	8.6400e-01	-5.4450	-12.356660	0.000115	1.154797	0.195628	0.004618
1730	8.6450e-01	-5.4237	-12.311332	0.000227	2.266825	0.384010	0.009066
1731	8.6500e-01	-5.4029	-12.289095	0.000111	1.112027	0.188383	0.004447
1732	8.6550e-01	-5.3828	-12.270707	0.000092	0.919561	0.155778	0.003678
1733	8.6600e-01	-5.3638	-12.248471	0.000111	1.112027	0.188383	0.004447
1734	8.6650e-01	-5.3443	-12.228372	0.000101	1.005102	0.170269	0.004020
1735	8.6700e-01	-5.3242	-12.185610	0.000214	2.138514	0.362274	0.008553
1736	8.6750e-01	-5.3036	-12.169360	0.000081	0.812635	0.137664	0.003250
1737	8.6800e-01	-5.2857	-12.129163	0.000201	2.010203	0.340538	0.008039
1738	8.6850e-01	-5.2662	-12.100940	0.000141	1.411419	0.239101	0.005645
1739	8.6900e-01	-5.2427	-12.081269	0.000098	0.983716	0.166646	0.003934
1740	8.6950e-01	-5.2232	-12.032520	0.000244	2.437906	0.412992	0.009750
1741	8.7000e-01	-5.2061	-11.998738	0.000169	1.689426	0.286197	0.006756
1742	8.7050e-01	-5.1850	-11.983771	0.000075	0.748480	0.126796	0.002993
1743	8.7100e-01	-5.1637	-11.963672	0.000101	1.005102	0.170269	0.004020
1744	8.7150e-01	-5.1437	-11.929035	0.000173	1.732196	0.293442	0.006928
1745	8.7200e-01	-5.1258	-11.900384	0.000143	1.432804	0.242724	0.005730
1746	8.7250e-01	-5.1038	-11.869595	0.000154	1.539730	0.260837	0.006158
1747	8.7300e-01	-5.0837	-11.847358	0.000111	1.112027	0.188383	0.004447
1748	8.7350e-01	-5.0642	-11.822984	0.000122	1.218953	0.206496	0.004875
1749	8.7400e-01	-5.0425	-11.790484	0.000163	1.625271	0.275328	0.006500
1750	8.7450e-01	-5.0251	-11.775945	0.000073	0.727095	0.123173	0.002908
1751	8.7500e-01	-5.0034	-11.731044	0.000225	2.245440	0.380388	0.008980
1752	8.7550e-01	-4.9866	-11.704104	0.000135	1.347264	0.228233	0.005388
1753	8.7600e-01	-4.9635	-11.662196	0.000210	2.095744	0.355029	0.008381
1754	8.7650e-01	-4.9433	-11.651078	0.000056	0.556014	0.094191	0.002224
1755	8.7700e-01	-4.9229	-11.605322	0.000229	2.288210	0.387633	0.009151
1756	8.7750e-01	-4.9036	-11.563843	0.000207	2.074358	0.351406	0.008296
1757	8.7800e-01	-4.8835	-11.551869	0.000060	0.598784	0.101437	0.002395
1758	8.7850e-01	-4.8615	-11.527067	0.000124	1.240338	0.210119	0.004960
1759	8.7900e-01	-4.8438	-11.482166	0.000225	2.245440	0.380388	0.008980
1760	8.7950e-01	-4.8243	-11.461213	0.000105	1.047872	0.177514	0.004191
1761	8.8000e-01	-4.8023	-11.451805	0.000047	0.470473	0.079700	0.001882
1762	8.8050e-01	-4.7846	-11.421443	0.000152	1.518345	0.257215	0.006072
1763	8.8100e-01	-4.7633	-11.367563	0.000269	2.694527	0.456465	0.010776
1764	8.8150e-01	-4.7437	-11.370556	-0.000015	-0.149696	-0.025359	-0.000599
1765	8.8200e-01	-4.7236	-11.321807	0.000244	2.437906	0.412992	0.009750
1766	8.8250e-01	-4.7053	-11.292301	0.000148	1.475575	0.249969	0.005901
1767	8.8300e-01	-4.6833	-11.259373	0.000165	1.646656	0.278951	0.006585
1768	8.8350e-01	-4.6632	-11.237137	0.000111	1.112027	0.188383	0.004447
1769	8.8400e-01	-4.6427	-11.203355	0.000169	1.689426	0.286197	0.006756
1770	8.8450e-01	-4.6192	-11.178125	0.000126	1.261723	0.213742	0.005046
1771	8.8500e-01	-4.6027	-11.145625	0.000163	1.625271	0.275328	0.006500
1772	8.8550e-01	-4.5832	-11.098586	0.000235	2.352365	0.398501	0.009408
1773	8.8600e-01	-4.5640	-11.087468	0.000056	0.556014	0.094191	0.002224
1774	8.8650e-01	-4.5411	-11.057962	0.000148	1.475575	0.249969	0.005901
1775	8.8700e-01	-4.5258	-11.025890	0.000160	1.603885	0.271706	0.006414
1776	8.8750e-01	-4.5020	-10.987831	0.000190	1.903277	0.322424	0.007612
1777	8.8800e-01	-4.4857	-10.959608	0.000141	1.411419	0.239101	0.005645
1778	8.8850e-01	-4.4636	-10.933523	0.000130	1.304493	0.220987	0.005217
1779	8.8900e-01	-4.4444	-10.891188	0.000212	2.117129	0.358651	0.008467
1780	8.8950e-01	-4.4239	-10.868952	0.000111	1.112027	0.188383	0.004447
1781	8.9000e-01	-4.4028	-10.844149	0.000124	1.240338	0.210119	0.004960
1782	8.9050e-01	-4.3827	-10.806946	0.000186	1.860507	0.315178	0.007441
1783	8.9100e-01	-4.3641	-10.772736	0.000171	1.710811	0.289819	0.006842
1784	8.9150e-01	-4.3433	-10.742375	0.000152	1.518345	0.257215	0.006072
1785	8.9200e-01	-4.3208	-10.726980	0.000077	0.769865	0.130419	0.003079
1786	8.9250e-01	-4.3043	-10.692342	0.000173	1.732196	0.293442	0.006928
1787	8.9300e-01	-4.2817	-10.639744	0.000263	2.630372	0.445597	0.010520
1788	8.9350e-01	-4.2658	-10.620929	0.000094	0.940946	0.159401	0.003763
1789	8.9400e-01	-4.2420	-10.591423	0.000148	1.475575	0.249969	0.005901
1790	8.9450e-01	-4.2249	-10.552937	0.000192	1.924662	0.326047	0.007697
1791	8.9500e-01	-4.2036	-10.538397	0.000073	0.727095	0.123173	0.002908
1792	8.9550e-01	-4.1822	-10.492641	0.000229	2.288210	0.387633	0.009151
1793	8.9600e-01	-4.1621	-10.468267	0.000122	1.218953	0.206496	0.004875
1794	8.9650e-01	-4.1444	-10.440043	0.000141	1.411419	0.239101	0.005645
1795	8.9700e-01	-4.1236	-10.404978	0.000175	1.753581	0.297065	0.007013
1796	8.9750e-01	-4.1035	-10.365209	0.000199	1.988818	0.336915	0.007954
1797	8.9800e-01	-4.0833	-10.333565	0.000158	1.582500	0.268083	0.006329
1798	8.9850e-01	-4.0623	-10.307052	0.000133	1.325879	0.224610	0.005303
1799	8.9900e-01	-4.0427	-10.272414	0.000173	1.732196	0.293442	0.006928
1800	8.9950e-01	-4.0254	-10.245474	0.000135	1.347264	0.228233	0.005388
1801	9.0000e-01	-4.0029	-10.214257	0.000156	1.561115	0.264460	0.006243
1802	9.0050e-01	-3.9839	-10.202711	0.000058	0.577399	0.097814	0.002309
1803	9.0100e-01	-3.9637	-10.172350	0.000152	1.518345	0.257215	0.006072
1804	9.0150e-01	-3.9414	-10.131726	0.000203	2.031588	0.344160	0.008125
1805	9.0200e-01	-3.9228	-10.116331	0.000077	0.769865	0.130419	0.003079
1806	9.0250e-01	-3.9028	-10.069292	0.000235	2.352365	0.398501	0.009408
1807	9.0300e-01	-3.8844	-10.004721	0.000323	3.229156	0.547034	0.012914
1808	9.0350e-01	-3.8636	-9.975642	0.000145	1.454189	0.246346	0.005816
1809	9.0400e-01	-3.8404	-9.967945	0.000038	0.384932	0.065209	0.001539
1810	9.0450e-01	-3.8230	-9.937156	0.000154	1.539730	0.260837	0.006158
1811	9.0500e-01	-3.8026	-9.883275	0.000269	2.694527	0.456465	0.010776
1812	9.0550e-01	-3.7814	-9.871302	0.000060	0.598784	0.101437	0.002395
1813	9.0600e-01	-3.7623	-9.833243	0.000190	1.903277	0.322424	0.007612
1814	9.0650e-01	-3.7434	-9.814000	0.000096	0.962331	0.163023	0.003849
1815	9.0700e-01	-3.7235	-9.771665	0.000212	2.117129	0.358651	0.008467
1816	9.0750e-01	-3.7043	-9.730613	0.000205	2.052973	0.347783	0.008210
1817	9.0800e-01	-3.6831	-9.689133	0.000207	2.074358	0.351406	0.008296
1818	9.0850e-01	-3.6634	-9.675022	0.000071	0.705710	0.119550	0.002822
1819	9.0900e-01	-3.6427	-9.631832	0.000216	2.159899	0.365897	0.008638
1820	9.0950e-01	-3.6240	-9.590780	0.000205	2.052973	0.347783	0.008210
1821	9.1000e-01	-3.5994	-9.561274	0.000148	1.475575	0.249969	0.005901
1822	9.1050e-01	-3.5856	-9.541175	0.000101	1.005102	0.170269	0.004020
1823	9.1100e-01	-3.5647	-9.507393	0.000169	1.689426	0.286197	0.006756
1824	9.1150e-01	-3.5429	-9.472327	0.000175	1.753581	0.297065	0.007013
1825	9.1200e-01	-3.5236	-9.424433	0.000240	2.395136	0.405747	0.009579
1826	9.1250e-01	-3.5035	-9.382526	0.000210	2.095744	0.355029	0.008381
1827	9.1300e-01	-3.4815	-9.378250	0.000021	0.213851	0.036227	0.000855
1828	9.1350e-01	-3.4627	-9.319238	0.000295	2.951149	0.499938	0.011802
1829	9.1400e-01	-3.4437	-9.281607	0.000188	1.881892	0.318801	0.007526
1830	9.1450e-01	-3.4215	-9.259370	0.000111	1.112027	0.188383	0.004447
1831	9.1500e-01	-3.4010	-9.234140	0.000126	1.261723	0.213742	0.005046
1832	9.1550e-01	-3.3845	-9.195654	0.000192	1.924662	0.326047	0.007697
1833	9.1600e-01	-3.3625	-9.158451	0.000186	1.860507	0.315178	0.007441
1834	9.1650e-01	-3.3437	-9.114405	0.000220	2.202669	0.373142	0.008809
1835	9.1700e-01	-3.3230	-9.087037	0.000137	1.368649	0.231855	0.005474
1836	9.1750e-01	-3.3009	-9.071215	0.000079	0.791250	0.134041	0.003164
1837	9.1800e-01	-3.2803	-9.047268	0.000120	1.197568	0.202873	0.004789
1838	9.1850e-01	-3.2612	-9.011347	0.000180	1.796352	0.304310	0.007184
1839	9.1900e-01	-3.2413	-8.972006	0.000197	1.967433	0.333292	0.007868
1840	9.1950e-01	-3.2197	-8.928388	0.000218	2.181284	0.369520	0.008724
1841	9.2000e-01	-3.2014	-8.906152	0.000111	1.112027	0.188383	0.004447
1842	9.2050e-01	-3.1815	-8.867238	0.000195	1.946048	0.329669	0.007783
1843	9.2100e-01	-3.1646	-8.808225	0.000295	2.951149	0.499938	0.011802
1844	9.2150e-01	-3.1416	-8.792403	0.000079	0.791250	0.134041	0.003164
1845	9.2200e-01	-3.1203	-8.756055	0.000182	1.817737	0.307933	0.007270
1846	9.2250e-01	-3.1039	-8.735529	0.000103	1.026487	0.173892	0.004105
1847	9.2300e-01	-3.0830	-8.683359	0.000261	2.608987	0.441974	0.010434
1848	9.2350e-01	-3.0640	-8.668392	0.000075	0.748480	0.126796	0.002993
1849	9.2400e-01	-3.0424	-8.625202	0.000216	2.159899	0.365897	0.008638
1850	9.2450e-01	-3.0207	-8.573459	0.000259	2.587602	0.438352	0.010349
1851	9.2500e-01	-3.0038	-8.542242	0.000156	1.561115	0.264460	0.006243
1852	9.2550e-01	-2.9823	-8.502046	0.000201	2.010203	0.340538	0.008039
1853	9.2600e-01	-2.9630	-8.468691	0.000167	1.668041	0.282574	0.006671
1854	9.2650e-01	-2.9424	-8.434909	0.000169	1.689426	0.286197	0.006756
1855	9.2700e-01	-2.9224	-8.397278	0.000188	1.881892	0.318801	0.007526
1856	9.2750e-01	-2.9031	-8.371620	0.000128	1.283108	0.217364	0.005132
1857	9.2800e-01	-2.8834	-8.316884	0.000274	2.737298	0.463711	0.010947
1858	9.2850e-01	-2.8626	-8.291226	0.000128	1.283108	0.217364	0.005132
1859	9.2900e-01	-2.8437	-8.240339	0.000254	2.544832	0.431106	0.010177
1860	9.2950e-01	-2.8214	-8.215537	0.000124	1.240338	0.210119	0.004960
1861	9.3000e-01	-2.8040	-8.189452	0.000130	1.304493	0.220987	0.005217
1862	9.3050e-01	-2.7819	-8.133860	0.000278	2.780068	0.470956	0.011118
1863	9.3100e-01	-2.7613	-8.105637	0.000141	1.411419	0.239101	0.005645
1864	9.3150e-01	-2.7402	-8.066296	0.000197	1.967433	0.333292	0.007868
1865	9.3200e-01	-2.7232	-8.053467	0.000064	0.641554	0.108682	0.002566
1866	9.3250e-01	-2.7029	-8.000441	0.000265	2.651757	0.449220	0.010605
1867	9.3300e-01	-2.6815	-7.945705	0.000274	2.737298	0.463711	0.010947
1868	9.3350e-01	-2.6600	-7.938863	0.000034	0.342162	0.057964	0.001368
1869	9.3400e-01	-2.6423	-7.899522	0.000197	1.967433	0.333292	0.007868
1870	9.3450e-01	-2.6237	-7.852055	0.000237	2.373750	0.402124	0.009493
1871	9.3500e-01	-2.6008	-7.813569	0.000192	1.924662	0.326047	0.007697
1872	9.3550e-01	-2.5813	-7.787056	0.000133	1.325879	0.224610	0.005303
1873	9.3600e-01	-2.5632	-7.748998	0.000190	1.903277	0.322424	0.007612
1874	9.3650e-01	-2.5419	-7.717781	0.000156	1.561115	0.264460	0.006243
1875	9.3700e-01	-2.5204	-7.717353	0.000002	0.021385	0.003623	0.000086
1876	9.3750e-01	-2.5016	-7.642947	0.000372	3.721014	0.630357	0.014881
1877	9.3800e-01	-2.4815	-7.612158	0.000154	1.539730	0.260837	0.006158
1878	9.3850e-01	-2.4635	-7.558277	0.000269	2.694527	0.456465	0.010776
1879	9.3900e-01	-2.4418	-7.520218	0.000190	1.903277	0.322424	0.007612
1880	9.3950e-01	-2.4213	-7.489001	0.000156	1.561115	0.264460	0.006243
1881	9.4000e-01	-2.4006	-7.456502	0.000163	1.625271	0.275328	0.006500
1882	9.4050e-01	-2.3823	-7.423575	0.000165	1.646656	0.278951	0.006585
1883	9.4100e-01	-2.3625	-7.390648	0.000165	1.646656	0.278951	0.006585
1884	9.4150e-01	-2.3380	-7.346602	0.000220	2.202669	0.373142	0.008809
1885	9.4200e-01	-2.3231	-7.294004	0.000263	2.630372	0.445597	0.010520
1886	9.4250e-01	-2.3002	-7.257656	0.000182	1.817737	0.307933	0.007270
1887	9.4300e-01	-2.2810	-7.229005	0.000143	1.432804	0.242724	0.005730
1888	9.4350e-01	-2.2615	-7.191374	0.000188	1.881892	0.318801	0.007526
1889	9.4400e-01	-2.2401	-7.154598	0.000184	1.839122	0.311556	0.007355
1890	9.4450e-01	-2.2229	-7.125520	0.000145	1.454189	0.246346	0.005816
1891	9.4500e-01	-2.2028	-7.077626	0.000240	2.395136	0.405747	0.009579
1892	9.4550e-01	-2.1851	-7.039995	0.000188	1.881892	0.318801	0.007526
1893	9.4600e-01	-2.1604	-7.021607	0.000092	0.919561	0.155778	0.003678
1894	9.4650e-01	-2.1395	-6.966871	0.000274	2.737298	0.463711	0.010947
1895	9.4700e-01	-2.1220	-6.939075	0.000139	1.390034	0.235478	0.005559
1896	9.4750e-01	-2.1013	-6.892892	0.000231	2.309595	0.391256	0.009237
1897	9.4800e-01	-2.0826	-6.865951	0.000135	1.347264	0.228233	0.005388
1898	9.4850e-01	-2.0618	-6.827038	0.000195	1.946048	0.329669	0.007783
1899	9.4900e-01	-2.0406	-6.762038	0.000325	3.250541	0.550657	0.013000
1900	9.4950e-01	-2.0208	-6.729967	0.000160	1.603885	0.271706	0.006414
1901	9.5000e-01	-2.0027	-6.699178	0.000154	1.539730	0.260837	0.006158
1902	9.5050e-01	-1.9813	-6.642303	0.000284	2.844223	0.481824	0.011375
1903	9.5100e-01	-1.9590	-6.618784	0.000118	1.176183	0.199251	0.004704
1904	9.5150e-01	-1.9428	-6.581153	0.000188	1.881892	0.318801	0.007526
1905	9.5200e-01	-1.9227	-6.532831	0.000242	2.416521	0.409370	0.009664
1906	9.5250e-01	-1.9010	-6.512305	0.000103	1.026487	0.173892	0.004105
1907	9.5300e-01	-1.8824	-6.484937	0.000137	1.368649	0.231855	0.005474
1908	9.5350e-01	-1.8632	-6.426353	0.000293	2.929764	0.496315	0.011717
1909	9.5400e-01	-1.8394	-6.376748	0.000248	2.480676	0.420238	0.009921
1910	9.5450e-01	-1.8235	-6.348952	0.000139	1.390034	0.235478	0.005559
1911	9.5500e-01	-1.8006	-6.294216	0.000274	2.737298	0.463711	0.010947
1912	9.5550e-01	-1.7831	-6.267276	0.000135	1.347264	0.228233	0.005388
1913	9.5600e-01	-1.7600	-6.242046	0.000126	1.261723	0.213742	0.005046
1914	9.5650e-01	-1.7442	-6.194152	0.000240	2.395136	0.405747	0.009579
1915	9.5700e-01	-1.7200	-6.153100	0.000205	2.052973	0.347783	0.008210
1916	9.5750e-01	-1.7014	-6.121028	0.000160	1.603885	0.271706	0.006414
1917	9.5800e-01	-1.6819	-6.066720	0.000272	2.715913	0.460088	0.010862
1918	9.5850e-01	-1.6621	-6.038497	0.000141	1.411419	0.239101	0.005645
1919	9.5900e-01	-1.6419	-5.993168	0.000227	2.266825	0.384010	0.009066
1920	9.5950e-01	-1.6199	-5.951689	0.000207	2.074358	0.351406	0.008296
1921	9.6000e-01	-1.6006	-5.923038	0.000143	1.432804	0.242724	0.005730
1922	9.6050e-01	-1.5809	-5.870012	0.000265	2.651757	0.449220	0.010605
1923	9.6100e-01	-1.5614	-5.832381	0.000188	1.881892	0.318801	0.007526
1924	9.6150e-01	-1.5418	-5.791329	0.000205	2.052973	0.347783	0.008210
1925	9.6200e-01	-1.5189	-5.759257	0.000160	1.603885	0.271706	0.006414
1926	9.6250e-01	-1.5011	-5.722909	0.000182	1.817737	0.307933	0.007270
1927	9.6300e-01	-1.4809	-5.688699	0.000171	1.710811	0.289819	0.006842
1928	9.6350e-01	-1.4597	-5.645509	0.000216	2.159899	0.365897	0.008638
1929	9.6400e-01	-1.4411	-5.613437	0.000160	1.603885	0.271706	0.006414
1930	9.6450e-01	-1.4229	-5.564688	0.000244	2.437906	0.412992	0.009750
1931	9.6500e-01	-1.4008	-5.500116	0.000323	3.229156	0.547034	0.012914
1932	9.6550e-01	-1.3801	-5.487715	0.000062	0.620169	0.105059	0.002480
1933	9.6600e-01	-1.3604	-5.436400	0.000257	2.566217	0.434729	0.010263
1934	9.6650e-01	-1.3411	-5.400907	0.000177	1.774967	0.300687	0.007099
1935	9.6700e-01	-1.3207	-5.346171	0.000274	2.737298	0.463711	0.010947
1936	9.6750e-01	-1.3021	-5.308968	0.000186	1.860507	0.315178	0.007441
1937	9.6800e-01	-1.2783	-5.296994	0.000060	0.598784	0.101437	0.002395
1938	9.6850e-01	-1.2638	-5.258936	0.000190	1.903277	0.322424	0.007612
1939	9.6900e-01	-1.2422	-5.210614	0.000242	2.416521	0.409370	0.009664
1940	9.6950e-01	-1.2185	-5.141339	0.000346	3.464392	0.586884	0.013855
1941	9.7000e-01	-1.2033	-5.098576	0.000214	2.138514	0.362274	0.008553
1942	9.7050e-01	-1.1805	-5.076767	0.000109	1.090642	0.184760	0.004362
1943	9.7100e-01	-1.1598	-5.043840	0.000165	1.646656	0.278951	0.006585
1944	9.7150e-01	-1.1405	-4.991670	0.000261	2.608987	0.441974	0.010434
1945	9.7200e-01	-1.1211	-4.956177	0.000177	1.774967	0.300687	0.007099
1946	9.7250e-01	-1.1012	-4.917691	0.000192	1.924662	0.326047	0.007697
1947	9.7300e-01	-1.0825	-4.868941	0.000244	2.437906	0.412992	0.009750
1948	9.7350e-01	-1.0622	-4.845422	0.000118	1.176183	0.199251	0.004704
1949	9.7400e-01	-1.0410	-4.784699	0.000304	3.036690	0.514429	0.012145
1950	9.7450e-01	-1.0230	-4.747068	0.000188	1.881892	0.318801	0.007526
1951	9.7500e-01	-0.9998	-4.712431	0.000173	1.732196	0.293442	0.006928
1952	9.7550e-01	-0.9785	-4.678221	0.000171	1.710811	0.289819	0.006842
1953	9.7600e-01	-0.9607	-4.617070	0.000306	3.058075	0.518052	0.012230
1954	9.7650e-01	-0.9403	-4.574308	0.000214	2.138514	0.362274	0.008553
1955	9.7700e-01	-0.9200	-4.554637	0.000098	0.983716	0.166646	0.003934
1956	9.7750e-01	-0.9013	-4.493914	0.000304	3.036690	0.514429	0.012145
1957	9.7800e-01	-0.8823	-4.447303	0.000233	2.330980	0.394879	0.009322
1958	9.7850e-01	-0.8629	-4.413093	0.000171	1.710811	0.289819	0.006842
1959	9.7900e-01	-0.8389	-4.370330	0.000214	2.138514	0.362274	0.008553
1960	9.7950e-01	-0.8234	-4.336976	0.000167	1.668041	0.282574	0.006671
1961	9.8000e-01	-0.8022	-4.282667	0.000272	2.715913	0.460088	0.010862
1962	9.8050e-01	-0.7779	-4.246747	0.000180	1.796352	0.304310	0.007184
1963	9.8100e-01	-0.7610	-4.212109	0.000173	1.732196	0.293442	0.006928
1964	9.8150e-01	-0.7432	-4.159083	0.000265	2.651757	0.449220	0.010605
1965	9.8200e-01	-0.7232	-4.106913	0.000261	2.608987	0.441974	0.010434
1966	9.8250e-01	-0.7005	-4.088098	0.000094	0.940946	0.159401	0.003763
1967	9.8300e-01	-0.6823	-4.039348	0.000244	2.437906	0.412992	0.009750
1968	9.8350e-01	-0.6586	-4.000007	0.000197	1.967433	0.333292	0.007868
1969	9.8400e-01	-0.6403	-3.941422	0.000293	2.929764	0.496315	0.011717
1970	9.8450e-01	-0.6192	-3.917903	0.000118	1.176183	0.199251	0.004704
1971	9.8500e-01	-0.6007	-3.872147	0.000229	2.288210	0.387633	0.009151
1972	9.8550e-01	-0.5799	-3.829812	0.000212	2.117129	0.358651	0.008467
1973	9.8600e-01	-0.5624	-3.787477	0.000212	2.117129	0.358651	0.008467
1974	9.8650e-01	-0.5410	-3.743432	0.000220	2.202669	0.373142	0.008809
1975	9.8700e-01	-0.5199	-3.701097	0.000212	2.117129	0.358651	0.008467
1976	9.8750e-01	-0.5017	-3.654058	0.000235	2.352365	0.398501	0.009408
1977	9.8800e-01	-0.4815	-3.598039	0.000280	2.801453	0.474579	0.011204
1978	9.8850e-01	-0.4599	-3.568533	0.000148	1.475575	0.249969	0.005901
1979	9.8900e-01	-0.4367	-3.534751	0.000169	1.689426	0.286197	0.006756
1980	9.8950e-01	-0.4205	-3.497119	0.000188	1.881892	0.318801	0.007526
1981	9.9000e-01	-0.4006	-3.451791	0.000227	2.266825	0.384010	0.009066
1982	9.9050e-01	-0.3790	-3.408173	0.000218	2.181284	0.369520	0.008724
1983	9.9100e-01	-0.3642	-3.346595	0.000308	3.079460	0.521675	0.012316
1984	9.9150e-01	-0.3397	-3.302978	0.000218	2.181284	0.369520	0.008724
1985	9.9200e-01	-0.3195	-3.279886	0.000115	1.154797	0.195628	0.004618
1986	9.9250e-01	-0.3019	-3.256794	0.000115	1.154797	0.195628	0.004618
1987	9.9300e-01	-0.2832	-3.204196	0.000263	2.630372	0.445597	0.010520
1988	9.9350e-01	-0.2599	-3.149460	0.000274	2.737298	0.463711	0.010947
1989	9.9400e-01	-0.2380	-3.103704	0.000229	2.288210	0.387633	0.009151
1990	9.9450e-01	-0.2219	-3.060086	0.000218	2.181284	0.369520	0.008724
1991	9.9500e-01	-0.1997	-3.008344	0.000259	2.587602	0.438352	0.010349
1992	9.9550e-01	-0.1800	-2.975844	0.000163	1.625271	0.275328	0.006500
1993	9.9600e-01	-0.1603	-2.951897	0.000120	1.197568	0.202873	0.004789
1994	9.9650e-01	-0.1411	-2.876208	0.000379	3.785170	0.641225	0.015138
1995	9.9700e-01	-0.1210	-2.854826	0.000107	1.069257	0.181137	0.004276
1996	9.9750e-01	-0.0987	-2.803939	0.000254	2.544832	0.431106	0.010177
1997	9.9800e-01	-0.0809	-2.758183	0.000229	2.288210	0.387633	0.009151
1998	9.9850e-01	-0.0606	-2.715420	0.000214	2.138514	0.362274	0.008553
1999	9.9900e-01	-0.0411	-2.671803	0.000218	2.181284	0.369520	0.008724
2000	9.9950e-01	-0.0205	-2.629040	0.000214	2.138514	0.362274	0.008553
2001	1.0000e+00	-0.0044	-2.610652	0.000214	2.138514	0.362274	0.003678

Smooth data before PMax, +/-Pr and +/-Vc Calc.

PMax (uC/cm2):	2.01e+01
Pr (uC/cm2):	4.63e+00
-Pr (uC/cm2):	5.31e-01
PLoss (uC/cm2):	5.16e-01
Vc:	-2.56e-01
-Vc:	-2.10e+00
C (Max-Eff) (nF):	2.01e-01
K (Eff):	3.40e+02
Vert. (+/-Pr) Shift (uC/cm2):	2.58e+00
Horiz. Shift (+/-Vc):	-1.18e+00
Offset (uC/cm2):	3.14e+00

A (Loop Area - uC/cm2·Volts):	-2.15e-02



Hysteresis Version: 5.48.1 - Radiant Technologies, Inc., 1999 - 9/12/24

