»»»»»»»»»»»»»»»»»»»»»»»»»»»»»»»»»»»» Hysteresis ««««««««««««««««««««««««««««««««««««
»»»  Executed Version:	5.48.1
»»»  Vision Version:	5.48.4 (R)
»»»  Vision Compiled:	9/18/24
»»»  Driver Version:	5.47.0
»»»  Windows Version:	Windows 8 or 8.1
»»»  Processor Information:	x86 (AMD or Intel) - 32 Processors
»»»  Tester Name:	PMF21124-494 (100V)
»»»  Tester S/N:	PMF21124-494
»»»  Internal Amp Type:	100V RevK 270k
»»»  Internal Amp S/N:	iAB2-596/K     
»»»  Execution Count:	1
»»»»»»»»»»»»»»»»»»»»»»»»»»»»»»»»»»»»»»»»»»««««««««««««««««««««««««««««««««««««««««««

Stored:	6/11/2025 - 10:54:12
Configured:	06/11/25 10:21:25 AM
Executed:	06/11/25 10:53:31 AM

»»»»»»»»»»»»»»»»»»»»»»»»»»»»»»»»»»» Sample Info ««««««««««««««««««««««««««««««««««««
Sample Name:	
Lot Name:	
Wafer Name:	
Die Row/Column:	0/0
Capacitor Number:	0
Sample Area (cm2):	1.00e-04
Sample Thickness (microns):	3.00e-01

Amplifier:	Internal

»»»»»»»»»»»»»»»»»»»»»»»»»»»»»»»»»»» Tester Info «««««««««««««««««««««««««««««««««««
Tester Name:	PMF21124-494 (100V)
Tester Serial Number:	PMF21124-494
Return Signal Amp. Level:	1.9 [Index: 2]

»»»»»»»»»»»»»»»»»»»»»»»»»»»»»»»» Hysteresis Info ««««««««««««««««««««««««««««««««««
Task Name:	Hyst-1175
Volts:	20.00
Field:	666.67 (kV/cm)
DCBias:	0.00
DCField:	0.00 (kV/cm)
Hysteresis Period (ms):	2.00e+02
Preset:	Enabled
Preset Delay (ms):	1.00e+03
Profile:	Standard Bipolar

»»»»»»»»»»»»»»»»»»»»»»»»»»»»»»»»»»»»»» Data «««««««««««««««««««««««««««««««««««««««
Points:	2009

Valid Data

Point	Time (ms)	Drive Voltage	Measured Polarization (uC/cm2)	Capacitance (uF)	Normalized Capacitance (uF/cm2)	Dielectric Constant	Instantaneous Current (mA)
   1	0.0000e+00	0.0417	-3.204768	0.000202	2.017549	0.683564	0.000081
   2	9.9500e-02	0.0578	-3.124114	0.000202	2.017549	0.683564	0.000081
   3	1.9900e-01	0.0995	-2.998652	0.000314	3.138410	1.063322	0.000126
   4	2.9850e-01	0.1364	-2.871969	0.000317	3.168979	1.073679	0.000127
   5	3.9800e-01	0.1765	-2.748544	0.000309	3.087462	1.046060	0.000124
   6	4.9750e-01	0.2150	-2.621046	0.000319	3.189358	1.080584	0.000128
   7	5.9700e-01	0.2679	-2.497621	0.000309	3.087462	1.046060	0.000124
   8	6.9650e-01	0.2856	-2.376640	0.000303	3.026324	1.025346	0.000122
   9	7.9600e-01	0.3305	-2.247920	0.000322	3.219927	1.090941	0.000129
  10	8.9550e-01	0.3690	-2.119200	0.000322	3.219927	1.090941	0.000129
  11	9.9500e-01	0.4203	-1.996997	0.000306	3.056893	1.035703	0.000123
  12	1.0945e+00	0.4508	-1.871128	0.000315	3.148600	1.066774	0.000127
  13	1.1940e+00	0.4989	-1.735890	0.000338	3.382961	1.146178	0.000136
  14	1.2935e+00	0.5470	-1.605133	0.000327	3.270875	1.108203	0.000131
  15	1.3930e+00	0.5583	-1.482931	0.000306	3.056893	1.035703	0.000123
  16	1.4925e+00	0.6128	-1.351359	0.000329	3.291255	1.115107	0.000132
  17	1.5920e+00	0.6786	-1.224268	0.000318	3.179169	1.077131	0.000128
  18	1.6915e+00	0.6786	-1.092696	-0.000329	-3.291255	-1.115107	0.000132
  19	1.7910e+00	0.7347	-0.973752	0.000298	2.975376	1.008085	0.000120
  20	1.8905e+00	0.7668	-0.836885	0.000342	3.423720	1.159988	0.000138
  21	1.9900e+00	0.8053	-0.713460	0.000309	3.087462	1.046060	0.000124
  22	2.0895e+00	0.8535	-0.580667	0.000332	3.321824	1.125464	0.000133
  23	2.1890e+00	0.8887	-0.445836	0.000337	3.372772	1.142726	0.000136
  24	2.2885e+00	0.9240	-0.319968	0.000315	3.148600	1.066774	0.000127
  25	2.3880e+00	0.9674	-0.192062	0.000320	3.199548	1.084036	0.000129
  26	2.4875e+00	1.0171	-0.059268	0.000332	3.321824	1.125464	0.000133
  27	2.5870e+00	1.0524	0.073525	0.000332	3.321824	1.125464	0.000133
  28	2.6865e+00	1.0893	0.199802	0.000316	3.158789	1.070227	0.000127
  29	2.7860e+00	1.1278	0.331373	0.000329	3.291255	1.115107	0.000132
  30	2.8855e+00	1.1711	0.464982	0.000334	3.342203	1.132369	0.000134
  31	2.9850e+00	1.1968	0.602256	0.000343	3.433910	1.163440	0.000138
  32	3.0845e+00	1.2256	0.727717	0.000314	3.138410	1.063322	0.000126
  33	3.1840e+00	1.2754	0.860104	0.000331	3.311634	1.122012	0.000133
  34	3.2835e+00	1.2994	0.988417	0.000321	3.209738	1.087489	0.000129
  35	3.3830e+00	1.3716	1.126913	0.000346	3.464479	1.173797	0.000139
  36	3.4825e+00	1.3828	1.256855	0.000325	3.250496	1.101298	0.000131
  37	3.5820e+00	1.4534	1.387612	0.000327	3.270875	1.108203	0.000131
  38	3.6815e+00	1.4823	1.519591	0.000330	3.301444	1.118560	0.000133
  39	3.7810e+00	1.5433	1.654422	0.000337	3.372772	1.142726	0.000136
  40	3.8805e+00	1.5465	1.782327	0.000320	3.199548	1.084036	0.000129
  41	3.9800e+00	1.6155	1.909826	0.000319	3.189358	1.080584	0.000128
  42	4.0795e+00	1.6267	2.040175	0.000326	3.260686	1.104750	0.000131
  43	4.1790e+00	1.6780	2.172154	0.000330	3.301444	1.118560	0.000133
  44	4.2785e+00	1.7069	2.301282	0.000323	3.230117	1.094393	0.000130
  45	4.3780e+00	1.7695	2.434890	0.000334	3.342203	1.132369	0.000134
  46	4.4775e+00	1.8064	2.560759	0.000315	3.148600	1.066774	0.000127
  47	4.5770e+00	1.8609	2.695182	0.000336	3.362582	1.139274	0.000135
  48	4.6765e+00	1.8994	2.823902	0.000322	3.219927	1.090941	0.000129
  49	4.7760e+00	1.9315	2.953845	0.000325	3.250496	1.101298	0.000131
  50	4.8755e+00	1.9427	3.076455	0.000307	3.067083	1.039156	0.000123
  51	4.9750e+00	2.0101	3.206397	0.000325	3.250496	1.101298	0.000131
  52	5.0745e+00	2.0310	3.335932	0.000324	3.240306	1.097846	0.000130
  53	5.1740e+00	2.0919	3.469540	0.000334	3.342203	1.132369	0.000134
  54	5.2735e+00	2.1176	3.591336	0.000305	3.046703	1.032251	0.000122
  55	5.3730e+00	2.1481	3.721685	0.000326	3.260686	1.104750	0.000131
  56	5.4725e+00	2.1930	3.849591	0.000320	3.199548	1.084036	0.000129
  57	5.5720e+00	2.2507	3.977496	0.000320	3.199548	1.084036	0.000129
  58	5.6715e+00	2.2844	4.109475	0.000330	3.301444	1.118560	0.000133
  59	5.7710e+00	2.3454	4.230456	0.000303	3.026324	1.025346	0.000122
  60	5.8705e+00	2.3566	4.358362	0.000320	3.199548	1.084036	0.000129
  61	5.9700e+00	2.4015	4.486675	0.000321	3.209738	1.087489	0.000129
  62	6.0695e+00	2.4545	4.616209	0.000324	3.240306	1.097846	0.000130
  63	6.1690e+00	2.4914	4.733117	0.000292	2.924428	0.990823	0.000117
  64	6.2685e+00	2.5219	4.868355	0.000338	3.382961	1.146178	0.000136
  65	6.3680e+00	2.5588	4.991779	0.000309	3.087462	1.046060	0.000124
  66	6.4675e+00	2.6293	5.124573	0.000332	3.321824	1.125464	0.000133
  67	6.5670e+00	2.6133	5.246368	-0.000305	-3.046703	-1.032251	0.000122
  68	6.6665e+00	2.6694	5.365312	0.000298	2.975376	1.008085	0.000120
  69	6.7660e+00	2.7320	5.500550	0.000338	3.382961	1.146178	0.000136
  70	6.8655e+00	2.7657	5.628456	0.000320	3.199548	1.084036	0.000129
  71	6.9650e+00	2.8042	5.753510	0.000313	3.128220	1.059870	0.000126
  72	7.0645e+00	2.8331	5.872454	0.000298	2.975376	1.008085	0.000120
  73	7.1640e+00	2.8764	6.001581	0.000323	3.230117	1.094393	0.000130
  74	7.2635e+00	2.9309	6.126228	0.000312	3.118031	1.056417	0.000125
  75	7.3630e+00	2.9646	6.250875	0.000312	3.118031	1.056417	0.000125
  76	7.4625e+00	2.9823	6.372671	0.000305	3.046703	1.032251	0.000122
  77	7.5620e+00	3.0480	6.494059	0.000304	3.036514	1.028799	0.000122
  78	7.6615e+00	3.1106	6.619113	0.000313	3.128220	1.059870	0.000126
  79	7.7610e+00	3.1202	6.742538	0.000309	3.087462	1.046060	0.000124
  80	7.8605e+00	3.1635	6.870850	0.000321	3.209738	1.087489	0.000129
  81	7.9600e+00	3.2181	6.986943	0.000290	2.904048	0.983918	0.000117
  82	8.0595e+00	3.2389	7.110368	0.000309	3.087462	1.046060	0.000124
  83	8.1590e+00	3.2871	7.235829	0.000314	3.138410	1.063322	0.000126
  84	8.2585e+00	3.3111	7.349071	0.000283	2.832721	0.959752	0.000114
  85	8.3580e+00	3.3609	7.468422	0.000299	2.985565	1.011537	0.000120
  86	8.4575e+00	3.4122	7.587773	0.000299	2.985565	1.011537	0.000120
  87	8.5570e+00	3.4331	7.709569	0.000305	3.046703	1.032251	0.000122
  88	8.6565e+00	3.4812	7.827291	0.000294	2.944807	0.997728	0.000118
  89	8.7560e+00	3.5325	7.947864	0.000302	3.016134	1.021894	0.000121
  90	8.8555e+00	3.5486	8.061513	0.000284	2.842910	0.963204	0.000114
  91	8.9550e+00	3.5999	8.184938	0.000309	3.087462	1.046060	0.000124
  92	9.0545e+00	3.6432	8.305511	0.000302	3.016134	1.021894	0.000121
  93	9.1540e+00	3.6881	8.420789	0.000288	2.883669	0.977013	0.000116
  94	9.2535e+00	3.7282	8.535659	0.000287	2.873479	0.973561	0.000115
  95	9.3530e+00	3.7587	8.659492	0.000310	3.097651	1.049513	0.000124
  96	9.4525e+00	3.8117	8.773955	0.000286	2.863290	0.970109	0.000115
  97	9.5520e+00	3.8470	8.898602	0.000312	3.118031	1.056417	0.000125
  98	9.6515e+00	3.8518	9.005325	0.000267	2.669686	0.904514	0.000107
  99	9.7510e+00	3.9336	9.126306	0.000303	3.026324	1.025346	0.000122
 100	9.8505e+00	3.9528	9.239140	0.000282	2.822531	0.956299	0.000113
 101	9.9500e+00	4.0122	9.357677	0.000297	2.965186	1.004632	0.000119
 102	1.0050e+01	4.0411	9.471733	0.000285	2.853100	0.966656	0.000115
 103	1.0149e+01	4.0780	9.588233	0.000291	2.914238	0.987371	0.000117
 104	1.0248e+01	4.1100	9.704733	0.000291	2.914238	0.987371	0.000117
 105	1.0348e+01	4.1421	9.827343	0.000307	3.067083	1.039156	0.000123
 106	1.0447e+01	4.1838	9.932844	0.000264	2.639118	0.894157	0.000106
 107	1.0547e+01	4.2432	10.041605	0.000272	2.720635	0.921776	0.000109
 108	1.0646e+01	4.2624	10.162586	0.000303	3.026324	1.025346	0.000122
 109	1.0746e+01	4.3202	10.273790	0.000278	2.781773	0.942490	0.000112
 110	1.0845e+01	4.3699	10.389068	0.000288	2.883669	0.977013	0.000116
 111	1.0945e+01	4.3844	10.502717	0.000284	2.842910	0.963204	0.000114
 112	1.1044e+01	4.4373	10.607404	0.000262	2.618738	0.887253	0.000105
 113	1.1144e+01	4.4806	10.719016	0.000279	2.791962	0.945942	0.000112
 114	1.1243e+01	4.5207	10.835516	0.000291	2.914238	0.987371	0.000117
 115	1.1343e+01	4.5448	10.944276	0.000272	2.720635	0.921776	0.000109
 116	1.1443e+01	4.5929	11.053851	0.000274	2.741014	0.928681	0.000110
 117	1.1542e+01	4.6491	11.158946	0.000263	2.628928	0.890705	0.000106
 118	1.1642e+01	4.6571	11.267299	0.000271	2.710445	0.918324	0.000109
 119	1.1741e+01	4.7068	11.371578	0.000261	2.608549	0.883800	0.000105
 120	1.1841e+01	4.7469	11.483190	0.000279	2.791962	0.945942	0.000112
 121	1.1940e+01	4.7983	11.591951	0.000272	2.720635	0.921776	0.000109
 122	1.2040e+01	4.8464	11.696230	0.000261	2.608549	0.883800	0.000105
 123	1.2139e+01	4.8833	11.807842	0.000279	2.791962	0.945942	0.000112
 124	1.2239e+01	4.9154	11.916195	0.000271	2.710445	0.918324	0.000109
 125	1.2338e+01	4.9507	12.015587	0.000249	2.486273	0.842372	0.000100
 126	1.2438e+01	4.9844	12.125569	0.000275	2.751204	0.932133	0.000111
 127	1.2537e+01	5.0357	12.230256	0.000262	2.618738	0.887253	0.000105
 128	1.2636e+01	5.0694	12.341461	0.000278	2.781773	0.942490	0.000112
 129	1.2736e+01	5.1047	12.445333	0.000260	2.598359	0.880348	0.000104
 130	1.2835e+01	5.1448	12.548798	0.000259	2.588169	0.876895	0.000104
 131	1.2935e+01	5.1897	12.655522	0.000267	2.669686	0.904514	0.000107
 132	1.3034e+01	5.2362	12.767134	0.000279	2.791962	0.945942	0.000112
 133	1.3134e+01	5.2779	12.873043	0.000265	2.649307	0.897610	0.000106
 134	1.3233e+01	5.3244	12.971620	0.000247	2.465894	0.835467	0.000099
 135	1.3333e+01	5.3357	13.075900	0.000261	2.608549	0.883800	0.000105
 136	1.3432e+01	5.3710	13.179365	0.000259	2.588169	0.876895	0.000104
 137	1.3532e+01	5.4207	13.288532	0.000273	2.730824	0.925228	0.000110
 138	1.3632e+01	5.4785	13.382221	0.000234	2.343618	0.794039	0.000094
 139	1.3731e+01	5.5314	13.491389	0.000273	2.730824	0.925228	0.000110
 140	1.3831e+01	5.5779	13.597705	0.000266	2.659497	0.901062	0.000107
 141	1.3930e+01	5.6020	13.699948	0.000256	2.557600	0.866538	0.000103
 142	1.4030e+01	5.6293	13.798525	0.000247	2.465894	0.835467	0.000099
 143	1.4129e+01	5.6950	13.906471	0.000270	2.700255	0.914871	0.000108
 144	1.4229e+01	5.6998	14.010343	0.000260	2.598359	0.880348	0.000104
 145	1.4328e+01	5.7480	14.111364	0.000253	2.527031	0.856181	0.000102
 146	1.4428e+01	5.7929	14.209127	0.000245	2.445514	0.828563	0.000098
 147	1.4527e+01	5.8619	14.309740	0.000252	2.516842	0.852729	0.000101
 148	1.4627e+01	5.8683	14.414427	0.000262	2.618738	0.887253	0.000105
 149	1.4726e+01	5.9148	14.508523	0.000235	2.353808	0.797492	0.000095
 150	1.4825e+01	5.9581	14.605471	0.000243	2.425135	0.821658	0.000097
 151	1.4925e+01	5.9854	14.712195	0.000267	2.669686	0.904514	0.000107
 152	1.5024e+01	6.0079	14.808735	0.000241	2.414945	0.818206	0.000097
 153	1.5124e+01	6.0736	14.904868	0.000240	2.404756	0.814753	0.000097
 154	1.5223e+01	6.1025	15.003445	0.000247	2.465894	0.835467	0.000099
 155	1.5323e+01	6.1474	15.107317	0.000260	2.598359	0.880348	0.000104
 156	1.5422e+01	6.1988	15.201820	0.000236	2.363997	0.800944	0.000095
 157	1.5522e+01	6.2132	15.300397	0.000247	2.465894	0.835467	0.000099
 158	1.5621e+01	6.2774	15.398974	0.000247	2.465894	0.835467	0.000099
 159	1.5721e+01	6.3046	15.501624	0.000257	2.567790	0.869991	0.000103
 160	1.5820e+01	6.3207	15.594091	0.000231	2.313049	0.783682	0.000093
 161	1.5920e+01	6.3881	15.691446	0.000244	2.435325	0.825110	0.000098
 162	1.6020e+01	6.4266	15.794096	0.000257	2.567790	0.869991	0.000103
 163	1.6119e+01	6.4554	15.889822	0.000239	2.394566	0.811301	0.000096
 164	1.6218e+01	6.4955	15.976179	0.000216	2.160204	0.731897	0.000087
 165	1.6318e+01	6.5485	16.074755	0.000247	2.465894	0.835467	0.000099
 166	1.6418e+01	6.5934	16.174147	0.000249	2.486273	0.842372	0.000100
 167	1.6517e+01	6.6431	16.268243	0.000235	2.353808	0.797492	0.000095
 168	1.6616e+01	6.6752	16.366820	0.000247	2.465894	0.835467	0.000099
 169	1.6716e+01	6.6977	16.466619	0.000250	2.496463	0.845824	0.000100
 170	1.6816e+01	6.7506	16.565603	0.000248	2.476083	0.838920	0.000099
 171	1.6915e+01	6.7891	16.660107	0.000236	2.363997	0.800944	0.000095
 172	1.7015e+01	6.8148	16.764794	0.000262	2.618738	0.887253	0.000105
 173	1.7114e+01	6.8725	16.855224	0.000226	2.262101	0.766420	0.000091
 174	1.7213e+01	6.9014	16.948913	0.000234	2.343618	0.794039	0.000094
 175	1.7313e+01	6.9688	17.046675	0.000245	2.445514	0.828563	0.000098
 176	1.7413e+01	6.9736	17.146474	0.000250	2.496463	0.845824	0.000100
 177	1.7512e+01	7.0265	17.244643	0.000246	2.455704	0.832015	0.000099
 178	1.7611e+01	7.0474	17.331000	0.000216	2.160204	0.731897	0.000087
 179	1.7711e+01	7.1180	17.427133	0.000240	2.404756	0.814753	0.000097
 180	1.7811e+01	7.1453	17.525302	0.000246	2.455704	0.832015	0.000099
 181	1.7910e+01	7.1805	17.622657	0.000244	2.435325	0.825110	0.000098
 182	1.8009e+01	7.2287	17.714309	0.000229	2.292670	0.776778	0.000092
 183	1.8109e+01	7.2495	17.815738	0.000254	2.537221	0.859634	0.000102
 184	1.8209e+01	7.2977	17.912278	0.000241	2.414945	0.818206	0.000097
 185	1.8308e+01	7.3329	18.007189	0.000237	2.374187	0.804396	0.000095
 186	1.8407e+01	7.3731	18.091916	0.000212	2.119446	0.718088	0.000085
 187	1.8507e+01	7.4260	18.190900	0.000248	2.476083	0.838920	0.000099
 188	1.8607e+01	7.4966	18.282552	0.000229	2.292670	0.776778	0.000092
 189	1.8706e+01	7.5062	18.379907	0.000244	2.435325	0.825110	0.000098
 190	1.8805e+01	7.5335	18.474410	0.000236	2.363997	0.800944	0.000095
 191	1.8905e+01	7.5928	18.564840	0.000226	2.262101	0.766420	0.000091
 192	1.9005e+01	7.6137	18.659344	0.000236	2.363997	0.800944	0.000095
 193	1.9104e+01	7.6602	18.757106	0.000245	2.445514	0.828563	0.000098
 194	1.9203e+01	7.7115	18.855683	0.000247	2.465894	0.835467	0.000099
 195	1.9303e+01	7.7308	18.945298	0.000224	2.241721	0.759516	0.000090
 196	1.9402e+01	7.7934	19.044283	0.000248	2.476083	0.838920	0.000099
 197	1.9502e+01	7.8238	19.137157	0.000232	2.323239	0.787135	0.000093
 198	1.9602e+01	7.8639	19.234104	0.000243	2.425135	0.821658	0.000097
 199	1.9701e+01	7.8960	19.329830	0.000239	2.394566	0.811301	0.000096
 200	1.9800e+01	7.9458	19.423926	0.000235	2.353808	0.797492	0.000095
 201	1.9900e+01	7.9762	19.520466	0.000241	2.414945	0.818206	0.000097
 202	2.0000e+01	8.0131	19.613748	0.000233	2.333428	0.790587	0.000094
 203	2.0099e+01	8.0757	19.715176	0.000254	2.537221	0.859634	0.000102
 204	2.0198e+01	8.1190	19.805199	0.000225	2.251911	0.762968	0.000090
 205	2.0298e+01	8.1415	19.901331	0.000240	2.404756	0.814753	0.000097
 206	2.0398e+01	8.1752	19.996650	0.000238	2.384376	0.807849	0.000096
 207	2.0497e+01	8.2201	20.093190	0.000241	2.414945	0.818206	0.000097
 208	2.0596e+01	8.2602	20.182805	0.000224	2.241721	0.759516	0.000090
 209	2.0696e+01	8.2875	20.277716	0.000237	2.374187	0.804396	0.000095
 210	2.0796e+01	8.3436	20.377922	0.000251	2.506652	0.849277	0.000101
 211	2.0895e+01	8.3933	20.472833	0.000237	2.374187	0.804396	0.000095
 212	2.0994e+01	8.4206	20.568558	0.000239	2.394566	0.811301	0.000096
 213	2.1094e+01	8.4399	20.657766	0.000223	2.231532	0.756063	0.000090
 214	2.1194e+01	8.4880	20.755121	0.000244	2.435325	0.825110	0.000098
 215	2.1293e+01	8.5506	20.848403	0.000233	2.333428	0.790587	0.000094
 216	2.1392e+01	8.5714	20.943314	0.000237	2.374187	0.804396	0.000095
 217	2.1492e+01	8.6308	21.034151	0.000227	2.272290	0.769873	0.000091
 218	2.1591e+01	8.6677	21.134765	0.000252	2.516842	0.852729	0.000101
 219	2.1691e+01	8.6885	21.222343	0.000219	2.190773	0.742254	0.000088
 220	2.1791e+01	8.7463	21.319698	0.000244	2.435325	0.825110	0.000098
 221	2.1890e+01	8.7816	21.416238	0.000241	2.414945	0.818206	0.000097
 222	2.1989e+01	8.8088	21.508298	0.000230	2.302859	0.780230	0.000093
 223	2.2089e+01	8.8586	21.595876	0.000219	2.190773	0.742254	0.000088
 224	2.2189e+01	8.9227	21.694046	0.000246	2.455704	0.832015	0.000099
 225	2.2288e+01	8.9436	21.787327	0.000233	2.333428	0.790587	0.000094
 226	2.2387e+01	8.9741	21.882238	0.000237	2.374187	0.804396	0.000095
 227	2.2487e+01	9.0158	21.972668	0.000226	2.262101	0.766420	0.000091
 228	2.2587e+01	9.0639	22.065950	0.000233	2.333428	0.790587	0.000094
 229	2.2686e+01	9.1120	22.161268	0.000238	2.384376	0.807849	0.000096
 230	2.2785e+01	9.1634	22.254957	0.000234	2.343618	0.794039	0.000094
 231	2.2885e+01	9.1746	22.346201	0.000228	2.282480	0.773325	0.000092
 232	2.2985e+01	9.2179	22.443964	0.000245	2.445514	0.828563	0.000098
 233	2.3084e+01	9.2564	22.540504	0.000241	2.414945	0.818206	0.000097
 234	2.3183e+01	9.2981	22.635007	0.000236	2.363997	0.800944	0.000095
 235	2.3283e+01	9.3190	22.733177	0.000246	2.455704	0.832015	0.000099
 236	2.3383e+01	9.3671	22.824014	0.000227	2.272290	0.769873	0.000091
 237	2.3482e+01	9.4120	22.921369	0.000244	2.435325	0.825110	0.000098
 238	2.3581e+01	9.4650	23.010170	0.000222	2.221342	0.752611	0.000089
 239	2.3681e+01	9.5195	23.107932	0.000245	2.445514	0.828563	0.000098
 240	2.3780e+01	9.5356	23.197140	0.000223	2.231532	0.756063	0.000090
 241	2.3880e+01	9.5676	23.292458	0.000238	2.384376	0.807849	0.000096
 242	2.3980e+01	9.6110	23.385740	0.000233	2.333428	0.790587	0.000094
 243	2.4079e+01	9.6495	23.483909	0.000246	2.455704	0.832015	0.000099
 244	2.4178e+01	9.6928	23.571895	0.000220	2.200963	0.745706	0.000088
 245	2.4278e+01	9.7441	23.666806	0.000237	2.374187	0.804396	0.000095
 246	2.4378e+01	9.7858	23.757643	0.000227	2.272290	0.769873	0.000091
 247	2.4477e+01	9.8211	23.851739	0.000235	2.353808	0.797492	0.000095
 248	2.4576e+01	9.8773	23.946650	0.000237	2.374187	0.804396	0.000095
 249	2.4676e+01	9.8933	24.038710	0.000230	2.302859	0.780230	0.000093
 250	2.4776e+01	9.9382	24.128732	0.000225	2.251911	0.762968	0.000090
 251	2.4875e+01	9.9928	24.228939	0.000251	2.506652	0.849277	0.000101
 252	2.4974e+01	10.0040	24.314073	0.000213	2.129635	0.721540	0.000086
 253	2.5074e+01	10.0601	24.405725	0.000229	2.292670	0.776778	0.000092
 254	2.5174e+01	10.0938	24.491675	0.000215	2.150015	0.728445	0.000086
 255	2.5273e+01	10.1388	24.589844	0.000246	2.455704	0.832015	0.000099
 256	2.5372e+01	10.1773	24.678237	0.000221	2.211153	0.749159	0.000089
 257	2.5472e+01	10.1949	24.764594	0.000216	2.160204	0.731897	0.000087
 258	2.5572e+01	10.2559	24.858283	0.000234	2.343618	0.794039	0.000094
 259	2.5671e+01	10.3072	24.951564	0.000233	2.333428	0.790587	0.000094
 260	2.5770e+01	10.3425	25.044846	0.000233	2.333428	0.790587	0.000094
 261	2.5870e+01	10.3842	25.131202	0.000216	2.160204	0.731897	0.000087
 262	2.5970e+01	10.4067	25.229779	0.000247	2.465894	0.835467	0.000099
 263	2.6069e+01	10.4564	25.316543	0.000217	2.170394	0.735349	0.000087
 264	2.6169e+01	10.4917	25.413083	0.000241	2.414945	0.818206	0.000097
 265	2.6268e+01	10.5430	25.502699	0.000224	2.241721	0.759516	0.000090
 266	2.6367e+01	10.5703	25.589870	0.000218	2.180584	0.738802	0.000088
 267	2.6467e+01	10.6120	25.677449	0.000219	2.190773	0.742254	0.000088
 268	2.6567e+01	10.6601	25.775618	0.000246	2.455704	0.832015	0.000099
 269	2.6666e+01	10.6842	25.862790	0.000218	2.180584	0.738802	0.000088
 270	2.6765e+01	10.7500	25.954034	0.000228	2.282480	0.773325	0.000092
 271	2.6865e+01	10.7772	26.039576	0.000214	2.139825	0.724992	0.000086
 272	2.6965e+01	10.8173	26.132858	0.000233	2.333428	0.790587	0.000094
 273	2.7064e+01	10.8494	26.222473	0.000224	2.241721	0.759516	0.000090
 274	2.7163e+01	10.9088	26.314532	0.000230	2.302859	0.780230	0.000093
 275	2.7263e+01	10.9248	26.406999	0.000231	2.313049	0.783682	0.000093
 276	2.7363e+01	10.9665	26.492134	0.000213	2.129635	0.721540	0.000086
 277	2.7462e+01	11.0211	26.576454	0.000211	2.109256	0.714635	0.000085
 278	2.7561e+01	11.0500	26.670143	0.000234	2.343618	0.794039	0.000094
 279	2.7661e+01	11.0981	26.749167	0.000198	1.976791	0.669755	0.000079
 280	2.7761e+01	11.1446	26.842041	0.000232	2.323239	0.787135	0.000093
 281	2.7860e+01	11.1574	26.923917	0.000205	2.048118	0.693921	0.000082
 282	2.7959e+01	11.2072	27.016384	0.000231	2.313049	0.783682	0.000093
 283	2.8059e+01	11.2280	27.103148	0.000217	2.170394	0.735349	0.000087
 284	2.8159e+01	11.2794	27.184209	0.000203	2.027739	0.687017	0.000081
 285	2.8258e+01	11.3387	27.273417	0.000223	2.231532	0.756063	0.000090
 286	2.8358e+01	11.3676	27.364662	0.000228	2.282480	0.773325	0.000092
 287	2.8457e+01	11.4061	27.448574	0.000210	2.099066	0.711183	0.000084
 288	2.8556e+01	11.4430	27.528006	0.000199	1.986980	0.673207	0.000080
 289	2.8656e+01	11.5104	27.616399	0.000221	2.211153	0.749159	0.000089
 290	2.8756e+01	11.5344	27.702349	0.000215	2.150015	0.728445	0.000086
 291	2.8855e+01	11.5553	27.786261	0.000210	2.099066	0.711183	0.000084
 292	2.8954e+01	11.6034	27.868952	0.000207	2.068498	0.700826	0.000083
 293	2.9054e+01	11.6628	27.960196	0.000228	2.282480	0.773325	0.000092
 294	2.9154e+01	11.6949	28.043294	0.000208	2.078687	0.704278	0.000084
 295	2.9253e+01	11.7253	28.127207	0.000210	2.099066	0.711183	0.000084
 296	2.9352e+01	11.7799	28.211119	0.000210	2.099066	0.711183	0.000084
 297	2.9452e+01	11.8248	28.296254	0.000213	2.129635	0.721540	0.000086
 298	2.9552e+01	11.8408	28.383018	0.000217	2.170394	0.735349	0.000087
 299	2.9651e+01	11.9018	28.468153	0.000213	2.129635	0.721540	0.000086
 300	2.9750e+01	11.9243	28.552472	0.000211	2.109256	0.714635	0.000085
 301	2.9850e+01	11.9756	28.634348	0.000205	2.048118	0.693921	0.000082
 302	2.9950e+01	12.0157	28.717446	0.000208	2.078687	0.704278	0.000084
 303	3.0049e+01	12.0398	28.802988	0.000214	2.139825	0.724992	0.000086
 304	3.0148e+01	12.0735	28.884457	0.000204	2.037929	0.690469	0.000082
 305	3.0248e+01	12.1296	28.968777	0.000211	2.109256	0.714635	0.000085
 306	3.0348e+01	12.1505	29.051060	0.000206	2.058308	0.697374	0.000083
 307	3.0447e+01	12.2082	29.136602	0.000214	2.139825	0.724992	0.000086
 308	3.0547e+01	12.2419	29.221736	0.000213	2.129635	0.721540	0.000086
 309	3.0646e+01	12.2948	29.307686	0.000215	2.150015	0.728445	0.000086
 310	3.0745e+01	12.3205	29.383859	0.000191	1.905463	0.645588	0.000077
 311	3.0845e+01	12.3654	29.472252	0.000221	2.211153	0.749159	0.000089
 312	3.0945e+01	12.4264	29.554128	0.000205	2.048118	0.693921	0.000082
 313	3.1044e+01	12.4408	29.638855	0.000212	2.119446	0.718088	0.000085
 314	3.1143e+01	12.4761	29.718287	0.000199	1.986980	0.673207	0.000080
 315	3.1243e+01	12.5258	29.796089	0.000195	1.946222	0.659398	0.000078
 316	3.1343e+01	12.5611	29.882039	0.000215	2.150015	0.728445	0.000086
 317	3.1442e+01	12.6093	29.958212	0.000191	1.905463	0.645588	0.000077
 318	3.1541e+01	12.6494	30.042939	0.000212	2.119446	0.718088	0.000085
 319	3.1641e+01	12.6943	30.122371	0.000199	1.986980	0.673207	0.000080
 320	3.1741e+01	12.7248	30.201802	0.000199	1.986980	0.673207	0.000080
 321	3.1840e+01	12.7697	30.281642	0.000200	1.997170	0.676660	0.000080
 322	3.1939e+01	12.8194	30.363110	0.000204	2.037929	0.690469	0.000082
 323	3.2039e+01	12.8403	30.440505	0.000194	1.936032	0.655945	0.000078
 324	3.2139e+01	12.8916	30.522381	0.000205	2.048118	0.693921	0.000082
 325	3.2238e+01	12.9125	30.602628	0.000201	2.007360	0.680112	0.000081
 326	3.2337e+01	12.9542	30.680430	0.000195	1.946222	0.659398	0.000078
 327	3.2437e+01	12.9766	30.760676	0.000201	2.007360	0.680112	0.000081
 328	3.2536e+01	13.0504	30.837257	0.000192	1.915653	0.649041	0.000077
 329	3.2636e+01	13.0921	30.913837	0.000192	1.915653	0.649041	0.000077
 330	3.2736e+01	13.1002	30.996935	0.000208	2.078687	0.704278	0.000084
 331	3.2835e+01	13.1627	31.077996	0.000203	2.027739	0.687017	0.000081
 332	3.2934e+01	13.1980	31.155799	0.000195	1.946222	0.659398	0.000078
 333	3.3034e+01	13.2429	31.234416	0.000197	1.966601	0.666302	0.000079
 334	3.3133e+01	13.2734	31.316292	0.000205	2.048118	0.693921	0.000082
 335	3.3233e+01	13.3248	31.394094	0.000195	1.946222	0.659398	0.000078
 336	3.3333e+01	13.3584	31.473933	0.000200	1.997170	0.676660	0.000080
 337	3.3432e+01	13.4034	31.556624	0.000207	2.068498	0.700826	0.000083
 338	3.3532e+01	13.4451	31.640129	0.000209	2.088877	0.707731	0.000084
 339	3.3631e+01	13.4772	31.719968	0.000200	1.997170	0.676660	0.000080
 340	3.3730e+01	13.5141	31.796141	0.000191	1.905463	0.645588	0.000077
 341	3.3830e+01	13.5574	31.878832	0.000207	2.068498	0.700826	0.000083
 342	3.3929e+01	13.5959	31.957449	0.000197	1.966601	0.666302	0.000079
 343	3.4029e+01	13.6360	32.032400	0.000187	1.874894	0.635231	0.000075
 344	3.4129e+01	13.6809	32.110610	0.000196	1.956411	0.662850	0.000079
 345	3.4228e+01	13.7242	32.194930	0.000211	2.109256	0.714635	0.000085
 346	3.4328e+01	13.7563	32.272325	0.000194	1.936032	0.655945	0.000078
 347	3.4427e+01	13.7964	32.351756	0.000199	1.986980	0.673207	0.000080
 348	3.4526e+01	13.8526	32.434040	0.000206	2.058308	0.697374	0.000083
 349	3.4626e+01	13.8638	32.509398	0.000189	1.885084	0.638684	0.000076
 350	3.4725e+01	13.9167	32.587608	0.000196	1.956411	0.662850	0.000079
 351	3.4825e+01	13.9552	32.673964	0.000216	2.160204	0.731897	0.000087
 352	3.4925e+01	14.0001	32.748508	0.000186	1.864705	0.631779	0.000075
 353	3.5024e+01	14.0242	32.827125	0.000197	1.966601	0.666302	0.000079
 354	3.5123e+01	14.0884	32.906557	0.000199	1.986980	0.673207	0.000080
 355	3.5223e+01	14.1108	32.987211	0.000202	2.017549	0.683564	0.000081
 356	3.5322e+01	14.1606	33.064199	0.000193	1.925843	0.652493	0.000077
 357	3.5422e+01	14.1862	33.145260	0.000203	2.027739	0.687017	0.000081
 358	3.5522e+01	14.2311	33.221433	0.000191	1.905463	0.645588	0.000077
 359	3.5621e+01	14.2985	33.300457	0.000198	1.976791	0.669755	0.000079
 360	3.5721e+01	14.3258	33.378667	0.000196	1.956411	0.662850	0.000079
 361	3.5820e+01	14.3707	33.457284	0.000197	1.966601	0.666302	0.000079
 362	3.5919e+01	14.4060	33.541197	0.000210	2.099066	0.711183	0.000084
 363	3.6019e+01	14.4509	33.620629	0.000199	1.986980	0.673207	0.000080
 364	3.6118e+01	14.4750	33.700468	0.000200	1.997170	0.676660	0.000080
 365	3.6218e+01	14.5376	33.779085	0.000197	1.966601	0.666302	0.000079
 366	3.6318e+01	14.5616	33.864627	0.000214	2.139825	0.724992	0.000086
 367	3.6417e+01	14.5937	33.940800	0.000191	1.905463	0.645588	0.000077
 368	3.6517e+01	14.6450	34.020639	0.000200	1.997170	0.676660	0.000080
 369	3.6616e+01	14.6884	34.104959	0.000211	2.109256	0.714635	0.000085
 370	3.6715e+01	14.7076	34.187242	0.000206	2.058308	0.697374	0.000083
 371	3.6815e+01	14.7573	34.265452	0.000196	1.956411	0.662850	0.000079
 372	3.6914e+01	14.7878	34.347328	0.000205	2.048118	0.693921	0.000082
 373	3.7014e+01	14.8424	34.425537	0.000196	1.956411	0.662850	0.000079
 374	3.7114e+01	14.8873	34.511487	0.000215	2.150015	0.728445	0.000086
 375	3.7213e+01	14.8889	34.592548	0.000203	2.027739	0.687017	0.000081
 376	3.7313e+01	14.9482	34.670758	0.000196	1.956411	0.662850	0.000079
 377	3.7412e+01	14.9787	34.751411	0.000202	2.017549	0.683564	0.000081
 378	3.7511e+01	15.0365	34.836546	0.000213	2.129635	0.721540	0.000086
 379	3.7611e+01	15.0942	34.913534	0.000193	1.925843	0.652493	0.000077
 380	3.7711e+01	15.1263	34.988892	0.000189	1.885084	0.638684	0.000076
 381	3.7810e+01	15.1536	35.067509	0.000197	1.966601	0.666302	0.000079
 382	3.7910e+01	15.1857	35.151422	0.000210	2.099066	0.711183	0.000084
 383	3.8009e+01	15.2418	35.230854	0.000199	1.986980	0.673207	0.000080
 384	3.8108e+01	15.2739	35.312729	0.000205	2.048118	0.693921	0.000082
 385	3.8208e+01	15.3140	35.392976	0.000201	2.007360	0.680112	0.000081
 386	3.8307e+01	15.3461	35.477296	0.000211	2.109256	0.714635	0.000085
 387	3.8407e+01	15.3958	35.556320	0.000198	1.976791	0.669755	0.000079
 388	3.8507e+01	15.4231	35.636974	0.000202	2.017549	0.683564	0.000081
 389	3.8606e+01	15.4857	35.713555	0.000192	1.915653	0.649041	0.000077
 390	3.8706e+01	15.5113	35.797060	0.000209	2.088877	0.707731	0.000084
 391	3.8805e+01	15.5402	35.881380	0.000211	2.109256	0.714635	0.000085
 392	3.8904e+01	15.6076	35.955516	0.000185	1.854515	0.628327	0.000075
 393	3.9004e+01	15.6381	36.038207	0.000207	2.068498	0.700826	0.000083
 394	3.9103e+01	15.6701	36.118860	0.000202	2.017549	0.683564	0.000081
 395	3.9203e+01	15.7086	36.197885	0.000198	1.976791	0.669755	0.000079
 396	3.9303e+01	15.7552	36.279761	0.000205	2.048118	0.693921	0.000082
 397	3.9402e+01	15.8017	36.364081	0.000211	2.109256	0.714635	0.000085
 398	3.9502e+01	15.8418	36.442698	0.000197	1.966601	0.666302	0.000079
 399	3.9601e+01	15.8819	36.525796	0.000208	2.078687	0.704278	0.000084
 400	3.9700e+01	15.9220	36.605227	0.000199	1.986980	0.673207	0.000080
 401	3.9800e+01	15.9621	36.689140	0.000210	2.099066	0.711183	0.000084
 402	3.9900e+01	15.9910	36.769794	0.000202	2.017549	0.683564	0.000081
 403	3.9999e+01	16.0359	36.852077	0.000206	2.058308	0.697374	0.000083
 404	4.0099e+01	16.0856	36.937212	0.000213	2.129635	0.721540	0.000086
 405	4.0198e+01	16.0905	37.014607	0.000194	1.936032	0.655945	0.000078
 406	4.0297e+01	16.1610	37.090372	0.000190	1.895274	0.642136	0.000076
 407	4.0397e+01	16.2124	37.177544	0.000218	2.180584	0.738802	0.000088
 408	4.0496e+01	16.2220	37.257790	0.000201	2.007360	0.680112	0.000081
 409	4.0596e+01	16.2846	37.338444	0.000202	2.017549	0.683564	0.000081
 410	4.0696e+01	16.3150	37.417468	0.000198	1.976791	0.669755	0.000079
 411	4.0795e+01	16.3327	37.505047	0.000219	2.190773	0.742254	0.000088
 412	4.0895e+01	16.3808	37.582035	0.000193	1.925843	0.652493	0.000077
 413	4.0994e+01	16.4306	37.666355	0.000211	2.109256	0.714635	0.000085
 414	4.1093e+01	16.4674	37.750267	0.000210	2.099066	0.711183	0.000084
 415	4.1193e+01	16.5011	37.828884	0.000197	1.966601	0.666302	0.000079
 416	4.1292e+01	16.5637	37.914834	0.000215	2.150015	0.728445	0.000086
 417	4.1392e+01	16.5958	37.991414	0.000192	1.915653	0.649041	0.000077
 418	4.1492e+01	16.6551	38.076956	0.000214	2.139825	0.724992	0.000086
 419	4.1591e+01	16.6904	38.157610	0.000202	2.017549	0.683564	0.000081
 420	4.1691e+01	16.7001	38.231746	0.000185	1.854515	0.628327	0.000075
 421	4.1790e+01	16.7450	38.313622	0.000205	2.048118	0.693921	0.000082
 422	4.1889e+01	16.7771	38.395905	0.000206	2.058308	0.697374	0.000083
 423	4.1989e+01	16.8284	38.474115	0.000196	1.956411	0.662850	0.000079
 424	4.2089e+01	16.8557	38.553139	0.000198	1.976791	0.669755	0.000079
 425	4.2188e+01	16.9247	38.629313	0.000191	1.905463	0.645588	0.000077
 426	4.2288e+01	16.9599	38.715262	0.000215	2.150015	0.728445	0.000086
 427	4.2387e+01	16.9985	38.795508	0.000201	2.007360	0.680112	0.000081
 428	4.2486e+01	17.0129	38.877791	0.000206	2.058308	0.697374	0.000083
 429	4.2586e+01	17.0610	38.962111	0.000211	2.109256	0.714635	0.000085
 430	4.2685e+01	17.1043	39.037062	0.000187	1.874894	0.635231	0.000075
 431	4.2785e+01	17.1573	39.121382	0.000211	2.109256	0.714635	0.000085
 432	4.2885e+01	17.1829	39.201629	0.000201	2.007360	0.680112	0.000081
 433	4.2984e+01	17.2182	39.276987	0.000189	1.885084	0.638684	0.000076
 434	4.3084e+01	17.2808	39.354790	0.000195	1.946222	0.659398	0.000078
 435	4.3183e+01	17.2968	39.437480	0.000207	2.068498	0.700826	0.000083
 436	4.3282e+01	17.3498	39.519356	0.000205	2.048118	0.693921	0.000082
 437	4.3382e+01	17.3706	39.596344	0.000193	1.925843	0.652493	0.000077
 438	4.3481e+01	17.4236	39.682293	0.000215	2.150015	0.728445	0.000086
 439	4.3581e+01	17.4701	39.763762	0.000204	2.037929	0.690469	0.000082
 440	4.3681e+01	17.5262	39.846045	0.000206	2.058308	0.697374	0.000083
 441	4.3780e+01	17.5391	39.927106	0.000203	2.027739	0.687017	0.000081
 442	4.3880e+01	17.6177	40.003279	0.000191	1.905463	0.645588	0.000077
 443	4.3979e+01	17.6225	40.087192	0.000210	2.099066	0.711183	0.000084
 444	4.4078e+01	17.6674	40.163365	0.000191	1.905463	0.645588	0.000077
 445	4.4178e+01	17.7027	40.244426	0.000203	2.027739	0.687017	0.000081
 446	4.4278e+01	17.7171	40.321006	0.000192	1.915653	0.649041	0.000077
 447	4.4377e+01	17.7733	40.398809	0.000195	1.946222	0.659398	0.000078
 448	4.4477e+01	17.8054	40.477833	0.000198	1.976791	0.669755	0.000079
 449	4.4576e+01	17.8808	40.557672	0.000200	1.997170	0.676660	0.000080
 450	4.4675e+01	17.9048	40.630179	0.000181	1.813756	0.614517	0.000073
 451	4.4775e+01	17.9289	40.707167	0.000193	1.925843	0.652493	0.000077
 452	4.4874e+01	17.9722	40.784969	0.000195	1.946222	0.659398	0.000078
 453	4.4974e+01	18.0011	40.861957	0.000193	1.925843	0.652493	0.000077
 454	4.5074e+01	18.0524	40.940981	0.000198	1.976791	0.669755	0.000079
 455	4.5173e+01	18.0877	41.020006	0.000198	1.976791	0.669755	0.000079
 456	4.5273e+01	18.1407	41.093328	0.000183	1.834136	0.621422	0.000074
 457	4.5372e+01	18.1824	41.174796	0.000204	2.037929	0.690469	0.000082
 458	4.5471e+01	18.2305	41.245266	0.000176	1.762808	0.597256	0.000071
 459	4.5571e+01	18.2562	41.321847	0.000192	1.915653	0.649041	0.000077
 460	4.5670e+01	18.3235	41.400057	0.000196	1.956411	0.662850	0.000079
 461	4.5770e+01	18.3428	41.480303	0.000201	2.007360	0.680112	0.000081
 462	4.5870e+01	18.3717	41.556069	0.000190	1.895274	0.642136	0.000076
 463	4.5969e+01	18.4086	41.637945	0.000205	2.048118	0.693921	0.000082
 464	4.6069e+01	18.4599	41.710452	0.000181	1.813756	0.614517	0.000073
 465	4.6168e+01	18.5241	41.789069	0.000197	1.966601	0.666302	0.000079
 466	4.6267e+01	18.5578	41.870130	0.000203	2.027739	0.687017	0.000081
 467	4.6367e+01	18.6011	41.947118	0.000193	1.925843	0.652493	0.000077
 468	4.6467e+01	18.6300	42.020439	0.000183	1.834136	0.621422	0.000074
 469	4.6566e+01	18.6620	42.096205	0.000190	1.895274	0.642136	0.000076
 470	4.6666e+01	18.7102	42.177266	0.000203	2.027739	0.687017	0.000081
 471	4.6765e+01	18.7743	42.250995	0.000184	1.844325	0.624874	0.000074
 472	4.6864e+01	18.7631	42.326354	-0.000189	-1.885084	-0.638684	0.000076
 473	4.6964e+01	18.8080	42.402934	0.000192	1.915653	0.649041	0.000077
 474	4.7063e+01	18.8674	42.485217	0.000206	2.058308	0.697374	0.000083
 475	4.7163e+01	18.8898	42.559761	0.000186	1.864705	0.631779	0.000075
 476	4.7263e+01	18.9380	42.638785	0.000198	1.976791	0.669755	0.000079
 477	4.7362e+01	18.9797	42.710885	0.000180	1.803567	0.611065	0.000072
 478	4.7462e+01	19.0150	42.794390	0.000209	2.088877	0.707731	0.000084
 479	4.7561e+01	19.0727	42.869748	0.000189	1.885084	0.638684	0.000076
 480	4.7660e+01	19.0888	42.946329	0.000192	1.915653	0.649041	0.000077
 481	4.7760e+01	19.1594	43.017206	0.000177	1.772998	0.600708	0.000071
 482	4.7859e+01	19.1914	43.099490	0.000206	2.058308	0.697374	0.000083
 483	4.7959e+01	19.2107	43.173626	0.000185	1.854515	0.628327	0.000075
 484	4.8059e+01	19.2668	43.247355	0.000184	1.844325	0.624874	0.000074
 485	4.8158e+01	19.2989	43.322306	0.000187	1.874894	0.635231	0.000075
 486	4.8258e+01	19.3406	43.399701	0.000194	1.936032	0.655945	0.000078
 487	4.8357e+01	19.3695	43.473837	0.000185	1.854515	0.628327	0.000075
 488	4.8456e+01	19.4112	43.545937	0.000180	1.803567	0.611065	0.000072
 489	4.8556e+01	19.4529	43.622518	0.000192	1.915653	0.649041	0.000077
 490	4.8656e+01	19.5075	43.701135	0.000197	1.966601	0.666302	0.000079
 491	4.8755e+01	19.5347	43.776493	0.000189	1.885084	0.638684	0.000076
 492	4.8855e+01	19.5829	43.849407	0.000182	1.823946	0.617970	0.000073
 493	4.8954e+01	19.6117	43.927617	0.000196	1.956411	0.662850	0.000079
 494	4.9053e+01	19.6615	44.001753	0.000185	1.854515	0.628327	0.000075
 495	4.9153e+01	19.6887	44.085259	0.000209	2.088877	0.707731	0.000084
 496	4.9252e+01	19.7337	44.149619	0.000161	1.609964	0.545470	0.000065
 497	4.9352e+01	19.7625	44.227014	0.000194	1.936032	0.655945	0.000078
 498	4.9452e+01	19.8187	44.299521	0.000181	1.813756	0.614517	0.000073
 499	4.9551e+01	19.8524	44.376101	0.000192	1.915653	0.649041	0.000077
 500	4.9651e+01	19.8925	44.449423	0.000183	1.834136	0.621422	0.000074
 501	4.9750e+01	19.9470	44.530484	0.000203	2.027739	0.687017	0.000081
 502	4.9849e+01	19.9695	44.608694	0.000196	1.956411	0.662850	0.000079
 503	4.9949e+01	20.0128	44.683645	0.000187	1.874894	0.635231	0.000075
 504	5.0048e+01	19.9871	44.642503	0.000103	1.029154	0.348687	-0.000041
 505	5.0148e+01	19.9326	44.595659	0.000117	1.171809	0.397020	-0.000047
 506	5.0248e+01	19.8909	44.548814	0.000117	1.171809	0.397020	-0.000047
 507	5.0347e+01	19.8668	44.499933	0.000122	1.222757	0.414281	-0.000049
 508	5.0447e+01	19.8043	44.453904	0.000115	1.151430	0.390115	-0.000046
 509	5.0546e+01	19.7786	44.403393	0.000126	1.263516	0.428091	-0.000051
 510	5.0645e+01	19.7256	44.351661	0.000129	1.294085	0.438448	-0.000052
 511	5.0745e+01	19.7064	44.296262	0.000139	1.385791	0.469519	-0.000056
 512	5.0844e+01	19.6567	44.242086	0.000136	1.355223	0.459162	-0.000054
 513	5.0944e+01	19.6246	44.194834	0.000118	1.181999	0.400472	-0.000047
 514	5.1044e+01	19.5989	44.133732	0.000153	1.528446	0.517852	-0.000061
 515	5.1143e+01	19.5508	44.081593	0.000130	1.304274	0.441900	-0.000052
 516	5.1242e+01	19.4786	44.025379	0.000141	1.406171	0.476424	-0.000056
 517	5.1342e+01	19.4690	43.975276	0.000125	1.253326	0.424638	-0.000050
 518	5.1441e+01	19.4112	43.923136	0.000130	1.304274	0.441900	-0.000052
 519	5.1541e+01	19.3775	43.863257	0.000150	1.497878	0.507495	-0.000060
 520	5.1641e+01	19.3406	43.804192	0.000148	1.477498	0.500590	-0.000059
 521	5.1740e+01	19.2941	43.748386	0.000140	1.395981	0.472971	-0.000056
 522	5.1840e+01	19.2604	43.692988	0.000139	1.385791	0.469519	-0.000056
 523	5.1939e+01	19.2267	43.634330	0.000147	1.467309	0.497138	-0.000059
 524	5.2038e+01	19.1754	43.575673	0.000147	1.467309	0.497138	-0.000059
 525	5.2138e+01	19.1481	43.519867	0.000140	1.395981	0.472971	-0.000056
 526	5.2237e+01	19.1000	43.462432	0.000144	1.436740	0.486781	-0.000058
 527	5.2337e+01	19.0631	43.400516	0.000155	1.548826	0.524756	-0.000062
 528	5.2437e+01	19.0214	43.343895	0.000142	1.416360	0.479876	-0.000057
 529	5.2536e+01	18.9829	43.286460	0.000144	1.436740	0.486781	-0.000058
 530	5.2636e+01	18.9524	43.228617	0.000145	1.446929	0.490233	-0.000058
 531	5.2735e+01	18.9059	43.164664	0.000160	1.599774	0.542018	-0.000064
 532	5.2834e+01	18.8610	43.113339	0.000128	1.283895	0.434995	-0.000052
 533	5.2934e+01	18.8000	43.052645	0.000152	1.518257	0.514399	-0.000061
 534	5.3033e+01	18.7727	42.991137	0.000154	1.538636	0.521304	-0.000062
 535	5.3133e+01	18.7487	42.934109	0.000143	1.426550	0.483328	-0.000057
 536	5.3233e+01	18.7005	42.877488	0.000142	1.416360	0.479876	-0.000057
 537	5.3332e+01	18.6412	42.819645	0.000145	1.446929	0.490233	-0.000058
 538	5.3431e+01	18.6316	42.763432	0.000141	1.406171	0.476424	-0.000056
 539	5.3531e+01	18.6011	42.705997	0.000144	1.436740	0.486781	-0.000058
 540	5.3630e+01	18.5770	42.644081	0.000155	1.548826	0.524756	-0.000062
 541	5.3730e+01	18.5096	42.585831	0.000146	1.457119	0.493685	-0.000059
 542	5.3830e+01	18.4679	42.525951	0.000150	1.497878	0.507495	-0.000060
 543	5.3929e+01	18.4246	42.464035	0.000155	1.548826	0.524756	-0.000062
 544	5.4029e+01	18.3637	42.401712	0.000156	1.559015	0.528209	-0.000063
 545	5.4128e+01	18.3492	42.345906	0.000140	1.395981	0.472971	-0.000056
 546	5.4227e+01	18.2947	42.281953	0.000160	1.599774	0.542018	-0.000064
 547	5.4327e+01	18.2674	42.226147	0.000140	1.395981	0.472971	-0.000056
 548	5.4426e+01	18.2353	42.164639	0.000154	1.538636	0.521304	-0.000062
 549	5.4526e+01	18.1792	42.107203	0.000144	1.436740	0.486781	-0.000058
 550	5.4626e+01	18.1359	42.044880	0.000156	1.559015	0.528209	-0.000063
 551	5.4725e+01	18.1150	41.979705	0.000163	1.630343	0.552375	-0.000066
 552	5.4825e+01	18.0829	41.923899	0.000140	1.395981	0.472971	-0.000056
 553	5.4924e+01	18.0428	41.859539	0.000161	1.609964	0.545470	-0.000065
 554	5.5023e+01	17.9658	41.796808	0.000157	1.569205	0.531661	-0.000063
 555	5.5123e+01	17.9417	41.736929	0.000150	1.497878	0.507495	-0.000060
 556	5.5222e+01	17.8920	41.676235	0.000152	1.518257	0.514399	-0.000061
 557	5.5322e+01	17.8728	41.618799	0.000144	1.436740	0.486781	-0.000058
 558	5.5422e+01	17.8118	41.554847	0.000160	1.599774	0.542018	-0.000064
 559	5.5521e+01	17.7797	41.490487	0.000161	1.609964	0.545470	-0.000065
 560	5.5620e+01	17.7444	41.429385	0.000153	1.528446	0.517852	-0.000061
 561	5.5720e+01	17.7123	41.367876	0.000154	1.538636	0.521304	-0.000062
 562	5.5819e+01	17.6674	41.307997	0.000150	1.497878	0.507495	-0.000060
 563	5.5919e+01	17.6353	41.246488	0.000154	1.538636	0.521304	-0.000062
 564	5.6019e+01	17.5856	41.180092	0.000166	1.660912	0.562732	-0.000067
 565	5.6118e+01	17.5439	41.125915	0.000136	1.355223	0.459162	-0.000054
 566	5.6218e+01	17.4974	41.063592	0.000156	1.559015	0.528209	-0.000063
 567	5.6317e+01	17.4781	41.007786	0.000140	1.395981	0.472971	-0.000056
 568	5.6416e+01	17.4284	40.941389	0.000166	1.660912	0.562732	-0.000067
 569	5.6516e+01	17.3787	40.879065	0.000156	1.559015	0.528209	-0.000063
 570	5.6615e+01	17.3530	40.815927	0.000158	1.579395	0.535113	-0.000063
 571	5.6715e+01	17.3049	40.758492	0.000144	1.436740	0.486781	-0.000058
 572	5.6815e+01	17.2615	40.699427	0.000148	1.477498	0.500590	-0.000059
 573	5.6914e+01	17.2230	40.635067	0.000161	1.609964	0.545470	-0.000065
 574	5.7014e+01	17.1861	40.575188	0.000150	1.497878	0.507495	-0.000060
 575	5.7113e+01	17.1589	40.510013	0.000163	1.630343	0.552375	-0.000066
 576	5.7212e+01	17.1124	40.449726	0.000151	1.508067	0.510947	-0.000061
 577	5.7312e+01	17.0674	40.389032	0.000152	1.518257	0.514399	-0.000061
 578	5.7411e+01	17.0241	40.324265	0.000162	1.620153	0.548923	-0.000065
 579	5.7511e+01	16.9840	40.264793	0.000149	1.487688	0.504042	-0.000060
 580	5.7611e+01	16.9247	40.201655	0.000158	1.579395	0.535113	-0.000063
 581	5.7710e+01	16.9102	40.137702	0.000160	1.599774	0.542018	-0.000064
 582	5.7809e+01	16.8765	40.080674	0.000143	1.426550	0.483328	-0.000057
 583	5.7909e+01	16.8509	40.015907	0.000162	1.620153	0.548923	-0.000065
 584	5.8008e+01	16.7739	39.956435	0.000149	1.487688	0.504042	-0.000060
 585	5.8108e+01	16.7434	39.893704	0.000157	1.569205	0.531661	-0.000063
 586	5.8208e+01	16.7177	39.828122	0.000164	1.640533	0.555827	-0.000066
 587	5.8307e+01	16.6632	39.763762	0.000161	1.609964	0.545470	-0.000065
 588	5.8407e+01	16.6391	39.697365	0.000166	1.660912	0.562732	-0.000067
 589	5.8506e+01	16.5894	39.635856	0.000154	1.538636	0.521304	-0.000062
 590	5.8605e+01	16.5557	39.570274	0.000164	1.640533	0.555827	-0.000066
 591	5.8705e+01	16.4883	39.504284	0.000165	1.650722	0.559280	-0.000066
 592	5.8804e+01	16.4642	39.443590	0.000152	1.518257	0.514399	-0.000061
 593	5.8904e+01	16.4498	39.378415	0.000163	1.630343	0.552375	-0.000066
 594	5.9004e+01	16.3937	39.309575	0.000172	1.722050	0.583446	-0.000069
 595	5.9103e+01	16.3487	39.250103	0.000149	1.487688	0.504042	-0.000060
 596	5.9203e+01	16.3231	39.191445	0.000147	1.467309	0.497138	-0.000059
 597	5.9302e+01	16.2749	39.125863	0.000164	1.640533	0.555827	-0.000066
 598	5.9401e+01	16.2557	39.058652	0.000168	1.681291	0.569637	-0.000068
 599	5.9501e+01	16.2011	38.996735	0.000155	1.548826	0.524756	-0.000062
 600	5.9600e+01	16.1466	38.931968	0.000162	1.620153	0.548923	-0.000065
 601	5.9700e+01	16.1193	38.869645	0.000156	1.559015	0.528209	-0.000063
 602	5.9800e+01	16.0744	38.797952	0.000179	1.793377	0.607613	-0.000072
 603	5.9899e+01	16.0199	38.733185	0.000162	1.620153	0.548923	-0.000065
 604	5.9998e+01	15.9766	38.667195	0.000165	1.650722	0.559280	-0.000066
 605	6.0098e+01	15.9605	38.605687	0.000154	1.538636	0.521304	-0.000062
 606	6.0197e+01	15.9381	38.540512	0.000163	1.630343	0.552375	-0.000066
 607	6.0297e+01	15.8819	38.472486	0.000170	1.701670	0.576542	-0.000068
 608	6.0397e+01	15.8290	38.408533	0.000160	1.599774	0.542018	-0.000064
 609	6.0496e+01	15.7953	38.344173	0.000161	1.609964	0.545470	-0.000065
 610	6.0596e+01	15.7520	38.279813	0.000161	1.609964	0.545470	-0.000065
 611	6.0695e+01	15.7103	38.214230	0.000164	1.640533	0.555827	-0.000066
 612	6.0794e+01	15.6766	38.142131	0.000180	1.803567	0.611065	-0.000072
 613	6.0894e+01	15.6381	38.077363	0.000162	1.620153	0.548923	-0.000065
 614	6.0993e+01	15.5787	38.008930	0.000171	1.711860	0.579994	-0.000069
 615	6.1093e+01	15.5514	37.945384	0.000159	1.589584	0.538566	-0.000064
 616	6.1193e+01	15.5113	37.874099	0.000178	1.783188	0.604160	-0.000072
 617	6.1292e+01	15.4648	37.802814	0.000178	1.783188	0.604160	-0.000072
 618	6.1392e+01	15.4375	37.739676	0.000158	1.579395	0.535113	-0.000063
 619	6.1491e+01	15.4022	37.666762	0.000182	1.823946	0.617970	-0.000073
 620	6.1590e+01	15.3493	37.595884	0.000177	1.772998	0.600708	-0.000071
 621	6.1690e+01	15.3220	37.524600	0.000178	1.783188	0.604160	-0.000072
 622	6.1789e+01	15.2563	37.453722	0.000177	1.772998	0.600708	-0.000071
 623	6.1889e+01	15.2306	37.382030	0.000179	1.793377	0.607613	-0.000072
 624	6.1989e+01	15.2178	37.315225	0.000167	1.671101	0.566184	-0.000067
 625	6.2088e+01	15.1584	37.245163	0.000175	1.752619	0.593803	-0.000070
 626	6.2188e+01	15.1215	37.172248	0.000182	1.823946	0.617970	-0.000073
 627	6.2287e+01	15.0750	37.105444	0.000167	1.671101	0.566184	-0.000067
 628	6.2386e+01	15.0076	37.037418	0.000170	1.701670	0.576542	-0.000068
 629	6.2486e+01	14.9900	36.962874	0.000186	1.864705	0.631779	-0.000075
 630	6.2586e+01	14.9579	36.896070	0.000167	1.671101	0.566184	-0.000067
 631	6.2685e+01	14.9129	36.824785	0.000178	1.783188	0.604160	-0.000072
 632	6.2785e+01	14.8744	36.754315	0.000176	1.762808	0.597256	-0.000071
 633	6.2884e+01	14.8424	36.685474	0.000172	1.722050	0.583446	-0.000069
 634	6.2983e+01	14.8039	36.608079	0.000194	1.936032	0.655945	-0.000078
 635	6.3083e+01	14.7493	36.536386	0.000179	1.793377	0.607613	-0.000072
 636	6.3182e+01	14.7204	36.472434	0.000160	1.599774	0.542018	-0.000064
 637	6.3282e+01	14.6675	36.395039	0.000194	1.936032	0.655945	-0.000078
 638	6.3382e+01	14.6258	36.326605	0.000171	1.711860	0.579994	-0.000069
 639	6.3481e+01	14.6001	36.254913	0.000179	1.793377	0.607613	-0.000072
 640	6.3581e+01	14.5680	36.185665	0.000173	1.732239	0.586899	-0.000070
 641	6.3680e+01	14.5151	36.110306	0.000189	1.885084	0.638684	-0.000076
 642	6.3779e+01	14.4798	36.043502	0.000167	1.671101	0.566184	-0.000067
 643	6.3879e+01	14.4285	35.967736	0.000190	1.895274	0.642136	-0.000076
 644	6.3978e+01	14.3980	35.894007	0.000184	1.844325	0.624874	-0.000074
 645	6.4078e+01	14.3595	35.825574	0.000171	1.711860	0.579994	-0.000069
 646	6.4177e+01	14.3178	35.748179	0.000194	1.936032	0.655945	-0.000078
 647	6.4277e+01	14.2873	35.678523	0.000174	1.742429	0.590351	-0.000070
 648	6.4376e+01	14.2520	35.600721	0.000195	1.946222	0.659398	-0.000078
 649	6.4476e+01	14.1926	35.532694	0.000170	1.701670	0.576542	-0.000068
 650	6.4576e+01	14.1590	35.455707	0.000193	1.925843	0.652493	-0.000077
 651	6.4675e+01	14.1140	35.383200	0.000181	1.813756	0.614517	-0.000073
 652	6.4775e+01	14.0627	35.304175	0.000198	1.976791	0.669755	-0.000079
 653	6.4874e+01	14.0386	35.233705	0.000176	1.762808	0.597256	-0.000071
 654	6.4974e+01	13.9889	35.156310	0.000194	1.936032	0.655945	-0.000078
 655	6.5073e+01	13.9504	35.082988	0.000183	1.834136	0.621422	-0.000074
 656	6.5172e+01	13.9055	35.003149	0.000200	1.997170	0.676660	-0.000080
 657	6.5272e+01	13.8862	34.927383	0.000190	1.895274	0.642136	-0.000076
 658	6.5371e+01	13.8413	34.854469	0.000182	1.823946	0.617970	-0.000073
 659	6.5471e+01	13.8076	34.781962	0.000181	1.813756	0.614517	-0.000073
 660	6.5570e+01	13.7820	34.709455	0.000181	1.813756	0.614517	-0.000073
 661	6.5670e+01	13.7290	34.629209	0.000201	2.007360	0.680112	-0.000081
 662	6.5769e+01	13.6873	34.551406	0.000195	1.946222	0.659398	-0.000078
 663	6.5869e+01	13.6183	34.481343	0.000175	1.752619	0.593803	-0.000070
 664	6.5969e+01	13.6039	34.404763	0.000192	1.915653	0.649041	-0.000077
 665	6.6068e+01	13.5654	34.326553	0.000196	1.956411	0.662850	-0.000079
 666	6.6168e+01	13.5157	34.245085	0.000204	2.037929	0.690469	-0.000082
 667	6.6267e+01	13.4836	34.177466	0.000169	1.691481	0.573089	-0.000068
 668	6.6367e+01	13.4290	34.098034	0.000199	1.986980	0.673207	-0.000080
 669	6.6466e+01	13.3889	34.023490	0.000186	1.864705	0.631779	-0.000075
 670	6.6566e+01	13.3681	33.945688	0.000195	1.946222	0.659398	-0.000078
 671	6.6665e+01	13.3232	33.871144	0.000186	1.864705	0.631779	-0.000075
 672	6.6764e+01	13.2911	33.803118	0.000170	1.701670	0.576542	-0.000068
 673	6.6864e+01	13.2349	33.721242	0.000205	2.048118	0.693921	-0.000082
 674	6.6963e+01	13.1804	33.645884	0.000189	1.885084	0.638684	-0.000076
 675	6.7063e+01	13.1724	33.571747	0.000185	1.854515	0.628327	-0.000075
 676	6.7162e+01	13.0937	33.500055	0.000179	1.793377	0.607613	-0.000072
 677	6.7262e+01	13.0681	33.418179	0.000205	2.048118	0.693921	-0.000082
 678	6.7362e+01	13.0408	33.337933	0.000201	2.007360	0.680112	-0.000081
 679	6.7461e+01	12.9975	33.261352	0.000192	1.915653	0.649041	-0.000077
 680	6.7561e+01	12.9638	33.190067	0.000178	1.783188	0.604160	-0.000072
 681	6.7660e+01	12.9285	33.116338	0.000184	1.844325	0.624874	-0.000074
 682	6.7760e+01	12.8916	33.039351	0.000193	1.925843	0.652493	-0.000077
 683	6.7859e+01	12.8371	32.964400	0.000187	1.874894	0.635231	-0.000075
 684	6.7959e+01	12.7905	32.893115	0.000178	1.783188	0.604160	-0.000072
 685	6.8058e+01	12.7601	32.814498	0.000197	1.966601	0.666302	-0.000079
 686	6.8157e+01	12.7328	32.734251	0.000201	2.007360	0.680112	-0.000081
 687	6.8257e+01	12.6654	32.653190	0.000203	2.027739	0.687017	-0.000081
 688	6.8356e+01	12.6430	32.580683	0.000181	1.813756	0.614517	-0.000073
 689	6.8456e+01	12.6093	32.503695	0.000193	1.925843	0.652493	-0.000077
 690	6.8555e+01	12.5611	32.428744	0.000187	1.874894	0.635231	-0.000075
 691	6.8655e+01	12.5403	32.345646	0.000208	2.078687	0.704278	-0.000084
 692	6.8754e+01	12.4986	32.272732	0.000182	1.823946	0.617970	-0.000073
 693	6.8854e+01	12.4472	32.193708	0.000198	1.976791	0.669755	-0.000079
 694	6.8954e+01	12.4071	32.118757	0.000187	1.874894	0.635231	-0.000075
 695	6.9053e+01	12.3526	32.044620	0.000185	1.854515	0.628327	-0.000075
 696	6.9153e+01	12.3301	31.959486	0.000213	2.129635	0.721540	-0.000086
 697	6.9252e+01	12.2900	31.890237	0.000173	1.732239	0.586899	-0.000070
 698	6.9352e+01	12.2371	31.812435	0.000195	1.946222	0.659398	-0.000078
 699	6.9451e+01	12.2146	31.739113	0.000183	1.834136	0.621422	-0.000074
 700	6.9550e+01	12.1906	31.659681	0.000199	1.986980	0.673207	-0.000080
 701	6.9650e+01	12.1200	31.582694	0.000193	1.925843	0.652493	-0.000077
 702	6.9749e+01	12.0767	31.504891	0.000195	1.946222	0.659398	-0.000078
 703	6.9849e+01	12.0494	31.432384	0.000181	1.813756	0.614517	-0.000073
 704	6.9948e+01	11.9916	31.355804	0.000192	1.915653	0.649041	-0.000077
 705	7.0048e+01	11.9868	31.278816	0.000193	1.925843	0.652493	-0.000077
 706	7.0147e+01	11.9211	31.206309	0.000181	1.813756	0.614517	-0.000073
 707	7.0247e+01	11.8922	31.132173	0.000185	1.854515	0.628327	-0.000075
 708	7.0347e+01	11.8537	31.049482	0.000207	2.068498	0.700826	-0.000083
 709	7.0446e+01	11.7895	30.975753	0.000184	1.844325	0.624874	-0.000074
 710	7.0546e+01	11.7606	30.904061	0.000179	1.793377	0.607613	-0.000072
 711	7.0645e+01	11.7221	30.827481	0.000192	1.915653	0.649041	-0.000077
 712	7.0745e+01	11.6836	30.748049	0.000199	1.986980	0.673207	-0.000080
 713	7.0844e+01	11.6724	30.677171	0.000177	1.772998	0.600708	-0.000071
 714	7.0944e+01	11.6018	30.594888	0.000206	2.058308	0.697374	-0.000083
 715	7.1043e+01	11.5794	30.517086	0.000195	1.946222	0.659398	-0.000078
 716	7.1142e+01	11.5216	30.442949	0.000185	1.854515	0.628327	-0.000075
 717	7.1242e+01	11.4847	30.363517	0.000199	1.986980	0.673207	-0.000080
 718	7.1341e+01	11.4510	30.284900	0.000197	1.966601	0.666302	-0.000079
 719	7.1441e+01	11.3933	30.214430	0.000176	1.762808	0.597256	-0.000071
 720	7.1540e+01	11.3740	30.136220	0.000196	1.956411	0.662850	-0.000079
 721	7.1640e+01	11.3435	30.061677	0.000186	1.864705	0.631779	-0.000075
 722	7.1740e+01	11.3002	29.983060	0.000197	1.966601	0.666302	-0.000079
 723	7.1839e+01	11.2489	29.904035	0.000198	1.976791	0.669755	-0.000079
 724	7.1939e+01	11.2232	29.833565	0.000176	1.762808	0.597256	-0.000071
 725	7.2038e+01	11.1639	29.749652	0.000210	2.099066	0.711183	-0.000084
 726	7.2138e+01	11.1125	29.673479	0.000191	1.905463	0.645588	-0.000077
 727	7.2237e+01	11.0949	29.593640	0.000200	1.997170	0.676660	-0.000080
 728	7.2337e+01	11.0387	29.521948	0.000179	1.793377	0.607613	-0.000072
 729	7.2436e+01	10.9938	29.440072	0.000205	2.048118	0.693921	-0.000082
 730	7.2535e+01	10.9601	29.363084	0.000193	1.925843	0.652493	-0.000077
 731	7.2635e+01	10.9280	29.288948	0.000185	1.854515	0.628327	-0.000075
 732	7.2734e+01	10.8943	29.209516	0.000199	1.986980	0.673207	-0.000080
 733	7.2834e+01	10.8655	29.135787	0.000184	1.844325	0.624874	-0.000074
 734	7.2933e+01	10.8045	29.056763	0.000198	1.976791	0.669755	-0.000079
 735	7.3033e+01	10.7788	28.978553	0.000196	1.956411	0.662850	-0.000079
 736	7.3132e+01	10.7371	28.900750	0.000195	1.946222	0.659398	-0.000078
 737	7.3232e+01	10.6986	28.827836	0.000182	1.823946	0.617970	-0.000073
 738	7.3332e+01	10.6537	28.752478	0.000189	1.885084	0.638684	-0.000076
 739	7.3431e+01	10.6120	28.673861	0.000197	1.966601	0.666302	-0.000079
 740	7.3531e+01	10.5623	28.600132	0.000184	1.844325	0.624874	-0.000074
 741	7.3630e+01	10.5366	28.521107	0.000198	1.976791	0.669755	-0.000079
 742	7.3730e+01	10.5013	28.443712	0.000194	1.936032	0.655945	-0.000078
 743	7.3829e+01	10.4516	28.365502	0.000196	1.956411	0.662850	-0.000079
 744	7.3928e+01	10.4403	28.290959	0.000186	1.864705	0.631779	-0.000075
 745	7.4028e+01	10.3682	28.210305	0.000202	2.017549	0.683564	-0.000081
 746	7.4127e+01	10.3329	28.135354	0.000187	1.874894	0.635231	-0.000075
 747	7.4227e+01	10.2944	28.058773	0.000192	1.915653	0.649041	-0.000077
 748	7.4326e+01	10.2543	27.974453	0.000211	2.109256	0.714635	-0.000085
 749	7.4426e+01	10.2125	27.901132	0.000183	1.834136	0.621422	-0.000074
 750	7.4525e+01	10.1869	27.827810	0.000183	1.834136	0.621422	-0.000074
 751	7.4625e+01	10.1179	27.747971	0.000200	1.997170	0.676660	-0.000080
 752	7.4725e+01	10.0874	27.667317	0.000202	2.017549	0.683564	-0.000081
 753	7.4824e+01	10.0489	27.590737	0.000192	1.915653	0.649041	-0.000077
 754	7.4924e+01	10.0200	27.509676	0.000203	2.027739	0.687017	-0.000081
 755	7.5023e+01	9.9912	27.435539	0.000185	1.854515	0.628327	-0.000075
 756	7.5123e+01	9.9511	27.351219	0.000211	2.109256	0.714635	-0.000085
 757	7.5222e+01	9.8997	27.269343	0.000205	2.048118	0.693921	-0.000082
 758	7.5322e+01	9.8548	27.181765	0.000219	2.190773	0.742254	-0.000088
 759	7.5421e+01	9.8131	27.114146	0.000169	1.691481	0.573089	-0.000068
 760	7.5520e+01	9.7730	27.027382	0.000217	2.170394	0.735349	-0.000087
 761	7.5620e+01	9.7329	26.947135	0.000201	2.007360	0.680112	-0.000081
 762	7.5719e+01	9.6880	26.873814	0.000183	1.834136	0.621422	-0.000074
 763	7.5819e+01	9.6543	26.798455	0.000189	1.885084	0.638684	-0.000076
 764	7.5918e+01	9.6190	26.711691	0.000217	2.170394	0.735349	-0.000087
 765	7.6018e+01	9.5773	26.636740	0.000187	1.874894	0.635231	-0.000075
 766	7.6118e+01	9.5532	26.552421	0.000211	2.109256	0.714635	-0.000085
 767	7.6217e+01	9.4922	26.470952	0.000204	2.037929	0.690469	-0.000082
 768	7.6317e+01	9.4505	26.393964	0.000193	1.925843	0.652493	-0.000077
 769	7.6416e+01	9.4265	26.309237	0.000212	2.119446	0.718088	-0.000085
 770	7.6516e+01	9.3719	26.227769	0.000204	2.037929	0.690469	-0.000082
 771	7.6615e+01	9.3334	26.148337	0.000199	1.986980	0.673207	-0.000080
 772	7.6715e+01	9.3174	26.067276	0.000203	2.027739	0.687017	-0.000081
 773	7.6814e+01	9.2404	25.987844	0.000199	1.986980	0.673207	-0.000080
 774	7.6913e+01	9.2179	25.905153	0.000207	2.068498	0.700826	-0.000083
 775	7.7013e+01	9.1714	25.823277	0.000205	2.048118	0.693921	-0.000082
 776	7.7112e+01	9.1329	25.743031	0.000201	2.007360	0.680112	-0.000081
 777	7.7212e+01	9.0832	25.662784	0.000201	2.007360	0.680112	-0.000081
 778	7.7311e+01	9.0495	25.579279	0.000209	2.088877	0.707731	-0.000084
 779	7.7411e+01	9.0078	25.498218	0.000203	2.027739	0.687017	-0.000081
 780	7.7510e+01	8.9725	25.415935	0.000206	2.058308	0.697374	-0.000083
 781	7.7610e+01	8.9404	25.327541	0.000221	2.211153	0.749159	-0.000089
 782	7.7710e+01	8.8987	25.247702	0.000200	1.997170	0.676660	-0.000080
 783	7.7809e+01	8.8506	25.158494	0.000223	2.231532	0.756063	-0.000090
 784	7.7909e+01	8.8265	25.074174	0.000211	2.109256	0.714635	-0.000085
 785	7.8008e+01	8.7752	24.987818	0.000216	2.160204	0.731897	-0.000087
 786	7.8108e+01	8.7383	24.905942	0.000205	2.048118	0.693921	-0.000082
 787	7.8207e+01	8.6885	24.817956	0.000220	2.200963	0.745706	-0.000088
 788	7.8306e+01	8.6308	24.731192	0.000217	2.170394	0.735349	-0.000087
 789	7.8406e+01	8.6051	24.643206	0.000220	2.200963	0.745706	-0.000088
 790	7.8505e+01	8.6003	24.561737	0.000204	2.037929	0.690469	-0.000082
 791	7.8605e+01	8.5409	24.468456	0.000233	2.333428	0.790587	-0.000094
 792	7.8704e+01	8.4992	24.387802	0.000202	2.017549	0.683564	-0.000081
 793	7.8804e+01	8.4639	24.299002	0.000222	2.221342	0.752611	-0.000089
 794	7.8903e+01	8.4158	24.213867	0.000213	2.129635	0.721540	-0.000086
 795	7.9003e+01	8.3982	24.122622	0.000228	2.282480	0.773325	-0.000092
 796	7.9103e+01	8.3196	24.040339	0.000206	2.058308	0.697374	-0.000083
 797	7.9202e+01	8.3035	23.957648	0.000207	2.068498	0.700826	-0.000083
 798	7.9302e+01	8.2522	23.863960	0.000234	2.343618	0.794039	-0.000094
 799	7.9401e+01	8.2281	23.776788	0.000218	2.180584	0.738802	-0.000088
 800	7.9501e+01	8.1880	23.688395	0.000221	2.211153	0.749159	-0.000089
 801	7.9600e+01	8.1335	23.602853	0.000214	2.139825	0.724992	-0.000086
 802	7.9700e+01	8.0901	23.514460	0.000221	2.211153	0.749159	-0.000089
 803	7.9799e+01	8.0388	23.430547	0.000210	2.099066	0.711183	-0.000084
 804	7.9898e+01	8.0324	23.337266	0.000233	2.333428	0.790587	-0.000094
 805	7.9998e+01	7.9795	23.250909	0.000216	2.160204	0.731897	-0.000087
 806	8.0097e+01	7.9506	23.155998	0.000237	2.374187	0.804396	-0.000095
 807	8.0197e+01	7.9105	23.074937	0.000203	2.027739	0.687017	-0.000081
 808	8.0296e+01	7.8527	22.984100	0.000227	2.272290	0.769873	-0.000091
 809	8.0396e+01	7.8206	22.896928	0.000218	2.180584	0.738802	-0.000088
 810	8.0496e+01	7.7853	22.805684	0.000228	2.282480	0.773325	-0.000092
 811	8.0595e+01	7.7356	22.717290	0.000221	2.211153	0.749159	-0.000089
 812	8.0695e+01	7.7019	22.632971	0.000211	2.109256	0.714635	-0.000085
 813	8.0794e+01	7.6763	22.536838	0.000240	2.404756	0.814753	-0.000097
 814	8.0894e+01	7.6121	22.446815	0.000225	2.251911	0.762968	-0.000090
 815	8.0993e+01	7.5752	22.358422	0.000221	2.211153	0.749159	-0.000089
 816	8.1093e+01	7.5511	22.265548	0.000232	2.323239	0.787135	-0.000093
 817	8.1192e+01	7.4982	22.175932	0.000224	2.241721	0.759516	-0.000090
 818	8.1291e+01	7.4693	22.084280	0.000229	2.292670	0.776778	-0.000092
 819	8.1391e+01	7.4340	21.993443	0.000227	2.272290	0.769873	-0.000091
 820	8.1490e+01	7.3763	21.895273	0.000246	2.455704	0.832015	-0.000099
 821	8.1590e+01	7.3394	21.805658	0.000224	2.241721	0.759516	-0.000090
 822	8.1689e+01	7.2928	21.712376	0.000233	2.333428	0.790587	-0.000094
 823	8.1789e+01	7.2752	21.621946	0.000226	2.262101	0.766420	-0.000091
 824	8.1888e+01	7.2239	21.525813	0.000240	2.404756	0.814753	-0.000097
 825	8.1988e+01	7.1934	21.435383	0.000226	2.262101	0.766420	-0.000091
 826	8.2088e+01	7.1420	21.343324	0.000230	2.302859	0.780230	-0.000093
 827	8.2187e+01	7.1019	21.245969	0.000244	2.435325	0.825110	-0.000098
 828	8.2287e+01	7.0506	21.153910	0.000230	2.302859	0.780230	-0.000093
 829	8.2386e+01	7.0217	21.062665	0.000228	2.282480	0.773325	-0.000092
 830	8.2486e+01	6.9848	20.970198	0.000231	2.313049	0.783682	-0.000093
 831	8.2585e+01	6.9527	20.872436	0.000245	2.445514	0.828563	-0.000098
 832	8.2684e+01	6.9158	20.782413	0.000225	2.251911	0.762968	-0.000090
 833	8.2784e+01	6.8597	20.685058	0.000244	2.435325	0.825110	-0.000098
 834	8.2883e+01	6.8244	20.594221	0.000227	2.272290	0.769873	-0.000091
 835	8.2983e+01	6.8036	20.493200	0.000253	2.527031	0.856181	-0.000102
 836	8.3082e+01	6.7410	20.406436	0.000217	2.170394	0.735349	-0.000087
 837	8.3182e+01	6.6880	20.309896	0.000241	2.414945	0.818206	-0.000097
 838	8.3281e+01	6.6832	20.212541	0.000244	2.435325	0.825110	-0.000098
 839	8.3381e+01	6.6287	20.121704	0.000227	2.272290	0.769873	-0.000091
 840	8.3481e+01	6.6094	20.031681	0.000225	2.251911	0.762968	-0.000090
 841	8.3580e+01	6.5405	19.933104	0.000247	2.465894	0.835467	-0.000099
 842	8.3680e+01	6.5100	19.839008	0.000235	2.353808	0.797492	-0.000095
 843	8.3779e+01	6.4747	19.747356	0.000229	2.292670	0.776778	-0.000092
 844	8.3879e+01	6.4217	19.660999	0.000216	2.160204	0.731897	-0.000087
 845	8.3978e+01	6.3784	19.560386	0.000252	2.516842	0.852729	-0.000101
 846	8.4078e+01	6.3399	19.469141	0.000228	2.282480	0.773325	-0.000092
 847	8.4177e+01	6.3159	19.371786	0.000244	2.435325	0.825110	-0.000098
 848	8.4276e+01	6.2661	19.280134	0.000229	2.292670	0.776778	-0.000092
 849	8.4376e+01	6.2437	19.180335	0.000250	2.496463	0.845824	-0.000100
 850	8.4475e+01	6.1988	19.078092	0.000256	2.557600	0.866538	-0.000103
 851	8.4575e+01	6.1570	18.991735	0.000216	2.160204	0.731897	-0.000087
 852	8.4674e+01	6.1298	18.893566	0.000246	2.455704	0.832015	-0.000099
 853	8.4774e+01	6.0608	18.797433	0.000240	2.404756	0.814753	-0.000097
 854	8.4874e+01	6.0255	18.698856	0.000247	2.465894	0.835467	-0.000099
 855	8.4973e+01	5.9870	18.607611	0.000228	2.282480	0.773325	-0.000092
 856	8.5073e+01	5.9549	18.506998	0.000252	2.516842	0.852729	-0.000101
 857	8.5172e+01	5.9148	18.410050	0.000243	2.425135	0.821658	-0.000097
 858	8.5272e+01	5.8715	18.310659	0.000249	2.486273	0.842372	-0.000100
 859	8.5371e+01	5.8314	18.214526	0.000240	2.404756	0.814753	-0.000097
 860	8.5471e+01	5.7704	18.117986	0.000241	2.414945	0.818206	-0.000097
 861	8.5570e+01	5.7560	18.024704	0.000233	2.333428	0.790587	-0.000094
 862	8.5669e+01	5.7271	17.926535	0.000246	2.455704	0.832015	-0.000099
 863	8.5769e+01	5.6629	17.829587	0.000243	2.425135	0.821658	-0.000097
 864	8.5868e+01	5.6341	17.727344	0.000256	2.557600	0.866538	-0.000103
 865	8.5968e+01	5.5763	17.639766	0.000219	2.190773	0.742254	-0.000088
 866	8.6067e+01	5.5571	17.540781	0.000248	2.476083	0.838920	-0.000099
 867	8.6167e+01	5.4929	17.443019	0.000245	2.445514	0.828563	-0.000098
 868	8.6266e+01	5.4849	17.347294	0.000239	2.394566	0.811301	-0.000096
 869	8.6366e+01	5.4303	17.258086	0.000223	2.231532	0.756063	-0.000090
 870	8.6466e+01	5.3854	17.152991	0.000263	2.628928	0.890705	-0.000106
 871	8.6565e+01	5.3549	17.059302	0.000234	2.343618	0.794039	-0.000094
 872	8.6665e+01	5.3277	16.960725	0.000247	2.465894	0.835467	-0.000099
 873	8.6764e+01	5.2747	16.868259	0.000231	2.313049	0.783682	-0.000093
 874	8.6864e+01	5.2298	16.773755	0.000236	2.363997	0.800944	-0.000095
 875	8.6963e+01	5.1801	16.670290	0.000259	2.588169	0.876895	-0.000104
 876	8.7063e+01	5.1368	16.572528	0.000245	2.445514	0.828563	-0.000098
 877	8.7162e+01	5.1127	16.480061	0.000231	2.313049	0.783682	-0.000093
 878	8.7261e+01	5.0822	16.382706	0.000244	2.435325	0.825110	-0.000098
 879	8.7361e+01	5.0453	16.284944	0.000245	2.445514	0.828563	-0.000098
 880	8.7460e+01	4.9956	16.189219	0.000239	2.394566	0.811301	-0.000096
 881	8.7560e+01	4.9587	16.087383	0.000255	2.547411	0.863086	-0.000102
 882	8.7659e+01	4.9330	15.995324	0.000230	2.302859	0.780230	-0.000093
 883	8.7759e+01	4.8737	15.894303	0.000253	2.527031	0.856181	-0.000102
 884	8.7859e+01	4.8352	15.794096	0.000251	2.506652	0.849277	-0.000101
 885	8.7958e+01	4.7822	15.694297	0.000250	2.496463	0.845824	-0.000100
 886	8.8058e+01	4.7630	15.598572	0.000239	2.394566	0.811301	-0.000096
 887	8.8157e+01	4.7052	15.499180	0.000249	2.486273	0.842372	-0.000100
 888	8.8257e+01	4.6443	15.403048	0.000240	2.404756	0.814753	-0.000097
 889	8.8356e+01	4.6426	15.301619	0.000254	2.537221	0.859634	-0.000102
 890	8.8456e+01	4.5961	15.203857	0.000245	2.445514	0.828563	-0.000098
 891	8.8555e+01	4.5705	15.104465	0.000249	2.486273	0.842372	-0.000100
 892	8.8654e+01	4.5336	15.005481	0.000248	2.476083	0.838920	-0.000099
 893	8.8754e+01	4.4694	14.904868	0.000252	2.516842	0.852729	-0.000101
 894	8.8853e+01	4.4389	14.804661	0.000251	2.506652	0.849277	-0.000101
 895	8.8953e+01	4.3892	14.707714	0.000243	2.425135	0.821658	-0.000097
 896	8.9052e+01	4.3523	14.610766	0.000243	2.425135	0.821658	-0.000097
 897	8.9152e+01	4.3218	14.504043	0.000267	2.669686	0.904514	-0.000107
 898	8.9251e+01	4.2753	14.408724	0.000238	2.384376	0.807849	-0.000096
 899	8.9351e+01	4.2432	14.302001	0.000267	2.669686	0.904514	-0.000107
 900	8.9451e+01	4.1887	14.203424	0.000247	2.465894	0.835467	-0.000099
 901	8.9550e+01	4.1518	14.101995	0.000254	2.537221	0.859634	-0.000102
 902	8.9650e+01	4.1100	14.002604	0.000249	2.486273	0.842372	-0.000100
 903	8.9749e+01	4.0699	13.903620	0.000248	2.476083	0.838920	-0.000099
 904	8.9849e+01	4.0587	13.801784	0.000255	2.547411	0.863086	-0.000102
 905	8.9948e+01	3.9801	13.707688	0.000235	2.353808	0.797492	-0.000095
 906	9.0047e+01	3.9528	13.600964	0.000267	2.669686	0.904514	-0.000107
 907	9.0147e+01	3.9207	13.500351	0.000252	2.516842	0.852729	-0.000101
 908	9.0246e+01	3.8694	13.401774	0.000247	2.465894	0.835467	-0.000099
 909	9.0346e+01	3.8470	13.303197	0.000247	2.465894	0.835467	-0.000099
 910	9.0445e+01	3.8020	13.196473	0.000267	2.669686	0.904514	-0.000107
 911	9.0545e+01	3.7523	13.098303	0.000246	2.455704	0.832015	-0.000099
 912	9.0644e+01	3.7234	12.989950	0.000271	2.710445	0.918324	-0.000109
 913	9.0744e+01	3.6689	12.895854	0.000235	2.353808	0.797492	-0.000095
 914	9.0844e+01	3.6432	12.789945	0.000265	2.649307	0.897610	-0.000106
 915	9.0943e+01	3.6031	12.687702	0.000256	2.557600	0.866538	-0.000103
 916	9.1043e+01	3.5710	12.584237	0.000259	2.588169	0.876895	-0.000104
 917	9.1142e+01	3.5085	12.486882	0.000244	2.435325	0.825110	-0.000098
 918	9.1242e+01	3.4908	12.378936	0.000270	2.700255	0.914871	-0.000108
 919	9.1341e+01	3.4635	12.278323	0.000252	2.516842	0.852729	-0.000101
 920	9.1441e+01	3.3930	12.172821	0.000264	2.639118	0.894157	-0.000106
 921	9.1540e+01	3.3609	12.067727	0.000263	2.628928	0.890705	-0.000106
 922	9.1639e+01	3.3159	11.961410	0.000266	2.659497	0.901062	-0.000107
 923	9.1739e+01	3.2807	11.858353	0.000258	2.577980	0.873443	-0.000104
 924	9.1838e+01	3.2550	11.747963	0.000276	2.761393	0.935585	-0.000111
 925	9.1938e+01	3.1860	11.641646	0.000266	2.659497	0.901062	-0.000107
 926	9.2037e+01	3.1635	11.536959	0.000262	2.618738	0.887253	-0.000105
 927	9.2137e+01	3.1250	11.428606	0.000271	2.710445	0.918324	-0.000109
 928	9.2237e+01	3.0705	11.320661	0.000270	2.700255	0.914871	-0.000108
 929	9.2336e+01	3.0352	11.214344	0.000266	2.659497	0.901062	-0.000107
 930	9.2436e+01	3.0063	11.108435	0.000265	2.649307	0.897610	-0.000106
 931	9.2535e+01	2.9903	10.999267	0.000273	2.730824	0.925228	-0.000110
 932	9.2635e+01	2.9181	10.899061	0.000251	2.506652	0.849277	-0.000101
 933	9.2734e+01	2.8876	10.789078	0.000275	2.751204	0.932133	-0.000111
 934	9.2834e+01	2.8459	10.677059	0.000280	2.802152	0.949395	-0.000113
 935	9.2933e+01	2.8138	10.572372	0.000262	2.618738	0.887253	-0.000105
 936	9.3032e+01	2.7625	10.463612	0.000272	2.720635	0.921776	-0.000109
 937	9.3132e+01	2.7047	10.349963	0.000284	2.842910	0.963204	-0.000114
 938	9.3231e+01	2.6903	10.243239	0.000267	2.669686	0.904514	-0.000107
 939	9.3331e+01	2.6374	10.133664	0.000274	2.741014	0.928681	-0.000110
 940	9.3430e+01	2.6101	10.023274	0.000276	2.761393	0.935585	-0.000111
 941	9.3530e+01	2.5539	9.914107	0.000273	2.730824	0.925228	-0.000110
 942	9.3629e+01	2.5219	9.802087	0.000280	2.802152	0.949395	-0.000113
 943	9.3729e+01	2.4946	9.691698	0.000276	2.761393	0.935585	-0.000111
 944	9.3829e+01	2.4336	9.585381	0.000266	2.659497	0.901062	-0.000107
 945	9.3928e+01	2.3919	9.465215	0.000301	3.005945	1.018442	-0.000121
 946	9.4028e+01	2.3775	9.351159	0.000285	2.853100	0.966656	-0.000115
 947	9.4127e+01	2.3390	9.239955	0.000278	2.781773	0.942490	-0.000112
 948	9.4227e+01	2.3037	9.130380	0.000274	2.741014	0.928681	-0.000110
 949	9.4326e+01	2.2395	9.012658	0.000294	2.944807	0.997728	-0.000118
 950	9.4425e+01	2.1802	8.898602	0.000285	2.853100	0.966656	-0.000115
 951	9.4525e+01	2.1721	8.775992	0.000307	3.067083	1.039156	-0.000123
 952	9.4624e+01	2.1192	8.654604	0.000304	3.036514	1.028799	-0.000122
 953	9.4724e+01	2.0855	8.551546	0.000258	2.577980	0.873443	-0.000104
 954	9.4823e+01	2.0502	8.428936	0.000307	3.067083	1.039156	-0.000123
 955	9.4923e+01	1.9973	8.310806	0.000295	2.954996	1.001180	-0.000119
 956	9.5022e+01	1.9620	8.189418	0.000304	3.036514	1.028799	-0.000122
 957	9.5122e+01	1.9395	8.077399	0.000280	2.802152	0.949395	-0.000113
 958	9.5222e+01	1.8786	7.957233	0.000301	3.005945	1.018442	-0.000121
 959	9.5321e+01	1.8593	7.837882	0.000299	2.985565	1.011537	-0.000120
 960	9.5421e+01	1.8032	7.713235	0.000312	3.118031	1.056417	-0.000125
 961	9.5520e+01	1.7711	7.599179	0.000285	2.853100	0.966656	-0.000115
 962	9.5620e+01	1.7229	7.474939	0.000311	3.107841	1.052965	-0.000125
 963	9.5719e+01	1.7021	7.357625	0.000293	2.934617	0.994275	-0.000118
 964	9.5819e+01	1.6524	7.237051	0.000302	3.016134	1.021894	-0.000121
 965	9.5918e+01	1.5914	7.111183	0.000315	3.148600	1.066774	-0.000127
 966	9.6017e+01	1.5754	6.993868	0.000293	2.934617	0.994275	-0.000118
 967	9.6117e+01	1.5240	6.875331	0.000297	2.965186	1.004632	-0.000119
 968	9.6216e+01	1.4823	6.750277	0.000313	3.128220	1.059870	-0.000126
 969	9.6316e+01	1.4534	6.626038	0.000311	3.107841	1.052965	-0.000125
 970	9.6415e+01	1.4101	6.503428	0.000307	3.067083	1.039156	-0.000123
 971	9.6515e+01	1.3989	6.381225	0.000306	3.056893	1.035703	-0.000123
 972	9.6615e+01	1.3379	6.257800	0.000309	3.087462	1.046060	-0.000124
 973	9.6714e+01	1.2770	6.128265	0.000324	3.240306	1.097846	-0.000130
 974	9.6814e+01	1.2304	6.003618	0.000312	3.118031	1.056417	-0.000125
 975	9.6913e+01	1.2176	5.881823	0.000305	3.046703	1.032251	-0.000122
 976	9.7013e+01	1.1711	5.758805	0.000308	3.077272	1.042608	-0.000124
 977	9.7112e+01	1.1374	5.625197	0.000334	3.342203	1.132369	-0.000134
 978	9.7212e+01	1.0941	5.501772	0.000309	3.087462	1.046060	-0.000124
 979	9.7311e+01	1.0524	5.375089	0.000317	3.168979	1.073679	-0.000127
 980	9.7410e+01	1.0267	5.248812	0.000316	3.158789	1.070227	-0.000127
 981	9.7510e+01	0.9690	5.122944	0.000315	3.148600	1.066774	-0.000127
 982	9.7609e+01	0.9256	4.996667	0.000316	3.158789	1.070227	-0.000127
 983	9.7709e+01	0.8952	4.865503	0.000328	3.281065	1.111655	-0.000132
 984	9.7808e+01	0.8551	4.732302	0.000333	3.332013	1.128917	-0.000134
 985	9.7908e+01	0.8101	4.597472	0.000337	3.372772	1.142726	-0.000136
 986	9.8007e+01	0.7684	4.471196	0.000316	3.158789	1.070227	-0.000127
 987	9.8107e+01	0.7219	4.337995	0.000333	3.332013	1.128917	-0.000134
 988	9.8207e+01	0.6914	4.214977	0.000308	3.077272	1.042608	-0.000124
 989	9.8306e+01	0.6417	4.077295	0.000344	3.444099	1.166892	-0.000138
 990	9.8406e+01	0.6000	3.945316	0.000330	3.301444	1.118560	-0.000133
 991	9.8505e+01	0.5647	3.809671	0.000339	3.393151	1.149631	-0.000136
 992	9.8605e+01	0.5118	3.684617	0.000313	3.128220	1.059870	-0.000126
 993	9.8704e+01	0.4957	3.548157	0.000341	3.413530	1.156535	-0.000137
 994	9.8803e+01	0.4556	3.416586	0.000329	3.291255	1.115107	-0.000132
 995	9.8903e+01	0.3850	3.275645	0.000353	3.525616	1.194511	-0.000142
 996	9.9002e+01	0.3770	3.142851	0.000332	3.321824	1.125464	-0.000133
 997	9.9102e+01	0.3321	3.014131	0.000322	3.219927	1.090941	-0.000129
 998	9.9201e+01	0.2856	2.877671	0.000341	3.413530	1.156535	-0.000137
 999	9.9301e+01	0.2535	2.742434	0.000338	3.382961	1.146178	-0.000136
1000	9.9400e+01	0.2150	2.599864	0.000357	3.566375	1.208321	-0.000143
1001	9.9500e+01	0.1668	2.465441	0.000336	3.362582	1.139274	-0.000135
1002	9.9600e+01	0.1251	2.335091	0.000326	3.260686	1.104750	-0.000131
1003	9.9699e+01	0.0882	2.196595	0.000346	3.464479	1.173797	-0.000139
1004	9.9799e+01	0.0481	2.060542	0.000340	3.403341	1.153083	-0.000137
1005	9.9898e+01	0.0176	1.951374	0.000273	2.730824	0.925228	-0.000110
1006	9.9998e+01	-0.0209	1.814100	0.000343	3.433910	1.163440	-0.000138
1007	1.0010e+02	-0.0786	1.683343	0.000327	3.270875	1.108203	-0.000131
1008	1.0020e+02	-0.0626	1.541995	-0.000354	-3.535806	-1.197964	-0.000142
1009	1.0030e+02	-0.1556	1.407980	0.000335	3.352393	1.135821	-0.000135
1010	1.0040e+02	-0.1668	1.276815	0.000328	3.281065	1.111655	-0.000132
1011	1.0050e+02	-0.2182	1.137097	0.000350	3.495048	1.184154	-0.000140
1012	1.0059e+02	-0.2487	0.998193	0.000347	3.474668	1.177249	-0.000140
1013	1.0069e+02	-0.2984	0.863770	0.000336	3.362582	1.139274	-0.000135
1014	1.0079e+02	-0.3337	0.726495	0.000343	3.433910	1.163440	-0.000138
1015	1.0089e+02	-0.3722	0.588406	0.000345	3.454289	1.170345	-0.000139
1016	1.0099e+02	-0.4155	0.446651	0.000355	3.545996	1.201416	-0.000142
1017	1.0109e+02	-0.4492	0.312228	0.000336	3.362582	1.139274	-0.000135
1018	1.0119e+02	-0.4909	0.164770	0.000369	3.688651	1.249749	-0.000148
1019	1.0129e+02	-0.5294	0.034420	0.000326	3.260686	1.104750	-0.000131
1020	1.0139e+02	-0.5679	-0.102447	0.000342	3.423720	1.159988	-0.000138
1021	1.0149e+02	-0.6096	-0.240128	0.000344	3.444099	1.166892	-0.000138
1022	1.0159e+02	-0.6465	-0.385142	0.000363	3.627513	1.229035	-0.000146
1023	1.0169e+02	-0.7010	-0.515899	0.000327	3.270875	1.108203	-0.000131
1024	1.0179e+02	-0.7123	-0.661321	0.000364	3.637703	1.232487	-0.000146
1025	1.0189e+02	-0.7797	-0.794929	0.000334	3.342203	1.132369	-0.000134
1026	1.0199e+02	-0.8230	-0.937906	0.000358	3.576565	1.211773	-0.000144
1027	1.0209e+02	-0.8502	-1.069885	0.000330	3.301444	1.118560	-0.000133
1028	1.0219e+02	-0.8936	-1.210418	0.000352	3.515427	1.191059	-0.000141
1029	1.0229e+02	-0.9433	-1.354210	0.000360	3.596944	1.218678	-0.000145
1030	1.0239e+02	-0.9706	-1.491892	0.000344	3.444099	1.166892	-0.000138
1031	1.0248e+02	-1.0363	-1.634869	0.000358	3.576565	1.211773	-0.000144
1032	1.0258e+02	-1.0379	-1.759109	0.000311	3.107841	1.052965	-0.000125
1033	1.0268e+02	-1.0973	-1.897605	0.000346	3.464479	1.173797	-0.000139
1034	1.0278e+02	-1.1246	-2.035287	0.000344	3.444099	1.166892	-0.000138
1035	1.0288e+02	-1.1727	-2.168895	0.000334	3.342203	1.132369	-0.000134
1036	1.0298e+02	-1.2096	-2.302096	0.000333	3.332013	1.128917	-0.000134
1037	1.0308e+02	-1.2545	-2.438556	0.000341	3.413530	1.156535	-0.000137
1038	1.0318e+02	-1.3010	-2.574201	0.000339	3.393151	1.149631	-0.000136
1039	1.0328e+02	-1.3636	-2.710254	0.000340	3.403341	1.153083	-0.000137
1040	1.0338e+02	-1.3780	-2.839789	0.000324	3.240306	1.097846	-0.000130
1041	1.0348e+02	-1.4037	-2.972990	0.000333	3.332013	1.128917	-0.000134
1042	1.0358e+02	-1.4518	-3.111079	0.000345	3.454289	1.170345	-0.000139
1043	1.0368e+02	-1.4759	-3.244687	0.000334	3.342203	1.132369	-0.000134
1044	1.0378e+02	-1.5288	-3.372593	0.000320	3.199548	1.084036	-0.000129
1045	1.0388e+02	-1.5802	-3.509460	0.000342	3.423720	1.159988	-0.000138
1046	1.0398e+02	-1.6251	-3.637773	0.000321	3.209738	1.087489	-0.000129
1047	1.0408e+02	-1.6475	-3.767308	0.000324	3.240306	1.097846	-0.000130
1048	1.0418e+02	-1.7021	-3.902953	0.000339	3.393151	1.149631	-0.000136
1049	1.0428e+02	-1.7133	-4.036561	0.000334	3.342203	1.132369	-0.000134
1050	1.0438e+02	-1.7647	-4.162023	0.000314	3.138410	1.063322	-0.000126
1051	1.0447e+02	-1.7903	-4.296446	0.000336	3.362582	1.139274	-0.000135
1052	1.0457e+02	-1.8737	-4.422722	0.000316	3.158789	1.070227	-0.000127
1053	1.0467e+02	-1.8930	-4.559996	0.000343	3.433910	1.163440	-0.000138
1054	1.0477e+02	-1.9459	-4.683421	0.000309	3.087462	1.046060	-0.000124
1055	1.0487e+02	-1.9748	-4.818659	0.000338	3.382961	1.146178	-0.000136
1056	1.0497e+02	-2.0358	-4.946564	0.000320	3.199548	1.084036	-0.000129
1057	1.0507e+02	-2.0550	-5.074062	0.000319	3.189358	1.080584	-0.000128
1058	1.0517e+02	-2.0855	-5.200746	0.000317	3.168979	1.073679	-0.000127
1059	1.0527e+02	-2.1400	-5.323763	0.000308	3.077272	1.042608	-0.000124
1060	1.0537e+02	-2.1882	-5.459816	0.000340	3.403341	1.153083	-0.000137
1061	1.0547e+02	-2.2122	-5.584055	0.000311	3.107841	1.052965	-0.000125
1062	1.0557e+02	-2.2780	-5.712776	0.000322	3.219927	1.090941	-0.000129
1063	1.0567e+02	-2.3133	-5.837015	0.000311	3.107841	1.052965	-0.000125
1064	1.0577e+02	-2.3358	-5.962477	0.000314	3.138410	1.063322	-0.000126
1065	1.0587e+02	-2.3903	-6.082235	0.000300	2.995755	1.014989	-0.000120
1066	1.0597e+02	-2.4176	-6.212585	0.000326	3.260686	1.104750	-0.000131
1067	1.0607e+02	-2.4416	-6.328270	0.000289	2.893859	0.980466	-0.000116
1068	1.0617e+02	-2.4994	-6.455361	0.000318	3.179169	1.077131	-0.000128
1069	1.0627e+02	-2.5090	-6.579601	0.000311	3.107841	1.052965	-0.000125
1070	1.0637e+02	-2.5924	-6.700581	0.000303	3.026324	1.025346	-0.000122
1071	1.0647e+02	-2.6069	-6.815045	0.000286	2.863290	0.970109	-0.000115
1072	1.0656e+02	-2.6422	-6.940913	0.000315	3.148600	1.066774	-0.000127
1073	1.0666e+02	-2.6710	-7.052118	0.000278	2.781773	0.942490	-0.000112
1074	1.0676e+02	-2.7513	-7.174728	0.000307	3.067083	1.039156	-0.000123
1075	1.0686e+02	-2.7689	-7.291635	0.000292	2.924428	0.990823	-0.000117
1076	1.0696e+02	-2.8026	-7.412209	0.000302	3.016134	1.021894	-0.000121
1077	1.0706e+02	-2.8620	-7.533189	0.000303	3.026324	1.025346	-0.000122
1078	1.0716e+02	-2.8940	-7.648467	0.000288	2.883669	0.977013	-0.000116
1079	1.0726e+02	-2.9149	-7.772300	0.000310	3.097651	1.049513	-0.000124
1080	1.0736e+02	-2.9550	-7.889207	0.000292	2.924428	0.990823	-0.000117
1081	1.0746e+02	-2.9999	-8.003263	0.000285	2.853100	0.966656	-0.000115
1082	1.0756e+02	-3.0480	-8.118541	0.000288	2.883669	0.977013	-0.000116
1083	1.0766e+02	-3.0737	-8.236263	0.000294	2.944807	0.997728	-0.000118
1084	1.0776e+02	-3.1186	-8.348689	0.000281	2.812341	0.952847	-0.000113
1085	1.0786e+02	-3.1523	-8.462745	0.000285	2.853100	0.966656	-0.000115
1086	1.0796e+02	-3.1876	-8.573950	0.000278	2.781773	0.942490	-0.000112
1087	1.0806e+02	-3.2502	-8.690857	0.000292	2.924428	0.990823	-0.000117
1088	1.0816e+02	-3.2855	-8.805320	0.000286	2.863290	0.970109	-0.000115
1089	1.0826e+02	-3.3111	-8.916932	0.000279	2.791962	0.945942	-0.000112
1090	1.0836e+02	-3.3673	-9.029766	0.000282	2.822531	0.956299	-0.000113
1091	1.0845e+02	-3.4074	-9.148710	0.000298	2.975376	1.008085	-0.000120
1092	1.0855e+02	-3.4491	-9.261951	0.000283	2.832721	0.959752	-0.000114
1093	1.0865e+02	-3.4860	-9.369897	0.000270	2.700255	0.914871	-0.000108
1094	1.0875e+02	-3.5357	-9.481916	0.000280	2.802152	0.949395	-0.000113
1095	1.0885e+02	-3.5614	-9.595565	0.000284	2.842910	0.963204	-0.000114
1096	1.0895e+02	-3.6240	-9.707584	0.000280	2.802152	0.949395	-0.000113
1097	1.0905e+02	-3.6304	-9.820825	0.000283	2.832721	0.959752	-0.000114
1098	1.0915e+02	-3.6881	-9.924290	0.000259	2.588169	0.876895	-0.000104
1099	1.0925e+02	-3.7234	-10.039976	0.000289	2.893859	0.980466	-0.000116
1100	1.0935e+02	-3.7619	-10.141811	0.000255	2.547411	0.863086	-0.000102
1101	1.0945e+02	-3.8165	-10.254238	0.000281	2.812341	0.952847	-0.000113
1102	1.0955e+02	-3.8518	-10.362591	0.000271	2.710445	0.918324	-0.000109
1103	1.0965e+02	-3.8903	-10.472573	0.000275	2.751204	0.932133	-0.000111
1104	1.0975e+02	-3.9047	-10.582963	0.000276	2.761393	0.935585	-0.000111
1105	1.0985e+02	-3.9657	-10.688872	0.000265	2.649307	0.897610	-0.000106
1106	1.0995e+02	-4.0218	-10.798855	0.000275	2.751204	0.932133	-0.000111
1107	1.1005e+02	-4.0523	-10.900690	0.000255	2.547411	0.863086	-0.000102
1108	1.1015e+02	-4.0892	-11.007821	0.000268	2.679876	0.907967	-0.000108
1109	1.1025e+02	-4.1149	-11.115767	0.000270	2.700255	0.914871	-0.000108
1110	1.1035e+02	-4.1774	-11.228194	0.000281	2.812341	0.952847	-0.000113
1111	1.1044e+02	-4.1854	-11.322290	0.000235	2.353808	0.797492	-0.000095
1112	1.1054e+02	-4.2480	-11.437975	0.000289	2.893859	0.980466	-0.000116
1113	1.1064e+02	-4.2833	-11.535737	0.000245	2.445514	0.828563	-0.000098
1114	1.1074e+02	-4.3122	-11.650201	0.000286	2.863290	0.970109	-0.000115
1115	1.1084e+02	-4.3763	-11.747148	0.000243	2.425135	0.821658	-0.000097
1116	1.1094e+02	-4.4004	-11.859982	0.000282	2.822531	0.956299	-0.000113
1117	1.1104e+02	-4.4405	-11.963040	0.000258	2.577980	0.873443	-0.000104
1118	1.1114e+02	-4.4774	-12.070171	0.000268	2.679876	0.907967	-0.000108
1119	1.1124e+02	-4.5304	-12.178931	0.000272	2.720635	0.921776	-0.000109
1120	1.1134e+02	-4.5656	-12.283618	0.000262	2.618738	0.887253	-0.000105
1121	1.1144e+02	-4.6025	-12.383010	0.000249	2.486273	0.842372	-0.000100
1122	1.1154e+02	-4.6491	-12.493807	0.000277	2.771583	0.939038	-0.000111
1123	1.1164e+02	-4.6828	-12.596865	0.000258	2.577980	0.873443	-0.000104
1124	1.1174e+02	-4.7293	-12.703996	0.000268	2.679876	0.907967	-0.000108
1125	1.1184e+02	-4.7566	-12.805831	0.000255	2.547411	0.863086	-0.000102
1126	1.1194e+02	-4.8191	-12.914592	0.000272	2.720635	0.921776	-0.000109
1127	1.1204e+02	-4.8432	-13.017242	0.000257	2.567790	0.869991	-0.000103
1128	1.1214e+02	-4.8849	-13.122337	0.000263	2.628928	0.890705	-0.000106
1129	1.1224e+02	-4.9186	-13.219284	0.000243	2.425135	0.821658	-0.000097
1130	1.1234e+02	-4.9442	-13.330896	0.000279	2.791962	0.945942	-0.000112
1131	1.1244e+02	-5.0148	-13.433546	0.000257	2.567790	0.869991	-0.000103
1132	1.1253e+02	-5.0517	-13.534567	0.000253	2.527031	0.856181	-0.000102
1133	1.1263e+02	-5.0822	-13.637218	0.000257	2.567790	0.869991	-0.000103
1134	1.1273e+02	-5.1303	-13.736609	0.000249	2.486273	0.842372	-0.000100
1135	1.1283e+02	-5.1576	-13.843740	0.000268	2.679876	0.907967	-0.000108
1136	1.1293e+02	-5.2105	-13.944761	0.000253	2.527031	0.856181	-0.000102
1137	1.1303e+02	-5.2394	-14.048226	0.000259	2.588169	0.876895	-0.000104
1138	1.1313e+02	-5.2667	-14.150062	0.000255	2.547411	0.863086	-0.000102
1139	1.1323e+02	-5.3373	-14.251083	0.000253	2.527031	0.856181	-0.000102
1140	1.1333e+02	-5.3437	-14.346401	0.000238	2.384376	0.807849	-0.000096
1141	1.1343e+02	-5.3934	-14.452717	0.000266	2.659497	0.901062	-0.000107
1142	1.1353e+02	-5.4544	-14.553331	0.000252	2.516842	0.852729	-0.000101
1143	1.1363e+02	-5.4817	-14.653537	0.000251	2.506652	0.849277	-0.000101
1144	1.1373e+02	-5.5282	-14.753744	0.000251	2.506652	0.849277	-0.000101
1145	1.1383e+02	-5.5651	-14.859245	0.000264	2.639118	0.894157	-0.000106
1146	1.1393e+02	-5.5972	-14.950897	0.000229	2.292670	0.776778	-0.000092
1147	1.1403e+02	-5.6485	-15.055584	0.000262	2.618738	0.887253	-0.000105
1148	1.1413e+02	-5.6870	-15.151717	0.000240	2.404756	0.814753	-0.000097
1149	1.1423e+02	-5.7335	-15.255182	0.000259	2.588169	0.876895	-0.000104
1150	1.1433e+02	-5.7720	-15.358240	0.000258	2.577980	0.873443	-0.000104
1151	1.1442e+02	-5.7961	-15.450707	0.000231	2.313049	0.783682	-0.000093
1152	1.1452e+02	-5.8314	-15.548876	0.000246	2.455704	0.832015	-0.000099
1153	1.1462e+02	-5.8763	-15.654785	0.000265	2.649307	0.897610	-0.000106
1154	1.1472e+02	-5.9196	-15.752547	0.000245	2.445514	0.828563	-0.000098
1155	1.1482e+02	-5.9613	-15.854383	0.000255	2.547411	0.863086	-0.000102
1156	1.1492e+02	-5.9758	-15.955811	0.000254	2.537221	0.859634	-0.000102
1157	1.1502e+02	-6.0480	-16.056018	0.000251	2.506652	0.849277	-0.000101
1158	1.1512e+02	-6.0768	-16.157446	0.000254	2.537221	0.859634	-0.000102
1159	1.1522e+02	-6.1073	-16.253986	0.000241	2.414945	0.818206	-0.000097
1160	1.1532e+02	-6.1635	-16.353378	0.000249	2.486273	0.842372	-0.000100
1161	1.1542e+02	-6.2212	-16.449511	0.000240	2.404756	0.814753	-0.000097
1162	1.1552e+02	-6.2196	-16.555420	-0.000265	-2.649307	-0.897610	-0.000106
1163	1.1562e+02	-6.2790	-16.653589	0.000246	2.455704	0.832015	-0.000099
1164	1.1572e+02	-6.3062	-16.750129	0.000241	2.414945	0.818206	-0.000097
1165	1.1582e+02	-6.3672	-16.842596	0.000231	2.313049	0.783682	-0.000093
1166	1.1592e+02	-6.3993	-16.947283	0.000262	2.618738	0.887253	-0.000105
1167	1.1602e+02	-6.4121	-17.038121	0.000227	2.272290	0.769873	-0.000091
1168	1.1612e+02	-6.4699	-17.141586	0.000259	2.588169	0.876895	-0.000104
1169	1.1622e+02	-6.4939	-17.229979	0.000221	2.211153	0.749159	-0.000089
1170	1.1632e+02	-6.5597	-17.331407	0.000254	2.537221	0.859634	-0.000102
1171	1.1642e+02	-6.5998	-17.425096	0.000234	2.343618	0.794039	-0.000094
1172	1.1651e+02	-6.6271	-17.522858	0.000245	2.445514	0.828563	-0.000098
1173	1.1661e+02	-6.6768	-17.614918	0.000230	2.302859	0.780230	-0.000093
1174	1.1671e+02	-6.7394	-17.712272	0.000244	2.435325	0.825110	-0.000098
1175	1.1681e+02	-6.7506	-17.809220	0.000243	2.425135	0.821658	-0.000097
1176	1.1691e+02	-6.7987	-17.905760	0.000241	2.414945	0.818206	-0.000097
1177	1.1701e+02	-6.8196	-17.994561	0.000222	2.221342	0.752611	-0.000089
1178	1.1711e+02	-6.8645	-18.087842	0.000233	2.333428	0.790587	-0.000094
1179	1.1721e+02	-6.8982	-18.187641	0.000250	2.496463	0.845824	-0.000100
1180	1.1731e+02	-6.9608	-18.287440	0.000250	2.496463	0.845824	-0.000100
1181	1.1741e+02	-7.0009	-18.381129	0.000234	2.343618	0.794039	-0.000094
1182	1.1751e+02	-7.0314	-18.478891	0.000245	2.445514	0.828563	-0.000098
1183	1.1761e+02	-7.0699	-18.571358	0.000231	2.313049	0.783682	-0.000093
1184	1.1771e+02	-7.1116	-18.666269	0.000237	2.374187	0.804396	-0.000095
1185	1.1781e+02	-7.1517	-18.762402	0.000240	2.404756	0.814753	-0.000097
1186	1.1791e+02	-7.2062	-18.858127	0.000239	2.394566	0.811301	-0.000096
1187	1.1801e+02	-7.2335	-18.951409	0.000233	2.333428	0.790587	-0.000094
1188	1.1811e+02	-7.2720	-19.043061	0.000229	2.292670	0.776778	-0.000092
1189	1.1821e+02	-7.3009	-19.140415	0.000244	2.435325	0.825110	-0.000098
1190	1.1831e+02	-7.3506	-19.232475	0.000230	2.302859	0.780230	-0.000093
1191	1.1841e+02	-7.3827	-19.325756	0.000233	2.333428	0.790587	-0.000094
1192	1.1850e+02	-7.4212	-19.416594	0.000227	2.272290	0.769873	-0.000091
1193	1.1860e+02	-7.4629	-19.512319	0.000239	2.394566	0.811301	-0.000096
1194	1.1870e+02	-7.4918	-19.602749	0.000226	2.262101	0.766420	-0.000091
1195	1.1880e+02	-7.5431	-19.699289	0.000241	2.414945	0.818206	-0.000097
1196	1.1890e+02	-7.5832	-19.789720	0.000226	2.262101	0.766420	-0.000091
1197	1.1900e+02	-7.6281	-19.883816	0.000235	2.353808	0.797492	-0.000095
1198	1.1910e+02	-7.6570	-19.973024	0.000223	2.231532	0.756063	-0.000090
1199	1.1920e+02	-7.7035	-20.064268	0.000228	2.282480	0.773325	-0.000092
1200	1.1930e+02	-7.7436	-20.155106	0.000227	2.272290	0.769873	-0.000091
1201	1.1940e+02	-7.7533	-20.241870	0.000217	2.170394	0.735349	-0.000087
1202	1.1950e+02	-7.8431	-20.339225	0.000244	2.435325	0.825110	-0.000098
1203	1.1960e+02	-7.8656	-20.422730	0.000209	2.088877	0.707731	-0.000084
1204	1.1970e+02	-7.9105	-20.509494	0.000217	2.170394	0.735349	-0.000087
1205	1.1980e+02	-7.9538	-20.607663	0.000246	2.455704	0.832015	-0.000099
1206	1.1990e+02	-7.9811	-20.695242	0.000219	2.190773	0.742254	-0.000088
1207	1.2000e+02	-8.0308	-20.785265	0.000225	2.251911	0.762968	-0.000090
1208	1.2010e+02	-8.0725	-20.870399	0.000213	2.129635	0.721540	-0.000086
1209	1.2020e+02	-8.1126	-20.952682	0.000206	2.058308	0.697374	-0.000083
1210	1.2030e+02	-8.1527	-21.045964	0.000233	2.333428	0.790587	-0.000094
1211	1.2039e+02	-8.1639	-21.129469	0.000209	2.088877	0.707731	-0.000084
1212	1.2049e+02	-8.2233	-21.220307	0.000227	2.272290	0.769873	-0.000091
1213	1.2059e+02	-8.2682	-21.303812	0.000209	2.088877	0.707731	-0.000084
1214	1.2069e+02	-8.3067	-21.395871	0.000230	2.302859	0.780230	-0.000093
1215	1.2079e+02	-8.3709	-21.479784	0.000210	2.099066	0.711183	-0.000084
1216	1.2089e+02	-8.3741	-21.576731	0.000243	2.425135	0.821658	-0.000097
1217	1.2099e+02	-8.4046	-21.655756	0.000198	1.976791	0.669755	-0.000079
1218	1.2109e+02	-8.4575	-21.742112	0.000216	2.160204	0.731897	-0.000087
1219	1.2119e+02	-8.5281	-21.833357	0.000228	2.282480	0.773325	-0.000092
1220	1.2129e+02	-8.5361	-21.925009	0.000229	2.292670	0.776778	-0.000092
1221	1.2139e+02	-8.5842	-22.006070	0.000203	2.027739	0.687017	-0.000081
1222	1.2149e+02	-8.6211	-22.095278	0.000223	2.231532	0.756063	-0.000090
1223	1.2159e+02	-8.6789	-22.180413	0.000213	2.129635	0.721540	-0.000086
1224	1.2169e+02	-8.7014	-22.265955	0.000214	2.139825	0.724992	-0.000086
1225	1.2179e+02	-8.7383	-22.344165	0.000196	1.956411	0.662850	-0.000079
1226	1.2189e+02	-8.7768	-22.435002	0.000227	2.272290	0.769873	-0.000091
1227	1.2199e+02	-8.8040	-22.524617	0.000224	2.241721	0.759516	-0.000090
1228	1.2209e+02	-8.8602	-22.606901	0.000206	2.058308	0.697374	-0.000083
1229	1.2219e+02	-8.9099	-22.696109	0.000223	2.231532	0.756063	-0.000090
1230	1.2229e+02	-8.9420	-22.778799	0.000207	2.068498	0.700826	-0.000083
1231	1.2239e+02	-8.9821	-22.867192	0.000221	2.211153	0.749159	-0.000089
1232	1.2248e+02	-9.0399	-22.951105	0.000210	2.099066	0.711183	-0.000084
1233	1.2258e+02	-9.1024	-23.039498	0.000221	2.211153	0.749159	-0.000089
1234	1.2268e+02	-9.0960	-23.116486	-0.000193	-1.925843	-0.652493	-0.000077
1235	1.2278e+02	-9.1377	-23.203250	0.000217	2.170394	0.735349	-0.000087
1236	1.2288e+02	-9.1971	-23.286348	0.000208	2.078687	0.704278	-0.000084
1237	1.2298e+02	-9.2340	-23.373112	0.000217	2.170394	0.735349	-0.000087
1238	1.2308e+02	-9.2564	-23.452951	0.000200	1.997170	0.676660	-0.000080
1239	1.2318e+02	-9.3029	-23.534012	0.000203	2.027739	0.687017	-0.000081
1240	1.2328e+02	-9.3431	-23.617110	0.000208	2.078687	0.704278	-0.000084
1241	1.2338e+02	-9.3816	-23.702652	0.000214	2.139825	0.724992	-0.000086
1242	1.2348e+02	-9.4233	-23.782899	0.000201	2.007360	0.680112	-0.000081
1243	1.2358e+02	-9.4473	-23.861923	0.000198	1.976791	0.669755	-0.000079
1244	1.2368e+02	-9.5003	-23.947465	0.000214	2.139825	0.724992	-0.000086
1245	1.2378e+02	-9.5564	-24.032600	0.000213	2.129635	0.721540	-0.000086
1246	1.2388e+02	-9.5805	-24.113253	0.000202	2.017549	0.683564	-0.000081
1247	1.2398e+02	-9.6286	-24.195537	0.000206	2.058308	0.697374	-0.000083
1248	1.2408e+02	-9.6527	-24.278227	0.000207	2.068498	0.700826	-0.000083
1249	1.2418e+02	-9.7008	-24.360510	0.000206	2.058308	0.697374	-0.000083
1250	1.2428e+02	-9.7650	-24.437498	0.000193	1.925843	0.652493	-0.000077
1251	1.2438e+02	-9.7842	-24.522633	0.000213	2.129635	0.721540	-0.000086
1252	1.2447e+02	-9.8227	-24.596362	0.000184	1.844325	0.624874	-0.000074
1253	1.2457e+02	-9.8692	-24.687606	0.000228	2.282480	0.773325	-0.000092
1254	1.2467e+02	-9.8917	-24.760113	0.000181	1.813756	0.614517	-0.000073
1255	1.2477e+02	-9.9511	-24.847692	0.000219	2.190773	0.742254	-0.000088
1256	1.2487e+02	-9.9719	-24.926716	0.000198	1.976791	0.669755	-0.000079
1257	1.2497e+02	-10.0104	-25.011444	0.000212	2.119446	0.718088	-0.000085
1258	1.2507e+02	-10.0617	-25.097393	0.000215	2.150015	0.728445	-0.000086
1259	1.2517e+02	-10.1067	-25.181713	0.000211	2.109256	0.714635	-0.000085
1260	1.2527e+02	-10.1548	-25.260737	0.000198	1.976791	0.669755	-0.000079
1261	1.2537e+02	-10.1740	-25.337318	0.000192	1.915653	0.649041	-0.000077
1262	1.2547e+02	-10.2109	-25.423674	0.000216	2.160204	0.731897	-0.000087
1263	1.2557e+02	-10.2543	-25.504328	0.000202	2.017549	0.683564	-0.000081
1264	1.2567e+02	-10.3120	-25.587426	0.000208	2.078687	0.704278	-0.000084
1265	1.2577e+02	-10.3585	-25.666043	0.000197	1.966601	0.666302	-0.000079
1266	1.2587e+02	-10.3746	-25.747512	0.000204	2.037929	0.690469	-0.000082
1267	1.2597e+02	-10.4275	-25.828573	0.000203	2.027739	0.687017	-0.000081
1268	1.2607e+02	-10.4676	-25.907190	0.000197	1.966601	0.666302	-0.000079
1269	1.2617e+02	-10.5125	-25.985807	0.000197	1.966601	0.666302	-0.000079
1270	1.2627e+02	-10.5398	-26.068905	0.000208	2.078687	0.704278	-0.000084
1271	1.2636e+02	-10.5944	-26.152818	0.000210	2.099066	0.711183	-0.000084
1272	1.2646e+02	-10.6232	-26.235101	0.000206	2.058308	0.697374	-0.000083
1273	1.2656e+02	-10.6778	-26.314940	0.000200	1.997170	0.676660	-0.000080
1274	1.2666e+02	-10.6986	-26.392335	0.000194	1.936032	0.655945	-0.000078
1275	1.2676e+02	-10.7468	-26.464435	0.000180	1.803567	0.611065	-0.000072
1276	1.2686e+02	-10.7853	-26.552013	0.000219	2.190773	0.742254	-0.000088
1277	1.2696e+02	-10.8173	-26.636740	0.000212	2.119446	0.718088	-0.000085
1278	1.2706e+02	-10.8719	-26.708840	0.000180	1.803567	0.611065	-0.000072
1279	1.2716e+02	-10.8992	-26.792753	0.000210	2.099066	0.711183	-0.000084
1280	1.2726e+02	-10.9312	-26.872592	0.000200	1.997170	0.676660	-0.000080
1281	1.2736e+02	-10.9762	-26.957319	0.000212	2.119446	0.718088	-0.000085
1282	1.2746e+02	-11.0098	-27.036343	0.000198	1.976791	0.669755	-0.000079
1283	1.2756e+02	-11.0548	-27.121478	0.000213	2.129635	0.721540	-0.000086
1284	1.2766e+02	-11.0660	-27.196022	0.000186	1.864705	0.631779	-0.000075
1285	1.2776e+02	-11.1382	-27.282378	0.000216	2.160204	0.731897	-0.000087
1286	1.2786e+02	-11.1847	-27.363440	0.000203	2.027739	0.687017	-0.000081
1287	1.2796e+02	-11.2152	-27.443279	0.000200	1.997170	0.676660	-0.000080
1288	1.2806e+02	-11.2826	-27.522711	0.000199	1.986980	0.673207	-0.000080
1289	1.2816e+02	-11.2986	-27.615992	0.000233	2.333428	0.790587	-0.000094
1290	1.2826e+02	-11.3403	-27.697460	0.000204	2.037929	0.690469	-0.000082
1291	1.2835e+02	-11.3772	-27.776078	0.000197	1.966601	0.666302	-0.000079
1292	1.2845e+02	-11.4221	-27.860805	0.000212	2.119446	0.718088	-0.000085
1293	1.2855e+02	-11.4430	-27.945939	0.000213	2.129635	0.721540	-0.000086
1294	1.2865e+02	-11.4831	-28.021705	0.000190	1.895274	0.642136	-0.000076
1295	1.2875e+02	-11.5425	-28.104396	0.000207	2.068498	0.700826	-0.000083
1296	1.2885e+02	-11.5810	-28.184642	0.000201	2.007360	0.680112	-0.000081
1297	1.2895e+02	-11.6227	-28.274665	0.000225	2.251911	0.762968	-0.000090
1298	1.2905e+02	-11.6644	-28.351245	0.000192	1.915653	0.649041	-0.000077
1299	1.2915e+02	-11.6884	-28.433528	0.000206	2.058308	0.697374	-0.000083
1300	1.2925e+02	-11.7414	-28.511738	0.000196	1.956411	0.662850	-0.000079
1301	1.2935e+02	-11.8039	-28.596873	0.000213	2.129635	0.721540	-0.000086
1302	1.2945e+02	-11.8216	-28.678341	0.000204	2.037929	0.690469	-0.000082
1303	1.2955e+02	-11.8376	-28.761032	0.000207	2.068498	0.700826	-0.000083
1304	1.2965e+02	-11.9146	-28.840871	0.000200	1.997170	0.676660	-0.000080
1305	1.2975e+02	-11.9227	-28.919081	0.000196	1.956411	0.662850	-0.000079
1306	1.2985e+02	-11.9515	-29.000142	0.000203	2.027739	0.687017	-0.000081
1307	1.2995e+02	-12.0285	-29.084462	0.000211	2.109256	0.714635	-0.000085
1308	1.3005e+02	-12.0462	-29.165930	0.000204	2.037929	0.690469	-0.000082
1309	1.3015e+02	-12.1104	-29.247806	0.000205	2.048118	0.693921	-0.000082
1310	1.3025e+02	-12.1216	-29.331311	0.000209	2.088877	0.707731	-0.000084
1311	1.3034e+02	-12.1825	-29.411151	0.000200	1.997170	0.676660	-0.000080
1312	1.3044e+02	-12.2114	-29.495470	0.000211	2.109256	0.714635	-0.000085
1313	1.3054e+02	-12.2724	-29.573273	0.000195	1.946222	0.659398	-0.000078
1314	1.3064e+02	-12.2997	-29.657593	0.000211	2.109256	0.714635	-0.000085
1315	1.3074e+02	-12.3205	-29.739469	0.000205	2.048118	0.693921	-0.000082
1316	1.3084e+02	-12.3767	-29.814012	0.000186	1.864705	0.631779	-0.000075
1317	1.3094e+02	-12.4039	-29.899962	0.000215	2.150015	0.728445	-0.000086
1318	1.3104e+02	-12.4585	-29.985911	0.000215	2.150015	0.728445	-0.000086
1319	1.3114e+02	-12.4906	-30.064935	0.000198	1.976791	0.669755	-0.000079
1320	1.3124e+02	-12.5258	-30.144775	0.000200	1.997170	0.676660	-0.000080
1321	1.3134e+02	-12.5323	-30.227058	0.000206	2.058308	0.697374	-0.000083
1322	1.3144e+02	-12.6045	-30.306897	0.000200	1.997170	0.676660	-0.000080
1323	1.3154e+02	-12.6654	-30.391217	0.000211	2.109256	0.714635	-0.000085
1324	1.3164e+02	-12.6943	-30.476351	0.000213	2.129635	0.721540	-0.000086
1325	1.3174e+02	-12.7248	-30.563115	0.000217	2.170394	0.735349	-0.000087
1326	1.3184e+02	-12.7857	-30.643769	0.000202	2.017549	0.683564	-0.000081
1327	1.3194e+02	-12.7986	-30.721979	0.000196	1.956411	0.662850	-0.000079
1328	1.3204e+02	-12.8547	-30.806299	0.000211	2.109256	0.714635	-0.000085
1329	1.3214e+02	-12.8868	-30.886138	0.000200	1.997170	0.676660	-0.000080
1330	1.3224e+02	-12.9349	-30.964348	0.000196	1.956411	0.662850	-0.000079
1331	1.3234e+02	-12.9510	-31.041335	0.000193	1.925843	0.652493	-0.000077
1332	1.3243e+02	-13.0264	-31.129729	0.000221	2.211153	0.749159	-0.000089
1333	1.3253e+02	-13.0424	-31.215678	0.000215	2.150015	0.728445	-0.000086
1334	1.3263e+02	-13.0857	-31.298776	0.000208	2.078687	0.704278	-0.000084
1335	1.3273e+02	-13.1371	-31.378615	0.000200	1.997170	0.676660	-0.000080
1336	1.3283e+02	-13.1788	-31.456825	0.000196	1.956411	0.662850	-0.000079
1337	1.3293e+02	-13.2093	-31.541959	0.000213	2.129635	0.721540	-0.000086
1338	1.3303e+02	-13.2494	-31.624243	0.000206	2.058308	0.697374	-0.000083
1339	1.3313e+02	-13.2814	-31.701230	0.000193	1.925843	0.652493	-0.000077
1340	1.3323e+02	-13.3039	-31.786365	0.000213	2.129635	0.721540	-0.000086
1341	1.3333e+02	-13.3617	-31.862131	0.000190	1.895274	0.642136	-0.000076
1342	1.3343e+02	-13.4066	-31.947265	0.000213	2.129635	0.721540	-0.000086
1343	1.3353e+02	-13.4772	-32.023846	0.000192	1.915653	0.649041	-0.000077
1344	1.3363e+02	-13.4996	-32.102463	0.000197	1.966601	0.666302	-0.000079
1345	1.3373e+02	-13.5285	-32.183931	0.000204	2.037929	0.690469	-0.000082
1346	1.3383e+02	-13.5686	-32.261734	0.000195	1.946222	0.659398	-0.000078
1347	1.3393e+02	-13.6023	-32.340351	0.000197	1.966601	0.666302	-0.000079
1348	1.3403e+02	-13.6456	-32.421819	0.000204	2.037929	0.690469	-0.000082
1349	1.3413e+02	-13.6841	-32.502881	0.000203	2.027739	0.687017	-0.000081
1350	1.3423e+02	-13.7178	-32.583127	0.000201	2.007360	0.680112	-0.000081
1351	1.3432e+02	-13.7691	-32.663374	0.000201	2.007360	0.680112	-0.000081
1352	1.3442e+02	-13.7948	-32.743620	0.000201	2.007360	0.680112	-0.000081
1353	1.3452e+02	-13.8622	-32.825496	0.000205	2.048118	0.693921	-0.000082
1354	1.3462e+02	-13.8782	-32.903706	0.000196	1.956411	0.662850	-0.000079
1355	1.3472e+02	-13.9151	-32.988840	0.000213	2.129635	0.721540	-0.000086
1356	1.3482e+02	-13.9568	-33.064606	0.000190	1.895274	0.642136	-0.000076
1357	1.3492e+02	-13.9985	-33.142408	0.000195	1.946222	0.659398	-0.000078
1358	1.3502e+02	-14.0402	-33.221025	0.000197	1.966601	0.666302	-0.000079
1359	1.3512e+02	-14.0900	-33.300865	0.000200	1.997170	0.676660	-0.000080
1360	1.3522e+02	-14.1317	-33.386407	0.000214	2.139825	0.724992	-0.000086
1361	1.3532e+02	-14.1574	-33.460136	0.000184	1.844325	0.624874	-0.000074
1362	1.3542e+02	-14.2055	-33.542826	0.000207	2.068498	0.700826	-0.000083
1363	1.3552e+02	-14.2408	-33.621851	0.000198	1.976791	0.669755	-0.000079
1364	1.3562e+02	-14.2825	-33.704541	0.000207	2.068498	0.700826	-0.000083
1365	1.3572e+02	-14.3194	-33.780307	0.000190	1.895274	0.642136	-0.000076
1366	1.3582e+02	-14.3627	-33.855665	0.000189	1.885084	0.638684	-0.000076
1367	1.3592e+02	-14.4397	-33.933875	0.000196	1.956411	0.662850	-0.000079
1368	1.3602e+02	-14.4349	-34.012085	-0.000196	-1.956411	-0.662850	-0.000079
1369	1.3612e+02	-14.4622	-34.089480	0.000194	1.936032	0.655945	-0.000078
1370	1.3622e+02	-14.5215	-34.164023	0.000186	1.864705	0.631779	-0.000075
1371	1.3631e+02	-14.5777	-34.237345	0.000183	1.834136	0.621422	-0.000074
1372	1.3641e+02	-14.5985	-34.315555	0.000196	1.956411	0.662850	-0.000079
1373	1.3651e+02	-14.6370	-34.390913	0.000189	1.885084	0.638684	-0.000076
1374	1.3661e+02	-14.6868	-34.468308	0.000194	1.936032	0.655945	-0.000078
1375	1.3671e+02	-14.7236	-34.540408	0.000180	1.803567	0.611065	-0.000072
1376	1.3681e+02	-14.7686	-34.618618	0.000196	1.956411	0.662850	-0.000079
1377	1.3691e+02	-14.8087	-34.696013	0.000194	1.936032	0.655945	-0.000078
1378	1.3701e+02	-14.8536	-34.776259	0.000201	2.007360	0.680112	-0.000081
1379	1.3711e+02	-14.8793	-34.845508	0.000173	1.732239	0.586899	-0.000070
1380	1.3721e+02	-14.9178	-34.923717	0.000196	1.956411	0.662850	-0.000079
1381	1.3731e+02	-14.9563	-34.994595	0.000177	1.772998	0.600708	-0.000071
1382	1.3741e+02	-15.0188	-35.074027	0.000199	1.986980	0.673207	-0.000080
1383	1.3751e+02	-15.0349	-35.153459	0.000199	1.986980	0.673207	-0.000080
1384	1.3761e+02	-15.1022	-35.225151	0.000179	1.793377	0.607613	-0.000072
1385	1.3771e+02	-15.1103	-35.303361	0.000196	1.956411	0.662850	-0.000079
1386	1.3781e+02	-15.1648	-35.378312	0.000187	1.874894	0.635231	-0.000075
1387	1.3791e+02	-15.1953	-35.456929	0.000197	1.966601	0.666302	-0.000079
1388	1.3801e+02	-15.2402	-35.530658	0.000184	1.844325	0.624874	-0.000074
1389	1.3811e+02	-15.2755	-35.605201	0.000186	1.864705	0.631779	-0.000075
1390	1.3821e+02	-15.3156	-35.680560	0.000189	1.885084	0.638684	-0.000076
1391	1.3831e+02	-15.3702	-35.753881	0.000183	1.834136	0.621422	-0.000074
1392	1.3840e+02	-15.3910	-35.830055	0.000191	1.905463	0.645588	-0.000077
1393	1.3850e+02	-15.4472	-35.904191	0.000185	1.854515	0.628327	-0.000075
1394	1.3860e+02	-15.4760	-35.980364	0.000191	1.905463	0.645588	-0.000077
1395	1.3870e+02	-15.5097	-36.051649	0.000178	1.783188	0.604160	-0.000072
1396	1.3880e+02	-15.5611	-36.124971	0.000183	1.834136	0.621422	-0.000074
1397	1.3890e+02	-15.6028	-36.206032	0.000203	2.027739	0.687017	-0.000081
1398	1.3900e+02	-15.6220	-36.278946	0.000182	1.823946	0.617970	-0.000073
1399	1.3910e+02	-15.7006	-36.353490	0.000186	1.864705	0.631779	-0.000075
1400	1.3920e+02	-15.7247	-36.426811	0.000183	1.834136	0.621422	-0.000074
1401	1.3930e+02	-15.7680	-36.501355	0.000186	1.864705	0.631779	-0.000075
1402	1.3940e+02	-15.7840	-36.573047	0.000179	1.793377	0.607613	-0.000072
1403	1.3950e+02	-15.8193	-36.645554	0.000181	1.813756	0.614517	-0.000073
1404	1.3960e+02	-15.8835	-36.718061	0.000181	1.813756	0.614517	-0.000073
1405	1.3970e+02	-15.9332	-36.793420	0.000189	1.885084	0.638684	-0.000076
1406	1.3980e+02	-15.9653	-36.864705	0.000178	1.783188	0.604160	-0.000072
1407	1.3990e+02	-15.9990	-36.937212	0.000181	1.813756	0.614517	-0.000073
1408	1.4000e+02	-16.0359	-37.012570	0.000189	1.885084	0.638684	-0.000076
1409	1.4010e+02	-16.0744	-37.087928	0.000189	1.885084	0.638684	-0.000076
1410	1.4020e+02	-16.1177	-37.158399	0.000176	1.762808	0.597256	-0.000071
1411	1.4029e+02	-16.1675	-37.233757	0.000189	1.885084	0.638684	-0.000076
1412	1.4039e+02	-16.2172	-37.303413	0.000174	1.742429	0.590351	-0.000070
1413	1.4049e+02	-16.2525	-37.381215	0.000195	1.946222	0.659398	-0.000078
1414	1.4059e+02	-16.2894	-37.451685	0.000176	1.762808	0.597256	-0.000071
1415	1.4069e+02	-16.2942	-37.519711	0.000170	1.701670	0.576542	-0.000068
1416	1.4079e+02	-16.3391	-37.594662	0.000187	1.874894	0.635231	-0.000075
1417	1.4089e+02	-16.3840	-37.665947	0.000178	1.783188	0.604160	-0.000072
1418	1.4099e+02	-16.4338	-37.738454	0.000181	1.813756	0.614517	-0.000073
1419	1.4109e+02	-16.4674	-37.808925	0.000176	1.762808	0.597256	-0.000071
1420	1.4119e+02	-16.5252	-37.884283	0.000189	1.885084	0.638684	-0.000076
1421	1.4129e+02	-16.5573	-37.953939	0.000174	1.742429	0.590351	-0.000070
1422	1.4139e+02	-16.5830	-38.035000	0.000203	2.027739	0.687017	-0.000081
1423	1.4149e+02	-16.6343	-38.101397	0.000166	1.660912	0.562732	-0.000067
1424	1.4159e+02	-16.6519	-38.177570	0.000191	1.905463	0.645588	-0.000077
1425	1.4169e+02	-16.7081	-38.254150	0.000192	1.915653	0.649041	-0.000077
1426	1.4179e+02	-16.7546	-38.322584	0.000171	1.711860	0.579994	-0.000069
1427	1.4189e+02	-16.8140	-38.397942	0.000189	1.885084	0.638684	-0.000076
1428	1.4199e+02	-16.8412	-38.478596	0.000202	2.017549	0.683564	-0.000081
1429	1.4209e+02	-16.8621	-38.551510	0.000182	1.823946	0.617970	-0.000073
1430	1.4219e+02	-16.9118	-38.626461	0.000187	1.874894	0.635231	-0.000075
1431	1.4228e+02	-16.9519	-38.700597	0.000185	1.854515	0.628327	-0.000075
1432	1.4238e+02	-17.0001	-38.764550	0.000160	1.599774	0.542018	-0.000064
1433	1.4248e+02	-17.0225	-38.843982	0.000199	1.986980	0.673207	-0.000080
1434	1.4258e+02	-17.0803	-38.916082	0.000180	1.803567	0.611065	-0.000072
1435	1.4268e+02	-17.1091	-38.987367	0.000178	1.783188	0.604160	-0.000072
1436	1.4278e+02	-17.1348	-39.065169	0.000195	1.946222	0.659398	-0.000078
1437	1.4288e+02	-17.2006	-39.132381	0.000168	1.681291	0.569637	-0.000068
1438	1.4298e+02	-17.2455	-39.210998	0.000197	1.966601	0.666302	-0.000079
1439	1.4308e+02	-17.2792	-39.284319	0.000183	1.834136	0.621422	-0.000074
1440	1.4318e+02	-17.3097	-39.362936	0.000197	1.966601	0.666302	-0.000079
1441	1.4328e+02	-17.3626	-39.433814	0.000177	1.772998	0.600708	-0.000071
1442	1.4338e+02	-17.3963	-39.508765	0.000187	1.874894	0.635231	-0.000075
1443	1.4348e+02	-17.4268	-39.580865	0.000180	1.803567	0.611065	-0.000072
1444	1.4358e+02	-17.4717	-39.658667	0.000195	1.946222	0.659398	-0.000078
1445	1.4368e+02	-17.5118	-39.725879	0.000168	1.681291	0.569637	-0.000068
1446	1.4378e+02	-17.5407	-39.797978	0.000180	1.803567	0.611065	-0.000072
1447	1.4388e+02	-17.6049	-39.879854	0.000205	2.048118	0.693921	-0.000082
1448	1.4398e+02	-17.6385	-39.953990	0.000185	1.854515	0.628327	-0.000075
1449	1.4408e+02	-17.6706	-40.032200	0.000196	1.956411	0.662850	-0.000079
1450	1.4418e+02	-17.7059	-40.099412	0.000168	1.681291	0.569637	-0.000068
1451	1.4428e+02	-17.7524	-40.177214	0.000195	1.946222	0.659398	-0.000078
1452	1.4437e+02	-17.7781	-40.253795	0.000192	1.915653	0.649041	-0.000077
1453	1.4447e+02	-17.8166	-40.330782	0.000193	1.925843	0.652493	-0.000077
1454	1.4457e+02	-17.8792	-40.406548	0.000190	1.895274	0.642136	-0.000076
1455	1.4467e+02	-17.9129	-40.490053	0.000209	2.088877	0.707731	-0.000084
1456	1.4477e+02	-17.9626	-40.564190	0.000185	1.854515	0.628327	-0.000075
1457	1.4487e+02	-17.9690	-40.644436	0.000201	2.007360	0.680112	-0.000081
1458	1.4497e+02	-18.0284	-40.716943	0.000181	1.813756	0.614517	-0.000073
1459	1.4507e+02	-18.0621	-40.799226	0.000206	2.058308	0.697374	-0.000083
1460	1.4517e+02	-18.1070	-40.873363	0.000185	1.854515	0.628327	-0.000075
1461	1.4527e+02	-18.1647	-40.953609	0.000201	2.007360	0.680112	-0.000081
1462	1.4537e+02	-18.1647	-41.035892	0.000206	2.058308	0.697374	-0.000083
1463	1.4547e+02	-18.2305	-41.108399	0.000181	1.813756	0.614517	-0.000073
1464	1.4557e+02	-18.2578	-41.183758	0.000189	1.885084	0.638684	-0.000076
1465	1.4567e+02	-18.3091	-41.267263	0.000209	2.088877	0.707731	-0.000084
1466	1.4577e+02	-18.3508	-41.348324	0.000203	2.027739	0.687017	-0.000081
1467	1.4587e+02	-18.3765	-41.422868	0.000186	1.864705	0.631779	-0.000075
1468	1.4597e+02	-18.4326	-41.500670	0.000195	1.946222	0.659398	-0.000078
1469	1.4607e+02	-18.4631	-41.579287	0.000197	1.966601	0.666302	-0.000079
1470	1.4617e+02	-18.5096	-41.661978	0.000207	2.068498	0.700826	-0.000083
1471	1.4626e+02	-18.5530	-41.741410	0.000199	1.986980	0.673207	-0.000080
1472	1.4636e+02	-18.5850	-41.818805	0.000194	1.936032	0.655945	-0.000078
1473	1.4646e+02	-18.6219	-41.896200	0.000194	1.936032	0.655945	-0.000078
1474	1.4656e+02	-18.6845	-41.977261	0.000203	2.027739	0.687017	-0.000081
1475	1.4666e+02	-18.7005	-42.057507	0.000201	2.007360	0.680112	-0.000081
1476	1.4676e+02	-18.7567	-42.136125	0.000197	1.966601	0.666302	-0.000079
1477	1.4686e+02	-18.7888	-42.215149	0.000198	1.976791	0.669755	-0.000079
1478	1.4696e+02	-18.8209	-42.294988	0.000200	1.997170	0.676660	-0.000080
1479	1.4706e+02	-18.8770	-42.374827	0.000200	1.997170	0.676660	-0.000080
1480	1.4716e+02	-18.9171	-42.455481	0.000202	2.017549	0.683564	-0.000081
1481	1.4726e+02	-18.9572	-42.528395	0.000182	1.823946	0.617970	-0.000073
1482	1.4736e+02	-18.9861	-42.616381	0.000220	2.200963	0.745706	-0.000088
1483	1.4746e+02	-19.0214	-42.694999	0.000197	1.966601	0.666302	-0.000079
1484	1.4756e+02	-19.0711	-42.775245	0.000201	2.007360	0.680112	-0.000081
1485	1.4766e+02	-19.1000	-42.853862	0.000197	1.966601	0.666302	-0.000079
1486	1.4776e+02	-19.1561	-42.936553	0.000207	2.068498	0.700826	-0.000083
1487	1.4786e+02	-19.1882	-43.021687	0.000213	2.129635	0.721540	-0.000086
1488	1.4796e+02	-19.2460	-43.102748	0.000203	2.027739	0.687017	-0.000081
1489	1.4806e+02	-19.2604	-43.188290	0.000214	2.139825	0.724992	-0.000086
1490	1.4816e+02	-19.2909	-43.265685	0.000194	1.936032	0.655945	-0.000078
1491	1.4825e+02	-19.3278	-43.349191	0.000209	2.088877	0.707731	-0.000084
1492	1.4835e+02	-19.3791	-43.425364	0.000191	1.905463	0.645588	-0.000077
1493	1.4845e+02	-19.4241	-43.518238	0.000232	2.323239	0.787135	-0.000093
1494	1.4855e+02	-19.4529	-43.599299	0.000203	2.027739	0.687017	-0.000081
1495	1.4865e+02	-19.4818	-43.678323	0.000198	1.976791	0.669755	-0.000079
1496	1.4875e+02	-19.5508	-43.762643	0.000211	2.109256	0.714635	-0.000085
1497	1.4885e+02	-19.5973	-43.847371	0.000212	2.119446	0.718088	-0.000085
1498	1.4895e+02	-19.6134	-43.929246	0.000205	2.048118	0.693921	-0.000082
1499	1.4905e+02	-19.6759	-44.014381	0.000213	2.129635	0.721540	-0.000086
1500	1.4915e+02	-19.7080	-44.097072	0.000207	2.068498	0.700826	-0.000083
1501	1.4925e+02	-19.7401	-44.186280	0.000223	2.231532	0.756063	-0.000090
1502	1.4935e+02	-19.7802	-44.268155	0.000205	2.048118	0.693921	-0.000082
1503	1.4945e+02	-19.8091	-44.356141	0.000220	2.200963	0.745706	-0.000088
1504	1.4955e+02	-19.8764	-44.433944	0.000195	1.946222	0.659398	-0.000078
1505	1.4965e+02	-19.9166	-44.521930	0.000220	2.200963	0.745706	-0.000088
1506	1.4975e+02	-19.9470	-44.603398	0.000204	2.037929	0.690469	-0.000082
1507	1.4985e+02	-19.9919	-44.683645	0.000201	2.007360	0.680112	-0.000081
1508	1.4995e+02	-19.9390	-44.657982	0.000064	0.641948	0.217498	0.000026
1509	1.5005e+02	-19.9053	-44.621729	0.000091	0.906878	0.307259	0.000036
1510	1.5015e+02	-19.8668	-44.593215	0.000071	0.713275	0.241664	0.000029
1511	1.5025e+02	-19.8123	-44.561035	0.000080	0.804982	0.272735	0.000032
1512	1.5034e+02	-19.7722	-44.522337	0.000097	0.968016	0.327973	0.000039
1513	1.5044e+02	-19.7289	-44.484047	0.000096	0.957826	0.324520	0.000038
1514	1.5054e+02	-19.7000	-44.440869	0.000108	1.080102	0.365949	0.000043
1515	1.5064e+02	-19.6791	-44.411947	0.000072	0.723465	0.245116	0.000029
1516	1.5074e+02	-19.6150	-44.367547	0.000111	1.110671	0.376306	0.000045
1517	1.5084e+02	-19.5765	-44.333738	0.000085	0.845740	0.286545	0.000034
1518	1.5094e+02	-19.5476	-44.290967	0.000107	1.069913	0.362496	0.000043
1519	1.5104e+02	-19.5043	-44.251454	0.000099	0.988395	0.334877	0.000040
1520	1.5114e+02	-19.4658	-44.205425	0.000115	1.151430	0.390115	0.000046
1521	1.5124e+02	-19.4176	-44.172023	0.000084	0.835551	0.283092	0.000034
1522	1.5134e+02	-19.3872	-44.121512	0.000126	1.263516	0.428091	0.000051
1523	1.5144e+02	-19.3503	-44.075890	0.000114	1.141240	0.386663	0.000046
1524	1.5154e+02	-19.3166	-44.040451	0.000089	0.886499	0.300354	0.000036
1525	1.5164e+02	-19.2716	-43.995643	0.000112	1.120861	0.379758	0.000045
1526	1.5174e+02	-19.2364	-43.953280	0.000106	1.059723	0.359044	0.000043
1527	1.5184e+02	-19.1946	-43.906435	0.000117	1.171809	0.397020	0.000047
1528	1.5194e+02	-19.1369	-43.862442	0.000110	1.100481	0.372853	0.000044
1529	1.5204e+02	-19.1096	-43.815598	0.000117	1.171809	0.397020	0.000047
1530	1.5214e+02	-19.0856	-43.771605	0.000110	1.100481	0.372853	0.000044
1531	1.5224e+02	-19.0294	-43.725983	0.000114	1.141240	0.386663	0.000046
1532	1.5233e+02	-19.0005	-43.676287	0.000124	1.243136	0.421186	0.000050
1533	1.5243e+02	-18.9476	-43.628220	0.000120	1.202378	0.407377	0.000048
1534	1.5253e+02	-18.9203	-43.583005	0.000113	1.131050	0.383210	0.000045
1535	1.5263e+02	-18.8786	-43.526385	0.000142	1.416360	0.479876	0.000057
1536	1.5273e+02	-18.8321	-43.482799	0.000109	1.090292	0.369401	0.000044
1537	1.5283e+02	-18.7920	-43.422920	0.000150	1.497878	0.507495	0.000060
1538	1.5293e+02	-18.7198	-43.374853	0.000120	1.202378	0.407377	0.000048
1539	1.5303e+02	-18.7054	-43.327602	0.000118	1.181999	0.400472	0.000047
1540	1.5313e+02	-18.6636	-43.273832	0.000135	1.345033	0.455709	0.000054
1541	1.5323e+02	-18.6251	-43.217212	0.000142	1.416360	0.479876	0.000057
1542	1.5333e+02	-18.5995	-43.169553	0.000119	1.192188	0.403924	0.000048
1543	1.5343e+02	-18.5497	-43.117820	0.000129	1.294085	0.438448	0.000052
1544	1.5353e+02	-18.5032	-43.059570	0.000146	1.457119	0.493685	0.000059
1545	1.5363e+02	-18.4551	-43.015577	0.000110	1.100481	0.372853	0.000044
1546	1.5373e+02	-18.4246	-42.961401	0.000136	1.355223	0.459162	0.000054
1547	1.5383e+02	-18.4118	-42.898670	0.000157	1.569205	0.531661	0.000063
1548	1.5393e+02	-18.3620	-42.848567	0.000125	1.253326	0.424638	0.000050
1549	1.5403e+02	-18.2899	-42.795205	0.000133	1.334843	0.452257	0.000054
1550	1.5413e+02	-18.2818	-42.740621	0.000137	1.365412	0.462614	0.000055
1551	1.5422e+02	-18.2401	-42.681149	0.000149	1.487688	0.504042	0.000060
1552	1.5432e+02	-18.1824	-42.633897	0.000118	1.181999	0.400472	0.000047
1553	1.5442e+02	-18.1503	-42.571981	0.000155	1.548826	0.524756	0.000062
1554	1.5452e+02	-18.0957	-42.516175	0.000140	1.395981	0.472971	0.000056
1555	1.5462e+02	-18.0813	-42.466887	0.000123	1.232947	0.417734	0.000050
1556	1.5472e+02	-18.0396	-42.411488	0.000139	1.385791	0.469519	0.000056
1557	1.5482e+02	-18.0187	-42.354053	0.000144	1.436740	0.486781	0.000058
1558	1.5492e+02	-17.9530	-42.296210	0.000145	1.446929	0.490233	0.000058
1559	1.5502e+02	-17.9129	-42.235516	0.000152	1.518257	0.514399	0.000061
1560	1.5512e+02	-17.8824	-42.181747	0.000135	1.345033	0.455709	0.000054
1561	1.5522e+02	-17.8439	-42.123497	0.000146	1.457119	0.493685	0.000059
1562	1.5532e+02	-17.7733	-42.066876	0.000142	1.416360	0.479876	0.000057
1563	1.5542e+02	-17.7316	-42.015551	0.000128	1.283895	0.434995	0.000052
1564	1.5552e+02	-17.7107	-41.956486	0.000148	1.477498	0.500590	0.000059
1565	1.5562e+02	-17.6642	-41.898644	0.000145	1.446929	0.490233	0.000058
1566	1.5572e+02	-17.6482	-41.835098	0.000159	1.589584	0.538566	0.000064
1567	1.5582e+02	-17.5824	-41.781737	0.000133	1.334843	0.452257	0.000054
1568	1.5592e+02	-17.5311	-41.724709	0.000143	1.426550	0.483328	0.000057
1569	1.5602e+02	-17.5214	-41.660348	0.000161	1.609964	0.545470	0.000065
1570	1.5612e+02	-17.4877	-41.600876	0.000149	1.487688	0.504042	0.000060
1571	1.5622e+02	-17.4669	-41.544256	0.000142	1.416360	0.479876	0.000057
1572	1.5631e+02	-17.3963	-41.483969	0.000151	1.508067	0.510947	0.000061
1573	1.5641e+02	-17.3626	-41.422868	0.000153	1.528446	0.517852	0.000061
1574	1.5651e+02	-17.3305	-41.363803	0.000148	1.477498	0.500590	0.000059
1575	1.5661e+02	-17.2696	-41.304738	0.000148	1.477498	0.500590	0.000059
1576	1.5671e+02	-17.2567	-41.236305	0.000171	1.711860	0.579994	0.000069
1577	1.5681e+02	-17.2070	-41.176833	0.000149	1.487688	0.504042	0.000060
1578	1.5691e+02	-17.1380	-41.115731	0.000153	1.528446	0.517852	0.000061
1579	1.5701e+02	-17.1156	-41.052593	0.000158	1.579395	0.535113	0.000063
1580	1.5711e+02	-17.0899	-40.991899	0.000152	1.518257	0.514399	0.000061
1581	1.5721e+02	-17.0418	-40.932020	0.000150	1.497878	0.507495	0.000060
1582	1.5731e+02	-16.9744	-40.867252	0.000162	1.620153	0.548923	0.000065
1583	1.5741e+02	-16.9263	-40.810225	0.000143	1.426550	0.483328	0.000057
1584	1.5751e+02	-16.9006	-40.750345	0.000150	1.497878	0.507495	0.000060
1585	1.5761e+02	-16.8701	-40.688429	0.000155	1.548826	0.524756	0.000062
1586	1.5771e+02	-16.8188	-40.620403	0.000170	1.701670	0.576542	0.000068
1587	1.5781e+02	-16.8043	-40.556043	0.000161	1.609964	0.545470	0.000065
1588	1.5791e+02	-16.7402	-40.497385	0.000147	1.467309	0.497138	0.000059
1589	1.5801e+02	-16.7113	-40.432618	0.000162	1.620153	0.548923	0.000065
1590	1.5811e+02	-16.6584	-40.368665	0.000160	1.599774	0.542018	0.000064
1591	1.5821e+02	-16.6343	-40.306342	0.000156	1.559015	0.528209	0.000063
1592	1.5830e+02	-16.5765	-40.250536	0.000140	1.395981	0.472971	0.000056
1593	1.5840e+02	-16.5461	-40.183324	0.000168	1.681291	0.569637	0.000068
1594	1.5850e+02	-16.5332	-40.129148	0.000136	1.355223	0.459162	0.000054
1595	1.5860e+02	-16.4771	-40.064788	0.000161	1.609964	0.545470	0.000065
1596	1.5870e+02	-16.4530	-40.002872	0.000155	1.548826	0.524756	0.000062
1597	1.5880e+02	-16.4145	-39.948695	0.000136	1.355223	0.459162	0.000054
1598	1.5890e+02	-16.3728	-39.879039	0.000174	1.742429	0.590351	0.000070
1599	1.5900e+02	-16.3183	-39.815494	0.000159	1.589584	0.538566	0.000064
1600	1.5910e+02	-16.2782	-39.757244	0.000146	1.457119	0.493685	0.000059
1601	1.5920e+02	-16.2477	-39.685552	0.000179	1.793377	0.607613	0.000072
1602	1.5930e+02	-16.1947	-39.626487	0.000148	1.477498	0.500590	0.000059
1603	1.5940e+02	-16.1594	-39.560498	0.000165	1.650722	0.559280	0.000066
1604	1.5950e+02	-16.1145	-39.497359	0.000158	1.579395	0.535113	0.000063
1605	1.5960e+02	-16.0856	-39.431370	0.000165	1.650722	0.559280	0.000066
1606	1.5970e+02	-16.0568	-39.366195	0.000163	1.630343	0.552375	0.000066
1607	1.5980e+02	-15.9894	-39.308760	0.000144	1.436740	0.486781	0.000058
1608	1.5990e+02	-15.9509	-39.245622	0.000158	1.579395	0.535113	0.000063
1609	1.6000e+02	-15.9156	-39.183298	0.000156	1.559015	0.528209	0.000063
1610	1.6010e+02	-15.8578	-39.114050	0.000173	1.732239	0.586899	0.000070
1611	1.6019e+02	-15.8450	-39.051727	0.000156	1.559015	0.528209	0.000063
1612	1.6029e+02	-15.7873	-38.985737	0.000165	1.650722	0.559280	0.000066
1613	1.6039e+02	-15.7552	-38.918933	0.000167	1.671101	0.566184	0.000067
1614	1.6049e+02	-15.6910	-38.861090	0.000145	1.446929	0.490233	0.000058
1615	1.6059e+02	-15.7006	-38.789805	-0.000178	-1.783188	-0.604160	0.000072
1616	1.6069e+02	-15.6236	-38.736444	0.000133	1.334843	0.452257	0.000054
1617	1.6079e+02	-15.5947	-38.674935	0.000154	1.538636	0.521304	0.000062
1618	1.6089e+02	-15.5402	-38.607316	0.000169	1.691481	0.573089	0.000068
1619	1.6099e+02	-15.5322	-38.543771	0.000159	1.589584	0.538566	0.000064
1620	1.6109e+02	-15.4680	-38.474522	0.000173	1.732239	0.586899	0.000070
1621	1.6119e+02	-15.4407	-38.417902	0.000142	1.416360	0.479876	0.000057
1622	1.6129e+02	-15.3958	-38.353949	0.000160	1.599774	0.542018	0.000064
1623	1.6139e+02	-15.3702	-38.290811	0.000158	1.579395	0.535113	0.000063
1624	1.6149e+02	-15.3284	-38.228080	0.000157	1.569205	0.531661	0.000063
1625	1.6159e+02	-15.2851	-38.166164	0.000155	1.548826	0.524756	0.000062
1626	1.6169e+02	-15.2434	-38.099767	0.000166	1.660912	0.562732	0.000067
1627	1.6179e+02	-15.2017	-38.044776	0.000138	1.375602	0.466067	0.000055
1628	1.6189e+02	-15.1696	-37.980008	0.000162	1.620153	0.548923	0.000065
1629	1.6199e+02	-15.0926	-37.914834	0.000163	1.630343	0.552375	0.000066
1630	1.6209e+02	-15.0637	-37.850066	0.000162	1.620153	0.548923	0.000065
1631	1.6219e+02	-15.0285	-37.787335	0.000157	1.569205	0.531661	0.000063
1632	1.6228e+02	-15.0060	-37.730308	0.000143	1.426550	0.483328	0.000057
1633	1.6238e+02	-14.9434	-37.662689	0.000169	1.691481	0.573089	0.000068
1634	1.6248e+02	-14.9370	-37.603217	0.000149	1.487688	0.504042	0.000060
1635	1.6258e+02	-14.9081	-37.535190	0.000170	1.701670	0.576542	0.000068
1636	1.6268e+02	-14.8392	-37.474496	0.000152	1.518257	0.514399	0.000061
1637	1.6278e+02	-14.8071	-37.415839	0.000147	1.467309	0.497138	0.000059
1638	1.6288e+02	-14.7622	-37.352701	0.000158	1.579395	0.535113	0.000063
1639	1.6298e+02	-14.7092	-37.283045	0.000174	1.742429	0.590351	0.000070
1640	1.6308e+02	-14.6787	-37.223166	0.000150	1.497878	0.507495	0.000060
1641	1.6318e+02	-14.6450	-37.156769	0.000166	1.660912	0.562732	0.000067
1642	1.6328e+02	-14.6033	-37.094446	0.000156	1.559015	0.528209	0.000063
1643	1.6338e+02	-14.5504	-37.028456	0.000165	1.650722	0.559280	0.000066
1644	1.6348e+02	-14.5167	-36.966948	0.000154	1.538636	0.521304	0.000062
1645	1.6358e+02	-14.4734	-36.904217	0.000157	1.569205	0.531661	0.000063
1646	1.6368e+02	-14.4461	-36.842708	0.000154	1.538636	0.521304	0.000062
1647	1.6378e+02	-14.3884	-36.780792	0.000155	1.548826	0.524756	0.000062
1648	1.6388e+02	-14.3611	-36.713173	0.000169	1.691481	0.573089	0.000068
1649	1.6398e+02	-14.3242	-36.647184	0.000165	1.650722	0.559280	0.000066
1650	1.6408e+02	-14.2985	-36.582824	0.000161	1.609964	0.545470	0.000065
1651	1.6418e+02	-14.2600	-36.520093	0.000157	1.569205	0.531661	0.000063
1652	1.6427e+02	-14.2103	-36.458177	0.000155	1.548826	0.524756	0.000062
1653	1.6437e+02	-14.1654	-36.394631	0.000159	1.589584	0.538566	0.000064
1654	1.6447e+02	-14.1221	-36.332308	0.000156	1.559015	0.528209	0.000063
1655	1.6457e+02	-14.0948	-36.267540	0.000162	1.620153	0.548923	0.000065
1656	1.6467e+02	-14.0595	-36.206439	0.000153	1.528446	0.517852	0.000061
1657	1.6477e+02	-14.0066	-36.141672	0.000162	1.620153	0.548923	0.000065
1658	1.6487e+02	-13.9665	-36.076497	0.000163	1.630343	0.552375	0.000066
1659	1.6497e+02	-13.9472	-36.013359	0.000158	1.579395	0.535113	0.000063
1660	1.6507e+02	-13.8750	-35.953479	0.000150	1.497878	0.507495	0.000060
1661	1.6517e+02	-13.8445	-35.891971	0.000154	1.538636	0.521304	0.000062
1662	1.6527e+02	-13.8189	-35.830055	0.000155	1.548826	0.524756	0.000062
1663	1.6537e+02	-13.7868	-35.765694	0.000161	1.609964	0.545470	0.000065
1664	1.6547e+02	-13.7531	-35.700112	0.000164	1.640533	0.555827	0.000066
1665	1.6557e+02	-13.7050	-35.633308	0.000167	1.671101	0.566184	0.000067
1666	1.6567e+02	-13.6600	-35.567319	0.000165	1.650722	0.559280	0.000066
1667	1.6577e+02	-13.5975	-35.509069	0.000146	1.457119	0.493685	0.000059
1668	1.6587e+02	-13.5959	-35.445523	0.000159	1.589584	0.538566	0.000064
1669	1.6597e+02	-13.5333	-35.383200	0.000156	1.559015	0.528209	0.000063
1670	1.6607e+02	-13.4691	-35.316396	0.000167	1.671101	0.566184	0.000067
1671	1.6616e+02	-13.4499	-35.253665	0.000157	1.569205	0.531661	0.000063
1672	1.6626e+02	-13.4034	-35.187675	0.000165	1.650722	0.559280	0.000066
1673	1.6636e+02	-13.3536	-35.127389	0.000151	1.508067	0.510947	0.000061
1674	1.6646e+02	-13.3264	-35.056918	0.000176	1.762808	0.597256	0.000071
1675	1.6656e+02	-13.2702	-35.002334	0.000137	1.365412	0.462614	0.000055
1676	1.6666e+02	-13.2606	-34.928198	0.000185	1.854515	0.628327	0.000075
1677	1.6676e+02	-13.2157	-34.862209	0.000165	1.650722	0.559280	0.000066
1678	1.6686e+02	-13.1627	-34.794590	0.000169	1.691481	0.573089	0.000068
1679	1.6696e+02	-13.1467	-34.731452	0.000158	1.579395	0.535113	0.000063
1680	1.6706e+02	-13.0809	-34.664240	0.000168	1.681291	0.569637	0.000068
1681	1.6716e+02	-13.0392	-34.599880	0.000161	1.609964	0.545470	0.000065
1682	1.6726e+02	-13.0039	-34.531446	0.000171	1.711860	0.579994	0.000069
1683	1.6736e+02	-12.9526	-34.464642	0.000167	1.671101	0.566184	0.000067
1684	1.6746e+02	-12.9381	-34.399875	0.000162	1.620153	0.548923	0.000065
1685	1.6756e+02	-12.8932	-34.336737	0.000158	1.579395	0.535113	0.000063
1686	1.6766e+02	-12.8740	-34.271969	0.000162	1.620153	0.548923	0.000065
1687	1.6776e+02	-12.8066	-34.209238	0.000157	1.569205	0.531661	0.000063
1688	1.6786e+02	-12.7729	-34.144471	0.000162	1.620153	0.548923	0.000065
1689	1.6796e+02	-12.7376	-34.071557	0.000182	1.823946	0.617970	0.000073
1690	1.6806e+02	-12.6943	-34.012085	0.000149	1.487688	0.504042	0.000060
1691	1.6816e+02	-12.6654	-33.939578	0.000181	1.813756	0.614517	0.000073
1692	1.6825e+02	-12.6093	-33.878884	0.000152	1.518257	0.514399	0.000061
1693	1.6835e+02	-12.5852	-33.807191	0.000179	1.793377	0.607613	0.000072
1694	1.6845e+02	-12.5323	-33.740795	0.000166	1.660912	0.562732	0.000067
1695	1.6855e+02	-12.4681	-33.674805	0.000165	1.650722	0.559280	0.000066
1696	1.6865e+02	-12.4553	-33.607186	0.000169	1.691481	0.573089	0.000068
1697	1.6875e+02	-12.4344	-33.540789	0.000166	1.660912	0.562732	0.000067
1698	1.6885e+02	-12.3606	-33.476837	0.000160	1.599774	0.542018	0.000064
1699	1.6895e+02	-12.3414	-33.399441	0.000194	1.936032	0.655945	0.000078
1700	1.6905e+02	-12.2644	-33.337118	0.000156	1.559015	0.528209	0.000063
1701	1.6915e+02	-12.2740	-33.263796	-0.000183	-1.834136	-0.621422	0.000074
1702	1.6925e+02	-12.2307	-33.198622	0.000163	1.630343	0.552375	0.000066
1703	1.6935e+02	-12.1970	-33.125707	0.000182	1.823946	0.617970	0.000073
1704	1.6945e+02	-12.1216	-33.056459	0.000173	1.732239	0.586899	0.000070
1705	1.6955e+02	-12.0975	-32.981101	0.000189	1.885084	0.638684	0.000076
1706	1.6965e+02	-12.0606	-32.915111	0.000165	1.650722	0.559280	0.000066
1707	1.6975e+02	-12.0366	-32.847492	0.000169	1.691481	0.573089	0.000068
1708	1.6985e+02	-11.9644	-32.772949	0.000186	1.864705	0.631779	0.000075
1709	1.6995e+02	-11.9178	-32.697998	0.000187	1.874894	0.635231	0.000075
1710	1.7005e+02	-11.9050	-32.626305	0.000179	1.793377	0.607613	0.000072
1711	1.7015e+02	-11.8505	-32.559094	0.000168	1.681291	0.569637	0.000068
1712	1.7024e+02	-11.8136	-32.489438	0.000174	1.742429	0.590351	0.000070
1713	1.7034e+02	-11.7767	-32.414895	0.000186	1.864705	0.631779	0.000075
1714	1.7044e+02	-11.7189	-32.339536	0.000189	1.885084	0.638684	0.000076
1715	1.7054e+02	-11.6868	-32.269473	0.000175	1.752619	0.593803	0.000070
1716	1.7064e+02	-11.6499	-32.201447	0.000170	1.701670	0.576542	0.000068
1717	1.7074e+02	-11.5906	-32.133014	0.000171	1.711860	0.579994	0.000069
1718	1.7084e+02	-11.5569	-32.056026	0.000193	1.925843	0.652493	0.000077
1719	1.7094e+02	-11.5441	-31.980667	0.000189	1.885084	0.638684	0.000076
1720	1.7104e+02	-11.4959	-31.908160	0.000181	1.813756	0.614517	0.000073
1721	1.7114e+02	-11.4510	-31.840134	0.000170	1.701670	0.576542	0.000068
1722	1.7124e+02	-11.4173	-31.765998	0.000185	1.854515	0.628327	0.000075
1723	1.7134e+02	-11.3884	-31.694306	0.000179	1.793377	0.607613	0.000072
1724	1.7144e+02	-11.3355	-31.617725	0.000192	1.915653	0.649041	0.000077
1725	1.7154e+02	-11.3114	-31.543589	0.000185	1.854515	0.628327	0.000075
1726	1.7164e+02	-11.2665	-31.467416	0.000191	1.905463	0.645588	0.000077
1727	1.7174e+02	-11.2216	-31.401834	0.000164	1.640533	0.555827	0.000066
1728	1.7184e+02	-11.1959	-31.324439	0.000194	1.936032	0.655945	0.000078
1729	1.7194e+02	-11.1350	-31.247858	0.000192	1.915653	0.649041	0.000077
1730	1.7204e+02	-11.0981	-31.178203	0.000174	1.742429	0.590351	0.000070
1731	1.7213e+02	-11.0804	-31.108140	0.000175	1.752619	0.593803	0.000070
1732	1.7223e+02	-11.0387	-31.030337	0.000195	1.946222	0.659398	0.000078
1733	1.7233e+02	-10.9746	-30.955794	0.000186	1.864705	0.631779	0.000075
1734	1.7243e+02	-10.9617	-30.884916	0.000177	1.772998	0.600708	0.000071
1735	1.7253e+02	-10.9072	-30.805484	0.000199	1.986980	0.673207	0.000080
1736	1.7263e+02	-10.8478	-30.730126	0.000189	1.885084	0.638684	0.000076
1737	1.7273e+02	-10.8238	-30.654360	0.000190	1.895274	0.642136	0.000076
1738	1.7283e+02	-10.7837	-30.581446	0.000182	1.823946	0.617970	0.000073
1739	1.7293e+02	-10.7387	-30.503643	0.000195	1.946222	0.659398	0.000078
1740	1.7303e+02	-10.7099	-30.423397	0.000201	2.007360	0.680112	0.000081
1741	1.7313e+02	-10.6681	-30.346816	0.000192	1.915653	0.649041	0.000077
1742	1.7323e+02	-10.6088	-30.276753	0.000175	1.752619	0.593803	0.000070
1743	1.7333e+02	-10.5783	-30.195692	0.000203	2.027739	0.687017	0.000081
1744	1.7343e+02	-10.5334	-30.119519	0.000191	1.905463	0.645588	0.000077
1745	1.7353e+02	-10.5174	-30.032348	0.000218	2.180584	0.738802	0.000088
1746	1.7363e+02	-10.4788	-29.961470	0.000177	1.772998	0.600708	0.000071
1747	1.7373e+02	-10.4179	-29.888556	0.000182	1.823946	0.617970	0.000073
1748	1.7383e+02	-10.3794	-29.809124	0.000199	1.986980	0.673207	0.000080
1749	1.7393e+02	-10.3345	-29.730507	0.000197	1.966601	0.666302	0.000079
1750	1.7403e+02	-10.2960	-29.658408	0.000180	1.803567	0.611065	0.000072
1751	1.7413e+02	-10.2559	-29.575717	0.000207	2.068498	0.700826	0.000083
1752	1.7422e+02	-10.2382	-29.499951	0.000190	1.895274	0.642136	0.000076
1753	1.7432e+02	-10.1917	-29.419297	0.000202	2.017549	0.683564	0.000081
1754	1.7442e+02	-10.1404	-29.344346	0.000187	1.874894	0.635231	0.000075
1755	1.7452e+02	-10.1131	-29.263693	0.000202	2.017549	0.683564	0.000081
1756	1.7462e+02	-10.0617	-29.184261	0.000199	1.986980	0.673207	0.000080
1757	1.7472e+02	-10.0457	-29.104014	0.000201	2.007360	0.680112	0.000081
1758	1.7482e+02	-9.9655	-29.024582	0.000199	1.986980	0.673207	0.000080
1759	1.7492e+02	-9.9430	-28.950446	0.000185	1.854515	0.628327	0.000075
1760	1.7502e+02	-9.9158	-28.872644	0.000195	1.946222	0.659398	0.000078
1761	1.7512e+02	-9.8468	-28.794841	0.000195	1.946222	0.659398	0.000078
1762	1.7522e+02	-9.8179	-28.716632	0.000196	1.956411	0.662850	0.000079
1763	1.7532e+02	-9.7890	-28.644125	0.000181	1.813756	0.614517	0.000073
1764	1.7542e+02	-9.7505	-28.566322	0.000195	1.946222	0.659398	0.000078
1765	1.7552e+02	-9.7024	-28.488927	0.000194	1.936032	0.655945	0.000078
1766	1.7562e+02	-9.6639	-28.403385	0.000214	2.139825	0.724992	0.000086
1767	1.7572e+02	-9.6029	-28.325583	0.000195	1.946222	0.659398	0.000078
1768	1.7582e+02	-9.5692	-28.250632	0.000187	1.874894	0.635231	0.000075
1769	1.7592e+02	-9.5580	-28.168756	0.000205	2.048118	0.693921	0.000082
1770	1.7602e+02	-9.4987	-28.086880	0.000205	2.048118	0.693921	0.000082
1771	1.7612e+02	-9.4602	-28.014373	0.000181	1.813756	0.614517	0.000073
1772	1.7621e+02	-9.4249	-27.933719	0.000202	2.017549	0.683564	0.000081
1773	1.7631e+02	-9.4104	-27.851436	0.000206	2.058308	0.697374	0.000083
1774	1.7641e+02	-9.3334	-27.769153	0.000206	2.058308	0.697374	0.000083
1775	1.7651e+02	-9.2997	-27.695424	0.000184	1.844325	0.624874	0.000074
1776	1.7661e+02	-9.2789	-27.617621	0.000195	1.946222	0.659398	0.000078
1777	1.7671e+02	-9.2243	-27.535745	0.000205	2.048118	0.693921	0.000082
1778	1.7681e+02	-9.1730	-27.452648	0.000208	2.078687	0.704278	0.000084
1779	1.7691e+02	-9.1521	-27.372401	0.000201	2.007360	0.680112	0.000081
1780	1.7701e+02	-9.1040	-27.295821	0.000192	1.915653	0.649041	0.000077
1781	1.7711e+02	-9.0655	-27.217611	0.000196	1.956411	0.662850	0.000079
1782	1.7721e+02	-9.0238	-27.132476	0.000213	2.129635	0.721540	0.000086
1783	1.7731e+02	-8.9965	-27.048971	0.000209	2.088877	0.707731	0.000084
1784	1.7741e+02	-8.9372	-26.976057	0.000182	1.823946	0.617970	0.000073
1785	1.7751e+02	-8.9163	-26.894996	0.000203	2.027739	0.687017	0.000081
1786	1.7761e+02	-8.8746	-26.818415	0.000192	1.915653	0.649041	0.000077
1787	1.7771e+02	-8.8201	-26.732466	0.000215	2.150015	0.728445	0.000086
1788	1.7781e+02	-8.7944	-26.657515	0.000187	1.874894	0.635231	0.000075
1789	1.7791e+02	-8.7591	-26.574010	0.000209	2.088877	0.707731	0.000084
1790	1.7801e+02	-8.7238	-26.503132	0.000177	1.772998	0.600708	0.000071
1791	1.7810e+02	-8.6596	-26.420442	0.000207	2.068498	0.700826	0.000083
1792	1.7820e+02	-8.6163	-26.345083	0.000189	1.885084	0.638684	0.000076
1793	1.7830e+02	-8.5714	-26.267688	0.000194	1.936032	0.655945	0.000078
1794	1.7840e+02	-8.5409	-26.192737	0.000187	1.874894	0.635231	0.000075
1795	1.7850e+02	-8.4960	-26.108825	0.000210	2.099066	0.711183	0.000084
1796	1.7860e+02	-8.4848	-26.030615	0.000196	1.956411	0.662850	0.000079
1797	1.7870e+02	-8.4158	-25.952812	0.000195	1.946222	0.659398	0.000078
1798	1.7880e+02	-8.4078	-25.870529	0.000206	2.058308	0.697374	0.000083
1799	1.7890e+02	-8.3629	-25.797207	0.000183	1.834136	0.621422	0.000074
1800	1.7900e+02	-8.2971	-25.713295	0.000210	2.099066	0.711183	0.000084
1801	1.7910e+02	-8.2859	-25.640381	0.000182	1.823946	0.617970	0.000073
1802	1.7920e+02	-8.2281	-25.557283	0.000208	2.078687	0.704278	0.000084
1803	1.7930e+02	-8.1864	-25.476222	0.000203	2.027739	0.687017	0.000081
1804	1.7940e+02	-8.1495	-25.395568	0.000202	2.017549	0.683564	0.000081
1805	1.7950e+02	-8.1206	-25.316543	0.000198	1.976791	0.669755	0.000079
1806	1.7960e+02	-8.0613	-25.237926	0.000197	1.966601	0.666302	0.000079
1807	1.7970e+02	-8.0420	-25.158902	0.000198	1.976791	0.669755	0.000079
1808	1.7980e+02	-7.9907	-25.079470	0.000199	1.986980	0.673207	0.000080
1809	1.7990e+02	-7.9682	-25.000853	0.000197	1.966601	0.666302	0.000079
1810	1.8000e+02	-7.8912	-24.913681	0.000218	2.180584	0.738802	0.000088
1811	1.8009e+02	-7.8784	-24.835472	0.000196	1.956411	0.662850	0.000079
1812	1.8019e+02	-7.8254	-24.757262	0.000196	1.956411	0.662850	0.000079
1813	1.8029e+02	-7.7918	-24.677830	0.000199	1.986980	0.673207	0.000080
1814	1.8039e+02	-7.7613	-24.593103	0.000212	2.119446	0.718088	0.000085
1815	1.8049e+02	-7.7148	-24.511634	0.000204	2.037929	0.690469	0.000082
1816	1.8059e+02	-7.6795	-24.433425	0.000196	1.956411	0.662850	0.000079
1817	1.8069e+02	-7.6442	-24.354807	0.000197	1.966601	0.666302	0.000079
1818	1.8079e+02	-7.6265	-24.269266	0.000214	2.139825	0.724992	0.000086
1819	1.8089e+02	-7.5335	-24.190648	0.000197	1.966601	0.666302	0.000079
1820	1.8099e+02	-7.5174	-24.113253	0.000194	1.936032	0.655945	0.000078
1821	1.8109e+02	-7.4934	-24.030563	0.000207	2.068498	0.700826	0.000083
1822	1.8119e+02	-7.4308	-23.948280	0.000206	2.058308	0.697374	0.000083
1823	1.8129e+02	-7.3811	-23.867218	0.000203	2.027739	0.687017	0.000081
1824	1.8139e+02	-7.3634	-23.787379	0.000200	1.997170	0.676660	0.000080
1825	1.8149e+02	-7.3153	-23.718131	0.000173	1.732239	0.586899	0.000070
1826	1.8159e+02	-7.2864	-23.631367	0.000217	2.170394	0.735349	0.000087
1827	1.8169e+02	-7.2367	-23.547047	0.000211	2.109256	0.714635	0.000085
1828	1.8179e+02	-7.1934	-23.466393	0.000202	2.017549	0.683564	0.000081
1829	1.8189e+02	-7.1565	-23.391442	0.000187	1.874894	0.635231	0.000075
1830	1.8199e+02	-7.1116	-23.302642	0.000222	2.221342	0.752611	0.000089
1831	1.8209e+02	-7.0715	-23.225654	0.000193	1.925843	0.652493	0.000077
1832	1.8218e+02	-7.0314	-23.145407	0.000201	2.007360	0.680112	0.000081
1833	1.8228e+02	-7.0025	-23.063532	0.000205	2.048118	0.693921	0.000082
1834	1.8238e+02	-6.9383	-22.984914	0.000197	1.966601	0.666302	0.000079
1835	1.8248e+02	-6.9207	-22.903446	0.000204	2.037929	0.690469	0.000082
1836	1.8258e+02	-6.8838	-22.819941	0.000209	2.088877	0.707731	0.000084
1837	1.8268e+02	-6.8228	-22.738880	0.000203	2.027739	0.687017	0.000081
1838	1.8278e+02	-6.7827	-22.658226	0.000202	2.017549	0.683564	0.000081
1839	1.8288e+02	-6.7474	-22.571869	0.000216	2.160204	0.731897	0.000087
1840	1.8298e+02	-6.6913	-22.494474	0.000194	1.936032	0.655945	0.000078
1841	1.8308e+02	-6.6704	-22.404451	0.000225	2.251911	0.762968	0.000090
1842	1.8318e+02	-6.6351	-22.327056	0.000194	1.936032	0.655945	0.000078
1843	1.8328e+02	-6.5838	-22.242329	0.000212	2.119446	0.718088	0.000085
1844	1.8338e+02	-6.5565	-22.155565	0.000217	2.170394	0.735349	0.000087
1845	1.8348e+02	-6.5244	-22.069208	0.000216	2.160204	0.731897	0.000087
1846	1.8358e+02	-6.4891	-21.984074	0.000213	2.129635	0.721540	0.000086
1847	1.8368e+02	-6.4410	-21.903013	0.000203	2.027739	0.687017	0.000081
1848	1.8378e+02	-6.3945	-21.822359	0.000202	2.017549	0.683564	0.000081
1849	1.8388e+02	-6.3383	-21.740076	0.000206	2.058308	0.697374	0.000083
1850	1.8398e+02	-6.2854	-21.659422	0.000202	2.017549	0.683564	0.000081
1851	1.8407e+02	-6.2742	-21.575917	0.000209	2.088877	0.707731	0.000084
1852	1.8417e+02	-6.2357	-21.492004	0.000210	2.099066	0.711183	0.000084
1853	1.8427e+02	-6.1923	-21.400352	0.000229	2.292670	0.776778	0.000092
1854	1.8437e+02	-6.1811	-21.324994	0.000189	1.885084	0.638684	0.000076
1855	1.8447e+02	-6.1298	-21.234156	0.000227	2.272290	0.769873	0.000091
1856	1.8457e+02	-6.0961	-21.150244	0.000210	2.099066	0.711183	0.000084
1857	1.8467e+02	-6.0191	-21.061036	0.000223	2.231532	0.756063	0.000090
1858	1.8477e+02	-5.9998	-20.977530	0.000209	2.088877	0.707731	0.000084
1859	1.8487e+02	-5.9629	-20.887915	0.000224	2.241721	0.759516	0.000090
1860	1.8497e+02	-5.8907	-20.804002	0.000210	2.099066	0.711183	0.000084
1861	1.8507e+02	-5.8875	-20.714794	0.000223	2.231532	0.756063	0.000090
1862	1.8517e+02	-5.8282	-20.628438	0.000216	2.160204	0.731897	0.000087
1863	1.8527e+02	-5.8025	-20.538415	0.000225	2.251911	0.762968	0.000090
1864	1.8537e+02	-5.7592	-20.456539	0.000205	2.048118	0.693921	0.000082
1865	1.8547e+02	-5.7223	-20.368146	0.000221	2.211153	0.749159	0.000089
1866	1.8557e+02	-5.7047	-20.279753	0.000221	2.211153	0.749159	0.000089
1867	1.8567e+02	-5.6485	-20.191767	0.000220	2.200963	0.745706	0.000088
1868	1.8577e+02	-5.6100	-20.101744	0.000225	2.251911	0.762968	0.000090
1869	1.8587e+02	-5.5635	-20.017424	0.000211	2.109256	0.714635	0.000085
1870	1.8597e+02	-5.5282	-19.920884	0.000241	2.414945	0.818206	0.000097
1871	1.8606e+02	-5.4672	-19.831676	0.000223	2.231532	0.756063	0.000090
1872	1.8616e+02	-5.4480	-19.740838	0.000227	2.272290	0.769873	0.000091
1873	1.8626e+02	-5.3966	-19.657741	0.000208	2.078687	0.704278	0.000084
1874	1.8636e+02	-5.3630	-19.557942	0.000250	2.496463	0.845824	0.000100
1875	1.8646e+02	-5.3196	-19.471585	0.000216	2.160204	0.731897	0.000087
1876	1.8656e+02	-5.2908	-19.373823	0.000245	2.445514	0.828563	0.000098
1877	1.8666e+02	-5.2539	-19.280134	0.000234	2.343618	0.794039	0.000094
1878	1.8676e+02	-5.1945	-19.188482	0.000229	2.292670	0.776778	0.000092
1879	1.8686e+02	-5.1720	-19.101311	0.000218	2.180584	0.738802	0.000088
1880	1.8696e+02	-5.1191	-19.003141	0.000246	2.455704	0.832015	0.000099
1881	1.8706e+02	-5.0806	-18.911896	0.000228	2.282480	0.773325	0.000092
1882	1.8716e+02	-5.0453	-18.820244	0.000229	2.292670	0.776778	0.000092
1883	1.8726e+02	-5.0068	-18.725333	0.000237	2.374187	0.804396	0.000095
1884	1.8736e+02	-4.9715	-18.626757	0.000247	2.465894	0.835467	0.000099
1885	1.8746e+02	-4.9234	-18.535104	0.000229	2.292670	0.776778	0.000092
1886	1.8756e+02	-4.8833	-18.448340	0.000217	2.170394	0.735349	0.000087
1887	1.8766e+02	-4.8287	-18.345283	0.000258	2.577980	0.873443	0.000104
1888	1.8776e+02	-4.8015	-18.248743	0.000241	2.414945	0.818206	0.000097
1889	1.8786e+02	-4.7662	-18.154647	0.000235	2.353808	0.797492	0.000095
1890	1.8796e+02	-4.7164	-18.065846	0.000222	2.221342	0.752611	0.000089
1891	1.8806e+02	-4.6635	-17.965640	0.000251	2.506652	0.849277	0.000101
1892	1.8815e+02	-4.6410	-17.867877	0.000245	2.445514	0.828563	0.000098
1893	1.8825e+02	-4.5961	-17.772152	0.000239	2.394566	0.811301	0.000096
1894	1.8835e+02	-4.5624	-17.678056	0.000235	2.353808	0.797492	0.000095
1895	1.8845e+02	-4.5304	-17.578257	0.000250	2.496463	0.845824	0.000100
1896	1.8855e+02	-4.4598	-17.482939	0.000238	2.384376	0.807849	0.000096
1897	1.8865e+02	-4.4598	-17.383954	-0.000248	-2.476083	-0.838920	0.000099
1898	1.8875e+02	-4.4148	-17.287822	0.000240	2.404756	0.814753	0.000097
1899	1.8885e+02	-4.3523	-17.192096	0.000239	2.394566	0.811301	0.000096
1900	1.8895e+02	-4.3314	-17.093112	0.000248	2.476083	0.838920	0.000099
1901	1.8905e+02	-4.2881	-16.998201	0.000237	2.374187	0.804396	0.000095
1902	1.8915e+02	-4.2528	-16.900846	0.000244	2.435325	0.825110	0.000098
1903	1.8925e+02	-4.2015	-16.792900	0.000270	2.700255	0.914871	0.000108
1904	1.8935e+02	-4.1694	-16.706544	0.000216	2.160204	0.731897	0.000087
1905	1.8945e+02	-4.1197	-16.597783	0.000272	2.720635	0.921776	0.000109
1906	1.8955e+02	-4.0828	-16.499614	0.000246	2.455704	0.832015	0.000099
1907	1.8965e+02	-4.0379	-16.396556	0.000258	2.577980	0.873443	0.000104
1908	1.8975e+02	-3.9961	-16.298794	0.000245	2.445514	0.828563	0.000098
1909	1.8985e+02	-3.9496	-16.186367	0.000281	2.812341	0.952847	0.000113
1910	1.8995e+02	-3.9336	-16.089012	0.000244	2.435325	0.825110	0.000098
1911	1.9004e+02	-3.8774	-15.982696	0.000266	2.659497	0.901062	0.000107
1912	1.9014e+02	-3.8293	-15.879231	0.000259	2.588169	0.876895	0.000104
1913	1.9024e+02	-3.7860	-15.776173	0.000258	2.577980	0.873443	0.000104
1914	1.9034e+02	-3.7555	-15.673930	0.000256	2.557600	0.866538	0.000103
1915	1.9044e+02	-3.7363	-15.576575	0.000244	2.435325	0.825110	0.000098
1916	1.9054e+02	-3.6609	-15.464964	0.000279	2.791962	0.945942	0.000112
1917	1.9064e+02	-3.6368	-15.369238	0.000239	2.394566	0.811301	0.000096
1918	1.9074e+02	-3.6191	-15.261700	0.000269	2.690066	0.911419	0.000108
1919	1.9084e+02	-3.5742	-15.150495	0.000278	2.781773	0.942490	0.000112
1920	1.9094e+02	-3.5421	-15.049067	0.000254	2.537221	0.859634	0.000102
1921	1.9104e+02	-3.4716	-14.942750	0.000266	2.659497	0.901062	0.000107
1922	1.9114e+02	-3.4459	-14.839285	0.000259	2.588169	0.876895	0.000104
1923	1.9124e+02	-3.4010	-14.730525	0.000272	2.720635	0.921776	0.000109
1924	1.9134e+02	-3.3593	-14.624616	0.000265	2.649307	0.897610	0.000106
1925	1.9144e+02	-3.3272	-14.515041	0.000274	2.741014	0.928681	0.000110
1926	1.9154e+02	-3.2807	-14.417686	0.000244	2.435325	0.825110	0.000098
1927	1.9164e+02	-3.2534	-14.308925	0.000272	2.720635	0.921776	0.000109
1928	1.9174e+02	-3.1988	-14.200165	0.000272	2.720635	0.921776	0.000109
1929	1.9184e+02	-3.1796	-14.092627	0.000269	2.690066	0.911419	0.000108
1930	1.9194e+02	-3.1299	-13.988347	0.000261	2.608549	0.883800	0.000105
1931	1.9203e+02	-3.1010	-13.886104	0.000256	2.557600	0.866538	0.000103
1932	1.9213e+02	-3.0865	-13.774899	0.000278	2.781773	0.942490	0.000112
1933	1.9223e+02	-3.0368	-13.667768	0.000268	2.679876	0.907967	0.000108
1934	1.9233e+02	-2.9791	-13.555342	0.000281	2.812341	0.952847	0.000113
1935	1.9243e+02	-2.9357	-13.450247	0.000263	2.628928	0.890705	0.000106
1936	1.9253e+02	-2.8892	-13.336599	0.000284	2.842910	0.963204	0.000114
1937	1.9263e+02	-2.8539	-13.226616	0.000275	2.751204	0.932133	0.000111
1938	1.9273e+02	-2.8283	-13.110524	0.000290	2.904048	0.983918	0.000117
1939	1.9283e+02	-2.7577	-13.001763	0.000272	2.720635	0.921776	0.000109
1940	1.9293e+02	-2.7256	-12.896262	0.000264	2.639118	0.894157	0.000106
1941	1.9303e+02	-2.6935	-12.783428	0.000282	2.822531	0.956299	0.000113
1942	1.9313e+02	-2.6534	-12.668964	0.000286	2.863290	0.970109	0.000115
1943	1.9323e+02	-2.6021	-12.554908	0.000285	2.853100	0.966656	0.000115
1944	1.9333e+02	-2.5860	-12.449814	0.000263	2.628928	0.890705	0.000106
1945	1.9343e+02	-2.5138	-12.332907	0.000292	2.924428	0.990823	0.000117
1946	1.9353e+02	-2.5122	-12.213148	0.000300	2.995755	1.014989	0.000120
1947	1.9363e+02	-2.4320	-12.099907	0.000283	2.832721	0.959752	0.000114
1948	1.9373e+02	-2.4080	-11.996442	0.000259	2.588169	0.876895	0.000104
1949	1.9383e+02	-2.3983	-11.876276	0.000301	3.005945	1.018442	0.000121
1950	1.9393e+02	-2.3326	-11.760998	0.000288	2.883669	0.977013	0.000116
1951	1.9403e+02	-2.2941	-11.643683	0.000293	2.934617	0.994275	0.000118
1952	1.9412e+02	-2.2475	-11.538589	0.000263	2.628928	0.890705	0.000106
1953	1.9422e+02	-2.2219	-11.420867	0.000294	2.944807	0.997728	0.000118
1954	1.9432e+02	-2.1721	-11.308033	0.000282	2.822531	0.956299	0.000113
1955	1.9442e+02	-2.1368	-11.187460	0.000302	3.016134	1.021894	0.000121
1956	1.9452e+02	-2.1064	-11.071774	0.000289	2.893859	0.980466	0.000116
1957	1.9462e+02	-2.0550	-10.966680	0.000263	2.628928	0.890705	0.000106
1958	1.9472e+02	-2.0021	-10.845699	0.000303	3.026324	1.025346	0.000122
1959	1.9482e+02	-1.9764	-10.724718	0.000303	3.026324	1.025346	0.000122
1960	1.9492e+02	-1.9315	-10.606182	0.000297	2.965186	1.004632	0.000119
1961	1.9502e+02	-1.9106	-10.491311	0.000287	2.873479	0.973561	0.000115
1962	1.9512e+02	-1.8593	-10.373996	0.000293	2.934617	0.994275	0.000118
1963	1.9522e+02	-1.8224	-10.261977	0.000280	2.802152	0.949395	0.000113
1964	1.9532e+02	-1.7598	-10.135294	0.000317	3.168979	1.073679	0.000127
1965	1.9542e+02	-1.7278	-10.017164	0.000295	2.954996	1.001180	0.000119
1966	1.9552e+02	-1.6893	-9.900664	0.000291	2.914238	0.987371	0.000117
1967	1.9562e+02	-1.6684	-9.787423	0.000283	2.832721	0.959752	0.000114
1968	1.9572e+02	-1.6042	-9.659925	0.000319	3.189358	1.080584	0.000128
1969	1.9582e+02	-1.5754	-9.538130	0.000305	3.046703	1.032251	0.000122
1970	1.9592e+02	-1.5304	-9.424481	0.000284	2.842910	0.963204	0.000114
1971	1.9601e+02	-1.4839	-9.299834	0.000312	3.118031	1.056417	0.000125
1972	1.9611e+02	-1.4743	-9.179261	0.000302	3.016134	1.021894	0.000121
1973	1.9621e+02	-1.4214	-9.057465	0.000305	3.046703	1.032251	0.000122
1974	1.9631e+02	-1.3716	-8.933633	0.000310	3.097651	1.049513	0.000124
1975	1.9641e+02	-1.3395	-8.813467	0.000301	3.005945	1.018442	0.000121
1976	1.9651e+02	-1.2834	-8.683117	0.000326	3.260686	1.104750	0.000131
1977	1.9661e+02	-1.2561	-8.563766	0.000299	2.985565	1.011537	0.000120
1978	1.9671e+02	-1.1871	-8.439934	0.000310	3.097651	1.049513	0.000124
1979	1.9681e+02	-1.1711	-8.319768	0.000301	3.005945	1.018442	0.000121
1980	1.9691e+02	-1.1374	-8.189418	0.000326	3.260686	1.104750	0.000131
1981	1.9701e+02	-1.1021	-8.058254	0.000328	3.281065	1.111655	0.000132
1982	1.9711e+02	-1.0572	-7.932793	0.000314	3.138410	1.063322	0.000126
1983	1.9721e+02	-1.0315	-7.811404	0.000304	3.036514	1.028799	0.000122
1984	1.9731e+02	-0.9641	-7.680647	0.000327	3.270875	1.108203	0.000131
1985	1.9741e+02	-0.9465	-7.554371	0.000316	3.158789	1.070227	0.000127
1986	1.9751e+02	-0.9016	-7.425651	0.000322	3.219927	1.090941	0.000129
1987	1.9761e+02	-0.8631	-7.295301	0.000326	3.260686	1.104750	0.000131
1988	1.9771e+02	-0.8133	-7.171877	0.000309	3.087462	1.046060	0.000124
1989	1.9781e+02	-0.7941	-7.042342	0.000324	3.240306	1.097846	0.000130
1990	1.9791e+02	-0.7460	-6.910363	0.000330	3.301444	1.118560	0.000133
1991	1.9800e+02	-0.7059	-6.777162	0.000333	3.332013	1.128917	0.000134
1992	1.9810e+02	-0.6609	-6.656181	0.000303	3.026324	1.025346	0.000122
1993	1.9820e+02	-0.6048	-6.524609	0.000329	3.291255	1.115107	0.000132
1994	1.9830e+02	-0.5583	-6.395074	0.000324	3.240306	1.097846	0.000130
1995	1.9840e+02	-0.5310	-6.261466	0.000334	3.342203	1.132369	0.000134
1996	1.9850e+02	-0.5021	-6.140485	0.000303	3.026324	1.025346	0.000122
1997	1.9860e+02	-0.4636	-6.004433	0.000340	3.403341	1.153083	0.000137
1998	1.9870e+02	-0.4171	-5.872861	0.000329	3.291255	1.115107	0.000132
1999	1.9880e+02	-0.3802	-5.743734	0.000323	3.230117	1.094393	0.000130
2000	1.9890e+02	-0.3369	-5.604015	0.000350	3.495048	1.184154	0.000140
2001	1.9900e+02	-0.2743	-5.474480	0.000324	3.240306	1.097846	0.000130
2002	1.9910e+02	-0.2711	-5.341279	0.000333	3.332013	1.128917	0.000134
2003	1.9920e+02	-0.2214	-5.204412	0.000342	3.423720	1.159988	0.000138
2004	1.9930e+02	-0.1829	-5.080987	0.000309	3.087462	1.046060	0.000124
2005	1.9940e+02	-0.1428	-4.940454	0.000352	3.515427	1.191059	0.000141
2006	1.9950e+02	-0.1428	-4.807660	-0.000332	-3.321824	-1.125464	0.000133
2007	1.9960e+02	-0.0417	-4.669571	0.000345	3.454289	1.170345	0.000139
2008	1.9970e+02	-0.0209	-4.535963	0.000334	3.342203	1.132369	0.000134
2009	1.9980e+02	-0.0064	-4.394208	0.000334	3.342203	1.132369	0.000142

Center data before PMax,+/-Pr and +/-Vc Calc.

PMax (uC/cm2):	4.47e+01
Pr (uC/cm2):	1.89e+00
-Pr (uC/cm2):	-4.39e+00
PLoss (uC/cm2):	-1.19e+00
Vc:	1.03e+00
-Vc:	-5.39e-01
C (Max-Eff) (nF):	2.23e-01
K (Eff):	7.57e+02
Vert. (+/-Pr) Shift (uC/cm2):	-1.25e+00
Horiz. Shift (+/-Vc):	2.47e-01
Offset (uC/cm2):	3.18e+00

A (Loop Area - uC/cm2·Volts):	-2.60e-02



Hysteresis Version: 5.48.1 - Radiant Technologies, Inc., 1999 - 9/12/24

