»»»»»»»»»»»»»»»»»»»»»»»»»»»»»»»»»»»» Hysteresis ««««««««««««««««««««««««««««««««««««
»»»  Executed Version:	5.48.1
»»»  Vision Version:	5.48.4 (R)
»»»  Vision Compiled:	9/18/24
»»»  Driver Version:	5.47.0
»»»  Windows Version:	Windows 8 or 8.1
»»»  Processor Information:	x86 (AMD or Intel) - 32 Processors
»»»  Tester Name:	PMF21124-494 (100V)
»»»  Tester S/N:	PMF21124-494
»»»  Internal Amp Type:	100V RevK 270k
»»»  Internal Amp S/N:	iAB2-596/K     
»»»  Execution Count:	1
»»»»»»»»»»»»»»»»»»»»»»»»»»»»»»»»»»»»»»»»»»««««««««««««««««««««««««««««««««««««««««««

Stored:	7/7/2025 - 13:43:7
Configured:	07/07/25 01:27:50 PM
Executed:	07/07/25 01:42:48 PM

»»»»»»»»»»»»»»»»»»»»»»»»»»»»»»»»»»» Sample Info ««««««««««««««««««««««««««««««««««««
Sample Name:	
Lot Name:	
Wafer Name:	
Die Row/Column:	0/0
Capacitor Number:	0
Sample Area (cm2):	1.00e-04
Sample Thickness (microns):	1.50e-01

Amplifier:	Internal

»»»»»»»»»»»»»»»»»»»»»»»»»»»»»»»»»»» Tester Info «««««««««««««««««««««««««««««««««««
Tester Name:	PMF21124-494 (100V)
Tester Serial Number:	PMF21124-494
Return Signal Amp. Level:	0.19 [Index: 3]

»»»»»»»»»»»»»»»»»»»»»»»»»»»»»»»» Hysteresis Info ««««««««««««««««««««««««««««««««««
Task Name:	Hyst-528
Volts:	10.00
Field:	666.67 (kV/cm)
DCBias:	0.00
DCField:	0.00 (kV/cm)
Hysteresis Period (ms):	1.00e+00
Preset:	Enabled
Preset Delay (ms):	1.00e+03
Profile:	Standard Bipolar

»»»»»»»»»»»»»»»»»»»»»»»»»»»»»»»»»»»»»» Data «««««««««««««««««««««««««««««««««««««««
Points:	2001

Valid Data

Point	Time (ms)	Drive Voltage	Measured Polarization (uC/cm2)	Capacitance (uF)	Normalized Capacitance (uF/cm2)	Dielectric Constant	Instantaneous Current (mA)
   1	0.0000e+00	0.0006	-4.732841	0.000545	5.451088	0.923439	0.021779
   2	5.0000e-04	0.0125	-4.623948	0.000545	5.451088	0.923439	0.021779
   3	1.0000e-03	0.0303	-4.470690	0.000767	7.671901	1.299655	0.030652
   4	1.5000e-03	0.0490	-4.361796	0.000545	5.451088	0.923439	0.021779
   5	2.0000e-03	0.0687	-4.260969	0.000505	5.047303	0.855036	0.020165
   6	2.5000e-03	0.0890	-4.160141	0.000505	5.047303	0.855036	0.020165
   7	3.0000e-03	0.1088	-4.063347	0.000485	4.845411	0.820835	0.019359
   8	3.5000e-03	0.1282	-3.950420	0.000565	5.652980	0.957641	0.022585
   9	4.0000e-03	0.1491	-3.877824	0.000363	3.634058	0.615626	0.014519
  10	4.5000e-03	0.1685	-3.740699	0.000686	6.864333	1.162849	0.027425
  11	5.0000e-03	0.1892	-3.635838	0.000525	5.249196	0.889238	0.020972
  12	5.5000e-03	0.2091	-3.518879	0.000585	5.854872	0.991842	0.023392
  13	6.0000e-03	0.2279	-3.426117	0.000464	4.643519	0.786633	0.018552
  14	6.5000e-03	0.2488	-3.293025	0.000666	6.662441	1.128648	0.026618
  15	7.0000e-03	0.2695	-3.188164	0.000525	5.249196	0.889238	0.020972
  16	7.5000e-03	0.2888	-3.083304	0.000525	5.249196	0.889238	0.020972
  17	8.0000e-03	0.3093	-2.990543	0.000464	4.643519	0.786633	0.018552
  18	8.5000e-03	0.3288	-2.865517	0.000626	6.258656	1.060245	0.025005
  19	9.0000e-03	0.3496	-2.756623	0.000545	5.451088	0.923439	0.021779
  20	9.5000e-03	0.3688	-2.692093	0.000323	3.230274	0.547223	0.012906
  21	1.0000e-02	0.3895	-2.534802	0.000787	7.873793	1.333857	0.031458
  22	1.0500e-02	0.4093	-2.421876	0.000565	5.652980	0.957641	0.022585
  23	1.1000e-02	0.4289	-2.321048	0.000505	5.047303	0.855036	0.020165
  24	1.1500e-02	0.4491	-2.240386	0.000404	4.037843	0.684029	0.016132
  25	1.2000e-02	0.4691	-2.175857	0.000323	3.230274	0.547223	0.012906
  26	1.2500e-02	0.4892	-1.986301	0.000949	9.488931	1.607468	0.037911
  27	1.3000e-02	0.5093	-1.849176	0.000686	6.864333	1.162849	0.027425
  28	1.3500e-02	0.5289	-1.728183	0.000606	6.056764	1.026044	0.024199
  29	1.4000e-02	0.5488	-1.675752	0.000262	2.624598	0.444619	0.010486
  30	1.4500e-02	0.5679	-1.538627	0.000686	6.864333	1.162849	0.027425
  31	1.5000e-02	0.5893	-1.457965	0.000404	4.037843	0.684029	0.016132
  32	1.5500e-02	0.6090	-1.328906	0.000646	6.460548	1.094447	0.025812
  33	1.6000e-02	0.6300	-1.244211	0.000424	4.239735	0.718231	0.016939
  34	1.6500e-02	0.6470	-1.066755	0.000888	8.883254	1.504864	0.035491
  35	1.7000e-02	0.6683	-0.986093	0.000404	4.037843	0.684029	0.016132
  36	1.7500e-02	0.6898	-0.853000	0.000666	6.662441	1.128648	0.026618
  37	1.8000e-02	0.7089	-0.760239	0.000464	4.643519	0.786633	0.018552
  38	1.8500e-02	0.7291	-0.695710	0.000323	3.230274	0.547223	0.012906
  39	1.9000e-02	0.7487	-0.538419	0.000787	7.873793	1.333857	0.031458
  40	1.9500e-02	0.7683	-0.473889	0.000323	3.230274	0.547223	0.012906
  41	2.0000e-02	0.7889	-0.360962	0.000565	5.652980	0.957641	0.022585
  42	2.0500e-02	0.8094	-0.195605	0.000828	8.277578	1.402260	0.033071
  43	2.1000e-02	0.8290	-0.127043	0.000343	3.432166	0.581425	0.013713
  44	2.1500e-02	0.8494	0.050414	0.000888	8.883254	1.504864	0.035491
  45	2.2000e-02	0.8681	0.195605	0.000727	7.268117	1.231252	0.029038
  46	2.2500e-02	0.8887	0.264168	0.000343	3.432166	0.581425	0.013713
  47	2.3000e-02	0.9098	0.344830	0.000404	4.037843	0.684029	0.016132
  48	2.3500e-02	0.9295	0.469856	0.000626	6.258656	1.060245	0.025005
  49	2.4000e-02	0.9497	0.578750	0.000545	5.451088	0.923439	0.021779
  50	2.4500e-02	0.9692	0.671511	0.000464	4.643519	0.786633	0.018552
  51	2.5000e-02	0.9884	0.776371	0.000525	5.249196	0.889238	0.020972
  52	2.5500e-02	1.0079	0.933662	0.000787	7.873793	1.333857	0.031458
  53	2.6000e-02	1.0294	1.026424	0.000464	4.643519	0.786633	0.018552
  54	2.6500e-02	1.0490	1.159516	0.000666	6.662441	1.128648	0.026618
  55	2.7000e-02	1.0694	1.207913	0.000242	2.422706	0.410417	0.009679
  56	2.7500e-02	1.0896	1.373270	0.000828	8.277578	1.402260	0.033071
  57	2.8000e-02	1.1103	1.482164	0.000545	5.451088	0.923439	0.021779
  58	2.8500e-02	1.1292	1.558793	0.000384	3.835951	0.649828	0.015326
  59	2.9000e-02	1.1491	1.736249	0.000888	8.883254	1.504864	0.035491
  60	2.9500e-02	1.1691	1.780613	0.000222	2.220814	0.376216	0.008873
  61	3.0000e-02	1.1890	1.921771	0.000707	7.066225	1.197051	0.028232
  62	3.0500e-02	1.2095	2.022599	0.000505	5.047303	0.855036	0.020165
  63	3.1000e-02	1.2297	2.143592	0.000606	6.056764	1.026044	0.024199
  64	3.1500e-02	1.2488	2.204088	0.000303	3.028382	0.513022	0.012099
  65	3.2000e-02	1.2701	2.349280	0.000727	7.268117	1.231252	0.029038
  66	3.2500e-02	1.2895	2.486405	0.000686	6.864333	1.162849	0.027425
  67	3.3000e-02	1.3083	2.595299	0.000545	5.451088	0.923439	0.021779
  68	3.3500e-02	1.3272	2.720325	0.000626	6.258656	1.060245	0.025005
  69	3.4000e-02	1.3479	2.821152	0.000505	5.047303	0.855036	0.020165
  70	3.4500e-02	1.3690	2.893748	0.000363	3.634058	0.615626	0.014519
  71	3.5000e-02	1.3889	3.026841	0.000666	6.662441	1.128648	0.026618
  72	3.5500e-02	1.4091	3.107502	0.000404	4.037843	0.684029	0.016132
  73	3.6000e-02	1.4291	3.260760	0.000767	7.671901	1.299655	0.030652
  74	3.6500e-02	1.4484	3.389819	0.000646	6.460548	1.094447	0.025812
  75	3.7000e-02	1.4682	3.450316	0.000303	3.028382	0.513022	0.012099
  76	3.7500e-02	1.4893	3.611640	0.000808	8.075686	1.368058	0.032265
  77	3.8000e-02	1.5079	3.680202	0.000343	3.432166	0.581425	0.013713
  78	3.8500e-02	1.5292	3.797162	0.000585	5.854872	0.991842	0.023392
  79	3.9000e-02	1.5481	3.934288	0.000686	6.864333	1.162849	0.027425
  80	3.9500e-02	1.5694	4.018983	0.000424	4.239735	0.718231	0.016939
  81	4.0000e-02	1.5900	4.164174	0.000727	7.268117	1.231252	0.029038
  82	4.0500e-02	1.6087	4.309366	0.000727	7.268117	1.231252	0.029038
  83	4.1000e-02	1.6278	4.357763	0.000242	2.422706	0.410417	0.009679
  84	4.1500e-02	1.6498	4.515054	0.000787	7.873793	1.333857	0.031458
  85	4.2000e-02	1.6692	4.623948	0.000545	5.451088	0.923439	0.021779
  86	4.2500e-02	1.6891	4.765106	0.000707	7.066225	1.197051	0.028232
  87	4.3000e-02	1.7084	4.813503	0.000242	2.422706	0.410417	0.009679
  88	4.3500e-02	1.7296	4.966761	0.000767	7.671901	1.299655	0.030652
  89	4.4000e-02	1.7493	5.136151	0.000848	8.479470	1.436461	0.033878
  90	4.4500e-02	1.7690	5.192614	0.000283	2.826490	0.478820	0.011293
  91	4.5000e-02	1.7889	5.285376	0.000464	4.643519	0.786633	0.018552
  92	4.5500e-02	1.8095	5.422501	0.000686	6.864333	1.162849	0.027425
  93	4.6000e-02	1.8301	5.587858	0.000828	8.277578	1.402260	0.033071
  94	4.6500e-02	1.8488	5.668520	0.000404	4.037843	0.684029	0.016132
  95	4.7000e-02	1.8694	5.761281	0.000464	4.643519	0.786633	0.018552
  96	4.7500e-02	1.8906	5.910506	0.000747	7.470009	1.265454	0.029845
  97	4.8000e-02	1.9089	6.015367	0.000525	5.249196	0.889238	0.020972
  98	4.8500e-02	1.9302	6.128293	0.000565	5.652980	0.957641	0.022585
  99	4.9000e-02	1.9490	6.249286	0.000606	6.056764	1.026044	0.024199
 100	4.9500e-02	1.9696	6.350114	0.000505	5.047303	0.855036	0.020165
 101	5.0000e-02	1.9893	6.503371	0.000767	7.671901	1.299655	0.030652
 102	5.0500e-02	2.0088	6.596133	0.000464	4.643519	0.786633	0.018552
 103	5.1000e-02	2.0291	6.680828	0.000424	4.239735	0.718231	0.016939
 104	5.1500e-02	2.0488	6.817953	0.000686	6.864333	1.162849	0.027425
 105	5.2000e-02	2.0699	6.898615	0.000404	4.037843	0.684029	0.016132
 106	5.2500e-02	2.0896	7.027674	0.000646	6.460548	1.094447	0.025812
 107	5.3000e-02	2.1091	7.144634	0.000585	5.854872	0.991842	0.023392
 108	5.3500e-02	2.1301	7.281760	0.000686	6.864333	1.162849	0.027425
 109	5.4000e-02	2.1490	7.402752	0.000606	6.056764	1.026044	0.024199
 110	5.4500e-02	2.1688	7.564076	0.000808	8.075686	1.368058	0.032265
 111	5.5000e-02	2.1887	7.600374	0.000182	1.817029	0.307813	0.007260
 112	5.5500e-02	2.2089	7.749599	0.000747	7.470009	1.265454	0.029845
 113	5.6000e-02	2.2296	7.858493	0.000545	5.451088	0.923439	0.021779
 114	5.6500e-02	2.2498	7.979486	0.000606	6.056764	1.026044	0.024199
 115	5.7000e-02	2.2690	8.044015	0.000323	3.230274	0.547223	0.012906
 116	5.7500e-02	2.2899	8.213405	0.000848	8.479470	1.436461	0.033878
 117	5.8000e-02	2.3087	8.334398	0.000606	6.056764	1.026044	0.024199
 118	5.8500e-02	2.3294	8.427160	0.000464	4.643519	0.786633	0.018552
 119	5.9000e-02	2.3491	8.540086	0.000565	5.652980	0.957641	0.022585
 120	5.9500e-02	2.3695	8.661079	0.000606	6.056764	1.026044	0.024199
 121	6.0000e-02	2.3895	8.830469	0.000848	8.479470	1.436461	0.033878
 122	6.0500e-02	2.4091	8.947429	0.000585	5.854872	0.991842	0.023392
 123	6.1000e-02	2.4274	8.995826	0.000242	2.422706	0.410417	0.009679
 124	6.1500e-02	2.4484	9.096654	0.000505	5.047303	0.855036	0.020165
 125	6.2000e-02	2.4698	9.253945	0.000787	7.873793	1.333857	0.031458
 126	6.2500e-02	2.4890	9.358805	0.000525	5.249196	0.889238	0.020972
 127	6.3000e-02	2.5090	9.467699	0.000545	5.451088	0.923439	0.021779
 128	6.3500e-02	2.5305	9.564493	0.000485	4.845411	0.820835	0.019359
 129	6.4000e-02	2.5493	9.713718	0.000747	7.470009	1.265454	0.029845
 130	6.4500e-02	2.5687	9.846810	0.000666	6.662441	1.128648	0.026618
 131	6.5000e-02	2.5891	9.967803	0.000606	6.056764	1.026044	0.024199
 132	6.5500e-02	2.6093	10.060564	0.000464	4.643519	0.786633	0.018552
 133	6.6000e-02	2.6295	10.145260	0.000424	4.239735	0.718231	0.016939
 134	6.6500e-02	2.6496	10.294484	0.000747	7.470009	1.265454	0.029845
 135	6.7000e-02	2.6691	10.399345	0.000525	5.249196	0.889238	0.020972
 136	6.7500e-02	2.6892	10.504205	0.000525	5.249196	0.889238	0.020972
 137	6.8000e-02	2.7090	10.629231	0.000626	6.258656	1.060245	0.025005
 138	6.8500e-02	2.7297	10.738125	0.000545	5.451088	0.923439	0.021779
 139	6.9000e-02	2.7484	10.859118	0.000606	6.056764	1.026044	0.024199
 140	6.9500e-02	2.7692	10.992210	0.000666	6.662441	1.128648	0.026618
 141	7.0000e-02	2.7896	11.084972	0.000464	4.643519	0.786633	0.018552
 142	7.0500e-02	2.8098	11.173700	0.000444	4.441627	0.752432	0.017746
 143	7.1000e-02	2.8304	11.274527	0.000505	5.047303	0.855036	0.020165
 144	7.1500e-02	2.8497	11.411652	0.000686	6.864333	1.162849	0.027425
 145	7.2000e-02	2.8699	11.552811	0.000707	7.066225	1.197051	0.028232
 146	7.2500e-02	2.8891	11.722201	0.000848	8.479470	1.436461	0.033878
 147	7.3000e-02	2.9102	11.802863	0.000404	4.037843	0.684029	0.016132
 148	7.3500e-02	2.9301	11.859326	0.000283	2.826490	0.478820	0.011293
 149	7.4000e-02	2.9492	12.048882	0.000949	9.488931	1.607468	0.037911
 150	7.4500e-02	2.9704	12.149710	0.000505	5.047303	0.855036	0.020165
 151	7.5000e-02	2.9901	12.250537	0.000505	5.047303	0.855036	0.020165
 152	7.5500e-02	3.0096	12.355398	0.000525	5.249196	0.889238	0.020972
 153	7.6000e-02	3.0298	12.484457	0.000646	6.460548	1.094447	0.025812
 154	7.6500e-02	3.0502	12.561086	0.000384	3.835951	0.649828	0.015326
 155	7.7000e-02	3.0692	12.661913	0.000505	5.047303	0.855036	0.020165
 156	7.7500e-02	3.0899	12.786939	0.000626	6.258656	1.060245	0.025005
 157	7.8000e-02	3.1104	12.956329	0.000848	8.479470	1.436461	0.033878
 158	7.8500e-02	3.1299	13.032958	0.000384	3.835951	0.649828	0.015326
 159	7.9000e-02	3.1506	13.153951	0.000606	6.056764	1.026044	0.024199
 160	7.9500e-02	3.1696	13.266878	0.000565	5.652980	0.957641	0.022585
 161	8.0000e-02	3.1898	13.412069	0.000727	7.268117	1.231252	0.029038
 162	8.0500e-02	3.2101	13.512897	0.000505	5.047303	0.855036	0.020165
 163	8.1000e-02	3.2292	13.650022	0.000686	6.864333	1.162849	0.027425
 164	8.1500e-02	3.2496	13.771015	0.000606	6.056764	1.026044	0.024199
 165	8.2000e-02	3.2707	13.859743	0.000444	4.441627	0.752432	0.017746
 166	8.2500e-02	3.2899	13.984769	0.000626	6.258656	1.060245	0.025005
 167	8.3000e-02	3.3087	14.097696	0.000565	5.652980	0.957641	0.022585
 168	8.3500e-02	3.3298	14.206590	0.000545	5.451088	0.923439	0.021779
 169	8.4000e-02	3.3504	14.307417	0.000505	5.047303	0.855036	0.020165
 170	8.4500e-02	3.3694	14.420344	0.000565	5.652980	0.957641	0.022585
 171	8.5000e-02	3.3896	14.521172	0.000505	5.047303	0.855036	0.020165
 172	8.5500e-02	3.4097	14.662330	0.000707	7.066225	1.197051	0.028232
 173	8.6000e-02	3.4302	14.775257	0.000565	5.652980	0.957641	0.022585
 174	8.6500e-02	3.4497	14.892217	0.000585	5.854872	0.991842	0.023392
 175	8.7000e-02	3.4700	15.017243	0.000626	6.258656	1.060245	0.025005
 176	8.7500e-02	3.4900	15.118070	0.000505	5.047303	0.855036	0.020165
 177	8.8000e-02	3.5101	15.230997	0.000565	5.652980	0.957641	0.022585
 178	8.8500e-02	3.5297	15.327791	0.000485	4.845411	0.820835	0.019359
 179	8.9000e-02	3.5502	15.420553	0.000464	4.643519	0.786633	0.018552
 180	8.9500e-02	3.5690	15.533479	0.000565	5.652980	0.957641	0.022585
 181	9.0000e-02	3.5889	15.682704	0.000747	7.470009	1.265454	0.029845
 182	9.0500e-02	3.6099	15.771432	0.000444	4.441627	0.752432	0.017746
 183	9.1000e-02	3.6298	15.928723	0.000787	7.873793	1.333857	0.031458
 184	9.1500e-02	3.6504	16.037617	0.000545	5.451088	0.923439	0.021779
 185	9.2000e-02	3.6703	16.114245	0.000384	3.835951	0.649828	0.015326
 186	9.2500e-02	3.6884	16.211040	0.000485	4.845411	0.820835	0.019359
 187	9.3000e-02	3.7099	16.299768	0.000444	4.441627	0.752432	0.017746
 188	9.3500e-02	3.7296	16.440926	0.000707	7.066225	1.197051	0.028232
 189	9.4000e-02	3.7506	16.569986	0.000646	6.460548	1.094447	0.025812
 190	9.4500e-02	3.7695	16.666780	0.000485	4.845411	0.820835	0.019359
 191	9.5000e-02	3.7912	16.816005	0.000747	7.470009	1.265454	0.029845
 192	9.5500e-02	3.8101	16.896667	0.000404	4.037843	0.684029	0.016132
 193	9.6000e-02	3.8295	17.029759	0.000666	6.662441	1.128648	0.026618
 194	9.6500e-02	3.8495	17.191083	0.000808	8.075686	1.368058	0.032265
 195	9.7000e-02	3.8693	17.211248	0.000101	1.009461	0.171007	0.004033
 196	9.7500e-02	3.8904	17.364506	0.000767	7.671901	1.299655	0.030652
 197	9.8000e-02	3.9101	17.441135	0.000384	3.835951	0.649828	0.015326
 198	9.8500e-02	3.9301	17.545995	0.000525	5.249196	0.889238	0.020972
 199	9.9000e-02	3.9502	17.695220	0.000747	7.470009	1.265454	0.029845
 200	9.9500e-02	3.9685	17.808147	0.000565	5.652980	0.957641	0.022585
 201	1.0000e-01	3.9905	17.908974	0.000505	5.047303	0.855036	0.020165
 202	1.0050e-01	4.0112	17.981570	0.000363	3.634058	0.615626	0.014519
 203	1.0100e-01	4.0302	18.082398	0.000505	5.047303	0.855036	0.020165
 204	1.0150e-01	4.0498	18.163060	0.000404	4.037843	0.684029	0.016132
 205	1.0200e-01	4.0695	18.409079	0.001232	12.315420	2.086289	0.049204
 206	1.0250e-01	4.0906	18.538138	0.000646	6.460548	1.094447	0.025812
 207	1.0300e-01	4.1107	18.574436	0.000182	1.817029	0.307813	0.007260
 208	1.0350e-01	4.1298	18.647031	0.000363	3.634058	0.615626	0.014519
 209	1.0400e-01	4.1510	18.824488	0.000888	8.883254	1.504864	0.035491
 210	1.0450e-01	4.1699	18.929348	0.000525	5.249196	0.889238	0.020972
 211	1.0500e-01	4.1901	18.985812	0.000283	2.826490	0.478820	0.011293
 212	1.0550e-01	4.2102	19.139069	0.000767	7.671901	1.299655	0.030652
 213	1.0600e-01	4.2310	19.260062	0.000606	6.056764	1.026044	0.024199
 214	1.0650e-01	4.2506	19.352824	0.000464	4.643519	0.786633	0.018552
 215	1.0700e-01	4.2708	19.477850	0.000626	6.258656	1.060245	0.025005
 216	1.0750e-01	4.2902	19.530280	0.000262	2.624598	0.444619	0.010486
 217	1.0800e-01	4.3105	19.647240	0.000585	5.854872	0.991842	0.023392
 218	1.0850e-01	4.3301	19.772266	0.000626	6.258656	1.060245	0.025005
 219	1.0900e-01	4.3500	19.873093	0.000505	5.047303	0.855036	0.020165
 220	1.0950e-01	4.3695	19.998119	0.000626	6.258656	1.060245	0.025005
 221	1.1000e-01	4.3909	20.159443	0.000808	8.075686	1.368058	0.032265
 222	1.1050e-01	4.4119	20.215907	0.000283	2.826490	0.478820	0.011293
 223	1.1100e-01	4.4302	20.320767	0.000525	5.249196	0.889238	0.020972
 224	1.1150e-01	4.4498	20.397396	0.000384	3.835951	0.649828	0.015326
 225	1.1200e-01	4.4704	20.526455	0.000646	6.460548	1.094447	0.025812
 226	1.1250e-01	4.4911	20.675680	0.000747	7.470009	1.265454	0.029845
 227	1.1300e-01	4.5096	20.740210	0.000323	3.230274	0.547223	0.012906
 228	1.1350e-01	4.5300	20.828938	0.000444	4.441627	0.752432	0.017746
 229	1.1400e-01	4.5511	20.929765	0.000505	5.047303	0.855036	0.020165
 230	1.1450e-01	4.5703	21.006394	0.000384	3.835951	0.649828	0.015326
 231	1.1500e-01	4.5906	21.155619	0.000747	7.470009	1.265454	0.029845
 232	1.1550e-01	4.6106	21.256446	0.000505	5.047303	0.855036	0.020165
 233	1.1600e-01	4.6307	21.385505	0.000646	6.460548	1.094447	0.025812
 234	1.1650e-01	4.6506	21.405671	0.000101	1.009461	0.171007	0.004033
 235	1.1700e-01	4.6710	21.599260	0.000969	9.690823	1.641670	0.038718
 236	1.1750e-01	4.6918	21.708153	0.000545	5.451088	0.923439	0.021779
 237	1.1800e-01	4.7101	21.837212	0.000646	6.460548	1.094447	0.025812
 238	1.1850e-01	4.7305	21.958205	0.000606	6.056764	1.026044	0.024199
 239	1.1900e-01	4.7510	22.010636	0.000262	2.624598	0.444619	0.010486
 240	1.1950e-01	4.7707	22.167926	0.000787	7.873793	1.333857	0.031458
 241	1.2000e-01	4.7908	22.276820	0.000545	5.451088	0.923439	0.021779
 242	1.2050e-01	4.8108	22.385714	0.000545	5.451088	0.923439	0.021779
 243	1.2100e-01	4.8303	22.486541	0.000505	5.047303	0.855036	0.020165
 244	1.2150e-01	4.8511	22.559137	0.000363	3.634058	0.615626	0.014519
 245	1.2200e-01	4.8712	22.639799	0.000404	4.037843	0.684029	0.016132
 246	1.2250e-01	4.8898	22.744660	0.000525	5.249196	0.889238	0.020972
 247	1.2300e-01	4.9106	22.893884	0.000747	7.470009	1.265454	0.029845
 248	1.2350e-01	4.9306	23.022943	0.000646	6.460548	1.094447	0.025812
 249	1.2400e-01	4.9518	23.047142	0.000121	1.211353	0.205209	0.004840
 250	1.2450e-01	4.9706	23.220565	0.000868	8.681362	1.470663	0.034685
 251	1.2500e-01	4.9910	23.305260	0.000424	4.239735	0.718231	0.016939
 252	1.2550e-01	5.0110	23.406088	0.000505	5.047303	0.855036	0.020165
 253	1.2600e-01	5.0311	23.527081	0.000606	6.056764	1.026044	0.024199
 254	1.2650e-01	5.0519	23.640007	0.000565	5.652980	0.957641	0.022585
 255	1.2700e-01	5.0705	23.696471	0.000283	2.826490	0.478820	0.011293
 256	1.2750e-01	5.0916	23.785199	0.000444	4.441627	0.752432	0.017746
 257	1.2800e-01	5.1112	23.930391	0.000727	7.268117	1.231252	0.029038
 258	1.2850e-01	5.1300	24.043317	0.000565	5.652980	0.957641	0.022585
 259	1.2900e-01	5.1511	24.180443	0.000686	6.864333	1.162849	0.027425
 260	1.2950e-01	5.1703	24.289336	0.000545	5.451088	0.923439	0.021779
 261	1.3000e-01	5.1912	24.321601	0.000162	1.615137	0.273612	0.006453
 262	1.3050e-01	5.2100	24.422429	0.000505	5.047303	0.855036	0.020165
 263	1.3100e-01	5.2307	24.499057	0.000384	3.835951	0.649828	0.015326
 264	1.3150e-01	5.2509	24.640216	0.000707	7.066225	1.197051	0.028232
 265	1.3200e-01	5.2705	24.801540	0.000808	8.075686	1.368058	0.032265
 266	1.3250e-01	5.2905	24.910434	0.000545	5.451088	0.923439	0.021779
 267	1.3300e-01	5.3107	24.983029	0.000363	3.634058	0.615626	0.014519
 268	1.3350e-01	5.3311	25.063691	0.000404	4.037843	0.684029	0.016132
 269	1.3400e-01	5.3506	25.148386	0.000424	4.239735	0.718231	0.016939
 270	1.3450e-01	5.3717	25.301644	0.000767	7.671901	1.299655	0.030652
 271	1.3500e-01	5.3906	25.398438	0.000485	4.845411	0.820835	0.019359
 272	1.3550e-01	5.4108	25.483134	0.000424	4.239735	0.718231	0.016939
 273	1.3600e-01	5.4315	25.612193	0.000646	6.460548	1.094447	0.025812
 274	1.3650e-01	5.4510	25.672689	0.000303	3.028382	0.513022	0.012099
 275	1.3700e-01	5.4712	25.781583	0.000545	5.451088	0.923439	0.021779
 276	1.3750e-01	5.4913	25.914675	0.000666	6.662441	1.128648	0.026618
 277	1.3800e-01	5.5115	26.011469	0.000485	4.845411	0.820835	0.019359
 278	1.3850e-01	5.5322	26.059867	0.000242	2.422706	0.410417	0.009679
 279	1.3900e-01	5.5511	26.217157	0.000787	7.873793	1.333857	0.031458
 280	1.3950e-01	5.5707	26.297819	0.000404	4.037843	0.684029	0.016132
 281	1.4000e-01	5.5923	26.410746	0.000565	5.652980	0.957641	0.022585
 282	1.4050e-01	5.6110	26.495441	0.000424	4.239735	0.718231	0.016939
 283	1.4100e-01	5.6302	26.555938	0.000303	3.028382	0.513022	0.012099
 284	1.4150e-01	5.6512	26.664831	0.000545	5.451088	0.923439	0.021779
 285	1.4200e-01	5.6720	26.789857	0.000626	6.258656	1.060245	0.025005
 286	1.4250e-01	5.6906	26.882619	0.000464	4.643519	0.786633	0.018552
 287	1.4300e-01	5.7104	26.995545	0.000565	5.652980	0.957641	0.022585
 288	1.4350e-01	5.7312	27.060075	0.000323	3.230274	0.547223	0.012906
 289	1.4400e-01	5.7509	27.225432	0.000828	8.277578	1.402260	0.033071
 290	1.4450e-01	5.7715	27.277862	0.000262	2.624598	0.444619	0.010486
 291	1.4500e-01	5.7901	27.354491	0.000384	3.835951	0.649828	0.015326
 292	1.4550e-01	5.8112	27.467418	0.000565	5.652980	0.957641	0.022585
 293	1.4600e-01	5.8322	27.616643	0.000747	7.470009	1.265454	0.029845
 294	1.4650e-01	5.8517	27.677139	0.000303	3.028382	0.513022	0.012099
 295	1.4700e-01	5.8716	27.765867	0.000444	4.441627	0.752432	0.017746
 296	1.4750e-01	5.8917	27.874761	0.000545	5.451088	0.923439	0.021779
 297	1.4800e-01	5.9125	27.955423	0.000404	4.037843	0.684029	0.016132
 298	1.4850e-01	5.9320	28.124813	0.000848	8.479470	1.436461	0.033878
 299	1.4900e-01	5.9511	28.173210	0.000242	2.422706	0.410417	0.009679
 300	1.4950e-01	5.9717	28.278071	0.000525	5.249196	0.889238	0.020972
 301	1.5000e-01	5.9920	28.439395	0.000808	8.075686	1.368058	0.032265
 302	1.5050e-01	6.0114	28.479726	0.000202	2.018921	0.342015	0.008066
 303	1.5100e-01	6.0315	28.576520	0.000485	4.845411	0.820835	0.019359
 304	1.5150e-01	6.0510	28.628950	0.000262	2.624598	0.444619	0.010486
 305	1.5200e-01	6.0712	28.733811	0.000525	5.249196	0.889238	0.020972
 306	1.5250e-01	6.0915	28.850771	0.000585	5.854872	0.991842	0.023392
 307	1.5300e-01	6.1108	28.979830	0.000646	6.460548	1.094447	0.025812
 308	1.5350e-01	6.1304	29.060492	0.000404	4.037843	0.684029	0.016132
 309	1.5400e-01	6.1508	29.129055	0.000343	3.432166	0.581425	0.013713
 310	1.5450e-01	6.1719	29.290379	0.000808	8.075686	1.368058	0.032265
 311	1.5500e-01	6.1914	29.407338	0.000585	5.854872	0.991842	0.023392
 312	1.5550e-01	6.2112	29.427504	0.000101	1.009461	0.171007	0.004033
 313	1.5600e-01	6.2317	29.556563	0.000646	6.460548	1.094447	0.025812
 314	1.5650e-01	6.2512	29.645291	0.000444	4.441627	0.752432	0.017746
 315	1.5700e-01	6.2714	29.738053	0.000464	4.643519	0.786633	0.018552
 316	1.5750e-01	6.2912	29.850979	0.000565	5.652980	0.957641	0.022585
 317	1.5800e-01	6.3116	29.923575	0.000363	3.634058	0.615626	0.014519
 318	1.5850e-01	6.3309	30.056667	0.000666	6.662441	1.128648	0.026618
 319	1.5900e-01	6.3507	30.165561	0.000545	5.451088	0.923439	0.021779
 320	1.5950e-01	6.3708	30.254289	0.000444	4.441627	0.752432	0.017746
 321	1.6000e-01	6.3898	30.330918	0.000384	3.835951	0.649828	0.015326
 322	1.6050e-01	6.4105	30.455944	0.000626	6.258656	1.060245	0.025005
 323	1.6100e-01	6.4307	30.480143	0.000121	1.211353	0.205209	0.004840
 324	1.6150e-01	6.4514	30.613235	0.000666	6.662441	1.128648	0.026618
 325	1.6200e-01	6.4709	30.734228	0.000606	6.056764	1.026044	0.024199
 326	1.6250e-01	6.4911	30.818923	0.000424	4.239735	0.718231	0.016939
 327	1.6300e-01	6.5106	30.871353	0.000262	2.624598	0.444619	0.010486
 328	1.6350e-01	6.5302	31.024611	0.000767	7.671901	1.299655	0.030652
 329	1.6400e-01	6.5515	31.161736	0.000686	6.864333	1.162849	0.027425
 330	1.6450e-01	6.5710	31.226266	0.000323	3.230274	0.547223	0.012906
 331	1.6500e-01	6.5912	31.282729	0.000283	2.826490	0.478820	0.011293
 332	1.6550e-01	6.6101	31.399689	0.000585	5.854872	0.991842	0.023392
 333	1.6600e-01	6.6316	31.456153	0.000283	2.826490	0.478820	0.011293
 334	1.6650e-01	6.6507	31.601344	0.000727	7.268117	1.231252	0.029038
 335	1.6700e-01	6.6711	31.686039	0.000424	4.239735	0.718231	0.016939
 336	1.6750e-01	6.6907	31.794933	0.000545	5.451088	0.923439	0.021779
 337	1.6800e-01	6.7114	31.851396	0.000283	2.826490	0.478820	0.011293
 338	1.6850e-01	6.7310	31.980455	0.000646	6.460548	1.094447	0.025812
 339	1.6900e-01	6.7511	32.028853	0.000242	2.422706	0.410417	0.009679
 340	1.6950e-01	6.7712	32.145812	0.000585	5.854872	0.991842	0.023392
 341	1.7000e-01	6.7920	32.274872	0.000646	6.460548	1.094447	0.025812
 342	1.7050e-01	6.8109	32.327302	0.000262	2.624598	0.444619	0.010486
 343	1.7100e-01	6.8304	32.424096	0.000485	4.845411	0.820835	0.019359
 344	1.7150e-01	6.8512	32.553155	0.000646	6.460548	1.094447	0.025812
 345	1.7200e-01	6.8707	32.577354	0.000121	1.211353	0.205209	0.004840
 346	1.7250e-01	6.8906	32.698347	0.000606	6.056764	1.026044	0.024199
 347	1.7300e-01	6.9110	32.823373	0.000626	6.258656	1.060245	0.025005
 348	1.7350e-01	6.9318	32.883869	0.000303	3.028382	0.513022	0.012099
 349	1.7400e-01	6.9507	33.000829	0.000585	5.854872	0.991842	0.023392
 350	1.7450e-01	6.9708	33.069392	0.000343	3.432166	0.581425	0.013713
 351	1.7500e-01	6.9910	33.170219	0.000505	5.047303	0.855036	0.020165
 352	1.7550e-01	7.0111	33.315411	0.000727	7.268117	1.231252	0.029038
 353	1.7600e-01	7.0313	33.404139	0.000444	4.441627	0.752432	0.017746
 354	1.7650e-01	7.0508	33.480768	0.000384	3.835951	0.649828	0.015326
 355	1.7700e-01	7.0721	33.569496	0.000444	4.441627	0.752432	0.017746
 356	1.7750e-01	7.0911	33.621926	0.000262	2.624598	0.444619	0.010486
 357	1.7800e-01	7.1112	33.783250	0.000808	8.075686	1.368058	0.032265
 358	1.7850e-01	7.1307	33.871979	0.000444	4.441627	0.752432	0.017746
 359	1.7900e-01	7.1515	33.964740	0.000464	4.643519	0.786633	0.018552
 360	1.7950e-01	7.1709	34.101865	0.000686	6.864333	1.162849	0.027425
 361	1.8000e-01	7.1909	34.138163	0.000182	1.817029	0.307813	0.007260
 362	1.8050e-01	7.2113	34.271255	0.000666	6.662441	1.128648	0.026618
 363	1.8100e-01	7.2310	34.311586	0.000202	2.018921	0.342015	0.008066
 364	1.8150e-01	7.2510	34.372083	0.000303	3.028382	0.513022	0.012099
 365	1.8200e-01	7.2705	34.476943	0.000525	5.249196	0.889238	0.020972
 366	1.8250e-01	7.2906	34.589870	0.000565	5.652980	0.957641	0.022585
 367	1.8300e-01	7.3114	34.726996	0.000686	6.864333	1.162849	0.027425
 368	1.8350e-01	7.3315	34.835889	0.000545	5.451088	0.923439	0.021779
 369	1.8400e-01	7.3511	34.896386	0.000303	3.028382	0.513022	0.012099
 370	1.8450e-01	7.3712	34.977048	0.000404	4.037843	0.684029	0.016132
 371	1.8500e-01	7.3914	35.081908	0.000525	5.249196	0.889238	0.020972
 372	1.8550e-01	7.4115	35.142405	0.000303	3.028382	0.513022	0.012099
 373	1.8600e-01	7.4310	35.279530	0.000686	6.864333	1.162849	0.027425
 374	1.8650e-01	7.4524	35.376324	0.000485	4.845411	0.820835	0.019359
 375	1.8700e-01	7.4719	35.461019	0.000424	4.239735	0.718231	0.016939
 376	1.8750e-01	7.4921	35.569913	0.000545	5.451088	0.923439	0.021779
 377	1.8800e-01	7.5125	35.626377	0.000283	2.826490	0.478820	0.011293
 378	1.8850e-01	7.5307	35.735270	0.000545	5.451088	0.923439	0.021779
 379	1.8900e-01	7.5513	35.823998	0.000444	4.441627	0.752432	0.017746
 380	1.8950e-01	7.5714	35.932892	0.000545	5.451088	0.923439	0.021779
 381	1.9000e-01	7.5916	36.013554	0.000404	4.037843	0.684029	0.016132
 382	1.9050e-01	7.6111	36.170845	0.000787	7.873793	1.333857	0.031458
 383	1.9100e-01	7.6312	36.227308	0.000283	2.826490	0.478820	0.011293
 384	1.9150e-01	7.6520	36.340235	0.000565	5.652980	0.957641	0.022585
 385	1.9200e-01	7.6715	36.416864	0.000384	3.835951	0.649828	0.015326
 386	1.9250e-01	7.6923	36.533824	0.000585	5.854872	0.991842	0.023392
 387	1.9300e-01	7.7112	36.586254	0.000262	2.624598	0.444619	0.010486
 388	1.9350e-01	7.7325	36.711280	0.000626	6.258656	1.060245	0.025005
 389	1.9400e-01	7.7521	36.804041	0.000464	4.643519	0.786633	0.018552
 390	1.9450e-01	7.7716	36.884703	0.000404	4.037843	0.684029	0.016132
 391	1.9500e-01	7.7917	37.017796	0.000666	6.662441	1.128648	0.026618
 392	1.9550e-01	7.8116	37.110557	0.000464	4.643519	0.786633	0.018552
 393	1.9600e-01	7.8326	37.215417	0.000525	5.249196	0.889238	0.020972
 394	1.9650e-01	7.8516	37.271881	0.000283	2.826490	0.478820	0.011293
 395	1.9700e-01	7.8714	37.336410	0.000323	3.230274	0.547223	0.012906
 396	1.9750e-01	7.8906	37.453370	0.000585	5.854872	0.991842	0.023392
 397	1.9800e-01	7.9120	37.574363	0.000606	6.056764	1.026044	0.024199
 398	1.9850e-01	7.9315	37.675191	0.000505	5.047303	0.855036	0.020165
 399	1.9900e-01	7.9517	37.743753	0.000343	3.432166	0.581425	0.013713
 400	1.9950e-01	7.9724	37.888945	0.000727	7.268117	1.231252	0.029038
 401	2.0000e-01	7.9916	37.933309	0.000222	2.220814	0.376216	0.008873
 402	2.0050e-01	8.0115	38.034136	0.000505	5.047303	0.855036	0.020165
 403	2.0100e-01	8.0328	38.171262	0.000686	6.864333	1.162849	0.027425
 404	2.0150e-01	8.0518	38.211593	0.000202	2.018921	0.342015	0.008066
 405	2.0200e-01	8.0719	38.312420	0.000505	5.047303	0.855036	0.020165
 406	2.0250e-01	8.0920	38.437446	0.000626	6.258656	1.060245	0.025005
 407	2.0300e-01	8.1116	38.558439	0.000606	6.056764	1.026044	0.024199
 408	2.0350e-01	8.1317	38.675399	0.000585	5.854872	0.991842	0.023392
 409	2.0400e-01	8.1525	38.768160	0.000464	4.643519	0.786633	0.018552
 410	2.0450e-01	8.1720	38.840756	0.000363	3.634058	0.615626	0.014519
 411	2.0500e-01	8.1921	38.929484	0.000444	4.441627	0.752432	0.017746
 412	2.0550e-01	8.2123	39.058543	0.000646	6.460548	1.094447	0.025812
 413	2.0600e-01	8.2320	39.143238	0.000424	4.239735	0.718231	0.016939
 414	2.0650e-01	8.2520	39.236000	0.000464	4.643519	0.786633	0.018552
 415	2.0700e-01	8.2709	39.356993	0.000606	6.056764	1.026044	0.024199
 416	2.0750e-01	8.2916	39.425555	0.000343	3.432166	0.581425	0.013713
 417	2.0800e-01	8.3124	39.558648	0.000666	6.662441	1.128648	0.026618
 418	2.0850e-01	8.3313	39.639310	0.000404	4.037843	0.684029	0.016132
 419	2.0900e-01	8.3514	39.744170	0.000525	5.249196	0.889238	0.020972
 420	2.0950e-01	8.3722	39.824832	0.000404	4.037843	0.684029	0.016132
 421	2.1000e-01	8.3911	39.921627	0.000485	4.845411	0.820835	0.019359
 422	2.1050e-01	8.4119	40.054719	0.000666	6.662441	1.128648	0.026618
 423	2.1100e-01	8.4326	40.115215	0.000303	3.028382	0.513022	0.012099
 424	2.1150e-01	8.4521	40.199910	0.000424	4.239735	0.718231	0.016939
 425	2.1200e-01	8.4729	40.300738	0.000505	5.047303	0.855036	0.020165
 426	2.1250e-01	8.4918	40.389466	0.000444	4.441627	0.752432	0.017746
 427	2.1300e-01	8.5114	40.486260	0.000485	4.845411	0.820835	0.019359
 428	2.1350e-01	8.5321	40.562889	0.000384	3.835951	0.649828	0.015326
 429	2.1400e-01	8.5529	40.679849	0.000585	5.854872	0.991842	0.023392
 430	2.1450e-01	8.5718	40.792776	0.000565	5.652980	0.957641	0.022585
 431	2.1500e-01	8.5919	40.933934	0.000707	7.066225	1.197051	0.028232
 432	2.1550e-01	8.6121	41.038795	0.000525	5.249196	0.889238	0.020972
 433	2.1600e-01	8.6325	41.159788	0.000606	6.056764	1.026044	0.024199
 434	2.1650e-01	8.6523	41.252549	0.000464	4.643519	0.786633	0.018552
 435	2.1700e-01	8.6725	41.317079	0.000323	3.230274	0.547223	0.012906
 436	2.1750e-01	8.6914	41.425972	0.000545	5.451088	0.923439	0.021779
 437	2.1800e-01	8.7122	41.542932	0.000585	5.854872	0.991842	0.023392
 438	2.1850e-01	8.7323	41.663925	0.000606	6.056764	1.026044	0.024199
 439	2.1900e-01	8.7518	41.768786	0.000525	5.249196	0.889238	0.020972
 440	2.1950e-01	8.7726	41.833315	0.000323	3.230274	0.547223	0.012906
 441	2.2000e-01	8.7927	41.990606	0.000787	7.873793	1.333857	0.031458
 442	2.2050e-01	8.8129	42.107566	0.000585	5.854872	0.991842	0.023392
 443	2.2100e-01	8.8324	42.216460	0.000545	5.451088	0.923439	0.021779
 444	2.2150e-01	8.8513	42.252758	0.000182	1.817029	0.307813	0.007260
 445	2.2200e-01	8.8715	42.377784	0.000626	6.258656	1.060245	0.025005
 446	2.2250e-01	8.8916	42.470545	0.000464	4.643519	0.786633	0.018552
 447	2.2300e-01	8.9111	42.623803	0.000767	7.671901	1.299655	0.030652
 448	2.2350e-01	8.9310	42.752862	0.000646	6.460548	1.094447	0.025812
 449	2.2400e-01	8.9508	42.845623	0.000464	4.643519	0.786633	0.018552
 450	2.2450e-01	8.9716	42.906119	0.000303	3.028382	0.513022	0.012099
 451	2.2500e-01	8.9917	43.035179	0.000646	6.460548	1.094447	0.025812
 452	2.2550e-01	9.0118	43.208602	0.000868	8.681362	1.470663	0.034685
 453	2.2600e-01	9.0320	43.256999	0.000242	2.422706	0.410417	0.009679
 454	2.2650e-01	9.0521	43.329595	0.000363	3.634058	0.615626	0.014519
 455	2.2700e-01	9.0710	43.490919	0.000808	8.075686	1.368058	0.032265
 456	2.2750e-01	9.0906	43.611912	0.000606	6.056764	1.026044	0.024199
 457	2.2800e-01	9.1119	43.684508	0.000363	3.634058	0.615626	0.014519
 458	2.2850e-01	9.1315	43.793401	0.000545	5.451088	0.923439	0.021779
 459	2.2900e-01	9.1510	43.934560	0.000707	7.066225	1.197051	0.028232
 460	2.2950e-01	9.1711	44.051519	0.000585	5.854872	0.991842	0.023392
 461	2.3000e-01	9.1913	44.140248	0.000444	4.441627	0.752432	0.017746
 462	2.3050e-01	9.2104	44.245108	0.000525	5.249196	0.889238	0.020972
 463	2.3100e-01	9.2322	44.374167	0.000646	6.460548	1.094447	0.025812
 464	2.3150e-01	9.2523	44.527425	0.000767	7.671901	1.299655	0.030652
 465	2.3200e-01	9.2719	44.551624	0.000121	1.211353	0.205209	0.004840
 466	2.3250e-01	9.2889	44.704881	0.000767	7.671901	1.299655	0.030652
 467	2.3300e-01	9.3127	44.898470	0.000969	9.690823	1.641670	0.038718
 468	2.3350e-01	9.3317	44.967033	0.000343	3.432166	0.581425	0.013713
 469	2.3400e-01	9.3518	45.160622	0.000969	9.690823	1.641670	0.038718
 470	2.3450e-01	9.3713	45.229184	0.000343	3.432166	0.581425	0.013713
 471	2.3500e-01	9.3921	45.354210	0.000626	6.258656	1.060245	0.025005
 472	2.3550e-01	9.4110	45.451005	0.000485	4.845411	0.820835	0.019359
 473	2.3600e-01	9.4318	45.571998	0.000606	6.056764	1.026044	0.024199
 474	2.3650e-01	9.4507	45.680891	0.000545	5.451088	0.923439	0.021779
 475	2.3700e-01	9.4714	45.854315	0.000868	8.681362	1.470663	0.034685
 476	2.3750e-01	9.4916	45.926910	0.000363	3.634058	0.615626	0.014519
 477	2.3800e-01	9.5111	46.104367	0.000888	8.883254	1.504864	0.035491
 478	2.3850e-01	9.5313	46.201161	0.000485	4.845411	0.820835	0.019359
 479	2.3900e-01	9.5514	46.334253	0.000666	6.662441	1.128648	0.026618
 480	2.3950e-01	9.5709	46.475412	0.000707	7.066225	1.197051	0.028232
 481	2.4000e-01	9.5911	46.660934	0.000929	9.287038	1.573267	0.037105
 482	2.4050e-01	9.6118	46.729497	0.000343	3.432166	0.581425	0.013713
 483	2.4100e-01	9.6313	46.850490	0.000606	6.056764	1.026044	0.024199
 484	2.4150e-01	9.6515	46.991648	0.000707	7.066225	1.197051	0.028232
 485	2.4200e-01	9.6710	47.112641	0.000606	6.056764	1.026044	0.024199
 486	2.4250e-01	9.6918	47.269932	0.000787	7.873793	1.333857	0.031458
 487	2.4300e-01	9.7113	47.407058	0.000686	6.864333	1.162849	0.027425
 488	2.4350e-01	9.7308	47.511918	0.000525	5.249196	0.889238	0.020972
 489	2.4400e-01	9.7504	47.657110	0.000727	7.268117	1.231252	0.029038
 490	2.4450e-01	9.7717	47.798268	0.000707	7.066225	1.197051	0.028232
 491	2.4500e-01	9.7913	47.959592	0.000808	8.075686	1.368058	0.032265
 492	2.4550e-01	9.8108	48.072519	0.000565	5.652980	0.957641	0.022585
 493	2.4600e-01	9.8303	48.241909	0.000848	8.479470	1.436461	0.033878
 494	2.4650e-01	9.8517	48.383067	0.000707	7.066225	1.197051	0.028232
 495	2.4700e-01	9.8712	48.520193	0.000686	6.864333	1.162849	0.027425
 496	2.4750e-01	9.8914	48.677484	0.000787	7.873793	1.333857	0.031458
 497	2.4800e-01	9.9112	48.846874	0.000848	8.479470	1.436461	0.033878
 498	2.4850e-01	9.9310	48.996098	0.000747	7.470009	1.265454	0.029845
 499	2.4900e-01	9.9524	49.117091	0.000606	6.056764	1.026044	0.024199
 500	2.4950e-01	9.9719	49.302614	0.000929	9.287038	1.573267	0.037105
 501	2.5000e-01	9.9921	49.411508	0.000545	5.451088	0.923439	0.021779
 502	2.5050e-01	9.9872	49.447805	-0.000182	-1.817029	-0.307813	0.007260
 503	2.5100e-01	9.9713	49.443772	0.000020	0.201892	0.034201	-0.000807
 504	2.5150e-01	9.9530	49.484103	-0.000202	-2.018921	-0.342015	0.008066
 505	2.5200e-01	9.9329	49.524434	-0.000202	-2.018921	-0.342015	0.008066
 506	2.5250e-01	9.9133	49.564765	-0.000202	-2.018921	-0.342015	0.008066
 507	2.5300e-01	9.8932	49.592997	-0.000141	-1.413245	-0.239410	0.005646
 508	2.5350e-01	9.8737	49.564765	0.000141	1.413245	0.239410	-0.005646
 509	2.5400e-01	9.8523	49.588964	-0.000121	-1.211353	-0.205209	0.004840
 510	2.5450e-01	9.8328	49.645427	-0.000283	-2.826490	-0.478820	0.011293
 511	2.5500e-01	9.8126	49.633328	0.000061	0.605676	0.102604	-0.002420
 512	2.5550e-01	9.7925	49.633328	-0.000000	-0.000000	-0.000000	0.000000
 513	2.5600e-01	9.7729	49.601063	0.000162	1.615137	0.273612	-0.006453
 514	2.5650e-01	9.7516	49.649460	-0.000242	-2.422706	-0.410417	0.009679
 515	2.5700e-01	9.7339	49.677692	-0.000141	-1.413245	-0.239410	0.005646
 516	2.5750e-01	9.7131	49.637361	0.000202	2.018921	0.342015	-0.008066
 517	2.5800e-01	9.6930	49.669626	-0.000162	-1.615137	-0.273612	0.006453
 518	2.5850e-01	9.6741	49.637361	0.000162	1.615137	0.273612	-0.006453
 519	2.5900e-01	9.6527	49.689791	-0.000262	-2.624598	-0.444619	0.010486
 520	2.5950e-01	9.6332	49.722056	-0.000162	-1.615137	-0.273612	0.006453
 521	2.6000e-01	9.6136	49.657527	0.000323	3.230274	0.547223	-0.012906
 522	2.6050e-01	9.5935	49.697858	-0.000202	-2.018921	-0.342015	0.008066
 523	2.6100e-01	9.5741	49.722056	-0.000121	-1.211353	-0.205209	0.004840
 524	2.6150e-01	9.5526	49.685758	0.000182	1.817029	0.307813	-0.007260
 525	2.6200e-01	9.5331	49.705924	-0.000101	-1.009461	-0.171007	0.004033
 526	2.6250e-01	9.5129	49.653493	0.000262	2.624598	0.444619	-0.010486
 527	2.6300e-01	9.4934	49.653493	-0.000000	-0.000000	-0.000000	0.000000
 528	2.6350e-01	9.4733	49.685758	-0.000162	-1.615137	-0.273612	0.006453
 529	2.6400e-01	9.4528	49.762387	-0.000384	-3.835951	-0.649828	0.015326
 530	2.6450e-01	9.4336	49.709957	0.000262	2.624598	0.444619	-0.010486
 531	2.6500e-01	9.4135	49.701891	0.000040	0.403784	0.068403	-0.001613
 532	2.6550e-01	9.3933	49.689791	0.000061	0.605676	0.102604	-0.002420
 533	2.6600e-01	9.3738	49.625262	0.000323	3.230274	0.547223	-0.012906
 534	2.6650e-01	9.3530	49.657527	-0.000162	-1.615137	-0.273612	0.006453
 535	2.6700e-01	9.3335	49.657527	-0.000000	-0.000000	-0.000000	0.000000
 536	2.6750e-01	9.3127	49.617196	0.000202	2.018921	0.342015	-0.008066
 537	2.6800e-01	9.2932	49.609129	0.000040	0.403784	0.068403	-0.001613
 538	2.6850e-01	9.2732	49.564765	0.000222	2.220814	0.376216	-0.008873
 539	2.6900e-01	9.2542	49.580898	-0.000081	-0.807569	-0.136806	0.003226
 540	2.6950e-01	9.2331	49.548633	0.000162	1.615137	0.273612	-0.006453
 541	2.7000e-01	9.2139	49.572831	-0.000121	-1.211353	-0.205209	0.004840
 542	2.7050e-01	9.1943	49.540567	0.000162	1.615137	0.273612	-0.006453
 543	2.7100e-01	9.1733	49.520401	0.000101	1.009461	0.171007	-0.004033
 544	2.7150e-01	9.1534	49.512335	0.000040	0.403784	0.068403	-0.001613
 545	2.7200e-01	9.1345	49.508302	0.000020	0.201892	0.034201	-0.000807
 546	2.7250e-01	9.1132	49.443772	0.000323	3.230274	0.547223	-0.012906
 547	2.7300e-01	9.0942	49.467971	-0.000121	-1.211353	-0.205209	0.004840
 548	2.7350e-01	9.0741	49.411508	0.000283	2.826490	0.478820	-0.011293
 549	2.7400e-01	9.0533	49.395375	0.000081	0.807569	0.136806	-0.003226
 550	2.7450e-01	9.0332	49.342945	0.000262	2.624598	0.444619	-0.010486
 551	2.7500e-01	9.0140	49.338912	0.000020	0.201892	0.034201	-0.000807
 552	2.7550e-01	8.9954	49.383276	-0.000222	-2.220814	-0.376216	0.008873
 553	2.7600e-01	8.9740	49.355044	0.000141	1.413245	0.239410	-0.005646
 554	2.7650e-01	8.9532	49.282448	0.000363	3.634058	0.615626	-0.014519
 555	2.7700e-01	8.9337	49.330846	-0.000242	-2.422706	-0.410417	0.009679
 556	2.7750e-01	8.9130	49.266316	0.000323	3.230274	0.547223	-0.012906
 557	2.7800e-01	8.8943	49.258250	0.000040	0.403784	0.068403	-0.001613
 558	2.7850e-01	8.8727	49.197753	0.000303	3.028382	0.513022	-0.012099
 559	2.7900e-01	8.8531	49.181621	0.000081	0.807569	0.136806	-0.003226
 560	2.7950e-01	8.8330	49.129191	0.000262	2.624598	0.444619	-0.010486
 561	2.8000e-01	8.8135	49.141290	-0.000061	-0.605676	-0.102604	0.002420
 562	2.8050e-01	8.7933	49.133224	0.000040	0.403784	0.068403	-0.001613
 563	2.8100e-01	8.7738	48.967867	0.000828	8.277578	1.402260	-0.033071
 564	2.8150e-01	8.7537	49.004165	-0.000182	-1.817029	-0.307813	0.007260
 565	2.8200e-01	8.7335	49.028363	-0.000121	-1.211353	-0.205209	0.004840
 566	2.8250e-01	8.7140	48.927536	0.000505	5.047303	0.855036	-0.020165
 567	2.8300e-01	8.6938	48.927536	-0.000000	-0.000000	-0.000000	0.000000
 568	2.8350e-01	8.6732	48.931569	-0.000020	-0.201892	-0.034201	0.000807
 569	2.8400e-01	8.6548	48.871072	0.000303	3.028382	0.513022	-0.012099
 570	2.8450e-01	8.6334	48.850907	0.000101	1.009461	0.171007	-0.004033
 571	2.8500e-01	8.6157	48.834774	0.000081	0.807569	0.136806	-0.003226
 572	2.8550e-01	8.5938	48.762179	0.000363	3.634058	0.615626	-0.014519
 573	2.8600e-01	8.5742	48.705715	0.000283	2.826490	0.478820	-0.011293
 574	2.8650e-01	8.5532	48.742013	-0.000182	-1.817029	-0.307813	0.007260
 575	2.8700e-01	8.5345	48.701682	0.000202	2.018921	0.342015	-0.008066
 576	2.8750e-01	8.5138	48.649252	0.000262	2.624598	0.444619	-0.010486
 577	2.8800e-01	8.4949	48.612954	0.000182	1.817029	0.307813	-0.007260
 578	2.8850e-01	8.4735	48.544391	0.000343	3.432166	0.581425	-0.013713
 579	2.8900e-01	8.4546	48.540358	0.000020	0.201892	0.034201	-0.000807
 580	2.8950e-01	8.4340	48.483895	0.000283	2.826490	0.478820	-0.011293
 581	2.9000e-01	8.4137	48.423398	0.000303	3.028382	0.513022	-0.012099
 582	2.9050e-01	8.3932	48.407266	0.000081	0.807569	0.136806	-0.003226
 583	2.9100e-01	8.3743	48.370968	0.000182	1.817029	0.307813	-0.007260
 584	2.9150e-01	8.3540	48.314505	0.000283	2.826490	0.478820	-0.011293
 585	2.9200e-01	8.3339	48.270141	0.000222	2.220814	0.376216	-0.008873
 586	2.9250e-01	8.3142	48.213677	0.000283	2.826490	0.478820	-0.011293
 587	2.9300e-01	8.2941	48.205611	0.000040	0.403784	0.068403	-0.001613
 588	2.9350e-01	8.2733	48.173346	0.000162	1.615137	0.273612	-0.006453
 589	2.9400e-01	8.2538	48.120916	0.000262	2.624598	0.444619	-0.010486
 590	2.9450e-01	8.2339	48.040254	0.000404	4.037843	0.684029	-0.016132
 591	2.9500e-01	8.2147	48.020089	0.000101	1.009461	0.171007	-0.004033
 592	2.9550e-01	8.1940	47.959592	0.000303	3.028382	0.513022	-0.012099
 593	2.9600e-01	8.1738	47.943460	0.000081	0.807569	0.136806	-0.003226
 594	2.9650e-01	8.1543	47.935393	0.000040	0.403784	0.068403	-0.001613
 595	2.9700e-01	8.1348	47.895062	0.000202	2.018921	0.342015	-0.008066
 596	2.9750e-01	8.1140	47.766003	0.000646	6.460548	1.094447	-0.025812
 597	2.9800e-01	8.0945	47.721639	0.000222	2.220814	0.376216	-0.008873
 598	2.9850e-01	8.0743	47.733739	-0.000061	-0.605676	-0.102604	0.002420
 599	2.9900e-01	8.0542	47.645010	0.000444	4.441627	0.752432	-0.017746
 600	2.9950e-01	8.0344	47.544183	0.000505	5.047303	0.855036	-0.020165
 601	3.0000e-01	8.0142	47.540150	0.000020	0.201892	0.034201	-0.000807
 602	3.0050e-01	7.9939	47.483686	0.000283	2.826490	0.478820	-0.011293
 603	3.0100e-01	7.9742	47.427223	0.000283	2.826490	0.478820	-0.011293
 604	3.0150e-01	7.9547	47.419157	0.000040	0.403784	0.068403	-0.001613
 605	3.0200e-01	7.9340	47.342528	0.000384	3.835951	0.649828	-0.015326
 606	3.0250e-01	7.9138	47.334462	0.000040	0.403784	0.068403	-0.001613
 607	3.0300e-01	7.8943	47.237667	0.000485	4.845411	0.820835	-0.019359
 608	3.0350e-01	7.8741	47.144906	0.000464	4.643519	0.786633	-0.018552
 609	3.0400e-01	7.8540	47.173138	-0.000141	-1.413245	-0.239410	0.005646
 610	3.0450e-01	7.8345	47.108608	0.000323	3.230274	0.547223	-0.012906
 611	3.0500e-01	7.8137	47.060211	0.000242	2.422706	0.410417	-0.009679
 612	3.0550e-01	7.7936	47.023913	0.000182	1.817029	0.307813	-0.007260
 613	3.0600e-01	7.7734	46.947284	0.000384	3.835951	0.649828	-0.015326
 614	3.0650e-01	7.7539	46.915019	0.000162	1.615137	0.273612	-0.006453
 615	3.0700e-01	7.7332	46.850490	0.000323	3.230274	0.547223	-0.012906
 616	3.0750e-01	7.7138	46.789993	0.000303	3.028382	0.513022	-0.012099
 617	3.0800e-01	7.6935	46.749662	0.000202	2.018921	0.342015	-0.008066
 618	3.0850e-01	7.6733	46.673034	0.000384	3.835951	0.649828	-0.015326
 619	3.0900e-01	7.6540	46.580272	0.000464	4.643519	0.786633	-0.018552
 620	3.0950e-01	7.6344	46.560107	0.000101	1.009461	0.171007	-0.004033
 621	3.1000e-01	7.6129	46.475412	0.000424	4.239735	0.718231	-0.016939
 622	3.1050e-01	7.5934	46.467346	0.000040	0.403784	0.068403	-0.001613
 623	3.1100e-01	7.5732	46.382650	0.000424	4.239735	0.718231	-0.016939
 624	3.1150e-01	7.5531	46.366518	0.000081	0.807569	0.136806	-0.003226
 625	3.1200e-01	7.5348	46.253591	0.000565	5.652980	0.957641	-0.022585
 626	3.1250e-01	7.5146	46.213260	0.000202	2.018921	0.342015	-0.008066
 627	3.1300e-01	7.4939	46.168896	0.000222	2.220814	0.376216	-0.008873
 628	3.1350e-01	7.4734	46.072102	0.000485	4.845411	0.820835	-0.019359
 629	3.1400e-01	7.4548	46.047903	0.000121	1.211353	0.205209	-0.004840
 630	3.1450e-01	7.4341	45.979341	0.000343	3.432166	0.581425	-0.013713
 631	3.1500e-01	7.4146	45.943043	0.000182	1.817029	0.307813	-0.007260
 632	3.1550e-01	7.3944	45.882546	0.000303	3.028382	0.513022	-0.012099
 633	3.1600e-01	7.3749	45.838182	0.000222	2.220814	0.376216	-0.008873
 634	3.1650e-01	7.3537	45.789785	0.000242	2.422706	0.410417	-0.009679
 635	3.1700e-01	7.3334	45.672825	0.000585	5.854872	0.991842	-0.023392
 636	3.1750e-01	7.3138	45.620395	0.000262	2.624598	0.444619	-0.010486
 637	3.1800e-01	7.2937	45.576031	0.000222	2.220814	0.376216	-0.008873
 638	3.1850e-01	7.2711	45.410674	0.000828	8.277578	1.402260	-0.033071
 639	3.1900e-01	7.2537	45.463104	-0.000262	-2.624598	-0.444619	0.010486
 640	3.1950e-01	7.2333	45.378409	0.000424	4.239735	0.718231	-0.016939
 641	3.2000e-01	7.2134	45.301780	0.000384	3.835951	0.649828	-0.015326
 642	3.2050e-01	7.1936	45.257416	0.000222	2.220814	0.376216	-0.008873
 643	3.2100e-01	7.1741	45.144489	0.000565	5.652980	0.957641	-0.022585
 644	3.2150e-01	7.1542	45.088026	0.000283	2.826490	0.478820	-0.011293
 645	3.2200e-01	7.1344	45.031562	0.000283	2.826490	0.478820	-0.011293
 646	3.2250e-01	7.1130	44.942834	0.000444	4.441627	0.752432	-0.017746
 647	3.2300e-01	7.0935	44.890404	0.000262	2.624598	0.444619	-0.010486
 648	3.2350e-01	7.0734	44.878305	0.000061	0.605676	0.102604	-0.002420
 649	3.2400e-01	7.0541	44.801676	0.000384	3.835951	0.649828	-0.015326
 650	3.2450e-01	7.0337	44.733113	0.000343	3.432166	0.581425	-0.013713
 651	3.2500e-01	7.0132	44.608087	0.000626	6.258656	1.060245	-0.025005
 652	3.2550e-01	6.9934	44.595988	0.000061	0.605676	0.102604	-0.002420
 653	3.2600e-01	6.9739	44.479028	0.000585	5.854872	0.991842	-0.023392
 654	3.2650e-01	6.9540	44.483061	-0.000020	-0.201892	-0.034201	0.000807
 655	3.2700e-01	6.9330	44.410465	0.000363	3.634058	0.615626	-0.014519
 656	3.2750e-01	6.9125	44.305605	0.000525	5.249196	0.889238	-0.020972
 657	3.2800e-01	6.8939	44.237042	0.000343	3.432166	0.581425	-0.013713
 658	3.2850e-01	6.8738	44.148314	0.000444	4.441627	0.752432	-0.017746
 659	3.2900e-01	6.8536	44.095884	0.000262	2.624598	0.444619	-0.010486
 660	3.2950e-01	6.8341	43.970858	0.000626	6.258656	1.060245	-0.025005
 661	3.3000e-01	6.8140	43.982957	-0.000061	-0.605676	-0.102604	0.002420
 662	3.3050e-01	6.7934	43.857931	0.000626	6.258656	1.060245	-0.025005
 663	3.3100e-01	6.7737	43.785335	0.000363	3.634058	0.615626	-0.014519
 664	3.3150e-01	6.7535	43.757103	0.000141	1.413245	0.239410	-0.005646
 665	3.3200e-01	6.7334	43.672408	0.000424	4.239735	0.718231	-0.016939
 666	3.3250e-01	6.7139	43.547382	0.000626	6.258656	1.060245	-0.025005
 667	3.3300e-01	6.6925	43.511084	0.000182	1.817029	0.307813	-0.007260
 668	3.3350e-01	6.6736	43.410257	0.000505	5.047303	0.855036	-0.020165
 669	3.3400e-01	6.6534	43.382025	0.000141	1.413245	0.239410	-0.005646
 670	3.3450e-01	6.6324	43.293297	0.000444	4.441627	0.752432	-0.017746
 671	3.3500e-01	6.6132	43.228767	0.000323	3.230274	0.547223	-0.012906
 672	3.3550e-01	6.5936	43.176337	0.000262	2.624598	0.444619	-0.010486
 673	3.3600e-01	6.5735	43.115841	0.000303	3.028382	0.513022	-0.012099
 674	3.3650e-01	6.5529	43.006947	0.000545	5.451088	0.923439	-0.021779
 675	3.3700e-01	6.5332	42.946450	0.000303	3.028382	0.513022	-0.012099
 676	3.3750e-01	6.5128	42.861755	0.000424	4.239735	0.718231	-0.016939
 677	3.3800e-01	6.4935	42.781093	0.000404	4.037843	0.684029	-0.016132
 678	3.3850e-01	6.4728	42.688332	0.000464	4.643519	0.786633	-0.018552
 679	3.3900e-01	6.4539	42.631869	0.000283	2.826490	0.478820	-0.011293
 680	3.3950e-01	6.4337	42.567339	0.000323	3.230274	0.547223	-0.012906
 681	3.4000e-01	6.4130	42.527008	0.000202	2.018921	0.342015	-0.008066
 682	3.4050e-01	6.3928	42.373750	0.000767	7.671901	1.299655	-0.030652
 683	3.4100e-01	6.3727	42.305188	0.000343	3.432166	0.581425	-0.013713
 684	3.4150e-01	6.3531	42.289055	0.000081	0.807569	0.136806	-0.003226
 685	3.4200e-01	6.3336	42.143864	0.000727	7.268117	1.231252	-0.029038
 686	3.4250e-01	6.3129	42.079334	0.000323	3.230274	0.547223	-0.012906
 687	3.4300e-01	6.2936	42.022871	0.000283	2.826490	0.478820	-0.011293
 688	3.4350e-01	6.2746	41.938176	0.000424	4.239735	0.718231	-0.016939
 689	3.4400e-01	6.2543	41.869613	0.000343	3.432166	0.581425	-0.013713
 690	3.4450e-01	6.2341	41.841381	0.000141	1.413245	0.239410	-0.005646
 691	3.4500e-01	6.2152	41.720388	0.000606	6.056764	1.026044	-0.024199
 692	3.4550e-01	6.1938	41.615528	0.000525	5.249196	0.889238	-0.020972
 693	3.4600e-01	6.1732	41.546965	0.000343	3.432166	0.581425	-0.013713
 694	3.4650e-01	6.1548	41.478403	0.000343	3.432166	0.581425	-0.013713
 695	3.4700e-01	6.1334	41.341277	0.000686	6.864333	1.162849	-0.027425
 696	3.4750e-01	6.1145	41.288847	0.000262	2.624598	0.444619	-0.010486
 697	3.4800e-01	6.0945	41.212218	0.000384	3.835951	0.649828	-0.015326
 698	3.4850e-01	6.0736	41.147688	0.000323	3.230274	0.547223	-0.012906
 699	3.4900e-01	6.0529	41.038795	0.000545	5.451088	0.923439	-0.021779
 700	3.4950e-01	6.0333	40.958133	0.000404	4.037843	0.684029	-0.016132
 701	3.5000e-01	6.0138	40.885537	0.000363	3.634058	0.615626	-0.014519
 702	3.5050e-01	5.9932	40.812941	0.000363	3.634058	0.615626	-0.014519
 703	3.5100e-01	5.9747	40.772610	0.000202	2.018921	0.342015	-0.008066
 704	3.5150e-01	5.9546	40.639518	0.000666	6.662441	1.128648	-0.026618
 705	3.5200e-01	5.9335	40.558856	0.000404	4.037843	0.684029	-0.016132
 706	3.5250e-01	5.9128	40.482227	0.000384	3.835951	0.649828	-0.015326
 707	3.5300e-01	5.8939	40.413665	0.000343	3.432166	0.581425	-0.013713
 708	3.5350e-01	5.8734	40.320903	0.000464	4.643519	0.786633	-0.018552
 709	3.5400e-01	5.8545	40.195877	0.000626	6.258656	1.060245	-0.025005
 710	3.5450e-01	5.8333	40.135381	0.000303	3.028382	0.513022	-0.012099
 711	3.5500e-01	5.8130	40.107149	0.000141	1.413245	0.239410	-0.005646
 712	3.5550e-01	5.7935	39.957924	0.000747	7.470009	1.265454	-0.029845
 713	3.5600e-01	5.7739	39.881296	0.000384	3.835951	0.649828	-0.015326
 714	3.5650e-01	5.7538	39.881296	-0.000000	-0.000000	-0.000000	0.000000
 715	3.5700e-01	5.7338	39.772402	0.000545	5.451088	0.923439	-0.021779
 716	3.5750e-01	5.7144	39.667541	0.000525	5.249196	0.889238	-0.020972
 717	3.5800e-01	5.6940	39.590912	0.000384	3.835951	0.649828	-0.015326
 718	3.5850e-01	5.6726	39.518317	0.000363	3.634058	0.615626	-0.014519
 719	3.5900e-01	5.6543	39.421522	0.000485	4.845411	0.820835	-0.019359
 720	3.5950e-01	5.6340	39.316662	0.000525	5.249196	0.889238	-0.020972
 721	3.6000e-01	5.6134	39.219867	0.000485	4.845411	0.820835	-0.019359
 722	3.6050e-01	5.5939	39.123073	0.000485	4.845411	0.820835	-0.019359
 723	3.6100e-01	5.5737	39.030312	0.000464	4.643519	0.786633	-0.018552
 724	3.6150e-01	5.5539	38.994014	0.000182	1.817029	0.307813	-0.007260
 725	3.6200e-01	5.5356	38.852855	0.000707	7.066225	1.197051	-0.028232
 726	3.6250e-01	5.5145	38.788326	0.000323	3.230274	0.547223	-0.012906
 727	3.6300e-01	5.4933	38.631035	0.000787	7.873793	1.333857	-0.031458
 728	3.6350e-01	5.4730	38.602803	0.000141	1.413245	0.239410	-0.005646
 729	3.6400e-01	5.4541	38.493910	0.000545	5.451088	0.923439	-0.021779
 730	3.6450e-01	5.4335	38.433413	0.000303	3.028382	0.513022	-0.012099
 731	3.6500e-01	5.4134	38.352751	0.000404	4.037843	0.684029	-0.016132
 732	3.6550e-01	5.3931	38.264023	0.000444	4.441627	0.752432	-0.017746
 733	3.6600e-01	5.3734	38.147063	0.000585	5.854872	0.991842	-0.023392
 734	3.6650e-01	5.3534	38.013971	0.000666	6.662441	1.128648	-0.026618
 735	3.6700e-01	5.3339	37.925243	0.000444	4.441627	0.752432	-0.017746
 736	3.6750e-01	5.3134	37.897011	0.000141	1.413245	0.239410	-0.005646
 737	3.6800e-01	5.2936	37.792150	0.000525	5.249196	0.889238	-0.020972
 738	3.6850e-01	5.2734	37.699389	0.000464	4.643519	0.786633	-0.018552
 739	3.6900e-01	5.2545	37.630827	0.000343	3.432166	0.581425	-0.013713
 740	3.6950e-01	5.2332	37.582429	0.000242	2.422706	0.410417	-0.009679
 741	3.7000e-01	5.2136	37.433205	0.000747	7.470009	1.265454	-0.029845
 742	3.7050e-01	5.1936	37.356576	0.000384	3.835951	0.649828	-0.015326
 743	3.7100e-01	5.1733	37.255748	0.000505	5.047303	0.855036	-0.020165
 744	3.7150e-01	5.1538	37.223484	0.000162	1.615137	0.273612	-0.006453
 745	3.7200e-01	5.1337	37.066193	0.000787	7.873793	1.333857	-0.031458
 746	3.7250e-01	5.1138	36.989564	0.000384	3.835951	0.649828	-0.015326
 747	3.7300e-01	5.0940	36.884703	0.000525	5.249196	0.889238	-0.020972
 748	3.7350e-01	5.0732	36.804041	0.000404	4.037843	0.684029	-0.016132
 749	3.7400e-01	5.0525	36.727412	0.000384	3.835951	0.649828	-0.015326
 750	3.7450e-01	5.0336	36.622552	0.000525	5.249196	0.889238	-0.020972
 751	3.7500e-01	5.0134	36.594320	0.000141	1.413245	0.239410	-0.005646
 752	3.7550e-01	4.9939	36.489460	0.000525	5.249196	0.889238	-0.020972
 753	3.7600e-01	4.9738	36.340235	0.000747	7.470009	1.265454	-0.029845
 754	3.7650e-01	4.9542	36.267639	0.000363	3.634058	0.615626	-0.014519
 755	3.7700e-01	4.9341	36.142613	0.000626	6.258656	1.060245	-0.025005
 756	3.7750e-01	4.9139	36.118415	0.000121	1.211353	0.205209	-0.004840
 757	3.7800e-01	4.8941	35.997422	0.000606	6.056764	1.026044	-0.024199
 758	3.7850e-01	4.8743	35.892561	0.000525	5.249196	0.889238	-0.020972
 759	3.7900e-01	4.8535	35.848197	0.000222	2.220814	0.376216	-0.008873
 760	3.7950e-01	4.8340	35.690906	0.000787	7.873793	1.333857	-0.031458
 761	3.8000e-01	4.8139	35.634443	0.000283	2.826490	0.478820	-0.011293
 762	3.8050e-01	4.7931	35.501350	0.000666	6.662441	1.128648	-0.026618
 763	3.8100e-01	4.7736	35.376324	0.000626	6.258656	1.060245	-0.025005
 764	3.8150e-01	4.7540	35.348093	0.000141	1.413245	0.239410	-0.005646
 765	3.8200e-01	4.7333	35.255331	0.000464	4.643519	0.786633	-0.018552
 766	3.8250e-01	4.7137	35.130305	0.000626	6.258656	1.060245	-0.025005
 767	3.8300e-01	4.6936	35.049643	0.000404	4.037843	0.684029	-0.016132
 768	3.8350e-01	4.6738	34.973015	0.000384	3.835951	0.649828	-0.015326
 769	3.8400e-01	4.6533	34.799591	0.000868	8.681362	1.470663	-0.034685
 770	3.8450e-01	4.6333	34.731029	0.000343	3.432166	0.581425	-0.013713
 771	3.8500e-01	4.6136	34.654400	0.000384	3.835951	0.649828	-0.015326
 772	3.8550e-01	4.5930	34.597936	0.000283	2.826490	0.478820	-0.011293
 773	3.8600e-01	4.5734	34.493076	0.000525	5.249196	0.889238	-0.020972
 774	3.8650e-01	4.5532	34.355950	0.000686	6.864333	1.162849	-0.027425
 775	3.8700e-01	4.5331	34.218825	0.000686	6.864333	1.162849	-0.027425
 776	3.8750e-01	4.5130	34.146229	0.000363	3.634058	0.615626	-0.014519
 777	3.8800e-01	4.4936	34.041369	0.000525	5.249196	0.889238	-0.020972
 778	3.8850e-01	4.4739	33.944574	0.000485	4.845411	0.820835	-0.019359
 779	3.8900e-01	4.4537	33.900210	0.000222	2.220814	0.376216	-0.008873
 780	3.8950e-01	4.4336	33.807449	0.000464	4.643519	0.786633	-0.018552
 781	3.9000e-01	4.4135	33.654191	0.000767	7.671901	1.299655	-0.030652
 782	3.9050e-01	4.3935	33.565463	0.000444	4.441627	0.752432	-0.017746
 783	3.9100e-01	4.3732	33.480768	0.000424	4.239735	0.718231	-0.016939
 784	3.9150e-01	4.3536	33.412205	0.000343	3.432166	0.581425	-0.013713
 785	3.9200e-01	4.3336	33.267014	0.000727	7.268117	1.231252	-0.029038
 786	3.9250e-01	4.3134	33.178286	0.000444	4.441627	0.752432	-0.017746
 787	3.9300e-01	4.2938	33.057293	0.000606	6.056764	1.026044	-0.024199
 788	3.9350e-01	4.2732	33.025028	0.000162	1.615137	0.273612	-0.006453
 789	3.9400e-01	4.2533	32.924200	0.000505	5.047303	0.855036	-0.020165
 790	3.9450e-01	4.2340	32.783042	0.000707	7.066225	1.197051	-0.028232
 791	3.9500e-01	4.2145	32.702380	0.000404	4.037843	0.684029	-0.016132
 792	3.9550e-01	4.1937	32.625751	0.000384	3.835951	0.649828	-0.015326
 793	3.9600e-01	4.1730	32.504758	0.000606	6.056764	1.026044	-0.024199
 794	3.9650e-01	4.1541	32.383765	0.000606	6.056764	1.026044	-0.024199
 795	3.9700e-01	4.1341	32.262772	0.000606	6.056764	1.026044	-0.024199
 796	3.9750e-01	4.1133	32.218408	0.000222	2.220814	0.376216	-0.008873
 797	3.9800e-01	4.0927	32.040952	0.000888	8.883254	1.504864	-0.035491
 798	3.9850e-01	4.0739	32.032886	0.000040	0.403784	0.068403	-0.001613
 799	3.9900e-01	4.0528	31.915926	0.000585	5.854872	0.991842	-0.023392
 800	3.9950e-01	4.0337	31.798966	0.000585	5.854872	0.991842	-0.023392
 801	4.0000e-01	4.0137	31.726370	0.000363	3.634058	0.615626	-0.014519
 802	4.0050e-01	3.9935	31.621510	0.000525	5.249196	0.889238	-0.020972
 803	4.0100e-01	3.9734	31.496484	0.000626	6.258656	1.060245	-0.025005
 804	4.0150e-01	3.9532	31.423888	0.000363	3.634058	0.615626	-0.014519
 805	4.0200e-01	3.9335	31.298862	0.000626	6.258656	1.060245	-0.025005
 806	4.0250e-01	3.9142	31.194001	0.000525	5.249196	0.889238	-0.020972
 807	4.0300e-01	3.8940	31.109306	0.000424	4.239735	0.718231	-0.016939
 808	4.0350e-01	3.8739	30.996379	0.000565	5.652980	0.957641	-0.022585
 809	4.0400e-01	3.8544	30.879419	0.000585	5.854872	0.991842	-0.023392
 810	4.0450e-01	3.8330	30.818923	0.000303	3.028382	0.513022	-0.012099
 811	4.0500e-01	3.8135	30.701963	0.000585	5.854872	0.991842	-0.023392
 812	4.0550e-01	3.7927	30.572904	0.000646	6.460548	1.094447	-0.025812
 813	4.0600e-01	3.7740	30.496275	0.000384	3.835951	0.649828	-0.015326
 814	4.0650e-01	3.7537	30.407547	0.000444	4.441627	0.752432	-0.017746
 815	4.0700e-01	3.7343	30.343017	0.000323	3.230274	0.547223	-0.012906
 816	4.0750e-01	3.7140	30.217991	0.000626	6.258656	1.060245	-0.025005
 817	4.0800e-01	3.6945	30.125230	0.000464	4.643519	0.786633	-0.018552
 818	4.0850e-01	3.6740	30.044568	0.000404	4.037843	0.684029	-0.016132
 819	4.0900e-01	3.6545	29.871145	0.000868	8.681362	1.470663	-0.034685
 820	4.0950e-01	3.6337	29.778384	0.000464	4.643519	0.786633	-0.018552
 821	4.1000e-01	3.6136	29.725953	0.000262	2.624598	0.444619	-0.010486
 822	4.1050e-01	3.5938	29.649324	0.000384	3.835951	0.649828	-0.015326
 823	4.1100e-01	3.5736	29.508166	0.000707	7.066225	1.197051	-0.028232
 824	4.1150e-01	3.5538	29.383140	0.000626	6.258656	1.060245	-0.025005
 825	4.1200e-01	3.5336	29.278279	0.000525	5.249196	0.889238	-0.020972
 826	4.1250e-01	3.5139	29.173419	0.000525	5.249196	0.889238	-0.020972
 827	4.1300e-01	3.4930	29.076624	0.000485	4.845411	0.820835	-0.019359
 828	4.1350e-01	3.4735	28.927400	0.000747	7.470009	1.265454	-0.029845
 829	4.1400e-01	3.4541	28.822539	0.000525	5.249196	0.889238	-0.020972
 830	4.1450e-01	3.4340	28.733811	0.000444	4.441627	0.752432	-0.017746
 831	4.1500e-01	3.4140	28.596686	0.000686	6.864333	1.162849	-0.027425
 832	4.1550e-01	3.3933	28.507957	0.000444	4.441627	0.752432	-0.017746
 833	4.1600e-01	3.3734	28.427295	0.000404	4.037843	0.684029	-0.016132
 834	4.1650e-01	3.3551	28.342600	0.000424	4.239735	0.718231	-0.016939
 835	4.1700e-01	3.3337	28.209508	0.000666	6.662441	1.128648	-0.026618
 836	4.1750e-01	3.3139	28.108681	0.000505	5.047303	0.855036	-0.020165
 837	4.1800e-01	3.2935	27.991721	0.000585	5.854872	0.991842	-0.023392
 838	4.1850e-01	3.2739	27.886860	0.000525	5.249196	0.889238	-0.020972
 839	4.1900e-01	3.2535	27.794099	0.000464	4.643519	0.786633	-0.018552
 840	4.1950e-01	3.2336	27.661007	0.000666	6.662441	1.128648	-0.026618
 841	4.2000e-01	3.2135	27.604543	0.000283	2.826490	0.478820	-0.011293
 842	4.2050e-01	3.1931	27.471451	0.000666	6.662441	1.128648	-0.026618
 843	4.2100e-01	3.1740	27.414988	0.000283	2.826490	0.478820	-0.011293
 844	4.2150e-01	3.1535	27.261730	0.000767	7.671901	1.299655	-0.030652
 845	4.2200e-01	3.1329	27.152836	0.000545	5.451088	0.923439	-0.021779
 846	4.2250e-01	3.1129	27.068141	0.000424	4.239735	0.718231	-0.016939
 847	4.2300e-01	3.0940	26.951181	0.000585	5.854872	0.991842	-0.023392
 848	4.2350e-01	3.0728	26.838255	0.000565	5.652980	0.957641	-0.022585
 849	4.2400e-01	3.0537	26.713229	0.000626	6.258656	1.060245	-0.025005
 850	4.2450e-01	3.0329	26.628534	0.000424	4.239735	0.718231	-0.016939
 851	4.2500e-01	3.0130	26.547872	0.000404	4.037843	0.684029	-0.016132
 852	4.2550e-01	2.9938	26.426879	0.000606	6.056764	1.026044	-0.024199
 853	4.2600e-01	2.9743	26.269588	0.000787	7.873793	1.333857	-0.031458
 854	4.2650e-01	2.9531	26.160694	0.000545	5.451088	0.923439	-0.021779
 855	4.2700e-01	2.9335	26.075999	0.000424	4.239735	0.718231	-0.016939
 856	4.2750e-01	2.9135	25.987271	0.000444	4.441627	0.752432	-0.017746
 857	4.2800e-01	2.8931	25.882410	0.000525	5.249196	0.889238	-0.020972
 858	4.2850e-01	2.8735	25.801748	0.000404	4.037843	0.684029	-0.016132
 859	4.2900e-01	2.8537	25.648491	0.000767	7.671901	1.299655	-0.030652
 860	4.2950e-01	2.8331	25.555729	0.000464	4.643519	0.786633	-0.018552
 861	4.3000e-01	2.8131	25.450869	0.000525	5.249196	0.889238	-0.020972
 862	4.3050e-01	2.7937	25.297611	0.000767	7.671901	1.299655	-0.030652
 863	4.3100e-01	2.7724	25.192750	0.000525	5.249196	0.889238	-0.020972
 864	4.3150e-01	2.7533	25.128221	0.000323	3.230274	0.547223	-0.012906
 865	4.3200e-01	2.7327	24.999162	0.000646	6.460548	1.094447	-0.025812
 866	4.3250e-01	2.7136	24.874136	0.000626	6.258656	1.060245	-0.025005
 867	4.3300e-01	2.6941	24.757176	0.000585	5.854872	0.991842	-0.023392
 868	4.3350e-01	2.6733	24.712812	0.000222	2.220814	0.376216	-0.008873
 869	4.3400e-01	2.6532	24.583753	0.000646	6.460548	1.094447	-0.025812
 870	4.3450e-01	2.6329	24.474859	0.000545	5.451088	0.923439	-0.021779
 871	4.3500e-01	2.6132	24.369998	0.000525	5.249196	0.889238	-0.020972
 872	4.3550e-01	2.5941	24.240939	0.000646	6.460548	1.094447	-0.025812
 873	4.3600e-01	2.5739	24.123979	0.000585	5.854872	0.991842	-0.023392
 874	4.3650e-01	2.5532	24.019119	0.000525	5.249196	0.889238	-0.020972
 875	4.3700e-01	2.5320	23.890060	0.000646	6.460548	1.094447	-0.025812
 876	4.3750e-01	2.5134	23.781166	0.000545	5.451088	0.923439	-0.021779
 877	4.3800e-01	2.4930	23.672272	0.000545	5.451088	0.923439	-0.021779
 878	4.3850e-01	2.4734	23.571445	0.000505	5.047303	0.855036	-0.020165
 879	4.3900e-01	2.4525	23.470617	0.000505	5.047303	0.855036	-0.020165
 880	4.3950e-01	2.4332	23.389955	0.000404	4.037843	0.684029	-0.016132
 881	4.4000e-01	2.4133	23.236698	0.000767	7.671901	1.299655	-0.030652
 882	4.4050e-01	2.3941	23.172168	0.000323	3.230274	0.547223	-0.012906
 883	4.4100e-01	2.3724	23.043109	0.000646	6.460548	1.094447	-0.025812
 884	4.4150e-01	2.3535	22.865653	0.000888	8.883254	1.504864	-0.035491
 885	4.4200e-01	2.3341	22.793057	0.000363	3.634058	0.615626	-0.014519
 886	4.4250e-01	2.3135	22.692229	0.000505	5.047303	0.855036	-0.020165
 887	4.4300e-01	2.2922	22.591402	0.000505	5.047303	0.855036	-0.020165
 888	4.4350e-01	2.2729	22.498641	0.000464	4.643519	0.786633	-0.018552
 889	4.4400e-01	2.2534	22.341350	0.000787	7.873793	1.333857	-0.031458
 890	4.4450e-01	2.2329	22.248588	0.000464	4.643519	0.786633	-0.018552
 891	4.4500e-01	2.2132	22.151794	0.000485	4.845411	0.820835	-0.019359
 892	4.4550e-01	2.1926	22.030801	0.000606	6.056764	1.026044	-0.024199
 893	4.4600e-01	2.1729	21.929974	0.000505	5.047303	0.855036	-0.020165
 894	4.4650e-01	2.1530	21.784782	0.000727	7.268117	1.231252	-0.029038
 895	4.4700e-01	2.1330	21.700087	0.000424	4.239735	0.718231	-0.016939
 896	4.4750e-01	2.1130	21.546829	0.000767	7.671901	1.299655	-0.030652
 897	4.4800e-01	2.0884	21.385505	0.000808	8.075686	1.368058	-0.032265
 898	4.4850e-01	2.0737	21.320976	0.000323	3.230274	0.547223	-0.012906
 899	4.4900e-01	2.0528	21.204016	0.000585	5.854872	0.991842	-0.023392
 900	4.4950e-01	2.0332	21.066891	0.000686	6.864333	1.162849	-0.027425
 901	4.5000e-01	2.0132	20.978162	0.000444	4.441627	0.752432	-0.017746
 902	4.5050e-01	1.9936	20.905567	0.000363	3.634058	0.615626	-0.014519
 903	4.5100e-01	1.9739	20.804739	0.000505	5.047303	0.855036	-0.020165
 904	4.5150e-01	1.9527	20.659548	0.000727	7.268117	1.231252	-0.029038
 905	4.5200e-01	1.9334	20.538555	0.000606	6.056764	1.026044	-0.024199
 906	4.5250e-01	1.9133	20.445793	0.000464	4.643519	0.786633	-0.018552
 907	4.5300e-01	1.8929	20.316734	0.000646	6.460548	1.094447	-0.025812
 908	4.5350e-01	1.8729	20.207841	0.000545	5.451088	0.923439	-0.021779
 909	4.5400e-01	1.8530	20.074748	0.000666	6.662441	1.128648	-0.026618
 910	4.5450e-01	1.8329	19.937623	0.000686	6.864333	1.162849	-0.027425
 911	4.5500e-01	1.8134	19.885193	0.000262	2.624598	0.444619	-0.010486
 912	4.5550e-01	1.7935	19.735968	0.000747	7.470009	1.265454	-0.029845
 913	4.5600e-01	1.7734	19.606909	0.000646	6.460548	1.094447	-0.025812
 914	4.5650e-01	1.7535	19.554479	0.000262	2.624598	0.444619	-0.010486
 915	4.5700e-01	1.7326	19.381055	0.000868	8.681362	1.470663	-0.034685
 916	4.5750e-01	1.7130	19.292327	0.000444	4.441627	0.752432	-0.017746
 917	4.5800e-01	1.6937	19.155202	0.000686	6.864333	1.162849	-0.027425
 918	4.5850e-01	1.6734	19.062441	0.000464	4.643519	0.786633	-0.018552
 919	4.5900e-01	1.6523	18.913216	0.000747	7.470009	1.265454	-0.029845
 920	4.5950e-01	1.6325	18.820455	0.000464	4.643519	0.786633	-0.018552
 921	4.6000e-01	1.6138	18.723660	0.000485	4.845411	0.820835	-0.019359
 922	4.6050e-01	1.5927	18.554270	0.000848	8.479470	1.436461	-0.033878
 923	4.6100e-01	1.5726	18.485707	0.000343	3.432166	0.581425	-0.013713
 924	4.6150e-01	1.5524	18.360681	0.000626	6.258656	1.060245	-0.025005
 925	4.6200e-01	1.5331	18.247755	0.000565	5.652980	0.957641	-0.022585
 926	4.6250e-01	1.5128	18.122729	0.000626	6.258656	1.060245	-0.025005
 927	4.6300e-01	1.4930	17.985603	0.000686	6.864333	1.162849	-0.027425
 928	4.6350e-01	1.4733	17.925107	0.000303	3.028382	0.513022	-0.012099
 929	4.6400e-01	1.4532	17.808147	0.000585	5.854872	0.991842	-0.023392
 930	4.6450e-01	1.4332	17.671022	0.000686	6.864333	1.162849	-0.027425
 931	4.6500e-01	1.4121	17.554062	0.000585	5.854872	0.991842	-0.023392
 932	4.6550e-01	1.3932	17.408870	0.000727	7.268117	1.231252	-0.029038
 933	4.6600e-01	1.3716	17.299976	0.000545	5.451088	0.923439	-0.021779
 934	4.6650e-01	1.3524	17.183017	0.000585	5.854872	0.991842	-0.023392
 935	4.6700e-01	1.3322	17.086222	0.000485	4.845411	0.820835	-0.019359
 936	4.6750e-01	1.3131	16.961196	0.000626	6.258656	1.060245	-0.025005
 937	4.6800e-01	1.2923	16.832137	0.000646	6.460548	1.094447	-0.025812
 938	4.6850e-01	1.2716	16.795839	0.000182	1.817029	0.307813	-0.007260
 939	4.6900e-01	1.2532	16.598217	0.000989	9.892715	1.675871	-0.039524
 940	4.6950e-01	1.2335	16.509489	0.000444	4.441627	0.752432	-0.017746
 941	4.7000e-01	1.2135	16.408662	0.000505	5.047303	0.855036	-0.020165
 942	4.7050e-01	1.1923	16.287669	0.000606	6.056764	1.026044	-0.024199
 943	4.7100e-01	1.1732	16.158610	0.000646	6.460548	1.094447	-0.025812
 944	4.7150e-01	1.1537	16.045683	0.000565	5.652980	0.957641	-0.022585
 945	4.7200e-01	1.1337	15.872260	0.000868	8.681362	1.470663	-0.034685
 946	4.7250e-01	1.1130	15.723035	0.000747	7.470009	1.265454	-0.029845
 947	4.7300e-01	1.0941	15.662538	0.000303	3.028382	0.513022	-0.012099
 948	4.7350e-01	1.0736	15.557678	0.000525	5.249196	0.889238	-0.020972
 949	4.7400e-01	1.0533	15.424586	0.000666	6.662441	1.128648	-0.026618
 950	4.7450e-01	1.0341	15.311659	0.000565	5.652980	0.957641	-0.022585
 951	4.7500e-01	1.0135	15.230997	0.000404	4.037843	0.684029	-0.016132
 952	4.7550e-01	0.9931	15.037408	0.000969	9.690823	1.641670	-0.038718
 953	4.7600e-01	0.9734	15.001110	0.000182	1.817029	0.307813	-0.007260
 954	4.7650e-01	0.9521	14.855919	0.000727	7.268117	1.231252	-0.029038
 955	4.7700e-01	0.9331	14.730893	0.000626	6.258656	1.060245	-0.025005
 956	4.7750e-01	0.9138	14.585701	0.000727	7.268117	1.231252	-0.029038
 957	4.7800e-01	0.8935	14.496973	0.000444	4.441627	0.752432	-0.017746
 958	4.7850e-01	0.8731	14.343715	0.000767	7.671901	1.299655	-0.030652
 959	4.7900e-01	0.8531	14.279186	0.000323	3.230274	0.547223	-0.012906
 960	4.7950e-01	0.8334	14.138027	0.000707	7.066225	1.197051	-0.028232
 961	4.8000e-01	0.8143	14.021067	0.000585	5.854872	0.991842	-0.023392
 962	4.8050e-01	0.7929	13.944438	0.000384	3.835951	0.649828	-0.015326
 963	4.8100e-01	0.7735	13.811346	0.000666	6.662441	1.128648	-0.026618
 964	4.8150e-01	0.7526	13.682287	0.000646	6.460548	1.094447	-0.025812
 965	4.8200e-01	0.7335	13.524996	0.000787	7.873793	1.333857	-0.031458
 966	4.8250e-01	0.7132	13.420136	0.000525	5.249196	0.889238	-0.020972
 967	4.8300e-01	0.6931	13.339474	0.000404	4.037843	0.684029	-0.016132
 968	4.8350e-01	0.6724	13.214448	0.000626	6.258656	1.060245	-0.025005
 969	4.8400e-01	0.6535	13.053124	0.000808	8.075686	1.368058	-0.032265
 970	4.8450e-01	0.6329	12.960362	0.000464	4.643519	0.786633	-0.018552
 971	4.8500e-01	0.6128	12.875667	0.000424	4.239735	0.718231	-0.016939
 972	4.8550e-01	0.5940	12.718376	0.000787	7.873793	1.333857	-0.031458
 973	4.8600e-01	0.5726	12.597383	0.000606	6.056764	1.026044	-0.024199
 974	4.8650e-01	0.5538	12.448159	0.000747	7.470009	1.265454	-0.029845
 975	4.8700e-01	0.5338	12.331199	0.000585	5.854872	0.991842	-0.023392
 976	4.8750e-01	0.5130	12.250537	0.000404	4.037843	0.684029	-0.016132
 977	4.8800e-01	0.4939	12.129544	0.000606	6.056764	1.026044	-0.024199
 978	4.8850e-01	0.4727	11.972253	0.000787	7.873793	1.333857	-0.031458
 979	4.8900e-01	0.4527	11.835128	0.000686	6.864333	1.162849	-0.027425
 980	4.8950e-01	0.4322	11.738333	0.000485	4.845411	0.820835	-0.019359
 981	4.9000e-01	0.4126	11.617341	0.000606	6.056764	1.026044	-0.024199
 982	4.9050e-01	0.3929	11.508447	0.000545	5.451088	0.923439	-0.021779
 983	4.9100e-01	0.3732	11.379388	0.000646	6.460548	1.094447	-0.025812
 984	4.9150e-01	0.3518	11.238229	0.000707	7.066225	1.197051	-0.028232
 985	4.9200e-01	0.3325	11.109170	0.000646	6.460548	1.094447	-0.025812
 986	4.9250e-01	0.3120	11.020442	0.000444	4.441627	0.752432	-0.017746
 987	4.9300e-01	0.2922	10.838952	0.000909	9.085146	1.539065	-0.036298
 988	4.9350e-01	0.2734	10.770390	0.000343	3.432166	0.581425	-0.013713
 989	4.9400e-01	0.2527	10.649397	0.000606	6.056764	1.026044	-0.024199
 990	4.9450e-01	0.2324	10.532437	0.000585	5.854872	0.991842	-0.023392
 991	4.9500e-01	0.2123	10.391279	0.000707	7.066225	1.197051	-0.028232
 992	4.9550e-01	0.1927	10.314650	0.000384	3.835951	0.649828	-0.015326
 993	4.9600e-01	0.1721	10.165425	0.000747	7.470009	1.265454	-0.029845
 994	4.9650e-01	0.1528	10.008134	0.000787	7.873793	1.333857	-0.031458
 995	4.9700e-01	0.1322	9.931505	0.000384	3.835951	0.649828	-0.015326
 996	4.9750e-01	0.1118	9.770181	0.000808	8.075686	1.368058	-0.032265
 997	4.9800e-01	0.0928	9.669354	0.000505	5.047303	0.855036	-0.020165
 998	4.9850e-01	0.0721	9.524162	0.000727	7.268117	1.231252	-0.029038
 999	4.9900e-01	0.0520	9.399136	0.000626	6.258656	1.060245	-0.025005
1000	4.9950e-01	0.0326	9.286210	0.000565	5.652980	0.957641	-0.022585
1001	5.0000e-01	0.0123	9.197481	0.000444	4.441627	0.752432	-0.017746
1002	5.0050e-01	-0.0074	9.076488	0.000606	6.056764	1.026044	-0.024199
1003	5.0100e-01	-0.0271	8.971628	0.000525	5.249196	0.889238	-0.020972
1004	5.0150e-01	-0.0459	8.810304	0.000808	8.075686	1.368058	-0.032265
1005	5.0200e-01	-0.0661	8.697377	0.000565	5.652980	0.957641	-0.022585
1006	5.0250e-01	-0.0861	8.604616	0.000464	4.643519	0.786633	-0.018552
1007	5.0300e-01	-0.1062	8.451358	0.000767	7.671901	1.299655	-0.030652
1008	5.0350e-01	-0.1260	8.346498	0.000525	5.249196	0.889238	-0.020972
1009	5.0400e-01	-0.1462	8.217438	0.000646	6.460548	1.094447	-0.025812
1010	5.0450e-01	-0.1651	8.096445	0.000606	6.056764	1.026044	-0.024199
1011	5.0500e-01	-0.1855	8.048048	0.000242	2.422706	0.410417	-0.009679
1012	5.0550e-01	-0.2058	7.870592	0.000888	8.883254	1.504864	-0.035491
1013	5.0600e-01	-0.2254	7.745566	0.000626	6.258656	1.060245	-0.025005
1014	5.0650e-01	-0.2457	7.640705	0.000525	5.249196	0.889238	-0.020972
1015	5.0700e-01	-0.2665	7.531812	0.000545	5.451088	0.923439	-0.021779
1016	5.0750e-01	-0.2859	7.394686	0.000686	6.864333	1.162849	-0.027425
1017	5.0800e-01	-0.3062	7.297892	0.000485	4.845411	0.820835	-0.019359
1018	5.0850e-01	-0.3261	7.144634	0.000767	7.671901	1.299655	-0.030652
1019	5.0900e-01	-0.3470	7.043807	0.000505	5.047303	0.855036	-0.020165
1020	5.0950e-01	-0.3659	6.938946	0.000525	5.249196	0.889238	-0.020972
1021	5.1000e-01	-0.3857	6.765523	0.000868	8.681362	1.470663	-0.034685
1022	5.1050e-01	-0.4060	6.656629	0.000545	5.451088	0.923439	-0.021779
1023	5.1100e-01	-0.4266	6.491272	0.000828	8.277578	1.402260	-0.033071
1024	5.1150e-01	-0.4459	6.390445	0.000505	5.047303	0.855036	-0.020165
1025	5.1200e-01	-0.4648	6.217021	0.000868	8.681362	1.470663	-0.034685
1026	5.1250e-01	-0.4856	6.124260	0.000464	4.643519	0.786633	-0.018552
1027	5.1300e-01	-0.5055	6.015367	0.000545	5.451088	0.923439	-0.021779
1028	5.1350e-01	-0.5260	5.854043	0.000808	8.075686	1.368058	-0.032265
1029	5.1400e-01	-0.5457	5.761281	0.000464	4.643519	0.786633	-0.018552
1030	5.1450e-01	-0.5662	5.644321	0.000585	5.854872	0.991842	-0.023392
1031	5.1500e-01	-0.5862	5.499130	0.000727	7.268117	1.231252	-0.029038
1032	5.1550e-01	-0.6059	5.434600	0.000323	3.230274	0.547223	-0.012906
1033	5.1600e-01	-0.6268	5.253111	0.000909	9.085146	1.539065	-0.036298
1034	5.1650e-01	-0.6467	5.180515	0.000363	3.634058	0.615626	-0.014519
1035	5.1700e-01	-0.6644	5.063555	0.000585	5.854872	0.991842	-0.023392
1036	5.1750e-01	-0.6863	4.890132	0.000868	8.681362	1.470663	-0.034685
1037	5.1800e-01	-0.7055	4.837702	0.000262	2.624598	0.444619	-0.010486
1038	5.1850e-01	-0.7256	4.680411	0.000787	7.873793	1.333857	-0.031458
1039	5.1900e-01	-0.7458	4.571517	0.000545	5.451088	0.923439	-0.021779
1040	5.1950e-01	-0.7667	4.394061	0.000888	8.883254	1.504864	-0.035491
1041	5.2000e-01	-0.7863	4.309366	0.000424	4.239735	0.718231	-0.016939
1042	5.2050e-01	-0.8070	4.184340	0.000626	6.258656	1.060245	-0.025005
1043	5.2100e-01	-0.8266	4.079479	0.000525	5.249196	0.889238	-0.020972
1044	5.2150e-01	-0.8471	3.861692	0.001090	10.902175	1.846879	-0.043557
1045	5.2200e-01	-0.8665	3.813295	0.000242	2.422706	0.410417	-0.009679
1046	5.2250e-01	-0.8863	3.676169	0.000686	6.864333	1.162849	-0.027425
1047	5.2300e-01	-0.9060	3.563243	0.000565	5.652980	0.957641	-0.022585
1048	5.2350e-01	-0.9263	3.401919	0.000808	8.075686	1.368058	-0.032265
1049	5.2400e-01	-0.9462	3.293025	0.000545	5.451088	0.923439	-0.021779
1050	5.2450e-01	-0.9663	3.176065	0.000585	5.854872	0.991842	-0.023392
1051	5.2500e-01	-0.9859	3.014741	0.000808	8.075686	1.368058	-0.032265
1052	5.2550e-01	-1.0067	2.926013	0.000444	4.441627	0.752432	-0.017746
1053	5.2600e-01	-1.0258	2.796954	0.000646	6.460548	1.094447	-0.025812
1054	5.2650e-01	-1.0465	2.720325	0.000384	3.835951	0.649828	-0.015326
1055	5.2700e-01	-1.0662	2.579167	0.000707	7.066225	1.197051	-0.028232
1056	5.2750e-01	-1.0862	2.433975	0.000727	7.268117	1.231252	-0.029038
1057	5.2800e-01	-1.1066	2.337181	0.000485	4.845411	0.820835	-0.019359
1058	5.2850e-01	-1.1262	2.244419	0.000464	4.643519	0.786633	-0.018552
1059	5.2900e-01	-1.1460	2.079062	0.000828	8.277578	1.402260	-0.033071
1060	5.2950e-01	-1.1677	1.958069	0.000606	6.056764	1.026044	-0.024199
1061	5.3000e-01	-1.1869	1.909672	0.000242	2.422706	0.410417	-0.009679
1062	5.3050e-01	-1.2069	1.667686	0.001211	12.113528	2.052087	-0.048397
1063	5.3100e-01	-1.2256	1.611223	0.000283	2.826490	0.478820	-0.011293
1064	5.3150e-01	-1.2468	1.445866	0.000828	8.277578	1.402260	-0.033071
1065	5.3200e-01	-1.2669	1.324873	0.000606	6.056764	1.026044	-0.024199
1066	5.3250e-01	-1.2863	1.195814	0.000646	6.460548	1.094447	-0.025812
1067	5.3300e-01	-1.3068	1.111119	0.000424	4.239735	0.718231	-0.016939
1068	5.3350e-01	-1.3271	0.982060	0.000646	6.460548	1.094447	-0.025812
1069	5.3400e-01	-1.3450	0.877199	0.000525	5.249196	0.889238	-0.020972
1070	5.3450e-01	-1.3642	0.764272	0.000565	5.652980	0.957641	-0.022585
1071	5.3500e-01	-1.3859	0.671511	0.000464	4.643519	0.786633	-0.018552
1072	5.3550e-01	-1.4060	0.490021	0.000909	9.085146	1.539065	-0.036298
1073	5.3600e-01	-1.4265	0.437591	0.000262	2.624598	0.444619	-0.010486
1074	5.3650e-01	-1.4470	0.264168	0.000868	8.681362	1.470663	-0.034685
1075	5.3700e-01	-1.4668	0.086712	0.000888	8.883254	1.504864	-0.035491
1076	5.3750e-01	-1.4860	-0.010083	0.000485	4.845411	0.820835	-0.019359
1077	5.3800e-01	-1.5061	-0.151241	0.000707	7.066225	1.197051	-0.028232
1078	5.3850e-01	-1.5263	-0.264168	0.000565	5.652980	0.957641	-0.022585
1079	5.3900e-01	-1.5467	-0.381128	0.000585	5.854872	0.991842	-0.023392
1080	5.3950e-01	-1.5675	-0.477922	0.000485	4.845411	0.820835	-0.019359
1081	5.4000e-01	-1.5864	-0.619081	0.000707	7.066225	1.197051	-0.028232
1082	5.4050e-01	-1.6065	-0.748140	0.000646	6.460548	1.094447	-0.025812
1083	5.4100e-01	-1.6264	-0.857033	0.000545	5.451088	0.923439	-0.021779
1084	5.4150e-01	-1.6462	-0.973993	0.000585	5.854872	0.991842	-0.023392
1085	5.4200e-01	-1.6651	-1.074821	0.000505	5.047303	0.855036	-0.020165
1086	5.4250e-01	-1.6865	-1.211946	0.000686	6.864333	1.162849	-0.027425
1087	5.4300e-01	-1.7057	-1.341005	0.000646	6.460548	1.094447	-0.025812
1088	5.4350e-01	-1.7258	-1.449899	0.000545	5.451088	0.923439	-0.021779
1089	5.4400e-01	-1.7465	-1.599124	0.000747	7.470009	1.265454	-0.029845
1090	5.4450e-01	-1.7670	-1.740282	0.000707	7.066225	1.197051	-0.028232
1091	5.4500e-01	-1.7872	-1.833043	0.000464	4.643519	0.786633	-0.018552
1092	5.4550e-01	-1.8064	-1.954036	0.000606	6.056764	1.026044	-0.024199
1093	5.4600e-01	-1.8262	-2.075029	0.000606	6.056764	1.026044	-0.024199
1094	5.4650e-01	-1.8470	-2.212155	0.000686	6.864333	1.162849	-0.027425
1095	5.4700e-01	-1.8665	-2.337181	0.000626	6.258656	1.060245	-0.025005
1096	5.4750e-01	-1.8873	-2.474306	0.000686	6.864333	1.162849	-0.027425
1097	5.4800e-01	-1.9061	-2.567067	0.000464	4.643519	0.786633	-0.018552
1098	5.4850e-01	-1.9268	-2.659829	0.000464	4.643519	0.786633	-0.018552
1099	5.4900e-01	-1.9465	-2.805020	0.000727	7.268117	1.231252	-0.029038
1100	5.4950e-01	-1.9664	-2.913914	0.000545	5.451088	0.923439	-0.021779
1101	5.5000e-01	-1.9874	-3.042973	0.000646	6.460548	1.094447	-0.025812
1102	5.5050e-01	-2.0069	-3.196231	0.000767	7.671901	1.299655	-0.030652
1103	5.5100e-01	-2.0266	-3.341422	0.000727	7.268117	1.231252	-0.029038
1104	5.5150e-01	-2.0469	-3.482581	0.000707	7.066225	1.197051	-0.028232
1105	5.5200e-01	-2.0667	-3.563243	0.000404	4.037843	0.684029	-0.016132
1106	5.5250e-01	-2.0869	-3.664070	0.000505	5.047303	0.855036	-0.020165
1107	5.5300e-01	-2.1066	-3.805229	0.000707	7.066225	1.197051	-0.028232
1108	5.5350e-01	-2.1268	-3.893957	0.000444	4.441627	0.752432	-0.017746
1109	5.5400e-01	-2.1473	-4.014950	0.000606	6.056764	1.026044	-0.024199
1110	5.5450e-01	-2.1677	-4.180307	0.000828	8.277578	1.402260	-0.033071
1111	5.5500e-01	-2.1859	-4.289200	0.000545	5.451088	0.923439	-0.021779
1112	5.5550e-01	-2.2077	-4.385995	0.000485	4.845411	0.820835	-0.019359
1113	5.5600e-01	-2.2266	-4.523120	0.000686	6.864333	1.162849	-0.027425
1114	5.5650e-01	-2.2483	-4.644113	0.000606	6.056764	1.026044	-0.024199
1115	5.5700e-01	-2.2663	-4.773172	0.000646	6.460548	1.094447	-0.025812
1116	5.5750e-01	-2.2871	-4.922397	0.000747	7.470009	1.265454	-0.029845
1117	5.5800e-01	-2.3072	-5.015158	0.000464	4.643519	0.786633	-0.018552
1118	5.5850e-01	-2.3261	-5.136151	0.000606	6.056764	1.026044	-0.024199
1119	5.5900e-01	-2.3469	-5.249078	0.000565	5.652980	0.957641	-0.022585
1120	5.5950e-01	-2.3675	-5.349905	0.000505	5.047303	0.855036	-0.020165
1121	5.6000e-01	-2.3869	-5.450733	0.000505	5.047303	0.855036	-0.020165
1122	5.6050e-01	-2.4066	-5.587858	0.000686	6.864333	1.162849	-0.027425
1123	5.6100e-01	-2.4267	-5.708851	0.000606	6.056764	1.026044	-0.024199
1124	5.6150e-01	-2.4471	-5.817745	0.000545	5.451088	0.923439	-0.021779
1125	5.6200e-01	-2.4662	-5.962936	0.000727	7.268117	1.231252	-0.029038
1126	5.6250e-01	-2.4873	-6.031499	0.000343	3.432166	0.581425	-0.013713
1127	5.6300e-01	-2.5062	-6.184757	0.000767	7.671901	1.299655	-0.030652
1128	5.6350e-01	-2.5273	-6.313816	0.000646	6.460548	1.094447	-0.025812
1129	5.6400e-01	-2.5459	-6.430776	0.000585	5.854872	0.991842	-0.023392
1130	5.6450e-01	-2.5663	-6.531603	0.000505	5.047303	0.855036	-0.020165
1131	5.6500e-01	-2.5864	-6.696960	0.000828	8.277578	1.402260	-0.033071
1132	5.6550e-01	-2.6067	-6.821986	0.000626	6.258656	1.060245	-0.025005
1133	5.6600e-01	-2.6258	-6.934913	0.000565	5.652980	0.957641	-0.022585
1134	5.6650e-01	-2.6472	-6.999443	0.000323	3.230274	0.547223	-0.012906
1135	5.6700e-01	-2.6668	-7.112369	0.000565	5.652980	0.957641	-0.022585
1136	5.6750e-01	-2.6879	-7.273693	0.000808	8.075686	1.368058	-0.032265
1137	5.6800e-01	-2.7059	-7.430984	0.000787	7.873793	1.333857	-0.031458
1138	5.6850e-01	-2.7271	-7.539878	0.000545	5.451088	0.923439	-0.021779
1139	5.6900e-01	-2.7460	-7.624573	0.000424	4.239735	0.718231	-0.016939
1140	5.6950e-01	-2.7671	-7.785897	0.000808	8.075686	1.368058	-0.032265
1141	5.7000e-01	-2.7871	-7.894791	0.000545	5.451088	0.923439	-0.021779
1142	5.7050e-01	-2.8068	-7.979486	0.000424	4.239735	0.718231	-0.016939
1143	5.7100e-01	-2.8272	-8.124677	0.000727	7.268117	1.231252	-0.029038
1144	5.7150e-01	-2.8474	-8.269869	0.000727	7.268117	1.231252	-0.029038
1145	5.7200e-01	-2.8657	-8.330365	0.000303	3.028382	0.513022	-0.012099
1146	5.7250e-01	-2.8863	-8.487656	0.000787	7.873793	1.333857	-0.031458
1147	5.7300e-01	-2.9072	-8.568318	0.000404	4.037843	0.684029	-0.016132
1148	5.7350e-01	-2.9273	-8.693344	0.000626	6.258656	1.060245	-0.025005
1149	5.7400e-01	-2.9470	-8.810304	0.000585	5.854872	0.991842	-0.023392
1150	5.7450e-01	-2.9670	-8.931297	0.000606	6.056764	1.026044	-0.024199
1151	5.7500e-01	-2.9864	-9.052290	0.000606	6.056764	1.026044	-0.024199
1152	5.7550e-01	-3.0069	-9.157150	0.000525	5.249196	0.889238	-0.020972
1153	5.7600e-01	-3.0268	-9.262011	0.000525	5.249196	0.889238	-0.020972
1154	5.7650e-01	-3.0470	-9.399136	0.000686	6.864333	1.162849	-0.027425
1155	5.7700e-01	-3.0671	-9.548361	0.000747	7.470009	1.265454	-0.029845
1156	5.7750e-01	-3.0866	-9.645155	0.000485	4.845411	0.820835	-0.019359
1157	5.7800e-01	-3.1071	-9.790347	0.000727	7.268117	1.231252	-0.029038
1158	5.7850e-01	-3.1272	-9.887141	0.000485	4.845411	0.820835	-0.019359
1159	5.7900e-01	-3.1470	-9.951671	0.000323	3.230274	0.547223	-0.012906
1160	5.7950e-01	-3.1673	-10.088796	0.000686	6.864333	1.162849	-0.027425
1161	5.8000e-01	-3.1867	-10.173491	0.000424	4.239735	0.718231	-0.016939
1162	5.8050e-01	-3.2066	-10.371113	0.000989	9.892715	1.675871	-0.039524
1163	5.8100e-01	-3.2278	-10.431610	0.000303	3.028382	0.513022	-0.012099
1164	5.8150e-01	-3.2471	-10.568735	0.000686	6.864333	1.162849	-0.027425
1165	5.8200e-01	-3.2671	-10.665529	0.000485	4.845411	0.820835	-0.019359
1166	5.8250e-01	-3.2865	-10.790555	0.000626	6.258656	1.060245	-0.025005
1167	5.8300e-01	-3.3079	-10.895416	0.000525	5.249196	0.889238	-0.020972
1168	5.8350e-01	-3.3275	-10.992210	0.000485	4.845411	0.820835	-0.019359
1169	5.8400e-01	-3.3472	-11.133369	0.000707	7.066225	1.197051	-0.028232
1170	5.8450e-01	-3.3662	-11.302759	0.000848	8.479470	1.436461	-0.033878
1171	5.8500e-01	-3.3875	-11.363255	0.000303	3.028382	0.513022	-0.012099
1172	5.8550e-01	-3.4074	-11.488281	0.000626	6.258656	1.060245	-0.025005
1173	5.8600e-01	-3.4274	-11.653638	0.000828	8.277578	1.402260	-0.033071
1174	5.8650e-01	-3.4480	-11.750433	0.000485	4.845411	0.820835	-0.019359
1175	5.8700e-01	-3.4682	-11.895624	0.000727	7.268117	1.231252	-0.029038
1176	5.8750e-01	-3.4878	-11.992419	0.000485	4.845411	0.820835	-0.019359
1177	5.8800e-01	-3.5065	-12.097279	0.000525	5.249196	0.889238	-0.020972
1178	5.8850e-01	-3.5267	-12.226338	0.000646	6.460548	1.094447	-0.025812
1179	5.8900e-01	-3.5474	-12.290868	0.000323	3.230274	0.547223	-0.012906
1180	5.8950e-01	-3.5679	-12.436060	0.000727	7.268117	1.231252	-0.029038
1181	5.9000e-01	-3.5871	-12.508655	0.000363	3.634058	0.615626	-0.014519
1182	5.9050e-01	-3.6073	-12.661913	0.000767	7.671901	1.299655	-0.030652
1183	5.9100e-01	-3.6274	-12.738542	0.000384	3.835951	0.649828	-0.015326
1184	5.9150e-01	-3.6469	-12.899866	0.000808	8.075686	1.368058	-0.032265
1185	5.9200e-01	-3.6671	-12.948263	0.000242	2.422706	0.410417	-0.009679
1186	5.9250e-01	-3.6884	-13.097488	0.000747	7.470009	1.265454	-0.029845
1187	5.9300e-01	-3.7080	-13.254779	0.000787	7.873793	1.333857	-0.031458
1188	5.9350e-01	-3.7275	-13.343507	0.000444	4.441627	0.752432	-0.017746
1189	5.9400e-01	-3.7476	-13.468533	0.000626	6.258656	1.060245	-0.025005
1190	5.9450e-01	-3.7666	-13.496764	0.000141	1.413245	0.239410	-0.005646
1191	5.9500e-01	-3.7885	-13.637923	0.000707	7.066225	1.197051	-0.028232
1192	5.9550e-01	-3.8074	-13.791181	0.000767	7.671901	1.299655	-0.030652
1193	5.9600e-01	-3.8267	-13.948472	0.000787	7.873793	1.333857	-0.031458
1194	5.9650e-01	-3.8468	-14.021067	0.000363	3.634058	0.615626	-0.014519
1195	5.9700e-01	-3.8668	-14.113829	0.000464	4.643519	0.786633	-0.018552
1196	5.9750e-01	-3.8883	-14.267086	0.000767	7.671901	1.299655	-0.030652
1197	5.9800e-01	-3.9060	-14.380013	0.000565	5.652980	0.957641	-0.022585
1198	5.9850e-01	-3.9277	-14.424377	0.000222	2.220814	0.376216	-0.008873
1199	5.9900e-01	-3.9468	-14.549403	0.000626	6.258656	1.060245	-0.025005
1200	5.9950e-01	-3.9675	-14.658297	0.000545	5.451088	0.923439	-0.021779
1201	6.0000e-01	-3.9872	-14.775257	0.000585	5.854872	0.991842	-0.023392
1202	6.0050e-01	-4.0078	-14.892217	0.000585	5.854872	0.991842	-0.023392
1203	6.0100e-01	-4.0273	-14.968845	0.000384	3.835951	0.649828	-0.015326
1204	6.0150e-01	-4.0476	-15.138236	0.000848	8.479470	1.436461	-0.033878
1205	6.0200e-01	-4.0662	-15.198732	0.000303	3.028382	0.513022	-0.012099
1206	6.0250e-01	-4.0876	-15.408453	0.001050	10.498391	1.778476	-0.041944
1207	6.0300e-01	-4.1074	-15.456850	0.000242	2.422706	0.410417	-0.009679
1208	6.0350e-01	-4.1282	-15.529446	0.000363	3.634058	0.615626	-0.014519
1209	6.0400e-01	-4.1474	-15.698836	0.000848	8.479470	1.436461	-0.033878
1210	6.0450e-01	-4.1676	-15.807730	0.000545	5.451088	0.923439	-0.021779
1211	6.0500e-01	-4.1877	-15.932756	0.000626	6.258656	1.060245	-0.025005
1212	6.0550e-01	-4.2078	-16.001319	0.000343	3.432166	0.581425	-0.013713
1213	6.0600e-01	-4.2274	-16.142477	0.000707	7.066225	1.197051	-0.028232
1214	6.0650e-01	-4.2475	-16.174742	0.000162	1.615137	0.273612	-0.006453
1215	6.0700e-01	-4.2677	-16.328000	0.000767	7.671901	1.299655	-0.030652
1216	6.0750e-01	-4.2878	-16.420761	0.000464	4.643519	0.786633	-0.018552
1217	6.0800e-01	-4.3079	-16.545787	0.000626	6.258656	1.060245	-0.025005
1218	6.0850e-01	-4.3276	-16.638548	0.000464	4.643519	0.786633	-0.018552
1219	6.0900e-01	-4.3478	-16.779707	0.000707	7.066225	1.197051	-0.028232
1220	6.0950e-01	-4.3684	-16.892633	0.000565	5.652980	0.957641	-0.022585
1221	6.1000e-01	-4.3885	-17.013626	0.000606	6.056764	1.026044	-0.024199
1222	6.1050e-01	-4.4083	-17.094288	0.000404	4.037843	0.684029	-0.016132
1223	6.1100e-01	-4.4277	-17.207215	0.000565	5.652980	0.957641	-0.022585
1224	6.1150e-01	-4.4480	-17.267712	0.000303	3.028382	0.513022	-0.012099
1225	6.1200e-01	-4.4666	-17.372572	0.000525	5.249196	0.889238	-0.020972
1226	6.1250e-01	-4.4883	-17.505664	0.000666	6.662441	1.128648	-0.026618
1227	6.1300e-01	-4.5066	-17.662955	0.000787	7.873793	1.333857	-0.031458
1228	6.1350e-01	-4.5277	-17.787981	0.000626	6.258656	1.060245	-0.025005
1229	6.1400e-01	-4.5475	-17.892842	0.000525	5.249196	0.889238	-0.020972
1230	6.1450e-01	-4.5679	-17.953338	0.000303	3.028382	0.513022	-0.012099
1231	6.1500e-01	-4.5881	-18.078364	0.000626	6.258656	1.060245	-0.025005
1232	6.1550e-01	-4.6076	-18.167093	0.000444	4.441627	0.752432	-0.017746
1233	6.1600e-01	-4.6272	-18.296152	0.000646	6.460548	1.094447	-0.025812
1234	6.1650e-01	-4.6479	-18.392946	0.000485	4.845411	0.820835	-0.019359
1235	6.1700e-01	-4.6682	-18.538138	0.000727	7.268117	1.231252	-0.029038
1236	6.1750e-01	-4.6885	-18.638965	0.000505	5.047303	0.855036	-0.020165
1237	6.1800e-01	-4.7089	-18.723660	0.000424	4.239735	0.718231	-0.016939
1238	6.1850e-01	-4.7288	-18.832554	0.000545	5.451088	0.923439	-0.021779
1239	6.1900e-01	-4.7486	-18.937414	0.000525	5.249196	0.889238	-0.020972
1240	6.1950e-01	-4.7684	-19.026143	0.000444	4.441627	0.752432	-0.017746
1241	6.2000e-01	-4.7889	-19.155202	0.000646	6.460548	1.094447	-0.025812
1242	6.2050e-01	-4.8087	-19.268129	0.000565	5.652980	0.957641	-0.022585
1243	6.2100e-01	-4.8306	-19.344757	0.000384	3.835951	0.649828	-0.015326
1244	6.2150e-01	-4.8481	-19.457684	0.000565	5.652980	0.957641	-0.022585
1245	6.2200e-01	-4.8689	-19.562545	0.000525	5.249196	0.889238	-0.020972
1246	6.2250e-01	-4.8896	-19.719836	0.000787	7.873793	1.333857	-0.031458
1247	6.2300e-01	-4.9085	-19.808564	0.000444	4.441627	0.752432	-0.017746
1248	6.2350e-01	-4.9281	-19.917457	0.000545	5.451088	0.923439	-0.021779
1249	6.2400e-01	-4.9482	-19.990053	0.000363	3.634058	0.615626	-0.014519
1250	6.2450e-01	-4.9689	-20.119112	0.000646	6.460548	1.094447	-0.025812
1251	6.2500e-01	-4.9880	-20.228006	0.000545	5.451088	0.923439	-0.021779
1252	6.2550e-01	-5.0092	-20.300602	0.000363	3.634058	0.615626	-0.014519
1253	6.2600e-01	-5.0282	-20.441760	0.000707	7.066225	1.197051	-0.028232
1254	6.2650e-01	-5.0492	-20.502257	0.000303	3.028382	0.513022	-0.012099
1255	6.2700e-01	-5.0692	-20.635349	0.000666	6.662441	1.128648	-0.026618
1256	6.2750e-01	-5.0886	-20.707945	0.000363	3.634058	0.615626	-0.014519
1257	6.2800e-01	-5.1084	-20.808772	0.000505	5.047303	0.855036	-0.020165
1258	6.2850e-01	-5.1289	-20.957997	0.000747	7.470009	1.265454	-0.029845
1259	6.2900e-01	-5.1481	-21.099155	0.000707	7.066225	1.197051	-0.028232
1260	6.2950e-01	-5.1685	-21.212082	0.000565	5.652980	0.957641	-0.022585
1261	6.3000e-01	-5.1881	-21.316943	0.000525	5.249196	0.889238	-0.020972
1262	6.3050e-01	-5.2088	-21.389538	0.000363	3.634058	0.615626	-0.014519
1263	6.3100e-01	-5.2279	-21.498432	0.000545	5.451088	0.923439	-0.021779
1264	6.3150e-01	-5.2479	-21.599260	0.000505	5.047303	0.855036	-0.020165
1265	6.3200e-01	-5.2671	-21.679922	0.000404	4.037843	0.684029	-0.016132
1266	6.3250e-01	-5.2888	-21.881576	0.001009	10.094607	1.710073	-0.040331
1267	6.3300e-01	-5.3091	-21.925941	0.000222	2.220814	0.376216	-0.008873
1268	6.3350e-01	-5.3284	-22.099364	0.000868	8.681362	1.470663	-0.034685
1269	6.3400e-01	-5.3498	-22.151794	0.000262	2.624598	0.444619	-0.010486
1270	6.3450e-01	-5.3687	-22.252622	0.000505	5.047303	0.855036	-0.020165
1271	6.3500e-01	-5.3883	-22.361515	0.000545	5.451088	0.923439	-0.021779
1272	6.3550e-01	-5.4084	-22.458310	0.000485	4.845411	0.820835	-0.019359
1273	6.3600e-01	-5.4279	-22.615600	0.000787	7.873793	1.333857	-0.031458
1274	6.3650e-01	-5.4481	-22.736593	0.000606	6.056764	1.026044	-0.024199
1275	6.3700e-01	-5.4682	-22.797090	0.000303	3.028382	0.513022	-0.012099
1276	6.3750e-01	-5.4890	-22.905984	0.000545	5.451088	0.923439	-0.021779
1277	6.3800e-01	-5.5088	-23.031010	0.000626	6.258656	1.060245	-0.025005
1278	6.3850e-01	-5.5293	-23.176201	0.000727	7.268117	1.231252	-0.029038
1279	6.3900e-01	-5.5488	-23.285095	0.000545	5.451088	0.923439	-0.021779
1280	6.3950e-01	-5.5695	-23.393988	0.000545	5.451088	0.923439	-0.021779
1281	6.4000e-01	-5.5882	-23.434319	0.000202	2.018921	0.342015	-0.008066
1282	6.4050e-01	-5.6080	-23.559345	0.000626	6.258656	1.060245	-0.025005
1283	6.4100e-01	-5.6293	-23.700504	0.000707	7.066225	1.197051	-0.028232
1284	6.4150e-01	-5.6489	-23.813431	0.000565	5.652980	0.957641	-0.022585
1285	6.4200e-01	-5.6696	-23.906192	0.000464	4.643519	0.786633	-0.018552
1286	6.4250e-01	-5.6886	-24.023152	0.000585	5.854872	0.991842	-0.023392
1287	6.4300e-01	-5.7087	-24.164310	0.000707	7.066225	1.197051	-0.028232
1288	6.4350e-01	-5.7282	-24.253038	0.000444	4.441627	0.752432	-0.017746
1289	6.4400e-01	-5.7484	-24.402263	0.000747	7.470009	1.265454	-0.029845
1290	6.4450e-01	-5.7685	-24.482925	0.000404	4.037843	0.684029	-0.016132
1291	6.4500e-01	-5.7887	-24.611984	0.000646	6.460548	1.094447	-0.025812
1292	6.4550e-01	-5.8088	-24.668448	0.000283	2.826490	0.478820	-0.011293
1293	6.4600e-01	-5.8286	-24.801540	0.000666	6.662441	1.128648	-0.026618
1294	6.4650e-01	-5.8491	-24.890268	0.000444	4.441627	0.752432	-0.017746
1295	6.4700e-01	-5.8692	-25.011261	0.000606	6.056764	1.026044	-0.024199
1296	6.4750e-01	-5.8897	-25.132254	0.000606	6.056764	1.026044	-0.024199
1297	6.4800e-01	-5.9083	-25.188717	0.000283	2.826490	0.478820	-0.011293
1298	6.4850e-01	-5.9284	-25.317776	0.000646	6.460548	1.094447	-0.025812
1299	6.4900e-01	-5.9486	-25.462968	0.000727	7.268117	1.231252	-0.029038
1300	6.4950e-01	-5.9687	-25.583961	0.000606	6.056764	1.026044	-0.024199
1301	6.5000e-01	-5.9884	-25.704954	0.000606	6.056764	1.026044	-0.024199
1302	6.5050e-01	-6.0090	-25.801748	0.000485	4.845411	0.820835	-0.019359
1303	6.5100e-01	-6.0291	-25.930807	0.000646	6.460548	1.094447	-0.025812
1304	6.5150e-01	-6.0487	-26.047767	0.000585	5.854872	0.991842	-0.023392
1305	6.5200e-01	-6.0696	-26.156661	0.000545	5.451088	0.923439	-0.021779
1306	6.5250e-01	-6.0896	-26.245389	0.000444	4.441627	0.752432	-0.017746
1307	6.5300e-01	-6.1094	-26.338150	0.000464	4.643519	0.786633	-0.018552
1308	6.5350e-01	-6.1292	-26.459143	0.000606	6.056764	1.026044	-0.024199
1309	6.5400e-01	-6.1494	-26.576103	0.000585	5.854872	0.991842	-0.023392
1310	6.5450e-01	-6.1689	-26.640633	0.000323	3.230274	0.547223	-0.012906
1311	6.5500e-01	-6.1898	-26.729361	0.000444	4.441627	0.752432	-0.017746
1312	6.5550e-01	-6.2098	-26.870519	0.000707	7.066225	1.197051	-0.028232
1313	6.5600e-01	-6.2287	-27.031843	0.000808	8.075686	1.368058	-0.032265
1314	6.5650e-01	-6.2495	-27.112505	0.000404	4.037843	0.684029	-0.016132
1315	6.5700e-01	-6.2696	-27.245598	0.000666	6.662441	1.128648	-0.026618
1316	6.5750e-01	-6.2891	-27.427087	0.000909	9.085146	1.539065	-0.036298
1317	6.5800e-01	-6.3096	-27.459352	0.000162	1.615137	0.273612	-0.006453
1318	6.5850e-01	-6.3288	-27.523881	0.000323	3.230274	0.547223	-0.012906
1319	6.5900e-01	-6.3490	-27.689238	0.000828	8.277578	1.402260	-0.033071
1320	6.5950e-01	-6.3691	-27.818298	0.000646	6.460548	1.094447	-0.025812
1321	6.6000e-01	-6.3898	-27.927191	0.000545	5.451088	0.923439	-0.021779
1322	6.6050e-01	-6.4094	-27.979622	0.000262	2.624598	0.444619	-0.010486
1323	6.6100e-01	-6.4283	-28.124813	0.000727	7.268117	1.231252	-0.029038
1324	6.6150e-01	-6.4491	-28.237740	0.000565	5.652980	0.957641	-0.022585
1325	6.6200e-01	-6.4692	-28.330501	0.000464	4.643519	0.786633	-0.018552
1326	6.6250e-01	-6.4887	-28.463593	0.000666	6.662441	1.128648	-0.026618
1327	6.6300e-01	-6.5095	-28.544255	0.000404	4.037843	0.684029	-0.016132
1328	6.6350e-01	-6.5284	-28.685414	0.000707	7.066225	1.197051	-0.028232
1329	6.6400e-01	-6.5485	-28.810440	0.000626	6.258656	1.060245	-0.025005
1330	6.6450e-01	-6.5681	-28.919334	0.000545	5.451088	0.923439	-0.021779
1331	6.6500e-01	-6.5894	-29.060492	0.000707	7.066225	1.197051	-0.028232
1332	6.6550e-01	-6.6087	-29.112922	0.000262	2.624598	0.444619	-0.010486
1333	6.6600e-01	-6.6297	-29.205684	0.000464	4.643519	0.786633	-0.018552
1334	6.6650e-01	-6.6480	-29.354908	0.000747	7.470009	1.265454	-0.029845
1335	6.6700e-01	-6.6682	-29.459769	0.000525	5.249196	0.889238	-0.020972
1336	6.6750e-01	-6.6889	-29.584795	0.000626	6.258656	1.060245	-0.025005
1337	6.6800e-01	-6.7085	-29.685622	0.000505	5.047303	0.855036	-0.020165
1338	6.6850e-01	-6.7292	-29.758218	0.000363	3.634058	0.615626	-0.014519
1339	6.6900e-01	-6.7487	-29.976005	0.001090	10.902175	1.846879	-0.043557
1340	6.6950e-01	-6.7683	-30.056667	0.000404	4.037843	0.684029	-0.016132
1341	6.7000e-01	-6.7884	-30.113131	0.000283	2.826490	0.478820	-0.011293
1342	6.7050e-01	-6.8089	-30.209925	0.000485	4.845411	0.820835	-0.019359
1343	6.7100e-01	-6.8287	-30.375282	0.000828	8.277578	1.402260	-0.033071
1344	6.7150e-01	-6.8501	-30.488209	0.000565	5.652980	0.957641	-0.022585
1345	6.7200e-01	-6.8693	-30.560805	0.000363	3.634058	0.615626	-0.014519
1346	6.7250e-01	-6.8897	-30.669698	0.000545	5.451088	0.923439	-0.021779
1347	6.7300e-01	-6.9090	-30.806824	0.000686	6.864333	1.162849	-0.027425
1348	6.7350e-01	-6.9300	-30.952015	0.000727	7.268117	1.231252	-0.029038
1349	6.7400e-01	-6.9495	-31.032677	0.000404	4.037843	0.684029	-0.016132
1350	6.7450e-01	-6.9697	-31.153670	0.000606	6.056764	1.026044	-0.024199
1351	6.7500e-01	-6.9901	-31.282729	0.000646	6.460548	1.094447	-0.025812
1352	6.7550e-01	-7.0094	-31.363391	0.000404	4.037843	0.684029	-0.016132
1353	6.7600e-01	-7.0286	-31.520682	0.000787	7.873793	1.333857	-0.031458
1354	6.7650e-01	-7.0496	-31.601344	0.000404	4.037843	0.684029	-0.016132
1355	6.7700e-01	-7.0698	-31.742503	0.000707	7.066225	1.197051	-0.028232
1356	6.7750e-01	-7.0893	-31.839297	0.000485	4.845411	0.820835	-0.019359
1357	6.7800e-01	-7.1098	-31.932058	0.000464	4.643519	0.786633	-0.018552
1358	6.7850e-01	-7.1296	-32.053051	0.000606	6.056764	1.026044	-0.024199
1359	6.7900e-01	-7.1503	-32.186143	0.000666	6.662441	1.128648	-0.026618
1360	6.7950e-01	-7.1699	-32.282938	0.000485	4.845411	0.820835	-0.019359
1361	6.8000e-01	-7.1903	-32.411997	0.000646	6.460548	1.094447	-0.025812
1362	6.8050e-01	-7.2089	-32.516857	0.000525	5.249196	0.889238	-0.020972
1363	6.8100e-01	-7.2294	-32.641884	0.000626	6.258656	1.060245	-0.025005
1364	6.8150e-01	-7.2492	-32.754810	0.000565	5.652980	0.957641	-0.022585
1365	6.8200e-01	-7.2694	-32.851605	0.000485	4.845411	0.820835	-0.019359
1366	6.8250e-01	-7.2889	-32.972598	0.000606	6.056764	1.026044	-0.024199
1367	6.8300e-01	-7.3084	-33.121822	0.000747	7.470009	1.265454	-0.029845
1368	6.8350e-01	-7.3298	-33.210550	0.000444	4.441627	0.752432	-0.017746
1369	6.8400e-01	-7.3499	-33.375907	0.000828	8.277578	1.402260	-0.033071
1370	6.8450e-01	-7.3701	-33.468669	0.000464	4.643519	0.786633	-0.018552
1371	6.8500e-01	-7.3896	-33.553364	0.000424	4.239735	0.718231	-0.016939
1372	6.8550e-01	-7.4091	-33.658224	0.000525	5.249196	0.889238	-0.020972
1373	6.8600e-01	-7.4296	-33.819548	0.000808	8.075686	1.368058	-0.032265
1374	6.8650e-01	-7.4500	-33.859879	0.000202	2.018921	0.342015	-0.008066
1375	6.8700e-01	-7.4689	-33.968773	0.000545	5.451088	0.923439	-0.021779
1376	6.8750e-01	-7.4900	-34.138163	0.000848	8.479470	1.436461	-0.033878
1377	6.8800e-01	-7.5098	-34.259156	0.000606	6.056764	1.026044	-0.024199
1378	6.8850e-01	-7.5294	-34.343851	0.000424	4.239735	0.718231	-0.016939
1379	6.8900e-01	-7.5492	-34.432579	0.000444	4.441627	0.752432	-0.017746
1380	6.8950e-01	-7.5703	-34.585837	0.000767	7.671901	1.299655	-0.030652
1381	6.9000e-01	-7.5886	-34.658433	0.000363	3.634058	0.615626	-0.014519
1382	6.9050e-01	-7.6084	-34.815724	0.000787	7.873793	1.333857	-0.031458
1383	6.9100e-01	-7.6289	-34.888319	0.000363	3.634058	0.615626	-0.014519
1384	6.9150e-01	-7.6496	-35.025445	0.000686	6.864333	1.162849	-0.027425
1385	6.9200e-01	-7.6698	-35.150471	0.000626	6.258656	1.060245	-0.025005
1386	6.9250e-01	-7.6893	-35.247265	0.000485	4.845411	0.820835	-0.019359
1387	6.9300e-01	-7.7091	-35.372291	0.000626	6.258656	1.060245	-0.025005
1388	6.9350e-01	-7.7290	-35.489251	0.000585	5.854872	0.991842	-0.023392
1389	6.9400e-01	-7.7491	-35.602178	0.000565	5.652980	0.957641	-0.022585
1390	6.9450e-01	-7.7692	-35.727204	0.000626	6.258656	1.060245	-0.025005
1391	6.9500e-01	-7.7894	-35.864329	0.000686	6.864333	1.162849	-0.027425
1392	6.9550e-01	-7.8101	-35.985322	0.000606	6.056764	1.026044	-0.024199
1393	6.9600e-01	-7.8297	-36.082117	0.000485	4.845411	0.820835	-0.019359
1394	6.9650e-01	-7.8492	-36.191010	0.000545	5.451088	0.923439	-0.021779
1395	6.9700e-01	-7.8693	-36.340235	0.000747	7.470009	1.265454	-0.029845
1396	6.9750e-01	-7.8901	-36.465261	0.000626	6.258656	1.060245	-0.025005
1397	6.9800e-01	-7.9096	-36.570122	0.000525	5.249196	0.889238	-0.020972
1398	6.9850e-01	-7.9298	-36.658850	0.000444	4.441627	0.752432	-0.017746
1399	6.9900e-01	-7.9499	-36.812107	0.000767	7.671901	1.299655	-0.030652
1400	6.9950e-01	-7.9688	-36.904869	0.000464	4.643519	0.786633	-0.018552
1401	7.0000e-01	-7.9887	-37.025862	0.000606	6.056764	1.026044	-0.024199
1402	7.0050e-01	-8.0097	-37.154921	0.000646	6.460548	1.094447	-0.025812
1403	7.0100e-01	-8.0289	-37.288013	0.000666	6.662441	1.128648	-0.026618
1404	7.0150e-01	-8.0503	-37.409006	0.000606	6.056764	1.026044	-0.024199
1405	7.0200e-01	-8.0704	-37.497734	0.000444	4.441627	0.752432	-0.017746
1406	7.0250e-01	-8.0912	-37.646959	0.000747	7.470009	1.265454	-0.029845
1407	7.0300e-01	-8.1098	-37.715522	0.000343	3.432166	0.581425	-0.013713
1408	7.0350e-01	-8.1293	-37.808283	0.000464	4.643519	0.786633	-0.018552
1409	7.0400e-01	-8.1489	-37.973640	0.000828	8.277578	1.402260	-0.033071
1410	7.0450e-01	-8.1696	-38.013971	0.000202	2.018921	0.342015	-0.008066
1411	7.0500e-01	-8.1904	-38.187394	0.000868	8.681362	1.470663	-0.034685
1412	7.0550e-01	-8.2105	-38.300321	0.000565	5.652980	0.957641	-0.022585
1413	7.0600e-01	-8.2294	-38.465678	0.000828	8.277578	1.402260	-0.033071
1414	7.0650e-01	-8.2493	-38.582638	0.000585	5.854872	0.991842	-0.023392
1415	7.0700e-01	-8.2688	-38.671366	0.000444	4.441627	0.752432	-0.017746
1416	7.0750e-01	-8.2917	-38.804458	0.000666	6.662441	1.128648	-0.026618
1417	7.0800e-01	-8.3096	-38.864955	0.000303	3.028382	0.513022	-0.012099
1418	7.0850e-01	-8.3302	-39.058543	0.000969	9.690823	1.641670	-0.038718
1419	7.0900e-01	-8.3509	-39.179536	0.000606	6.056764	1.026044	-0.024199
1420	7.0950e-01	-8.3704	-39.308596	0.000646	6.460548	1.094447	-0.025812
1421	7.1000e-01	-8.3906	-39.421522	0.000565	5.652980	0.957641	-0.022585
1422	7.1050e-01	-8.4101	-39.530416	0.000545	5.451088	0.923439	-0.021779
1423	7.1100e-01	-8.4296	-39.598979	0.000343	3.432166	0.581425	-0.013713
1424	7.1150e-01	-8.4504	-39.772402	0.000868	8.681362	1.470663	-0.034685
1425	7.1200e-01	-8.4699	-39.873229	0.000505	5.047303	0.855036	-0.020165
1426	7.1250e-01	-8.4898	-40.002288	0.000646	6.460548	1.094447	-0.025812
1427	7.1300e-01	-8.5096	-40.119248	0.000585	5.854872	0.991842	-0.023392
1428	7.1350e-01	-8.5297	-40.224109	0.000525	5.249196	0.889238	-0.020972
1429	7.1400e-01	-8.5505	-40.377367	0.000767	7.671901	1.299655	-0.030652
1430	7.1450e-01	-8.5706	-40.494327	0.000585	5.854872	0.991842	-0.023392
1431	7.1500e-01	-8.5902	-40.611286	0.000585	5.854872	0.991842	-0.023392
1432	7.1550e-01	-8.6097	-40.760511	0.000747	7.470009	1.265454	-0.029845
1433	7.1600e-01	-8.6298	-40.909736	0.000747	7.470009	1.265454	-0.029845
1434	7.1650e-01	-8.6506	-40.994431	0.000424	4.239735	0.718231	-0.016939
1435	7.1700e-01	-8.6695	-41.159788	0.000828	8.277578	1.402260	-0.033071
1436	7.1750e-01	-8.6903	-41.284814	0.000626	6.258656	1.060245	-0.025005
1437	7.1800e-01	-8.7095	-41.349343	0.000323	3.230274	0.547223	-0.012906
1438	7.1850e-01	-8.7296	-41.518734	0.000848	8.479470	1.436461	-0.033878
1439	7.1900e-01	-8.7495	-41.639727	0.000606	6.056764	1.026044	-0.024199
1440	7.1950e-01	-8.7702	-41.748620	0.000545	5.451088	0.923439	-0.021779
1441	7.2000e-01	-8.7897	-41.861547	0.000565	5.652980	0.957641	-0.022585
1442	7.2050e-01	-8.8105	-41.946242	0.000424	4.239735	0.718231	-0.016939
1443	7.2100e-01	-8.8319	-42.067235	0.000606	6.056764	1.026044	-0.024199
1444	7.2150e-01	-8.8505	-42.188228	0.000606	6.056764	1.026044	-0.024199
1445	7.2200e-01	-8.8697	-42.321320	0.000666	6.662441	1.128648	-0.026618
1446	7.2250e-01	-8.8898	-42.426181	0.000525	5.249196	0.889238	-0.020972
1447	7.2300e-01	-8.9094	-42.567339	0.000707	7.066225	1.197051	-0.028232
1448	7.2350e-01	-8.9301	-42.744796	0.000888	8.883254	1.504864	-0.035491
1449	7.2400e-01	-8.9497	-42.849656	0.000525	5.249196	0.889238	-0.020972
1450	7.2450e-01	-8.9695	-43.006947	0.000787	7.873793	1.333857	-0.031458
1451	7.2500e-01	-8.9893	-43.127940	0.000606	6.056764	1.026044	-0.024199
1452	7.2550e-01	-9.0101	-43.232800	0.000525	5.249196	0.889238	-0.020972
1453	7.2600e-01	-9.0296	-43.386058	0.000767	7.671901	1.299655	-0.030652
1454	7.2650e-01	-9.0498	-43.511084	0.000626	6.258656	1.060245	-0.025005
1455	7.2700e-01	-9.0699	-43.583680	0.000363	3.634058	0.615626	-0.014519
1456	7.2750e-01	-9.0907	-43.720805	0.000686	6.864333	1.162849	-0.027425
1457	7.2800e-01	-9.1090	-43.861964	0.000707	7.066225	1.197051	-0.028232
1458	7.2850e-01	-9.1297	-43.958758	0.000485	4.845411	0.820835	-0.019359
1459	7.2900e-01	-9.1499	-44.103950	0.000727	7.268117	1.231252	-0.029038
1460	7.2950e-01	-9.1700	-44.273340	0.000848	8.479470	1.436461	-0.033878
1461	7.3000e-01	-9.1895	-44.370134	0.000485	4.845411	0.820835	-0.019359
1462	7.3050e-01	-9.2091	-44.519359	0.000747	7.470009	1.265454	-0.029845
1463	7.3100e-01	-9.2286	-44.652451	0.000666	6.662441	1.128648	-0.026618
1464	7.3150e-01	-9.2493	-44.757312	0.000525	5.249196	0.889238	-0.020972
1465	7.3200e-01	-9.2689	-44.926702	0.000848	8.479470	1.436461	-0.033878
1466	7.3250e-01	-9.2896	-45.007364	0.000404	4.037843	0.684029	-0.016132
1467	7.3300e-01	-9.3098	-45.176754	0.000848	8.479470	1.436461	-0.033878
1468	7.3350e-01	-9.3299	-45.269515	0.000464	4.643519	0.786633	-0.018552
1469	7.3400e-01	-9.3501	-45.394541	0.000626	6.258656	1.060245	-0.025005
1470	7.3450e-01	-9.3702	-45.507468	0.000565	5.652980	0.957641	-0.022585
1471	7.3500e-01	-9.3900	-45.660726	0.000767	7.671901	1.299655	-0.030652
1472	7.3550e-01	-9.4096	-45.842215	0.000909	9.085146	1.539065	-0.036298
1473	7.3600e-01	-9.4300	-45.939010	0.000485	4.845411	0.820835	-0.019359
1474	7.3650e-01	-9.4495	-46.072102	0.000666	6.662441	1.128648	-0.026618
1475	7.3700e-01	-9.4700	-46.233426	0.000808	8.075686	1.368058	-0.032265
1476	7.3750e-01	-9.4892	-46.310055	0.000384	3.835951	0.649828	-0.015326
1477	7.3800e-01	-9.5094	-46.523809	0.001070	10.700283	1.812677	-0.042751
1478	7.3850e-01	-9.5307	-46.572206	0.000242	2.422706	0.410417	-0.009679
1479	7.3900e-01	-9.5496	-46.741596	0.000848	8.479470	1.436461	-0.033878
1480	7.3950e-01	-9.5698	-46.898887	0.000787	7.873793	1.333857	-0.031458
1481	7.4000e-01	-9.5899	-47.015847	0.000585	5.854872	0.991842	-0.023392
1482	7.4050e-01	-9.6095	-47.136840	0.000606	6.056764	1.026044	-0.024199
1483	7.4100e-01	-9.6296	-47.265899	0.000646	6.460548	1.094447	-0.025812
1484	7.4150e-01	-9.6491	-47.431256	0.000828	8.277578	1.402260	-0.033071
1485	7.4200e-01	-9.6693	-47.556282	0.000626	6.258656	1.060245	-0.025005
1486	7.4250e-01	-9.6894	-47.673242	0.000585	5.854872	0.991842	-0.023392
1487	7.4300e-01	-9.7089	-47.814400	0.000707	7.066225	1.197051	-0.028232
1488	7.4350e-01	-9.7291	-47.971691	0.000787	7.873793	1.333857	-0.031458
1489	7.4400e-01	-9.7489	-48.100750	0.000646	6.460548	1.094447	-0.025812
1490	7.4450e-01	-9.7694	-48.233843	0.000666	6.662441	1.128648	-0.026618
1491	7.4500e-01	-9.7889	-48.362902	0.000646	6.460548	1.094447	-0.025812
1492	7.4550e-01	-9.8090	-48.568590	0.001030	10.296499	1.744274	-0.041138
1493	7.4600e-01	-9.8286	-48.600855	0.000162	1.615137	0.273612	-0.006453
1494	7.4650e-01	-9.8493	-48.725881	0.000626	6.258656	1.060245	-0.025005
1495	7.4700e-01	-9.8689	-48.899304	0.000868	8.681362	1.470663	-0.034685
1496	7.4750e-01	-9.8890	-49.113058	0.001070	10.700283	1.812677	-0.042751
1497	7.4800e-01	-9.9091	-49.157422	0.000222	2.220814	0.376216	-0.008873
1498	7.4850e-01	-9.9293	-49.290515	0.000666	6.662441	1.128648	-0.026618
1499	7.4900e-01	-9.9488	-49.435706	0.000727	7.268117	1.231252	-0.029038
1500	7.4950e-01	-9.9696	-49.588964	0.000767	7.671901	1.299655	-0.030652
1501	7.5000e-01	-9.9894	-49.754321	0.000828	8.277578	1.402260	-0.033071
1502	7.5050e-01	-9.9860	-49.709957	0.000222	2.220814	0.376216	0.008873
1503	7.5100e-01	-9.9696	-49.762387	-0.000262	-2.624598	-0.444619	-0.010486
1504	7.5150e-01	-9.9506	-49.722056	0.000202	2.018921	0.342015	0.008066
1505	7.5200e-01	-9.9311	-49.709957	0.000061	0.605676	0.102604	0.002420
1506	7.5250e-01	-9.9116	-49.681725	0.000141	1.413245	0.239410	0.005646
1507	7.5300e-01	-9.8917	-49.730122	-0.000242	-2.422706	-0.410417	-0.009679
1508	7.5350e-01	-9.8725	-49.689791	0.000202	2.018921	0.342015	0.008066
1509	7.5400e-01	-9.8518	-49.661560	0.000141	1.413245	0.239410	0.005646
1510	7.5450e-01	-9.8310	-49.722056	-0.000303	-3.028382	-0.513022	-0.012099
1511	7.5500e-01	-9.8121	-49.661560	0.000303	3.028382	0.513022	0.012099
1512	7.5550e-01	-9.7919	-49.629295	0.000162	1.615137	0.273612	0.006453
1513	7.5600e-01	-9.7712	-49.588964	0.000202	2.018921	0.342015	0.008066
1514	7.5650e-01	-9.7517	-49.584931	0.000020	0.201892	0.034201	0.000807
1515	7.5700e-01	-9.7327	-49.524434	0.000303	3.028382	0.513022	0.012099
1516	7.5750e-01	-9.7114	-49.504269	0.000101	1.009461	0.171007	0.004033
1517	7.5800e-01	-9.6918	-49.508302	-0.000020	-0.201892	-0.034201	-0.000807
1518	7.5850e-01	-9.6723	-49.395375	0.000565	5.652980	0.957641	0.022585
1519	7.5900e-01	-9.6516	-49.367143	0.000141	1.413245	0.239410	0.005646
1520	7.5950e-01	-9.6320	-49.338912	0.000141	1.413245	0.239410	0.005646
1521	7.6000e-01	-9.6119	-49.314713	0.000121	1.211353	0.205209	0.004840
1522	7.6050e-01	-9.5918	-49.290515	0.000121	1.211353	0.205209	0.004840
1523	7.6100e-01	-9.5716	-49.234051	0.000283	2.826490	0.478820	0.011293
1524	7.6150e-01	-9.5521	-49.137257	0.000485	4.845411	0.820835	0.019359
1525	7.6200e-01	-9.5319	-49.121124	0.000081	0.807569	0.136806	0.003226
1526	7.6250e-01	-9.5118	-49.088860	0.000162	1.615137	0.273612	0.006453
1527	7.6300e-01	-9.4929	-49.032396	0.000283	2.826490	0.478820	0.011293
1528	7.6350e-01	-9.4712	-49.012231	0.000101	1.009461	0.171007	0.004033
1529	7.6400e-01	-9.4514	-48.967867	0.000222	2.220814	0.376216	0.008873
1530	7.6450e-01	-9.4321	-48.895271	0.000363	3.634058	0.615626	0.014519
1531	7.6500e-01	-9.4117	-48.887205	0.000040	0.403784	0.068403	0.001613
1532	7.6550e-01	-9.3922	-48.794443	0.000464	4.643519	0.786633	0.018552
1533	7.6600e-01	-9.3720	-48.729914	0.000323	3.230274	0.547223	0.012906
1534	7.6650e-01	-9.3519	-48.665384	0.000323	3.230274	0.547223	0.012906
1535	7.6700e-01	-9.3324	-48.649252	0.000081	0.807569	0.136806	0.003226
1536	7.6750e-01	-9.3116	-48.592789	0.000283	2.826490	0.478820	0.011293
1537	7.6800e-01	-9.2915	-48.552458	0.000202	2.018921	0.342015	0.008066
1538	7.6850e-01	-9.2719	-48.463729	0.000444	4.441627	0.752432	0.017746
1539	7.6900e-01	-9.2512	-48.427431	0.000182	1.817029	0.307813	0.007260
1540	7.6950e-01	-9.2329	-48.358869	0.000343	3.432166	0.581425	0.013713
1541	7.7000e-01	-9.2121	-48.310472	0.000242	2.422706	0.410417	0.009679
1542	7.7050e-01	-9.1926	-48.249975	0.000303	3.028382	0.513022	0.012099
1543	7.7100e-01	-9.1724	-48.189479	0.000303	3.028382	0.513022	0.012099
1544	7.7150e-01	-9.1529	-48.084618	0.000525	5.249196	0.889238	0.020972
1545	7.7200e-01	-9.1319	-48.040254	0.000222	2.220814	0.376216	0.008873
1546	7.7250e-01	-9.1120	-48.007989	0.000162	1.615137	0.273612	0.006453
1547	7.7300e-01	-9.0925	-47.943460	0.000323	3.230274	0.547223	0.012906
1548	7.7350e-01	-9.0723	-47.931360	0.000061	0.605676	0.102604	0.002420
1549	7.7400e-01	-9.0525	-47.842632	0.000444	4.441627	0.752432	0.017746
1550	7.7450e-01	-9.0318	-47.778103	0.000323	3.230274	0.547223	0.012906
1551	7.7500e-01	-9.0119	-47.709540	0.000343	3.432166	0.581425	0.013713
1552	7.7550e-01	-8.9912	-47.653077	0.000283	2.826490	0.478820	0.011293
1553	7.7600e-01	-8.9722	-47.560315	0.000464	4.643519	0.786633	0.018552
1554	7.7650e-01	-8.9515	-47.467554	0.000464	4.643519	0.786633	0.018552
1555	7.7700e-01	-8.9326	-47.455455	0.000061	0.605676	0.102604	0.002420
1556	7.7750e-01	-8.9118	-47.370760	0.000424	4.239735	0.718231	0.016939
1557	7.7800e-01	-8.8917	-47.366727	0.000020	0.201892	0.034201	0.000807
1558	7.7850e-01	-8.8721	-47.298164	0.000343	3.432166	0.581425	0.013713
1559	7.7900e-01	-8.8520	-47.229601	0.000343	3.432166	0.581425	0.013713
1560	7.7950e-01	-8.8300	-47.209436	0.000101	1.009461	0.171007	0.004033
1561	7.8000e-01	-8.8117	-47.116674	0.000464	4.643519	0.786633	0.018552
1562	7.8050e-01	-8.7931	-47.044079	0.000363	3.634058	0.615626	0.014519
1563	7.8100e-01	-8.7720	-46.983582	0.000303	3.028382	0.513022	0.012099
1564	7.8150e-01	-8.7525	-46.910986	0.000363	3.634058	0.615626	0.014519
1565	7.8200e-01	-8.7324	-46.850490	0.000303	3.028382	0.513022	0.012099
1566	7.8250e-01	-8.7122	-46.769828	0.000404	4.037843	0.684029	0.016132
1567	7.8300e-01	-8.6927	-46.737563	0.000162	1.615137	0.273612	0.006453
1568	7.8350e-01	-8.6726	-46.660934	0.000384	3.835951	0.649828	0.015326
1569	7.8400e-01	-8.6518	-46.600438	0.000303	3.028382	0.513022	0.012099
1570	7.8450e-01	-8.6323	-46.535908	0.000323	3.230274	0.547223	0.012906
1571	7.8500e-01	-8.6118	-46.435081	0.000505	5.047303	0.855036	0.020165
1572	7.8550e-01	-8.5926	-46.394750	0.000202	2.018921	0.342015	0.008066
1573	7.8600e-01	-8.5719	-46.322154	0.000363	3.634058	0.615626	0.014519
1574	7.8650e-01	-8.5525	-46.217293	0.000525	5.249196	0.889238	0.020972
1575	7.8700e-01	-8.5322	-46.205194	0.000061	0.605676	0.102604	0.002420
1576	7.8750e-01	-8.5126	-46.156797	0.000242	2.422706	0.410417	0.009679
1577	7.8800e-01	-8.4919	-46.027738	0.000646	6.460548	1.094447	0.025812
1578	7.8850e-01	-8.4730	-46.023705	0.000020	0.201892	0.034201	0.000807
1579	7.8900e-01	-8.4522	-45.959175	0.000323	3.230274	0.547223	0.012906
1580	7.8950e-01	-8.4333	-45.878513	0.000404	4.037843	0.684029	0.016132
1581	7.9000e-01	-8.4119	-45.773653	0.000525	5.249196	0.889238	0.020972
1582	7.9050e-01	-8.3924	-45.705090	0.000343	3.432166	0.581425	0.013713
1583	7.9100e-01	-8.3726	-45.616362	0.000444	4.441627	0.752432	0.017746
1584	7.9150e-01	-8.3515	-45.567965	0.000242	2.422706	0.410417	0.009679
1585	7.9200e-01	-8.3308	-45.459071	0.000545	5.451088	0.923439	0.021779
1586	7.9250e-01	-8.3125	-45.438905	0.000101	1.009461	0.171007	0.004033
1587	7.9300e-01	-8.2917	-45.350177	0.000444	4.441627	0.752432	0.017746
1588	7.9350e-01	-8.2717	-45.321946	0.000141	1.413245	0.239410	0.005646
1589	7.9400e-01	-8.2533	-45.237250	0.000424	4.239735	0.718231	0.016939
1590	7.9450e-01	-8.2319	-45.204986	0.000162	1.615137	0.273612	0.006453
1591	7.9500e-01	-8.2124	-45.100125	0.000525	5.249196	0.889238	0.020972
1592	7.9550e-01	-8.1916	-45.035596	0.000323	3.230274	0.547223	0.012906
1593	7.9600e-01	-8.1709	-44.958967	0.000384	3.835951	0.649828	0.015326
1594	7.9650e-01	-8.1525	-44.870238	0.000444	4.441627	0.752432	0.017746
1595	7.9700e-01	-8.1330	-44.850073	0.000101	1.009461	0.171007	0.004033
1596	7.9750e-01	-8.1123	-44.708915	0.000707	7.066225	1.197051	0.028232
1597	7.9800e-01	-8.0915	-44.688749	0.000101	1.009461	0.171007	0.004033
1598	7.9850e-01	-8.0720	-44.608087	0.000404	4.037843	0.684029	0.016132
1599	7.9900e-01	-8.0518	-44.527425	0.000404	4.037843	0.684029	0.016132
1600	7.9950e-01	-8.0317	-44.442730	0.000424	4.239735	0.718231	0.016939
1601	8.0000e-01	-8.0112	-44.414498	0.000141	1.413245	0.239410	0.005646
1602	8.0050e-01	-7.9917	-44.325770	0.000444	4.441627	0.752432	0.017746
1603	8.0100e-01	-7.9707	-44.297538	0.000141	1.413245	0.239410	0.005646
1604	8.0150e-01	-7.9517	-44.164446	0.000666	6.662441	1.128648	0.026618
1605	8.0200e-01	-7.9316	-44.107983	0.000283	2.826490	0.478820	0.011293
1606	8.0250e-01	-7.9115	-44.047486	0.000303	3.028382	0.513022	0.012099
1607	8.0300e-01	-7.8925	-43.999089	0.000242	2.422706	0.410417	0.009679
1608	8.0350e-01	-7.8724	-43.882129	0.000585	5.854872	0.991842	0.023392
1609	8.0400e-01	-7.8519	-43.878096	0.000020	0.201892	0.034201	0.000807
1610	8.0450e-01	-7.8312	-43.757103	0.000606	6.056764	1.026044	0.024199
1611	8.0500e-01	-7.8114	-43.704673	0.000262	2.624598	0.444619	0.010486
1612	8.0550e-01	-7.7918	-43.591746	0.000565	5.652980	0.957641	0.022585
1613	8.0600e-01	-7.7723	-43.519150	0.000363	3.634058	0.615626	0.014519
1614	8.0650e-01	-7.7528	-43.486886	0.000162	1.615137	0.273612	0.006453
1615	8.0700e-01	-7.7314	-43.369926	0.000585	5.854872	0.991842	0.023392
1616	8.0750e-01	-7.7119	-43.325562	0.000222	2.220814	0.376216	0.008873
1617	8.0800e-01	-7.6917	-43.196503	0.000646	6.460548	1.094447	0.025812
1618	8.0850e-01	-7.6722	-43.148105	0.000242	2.422706	0.410417	0.009679
1619	8.0900e-01	-7.6514	-43.055344	0.000464	4.643519	0.786633	0.018552
1620	8.0950e-01	-7.6307	-43.043245	0.000061	0.605676	0.102604	0.002420
1621	8.1000e-01	-7.6112	-42.982748	0.000303	3.028382	0.513022	0.012099
1622	8.1050e-01	-7.5912	-42.865788	0.000585	5.854872	0.991842	0.023392
1623	8.1100e-01	-7.5703	-42.845623	0.000101	1.009461	0.171007	0.004033
1624	8.1150e-01	-7.5507	-42.752862	0.000464	4.643519	0.786633	0.018552
1625	8.1200e-01	-7.5327	-42.664134	0.000444	4.441627	0.752432	0.017746
1626	8.1250e-01	-7.5120	-42.551207	0.000565	5.652980	0.957641	0.022585
1627	8.1300e-01	-7.4921	-42.531041	0.000101	1.009461	0.171007	0.004033
1628	8.1350e-01	-7.4722	-42.369717	0.000808	8.075686	1.368058	0.032265
1629	8.1400e-01	-7.4531	-42.353585	0.000081	0.807569	0.136806	0.003226
1630	8.1450e-01	-7.4329	-42.240658	0.000565	5.652980	0.957641	0.022585
1631	8.1500e-01	-7.4123	-42.224526	0.000081	0.807569	0.136806	0.003226
1632	8.1550e-01	-7.3920	-42.103533	0.000606	6.056764	1.026044	0.024199
1633	8.1600e-01	-7.3725	-42.051103	0.000262	2.624598	0.444619	0.010486
1634	8.1650e-01	-7.3518	-42.006738	0.000222	2.220814	0.376216	0.008873
1635	8.1700e-01	-7.3322	-41.909944	0.000485	4.845411	0.820835	0.019359
1636	8.1750e-01	-7.3121	-41.845415	0.000323	3.230274	0.547223	0.012906
1637	8.1800e-01	-7.2913	-41.764753	0.000404	4.037843	0.684029	0.016132
1638	8.1850e-01	-7.2718	-41.651826	0.000565	5.652980	0.957641	0.022585
1639	8.1900e-01	-7.2514	-41.619561	0.000162	1.615137	0.273612	0.006453
1640	8.1950e-01	-7.2318	-41.498568	0.000606	6.056764	1.026044	0.024199
1641	8.2000e-01	-7.2120	-41.425972	0.000363	3.634058	0.615626	0.014519
1642	8.2050e-01	-7.1918	-41.389674	0.000182	1.817029	0.307813	0.007260
1643	8.2100e-01	-7.1717	-41.304979	0.000424	4.239735	0.718231	0.016939
1644	8.2150e-01	-7.1507	-41.236417	0.000343	3.432166	0.581425	0.013713
1645	8.2200e-01	-7.1316	-41.147688	0.000444	4.441627	0.752432	0.017746
1646	8.2250e-01	-7.1119	-41.046861	0.000505	5.047303	0.855036	0.020165
1647	8.2300e-01	-7.0918	-41.018629	0.000141	1.413245	0.239410	0.005646
1648	8.2350e-01	-7.0722	-40.873438	0.000727	7.268117	1.231252	0.029038
1649	8.2400e-01	-7.0515	-40.821008	0.000262	2.624598	0.444619	0.010486
1650	8.2450e-01	-7.0319	-40.760511	0.000303	3.028382	0.513022	0.012099
1651	8.2500e-01	-7.0118	-40.675816	0.000424	4.239735	0.718231	0.016939
1652	8.2550e-01	-6.9923	-40.627419	0.000242	2.422706	0.410417	0.009679
1653	8.2600e-01	-6.9717	-40.546757	0.000404	4.037843	0.684029	0.016132
1654	8.2650e-01	-6.9514	-40.494327	0.000262	2.624598	0.444619	0.010486
1655	8.2700e-01	-6.9312	-40.377367	0.000585	5.854872	0.991842	0.023392
1656	8.2750e-01	-6.9112	-40.296705	0.000404	4.037843	0.684029	0.016132
1657	8.2800e-01	-6.8916	-40.264440	0.000162	1.615137	0.273612	0.006453
1658	8.2850e-01	-6.8726	-40.155546	0.000545	5.451088	0.923439	0.021779
1659	8.2900e-01	-6.8519	-40.131348	0.000121	1.211353	0.205209	0.004840
1660	8.2950e-01	-6.8324	-39.990189	0.000707	7.066225	1.197051	0.028232
1661	8.3000e-01	-6.8122	-39.925660	0.000323	3.230274	0.547223	0.012906
1662	8.3050e-01	-6.7915	-39.812733	0.000565	5.652980	0.957641	0.022585
1663	8.3100e-01	-6.7716	-39.748203	0.000323	3.230274	0.547223	0.012906
1664	8.3150e-01	-6.7519	-39.663508	0.000424	4.239735	0.718231	0.016939
1665	8.3200e-01	-6.7316	-39.586879	0.000384	3.835951	0.649828	0.015326
1666	8.3250e-01	-6.7121	-39.494118	0.000464	4.643519	0.786633	0.018552
1667	8.3300e-01	-6.6914	-39.433622	0.000303	3.028382	0.513022	0.012099
1668	8.3350e-01	-6.6721	-39.316662	0.000585	5.854872	0.991842	0.023392
1669	8.3400e-01	-6.6511	-39.260198	0.000283	2.826490	0.478820	0.011293
1670	8.3450e-01	-6.6317	-39.167437	0.000464	4.643519	0.786633	0.018552
1671	8.3500e-01	-6.6114	-39.098874	0.000343	3.432166	0.581425	0.013713
1672	8.3550e-01	-6.5913	-38.998047	0.000505	5.047303	0.855036	0.020165
1673	8.3600e-01	-6.5717	-38.925451	0.000363	3.634058	0.615626	0.014519
1674	8.3650e-01	-6.5510	-38.868988	0.000283	2.826490	0.478820	0.011293
1675	8.3700e-01	-6.5314	-38.691531	0.000888	8.883254	1.504864	0.035491
1676	8.3750e-01	-6.5102	-38.691531	0.000000	0.000000	0.000000	0.000000
1677	8.3800e-01	-6.4912	-38.610869	0.000404	4.037843	0.684029	0.016132
1678	8.3850e-01	-6.4710	-38.550373	0.000303	3.028382	0.513022	0.012099
1679	8.3900e-01	-6.4521	-38.433413	0.000585	5.854872	0.991842	0.023392
1680	8.3950e-01	-6.4314	-38.368884	0.000323	3.230274	0.547223	0.012906
1681	8.4000e-01	-6.4124	-38.304354	0.000323	3.230274	0.547223	0.012906
1682	8.4050e-01	-6.3917	-38.207560	0.000485	4.845411	0.820835	0.019359
1683	8.4100e-01	-6.3711	-38.143030	0.000323	3.230274	0.547223	0.012906
1684	8.4150e-01	-6.3514	-38.042203	0.000505	5.047303	0.855036	0.020165
1685	8.4200e-01	-6.3306	-37.973640	0.000343	3.432166	0.581425	0.013713
1686	8.4250e-01	-6.3105	-37.852647	0.000606	6.056764	1.026044	0.024199
1687	8.4300e-01	-6.2916	-37.828448	0.000121	1.211353	0.205209	0.004840
1688	8.4350e-01	-6.2720	-37.699389	0.000646	6.460548	1.094447	0.025812
1689	8.4400e-01	-6.2513	-37.659058	0.000202	2.018921	0.342015	0.008066
1690	8.4450e-01	-6.2312	-37.534032	0.000626	6.258656	1.060245	0.025005
1691	8.4500e-01	-6.2113	-37.505800	0.000141	1.413245	0.239410	0.005646
1692	8.4550e-01	-6.1918	-37.417072	0.000444	4.441627	0.752432	0.017746
1693	8.4600e-01	-6.1710	-37.340443	0.000384	3.835951	0.649828	0.015326
1694	8.4650e-01	-6.1512	-37.275914	0.000323	3.230274	0.547223	0.012906
1695	8.4700e-01	-6.1301	-37.167020	0.000545	5.451088	0.923439	0.021779
1696	8.4750e-01	-6.1115	-37.070226	0.000485	4.845411	0.820835	0.019359
1697	8.4800e-01	-6.0920	-36.961332	0.000545	5.451088	0.923439	0.021779
1698	8.4850e-01	-6.0712	-36.868571	0.000464	4.643519	0.786633	0.018552
1699	8.4900e-01	-6.0506	-36.775810	0.000464	4.643519	0.786633	0.018552
1700	8.4950e-01	-6.0310	-36.711280	0.000323	3.230274	0.547223	0.012906
1701	8.5000e-01	-6.0114	-36.646750	0.000323	3.230274	0.547223	0.012906
1702	8.5050e-01	-5.9913	-36.594320	0.000262	2.624598	0.444619	0.010486
1703	8.5100e-01	-5.9721	-36.441062	0.000767	7.671901	1.299655	0.030652
1704	8.5150e-01	-5.9507	-36.392665	0.000242	2.422706	0.410417	0.009679
1705	8.5200e-01	-5.9321	-36.332169	0.000303	3.028382	0.513022	0.012099
1706	8.5250e-01	-5.9113	-36.219242	0.000565	5.652980	0.957641	0.022585
1707	8.5300e-01	-5.8924	-36.122448	0.000485	4.845411	0.820835	0.019359
1708	8.5350e-01	-5.8717	-36.070017	0.000262	2.624598	0.444619	0.010486
1709	8.5400e-01	-5.8509	-35.977256	0.000464	4.643519	0.786633	0.018552
1710	8.5450e-01	-5.8314	-35.904660	0.000363	3.634058	0.615626	0.014519
1711	8.5500e-01	-5.8118	-35.815932	0.000444	4.441627	0.752432	0.017746
1712	8.5550e-01	-5.7911	-35.723171	0.000464	4.643519	0.786633	0.018552
1713	8.5600e-01	-5.7710	-35.610244	0.000565	5.652980	0.957641	0.022585
1714	8.5650e-01	-5.7514	-35.586046	0.000121	1.211353	0.205209	0.004840
1715	8.5700e-01	-5.7313	-35.416655	0.000848	8.479470	1.436461	0.033878
1716	8.5750e-01	-5.7114	-35.388424	0.000141	1.413245	0.239410	0.005646
1717	8.5800e-01	-5.6910	-35.319861	0.000343	3.432166	0.581425	0.013713
1718	8.5850e-01	-5.6702	-35.190802	0.000646	6.460548	1.094447	0.025812
1719	8.5900e-01	-5.6515	-35.110140	0.000404	4.037843	0.684029	0.016132
1720	8.5950e-01	-5.6312	-35.049643	0.000303	3.028382	0.513022	0.012099
1721	8.6000e-01	-5.6116	-34.960915	0.000444	4.441627	0.752432	0.017746
1722	8.6050e-01	-5.5921	-34.908485	0.000262	2.624598	0.444619	0.010486
1723	8.6100e-01	-5.5714	-34.783459	0.000626	6.258656	1.060245	0.025005
1724	8.6150e-01	-5.5512	-34.690698	0.000464	4.643519	0.786633	0.018552
1725	8.6200e-01	-5.5314	-34.569705	0.000606	6.056764	1.026044	0.024199
1726	8.6250e-01	-5.5105	-34.521307	0.000242	2.422706	0.410417	0.009679
1727	8.6300e-01	-5.4914	-34.404348	0.000585	5.854872	0.991842	0.023392
1728	8.6350e-01	-5.4710	-34.351917	0.000262	2.624598	0.444619	0.010486
1729	8.6400e-01	-5.4508	-34.275288	0.000384	3.835951	0.649828	0.015326
1730	8.6450e-01	-5.4310	-34.146229	0.000646	6.460548	1.094447	0.025812
1731	8.6500e-01	-5.4102	-34.069600	0.000384	3.835951	0.649828	0.015326
1732	8.6550e-01	-5.3913	-33.984905	0.000424	4.239735	0.718231	0.016939
1733	8.6600e-01	-5.3706	-33.859879	0.000626	6.258656	1.060245	0.025005
1734	8.6650e-01	-5.3504	-33.847780	0.000061	0.605676	0.102604	0.002420
1735	8.6700e-01	-5.3310	-33.722754	0.000626	6.258656	1.060245	0.025005
1736	8.6750e-01	-5.3114	-33.654191	0.000343	3.432166	0.581425	0.013713
1737	8.6800e-01	-5.2906	-33.609827	0.000222	2.220814	0.376216	0.008873
1738	8.6850e-01	-5.2711	-33.525132	0.000424	4.239735	0.718231	0.016939
1739	8.6900e-01	-5.2509	-33.371874	0.000767	7.671901	1.299655	0.030652
1740	8.6950e-01	-5.2308	-33.283146	0.000444	4.441627	0.752432	0.017746
1741	8.7000e-01	-5.2116	-33.222650	0.000303	3.028382	0.513022	0.012099
1742	8.7050e-01	-5.1913	-33.093591	0.000646	6.460548	1.094447	0.025812
1743	8.7100e-01	-5.1710	-33.029061	0.000323	3.230274	0.547223	0.012906
1744	8.7150e-01	-5.1514	-32.887903	0.000707	7.066225	1.197051	0.028232
1745	8.7200e-01	-5.1310	-32.835472	0.000262	2.624598	0.444619	0.010486
1746	8.7250e-01	-5.1112	-32.746744	0.000444	4.441627	0.752432	0.017746
1747	8.7300e-01	-5.0910	-32.666082	0.000404	4.037843	0.684029	0.016132
1748	8.7350e-01	-5.0715	-32.589453	0.000384	3.835951	0.649828	0.015326
1749	8.7400e-01	-5.0501	-32.508791	0.000404	4.037843	0.684029	0.016132
1750	8.7450e-01	-5.0309	-32.387798	0.000606	6.056764	1.026044	0.024199
1751	8.7500e-01	-5.0111	-32.351500	0.000182	1.817029	0.307813	0.007260
1752	8.7550e-01	-4.9915	-32.270838	0.000404	4.037843	0.684029	0.016132
1753	8.7600e-01	-4.9714	-32.170011	0.000505	5.047303	0.855036	0.020165
1754	8.7650e-01	-4.9516	-32.053051	0.000585	5.854872	0.991842	0.023392
1755	8.7700e-01	-4.9314	-31.956257	0.000485	4.845411	0.820835	0.019359
1756	8.7750e-01	-4.9116	-31.855429	0.000505	5.047303	0.855036	0.020165
1757	8.7800e-01	-4.8914	-31.766701	0.000444	4.441627	0.752432	0.017746
1758	8.7850e-01	-4.8719	-31.694105	0.000363	3.634058	0.615626	0.014519
1759	8.7900e-01	-4.8512	-31.613443	0.000404	4.037843	0.684029	0.016132
1760	8.7950e-01	-4.8310	-31.520682	0.000464	4.643519	0.786633	0.018552
1761	8.8000e-01	-4.8103	-31.448086	0.000363	3.634058	0.615626	0.014519
1762	8.8050e-01	-4.7907	-31.331126	0.000585	5.854872	0.991842	0.023392
1763	8.8100e-01	-4.7718	-31.206100	0.000626	6.258656	1.060245	0.025005
1764	8.8150e-01	-4.7505	-31.153670	0.000262	2.624598	0.444619	0.010486
1765	8.8200e-01	-4.7315	-31.060909	0.000464	4.643519	0.786633	0.018552
1766	8.8250e-01	-4.7114	-30.968148	0.000464	4.643519	0.786633	0.018552
1767	8.8300e-01	-4.6906	-30.899585	0.000343	3.432166	0.581425	0.013713
1768	8.8350e-01	-4.6719	-30.794724	0.000525	5.249196	0.889238	0.020972
1769	8.8400e-01	-4.6507	-30.641467	0.000767	7.671901	1.299655	0.030652
1770	8.8450e-01	-4.6311	-30.613235	0.000141	1.413245	0.239410	0.005646
1771	8.8500e-01	-4.6110	-30.560805	0.000262	2.624598	0.444619	0.010486
1772	8.8550e-01	-4.5905	-30.423679	0.000686	6.864333	1.162849	0.027425
1773	8.8600e-01	-4.5710	-30.290587	0.000666	6.662441	1.128648	0.026618
1774	8.8650e-01	-4.5502	-30.234124	0.000283	2.826490	0.478820	0.011293
1775	8.8700e-01	-4.5307	-30.153462	0.000404	4.037843	0.684029	0.016132
1776	8.8750e-01	-4.5118	-30.084899	0.000343	3.432166	0.581425	0.013713
1777	8.8800e-01	-4.4910	-29.988105	0.000485	4.845411	0.820835	0.019359
1778	8.8850e-01	-4.4707	-29.883244	0.000525	5.249196	0.889238	0.020972
1779	8.8900e-01	-4.4508	-29.774350	0.000545	5.451088	0.923439	0.021779
1780	8.8950e-01	-4.4306	-29.669490	0.000525	5.249196	0.889238	0.020972
1781	8.9000e-01	-4.4108	-29.584795	0.000424	4.239735	0.718231	0.016939
1782	8.9050e-01	-4.3909	-29.508166	0.000384	3.835951	0.649828	0.015326
1783	8.9100e-01	-4.3708	-29.399272	0.000545	5.451088	0.923439	0.021779
1784	8.9150e-01	-4.3513	-29.306511	0.000464	4.643519	0.786633	0.018552
1785	8.9200e-01	-4.3299	-29.225849	0.000404	4.037843	0.684029	0.016132
1786	8.9250e-01	-4.3122	-29.120988	0.000525	5.249196	0.889238	0.020972
1787	8.9300e-01	-4.2905	-29.040326	0.000404	4.037843	0.684029	0.016132
1788	8.9350e-01	-4.2710	-28.899168	0.000707	7.066225	1.197051	0.028232
1789	8.9400e-01	-4.2507	-28.842705	0.000283	2.826490	0.478820	0.011293
1790	8.9450e-01	-4.2310	-28.733811	0.000545	5.451088	0.923439	0.021779
1791	8.9500e-01	-4.2109	-28.641050	0.000464	4.643519	0.786633	0.018552
1792	8.9550e-01	-4.1914	-28.592653	0.000242	2.422706	0.410417	0.009679
1793	8.9600e-01	-4.1700	-28.451494	0.000707	7.066225	1.197051	0.028232
1794	8.9650e-01	-4.1512	-28.439395	0.000061	0.605676	0.102604	0.002420
1795	8.9700e-01	-4.1311	-28.274038	0.000828	8.277578	1.402260	0.033071
1796	8.9750e-01	-4.1111	-28.185310	0.000444	4.441627	0.752432	0.017746
1797	8.9800e-01	-4.0907	-28.028019	0.000787	7.873793	1.333857	0.031458
1798	8.9850e-01	-4.0702	-27.995754	0.000162	1.615137	0.273612	0.006453
1799	8.9900e-01	-4.0507	-27.866695	0.000646	6.460548	1.094447	0.025812
1800	8.9950e-01	-4.0310	-27.790066	0.000384	3.835951	0.649828	0.015326
1801	9.0000e-01	-4.0104	-27.709404	0.000404	4.037843	0.684029	0.016132
1802	9.0050e-01	-3.9909	-27.612610	0.000485	4.845411	0.820835	0.019359
1803	9.0100e-01	-3.9712	-27.519848	0.000464	4.643519	0.786633	0.018552
1804	9.0150e-01	-3.9503	-27.402888	0.000585	5.854872	0.991842	0.023392
1805	9.0200e-01	-3.9310	-27.314160	0.000444	4.441627	0.752432	0.017746
1806	9.0250e-01	-3.9112	-27.197200	0.000585	5.854872	0.991842	0.023392
1807	9.0300e-01	-3.8911	-27.124605	0.000363	3.634058	0.615626	0.014519
1808	9.0350e-01	-3.8703	-27.047976	0.000384	3.835951	0.649828	0.015326
1809	9.0400e-01	-3.8502	-26.943115	0.000525	5.249196	0.889238	0.020972
1810	9.0450e-01	-3.8306	-26.846321	0.000485	4.845411	0.820835	0.019359
1811	9.0500e-01	-3.8108	-26.705162	0.000707	7.066225	1.197051	0.028232
1812	9.0550e-01	-3.7897	-26.612401	0.000464	4.643519	0.786633	0.018552
1813	9.0600e-01	-3.7711	-26.531739	0.000404	4.037843	0.684029	0.016132
1814	9.0650e-01	-3.7504	-26.430912	0.000505	5.047303	0.855036	0.020165
1815	9.0700e-01	-3.7309	-26.358316	0.000363	3.634058	0.615626	0.014519
1816	9.0750e-01	-3.7115	-26.245389	0.000565	5.652980	0.957641	0.022585
1817	9.0800e-01	-3.6909	-26.120363	0.000626	6.258656	1.060245	0.025005
1818	9.0850e-01	-3.6703	-26.031635	0.000444	4.441627	0.752432	0.017746
1819	9.0900e-01	-3.6507	-25.950973	0.000404	4.037843	0.684029	0.016132
1820	9.0950e-01	-3.6304	-25.850145	0.000505	5.047303	0.855036	0.020165
1821	9.1000e-01	-3.6105	-25.801748	0.000242	2.422706	0.410417	0.009679
1822	9.1050e-01	-3.5911	-25.648491	0.000767	7.671901	1.299655	0.030652
1823	9.1100e-01	-3.5712	-25.600093	0.000242	2.422706	0.410417	0.009679
1824	9.1150e-01	-3.5505	-25.487167	0.000565	5.652980	0.957641	0.022585
1825	9.1200e-01	-3.5310	-25.402472	0.000424	4.239735	0.718231	0.016939
1826	9.1250e-01	-3.5114	-25.261313	0.000707	7.066225	1.197051	0.028232
1827	9.1300e-01	-3.4908	-25.156453	0.000525	5.249196	0.889238	0.020972
1828	9.1350e-01	-3.4705	-25.031426	0.000626	6.258656	1.060245	0.025005
1829	9.1400e-01	-3.4501	-24.934632	0.000485	4.845411	0.820835	0.019359
1830	9.1450e-01	-3.4310	-24.862036	0.000363	3.634058	0.615626	0.014519
1831	9.1500e-01	-3.4104	-24.769275	0.000464	4.643519	0.786633	0.018552
1832	9.1550e-01	-3.3912	-24.668448	0.000505	5.047303	0.855036	0.020165
1833	9.1600e-01	-3.3704	-24.567620	0.000505	5.047303	0.855036	0.020165
1834	9.1650e-01	-3.3506	-24.450660	0.000585	5.854872	0.991842	0.023392
1835	9.1700e-01	-3.3311	-24.386131	0.000323	3.230274	0.547223	0.012906
1836	9.1750e-01	-3.3108	-24.341767	0.000222	2.220814	0.376216	0.008873
1837	9.1800e-01	-3.2905	-24.164310	0.000888	8.883254	1.504864	0.035491
1838	9.1850e-01	-3.2706	-24.075582	0.000444	4.441627	0.752432	0.017746
1839	9.1900e-01	-3.2505	-23.998953	0.000384	3.835951	0.649828	0.015326
1840	9.1950e-01	-3.2304	-23.849729	0.000747	7.470009	1.265454	0.029845
1841	9.2000e-01	-3.2102	-23.793265	0.000283	2.826490	0.478820	0.011293
1842	9.2050e-01	-3.1910	-23.664206	0.000646	6.460548	1.094447	0.025812
1843	9.2100e-01	-3.1711	-23.587577	0.000384	3.835951	0.649828	0.015326
1844	9.2150e-01	-3.1495	-23.474650	0.000565	5.652980	0.957641	0.022585
1845	9.2200e-01	-3.1312	-23.389955	0.000424	4.239735	0.718231	0.016939
1846	9.2250e-01	-3.1110	-23.244764	0.000727	7.268117	1.231252	0.029038
1847	9.2300e-01	-3.0910	-23.127804	0.000585	5.854872	0.991842	0.023392
1848	9.2350e-01	-3.0695	-23.031010	0.000485	4.845411	0.820835	0.019359
1849	9.2400e-01	-3.0500	-22.970513	0.000303	3.028382	0.513022	0.012099
1850	9.2450e-01	-3.0305	-22.905984	0.000323	3.230274	0.547223	0.012906
1851	9.2500e-01	-3.0112	-22.809189	0.000485	4.845411	0.820835	0.019359
1852	9.2550e-01	-2.9899	-22.635766	0.000868	8.681362	1.470663	0.034685
1853	9.2600e-01	-2.9710	-22.579303	0.000283	2.826490	0.478820	0.011293
1854	9.2650e-01	-2.9513	-22.486541	0.000464	4.643519	0.786633	0.018552
1855	9.2700e-01	-2.9304	-22.333284	0.000767	7.671901	1.299655	0.030652
1856	9.2750e-01	-2.9108	-22.305052	0.000141	1.413245	0.239410	0.005646
1857	9.2800e-01	-2.8899	-22.212291	0.000464	4.643519	0.786633	0.018552
1858	9.2850e-01	-2.8706	-22.026768	0.000929	9.287038	1.573267	0.037105
1859	9.2900e-01	-2.8506	-21.950139	0.000384	3.835951	0.649828	0.015326
1860	9.2950e-01	-2.8306	-21.857378	0.000464	4.643519	0.786633	0.018552
1861	9.3000e-01	-2.8107	-21.760584	0.000485	4.845411	0.820835	0.019359
1862	9.3050e-01	-2.7906	-21.655723	0.000525	5.249196	0.889238	0.020972
1863	9.3100e-01	-2.7700	-21.579094	0.000384	3.835951	0.649828	0.015326
1864	9.3150e-01	-2.7506	-21.429869	0.000747	7.470009	1.265454	0.029845
1865	9.3200e-01	-2.7299	-21.385505	0.000222	2.220814	0.376216	0.008873
1866	9.3250e-01	-2.7108	-21.272579	0.000565	5.652980	0.957641	0.022585
1867	9.3300e-01	-2.6907	-21.127387	0.000727	7.268117	1.231252	0.029038
1868	9.3350e-01	-2.6698	-21.070924	0.000283	2.826490	0.478820	0.011293
1869	9.3400e-01	-2.6502	-20.982195	0.000444	4.441627	0.752432	0.017746
1870	9.3450e-01	-2.6298	-20.816838	0.000828	8.277578	1.402260	0.033071
1871	9.3500e-01	-2.6112	-20.740210	0.000384	3.835951	0.649828	0.015326
1872	9.3550e-01	-2.5910	-20.639382	0.000505	5.047303	0.855036	0.020165
1873	9.3600e-01	-2.5706	-20.566786	0.000363	3.634058	0.615626	0.014519
1874	9.3650e-01	-2.5491	-20.421595	0.000727	7.268117	1.231252	0.029038
1875	9.3700e-01	-2.5290	-20.268337	0.000767	7.671901	1.299655	0.030652
1876	9.3750e-01	-2.5101	-20.203807	0.000323	3.230274	0.547223	0.012906
1877	9.3800e-01	-2.4909	-20.131212	0.000363	3.634058	0.615626	0.014519
1878	9.3850e-01	-2.4703	-19.957788	0.000868	8.681362	1.470663	0.034685
1879	9.3900e-01	-2.4508	-19.909391	0.000242	2.422706	0.410417	0.009679
1880	9.3950e-01	-2.4300	-19.776299	0.000666	6.662441	1.128648	0.026618
1881	9.4000e-01	-2.4104	-19.691604	0.000424	4.239735	0.718231	0.016939
1882	9.4050e-01	-2.3916	-19.558512	0.000666	6.662441	1.128648	0.026618
1883	9.4100e-01	-2.3713	-19.510114	0.000242	2.422706	0.410417	0.009679
1884	9.4150e-01	-2.3512	-19.425419	0.000424	4.239735	0.718231	0.016939
1885	9.4200e-01	-2.3305	-19.308460	0.000585	5.854872	0.991842	0.023392
1886	9.4250e-01	-2.3103	-19.203599	0.000525	5.249196	0.889238	0.020972
1887	9.4300e-01	-2.2906	-19.066474	0.000686	6.864333	1.162849	0.027425
1888	9.4350e-01	-2.2706	-18.929348	0.000686	6.864333	1.162849	0.027425
1889	9.4400e-01	-2.2504	-18.852719	0.000384	3.835951	0.649828	0.015326
1890	9.4450e-01	-2.2308	-18.735760	0.000585	5.854872	0.991842	0.023392
1891	9.4500e-01	-2.2108	-18.642998	0.000464	4.643519	0.786633	0.018552
1892	9.4550e-01	-2.1906	-18.558303	0.000424	4.239735	0.718231	0.016939
1893	9.4600e-01	-2.1711	-18.405045	0.000767	7.671901	1.299655	0.030652
1894	9.4650e-01	-2.1510	-18.320350	0.000424	4.239735	0.718231	0.016939
1895	9.4700e-01	-2.1306	-18.150960	0.000848	8.479470	1.436461	0.033878
1896	9.4750e-01	-2.1110	-18.102563	0.000242	2.422706	0.410417	0.009679
1897	9.4800e-01	-2.0919	-17.989636	0.000565	5.652980	0.957641	0.022585
1898	9.4850e-01	-2.0702	-17.848478	0.000707	7.066225	1.197051	0.028232
1899	9.4900e-01	-2.0498	-17.792014	0.000283	2.826490	0.478820	0.011293
1900	9.4950e-01	-2.0304	-17.675055	0.000585	5.854872	0.991842	0.023392
1901	9.5000e-01	-2.0094	-17.594393	0.000404	4.037843	0.684029	0.016132
1902	9.5050e-01	-1.9913	-17.473400	0.000606	6.056764	1.026044	0.024199
1903	9.5100e-01	-1.9709	-17.368539	0.000525	5.249196	0.889238	0.020972
1904	9.5150e-01	-1.9511	-17.312076	0.000283	2.826490	0.478820	0.011293
1905	9.5200e-01	-1.9305	-17.174950	0.000686	6.864333	1.162849	0.027425
1906	9.5250e-01	-1.9099	-17.037825	0.000686	6.864333	1.162849	0.027425
1907	9.5300e-01	-1.8903	-16.912799	0.000626	6.258656	1.060245	0.025005
1908	9.5350e-01	-1.8708	-16.844236	0.000343	3.432166	0.581425	0.013713
1909	9.5400e-01	-1.8503	-16.711144	0.000666	6.662441	1.128648	0.026618
1910	9.5450e-01	-1.8299	-16.610317	0.000505	5.047303	0.855036	0.020165
1911	9.5500e-01	-1.8105	-16.529655	0.000404	4.037843	0.684029	0.016132
1912	9.5550e-01	-1.7910	-16.380430	0.000747	7.470009	1.265454	0.029845
1913	9.5600e-01	-1.7696	-16.380430	0.000000	0.000000	0.000000	0.000000
1914	9.5650e-01	-1.7501	-16.231205	0.000747	7.470009	1.265454	0.029845
1915	9.5700e-01	-1.7305	-16.037617	0.000969	9.690823	1.641670	0.038718
1916	9.5750e-01	-1.7097	-15.956955	0.000404	4.037843	0.684029	0.016132
1917	9.5800e-01	-1.6895	-15.807730	0.000747	7.470009	1.265454	0.029845
1918	9.5850e-01	-1.6709	-15.706903	0.000505	5.047303	0.855036	0.020165
1919	9.5900e-01	-1.6492	-15.606075	0.000505	5.047303	0.855036	0.020165
1920	9.5950e-01	-1.6306	-15.513314	0.000464	4.643519	0.786633	0.018552
1921	9.6000e-01	-1.6094	-15.388288	0.000626	6.258656	1.060245	0.025005
1922	9.6050e-01	-1.5902	-15.243096	0.000727	7.268117	1.231252	0.029038
1923	9.6100e-01	-1.5697	-15.194699	0.000242	2.422706	0.410417	0.009679
1924	9.6150e-01	-1.5501	-15.077739	0.000585	5.854872	0.991842	0.023392
1925	9.6200e-01	-1.5302	-14.984978	0.000464	4.643519	0.786633	0.018552
1926	9.6250e-01	-1.5102	-14.880117	0.000525	5.249196	0.889238	0.020972
1927	9.6300e-01	-1.4894	-14.730893	0.000747	7.470009	1.265454	0.029845
1928	9.6350e-01	-1.4705	-14.654264	0.000384	3.835951	0.649828	0.015326
1929	9.6400e-01	-1.4500	-14.501006	0.000767	7.671901	1.299655	0.030652
1930	9.6450e-01	-1.4303	-14.416311	0.000424	4.239735	0.718231	0.016939
1931	9.6500e-01	-1.4094	-14.335649	0.000404	4.037843	0.684029	0.016132
1932	9.6550e-01	-1.3892	-14.210623	0.000626	6.258656	1.060245	0.025005
1933	9.6600e-01	-1.3705	-14.133994	0.000384	3.835951	0.649828	0.015326
1934	9.6650e-01	-1.3522	-13.984769	0.000747	7.470009	1.265454	0.029845
1935	9.6700e-01	-1.3296	-13.843611	0.000707	7.066225	1.197051	0.028232
1936	9.6750e-01	-1.3102	-13.827479	0.000081	0.807569	0.136806	0.003226
1937	9.6800e-01	-1.2893	-13.633890	0.000969	9.690823	1.641670	0.038718
1938	9.6850e-01	-1.2688	-13.549195	0.000424	4.239735	0.718231	0.016939
1939	9.6900e-01	-1.2504	-13.416103	0.000666	6.662441	1.128648	0.026618
1940	9.6950e-01	-1.2312	-13.343507	0.000363	3.634058	0.615626	0.014519
1941	9.7000e-01	-1.2101	-13.262845	0.000404	4.037843	0.684029	0.016132
1942	9.7050e-01	-1.1903	-13.085388	0.000888	8.883254	1.504864	0.035491
1943	9.7100e-01	-1.1704	-12.964395	0.000606	6.056764	1.026044	0.024199
1944	9.7150e-01	-1.1508	-12.895833	0.000343	3.432166	0.581425	0.013713
1945	9.7200e-01	-1.1298	-12.770807	0.000626	6.258656	1.060245	0.025005
1946	9.7250e-01	-1.1103	-12.641748	0.000646	6.460548	1.094447	0.025812
1947	9.7300e-01	-1.0902	-12.577218	0.000323	3.230274	0.547223	0.012906
1948	9.7350e-01	-1.0700	-12.399762	0.000888	8.883254	1.504864	0.035491
1949	9.7400e-01	-1.0511	-12.315067	0.000424	4.239735	0.718231	0.016939
1950	9.7450e-01	-1.0303	-12.194074	0.000606	6.056764	1.026044	0.024199
1951	9.7500e-01	-1.0105	-12.113412	0.000404	4.037843	0.684029	0.016132
1952	9.7550e-01	-0.9896	-11.984352	0.000646	6.460548	1.094447	0.025812
1953	9.7600e-01	-0.9699	-11.863360	0.000606	6.056764	1.026044	0.024199
1954	9.7650e-01	-0.9496	-11.738333	0.000626	6.258656	1.060245	0.025005
1955	9.7700e-01	-0.9299	-11.661705	0.000384	3.835951	0.649828	0.015326
1956	9.7750e-01	-0.9103	-11.524579	0.000686	6.864333	1.162849	0.027425
1957	9.7800e-01	-0.8900	-11.431818	0.000464	4.643519	0.786633	0.018552
1958	9.7850e-01	-0.8701	-11.335024	0.000485	4.845411	0.820835	0.019359
1959	9.7900e-01	-0.8503	-11.185799	0.000747	7.470009	1.265454	0.029845
1960	9.7950e-01	-0.8298	-11.093038	0.000464	4.643519	0.786633	0.018552
1961	9.8000e-01	-0.8103	-10.951879	0.000707	7.066225	1.197051	0.028232
1962	9.8050e-01	-0.7899	-10.818787	0.000666	6.662441	1.128648	0.026618
1963	9.8100e-01	-0.7703	-10.762324	0.000283	2.826490	0.478820	0.011293
1964	9.8150e-01	-0.7502	-10.601000	0.000808	8.075686	1.368058	0.032265
1965	9.8200e-01	-0.7301	-10.528404	0.000363	3.634058	0.615626	0.014519
1966	9.8250e-01	-0.7101	-10.387245	0.000707	7.066225	1.197051	0.028232
1967	9.8300e-01	-0.6899	-10.290451	0.000485	4.845411	0.820835	0.019359
1968	9.8350e-01	-0.6705	-10.205756	0.000424	4.239735	0.718231	0.016939
1969	9.8400e-01	-0.6494	-10.072664	0.000666	6.662441	1.128648	0.026618
1970	9.8450e-01	-0.6291	-9.971836	0.000505	5.047303	0.855036	0.020165
1971	9.8500e-01	-0.6094	-9.883108	0.000444	4.441627	0.752432	0.017746
1972	9.8550e-01	-0.5897	-9.750016	0.000666	6.662441	1.128648	0.026618
1973	9.8600e-01	-0.5698	-9.653222	0.000485	4.845411	0.820835	0.019359
1974	9.8650e-01	-0.5508	-9.508030	0.000727	7.268117	1.231252	0.029038
1975	9.8700e-01	-0.5289	-9.471732	0.000182	1.817029	0.307813	0.007260
1976	9.8750e-01	-0.5094	-9.262011	0.001050	10.498391	1.778476	0.041944
1977	9.8800e-01	-0.4897	-9.185382	0.000384	3.835951	0.649828	0.015326
1978	9.8850e-01	-0.4704	-9.028091	0.000787	7.873793	1.333857	0.031458
1979	9.8900e-01	-0.4495	-8.983727	0.000222	2.220814	0.376216	0.008873
1980	9.8950e-01	-0.4302	-8.842569	0.000707	7.066225	1.197051	0.028232
1981	9.9000e-01	-0.4096	-8.737708	0.000525	5.249196	0.889238	0.020972
1982	9.9050e-01	-0.3902	-8.600583	0.000686	6.864333	1.162849	0.027425
1983	9.9100e-01	-0.3695	-8.463457	0.000686	6.864333	1.162849	0.027425
1984	9.9150e-01	-0.3490	-8.390862	0.000363	3.634058	0.615626	0.014519
1985	9.9200e-01	-0.3303	-8.273902	0.000585	5.854872	0.991842	0.023392
1986	9.9250e-01	-0.3098	-8.181141	0.000464	4.643519	0.786633	0.018552
1987	9.9300e-01	-0.2892	-7.975452	0.001030	10.296499	1.744274	0.041138
1988	9.9350e-01	-0.2695	-7.898824	0.000384	3.835951	0.649828	0.015326
1989	9.9400e-01	-0.2488	-7.781864	0.000585	5.854872	0.991842	0.023392
1990	9.9450e-01	-0.2294	-7.677003	0.000525	5.249196	0.889238	0.020972
1991	9.9500e-01	-0.2097	-7.600374	0.000384	3.835951	0.649828	0.015326
1992	9.9550e-01	-0.1897	-7.447117	0.000767	7.671901	1.299655	0.030652
1993	9.9600e-01	-0.1698	-7.358388	0.000444	4.441627	0.752432	0.017746
1994	9.9650e-01	-0.1491	-7.265627	0.000464	4.643519	0.786633	0.018552
1995	9.9700e-01	-0.1279	-7.096237	0.000848	8.479470	1.436461	0.033878
1996	9.9750e-01	-0.1094	-6.971211	0.000626	6.258656	1.060245	0.025005
1997	9.9800e-01	-0.0887	-6.951045	0.000101	1.009461	0.171007	0.004033
1998	9.9850e-01	-0.0703	-6.757457	0.000969	9.690823	1.641670	0.038718
1999	9.9900e-01	-0.0493	-6.620331	0.000686	6.864333	1.162849	0.027425
2000	9.9950e-01	-0.0291	-6.551769	0.000343	3.432166	0.581425	0.013713
2001	1.0000e+00	-0.0093	-6.459007	0.000343	3.432166	0.581425	0.018552

PMax (uC/cm2):	5.41e+01
Pr (uC/cm2):	1.38e+01
-Pr (uC/cm2):	-1.77e+00
PLoss (uC/cm2):	-1.73e+00
-Vc:	-2.26e+00
C (Max-Eff) (nF):	5.41e-01
K (Eff):	9.17e+02
Vert. (+/-Pr) Shift (uC/cm2):	6.02e+00
Offset (uC/cm2):	4.69e+00

A (Loop Area - uC/cm2·Volts):	3.43e-02



Hysteresis Version: 5.48.1 - Radiant Technologies, Inc., 1999 - 9/12/24

