»»»»»»»»»»»»»»»»»»»»»»»»»»»»»»»»»»»» Hysteresis ««««««««««««««««««««««««««««««««««««
»»»  Executed Version:	5.48.1
»»»  Vision Version:	5.48.4 (R)
»»»  Vision Compiled:	9/18/24
»»»  Driver Version:	5.47.0
»»»  Windows Version:	Windows 8 or 8.1
»»»  Processor Information:	x86 (AMD or Intel) - 32 Processors
»»»  Tester Name:	PMF21124-494 (100V)
»»»  Tester S/N:	PMF21124-494
»»»  Internal Amp Type:	100V RevK 270k
»»»  Internal Amp S/N:	iAB2-596/K     
»»»  Execution Count:	1
»»»»»»»»»»»»»»»»»»»»»»»»»»»»»»»»»»»»»»»»»»««««««««««««««««««««««««««««««««««««««««««

Stored:	6/19/2025 - 16:2:55
Configured:	06/19/25 10:04:32 AM
Executed:	06/19/25 04:02:31 PM

»»»»»»»»»»»»»»»»»»»»»»»»»»»»»»»»»»» Sample Info ««««««««««««««««««««««««««««««««««««
Sample Name:	
Lot Name:	
Wafer Name:	
Die Row/Column:	0/0
Capacitor Number:	0
Sample Area (cm2):	1.00e-04
Sample Thickness (microns):	3.00e-01

Amplifier:	Internal

»»»»»»»»»»»»»»»»»»»»»»»»»»»»»»»»»»» Tester Info «««««««««««««««««««««««««««««««««««
Tester Name:	PMF21124-494 (100V)
Tester Serial Number:	PMF21124-494
Return Signal Amp. Level:	1.79 [Index: 2]

»»»»»»»»»»»»»»»»»»»»»»»»»»»»»»»» Hysteresis Info ««««««««««««««««««««««««««««««««««
Task Name:	Hyst-1168
Volts:	20.00
Field:	666.67 (kV/cm)
DCBias:	0.00
DCField:	0.00 (kV/cm)
Hysteresis Period (ms):	1.00e+00
Preset:	Enabled
Preset Delay (ms):	1.00e+03
Profile:	Standard Bipolar

»»»»»»»»»»»»»»»»»»»»»»»»»»»»»»»»»»»»»» Data «««««««««««««««««««««««««««««««««««««««
Points:	2001

Valid Data

Point	Time (ms)	Drive Voltage	Measured Polarization (uC/cm2)	Capacitance (uF)	Normalized Capacitance (uF/cm2)	Dielectric Constant	Instantaneous Current (mA)
   1	0.0000e+00	0.0337	-2.856964	0.000959	9.588781	3.248767	0.077058
   2	5.0000e-04	0.0465	-2.471674	0.000959	9.588781	3.248767	0.077058
   3	1.0000e-03	0.1059	-2.721835	-0.000623	-6.225790	-2.109355	-0.050032
   4	1.5000e-03	0.1588	-2.552923	0.000420	4.203739	1.424265	0.033782
   5	2.0000e-03	0.1973	-2.499470	0.000133	1.330297	0.450717	0.010691
   6	2.5000e-03	0.2134	-2.475523	0.000060	0.595973	0.201921	0.004789
   7	3.0000e-03	0.2775	-2.314308	0.000401	4.012176	1.359362	0.032243
   8	3.5000e-03	0.3192	-2.278815	0.000088	0.883317	0.299276	0.007099
   9	4.0000e-03	0.3401	-2.231776	0.000117	1.170661	0.396631	0.009408
  10	4.5000e-03	0.3850	-2.029082	0.000504	5.044487	1.709118	0.040539
  11	5.0000e-03	0.4315	-1.954248	0.000186	1.862416	0.631004	0.014967
  12	5.5000e-03	0.4652	-1.814414	0.000348	3.480057	1.179075	0.027967
  13	6.0000e-03	0.5053	-1.751125	0.000158	1.575072	0.533649	0.012658
  14	6.5000e-03	0.5438	-1.634384	0.000291	2.905369	0.984366	0.023348
  15	7.0000e-03	0.6112	-1.620700	0.000034	0.340556	0.115384	0.002737
  16	7.5000e-03	0.6369	-1.503103	0.000293	2.926654	0.991577	0.023519
  17	8.0000e-03	0.6513	-1.349158	0.000383	3.831256	1.298065	0.030789
  18	8.5000e-03	0.7363	-1.420571	-0.000178	-1.777277	-0.602158	-0.014283
  19	9.0000e-03	0.7492	-1.346592	0.000184	1.841131	0.623792	0.014796
  20	9.5000e-03	0.8069	-1.216166	0.000325	3.245925	1.099749	0.026085
  21	1.0000e-02	0.8486	-1.152022	0.000160	1.596357	0.540860	0.012829
  22	1.0500e-02	0.8615	-0.991235	0.000400	4.001534	1.355756	0.032157
  23	1.1000e-02	0.9096	-1.008768	-0.000044	-0.436337	-0.147835	-0.003507
  24	1.1500e-02	0.9609	-0.740647	0.000667	6.672770	2.260796	0.053624
  25	1.2000e-02	0.9978	-0.618774	0.000303	3.033077	1.027634	0.024375
  26	1.2500e-02	1.0428	-0.590123	0.000071	0.713039	0.241584	0.005730
  27	1.3000e-02	1.0652	-0.453710	0.000339	3.394918	1.150229	0.027282
  28	1.3500e-02	1.1101	-0.568314	-0.000285	-2.852157	-0.966337	-0.022921
  29	1.4000e-02	1.1342	-0.290785	0.000691	6.906903	2.340122	0.055506
  30	1.4500e-02	1.2000	-0.278384	0.000031	0.308629	0.104566	0.002480
  31	1.5000e-02	1.2144	-0.204405	0.000184	1.841131	0.623792	0.014796
  32	1.5500e-02	1.2577	-0.016250	0.000468	4.682646	1.586523	0.037631
  33	1.6000e-02	1.2994	0.088091	0.000260	2.596740	0.879799	0.020868
  34	1.6500e-02	1.3476	-0.013256	-0.000252	-2.522243	-0.854559	-0.020269
  35	1.7000e-02	1.3700	0.207826	0.000550	5.502109	1.864165	0.044216
  36	1.7500e-02	1.4358	0.255720	0.000119	1.191946	0.403842	0.009579
  37	1.8000e-02	1.4791	0.384435	0.000320	3.203355	1.085326	0.025743
  38	1.8500e-02	1.5032	0.519992	0.000337	3.373633	1.143018	0.027111
  39	1.9000e-02	1.5625	0.547360	0.000068	0.681112	0.230767	0.005474
  40	1.9500e-02	1.5850	0.737226	0.000473	4.725215	1.600946	0.037973
  41	2.0000e-02	1.6123	0.730812	-0.000016	-0.159636	-0.054086	-0.001283
  42	2.0500e-02	1.6764	0.924953	0.000483	4.831639	1.637004	0.038828
  43	2.1000e-02	1.7037	0.983538	0.000146	1.458006	0.493986	0.011717
  44	2.1500e-02	1.7566	1.033998	0.000126	1.255800	0.425477	0.010092
  45	2.2000e-02	1.7967	1.063504	0.000073	0.734324	0.248796	0.005901
  46	2.2500e-02	1.8240	1.119951	0.000140	1.404794	0.475957	0.011289
  47	2.3000e-02	1.8689	1.239686	0.000298	2.979865	1.009606	0.023947
  48	2.3500e-02	1.8882	1.468465	0.000569	5.693672	1.929068	0.045756
  49	2.4000e-02	1.9668	1.435110	-0.000083	-0.830105	-0.281247	-0.006671
  50	2.4500e-02	1.9732	1.442380	0.000018	0.180920	0.061297	0.001454
  51	2.5000e-02	2.0406	1.644647	0.000503	5.033844	1.705513	0.040453
  52	2.5500e-02	2.0727	1.744283	0.000248	2.479674	0.840136	0.019927
  53	2.6000e-02	2.1176	1.810138	0.000164	1.638926	0.555283	0.013171
  54	2.6500e-02	2.1657	1.838361	0.000070	0.702397	0.237978	0.005645
  55	2.7000e-02	2.1834	2.014970	0.000440	4.395302	1.489168	0.035322
  56	2.7500e-02	2.2363	2.099212	0.000210	2.096548	0.710330	0.016848
  57	2.8000e-02	2.2700	2.276677	0.000442	4.416586	1.496380	0.035493
  58	2.8500e-02	2.3213	2.295492	0.000047	0.468265	0.158652	0.003763
  59	2.9000e-02	2.3390	2.369899	0.000185	1.851774	0.627398	0.014881
  60	2.9500e-02	2.3823	2.551640	0.000452	4.523010	1.532437	0.036348
  61	3.0000e-02	2.4192	2.590554	0.000097	0.968456	0.328122	0.007783
  62	3.0500e-02	2.4737	2.670520	0.000199	1.990124	0.674272	0.015993
  63	3.1000e-02	2.5074	2.729532	0.000147	1.468648	0.497591	0.011802
  64	3.1500e-02	2.5475	2.784268	0.000136	1.362224	0.461534	0.010947
  65	3.2000e-02	2.5876	2.830879	0.000116	1.160019	0.393025	0.009322
  66	3.2500e-02	2.6229	2.918542	0.000218	2.181687	0.739176	0.017533
  67	3.3000e-02	2.6502	3.087027	0.000419	4.193096	1.420660	0.033697
  68	3.3500e-02	2.7144	3.153309	0.000165	1.649568	0.558889	0.013256
  69	3.4000e-02	2.7657	3.249097	0.000238	2.383892	0.807685	0.019158
  70	3.4500e-02	2.7882	3.383371	0.000334	3.341706	1.132201	0.026855
  71	3.5000e-02	2.8427	3.404752	0.000053	0.532119	0.180287	0.004276
  72	3.5500e-02	2.8716	3.580934	0.000438	4.384659	1.485563	0.035236
  73	3.6000e-02	2.9053	3.679288	0.000245	2.447747	0.829319	0.019671
  74	3.6500e-02	2.9502	3.692544	0.000033	0.329914	0.111778	0.002651
  75	3.7000e-02	2.9871	3.880699	0.000468	4.682646	1.586523	0.037631
  76	3.7500e-02	3.0352	3.931587	0.000127	1.266443	0.429082	0.010177
  77	3.8000e-02	3.0785	4.061585	0.000324	3.235283	1.096143	0.026000
  78	3.8500e-02	3.1395	4.115466	0.000134	1.340939	0.454323	0.010776
  79	3.9000e-02	3.1395	4.135564	-0.000050	-0.500192	-0.169470	0.004020
  80	3.9500e-02	3.1940	4.194149	0.000146	1.458006	0.493986	0.011717
  81	4.0000e-02	3.2325	4.420362	0.000563	5.629817	1.907434	0.045243
  82	4.0500e-02	3.2774	4.502894	0.000205	2.053979	0.695907	0.016506
  83	4.1000e-02	3.3111	4.597399	0.000235	2.351965	0.796867	0.018901
  84	4.1500e-02	3.3496	4.698319	0.000251	2.511601	0.850953	0.020184
  85	4.2000e-02	3.3930	4.770588	0.000180	1.798562	0.609369	0.014454
  86	4.2500e-02	3.4234	4.898448	0.000318	3.182071	1.078115	0.025572
  87	4.3000e-02	3.4587	4.983117	0.000211	2.107191	0.713935	0.016934
  88	4.3500e-02	3.5229	4.995518	0.000031	0.308629	0.104566	0.002480
  89	4.4000e-02	3.5566	5.128510	0.000331	3.309779	1.121384	0.026598
  90	4.4500e-02	3.5967	5.217884	0.000222	2.224257	0.753599	0.017875
  91	4.5000e-02	3.6448	5.327783	0.000274	2.735091	0.926674	0.021980
  92	4.5500e-02	3.6817	5.464196	0.000339	3.394918	1.150229	0.027282
  93	4.6000e-02	3.7106	5.514656	0.000126	1.255800	0.425477	0.010092
  94	4.6500e-02	3.7459	5.624555	0.000274	2.735091	0.926674	0.021980
  95	4.7000e-02	3.7860	5.756264	0.000328	3.277852	1.110566	0.026342
  96	4.7500e-02	3.8341	5.746428	-0.000024	-0.244775	-0.082932	-0.001967
  97	4.8000e-02	3.8806	5.878565	0.000329	3.288494	1.114172	0.026427
  98	4.8500e-02	3.9095	5.967083	0.000220	2.202972	0.746387	0.017704
  99	4.9000e-02	3.9448	6.153100	0.000463	4.629434	1.568495	0.037203
 100	4.9500e-02	3.9977	6.194580	0.000103	1.032311	0.349756	0.008296
 101	5.0000e-02	4.0138	6.319874	0.000312	3.118216	1.056480	0.025059
 102	5.0500e-02	4.0828	6.316881	-0.000007	-0.074497	-0.025240	-0.000599
 103	5.1000e-02	4.0956	6.506746	0.000473	4.725215	1.600946	0.037973
 104	5.1500e-02	4.1694	6.538818	0.000080	0.798178	0.270430	0.006414
 105	5.2000e-02	4.1967	6.723125	0.000459	4.586864	1.554072	0.036861
 106	5.2500e-02	4.2320	6.779143	0.000139	1.394151	0.472351	0.011204
 107	5.3000e-02	4.2881	6.788124	0.000022	0.223490	0.075720	0.001796
 108	5.3500e-02	4.3122	6.958318	0.000424	4.235666	1.435082	0.034039
 109	5.4000e-02	4.3780	7.078909	0.000300	3.001150	1.016817	0.024118
 110	5.4500e-02	4.3956	7.070356	-0.000021	-0.212848	-0.072115	-0.001711
 111	5.5000e-02	4.4469	7.117823	0.000118	1.181304	0.400237	0.009493
 112	5.5500e-02	4.4678	7.291439	0.000432	4.320805	1.463928	0.034723
 113	5.6000e-02	4.5127	7.455219	0.000408	4.076030	1.380996	0.032756
 114	5.6500e-02	4.5544	7.528771	0.000183	1.830489	0.620186	0.014710
 115	5.7000e-02	4.6090	7.574099	0.000113	1.128092	0.382208	0.009066
 116	5.7500e-02	4.6314	7.694262	0.000299	2.990508	1.013211	0.024033
 117	5.8000e-02	4.6812	7.700248	0.000015	0.148993	0.050480	0.001197
 118	5.8500e-02	4.7100	7.892252	0.000478	4.778427	1.618975	0.038401
 119	5.9000e-02	4.7533	7.968797	0.000190	1.904985	0.645427	0.015309
 120	5.9500e-02	4.7999	7.917482	-0.000128	-1.277085	-0.432688	-0.010263
 121	6.0000e-02	4.8336	8.174912	0.000641	6.406711	2.170652	0.051486
 122	6.0500e-02	4.8881	8.145834	-0.000072	-0.723682	-0.245190	-0.005816
 123	6.1000e-02	4.9234	8.245043	0.000247	2.469031	0.836530	0.019842
 124	6.1500e-02	4.9330	8.545663	0.000748	7.481591	2.534832	0.060124
 125	6.2000e-02	4.9779	8.561486	0.000039	0.393768	0.133412	0.003164
 126	6.2500e-02	5.0485	8.500763	-0.000151	-1.511217	-0.512014	-0.012145
 127	6.3000e-02	5.0854	8.546519	0.000114	1.138734	0.385814	0.009151
 128	6.3500e-02	5.1095	8.711154	0.000410	4.097315	1.388208	0.032927
 129	6.4000e-02	5.1496	8.829179	0.000294	2.937296	0.995183	0.023605
 130	6.4500e-02	5.1833	9.088320	0.000645	6.449280	2.185075	0.051828
 131	6.5000e-02	5.2282	9.069932	-0.000046	-0.457622	-0.155047	-0.003678
 132	6.5500e-02	5.2731	9.206345	0.000339	3.394918	1.150229	0.027282
 133	6.6000e-02	5.2972	9.430848	0.000559	5.587248	1.893011	0.044901
 134	6.6500e-02	5.3517	9.364566	-0.000165	-1.649568	-0.558889	-0.013256
 135	6.7000e-02	5.3886	9.419730	0.000137	1.372867	0.465140	0.011033
 136	6.7500e-02	5.4351	9.571964	0.000379	3.788686	1.283642	0.030447
 137	6.8000e-02	5.4752	9.637391	0.000163	1.628284	0.551677	0.013085
 138	6.8500e-02	5.4849	9.927748	0.000723	7.226174	2.448294	0.058072
 139	6.9000e-02	5.5426	9.972649	0.000112	1.117450	0.378602	0.008980
 140	6.9500e-02	5.5827	9.910216	-0.000155	-1.553787	-0.526437	-0.012487
 141	7.0000e-02	5.6212	10.128305	0.000543	5.427612	1.838925	0.043618
 142	7.0500e-02	5.6549	10.199718	0.000178	1.777277	0.602158	0.014283
 143	7.1000e-02	5.6966	10.308762	0.000271	2.713806	0.919462	0.021809
 144	7.1500e-02	5.7448	10.459714	0.000376	3.756759	1.272824	0.030190
 145	7.2000e-02	5.8057	10.512312	0.000131	1.309012	0.443505	0.010520
 146	7.2500e-02	5.8362	10.467839	-0.000111	-1.106807	-0.374996	-0.008895
 147	7.3000e-02	5.8811	10.630337	0.000404	4.044103	1.370179	0.032500
 148	7.3500e-02	5.9084	10.773164	0.000355	3.554554	1.204315	0.028565
 149	7.4000e-02	5.9710	10.830038	0.000142	1.415436	0.479563	0.011375
 150	7.4500e-02	5.9854	10.978424	0.000369	3.692905	1.251190	0.029677
 151	7.5000e-02	6.0143	11.087896	0.000272	2.724448	0.923068	0.021894
 152	7.5500e-02	6.0704	11.157599	0.000173	1.734707	0.587735	0.013941
 153	7.6000e-02	6.0929	11.323090	0.000412	4.118600	1.395419	0.033098
 154	7.6500e-02	6.1586	11.254242	-0.000171	-1.713423	-0.580523	-0.013770
 155	7.7000e-02	6.2052	11.365425	0.000277	2.767018	0.937491	0.022237
 156	7.7500e-02	6.2228	11.472331	0.000266	2.660594	0.901434	0.021381
 157	7.8000e-02	6.2822	11.540751	0.000170	1.702780	0.576918	0.013684
 158	7.8500e-02	6.3159	11.802030	0.000650	6.502492	2.203104	0.052256
 159	7.9000e-02	6.3576	11.790484	-0.000029	-0.287344	-0.097355	-0.002309
 160	7.9500e-02	6.3832	11.938870	0.000369	3.692905	1.251190	0.029677
 161	8.0000e-02	6.4394	12.028244	0.000222	2.224257	0.753599	0.017875
 162	8.0500e-02	6.4843	12.144985	0.000291	2.905369	0.984366	0.023348
 163	8.1000e-02	6.4811	12.284819	-0.000348	-3.480057	-1.179075	0.027967
 164	8.1500e-02	6.5469	12.330575	0.000114	1.138734	0.385814	0.009151
 165	8.2000e-02	6.5661	12.496066	0.000412	4.118600	1.395419	0.033098
 166	8.2500e-02	6.6367	12.450737	-0.000113	-1.128092	-0.382208	-0.009066
 167	8.3000e-02	6.6768	12.538828	0.000219	2.192330	0.742781	0.017618
 168	8.3500e-02	6.7121	12.670109	0.000327	3.267210	1.106961	0.026256
 169	8.4000e-02	6.7506	12.712017	0.000104	1.042953	0.353362	0.008381
 170	8.4500e-02	6.7907	12.896323	0.000459	4.586864	1.554072	0.036861
 171	8.5000e-02	6.8196	12.876225	-0.000050	-0.500192	-0.169470	-0.004020
 172	8.5500e-02	6.8709	13.138359	0.000652	6.523777	2.210315	0.052427
 173	8.6000e-02	6.9046	13.262798	0.000310	3.096932	1.049269	0.024888
 174	8.6500e-02	6.9463	13.240989	-0.000054	-0.542761	-0.183892	-0.004362
 175	8.7000e-02	6.9816	13.412039	0.000426	4.256951	1.442294	0.034210
 176	8.7500e-02	7.0586	13.317962	-0.000234	-2.341323	-0.793262	-0.018816
 177	8.8000e-02	7.0731	13.514242	0.000488	4.884851	1.655032	0.039256
 178	8.8500e-02	7.1164	13.657924	0.000358	3.575839	1.211527	0.028736
 179	8.9000e-02	7.1469	13.667331	0.000023	0.234132	0.079326	0.001882
 180	8.9500e-02	7.1822	13.868315	0.000500	5.001917	1.694695	0.040197
 181	9.0000e-02	7.2303	13.867460	-0.000002	-0.021285	-0.007211	-0.000171
 182	9.0500e-02	7.2640	14.073575	0.000513	5.129626	1.737964	0.041223
 183	9.1000e-02	7.3057	14.136009	0.000155	1.553787	0.526437	0.012487
 184	9.1500e-02	7.3458	14.232224	0.000239	2.394535	0.811290	0.019243
 185	9.2000e-02	7.3859	14.354525	0.000304	3.043720	1.031240	0.024460
 186	9.2500e-02	7.4292	14.367354	0.000032	0.319271	0.108172	0.002566
 187	9.3000e-02	7.4597	14.507187	0.000348	3.480057	1.179075	0.027967
 188	9.3500e-02	7.5110	14.630771	0.000308	3.075647	1.042057	0.024717
 189	9.4000e-02	7.5511	14.621791	-0.000022	-0.223490	-0.075720	-0.001796
 190	9.4500e-02	7.6153	14.759059	0.000342	3.416203	1.157441	0.027454
 191	9.5000e-02	7.6361	14.797545	0.000096	0.957814	0.324516	0.007697
 192	9.5500e-02	7.6698	14.994680	0.000491	4.906136	1.662244	0.039427
 193	9.6000e-02	7.7212	15.075501	0.000201	2.011409	0.681484	0.016164
 194	9.6500e-02	7.7517	15.195664	0.000299	2.990508	1.013211	0.024033
 195	9.7000e-02	7.8062	15.310695	0.000286	2.862799	0.969943	0.023006
 196	9.7500e-02	7.8287	15.303853	-0.000017	-0.170278	-0.057692	-0.001368
 197	9.8000e-02	7.8527	15.499706	0.000487	4.874209	1.651427	0.039170
 198	9.8500e-02	7.9008	15.624572	0.000311	3.107574	1.052875	0.024973
 199	9.9000e-02	7.9345	15.700690	0.000189	1.894343	0.641821	0.015223
 200	9.9500e-02	7.9971	15.639112	-0.000153	-1.532502	-0.519226	-0.012316
 201	1.0000e-01	8.0356	15.906805	0.000666	6.662128	2.257190	0.053539
 202	1.0050e-01	8.0693	15.885851	-0.000052	-0.521476	-0.176681	-0.004191
 203	1.0100e-01	8.0853	16.029533	0.000358	3.575839	1.211527	0.028736
 204	1.0150e-01	8.1575	16.076572	0.000117	1.170661	0.396631	0.009408
 205	1.0200e-01	8.1896	16.150551	0.000184	1.841131	0.623792	0.014796
 206	1.0250e-01	8.2474	16.350252	0.000497	4.969990	1.683878	0.039940
 207	1.0300e-01	8.2778	16.499066	0.000370	3.703547	1.254796	0.029763
 208	1.0350e-01	8.2859	16.638899	0.000348	3.480057	1.179075	0.027967
 209	1.0400e-01	8.3340	16.648735	0.000024	0.244775	0.082932	0.001967
 210	1.0450e-01	8.3805	16.842877	0.000483	4.831639	1.637004	0.038828
 211	1.0500e-01	8.4351	16.798831	-0.000110	-1.096165	-0.371391	-0.008809
 212	1.0550e-01	8.4687	16.927119	0.000319	3.192713	1.081720	0.025658
 213	1.0600e-01	8.5137	16.895902	-0.000078	-0.776894	-0.263219	-0.006243
 214	1.0650e-01	8.5666	16.942513	0.000116	1.160019	0.393025	0.009322
 215	1.0700e-01	8.6019	17.142214	0.000497	4.969990	1.683878	0.039940
 216	1.0750e-01	8.6211	17.376981	0.000584	5.842665	1.979548	0.046953
 217	1.0800e-01	8.6789	17.397507	0.000051	0.510834	0.173075	0.004105
 218	1.0850e-01	8.7014	17.548458	0.000376	3.756759	1.272824	0.030190
 219	1.0900e-01	8.7399	17.579675	0.000078	0.776894	0.263219	0.006243
 220	1.0950e-01	8.8040	17.630135	0.000126	1.255800	0.425477	0.010092
 221	1.1000e-01	8.8297	17.757995	0.000318	3.182071	1.078115	0.025572
 222	1.1050e-01	8.8714	17.847796	0.000223	2.234899	0.757204	0.017960
 223	1.1100e-01	8.8987	18.006873	0.000396	3.958964	1.341333	0.031815
 224	1.1150e-01	8.9243	18.095819	0.000221	2.213614	0.749993	0.017789
 225	1.1200e-01	8.9965	18.243777	0.000368	3.682262	1.247584	0.029592
 226	1.1250e-01	9.0318	18.277559	0.000084	0.840748	0.284853	0.006756
 227	1.1300e-01	9.0800	18.343841	0.000165	1.649568	0.558889	0.013256
 228	1.1350e-01	9.1297	18.438347	0.000235	2.351965	0.796867	0.018901
 229	1.1400e-01	9.1441	18.614528	0.000438	4.384659	1.485563	0.035236
 230	1.1450e-01	9.1746	18.736401	0.000303	3.033077	1.027634	0.024375
 231	1.1500e-01	9.2516	18.671402	-0.000162	-1.617641	-0.548072	-0.013000
 232	1.1550e-01	9.2757	18.847584	0.000438	4.384659	1.485563	0.035236
 233	1.1600e-01	9.3062	18.930116	0.000205	2.053979	0.695907	0.016506
 234	1.1650e-01	9.3751	19.099883	0.000423	4.225024	1.431477	0.033953
 235	1.1700e-01	9.4072	19.048995	-0.000127	-1.266443	-0.429082	-0.010177
 236	1.1750e-01	9.4168	19.275637	0.000564	5.640460	1.911039	0.045328
 237	1.1800e-01	9.4762	19.338070	0.000155	1.553787	0.526437	0.012487
 238	1.1850e-01	9.5195	19.346195	0.000020	0.202205	0.068509	0.001625
 239	1.1900e-01	9.5548	19.622013	0.000686	6.864333	2.325699	0.055164
 240	1.1950e-01	9.5757	19.700696	0.000196	1.958197	0.663455	0.015737
 241	1.2000e-01	9.6270	19.787932	0.000217	2.171045	0.735570	0.017447
 242	1.2050e-01	9.6831	19.719512	-0.000170	-1.702780	-0.576918	-0.013684
 243	1.2100e-01	9.7265	19.867898	0.000369	3.692905	1.251190	0.029677
 244	1.2150e-01	9.7329	20.130887	0.000655	6.545062	2.217527	0.052598
 245	1.2200e-01	9.7890	20.088125	-0.000106	-1.064238	-0.360573	-0.008553
 246	1.2250e-01	9.8195	20.359667	0.000676	6.757909	2.289642	0.054308
 247	1.2300e-01	9.8757	20.351970	-0.000019	-0.191563	-0.064903	-0.001539
 248	1.2350e-01	9.9045	20.416113	0.000160	1.596357	0.540860	0.012829
 249	1.2400e-01	9.9478	20.563644	0.000367	3.671620	1.243979	0.029506
 250	1.2450e-01	9.9960	20.571769	0.000020	0.202205	0.068509	0.001625
 251	1.2500e-01	10.0152	20.724859	0.000381	3.809971	1.290853	0.030618
 252	1.2550e-01	10.0698	20.919001	0.000483	4.831639	1.637004	0.038828
 253	1.2600e-01	10.1131	20.925843	0.000017	0.170278	0.057692	0.001368
 254	1.2650e-01	10.1500	20.967322	0.000103	1.032311	0.349756	0.008296
 255	1.2700e-01	10.1901	21.075084	0.000268	2.681879	0.908645	0.021552
 256	1.2750e-01	10.2302	21.252549	0.000442	4.416586	1.496380	0.035493
 257	1.2800e-01	10.2607	21.299587	0.000117	1.170661	0.396631	0.009408
 258	1.2850e-01	10.3152	21.373566	0.000184	1.841131	0.623792	0.014796
 259	1.2900e-01	10.3601	21.362876	-0.000027	-0.266059	-0.090143	-0.002138
 260	1.2950e-01	10.3938	21.614320	0.000626	6.257718	2.120172	0.050289
 261	1.3000e-01	10.4275	21.716950	0.000255	2.554170	0.865376	0.020526
 262	1.3050e-01	10.4740	21.719088	0.000005	0.053212	0.018029	0.000428
 263	1.3100e-01	10.5125	21.878164	0.000396	3.958964	1.341333	0.031815
 264	1.3150e-01	10.5607	21.855928	-0.000055	-0.553404	-0.187498	-0.004447
 265	1.3200e-01	10.5992	22.091122	0.000585	5.853307	1.983154	0.047039
 266	1.3250e-01	10.6409	22.074444	-0.000042	-0.415053	-0.140624	-0.003335
 267	1.3300e-01	10.6601	22.290395	0.000537	5.374400	1.820896	0.043190
 268	1.3350e-01	10.7147	22.336151	0.000114	1.138734	0.385814	0.009151
 269	1.3400e-01	10.7355	22.478978	0.000355	3.554554	1.204315	0.028565
 270	1.3450e-01	10.7853	22.545260	0.000165	1.649568	0.558889	0.013256
 271	1.3500e-01	10.8270	22.673547	0.000319	3.192713	1.081720	0.025658
 272	1.3550e-01	10.8767	22.721014	0.000118	1.181304	0.400237	0.009493
 273	1.3600e-01	10.9296	22.711606	-0.000023	-0.234132	-0.079326	-0.001882
 274	1.3650e-01	10.9681	22.884794	0.000431	4.310163	1.460323	0.034638
 275	1.3700e-01	10.9794	23.119560	0.000584	5.842665	1.979548	0.046953
 276	1.3750e-01	11.0227	23.224756	0.000262	2.618025	0.887011	0.021039
 277	1.3800e-01	11.0724	23.279920	0.000137	1.372867	0.465140	0.011033
 278	1.3850e-01	11.0981	23.336794	0.000142	1.415436	0.479563	0.011375
 279	1.3900e-01	11.1494	23.428306	0.000228	2.277469	0.771627	0.018302
 280	1.3950e-01	11.2024	23.447549	0.000048	0.478907	0.162258	0.003849
 281	1.4000e-01	11.2312	23.520245	0.000181	1.809204	0.612975	0.014539
 282	1.4050e-01	11.2794	23.568995	0.000121	1.213231	0.411054	0.009750
 283	1.4100e-01	11.3227	23.766558	0.000492	4.916778	1.665849	0.039513
 284	1.4150e-01	11.3403	23.926917	0.000399	3.990891	1.352151	0.032072
 285	1.4200e-01	11.3949	24.096684	0.000423	4.225024	1.431477	0.033953
 286	1.4250e-01	11.4510	23.941884	-0.000385	-3.852540	-1.305276	-0.030960
 287	1.4300e-01	11.4703	24.225827	0.000707	7.066538	2.394208	0.056789
 288	1.4350e-01	11.5248	24.153986	-0.000179	-1.787919	-0.605763	-0.014368
 289	1.4400e-01	11.5489	24.228820	0.000186	1.862416	0.631004	0.014967
 290	1.4450e-01	11.5970	24.441350	0.000529	5.289261	1.792050	0.042506
 291	1.4500e-01	11.6227	24.572631	0.000327	3.267210	1.106961	0.026256
 292	1.4550e-01	11.6740	24.554243	-0.000046	-0.457622	-0.155047	-0.003678
 293	1.4600e-01	11.7189	24.787727	0.000581	5.810738	1.968731	0.046697
 294	1.4650e-01	11.7414	24.826641	0.000097	0.968456	0.328122	0.007783
 295	1.4700e-01	11.7847	24.944238	0.000293	2.926654	0.991577	0.023519
 296	1.4750e-01	11.8392	25.018644	0.000185	1.851774	0.627398	0.014881
 297	1.4800e-01	11.8697	25.196536	0.000443	4.427229	1.499986	0.035578
 298	1.4850e-01	11.9082	25.180287	-0.000040	-0.404410	-0.137018	-0.003250
 299	1.4900e-01	11.9676	25.354330	0.000433	4.331447	1.467534	0.034809
 300	1.4950e-01	11.9900	25.374856	0.000051	0.510834	0.173075	0.004105
 301	1.5000e-01	12.0446	25.469361	0.000235	2.351965	0.796867	0.018901
 302	1.5050e-01	12.0735	25.586958	0.000293	2.926654	0.991577	0.023519
 303	1.5100e-01	12.1007	25.789653	0.000504	5.044487	1.709118	0.040539
 304	1.5150e-01	12.1392	25.831988	0.000105	1.053595	0.356968	0.008467
 305	1.5200e-01	12.1922	25.904684	0.000181	1.809204	0.612975	0.014539
 306	1.5250e-01	12.2371	26.088135	0.000457	4.565580	1.546860	0.036690
 307	1.5300e-01	12.2772	26.130470	0.000105	1.053595	0.356968	0.008467
 308	1.5350e-01	12.3013	26.233100	0.000255	2.554170	0.865376	0.020526
 309	1.5400e-01	12.3446	26.311783	0.000196	1.958197	0.663455	0.015737
 310	1.5450e-01	12.3895	26.431946	0.000299	2.990508	1.013211	0.024033
 311	1.5500e-01	12.4328	26.583753	0.000378	3.778044	1.280036	0.030361
 312	1.5550e-01	12.4777	26.599147	0.000038	0.383126	0.129806	0.003079
 313	1.5600e-01	12.5291	26.519181	-0.000199	-1.990124	-0.674272	-0.015993
 314	1.5650e-01	12.5419	26.813815	0.000733	7.332598	2.484351	0.058927
 315	1.5700e-01	12.5820	26.909176	0.000237	2.373250	0.804079	0.019072
 316	1.5750e-01	12.6462	26.922004	0.000032	0.319271	0.108172	0.002566
 317	1.5800e-01	12.6638	27.187132	0.000660	6.598274	2.235556	0.053026
 318	1.5850e-01	12.7071	27.167034	-0.000050	-0.500192	-0.169470	-0.004020
 319	1.5900e-01	12.7553	27.140949	-0.000065	-0.649185	-0.219950	-0.005217
 320	1.5950e-01	12.7905	27.306012	0.000411	4.107957	1.391814	0.033013
 321	1.6000e-01	12.8210	27.523673	0.000542	5.416970	1.835319	0.043532
 322	1.6050e-01	12.8820	27.481338	-0.000105	-1.053595	-0.356968	-0.008467
 323	1.6100e-01	12.9269	27.648967	0.000417	4.171812	1.413448	0.033526
 324	1.6150e-01	12.8980	27.845675	-0.000490	-4.895493	-1.658638	0.039342
 325	1.6200e-01	12.9991	28.011166	0.000412	4.118600	1.395419	0.033098
 326	1.6250e-01	13.0312	27.823438	-0.000467	-4.672003	-1.582918	-0.037545
 327	1.6300e-01	13.0697	28.097119	0.000681	6.811121	2.307670	0.054736
 328	1.6350e-01	13.1034	28.130901	0.000084	0.840748	0.284853	0.006756
 329	1.6400e-01	13.1435	28.279287	0.000369	3.692905	1.251190	0.029677
 330	1.6450e-01	13.1996	28.192907	-0.000215	-2.149760	-0.728358	-0.017276
 331	1.6500e-01	13.2237	28.391325	0.000494	4.938063	1.673061	0.039684
 332	1.6550e-01	13.2526	28.391752	0.000001	0.010642	0.003606	0.000086
 333	1.6600e-01	13.3071	28.663722	0.000677	6.768552	2.293247	0.054394
 334	1.6650e-01	13.3440	28.742405	0.000196	1.958197	0.663455	0.015737
 335	1.6700e-01	13.3761	28.840759	0.000245	2.447747	0.829319	0.019671
 336	1.6750e-01	13.4018	28.880528	0.000099	0.989741	0.335333	0.007954
 337	1.6800e-01	13.4611	29.115722	0.000585	5.853307	1.983154	0.047039
 338	1.6850e-01	13.5012	29.105031	-0.000027	-0.266059	-0.090143	-0.002138
 339	1.6900e-01	13.5413	29.100328	-0.000012	-0.117066	-0.039663	-0.000941
 340	1.6950e-01	13.5814	29.345357	0.000610	6.098082	2.066086	0.049006
 341	1.7000e-01	13.6360	29.360751	0.000038	0.383126	0.129806	0.003079
 342	1.7050e-01	13.6633	29.504433	0.000358	3.575839	1.211527	0.028736
 343	1.7100e-01	13.7114	29.473644	-0.000077	-0.766251	-0.259613	-0.006158
 344	1.7150e-01	13.7483	29.726799	0.000630	6.300287	2.134595	0.050631
 345	1.7200e-01	13.7868	29.796074	0.000172	1.724065	0.584129	0.013855
 346	1.7250e-01	13.8221	29.811468	0.000038	0.383126	0.129806	0.003079
 347	1.7300e-01	13.8606	29.944460	0.000331	3.309779	1.121384	0.026598
 348	1.7350e-01	13.8975	30.076168	0.000328	3.277852	1.110566	0.026342
 349	1.7400e-01	13.9520	29.960282	-0.000288	-2.884084	-0.977154	-0.023177
 350	1.7450e-01	13.9985	30.265179	0.000759	7.588015	2.570889	0.060979
 351	1.7500e-01	14.0210	30.226693	-0.000096	-0.957814	-0.324516	-0.007697
 352	1.7550e-01	14.0691	30.414420	0.000467	4.672003	1.582918	0.037545
 353	1.7600e-01	14.1028	30.477281	0.000156	1.564429	0.530043	0.012572
 354	1.7650e-01	14.1654	30.489254	0.000030	0.297987	0.100961	0.002395
 355	1.7700e-01	14.1622	30.667574	-0.000444	-4.437871	-1.503591	0.035664
 356	1.7750e-01	14.2263	30.855302	0.000467	4.672003	1.582918	0.037545
 357	1.7800e-01	14.2841	30.842901	-0.000031	-0.308629	-0.104566	-0.002480
 358	1.7850e-01	14.3049	30.872834	0.000074	0.744966	0.252401	0.005987
 359	1.7900e-01	14.3659	31.042174	0.000421	4.214381	1.427871	0.033868
 360	1.7950e-01	14.3884	31.124706	0.000205	2.053979	0.695907	0.016506
 361	1.8000e-01	14.4253	31.311150	0.000464	4.640076	1.572100	0.037289
 362	1.8050e-01	14.4670	31.348781	0.000094	0.936529	0.317305	0.007526
 363	1.8100e-01	14.5055	31.552759	0.000508	5.076414	1.719936	0.040795
 364	1.8150e-01	14.5552	31.516838	-0.000089	-0.893960	-0.302882	-0.007184
 365	1.8200e-01	14.5809	31.619896	0.000256	2.564813	0.868982	0.020612
 366	1.8250e-01	14.6178	31.734072	0.000284	2.841515	0.962731	0.022835
 367	1.8300e-01	14.6691	31.877754	0.000358	3.575839	1.211527	0.028736
 368	1.8350e-01	14.7124	31.991502	0.000283	2.830872	0.959125	0.022750
 369	1.8400e-01	14.7589	31.946174	-0.000113	-1.128092	-0.382208	-0.009066
 370	1.8450e-01	14.7846	32.032126	0.000214	2.139118	0.724753	0.017191
 371	1.8500e-01	14.8167	32.198900	0.000415	4.150527	1.406237	0.033355
 372	1.8550e-01	14.8632	32.310083	0.000277	2.767018	0.937491	0.022237
 373	1.8600e-01	14.9017	32.290840	-0.000048	-0.478907	-0.162258	-0.003849
 374	1.8650e-01	14.9514	32.545277	0.000633	6.332214	2.145412	0.050887
 375	1.8700e-01	14.9996	32.602151	0.000142	1.415436	0.479563	0.011375
 376	1.8750e-01	15.0365	32.647479	0.000113	1.128092	0.382208	0.009066
 377	1.8800e-01	15.0573	32.753958	0.000265	2.649952	0.897828	0.021296
 378	1.8850e-01	15.1055	32.990862	0.000590	5.895877	1.997577	0.047381
 379	1.8900e-01	15.1407	33.063559	0.000181	1.809204	0.612975	0.014539
 380	1.8950e-01	15.1969	33.044315	-0.000048	-0.478907	-0.162258	-0.003849
 381	1.9000e-01	15.2097	33.117012	0.000181	1.809204	0.612975	0.014539
 382	1.9050e-01	15.2787	33.343226	0.000563	5.629817	1.907434	0.045243
 383	1.9100e-01	15.2899	33.348357	0.000013	0.127709	0.043269	0.001026
 384	1.9150e-01	15.3477	33.518980	0.000425	4.246308	1.438688	0.034124
 385	1.9200e-01	15.3910	33.400100	-0.000296	-2.958581	-1.002394	-0.023776
 386	1.9250e-01	15.4295	33.704569	0.000758	7.577372	2.567283	0.060894
 387	1.9300e-01	15.4536	33.763581	0.000147	1.468648	0.497591	0.011802
 388	1.9350e-01	15.4969	33.848679	0.000212	2.117833	0.717541	0.017019
 389	1.9400e-01	15.5482	33.897000	0.000120	1.202589	0.407448	0.009664
 390	1.9450e-01	15.5980	34.108247	0.000526	5.257334	1.781233	0.042249
 391	1.9500e-01	15.6236	34.026998	-0.000202	-2.022052	-0.685090	-0.016250
 392	1.9550e-01	15.6750	34.168115	0.000351	3.511984	1.189892	0.028223
 393	1.9600e-01	15.7070	34.263048	0.000236	2.362608	0.800473	0.018987
 394	1.9650e-01	15.7375	34.472584	0.000521	5.214765	1.766810	0.041907
 395	1.9700e-01	15.7873	34.554688	0.000204	2.043336	0.692301	0.016421
 396	1.9750e-01	15.8290	34.491827	-0.000156	-1.564429	-0.530043	-0.012572
 397	1.9800e-01	15.8691	34.642351	0.000375	3.746117	1.269219	0.030105
 398	1.9850e-01	15.8947	34.848039	0.000512	5.118983	1.734358	0.041138
 399	1.9900e-01	15.9364	34.886098	0.000095	0.947172	0.320910	0.007612
 400	1.9950e-01	15.9782	34.949814	0.000159	1.585714	0.537254	0.012743
 401	2.0000e-01	16.0439	34.938695	-0.000028	-0.276702	-0.093749	-0.002224
 402	2.0050e-01	16.0824	35.011819	0.000182	1.819846	0.616581	0.014625
 403	2.0100e-01	16.1209	35.157640	0.000363	3.629050	1.229556	0.029164
 404	2.0150e-01	16.1370	35.290203	0.000330	3.299137	1.117778	0.026513
 405	2.0200e-01	16.1610	35.655823	0.000910	9.099232	3.082903	0.073124
 406	2.0250e-01	16.2172	35.490332	-0.000412	-4.118600	-1.395419	-0.033098
 407	2.0300e-01	16.2669	35.572008	0.000203	2.032694	0.688695	0.016335
 408	2.0350e-01	16.3167	35.651119	0.000197	1.968840	0.667061	0.015822
 409	2.0400e-01	16.3503	35.860656	0.000521	5.214765	1.766810	0.041907
 410	2.0450e-01	16.3888	35.864504	0.000010	0.095781	0.032452	0.000770
 411	2.0500e-01	16.4273	35.952595	0.000219	2.192330	0.742781	0.017618
 412	2.0550e-01	16.4707	36.095849	0.000357	3.565196	1.207921	0.028651
 413	2.0600e-01	16.4963	36.124073	0.000070	0.702397	0.237978	0.005645
 414	2.0650e-01	16.5461	36.295978	0.000428	4.278235	1.449505	0.034381
 415	2.0700e-01	16.5894	36.383214	0.000217	2.171045	0.735570	0.017447
 416	2.0750e-01	16.6311	36.423838	0.000101	1.011026	0.342545	0.008125
 417	2.0800e-01	16.6567	36.608572	0.000460	4.597507	1.557677	0.036947
 418	2.0850e-01	16.7065	36.703505	0.000236	2.362608	0.800473	0.018987
 419	2.0900e-01	16.7418	36.766366	0.000156	1.564429	0.530043	0.012572
 420	2.0950e-01	16.7835	36.720610	-0.000114	-1.138734	-0.385814	-0.009151
 421	2.1000e-01	16.8284	37.007974	0.000715	7.151677	2.423054	0.057473
 422	2.1050e-01	16.8637	36.945541	-0.000155	-1.553787	-0.526437	-0.012487
 423	2.1100e-01	16.8862	37.085802	0.000349	3.490700	1.182681	0.028052
 424	2.1150e-01	16.9359	37.373166	0.000715	7.151677	2.423054	0.057473
 425	2.1200e-01	16.9856	37.285503	-0.000218	-2.181687	-0.739176	-0.017533
 426	2.1250e-01	17.0353	37.371883	0.000215	2.149760	0.728358	0.017276
 427	2.1300e-01	17.0626	37.542506	0.000425	4.246308	1.438688	0.034124
 428	2.1350e-01	17.1043	37.605794	0.000158	1.575072	0.533649	0.012658
 429	2.1400e-01	17.1460	37.645136	0.000098	0.979099	0.331728	0.007868
 430	2.1450e-01	17.1974	37.702010	0.000142	1.415436	0.479563	0.011375
 431	2.1500e-01	17.2246	37.840561	0.000345	3.448130	1.168258	0.027710
 432	2.1550e-01	17.2792	37.939342	0.000246	2.458389	0.832925	0.019756
 433	2.1600e-01	17.3113	38.116806	0.000442	4.416586	1.496380	0.035493
 434	2.1650e-01	17.3450	38.128352	0.000029	0.287344	0.097355	0.002309
 435	2.1700e-01	17.3803	38.280159	0.000378	3.778044	1.280036	0.030361
 436	2.1750e-01	17.4396	38.307527	0.000068	0.681112	0.230767	0.005474
 437	2.1800e-01	17.4717	38.328481	0.000052	0.521476	0.176681	0.004191
 438	2.1850e-01	17.5054	38.460190	0.000328	3.277852	1.110566	0.026342
 439	2.1900e-01	17.5535	38.626536	0.000414	4.139885	1.402631	0.033269
 440	2.1950e-01	17.5744	38.663739	0.000093	0.925887	0.313699	0.007441
 441	2.2000e-01	17.6209	38.773211	0.000272	2.724448	0.923068	0.021894
 442	2.2050e-01	17.6867	38.826237	0.000132	1.319655	0.447111	0.010605
 443	2.2100e-01	17.7059	38.956663	0.000325	3.245925	1.099749	0.026085
 444	2.2150e-01	17.7364	39.093503	0.000341	3.405561	1.153835	0.027368
 445	2.2200e-01	17.7765	39.245310	0.000378	3.778044	1.280036	0.030361
 446	2.2250e-01	17.8294	39.314585	0.000172	1.724065	0.584129	0.013855
 447	2.2300e-01	17.8663	39.200837	-0.000283	-2.830872	-0.959125	-0.022750
 448	2.2350e-01	17.9081	39.335966	0.000336	3.362991	1.139412	0.027026
 449	2.2400e-01	17.9417	39.688757	0.000878	8.779961	2.974731	0.070558
 450	2.2450e-01	17.9979	39.510437	-0.000444	-4.437871	-1.503591	-0.035664
 451	2.2500e-01	18.0348	39.626324	0.000288	2.884084	0.977154	0.023177
 452	2.2550e-01	18.0653	39.800367	0.000433	4.331447	1.467534	0.034809
 453	2.2600e-01	18.1054	39.983818	0.000457	4.565580	1.546860	0.036690
 454	2.2650e-01	18.1359	40.080889	0.000242	2.415820	0.818502	0.019414
 455	2.2700e-01	18.1776	40.013752	-0.000167	-1.670853	-0.566100	-0.013427
 456	2.2750e-01	18.2225	40.182237	0.000419	4.193096	1.420660	0.033697
 457	2.2800e-01	18.2738	40.191644	0.000023	0.234132	0.079326	0.001882
 458	2.2850e-01	18.3252	40.318221	0.000315	3.150144	1.067298	0.025315
 459	2.2900e-01	18.3653	40.417858	0.000248	2.479674	0.840136	0.019927
 460	2.2950e-01	18.3877	40.553843	0.000338	3.384276	1.146624	0.027197
 461	2.3000e-01	18.4262	40.614566	0.000151	1.511217	0.512014	0.012145
 462	2.3050e-01	18.4663	40.744564	0.000324	3.235283	1.096143	0.026000
 463	2.3100e-01	18.5145	40.730880	-0.000034	-0.340556	-0.115384	-0.002737
 464	2.3150e-01	18.5481	40.877555	0.000365	3.650335	1.236767	0.029335
 465	2.3200e-01	18.5738	41.118736	0.000600	6.002300	2.033634	0.048236
 466	2.3250e-01	18.6396	41.100776	-0.000045	-0.446980	-0.151441	-0.003592
 467	2.3300e-01	18.6797	41.230774	0.000324	3.235283	1.096143	0.026000
 468	2.3350e-01	18.7070	41.230774	0.000000	0.000000	0.000000	0.000000
 469	2.3400e-01	18.7519	41.358634	0.000318	3.182071	1.078115	0.025572
 470	2.3450e-01	18.7759	41.521131	0.000404	4.044103	1.370179	0.032500
 471	2.3500e-01	18.8144	41.540802	0.000049	0.489549	0.165864	0.003934
 472	2.3550e-01	18.8722	41.580999	0.000100	1.000383	0.338939	0.008039
 473	2.3600e-01	18.9139	41.822607	0.000601	6.012943	2.037240	0.048322
 474	2.3650e-01	18.9508	41.790108	-0.000081	-0.808821	-0.274036	-0.006500
 475	2.3700e-01	18.9781	41.964579	0.000434	4.342090	1.471140	0.034894
 476	2.3750e-01	19.0294	42.080893	0.000289	2.894726	0.980760	0.023263
 477	2.3800e-01	19.0791	42.020598	-0.000150	-1.500575	-0.508409	-0.012059
 478	2.3850e-01	19.1016	42.288719	0.000667	6.672770	2.260796	0.053624
 479	2.3900e-01	19.1385	42.389211	0.000250	2.500959	0.847348	0.020098
 480	2.3950e-01	19.1946	42.428552	0.000098	0.979099	0.331728	0.007868
 481	2.4000e-01	19.2315	42.535031	0.000265	2.649952	0.897828	0.021296
 482	2.4050e-01	19.2781	42.506808	-0.000070	-0.702397	-0.237978	-0.005645
 483	2.4100e-01	19.3102	42.663318	0.000390	3.895110	1.319699	0.031302
 484	2.4150e-01	19.3342	42.789468	0.000314	3.139501	1.063692	0.025230
 485	2.4200e-01	19.3695	42.905782	0.000289	2.894726	0.980760	0.023263
 486	2.4250e-01	19.3839	43.182455	0.000689	6.885618	2.332910	0.055335
 487	2.4300e-01	19.4545	43.127719	-0.000136	-1.362224	-0.461534	-0.010947
 488	2.4350e-01	19.5059	43.165778	0.000095	0.947172	0.320910	0.007612
 489	2.4400e-01	19.5540	43.158936	-0.000017	-0.170278	-0.057692	-0.001368
 490	2.4450e-01	19.5861	43.334262	0.000436	4.363374	1.478351	0.035065
 491	2.4500e-01	19.6166	43.400544	0.000165	1.649568	0.558889	0.013256
 492	2.4550e-01	19.6551	43.577154	0.000440	4.395302	1.489168	0.035322
 493	2.4600e-01	19.7192	43.590410	0.000033	0.329914	0.111778	0.002651
 494	2.4650e-01	19.7561	43.637449	0.000117	1.170661	0.396631	0.009408
 495	2.4700e-01	19.7770	43.838433	0.000500	5.001917	1.694695	0.040197
 496	2.4750e-01	19.8347	43.790539	-0.000119	-1.191946	-0.403842	-0.009579
 497	2.4800e-01	19.8636	43.866228	0.000188	1.883701	0.638215	0.015138
 498	2.4850e-01	19.9149	44.074482	0.000518	5.182837	1.755993	0.041651
 499	2.4900e-01	19.9342	44.202769	0.000319	3.192713	1.081720	0.025658
 500	2.4950e-01	19.9775	44.313524	0.000276	2.756376	0.933885	0.022151
 501	2.5000e-01	20.0224	44.427273	0.000283	2.830872	0.959125	0.022750
 502	2.5050e-01	19.9775	44.261782	0.000412	4.118600	1.395419	-0.033098
 503	2.5100e-01	19.9438	44.107837	0.000383	3.831256	1.298065	-0.030789
 504	2.5150e-01	19.9069	43.997082	0.000276	2.756376	0.933885	-0.022151
 505	2.5200e-01	19.8668	43.975273	0.000054	0.542761	0.183892	-0.004362
 506	2.5250e-01	19.8235	43.896590	0.000196	1.958197	0.663455	-0.015737
 507	2.5300e-01	19.7914	43.754190	0.000354	3.543911	1.200710	-0.028480
 508	2.5350e-01	19.7385	43.669521	0.000211	2.107191	0.713935	-0.016934
 509	2.5400e-01	19.7000	43.794387	-0.000311	-3.107574	-1.052875	0.024973
 510	2.5450e-01	19.6486	43.518569	0.000686	6.864333	2.325699	-0.055164
 511	2.5500e-01	19.6342	43.653271	-0.000335	-3.352349	-1.135806	0.026940
 512	2.5550e-01	19.5957	43.392847	0.000648	6.481207	2.195893	-0.052085
 513	2.5600e-01	19.5604	43.359920	0.000082	0.819463	0.277642	-0.006585
 514	2.5650e-01	19.5075	43.320151	0.000099	0.989741	0.335333	-0.007954
 515	2.5700e-01	19.4754	43.180317	0.000348	3.480057	1.179075	-0.027967
 516	2.5750e-01	19.4048	43.147818	0.000081	0.808821	0.274036	-0.006500
 517	2.5800e-01	19.4208	42.845914	-0.000751	-7.513518	-2.545649	-0.060381
 518	2.5850e-01	19.3342	42.974202	-0.000319	-3.192713	-1.081720	0.025658
 519	2.5900e-01	19.3085	42.895519	0.000196	1.958197	0.663455	-0.015737
 520	2.5950e-01	19.2781	42.724041	0.000427	4.267593	1.445900	-0.034296
 521	2.6000e-01	19.1930	42.682134	0.000104	1.042953	0.353362	-0.008381
 522	2.6050e-01	19.1754	42.696246	-0.000035	-0.351198	-0.118989	0.002822
 523	2.6100e-01	19.1305	42.607299	0.000221	2.213614	0.749993	-0.017789
 524	2.6150e-01	19.1032	42.552136	0.000137	1.372867	0.465140	-0.011033
 525	2.6200e-01	19.0551	42.446940	0.000262	2.618025	0.887011	-0.021039
 526	2.6250e-01	19.0182	42.407598	0.000098	0.979099	0.331728	-0.007868
 527	2.6300e-01	18.9797	42.209608	0.000493	4.927420	1.669455	-0.039598
 528	2.6350e-01	18.9508	42.225002	-0.000038	-0.383126	-0.129806	0.003079
 529	2.6400e-01	18.8802	42.051387	0.000432	4.320805	1.463928	-0.034723
 530	2.6450e-01	18.8722	42.138622	-0.000217	-2.171045	-0.735570	0.017447
 531	2.6500e-01	18.8177	41.913264	0.000561	5.608533	1.900222	-0.045072
 532	2.6550e-01	18.7759	41.758463	0.000385	3.852540	1.305276	-0.030960
 533	2.6600e-01	18.7535	41.764022	-0.000014	-0.138351	-0.046875	0.001112
 534	2.6650e-01	18.7150	41.519848	0.000608	6.076797	2.058875	-0.048835
 535	2.6700e-01	18.6636	41.507875	0.000030	0.297987	0.100961	-0.002395
 536	2.6750e-01	18.6284	41.541230	-0.000083	-0.830105	-0.281247	0.006671
 537	2.6800e-01	18.5850	41.333404	0.000517	5.172195	1.752387	-0.041565
 538	2.6850e-01	18.5433	41.334687	-0.000003	-0.031927	-0.010817	0.000257
 539	2.6900e-01	18.5064	41.315871	0.000047	0.468265	0.158652	-0.003763
 540	2.6950e-01	18.4679	41.188011	0.000318	3.182071	1.078115	-0.025572
 541	2.7000e-01	18.4182	41.038770	0.000371	3.714189	1.258401	-0.029848
 542	2.7050e-01	18.3893	41.071697	-0.000082	-0.819463	-0.277642	0.006585
 543	2.7100e-01	18.3476	40.877555	0.000483	4.831639	1.637004	-0.038828
 544	2.7150e-01	18.3107	40.805287	0.000180	1.798562	0.609369	-0.014454
 545	2.7200e-01	18.2610	40.651341	0.000383	3.831256	1.298065	-0.030789
 546	2.7250e-01	18.2481	40.530751	0.000300	3.001150	1.016817	-0.024118
 547	2.7300e-01	18.1968	40.612000	-0.000202	-2.022052	-0.685090	0.016250
 548	2.7350e-01	18.1599	40.381510	0.000574	5.736241	1.943491	-0.046098
 549	2.7400e-01	18.0990	40.477726	-0.000239	-2.394535	-0.811290	0.019243
 550	2.7450e-01	18.0685	40.366971	0.000276	2.756376	0.933885	-0.022151
 551	2.7500e-01	18.0236	40.234834	0.000329	3.288494	1.114172	-0.026427
 552	2.7550e-01	17.9851	40.241249	-0.000016	-0.159636	-0.054086	0.001283
 553	2.7600e-01	17.9369	40.208749	0.000081	0.808821	0.274036	-0.006500
 554	2.7650e-01	17.9064	40.073620	0.000336	3.362991	1.139412	-0.027026
 555	2.7700e-01	17.8583	40.074475	-0.000002	-0.021285	-0.007211	0.000171
 556	2.7750e-01	17.8278	39.853393	0.000550	5.502109	1.864165	-0.044216
 557	2.7800e-01	17.7781	39.930793	-0.000193	-1.926270	-0.652638	0.015480
 558	2.7850e-01	17.7284	39.619909	0.000774	7.737008	2.621369	-0.062177
 559	2.7900e-01	17.7043	39.713987	-0.000234	-2.341323	-0.793262	0.018816
 560	2.7950e-01	17.6658	39.461260	0.000629	6.289645	2.130989	-0.050545
 561	2.8000e-01	17.6257	39.371887	0.000222	2.224257	0.753599	-0.017875
 562	2.8050e-01	17.5776	39.321427	0.000126	1.255800	0.425477	-0.010092
 563	2.8100e-01	17.5295	39.265408	0.000139	1.394151	0.472351	-0.011204
 564	2.8150e-01	17.5086	39.111035	0.000384	3.841898	1.301670	-0.030875
 565	2.8200e-01	17.4797	38.988307	0.000305	3.054362	1.034846	-0.024546
 566	2.8250e-01	17.4188	38.986169	0.000005	0.053212	0.018029	-0.000428
 567	2.8300e-01	17.4027	38.938702	0.000118	1.181304	0.400237	-0.009493
 568	2.8350e-01	17.3305	38.869855	0.000171	1.713423	0.580523	-0.013770
 569	2.8400e-01	17.3000	38.833079	0.000092	0.915244	0.310093	-0.007355
 570	2.8450e-01	17.2648	38.644924	0.000468	4.682646	1.586523	-0.037631
 571	2.8500e-01	17.2391	38.565385	0.000198	1.979482	0.670667	-0.015908
 572	2.8550e-01	17.1878	38.369961	0.000486	4.863566	1.647821	-0.039085
 573	2.8600e-01	17.1444	38.372526	-0.000006	-0.063854	-0.021634	0.000513
 574	2.8650e-01	17.0979	38.294699	0.000194	1.936913	0.656244	-0.015566
 575	2.8700e-01	17.0610	38.295554	-0.000002	-0.021285	-0.007211	0.000171
 576	2.8750e-01	17.0257	38.053946	0.000601	6.012943	2.037240	-0.048322
 577	2.8800e-01	16.9840	38.137332	-0.000208	-2.075263	-0.703118	0.016677
 578	2.8850e-01	16.9824	37.772568	0.000908	9.077947	3.075692	-0.072953
 579	2.8900e-01	16.9006	37.841416	-0.000171	-1.713423	-0.580523	0.013770
 580	2.8950e-01	16.8525	37.813620	0.000069	0.691754	0.234373	-0.005559
 581	2.9000e-01	16.8236	37.759312	0.000135	1.351582	0.457928	-0.010862
 582	2.9050e-01	16.7787	37.555334	0.000508	5.076414	1.719936	-0.040795
 583	2.9100e-01	16.7450	37.371028	0.000459	4.586864	1.554072	-0.036861
 584	2.9150e-01	16.6920	37.565598	-0.000484	-4.842281	-1.640609	0.038914
 585	2.9200e-01	16.6600	37.406093	0.000397	3.969607	1.344939	-0.031901
 586	2.9250e-01	16.6118	37.262839	0.000357	3.565196	1.207921	-0.028651
 587	2.9300e-01	16.5781	37.186294	0.000190	1.904985	0.645427	-0.015309
 588	2.9350e-01	16.5477	37.028928	0.000392	3.916395	1.326910	-0.031473
 589	2.9400e-01	16.4995	37.075967	-0.000117	-1.170661	-0.396631	0.009408
 590	2.9450e-01	16.4867	36.817681	0.000643	6.427996	2.177864	-0.051657
 591	2.9500e-01	16.4097	36.791168	0.000066	0.659827	0.223556	-0.005303
 592	2.9550e-01	16.3712	36.748406	0.000106	1.064238	0.360573	-0.008553
 593	2.9600e-01	16.3375	36.690249	0.000145	1.447363	0.490380	-0.011631
 594	2.9650e-01	16.2974	36.605151	0.000212	2.117833	0.717541	-0.017019
 595	2.9700e-01	16.2669	36.466173	0.000346	3.458772	1.171864	-0.027796
 596	2.9750e-01	16.2220	36.331899	0.000334	3.341706	1.132201	-0.026855
 597	2.9800e-01	16.1771	36.296406	0.000088	0.883317	0.299276	-0.007099
 598	2.9850e-01	16.1546	36.148020	0.000369	3.692905	1.251190	-0.029677
 599	2.9900e-01	16.1017	36.164697	-0.000042	-0.415053	-0.140624	0.003335
 600	2.9950e-01	16.0696	36.126211	0.000096	0.957814	0.324516	-0.007697
 601	3.0000e-01	16.0247	35.976542	0.000372	3.724832	1.262007	-0.029934
 602	3.0050e-01	15.9830	35.797795	0.000445	4.448513	1.507197	-0.035749
 603	3.0100e-01	15.9461	35.824735	-0.000067	-0.670470	-0.227161	0.005388
 604	3.0150e-01	15.9252	35.684046	0.000350	3.501342	1.186287	-0.028138
 605	3.0200e-01	15.8450	35.850393	-0.000414	-4.139885	-1.402631	0.033269
 606	3.0250e-01	15.8161	35.527963	0.000802	8.024352	2.718724	-0.064486
 607	3.0300e-01	15.7808	35.459971	0.000169	1.692138	0.573312	-0.013598
 608	3.0350e-01	15.7536	35.305170	0.000385	3.852540	1.305276	-0.030960
 609	3.0400e-01	15.7151	35.248724	0.000140	1.404794	0.475957	-0.011289
 610	3.0450e-01	15.6637	35.211520	0.000093	0.925887	0.313699	-0.007441
 611	3.0500e-01	15.6060	35.209382	0.000005	0.053212	0.018029	-0.000428
 612	3.0550e-01	15.5819	35.092213	0.000292	2.916011	0.987971	-0.023434
 613	3.0600e-01	15.5370	34.881821	0.000524	5.236049	1.774022	-0.042078
 614	3.0650e-01	15.5177	34.810408	0.000178	1.777277	0.602158	-0.014283
 615	3.0700e-01	15.4536	34.824092	-0.000034	-0.340556	-0.115384	0.002737
 616	3.0750e-01	15.4295	34.656890	0.000416	4.161169	1.409842	-0.033440
 617	3.0800e-01	15.3669	34.604720	0.000130	1.298370	0.439900	-0.010434
 618	3.0850e-01	15.3413	34.607713	-0.000007	-0.074497	-0.025240	0.000599
 619	3.0900e-01	15.2883	34.408012	0.000497	4.969990	1.683878	-0.039940
 620	3.0950e-01	15.2579	34.433670	-0.000064	-0.638543	-0.216344	0.005132
 621	3.1000e-01	15.2274	34.227555	0.000513	5.129626	1.737964	-0.041223
 622	3.1050e-01	15.2033	34.174101	0.000133	1.330297	0.450717	-0.010691
 623	3.1100e-01	15.1520	33.999630	0.000434	4.342090	1.471140	-0.034894
 624	3.1150e-01	15.1119	33.843975	0.000387	3.873825	1.312487	-0.031131
 625	3.1200e-01	15.0814	33.868777	-0.000062	-0.617258	-0.209133	0.004960
 626	3.1250e-01	15.0140	33.832856	0.000089	0.893960	0.302882	-0.007184
 627	3.1300e-01	14.9883	33.729371	0.000258	2.575455	0.872588	-0.020697
 628	3.1350e-01	14.9418	33.557466	0.000428	4.278235	1.449505	-0.034381
 629	3.1400e-01	14.8857	33.530525	0.000067	0.670470	0.227161	-0.005388
 630	3.1450e-01	14.8600	33.542499	-0.000030	-0.297987	-0.100961	0.002395
 631	3.1500e-01	14.8311	33.244016	0.000743	7.428379	2.516803	-0.059696
 632	3.1550e-01	14.7862	33.161485	0.000205	2.053979	0.695907	-0.016506
 633	3.1600e-01	14.7670	33.131979	0.000073	0.734324	0.248796	-0.005901
 634	3.1650e-01	14.7188	33.004974	0.000316	3.160786	1.070903	-0.025401
 635	3.1700e-01	14.6771	32.997704	0.000018	0.180920	0.061297	-0.001454
 636	3.1750e-01	14.6226	32.807839	0.000473	4.725215	1.600946	-0.037973
 637	3.1800e-01	14.5777	32.812970	-0.000013	-0.127709	-0.043269	0.001026
 638	3.1850e-01	14.5584	32.697084	0.000288	2.884084	0.977154	-0.023177
 639	3.1900e-01	14.5167	32.533303	0.000408	4.076030	1.380996	-0.032756
 640	3.1950e-01	14.4477	32.530738	0.000006	0.063854	0.021634	-0.000513
 641	3.2000e-01	14.4301	32.461462	0.000172	1.724065	0.584129	-0.013855
 642	3.2050e-01	14.3932	32.325905	0.000337	3.373633	1.143018	-0.027111
 643	3.2100e-01	14.3386	32.330609	-0.000012	-0.117066	-0.039663	0.000941
 644	3.2150e-01	14.3082	32.094132	0.000589	5.885234	1.993971	-0.047295
 645	3.2200e-01	14.2424	32.152289	-0.000145	-1.447363	-0.490380	0.011631
 646	3.2250e-01	14.2295	32.069757	0.000205	2.053979	0.695907	-0.016506
 647	3.2300e-01	14.1798	31.959858	0.000274	2.735091	0.926674	-0.021980
 648	3.2350e-01	14.1461	31.902128	0.000144	1.436721	0.486774	-0.011546
 649	3.2400e-01	14.0804	31.747328	0.000385	3.852540	1.305276	-0.030960
 650	3.2450e-01	14.0483	31.630586	0.000291	2.905369	0.984366	-0.023348
 651	3.2500e-01	14.0178	31.657099	-0.000066	-0.659827	-0.223556	0.005303
 652	3.2550e-01	13.9681	31.493746	0.000407	4.065388	1.377391	-0.032671
 653	3.2600e-01	13.9392	31.386840	0.000266	2.660594	0.901434	-0.021381
 654	3.2650e-01	13.9055	31.298749	0.000219	2.192330	0.742781	-0.017618
 655	3.2700e-01	13.8782	31.205099	0.000233	2.330681	0.789656	-0.018730
 656	3.2750e-01	13.8509	30.974182	0.000575	5.746883	1.947097	-0.046184
 657	3.2800e-01	13.7996	31.010957	-0.000092	-0.915244	-0.310093	0.007355
 658	3.2850e-01	13.7467	30.925860	0.000212	2.117833	0.717541	-0.017019
 659	3.2900e-01	13.7194	30.966484	-0.000101	-1.011026	-0.342545	0.008125
 660	3.2950e-01	13.6584	30.783461	0.000455	4.554937	1.543255	-0.036605
 661	3.3000e-01	13.6215	30.566227	0.000541	5.406327	1.831713	-0.043447
 662	3.3050e-01	13.5879	30.508498	0.000144	1.436721	0.486774	-0.011546
 663	3.3100e-01	13.5477	30.502083	0.000016	0.159636	0.054086	-0.001283
 664	3.3150e-01	13.5012	30.432808	0.000172	1.724065	0.584129	-0.013855
 665	3.3200e-01	13.4419	30.249357	0.000457	4.565580	1.546860	-0.036690
 666	3.3250e-01	13.4226	30.314356	-0.000162	-1.617641	-0.548072	0.013000
 667	3.3300e-01	13.3633	30.197614	0.000291	2.905369	0.984366	-0.023348
 668	3.3350e-01	13.3456	29.962420	0.000585	5.853307	1.983154	-0.047039
 669	3.3400e-01	13.3039	30.001762	-0.000098	-0.979099	-0.331728	0.007868
 670	3.3450e-01	13.2782	29.896138	0.000263	2.628667	0.890617	-0.021125
 671	3.3500e-01	13.2141	29.813179	0.000206	2.064621	0.699513	-0.016592
 672	3.3550e-01	13.1643	29.759298	0.000134	1.340939	0.454323	-0.010776
 673	3.3600e-01	13.1595	29.698148	0.000152	1.521860	0.515620	-0.012230
 674	3.3650e-01	13.0986	29.545913	0.000379	3.788686	1.283642	-0.030447
 675	3.3700e-01	13.0681	29.339370	0.000514	5.140268	1.741570	-0.041309
 676	3.3750e-01	13.0328	29.362034	-0.000056	-0.564046	-0.191104	0.004533
 677	3.3800e-01	13.0007	29.216642	0.000362	3.618408	1.225950	-0.029079
 678	3.3850e-01	12.9446	29.153353	0.000158	1.575072	0.533649	-0.012658
 679	3.3900e-01	12.9285	28.897206	0.000637	6.374784	2.159835	-0.051230
 680	3.3950e-01	12.8692	28.918587	-0.000053	-0.532119	-0.180287	0.004276
 681	3.4000e-01	12.8355	28.823654	0.000236	2.362608	0.800473	-0.018987
 682	3.4050e-01	12.7873	28.800135	0.000059	0.585331	0.198315	-0.004704
 683	3.4100e-01	12.7360	28.727866	0.000180	1.798562	0.609369	-0.014454
 684	3.4150e-01	12.7151	28.640630	0.000217	2.171045	0.735570	-0.017447
 685	3.4200e-01	12.6670	28.490534	0.000374	3.735474	1.265613	-0.030019
 686	3.4250e-01	12.6237	28.405009	0.000213	2.128475	0.721147	-0.017105
 687	3.4300e-01	12.5820	28.286984	0.000294	2.937296	0.995183	-0.023605
 688	3.4350e-01	12.5451	28.325043	-0.000095	-0.947172	-0.320910	0.007612
 689	3.4400e-01	12.4954	28.168960	0.000388	3.884468	1.316093	-0.031217
 690	3.4450e-01	12.4569	28.161262	0.000019	0.191563	0.064903	-0.001539
 691	3.4500e-01	12.4200	27.976956	0.000459	4.586864	1.554072	-0.036861
 692	3.4550e-01	12.3879	27.938042	0.000097	0.968456	0.328122	-0.007783
 693	3.4600e-01	12.3462	27.716105	0.000552	5.523394	1.871376	-0.044388
 694	3.4650e-01	12.2836	27.773406	-0.000143	-1.426078	-0.483168	0.011460
 695	3.4700e-01	12.2579	27.607060	0.000414	4.139885	1.402631	-0.033269
 696	3.4750e-01	12.2162	27.533936	0.000182	1.819846	0.616581	-0.014625
 697	3.4800e-01	12.1986	27.575843	-0.000104	-1.042953	-0.353362	0.008381
 698	3.4850e-01	12.1745	27.288907	0.000714	7.141035	2.419448	-0.057387
 699	3.4900e-01	12.1152	27.167461	0.000302	3.022435	1.024029	-0.024289
 700	3.4950e-01	12.0542	27.202527	-0.000087	-0.872675	-0.295670	0.007013
 701	3.5000e-01	12.0317	27.101179	0.000252	2.522243	0.854559	-0.020269
 702	3.5050e-01	11.9997	26.865558	0.000586	5.863950	1.986760	-0.047124
 703	3.5100e-01	11.9467	26.808684	0.000142	1.415436	0.479563	-0.011375
 704	3.5150e-01	11.8938	26.826216	-0.000044	-0.436337	-0.147835	0.003507
 705	3.5200e-01	11.8793	26.765066	0.000152	1.521860	0.515620	-0.012230
 706	3.5250e-01	11.8055	26.545694	0.000546	5.459539	1.849742	-0.043874
 707	3.5300e-01	11.7767	26.644476	-0.000246	-2.458389	-0.832925	0.019756
 708	3.5350e-01	11.7398	26.499083	0.000362	3.618408	1.225950	-0.029079
 709	3.5400e-01	11.6997	26.429380	0.000173	1.734707	0.587735	-0.013941
 710	3.5450e-01	11.6708	26.298099	0.000327	3.267210	1.106961	-0.026256
 711	3.5500e-01	11.6243	26.129187	0.000420	4.203739	1.424265	-0.033782
 712	3.5550e-01	11.5826	26.030406	0.000246	2.458389	0.832925	-0.019756
 713	3.5600e-01	11.5280	26.136029	-0.000263	-2.628667	-0.890617	0.021125
 714	3.5650e-01	11.4991	25.942743	0.000481	4.810354	1.629792	-0.038657
 715	3.5700e-01	11.4671	25.692582	0.000623	6.225790	2.109355	-0.050032
 716	3.5750e-01	11.4237	25.734917	-0.000105	-1.053595	-0.356968	0.008467
 717	3.5800e-01	11.3836	25.603636	0.000327	3.267210	1.106961	-0.026256
 718	3.5850e-01	11.3548	25.462519	0.000351	3.511984	1.189892	-0.028223
 719	3.5900e-01	11.3179	25.406073	0.000140	1.404794	0.475957	-0.011289
 720	3.5950e-01	11.2794	25.276502	0.000322	3.224640	1.092538	-0.025914
 721	3.6000e-01	11.2232	25.167886	0.000270	2.703164	0.915857	-0.021723
 722	3.6050e-01	11.1719	25.159333	0.000021	0.212848	0.072115	-0.001711
 723	3.6100e-01	11.1398	25.057558	0.000253	2.532886	0.858165	-0.020355
 724	3.6150e-01	11.1157	25.000256	0.000143	1.426078	0.483168	-0.011460
 725	3.6200e-01	11.0740	24.862989	0.000342	3.416203	1.157441	-0.027454
 726	3.6250e-01	11.0355	24.765063	0.000244	2.437104	0.825713	-0.019585
 727	3.6300e-01	10.9858	24.631643	0.000332	3.320422	1.124989	-0.026684
 728	3.6350e-01	10.9473	24.529869	0.000253	2.532886	0.858165	-0.020355
 729	3.6400e-01	10.9280	24.505922	0.000060	0.595973	0.201921	-0.004789
 730	3.6450e-01	10.8462	24.453751	0.000130	1.298370	0.439900	-0.010434
 731	3.6500e-01	10.8222	24.310069	0.000358	3.575839	1.211527	-0.028736
 732	3.6550e-01	10.7933	24.256616	0.000133	1.330297	0.450717	-0.010691
 733	3.6600e-01	10.7500	24.040665	0.000537	5.374400	1.820896	-0.043190
 734	3.6650e-01	10.7018	24.082145	-0.000103	-1.032311	-0.349756	0.008296
 735	3.6700e-01	10.6778	24.001751	0.000200	2.000767	0.677878	-0.016079
 736	3.6750e-01	10.6393	23.935469	0.000165	1.649568	0.558889	-0.013256
 737	3.6800e-01	10.5831	23.595080	0.000847	8.471332	2.870165	-0.068078
 738	3.6850e-01	10.5607	23.700703	-0.000263	-2.628667	-0.890617	0.021125
 739	3.6900e-01	10.5141	23.534785	0.000413	4.129242	1.399025	-0.033184
 740	3.6950e-01	10.4660	23.454391	0.000200	2.000767	0.677878	-0.016079
 741	3.7000e-01	10.4147	23.465082	-0.000027	-0.266059	-0.090143	0.002138
 742	3.7050e-01	10.3954	23.304295	0.000400	4.001534	1.355756	-0.032157
 743	3.7100e-01	10.3473	23.264525	0.000099	0.989741	0.335333	-0.007954
 744	3.7150e-01	10.3056	23.059265	0.000511	5.108341	1.730753	-0.041052
 745	3.7200e-01	10.2494	23.001964	0.000143	1.426078	0.483168	-0.011460
 746	3.7250e-01	10.2270	22.955780	0.000115	1.149377	0.389419	-0.009237
 747	3.7300e-01	10.1644	22.798842	0.000391	3.905752	1.323305	-0.031388
 748	3.7350e-01	10.1484	22.939103	-0.000349	-3.490700	-1.182681	0.028052
 749	3.7400e-01	10.1002	22.662429	0.000689	6.885618	2.332910	-0.055335
 750	3.7450e-01	10.0698	22.580325	0.000204	2.043336	0.692301	-0.016421
 751	3.7500e-01	10.0249	22.467432	0.000281	2.809587	0.951914	-0.022579
 752	3.7550e-01	9.9976	22.364802	0.000255	2.554170	0.865376	-0.020526
 753	3.7600e-01	9.9398	22.307500	0.000143	1.426078	0.483168	-0.011460
 754	3.7650e-01	9.8917	22.171943	0.000337	3.373633	1.143018	-0.027111
 755	3.7700e-01	9.8500	22.101385	0.000176	1.755992	0.594946	-0.014112
 756	3.7750e-01	9.8211	22.060760	0.000101	1.011026	0.342545	-0.008125
 757	3.7800e-01	9.7698	21.975235	0.000213	2.128475	0.721147	-0.017105
 758	3.7850e-01	9.7409	21.848231	0.000316	3.160786	1.070903	-0.025401
 759	3.7900e-01	9.7136	21.728068	0.000299	2.990508	1.013211	-0.024033
 760	3.7950e-01	9.6623	21.698562	0.000073	0.734324	0.248796	-0.005901
 761	3.8000e-01	9.6334	21.483039	0.000536	5.363758	1.817290	-0.043105
 762	3.8050e-01	9.5789	21.521952	-0.000097	-0.968456	-0.328122	0.007783
 763	3.8100e-01	9.5468	21.417612	0.000260	2.596740	0.879799	-0.020868
 764	3.8150e-01	9.5099	21.339356	0.000195	1.947555	0.659849	-0.015651
 765	3.8200e-01	9.4698	21.178997	0.000399	3.990891	1.352151	-0.032072
 766	3.8250e-01	9.4361	21.133241	0.000114	1.138734	0.385814	-0.009151
 767	3.8300e-01	9.3719	20.982289	0.000376	3.756759	1.272824	-0.030190
 768	3.8350e-01	9.3366	20.984000	-0.000004	-0.042570	-0.014423	0.000342
 769	3.8400e-01	9.3013	20.865120	0.000296	2.958581	1.002394	-0.023776
 770	3.8450e-01	9.2757	20.702195	0.000405	4.054746	1.373785	-0.032585
 771	3.8500e-01	9.2308	20.566638	0.000337	3.373633	1.143018	-0.027111
 772	3.8550e-01	9.1730	20.559796	0.000017	0.170278	0.057692	-0.001368
 773	3.8600e-01	9.1554	20.349404	0.000524	5.236049	1.774022	-0.042078
 774	3.8650e-01	9.1249	20.374634	-0.000063	-0.627900	-0.212738	0.005046
 775	3.8700e-01	9.0559	20.201446	0.000431	4.310163	1.460323	-0.034638
 776	3.8750e-01	9.0431	20.131743	0.000173	1.734707	0.587735	-0.013941
 777	3.8800e-01	8.9725	20.034672	0.000242	2.415820	0.818502	-0.019414
 778	3.8850e-01	8.9548	20.002600	0.000080	0.798178	0.270430	-0.006414
 779	3.8900e-01	8.9019	19.834971	0.000417	4.171812	1.413448	-0.033526
 780	3.8950e-01	8.8602	19.892700	-0.000144	-1.436721	-0.486774	0.011546
 781	3.9000e-01	8.8169	19.593362	0.000745	7.449664	2.524014	-0.059868
 782	3.9050e-01	8.7848	19.550172	0.000107	1.074880	0.364179	-0.008638
 783	3.9100e-01	8.7399	19.484318	0.000164	1.638926	0.555283	-0.013171
 784	3.9150e-01	8.6885	19.461654	0.000056	0.564046	0.191104	-0.004533
 785	3.9200e-01	8.6500	19.379977	0.000203	2.032694	0.688695	-0.016335
 786	3.9250e-01	8.6211	19.281624	0.000245	2.447747	0.829319	-0.019671
 787	3.9300e-01	8.5842	19.041726	0.000597	5.970373	2.022817	-0.047980
 788	3.9350e-01	8.5554	19.031463	0.000026	0.255417	0.086538	-0.002053
 789	3.9400e-01	8.5233	18.868965	0.000404	4.044103	1.370179	-0.032500
 790	3.9450e-01	8.4543	18.842025	0.000067	0.670470	0.227161	-0.005388
 791	3.9500e-01	8.4238	18.706040	0.000338	3.384276	1.146624	-0.027197
 792	3.9550e-01	8.3837	18.629067	0.000192	1.915628	0.649032	-0.015395
 793	3.9600e-01	8.3484	18.491372	0.000343	3.426845	1.161047	-0.027539
 794	3.9650e-01	8.3083	18.419103	0.000180	1.798562	0.609369	-0.014454
 795	3.9700e-01	8.2762	18.386604	0.000081	0.808821	0.274036	-0.006500
 796	3.9750e-01	8.2265	18.231376	0.000386	3.863183	1.308882	-0.031046
 797	3.9800e-01	8.1848	18.286112	-0.000136	-1.362224	-0.461534	0.010947
 798	3.9850e-01	8.1351	18.097957	0.000468	4.682646	1.586523	-0.037631
 799	3.9900e-01	8.0789	17.888420	0.000521	5.214765	1.766810	-0.041907
 800	3.9950e-01	8.0613	17.991051	-0.000255	-2.554170	-0.865376	0.020526
 801	4.0000e-01	8.0388	17.866184	0.000311	3.107574	1.052875	-0.024973
 802	4.0050e-01	7.9602	17.752008	0.000284	2.841515	0.962731	-0.022835
 803	4.0100e-01	7.9361	17.589510	0.000404	4.044103	1.370179	-0.032500
 804	4.0150e-01	7.9073	17.541189	0.000120	1.202589	0.407448	-0.009664
 805	4.0200e-01	7.8623	17.306850	0.000583	5.832022	1.975943	-0.046868
 806	4.0250e-01	7.8287	17.406487	-0.000248	-2.479674	-0.840136	0.019927
 807	4.0300e-01	7.7773	17.249548	0.000391	3.905752	1.323305	-0.031388
 808	4.0350e-01	7.7565	17.096031	0.000382	3.820613	1.294459	-0.030703
 809	4.0400e-01	7.7148	16.953204	0.000355	3.554554	1.204315	-0.028565
 810	4.0450e-01	7.6795	16.993401	-0.000100	-1.000383	-0.338939	0.008039
 811	4.0500e-01	7.6153	16.920277	0.000182	1.819846	0.616581	-0.014625
 812	4.0550e-01	7.5816	16.768898	0.000377	3.767401	1.276430	-0.030276
 813	4.0600e-01	7.5431	16.644886	0.000309	3.086289	1.045663	-0.024802
 814	4.0650e-01	7.5174	16.656432	-0.000029	-0.287344	-0.097355	0.002309
 815	4.0700e-01	7.4501	16.410548	0.000612	6.119367	2.073298	-0.049177
 816	4.0750e-01	7.4260	16.562782	-0.000379	-3.788686	-1.283642	0.030447
 817	4.0800e-01	7.3843	16.305352	0.000641	6.406711	2.170652	-0.051486
 818	4.0850e-01	7.3442	16.232655	0.000181	1.809204	0.612975	-0.014539
 819	4.0900e-01	7.2977	15.988054	0.000609	6.087439	2.062480	-0.048920
 820	4.0950e-01	7.2704	16.037231	-0.000122	-1.223873	-0.414660	0.009835
 821	4.1000e-01	7.2174	15.975225	0.000154	1.543145	0.522832	-0.012401
 822	4.1050e-01	7.1934	15.815293	0.000398	3.980249	1.348545	-0.031986
 823	4.1100e-01	7.1453	15.721216	0.000234	2.341323	0.793262	-0.018816
 824	4.1150e-01	7.1100	15.637401	0.000209	2.085906	0.706724	-0.016763
 825	4.1200e-01	7.0650	15.581810	0.000138	1.383509	0.468746	-0.011118
 826	4.1250e-01	7.0297	15.454805	0.000316	3.160786	1.070903	-0.025401
 827	4.1300e-01	6.9832	15.197802	0.000640	6.396068	2.167047	-0.051401
 828	4.1350e-01	6.9351	15.279479	-0.000203	-2.032694	-0.688695	0.016335
 829	4.1400e-01	6.9158	15.186684	0.000231	2.309396	0.782444	-0.018559
 830	4.1450e-01	6.8629	15.144777	0.000104	1.042953	0.353362	-0.008381
 831	4.1500e-01	6.8164	14.916852	0.000567	5.672387	1.921857	-0.045585
 832	4.1550e-01	6.7715	14.978430	-0.000153	-1.532502	-0.519226	0.012316
 833	4.1600e-01	6.7474	14.807380	0.000426	4.256951	1.442294	-0.034210
 834	4.1650e-01	6.7073	14.770177	0.000093	0.925887	0.313699	-0.007441
 835	4.1700e-01	6.6544	14.528569	0.000601	6.012943	2.037240	-0.048322
 836	4.1750e-01	6.6319	14.577746	-0.000122	-1.223873	-0.414660	0.009835
 837	4.1800e-01	6.5758	14.345973	0.000577	5.768168	1.954308	-0.046355
 838	4.1850e-01	6.5405	14.349821	-0.000010	-0.095781	-0.032452	0.000770
 839	4.1900e-01	6.5180	14.156107	0.000482	4.820997	1.633398	-0.038743
 840	4.1950e-01	6.5180	13.804599	0.000875	8.748034	2.963914	-0.070302
 841	4.2000e-01	6.4266	13.948281	-0.000358	-3.575839	-1.211527	0.028736
 842	4.2050e-01	6.3768	13.923479	0.000062	0.617258	0.209133	-0.004960
 843	4.2100e-01	6.3431	13.799468	0.000309	3.086289	1.045663	-0.024802
 844	4.2150e-01	6.3078	13.757988	0.000103	1.032311	0.349756	-0.008296
 845	4.2200e-01	6.2645	13.717791	0.000100	1.000383	0.338939	-0.008039
 846	4.2250e-01	6.2260	13.550590	0.000416	4.161169	1.409842	-0.033440
 847	4.2300e-01	6.1763	13.462927	0.000218	2.181687	0.739176	-0.017533
 848	4.2350e-01	6.1378	13.436841	0.000065	0.649185	0.219950	-0.005217
 849	4.2400e-01	6.1041	13.276054	0.000400	4.001534	1.355756	-0.032157
 850	4.2450e-01	6.0640	13.195233	0.000201	2.011409	0.681484	-0.016164
 851	4.2500e-01	6.0255	12.985269	0.000523	5.225407	1.770416	-0.041993
 852	4.2550e-01	5.9966	12.918560	0.000166	1.660211	0.562495	-0.013342
 853	4.2600e-01	5.9501	12.935665	-0.000043	-0.425695	-0.144229	0.003421
 854	4.2650e-01	5.9164	12.767180	0.000419	4.193096	1.420660	-0.033697
 855	4.2700e-01	5.8683	12.592281	0.000435	4.352732	1.474746	-0.034980
 856	4.2750e-01	5.8121	12.575176	0.000043	0.425695	0.144229	-0.003421
 857	4.2800e-01	5.7736	12.514454	0.000151	1.511217	0.512014	-0.012145
 858	4.2850e-01	5.7399	12.413106	0.000252	2.522243	0.854559	-0.020269
 859	4.2900e-01	5.7047	12.319029	0.000234	2.341323	0.793262	-0.018816
 860	4.2950e-01	5.6694	12.150545	0.000419	4.193096	1.420660	-0.033697
 861	4.3000e-01	5.6132	12.118473	0.000080	0.798178	0.270430	-0.006414
 862	4.3050e-01	5.5908	12.009001	0.000272	2.724448	0.923068	-0.021894
 863	4.3100e-01	5.5587	11.775945	0.000580	5.800095	1.965125	-0.046611
 864	4.3150e-01	5.5041	11.856766	-0.000201	-2.011409	-0.681484	0.016164
 865	4.3200e-01	5.4640	11.792622	0.000160	1.596357	0.540860	-0.012829
 866	4.3250e-01	5.4191	11.625848	0.000415	4.150527	1.406237	-0.033355
 867	4.3300e-01	5.3950	11.578810	0.000117	1.170661	0.396631	-0.009408
 868	4.3350e-01	5.3453	11.416312	0.000404	4.044103	1.370179	-0.032500
 869	4.3400e-01	5.3116	11.367563	0.000121	1.213231	0.411054	-0.009750
 870	4.3450e-01	5.2507	11.242268	0.000312	3.118216	1.056480	-0.025059
 871	4.3500e-01	5.2218	11.217894	0.000061	0.606615	0.205527	-0.004875
 872	4.3550e-01	5.1753	11.074639	0.000357	3.565196	1.207921	-0.028651
 873	4.3600e-01	5.1335	10.929674	0.000361	3.607766	1.222344	-0.028993
 874	4.3650e-01	5.0999	10.888195	0.000103	1.032311	0.349756	-0.008296
 875	4.3700e-01	5.0678	10.780433	0.000268	2.681879	0.908645	-0.021552
 876	4.3750e-01	5.0325	10.734250	0.000115	1.149377	0.389419	-0.009237
 877	4.3800e-01	4.9924	10.498200	0.000587	5.874592	1.990366	-0.047210
 878	4.3850e-01	4.9410	10.452445	0.000114	1.138734	0.385814	-0.009151
 879	4.3900e-01	4.8993	10.409682	0.000106	1.064238	0.360573	-0.008553
 880	4.3950e-01	4.8721	10.216395	0.000481	4.810354	1.629792	-0.038657
 881	4.4000e-01	4.8191	10.160804	0.000138	1.383509	0.468746	-0.011118
 882	4.4050e-01	4.7790	10.051332	0.000272	2.724448	0.923068	-0.021894
 883	4.4100e-01	4.7213	10.151824	-0.000250	-2.500959	-0.847348	0.020098
 884	4.4150e-01	4.7020	9.882420	0.000670	6.704697	2.271613	-0.053881
 885	4.4200e-01	4.6779	9.758836	0.000308	3.075647	1.042057	-0.024717
 886	4.4250e-01	4.6234	9.714363	0.000111	1.106807	0.374996	-0.008895
 887	4.4300e-01	4.5993	9.596339	0.000294	2.937296	0.995183	-0.023605
 888	4.4350e-01	4.5416	9.503544	0.000231	2.309396	0.782444	-0.018559
 889	4.4400e-01	4.4935	9.510386	-0.000017	-0.170278	-0.057692	0.001368
 890	4.4450e-01	4.4774	9.325652	0.000460	4.597507	1.557677	-0.036947
 891	4.4500e-01	4.4277	9.169141	0.000390	3.895110	1.319699	-0.031302
 892	4.4550e-01	4.3796	9.136214	0.000082	0.819463	0.277642	-0.006585
 893	4.4600e-01	4.3747	9.015624	0.000300	3.001150	1.016817	-0.024118
 894	4.4650e-01	4.2769	9.009637	0.000015	0.148993	0.050480	-0.001197
 895	4.4700e-01	4.2448	8.965164	0.000111	1.106807	0.374996	-0.008895
 896	4.4750e-01	4.2272	8.765463	0.000497	4.969990	1.683878	-0.039940
 897	4.4800e-01	4.1887	8.706451	0.000147	1.468648	0.497591	-0.011802
 898	4.4850e-01	4.1389	8.576880	0.000322	3.224640	1.092538	-0.025914
 899	4.4900e-01	4.1149	8.460138	0.000291	2.905369	0.984366	-0.023348
 900	4.4950e-01	4.0667	8.398133	0.000154	1.543145	0.522832	-0.012401
 901	4.5000e-01	4.0314	8.396850	0.000003	0.031927	0.010817	-0.000257
 902	4.5050e-01	3.9737	8.167643	0.000570	5.704314	1.932674	-0.045841
 903	4.5100e-01	3.9496	8.052184	0.000287	2.873442	0.973548	-0.023092
 904	4.5150e-01	3.8903	7.877713	0.000434	4.342090	1.471140	-0.034894
 905	4.5200e-01	3.8518	7.881561	-0.000010	-0.095781	-0.032452	0.000770
 906	4.5250e-01	3.8084	7.793471	0.000219	2.192330	0.742781	-0.017618
 907	4.5300e-01	3.7828	7.603605	0.000473	4.725215	1.600946	-0.037973
 908	4.5350e-01	3.7539	7.545876	0.000144	1.436721	0.486774	-0.011546
 909	4.5400e-01	3.7170	7.502685	0.000107	1.074880	0.364179	-0.008638
 910	4.5450e-01	3.6512	7.498837	0.000010	0.095781	0.032452	-0.000770
 911	4.5500e-01	3.6143	7.319234	0.000447	4.469798	1.514409	-0.035921
 912	4.5550e-01	3.5823	7.188808	0.000325	3.245925	1.099749	-0.026085
 913	4.5600e-01	3.5646	7.067363	0.000302	3.022435	1.024029	-0.024289
 914	4.5650e-01	3.4924	6.925819	0.000352	3.522627	1.193498	-0.028309
 915	4.5700e-01	3.4732	6.969009	-0.000107	-1.074880	-0.364179	0.008638
 916	4.5750e-01	3.4218	6.832597	0.000339	3.394918	1.150229	-0.027282
 917	4.5800e-01	3.3978	6.718848	0.000283	2.830872	0.959125	-0.022750
 918	4.5850e-01	3.3528	6.593554	0.000312	3.118216	1.056480	-0.025059
 919	4.5900e-01	3.2983	6.519147	0.000185	1.851774	0.627398	-0.014881
 920	4.5950e-01	3.2887	6.376748	0.000354	3.543911	1.200710	-0.028480
 921	4.6000e-01	3.2373	6.292506	0.000210	2.096548	0.710330	-0.016848
 922	4.6050e-01	3.1972	6.211685	0.000201	2.011409	0.681484	-0.016164
 923	4.6100e-01	3.1555	6.130864	0.000201	2.011409	0.681484	-0.016164
 924	4.6150e-01	3.1122	6.078693	0.000130	1.298370	0.439900	-0.010434
 925	4.6200e-01	3.0609	5.911492	0.000416	4.161169	1.409842	-0.033440
 926	4.6250e-01	3.0160	5.949978	-0.000096	-0.957814	-0.324516	0.007697
 927	4.6300e-01	2.9871	5.748567	0.000501	5.012559	1.698301	-0.040282
 928	4.6350e-01	2.9630	5.634818	0.000283	2.830872	0.959125	-0.022750
 929	4.6400e-01	2.9101	5.508241	0.000315	3.150144	1.067298	-0.025315
 930	4.6450e-01	2.8539	5.682285	-0.000433	-4.331447	-1.467534	0.034809
 931	4.6500e-01	2.8251	5.378243	0.000757	7.566730	2.563677	-0.060808
 932	4.6550e-01	2.7962	5.199068	0.000446	4.459156	1.510803	-0.035835
 933	4.6600e-01	2.7432	5.347882	-0.000370	-3.703547	-1.254796	0.029763
 934	4.6650e-01	2.6871	5.002360	0.000860	8.599040	2.913434	-0.069104
 935	4.6700e-01	2.6582	5.122951	-0.000300	-3.001150	-1.016817	0.024118
 936	4.6750e-01	2.6277	4.896737	0.000563	5.629817	1.907434	-0.045243
 937	4.6800e-01	2.5716	4.869797	0.000067	0.670470	0.227161	-0.005388
 938	4.6850e-01	2.5507	4.641872	0.000567	5.672387	1.921857	-0.045585
 939	4.6900e-01	2.5010	4.558058	0.000209	2.085906	0.706724	-0.016763
 940	4.6950e-01	2.4705	4.498190	0.000149	1.489933	0.504803	-0.011974
 941	4.7000e-01	2.4256	4.395560	0.000255	2.554170	0.865376	-0.020526
 942	4.7050e-01	2.3871	4.344673	0.000127	1.266443	0.429082	-0.010177
 943	4.7100e-01	2.3406	4.204839	0.000348	3.480057	1.179075	-0.027967
 944	4.7150e-01	2.3117	4.120597	0.000210	2.096548	0.710330	-0.016848
 945	4.7200e-01	2.2684	4.041914	0.000196	1.958197	0.663455	-0.015737
 946	4.7250e-01	2.2058	3.987606	0.000135	1.351582	0.457928	-0.010862
 947	4.7300e-01	2.1946	3.882837	0.000261	2.607382	0.883405	-0.020954
 948	4.7350e-01	2.1400	3.752839	0.000324	3.235283	1.096143	-0.026000
 949	4.7400e-01	2.1015	3.479159	0.000681	6.811121	2.307670	-0.054736
 950	4.7450e-01	2.0518	3.617710	-0.000345	-3.448130	-1.168258	0.027710
 951	4.7500e-01	2.0261	3.471462	0.000364	3.639693	1.233161	-0.029250
 952	4.7550e-01	1.9732	3.386792	0.000211	2.107191	0.713935	-0.016934
 953	4.7600e-01	1.9556	3.187091	0.000497	4.969990	1.683878	-0.039940
 954	4.7650e-01	1.9299	3.113540	0.000183	1.830489	0.620186	-0.014710
 955	4.7700e-01	1.8737	3.019462	0.000234	2.341323	0.793262	-0.018816
 956	4.7750e-01	1.8272	2.869366	0.000374	3.735474	1.265613	-0.030019
 957	4.7800e-01	1.7983	2.842853	0.000066	0.659827	0.223556	-0.005303
 958	4.7850e-01	1.7518	2.863806	-0.000052	-0.521476	-0.176681	0.004191
 959	4.7900e-01	1.6989	2.517858	0.000861	8.609683	2.917039	-0.069190
 960	4.7950e-01	1.6652	2.574732	-0.000142	-1.415436	-0.479563	0.011375
 961	4.8000e-01	1.6171	2.544798	0.000074	0.744966	0.252401	-0.005987
 962	4.8050e-01	1.5754	2.484930	0.000149	1.489933	0.504803	-0.011974
 963	4.8100e-01	1.5481	2.301052	0.000458	4.576222	1.550466	-0.036776
 964	4.8150e-01	1.5144	2.194573	0.000265	2.649952	0.897828	-0.021296
 965	4.8200e-01	1.4422	2.094936	0.000248	2.479674	0.840136	-0.019927
 966	4.8250e-01	1.4262	2.039345	0.000138	1.383509	0.468746	-0.011118
 967	4.8300e-01	1.3861	1.937998	0.000252	2.522243	0.854559	-0.020269
 968	4.8350e-01	1.3299	1.766092	0.000428	4.278235	1.449505	-0.034381
 969	4.8400e-01	1.3091	1.732310	0.000084	0.840748	0.284853	-0.006756
 970	4.8450e-01	1.2689	1.462051	0.000673	6.725982	2.278824	-0.054052
 971	4.8500e-01	1.2208	1.432545	0.000073	0.734324	0.248796	-0.005901
 972	4.8550e-01	1.1615	1.511655	-0.000197	-1.968840	-0.667061	0.015822
 973	4.8600e-01	1.1358	1.358565	0.000381	3.809971	1.290853	-0.030618
 974	4.8650e-01	1.0941	1.333763	0.000062	0.617258	0.209133	-0.004960
 975	4.8700e-01	1.0813	1.053241	0.000698	6.981399	2.365362	-0.056104
 976	4.8750e-01	1.0235	1.083602	-0.000076	-0.755609	-0.256007	0.006072
 977	4.8800e-01	0.9930	0.852685	0.000575	5.746883	1.947097	-0.046184
 978	4.8850e-01	0.9481	0.757324	0.000237	2.373250	0.804079	-0.019072
 979	4.8900e-01	0.9112	0.630320	0.000316	3.160786	1.070903	-0.025401
 980	4.8950e-01	0.8599	0.769298	-0.000346	-3.458772	-1.171864	0.027796
 981	4.9000e-01	0.8230	0.548643	0.000549	5.491466	1.860559	-0.044131
 982	4.9050e-01	0.7748	0.490059	0.000146	1.458006	0.493986	-0.011717
 983	4.9100e-01	0.7492	0.415224	0.000186	1.862416	0.631004	-0.014967
 984	4.9150e-01	0.7027	0.308318	0.000266	2.660594	0.901434	-0.021381
 985	4.9200e-01	0.6658	0.241608	0.000166	1.660211	0.562495	-0.013342
 986	4.9250e-01	0.6224	0.105623	0.000338	3.384276	1.146624	-0.027197
 987	4.9300e-01	0.6000	-0.125294	0.000575	5.746883	1.947097	-0.046184
 988	4.9350e-01	0.5406	-0.057729	-0.000168	-1.681496	-0.569706	0.013513
 989	4.9400e-01	0.5085	-0.235194	0.000442	4.416586	1.496380	-0.035493
 990	4.9450e-01	0.4732	-0.240325	0.000013	0.127709	0.043269	-0.001026
 991	4.9500e-01	0.4331	-0.389139	0.000370	3.703547	1.254796	-0.029763
 992	4.9550e-01	0.3674	-0.434895	0.000114	1.138734	0.385814	-0.009151
 993	4.9600e-01	0.3449	-0.632458	0.000492	4.916778	1.665849	-0.039513
 994	4.9650e-01	0.3112	-0.772291	0.000348	3.480057	1.179075	-0.027967
 995	4.9700e-01	0.2679	-0.735515	-0.000092	-0.915244	-0.310093	0.007355
 996	4.9750e-01	0.2294	-0.791107	0.000138	1.383509	0.468746	-0.011118
 997	4.9800e-01	0.1893	-0.984393	0.000481	4.810354	1.629792	-0.038657
 998	4.9850e-01	0.1396	-1.147319	0.000405	4.054746	1.373785	-0.032585
 999	4.9900e-01	0.1043	-1.230706	0.000208	2.075263	0.703118	-0.016677
1000	4.9950e-01	0.0465	-1.325211	0.000235	2.351965	0.796867	-0.018901
1001	5.0000e-01	0.0754	-1.432545	-0.000267	-2.671237	-0.905039	-0.021467
1002	5.0050e-01	-0.0112	-1.497971	0.000163	1.628284	0.551677	-0.013085
1003	5.0100e-01	-0.0529	-1.587345	0.000222	2.224257	0.753599	-0.017875
1004	5.0150e-01	-0.0802	-1.601029	0.000034	0.340556	0.115384	-0.002737
1005	5.0200e-01	-0.1299	-1.668594	0.000168	1.681496	0.569706	-0.013513
1006	5.0250e-01	-0.1604	-1.983754	0.000784	7.843432	2.657427	-0.063032
1007	5.0300e-01	-0.1893	-1.924741	-0.000147	-1.468648	-0.497591	0.011802
1008	5.0350e-01	-0.2310	-1.983754	0.000147	1.468648	0.497591	-0.011802
1009	5.0400e-01	-0.2872	-2.114179	0.000325	3.245925	1.099749	-0.026085
1010	5.0450e-01	-0.3192	-2.261710	0.000367	3.671620	1.243979	-0.029506
1011	5.0500e-01	-0.3786	-2.264276	0.000006	0.063854	0.021634	-0.000513
1012	5.0550e-01	-0.3930	-2.469536	0.000511	5.108341	1.730753	-0.041052
1013	5.0600e-01	-0.4428	-2.542660	0.000182	1.819846	0.616581	-0.014625
1014	5.0650e-01	-0.4861	-2.557199	0.000036	0.361841	0.122595	-0.002908
1015	5.0700e-01	-0.5182	-2.584140	0.000067	0.670470	0.227161	-0.005388
1016	5.0750e-01	-0.5599	-2.845846	0.000651	6.513135	2.206710	-0.052341
1017	5.0800e-01	-0.6208	-2.796669	-0.000122	-1.223873	-0.414660	0.009835
1018	5.0850e-01	-0.6433	-2.944200	0.000367	3.671620	1.243979	-0.029506
1019	5.0900e-01	-0.6946	-3.031436	0.000217	2.171045	0.735570	-0.017447
1020	5.0950e-01	-0.7219	-3.120382	0.000221	2.213614	0.749993	-0.017789
1021	5.1000e-01	-0.7716	-3.239261	0.000296	2.958581	1.002394	-0.023776
1022	5.1050e-01	-0.8037	-3.470607	0.000576	5.757526	1.950703	-0.046269
1023	5.1100e-01	-0.8486	-3.474883	0.000011	0.106424	0.036057	-0.000855
1024	5.1150e-01	-0.8791	-3.514652	0.000099	0.989741	0.335333	-0.007954
1025	5.1200e-01	-0.9353	-3.709222	0.000484	4.842281	1.640609	-0.038914
1026	5.1250e-01	-0.9738	-3.745997	0.000092	0.915244	0.310093	-0.007355
1027	5.1300e-01	-1.0267	-3.767379	0.000053	0.532119	0.180287	-0.004276
1028	5.1350e-01	-1.0476	-4.043197	0.000686	6.864333	2.325699	-0.055164
1029	5.1400e-01	-1.0925	-4.047473	0.000011	0.106424	0.036057	-0.000855
1030	5.1450e-01	-1.1358	-4.073558	0.000065	0.649185	0.219950	-0.005217
1031	5.1500e-01	-1.1695	-4.206977	0.000332	3.320422	1.124989	-0.026684
1032	5.1550e-01	-1.2016	-4.307469	0.000250	2.500959	0.847348	-0.020098
1033	5.1600e-01	-1.2272	-4.614077	0.000763	7.630584	2.585312	-0.061321
1034	5.1650e-01	-1.3042	-4.306187	-0.000766	-7.662511	-2.596129	0.061578
1035	5.1700e-01	-1.3299	-4.530690	0.000559	5.587248	1.893011	-0.044901
1036	5.1750e-01	-1.3540	-4.688911	0.000394	3.937679	1.334122	-0.031644
1037	5.1800e-01	-1.4085	-4.756904	0.000169	1.692138	0.573312	-0.013598
1038	5.1850e-01	-1.4438	-4.937361	0.000449	4.491083	1.521620	-0.036092
1039	5.1900e-01	-1.5064	-4.964729	0.000068	0.681112	0.230767	-0.005474
1040	5.1950e-01	-1.5561	-5.057952	0.000232	2.320038	0.786050	-0.018644
1041	5.2000e-01	-1.5593	-5.182391	0.000310	3.096932	1.049269	-0.024888
1042	5.2050e-01	-1.5834	-5.395776	0.000531	5.310546	1.799262	-0.042677
1043	5.2100e-01	-1.6251	-5.659193	0.000656	6.555704	2.221133	-0.052683
1044	5.2150e-01	-1.6957	-5.397486	-0.000651	-6.513135	-2.206710	0.052341
1045	5.2200e-01	-1.7262	-5.569392	0.000428	4.278235	1.449505	-0.034381
1046	5.2250e-01	-1.7711	-5.582220	0.000032	0.319271	0.108172	-0.002566
1047	5.2300e-01	-1.8064	-5.719916	0.000343	3.426845	1.161047	-0.027539
1048	5.2350e-01	-1.8529	-5.772941	0.000132	1.319655	0.447111	-0.010605
1049	5.2400e-01	-1.8882	-6.011128	0.000593	5.927804	2.008394	-0.047637
1050	5.2450e-01	-1.9058	-6.062016	0.000127	1.266443	0.429082	-0.010177
1051	5.2500e-01	-1.9684	-6.062871	0.000002	0.021285	0.007211	-0.000171
1052	5.2550e-01	-2.0149	-6.217671	0.000385	3.852540	1.305276	-0.030960
1053	5.2600e-01	-2.0470	-6.168922	-0.000121	-1.213231	-0.411054	0.009750
1054	5.2650e-01	-2.0951	-6.416945	0.000617	6.172579	2.091326	-0.049605
1055	5.2700e-01	-2.1272	-6.529410	0.000280	2.798945	0.948308	-0.022493
1056	5.2750e-01	-2.1802	-6.555923	0.000066	0.659827	0.223556	-0.005303
1057	5.2800e-01	-2.2138	-6.751775	0.000487	4.874209	1.651427	-0.039170
1058	5.2850e-01	-2.2459	-6.776150	0.000061	0.606615	0.205527	-0.004875
1059	5.2900e-01	-2.2748	-6.855688	0.000198	1.979482	0.670667	-0.015908
1060	5.2950e-01	-2.3598	-6.927957	0.000180	1.798562	0.609369	-0.014454
1061	5.3000e-01	-2.3887	-6.949338	0.000053	0.532119	0.180287	-0.004276
1062	5.3050e-01	-2.4047	-7.094731	0.000362	3.618408	1.225950	-0.029079
1063	5.3100e-01	-2.4593	-7.233282	0.000345	3.448130	1.168258	-0.027710
1064	5.3150e-01	-2.4914	-7.406470	0.000431	4.310163	1.460323	-0.034638
1065	5.3200e-01	-2.5283	-7.282886	-0.000308	-3.075647	-1.042057	0.024717
1066	5.3250e-01	-2.5636	-7.456502	0.000432	4.320805	1.463928	-0.034723
1067	5.3300e-01	-2.5989	-7.775938	0.000795	7.949855	2.693484	-0.063887
1068	5.3350e-01	-2.6582	-7.696400	-0.000198	-1.979482	-0.670667	0.015908
1069	5.3400e-01	-2.6903	-7.896528	0.000498	4.980632	1.687484	-0.040026
1070	5.3450e-01	-2.7336	-7.903370	0.000017	0.170278	0.057692	-0.001368
1071	5.3500e-01	-2.7737	-7.930738	0.000068	0.681112	0.230767	-0.005474
1072	5.3550e-01	-2.7946	-8.068861	0.000344	3.437488	1.164652	-0.027625
1073	5.3600e-01	-2.8443	-8.259582	0.000475	4.746500	1.608158	-0.038144
1074	5.3650e-01	-2.8700	-8.297641	0.000095	0.947172	0.320910	-0.007612
1075	5.3700e-01	-2.8956	-8.472967	0.000436	4.363374	1.478351	-0.035065
1076	5.3750e-01	-2.9726	-8.540960	0.000169	1.692138	0.573312	-0.013598
1077	5.3800e-01	-3.0127	-8.509743	-0.000078	-0.776894	-0.263219	0.006243
1078	5.3850e-01	-3.0384	-8.697470	0.000467	4.672003	1.582918	-0.037545
1079	5.3900e-01	-3.0817	-8.701319	0.000010	0.095781	0.032452	-0.000770
1080	5.3950e-01	-3.1395	-8.793259	0.000229	2.288111	0.775233	-0.018388
1081	5.4000e-01	-3.1780	-8.802666	0.000023	0.234132	0.079326	-0.001882
1082	5.4050e-01	-3.2020	-9.060524	0.000642	6.417353	2.174258	-0.051572
1083	5.4100e-01	-3.2582	-9.092169	0.000079	0.787536	0.266824	-0.006329
1084	5.4150e-01	-3.2967	-9.244831	0.000380	3.799328	1.287247	-0.030532
1085	5.4200e-01	-3.3320	-9.308547	0.000159	1.585714	0.537254	-0.012743
1086	5.4250e-01	-3.3817	-9.398348	0.000223	2.234899	0.757204	-0.017960
1087	5.4300e-01	-3.4218	-9.442394	0.000110	1.096165	0.371391	-0.008809
1088	5.4350e-01	-3.4539	-9.500551	0.000145	1.447363	0.490380	-0.011631
1089	5.4400e-01	-3.4684	-9.695120	0.000484	4.842281	1.640609	-0.038914
1090	5.4450e-01	-3.5101	-9.760975	0.000164	1.638926	0.555283	-0.013171
1091	5.4500e-01	-3.5871	-9.751994	-0.000022	-0.223490	-0.075720	0.001796
1092	5.4550e-01	-3.5999	-9.914920	0.000405	4.054746	1.373785	-0.032585
1093	5.4600e-01	-3.6352	-9.967518	0.000131	1.309012	0.443505	-0.010520
1094	5.4650e-01	-3.6978	-10.034655	0.000167	1.670853	0.566100	-0.013427
1095	5.4700e-01	-3.7234	-10.229652	0.000485	4.852924	1.644215	-0.038999
1096	5.4750e-01	-3.7716	-10.319453	0.000223	2.234899	0.757204	-0.017960
1097	5.4800e-01	-3.7972	-10.429780	0.000275	2.745733	0.930280	-0.022065
1098	5.4850e-01	-3.8325	-10.566621	0.000341	3.405561	1.153835	-0.027368
1099	5.4900e-01	-3.8983	-10.567048	0.000001	0.010642	0.003606	-0.000086
1100	5.4950e-01	-3.9240	-10.681224	0.000284	2.841515	0.962731	-0.022835
1101	5.5000e-01	-3.9737	-10.855268	0.000433	4.331447	1.467534	-0.034809
1102	5.5050e-01	-3.9945	-10.893754	0.000096	0.957814	0.324516	-0.007697
1103	5.5100e-01	-4.0491	-11.056679	0.000405	4.054746	1.373785	-0.032585
1104	5.5150e-01	-4.0892	-11.042995	-0.000034	-0.340556	-0.115384	0.002737
1105	5.5200e-01	-4.1309	-11.115691	0.000181	1.809204	0.612975	-0.014539
1106	5.5250e-01	-4.1614	-11.286741	0.000426	4.256951	1.442294	-0.034210
1107	5.5300e-01	-4.2255	-11.389372	0.000255	2.554170	0.865376	-0.020526
1108	5.5350e-01	-4.2400	-11.319241	-0.000175	-1.745350	-0.591341	0.014026
1109	5.5400e-01	-4.2785	-11.474469	0.000386	3.863183	1.308882	-0.031046
1110	5.5450e-01	-4.3298	-11.618151	0.000358	3.575839	1.211527	-0.028736
1111	5.5500e-01	-4.3443	-11.793050	0.000435	4.352732	1.474746	-0.034980
1112	5.5550e-01	-4.4229	-11.785353	-0.000019	-0.191563	-0.064903	0.001539
1113	5.5600e-01	-4.4614	-11.829826	0.000111	1.106807	0.374996	-0.008895
1114	5.5650e-01	-4.4854	-12.073144	0.000606	6.055512	2.051663	-0.048664
1115	5.5700e-01	-4.5079	-12.106927	0.000084	0.840748	0.284853	-0.006756
1116	5.5750e-01	-4.5608	-12.273701	0.000415	4.150527	1.406237	-0.033355
1117	5.5800e-01	-4.6138	-12.308338	0.000086	0.862033	0.292065	-0.006928
1118	5.5850e-01	-4.6523	-12.391725	0.000208	2.075263	0.703118	-0.016677
1119	5.5900e-01	-4.6892	-12.430211	0.000096	0.957814	0.324516	-0.007697
1120	5.5950e-01	-4.7148	-12.561065	0.000326	3.256567	1.103355	-0.026171
1121	5.6000e-01	-4.7726	-12.762049	0.000500	5.001917	1.694695	-0.040197
1122	5.6050e-01	-4.8111	-12.794548	0.000081	0.808821	0.274036	-0.006500
1123	5.6100e-01	-4.8640	-12.839021	0.000111	1.106807	0.374996	-0.008895
1124	5.6150e-01	-4.8929	-12.885632	0.000116	1.160019	0.393025	-0.009322
1125	5.6200e-01	-4.9330	-12.991683	0.000264	2.639309	0.894222	-0.021210
1126	5.6250e-01	-4.9699	-13.113984	0.000304	3.043720	1.031240	-0.024460
1127	5.6300e-01	-4.9988	-13.217470	0.000258	2.575455	0.872588	-0.020697
1128	5.6350e-01	-5.0549	-13.317106	0.000248	2.479674	0.840136	-0.019927
1129	5.6400e-01	-5.1031	-13.330790	0.000034	0.340556	0.115384	-0.002737
1130	5.6450e-01	-5.1416	-13.436841	0.000264	2.639309	0.894222	-0.021210
1131	5.6500e-01	-5.1656	-13.540754	0.000259	2.586098	0.876194	-0.020783
1132	5.6550e-01	-5.2057	-13.707528	0.000415	4.150527	1.406237	-0.033355
1133	5.6600e-01	-5.2426	-13.800323	0.000231	2.309396	0.782444	-0.018559
1134	5.6650e-01	-5.2811	-13.772955	-0.000068	-0.681112	-0.230767	0.005474
1135	5.6700e-01	-5.3357	-13.919630	0.000365	3.650335	1.236767	-0.029335
1136	5.6750e-01	-5.3694	-13.970090	0.000126	1.255800	0.425477	-0.010092
1137	5.6800e-01	-5.4095	-14.159100	0.000470	4.703931	1.593735	-0.037802
1138	5.6850e-01	-5.4576	-14.102654	-0.000140	-1.404794	-0.475957	0.011289
1139	5.6900e-01	-5.4704	-14.296796	0.000483	4.831639	1.637004	-0.038828
1140	5.6950e-01	-5.5105	-14.621791	0.000809	8.088206	2.740358	-0.064999
1141	5.7000e-01	-5.5667	-14.510181	-0.000278	-2.777660	-0.941097	0.022322
1142	5.7050e-01	-5.5891	-14.670113	0.000398	3.980249	1.348545	-0.031986
1143	5.7100e-01	-5.6453	-14.666264	-0.000010	-0.095781	-0.032452	0.000770
1144	5.7150e-01	-5.6886	-14.671823	0.000014	0.138351	0.046875	-0.001112
1145	5.7200e-01	-5.7319	-14.881360	0.000521	5.214765	1.766810	-0.041907
1146	5.7250e-01	-5.7736	-14.877511	-0.000010	-0.095781	-0.032452	0.000770
1147	5.7300e-01	-5.8089	-14.981851	0.000260	2.596740	0.879799	-0.020868
1148	5.7350e-01	-5.8394	-15.128099	0.000364	3.639693	1.233161	-0.029250
1149	5.7400e-01	-5.8891	-15.172145	0.000110	1.096165	0.371391	-0.008809
1150	5.7450e-01	-5.9276	-15.383819	0.000527	5.267976	1.784839	-0.042335
1151	5.7500e-01	-5.9549	-15.477897	0.000234	2.341323	0.793262	-0.018816
1152	5.7550e-01	-6.0127	-15.527501	0.000123	1.234516	0.418265	-0.009921
1153	5.7600e-01	-6.0592	-15.498850	-0.000071	-0.713039	-0.241584	0.005730
1154	5.7650e-01	-6.0945	-15.558290	0.000148	1.479290	0.501197	-0.011888
1155	5.7700e-01	-6.1394	-15.732761	0.000434	4.342090	1.471140	-0.034894
1156	5.7750e-01	-6.1715	-15.861904	0.000321	3.213998	1.088932	-0.025829
1157	5.7800e-01	-6.2116	-15.928614	0.000166	1.660211	0.562495	-0.013342
1158	5.7850e-01	-6.2453	-15.891410	-0.000093	-0.925887	-0.313699	0.007441
1159	5.7900e-01	-6.3094	-16.116341	0.000560	5.597890	1.896617	-0.044986
1160	5.7950e-01	-6.3223	-16.159959	0.000109	1.085522	0.367785	-0.008724
1161	5.8000e-01	-6.3768	-16.221110	0.000152	1.521860	0.515620	-0.012230
1162	5.8050e-01	-6.4105	-16.390449	0.000421	4.214381	1.427871	-0.033868
1163	5.8100e-01	-6.4105	-16.730411	0.000846	8.460690	2.866559	-0.067992
1164	5.8150e-01	-6.4971	-16.578604	-0.000378	-3.778044	-1.280036	0.030361
1165	5.8200e-01	-6.5148	-16.591433	0.000032	0.319271	0.108172	-0.002566
1166	5.8250e-01	-6.5854	-16.712023	0.000300	3.001150	1.016817	-0.024118
1167	5.8300e-01	-6.6207	-16.756496	0.000111	1.106807	0.374996	-0.008895
1168	5.8350e-01	-6.6367	-16.820640	0.000160	1.596357	0.540860	-0.012829
1169	5.8400e-01	-6.6945	-17.059255	0.000594	5.938446	2.012000	-0.047723
1170	5.8450e-01	-6.7282	-17.028466	-0.000077	-0.766251	-0.259613	0.006158
1171	5.8500e-01	-6.7538	-17.189681	0.000401	4.012176	1.359362	-0.032243
1172	5.8550e-01	-6.7875	-17.284614	0.000236	2.362608	0.800473	-0.018987
1173	5.8600e-01	-6.8372	-17.425730	0.000351	3.511984	1.189892	-0.028223
1174	5.8650e-01	-6.8822	-17.463789	0.000095	0.947172	0.320910	-0.007612
1175	5.8700e-01	-6.9255	-17.395369	-0.000170	-1.702780	-0.576918	0.013684
1176	5.8750e-01	-6.9576	-17.629707	0.000583	5.832022	1.975943	-0.046868
1177	5.8800e-01	-7.0137	-17.758850	0.000321	3.213998	1.088932	-0.025829
1178	5.8850e-01	-7.0570	-17.834112	0.000187	1.873058	0.634609	-0.015052
1179	5.8900e-01	-7.0843	-17.846941	0.000032	0.319271	0.108172	-0.002566
1180	5.8950e-01	-7.1228	-17.937597	0.000226	2.256184	0.764416	-0.018131
1181	5.9000e-01	-7.1469	-17.981215	0.000109	1.085522	0.367785	-0.008724
1182	5.9050e-01	-7.2030	-18.119766	0.000345	3.448130	1.168258	-0.027710
1183	5.9100e-01	-7.2383	-18.215981	0.000239	2.394535	0.811290	-0.019243
1184	5.9150e-01	-7.2848	-18.342131	0.000314	3.139501	1.063692	-0.025230
1185	5.9200e-01	-7.3233	-18.512753	0.000425	4.246308	1.438688	-0.034124
1186	5.9250e-01	-7.3650	-18.471274	-0.000103	-1.032311	-0.349756	0.008296
1187	5.9300e-01	-7.4051	-18.721862	0.000624	6.236433	2.112961	-0.050118
1188	5.9350e-01	-7.4372	-18.649166	-0.000181	-1.809204	-0.612975	0.014539
1189	5.9400e-01	-7.4677	-18.819788	0.000425	4.246308	1.438688	-0.034124
1190	5.9450e-01	-7.5271	-18.940379	0.000300	3.001150	1.016817	-0.024118
1191	5.9500e-01	-7.5672	-19.006233	0.000164	1.638926	0.555283	-0.013171
1192	5.9550e-01	-7.6153	-19.078502	0.000180	1.798562	0.609369	-0.014454
1193	5.9600e-01	-7.6506	-19.127679	0.000122	1.223873	0.414660	-0.009835
1194	5.9650e-01	-7.6859	-19.191822	0.000160	1.596357	0.540860	-0.012829
1195	5.9700e-01	-7.7260	-19.303860	0.000279	2.788303	0.944703	-0.022408
1196	5.9750e-01	-7.7677	-19.344057	0.000100	1.000383	0.338939	-0.008039
1197	5.9800e-01	-7.8094	-19.563429	0.000546	5.459539	1.849742	-0.043874
1198	5.9850e-01	-7.8415	-19.562573	-0.000002	-0.021285	-0.007211	0.000171
1199	5.9900e-01	-7.9041	-19.619448	0.000142	1.415436	0.479563	-0.011375
1200	5.9950e-01	-7.9410	-19.811024	0.000477	4.767785	1.615369	-0.038315
1201	6.0000e-01	-7.9634	-19.768689	-0.000105	-1.053595	-0.356968	0.008467
1202	6.0050e-01	-8.0035	-19.941449	0.000430	4.299520	1.456717	-0.034552
1203	6.0100e-01	-8.0260	-20.033816	0.000230	2.298753	0.778839	-0.018473
1204	6.0150e-01	-8.0805	-20.115065	0.000202	2.022052	0.685090	-0.016250
1205	6.0200e-01	-8.1174	-20.212991	0.000244	2.437104	0.825713	-0.019585
1206	6.0250e-01	-8.1784	-20.282694	0.000173	1.734707	0.587735	-0.013941
1207	6.0300e-01	-8.2024	-20.363516	0.000201	2.011409	0.681484	-0.016164
1208	6.0350e-01	-8.2474	-20.391311	0.000069	0.691754	0.234373	-0.005559
1209	6.0400e-01	-8.2923	-20.469567	0.000195	1.947555	0.659849	-0.015651
1210	6.0450e-01	-8.3099	-20.721010	0.000626	6.257718	2.120172	-0.050289
1211	6.0500e-01	-8.3853	-20.774891	0.000134	1.340939	0.454323	-0.010776
1212	6.0550e-01	-8.3869	-20.847160	0.000180	1.798562	0.609369	-0.014454
1213	6.0600e-01	-8.4527	-20.949790	0.000255	2.554170	0.865376	-0.020526
1214	6.0650e-01	-8.4928	-21.028045	0.000195	1.947555	0.659849	-0.015651
1215	6.0700e-01	-8.5297	-21.095182	0.000167	1.670853	0.566100	-0.013427
1216	6.0750e-01	-8.5778	-21.132386	0.000093	0.925887	0.313699	-0.007441
1217	6.0800e-01	-8.6035	-21.250838	0.000295	2.947938	0.998789	-0.023690
1218	6.0850e-01	-8.6484	-21.332087	0.000202	2.022052	0.685090	-0.016250
1219	6.0900e-01	-8.6885	-21.429585	0.000243	2.426462	0.822108	-0.019500
1220	6.0950e-01	-8.7318	-21.423599	-0.000015	-0.148993	-0.050480	0.001197
1221	6.1000e-01	-8.7399	-21.772968	0.000869	8.694822	2.945885	-0.069874
1222	6.1050e-01	-8.8104	-21.703266	-0.000173	-1.734707	-0.587735	0.013941
1223	6.1100e-01	-8.8473	-21.819152	0.000288	2.884084	0.977154	-0.023177
1224	6.1150e-01	-8.8650	-21.857638	0.000096	0.957814	0.324516	-0.007697
1225	6.1200e-01	-8.9340	-21.966683	0.000271	2.713806	0.919462	-0.021809
1226	6.1250e-01	-8.9532	-22.050070	0.000208	2.075263	0.703118	-0.016677
1227	6.1300e-01	-8.9997	-22.228817	0.000445	4.448513	1.507197	-0.035749
1228	6.1350e-01	-9.0382	-22.251054	0.000055	0.553404	0.187498	-0.004447
1229	6.1400e-01	-9.0800	-22.321184	0.000175	1.745350	0.591341	-0.014026
1230	6.1450e-01	-9.1217	-22.350690	0.000073	0.734324	0.248796	-0.005901
1231	6.1500e-01	-9.1618	-22.482826	0.000329	3.288494	1.114172	-0.026427
1232	6.1550e-01	-9.2051	-22.626936	0.000359	3.586481	1.215133	-0.028822
1233	6.1600e-01	-9.2388	-22.718448	0.000228	2.277469	0.771627	-0.018302
1234	6.1650e-01	-9.2933	-22.770191	0.000129	1.287728	0.436294	-0.010349
1235	6.1700e-01	-9.3222	-22.818940	0.000121	1.213231	0.411054	-0.009750
1236	6.1750e-01	-9.3832	-22.848446	0.000073	0.734324	0.248796	-0.005901
1237	6.1800e-01	-9.4056	-22.991701	0.000357	3.565196	1.207921	-0.028651
1238	6.1850e-01	-9.4505	-23.161040	0.000421	4.214381	1.427871	-0.033868
1239	6.1900e-01	-9.4858	-23.125120	-0.000089	-0.893960	-0.302882	0.007184
1240	6.1950e-01	-9.5324	-23.211072	0.000214	2.139118	0.724753	-0.017191
1241	6.2000e-01	-9.5564	-23.244855	0.000084	0.840748	0.284853	-0.006756
1242	6.2050e-01	-9.6158	-23.437714	0.000480	4.799712	1.626186	-0.038572
1243	6.2100e-01	-9.6511	-23.459523	0.000054	0.542761	0.183892	-0.004362
1244	6.2150e-01	-9.6848	-23.586955	0.000317	3.171428	1.074509	-0.025486
1245	6.2200e-01	-9.7217	-23.654520	0.000168	1.681496	0.569706	-0.013513
1246	6.2250e-01	-9.7585	-23.752446	0.000244	2.437104	0.825713	-0.019585
1247	6.2300e-01	-9.7938	-23.840109	0.000218	2.181687	0.739176	-0.017533
1248	6.2350e-01	-9.8404	-24.023133	0.000455	4.554937	1.543255	-0.036605
1249	6.2400e-01	-9.8821	-24.036817	0.000034	0.340556	0.115384	-0.002737
1250	6.2450e-01	-9.9174	-24.096684	0.000149	1.489933	0.504803	-0.011974
1251	6.2500e-01	-9.9831	-24.107802	0.000028	0.276702	0.093749	-0.002224
1252	6.2550e-01	-9.9976	-24.351121	0.000606	6.055512	2.051663	-0.048664
1253	6.2600e-01	-10.0393	-24.460593	0.000272	2.724448	0.923068	-0.021894
1254	6.2650e-01	-10.0858	-24.390890	-0.000173	-1.734707	-0.587735	0.013941
1255	6.2700e-01	-10.1195	-24.556809	0.000413	4.129242	1.399025	-0.033184
1256	6.2750e-01	-10.1805	-24.590164	0.000083	0.830105	0.281247	-0.006671
1257	6.2800e-01	-10.2158	-24.759931	0.000423	4.225024	1.431477	-0.033953
1258	6.2850e-01	-10.2398	-24.803549	0.000109	1.085522	0.367785	-0.008724
1259	6.2900e-01	-10.2815	-25.013513	0.000523	5.225407	1.770416	-0.041993
1260	6.2950e-01	-10.3072	-24.893350	-0.000299	-2.990508	-1.013211	0.024033
1261	6.3000e-01	-10.3521	-25.239299	0.000861	8.609683	2.917039	-0.069190
1262	6.3050e-01	-10.3922	-25.227753	-0.000029	-0.287344	-0.097355	0.002309
1263	6.3100e-01	-10.4500	-25.265812	0.000095	0.947172	0.320910	-0.007612
1264	6.3150e-01	-10.4869	-25.342357	0.000190	1.904985	0.645427	-0.015309
1265	6.3200e-01	-10.5302	-25.258970	-0.000208	-2.075263	-0.703118	0.016677
1266	6.3250e-01	-10.5767	-25.446270	0.000466	4.661361	1.579312	-0.037460
1267	6.3300e-01	-10.5895	-25.572847	0.000315	3.150144	1.067298	-0.025315
1268	6.3350e-01	-10.6665	-25.739621	0.000415	4.150527	1.406237	-0.033355
1269	6.3400e-01	-10.6938	-25.728502	-0.000028	-0.276702	-0.093749	0.002224
1270	6.3450e-01	-10.7147	-25.897842	0.000421	4.214381	1.427871	-0.033868
1271	6.3500e-01	-10.7708	-25.941460	0.000109	1.085522	0.367785	-0.008724
1272	6.3550e-01	-10.7901	-25.947446	0.000015	0.148993	0.050480	-0.001197
1273	6.3600e-01	-10.8382	-26.075734	0.000319	3.192713	1.081720	-0.025658
1274	6.3650e-01	-10.9024	-26.219844	0.000359	3.586481	1.215133	-0.028822
1275	6.3700e-01	-10.9361	-26.207015	-0.000032	-0.319271	-0.108172	0.002566
1276	6.3750e-01	-10.9569	-26.343427	0.000339	3.394918	1.150229	-0.027282
1277	6.3800e-01	-10.9826	-26.498228	0.000385	3.852540	1.305276	-0.030960
1278	6.3850e-01	-11.0500	-26.528162	0.000074	0.744966	0.252401	-0.005987
1279	6.3900e-01	-11.0949	-26.622667	0.000235	2.351965	0.796867	-0.018901
1280	6.3950e-01	-11.1109	-26.721448	0.000246	2.458389	0.832925	-0.019756
1281	6.4000e-01	-11.1735	-26.773618	0.000130	1.298370	0.439900	-0.010434
1282	6.4050e-01	-11.2136	-26.795000	0.000053	0.532119	0.180287	-0.004276
1283	6.4100e-01	-11.2617	-26.870262	0.000187	1.873058	0.634609	-0.015052
1284	6.4150e-01	-11.2970	-27.050720	0.000449	4.491083	1.521620	-0.036092
1285	6.4200e-01	-11.3451	-27.091344	0.000101	1.011026	0.342545	-0.008125
1286	6.4250e-01	-11.3596	-27.153350	0.000154	1.543145	0.522832	-0.012401
1287	6.4300e-01	-11.3868	-27.295321	0.000353	3.533269	1.197104	-0.028394
1288	6.4350e-01	-11.4494	-27.389826	0.000235	2.351965	0.796867	-0.018901
1289	6.4400e-01	-11.4911	-27.526667	0.000341	3.405561	1.153835	-0.027368
1290	6.4450e-01	-11.5392	-27.539923	0.000033	0.329914	0.111778	-0.002651
1291	6.4500e-01	-11.5601	-27.603639	0.000159	1.585714	0.537254	-0.012743
1292	6.4550e-01	-11.6082	-27.601501	-0.000005	-0.053212	-0.018029	0.000428
1293	6.4600e-01	-11.6548	-27.809754	0.000518	5.182837	1.755993	-0.041651
1294	6.4650e-01	-11.6916	-27.893141	0.000208	2.075263	0.703118	-0.016677
1295	6.4700e-01	-11.7302	-28.041527	0.000369	3.692905	1.251190	-0.029677
1296	6.4750e-01	-11.7783	-27.961989	-0.000198	-1.979482	-0.670667	0.015908
1297	6.4800e-01	-11.8200	-28.097119	0.000336	3.362991	1.139412	-0.027026
1298	6.4850e-01	-11.8569	-28.228827	0.000328	3.277852	1.110566	-0.026342
1299	6.4900e-01	-11.8858	-28.256195	0.000068	0.681112	0.230767	-0.005474
1300	6.4950e-01	-11.9339	-28.360536	0.000260	2.596740	0.879799	-0.020868
1301	6.5000e-01	-11.9547	-28.441785	0.000202	2.022052	0.685090	-0.016250
1302	6.5050e-01	-11.9900	-28.591453	0.000372	3.724832	1.262007	-0.029934
1303	6.5100e-01	-12.0558	-28.681255	0.000223	2.234899	0.757204	-0.017960
1304	6.5150e-01	-12.0719	-28.729149	0.000119	1.191946	0.403842	-0.009579
1305	6.5200e-01	-12.1424	-28.834772	0.000263	2.628667	0.890617	-0.021125
1306	6.5250e-01	-12.1681	-28.852733	0.000045	0.446980	0.151441	-0.003592
1307	6.5300e-01	-12.2018	-28.881811	0.000072	0.723682	0.245190	-0.005816
1308	6.5350e-01	-12.2595	-29.001119	0.000297	2.969223	1.006000	-0.023861
1309	6.5400e-01	-12.2964	-29.081084	0.000199	1.990124	0.674272	-0.015993
1310	6.5450e-01	-12.3366	-29.146939	0.000164	1.638926	0.555283	-0.013171
1311	6.5500e-01	-12.3686	-29.290621	0.000358	3.575839	1.211527	-0.028736
1312	6.5550e-01	-12.4280	-29.314995	0.000061	0.606615	0.205527	-0.004875
1313	6.5600e-01	-12.4537	-29.473644	0.000395	3.948322	1.337728	-0.031730
1314	6.5650e-01	-12.4745	-29.546768	0.000182	1.819846	0.616581	-0.014625
1315	6.5700e-01	-12.5323	-29.615188	0.000170	1.702780	0.576918	-0.013684
1316	6.5750e-01	-12.5708	-29.604925	-0.000026	-0.255417	-0.086538	0.002053
1317	6.5800e-01	-12.6029	-29.790087	0.000461	4.608149	1.561283	-0.037032
1318	6.5850e-01	-12.6478	-29.834988	0.000112	1.117450	0.378602	-0.008980
1319	6.5900e-01	-12.6831	-29.947881	0.000281	2.809587	0.951914	-0.022579
1320	6.5950e-01	-12.7200	-30.107385	0.000397	3.969607	1.344939	-0.031901
1321	6.6000e-01	-12.7617	-30.074458	-0.000082	-0.819463	-0.277642	0.006585
1322	6.6050e-01	-12.8034	-30.147582	0.000182	1.819846	0.616581	-0.014625
1323	6.6100e-01	-12.8643	-30.283994	0.000339	3.394918	1.150229	-0.027282
1324	6.6150e-01	-12.8579	-30.451623	-0.000417	-4.171812	-1.413448	-0.033526
1325	6.6200e-01	-12.9301	-30.490965	0.000098	0.979099	0.331728	-0.007868
1326	6.6250e-01	-12.9670	-30.601292	0.000275	2.745733	0.930280	-0.022065
1327	6.6300e-01	-13.0071	-30.508925	-0.000230	-2.298753	-0.778839	0.018473
1328	6.6350e-01	-13.0424	-30.733428	0.000559	5.587248	1.893011	-0.044901
1329	6.6400e-01	-13.1002	-30.760369	0.000067	0.670470	0.227161	-0.005388
1330	6.6450e-01	-13.1339	-30.857867	0.000243	2.426462	0.822108	-0.019500
1331	6.6500e-01	-13.1515	-30.976747	0.000296	2.958581	1.002394	-0.023776
1332	6.6550e-01	-13.2060	-31.009247	0.000081	0.808821	0.274036	-0.006500
1333	6.6600e-01	-13.2558	-31.040036	0.000077	0.766251	0.259613	-0.006158
1334	6.6650e-01	-13.2911	-31.177304	0.000342	3.416203	1.157441	-0.027454
1335	6.6700e-01	-13.3248	-31.241875	0.000161	1.606999	0.544466	-0.012914
1336	6.6750e-01	-13.3584	-31.259408	0.000044	0.436337	0.147835	-0.003507
1337	6.6800e-01	-13.4002	-31.522825	0.000656	6.555704	2.221133	-0.052683
1338	6.6850e-01	-13.4419	-31.532660	0.000024	0.244775	0.082932	-0.001967
1339	6.6900e-01	-13.5060	-31.683184	0.000375	3.746117	1.269219	-0.030105
1340	6.6950e-01	-13.5205	-31.695585	0.000031	0.308629	0.104566	-0.002480
1341	6.7000e-01	-13.5542	-31.808051	0.000280	2.798945	0.948308	-0.022493
1342	6.7050e-01	-13.6103	-31.885451	0.000193	1.926270	0.652638	-0.015480
1343	6.7100e-01	-13.6440	-31.867491	-0.000045	-0.446980	-0.151441	0.003592
1344	6.7150e-01	-13.6777	-31.998344	0.000326	3.256567	1.103355	-0.026171
1345	6.7200e-01	-13.7258	-32.073606	0.000187	1.873058	0.634609	-0.015052
1346	6.7250e-01	-13.7659	-32.192058	0.000295	2.947938	0.998789	-0.023690
1347	6.7300e-01	-13.8076	-32.242946	0.000127	1.266443	0.429082	-0.010177
1348	6.7350e-01	-13.8574	-32.346003	0.000256	2.564813	0.868982	-0.020612
1349	6.7400e-01	-13.8862	-32.493106	0.000366	3.660978	1.240373	-0.029421
1350	6.7450e-01	-13.9199	-32.366102	-0.000316	-3.160786	-1.070903	0.025401
1351	6.7500e-01	-13.9729	-32.620966	0.000634	6.342857	2.149018	-0.050973
1352	6.7550e-01	-13.9937	-32.562382	-0.000146	-1.458006	-0.493986	0.011717
1353	6.7600e-01	-14.0386	-32.744978	0.000454	4.544295	1.539649	-0.036519
1354	6.7650e-01	-14.0691	-32.927146	0.000453	4.533652	1.536043	-0.036434
1355	6.7700e-01	-14.1349	-32.904482	-0.000056	-0.564046	-0.191104	0.004533
1356	6.7750e-01	-14.1766	-32.905765	0.000003	0.031927	0.010817	-0.000257
1357	6.7800e-01	-14.2087	-33.127702	0.000552	5.523394	1.871376	-0.044388
1358	6.7850e-01	-14.2520	-33.052868	-0.000186	-1.862416	-0.631004	0.014967
1359	6.7900e-01	-14.2857	-33.171320	0.000295	2.947938	0.998789	-0.023690
1360	6.7950e-01	-14.3226	-33.338949	0.000417	4.171812	1.413448	-0.033526
1361	6.8000e-01	-14.3675	-33.402238	0.000158	1.575072	0.533649	-0.012658
1362	6.8050e-01	-14.4012	-33.450132	0.000119	1.191946	0.403842	-0.009579
1363	6.8100e-01	-14.4253	-33.640425	0.000474	4.735858	1.604552	-0.038059
1364	6.8150e-01	-14.4830	-33.654109	0.000034	0.340556	0.115384	-0.002737
1365	6.8200e-01	-14.5103	-33.714832	0.000151	1.511217	0.512014	-0.012145
1366	6.8250e-01	-14.5696	-33.754601	0.000099	0.989741	0.335333	-0.007954
1367	6.8300e-01	-14.6114	-33.840126	0.000213	2.128475	0.721147	-0.017105
1368	6.8350e-01	-14.6338	-33.941046	0.000251	2.511601	0.850953	-0.020184
1369	6.8400e-01	-14.6964	-33.931638	-0.000023	-0.234132	-0.079326	0.001882
1370	6.8450e-01	-14.7317	-34.091142	0.000397	3.969607	1.344939	-0.031901
1371	6.8500e-01	-14.7493	-34.297685	0.000514	5.140268	1.741570	-0.041309
1372	6.8550e-01	-14.8135	-34.267751	-0.000074	-0.744966	-0.252401	0.005987
1373	6.8600e-01	-14.8424	-34.406302	0.000345	3.448130	1.168258	-0.027710
1374	6.8650e-01	-14.8696	-34.349855	-0.000140	-1.404794	-0.475957	0.011289
1375	6.8700e-01	-14.9306	-34.546991	0.000491	4.906136	1.662244	-0.039427
1376	6.8750e-01	-14.9659	-34.635509	0.000220	2.202972	0.746387	-0.017704
1377	6.8800e-01	-15.0236	-34.576924	-0.000146	-1.458006	-0.493986	0.011717
1378	6.8850e-01	-15.0493	-34.807414	0.000574	5.736241	1.943491	-0.046098
1379	6.8900e-01	-15.1022	-34.819816	0.000031	0.308629	0.104566	-0.002480
1380	6.8950e-01	-15.1311	-34.919452	0.000248	2.479674	0.840136	-0.019927
1381	6.9000e-01	-15.1616	-34.945537	0.000065	0.649185	0.219950	-0.005217
1382	6.9050e-01	-15.2017	-35.058431	0.000281	2.809587	0.951914	-0.022579
1383	6.9100e-01	-15.2338	-35.210237	0.000378	3.778044	1.280036	-0.030361
1384	6.9150e-01	-15.2867	-35.309874	0.000248	2.479674	0.840136	-0.019927
1385	6.9200e-01	-15.3317	-35.149515	-0.000399	-3.990891	-1.352151	0.032072
1386	6.9250e-01	-15.3718	-35.440728	0.000725	7.247459	2.455505	-0.058243
1387	6.9300e-01	-15.4038	-35.532239	0.000228	2.277469	0.771627	-0.018302
1388	6.9350e-01	-15.4456	-35.670790	0.000345	3.448130	1.168258	-0.027710
1389	6.9400e-01	-15.5033	-35.551910	-0.000296	-2.958581	-1.002394	0.023776
1390	6.9450e-01	-15.5242	-35.601942	0.000125	1.245158	0.421871	-0.010006
1391	6.9500e-01	-15.5675	-35.793518	0.000477	4.767785	1.615369	-0.038315
1392	6.9550e-01	-15.5964	-35.893583	0.000249	2.490316	0.843742	-0.020013
1393	6.9600e-01	-15.6637	-35.883320	-0.000026	-0.255417	-0.086538	0.002053
1394	6.9650e-01	-15.6894	-36.024864	0.000352	3.522627	1.193498	-0.028309
1395	6.9700e-01	-15.7231	-36.172822	0.000368	3.682262	1.247584	-0.029592
1396	6.9750e-01	-15.7632	-36.159138	-0.000034	-0.340556	-0.115384	0.002737
1397	6.9800e-01	-15.8033	-36.336602	0.000442	4.416586	1.496380	-0.035493
1398	6.9850e-01	-15.8418	-36.402884	0.000165	1.649568	0.558889	-0.013256
1399	6.9900e-01	-15.8675	-36.440088	0.000093	0.925887	0.313699	-0.007441
1400	6.9950e-01	-15.9300	-36.508935	0.000171	1.713423	0.580523	-0.013770
1401	7.0000e-01	-15.9653	-36.606434	0.000243	2.426462	0.822108	-0.019500
1402	7.0050e-01	-16.0118	-36.568803	-0.000094	-0.936529	-0.317305	0.007526
1403	7.0100e-01	-16.0552	-36.787747	0.000545	5.448897	1.846136	-0.043789
1404	7.0150e-01	-16.0824	-36.725741	-0.000154	-1.543145	-0.522832	0.012401
1405	7.0200e-01	-16.1290	-36.845049	0.000297	2.969223	1.006000	-0.023861
1406	7.0250e-01	-16.1787	-36.896364	0.000128	1.277085	0.432688	-0.010263
1407	7.0300e-01	-16.2204	-37.042184	0.000363	3.629050	1.229556	-0.029164
1408	7.0350e-01	-16.2493	-37.127709	0.000213	2.128475	0.721147	-0.017105
1409	7.0400e-01	-16.2862	-37.349219	0.000551	5.512751	1.867771	-0.044302
1410	7.0450e-01	-16.3134	-37.270108	-0.000197	-1.968840	-0.667061	0.015822
1411	7.0500e-01	-16.3888	-37.366752	0.000241	2.405177	0.814896	-0.019329
1412	7.0550e-01	-16.4033	-37.468099	0.000252	2.522243	0.854559	-0.020269
1413	7.0600e-01	-16.4514	-37.563032	0.000236	2.362608	0.800473	-0.018987
1414	7.0650e-01	-16.4819	-37.666089	0.000256	2.564813	0.868982	-0.020612
1415	7.0700e-01	-16.5445	-37.674642	0.000021	0.212848	0.072115	-0.001711
1416	7.0750e-01	-16.5669	-37.843126	0.000419	4.193096	1.420660	-0.033697
1417	7.0800e-01	-16.6166	-37.793094	-0.000125	-1.245158	-0.421871	0.010006
1418	7.0850e-01	-16.6407	-37.881613	0.000220	2.202972	0.746387	-0.017704
1419	7.0900e-01	-16.6953	-37.965000	0.000208	2.075263	0.703118	-0.016677
1420	7.0950e-01	-16.7370	-38.007762	0.000106	1.064238	0.360573	-0.008553
1421	7.1000e-01	-16.7803	-38.207891	0.000498	4.980632	1.687484	-0.040026
1422	7.1050e-01	-16.7931	-38.212595	0.000012	0.117066	0.039663	-0.000941
1423	7.1100e-01	-16.8332	-38.336606	0.000309	3.086289	1.045663	-0.024802
1424	7.1150e-01	-16.9006	-38.425980	0.000222	2.224257	0.753599	-0.017875
1425	7.1200e-01	-16.9327	-38.421276	-0.000012	-0.117066	-0.039663	0.000941
1426	7.1250e-01	-16.9599	-38.463183	0.000104	1.042953	0.353362	-0.008381
1427	7.1300e-01	-17.0209	-38.634661	0.000427	4.267593	1.445900	-0.034296
1428	7.1350e-01	-17.0530	-38.596174	-0.000096	-0.957814	-0.324516	0.007697
1429	7.1400e-01	-17.0771	-38.849756	0.000631	6.310929	2.138201	-0.050716
1430	7.1450e-01	-17.1140	-38.903637	0.000134	1.340939	0.454323	-0.010776
1431	7.1500e-01	-17.1653	-38.956663	0.000132	1.319655	0.447111	-0.010605
1432	7.1550e-01	-17.2070	-38.953242	-0.000009	-0.085139	-0.028846	0.000684
1433	7.1600e-01	-17.2423	-39.101200	0.000368	3.682262	1.247584	-0.029592
1434	7.1650e-01	-17.2744	-39.206823	0.000263	2.628667	0.890617	-0.021125
1435	7.1700e-01	-17.3193	-39.282941	0.000189	1.894343	0.641821	-0.015223
1436	7.1750e-01	-17.3466	-39.391557	0.000270	2.703164	0.915857	-0.021723
1437	7.1800e-01	-17.4011	-39.498036	0.000265	2.649952	0.897828	-0.021296
1438	7.1850e-01	-17.4492	-39.537805	0.000099	0.989741	0.335333	-0.007954
1439	7.1900e-01	-17.5054	-39.428761	-0.000271	-2.713806	-0.919462	0.021809
1440	7.1950e-01	-17.5327	-39.584416	0.000387	3.873825	1.312487	-0.031131
1441	7.2000e-01	-17.5663	-39.834577	0.000623	6.225790	2.109355	-0.050032
1442	7.2050e-01	-17.6049	-39.700730	-0.000333	-3.331064	-1.128595	0.026769
1443	7.2100e-01	-17.6594	-39.848261	0.000367	3.671620	1.243979	-0.029506
1444	7.2150e-01	-17.6738	-39.962865	0.000285	2.852157	0.966337	-0.022921
1445	7.2200e-01	-17.7139	-39.999213	0.000090	0.904602	0.306487	-0.007270
1446	7.2250e-01	-17.7733	-40.074475	0.000187	1.873058	0.634609	-0.015052
1447	7.2300e-01	-17.8359	-40.244242	0.000423	4.225024	1.431477	-0.033953
1448	7.2350e-01	-17.8375	-40.234407	-0.000024	-0.244775	-0.082932	0.001967
1449	7.2400e-01	-17.8728	-40.415720	0.000451	4.512368	1.528832	-0.036263
1450	7.2450e-01	-17.9305	-40.449075	0.000083	0.830105	0.281247	-0.006671
1451	7.2500e-01	-17.9738	-40.502100	0.000132	1.319655	0.447111	-0.010605
1452	7.2550e-01	-18.0155	-40.600882	0.000246	2.458389	0.832925	-0.019756
1453	7.2600e-01	-18.0364	-40.691538	0.000226	2.256184	0.764416	-0.018131
1454	7.2650e-01	-18.0974	-40.643217	-0.000120	-1.202589	-0.407448	0.009664
1455	7.2700e-01	-18.1198	-40.805287	0.000403	4.033461	1.366574	-0.032414
1456	7.2750e-01	-18.1583	-41.016533	0.000526	5.257334	1.781233	-0.042249
1457	7.2800e-01	-18.2129	-41.002849	-0.000034	-0.340556	-0.115384	0.002737
1458	7.2850e-01	-18.2530	-41.082815	0.000199	1.990124	0.674272	-0.015993
1459	7.2900e-01	-18.3091	-41.029790	-0.000132	-1.319655	-0.447111	0.010605
1460	7.2950e-01	-18.3268	-41.279095	0.000620	6.204506	2.102143	-0.049861
1461	7.3000e-01	-18.3765	-41.340673	0.000153	1.532502	0.519226	-0.012316
1462	7.3050e-01	-18.4038	-41.433896	0.000232	2.320038	0.786050	-0.018644
1463	7.3100e-01	-18.4455	-41.615636	0.000452	4.523010	1.532437	-0.036348
1464	7.3150e-01	-18.4904	-41.589551	-0.000065	-0.649185	-0.219950	0.005217
1465	7.3200e-01	-18.5064	-41.673366	0.000209	2.085906	0.706724	-0.016763
1466	7.3250e-01	-18.5658	-41.734516	0.000152	1.521860	0.515620	-0.012230
1467	7.3300e-01	-18.6107	-41.846982	0.000280	2.798945	0.948308	-0.022493
1468	7.3350e-01	-18.6476	-41.810634	-0.000090	-0.904602	-0.306487	0.007270
1469	7.3400e-01	-18.6925	-41.941487	0.000326	3.256567	1.103355	-0.026171
1470	7.3450e-01	-18.7294	-41.934645	-0.000017	-0.170278	-0.057692	0.001368
1471	7.3500e-01	-18.7743	-42.049249	0.000285	2.852157	0.966337	-0.022921
1472	7.3550e-01	-18.8096	-42.213029	0.000408	4.076030	1.380996	-0.032756
1473	7.3600e-01	-18.8449	-42.282732	0.000173	1.734707	0.587735	-0.013941
1474	7.3650e-01	-18.8866	-42.314376	0.000079	0.787536	0.266824	-0.006329
1475	7.3700e-01	-18.9283	-42.422565	0.000269	2.692521	0.912251	-0.021638
1476	7.3750e-01	-18.9765	-42.524768	0.000254	2.543528	0.861771	-0.020440
1477	7.3800e-01	-18.9909	-42.708219	0.000457	4.565580	1.546860	-0.036690
1478	7.3850e-01	-19.0615	-42.617562	-0.000226	-2.256184	-0.764416	0.018131
1479	7.3900e-01	-19.0791	-42.685555	0.000169	1.692138	0.573312	-0.013598
1480	7.3950e-01	-19.1257	-42.842921	0.000392	3.916395	1.326910	-0.031473
1481	7.4000e-01	-19.1802	-42.926308	0.000208	2.075263	0.703118	-0.016677
1482	7.4050e-01	-19.2155	-42.970781	0.000111	1.106807	0.374996	-0.008895
1483	7.4100e-01	-19.2460	-42.974202	0.000009	0.085139	0.028846	-0.000684
1484	7.4150e-01	-19.2813	-43.253014	0.000694	6.938830	2.350939	-0.055762
1485	7.4200e-01	-19.2813	-43.267981	0.000037	0.372483	0.126201	-0.002993
1486	7.4250e-01	-19.3599	-43.363341	0.000237	2.373250	0.804079	-0.019072
1487	7.4300e-01	-19.4112	-43.457419	0.000234	2.341323	0.793262	-0.018816
1488	7.4350e-01	-19.4385	-43.406959	-0.000126	-1.255800	-0.425477	0.010092
1489	7.4400e-01	-19.4834	-43.470675	0.000159	1.585714	0.537254	-0.012743
1490	7.4450e-01	-19.5219	-43.648567	0.000443	4.427229	1.499986	-0.035578
1491	7.4500e-01	-19.5797	-43.610936	-0.000094	-0.936529	-0.317305	0.007526
1492	7.4550e-01	-19.6101	-43.758039	0.000366	3.660978	1.240373	-0.029421
1493	7.4600e-01	-19.6422	-43.823466	0.000163	1.628284	0.551677	-0.013085
1494	7.4650e-01	-19.7032	-43.924813	0.000252	2.522243	0.854559	-0.020269
1495	7.4700e-01	-19.7192	-44.019318	0.000235	2.351965	0.796867	-0.018901
1496	7.4750e-01	-19.7818	-44.133066	0.000283	2.830872	0.959125	-0.022750
1497	7.4800e-01	-19.7978	-44.191651	0.000146	1.458006	0.493986	-0.011717
1498	7.4850e-01	-19.8556	-44.217736	0.000065	0.649185	0.219950	-0.005217
1499	7.4900e-01	-19.8861	-44.279742	0.000154	1.543145	0.522832	-0.012401
1500	7.4950e-01	-19.9342	-44.427273	0.000367	3.671620	1.243979	-0.029506
1501	7.5000e-01	-19.9647	-44.406747	-0.000051	-0.510834	-0.173075	0.004105
1502	7.5050e-01	-19.9310	-44.347307	0.000148	1.479290	0.501197	0.011888
1503	7.5100e-01	-19.8829	-44.387504	-0.000100	-1.000383	-0.338939	-0.008039
1504	7.5150e-01	-19.8508	-44.282308	0.000262	2.618025	0.887011	0.021039
1505	7.5200e-01	-19.8075	-44.309676	-0.000068	-0.681112	-0.230767	-0.005474
1506	7.5250e-01	-19.7641	-44.074909	0.000584	5.842665	1.979548	0.046953
1507	7.5300e-01	-19.7240	-44.182243	-0.000267	-2.671237	-0.905039	-0.021467
1508	7.5350e-01	-19.6791	-44.062508	0.000298	2.979865	1.009606	0.023947
1509	7.5400e-01	-19.6535	-43.891886	0.000425	4.246308	1.438688	0.034124
1510	7.5450e-01	-19.6134	-43.976556	-0.000211	-2.107191	-0.713935	-0.016934
1511	7.5500e-01	-19.5732	-43.821755	0.000385	3.852540	1.305276	0.030960
1512	7.5550e-01	-19.5331	-43.768302	0.000133	1.330297	0.450717	0.010691
1513	7.5600e-01	-19.4802	-43.786690	-0.000046	-0.457622	-0.155047	-0.003678
1514	7.5650e-01	-19.4577	-43.624192	0.000404	4.044103	1.370179	0.032500
1515	7.5700e-01	-19.4128	-43.565180	0.000147	1.468648	0.497591	0.011802
1516	7.5750e-01	-19.3647	-43.573733	-0.000021	-0.212848	-0.072115	-0.001711
1517	7.5800e-01	-19.3182	-43.509589	0.000160	1.596357	0.540860	0.012829
1518	7.5850e-01	-19.3037	-43.345381	0.000409	4.086673	1.384602	0.032842
1519	7.5900e-01	-19.2508	-43.282092	0.000158	1.575072	0.533649	0.012658
1520	7.5950e-01	-19.2123	-43.356071	-0.000184	-1.841131	-0.623792	-0.014796
1521	7.6000e-01	-19.1674	-43.177324	0.000445	4.448513	1.507197	0.035749
1522	7.6050e-01	-19.1305	-43.210251	-0.000082	-0.819463	-0.277642	-0.006585
1523	7.6100e-01	-19.0791	-43.176041	0.000085	0.851390	0.288459	0.006842
1524	7.6150e-01	-19.0551	-43.061438	0.000285	2.852157	0.966337	0.022921
1525	7.6200e-01	-19.0294	-42.896802	0.000410	4.097315	1.388208	0.032927
1526	7.6250e-01	-18.9781	-42.894664	0.000005	0.053212	0.018029	0.000428
1527	7.6300e-01	-18.9492	-42.772363	0.000304	3.043720	1.031240	0.024460
1528	7.6350e-01	-18.8979	-42.736442	0.000089	0.893960	0.302882	0.007184
1529	7.6400e-01	-18.8433	-42.748416	-0.000030	-0.297987	-0.100961	-0.002395
1530	7.6450e-01	-18.8096	-42.786047	-0.000094	-0.936529	-0.317305	-0.007526
1531	7.6500e-01	-18.7824	-42.486282	0.000746	7.460306	2.527620	0.059953
1532	7.6550e-01	-18.7358	-42.538879	-0.000131	-1.309012	-0.443505	-0.010520
1533	7.6600e-01	-18.6829	-42.492696	0.000115	1.149377	0.389419	0.009237
1534	7.6650e-01	-18.6588	-42.406743	0.000214	2.139118	0.724753	0.017191
1535	7.6700e-01	-18.5963	-42.405460	0.000003	0.031927	0.010817	0.000257
1536	7.6750e-01	-18.5658	-42.340461	0.000162	1.617641	0.548072	0.013000
1537	7.6800e-01	-18.5241	-42.164280	0.000438	4.384659	1.485563	0.035236
1538	7.6850e-01	-18.4759	-42.129214	0.000087	0.872675	0.295670	0.007013
1539	7.6900e-01	-18.4455	-42.056091	0.000182	1.819846	0.616581	0.014625
1540	7.6950e-01	-18.4246	-41.990236	0.000164	1.638926	0.555283	0.013171
1541	7.7000e-01	-18.3909	-41.937638	0.000131	1.309012	0.443505	0.010520
1542	7.7050e-01	-18.3332	-41.867080	0.000176	1.755992	0.594946	0.014112
1543	7.7100e-01	-18.2931	-41.804647	0.000155	1.553787	0.526437	0.012487
1544	7.7150e-01	-18.2498	-41.698168	0.000265	2.649952	0.897828	0.021296
1545	7.7200e-01	-18.2016	-41.613926	0.000210	2.096548	0.710330	0.016848
1546	7.7250e-01	-18.1535	-41.619057	-0.000013	-0.127709	-0.043269	-0.001026
1547	7.7300e-01	-18.1326	-41.546789	0.000180	1.798562	0.609369	0.014454
1548	7.7350e-01	-18.0909	-41.470244	0.000190	1.904985	0.645427	0.015309
1549	7.7400e-01	-18.0460	-41.352219	0.000294	2.937296	0.995183	0.023605
1550	7.7450e-01	-17.9867	-41.324851	0.000068	0.681112	0.230767	0.005474
1551	7.7500e-01	-17.9594	-41.340673	-0.000039	-0.393768	-0.133412	-0.003164
1552	7.7550e-01	-17.9385	-41.094361	0.000613	6.130009	2.076903	0.049262
1553	7.7600e-01	-17.8952	-41.047750	0.000116	1.160019	0.393025	0.009322
1554	7.7650e-01	-17.8631	-41.055875	-0.000020	-0.202205	-0.068509	-0.001625
1555	7.7700e-01	-17.8150	-40.912193	0.000358	3.575839	1.211527	0.028736
1556	7.7750e-01	-17.7637	-40.833510	0.000196	1.958197	0.663455	0.015737
1557	7.7800e-01	-17.7268	-40.948541	-0.000286	-2.862799	-0.969943	-0.023006
1558	7.7850e-01	-17.6979	-40.737722	0.000525	5.246692	1.777627	0.042164
1559	7.7900e-01	-17.6417	-40.748412	-0.000027	-0.266059	-0.090143	-0.002138
1560	7.7950e-01	-17.6097	-40.657328	0.000227	2.266826	0.768022	0.018217
1561	7.8000e-01	-17.5840	-40.657328	0.000000	0.000000	0.000000	0.000000
1562	7.8050e-01	-17.5278	-40.463614	0.000482	4.820997	1.633398	0.038743
1563	7.8100e-01	-17.4877	-40.422562	0.000102	1.021668	0.346151	0.008210
1564	7.8150e-01	-17.4460	-40.274176	0.000369	3.692905	1.251190	0.029677
1565	7.8200e-01	-17.4059	-40.322925	-0.000121	-1.213231	-0.411054	-0.009750
1566	7.8250e-01	-17.3594	-40.183519	0.000347	3.469415	1.175470	0.027881
1567	7.8300e-01	-17.3225	-40.151020	0.000081	0.808821	0.274036	0.006500
1568	7.8350e-01	-17.2792	-40.165987	-0.000037	-0.372483	-0.126201	-0.002993
1569	7.8400e-01	-17.2551	-40.053094	0.000281	2.809587	0.951914	0.022579
1570	7.8450e-01	-17.2214	-40.005200	0.000119	1.191946	0.403842	0.009579
1571	7.8500e-01	-17.1557	-39.913688	0.000228	2.277469	0.771627	0.018302
1572	7.8550e-01	-17.1316	-39.759315	0.000384	3.841898	1.301670	0.030875
1573	7.8600e-01	-17.0787	-39.758460	0.000002	0.021285	0.007211	0.000171
1574	7.8650e-01	-17.0514	-39.709711	0.000121	1.213231	0.411054	0.009750
1575	7.8700e-01	-17.0161	-39.618626	0.000227	2.266826	0.768022	0.018217
1576	7.8750e-01	-16.9535	-39.552345	0.000165	1.649568	0.558889	0.013256
1577	7.8800e-01	-16.9375	-39.504450	0.000119	1.191946	0.403842	0.009579
1578	7.8850e-01	-16.8910	-39.394978	0.000272	2.724448	0.923068	0.021894
1579	7.8900e-01	-16.8541	-39.294059	0.000251	2.511601	0.850953	0.020184
1580	7.8950e-01	-16.7947	-39.224784	0.000172	1.724065	0.584129	0.013855
1581	7.9000e-01	-16.7690	-39.170475	0.000135	1.351582	0.457928	0.010862
1582	7.9050e-01	-16.7386	-39.122154	0.000120	1.202589	0.407448	0.009664
1583	7.9100e-01	-16.6808	-39.107614	0.000036	0.361841	0.122595	0.002908
1584	7.9150e-01	-16.6584	-38.866006	0.000601	6.012943	2.037240	0.048322
1585	7.9200e-01	-16.6199	-38.805283	0.000151	1.511217	0.512014	0.012145
1586	7.9250e-01	-16.5557	-38.806994	-0.000004	-0.042570	-0.014423	-0.000342
1587	7.9300e-01	-16.5188	-38.812553	-0.000014	-0.138351	-0.046875	-0.001112
1588	7.9350e-01	-16.4803	-38.648345	0.000409	4.086673	1.384602	0.032842
1589	7.9400e-01	-16.4434	-38.660746	-0.000031	-0.308629	-0.104566	-0.002480
1590	7.9450e-01	-16.4097	-38.560254	0.000250	2.500959	0.847348	0.020098
1591	7.9500e-01	-16.3503	-38.567096	-0.000017	-0.170278	-0.057692	-0.001368
1592	7.9550e-01	-16.3391	-38.372099	0.000485	4.852924	1.644215	0.038999
1593	7.9600e-01	-16.2878	-38.236969	0.000336	3.362991	1.139412	0.027026
1594	7.9650e-01	-16.2509	-38.250226	-0.000033	-0.329914	-0.111778	-0.002651
1595	7.9700e-01	-16.1995	-38.205325	0.000112	1.117450	0.378602	0.008980
1596	7.9750e-01	-16.1626	-38.097991	0.000267	2.671237	0.905039	0.021467
1597	7.9800e-01	-16.1306	-37.946184	0.000378	3.778044	1.280036	0.030361
1598	7.9850e-01	-16.1113	-37.945329	0.000002	0.021285	0.007211	0.000171
1599	7.9900e-01	-16.0423	-37.802502	0.000355	3.554554	1.204315	0.028565
1600	7.9950e-01	-16.0022	-37.843554	-0.000102	-1.021668	-0.346151	-0.008210
1601	8.0000e-01	-15.9733	-37.731088	0.000280	2.798945	0.948308	0.022493
1602	8.0050e-01	-15.9316	-37.692175	0.000097	0.968456	0.328122	0.007783
1603	8.0100e-01	-15.8835	-37.712273	-0.000050	-0.500192	-0.169470	-0.004020
1604	8.0150e-01	-15.8290	-37.486059	0.000563	5.629817	1.907434	0.045243
1605	8.0200e-01	-15.7905	-37.573722	-0.000218	-2.181687	-0.739176	-0.017533
1606	8.0250e-01	-15.7632	-37.481783	0.000229	2.288111	0.775233	0.018388
1607	8.0300e-01	-15.7311	-37.189287	0.000728	7.279386	2.466323	0.058499
1608	8.0350e-01	-15.6750	-37.245734	-0.000140	-1.404794	-0.475957	-0.011289
1609	8.0400e-01	-15.6316	-37.194419	0.000128	1.277085	0.432688	0.010263
1610	8.0450e-01	-15.6140	-37.094354	0.000249	2.490316	0.843742	0.020013
1611	8.0500e-01	-15.5627	-37.028928	0.000163	1.628284	0.551677	0.013085
1612	8.0550e-01	-15.5242	-36.925870	0.000256	2.564813	0.868982	0.020612
1613	8.0600e-01	-15.5001	-36.839917	0.000214	2.139118	0.724753	0.017191
1614	8.0650e-01	-15.4488	-36.789030	0.000127	1.266443	0.429082	0.010177
1615	8.0700e-01	-15.3958	-36.712057	0.000192	1.915628	0.649032	0.015395
1616	8.0750e-01	-15.3862	-36.619263	0.000231	2.309396	0.782444	0.018559
1617	8.0800e-01	-15.3236	-36.583342	0.000089	0.893960	0.302882	0.007184
1618	8.0850e-01	-15.2803	-36.522192	0.000152	1.521860	0.515620	0.012230
1619	8.0900e-01	-15.2530	-36.522619	-0.000001	-0.010642	-0.003606	-0.000086
1620	8.0950e-01	-15.2097	-36.418279	0.000260	2.596740	0.879799	0.020868
1621	8.1000e-01	-15.1712	-36.177098	0.000600	6.002300	2.033634	0.048236
1622	8.1050e-01	-15.1071	-36.354563	-0.000442	-4.416586	-1.496380	-0.035493
1623	8.1100e-01	-15.0782	-36.084304	0.000673	6.725982	2.278824	0.054052
1624	8.1150e-01	-15.0349	-36.092856	-0.000021	-0.212848	-0.072115	-0.001711
1625	8.1200e-01	-15.0044	-36.012035	0.000201	2.011409	0.681484	0.016164
1626	8.1250e-01	-14.9611	-35.904273	0.000268	2.681879	0.908645	0.021552
1627	8.1300e-01	-14.9322	-35.812334	0.000229	2.288111	0.775233	0.018388
1628	8.1350e-01	-14.8953	-35.679770	0.000330	3.299137	1.117778	0.026513
1629	8.1400e-01	-14.8279	-35.850820	-0.000426	-4.256951	-1.442294	-0.034210
1630	8.1450e-01	-14.8007	-35.718256	0.000330	3.299137	1.117778	0.026513
1631	8.1500e-01	-14.7686	-35.548489	0.000423	4.225024	1.431477	0.033953
1632	8.1550e-01	-14.7317	-35.412932	0.000337	3.373633	1.143018	0.027111
1633	8.1600e-01	-14.6771	-35.461254	-0.000120	-1.202589	-0.407448	-0.009664
1634	8.1650e-01	-14.6434	-35.324841	0.000339	3.394918	1.150229	0.027282
1635	8.1700e-01	-14.6001	-35.321848	0.000007	0.074497	0.025240	0.000599
1636	8.1750e-01	-14.5745	-35.108463	0.000531	5.310546	1.799262	0.042677
1637	8.1800e-01	-14.5295	-35.178593	-0.000175	-1.745350	-0.591341	-0.014026
1638	8.1850e-01	-14.4830	-35.019517	0.000396	3.958964	1.341333	0.031815
1639	8.1900e-01	-14.4477	-34.884387	0.000336	3.362991	1.139412	0.027026
1640	8.1950e-01	-14.4044	-34.891657	-0.000018	-0.180920	-0.061297	-0.001454
1641	8.2000e-01	-14.3627	-34.867710	0.000060	0.595973	0.201921	0.004789
1642	8.2050e-01	-14.3579	-34.842052	0.000064	0.638543	0.216344	0.005132
1643	8.2100e-01	-14.2777	-34.606003	0.000587	5.874592	1.990366	0.047210
1644	8.2150e-01	-14.2344	-34.642779	-0.000092	-0.915244	-0.310093	-0.007355
1645	8.2200e-01	-14.2055	-34.623108	0.000049	0.489549	0.165864	0.003934
1646	8.2250e-01	-14.1461	-34.387059	0.000587	5.874592	1.990366	0.047210
1647	8.2300e-01	-14.1189	-34.500380	-0.000282	-2.820230	-0.955520	-0.022664
1648	8.2350e-01	-14.0787	-34.383638	0.000291	2.905369	0.984366	0.023348
1649	8.2400e-01	-14.0467	-34.286995	0.000241	2.405177	0.814896	0.019329
1650	8.2450e-01	-14.0066	-34.148872	0.000344	3.437488	1.164652	0.027625
1651	8.2500e-01	-13.9600	-34.056932	0.000229	2.288111	0.775233	0.018388
1652	8.2550e-01	-13.9087	-34.101833	-0.000112	-1.117450	-0.378602	-0.008980
1653	8.2600e-01	-13.8782	-33.989367	0.000280	2.798945	0.948308	0.022493
1654	8.2650e-01	-13.8477	-33.793943	0.000486	4.863566	1.647821	0.039085
1655	8.2700e-01	-13.8028	-33.784535	0.000023	0.234132	0.079326	0.001882
1656	8.2750e-01	-13.7483	-33.708418	0.000189	1.894343	0.641821	0.015223
1657	8.2800e-01	-13.7210	-33.625886	0.000205	2.053979	0.695907	0.016506
1658	8.2850e-01	-13.6857	-33.516841	0.000271	2.713806	0.919462	0.021809
1659	8.2900e-01	-13.6440	-33.459112	0.000144	1.436721	0.486774	0.011546
1660	8.2950e-01	-13.6087	-33.368883	0.000225	2.245541	0.760810	0.018046
1661	8.3000e-01	-13.5526	-33.343226	0.000064	0.638543	0.216344	0.005132
1662	8.3050e-01	-13.5173	-33.269246	0.000184	1.841131	0.623792	0.014796
1663	8.3100e-01	-13.4900	-33.141814	0.000317	3.171428	1.074509	0.025486
1664	8.3150e-01	-13.4242	-33.021224	0.000300	3.001150	1.016817	0.024118
1665	8.3200e-01	-13.3921	-33.132406	-0.000277	-2.767018	-0.937491	-0.022237
1666	8.3250e-01	-13.3504	-32.985303	0.000366	3.660978	1.240373	0.029421
1667	8.3300e-01	-13.3103	-32.849318	0.000338	3.384276	1.146624	0.027197
1668	8.3350e-01	-13.2895	-32.768925	0.000200	2.000767	0.677878	0.016079
1669	8.3400e-01	-13.2590	-32.583335	0.000462	4.618792	1.564889	0.037118
1670	8.3450e-01	-13.2028	-32.623532	-0.000100	-1.000383	-0.338939	-0.008039
1671	8.3500e-01	-13.1515	-32.615835	0.000019	0.191563	0.064903	0.001539
1672	8.3550e-01	-13.1050	-32.493962	0.000303	3.033077	1.027634	0.024375
1673	8.3600e-01	-13.0954	-32.443930	0.000125	1.245158	0.421871	0.010006
1674	8.3650e-01	-13.0344	-32.405443	0.000096	0.957814	0.324516	0.007697
1675	8.3700e-01	-13.0039	-32.216433	0.000470	4.703931	1.593735	0.037802
1676	8.3750e-01	-12.9558	-32.044100	0.000429	4.288878	1.453111	0.034467
1677	8.3800e-01	-12.9173	-32.050514	-0.000016	-0.159636	-0.054086	-0.001283
1678	8.3850e-01	-12.8643	-32.059067	-0.000021	-0.212848	-0.072115	-0.001711
1679	8.3900e-01	-12.8676	-31.785814	-0.000680	-6.800479	-2.304065	0.054651
1680	8.3950e-01	-12.7905	-31.765288	0.000051	0.510834	0.173075	0.004105
1681	8.4000e-01	-12.7601	-31.689171	0.000189	1.894343	0.641821	0.015223
1682	8.4050e-01	-12.7023	-31.811472	-0.000304	-3.043720	-1.031240	-0.024460
1683	8.4100e-01	-12.6750	-31.704138	0.000267	2.671237	0.905039	0.021467
1684	8.4150e-01	-12.6526	-31.542068	0.000403	4.033461	1.366574	0.032414
1685	8.4200e-01	-12.6125	-31.481773	0.000150	1.500575	0.508409	0.012059
1686	8.4250e-01	-12.5531	-31.446707	0.000087	0.872675	0.295670	0.007013
1687	8.4300e-01	-12.5162	-31.400524	0.000115	1.149377	0.389419	0.009237
1688	8.4350e-01	-12.4890	-31.272236	0.000319	3.192713	1.081720	0.025658
1689	8.4400e-01	-12.4521	-31.113160	0.000396	3.958964	1.341333	0.031815
1690	8.4450e-01	-12.4136	-31.092206	0.000052	0.521476	0.176681	0.004191
1691	8.4500e-01	-12.3638	-31.046450	0.000114	1.138734	0.385814	0.009151
1692	8.4550e-01	-12.3317	-30.936550	0.000274	2.735091	0.926674	0.021980
1693	8.4600e-01	-12.2628	-30.936123	0.000001	0.010642	0.003606	0.000086
1694	8.4650e-01	-12.2371	-30.836059	0.000249	2.490316	0.843742	0.020013
1695	8.4700e-01	-12.2098	-30.743691	0.000230	2.298753	0.778839	0.018473
1696	8.4750e-01	-12.1440	-30.653890	0.000223	2.234899	0.757204	0.017960
1697	8.4800e-01	-12.1200	-30.536293	0.000293	2.926654	0.991577	0.023519
1698	8.4850e-01	-12.0799	-30.328040	0.000518	5.182837	1.755993	0.041651
1699	8.4900e-01	-12.0494	-30.469584	-0.000352	-3.522627	-1.193498	-0.028309
1700	8.4950e-01	-12.0045	-30.383631	0.000214	2.139118	0.724753	0.017191
1701	8.5000e-01	-11.9515	-30.153569	0.000573	5.725599	1.939885	0.046012
1702	8.5050e-01	-11.9178	-30.060774	0.000231	2.309396	0.782444	0.018559
1703	8.5100e-01	-11.8890	-30.100543	-0.000099	-0.989741	-0.335333	-0.007954
1704	8.5150e-01	-11.8360	-30.040676	0.000149	1.489933	0.504803	0.011974
1705	8.5200e-01	-11.7799	-30.023143	0.000044	0.436337	0.147835	0.003507
1706	8.5250e-01	-11.7783	-29.813607	0.000521	5.214765	1.766810	0.041907
1707	8.5300e-01	-11.7109	-29.654958	0.000395	3.948322	1.337728	0.031730
1708	8.5350e-01	-11.6900	-29.703279	-0.000120	-1.202589	-0.407448	-0.009664
1709	8.5400e-01	-11.6515	-29.560452	0.000355	3.554554	1.204315	0.028565
1710	8.5450e-01	-11.5986	-29.443283	0.000292	2.916011	0.987971	0.023434
1711	8.5500e-01	-11.5585	-29.425323	0.000045	0.446980	0.151441	0.003592
1712	8.5550e-01	-11.5264	-29.363317	0.000154	1.543145	0.522832	0.012401
1713	8.5600e-01	-11.4638	-29.167465	0.000487	4.874209	1.651427	0.039170
1714	8.5650e-01	-11.4221	-29.237168	-0.000173	-1.734707	-0.587735	-0.013941
1715	8.5700e-01	-11.4013	-29.222201	0.000037	0.372483	0.126201	0.002993
1716	8.5750e-01	-11.3564	-29.050295	0.000428	4.278235	1.449505	0.034381
1717	8.5800e-01	-11.3307	-29.068683	-0.000046	-0.457622	-0.155047	-0.003678
1718	8.5850e-01	-11.2970	-28.724873	0.000856	8.556471	2.899011	0.068762
1719	8.5900e-01	-11.2425	-28.710333	0.000036	0.361841	0.122595	0.002908
1720	8.5950e-01	-11.2040	-28.768063	-0.000144	-1.436721	-0.486774	-0.011546
1721	8.6000e-01	-11.1767	-28.724445	0.000109	1.085522	0.367785	0.008724
1722	8.6050e-01	-11.1045	-28.568789	0.000387	3.873825	1.312487	0.031131
1723	8.6100e-01	-11.0885	-28.446916	0.000303	3.033077	1.027634	0.024375
1724	8.6150e-01	-11.0467	-28.440929	0.000015	0.148993	0.050480	0.001197
1725	8.6200e-01	-10.9986	-28.435370	0.000014	0.138351	0.046875	0.001112
1726	8.6250e-01	-10.9649	-28.247643	0.000467	4.672003	1.582918	0.037545
1727	8.6300e-01	-10.9024	-28.172808	0.000186	1.862416	0.631004	0.014967
1728	8.6350e-01	-10.8671	-28.089421	0.000208	2.075263	0.703118	0.016677
1729	8.6400e-01	-10.8334	-28.095836	-0.000016	-0.159636	-0.054086	-0.001283
1730	8.6450e-01	-10.7917	-27.909819	0.000463	4.629434	1.568495	0.037203
1731	8.6500e-01	-10.7500	-27.873043	0.000092	0.915244	0.310093	0.007355
1732	8.6550e-01	-10.7307	-27.755874	0.000292	2.916011	0.987971	0.023434
1733	8.6600e-01	-10.6665	-27.790511	-0.000086	-0.862033	-0.292065	-0.006928
1734	8.6650e-01	-10.6345	-27.548475	0.000602	6.023585	2.040846	0.048407
1735	8.6700e-01	-10.5927	-27.586962	-0.000096	-0.957814	-0.324516	-0.007697
1736	8.6750e-01	-10.5687	-27.399234	0.000467	4.672003	1.582918	0.037545
1737	8.6800e-01	-10.5174	-27.388544	0.000027	0.266059	0.090143	0.002138
1738	8.6850e-01	-10.4821	-27.304301	0.000210	2.096548	0.710330	0.016848
1739	8.6900e-01	-10.4436	-27.285058	0.000048	0.478907	0.162258	0.003849
1740	8.6950e-01	-10.3682	-27.179862	0.000262	2.618025	0.887011	0.021039
1741	8.7000e-01	-10.3714	-27.090061	-0.000223	-2.234899	-0.757204	0.017960
1742	8.7050e-01	-10.2831	-26.998122	0.000229	2.288111	0.775233	0.018388
1743	8.7100e-01	-10.2527	-26.953221	0.000112	1.117450	0.378602	0.008980
1744	8.7150e-01	-10.2190	-26.859144	0.000234	2.341323	0.793262	0.018816
1745	8.7200e-01	-10.2142	-26.803125	0.000139	1.394151	0.472351	0.011204
1746	8.7250e-01	-10.1468	-26.585036	0.000543	5.427612	1.838925	0.043618
1747	8.7300e-01	-10.1099	-26.573062	0.000030	0.297987	0.100961	0.002395
1748	8.7350e-01	-10.0746	-26.507636	0.000163	1.628284	0.551677	0.013085
1749	8.7400e-01	-10.0457	-26.375927	0.000328	3.277852	1.110566	0.026342
1750	8.7450e-01	-9.9783	-26.325040	0.000127	1.266443	0.429082	0.010177
1751	8.7500e-01	-9.9543	-26.304086	0.000052	0.521476	0.176681	0.004191
1752	8.7550e-01	-9.9077	-26.118069	0.000463	4.629434	1.568495	0.037203
1753	8.7600e-01	-9.8837	-26.072313	0.000114	1.138734	0.385814	0.009151
1754	8.7650e-01	-9.8259	-25.945736	0.000315	3.150144	1.067298	0.025315
1755	8.7700e-01	-9.7938	-25.925638	0.000050	0.500192	0.169470	0.004020
1756	8.7750e-01	-9.7618	-25.850803	0.000186	1.862416	0.631004	0.014967
1757	8.7800e-01	-9.7168	-25.795639	0.000137	1.372867	0.465140	0.011033
1758	8.7850e-01	-9.6623	-25.746035	0.000123	1.234516	0.418265	0.009921
1759	8.7900e-01	-9.6190	-25.598932	0.000366	3.660978	1.240373	0.029421
1760	8.7950e-01	-9.6061	-25.456533	0.000354	3.543911	1.200710	0.028480
1761	8.8000e-01	-9.5500	-25.369297	0.000217	2.171045	0.735570	0.017447
1762	8.8050e-01	-9.5035	-25.392389	-0.000057	-0.574688	-0.194710	-0.004618
1763	8.8100e-01	-9.4537	-25.313278	0.000197	1.968840	0.667061	0.015822
1764	8.8150e-01	-9.4377	-25.078939	0.000583	5.832022	1.975943	0.046868
1765	8.8200e-01	-9.3832	-25.205517	-0.000315	-3.150144	-1.067298	-0.025315
1766	8.8250e-01	-9.3350	-24.963481	0.000602	6.023585	2.040846	0.048407
1767	8.8300e-01	-9.3126	-25.005816	-0.000105	-1.053595	-0.356968	-0.008467
1768	8.8350e-01	-9.2612	-24.804832	0.000500	5.001917	1.694695	0.040197
1769	8.8400e-01	-9.2308	-24.771477	0.000083	0.830105	0.281247	0.006671
1770	8.8450e-01	-9.1939	-24.742826	0.000071	0.713039	0.241584	0.005730
1771	8.8500e-01	-9.1730	-24.697925	0.000112	1.117450	0.378602	0.008980
1772	8.8550e-01	-9.1169	-24.555526	0.000354	3.543911	1.200710	0.028480
1773	8.8600e-01	-9.0719	-24.450758	0.000261	2.607382	0.883405	0.020954
1774	8.8650e-01	-9.0302	-24.345562	0.000262	2.618025	0.887011	0.021039
1775	8.8700e-01	-8.9933	-24.298096	0.000118	1.181304	0.400237	0.009493
1776	8.8750e-01	-8.9308	-24.137736	0.000399	3.990891	1.352151	0.032072
1777	8.8800e-01	-8.9115	-24.156979	-0.000048	-0.478907	-0.162258	-0.003849
1778	8.8850e-01	-8.8650	-24.040238	0.000291	2.905369	0.984366	0.023348
1779	8.8900e-01	-8.8265	-23.838399	0.000502	5.023202	1.701907	0.040368
1780	8.8950e-01	-8.7896	-24.005172	-0.000415	-4.150527	-1.406237	-0.033355
1781	8.9000e-01	-8.7431	-23.746032	0.000645	6.449280	2.185075	0.051828
1782	8.9050e-01	-8.7094	-23.728499	0.000044	0.436337	0.147835	0.003507
1783	8.9100e-01	-8.6661	-23.584817	0.000358	3.575839	1.211527	0.028736
1784	8.9150e-01	-8.6260	-23.632711	-0.000119	-1.191946	-0.403842	-0.009579
1785	8.9200e-01	-8.5810	-23.477910	0.000385	3.852540	1.305276	0.030960
1786	8.9250e-01	-8.5634	-23.304722	0.000431	4.310163	1.460323	0.034638
1787	8.9300e-01	-8.5153	-23.342781	-0.000095	-0.947172	-0.320910	-0.007612
1788	8.9350e-01	-8.4720	-23.127258	0.000536	5.363758	1.817290	0.043105
1789	8.9400e-01	-8.4238	-23.072949	0.000135	1.351582	0.457928	0.010862
1790	8.9450e-01	-8.3901	-23.010516	0.000155	1.553787	0.526437	0.012487
1791	8.9500e-01	-8.3372	-22.966898	0.000109	1.085522	0.367785	0.008724
1792	8.9550e-01	-8.3115	-22.933543	0.000083	0.830105	0.281247	0.006671
1793	8.9600e-01	-8.2666	-22.778743	0.000385	3.852540	1.305276	0.030960
1794	8.9650e-01	-8.2217	-22.722297	0.000140	1.404794	0.475957	0.011289
1795	8.9700e-01	-8.1768	-22.626081	0.000239	2.394535	0.811290	0.019243
1796	8.9750e-01	-8.1431	-22.591871	0.000085	0.851390	0.288459	0.006842
1797	8.9800e-01	-8.0998	-22.491379	0.000250	2.500959	0.847348	0.020098
1798	8.9850e-01	-8.0773	-22.334440	0.000391	3.905752	1.323305	0.031388
1799	8.9900e-01	-8.0099	-22.337006	-0.000006	-0.063854	-0.021634	-0.000513
1800	8.9950e-01	-7.9762	-22.230528	0.000265	2.649952	0.897828	0.021296
1801	9.0000e-01	-7.9458	-22.154410	0.000189	1.894343	0.641821	0.015223
1802	9.0050e-01	-7.8944	-21.975663	0.000445	4.448513	1.507197	0.035749
1803	9.0100e-01	-7.8752	-22.006880	-0.000078	-0.776894	-0.263219	-0.006243
1804	9.0150e-01	-7.8206	-21.917933	0.000221	2.213614	0.749993	0.017789
1805	9.0200e-01	-7.7821	-21.743035	0.000435	4.352732	1.474746	0.034980
1806	9.0250e-01	-7.7500	-21.680601	0.000155	1.553787	0.526437	0.012487
1807	9.0300e-01	-7.7035	-21.704548	-0.000060	-0.595973	-0.201921	-0.004789
1808	9.0350e-01	-7.6634	-21.608333	0.000239	2.394535	0.811290	0.019243
1809	9.0400e-01	-7.6458	-21.418895	0.000471	4.714573	1.597341	0.037888
1810	9.0450e-01	-7.6041	-21.327383	0.000228	2.277469	0.771627	0.018302
1811	9.0500e-01	-7.5447	-21.367580	-0.000100	-1.000383	-0.338939	-0.008039
1812	9.0550e-01	-7.4934	-21.163602	0.000508	5.076414	1.719936	0.040795
1813	9.0600e-01	-7.4693	-21.051137	0.000280	2.798945	0.948308	0.022493
1814	9.0650e-01	-7.4196	-21.037025	0.000035	0.351198	0.118989	0.002822
1815	9.0700e-01	-7.3731	-20.939099	0.000244	2.437104	0.825713	0.019585
1816	9.0750e-01	-7.3490	-20.817226	0.000303	3.033077	1.027634	0.024375
1817	9.0800e-01	-7.3041	-20.815088	0.000005	0.053212	0.018029	0.000428
1818	9.0850e-01	-7.2688	-20.745813	0.000172	1.724065	0.584129	0.013855
1819	9.0900e-01	-7.2399	-20.579039	0.000415	4.150527	1.406237	0.033355
1820	9.0950e-01	-7.2062	-20.445192	0.000333	3.331064	1.128595	0.026769
1821	9.1000e-01	-7.1276	-20.489237	-0.000110	-1.096165	-0.371391	-0.008809
1822	9.1050e-01	-7.1084	-20.255754	0.000581	5.810738	1.968731	0.046697
1823	9.1100e-01	-7.0634	-20.244636	0.000028	0.276702	0.093749	0.002224
1824	9.1150e-01	-7.0233	-20.237794	0.000017	0.170278	0.057692	0.001368
1825	9.1200e-01	-6.9832	-20.154407	0.000208	2.075263	0.703118	0.016677
1826	9.1250e-01	-6.9640	-20.008587	0.000363	3.629050	1.229556	0.029164
1827	9.1300e-01	-6.9094	-19.912371	0.000239	2.394535	0.811290	0.019243
1828	9.1350e-01	-6.8581	-20.016284	-0.000259	-2.586098	-0.876194	-0.020783
1829	9.1400e-01	-6.8372	-19.731913	0.000708	7.077181	2.397814	0.056874
1830	9.1450e-01	-6.7843	-19.617737	0.000284	2.841515	0.962731	0.022835
1831	9.1500e-01	-6.7330	-19.604053	0.000034	0.340556	0.115384	0.002737
1832	9.1550e-01	-6.7233	-19.456095	0.000368	3.682262	1.247584	0.029592
1833	9.1600e-01	-6.6608	-19.406918	0.000122	1.223873	0.414660	0.009835
1834	9.1650e-01	-6.6319	-19.381688	0.000063	0.627900	0.212738	0.005046
1835	9.1700e-01	-6.5918	-19.177283	0.000509	5.087056	1.723541	0.040881
1836	9.1750e-01	-6.5372	-19.098600	0.000196	1.958197	0.663455	0.015737
1837	9.1800e-01	-6.5116	-18.974161	0.000310	3.096932	1.049269	0.024888
1838	9.1850e-01	-6.4667	-18.938241	0.000089	0.893960	0.302882	0.007184
1839	9.1900e-01	-6.4121	-19.018634	-0.000200	-2.000767	-0.677878	-0.016079
1840	9.1950e-01	-6.3993	-18.679527	0.000844	8.439405	2.859348	0.067821
1841	9.2000e-01	-6.3383	-18.681238	-0.000004	-0.042570	-0.014423	-0.000342
1842	9.2050e-01	-6.3030	-18.669264	0.000030	0.297987	0.100961	0.002395
1843	9.2100e-01	-6.2838	-18.570055	0.000247	2.469031	0.836530	0.019842
1844	9.2150e-01	-6.2340	-18.412261	0.000393	3.927037	1.330516	0.031559
1845	9.2200e-01	-6.1683	-18.335717	0.000190	1.904985	0.645427	0.015309
1846	9.2250e-01	-6.1506	-18.195883	0.000348	3.480057	1.179075	0.027967
1847	9.2300e-01	-6.1105	-18.217692	-0.000054	-0.542761	-0.183892	-0.004362
1848	9.2350e-01	-6.0351	-18.154403	0.000158	1.575072	0.533649	0.012658
1849	9.2400e-01	-6.0255	-18.085983	0.000170	1.702780	0.576918	0.013684
1850	9.2450e-01	-5.9790	-17.974801	0.000277	2.767018	0.937491	0.022237
1851	9.2500e-01	-5.9437	-17.813158	0.000402	4.022818	1.362968	0.032328
1852	9.2550e-01	-5.8795	-17.788356	0.000062	0.617258	0.209133	0.004960
1853	9.2600e-01	-5.8763	-17.636977	0.000377	3.767401	1.276430	0.030276
1854	9.2650e-01	-5.8234	-17.522373	0.000285	2.852157	0.966337	0.022921
1855	9.2700e-01	-5.7688	-17.419743	0.000255	2.554170	0.865376	0.020526
1856	9.2750e-01	-5.7512	-17.373560	0.000115	1.149377	0.389419	0.009237
1857	9.2800e-01	-5.6870	-17.297015	0.000190	1.904985	0.645427	0.015309
1858	9.2850e-01	-5.6597	-17.201227	0.000238	2.383892	0.807685	0.019158
1859	9.2900e-01	-5.6421	-17.131096	0.000175	1.745350	0.591341	0.014026
1860	9.2950e-01	-5.5843	-17.105439	0.000064	0.638543	0.216344	0.005132
1861	9.3000e-01	-5.5346	-16.983993	0.000302	3.022435	1.024029	0.024289
1862	9.3050e-01	-5.5218	-16.832186	0.000378	3.778044	1.280036	0.030361
1863	9.3100e-01	-5.4608	-16.880080	-0.000119	-1.191946	-0.403842	-0.009579
1864	9.3150e-01	-5.4127	-16.777878	0.000254	2.543528	0.861771	0.020440
1865	9.3200e-01	-5.3758	-16.566203	0.000527	5.267976	1.784839	0.042335
1866	9.3250e-01	-5.3405	-16.638044	-0.000179	-1.787919	-0.605763	-0.014368
1867	9.3300e-01	-5.2876	-16.483671	0.000384	3.841898	1.301670	0.030875
1868	9.3350e-01	-5.2619	-16.279267	0.000509	5.087056	1.723541	0.040881
1869	9.3400e-01	-5.2250	-16.195880	0.000208	2.075263	0.703118	0.016677
1870	9.3450e-01	-5.1929	-16.139861	0.000139	1.394151	0.472351	0.011204
1871	9.3500e-01	-5.1287	-16.142854	-0.000007	-0.074497	-0.025240	-0.000599
1872	9.3550e-01	-5.1143	-16.003876	0.000346	3.458772	1.171864	0.027796
1873	9.3600e-01	-5.0581	-15.949140	0.000136	1.362224	0.461534	0.010947
1874	9.3650e-01	-5.0325	-15.752005	0.000491	4.906136	1.662244	0.039427
1875	9.3700e-01	-4.9844	-15.816576	-0.000161	-1.606999	-0.544466	-0.012914
1876	9.3750e-01	-4.9282	-15.685723	0.000326	3.256567	1.103355	0.026171
1877	9.3800e-01	-4.9073	-15.510396	0.000436	4.363374	1.478351	0.035065
1878	9.3850e-01	-4.8640	-15.402207	0.000269	2.692521	0.912251	0.021638
1879	9.3900e-01	-4.8143	-15.349182	0.000132	1.319655	0.447111	0.010605
1880	9.3950e-01	-4.7838	-15.405628	-0.000140	-1.404794	-0.475957	-0.011289
1881	9.4000e-01	-4.7261	-15.132803	0.000679	6.789836	2.300459	0.054565
1882	9.4050e-01	-4.7116	-15.096027	0.000092	0.915244	0.310093	0.007355
1883	9.4100e-01	-4.6715	-15.054548	0.000103	1.032311	0.349756	0.008296
1884	9.4150e-01	-4.6218	-15.034449	0.000050	0.500192	0.169470	0.004020
1885	9.4200e-01	-4.5897	-14.888202	0.000364	3.639693	1.233161	0.029250
1886	9.4250e-01	-4.5480	-14.697481	0.000475	4.746500	1.608158	0.038144
1887	9.4300e-01	-4.5079	-14.672251	0.000063	0.627900	0.212738	0.005046
1888	9.4350e-01	-4.4534	-14.600837	0.000178	1.777277	0.602158	0.014283
1889	9.4400e-01	-4.4245	-14.608535	-0.000019	-0.191563	-0.064903	-0.001539
1890	9.4450e-01	-4.3571	-14.461432	0.000366	3.660978	1.240373	0.029421
1891	9.4500e-01	-4.3298	-14.400281	0.000152	1.521860	0.515620	0.012230
1892	9.4550e-01	-4.3090	-14.264296	0.000338	3.384276	1.146624	0.027197
1893	9.4600e-01	-4.2624	-14.085121	0.000446	4.459156	1.510803	0.035835
1894	9.4650e-01	-4.2175	-14.003017	0.000204	2.043336	0.692301	0.016421
1895	9.4700e-01	-4.1662	-14.072720	-0.000173	-1.734707	-0.587735	-0.013941
1896	9.4750e-01	-4.1694	-13.887131	-0.000462	-4.618792	-1.564889	0.037118
1897	9.4800e-01	-4.1068	-13.871736	0.000038	0.383126	0.129806	0.003079
1898	9.4850e-01	-4.0603	-13.664338	0.000516	5.161553	1.748781	0.041480
1899	9.4900e-01	-4.0106	-13.632694	0.000079	0.787536	0.266824	0.006329
1900	9.4950e-01	-3.9753	-13.462071	0.000425	4.246308	1.438688	0.034124
1901	9.5000e-01	-3.9512	-13.353882	0.000269	2.692521	0.912251	0.021638
1902	9.5050e-01	-3.9223	-13.248259	0.000263	2.628667	0.890617	0.021125
1903	9.5100e-01	-3.8518	-13.311120	-0.000156	-1.564429	-0.530043	-0.012572
1904	9.5150e-01	-3.8229	-13.157602	0.000382	3.820613	1.294459	0.030703
1905	9.5200e-01	-3.7667	-13.123392	0.000085	0.851390	0.288459	0.006842
1906	9.5250e-01	-3.7651	-12.863396	0.000647	6.470565	2.192287	0.051999
1907	9.5300e-01	-3.6913	-12.935665	-0.000180	-1.798562	-0.609369	-0.014454
1908	9.5350e-01	-3.6512	-12.815929	0.000298	2.979865	1.009606	0.023947
1909	9.5400e-01	-3.5790	-12.818495	-0.000006	-0.063854	-0.021634	-0.000513
1910	9.5450e-01	-3.5662	-12.611097	0.000516	5.161553	1.748781	0.041480
1911	9.5500e-01	-3.5502	-12.560637	0.000126	1.255800	0.425477	0.010092
1912	9.5550e-01	-3.4940	-12.413962	0.000365	3.650335	1.236767	0.029335
1913	9.5600e-01	-3.4651	-12.371627	0.000105	1.053595	0.356968	0.008467
1914	9.5650e-01	-3.4218	-12.178340	0.000481	4.810354	1.629792	0.038657
1915	9.5700e-01	-3.3962	-12.146268	0.000080	0.798178	0.270430	0.006414
1916	9.5750e-01	-3.3480	-12.021402	0.000311	3.107574	1.052875	0.024973
1917	9.5800e-01	-3.2983	-11.988902	0.000081	0.808821	0.274036	0.006500
1918	9.5850e-01	-3.2566	-11.878147	0.000276	2.756376	0.933885	0.022151
1919	9.5900e-01	-3.2261	-11.893542	-0.000038	-0.383126	-0.129806	-0.003079
1920	9.5950e-01	-3.1716	-11.667756	0.000562	5.619175	1.903828	0.045157
1921	9.6000e-01	-3.1427	-11.605322	0.000155	1.553787	0.526437	0.012487
1922	9.6050e-01	-3.1170	-11.509534	0.000238	2.383892	0.807685	0.019158
1923	9.6100e-01	-3.0529	-11.503975	0.000014	0.138351	0.046875	0.001112
1924	9.6150e-01	-2.9967	-11.387661	0.000289	2.894726	0.980760	0.023263
1925	9.6200e-01	-2.9807	-11.254670	0.000331	3.309779	1.121384	0.026598
1926	9.6250e-01	-2.9374	-11.121678	0.000331	3.309779	1.121384	0.026598
1927	9.6300e-01	-2.8956	-11.006219	0.000287	2.873442	0.973548	0.023092
1928	9.6350e-01	-2.8571	-10.913425	0.000231	2.309396	0.782444	0.018559
1929	9.6400e-01	-2.8234	-10.942931	-0.000073	-0.734324	-0.248796	-0.005901
1930	9.6450e-01	-2.7657	-10.834742	0.000269	2.692521	0.912251	0.021638
1931	9.6500e-01	-2.7336	-10.768032	0.000166	1.660211	0.562495	0.013342
1932	9.6550e-01	-2.6983	-10.679086	0.000221	2.213614	0.749993	0.017789
1933	9.6600e-01	-2.6727	-10.361788	0.000790	7.896644	2.675455	0.063460
1934	9.6650e-01	-2.6325	-10.465273	-0.000258	-2.575455	-0.872588	-0.020697
1935	9.6700e-01	-2.6021	-10.360933	0.000260	2.596740	0.879799	0.020868
1936	9.6750e-01	-2.5315	-10.298072	0.000156	1.564429	0.530043	0.012572
1937	9.6800e-01	-2.4850	-10.185179	0.000281	2.809587	0.951914	0.022579
1938	9.6850e-01	-2.4529	-10.079983	0.000262	2.618025	0.887011	0.021039
1939	9.6900e-01	-2.4416	-9.979919	0.000249	2.490316	0.843742	0.020013
1940	9.6950e-01	-2.3855	-9.787915	0.000478	4.778427	1.618975	0.038401
1941	9.7000e-01	-2.3422	-9.857618	-0.000173	-1.734707	-0.587735	-0.013941
1942	9.7050e-01	-2.2908	-9.740876	0.000291	2.905369	0.984366	0.023348
1943	9.7100e-01	-2.2523	-9.489432	0.000626	6.257718	2.120172	0.050289
1944	9.7150e-01	-2.2122	-9.460354	0.000072	0.723682	0.245190	0.005816
1945	9.7200e-01	-2.1705	-9.465913	-0.000014	-0.138351	-0.046875	-0.001112
1946	9.7250e-01	-2.1208	-9.345750	0.000299	2.990508	1.013211	0.024033
1947	9.7300e-01	-2.1096	-9.323086	0.000056	0.564046	0.191104	0.004533
1948	9.7350e-01	-2.0470	-9.211476	0.000278	2.777660	0.941097	0.022322
1949	9.7400e-01	-2.0149	-9.041709	0.000423	4.225024	1.431477	0.033953
1950	9.7450e-01	-1.9732	-8.920263	0.000302	3.022435	1.024029	0.024289
1951	9.7500e-01	-1.9267	-8.804804	0.000287	2.873442	0.973548	0.023092
1952	9.7550e-01	-1.8882	-8.795397	0.000023	0.234132	0.079326	0.001882
1953	9.7600e-01	-1.8705	-8.774443	0.000052	0.521476	0.176681	0.004191
1954	9.7650e-01	-1.8128	-8.561058	0.000531	5.310546	1.799262	0.042677
1955	9.7700e-01	-1.7775	-8.534118	0.000067	0.670470	0.227161	0.005388
1956	9.7750e-01	-1.7470	-8.549512	-0.000038	-0.383126	-0.129806	-0.003079
1957	9.7800e-01	-1.6909	-8.378034	0.000427	4.267593	1.445900	0.034296
1958	9.7850e-01	-1.6443	-8.285667	0.000230	2.298753	0.778839	0.018473
1959	9.7900e-01	-1.6026	-8.173202	0.000280	2.798945	0.948308	0.022493
1960	9.7950e-01	-1.5786	-8.056033	0.000292	2.916011	0.987971	0.023434
1961	9.8000e-01	-1.5513	-7.914489	0.000352	3.522627	1.193498	0.028309
1962	9.8050e-01	-1.4984	-7.851200	0.000158	1.575072	0.533649	0.012658
1963	9.8100e-01	-1.4599	-7.808010	0.000107	1.074880	0.364179	0.008638
1964	9.8150e-01	-1.4133	-7.573671	0.000583	5.832022	1.975943	0.046868
1965	9.8200e-01	-1.3845	-7.713932	-0.000349	-3.490700	-1.182681	-0.028052
1966	9.8250e-01	-1.3235	-7.418443	0.000735	7.353882	2.491563	0.059098
1967	9.8300e-01	-1.2946	-7.373543	0.000112	1.117450	0.378602	0.008980
1968	9.8350e-01	-1.2641	-7.324366	0.000122	1.223873	0.414660	0.009835
1969	9.8400e-01	-1.2160	-7.169138	0.000386	3.863183	1.308882	0.031046
1970	9.8450e-01	-1.1759	-7.082757	0.000215	2.149760	0.728358	0.017276
1971	9.8500e-01	-1.1454	-7.032725	0.000125	1.245158	0.421871	0.010006
1972	9.8550e-01	-1.0796	-6.989963	0.000106	1.064238	0.360573	0.008553
1973	9.8600e-01	-1.0524	-6.863386	0.000315	3.150144	1.067298	0.025315
1974	9.8650e-01	-1.0331	-6.740230	0.000307	3.065005	1.038452	0.024631
1975	9.8700e-01	-0.9593	-6.773584	-0.000083	-0.830105	-0.281247	-0.006671
1976	9.8750e-01	-0.9385	-6.675658	0.000244	2.437104	0.825713	0.019585
1977	9.8800e-01	-0.8936	-6.390004	0.000711	7.109108	2.408631	0.057131
1978	9.8850e-01	-0.8551	-6.248461	0.000352	3.522627	1.193498	0.028309
1979	9.8900e-01	-0.8166	-6.144120	0.000260	2.596740	0.879799	0.020868
1980	9.8950e-01	-0.7941	-6.165929	-0.000054	-0.542761	-0.183892	-0.004362
1981	9.9000e-01	-0.7235	-6.155666	0.000026	0.255417	0.086538	0.002053
1982	9.9050e-01	-0.6770	-6.062016	0.000233	2.330681	0.789656	0.018730
1983	9.9100e-01	-0.6417	-5.903795	0.000394	3.937679	1.334122	0.031644
1984	9.9150e-01	-0.6240	-5.761395	0.000354	3.543911	1.200710	0.028480
1985	9.9200e-01	-0.5583	-5.710080	0.000128	1.277085	0.432688	0.010263
1986	9.9250e-01	-0.5134	-5.627121	0.000206	2.064621	0.699513	0.016592
1987	9.9300e-01	-0.5021	-5.450512	0.000440	4.395302	1.489168	0.035322
1988	9.9350e-01	-0.4540	-5.584358	-0.000333	-3.331064	-1.128595	-0.026769
1989	9.9400e-01	-0.4380	-5.397486	0.000465	4.650719	1.575706	0.037374
1990	9.9450e-01	-0.3642	-5.166996	0.000574	5.736241	1.943491	0.046098
1991	9.9500e-01	-0.3417	-5.186239	-0.000048	-0.478907	-0.162258	-0.003849
1992	9.9550e-01	-0.3000	-5.177687	0.000021	0.212848	0.072115	0.001711
1993	9.9600e-01	-0.2679	-4.938644	0.000595	5.949089	2.015606	0.047809
1994	9.9650e-01	-0.2150	-4.771015	0.000417	4.171812	1.413448	0.033526
1995	9.9700e-01	-0.1668	-4.895882	-0.000311	-3.107574	-1.052875	-0.024973
1996	9.9750e-01	-0.1235	-4.705589	0.000474	4.735858	1.604552	0.038059
1997	9.9800e-01	-0.0882	-4.654701	0.000127	1.266443	0.429082	0.010177
1998	9.9850e-01	-0.0321	-4.428487	0.000563	5.629817	1.907434	0.045243
1999	9.9900e-01	-0.0144	-4.415659	0.000032	0.319271	0.108172	0.002566
2000	9.9950e-01	0.0096	-4.388291	0.000068	0.681112	0.230767	0.005474
2001	1.0000e+00	0.0690	-4.219379	0.000068	0.681112	0.230767	0.033782

PMax (uC/cm2):	4.73e+01
Pr (uC/cm2):	1.35e+00
-Pr (uC/cm2):	-1.38e+00
PLoss (uC/cm2):	-1.36e+00
Vc:	-5.70e-01
-Vc:	-5.59e-01
C (Max-Eff) (nF):	2.36e-01
K (Eff):	8.00e+02
Vert. (+/-Pr) Shift (uC/cm2):	-1.71e-02
Horiz. Shift (+/-Vc):	-5.64e-01
Offset (uC/cm2):	2.84e+00

A (Loop Area - uC/cm2·Volts):	2.22e-01



Hysteresis Version: 5.48.1 - Radiant Technologies, Inc., 1999 - 9/12/24

