»»»»»»»»»»»»»»»»»»»»»»»»»»»»»»»»»»»» Hysteresis ««««««««««««««««««««««««««««««««««««
»»»  Executed Version:	5.48.1
»»»  Vision Version:	5.48.4 (R)
»»»  Vision Compiled:	9/18/24
»»»  Driver Version:	5.47.0
»»»  Windows Version:	Windows 8 or 8.1
»»»  Processor Information:	x86 (AMD or Intel) - 32 Processors
»»»  Tester Name:	PMF21124-494 (100V)
»»»  Tester S/N:	PMF21124-494
»»»  Internal Amp Type:	100V RevK 270k
»»»  Internal Amp S/N:	iAB2-596/K     
»»»  Execution Count:	1
»»»»»»»»»»»»»»»»»»»»»»»»»»»»»»»»»»»»»»»»»»««««««««««««««««««««««««««««««««««««««««««

Stored:	6/19/2025 - 16:13:52
Configured:	06/19/25 10:04:32 AM
Executed:	06/19/25 04:13:30 PM

»»»»»»»»»»»»»»»»»»»»»»»»»»»»»»»»»»» Sample Info ««««««««««««««««««««««««««««««««««««
Sample Name:	
Lot Name:	
Wafer Name:	
Die Row/Column:	0/0
Capacitor Number:	0
Sample Area (cm2):	1.00e-04
Sample Thickness (microns):	3.00e-01

Amplifier:	Internal

»»»»»»»»»»»»»»»»»»»»»»»»»»»»»»»»»»» Tester Info «««««««««««««««««««««««««««««««««««
Tester Name:	PMF21124-494 (100V)
Tester Serial Number:	PMF21124-494
Return Signal Amp. Level:	1.79 [Index: 2]

»»»»»»»»»»»»»»»»»»»»»»»»»»»»»»»» Hysteresis Info ««««««««««««««««««««««««««««««««««
Task Name:	Hyst-1168
Volts:	20.00
Field:	666.67 (kV/cm)
DCBias:	0.00
DCField:	0.00 (kV/cm)
Hysteresis Period (ms):	1.00e+00
Preset:	Enabled
Preset Delay (ms):	1.00e+03
Profile:	Standard Bipolar

»»»»»»»»»»»»»»»»»»»»»»»»»»»»»»»»»»»»»» Data «««««««««««««««««««««««««««««««««««««««
Points:	2001

Valid Data

Point	Time (ms)	Drive Voltage	Measured Polarization (uC/cm2)	Capacitance (uF)	Normalized Capacitance (uF/cm2)	Dielectric Constant	Instantaneous Current (mA)
   1	0.0000e+00	0.0465	-4.032293	-0.000657	-6.566330	-2.224733	0.052598
   2	5.0000e-04	0.0385	-3.769303	-0.000657	-6.566330	-2.224733	0.052598
   3	1.0000e-03	0.1091	-3.839006	-0.000174	-1.740344	-0.589645	-0.013941
   4	1.5000e-03	0.1588	-3.710718	0.000320	3.203088	1.085236	0.025658
   5	2.0000e-03	0.1973	-3.626904	0.000209	2.092684	0.709021	0.016763
   6	2.5000e-03	0.2390	-3.638022	-0.000028	-0.277601	-0.094054	-0.002224
   7	3.0000e-03	0.2743	-3.524274	0.000284	2.840071	0.962242	0.022750
   8	3.5000e-03	0.3128	-3.476380	0.000120	1.195819	0.405155	0.009579
   9	4.0000e-03	0.3497	-3.292501	0.000459	4.591093	1.555504	0.036776
  10	4.5000e-03	0.3946	-3.286514	0.000015	0.149477	0.050644	0.001197
  11	5.0000e-03	0.4283	-3.160365	0.000315	3.149703	1.067148	0.025230
  12	5.5000e-03	0.4668	-2.976058	0.000460	4.601770	1.559122	0.036861
  13	6.0000e-03	0.5182	-3.013261	-0.000093	-0.928895	-0.314718	-0.007441
  14	6.5000e-03	0.5631	-2.898230	0.000287	2.872102	0.973095	0.023006
  15	7.0000e-03	0.5984	-2.778068	0.000300	3.000226	1.016504	0.024033
  16	7.5000e-03	0.6369	-2.748134	0.000075	0.747387	0.253222	0.005987
  17	8.0000e-03	0.6674	-2.577511	0.000426	4.260107	1.443363	0.034124
  18	8.5000e-03	0.7347	-2.598037	-0.000051	-0.512494	-0.173638	-0.004105
  19	9.0000e-03	0.7428	-2.313667	0.000710	7.100178	2.405605	0.056874
  20	9.5000e-03	0.7893	-2.148176	0.000413	4.131983	1.399954	0.033098
  21	1.0000e-02	0.8358	-2.228569	-0.000201	-2.007268	-0.680081	-0.016079
  22	1.0500e-02	0.8422	-2.040414	0.000470	4.697862	1.591679	0.037631
  23	1.1000e-02	0.9128	-1.971994	0.000171	1.708314	0.578792	0.013684
  24	1.1500e-02	0.9417	-1.774859	0.000492	4.922078	1.667645	0.039427
  25	1.2000e-02	0.9674	-1.827029	-0.000130	-1.302589	-0.441329	-0.010434
  26	1.2500e-02	1.0524	-1.794102	0.000082	0.822126	0.278544	0.006585
  27	1.3000e-02	1.0813	-1.623479	0.000426	4.260107	1.443363	0.034124
  28	1.3500e-02	1.1085	-1.630749	-0.000018	-0.181508	-0.061497	-0.001454
  29	1.4000e-02	1.1438	-1.348944	0.000704	7.036116	2.383901	0.056361
  30	1.4500e-02	1.1855	-1.347233	0.000004	0.042708	0.014470	0.000342
  31	1.5000e-02	1.2321	-1.247169	0.000250	2.498409	0.846484	0.020013
  32	1.5500e-02	1.2689	-1.100066	0.000367	3.672874	1.244403	0.029421
  33	1.6000e-02	1.3203	-1.028653	0.000178	1.783052	0.604114	0.014283
  34	1.6500e-02	1.3443	-0.945693	0.000207	2.071330	0.701786	0.016592
  35	1.7000e-02	1.3893	-0.740006	0.000514	5.135618	1.739994	0.041138
  36	1.7500e-02	1.4101	-0.707078	0.000082	0.822126	0.278544	0.006585
  37	1.8000e-02	1.4582	-0.490700	0.000540	5.402542	1.830431	0.043276
  38	1.8500e-02	1.5080	-0.683131	-0.000480	-4.804632	-1.627853	-0.038486
  39	1.9000e-02	1.5577	-0.489845	0.000483	4.825986	1.635088	0.038657
  40	1.9500e-02	1.5882	-0.436392	0.000133	1.334620	0.452181	0.010691
  41	2.0000e-02	1.6379	-0.397905	0.000096	0.960926	0.325571	0.007697
  42	2.0500e-02	1.6620	-0.078897	0.000797	7.965012	2.698619	0.063802
  43	2.1000e-02	1.7181	-0.068634	0.000026	0.256247	0.086819	0.002053
  44	2.1500e-02	1.7598	0.040411	0.000272	2.722625	0.922450	0.021809
  45	2.2000e-02	1.7839	0.110969	0.000176	1.761698	0.596880	0.014112
  46	2.2500e-02	1.8336	0.217447	0.000266	2.658563	0.900746	0.021296
  47	2.3000e-02	1.8753	0.219158	0.000004	0.042708	0.014470	0.000342
  48	2.3500e-02	1.9042	0.485568	0.000665	6.651746	2.253673	0.053282
  49	2.4000e-02	1.9540	0.460339	-0.000063	-0.629941	-0.213430	-0.005046
  50	2.4500e-02	1.9957	0.526621	0.000165	1.654929	0.560705	0.013256
  51	2.5000e-02	2.0197	0.630106	0.000258	2.583824	0.875423	0.020697
  52	2.5500e-02	2.0582	0.819544	0.000473	4.729893	1.602531	0.037888
  53	2.6000e-02	2.1240	0.846484	0.000067	0.672648	0.227899	0.005388
  54	2.6500e-02	2.1529	0.940562	0.000235	2.348931	0.795839	0.018816
  55	2.7000e-02	2.1802	1.136414	0.000489	4.890048	1.656793	0.039170
  56	2.7500e-02	2.2395	1.187729	0.000128	1.281235	0.434094	0.010263
  57	2.8000e-02	2.2572	1.187302	-0.000001	-0.010677	-0.003617	-0.000086
  58	2.8500e-02	2.3101	1.578151	0.000976	9.758741	3.306351	0.078170
  59	2.9000e-02	2.3598	1.319438	-0.000646	-6.459561	-2.188558	-0.051743
  60	2.9500e-02	2.3727	1.553349	0.000584	5.840297	1.978746	0.046782
  61	3.0000e-02	2.4304	1.605091	0.000129	1.291912	0.437712	0.010349
  62	3.0500e-02	2.4850	1.785549	0.000451	4.505677	1.526565	0.036092
  63	3.1000e-02	2.5106	1.814628	0.000073	0.726033	0.245987	0.005816
  64	3.1500e-02	2.5652	1.904002	0.000223	2.231485	0.756047	0.017875
  65	3.2000e-02	2.6021	1.963441	0.000148	1.484097	0.502826	0.011888
  66	3.2500e-02	2.6309	2.079328	0.000289	2.893456	0.980329	0.023177
  67	3.3000e-02	2.6694	2.217878	0.000346	3.459335	1.172054	0.027710
  68	3.3500e-02	2.7063	2.436823	0.000547	5.466603	1.852135	0.043789
  69	3.4000e-02	2.7625	2.425277	-0.000029	-0.288278	-0.097671	-0.002309
  70	3.4500e-02	2.7817	2.562544	0.000343	3.427304	1.161202	0.027454
  71	3.5000e-02	2.8379	2.708792	0.000365	3.651520	1.237169	0.029250
  72	3.5500e-02	2.8716	2.666030	-0.000107	-1.067696	-0.361745	-0.008553
  73	3.6000e-02	2.9165	2.903789	0.000594	5.936390	2.011303	0.047552
  74	3.6500e-02	2.9678	2.852047	-0.000129	-1.291912	-0.437712	-0.010349
  75	3.7000e-02	3.0111	2.953394	0.000253	2.530439	0.857336	0.020269
  76	3.7500e-02	3.0144	3.150102	0.000491	4.911401	1.664028	0.039342
  77	3.8000e-02	3.0753	3.269409	0.000298	2.978872	1.009269	0.023861
  78	3.8500e-02	3.1058	3.364342	0.000237	2.370285	0.803074	0.018987
  79	3.9000e-02	3.1507	3.373750	0.000023	0.234893	0.079584	0.001882
  80	3.9500e-02	3.1940	3.483649	0.000274	2.743979	0.929685	0.021980
  81	4.0000e-02	3.2502	3.667956	0.000460	4.601770	1.559122	0.036861
  82	4.0500e-02	3.2646	3.731244	0.000158	1.580190	0.535383	0.012658
  83	4.1000e-02	3.3095	3.817625	0.000216	2.156746	0.730725	0.017276
  84	4.1500e-02	3.3673	3.921110	0.000258	2.583824	0.875423	0.020697
  85	4.2000e-02	3.3689	4.031865	0.000277	2.765333	0.936920	0.022151
  86	4.2500e-02	3.4202	4.281170	0.000622	6.224668	2.108974	0.049861
  87	4.3000e-02	3.4667	4.233704	-0.000119	-1.185143	-0.401537	-0.009493
  88	4.3500e-02	3.5229	4.218737	-0.000037	-0.373694	-0.126611	-0.002993
  89	4.4000e-02	3.5486	4.307256	0.000221	2.210131	0.748813	0.017704
  90	4.4500e-02	3.5967	4.605738	0.000745	7.452518	2.524981	0.059696
  91	4.5000e-02	3.6336	4.580936	-0.000062	-0.619264	-0.209812	-0.004960
  92	4.5500e-02	3.6480	4.751558	0.000426	4.260107	1.443363	0.034124
  93	4.6000e-02	3.7186	4.884122	0.000331	3.309858	1.121410	0.026513
  94	4.6500e-02	3.7683	4.785768	-0.000246	-2.455701	-0.832014	-0.019671
  95	4.7000e-02	3.7988	4.789189	0.000009	0.085416	0.028940	0.000684
  96	4.7500e-02	3.8421	5.026094	0.000592	5.915036	2.004068	0.047381
  97	4.8000e-02	3.8887	5.206124	0.000450	4.495000	1.522947	0.036006
  98	4.8500e-02	3.8999	5.262143	0.000140	1.398682	0.473886	0.011204
  99	4.9000e-02	3.9609	5.442173	0.000450	4.495000	1.522947	0.036006
 100	4.9500e-02	3.9881	5.477238	0.000088	0.875511	0.296631	0.007013
 101	5.0000e-02	4.0411	5.664966	0.000469	4.687185	1.588061	0.037545
 102	5.0500e-02	4.1004	5.637598	-0.000068	-0.683325	-0.231517	-0.005474
 103	5.1000e-02	4.1052	5.778714	0.000352	3.523397	1.193759	0.028223
 104	5.1500e-02	4.1614	5.912133	0.000333	3.331211	1.128645	0.026684
 105	5.2000e-02	4.1999	5.878351	-0.000084	-0.843480	-0.285779	-0.006756
 106	5.2500e-02	4.2095	6.162294	0.000709	7.089501	2.401988	0.056789
 107	5.3000e-02	4.2657	6.314956	0.000381	3.811675	1.291430	0.030532
 108	5.3500e-02	4.3106	6.238411	-0.000191	-1.911176	-0.647524	-0.015309
 109	5.4000e-02	4.3507	6.373969	0.000338	3.384596	1.146732	0.027111
 110	5.4500e-02	4.3828	6.532190	0.000395	3.950475	1.338457	0.031644
 111	5.5000e-02	4.4245	6.648504	0.000290	2.904133	0.983947	0.023263
 112	5.5500e-02	4.4566	6.713503	0.000162	1.622898	0.549853	0.013000
 113	5.6000e-02	4.5079	6.787055	0.000184	1.836437	0.622202	0.014710
 114	5.6500e-02	4.5432	6.925605	0.000346	3.459335	1.172054	0.027710
 115	5.7000e-02	4.6266	6.958105	0.000081	0.811449	0.274926	0.006500
 116	5.7500e-02	4.6362	7.059024	0.000252	2.519762	0.853719	0.020184
 117	5.8000e-02	4.6779	7.133431	0.000186	1.857791	0.629437	0.014881
 118	5.8500e-02	4.7100	7.379743	0.000615	6.149929	2.083652	0.049262
 119	5.9000e-02	4.7726	7.290369	-0.000223	-2.231485	-0.756047	-0.017875
 120	5.9500e-02	4.8095	7.400697	0.000275	2.754656	0.933303	0.022065
 121	6.0000e-02	4.8416	7.557635	0.000392	3.918444	1.327605	0.031388
 122	6.0500e-02	4.8721	7.553359	-0.000011	-0.106770	-0.036175	-0.000855
 123	6.1000e-02	4.9090	7.798388	0.000612	6.117898	2.072800	0.049006
 124	6.1500e-02	4.9587	7.809507	0.000028	0.277601	0.094054	0.002224
 125	6.2000e-02	4.9844	8.082759	0.000682	6.822577	2.311552	0.054651
 126	6.2500e-02	5.0245	8.027168	-0.000139	-1.388005	-0.470269	-0.011118
 127	6.3000e-02	5.0694	8.315387	0.000720	7.196271	2.438163	0.057644
 128	6.3500e-02	5.1207	8.290157	-0.000063	-0.629941	-0.213430	-0.005046
 129	6.4000e-02	5.1512	8.269204	-0.000052	-0.523171	-0.177255	-0.004191
 130	6.4500e-02	5.2073	8.431701	0.000406	4.057245	1.374632	0.032500
 131	6.5000e-02	5.2282	8.524068	0.000231	2.306223	0.781370	0.018473
 132	6.5500e-02	5.2763	8.614297	0.000225	2.252838	0.763282	0.018046
 133	6.6000e-02	5.3132	8.748999	0.000336	3.363242	1.139497	0.026940
 134	6.6500e-02	5.3646	8.837090	0.000220	2.199454	0.745195	0.017618
 135	6.7000e-02	5.3854	8.769953	-0.000168	-1.676283	-0.567940	-0.013427
 136	6.7500e-02	5.4351	9.167644	0.000993	9.929573	3.364230	0.079538
 137	6.8000e-02	5.4672	9.192447	0.000062	0.619264	0.209812	0.004960
 138	6.8500e-02	5.5170	9.227084	0.000086	0.864834	0.293014	0.006928
 139	6.9000e-02	5.5651	9.387871	0.000401	4.014537	1.360162	0.032157
 140	6.9500e-02	5.5924	9.455864	0.000170	1.697637	0.575175	0.013598
 141	7.0000e-02	5.6357	9.481521	0.000064	0.640618	0.217047	0.005132
 142	7.0500e-02	5.6613	9.703031	0.000553	5.530665	1.873840	0.044302
 143	7.1000e-02	5.7047	9.695762	-0.000018	-0.181508	-0.061497	-0.001454
 144	7.1500e-02	5.7608	9.861680	0.000414	4.142660	1.403571	0.033184
 145	7.2000e-02	5.7977	10.031875	0.000425	4.249430	1.439746	0.034039
 146	7.2500e-02	5.8282	10.065658	0.000084	0.843480	0.285779	0.006756
 147	7.3000e-02	5.8763	10.128518	0.000157	1.569513	0.531765	0.012572
 148	7.3500e-02	5.8956	10.379107	0.000626	6.256698	2.119827	0.050118
 149	7.4000e-02	5.9421	10.530914	0.000379	3.790321	1.284195	0.030361
 150	7.4500e-02	5.9742	10.659201	0.000320	3.203088	1.085236	0.025658
 151	7.5000e-02	6.0239	10.657491	-0.000004	-0.042708	-0.014470	-0.000342
 152	7.5500e-02	6.0929	10.683576	0.000065	0.651295	0.220665	0.005217
 153	7.6000e-02	6.1041	10.797324	0.000284	2.840071	0.962242	0.022750
 154	7.6500e-02	6.1458	10.944427	0.000367	3.672874	1.244403	0.029421
 155	7.7000e-02	6.2004	11.017124	0.000182	1.815083	0.614967	0.014539
 156	7.7500e-02	6.2517	10.858902	-0.000395	-3.950475	-1.338457	-0.031644
 157	7.8000e-02	6.2645	11.203996	0.000862	8.616306	2.919284	0.069019
 158	7.8500e-02	6.3111	11.322448	0.000296	2.957518	1.002034	0.023690
 159	7.9000e-02	6.3447	11.349389	0.000067	0.672648	0.227899	0.005388
 160	7.9500e-02	6.4041	11.469124	0.000299	2.989549	1.012887	0.023947
 161	8.0000e-02	6.4250	11.635898	0.000416	4.164014	1.410806	0.033355
 162	8.0500e-02	6.4683	11.664976	0.000073	0.726033	0.245987	0.005816
 163	8.1000e-02	6.4827	12.042997	0.000944	9.438432	3.197827	0.075604
 164	8.1500e-02	6.5421	11.975432	-0.000169	-1.686960	-0.571557	-0.013513
 165	8.2000e-02	6.5982	12.011780	0.000091	0.907542	0.307483	0.007270
 166	8.2500e-02	6.6271	12.058819	0.000117	1.174466	0.397920	0.009408
 167	8.3000e-02	6.6544	12.237566	0.000446	4.462969	1.512095	0.035749
 168	8.3500e-02	6.6977	12.344900	0.000268	2.679917	0.907980	0.021467
 169	8.4000e-02	6.7586	12.478747	0.000334	3.341888	1.132262	0.026769
 170	8.4500e-02	6.7971	12.465063	-0.000034	-0.341663	-0.115758	-0.002737
 171	8.5000e-02	6.8228	12.677593	0.000531	5.306449	1.797874	0.042506
 172	8.5500e-02	6.8581	12.726342	0.000122	1.217173	0.412390	0.009750
 173	8.6000e-02	6.8998	12.821275	0.000237	2.370285	0.803074	0.018987
 174	8.6500e-02	6.9447	12.782361	-0.000097	-0.971603	-0.329188	-0.007783
 175	8.7000e-02	6.9704	13.060745	0.000695	6.950701	2.354961	0.055677
 176	8.7500e-02	7.0346	13.108639	0.000120	1.195819	0.405155	0.009579
 177	8.8000e-02	7.0634	13.217256	0.000271	2.711948	0.918833	0.021723
 178	8.8500e-02	7.1148	13.354096	0.000342	3.416627	1.157585	0.027368
 179	8.9000e-02	7.1420	13.375050	0.000052	0.523171	0.177255	0.004191
 180	8.9500e-02	7.1934	13.498206	0.000307	3.074964	1.041826	0.024631
 181	9.0000e-02	7.2383	13.674387	0.000440	4.398907	1.490390	0.035236
 182	9.0500e-02	7.2752	13.759485	0.000212	2.124715	0.719873	0.017019
 183	9.1000e-02	7.2864	13.840733	0.000203	2.028622	0.687316	0.016250
 184	9.1500e-02	7.3554	13.993396	0.000381	3.811675	1.291430	0.030532
 185	9.2000e-02	7.3811	14.026323	0.000082	0.822126	0.278544	0.006585
 186	9.2500e-02	7.4404	14.176419	0.000375	3.747613	1.269726	0.030019
 187	9.3000e-02	7.4661	14.327799	0.000378	3.779644	1.280578	0.030276
 188	9.3500e-02	7.4998	14.336779	0.000022	0.224216	0.075966	0.001796
 189	9.4000e-02	7.5543	14.597630	0.000651	6.512945	2.206646	0.052170
 190	9.4500e-02	7.6041	14.380397	-0.000542	-5.423896	-1.837666	-0.043447
 191	9.5000e-02	7.6394	14.634834	0.000635	6.352791	2.152384	0.050887
 192	9.5500e-02	7.6650	14.781081	0.000365	3.651520	1.237169	0.029250
 193	9.6000e-02	7.7132	14.840094	0.000147	1.473420	0.499208	0.011802
 194	9.6500e-02	7.7244	14.972230	0.000330	3.299181	1.117793	0.026427
 195	9.7000e-02	7.7950	15.118050	0.000364	3.640843	1.233551	0.029164
 196	9.7500e-02	7.8206	15.011144	-0.000267	-2.669240	-0.904363	-0.021381
 197	9.8000e-02	7.8479	15.293377	0.000705	7.046793	2.387518	0.056447
 198	9.8500e-02	7.9057	15.425085	0.000329	3.288504	1.114175	0.026342
 199	9.9000e-02	7.9313	15.589293	0.000410	4.099953	1.389102	0.032842
 200	9.9500e-02	7.9827	15.608536	0.000048	0.480463	0.162785	0.003849
 201	1.0000e-01	8.0404	15.638470	0.000075	0.747387	0.253222	0.005987
 202	1.0050e-01	8.0597	15.963893	0.000813	8.125166	2.752881	0.065085
 203	1.0100e-01	8.1094	15.873664	-0.000225	-2.252838	-0.763282	-0.018046
 204	1.0150e-01	8.1543	16.033168	0.000398	3.982506	1.349310	0.031901
 205	1.0200e-01	8.2040	16.078069	0.000112	1.121081	0.379832	0.008980
 206	1.0250e-01	8.2217	16.257672	0.000448	4.484323	1.519330	0.035921
 207	1.0300e-01	8.2778	16.252112	-0.000014	-0.138800	-0.047027	-0.001112
 208	1.0350e-01	8.3035	16.295730	0.000109	1.089050	0.368980	0.008724
 209	1.0400e-01	8.3613	16.497142	0.000503	5.028848	1.703820	0.040282
 210	1.0450e-01	8.3933	16.601482	0.000261	2.605178	0.882658	0.020868
 211	1.0500e-01	8.4447	16.714375	0.000282	2.818717	0.955007	0.022579
 212	1.0550e-01	8.4623	16.747302	0.000082	0.822126	0.278544	0.006585
 213	1.0600e-01	8.5008	16.970523	0.000557	5.573373	1.888310	0.044644
 214	1.0650e-01	8.5554	16.994897	0.000061	0.608587	0.206195	0.004875
 215	1.0700e-01	8.5778	17.223677	0.000571	5.712173	1.935337	0.045756
 216	1.0750e-01	8.6340	17.156967	-0.000167	-1.665606	-0.564322	-0.013342
 217	1.0800e-01	8.6516	17.447325	0.000725	7.249656	2.456250	0.058072
 218	1.0850e-01	8.7158	17.369497	-0.000194	-1.943207	-0.658376	-0.015566
 219	1.0900e-01	8.7511	17.613244	0.000609	6.085867	2.061948	0.048749
 220	1.0950e-01	8.7864	17.631204	0.000045	0.448432	0.151933	0.003592
 221	1.1000e-01	8.8361	17.732123	0.000252	2.519762	0.853719	0.020184
 222	1.1050e-01	8.8730	17.877944	0.000364	3.640843	1.233551	0.029164
 223	1.1100e-01	8.9035	17.834326	-0.000109	-1.089050	-0.368980	-0.008724
 224	1.1150e-01	8.9356	18.037448	0.000507	5.071556	1.718290	0.040624
 225	1.1200e-01	8.9725	18.225175	0.000469	4.687185	1.588061	0.037545
 226	1.1250e-01	9.0222	18.125539	-0.000249	-2.487732	-0.842866	-0.019927
 227	1.1300e-01	9.0767	18.336786	0.000527	5.274418	1.787021	0.042249
 228	1.1350e-01	9.1377	18.474481	0.000344	3.437981	1.164820	0.027539
 229	1.1400e-01	9.1602	18.440271	-0.000085	-0.854157	-0.289396	-0.006842
 230	1.1450e-01	9.1746	18.688294	0.000619	6.192637	2.098122	0.049605
 231	1.1500e-01	9.2003	18.905955	0.000543	5.434572	1.841283	0.043532
 232	1.1550e-01	9.2660	18.914935	0.000022	0.224216	0.075966	0.001796
 233	1.1600e-01	9.3110	18.958125	0.000108	1.078373	0.365363	0.008638
 234	1.1650e-01	9.3447	19.110360	0.000380	3.800998	1.287813	0.030447
 235	1.1700e-01	9.3735	19.172365	0.000155	1.548159	0.524531	0.012401
 236	1.1750e-01	9.4249	19.349402	0.000442	4.420261	1.497625	0.035407
 237	1.1800e-01	9.4842	19.295094	-0.000136	-1.355974	-0.459416	-0.010862
 238	1.1850e-01	9.5195	19.361803	0.000167	1.665606	0.564322	0.013342
 239	1.1900e-01	9.5484	19.625221	0.000658	6.577007	2.228350	0.052683
 240	1.1950e-01	9.5805	19.797981	0.000431	4.313492	1.461451	0.034552
 241	1.2000e-01	9.6142	19.877092	0.000198	1.975238	0.669229	0.015822
 242	1.2050e-01	9.6639	19.921565	0.000111	1.110404	0.376215	0.008895
 243	1.2100e-01	9.7072	19.925413	0.000010	0.096093	0.032557	0.000770
 244	1.2150e-01	9.7409	20.178140	0.000631	6.310083	2.137914	0.050545
 245	1.2200e-01	9.7858	20.233304	0.000138	1.377328	0.466651	0.011033
 246	1.2250e-01	9.8339	20.370144	0.000342	3.416627	1.157585	0.027368
 247	1.2300e-01	9.8676	20.339355	-0.000077	-0.768741	-0.260457	-0.006158
 248	1.2350e-01	9.9029	20.521523	0.000455	4.548385	1.541034	0.036434
 249	1.2400e-01	9.9607	20.645534	0.000310	3.096318	1.049061	0.024802
 250	1.2450e-01	9.9799	20.828558	0.000457	4.569739	1.548269	0.036605
 251	1.2500e-01	10.0441	20.779381	-0.000123	-1.227850	-0.416007	-0.009835
 252	1.2550e-01	10.0762	20.873031	0.000234	2.338254	0.792222	0.018730
 253	1.2600e-01	10.1115	21.062041	0.000472	4.719216	1.598914	0.037802
 254	1.2650e-01	10.1484	21.155691	0.000234	2.338254	0.792222	0.018730
 255	1.2700e-01	10.1789	21.244637	0.000222	2.220808	0.752430	0.017789
 256	1.2750e-01	10.2446	21.342991	0.000246	2.455701	0.832014	0.019671
 257	1.2800e-01	10.2879	21.334439	-0.000021	-0.213539	-0.072349	-0.001711
 258	1.2850e-01	10.3120	21.507627	0.000432	4.324169	1.465068	0.034638
 259	1.2900e-01	10.3505	21.691506	0.000459	4.591093	1.555504	0.036776
 260	1.2950e-01	10.4179	21.621803	-0.000174	-1.740344	-0.589645	-0.013941
 261	1.3000e-01	10.4307	21.784301	0.000406	4.057245	1.374632	0.032500
 262	1.3050e-01	10.4724	21.945515	0.000403	4.025214	1.363779	0.032243
 263	1.3100e-01	10.5206	22.057553	0.000280	2.797363	0.947772	0.022408
 264	1.3150e-01	10.5559	22.233735	0.000440	4.398907	1.490390	0.035236
 265	1.3200e-01	10.5815	22.252550	0.000047	0.469786	0.159168	0.003763
 266	1.3250e-01	10.6248	22.366726	0.000285	2.850748	0.965860	0.022835
 267	1.3300e-01	10.6681	22.451824	0.000212	2.124715	0.719873	0.017019
 268	1.3350e-01	10.7099	22.660932	0.000522	5.221033	1.768934	0.041822
 269	1.3400e-01	10.7435	22.645110	-0.000040	-0.395048	-0.133846	-0.003164
 270	1.3450e-01	10.7965	22.758003	0.000282	2.818717	0.955007	0.022579
 271	1.3500e-01	10.8254	22.930764	0.000431	4.313492	1.461451	0.034552
 272	1.3550e-01	10.8703	22.923494	-0.000018	-0.181508	-0.061497	-0.001454
 273	1.3600e-01	10.9072	23.129610	0.000515	5.146295	1.743612	0.041223
 274	1.3650e-01	10.9778	23.103097	-0.000066	-0.661972	-0.224282	-0.005303
 275	1.3700e-01	10.9970	23.276713	0.000433	4.334846	1.468685	0.034723
 276	1.3750e-01	11.0243	23.474703	0.000494	4.943432	1.674880	0.039598
 277	1.3800e-01	11.0917	23.431085	-0.000109	-1.089050	-0.368980	-0.008724
 278	1.3850e-01	11.1061	23.538419	0.000268	2.679917	0.907980	0.021467
 279	1.3900e-01	11.1366	23.748383	0.000524	5.242387	1.776169	0.041993
 280	1.3950e-01	11.2024	23.842033	0.000234	2.338254	0.792222	0.018730
 281	1.4000e-01	11.2344	23.913447	0.000178	1.783052	0.604114	0.014283
 282	1.4050e-01	11.2697	23.998544	0.000212	2.124715	0.719873	0.017019
 283	1.4100e-01	11.3082	24.067820	0.000173	1.729667	0.586027	0.013855
 284	1.4150e-01	11.3435	24.250843	0.000457	4.569739	1.548269	0.036605
 285	1.4200e-01	11.3820	24.414624	0.000409	4.089276	1.385484	0.032756
 286	1.4250e-01	11.4414	24.422748	0.000020	0.202862	0.068732	0.001625
 287	1.4300e-01	11.4622	24.625015	0.000505	5.050202	1.711055	0.040453
 288	1.4350e-01	11.5200	24.751592	0.000316	3.160380	1.070766	0.025315
 289	1.4400e-01	11.5344	24.746033	-0.000014	-0.138800	-0.047027	-0.001112
 290	1.4450e-01	11.5826	24.974385	0.000570	5.701496	1.931719	0.045670
 291	1.4500e-01	11.6114	25.014154	0.000099	0.992957	0.336423	0.007954
 292	1.4550e-01	11.6580	25.115501	0.000253	2.530439	0.857336	0.020269
 293	1.4600e-01	11.7013	25.198888	0.000208	2.082007	0.705403	0.016677
 294	1.4650e-01	11.7446	25.269019	0.000175	1.751021	0.593262	0.014026
 295	1.4700e-01	11.7911	25.349840	0.000202	2.017945	0.683698	0.016164
 296	1.4750e-01	11.8344	25.343853	-0.000015	-0.149477	-0.050644	-0.001197
 297	1.4800e-01	11.8809	25.517469	0.000433	4.334846	1.468685	0.034723
 298	1.4850e-01	11.9162	25.636777	0.000298	2.978872	1.009269	0.023861
 299	1.4900e-01	11.9419	25.722302	0.000214	2.135392	0.723490	0.017105
 300	1.4950e-01	12.0061	25.786873	0.000161	1.612221	0.546235	0.012914
 301	1.5000e-01	12.0334	25.856576	0.000174	1.740344	0.589645	0.013941
 302	1.5050e-01	12.0863	26.035751	0.000447	4.473646	1.515712	0.035835
 303	1.5100e-01	12.1264	26.117427	0.000204	2.039299	0.690933	0.016335
 304	1.5150e-01	12.1633	26.192262	0.000187	1.868468	0.633054	0.014967
 305	1.5200e-01	12.1793	26.336799	0.000361	3.608812	1.222699	0.028907
 306	1.5250e-01	12.2243	26.594657	0.000644	6.438207	2.181323	0.051572
 307	1.5300e-01	12.2435	26.605348	0.000027	0.266924	0.090436	0.002138
 308	1.5350e-01	12.3173	26.639130	0.000084	0.843480	0.285779	0.006756
 309	1.5400e-01	12.3606	26.716958	0.000194	1.943207	0.658376	0.015566
 310	1.5450e-01	12.3879	26.885442	0.000421	4.206722	1.425276	0.033697
 311	1.5500e-01	12.4119	27.038105	0.000381	3.811675	1.291430	0.030532
 312	1.5550e-01	12.4665	27.169386	0.000328	3.277827	1.110558	0.026256
 313	1.5600e-01	12.5162	27.256621	0.000218	2.178100	0.737960	0.017447
 314	1.5650e-01	12.5339	27.284417	0.000069	0.694002	0.235134	0.005559
 315	1.5700e-01	12.6157	27.429809	0.000363	3.630166	1.229934	0.029079
 316	1.5750e-01	12.6333	27.538854	0.000272	2.722625	0.922450	0.021809
 317	1.5800e-01	12.6686	27.567077	0.000070	0.704679	0.238752	0.005645
 318	1.5850e-01	12.7119	27.723160	0.000390	3.897090	1.320370	0.031217
 319	1.5900e-01	12.7472	27.802699	0.000199	1.985915	0.672846	0.015908
 320	1.5950e-01	12.7986	27.963913	0.000403	4.025214	1.363779	0.032243
 321	1.6000e-01	12.8290	28.034899	0.000177	1.772375	0.600497	0.014197
 322	1.6050e-01	12.8708	28.168746	0.000334	3.341888	1.132262	0.026769
 323	1.6100e-01	12.9077	28.261541	0.000232	2.316900	0.784987	0.018559
 324	1.6150e-01	12.9157	28.423611	0.000405	4.046568	1.371014	0.032414
 325	1.6200e-01	12.9734	28.654101	0.000575	5.754881	1.949807	0.046098
 326	1.6250e-01	13.0232	28.488610	-0.000413	-4.131983	-1.399954	-0.033098
 327	1.6300e-01	13.0697	28.638278	0.000374	3.736936	1.266108	0.029934
 328	1.6350e-01	13.1002	28.751172	0.000282	2.818717	0.955007	0.022579
 329	1.6400e-01	13.1675	28.893998	0.000357	3.566105	1.208229	0.028565
 330	1.6450e-01	13.1900	28.885446	-0.000021	-0.213539	-0.072349	-0.001711
 331	1.6500e-01	13.2317	29.013306	0.000319	3.192411	1.081618	0.025572
 332	1.6550e-01	13.2670	29.154422	0.000352	3.523397	1.193759	0.028223
 333	1.6600e-01	13.2895	29.247217	0.000232	2.316900	0.784987	0.018559
 334	1.6650e-01	13.3665	29.299387	0.000130	1.302589	0.441329	0.010434
 335	1.6700e-01	13.3889	29.480273	0.000452	4.516354	1.530182	0.036177
 336	1.6750e-01	13.4226	29.478990	-0.000003	-0.032031	-0.010852	-0.000257
 337	1.6800e-01	13.4643	29.745400	0.000665	6.651746	2.253673	0.053282
 338	1.6850e-01	13.4980	29.775762	0.000076	0.758064	0.256839	0.006072
 339	1.6900e-01	13.5606	29.783887	0.000020	0.202862	0.068732	0.001625
 340	1.6950e-01	13.5943	29.860431	0.000191	1.911176	0.647524	0.015309
 341	1.7000e-01	13.6344	30.079376	0.000547	5.466603	1.852135	0.043789
 342	1.7050e-01	13.6665	30.154210	0.000187	1.868468	0.633054	0.014967
 343	1.7100e-01	13.6921	30.306017	0.000379	3.790321	1.284195	0.030361
 344	1.7150e-01	13.7403	30.315852	0.000025	0.245570	0.083201	0.001967
 345	1.7200e-01	13.8012	30.457396	0.000353	3.534074	1.197377	0.028309
 346	1.7250e-01	13.8060	30.473219	0.000040	0.395048	0.133846	0.003164
 347	1.7300e-01	13.8542	30.861075	0.000968	9.684002	3.281029	0.077571
 348	1.7350e-01	13.9247	30.639992	-0.000552	-5.519988	-1.870223	-0.044216
 349	1.7400e-01	13.9472	30.823871	0.000459	4.591093	1.555504	0.036776
 350	1.7450e-01	13.9841	30.981665	0.000394	3.939798	1.334840	0.031559
 351	1.7500e-01	14.0338	31.133044	0.000378	3.779644	1.280578	0.030276
 352	1.7550e-01	14.0531	31.178373	0.000113	1.131758	0.383450	0.009066
 353	1.7600e-01	14.0964	31.427678	0.000622	6.224668	2.108974	0.049861
 354	1.7650e-01	14.1461	31.416560	-0.000028	-0.277601	-0.094054	-0.002224
 355	1.7700e-01	14.1766	31.619682	0.000507	5.071556	1.718290	0.040624
 356	1.7750e-01	14.2311	31.507216	-0.000281	-2.808040	-0.951390	-0.022493
 357	1.7800e-01	14.2600	31.554683	0.000119	1.185143	0.401537	0.009493
 358	1.7850e-01	14.3098	31.866422	0.000778	7.783504	2.637122	0.062348
 359	1.7900e-01	14.3499	31.984019	0.000294	2.936164	0.994799	0.023519
 360	1.7950e-01	14.3900	32.057570	0.000184	1.836437	0.622202	0.014710
 361	1.8000e-01	14.4188	32.070827	0.000033	0.330986	0.112141	0.002651
 362	1.8050e-01	14.4654	32.343224	0.000680	6.801223	2.304317	0.054479
 363	1.8100e-01	14.5135	32.295330	-0.000120	-1.195819	-0.405155	-0.009579
 364	1.8150e-01	14.5616	32.388980	0.000234	2.338254	0.792222	0.018730
 365	1.8200e-01	14.5857	32.473650	0.000211	2.114038	0.716255	0.016934
 366	1.8250e-01	14.6242	32.522826	0.000123	1.227850	0.416007	0.009835
 367	1.8300e-01	14.6691	32.798217	0.000688	6.875962	2.329639	0.055078
 368	1.8350e-01	14.7012	32.812756	0.000036	0.363017	0.122993	0.002908
 369	1.8400e-01	14.7525	32.982096	0.000423	4.228076	1.432511	0.033868
 370	1.8450e-01	14.7798	33.005188	0.000058	0.576556	0.195342	0.004618
 371	1.8500e-01	14.8263	33.190777	0.000463	4.633801	1.569974	0.037118
 372	1.8550e-01	14.8616	33.150153	-0.000101	-1.014311	-0.343658	-0.008125
 373	1.8600e-01	14.8793	33.445214	0.000737	7.367102	2.496042	0.059012
 374	1.8650e-01	14.9402	33.572219	0.000317	3.171057	1.074383	0.025401
 375	1.8700e-01	14.9964	33.531594	-0.000101	-1.014311	-0.343658	-0.008125
 376	1.8750e-01	15.0236	33.749683	0.000545	5.445249	1.844900	0.043618
 377	1.8800e-01	15.0525	33.714618	-0.000088	-0.875511	-0.296631	-0.007013
 378	1.8850e-01	15.0926	33.827511	0.000282	2.818717	0.955007	0.022579
 379	1.8900e-01	15.1680	34.028067	0.000501	5.007494	1.696585	0.040111
 380	1.8950e-01	15.1841	33.985305	-0.000107	-1.067696	-0.361745	-0.008553
 381	1.9000e-01	15.2338	34.355628	0.000925	9.246247	3.132713	0.074065
 382	1.9050e-01	15.2691	34.122573	-0.000582	-5.818943	-1.971511	-0.046611
 383	1.9100e-01	15.3220	34.375727	0.000632	6.320760	2.141532	0.050631
 384	1.9150e-01	15.3557	34.395398	0.000049	0.491140	0.166403	0.003934
 385	1.9200e-01	15.3750	34.602796	0.000518	5.178325	1.754464	0.041480
 386	1.9250e-01	15.4520	34.605789	0.000007	0.074739	0.025322	0.000599
 387	1.9300e-01	15.4712	34.658387	0.000131	1.313266	0.444947	0.010520
 388	1.9350e-01	15.5033	34.764011	0.000264	2.637209	0.893511	0.021125
 389	1.9400e-01	15.5354	35.065914	0.000754	7.537934	2.553921	0.060381
 390	1.9450e-01	15.6044	35.143742	0.000194	1.943207	0.658376	0.015566
 391	1.9500e-01	15.6060	35.237819	0.000235	2.348931	0.795839	0.018816
 392	1.9550e-01	15.6766	35.254497	0.000042	0.416401	0.141081	0.003335
 393	1.9600e-01	15.7070	35.396896	0.000356	3.555428	1.204611	0.028480
 394	1.9650e-01	15.7616	35.552979	0.000390	3.897090	1.320370	0.031217
 395	1.9700e-01	15.7776	35.536302	-0.000042	-0.416401	-0.141081	-0.003335
 396	1.9750e-01	15.8306	35.526894	-0.000023	-0.234893	-0.079584	-0.001882
 397	1.9800e-01	15.8578	35.901494	0.000935	9.353017	3.168888	0.074920
 398	1.9850e-01	15.9076	35.918599	0.000043	0.427078	0.144698	0.003421
 399	1.9900e-01	15.9509	35.962217	0.000109	1.089050	0.368980	0.008724
 400	1.9950e-01	15.9910	36.105043	0.000357	3.566105	1.208229	0.028565
 401	2.0000e-01	16.0327	36.055011	-0.000125	-1.249204	-0.423242	-0.010006
 402	2.0050e-01	16.0664	36.317146	0.000654	6.544976	2.217498	0.052427
 403	2.0100e-01	16.1129	36.369316	0.000130	1.302589	0.441329	0.010434
 404	2.0150e-01	16.1434	36.553195	0.000459	4.591093	1.555504	0.036776
 405	2.0200e-01	16.1787	36.767863	0.000536	5.359834	1.815961	0.042934
 406	2.0250e-01	16.2092	36.856381	0.000221	2.210131	0.748813	0.017704
 407	2.0300e-01	16.2653	36.929933	0.000184	1.836437	0.622202	0.014710
 408	2.0350e-01	16.3215	36.920097	-0.000025	-0.245570	-0.083201	-0.001967
 409	2.0400e-01	16.3263	37.074042	0.000384	3.843705	1.302283	0.030789
 410	2.0450e-01	16.3921	37.163416	0.000223	2.231485	0.756047	0.017875
 411	2.0500e-01	16.4354	37.172824	0.000023	0.234893	0.079584	0.001882
 412	2.0550e-01	16.4707	37.298973	0.000315	3.149703	1.067148	0.025230
 413	2.0600e-01	16.5043	37.358841	0.000149	1.494774	0.506443	0.011974
 414	2.0650e-01	16.5493	37.604298	0.000613	6.128575	2.076417	0.049091
 415	2.0700e-01	16.5894	37.662882	0.000146	1.462743	0.495591	0.011717
 416	2.0750e-01	16.6247	37.704362	0.000104	1.035665	0.350893	0.008296
 417	2.0800e-01	16.6600	37.851037	0.000366	3.662197	1.240786	0.029335
 418	2.0850e-01	16.7081	38.018239	0.000417	4.174691	1.414424	0.033440
 419	2.0900e-01	16.7642	38.087087	0.000172	1.718991	0.582410	0.013770
 420	2.0950e-01	16.7883	38.190144	0.000257	2.573147	0.871806	0.020612
 421	2.1000e-01	16.8188	38.301754	0.000279	2.786686	0.944155	0.022322
 422	2.1050e-01	16.8765	38.434746	0.000332	3.320534	1.125028	0.026598
 423	2.1100e-01	16.9166	38.512574	0.000194	1.943207	0.658376	0.015566
 424	2.1150e-01	16.9583	38.412509	-0.000250	-2.498409	-0.846484	-0.020013
 425	2.1200e-01	16.9856	38.653262	0.000601	6.011128	2.036625	0.048151
 426	2.1250e-01	17.0193	38.802504	0.000373	3.726259	1.262491	0.029848
 427	2.1300e-01	17.0690	38.850398	0.000120	1.195819	0.405155	0.009579
 428	2.1350e-01	17.1043	39.014606	0.000410	4.099953	1.389102	0.032842
 429	2.1400e-01	17.1541	39.070625	0.000140	1.398682	0.473886	0.011204
 430	2.1450e-01	17.1974	39.297266	0.000566	5.658789	1.917249	0.045328
 431	2.1500e-01	17.2311	39.203188	-0.000235	-2.348931	-0.795839	-0.018816
 432	2.1550e-01	17.2840	39.363548	0.000400	4.003860	1.356544	0.032072
 433	2.1600e-01	17.3369	39.485849	0.000305	3.053610	1.034591	0.024460
 434	2.1650e-01	17.3450	39.646208	0.000400	4.003860	1.356544	0.032072
 435	2.1700e-01	17.3770	39.798443	0.000380	3.800998	1.287813	0.030447
 436	2.1750e-01	17.4364	39.817258	0.000047	0.469786	0.159168	0.003763
 437	2.1800e-01	17.4749	39.932290	0.000287	2.872102	0.973095	0.023006
 438	2.1850e-01	17.4990	39.963934	0.000079	0.790095	0.267691	0.006329
 439	2.1900e-01	17.5295	40.169622	0.000514	5.135618	1.739994	0.041138
 440	2.1950e-01	17.5760	40.317152	0.000368	3.683551	1.248021	0.029506
 441	2.2000e-01	17.6369	40.200411	-0.000291	-2.914810	-0.987564	-0.023348
 442	2.2050e-01	17.6770	40.433466	0.000582	5.818943	1.971511	0.046611
 443	2.2100e-01	17.7075	40.445868	0.000031	0.309632	0.104906	0.002480
 444	2.2150e-01	17.7460	40.611786	0.000414	4.142660	1.403571	0.033184
 445	2.2200e-01	17.7765	40.750337	0.000346	3.459335	1.172054	0.027710
 446	2.2250e-01	17.8166	40.893164	0.000357	3.566105	1.208229	0.028565
 447	2.2300e-01	17.8631	40.987669	0.000236	2.359608	0.799457	0.018901
 448	2.2350e-01	17.9000	40.972274	-0.000038	-0.384371	-0.130228	-0.003079
 449	2.2400e-01	17.9369	41.208323	0.000589	5.893682	1.996833	0.047210
 450	2.2450e-01	17.9947	41.169837	-0.000096	-0.960926	-0.325571	-0.007697
 451	2.2500e-01	18.0380	41.344308	0.000436	4.356200	1.475920	0.034894
 452	2.2550e-01	18.0637	41.443945	0.000249	2.487732	0.842866	0.019927
 453	2.2600e-01	18.1166	41.524338	0.000201	2.007268	0.680081	0.016079
 454	2.2650e-01	18.1391	41.652198	0.000319	3.192411	1.081618	0.025572
 455	2.2700e-01	18.1872	41.723612	0.000178	1.783052	0.604114	0.014283
 456	2.2750e-01	18.2305	41.878840	0.000388	3.875736	1.313135	0.031046
 457	2.2800e-01	18.2465	42.016535	0.000344	3.437981	1.164820	0.027539
 458	2.2850e-01	18.2915	42.019529	0.000007	0.074739	0.025322	0.000599
 459	2.2900e-01	18.3444	42.145250	0.000314	3.139026	1.063531	0.025144
 460	2.2950e-01	18.3941	42.257716	0.000281	2.808040	0.951390	0.022493
 461	2.3000e-01	18.4326	42.261992	0.000011	0.106770	0.036175	0.000855
 462	2.3050e-01	18.4647	42.428338	0.000415	4.153337	1.407189	0.033269
 463	2.3100e-01	18.5064	42.584422	0.000390	3.897090	1.320370	0.031217
 464	2.3150e-01	18.5449	42.663532	0.000198	1.975238	0.669229	0.015822
 465	2.3200e-01	18.5834	42.784550	0.000302	3.021580	1.023739	0.024204
 466	2.3250e-01	18.6300	42.765735	-0.000047	-0.469786	-0.159168	-0.003763
 467	2.3300e-01	18.6685	43.090302	0.000810	8.103812	2.745646	0.064914
 468	2.3350e-01	18.7021	43.172406	0.000205	2.049976	0.694551	0.016421
 469	2.3400e-01	18.7423	43.176683	0.000011	0.106770	0.036175	0.000855
 470	2.3450e-01	18.7968	43.157867	-0.000047	-0.469786	-0.159168	-0.003763
 471	2.3500e-01	18.8257	43.434541	0.000691	6.907993	2.340491	0.055335
 472	2.3550e-01	18.8513	43.606446	0.000429	4.292138	1.454216	0.034381
 473	2.3600e-01	18.9139	43.608584	0.000005	0.053385	0.018087	0.000428
 474	2.3650e-01	18.9540	43.718056	0.000273	2.733302	0.926068	0.021894
 475	2.3700e-01	18.9861	43.724471	0.000016	0.160154	0.054262	0.001283
 476	2.3750e-01	19.0246	43.978480	0.000634	6.342114	2.148766	0.050802
 477	2.3800e-01	19.0631	44.086242	0.000269	2.690594	0.911598	0.021552
 478	2.3850e-01	19.0952	44.235055	0.000372	3.715582	1.258873	0.029763
 479	2.3900e-01	19.1385	44.394987	0.000399	3.993183	1.352927	0.031986
 480	2.3950e-01	19.1850	44.334264	-0.000152	-1.516128	-0.513678	-0.012145
 481	2.4000e-01	19.2428	44.353507	0.000048	0.480463	0.162785	0.003849
 482	2.4050e-01	19.2813	44.437749	0.000210	2.103361	0.712638	0.016848
 483	2.4100e-01	19.3198	44.538669	0.000252	2.519762	0.853719	0.020184
 484	2.4150e-01	19.3503	44.652417	0.000284	2.840071	0.962242	0.022750
 485	2.4200e-01	19.3775	44.900440	0.000619	6.192637	2.098122	0.049605
 486	2.4250e-01	19.3920	45.150173	0.000624	6.235344	2.112592	0.049947
 487	2.4300e-01	19.4642	45.121950	-0.000070	-0.704679	-0.238752	-0.005645
 488	2.4350e-01	19.5059	45.065503	-0.000141	-1.409359	-0.477504	-0.011289
 489	2.4400e-01	19.5267	45.358854	0.000732	7.324394	2.481572	0.058670
 490	2.4450e-01	19.5668	45.393064	0.000085	0.854157	0.289396	0.006842
 491	2.4500e-01	19.6101	45.426419	0.000083	0.832803	0.282161	0.006671
 492	2.4550e-01	19.6775	45.535464	0.000272	2.722625	0.922450	0.021809
 493	2.4600e-01	19.7256	45.617140	0.000204	2.039299	0.690933	0.016335
 494	2.4650e-01	19.7401	45.717632	0.000251	2.509086	0.850101	0.020098
 495	2.4700e-01	19.7802	46.015259	0.000743	7.431164	2.517747	0.059525
 496	2.4750e-01	19.8283	46.076410	0.000153	1.526805	0.517296	0.012230
 497	2.4800e-01	19.8524	46.036640	-0.000099	-0.992957	-0.336423	-0.007954
 498	2.4850e-01	19.9037	46.300485	0.000659	6.587684	2.231968	0.052769
 499	2.4900e-01	19.9615	46.194434	-0.000265	-2.647886	-0.897128	-0.021210
 500	2.4950e-01	19.9887	46.177329	-0.000043	-0.427078	-0.144698	-0.003421
 501	2.5000e-01	20.0192	46.495055	0.000793	7.932981	2.687767	0.063545
 502	2.5050e-01	19.9887	46.340254	0.000387	3.865059	1.309518	-0.030960
 503	2.5100e-01	19.9470	46.195289	0.000362	3.619489	1.226316	-0.028993
 504	2.5150e-01	19.9053	46.189730	0.000014	0.138800	0.047027	-0.001112
 505	2.5200e-01	19.8652	46.193151	-0.000009	-0.085416	-0.028940	0.000684
 506	2.5250e-01	19.8299	46.078548	0.000286	2.861425	0.969477	-0.022921
 507	2.5300e-01	19.8107	45.869867	0.000521	5.210356	1.765317	-0.041736
 508	2.5350e-01	19.7369	45.832663	0.000093	0.928895	0.314718	-0.007441
 509	2.5400e-01	19.7112	45.913057	-0.000201	-2.007268	-0.680081	0.016079
 510	2.5450e-01	19.6647	45.736875	0.000440	4.398907	1.490390	-0.035236
 511	2.5500e-01	19.6230	45.654343	0.000206	2.060653	0.698168	-0.016506
 512	2.5550e-01	19.5957	45.516648	0.000344	3.437981	1.164820	-0.027539
 513	2.5600e-01	19.5636	45.549575	-0.000082	-0.822126	-0.278544	0.006585
 514	2.5650e-01	19.5011	45.399051	0.000376	3.758290	1.273343	-0.030105
 515	2.5700e-01	19.4690	45.306256	0.000232	2.316900	0.784987	-0.018559
 516	2.5750e-01	19.4337	45.315237	-0.000022	-0.224216	-0.075966	0.001796
 517	2.5800e-01	19.4176	45.021886	0.000732	7.324394	2.481572	-0.058670
 518	2.5850e-01	19.3422	45.060800	-0.000097	-0.971603	-0.329188	0.007783
 519	2.5900e-01	19.3053	45.253659	-0.000482	-4.815309	-1.631471	0.038572
 520	2.5950e-01	19.2556	45.022741	0.000577	5.765558	1.953424	-0.046184
 521	2.6000e-01	19.2155	44.964584	0.000145	1.452067	0.491973	-0.011631
 522	2.6050e-01	19.1866	44.905144	0.000148	1.484097	0.502826	-0.011888
 523	2.6100e-01	19.1369	44.796955	0.000270	2.701271	0.915215	-0.021638
 524	2.6150e-01	19.0968	44.537386	0.000648	6.480915	2.195793	-0.051914
 525	2.6200e-01	19.0567	44.697318	-0.000399	-3.993183	-1.352927	0.031986
 526	2.6250e-01	19.0262	44.451006	0.000615	6.149929	2.083652	-0.049262
 527	2.6300e-01	18.9797	44.463407	-0.000031	-0.309632	-0.104906	0.002480
 528	2.6350e-01	18.9572	44.397980	0.000163	1.633575	0.553470	-0.013085
 529	2.6400e-01	18.9059	44.343672	0.000136	1.355974	0.459416	-0.010862
 530	2.6450e-01	18.8513	44.258147	0.000214	2.135392	0.723490	-0.017105
 531	2.6500e-01	18.8513	44.020815	0.000593	5.925713	2.007686	-0.047466
 532	2.6550e-01	18.7920	43.931014	0.000224	2.242162	0.759665	-0.017960
 533	2.6600e-01	18.7535	43.996868	-0.000164	-1.644252	-0.557088	0.013171
 534	2.6650e-01	18.7038	43.799305	0.000493	4.932755	1.671263	-0.039513
 535	2.6700e-01	18.6685	43.751839	0.000119	1.185143	0.401537	-0.009493
 536	2.6750e-01	18.6380	43.650064	0.000254	2.541116	0.860954	-0.020355
 537	2.6800e-01	18.5963	43.719767	-0.000174	-1.740344	-0.589645	0.013941
 538	2.6850e-01	18.5433	43.365693	0.000884	8.840523	2.995250	-0.070815
 539	2.6900e-01	18.5000	43.593190	-0.000568	-5.680143	-1.924484	0.045499
 540	2.6950e-01	18.4663	43.400331	0.000482	4.815309	1.631471	-0.038572
 541	2.7000e-01	18.4310	43.236550	0.000409	4.089276	1.385484	-0.032756
 542	2.7050e-01	18.3957	43.371252	-0.000336	-3.363242	-1.139497	0.026940
 543	2.7100e-01	18.3444	43.016323	0.000886	8.861877	3.002485	-0.070986
 544	2.7150e-01	18.2931	43.007771	0.000021	0.213539	0.072349	-0.001711
 545	2.7200e-01	18.2578	42.884187	0.000309	3.085641	1.045444	-0.024717
 546	2.7250e-01	18.2113	42.866227	0.000045	0.448432	0.151933	-0.003592
 547	2.7300e-01	18.1808	42.928660	-0.000156	-1.558836	-0.528148	0.012487
 548	2.7350e-01	18.1615	42.820471	0.000270	2.701271	0.915215	-0.021638
 549	2.7400e-01	18.1054	42.572448	0.000619	6.192637	2.098122	-0.049605
 550	2.7450e-01	18.0508	42.556198	0.000041	0.405724	0.137463	-0.003250
 551	2.7500e-01	18.0155	42.678071	-0.000304	-3.042934	-1.030974	0.024375
 552	2.7550e-01	17.9802	42.393701	0.000710	7.100178	2.405605	-0.056874
 553	2.7600e-01	17.9305	42.416365	-0.000057	-0.565879	-0.191725	0.004533
 554	2.7650e-01	17.8952	42.175612	0.000601	6.011128	2.036625	-0.048151
 555	2.7700e-01	17.8599	42.099494	0.000190	1.900499	0.643906	-0.015223
 556	2.7750e-01	17.8246	42.027653	0.000179	1.793729	0.607732	-0.014368
 557	2.7800e-01	17.7974	41.933576	0.000235	2.348931	0.795839	-0.018816
 558	2.7850e-01	17.7460	41.883971	0.000124	1.238527	0.419624	-0.009921
 559	2.7900e-01	17.7123	41.692395	0.000478	4.783278	1.620618	-0.038315
 560	2.7950e-01	17.6578	41.825387	-0.000332	-3.320534	-1.125028	0.026598
 561	2.8000e-01	17.6000	41.596180	0.000572	5.722850	1.938954	-0.045841
 562	2.8050e-01	17.5968	41.678284	-0.000205	-2.049976	-0.694551	0.016421
 563	2.8100e-01	17.5311	41.439241	0.000597	5.968420	2.022156	-0.047809
 564	2.8150e-01	17.5086	41.456346	-0.000043	-0.427078	-0.144698	0.003421
 565	2.8200e-01	17.4701	41.317368	0.000347	3.470012	1.175672	-0.027796
 566	2.8250e-01	17.4380	41.228422	0.000222	2.220808	0.752430	-0.017789
 567	2.8300e-01	17.3706	41.167699	0.000152	1.516128	0.513678	-0.012145
 568	2.8350e-01	17.3369	41.041977	0.000314	3.139026	1.063531	-0.025144
 569	2.8400e-01	17.2968	40.982110	0.000149	1.494774	0.506443	-0.011974
 570	2.8450e-01	17.2664	40.898295	0.000209	2.092684	0.709021	-0.016763
 571	2.8500e-01	17.2150	40.801224	0.000242	2.423670	0.821162	-0.019414
 572	2.8550e-01	17.1829	40.859809	-0.000146	-1.462743	-0.495591	0.011717
 573	2.8600e-01	17.1509	40.632740	0.000567	5.669466	1.920867	-0.045414
 574	2.8650e-01	17.1091	40.334257	0.000745	7.452518	2.524981	-0.059696
 575	2.8700e-01	17.0578	40.487775	-0.000383	-3.833029	-1.298665	0.030703
 576	2.8750e-01	17.0241	40.351362	0.000341	3.405950	1.153967	-0.027282
 577	2.8800e-01	16.9824	40.213239	0.000345	3.448658	1.168437	-0.027625
 578	2.8850e-01	16.9391	40.121728	0.000228	2.284869	0.774135	-0.018302
 579	2.8900e-01	16.9022	40.002848	0.000297	2.968195	1.005652	-0.023776
 580	2.8950e-01	16.8509	40.117879	-0.000287	-2.872102	-0.973095	0.023006
 581	2.9000e-01	16.8140	39.961796	0.000390	3.897090	1.320370	-0.031217
 582	2.9050e-01	16.7690	39.868146	0.000234	2.338254	0.792222	-0.018730
 583	2.9100e-01	16.7594	39.822390	0.000114	1.142435	0.387067	-0.009151
 584	2.9150e-01	16.7017	39.683839	0.000346	3.459335	1.172054	-0.027710
 585	2.9200e-01	16.6616	39.484994	0.000496	4.964786	1.682115	-0.039769
 586	2.9250e-01	16.6199	39.579071	-0.000235	-2.348931	-0.795839	0.018816
 587	2.9300e-01	16.5830	39.411442	0.000419	4.185368	1.418041	-0.033526
 588	2.9350e-01	16.5252	39.335325	0.000190	1.900499	0.643906	-0.015223
 589	2.9400e-01	16.4947	39.311378	0.000060	0.597910	0.202577	-0.004789
 590	2.9450e-01	16.4755	39.253221	0.000145	1.452067	0.491973	-0.011631
 591	2.9500e-01	16.4338	38.992797	0.000650	6.502268	2.203028	-0.052085
 592	2.9550e-01	16.3808	39.033849	-0.000102	-1.024988	-0.347275	0.008210
 593	2.9600e-01	16.3311	38.927370	0.000266	2.658563	0.900746	-0.021296
 594	2.9650e-01	16.2910	38.783260	0.000360	3.598135	1.219081	-0.028822
 595	2.9700e-01	16.2461	38.712702	0.000176	1.761698	0.596880	-0.014112
 596	2.9750e-01	16.2204	38.592112	0.000301	3.010903	1.020121	-0.024118
 597	2.9800e-01	16.1899	38.542935	0.000123	1.227850	0.416007	-0.009835
 598	2.9850e-01	16.1562	38.530534	0.000031	0.309632	0.104906	-0.002480
 599	2.9900e-01	16.1145	38.257281	0.000682	6.822577	2.311552	-0.054651
 600	2.9950e-01	16.0664	38.302182	-0.000112	-1.121081	-0.379832	0.008980
 601	3.0000e-01	16.0231	38.196559	0.000264	2.637209	0.893511	-0.021125
 602	3.0050e-01	15.9878	38.032778	0.000409	4.089276	1.385484	-0.032756
 603	3.0100e-01	15.9525	37.983601	0.000123	1.227850	0.416007	-0.009835
 604	3.0150e-01	15.8996	37.993864	-0.000026	-0.256247	-0.086819	0.002053
 605	3.0200e-01	15.8803	37.769789	0.000559	5.594727	1.895545	-0.044815
 606	3.0250e-01	15.8225	37.679987	0.000224	2.242162	0.759665	-0.017960
 607	3.0300e-01	15.7921	37.614988	0.000162	1.622898	0.549853	-0.013000
 608	3.0350e-01	15.7439	37.496536	0.000296	2.957518	1.002034	-0.023690
 609	3.0400e-01	15.7054	37.505944	-0.000023	-0.234893	-0.079584	0.001882
 610	3.0450e-01	15.6557	37.503806	0.000005	0.053385	0.018087	-0.000428
 611	3.0500e-01	15.6268	37.220290	0.000708	7.078824	2.398371	-0.056703
 612	3.0550e-01	15.5755	37.197626	0.000057	0.565879	0.191725	-0.004533
 613	3.0600e-01	15.5290	37.151442	0.000115	1.153112	0.390685	-0.009237
 614	3.0650e-01	15.5129	37.050523	0.000252	2.519762	0.853719	-0.020184
 615	3.0700e-01	15.4680	36.990228	0.000151	1.505451	0.510061	-0.012059
 616	3.0750e-01	15.4151	36.738356	0.000629	6.288729	2.130679	-0.050374
 617	3.0800e-01	15.3669	36.852532	-0.000285	-2.850748	-0.965860	0.022835
 618	3.0850e-01	15.3300	36.870920	-0.000046	-0.459109	-0.155550	0.003678
 619	3.0900e-01	15.3044	36.602799	0.000669	6.694454	2.268142	-0.053624
 620	3.0950e-01	15.2867	36.496321	0.000266	2.658563	0.900746	-0.021296
 621	3.1000e-01	15.2049	36.481354	0.000037	0.373694	0.126611	-0.002993
 622	3.1050e-01	15.1793	36.282080	0.000498	4.975463	1.685733	-0.039855
 623	3.1100e-01	15.1552	36.303462	-0.000053	-0.533848	-0.180873	0.004276
 624	3.1150e-01	15.0910	36.049880	0.000633	6.331437	2.145149	-0.050716
 625	3.1200e-01	15.0654	36.089649	-0.000099	-0.992957	-0.336423	0.007954
 626	3.1250e-01	15.0204	35.901494	0.000470	4.697862	1.591679	-0.037631
 627	3.1300e-01	14.9787	35.857876	0.000109	1.089050	0.368980	-0.008724
 628	3.1350e-01	14.9322	35.751825	0.000265	2.647886	0.897128	-0.021210
 629	3.1400e-01	14.8985	35.919882	-0.000420	-4.196045	-1.421659	0.033611
 630	3.1450e-01	14.8744	35.687681	0.000580	5.797589	1.964276	-0.046440
 631	3.1500e-01	14.8231	35.480283	0.000518	5.178325	1.754464	-0.041480
 632	3.1550e-01	14.7766	35.496960	-0.000042	-0.416401	-0.141081	0.003335
 633	3.1600e-01	14.7445	35.508078	-0.000028	-0.277601	-0.094054	0.002224
 634	3.1650e-01	14.6851	35.295976	0.000530	5.295772	1.794256	-0.042420
 635	3.1700e-01	14.6547	35.246372	0.000124	1.238527	0.419624	-0.009921
 636	3.1750e-01	14.6001	35.166834	0.000199	1.985915	0.672846	-0.015908
 637	3.1800e-01	14.5825	35.017592	0.000373	3.726259	1.262491	-0.029848
 638	3.1850e-01	14.5632	34.763583	0.000634	6.342114	2.148766	-0.050802
 639	3.1900e-01	14.5007	34.833713	-0.000175	-1.751021	-0.593262	0.014026
 640	3.1950e-01	14.4702	34.605789	0.000569	5.690820	1.928102	-0.045585
 641	3.2000e-01	14.4172	34.692169	-0.000216	-2.156746	-0.730725	0.017276
 642	3.2050e-01	14.3900	34.493751	0.000495	4.954109	1.678498	-0.039684
 643	3.2100e-01	14.3322	34.416779	0.000192	1.921853	0.651141	-0.015395
 644	3.2150e-01	14.3146	34.364609	0.000130	1.302589	0.441329	-0.010434
 645	3.2200e-01	14.2664	34.226058	0.000346	3.459335	1.172054	-0.027710
 646	3.2250e-01	14.2215	34.164052	0.000155	1.548159	0.524531	-0.012401
 647	3.2300e-01	14.1814	34.052442	0.000279	2.786686	0.944155	-0.022322
 648	3.2350e-01	14.1509	33.993002	0.000148	1.484097	0.502826	-0.011888
 649	3.2400e-01	14.0980	33.848892	0.000360	3.598135	1.219081	-0.028822
 650	3.2450e-01	14.0707	33.857445	-0.000021	-0.213539	-0.072349	0.001711
 651	3.2500e-01	14.0194	33.861294	-0.000010	-0.096093	-0.032557	0.000770
 652	3.2550e-01	13.9921	33.602153	0.000647	6.470238	2.192176	-0.051828
 653	3.2600e-01	13.9408	33.439655	0.000406	4.057245	1.374632	-0.032500
 654	3.2650e-01	13.9087	33.541002	-0.000253	-2.530439	-0.857336	0.020269
 655	3.2700e-01	13.8542	33.359689	0.000453	4.527031	1.533800	-0.036263
 656	3.2750e-01	13.8285	33.326334	0.000083	0.832803	0.282161	-0.006671
 657	3.2800e-01	13.7868	33.056075	0.000675	6.747839	2.286230	-0.054052
 658	3.2850e-01	13.7483	33.084726	-0.000072	-0.715356	-0.242369	0.005730
 659	3.2900e-01	13.6841	32.978247	0.000266	2.658563	0.900746	-0.021296
 660	3.2950e-01	13.6552	33.129199	-0.000377	-3.768967	-1.276961	0.030190
 661	3.3000e-01	13.6264	32.879894	0.000622	6.224668	2.108974	-0.049861
 662	3.3050e-01	13.5638	32.698153	0.000454	4.537708	1.537417	-0.036348
 663	3.3100e-01	13.5510	32.647693	0.000126	1.259881	0.426859	-0.010092
 664	3.3150e-01	13.4964	32.603648	0.000110	1.099727	0.372598	-0.008809
 665	3.3200e-01	13.4756	32.382138	0.000553	5.530665	1.873840	-0.044302
 666	3.3250e-01	13.4403	32.333816	0.000121	1.206496	0.408772	-0.009664
 667	3.3300e-01	13.3921	32.151648	0.000455	4.548385	1.541034	-0.036434
 668	3.3350e-01	13.3520	32.043886	0.000269	2.690594	0.911598	-0.021552
 669	3.3400e-01	13.2959	32.040465	0.000009	0.085416	0.028940	-0.000684
 670	3.3450e-01	13.2606	32.013952	0.000066	0.661972	0.224282	-0.005303
 671	3.3500e-01	13.2189	32.041320	-0.000068	-0.683325	-0.231517	0.005474
 672	3.3550e-01	13.1595	31.860435	0.000452	4.516354	1.530182	-0.036177
 673	3.3600e-01	13.1387	31.711621	0.000372	3.715582	1.258873	-0.029763
 674	3.3650e-01	13.1130	31.615833	0.000239	2.391639	0.810309	-0.019158
 675	3.3700e-01	13.0713	31.502085	0.000284	2.840071	0.962242	-0.022750
 676	3.3750e-01	13.0200	31.352416	0.000374	3.736936	1.266108	-0.029934
 677	3.3800e-01	12.9815	31.373370	-0.000052	-0.523171	-0.177255	0.004191
 678	3.3850e-01	12.9397	31.301101	0.000180	1.804406	0.611349	-0.014454
 679	3.3900e-01	12.9446	31.015447	-0.000713	-7.132209	-2.416458	-0.057131
 680	3.3950e-01	12.8724	30.884594	0.000327	3.267150	1.106940	-0.026171
 681	3.4000e-01	12.8290	31.029131	-0.000361	-3.608812	-1.222699	0.028907
 682	3.4050e-01	12.7793	30.878607	0.000376	3.758290	1.273343	-0.030105
 683	3.4100e-01	12.7456	30.843542	0.000088	0.875511	0.296631	-0.007013
 684	3.4150e-01	12.7087	30.644696	0.000496	4.964786	1.682115	-0.039769
 685	3.4200e-01	12.6702	30.667788	-0.000058	-0.576556	-0.195342	0.004618
 686	3.4250e-01	12.6317	30.468942	0.000496	4.964786	1.682115	-0.039769
 687	3.4300e-01	12.5916	30.461673	0.000018	0.181508	0.061497	-0.001454
 688	3.4350e-01	12.5676	30.268814	0.000482	4.815309	1.631471	-0.038572
 689	3.4400e-01	12.5258	30.221775	0.000117	1.174466	0.397920	-0.009408
 690	3.4450e-01	12.4617	30.147368	0.000186	1.857791	0.629437	-0.014881
 691	3.4500e-01	12.4312	30.001120	0.000365	3.651520	1.237169	-0.029250
 692	3.4550e-01	12.3943	29.925003	0.000190	1.900499	0.643906	-0.015223
 693	3.4600e-01	12.3414	29.821518	0.000258	2.583824	0.875423	-0.020697
 694	3.4650e-01	12.2948	29.905760	-0.000210	-2.103361	-0.712638	0.016848
 695	3.4700e-01	12.2579	29.795005	0.000277	2.765333	0.936920	-0.022151
 696	3.4750e-01	12.2339	29.591455	0.000508	5.082233	1.721907	-0.040710
 697	3.4800e-01	12.2018	29.362676	0.000571	5.712173	1.935337	-0.045756
 698	3.4850e-01	12.1521	29.303236	0.000148	1.484097	0.502826	-0.011888
 699	3.4900e-01	12.1120	29.251065	0.000130	1.302589	0.441329	-0.010434
 700	3.4950e-01	12.0783	29.207020	0.000110	1.099727	0.372598	-0.008809
 701	3.5000e-01	12.0077	29.128765	0.000195	1.953884	0.661994	-0.015651
 702	3.5050e-01	11.9868	28.984227	0.000361	3.608812	1.222699	-0.028907
 703	3.5100e-01	11.9628	28.827716	0.000391	3.907767	1.323987	-0.031302
 704	3.5150e-01	11.9243	28.820447	0.000018	0.181508	0.061497	-0.001454
 705	3.5200e-01	11.8729	28.658377	0.000405	4.046568	1.371014	-0.032414
 706	3.5250e-01	11.8360	28.703705	-0.000113	-1.131758	-0.383450	0.009066
 707	3.5300e-01	11.7799	28.412920	0.000726	7.260333	2.459867	-0.058157
 708	3.5350e-01	11.7414	28.539069	-0.000315	-3.149703	-1.067148	0.025230
 709	3.5400e-01	11.7093	28.376144	0.000407	4.067922	1.378249	-0.032585
 710	3.5450e-01	11.6580	28.381703	-0.000014	-0.138800	-0.047027	0.001112
 711	3.5500e-01	11.6179	28.247857	0.000334	3.341888	1.132262	-0.026769
 712	3.5550e-01	11.5665	28.079800	0.000420	4.196045	1.421659	-0.033611
 713	3.5600e-01	11.5489	28.059274	0.000051	0.512494	0.173638	-0.004105
 714	3.5650e-01	11.4911	27.942532	0.000291	2.914810	0.987564	-0.023348
 715	3.5700e-01	11.4606	27.827929	0.000286	2.861425	0.969477	-0.022921
 716	3.5750e-01	11.4189	27.709049	0.000297	2.968195	1.005652	-0.023776
 717	3.5800e-01	11.3901	27.619247	0.000224	2.242162	0.759665	-0.017960
 718	3.5850e-01	11.3387	27.486684	0.000331	3.309858	1.121410	-0.026513
 719	3.5900e-01	11.2938	27.510203	-0.000059	-0.587233	-0.198960	0.004704
 720	3.5950e-01	11.2569	27.387047	0.000307	3.074964	1.041826	-0.024631
 721	3.6000e-01	11.2328	27.116788	0.000675	6.747839	2.286230	-0.054052
 722	3.6050e-01	11.1767	27.214286	-0.000243	-2.434347	-0.824779	0.019500
 723	3.6100e-01	11.1350	27.053072	0.000403	4.025214	1.363779	-0.032243
 724	3.6150e-01	11.1270	26.962415	0.000226	2.263515	0.766900	-0.018131
 725	3.6200e-01	11.0820	26.731070	0.000578	5.776235	1.957041	-0.046269
 726	3.6250e-01	11.0275	26.663077	0.000170	1.697637	0.575175	-0.013598
 727	3.6300e-01	10.9858	26.638703	0.000061	0.608587	0.206195	-0.004875
 728	3.6350e-01	10.9232	26.465942	0.000431	4.313492	1.461451	-0.034552
 729	3.6400e-01	10.9168	26.379134	0.000217	2.167423	0.734343	-0.017362
 730	3.6450e-01	10.8815	26.297030	0.000205	2.049976	0.694551	-0.016421
 731	3.6500e-01	10.8125	26.371437	-0.000186	-1.857791	-0.629437	0.014881
 732	3.6550e-01	10.8061	26.137098	0.000585	5.850974	1.982364	-0.046868
 733	3.6600e-01	10.7532	26.070816	0.000165	1.654929	0.560705	-0.013256
 734	3.6650e-01	10.7211	25.908746	0.000405	4.046568	1.371014	-0.032414
 735	3.6700e-01	10.6649	25.837333	0.000178	1.783052	0.604114	-0.014283
 736	3.6750e-01	10.6329	25.777038	0.000151	1.505451	0.510061	-0.012059
 737	3.6800e-01	10.6056	25.604277	0.000431	4.313492	1.461451	-0.034552
 738	3.6850e-01	10.5559	25.507206	0.000242	2.423670	0.821162	-0.019414
 739	3.6900e-01	10.5013	25.379346	0.000319	3.192411	1.081618	-0.025572
 740	3.6950e-01	10.4708	25.461878	-0.000206	-2.060653	-0.698168	0.016506
 741	3.7000e-01	10.4355	25.325893	0.000340	3.395273	1.150350	-0.027197
 742	3.7050e-01	10.3970	25.271585	0.000136	1.355974	0.459416	-0.010862
 743	3.7100e-01	10.3521	25.126620	0.000362	3.619489	1.226316	-0.028993
 744	3.7150e-01	10.3008	24.986786	0.000349	3.491366	1.182907	-0.027967
 745	3.7200e-01	10.2703	24.958991	0.000069	0.694002	0.235134	-0.005559
 746	3.7250e-01	10.2398	24.814453	0.000361	3.608812	1.222699	-0.028907
 747	3.7300e-01	10.1949	24.581397	0.000582	5.818943	1.971511	-0.046611
 748	3.7350e-01	10.1468	24.657942	-0.000191	-1.911176	-0.647524	0.015309
 749	3.7400e-01	10.1083	24.555312	0.000256	2.562470	0.868188	-0.020526
 750	3.7450e-01	10.0682	24.468932	0.000216	2.156746	0.730725	-0.017276
 751	3.7500e-01	9.9976	24.282487	0.000466	4.655154	1.577209	-0.037289
 752	3.7550e-01	9.9767	24.309428	-0.000067	-0.672648	-0.227899	0.005388
 753	3.7600e-01	9.9495	24.281205	0.000070	0.704679	0.238752	-0.005645
 754	3.7650e-01	9.9126	24.081931	0.000498	4.975463	1.685733	-0.039855
 755	3.7700e-01	9.8564	23.968610	0.000283	2.829394	0.958625	-0.022664
 756	3.7750e-01	9.8420	23.858711	0.000274	2.743979	0.929685	-0.021980
 757	3.7800e-01	9.7938	23.682957	0.000439	4.388230	1.486773	-0.035151
 758	3.7850e-01	9.7505	23.608122	0.000187	1.868468	0.633054	-0.014967
 759	3.7900e-01	9.7265	23.444342	0.000409	4.089276	1.385484	-0.032756
 760	3.7950e-01	9.6799	23.361810	0.000206	2.060653	0.698168	-0.016506
 761	3.8000e-01	9.5997	23.320758	0.000102	1.024988	0.347275	-0.008210
 762	3.8050e-01	9.5885	23.352402	-0.000079	-0.790095	-0.267691	0.006329
 763	3.8100e-01	9.5404	23.262174	0.000225	2.252838	0.763282	-0.018046
 764	3.8150e-01	9.5035	23.194181	0.000170	1.697637	0.575175	-0.013598
 765	3.8200e-01	9.4618	22.965829	0.000570	5.701496	1.931719	-0.045670
 766	3.8250e-01	9.4104	22.954283	0.000029	0.288278	0.097671	-0.002309
 767	3.8300e-01	9.3783	22.844384	0.000274	2.743979	0.929685	-0.021980
 768	3.8350e-01	9.3527	22.605769	0.000596	5.957744	2.018538	-0.047723
 769	3.8400e-01	9.3142	22.462087	0.000359	3.587458	1.215464	-0.028736
 770	3.8450e-01	9.2741	22.536921	-0.000187	-1.868468	-0.633054	0.014967
 771	3.8500e-01	9.2227	22.426166	0.000277	2.765333	0.936920	-0.022151
 772	3.8550e-01	9.1939	22.335937	0.000225	2.252838	0.763282	-0.018046
 773	3.8600e-01	9.1634	22.129822	0.000515	5.146295	1.743612	-0.041223
 774	3.8650e-01	9.0832	22.119131	0.000027	0.266924	0.090436	-0.002138
 775	3.8700e-01	9.0623	22.124690	-0.000014	-0.138800	-0.047027	0.001112
 776	3.8750e-01	9.0270	21.902753	0.000554	5.541342	1.877458	-0.044388
 777	3.8800e-01	8.9965	21.744959	0.000394	3.939798	1.334840	-0.031559
 778	3.8850e-01	8.9276	21.762919	-0.000045	-0.448432	-0.151933	0.003592
 779	3.8900e-01	8.9099	21.524304	0.000596	5.957744	2.018538	-0.047723
 780	3.8950e-01	8.8538	21.567067	-0.000107	-1.067696	-0.361745	0.008553
 781	3.9000e-01	8.8329	21.493515	0.000184	1.836437	0.622202	-0.014710
 782	3.9050e-01	8.8024	21.308781	0.000461	4.612447	1.562739	-0.036947
 783	3.9100e-01	8.7367	21.178356	0.000326	3.256473	1.103323	-0.026085
 784	3.9150e-01	8.6998	21.253618	-0.000188	-1.879145	-0.636672	0.015052
 785	3.9200e-01	8.6629	21.180921	0.000182	1.815083	0.614967	-0.014539
 786	3.9250e-01	8.6372	20.879445	0.000753	7.527257	2.550304	-0.060295
 787	3.9300e-01	8.5923	20.917932	-0.000096	-0.960926	-0.325571	0.007697
 788	3.9350e-01	8.5281	20.684448	0.000583	5.829620	1.975129	-0.046697
 789	3.9400e-01	8.4848	20.694284	-0.000025	-0.245570	-0.083201	0.001967
 790	3.9450e-01	8.4687	20.518102	0.000440	4.398907	1.490390	-0.035236
 791	3.9500e-01	8.4367	20.474484	0.000109	1.089050	0.368980	-0.008724
 792	3.9550e-01	8.3998	20.308138	0.000415	4.153337	1.407189	-0.033269
 793	3.9600e-01	8.3468	20.280342	0.000069	0.694002	0.235134	-0.005559
 794	3.9650e-01	8.3083	20.126825	0.000383	3.833029	1.298665	-0.030703
 795	3.9700e-01	8.2586	20.266658	-0.000349	-3.491366	-1.182907	0.027967
 796	3.9750e-01	8.2233	19.874954	0.000978	9.780095	3.313586	-0.078341
 797	3.9800e-01	8.1832	19.914723	-0.000099	-0.992957	-0.336423	0.007954
 798	3.9850e-01	8.1351	19.899328	0.000038	0.384371	0.130228	-0.003079
 799	3.9900e-01	8.0869	19.857849	0.000104	1.035665	0.350893	-0.008296
 800	3.9950e-01	8.0709	19.495650	0.000904	9.043385	3.063982	-0.072440
 801	4.0000e-01	8.0244	19.410553	0.000212	2.124715	0.719873	-0.017019
 802	4.0050e-01	7.9859	19.301508	0.000272	2.722625	0.922450	-0.021809
 803	4.0100e-01	7.9377	19.323317	-0.000054	-0.544525	-0.184490	0.004362
 804	4.0150e-01	7.8992	19.177069	0.000365	3.651520	1.237169	-0.029250
 805	4.0200e-01	7.8752	19.129603	0.000119	1.185143	0.401537	-0.009493
 806	4.0250e-01	7.8238	18.901679	0.000569	5.690820	1.928102	-0.045585
 807	4.0300e-01	7.8014	18.695136	0.000516	5.156972	1.747229	-0.041309
 808	4.0350e-01	7.7500	18.803325	-0.000270	-2.701271	-0.915215	0.021638
 809	4.0400e-01	7.7099	18.640827	0.000406	4.057245	1.374632	-0.032500
 810	4.0450e-01	7.6779	18.504415	0.000341	3.405950	1.153967	-0.027282
 811	4.0500e-01	7.6297	18.456093	0.000121	1.206496	0.408772	-0.009664
 812	4.0550e-01	7.5784	18.306852	0.000373	3.726259	1.262491	-0.029848
 813	4.0600e-01	7.5591	18.336358	-0.000074	-0.736710	-0.249604	0.005901
 814	4.0650e-01	7.5094	18.208070	0.000320	3.203088	1.085236	-0.025658
 815	4.0700e-01	7.4629	18.029323	0.000446	4.462969	1.512095	-0.035749
 816	4.0750e-01	7.4212	17.977580	0.000129	1.291912	0.437712	-0.010349
 817	4.0800e-01	7.3731	17.924982	0.000131	1.313266	0.444947	-0.010520
 818	4.0850e-01	7.3410	17.665842	0.000647	6.470238	2.192176	-0.051828
 819	4.0900e-01	7.3137	17.686795	-0.000052	-0.523171	-0.177255	0.004191
 820	4.0950e-01	7.2672	17.578178	0.000271	2.711948	0.918833	-0.021723
 821	4.1000e-01	7.2207	17.504627	0.000184	1.836437	0.622202	-0.014710
 822	4.1050e-01	7.1789	17.379333	0.000313	3.128349	1.059913	-0.025059
 823	4.1100e-01	7.1485	17.395582	-0.000041	-0.405724	-0.137463	0.003250
 824	4.1150e-01	7.0971	17.133448	0.000654	6.544976	2.217498	-0.052427
 825	4.1200e-01	7.0602	17.137297	-0.000010	-0.096093	-0.032557	0.000770
 826	4.1250e-01	7.0346	16.974799	0.000406	4.057245	1.374632	-0.032500
 827	4.1300e-01	6.9736	16.836676	0.000345	3.448658	1.168437	-0.027625
 828	4.1350e-01	6.9383	16.679738	0.000392	3.918444	1.327605	-0.031388
 829	4.1400e-01	6.9239	16.778947	-0.000248	-2.477055	-0.839249	0.019842
 830	4.1450e-01	6.8549	16.649376	0.000324	3.235119	1.096088	-0.025914
 831	4.1500e-01	6.8372	16.500563	0.000372	3.715582	1.258873	-0.029763
 832	4.1550e-01	6.7859	16.401781	0.000247	2.466378	0.835631	-0.019756
 833	4.1600e-01	6.7378	16.303000	0.000247	2.466378	0.835631	-0.019756
 834	4.1650e-01	6.6929	16.144351	0.000396	3.961152	1.342075	-0.031730
 835	4.1700e-01	6.6688	16.050273	0.000235	2.348931	0.795839	-0.018816
 836	4.1750e-01	6.6287	16.102444	-0.000130	-1.302589	-0.441329	0.010434
 837	4.1800e-01	6.5918	15.860408	0.000604	6.043159	2.047478	-0.048407
 838	4.1850e-01	6.5228	15.827480	0.000082	0.822126	0.278544	-0.006585
 839	4.1900e-01	6.4987	15.665410	0.000405	4.046568	1.371014	-0.032414
 840	4.1950e-01	6.5004	15.386171	-0.000697	-6.972055	-2.362196	-0.055848
 841	4.2000e-01	6.4298	15.431927	-0.000114	-1.142435	-0.387067	0.009151
 842	4.2050e-01	6.3832	15.378902	0.000132	1.323943	0.448564	-0.010605
 843	4.2100e-01	6.3383	15.380184	-0.000003	-0.032031	-0.010852	0.000257
 844	4.2150e-01	6.3030	15.289956	0.000225	2.252838	0.763282	-0.018046
 845	4.2200e-01	6.2613	15.183049	0.000267	2.669240	0.904363	-0.021381
 846	4.2250e-01	6.2196	14.955980	0.000567	5.669466	1.920867	-0.045414
 847	4.2300e-01	6.1972	14.949993	0.000015	0.149477	0.050644	-0.001197
 848	4.2350e-01	6.1442	14.734043	0.000539	5.391865	1.826813	-0.043190
 849	4.2400e-01	6.1089	14.808877	-0.000187	-1.868468	-0.633054	0.014967
 850	4.2450e-01	6.0704	14.461645	0.000867	8.669691	2.937371	-0.069446
 851	4.2500e-01	6.0351	14.506974	-0.000113	-1.131758	-0.383450	0.009066
 852	4.2550e-01	5.9902	14.363719	0.000358	3.576782	1.211846	-0.028651
 853	4.2600e-01	5.9517	14.176847	0.000467	4.665831	1.580826	-0.037374
 854	4.2650e-01	5.9164	14.105861	0.000177	1.772375	0.600497	-0.014197
 855	4.2700e-01	5.8811	14.001948	0.000259	2.594501	0.879041	-0.020783
 856	4.2750e-01	5.8314	13.929252	0.000182	1.815083	0.614967	-0.014539
 857	4.2800e-01	5.7656	13.939087	-0.000025	-0.245570	-0.083201	0.001967
 858	4.2850e-01	5.7464	13.753070	0.000464	4.644477	1.573592	-0.037203
 859	4.2900e-01	5.7030	13.809517	-0.000141	-1.409359	-0.477504	0.011289
 860	4.2950e-01	5.6710	13.524718	0.000711	7.110855	2.409223	-0.056960
 861	4.3000e-01	5.6260	13.594849	-0.000175	-1.751021	-0.593262	0.014026
 862	4.3050e-01	5.5827	13.401990	0.000482	4.815309	1.631471	-0.038572
 863	4.3100e-01	5.5474	13.342978	0.000147	1.473420	0.499208	-0.011802
 864	4.3150e-01	5.5009	13.150974	0.000479	4.793955	1.624236	-0.038401
 865	4.3200e-01	5.4480	13.097093	0.000135	1.345297	0.455799	-0.010776
 866	4.3250e-01	5.4335	13.007719	0.000223	2.231485	0.756047	-0.017875
 867	4.3300e-01	5.3854	12.916208	0.000228	2.284869	0.774135	-0.018302
 868	4.3350e-01	5.3453	12.840946	0.000188	1.879145	0.636672	-0.015052
 869	4.3400e-01	5.3068	12.639962	0.000502	5.018171	1.700202	-0.040197
 870	4.3450e-01	5.2603	12.634830	0.000013	0.128124	0.043409	-0.001026
 871	4.3500e-01	5.2282	12.504404	0.000326	3.256473	1.103323	-0.026085
 872	4.3550e-01	5.1704	12.380821	0.000309	3.085641	1.045444	-0.024717
 873	4.3600e-01	5.1448	12.231152	0.000374	3.736936	1.266108	-0.029934
 874	4.3650e-01	5.1127	12.184541	0.000116	1.163789	0.394302	-0.009322
 875	4.3700e-01	5.0646	12.201218	-0.000042	-0.416401	-0.141081	0.003335
 876	4.3750e-01	5.0212	11.989116	0.000530	5.295772	1.794256	-0.042420
 877	4.3800e-01	4.9811	11.816783	0.000430	4.302815	1.457833	-0.034467
 878	4.3850e-01	4.9458	11.688495	0.000320	3.203088	1.085236	-0.025658
 879	4.3900e-01	4.9218	11.608957	0.000199	1.985915	0.672846	-0.015908
 880	4.3950e-01	4.8833	11.370770	0.000595	5.947067	2.014921	-0.047637
 881	4.4000e-01	4.8063	11.493926	-0.000307	-3.074964	-1.041826	0.024631
 882	4.4050e-01	4.7806	11.432776	0.000153	1.526805	0.517296	-0.012230
 883	4.4100e-01	4.7309	11.395572	0.000093	0.928895	0.314718	-0.007441
 884	4.4150e-01	4.7100	11.138997	0.000641	6.406176	2.170471	-0.051315
 885	4.4200e-01	4.6683	11.106497	0.000081	0.811449	0.274926	-0.006500
 886	4.4250e-01	4.6186	11.084261	0.000056	0.555202	0.188107	-0.004447
 887	4.4300e-01	4.5977	10.875152	0.000522	5.221033	1.768934	-0.041822
 888	4.4350e-01	4.5416	10.605748	0.000673	6.726485	2.278995	-0.053881
 889	4.4400e-01	4.5079	10.672030	-0.000165	-1.654929	-0.560705	0.013256
 890	4.4450e-01	4.4726	10.644662	0.000068	0.683325	0.231517	-0.005474
 891	4.4500e-01	4.4132	10.440685	0.000509	5.092910	1.725525	-0.040795
 892	4.4550e-01	4.3860	10.320522	0.000300	3.000226	1.016504	-0.024033
 893	4.4600e-01	4.3394	10.362857	-0.000106	-1.057019	-0.358128	0.008467
 894	4.4650e-01	4.3122	10.008356	0.000885	8.851200	2.998868	-0.070900
 895	4.4700e-01	4.2608	10.107992	-0.000249	-2.487732	-0.842866	0.019927
 896	4.4750e-01	4.2239	10.016908	0.000227	2.274192	0.770517	-0.018217
 897	4.4800e-01	4.1967	9.810365	0.000516	5.156972	1.747229	-0.041309
 898	4.4850e-01	4.1437	9.717143	0.000233	2.327577	0.788605	-0.018644
 899	4.4900e-01	4.1052	9.655993	0.000153	1.526805	0.517296	-0.012230
 900	4.4950e-01	4.0748	9.606816	0.000123	1.227850	0.416007	-0.009835
 901	4.5000e-01	4.0218	9.521718	0.000212	2.124715	0.719873	-0.017019
 902	4.5050e-01	3.9849	9.247610	0.000684	6.843931	2.318787	-0.054822
 903	4.5100e-01	3.9416	9.267709	-0.000050	-0.501817	-0.170020	0.004020
 904	4.5150e-01	3.9079	9.115902	0.000379	3.790321	1.284195	-0.030361
 905	4.5200e-01	3.8662	9.042350	0.000184	1.836437	0.622202	-0.014710
 906	4.5250e-01	3.8101	8.917911	0.000311	3.106995	1.052678	-0.024888
 907	4.5300e-01	3.7796	8.828538	0.000223	2.231485	0.756047	-0.017875
 908	4.5350e-01	3.7507	8.818275	0.000026	0.256247	0.086819	-0.002053
 909	4.5400e-01	3.7042	8.610021	0.000520	5.199679	1.761699	-0.041651
 910	4.5450e-01	3.6593	8.640810	-0.000077	-0.768741	-0.260457	0.006158
 911	4.5500e-01	3.6224	8.620284	0.000051	0.512494	0.173638	-0.004105
 912	4.5550e-01	3.5662	8.296144	0.000809	8.093135	2.742029	-0.064828
 913	4.5600e-01	3.5325	8.276473	0.000049	0.491140	0.166403	-0.003934
 914	4.5650e-01	3.5020	8.134929	0.000353	3.534074	1.197377	-0.028309
 915	4.5700e-01	3.4651	8.145620	-0.000027	-0.266924	-0.090436	0.002138
 916	4.5750e-01	3.4250	7.732534	0.001031	10.313943	3.494459	-0.082617
 917	4.5800e-01	3.3721	7.810362	-0.000194	-1.943207	-0.658376	0.015566
 918	4.5850e-01	3.3448	7.718422	0.000230	2.295546	0.777752	-0.018388
 919	4.5900e-01	3.3095	7.637174	0.000203	2.028622	0.687316	-0.016250
 920	4.5950e-01	3.2983	7.531123	0.000265	2.647886	0.897128	-0.021210
 921	4.6000e-01	3.2406	7.250600	0.000700	7.004086	2.373048	-0.056104
 922	4.6050e-01	3.1764	7.307047	-0.000141	-1.409359	-0.477504	0.011289
 923	4.6100e-01	3.1555	7.328428	-0.000053	-0.533848	-0.180873	0.004276
 924	4.6150e-01	3.1202	7.006854	0.000803	8.029074	2.720324	-0.064315
 925	4.6200e-01	3.0673	7.040636	-0.000084	-0.843480	-0.285779	0.006756
 926	4.6250e-01	3.0095	6.751989	0.000721	7.206948	2.441780	-0.057729
 927	4.6300e-01	2.9903	6.896954	-0.000362	-3.619489	-1.226316	0.028993
 928	4.6350e-01	2.9582	6.588209	0.000771	7.708765	2.611800	-0.061749
 929	4.6400e-01	2.9101	6.574525	0.000034	0.341663	0.115758	-0.002737
 930	4.6450e-01	2.8571	6.429560	0.000362	3.619489	1.226316	-0.028993
 931	4.6500e-01	2.8234	6.373969	0.000139	1.388005	0.470269	-0.011118
 932	4.6550e-01	2.8138	6.209333	0.000411	4.110629	1.392719	-0.032927
 933	4.6600e-01	2.7577	6.124235	0.000212	2.124715	0.719873	-0.017019
 934	4.6650e-01	2.7352	5.980553	0.000359	3.587458	1.215464	-0.028736
 935	4.6700e-01	2.6646	5.933942	0.000116	1.163789	0.394302	-0.009322
 936	4.6750e-01	2.6358	5.844141	0.000224	2.242162	0.759665	-0.017960
 937	4.6800e-01	2.5892	5.725261	0.000297	2.968195	1.005652	-0.023776
 938	4.6850e-01	2.5620	5.682498	0.000107	1.067696	0.361745	-0.008553
 939	4.6900e-01	2.5042	5.519573	0.000407	4.067922	1.378249	-0.032585
 940	4.6950e-01	2.4593	5.493060	0.000066	0.661972	0.224282	-0.005303
 941	4.7000e-01	2.4096	5.301912	0.000477	4.772601	1.617001	-0.038230
 942	4.7050e-01	2.3775	5.437042	-0.000337	-3.373919	-1.143115	0.027026
 943	4.7100e-01	2.3326	5.155664	0.000703	7.025439	2.380283	-0.056275
 944	4.7150e-01	2.2941	5.035929	0.000299	2.989549	1.012887	-0.023947
 945	4.7200e-01	2.2668	5.004285	0.000079	0.790095	0.267691	-0.006329
 946	4.7250e-01	2.2411	4.824682	0.000448	4.484323	1.519330	-0.035921
 947	4.7300e-01	2.1802	4.789189	0.000089	0.886188	0.300249	-0.007099
 948	4.7350e-01	2.1481	4.630113	0.000397	3.971829	1.345692	-0.031815
 949	4.7400e-01	2.1080	4.528765	0.000253	2.530439	0.857336	-0.020269
 950	4.7450e-01	2.0502	4.458207	0.000176	1.761698	0.596880	-0.014112
 951	4.7500e-01	2.0342	4.280743	0.000443	4.430938	1.501243	-0.035493
 952	4.7550e-01	1.9941	4.275184	0.000014	0.138800	0.047027	-0.001112
 953	4.7600e-01	1.9459	4.056667	0.000546	5.455926	1.848518	-0.043703
 954	4.7650e-01	1.8962	3.973708	0.000207	2.071330	0.701786	-0.016592
 955	4.7700e-01	1.8737	4.009628	-0.000090	-0.896865	-0.303866	0.007184
 956	4.7750e-01	1.8208	3.898873	0.000277	2.765333	0.936920	-0.022151
 957	4.7800e-01	1.7855	3.780421	0.000296	2.957518	1.002034	-0.023690
 958	4.7850e-01	1.7278	3.686771	0.000234	2.338254	0.792222	-0.018730
 959	4.7900e-01	1.6973	3.611509	0.000188	1.879145	0.636672	-0.015052
 960	4.7950e-01	1.6668	3.541379	0.000175	1.751021	0.593262	-0.014026
 961	4.8000e-01	1.6363	3.258291	0.000707	7.068147	2.394753	-0.056618
 962	4.8050e-01	1.5754	3.152667	0.000264	2.637209	0.893511	-0.021125
 963	4.8100e-01	1.5561	3.134279	0.000046	0.459109	0.155550	-0.003678
 964	4.8150e-01	1.5096	2.934578	0.000499	4.986140	1.689350	-0.039940
 965	4.8200e-01	1.4727	2.887112	0.000119	1.185143	0.401537	-0.009493
 966	4.8250e-01	1.4278	2.757542	0.000324	3.235119	1.096088	-0.025914
 967	4.8300e-01	1.3861	2.559551	0.000494	4.943432	1.674880	-0.039598
 968	4.8350e-01	1.3476	2.790469	-0.000577	-5.765558	-1.953424	0.046184
 969	4.8400e-01	1.3123	2.599748	0.000476	4.761924	1.613384	-0.038144
 970	4.8450e-01	1.2689	2.339324	0.000650	6.502268	2.203028	-0.052085
 971	4.8500e-01	1.2240	2.385080	-0.000114	-1.142435	-0.387067	0.009151
 972	4.8550e-01	1.1887	2.228997	0.000390	3.897090	1.320370	-0.031217
 973	4.8600e-01	1.1406	2.126794	0.000255	2.551793	0.864571	-0.020440
 974	4.8650e-01	1.1085	2.014329	0.000281	2.808040	0.951390	-0.022493
 975	4.8700e-01	1.0732	1.910844	0.000258	2.583824	0.875423	-0.020697
 976	4.8750e-01	1.0347	1.684202	0.000566	5.658789	1.917249	-0.045328
 977	4.8800e-01	0.9962	1.768017	-0.000209	-2.092684	-0.709021	0.016763
 978	4.8850e-01	0.9305	1.644005	0.000310	3.096318	1.049061	-0.024802
 979	4.8900e-01	0.8903	1.466541	0.000443	4.430938	1.501243	-0.035493
 980	4.8950e-01	0.8567	1.442166	0.000061	0.608587	0.206195	-0.004875
 981	4.9000e-01	0.8117	1.341674	0.000251	2.509086	0.850101	-0.020098
 982	4.9050e-01	0.7845	1.136414	0.000512	5.124941	1.736377	-0.041052
 983	4.9100e-01	0.7556	0.972206	0.000410	4.099953	1.389102	-0.032842
 984	4.9150e-01	0.7059	0.980331	-0.000020	-0.202862	-0.068732	0.001625
 985	4.9200e-01	0.6465	0.848195	0.000330	3.299181	1.117793	-0.026427
 986	4.9250e-01	0.6160	0.766091	0.000205	2.049976	0.694551	-0.016421
 987	4.9300e-01	0.5839	0.653198	0.000282	2.818717	0.955007	-0.022579
 988	4.9350e-01	0.5583	0.521061	0.000330	3.299181	1.117793	-0.026427
 989	4.9400e-01	0.5134	0.424846	0.000240	2.402316	0.813927	-0.019243
 990	4.9450e-01	0.4684	0.325209	0.000249	2.487732	0.842866	-0.019927
 991	4.9500e-01	0.4283	0.249092	0.000190	1.900499	0.643906	-0.015223
 992	4.9550e-01	0.3850	0.159718	0.000223	2.231485	0.756047	-0.017875
 993	4.9600e-01	0.3337	0.038272	0.000303	3.032257	1.027356	-0.024289
 994	4.9650e-01	0.3208	-0.121659	0.000399	3.993183	1.352927	-0.031986
 995	4.9700e-01	0.2791	-0.332051	0.000525	5.253064	1.779786	-0.042078
 996	4.9750e-01	0.2342	-0.242250	-0.000224	-2.242162	-0.759665	0.017960
 997	4.9800e-01	0.1925	-0.369254	0.000317	3.171057	1.074383	-0.025401
 998	4.9850e-01	0.1476	-0.521917	0.000381	3.811675	1.291430	-0.030532
 999	4.9900e-01	0.1091	-0.490700	-0.000078	-0.779418	-0.264074	0.006243
1000	4.9950e-01	0.0722	-0.614284	0.000309	3.085641	1.045444	-0.024717
1001	5.0000e-01	0.0610	-0.879839	0.000663	6.630392	2.246438	-0.053111
1002	5.0050e-01	-0.0064	-0.909345	0.000074	0.736710	0.249604	-0.005901
1003	5.0100e-01	-0.0305	-0.956812	0.000119	1.185143	0.401537	-0.009493
1004	5.0150e-01	-0.0979	-1.004278	0.000119	1.185143	0.401537	-0.009493
1005	5.0200e-01	-0.1299	-1.093224	0.000222	2.220808	0.752430	-0.017789
1006	5.0250e-01	-0.1813	-1.254011	0.000401	4.014537	1.360162	-0.032157
1007	5.0300e-01	-0.2294	-1.372036	0.000295	2.946841	0.998417	-0.023605
1008	5.0350e-01	-0.2438	-1.429765	0.000144	1.441390	0.488356	-0.011546
1009	5.0400e-01	-0.2823	-1.466541	0.000092	0.918219	0.311101	-0.007355
1010	5.0450e-01	-0.3208	-1.629038	0.000406	4.057245	1.374632	-0.032500
1011	5.0500e-01	-0.3690	-1.679926	0.000127	1.270558	0.430477	-0.010177
1012	5.0550e-01	-0.4027	-1.911699	0.000579	5.786912	1.960659	-0.046355
1013	5.0600e-01	-0.4572	-1.978836	0.000168	1.676283	0.567940	-0.013427
1014	5.0650e-01	-0.4781	-1.918113	-0.000152	-1.516128	-0.513678	0.012145
1015	5.0700e-01	-0.5342	-2.202484	0.000710	7.100178	2.405605	-0.056874
1016	5.0750e-01	-0.5438	-2.337614	0.000337	3.373919	1.143115	-0.027026
1017	5.0800e-01	-0.6144	-2.474026	0.000341	3.405950	1.153967	-0.027282
1018	5.0850e-01	-0.6401	-2.427842	-0.000115	-1.153112	-0.390685	0.009237
1019	5.0900e-01	-0.6882	-2.595899	0.000420	4.196045	1.421659	-0.033611
1020	5.0950e-01	-0.7123	-2.704516	0.000271	2.711948	0.918833	-0.021723
1021	5.1000e-01	-0.7684	-2.725897	0.000053	0.533848	0.180873	-0.004276
1022	5.1050e-01	-0.8037	-2.834942	0.000272	2.722625	0.922450	-0.021809
1023	5.1100e-01	-0.8374	-2.962374	0.000318	3.181734	1.078001	-0.025486
1024	5.1150e-01	-0.8871	-3.091945	0.000324	3.235119	1.096088	-0.025914
1025	5.1200e-01	-0.9305	-3.173621	0.000204	2.039299	0.690933	-0.016335
1026	5.1250e-01	-0.9609	-3.378453	0.000511	5.114264	1.732759	-0.040967
1027	5.1300e-01	-1.0139	-3.245462	-0.000332	-3.320534	-1.125028	0.026598
1028	5.1350e-01	-1.0411	-3.469965	0.000561	5.605404	1.899162	-0.044901
1029	5.1400e-01	-1.0813	-3.639305	0.000423	4.228076	1.432511	-0.033868
1030	5.1450e-01	-1.1326	-3.741080	0.000254	2.541116	0.860954	-0.020355
1031	5.1500e-01	-1.1502	-3.835157	0.000235	2.348931	0.795839	-0.018816
1032	5.1550e-01	-1.2096	-3.999365	0.000410	4.099953	1.389102	-0.032842
1033	5.1600e-01	-1.2609	-3.897163	-0.000255	-2.551793	-0.864571	0.020440
1034	5.1650e-01	-1.3026	-4.013905	0.000291	2.914810	0.987564	-0.023348
1035	5.1700e-01	-1.3315	-3.991241	-0.000057	-0.565879	-0.191725	0.004533
1036	5.1750e-01	-1.3604	-4.353011	0.000903	9.032708	3.060364	-0.072354
1037	5.1800e-01	-1.3941	-4.375676	0.000057	0.565879	0.191725	-0.004533
1038	5.1850e-01	-1.4374	-4.466760	0.000227	2.274192	0.770517	-0.018217
1039	5.1900e-01	-1.4951	-4.439819	-0.000067	-0.672648	-0.227899	0.005388
1040	5.1950e-01	-1.5224	-4.707513	0.000668	6.683777	2.264525	-0.053539
1041	5.2000e-01	-1.5705	-4.660474	-0.000117	-1.174466	-0.397920	0.009408
1042	5.2050e-01	-1.6106	-4.954253	0.000734	7.335071	2.485189	-0.058756
1043	5.2100e-01	-1.6556	-4.864879	-0.000223	-2.231485	-0.756047	0.017875
1044	5.2150e-01	-1.6925	-5.023100	0.000395	3.950475	1.338457	-0.031644
1045	5.2200e-01	-1.7101	-5.227933	0.000511	5.114264	1.732759	-0.040967
1046	5.2250e-01	-1.7582	-5.250597	0.000057	0.565879	0.191725	-0.004533
1047	5.2300e-01	-1.8096	-5.384016	0.000333	3.331211	1.128645	-0.026684
1048	5.2350e-01	-1.8593	-5.472962	0.000222	2.220808	0.752430	-0.017789
1049	5.2400e-01	-1.8914	-5.602960	0.000325	3.245796	1.099705	-0.026000
1050	5.2450e-01	-1.9507	-5.668387	0.000163	1.633575	0.553470	-0.013085
1051	5.2500e-01	-1.9716	-5.735952	0.000169	1.686960	0.571557	-0.013513
1052	5.2550e-01	-2.0053	-5.970290	0.000585	5.850974	1.982364	-0.046868
1053	5.2600e-01	-2.0454	-5.956179	-0.000035	-0.352340	-0.119376	0.002822
1054	5.2650e-01	-2.0983	-5.982691	0.000066	0.661972	0.224282	-0.005303
1055	5.2700e-01	-2.1336	-6.175978	0.000483	4.825986	1.635088	-0.038657
1056	5.2750e-01	-2.1721	-6.207195	0.000078	0.779418	0.264074	-0.006243
1057	5.2800e-01	-2.2058	-6.279463	0.000180	1.804406	0.611349	-0.014454
1058	5.2850e-01	-2.2363	-6.565545	0.000714	7.142886	2.420075	-0.057216
1059	5.2900e-01	-2.3005	-6.464197	-0.000253	-2.530439	-0.857336	0.020269
1060	5.2950e-01	-2.3229	-6.779785	0.000788	7.879596	2.669679	-0.063117
1061	5.3000e-01	-2.3566	-6.849488	0.000174	1.740344	0.589645	-0.013941
1062	5.3050e-01	-2.4063	-6.971361	0.000304	3.042934	1.030974	-0.024375
1063	5.3100e-01	-2.4481	-6.994880	0.000059	0.587233	0.198960	-0.004704
1064	5.3150e-01	-2.4898	-7.123168	0.000320	3.203088	1.085236	-0.025658
1065	5.3200e-01	-2.5219	-7.075702	-0.000119	-1.185143	-0.401537	0.009493
1066	5.3250e-01	-2.5652	-7.184746	0.000272	2.722625	0.922450	-0.021809
1067	5.3300e-01	-2.6085	-7.322869	0.000345	3.448658	1.168437	-0.027625
1068	5.3350e-01	-2.6181	-7.435334	0.000281	2.808040	0.951390	-0.022493
1069	5.3400e-01	-2.6646	-7.712436	0.000692	6.918670	2.344109	-0.055420
1070	5.3450e-01	-2.7288	-7.675232	-0.000093	-0.928895	-0.314718	0.007441
1071	5.3500e-01	-2.7625	-7.739376	0.000160	1.601544	0.542618	-0.012829
1072	5.3550e-01	-2.8010	-7.887334	0.000369	3.694228	1.251638	-0.029592
1073	5.3600e-01	-2.8491	-7.955754	0.000171	1.708314	0.578792	-0.013684
1074	5.3650e-01	-2.8764	-7.989109	0.000083	0.832803	0.282161	-0.006671
1075	5.3700e-01	-2.9293	-8.201211	0.000530	5.295772	1.794256	-0.042420
1076	5.3750e-01	-2.9710	-8.199073	-0.000005	-0.053385	-0.018087	0.000428
1077	5.3800e-01	-3.0031	-8.420155	0.000552	5.519988	1.870223	-0.044216
1078	5.3850e-01	-3.0577	-8.332920	-0.000218	-2.178100	-0.737960	0.017447
1079	5.3900e-01	-3.0817	-8.630119	0.000742	7.420487	2.514129	-0.059440
1080	5.3950e-01	-3.1395	-8.713934	0.000209	2.092684	0.709021	-0.016763
1081	5.4000e-01	-3.1812	-8.691698	-0.000056	-0.555202	-0.188107	0.004447
1082	5.4050e-01	-3.1700	-8.912780	-0.000552	-5.519988	-1.870223	-0.044216
1083	5.4100e-01	-3.2406	-9.043633	0.000327	3.267150	1.106940	-0.026171
1084	5.4150e-01	-3.2935	-9.026528	-0.000043	-0.427078	-0.144698	0.003421
1085	5.4200e-01	-3.3288	-9.203993	0.000443	4.430938	1.501243	-0.035493
1086	5.4250e-01	-3.3657	-9.280538	0.000191	1.911176	0.647524	-0.015309
1087	5.4300e-01	-3.4282	-9.410108	0.000324	3.235119	1.096088	-0.025914
1088	5.4350e-01	-3.4427	-9.335274	-0.000187	-1.868468	-0.633054	0.014967
1089	5.4400e-01	-3.4844	-9.567046	0.000579	5.786912	1.960659	-0.046355
1090	5.4450e-01	-3.5325	-9.647440	0.000201	2.007268	0.680081	-0.016079
1091	5.4500e-01	-3.5614	-9.850990	0.000508	5.082233	1.721907	-0.040710
1092	5.4550e-01	-3.6127	-9.838589	-0.000031	-0.309632	-0.104906	0.002480
1093	5.4600e-01	-3.6464	-10.005362	0.000416	4.164014	1.410806	-0.033355
1094	5.4650e-01	-3.6657	-10.035724	0.000076	0.758064	0.256839	-0.006072
1095	5.4700e-01	-3.7202	-10.231149	0.000488	4.879371	1.653176	-0.039085
1096	5.4750e-01	-3.7940	-10.249109	0.000045	0.448432	0.151933	-0.003592
1097	5.4800e-01	-3.8293	-10.355587	0.000266	2.658563	0.900746	-0.021296
1098	5.4850e-01	-3.8630	-10.373120	0.000044	0.437755	0.148316	-0.003507
1099	5.4900e-01	-3.8790	-10.546308	0.000432	4.324169	1.465068	-0.034638
1100	5.4950e-01	-3.9336	-10.683148	0.000342	3.416627	1.157585	-0.027368
1101	5.5000e-01	-3.9432	-10.777654	0.000236	2.359608	0.799457	-0.018901
1102	5.5050e-01	-3.9961	-10.929461	0.000379	3.790321	1.284195	-0.030361
1103	5.5100e-01	-4.0507	-10.892685	-0.000092	-0.918219	-0.311101	0.007355
1104	5.5150e-01	-4.0651	-11.057748	0.000412	4.121306	1.396336	-0.033013
1105	5.5200e-01	-4.1293	-11.168931	0.000278	2.776010	0.940537	-0.022237
1106	5.5250e-01	-4.1694	-11.128734	-0.000100	-1.003634	-0.340040	0.008039
1107	5.5300e-01	-4.2159	-11.322876	0.000485	4.847340	1.642323	-0.038828
1108	5.5350e-01	-4.2592	-11.423795	0.000252	2.519762	0.853719	-0.020184
1109	5.5400e-01	-4.2881	-11.433203	0.000023	0.234893	0.079584	-0.001882
1110	5.5450e-01	-4.3539	-11.634187	0.000502	5.018171	1.700202	-0.040197
1111	5.5500e-01	-4.3635	-11.637180	0.000007	0.074739	0.025322	-0.000599
1112	5.5550e-01	-4.4132	-11.924117	0.000716	7.164240	2.427310	-0.057387
1113	5.5600e-01	-4.4501	-11.945071	0.000052	0.523171	0.177255	-0.004191
1114	5.5650e-01	-4.4886	-11.909150	-0.000090	-0.896865	-0.303866	0.007184
1115	5.5700e-01	-4.5400	-12.081911	0.000431	4.313492	1.461451	-0.034552
1116	5.5750e-01	-4.5737	-12.264079	0.000455	4.548385	1.541034	-0.036434
1117	5.5800e-01	-4.6041	-12.405623	0.000353	3.534074	1.197377	-0.028309
1118	5.5850e-01	-4.6699	-12.413320	0.000019	0.192185	0.065114	-0.001539
1119	5.5900e-01	-4.6972	-12.545029	0.000329	3.288504	1.114175	-0.026342
1120	5.5950e-01	-4.7485	-12.406478	-0.000346	-3.459335	-1.172054	0.027710
1121	5.6000e-01	-4.7662	-12.689994	0.000708	7.078824	2.398371	-0.056703
1122	5.6050e-01	-4.7951	-12.802887	0.000282	2.818717	0.955007	-0.022579
1123	5.6100e-01	-4.8464	-12.920484	0.000294	2.936164	0.994799	-0.023519
1124	5.6150e-01	-4.8913	-12.901241	-0.000048	-0.480463	-0.162785	0.003849
1125	5.6200e-01	-4.9234	-12.994463	0.000233	2.327577	0.788605	-0.018644
1126	5.6250e-01	-4.9571	-13.187322	0.000482	4.815309	1.631471	-0.038572
1127	5.6300e-01	-5.0116	-13.313044	0.000314	3.139026	1.063531	-0.025144
1128	5.6350e-01	-5.0565	-13.356234	0.000108	1.078373	0.365363	-0.008638
1129	5.6400e-01	-5.0710	-13.455015	0.000247	2.466378	0.835631	-0.019756
1130	5.6450e-01	-5.1111	-13.650868	0.000489	4.890048	1.656793	-0.039170
1131	5.6500e-01	-5.1624	-13.745801	0.000237	2.370285	0.803074	-0.018987
1132	5.6550e-01	-5.2122	-13.772741	0.000067	0.672648	0.227899	-0.005388
1133	5.6600e-01	-5.2603	-13.830898	0.000145	1.452067	0.491973	-0.011631
1134	5.6650e-01	-5.2956	-13.972014	0.000352	3.523397	1.193759	-0.028223
1135	5.6700e-01	-5.3277	-14.019481	0.000119	1.185143	0.401537	-0.009493
1136	5.6750e-01	-5.3742	-14.151189	0.000329	3.288504	1.114175	-0.026342
1137	5.6800e-01	-5.4239	-14.149907	-0.000003	-0.032031	-0.010852	0.000257
1138	5.6850e-01	-5.4432	-14.387666	0.000594	5.936390	2.011303	-0.047552
1139	5.6900e-01	-5.4688	-14.625853	0.000595	5.947067	2.014921	-0.047637
1140	5.6950e-01	-5.5298	-14.552302	-0.000184	-1.836437	-0.622202	0.014710
1141	5.7000e-01	-5.5683	-14.638255	0.000215	2.146069	0.727108	-0.017191
1142	5.7050e-01	-5.6068	-14.754141	0.000289	2.893456	0.980329	-0.023177
1143	5.7100e-01	-5.6549	-14.761411	0.000018	0.181508	0.061497	-0.001454
1144	5.7150e-01	-5.6886	-14.944862	0.000458	4.580416	1.551887	-0.036690
1145	5.7200e-01	-5.7303	-14.976079	0.000078	0.779418	0.264074	-0.006243
1146	5.7250e-01	-5.7512	-15.136438	0.000400	4.003860	1.356544	-0.032072
1147	5.7300e-01	-5.8169	-15.227095	0.000226	2.263515	0.766900	-0.018131
1148	5.7350e-01	-5.8458	-15.466992	0.000599	5.989774	2.029391	-0.047980
1149	5.7400e-01	-5.8940	-15.438769	-0.000070	-0.704679	-0.238752	0.005645
1150	5.7450e-01	-5.9485	-15.505479	0.000167	1.665606	0.564322	-0.013342
1151	5.7500e-01	-5.9774	-15.513604	0.000020	0.202862	0.068732	-0.001625
1152	5.7550e-01	-6.0223	-15.688930	0.000438	4.377553	1.483155	-0.035065
1153	5.7600e-01	-6.0560	-15.678667	-0.000026	-0.256247	-0.086819	0.002053
1154	5.7650e-01	-6.0849	-15.973728	0.000737	7.367102	2.496042	-0.059012
1155	5.7700e-01	-6.1218	-16.058826	0.000212	2.124715	0.719873	-0.017019
1156	5.7750e-01	-6.1651	-16.082345	0.000059	0.587233	0.198960	-0.004704
1157	5.7800e-01	-6.2036	-16.140075	0.000144	1.441390	0.488356	-0.011546
1158	5.7850e-01	-6.2597	-16.347900	0.000519	5.189002	1.758082	-0.041565
1159	5.7900e-01	-6.2822	-16.362867	0.000037	0.373694	0.126611	-0.002993
1160	5.7950e-01	-6.3159	-16.513391	0.000376	3.758290	1.273343	-0.030105
1161	5.8000e-01	-6.3865	-16.549740	0.000091	0.907542	0.307483	-0.007270
1162	5.8050e-01	-6.4250	-16.678027	0.000320	3.203088	1.085236	-0.025658
1163	5.8100e-01	-6.4298	-16.924767	0.000616	6.160606	2.087270	-0.049348
1164	5.8150e-01	-6.4891	-16.973944	0.000123	1.227850	0.416007	-0.009835
1165	5.8200e-01	-6.5276	-16.870459	-0.000258	-2.583824	-0.875423	0.020697
1166	5.8250e-01	-6.5565	-17.141145	0.000676	6.758515	2.289847	-0.054137
1167	5.8300e-01	-6.6014	-17.210421	0.000173	1.729667	0.586027	-0.013855
1168	5.8350e-01	-6.6303	-17.298084	0.000219	2.188777	0.741578	-0.017533
1169	5.8400e-01	-6.6816	-17.297656	-0.000001	-0.010677	-0.003617	0.000086
1170	5.8450e-01	-6.7009	-17.494791	0.000492	4.922078	1.667645	-0.039427
1171	5.8500e-01	-6.7522	-17.570909	0.000190	1.900499	0.643906	-0.015223
1172	5.8550e-01	-6.7939	-17.629921	0.000147	1.473420	0.499208	-0.011802
1173	5.8600e-01	-6.8228	-17.701334	0.000178	1.783052	0.604114	-0.014283
1174	5.8650e-01	-6.8870	-17.911726	0.000525	5.253064	1.779786	-0.042078
1175	5.8700e-01	-6.9191	-17.948929	0.000093	0.928895	0.314718	-0.007441
1176	5.8750e-01	-6.9399	-18.053698	0.000262	2.615855	0.886276	-0.020954
1177	5.8800e-01	-6.9880	-18.088763	0.000088	0.875511	0.296631	-0.007013
1178	5.8850e-01	-7.0474	-18.111855	0.000058	0.576556	0.195342	-0.004618
1179	5.8900e-01	-7.0907	-18.234156	0.000305	3.053610	1.034591	-0.024460
1180	5.8950e-01	-7.1196	-18.364581	0.000326	3.256473	1.103323	-0.026085
1181	5.9000e-01	-7.1565	-18.474053	0.000273	2.733302	0.926068	-0.021894
1182	5.9050e-01	-7.1886	-18.528789	0.000137	1.366651	0.463034	-0.010947
1183	5.9100e-01	-7.2431	-18.840956	0.000779	7.794181	2.640740	-0.062433
1184	5.9150e-01	-7.2864	-18.625433	-0.000538	-5.381188	-1.823196	0.043105
1185	5.9200e-01	-7.3185	-18.935033	0.000773	7.730119	2.619035	-0.061920
1186	5.9250e-01	-7.3714	-18.911514	-0.000059	-0.587233	-0.198960	0.004704
1187	5.9300e-01	-7.4083	-18.918356	0.000017	0.170831	0.057879	-0.001368
1188	5.9350e-01	-7.4452	-19.155260	0.000592	5.915036	2.004068	-0.047381
1189	5.9400e-01	-7.4741	-19.286541	0.000328	3.277827	1.110558	-0.026256
1190	5.9450e-01	-7.5222	-19.311771	0.000063	0.629941	0.213430	-0.005046
1191	5.9500e-01	-7.5720	-19.388744	0.000192	1.921853	0.651141	-0.015395
1192	5.9550e-01	-7.5928	-19.603839	0.000537	5.370511	1.819578	-0.043019
1193	5.9600e-01	-7.6442	-19.599135	-0.000012	-0.117447	-0.039792	0.000941
1194	5.9650e-01	-7.6955	-19.698772	0.000249	2.487732	0.842866	-0.019927
1195	5.9700e-01	-7.7164	-19.746666	0.000120	1.195819	0.405155	-0.009579
1196	5.9750e-01	-7.7436	-19.936104	0.000473	4.729893	1.602531	-0.037888
1197	5.9800e-01	-7.8062	-20.028044	0.000230	2.295546	0.777752	-0.018388
1198	5.9850e-01	-7.8238	-20.126825	0.000247	2.466378	0.835631	-0.019756
1199	5.9900e-01	-7.8768	-20.308566	0.000454	4.537708	1.537417	-0.036348
1200	5.9950e-01	-7.9185	-20.342348	0.000084	0.843480	0.285779	-0.006756
1201	6.0000e-01	-7.9746	-20.375275	0.000082	0.822126	0.278544	-0.006585
1202	6.0050e-01	-7.9939	-20.465504	0.000225	2.252838	0.763282	-0.018046
1203	6.0100e-01	-8.0340	-20.559154	0.000234	2.338254	0.792222	-0.018730
1204	6.0150e-01	-8.0998	-20.617311	0.000145	1.452067	0.491973	-0.011631
1205	6.0200e-01	-8.1254	-20.760138	0.000357	3.566105	1.208229	-0.028565
1206	6.0250e-01	-8.1607	-20.798624	0.000096	0.960926	0.325571	-0.007697
1207	6.0300e-01	-8.1992	-20.923491	0.000312	3.117672	1.056296	-0.024973
1208	6.0350e-01	-8.2409	-20.981648	0.000145	1.452067	0.491973	-0.011631
1209	6.0400e-01	-8.2730	-21.091548	0.000274	2.743979	0.929685	-0.021980
1210	6.0450e-01	-8.3260	-21.174935	0.000208	2.082007	0.705403	-0.016677
1211	6.0500e-01	-8.3693	-21.239506	0.000161	1.612221	0.546235	-0.012914
1212	6.0550e-01	-8.3982	-21.254900	0.000038	0.384371	0.130228	-0.003079
1213	6.0600e-01	-8.4575	-21.384043	0.000322	3.224442	1.092470	-0.025829
1214	6.0650e-01	-8.4768	-21.548251	0.000410	4.099953	1.389102	-0.032842
1215	6.0700e-01	-8.5313	-21.646178	0.000245	2.445024	0.828396	-0.019585
1216	6.0750e-01	-8.5666	-21.703052	0.000142	1.420036	0.481121	-0.011375
1217	6.0800e-01	-8.6115	-21.891634	0.000471	4.708539	1.595296	-0.037717
1218	6.0850e-01	-8.6340	-21.970318	0.000196	1.964561	0.665611	-0.015737
1219	6.0900e-01	-8.6901	-22.042586	0.000180	1.804406	0.611349	-0.014454
1220	6.0950e-01	-8.7174	-22.058836	0.000041	0.405724	0.137463	-0.003250
1221	6.1000e-01	-8.7671	-22.217057	0.000395	3.950475	1.338457	-0.031644
1222	6.1050e-01	-8.7880	-22.262386	0.000113	1.131758	0.383450	-0.009066
1223	6.1100e-01	-8.8602	-22.429159	0.000416	4.164014	1.410806	-0.033355
1224	6.1150e-01	-8.9003	-22.521527	0.000231	2.306223	0.781370	-0.018473
1225	6.1200e-01	-8.9308	-22.633992	0.000281	2.808040	0.951390	-0.022493
1226	6.1250e-01	-8.9580	-22.686590	0.000131	1.313266	0.444947	-0.010520
1227	6.1300e-01	-8.9981	-22.731918	0.000113	1.131758	0.383450	-0.009066
1228	6.1350e-01	-9.0655	-22.885436	0.000383	3.833029	1.298665	-0.030703
1229	6.1400e-01	-9.1008	-22.859350	-0.000065	-0.651295	-0.220665	0.005217
1230	6.1450e-01	-9.1185	-23.049644	0.000475	4.751247	1.609766	-0.038059
1231	6.1500e-01	-9.1746	-23.144149	0.000236	2.359608	0.799457	-0.018901
1232	6.1550e-01	-9.2115	-23.208293	0.000160	1.601544	0.542618	-0.012829
1233	6.1600e-01	-9.2580	-23.322896	0.000286	2.861425	0.969477	-0.022921
1234	6.1650e-01	-9.2869	-23.424243	0.000253	2.530439	0.857336	-0.020269
1235	6.1700e-01	-9.3222	-23.569636	0.000363	3.630166	1.229934	-0.029079
1236	6.1750e-01	-9.3703	-23.594011	0.000061	0.608587	0.206195	-0.004875
1237	6.1800e-01	-9.4201	-23.619241	0.000063	0.629941	0.213430	-0.005046
1238	6.1850e-01	-9.4425	-23.838185	0.000547	5.466603	1.852135	-0.043789
1239	6.1900e-01	-9.5067	-23.861277	0.000058	0.576556	0.195342	-0.004618
1240	6.1950e-01	-9.5291	-23.857000	-0.000011	-0.106770	-0.036175	0.000855
1241	6.2000e-01	-9.5660	-24.060978	0.000509	5.092910	1.725525	-0.040795
1242	6.2050e-01	-9.6078	-24.211929	0.000377	3.768967	1.276961	-0.030190
1243	6.2100e-01	-9.6334	-24.260679	0.000122	1.217173	0.412390	-0.009750
1244	6.2150e-01	-9.6799	-24.400512	0.000349	3.491366	1.182907	-0.027967
1245	6.2200e-01	-9.7120	-24.490741	0.000225	2.252838	0.763282	-0.018046
1246	6.2250e-01	-9.7698	-24.511267	0.000051	0.512494	0.173638	-0.004105
1247	6.2300e-01	-9.8147	-24.506991	-0.000011	-0.106770	-0.036175	0.000855
1248	6.2350e-01	-9.8372	-24.661791	0.000387	3.865059	1.309518	-0.030960
1249	6.2400e-01	-9.8853	-24.768697	0.000267	2.669240	0.904363	-0.021381
1250	6.2450e-01	-9.9142	-24.938465	0.000424	4.238753	1.436128	-0.033953
1251	6.2500e-01	-9.9735	-24.971819	0.000083	0.832803	0.282161	-0.006671
1252	6.2550e-01	-10.0168	-25.068463	0.000241	2.412993	0.817544	-0.019329
1253	6.2600e-01	-10.0601	-25.198033	0.000324	3.235119	1.096088	-0.025914
1254	6.2650e-01	-10.0762	-25.282275	0.000210	2.103361	0.712638	-0.016848
1255	6.2700e-01	-10.1275	-25.320762	0.000096	0.960926	0.325571	-0.007697
1256	6.2750e-01	-10.1789	-25.424675	0.000259	2.594501	0.879041	-0.020783
1257	6.2800e-01	-10.2206	-25.547831	0.000307	3.074964	1.041826	-0.024631
1258	6.2850e-01	-10.2430	-25.627797	0.000200	1.996591	0.676464	-0.015993
1259	6.2900e-01	-10.2719	-25.599573	-0.000070	-0.704679	-0.238752	0.005645
1260	6.2950e-01	-10.3329	-25.746676	0.000367	3.672874	1.244403	-0.029421
1261	6.3000e-01	-10.3601	-25.824504	0.000194	1.943207	0.658376	-0.015566
1262	6.3050e-01	-10.3986	-25.990423	0.000414	4.142660	1.403571	-0.033184
1263	6.3100e-01	-10.4452	-26.249136	0.000646	6.459561	2.188558	-0.051743
1264	6.3150e-01	-10.4997	-26.108875	-0.000350	-3.502043	-1.186524	0.028052
1265	6.3200e-01	-10.5334	-26.284629	0.000439	4.388230	1.486773	-0.035151
1266	6.3250e-01	-10.5767	-26.332095	0.000119	1.185143	0.401537	-0.009493
1267	6.3300e-01	-10.5911	-26.365022	0.000082	0.822126	0.278544	-0.006585
1268	6.3350e-01	-10.6601	-26.439002	0.000185	1.847114	0.625819	-0.014796
1269	6.3400e-01	-10.6890	-26.626729	0.000469	4.687185	1.588061	-0.037545
1270	6.3450e-01	-10.7083	-26.720807	0.000235	2.348931	0.795839	-0.018816
1271	6.3500e-01	-10.7468	-26.836266	0.000288	2.882779	0.976712	-0.023092
1272	6.3550e-01	-10.8109	-26.966691	0.000326	3.256473	1.103323	-0.026085
1273	6.3600e-01	-10.8687	-26.857647	-0.000272	-2.722625	-0.922450	0.021809
1274	6.3650e-01	-10.8847	-27.055210	0.000493	4.932755	1.671263	-0.039513
1275	6.3700e-01	-10.9232	-27.073170	0.000045	0.448432	0.151933	-0.003592
1276	6.3750e-01	-10.9585	-27.151425	0.000195	1.953884	0.661994	-0.015651
1277	6.3800e-01	-11.0147	-27.261325	0.000274	2.743979	0.929685	-0.021980
1278	6.3850e-01	-11.0628	-27.357968	0.000241	2.412993	0.817544	-0.019329
1279	6.3900e-01	-11.0724	-27.458888	0.000252	2.519762	0.853719	-0.020184
1280	6.3950e-01	-11.1109	-27.565794	0.000267	2.669240	0.904363	-0.021381
1281	6.4000e-01	-11.1671	-27.717601	0.000379	3.790321	1.284195	-0.030361
1282	6.4050e-01	-11.2136	-27.735562	0.000045	0.448432	0.151933	-0.003592
1283	6.4100e-01	-11.2521	-27.880526	0.000362	3.619489	1.226316	-0.028993
1284	6.4150e-01	-11.2906	-27.994702	0.000285	2.850748	0.965860	-0.022835
1285	6.4200e-01	-11.3339	-28.113155	0.000296	2.957518	1.002034	-0.023690
1286	6.4250e-01	-11.3644	-28.184996	0.000179	1.793729	0.607732	-0.014368
1287	6.4300e-01	-11.4237	-28.140950	-0.000110	-1.099727	-0.372598	0.008809
1288	6.4350e-01	-11.4350	-28.296606	0.000389	3.886413	1.316752	-0.031131
1289	6.4400e-01	-11.5023	-28.418479	0.000304	3.042934	1.030974	-0.024375
1290	6.4450e-01	-11.5248	-28.470222	0.000129	1.291912	0.437712	-0.010349
1291	6.4500e-01	-11.5585	-28.663081	0.000482	4.815309	1.631471	-0.038572
1292	6.4550e-01	-11.6050	-28.710547	0.000119	1.185143	0.401537	-0.009493
1293	6.4600e-01	-11.6499	-28.796072	0.000214	2.135392	0.723490	-0.017105
1294	6.4650e-01	-11.6836	-28.843111	0.000117	1.174466	0.397920	-0.009408
1295	6.4700e-01	-11.7109	-28.872189	0.000073	0.726033	0.245987	-0.005816
1296	6.4750e-01	-11.7687	-29.052647	0.000451	4.505677	1.526565	-0.036092
1297	6.4800e-01	-11.8088	-29.014589	-0.000095	-0.950249	-0.321953	0.007612
1298	6.4850e-01	-11.8473	-29.296821	0.000705	7.046793	2.387518	-0.056447
1299	6.4900e-01	-11.8793	-29.370801	0.000185	1.847114	0.625819	-0.014796
1300	6.4950e-01	-11.9178	-29.527311	0.000391	3.907767	1.323987	-0.031302
1301	6.5000e-01	-11.9660	-29.668428	0.000352	3.523397	1.193759	-0.028223
1302	6.5050e-01	-12.0061	-29.617113	-0.000128	-1.281235	-0.434094	0.010263
1303	6.5100e-01	-12.0430	-29.698362	0.000203	2.028622	0.687316	-0.016250
1304	6.5150e-01	-12.0991	-29.701355	0.000007	0.074739	0.025322	-0.000599
1305	6.5200e-01	-12.1232	-29.845037	0.000359	3.587458	1.215464	-0.028736
1306	6.5250e-01	-12.1617	-29.947667	0.000256	2.562470	0.868188	-0.020526
1307	6.5300e-01	-12.1938	-30.013094	0.000163	1.633575	0.553470	-0.013085
1308	6.5350e-01	-12.2483	-30.031482	0.000046	0.459109	0.155550	-0.003678
1309	6.5400e-01	-12.2836	-30.191841	0.000400	4.003860	1.356544	-0.032072
1310	6.5450e-01	-12.3205	-30.249143	0.000143	1.430713	0.484739	-0.011460
1311	6.5500e-01	-12.3654	-30.383845	0.000336	3.363242	1.139497	-0.026940
1312	6.5550e-01	-12.3991	-30.370588	-0.000033	-0.330986	-0.112141	0.002651
1313	6.5600e-01	-12.4376	-30.538218	0.000419	4.185368	1.418041	-0.033526
1314	6.5650e-01	-12.4938	-30.654104	0.000289	2.893456	0.980329	-0.023177
1315	6.5700e-01	-12.5194	-30.716110	0.000155	1.548159	0.524531	-0.012401
1316	6.5750e-01	-12.5772	-30.831141	0.000287	2.872102	0.973095	-0.023006
1317	6.5800e-01	-12.6125	-30.772129	-0.000147	-1.473420	-0.499208	0.011802
1318	6.5850e-01	-12.6317	-30.898278	0.000315	3.149703	1.067148	-0.025230
1319	6.5900e-01	-12.6943	-31.025710	0.000318	3.181734	1.078001	-0.025486
1320	6.5950e-01	-12.7119	-31.223273	0.000493	4.932755	1.671263	-0.039513
1321	6.6000e-01	-12.7841	-31.099262	-0.000310	-3.096318	-1.049061	0.024802
1322	6.6050e-01	-12.7905	-31.366100	0.000666	6.662423	2.257290	-0.053368
1323	6.6100e-01	-12.8419	-31.469585	0.000258	2.583824	0.875423	-0.020697
1324	6.6150e-01	-12.8579	-31.573926	0.000261	2.605178	0.882658	-0.020868
1325	6.6200e-01	-12.9333	-31.615406	0.000104	1.035665	0.350893	-0.008296
1326	6.6250e-01	-12.9702	-31.587610	-0.000069	-0.694002	-0.235134	0.005559
1327	6.6300e-01	-13.0023	-31.752673	0.000412	4.121306	1.396336	-0.033013
1328	6.6350e-01	-13.0280	-31.833922	0.000203	2.028622	0.687316	-0.016250
1329	6.6400e-01	-13.0937	-31.897211	0.000158	1.580190	0.535383	-0.012658
1330	6.6450e-01	-13.1274	-32.054577	0.000393	3.929121	1.331222	-0.031473
1331	6.6500e-01	-13.1675	-32.088359	0.000084	0.843480	0.285779	-0.006756
1332	6.6550e-01	-13.2012	-32.226055	0.000344	3.437981	1.164820	-0.027539
1333	6.6600e-01	-13.2349	-32.231186	0.000013	0.128124	0.043409	-0.001026
1334	6.6650e-01	-13.2750	-32.375296	0.000360	3.598135	1.219081	-0.028822
1335	6.6700e-01	-13.3183	-32.409078	0.000084	0.843480	0.285779	-0.006756
1336	6.6750e-01	-13.3665	-32.561313	0.000380	3.800998	1.287813	-0.030447
1337	6.6800e-01	-13.4034	-32.599799	0.000096	0.960926	0.325571	-0.007697
1338	6.6850e-01	-13.4435	-32.727231	0.000318	3.181734	1.078001	-0.025486
1339	6.6900e-01	-13.4852	-32.791375	0.000160	1.601544	0.542618	-0.012829
1340	6.6950e-01	-13.5221	-32.866637	0.000188	1.879145	0.636672	-0.015052
1341	6.7000e-01	-13.5750	-32.879466	0.000032	0.320309	0.108524	-0.002566
1342	6.7050e-01	-13.6264	-32.980385	0.000252	2.519762	0.853719	-0.020184
1343	6.7100e-01	-13.6488	-33.156567	0.000440	4.398907	1.490390	-0.035236
1344	6.7150e-01	-13.7130	-33.283572	0.000317	3.171057	1.074383	-0.025401
1345	6.7200e-01	-13.7226	-33.201040	-0.000206	-2.060653	-0.698168	0.016506
1346	6.7250e-01	-13.7611	-33.437945	0.000592	5.915036	2.004068	-0.047381
1347	6.7300e-01	-13.8092	-33.439655	0.000004	0.042708	0.014470	-0.000342
1348	6.7350e-01	-13.8269	-33.677842	0.000595	5.947067	2.014921	-0.047637
1349	6.7400e-01	-13.8846	-33.734716	0.000142	1.420036	0.481121	-0.011375
1350	6.7450e-01	-13.9360	-33.768071	0.000083	0.832803	0.282161	-0.006671
1351	6.7500e-01	-13.9665	-33.774913	0.000017	0.170831	0.057879	-0.001368
1352	6.7550e-01	-14.0066	-33.902346	0.000318	3.181734	1.078001	-0.025486
1353	6.7600e-01	-14.0370	-34.022508	0.000300	3.000226	1.016504	-0.024033
1354	6.7650e-01	-14.0884	-34.056718	0.000085	0.854157	0.289396	-0.006842
1355	6.7700e-01	-14.1108	-34.237176	0.000451	4.505677	1.526565	-0.036092
1356	6.7750e-01	-14.1670	-34.341089	0.000259	2.594501	0.879041	-0.020783
1357	6.7800e-01	-14.1991	-34.211091	-0.000325	-3.245796	-1.099705	0.026000
1358	6.7850e-01	-14.2536	-34.468521	0.000643	6.427530	2.177706	-0.051486
1359	6.7900e-01	-14.2745	-34.392404	-0.000190	-1.900499	-0.643906	0.015223
1360	6.7950e-01	-14.3274	-34.733649	0.000852	8.520214	2.886727	-0.068249
1361	6.8000e-01	-14.3627	-34.652828	-0.000202	-2.017945	-0.683698	0.016164
1362	6.8050e-01	-14.3916	-34.806773	0.000384	3.843705	1.302283	-0.030789
1363	6.8100e-01	-14.4622	-34.855950	0.000123	1.227850	0.416007	-0.009835
1364	6.8150e-01	-14.4622	-35.041112	0.000462	4.623124	1.566357	-0.037032
1365	6.8200e-01	-14.5327	-35.071473	0.000076	0.758064	0.256839	-0.006072
1366	6.8250e-01	-14.5680	-35.019303	-0.000130	-1.302589	-0.441329	0.010434
1367	6.8300e-01	-14.6049	-35.237392	0.000545	5.445249	1.844900	-0.043618
1368	6.8350e-01	-14.6450	-35.275023	0.000094	0.939572	0.318336	-0.007526
1369	6.8400e-01	-14.6932	-35.401172	0.000315	3.149703	1.067148	-0.025230
1370	6.8450e-01	-14.7044	-35.574360	0.000432	4.324169	1.465068	-0.034638
1371	6.8500e-01	-14.7573	-35.523473	-0.000127	-1.270558	-0.430477	0.010177
1372	6.8550e-01	-14.8023	-35.569229	0.000114	1.142435	0.387067	-0.009151
1373	6.8600e-01	-14.8552	-35.644491	0.000188	1.879145	0.636672	-0.015052
1374	6.8650e-01	-14.8905	-35.718043	0.000184	1.836437	0.622202	-0.014710
1375	6.8700e-01	-14.9113	-36.023367	0.000762	7.623349	2.582861	-0.061065
1376	6.8750e-01	-14.9819	-35.905342	-0.000295	-2.946841	-0.998417	0.023605
1377	6.8800e-01	-14.9964	-36.021656	0.000290	2.904133	0.983947	-0.023263
1378	6.8850e-01	-15.0557	-36.117017	0.000238	2.380962	0.806692	-0.019072
1379	6.8900e-01	-15.0846	-36.184154	0.000168	1.676283	0.567940	-0.013427
1380	6.8950e-01	-15.1215	-36.413361	0.000572	5.722850	1.938954	-0.045841
1381	6.9000e-01	-15.1728	-36.268824	-0.000361	-3.608812	-1.222699	0.028907
1382	6.9050e-01	-15.1921	-36.515991	0.000617	6.171283	2.090887	-0.049433
1383	6.9100e-01	-15.2354	-36.616483	0.000251	2.509086	0.850101	-0.020098
1384	6.9150e-01	-15.2883	-36.669509	0.000132	1.323943	0.448564	-0.010605
1385	6.9200e-01	-15.3172	-36.690035	0.000051	0.512494	0.173638	-0.004105
1386	6.9250e-01	-15.3686	-36.762303	0.000180	1.804406	0.611349	-0.014454
1387	6.9300e-01	-15.4103	-36.776415	0.000035	0.352340	0.119376	-0.002822
1388	6.9350e-01	-15.4504	-36.893584	0.000293	2.925487	0.991182	-0.023434
1389	6.9400e-01	-15.5177	-36.911545	0.000045	0.448432	0.151933	-0.003592
1390	6.9450e-01	-15.5129	-37.165126	-0.000633	-6.331437	-2.145149	-0.050716
1391	6.9500e-01	-15.5771	-37.241244	0.000190	1.900499	0.643906	-0.015223
1392	6.9550e-01	-15.6204	-37.286144	0.000112	1.121081	0.379832	-0.008980
1393	6.9600e-01	-15.6316	-37.479431	0.000483	4.825986	1.635088	-0.038657
1394	6.9650e-01	-15.6878	-37.448214	-0.000078	-0.779418	-0.264074	0.006243
1395	6.9700e-01	-15.7263	-37.491405	0.000108	1.078373	0.365363	-0.008638
1396	6.9750e-01	-15.7439	-37.711204	0.000549	5.487957	1.859370	-0.043960
1397	6.9800e-01	-15.8033	-37.790315	0.000198	1.975238	0.669229	-0.015822
1398	6.9850e-01	-15.8386	-37.838209	0.000120	1.195819	0.405155	-0.009579
1399	6.9900e-01	-15.8899	-37.861300	0.000058	0.576556	0.195342	-0.004618
1400	6.9950e-01	-15.9092	-38.016101	0.000387	3.865059	1.309518	-0.030960
1401	7.0000e-01	-15.9685	-38.125573	0.000273	2.733302	0.926068	-0.021894
1402	7.0050e-01	-15.9910	-38.132415	0.000017	0.170831	0.057879	-0.001368
1403	7.0100e-01	-16.0471	-38.333399	0.000502	5.018171	1.700202	-0.040197
1404	7.0150e-01	-16.0792	-38.291064	-0.000106	-1.057019	-0.358128	0.008467
1405	7.0200e-01	-16.1209	-38.617342	0.000815	8.146520	2.760116	-0.065256
1406	7.0250e-01	-16.1771	-38.543790	-0.000184	-1.836437	-0.622202	0.014710
1407	7.0300e-01	-16.2140	-38.521981	-0.000054	-0.544525	-0.184490	0.004362
1408	7.0350e-01	-16.2300	-38.672078	0.000375	3.747613	1.269726	-0.030019
1409	7.0400e-01	-16.3038	-38.714413	0.000106	1.057019	0.358128	-0.008467
1410	7.0450e-01	-16.3343	-38.748623	0.000085	0.854157	0.289396	-0.006842
1411	7.0500e-01	-16.3552	-38.846549	0.000245	2.445024	0.828396	-0.019585
1412	7.0550e-01	-16.4209	-39.040691	0.000485	4.847340	1.642323	-0.038828
1413	7.0600e-01	-16.4225	-39.133058	0.000231	2.306223	0.781370	-0.018473
1414	7.0650e-01	-16.4883	-39.283582	0.000376	3.758290	1.273343	-0.030105
1415	7.0700e-01	-16.5348	-39.232695	-0.000127	-1.270558	-0.430477	0.010177
1416	7.0750e-01	-16.5830	-39.375094	0.000356	3.555428	1.204611	-0.028480
1417	7.0800e-01	-16.6086	-39.388350	0.000033	0.330986	0.112141	-0.002651
1418	7.0850e-01	-16.6391	-39.649202	0.000651	6.512945	2.206646	-0.052170
1419	7.0900e-01	-16.7113	-39.488415	-0.000401	-4.014537	-1.360162	0.032157
1420	7.0950e-01	-16.7305	-39.687260	0.000496	4.964786	1.682115	-0.039769
1421	7.1000e-01	-16.7835	-39.635090	-0.000130	-1.302589	-0.441329	0.010434
1422	7.1050e-01	-16.8011	-39.815548	0.000451	4.505677	1.526565	-0.036092
1423	7.1100e-01	-16.8573	-39.884823	0.000173	1.729667	0.586027	-0.013855
1424	7.1150e-01	-16.8653	-40.067419	0.000456	4.559062	1.544652	-0.036519
1425	7.1200e-01	-16.9263	-40.176891	0.000273	2.733302	0.926068	-0.021894
1426	7.1250e-01	-16.9599	-40.225641	0.000122	1.217173	0.412390	-0.009750
1427	7.1300e-01	-17.0129	-40.131563	-0.000235	-2.348931	-0.795839	0.018816
1428	7.1350e-01	-17.0578	-40.300475	0.000422	4.217399	1.428893	-0.033782
1429	7.1400e-01	-17.0867	-40.313731	0.000033	0.330986	0.112141	-0.002651
1430	7.1450e-01	-17.1412	-40.429190	0.000288	2.882779	0.976712	-0.023092
1431	7.1500e-01	-17.1717	-40.499748	0.000176	1.761698	0.596880	-0.014112
1432	7.1550e-01	-17.2054	-40.677213	0.000443	4.430938	1.501243	-0.035493
1433	7.1600e-01	-17.2327	-40.821750	0.000361	3.608812	1.222699	-0.028907
1434	7.1650e-01	-17.2904	-40.711850	-0.000274	-2.743979	-0.929685	0.021980
1435	7.1700e-01	-17.3113	-40.849546	0.000344	3.437981	1.164820	-0.027539
1436	7.1750e-01	-17.3754	-41.015464	0.000414	4.142660	1.403571	-0.033184
1437	7.1800e-01	-17.3995	-41.015037	-0.000001	-0.010677	-0.003617	0.000086
1438	7.1850e-01	-17.4492	-41.192929	0.000444	4.441615	1.504860	-0.035578
1439	7.1900e-01	-17.4974	-41.281020	0.000220	2.199454	0.745195	-0.017618
1440	7.1950e-01	-17.5311	-41.287006	0.000015	0.149477	0.050644	-0.001197
1441	7.2000e-01	-17.5599	-41.406314	0.000298	2.978872	1.009269	-0.023861
1442	7.2050e-01	-17.5952	-41.521773	0.000288	2.882779	0.976712	-0.023092
1443	7.2100e-01	-17.6610	-41.661179	0.000348	3.480689	1.179289	-0.027881
1444	7.2150e-01	-17.6786	-41.644074	-0.000043	-0.427078	-0.144698	0.003421
1445	7.2200e-01	-17.7268	-41.693250	0.000123	1.227850	0.416007	-0.009835
1446	7.2250e-01	-17.7621	-41.849761	0.000391	3.907767	1.323987	-0.031302
1447	7.2300e-01	-17.8262	-41.872425	0.000057	0.565879	0.191725	-0.004533
1448	7.2350e-01	-17.8439	-41.912622	0.000100	1.003634	0.340040	-0.008039
1449	7.2400e-01	-17.8856	-42.031074	0.000296	2.957518	1.002034	-0.023690
1450	7.2450e-01	-17.9401	-42.056304	0.000063	0.629941	0.213430	-0.005046
1451	7.2500e-01	-17.9642	-42.200842	0.000361	3.608812	1.222699	-0.028907
1452	7.2550e-01	-17.9915	-42.368898	0.000420	4.196045	1.421659	-0.033611
1453	7.2600e-01	-18.0364	-42.421496	0.000131	1.313266	0.444947	-0.010520
1454	7.2650e-01	-18.0893	-42.549784	0.000320	3.203088	1.085236	-0.025658
1455	7.2700e-01	-18.1102	-42.561330	0.000029	0.288278	0.097671	-0.002309
1456	7.2750e-01	-18.1615	-42.713992	0.000381	3.811675	1.291430	-0.030532
1457	7.2800e-01	-18.2145	-42.724683	0.000027	0.266924	0.090436	-0.002138
1458	7.2850e-01	-18.2498	-42.781129	0.000141	1.409359	0.477504	-0.011289
1459	7.2900e-01	-18.2834	-42.940206	0.000397	3.971829	1.345692	-0.031815
1460	7.2950e-01	-18.3332	-43.050533	0.000275	2.754656	0.933303	-0.022065
1461	7.3000e-01	-18.3797	-43.123657	0.000183	1.825760	0.618584	-0.014625
1462	7.3050e-01	-18.4230	-43.100565	-0.000058	-0.576556	-0.195342	0.004618
1463	7.3100e-01	-18.4663	-43.248951	0.000370	3.704905	1.255256	-0.029677
1464	7.3150e-01	-18.5000	-43.408455	0.000398	3.982506	1.349310	-0.031901
1465	7.3200e-01	-18.5257	-43.404607	-0.000010	-0.096093	-0.032557	0.000770
1466	7.3250e-01	-18.5722	-43.534177	0.000324	3.235119	1.096088	-0.025914
1467	7.3300e-01	-18.5802	-43.661610	0.000318	3.181734	1.078001	-0.025486
1468	7.3350e-01	-18.6123	-43.715063	0.000133	1.334620	0.452181	-0.010691
1469	7.3400e-01	-18.6909	-43.907494	0.000480	4.804632	1.627853	-0.038486
1470	7.3450e-01	-18.7198	-43.823680	-0.000209	-2.092684	-0.709021	0.016763
1471	7.3500e-01	-18.7615	-43.891672	0.000170	1.697637	0.575175	-0.013598
1472	7.3550e-01	-18.8048	-44.163642	0.000679	6.790546	2.300699	-0.054394
1473	7.3600e-01	-18.8642	-44.220088	0.000141	1.409359	0.477504	-0.011289
1474	7.3650e-01	-18.8898	-44.211108	-0.000022	-0.224216	-0.075966	0.001796
1475	7.3700e-01	-18.9444	-44.245318	0.000085	0.854157	0.289396	-0.006842
1476	7.3750e-01	-18.9556	-44.385152	0.000349	3.491366	1.182907	-0.027967
1477	7.3800e-01	-19.0118	-44.413375	0.000070	0.704679	0.238752	-0.005645
1478	7.3850e-01	-19.0567	-44.546366	0.000332	3.320534	1.125028	-0.026598
1479	7.3900e-01	-19.0920	-44.511729	-0.000086	-0.864834	-0.293014	0.006928
1480	7.3950e-01	-19.1257	-44.693897	0.000455	4.548385	1.541034	-0.036434
1481	7.4000e-01	-19.1754	-44.872217	0.000445	4.452292	1.508477	-0.035664
1482	7.4050e-01	-19.1979	-44.880769	0.000021	0.213539	0.072349	-0.001711
1483	7.4100e-01	-19.2364	-44.967577	0.000217	2.167423	0.734343	-0.017362
1484	7.4150e-01	-19.2684	-45.056096	0.000221	2.210131	0.748813	-0.017704
1485	7.4200e-01	-19.3021	-45.195074	0.000347	3.470012	1.175672	-0.027796
1486	7.4250e-01	-19.3615	-45.232705	0.000094	0.939572	0.318336	-0.007526
1487	7.4300e-01	-19.4064	-45.344743	0.000280	2.797363	0.947772	-0.022408
1488	7.4350e-01	-19.4513	-45.359282	0.000036	0.363017	0.122993	-0.002908
1489	7.4400e-01	-19.4898	-45.406321	0.000117	1.174466	0.397920	-0.009408
1490	7.4450e-01	-19.5235	-45.561549	0.000388	3.875736	1.313135	-0.031046
1491	7.4500e-01	-19.5636	-45.684705	0.000307	3.074964	1.041826	-0.024631
1492	7.4550e-01	-19.5941	-45.766809	0.000205	2.049976	0.694551	-0.016421
1493	7.4600e-01	-19.6358	-45.854900	0.000220	2.199454	0.745195	-0.017618
1494	7.4650e-01	-19.6920	-45.962661	0.000269	2.690594	0.911598	-0.021552
1495	7.4700e-01	-19.7224	-45.842499	-0.000300	-3.000226	-1.016504	0.024033
1496	7.4750e-01	-19.7545	-46.038779	0.000490	4.900725	1.660410	-0.039256
1497	7.4800e-01	-19.8107	-46.122593	0.000209	2.092684	0.709021	-0.016763
1498	7.4850e-01	-19.8428	-46.211539	0.000222	2.220808	0.752430	-0.017789
1499	7.4900e-01	-19.8780	-46.403115	0.000478	4.783278	1.620618	-0.038315
1500	7.4950e-01	-19.9149	-46.415516	0.000031	0.309632	0.104906	-0.002480
1501	7.5000e-01	-19.9567	-46.495055	0.000199	1.985915	0.672846	-0.015908
1502	7.5050e-01	-19.9246	-46.480515	0.000036	0.363017	0.122993	0.002908
1503	7.5100e-01	-19.8813	-46.320584	0.000399	3.993183	1.352927	0.031986
1504	7.5150e-01	-19.8299	-46.226506	0.000235	2.348931	0.795839	0.018816
1505	7.5200e-01	-19.7946	-46.278676	-0.000130	-1.302589	-0.441329	-0.010434
1506	7.5250e-01	-19.7497	-46.059305	0.000548	5.477280	1.855753	0.043874
1507	7.5300e-01	-19.7289	-46.122593	-0.000158	-1.580190	-0.535383	-0.012658
1508	7.5350e-01	-19.6695	-45.932300	0.000475	4.751247	1.609766	0.038059
1509	7.5400e-01	-19.6519	-46.019108	-0.000217	-2.167423	-0.734343	-0.017362
1510	7.5450e-01	-19.5941	-45.880985	0.000345	3.448658	1.168437	0.027625
1511	7.5500e-01	-19.5588	-45.913484	-0.000081	-0.811449	-0.274926	-0.006500
1512	7.5550e-01	-19.5011	-45.972497	-0.000147	-1.473420	-0.499208	-0.011802
1513	7.5600e-01	-19.4850	-45.770230	0.000505	5.050202	1.711055	0.040453
1514	7.5650e-01	-19.4401	-45.738158	0.000080	0.800772	0.271309	0.006414
1515	7.5700e-01	-19.4016	-45.490563	0.000618	6.181960	2.094505	0.049519
1516	7.5750e-01	-19.3503	-45.667600	-0.000442	-4.420261	-1.497625	-0.035407
1517	7.5800e-01	-19.3134	-45.570101	0.000243	2.434347	0.824779	0.019500
1518	7.5850e-01	-19.2925	-45.312671	0.000643	6.427530	2.177706	0.051486
1519	7.5900e-01	-19.2396	-45.300697	0.000030	0.298955	0.101289	0.002395
1520	7.5950e-01	-19.2043	-45.396485	-0.000239	-2.391639	-0.810309	-0.019158
1521	7.6000e-01	-19.1594	-45.191225	0.000512	5.124941	1.736377	0.041052
1522	7.6050e-01	-19.1209	-45.262639	-0.000178	-1.783052	-0.604114	-0.014283
1523	7.6100e-01	-19.0872	-45.080898	0.000454	4.537708	1.537417	0.036348
1524	7.6150e-01	-19.0406	-45.091161	-0.000026	-0.256247	-0.086819	-0.002053
1525	7.6200e-01	-19.0102	-45.058234	0.000082	0.822126	0.278544	0.006585
1526	7.6250e-01	-18.9572	-44.889749	0.000421	4.206722	1.425276	0.033697
1527	7.6300e-01	-18.8995	-44.858533	0.000078	0.779418	0.264074	0.006243
1528	7.6350e-01	-18.8770	-44.879914	-0.000053	-0.533848	-0.180873	-0.004276
1529	7.6400e-01	-18.8353	-44.791396	0.000221	2.210131	0.748813	0.017704
1530	7.6450e-01	-18.8160	-44.621628	0.000424	4.238753	1.436128	0.033953
1531	7.6500e-01	-18.7358	-44.598964	0.000057	0.565879	0.191725	0.004533
1532	7.6550e-01	-18.7134	-44.461696	0.000343	3.427304	1.161202	0.027454
1533	7.6600e-01	-18.6813	-44.405250	0.000141	1.409359	0.477504	0.011289
1534	7.6650e-01	-18.6428	-44.338113	0.000168	1.676283	0.567940	0.013427
1535	7.6700e-01	-18.5915	-44.276962	0.000153	1.526805	0.517296	0.012230
1536	7.6750e-01	-18.5658	-44.140122	0.000342	3.416627	1.157585	0.027368
1537	7.6800e-01	-18.5064	-44.194431	-0.000136	-1.355974	-0.459416	-0.010862
1538	7.6850e-01	-18.4695	-44.187161	0.000018	0.181508	0.061497	0.001454
1539	7.6900e-01	-18.4230	-44.115748	0.000178	1.783052	0.604114	0.014283
1540	7.6950e-01	-18.3877	-43.975059	0.000351	3.512720	1.190142	0.028138
1541	7.7000e-01	-18.3492	-43.932724	0.000106	1.057019	0.358128	0.008467
1542	7.7050e-01	-18.3235	-43.906211	0.000066	0.661972	0.224282	0.005303
1543	7.7100e-01	-18.2818	-43.754832	0.000378	3.779644	1.280578	0.030276
1544	7.7150e-01	-18.2433	-43.699668	0.000138	1.377328	0.466651	0.011033
1545	7.7200e-01	-18.2000	-43.608156	0.000228	2.284869	0.774135	0.018302
1546	7.7250e-01	-18.1744	-43.509803	0.000246	2.455701	0.832014	0.019671
1547	7.7300e-01	-18.1054	-43.359706	0.000375	3.747613	1.269726	0.030019
1548	7.7350e-01	-18.0669	-43.423422	-0.000159	-1.590867	-0.539000	-0.012743
1549	7.7400e-01	-18.0460	-43.331055	0.000231	2.306223	0.781370	0.018473
1550	7.7450e-01	-17.9931	-43.383226	-0.000130	-1.302589	-0.441329	-0.010434
1551	7.7500e-01	-17.9433	-43.181386	0.000504	5.039525	1.707437	0.040368
1552	7.7550e-01	-17.9225	-43.116815	0.000161	1.612221	0.546235	0.012914
1553	7.7600e-01	-17.8695	-43.059513	0.000143	1.430713	0.484739	0.011460
1554	7.7650e-01	-17.8198	-42.916686	0.000357	3.566105	1.208229	0.028565
1555	7.7700e-01	-17.8006	-42.948758	-0.000080	-0.800772	-0.271309	-0.006414
1556	7.7750e-01	-17.7492	-42.914548	0.000085	0.854157	0.289396	0.006842
1557	7.7800e-01	-17.7059	-42.746064	0.000421	4.206722	1.425276	0.033697
1558	7.7850e-01	-17.6530	-42.725966	0.000050	0.501817	0.170020	0.004020
1559	7.7900e-01	-17.6417	-42.719979	0.000015	0.149477	0.050644	0.001197
1560	7.7950e-01	-17.5776	-42.617776	0.000255	2.551793	0.864571	0.020440
1561	7.8000e-01	-17.5535	-42.429194	0.000471	4.708539	1.595296	0.037717
1562	7.8050e-01	-17.5182	-42.476660	-0.000119	-1.185143	-0.401537	-0.009493
1563	7.8100e-01	-17.4942	-42.366333	0.000275	2.754656	0.933303	0.022065
1564	7.8150e-01	-17.4139	-42.159362	0.000517	5.167648	1.750847	0.041394
1565	7.8200e-01	-17.3979	-42.282090	-0.000306	-3.064287	-1.038209	-0.024546
1566	7.8250e-01	-17.3482	-42.184592	0.000243	2.434347	0.824779	0.019500
1567	7.8300e-01	-17.3097	-42.076403	0.000270	2.701271	0.915215	0.021638
1568	7.8350e-01	-17.2760	-41.942128	0.000335	3.352565	1.135880	0.026855
1569	7.8400e-01	-17.2343	-41.945122	-0.000007	-0.074739	-0.025322	-0.000599
1570	7.8450e-01	-17.2022	-41.815551	0.000324	3.235119	1.096088	0.025914
1571	7.8500e-01	-17.1476	-41.744993	0.000176	1.761698	0.596880	0.014112
1572	7.8550e-01	-17.1284	-41.567101	0.000444	4.441615	1.504860	0.035578
1573	7.8600e-01	-17.0835	-41.566673	0.000001	0.010677	0.003617	0.000086
1574	7.8650e-01	-17.0097	-41.499536	0.000168	1.676283	0.567940	0.013427
1575	7.8700e-01	-16.9952	-41.432399	0.000168	1.676283	0.567940	0.013427
1576	7.8750e-01	-16.9391	-41.390919	0.000104	1.035665	0.350893	0.008296
1577	7.8800e-01	-16.9150	-41.365262	0.000064	0.640618	0.217047	0.005132
1578	7.8850e-01	-16.8862	-41.216021	0.000373	3.726259	1.262491	0.029848
1579	7.8900e-01	-16.8316	-41.112108	0.000259	2.594501	0.879041	0.020783
1580	7.8950e-01	-16.7851	-41.047109	0.000162	1.622898	0.549853	0.013000
1581	7.9000e-01	-16.7482	-41.048819	-0.000004	-0.042708	-0.014470	-0.000342
1582	7.9050e-01	-16.7145	-40.822605	0.000565	5.648112	1.913632	0.045243
1583	7.9100e-01	-16.6776	-40.857671	-0.000088	-0.875511	-0.296631	-0.007013
1584	7.9150e-01	-16.6279	-40.792672	0.000162	1.622898	0.549853	0.013000
1585	7.9200e-01	-16.5926	-40.692607	0.000250	2.498409	0.846484	0.020013
1586	7.9250e-01	-16.5701	-40.615207	0.000193	1.932530	0.654759	0.015480
1587	7.9300e-01	-16.4915	-40.557050	0.000145	1.452067	0.491973	0.011631
1588	7.9350e-01	-16.4530	-40.551491	0.000014	0.138800	0.047027	0.001112
1589	7.9400e-01	-16.4370	-40.408664	0.000357	3.566105	1.208229	0.028565
1590	7.9450e-01	-16.3856	-40.307317	0.000253	2.530439	0.857336	0.020269
1591	7.9500e-01	-16.3535	-40.161069	0.000365	3.651520	1.237169	0.029250
1592	7.9550e-01	-16.3038	-40.197845	-0.000092	-0.918219	-0.311101	-0.007355
1593	7.9600e-01	-16.2701	-40.068702	0.000322	3.224442	1.092470	0.025829
1594	7.9650e-01	-16.2284	-39.947256	0.000303	3.032257	1.027356	0.024289
1595	7.9700e-01	-16.1931	-39.960940	-0.000034	-0.341663	-0.115758	-0.002737
1596	7.9750e-01	-16.1610	-39.973769	-0.000032	-0.320309	-0.108524	-0.002566
1597	7.9800e-01	-16.1033	-39.919888	0.000135	1.345297	0.455799	0.010776
1598	7.9850e-01	-16.0921	-39.678280	0.000603	6.032482	2.043860	0.048322
1599	7.9900e-01	-16.0311	-39.785186	-0.000267	-2.669240	-0.904363	-0.021381
1600	7.9950e-01	-15.9942	-39.633807	0.000378	3.779644	1.280578	0.030276
1601	8.0000e-01	-15.9557	-39.473020	0.000401	4.014537	1.360162	0.032157
1602	8.0050e-01	-15.8947	-39.448645	0.000061	0.608587	0.206195	0.004875
1603	8.0100e-01	-15.8594	-39.335325	0.000283	2.829394	0.958625	0.022664
1604	8.0150e-01	-15.8562	-39.331476	0.000010	0.096093	0.032557	0.000770
1605	8.0200e-01	-15.7808	-39.118946	0.000531	5.306449	1.797874	0.042506
1606	8.0250e-01	-15.7423	-39.134341	-0.000038	-0.384371	-0.130228	-0.003079
1607	8.0300e-01	-15.7070	-39.046250	0.000220	2.199454	0.745195	0.017618
1608	8.0350e-01	-15.6846	-38.828161	0.000545	5.445249	1.844900	0.043618
1609	8.0400e-01	-15.6381	-38.882042	-0.000135	-1.345297	-0.455799	-0.010776
1610	8.0450e-01	-15.5883	-38.793096	0.000222	2.220808	0.752430	0.017789
1611	8.0500e-01	-15.5322	-38.809346	-0.000041	-0.405724	-0.137463	-0.003250
1612	8.0550e-01	-15.5177	-38.607934	0.000503	5.028848	1.703820	0.040282
1613	8.0600e-01	-15.4664	-38.606224	0.000004	0.042708	0.014470	0.000342
1614	8.0650e-01	-15.4327	-38.508297	0.000245	2.445024	0.828396	0.019585
1615	8.0700e-01	-15.3974	-38.434318	0.000185	1.847114	0.625819	0.014796
1616	8.0750e-01	-15.3461	-38.404384	0.000075	0.747387	0.253222	0.005987
1617	8.0800e-01	-15.3204	-38.297906	0.000266	2.658563	0.900746	0.021296
1618	8.0850e-01	-15.2787	-38.181592	0.000290	2.904133	0.983947	0.023263
1619	8.0900e-01	-15.2226	-38.190572	-0.000022	-0.224216	-0.075966	-0.001796
1620	8.0950e-01	-15.1793	-38.154224	0.000091	0.907542	0.307483	0.007270
1621	8.1000e-01	-15.1520	-37.894228	0.000649	6.491591	2.199411	0.051999
1622	8.1050e-01	-15.1087	-37.898076	-0.000010	-0.096093	-0.032557	-0.000770
1623	8.1100e-01	-15.0621	-37.836498	0.000154	1.537482	0.520913	0.012316
1624	8.1150e-01	-15.0285	-37.749690	0.000217	2.167423	0.734343	0.017362
1625	8.1200e-01	-14.9916	-37.651764	0.000245	2.445024	0.828396	0.019585
1626	8.1250e-01	-14.9290	-37.610712	0.000102	1.024988	0.347275	0.008210
1627	8.1300e-01	-14.8985	-37.614133	-0.000009	-0.085416	-0.028940	-0.000684
1628	8.1350e-01	-14.8632	-37.417853	0.000490	4.900725	1.660410	0.039256
1629	8.1400e-01	-14.8167	-37.265191	0.000381	3.811675	1.291430	0.030532
1630	8.1450e-01	-14.7894	-37.303249	-0.000095	-0.950249	-0.321953	-0.007612
1631	8.1500e-01	-14.7493	-37.254500	0.000122	1.217173	0.412390	0.009750
1632	8.1550e-01	-14.7076	-37.037694	0.000541	5.413219	1.834048	0.043361
1633	8.1600e-01	-14.7012	-37.046674	-0.000022	-0.224216	-0.075966	-0.001796
1634	8.1650e-01	-14.6258	-36.937202	0.000273	2.733302	0.926068	0.021894
1635	8.1700e-01	-14.5905	-36.790954	0.000365	3.651520	1.237169	0.029250
1636	8.1750e-01	-14.5472	-36.912828	-0.000304	-3.042934	-1.030974	-0.024375
1637	8.1800e-01	-14.5247	-36.545497	0.000917	9.171508	3.107391	0.073466
1638	8.1850e-01	-14.4493	-36.587832	-0.000106	-1.057019	-0.358128	-0.008467
1639	8.1900e-01	-14.4333	-36.505301	0.000206	2.060653	0.698168	0.016506
1640	8.1950e-01	-14.3819	-36.406092	0.000248	2.477055	0.839249	0.019842
1641	8.2000e-01	-14.3146	-36.507011	-0.000252	-2.519762	-0.853719	-0.020184
1642	8.2050e-01	-14.3001	-36.267969	0.000597	5.968420	2.022156	0.047809
1643	8.2100e-01	-14.2729	-36.312869	-0.000112	-1.121081	-0.379832	-0.008980
1644	8.2150e-01	-14.2151	-36.227344	0.000214	2.135392	0.723490	0.017105
1645	8.2200e-01	-14.1894	-36.107609	0.000299	2.989549	1.012887	0.023947
1646	8.2250e-01	-14.1285	-36.038761	0.000172	1.718991	0.582410	0.013770
1647	8.2300e-01	-14.1060	-35.878830	0.000399	3.993183	1.352927	0.031986
1648	8.2350e-01	-14.0804	-35.906198	-0.000068	-0.683325	-0.231517	-0.005474
1649	8.2400e-01	-13.9969	-35.822383	0.000209	2.092684	0.709021	0.016763
1650	8.2450e-01	-13.9841	-35.730016	0.000231	2.306223	0.781370	0.018473
1651	8.2500e-01	-13.9408	-35.626531	0.000258	2.583824	0.875423	0.020697
1652	8.2550e-01	-13.8975	-35.446500	0.000450	4.495000	1.522947	0.036006
1653	8.2600e-01	-13.8461	-35.533308	-0.000217	-2.167423	-0.734343	-0.017362
1654	8.2650e-01	-13.8317	-35.372949	0.000400	4.003860	1.356544	0.032072
1655	8.2700e-01	-13.7836	-35.266898	0.000265	2.647886	0.897128	0.021210
1656	8.2750e-01	-13.7354	-35.266043	0.000002	0.021354	0.007235	0.000171
1657	8.2800e-01	-13.7050	-35.133479	0.000331	3.309858	1.121410	0.026513
1658	8.2850e-01	-13.6568	-35.123216	0.000026	0.256247	0.086819	0.002053
1659	8.2900e-01	-13.6424	-34.912396	0.000526	5.263741	1.783404	0.042164
1660	8.2950e-01	-13.5846	-34.889305	0.000058	0.576556	0.195342	0.004618
1661	8.3000e-01	-13.5285	-34.975685	-0.000216	-2.156746	-0.730725	-0.017276
1662	8.3050e-01	-13.5044	-34.700294	0.000688	6.875962	2.329639	0.055078
1663	8.3100e-01	-13.4643	-34.791806	-0.000228	-2.284869	-0.774135	-0.018302
1664	8.3150e-01	-13.4178	-34.566875	0.000562	5.616081	1.902780	0.044986
1665	8.3200e-01	-13.3745	-34.487337	0.000199	1.985915	0.672846	0.015908
1666	8.3250e-01	-13.3360	-34.394115	0.000233	2.327577	0.788605	0.018644
1667	8.3300e-01	-13.2975	-34.325695	0.000171	1.708314	0.578792	0.013684
1668	8.3350e-01	-13.2574	-34.250433	0.000188	1.879145	0.636672	0.015052
1669	8.3400e-01	-13.2285	-34.161487	0.000222	2.220808	0.752430	0.017789
1670	8.3450e-01	-13.1852	-34.199973	-0.000096	-0.960926	-0.325571	-0.007697
1671	8.3500e-01	-13.1403	-34.041751	0.000395	3.950475	1.338457	0.031644
1672	8.3550e-01	-13.1082	-33.929714	0.000280	2.797363	0.947772	0.022408
1673	8.3600e-01	-13.0424	-33.840768	0.000222	2.220808	0.752430	0.017789
1674	8.3650e-01	-13.0183	-33.806130	0.000086	0.864834	0.293014	0.006928
1675	8.3700e-01	-12.9863	-33.709059	0.000242	2.423670	0.821162	0.019414
1676	8.3750e-01	-12.9157	-33.640211	0.000172	1.718991	0.582410	0.013770
1677	8.3800e-01	-12.8916	-33.411004	0.000572	5.722850	1.938954	0.045841
1678	8.3850e-01	-12.8483	-33.405017	0.000015	0.149477	0.050644	0.001197
1679	8.3900e-01	-12.8419	-33.177093	0.000569	5.690820	1.928102	0.045585
1680	8.3950e-01	-12.7841	-33.235250	-0.000145	-1.452067	-0.491973	-0.011631
1681	8.4000e-01	-12.7392	-33.152291	0.000207	2.071330	0.701786	0.016592
1682	8.4050e-01	-12.6943	-33.082588	0.000174	1.740344	0.589645	0.013941
1683	8.4100e-01	-12.6574	-32.898709	0.000459	4.591093	1.555504	0.036776
1684	8.4150e-01	-12.6157	-32.900420	-0.000004	-0.042708	-0.014470	-0.000342
1685	8.4200e-01	-12.5916	-32.920946	-0.000051	-0.512494	-0.173638	-0.004105
1686	8.4250e-01	-12.5258	-32.785388	0.000338	3.384596	1.146732	0.027111
1687	8.4300e-01	-12.5242	-32.669930	0.000288	2.882779	0.976712	0.023092
1688	8.4350e-01	-12.4633	-32.525392	0.000361	3.608812	1.222699	0.028907
1689	8.4400e-01	-12.4071	-32.529668	-0.000011	-0.106770	-0.036175	-0.000855
1690	8.4450e-01	-12.3831	-32.423190	0.000266	2.658563	0.900746	0.021296
1691	8.4500e-01	-12.3205	-32.540359	-0.000293	-2.925487	-0.991182	-0.023434
1692	8.4550e-01	-12.2916	-32.328685	0.000529	5.285095	1.790639	0.042335
1693	8.4600e-01	-12.2724	-32.255988	0.000182	1.815083	0.614967	0.014539
1694	8.4650e-01	-12.2114	-32.090925	0.000412	4.121306	1.396336	0.033013
1695	8.4700e-01	-12.1729	-32.025071	0.000164	1.644252	0.557088	0.013171
1696	8.4750e-01	-12.1264	-32.083655	-0.000146	-1.462743	-0.495591	-0.011717
1697	8.4800e-01	-12.0911	-31.884810	0.000496	4.964786	1.682115	0.039769
1698	8.4850e-01	-12.0478	-31.803988	0.000202	2.017945	0.683698	0.016164
1699	8.4900e-01	-12.0125	-31.771916	0.000080	0.800772	0.271309	0.006414
1700	8.4950e-01	-11.9692	-31.614123	0.000394	3.939798	1.334840	0.031559
1701	8.5000e-01	-11.9563	-31.584189	0.000075	0.747387	0.253222	0.005987
1702	8.5050e-01	-11.9002	-31.561952	0.000056	0.555202	0.188107	0.004447
1703	8.5100e-01	-11.8537	-31.463599	0.000246	2.455701	0.832014	0.019671
1704	8.5150e-01	-11.8328	-31.300673	0.000407	4.067922	1.378249	0.032585
1705	8.5200e-01	-11.7751	-31.369521	-0.000172	-1.718991	-0.582410	-0.013770
1706	8.5250e-01	-11.7382	-31.229688	0.000349	3.491366	1.182907	0.027967
1707	8.5300e-01	-11.6933	-31.138603	0.000227	2.274192	0.770517	0.018217
1708	8.5350e-01	-11.6515	-31.037684	0.000252	2.519762	0.853719	0.020184
1709	8.5400e-01	-11.6243	-30.859364	0.000445	4.452292	1.508477	0.035664
1710	8.5450e-01	-11.5713	-30.879890	-0.000051	-0.512494	-0.173638	-0.004105
1711	8.5500e-01	-11.5248	-30.706702	0.000432	4.324169	1.465068	0.034638
1712	8.5550e-01	-11.5040	-30.553612	0.000382	3.822352	1.295048	0.030618
1713	8.5600e-01	-11.4590	-30.625453	-0.000179	-1.793729	-0.607732	-0.014368
1714	8.5650e-01	-11.4253	-30.411640	0.000534	5.338480	1.808726	0.042763
1715	8.5700e-01	-11.3724	-30.673347	-0.000653	-6.534299	-2.213881	-0.052341
1716	8.5750e-01	-11.3307	-30.304307	0.000921	9.214216	3.121861	0.073808
1717	8.5800e-01	-11.2890	-30.209374	0.000237	2.370285	0.803074	0.018987
1718	8.5850e-01	-11.2393	-30.143947	0.000163	1.633575	0.553470	0.013085
1719	8.5900e-01	-11.2312	-30.042600	0.000253	2.530439	0.857336	0.020269
1720	8.5950e-01	-11.1847	-30.004969	0.000094	0.939572	0.318336	0.007526
1721	8.6000e-01	-11.1302	-29.895069	0.000274	2.743979	0.929685	0.021980
1722	8.6050e-01	-11.1125	-29.796715	0.000246	2.455701	0.832014	0.019671
1723	8.6100e-01	-11.0532	-29.697506	0.000248	2.477055	0.839249	0.019842
1724	8.6150e-01	-11.0275	-29.540140	0.000393	3.929121	1.331222	0.031473
1725	8.6200e-01	-10.9746	-29.529877	0.000026	0.256247	0.086819	0.002053
1726	8.6250e-01	-10.9489	-29.443497	0.000216	2.156746	0.730725	0.017276
1727	8.6300e-01	-10.8783	-29.388761	0.000137	1.366651	0.463034	0.010947
1728	8.6350e-01	-10.8366	-29.291262	0.000243	2.434347	0.824779	0.019500
1729	8.6400e-01	-10.8222	-29.200606	0.000226	2.263515	0.766900	0.018131
1730	8.6450e-01	-10.7580	-29.099686	0.000252	2.519762	0.853719	0.020184
1731	8.6500e-01	-10.7339	-28.994490	0.000263	2.626532	0.889893	0.021039
1732	8.6550e-01	-10.7099	-28.967122	0.000068	0.683325	0.231517	0.005474
1733	8.6600e-01	-10.6553	-28.858505	0.000271	2.711948	0.918833	0.021723
1734	8.6650e-01	-10.6345	-28.911531	-0.000132	-1.323943	-0.448564	-0.010605
1735	8.6700e-01	-10.5831	-28.713968	0.000493	4.932755	1.671263	0.039513
1736	8.6750e-01	-10.5382	-28.621173	0.000232	2.316900	0.784987	0.018559
1737	8.6800e-01	-10.5125	-28.556174	0.000162	1.622898	0.549853	0.013000
1738	8.6850e-01	-10.4548	-28.408216	0.000369	3.694228	1.251638	0.029592
1739	8.6900e-01	-10.4099	-28.435156	-0.000067	-0.672648	-0.227899	-0.005388
1740	8.6950e-01	-10.3762	-28.261541	0.000433	4.334846	1.468685	0.034723
1741	8.7000e-01	-10.3232	-28.209798	0.000129	1.291912	0.437712	0.010349
1742	8.7050e-01	-10.3008	-28.167035	0.000107	1.067696	0.361745	0.008553
1743	8.7100e-01	-10.2527	-28.007104	0.000399	3.993183	1.352927	0.031986
1744	8.7150e-01	-10.2286	-27.975032	0.000080	0.800772	0.271309	0.006414
1745	8.7200e-01	-10.1692	-27.831777	0.000358	3.576782	1.211846	0.028651
1746	8.7250e-01	-10.1275	-27.752239	0.000199	1.985915	0.672846	0.015908
1747	8.7300e-01	-10.1019	-27.775331	-0.000058	-0.576556	-0.195342	-0.004618
1748	8.7350e-01	-10.0457	-27.645333	0.000325	3.245796	1.099705	0.026000
1749	8.7400e-01	-10.0265	-27.610267	0.000088	0.875511	0.296631	0.007013
1750	8.7450e-01	-9.9799	-27.454184	0.000390	3.897090	1.320370	0.031217
1751	8.7500e-01	-9.9158	-27.419546	0.000086	0.864834	0.293014	0.006928
1752	8.7550e-01	-9.9029	-27.295963	0.000309	3.085641	1.045444	0.024717
1753	8.7600e-01	-9.8580	-27.236095	0.000149	1.494774	0.506443	0.011974
1754	8.7650e-01	-9.8259	-26.944882	0.000727	7.271010	2.463485	0.058243
1755	8.7700e-01	-9.7810	-26.998336	-0.000133	-1.334620	-0.452181	-0.010691
1756	8.7750e-01	-9.7377	-26.896133	0.000255	2.551793	0.864571	0.020440
1757	8.7800e-01	-9.6831	-26.892284	0.000010	0.096093	0.032557	0.000770
1758	8.7850e-01	-9.6527	-26.735346	0.000392	3.918444	1.327605	0.031388
1759	8.7900e-01	-9.6045	-26.600644	0.000336	3.363242	1.139497	0.026940
1760	8.7950e-01	-9.5981	-26.529658	0.000177	1.772375	0.600497	0.014197
1761	8.8000e-01	-9.5628	-26.484758	0.000112	1.121081	0.379832	0.008980
1762	8.8050e-01	-9.4794	-26.520250	-0.000089	-0.886188	-0.300249	-0.007099
1763	8.8100e-01	-9.4682	-26.217492	0.000756	7.559287	2.561156	0.060552
1764	8.8150e-01	-9.4441	-26.184137	0.000083	0.832803	0.282161	0.006671
1765	8.8200e-01	-9.3832	-26.119138	0.000162	1.622898	0.549853	0.013000
1766	8.8250e-01	-9.3447	-25.940391	0.000446	4.462969	1.512095	0.035749
1767	8.8300e-01	-9.2917	-26.054567	-0.000285	-2.850748	-0.965860	-0.022835
1768	8.8350e-01	-9.2580	-25.902760	0.000379	3.790321	1.284195	0.030361
1769	8.8400e-01	-9.2259	-25.790294	0.000281	2.808040	0.951390	0.022493
1770	8.8450e-01	-9.1714	-25.724012	0.000165	1.654929	0.560705	0.013256
1771	8.8500e-01	-9.1361	-25.589738	0.000335	3.352565	1.135880	0.026855
1772	8.8550e-01	-9.0976	-25.501647	0.000220	2.199454	0.745195	0.017618
1773	8.8600e-01	-9.0575	-25.455464	0.000115	1.153112	0.390685	0.009237
1774	8.8650e-01	-9.0126	-25.327604	0.000319	3.192411	1.081618	0.025572
1775	8.8700e-01	-8.9885	-25.211717	0.000289	2.893456	0.980329	0.023177
1776	8.8750e-01	-8.9211	-25.301518	-0.000224	-2.242162	-0.759665	-0.017960
1777	8.8800e-01	-8.8586	-25.068035	0.000583	5.829620	1.975129	0.046697
1778	8.8850e-01	-8.8634	-25.008167	-0.000149	-1.494774	-0.506443	0.011974
1779	8.8900e-01	-8.8201	-24.918794	0.000223	2.231485	0.756047	0.017875
1780	8.8950e-01	-8.7832	-24.668205	0.000626	6.256698	2.119827	0.050118
1781	8.9000e-01	-8.7479	-24.693863	-0.000064	-0.640618	-0.217047	-0.005132
1782	8.9050e-01	-8.6917	-24.728073	-0.000085	-0.854157	-0.289396	-0.006842
1783	8.9100e-01	-8.6596	-24.532648	0.000488	4.879371	1.653176	0.039085
1784	8.9150e-01	-8.6276	-24.478340	0.000136	1.355974	0.459416	0.010862
1785	8.9200e-01	-8.5618	-24.439426	0.000097	0.971603	0.329188	0.007783
1786	8.9250e-01	-8.5072	-24.398374	0.000102	1.024988	0.347275	0.008210
1787	8.9300e-01	-8.4960	-24.261534	0.000342	3.416627	1.157585	0.027368
1788	8.9350e-01	-8.4575	-24.128115	0.000333	3.331211	1.128645	0.026684
1789	8.9400e-01	-8.4335	-24.082786	0.000113	1.131758	0.383450	0.009066
1790	8.9450e-01	-8.3677	-23.990847	0.000230	2.295546	0.777752	0.018388
1791	8.9500e-01	-8.3420	-23.952361	0.000096	0.960926	0.325571	0.007697
1792	8.9550e-01	-8.3035	-23.830060	0.000305	3.053610	1.034591	0.024460
1793	8.9600e-01	-8.2746	-23.783021	0.000117	1.174466	0.397920	0.009408
1794	8.9650e-01	-8.1960	-23.554669	0.000570	5.701496	1.931719	0.045670
1795	8.9700e-01	-8.1623	-23.519176	0.000089	0.886188	0.300249	0.007099
1796	8.9750e-01	-8.1495	-23.420395	0.000247	2.466378	0.835631	0.019756
1797	8.9800e-01	-8.0869	-23.396875	0.000059	0.587233	0.198960	0.004704
1798	8.9850e-01	-8.0532	-23.258325	0.000346	3.459335	1.172054	0.027710
1799	8.9900e-01	-8.0003	-23.186056	0.000180	1.804406	0.611349	0.014454
1800	8.9950e-01	-7.9762	-23.080860	0.000263	2.626532	0.889893	0.021039
1801	9.0000e-01	-7.9474	-22.994908	0.000215	2.146069	0.727108	0.017191
1802	9.0050e-01	-7.8928	-22.912804	0.000205	2.049976	0.694551	0.016421
1803	9.0100e-01	-7.8431	-22.832838	0.000200	1.996591	0.676464	0.015993
1804	9.0150e-01	-7.8046	-22.797772	0.000088	0.875511	0.296631	0.007013
1805	9.0200e-01	-7.7613	-22.737477	0.000151	1.505451	0.510061	0.012059
1806	9.0250e-01	-7.7228	-22.604486	0.000332	3.320534	1.125028	0.026598
1807	9.0300e-01	-7.7019	-22.458666	0.000364	3.640843	1.233551	0.029164
1808	9.0350e-01	-7.6426	-22.437712	0.000052	0.523171	0.177255	0.004191
1809	9.0400e-01	-7.6057	-22.200808	0.000592	5.915036	2.004068	0.047381
1810	9.0450e-01	-7.5656	-22.160611	0.000100	1.003634	0.340040	0.008039
1811	9.0500e-01	-7.5319	-22.054987	0.000264	2.637209	0.893511	0.021125
1812	9.0550e-01	-7.5110	-21.877950	0.000442	4.420261	1.497625	0.035407
1813	9.0600e-01	-7.4549	-21.831767	0.000115	1.153112	0.390685	0.009237
1814	9.0650e-01	-7.4212	-21.818511	0.000033	0.330986	0.112141	0.002651
1815	9.0700e-01	-7.3843	-21.780024	0.000096	0.960926	0.325571	0.007697
1816	9.0750e-01	-7.3458	-21.712032	0.000170	1.697637	0.575175	0.013598
1817	9.0800e-01	-7.2912	-21.549962	0.000405	4.046568	1.371014	0.032414
1818	9.0850e-01	-7.2511	-21.535423	0.000036	0.363017	0.122993	0.002908
1819	9.0900e-01	-7.2046	-21.380622	0.000387	3.865059	1.309518	0.030960
1820	9.0950e-01	-7.1517	-21.353682	0.000067	0.672648	0.227899	0.005388
1821	9.1000e-01	-7.1501	-21.095824	0.000644	6.438207	2.181323	0.051572
1822	9.1050e-01	-7.1324	-21.049213	0.000116	1.163789	0.394302	0.009322
1823	9.1100e-01	-7.0442	-21.019279	0.000075	0.747387	0.253222	0.005987
1824	9.1150e-01	-7.0137	-21.003029	0.000041	0.405724	0.137463	0.003250
1825	9.1200e-01	-6.9736	-20.704974	0.000744	7.441841	2.521364	0.059611
1826	9.1250e-01	-6.9399	-20.792210	-0.000218	-2.178100	-0.737960	-0.017447
1827	9.1300e-01	-6.9207	-20.696849	0.000238	2.380962	0.806692	0.019072
1828	9.1350e-01	-6.8485	-20.618594	0.000195	1.953884	0.661994	0.015651
1829	9.1400e-01	-6.8132	-20.500997	0.000294	2.936164	0.994799	0.023519
1830	9.1450e-01	-6.7907	-20.320539	0.000451	4.505677	1.526565	0.036092
1831	9.1500e-01	-6.7362	-20.200377	0.000300	3.000226	1.016504	0.024033
1832	9.1550e-01	-6.6880	-20.154621	0.000114	1.142435	0.387067	0.009151
1833	9.1600e-01	-6.6624	-20.042583	0.000280	2.797363	0.947772	0.022408
1834	9.1650e-01	-6.6110	-20.066957	-0.000061	-0.608587	-0.206195	-0.004875
1835	9.1700e-01	-6.5645	-19.834757	0.000580	5.797589	1.964276	0.046440
1836	9.1750e-01	-6.5292	-19.858704	-0.000060	-0.597910	-0.202577	-0.004789
1837	9.1800e-01	-6.5164	-19.720153	0.000346	3.459335	1.172054	0.027710
1838	9.1850e-01	-6.4362	-19.895480	-0.000438	-4.377553	-1.483155	-0.035065
1839	9.1900e-01	-6.4089	-19.580748	0.000786	7.858242	2.662445	0.062946
1840	9.1950e-01	-6.3832	-19.458019	0.000306	3.064287	1.038209	0.024546
1841	9.2000e-01	-6.3351	-19.427230	0.000077	0.768741	0.260457	0.006158
1842	9.2050e-01	-6.2758	-19.231378	0.000489	4.890048	1.656793	0.039170
1843	9.2100e-01	-6.2709	-19.145853	0.000214	2.135392	0.723490	0.017105
1844	9.2150e-01	-6.2148	-19.016710	0.000322	3.224442	1.092470	0.025829
1845	9.2200e-01	-6.1811	-19.014572	0.000005	0.053385	0.018087	0.000428
1846	9.2250e-01	-6.1298	-18.900396	0.000285	2.850748	0.965860	0.022835
1847	9.2300e-01	-6.0961	-18.800759	0.000249	2.487732	0.842866	0.019927
1848	9.2350e-01	-6.0399	-18.748589	0.000130	1.302589	0.441329	0.010434
1849	9.2400e-01	-6.0207	-18.565565	0.000457	4.569739	1.548269	0.036605
1850	9.2450e-01	-5.9806	-18.620729	-0.000138	-1.377328	-0.466651	-0.011033
1851	9.2500e-01	-5.9260	-18.500138	0.000301	3.010903	1.020121	0.024118
1852	9.2550e-01	-5.9036	-18.439843	0.000151	1.505451	0.510061	0.012059
1853	9.2600e-01	-5.8651	-18.271359	0.000421	4.206722	1.425276	0.033697
1854	9.2650e-01	-5.8073	-18.207643	0.000159	1.590867	0.539000	0.012743
1855	9.2700e-01	-5.7897	-18.106296	0.000253	2.530439	0.857336	0.020269
1856	9.2750e-01	-5.7303	-18.013929	0.000231	2.306223	0.781370	0.018473
1857	9.2800e-01	-5.7143	-17.884786	0.000322	3.224442	1.092470	0.025829
1858	9.2850e-01	-5.6645	-17.851859	0.000082	0.822126	0.278544	0.006585
1859	9.2900e-01	-5.6293	-17.744952	0.000267	2.669240	0.904363	0.021381
1860	9.2950e-01	-5.5635	-17.691499	0.000133	1.334620	0.452181	0.010691
1861	9.3000e-01	-5.5490	-17.576040	0.000288	2.882779	0.976712	0.023092
1862	9.3050e-01	-5.5025	-17.516173	0.000149	1.494774	0.506443	0.011974
1863	9.3100e-01	-5.4480	-17.343840	0.000430	4.302815	1.457833	0.034467
1864	9.3150e-01	-5.4239	-17.255321	0.000221	2.210131	0.748813	0.017704
1865	9.3200e-01	-5.3870	-17.196737	0.000146	1.462743	0.495591	0.011717
1866	9.3250e-01	-5.3453	-17.058186	0.000346	3.459335	1.172054	0.027710
1867	9.3300e-01	-5.2892	-16.952990	0.000263	2.626532	0.889893	0.021039
1868	9.3350e-01	-5.2442	-17.000884	-0.000120	-1.195819	-0.405155	-0.009579
1869	9.3400e-01	-5.2314	-16.683586	0.000792	7.922304	2.684149	0.063460
1870	9.3450e-01	-5.1801	-16.630988	0.000131	1.313266	0.444947	0.010520
1871	9.3500e-01	-5.1271	-16.689573	-0.000146	-1.462743	-0.495591	-0.011717
1872	9.3550e-01	-5.0950	-16.474050	0.000538	5.381188	1.823196	0.043105
1873	9.3600e-01	-5.0501	-16.460366	0.000034	0.341663	0.115758	0.002737
1874	9.3650e-01	-5.0068	-16.377407	0.000207	2.071330	0.701786	0.016592
1875	9.3700e-01	-4.9731	-16.067806	0.000773	7.730119	2.619035	0.061920
1876	9.3750e-01	-4.9346	-16.212343	-0.000361	-3.608812	-1.222699	-0.028907
1877	9.3800e-01	-4.9009	-16.054122	0.000395	3.950475	1.338457	0.031644
1878	9.3850e-01	-4.8769	-15.978005	0.000190	1.900499	0.643906	0.015223
1879	9.3900e-01	-4.8368	-15.871526	0.000266	2.658563	0.900746	0.021296
1880	9.3950e-01	-4.7951	-15.784718	0.000217	2.167423	0.734343	0.017362
1881	9.4000e-01	-4.7389	-15.685509	0.000248	2.477055	0.839249	0.019842
1882	9.4050e-01	-4.6940	-15.573043	0.000281	2.808040	0.951390	0.022493
1883	9.4100e-01	-4.6571	-15.444756	0.000320	3.203088	1.085236	0.025658
1884	9.4150e-01	-4.6282	-15.393868	0.000127	1.270558	0.430477	0.010177
1885	9.4200e-01	-4.5881	-15.243772	0.000375	3.747613	1.269726	0.030019
1886	9.4250e-01	-4.5464	-15.309626	-0.000164	-1.644252	-0.557088	-0.013171
1887	9.4300e-01	-4.4886	-15.104794	0.000511	5.114264	1.732759	0.040967
1888	9.4350e-01	-4.4870	-14.958118	0.000366	3.662197	1.240786	0.029335
1889	9.4400e-01	-4.4084	-14.822133	0.000340	3.395273	1.150350	0.027197
1890	9.4450e-01	-4.3924	-14.801607	0.000051	0.512494	0.173638	0.004105
1891	9.4500e-01	-4.3186	-14.784502	0.000043	0.427078	0.144698	0.003421
1892	9.4550e-01	-4.2945	-14.619867	0.000411	4.110629	1.392719	0.032927
1893	9.4600e-01	-4.2592	-14.528783	0.000227	2.274192	0.770517	0.018217
1894	9.4650e-01	-4.2288	-14.497993	0.000077	0.768741	0.260457	0.006158
1895	9.4700e-01	-4.1662	-14.385528	0.000281	2.808040	0.951390	0.022493
1896	9.4750e-01	-4.1389	-14.231155	0.000385	3.854382	1.305900	0.030875
1897	9.4800e-01	-4.1036	-14.309411	-0.000195	-1.953884	-0.661994	-0.015651
1898	9.4850e-01	-4.0491	-14.150762	0.000396	3.961152	1.342075	0.031730
1899	9.4900e-01	-4.0106	-14.007080	0.000359	3.587458	1.215464	0.028736
1900	9.4950e-01	-3.9657	-13.892048	0.000287	2.872102	0.973095	0.023006
1901	9.5000e-01	-3.9480	-13.731689	0.000400	4.003860	1.356544	0.032072
1902	9.5050e-01	-3.8999	-13.682512	0.000123	1.227850	0.416007	0.009835
1903	9.5100e-01	-3.8646	-13.691492	-0.000022	-0.224216	-0.075966	-0.001796
1904	9.5150e-01	-3.8149	-13.458436	0.000582	5.818943	1.971511	0.046611
1905	9.5200e-01	-3.7683	-13.480673	-0.000056	-0.555202	-0.188107	-0.004447
1906	9.5250e-01	-3.7202	-13.295511	0.000462	4.623124	1.566357	0.037032
1907	9.5300e-01	-3.6994	-13.229657	0.000164	1.644252	0.557088	0.013171
1908	9.5350e-01	-3.6544	-13.057752	0.000429	4.292138	1.454216	0.034381
1909	9.5400e-01	-3.5967	-13.071863	-0.000035	-0.352340	-0.119376	-0.002822
1910	9.5450e-01	-3.5887	-12.876866	0.000487	4.868694	1.649558	0.038999
1911	9.5500e-01	-3.5486	-12.726770	0.000375	3.747613	1.269726	0.030019
1912	9.5550e-01	-3.4924	-12.653646	0.000183	1.825760	0.618584	0.014625
1913	9.5600e-01	-3.4780	-12.732329	-0.000196	-1.964561	-0.665611	-0.015737
1914	9.5650e-01	-3.4234	-12.506115	0.000565	5.648112	1.913632	0.045243
1915	9.5700e-01	-3.3753	-12.465491	0.000101	1.014311	0.343658	0.008125
1916	9.5750e-01	-3.3368	-12.469767	-0.000011	-0.106770	-0.036175	-0.000855
1917	9.5800e-01	-3.3047	-12.316677	0.000382	3.822352	1.295048	0.030618
1918	9.5850e-01	-3.2614	-12.154607	0.000405	4.046568	1.371014	0.032414
1919	9.5900e-01	-3.2149	-11.973294	0.000453	4.527031	1.533800	0.036263
1920	9.5950e-01	-3.1764	-12.015629	-0.000106	-1.057019	-0.358128	-0.008467
1921	9.6000e-01	-3.1299	-11.823197	0.000480	4.804632	1.627853	0.038486
1922	9.6050e-01	-3.1042	-11.762902	0.000151	1.505451	0.510061	0.012059
1923	9.6100e-01	-3.0689	-11.640174	0.000306	3.064287	1.038209	0.024546
1924	9.6150e-01	-3.0127	-11.697048	-0.000142	-1.420036	-0.481121	-0.011375
1925	9.6200e-01	-2.9791	-11.463992	0.000582	5.818943	1.971511	0.046611
1926	9.6250e-01	-2.9374	-11.367349	0.000241	2.412993	0.817544	0.019329
1927	9.6300e-01	-2.8860	-11.271133	0.000240	2.402316	0.813927	0.019243
1928	9.6350e-01	-2.8539	-11.223239	0.000120	1.195819	0.405155	0.009579
1929	9.6400e-01	-2.8154	-11.110774	0.000281	2.808040	0.951390	0.022493
1930	9.6450e-01	-2.7785	-10.947848	0.000407	4.067922	1.378249	0.032585
1931	9.6500e-01	-2.7464	-10.836666	0.000278	2.776010	0.940537	0.022237
1932	9.6550e-01	-2.7015	-10.749858	0.000217	2.167423	0.734343	0.017362
1933	9.6600e-01	-2.6598	-10.665616	0.000210	2.103361	0.712638	0.016848
1934	9.6650e-01	-2.6149	-10.618149	0.000119	1.185143	0.401537	0.009493
1935	9.6700e-01	-2.5764	-10.474467	0.000359	3.587458	1.215464	0.028736
1936	9.6750e-01	-2.5347	-10.424435	0.000125	1.249204	0.423242	0.010006
1937	9.6800e-01	-2.5010	-10.388942	0.000089	0.886188	0.300249	0.007099
1938	9.6850e-01	-2.4465	-10.331640	0.000143	1.430713	0.484739	0.011460
1939	9.6900e-01	-2.4336	-10.034013	0.000743	7.431164	2.517747	0.059525
1940	9.6950e-01	-2.3823	-10.185820	-0.000379	-3.790321	-1.284195	-0.030361
1941	9.7000e-01	-2.3342	-9.958324	0.000568	5.680143	1.924484	0.045499
1942	9.7050e-01	-2.3037	-9.876220	0.000205	2.049976	0.694551	0.016421
1943	9.7100e-01	-2.2475	-9.841154	0.000088	0.875511	0.296631	0.007013
1944	9.7150e-01	-2.2122	-9.788556	0.000131	1.313266	0.444947	0.010520
1945	9.7200e-01	-2.1834	-9.653854	0.000336	3.363242	1.139497	0.026940
1946	9.7250e-01	-2.1368	-9.590993	0.000157	1.569513	0.531765	0.012572
1947	9.7300e-01	-2.0935	-9.437476	0.000383	3.833029	1.298665	0.030703
1948	9.7350e-01	-2.0663	-9.290373	0.000367	3.672874	1.244403	0.029421
1949	9.7400e-01	-2.0261	-9.163368	0.000317	3.171057	1.074383	0.025401
1950	9.7450e-01	-1.9700	-8.940575	0.000556	5.562696	1.884692	0.044559
1951	9.7500e-01	-1.9395	-9.062021	-0.000303	-3.032257	-1.027356	-0.024289
1952	9.7550e-01	-1.9187	-8.891399	0.000426	4.260107	1.443363	0.034124
1953	9.7600e-01	-1.8577	-8.906365	-0.000037	-0.373694	-0.126611	-0.002993
1954	9.7650e-01	-1.8144	-8.742585	0.000409	4.089276	1.385484	0.032756
1955	9.7700e-01	-1.7807	-8.400057	0.000855	8.552245	2.897579	0.068506
1956	9.7750e-01	-1.7342	-8.586502	-0.000466	-4.655154	-1.577209	-0.037289
1957	9.7800e-01	-1.6844	-8.474036	0.000281	2.808040	0.951390	0.022493
1958	9.7850e-01	-1.6796	-8.193942	0.000699	6.993409	2.369431	0.056019
1959	9.7900e-01	-1.6010	-8.294006	-0.000250	-2.498409	-0.846484	-0.020013
1960	9.7950e-01	-1.5721	-8.026740	0.000667	6.673100	2.260907	0.053453
1961	9.8000e-01	-1.5465	-7.954044	0.000182	1.815083	0.614967	0.014539
1962	9.8050e-01	-1.5000	-7.941643	0.000031	0.309632	0.104906	0.002480
1963	9.8100e-01	-1.4663	-7.836447	0.000263	2.626532	0.889893	0.021039
1964	9.8150e-01	-1.4181	-7.640167	0.000490	4.900725	1.660410	0.039256
1965	9.8200e-01	-1.3828	-7.676943	-0.000092	-0.918219	-0.311101	-0.007355
1966	9.8250e-01	-1.3283	-7.446453	0.000575	5.754881	1.949807	0.046098
1967	9.8300e-01	-1.2866	-7.463558	-0.000043	-0.427078	-0.144698	-0.003421
1968	9.8350e-01	-1.2545	-7.344678	0.000297	2.968195	1.005652	0.023776
1969	9.8400e-01	-1.2288	-7.202706	0.000354	3.544751	1.200994	0.028394
1970	9.8450e-01	-1.1695	-7.078695	0.000310	3.096318	1.049061	0.024802
1971	9.8500e-01	-1.1454	-6.939289	0.000348	3.480689	1.179289	0.027881
1972	9.8550e-01	-1.1117	-6.731036	0.000520	5.199679	1.761699	0.041651
1973	9.8600e-01	-1.0492	-6.751134	-0.000050	-0.501817	-0.170020	-0.004020
1974	9.8650e-01	-0.9930	-6.690411	0.000152	1.516128	0.513678	0.012145
1975	9.8700e-01	-0.9882	-6.687845	0.000006	0.064062	0.021705	0.000513
1976	9.8750e-01	-0.9513	-6.453079	0.000586	5.861651	1.985981	0.046953
1977	9.8800e-01	-0.9000	-6.375679	0.000193	1.932530	0.654759	0.015480
1978	9.8850e-01	-0.8663	-6.312818	0.000157	1.569513	0.531765	0.012572
1979	9.8900e-01	-0.8262	-6.211899	0.000252	2.519762	0.853719	0.020184
1980	9.8950e-01	-0.7620	-6.104992	0.000267	2.669240	0.904363	0.021381
1981	9.9000e-01	-0.7347	-6.069927	0.000088	0.875511	0.296631	0.007013
1982	9.9050e-01	-0.7091	-5.960883	0.000272	2.722625	0.922450	0.021809
1983	9.9100e-01	-0.6545	-5.852266	0.000271	2.711948	0.918833	0.021723
1984	9.9150e-01	-0.5984	-5.686775	0.000413	4.131983	1.399954	0.033098
1985	9.9200e-01	-0.5871	-5.513586	0.000432	4.324169	1.465068	0.034638
1986	9.9250e-01	-0.5390	-5.413522	0.000250	2.498409	0.846484	0.020013
1987	9.9300e-01	-0.4909	-5.446877	-0.000083	-0.832803	-0.282161	-0.006671
1988	9.9350e-01	-0.4572	-5.344247	0.000256	2.562470	0.868188	0.020526
1989	9.9400e-01	-0.4331	-5.279248	0.000162	1.622898	0.549853	0.013000
1990	9.9450e-01	-0.3642	-5.200565	0.000196	1.964561	0.665611	0.015737
1991	9.9500e-01	-0.3481	-5.134283	0.000165	1.654929	0.560705	0.013256
1992	9.9550e-01	-0.3192	-4.988035	0.000365	3.651520	1.237169	0.029250
1993	9.9600e-01	-0.2631	-4.781492	0.000516	5.156972	1.747229	0.041309
1994	9.9650e-01	-0.2214	-4.656198	0.000313	3.128349	1.059913	0.025059
1995	9.9700e-01	-0.1781	-4.656625	-0.000001	-0.010677	-0.003617	-0.000086
1996	9.9750e-01	-0.1364	-4.519358	0.000343	3.427304	1.161202	0.027454
1997	9.9800e-01	-0.0995	-4.508239	0.000028	0.277601	0.094054	0.002224
1998	9.9850e-01	-0.0658	-4.346169	0.000405	4.046568	1.371014	0.032414
1999	9.9900e-01	0.0000	-4.162718	0.000458	4.580416	1.551887	0.036690
2000	9.9950e-01	0.0305	-4.082752	0.000200	1.996591	0.676464	0.015993
2001	1.0000e+00	0.0465	-4.109693	0.000200	1.996591	0.676464	-0.005388

PMax (uC/cm2):	5.05e+01
Pr (uC/cm2):	3.14e+00
-Pr (uC/cm2):	-6.71e-02
PLoss (uC/cm2):	-7.74e-02
-Vc:	-1.34e+00
C (Max-Eff) (nF):	2.52e-01
K (Eff):	8.55e+02
Vert. (+/-Pr) Shift (uC/cm2):	1.53e+00
Offset (uC/cm2):	4.04e+00

A (Loop Area - uC/cm2·Volts):	1.01e-01



Hysteresis Version: 5.48.1 - Radiant Technologies, Inc., 1999 - 9/12/24

