»»»»»»»»»»»»»»»»»»»»»»»»»»»»»»»»»»»» Hysteresis ««««««««««««««««««««««««««««««««««««
»»»  Executed Version:	5.48.1
»»»  Vision Version:	5.48.4 (R)
»»»  Vision Compiled:	9/18/24
»»»  Driver Version:	5.47.0
»»»  Windows Version:	Windows 8 or 8.1
»»»  Processor Information:	x86 (AMD or Intel) - 32 Processors
»»»  Tester Name:	PMF21124-494 (100V)
»»»  Tester S/N:	PMF21124-494
»»»  Internal Amp Type:	100V RevK 270k
»»»  Internal Amp S/N:	iAB2-596/K     
»»»  Execution Count:	1
»»»»»»»»»»»»»»»»»»»»»»»»»»»»»»»»»»»»»»»»»»««««««««««««««««««««««««««««««««««««««««««

Stored:	6/19/2025 - 21:8:34
Configured:	06/19/25 10:04:32 AM
Executed:	06/19/25 09:08:11 PM

»»»»»»»»»»»»»»»»»»»»»»»»»»»»»»»»»»» Sample Info ««««««««««««««««««««««««««««««««««««
Sample Name:	
Lot Name:	
Wafer Name:	
Die Row/Column:	0/0
Capacitor Number:	0
Sample Area (cm2):	1.00e-04
Sample Thickness (microns):	3.00e-01

Amplifier:	Internal

»»»»»»»»»»»»»»»»»»»»»»»»»»»»»»»»»»» Tester Info «««««««««««««««««««««««««««««««««««
Tester Name:	PMF21124-494 (100V)
Tester Serial Number:	PMF21124-494
Return Signal Amp. Level:	0.19 [Index: 3]

»»»»»»»»»»»»»»»»»»»»»»»»»»»»»»»» Hysteresis Info ««««««««««««««««««««««««««««««««««
Task Name:	Hyst-1168
Volts:	20.00
Field:	666.67 (kV/cm)
DCBias:	0.00
DCField:	0.00 (kV/cm)
Hysteresis Period (ms):	1.00e+00
Preset:	Enabled
Preset Delay (ms):	1.00e+03
Profile:	Standard Bipolar

»»»»»»»»»»»»»»»»»»»»»»»»»»»»»»»»»»»»»» Data «««««««««««««««««««««««««««««««««««««««
Points:	2001

Valid Data

Point	Time (ms)	Drive Voltage	Measured Polarization (uC/cm2)	Capacitance (uF)	Normalized Capacitance (uF/cm2)	Dielectric Constant	Instantaneous Current (mA)
   1	0.0000e+00	0.0176	-6.194839	0.000889	8.888158	3.011390	0.070983
   2	5.0000e-04	0.0449	-5.839927	0.000889	8.888158	3.011390	0.070983
   3	1.0000e-03	0.0610	-5.767331	0.000182	1.818032	0.615966	0.014519
   4	1.5000e-03	0.1027	-5.928655	-0.000404	-4.040072	-1.368813	-0.032265
   5	2.0000e-03	0.1460	-5.646338	0.000707	7.070126	2.395423	0.056463
   6	2.5000e-03	0.1797	-5.666504	-0.000051	-0.505009	-0.171102	-0.004033
   7	3.0000e-03	0.2150	-5.295458	0.000929	9.292165	3.148271	0.074209
   8	3.5000e-03	0.2599	-5.089770	0.000515	5.151092	1.745237	0.041138
   9	4.0000e-03	0.3016	-4.984910	0.000263	2.626047	0.889729	0.020972
  10	4.5000e-03	0.3369	-4.835685	0.000374	3.737067	1.266152	0.029845
  11	5.0000e-03	0.3786	-4.783255	0.000131	1.313023	0.444864	0.010486
  12	5.5000e-03	0.4139	-4.714692	0.000172	1.717031	0.581746	0.013713
  13	6.0000e-03	0.4588	-4.666295	0.000121	1.212022	0.410644	0.009679
  14	6.5000e-03	0.5037	-4.609832	0.000141	1.414025	0.479085	0.011293
  15	7.0000e-03	0.5358	-4.198456	0.001030	10.302183	3.490474	0.082275
  16	7.5000e-03	0.5759	-4.154092	0.000111	1.111020	0.376424	0.008873
  17	8.0000e-03	0.6192	-4.045198	0.000273	2.727049	0.923949	0.021779
  18	8.5000e-03	0.6449	-3.960503	0.000212	2.121038	0.718627	0.016939
  19	9.0000e-03	0.6898	-3.686252	0.000687	6.868122	2.326983	0.054850
  20	9.5000e-03	0.7428	-3.601557	0.000212	2.121038	0.718627	0.016939
  21	1.0000e-02	0.7700	-3.190181	0.001030	10.302183	3.490474	0.082275
  22	1.0500e-02	0.8150	-3.266810	-0.000192	-1.919034	-0.650186	-0.015326
  23	1.1000e-02	0.8567	-3.270843	-0.000010	-0.101002	-0.034220	-0.000807
  24	1.1500e-02	0.8968	-3.040956	0.000576	5.757103	1.950559	0.045977
  25	1.2000e-02	0.9417	-2.855434	0.000465	4.646083	1.574135	0.037105
  26	1.2500e-02	0.9690	-2.798970	0.000141	1.414025	0.479085	0.011293
  27	1.3000e-02	1.0091	-2.367429	0.001081	10.807192	3.661576	0.086308
  28	1.3500e-02	1.0572	-2.319032	0.000121	1.212022	0.410644	0.009679
  29	1.4000e-02	1.0989	-2.637646	-0.000798	-7.979142	-2.703407	-0.063723
  30	1.4500e-02	1.1342	-2.097211	0.001353	13.534241	4.585525	0.108087
  31	1.5000e-02	1.1839	-1.915722	0.000455	4.545081	1.539915	0.036298
  32	1.5500e-02	1.2176	-1.972185	-0.000141	-1.414025	-0.479085	-0.011293
  33	1.6000e-02	1.2529	-1.677769	0.000737	7.373131	2.498085	0.058883
  34	1.6500e-02	1.2978	-1.685835	-0.000020	-0.202004	-0.068441	-0.001613
  35	1.7000e-02	1.3331	-1.512412	0.000434	4.343077	1.471474	0.034685
  36	1.7500e-02	1.3845	-1.464015	0.000121	1.212022	0.410644	0.009679
  37	1.8000e-02	1.4197	-1.222029	0.000606	6.060108	2.053220	0.048397
  38	1.8500e-02	1.4615	-1.080870	0.000354	3.535063	1.197712	0.028232
  39	1.9000e-02	1.4967	-0.822752	0.000646	6.464115	2.190101	0.051624
  40	1.9500e-02	1.5417	-0.689660	0.000333	3.333059	1.129271	0.026618
  41	2.0000e-02	1.5673	-0.713858	-0.000061	-0.606011	-0.205322	-0.004840
  42	2.0500e-02	1.6106	-0.576733	0.000343	3.434061	1.163491	0.027425
  43	2.1000e-02	1.6572	-0.302482	0.000687	6.868122	2.326983	0.054850
  44	2.1500e-02	1.7053	-0.213754	0.000222	2.222040	0.752847	0.017746
  45	2.2000e-02	1.7486	-0.004033	0.000525	5.252094	1.779457	0.041944
  46	2.2500e-02	1.7663	0.149225	0.000384	3.838068	1.300373	0.030652
  47	2.3000e-02	1.8064	0.318615	0.000424	4.242076	1.437254	0.033878
  48	2.3500e-02	1.8657	0.572700	0.000636	6.363113	2.155881	0.050817
  49	2.4000e-02	1.8962	0.467839	-0.000263	-2.626047	-0.889729	-0.020972
  50	2.4500e-02	1.9331	0.451707	-0.000040	-0.404007	-0.136881	-0.003226
  51	2.5000e-02	1.9716	0.899381	0.001121	11.211200	3.798457	0.089535
  52	2.5500e-02	2.0213	0.967944	0.000172	1.717031	0.581746	0.013713
  53	2.6000e-02	2.0598	1.133301	0.000414	4.141074	1.403034	0.033071
  54	2.6500e-02	2.0887	1.455949	0.000808	8.080144	2.737627	0.064530
  55	2.7000e-02	2.1368	1.395452	-0.000152	-1.515027	-0.513305	-0.012099
  56	2.7500e-02	2.1769	1.685835	0.000727	7.272129	2.463864	0.058077
  57	2.8000e-02	2.2170	1.645504	-0.000101	-1.010018	-0.342203	-0.008066
  58	2.8500e-02	2.2636	1.778596	0.000333	3.333059	1.129271	0.026618
  59	2.9000e-02	2.2973	1.895556	0.000293	2.929052	0.992390	0.023392
  60	2.9500e-02	2.3422	2.242403	0.000869	8.686155	2.942949	0.069369
  61	3.0000e-02	2.3759	2.359363	0.000293	2.929052	0.992390	0.023392
  62	3.0500e-02	2.4256	2.431958	0.000182	1.818032	0.615966	0.014519
  63	3.1000e-02	2.4561	2.653779	0.000556	5.555099	1.882118	0.044364
  64	3.1500e-02	2.4994	2.774772	0.000303	3.030054	1.026610	0.024199
  65	3.2000e-02	2.5411	3.085320	0.000778	7.777138	2.634966	0.062110
  66	3.2500e-02	2.5812	3.000625	-0.000212	-2.121038	-0.718627	-0.016939
  67	3.3000e-02	2.6149	3.355538	0.000889	8.888158	3.011390	0.070983
  68	3.3500e-02	2.6582	3.323273	-0.000081	-0.808014	-0.273763	-0.006453
  69	3.4000e-02	2.6903	3.545094	0.000556	5.555099	1.882118	0.044364
  70	3.4500e-02	2.7320	3.831444	0.000717	7.171128	2.429644	0.057270
  71	3.5000e-02	2.7833	3.774980	-0.000141	-1.414025	-0.479085	-0.011293
  72	3.5500e-02	2.8202	3.936304	0.000404	4.040072	1.368813	0.032265
  73	3.6000e-02	2.8507	4.267018	0.000828	8.282147	2.806068	0.066143
  74	3.6500e-02	2.8988	4.432375	0.000414	4.141074	1.403034	0.033071
  75	3.7000e-02	2.9229	4.379945	-0.000131	-1.313023	-0.444864	-0.010486
  76	3.7500e-02	2.9775	4.613865	0.000586	5.858104	1.984779	0.046784
  77	3.8000e-02	3.0176	4.678394	0.000162	1.616029	0.547525	0.012906
  78	3.8500e-02	3.0609	4.783255	0.000263	2.626047	0.889729	0.020972
  79	3.9000e-02	3.0930	5.057506	0.000687	6.868122	2.326983	0.054850
  80	3.9500e-02	3.1443	5.198664	0.000354	3.535063	1.197712	0.028232
  81	4.0000e-02	3.1732	5.456782	0.000646	6.464115	2.190101	0.051624
  82	4.0500e-02	3.2277	5.581808	0.000313	3.131056	1.060830	0.025005
  83	4.1000e-02	3.2646	5.634239	0.000131	1.313023	0.444864	0.010486
  84	4.1500e-02	3.3015	5.735066	0.000253	2.525045	0.855508	0.020165
  85	4.2000e-02	3.3336	5.940754	0.000515	5.151092	1.745237	0.041138
  86	4.2500e-02	3.3785	6.315832	0.000939	9.393167	3.182491	0.075016
  87	4.3000e-02	3.4250	6.384395	0.000172	1.717031	0.581746	0.013713
  88	4.3500e-02	3.4539	6.231137	-0.000384	-3.838068	-1.300373	-0.030652
  89	4.4000e-02	3.4892	6.428759	0.000495	4.949088	1.676796	0.039524
  90	4.4500e-02	3.5357	6.553785	0.000313	3.131056	1.060830	0.025005
  91	4.5000e-02	3.5790	6.872400	0.000798	7.979142	2.703407	0.063723
  92	4.5500e-02	3.6191	6.973227	0.000253	2.525045	0.855508	0.020165
  93	4.6000e-02	3.6593	7.021625	0.000121	1.212022	0.410644	0.009679
  94	4.6500e-02	3.6897	7.344273	0.000808	8.080144	2.737627	0.064530
  95	4.7000e-02	3.7363	7.348306	0.000010	0.101002	0.034220	0.000807
  96	4.7500e-02	3.7812	7.396703	0.000121	1.212022	0.410644	0.009679
  97	4.8000e-02	3.8181	7.666920	0.000677	6.767120	2.292762	0.054044
  98	4.8500e-02	3.8598	7.945204	0.000697	6.969124	2.361203	0.055657
  99	4.9000e-02	3.9063	8.090396	0.000364	3.636065	1.231932	0.029038
 100	4.9500e-02	3.9352	8.207356	0.000293	2.929052	0.992390	0.023392
 101	5.0000e-02	3.9849	8.243654	0.000091	0.909016	0.307983	0.007260
 102	5.0500e-02	4.0106	8.384812	0.000354	3.535063	1.197712	0.028232
 103	5.1000e-02	4.0619	8.703427	0.000798	7.979142	2.703407	0.063723
 104	5.1500e-02	4.0924	8.892982	0.000475	4.747085	1.608356	0.037911
 105	5.2000e-02	4.1373	8.921214	0.000071	0.707013	0.239542	0.005646
 106	5.2500e-02	4.1790	9.038174	0.000293	2.929052	0.992390	0.023392
 107	5.3000e-02	4.2207	9.066406	0.000071	0.707013	0.239542	0.005646
 108	5.3500e-02	4.2496	9.356789	0.000727	7.272129	2.463864	0.058077
 109	5.4000e-02	4.2961	9.651205	0.000737	7.373131	2.498085	0.058883
 110	5.4500e-02	4.3427	9.489881	-0.000404	-4.040072	-1.368813	-0.032265
 111	5.5000e-02	4.3747	9.917389	0.001071	10.706191	3.627356	0.085502
 112	5.5500e-02	4.4148	10.211806	0.000737	7.373131	2.498085	0.058883
 113	5.6000e-02	4.4614	10.078713	-0.000333	-3.333059	-1.129271	-0.026618
 114	5.6500e-02	4.4983	10.320699	0.000606	6.060108	2.053220	0.048397
 115	5.7000e-02	4.5400	10.522354	0.000505	5.050090	1.711017	0.040331
 116	5.7500e-02	4.5817	10.562685	0.000101	1.010018	0.342203	0.008066
 117	5.8000e-02	4.6106	10.897432	0.000838	8.383149	2.840288	0.066949
 118	5.8500e-02	4.6571	10.917598	0.000051	0.505009	0.171102	0.004033
 119	5.9000e-02	4.6988	11.022458	0.000263	2.626047	0.889729	0.020972
 120	5.9500e-02	4.7453	11.264444	0.000606	6.060108	2.053220	0.048397
 121	6.0000e-02	4.7726	11.583059	0.000798	7.979142	2.703407	0.063723
 122	6.0500e-02	4.8127	11.482232	-0.000253	-2.525045	-0.855508	-0.020165
 123	6.1000e-02	4.8592	11.611291	0.000323	3.232058	1.095051	0.025812
 124	6.1500e-02	4.8977	11.748416	0.000343	3.434061	1.163491	0.027425
 125	6.2000e-02	4.9266	11.933939	0.000465	4.646083	1.574135	0.037105
 126	6.2500e-02	4.9779	12.147693	0.000535	5.353095	1.813678	0.042751
 127	6.3000e-02	5.0132	12.119461	-0.000071	-0.707013	-0.239542	-0.005646
 128	6.3500e-02	5.0614	12.490506	0.000929	9.292165	3.148271	0.074209
 129	6.4000e-02	5.0999	12.724426	0.000586	5.858104	1.984779	0.046784
 130	6.4500e-02	5.1416	12.696194	-0.000071	-0.707013	-0.239542	-0.005646
 131	6.5000e-02	5.1785	12.934147	0.000596	5.959106	2.019000	0.047591
 132	6.5500e-02	5.2202	13.047074	0.000283	2.828050	0.958169	0.022585
 133	6.6000e-02	5.2587	13.244696	0.000495	4.949088	1.676796	0.039524
 134	6.6500e-02	5.3004	13.531046	0.000717	7.171128	2.429644	0.057270
 135	6.7000e-02	5.3373	13.704469	0.000434	4.343077	1.471474	0.034685
 136	6.7500e-02	5.3742	13.789164	0.000212	2.121038	0.718627	0.016939
 137	6.8000e-02	5.4159	13.764966	-0.000061	-0.606011	-0.205322	-0.004840
 138	6.8500e-02	5.4528	13.962587	0.000495	4.949088	1.676796	0.039524
 139	6.9000e-02	5.4945	14.240871	0.000697	6.969124	2.361203	0.055657
 140	6.9500e-02	5.5314	14.212639	-0.000071	-0.707013	-0.239542	-0.005646
 141	7.0000e-02	5.5891	14.515122	0.000758	7.575135	2.566525	0.060496
 142	7.0500e-02	5.6180	14.793406	0.000697	6.969124	2.361203	0.055657
 143	7.1000e-02	5.6581	14.700644	-0.000232	-2.323041	-0.787068	-0.018552
 144	7.1500e-02	5.7014	14.991028	0.000727	7.272129	2.463864	0.058077
 145	7.2000e-02	5.7319	15.148318	0.000394	3.939070	1.334593	0.031458
 146	7.2500e-02	5.7704	15.454834	0.000768	7.676137	2.600746	0.061303
 147	7.3000e-02	5.8169	15.358039	-0.000242	-2.424043	-0.821288	-0.019359
 148	7.3500e-02	5.8651	15.470966	0.000283	2.828050	0.958169	0.022585
 149	7.4000e-02	5.8907	15.793614	0.000808	8.080144	2.737627	0.064530
 150	7.4500e-02	5.9325	15.846044	0.000131	1.313023	0.444864	0.010486
 151	7.5000e-02	5.9758	16.124328	0.000697	6.969124	2.361203	0.055657
 152	7.5500e-02	6.0239	16.104163	-0.000051	-0.505009	-0.171102	-0.004033
 153	7.6000e-02	6.0592	16.495373	0.000980	9.797174	3.319373	0.078242
 154	7.6500e-02	6.0993	16.527638	0.000081	0.808014	0.273763	0.006453
 155	7.7000e-02	6.1282	16.737359	0.000525	5.252094	1.779457	0.041944
 156	7.7500e-02	6.1827	16.934981	0.000495	4.949088	1.676796	0.039524
 157	7.8000e-02	6.2164	16.797856	-0.000343	-3.434061	-1.163491	-0.027425
 158	7.8500e-02	6.2581	17.185033	0.000970	9.696173	3.285152	0.077435
 159	7.9000e-02	6.2998	17.475416	0.000727	7.272129	2.463864	0.058077
 160	7.9500e-02	6.3447	17.366523	-0.000273	-2.727049	-0.923949	-0.021779
 161	8.0000e-02	6.3736	17.709336	0.000859	8.585153	2.908729	0.068563
 162	8.0500e-02	6.4105	17.814197	0.000263	2.626047	0.889729	0.020972
 163	8.1000e-02	6.4602	18.249771	0.001091	10.908194	3.695796	0.087115
 164	8.1500e-02	6.4923	17.947289	-0.000758	-7.575135	-2.566525	-0.060496
 165	8.2000e-02	6.5340	17.878726	-0.000172	-1.717031	-0.581746	-0.013713
 166	8.2500e-02	6.5790	18.241705	0.000909	9.090162	3.079830	0.072596
 167	8.3000e-02	6.6143	18.544187	0.000758	7.575135	2.566525	0.060496
 168	8.3500e-02	6.6560	18.741809	0.000495	4.949088	1.676796	0.039524
 169	8.4000e-02	6.6913	18.874901	0.000333	3.333059	1.129271	0.026618
 170	8.4500e-02	6.7314	19.040259	0.000414	4.141074	1.403034	0.033071
 171	8.5000e-02	6.7779	19.169318	0.000323	3.232058	1.095051	0.025812
 172	8.5500e-02	6.8196	19.540363	0.000929	9.292165	3.148271	0.074209
 173	8.6000e-02	6.8565	19.391138	-0.000374	-3.737067	-1.266152	-0.029845
 174	8.6500e-02	6.8982	19.475833	0.000212	2.121038	0.718627	0.016939
 175	8.7000e-02	6.9351	19.564561	0.000222	2.222040	0.752847	0.017746
 176	8.7500e-02	6.9784	19.737985	0.000434	4.343077	1.471474	0.034685
 177	8.8000e-02	7.0169	20.000136	0.000657	6.565117	2.224322	0.052430
 178	8.8500e-02	7.0490	20.262287	0.000657	6.565117	2.224322	0.052430
 179	8.9000e-02	7.1003	20.278420	0.000040	0.404007	0.136881	0.003226
 180	8.9500e-02	7.1372	20.472009	0.000485	4.848086	1.642576	0.038718
 181	9.0000e-02	7.1709	20.750292	0.000697	6.969124	2.361203	0.055657
 182	9.0500e-02	7.2158	20.891451	0.000354	3.535063	1.197712	0.028232
 183	9.1000e-02	7.2608	20.951947	0.000152	1.515027	0.513305	0.012099
 184	9.1500e-02	7.3025	21.105205	0.000384	3.838068	1.300373	0.030652
 185	9.2000e-02	7.3362	21.032609	-0.000182	-1.818032	-0.615966	-0.014519
 186	9.2500e-02	7.3714	21.210066	0.000444	4.444079	1.505695	0.035491
 187	9.3000e-02	7.4164	21.484316	0.000687	6.868122	2.326983	0.054850
 188	9.3500e-02	7.4581	21.524647	0.000101	1.010018	0.342203	0.008066
 189	9.4000e-02	7.4966	21.476250	-0.000121	-1.212022	-0.410644	-0.009679
 190	9.4500e-02	7.5255	22.016685	0.001353	13.534241	4.585525	0.108087
 191	9.5000e-02	7.5800	22.258671	0.000606	6.060108	2.053220	0.048397
 192	9.5500e-02	7.6185	22.359499	0.000253	2.525045	0.855508	0.020165
 193	9.6000e-02	7.6570	22.823305	0.001162	11.615207	3.935339	0.092761
 194	9.6500e-02	7.7003	22.613584	-0.000525	-5.252094	-1.779457	-0.041944
 195	9.7000e-02	7.7324	22.682147	0.000172	1.717031	0.581746	0.013713
 196	9.7500e-02	7.7869	23.089489	0.001020	10.201182	3.456254	0.081469
 197	9.8000e-02	7.8238	23.004794	-0.000212	-2.121038	-0.718627	-0.016939
 198	9.8500e-02	7.8639	23.250813	0.000616	6.161110	2.087440	0.049204
 199	9.9000e-02	7.9025	23.484733	0.000586	5.858104	1.984779	0.046784
 200	9.9500e-02	7.9410	23.605726	0.000303	3.030054	1.026610	0.024199
 201	1.0000e-01	7.9746	23.839646	0.000586	5.858104	1.984779	0.046784
 202	1.0050e-01	8.0196	23.964672	0.000313	3.131056	1.060830	0.025005
 203	1.0100e-01	8.0709	24.073566	0.000273	2.727049	0.923949	0.021779
 204	1.0150e-01	8.0934	24.113897	0.000101	1.010018	0.342203	0.008066
 205	1.0200e-01	8.1431	24.206658	0.000232	2.323041	0.787068	0.018552
 206	1.0250e-01	8.1784	24.412346	0.000515	5.151092	1.745237	0.041138
 207	1.0300e-01	8.2185	24.666431	0.000636	6.363113	2.155881	0.050817
 208	1.0350e-01	8.2650	24.860020	0.000485	4.848086	1.642576	0.038718
 209	1.0400e-01	8.3131	24.997145	0.000343	3.434061	1.163491	0.027425
 210	1.0450e-01	8.3356	25.214932	0.000545	5.454097	1.847898	0.043557
 211	1.0500e-01	8.3757	25.307694	0.000232	2.323041	0.787068	0.018552
 212	1.0550e-01	8.4094	25.368190	0.000152	1.515027	0.513305	0.012099
 213	1.0600e-01	8.4607	25.751335	0.000960	9.595171	3.250932	0.076629
 214	1.0650e-01	8.4864	25.864261	0.000283	2.828050	0.958169	0.022585
 215	1.0700e-01	8.5329	25.771500	-0.000232	-2.323041	-0.787068	-0.018552
 216	1.0750e-01	8.5810	26.009453	0.000596	5.959106	2.019000	0.047591
 217	1.0800e-01	8.6131	26.307902	0.000747	7.474133	2.532305	0.059690
 218	1.0850e-01	8.6596	26.477292	0.000424	4.242076	1.437254	0.033878
 219	1.0900e-01	8.6965	26.566020	0.000222	2.222040	0.752847	0.017746
 220	1.0950e-01	8.7302	26.771709	0.000515	5.151092	1.745237	0.041138
 221	1.1000e-01	8.7752	26.892701	0.000303	3.030054	1.026610	0.024199
 222	1.1050e-01	8.8088	27.279879	0.000970	9.696173	3.285152	0.077435
 223	1.1100e-01	8.8650	27.215349	-0.000162	-1.616029	-0.547525	-0.012906
 224	1.1150e-01	8.8955	27.308111	0.000232	2.323041	0.787068	0.018552
 225	1.1200e-01	8.9388	27.384740	0.000192	1.919034	0.650186	0.015326
 226	1.1250e-01	8.9789	27.469435	0.000212	2.121038	0.718627	0.016939
 227	1.1300e-01	9.0126	27.820314	0.000879	8.787156	2.977169	0.070176
 228	1.1350e-01	9.0607	27.868711	0.000121	1.212022	0.410644	0.009679
 229	1.1400e-01	9.1024	28.203459	0.000838	8.383149	2.840288	0.066949
 230	1.1450e-01	9.1361	28.251856	0.000121	1.212022	0.410644	0.009679
 231	1.1500e-01	9.1714	28.413180	0.000404	4.040072	1.368813	0.032265
 232	1.1550e-01	9.2163	28.457544	0.000111	1.111020	0.376424	0.008873
 233	1.1600e-01	9.2596	28.792291	0.000838	8.383149	2.840288	0.066949
 234	1.1650e-01	9.2981	28.989913	0.000495	4.949088	1.676796	0.039524
 235	1.1700e-01	9.3398	28.881019	-0.000273	-2.727049	-0.923949	-0.021779
 236	1.1750e-01	9.3816	29.171402	0.000727	7.272129	2.463864	0.058077
 237	1.1800e-01	9.4265	29.409355	0.000596	5.959106	2.019000	0.047591
 238	1.1850e-01	9.4570	29.316594	-0.000232	-2.323041	-0.787068	-0.018552
 239	1.1900e-01	9.5003	29.748135	0.001081	10.807192	3.661576	0.086308
 240	1.1950e-01	9.5356	29.727970	-0.000051	-0.505009	-0.171102	-0.004033
 241	1.2000e-01	9.5741	30.038518	0.000778	7.777138	2.634966	0.062110
 242	1.2050e-01	9.6238	30.070783	0.000081	0.808014	0.273763	0.006453
 243	1.2100e-01	9.6591	30.482159	0.001030	10.302183	3.490474	0.082275
 244	1.2150e-01	9.7024	30.724145	0.000606	6.060108	2.053220	0.048397
 245	1.2200e-01	9.7409	30.615251	-0.000273	-2.727049	-0.923949	-0.021779
 246	1.2250e-01	9.7778	30.740278	0.000313	3.131056	1.060830	0.025005
 247	1.2300e-01	9.8147	31.091157	0.000879	8.787156	2.977169	0.070176
 248	1.2350e-01	9.8548	31.228282	0.000343	3.434061	1.163491	0.027425
 249	1.2400e-01	9.8933	31.119389	-0.000273	-2.727049	-0.923949	-0.021779
 250	1.2450e-01	9.9382	31.478335	0.000899	8.989160	3.045610	0.071789
 251	1.2500e-01	9.9783	31.470268	-0.000020	-0.202004	-0.068441	-0.001613
 252	1.2550e-01	10.0136	31.631592	0.000404	4.040072	1.368813	0.032265
 253	1.2600e-01	10.0617	31.784850	0.000384	3.838068	1.300373	0.030652
 254	1.2650e-01	10.0938	31.772751	-0.000030	-0.303005	-0.102661	-0.002420
 255	1.2700e-01	10.1404	32.115564	0.000859	8.585153	2.908729	0.068563
 256	1.2750e-01	10.1837	32.236557	0.000303	3.030054	1.026610	0.024199
 257	1.2800e-01	10.2158	32.430146	0.000485	4.848086	1.642576	0.038718
 258	1.2850e-01	10.2543	32.422080	-0.000020	-0.202004	-0.068441	-0.001613
 259	1.2900e-01	10.2960	32.950416	0.001323	13.231236	4.482864	0.105667
 260	1.2950e-01	10.3377	32.801191	-0.000374	-3.737067	-1.266152	-0.029845
 261	1.3000e-01	10.3826	32.950416	0.000374	3.737067	1.266152	0.029845
 262	1.3050e-01	10.4179	33.273063	0.000808	8.080144	2.737627	0.064530
 263	1.3100e-01	10.4612	33.486818	0.000535	5.353095	1.813678	0.042751
 264	1.3150e-01	10.5093	33.474718	-0.000030	-0.303005	-0.102661	-0.002420
 265	1.3200e-01	10.5398	33.486818	0.000030	0.303005	0.102661	0.002420
 266	1.3250e-01	10.5671	33.869962	0.000960	9.595171	3.250932	0.076629
 267	1.3300e-01	10.6104	34.067584	0.000495	4.949088	1.676796	0.039524
 268	1.3350e-01	10.6649	34.168411	0.000253	2.525045	0.855508	0.020165
 269	1.3400e-01	10.7034	34.152279	-0.000040	-0.404007	-0.136881	-0.003226
 270	1.3450e-01	10.7387	34.470894	0.000798	7.979142	2.703407	0.063723
 271	1.3500e-01	10.7804	34.543490	0.000182	1.818032	0.615966	0.014519
 272	1.3550e-01	10.8206	34.797575	0.000636	6.363113	2.155881	0.050817
 273	1.3600e-01	10.8591	34.648350	-0.000374	-3.737067	-1.266152	-0.029845
 274	1.3650e-01	10.9072	35.031494	0.000960	9.595171	3.250932	0.076629
 275	1.3700e-01	10.9345	35.321878	0.000727	7.272129	2.463864	0.058077
 276	1.3750e-01	10.9826	35.467069	0.000364	3.636065	1.231932	0.029038
 277	1.3800e-01	11.0275	35.676790	0.000525	5.252094	1.779457	0.041944
 278	1.3850e-01	11.0612	35.705022	0.000071	0.707013	0.239542	0.005646
 279	1.3900e-01	11.1013	35.785684	0.000202	2.020036	0.684407	0.016132
 280	1.3950e-01	11.1446	35.882478	0.000242	2.424043	0.821288	0.019359
 281	1.4000e-01	11.1687	36.217225	0.000838	8.383149	2.840288	0.066949
 282	1.4050e-01	11.2280	36.180928	-0.000091	-0.909016	-0.307983	-0.007260
 283	1.4100e-01	11.2521	36.519708	0.000848	8.484151	2.874508	0.067756
 284	1.4150e-01	11.3018	36.672966	0.000384	3.838068	1.300373	0.030652
 285	1.4200e-01	11.3307	36.854455	0.000455	4.545081	1.539915	0.036298
 286	1.4250e-01	11.3740	36.918985	0.000162	1.616029	0.547525	0.012906
 287	1.4300e-01	11.4189	37.056110	0.000343	3.434061	1.163491	0.027425
 288	1.4350e-01	11.4526	36.894786	-0.000404	-4.040072	-1.368813	-0.032265
 289	1.4400e-01	11.5023	37.322294	0.001071	10.706191	3.627356	0.085502
 290	1.4450e-01	11.5360	37.552181	0.000576	5.757103	1.950559	0.045977
 291	1.4500e-01	11.5810	37.588479	0.000091	0.909016	0.307983	0.007260
 292	1.4550e-01	11.6195	37.471519	-0.000293	-2.929052	-0.992390	-0.023392
 293	1.4600e-01	11.6660	37.616711	0.000364	3.636065	1.231932	0.029038
 294	1.4650e-01	11.6965	38.096649	0.001202	12.019214	4.072220	0.095988
 295	1.4700e-01	11.7334	38.298304	0.000505	5.050090	1.711017	0.040331
 296	1.4750e-01	11.7847	38.451562	0.000384	3.838068	1.300373	0.030652
 297	1.4800e-01	11.8120	38.536257	0.000212	2.121038	0.718627	0.016939
 298	1.4850e-01	11.8553	38.560456	0.000061	0.606011	0.205322	0.004840
 299	1.4900e-01	11.8938	38.762111	0.000505	5.050090	1.711017	0.040331
 300	1.4950e-01	11.9355	38.915368	0.000384	3.838068	1.300373	0.030652
 301	1.5000e-01	11.9740	39.145255	0.000576	5.757103	1.950559	0.045977
 302	1.5050e-01	12.0125	39.407406	0.000657	6.565117	2.224322	0.052430
 303	1.5100e-01	12.0542	39.359009	-0.000121	-1.212022	-0.410644	-0.009679
 304	1.5150e-01	12.0959	39.613094	0.000636	6.363113	2.155881	0.050817
 305	1.5200e-01	12.1328	39.697790	0.000212	2.121038	0.718627	0.016939
 306	1.5250e-01	12.1745	40.016404	0.000798	7.979142	2.703407	0.063723
 307	1.5300e-01	12.2243	40.008338	-0.000020	-0.202004	-0.068441	-0.001613
 308	1.5350e-01	12.2612	40.068835	0.000152	1.515027	0.513305	0.012099
 309	1.5400e-01	12.3013	40.133364	0.000162	1.616029	0.547525	0.012906
 310	1.5450e-01	12.3301	40.456012	0.000808	8.080144	2.737627	0.064530
 311	1.5500e-01	12.3767	40.520542	0.000162	1.616029	0.547525	0.012906
 312	1.5550e-01	12.4136	40.649601	0.000323	3.232058	1.095051	0.025812
 313	1.5600e-01	12.4601	40.935951	0.000717	7.171128	2.429644	0.057270
 314	1.5650e-01	12.4986	41.113407	0.000444	4.444079	1.505695	0.035491
 315	1.5700e-01	12.5419	41.246499	0.000333	3.333059	1.129271	0.026618
 316	1.5750e-01	12.5836	41.230367	-0.000040	-0.404007	-0.136881	-0.003226
 317	1.5800e-01	12.6205	41.593346	0.000909	9.090162	3.079830	0.072596
 318	1.5850e-01	12.6606	41.827266	0.000586	5.858104	1.984779	0.046784
 319	1.5900e-01	12.7023	41.669975	-0.000394	-3.939070	-1.334593	-0.031458
 320	1.5950e-01	12.7408	42.012788	0.000859	8.585153	2.908729	0.068563
 321	1.6000e-01	12.7761	42.238642	0.000566	5.656101	1.916339	0.045171
 322	1.6050e-01	12.8194	42.242675	0.000010	0.101002	0.034220	0.000807
 323	1.6100e-01	12.8515	42.448363	0.000515	5.151092	1.745237	0.041138
 324	1.6150e-01	12.9028	42.912169	0.001162	11.615207	3.935339	0.092761
 325	1.6200e-01	12.9381	42.730680	-0.000455	-4.545081	-1.539915	-0.036298
 326	1.6250e-01	12.9782	42.972666	0.000606	6.060108	2.053220	0.048397
 327	1.6300e-01	13.0216	42.843606	-0.000323	-3.232058	-1.095051	-0.025812
 328	1.6350e-01	13.0649	43.150122	0.000768	7.676137	2.600746	0.061303
 329	1.6400e-01	13.0889	43.291280	0.000354	3.535063	1.197712	0.028232
 330	1.6450e-01	13.1306	43.573597	0.000707	7.070126	2.395423	0.056463
 331	1.6500e-01	13.1659	43.513101	-0.000152	-1.515027	-0.513305	-0.012099
 332	1.6550e-01	13.2189	43.771219	0.000646	6.464115	2.190101	0.051624
 333	1.6600e-01	13.2606	43.956742	0.000465	4.646083	1.574135	0.037105
 334	1.6650e-01	13.3039	44.013205	0.000141	1.414025	0.479085	0.011293
 335	1.6700e-01	13.3440	43.936576	-0.000192	-1.919034	-0.650186	-0.015326
 336	1.6750e-01	13.3697	44.235025	0.000747	7.474133	2.532305	0.059690
 337	1.6800e-01	13.4242	44.468945	0.000586	5.858104	1.984779	0.046784
 338	1.6850e-01	13.4531	44.464912	-0.000010	-0.101002	-0.034220	-0.000807
 339	1.6900e-01	13.4900	44.553640	0.000222	2.222040	0.752847	0.017746
 340	1.6950e-01	13.5381	45.001314	0.001121	11.211200	3.798457	0.089535
 341	1.7000e-01	13.5814	45.259433	0.000646	6.464115	2.190101	0.051624
 342	1.7050e-01	13.6199	45.315896	0.000141	1.414025	0.479085	0.011293
 343	1.7100e-01	13.6616	45.086009	-0.000576	-5.757103	-1.950559	-0.045977
 344	1.7150e-01	13.7001	45.303797	0.000545	5.454097	1.847898	0.043557
 345	1.7200e-01	13.7322	45.703073	0.001000	9.999178	3.387813	0.079855
 346	1.7250e-01	13.7739	45.763570	0.000152	1.515027	0.513305	0.012099
 347	1.7300e-01	13.8253	45.936993	0.000434	4.343077	1.471474	0.034685
 348	1.7350e-01	13.8622	46.199144	0.000657	6.565117	2.224322	0.052430
 349	1.7400e-01	13.8975	46.178979	-0.000051	-0.505009	-0.171102	-0.004033
 350	1.7450e-01	13.9376	46.388700	0.000525	5.252094	1.779457	0.041944
 351	1.7500e-01	13.9841	46.424998	0.000091	0.909016	0.307983	0.007260
 352	1.7550e-01	14.0210	46.671017	0.000616	6.161110	2.087440	0.049204
 353	1.7600e-01	14.0595	46.723447	0.000131	1.313023	0.444864	0.010486
 354	1.7650e-01	14.1012	47.054161	0.000828	8.282147	2.806068	0.066143
 355	1.7700e-01	14.1349	47.175154	0.000303	3.030054	1.026610	0.024199
 356	1.7750e-01	14.1718	47.183221	0.000020	0.202004	0.068441	0.001613
 357	1.7800e-01	14.2135	47.360677	0.000444	4.444079	1.505695	0.035491
 358	1.7850e-01	14.2584	47.534100	0.000434	4.343077	1.471474	0.034685
 359	1.7900e-01	14.2953	47.642994	0.000273	2.727049	0.923949	0.021779
 360	1.7950e-01	14.3418	47.832549	0.000475	4.747085	1.608356	0.037911
 361	1.8000e-01	14.3723	48.030171	0.000495	4.949088	1.676796	0.039524
 362	1.8050e-01	14.4221	48.005973	-0.000061	-0.606011	-0.205322	-0.004840
 363	1.8100e-01	14.4541	48.231826	0.000566	5.656101	1.916339	0.045171
 364	1.8150e-01	14.4942	48.598838	0.000919	9.191164	3.114051	0.073402
 365	1.8200e-01	14.5488	48.389117	-0.000525	-5.252094	-1.779457	-0.041944
 366	1.8250e-01	14.5793	48.610937	0.000556	5.555099	1.882118	0.044364
 367	1.8300e-01	14.6242	48.881155	0.000677	6.767120	2.292762	0.054044
 368	1.8350e-01	14.6595	48.925519	0.000111	1.111020	0.376424	0.008873
 369	1.8400e-01	14.7028	48.933585	0.000020	0.202004	0.068441	0.001613
 370	1.8450e-01	14.7381	49.183637	0.000626	6.262111	2.121661	0.050010
 371	1.8500e-01	14.7814	49.284465	0.000253	2.525045	0.855508	0.020165
 372	1.8550e-01	14.8071	49.615179	0.000828	8.282147	2.806068	0.066143
 373	1.8600e-01	14.8552	49.748271	0.000333	3.333059	1.129271	0.026618
 374	1.8650e-01	14.8937	49.748271	0.000000	0.000000	0.000000	0.000000
 375	1.8700e-01	14.9322	49.816834	0.000172	1.717031	0.581746	0.013713
 376	1.8750e-01	14.9771	50.107217	0.000727	7.272129	2.463864	0.058077
 377	1.8800e-01	15.0204	50.244342	0.000343	3.434061	1.163491	0.027425
 378	1.8850e-01	15.0573	50.393567	0.000374	3.737067	1.266152	0.029845
 379	1.8900e-01	15.1022	50.687983	0.000737	7.373131	2.498085	0.058883
 380	1.8950e-01	15.1359	50.756546	0.000172	1.717031	0.581746	0.013713
 381	1.9000e-01	15.1744	50.800910	0.000111	1.111020	0.376424	0.008873
 382	1.9050e-01	15.2097	50.954168	0.000384	3.838068	1.300373	0.030652
 383	1.9100e-01	15.2434	51.224385	0.000677	6.767120	2.292762	0.054044
 384	1.9150e-01	15.2980	51.260683	0.000091	0.909016	0.307983	0.007260
 385	1.9200e-01	15.3429	51.180021	-0.000202	-2.020036	-0.684407	-0.016132
 386	1.9250e-01	15.3734	51.611563	0.001081	10.807192	3.661576	0.086308
 387	1.9300e-01	15.4071	51.930178	0.000798	7.979142	2.703407	0.063723
 388	1.9350e-01	15.4568	51.954376	0.000061	0.606011	0.205322	0.004840
 389	1.9400e-01	15.4921	51.950343	-0.000010	-0.101002	-0.034220	-0.000807
 390	1.9450e-01	15.5418	52.123766	0.000434	4.343077	1.471474	0.034685
 391	1.9500e-01	15.5755	52.341554	0.000545	5.454097	1.847898	0.043557
 392	1.9550e-01	15.6108	52.454480	0.000283	2.828050	0.958169	0.022585
 393	1.9600e-01	15.6445	52.454480	0.000000	0.000000	0.000000	0.000000
 394	1.9650e-01	15.6990	52.902154	0.001121	11.211200	3.798457	0.089535
 395	1.9700e-01	15.7279	52.861823	-0.000101	-1.010018	-0.342203	-0.008066
 396	1.9750e-01	15.7664	52.853757	-0.000020	-0.202004	-0.068441	-0.001613
 397	1.9800e-01	15.8225	52.906187	0.000131	1.313023	0.444864	0.010486
 398	1.9850e-01	15.8610	53.301431	0.000990	9.898176	3.353593	0.079049
 399	1.9900e-01	15.8883	53.414358	0.000283	2.828050	0.958169	0.022585
 400	1.9950e-01	15.9381	53.422424	0.000020	0.202004	0.068441	0.001613
 401	2.0000e-01	15.9782	53.652311	0.000576	5.757103	1.950559	0.045977
 402	2.0050e-01	16.0167	53.660377	0.000020	0.202004	0.068441	0.001613
 403	2.0100e-01	16.0568	53.857999	0.000495	4.949088	1.676796	0.039524
 404	2.0150e-01	16.0937	54.132249	0.000687	6.868122	2.326983	0.054850
 405	2.0200e-01	16.1386	54.204845	0.000182	1.818032	0.615966	0.014519
 406	2.0250e-01	16.1771	54.007223	-0.000495	-4.949088	-1.676796	-0.039524
 407	2.0300e-01	16.2124	54.374235	0.000919	9.191164	3.114051	0.073402
 408	2.0350e-01	16.2589	54.789645	0.001040	10.403185	3.524695	0.083082
 409	2.0400e-01	16.2974	54.733181	-0.000141	-1.414025	-0.479085	-0.011293
 410	2.0450e-01	16.3375	55.031630	0.000747	7.474133	2.532305	0.059690
 411	2.0500e-01	16.3664	55.249418	0.000545	5.454097	1.847898	0.043557
 412	2.0550e-01	16.4161	55.245385	-0.000010	-0.101002	-0.034220	-0.000807
 413	2.0600e-01	16.4530	55.398642	0.000384	3.838068	1.300373	0.030652
 414	2.0650e-01	16.5027	55.426874	0.000071	0.707013	0.239542	0.005646
 415	2.0700e-01	16.5380	55.539801	0.000283	2.828050	0.958169	0.022585
 416	2.0750e-01	16.5781	55.745489	0.000515	5.151092	1.745237	0.041138
 417	2.0800e-01	16.6166	55.979409	0.000586	5.858104	1.984779	0.046784
 418	2.0850e-01	16.6535	56.221395	0.000606	6.060108	2.053220	0.048397
 419	2.0900e-01	16.6969	56.386752	0.000414	4.141074	1.403034	0.033071
 420	2.0950e-01	16.7305	56.414983	0.000071	0.707013	0.239542	0.005646
 421	2.1000e-01	16.7771	56.576307	0.000404	4.040072	1.368813	0.032265
 422	2.1050e-01	16.8252	56.612605	0.000091	0.909016	0.307983	0.007260
 423	2.1100e-01	16.8557	56.721499	0.000273	2.727049	0.923949	0.021779
 424	2.1150e-01	16.9022	56.761830	0.000101	1.010018	0.342203	0.008066
 425	2.1200e-01	16.9327	57.201437	0.001101	11.009196	3.730017	0.087922
 426	2.1250e-01	16.9744	57.314364	0.000283	2.828050	0.958169	0.022585
 427	2.1300e-01	17.0161	57.411159	0.000242	2.424043	0.821288	0.019359
 428	2.1350e-01	17.0578	57.419225	0.000020	0.202004	0.068441	0.001613
 429	2.1400e-01	17.1011	57.641045	0.000556	5.555099	1.882118	0.044364
 430	2.1450e-01	17.1332	57.596681	-0.000111	-1.111020	-0.376424	-0.008873
 431	2.1500e-01	17.1749	57.975792	0.000949	9.494169	3.216712	0.075822
 432	2.1550e-01	17.2134	58.165348	0.000475	4.747085	1.608356	0.037911
 433	2.1600e-01	17.2615	58.197613	0.000081	0.808014	0.273763	0.006453
 434	2.1650e-01	17.2952	58.354904	0.000394	3.939070	1.334593	0.031458
 435	2.1700e-01	17.3466	58.387168	0.000081	0.808014	0.273763	0.006453
 436	2.1750e-01	17.3770	58.399268	0.000030	0.303005	0.102661	0.002420
 437	2.1800e-01	17.4107	58.665452	0.000667	6.666119	2.258542	0.053237
 438	2.1850e-01	17.4476	59.032464	0.000919	9.191164	3.114051	0.073402
 439	2.1900e-01	17.5038	59.072795	0.000101	1.010018	0.342203	0.008066
 440	2.1950e-01	17.5327	59.076828	0.000010	0.101002	0.034220	0.000807
 441	2.2000e-01	17.5728	59.217987	0.000354	3.535063	1.197712	0.028232
 442	2.2050e-01	17.6161	59.540635	0.000808	8.080144	2.737627	0.064530
 443	2.2100e-01	17.6594	59.524502	-0.000040	-0.404007	-0.136881	-0.003226
 444	2.2150e-01	17.6947	59.564833	0.000101	1.010018	0.342203	0.008066
 445	2.2200e-01	17.7332	59.863283	0.000747	7.474133	2.532305	0.059690
 446	2.2250e-01	17.7765	59.851183	-0.000030	-0.303005	-0.102661	-0.002420
 447	2.2300e-01	17.8134	59.992342	0.000354	3.535063	1.197712	0.028232
 448	2.2350e-01	17.8583	60.314990	0.000808	8.080144	2.737627	0.064530
 449	2.2400e-01	17.8840	60.682002	0.000919	9.191164	3.114051	0.073402
 450	2.2450e-01	17.9401	60.532777	-0.000374	-3.737067	-1.266152	-0.029845
 451	2.2500e-01	17.9770	60.798961	0.000667	6.666119	2.258542	0.053237
 452	2.2550e-01	18.0187	60.665869	-0.000333	-3.333059	-1.129271	-0.026618
 453	2.2600e-01	18.0572	60.851392	0.000465	4.646083	1.574135	0.037105
 454	2.2650e-01	18.0925	61.182106	0.000828	8.282147	2.806068	0.066143
 455	2.2700e-01	18.1375	61.077245	-0.000263	-2.626047	-0.889729	-0.020972
 456	2.2750e-01	18.1776	61.484588	0.001020	10.201182	3.456254	0.081469
 457	2.2800e-01	18.2193	61.718508	0.000586	5.858104	1.984779	0.046784
 458	2.2850e-01	18.2562	61.783037	0.000162	1.616029	0.547525	0.012906
 459	2.2900e-01	18.3027	61.831435	0.000121	1.212022	0.410644	0.009679
 460	2.2950e-01	18.3396	61.456357	-0.000939	-9.393167	-3.182491	-0.075016
 461	2.3000e-01	18.3637	61.827402	0.000929	9.292165	3.148271	0.074209
 462	2.3050e-01	18.4246	62.186347	0.000899	8.989160	3.045610	0.071789
 463	2.3100e-01	18.4647	62.206513	0.000051	0.505009	0.171102	0.004033
 464	2.3150e-01	18.5080	62.311373	0.000263	2.626047	0.889729	0.020972
 465	2.3200e-01	18.5417	62.597723	0.000717	7.171128	2.429644	0.057270
 466	2.3250e-01	18.5802	62.351704	-0.000616	-6.161110	-2.087440	-0.049204
 467	2.3300e-01	18.6187	62.904239	0.001384	13.837246	4.688186	0.110507
 468	2.3350e-01	18.6685	62.988934	0.000212	2.121038	0.718627	0.016939
 469	2.3400e-01	18.7038	63.069596	0.000202	2.020036	0.684407	0.016132
 470	2.3450e-01	18.7390	63.182523	0.000283	2.828050	0.958169	0.022585
 471	2.3500e-01	18.7808	63.388211	0.000515	5.151092	1.745237	0.041138
 472	2.3550e-01	18.8289	63.497104	0.000273	2.727049	0.923949	0.021779
 473	2.3600e-01	18.8594	63.589866	0.000232	2.323041	0.787068	0.018552
 474	2.3650e-01	18.8963	63.956878	0.000919	9.191164	3.114051	0.073402
 475	2.3700e-01	18.9364	63.956878	0.000000	0.000000	0.000000	0.000000
 476	2.3750e-01	18.9733	64.178698	0.000556	5.555099	1.882118	0.044364
 477	2.3800e-01	19.0198	64.255327	0.000192	1.919034	0.650186	0.015326
 478	2.3850e-01	19.0519	64.497313	0.000606	6.060108	2.053220	0.048397
 479	2.3900e-01	19.1048	64.299691	-0.000495	-4.949088	-1.676796	-0.039524
 480	2.3950e-01	19.1401	64.428750	0.000323	3.232058	1.095051	0.025812
 481	2.4000e-01	19.1770	64.694935	0.000667	6.666119	2.258542	0.053237
 482	2.4050e-01	19.2267	64.731233	0.000091	0.909016	0.307983	0.007260
 483	2.4100e-01	19.2636	65.126476	0.000990	9.898176	3.353593	0.079049
 484	2.4150e-01	19.2973	65.376528	0.000626	6.262111	2.121661	0.050010
 485	2.4200e-01	19.3567	65.150675	-0.000566	-5.656101	-1.916339	-0.045171
 486	2.4250e-01	19.3775	65.771772	0.001555	15.554277	5.269932	0.124219
 487	2.4300e-01	19.4257	65.711276	-0.000152	-1.515027	-0.513305	-0.012099
 488	2.4350e-01	19.4545	65.662878	-0.000121	-1.212022	-0.410644	-0.009679
 489	2.4400e-01	19.4962	65.715309	0.000131	1.313023	0.444864	0.010486
 490	2.4450e-01	19.5347	65.949228	0.000586	5.858104	1.984779	0.046784
 491	2.4500e-01	19.5797	66.050056	0.000253	2.525045	0.855508	0.020165
 492	2.4550e-01	19.6198	66.227512	0.000444	4.444079	1.505695	0.035491
 493	2.4600e-01	19.6519	66.316240	0.000222	2.222040	0.752847	0.017746
 494	2.4650e-01	19.6952	66.767947	0.001131	11.312201	3.832678	0.090341
 495	2.4700e-01	19.7305	66.751815	-0.000040	-0.404007	-0.136881	-0.003226
 496	2.4750e-01	19.7770	67.017999	0.000667	6.666119	2.258542	0.053237
 497	2.4800e-01	19.8139	67.005900	-0.000030	-0.303005	-0.102661	-0.002420
 498	2.4850e-01	19.8588	67.054297	0.000121	1.212022	0.410644	0.009679
 499	2.4900e-01	19.8989	67.243853	0.000475	4.747085	1.608356	0.037911
 500	2.4950e-01	19.9326	67.465673	0.000556	5.555099	1.882118	0.044364
 501	2.5000e-01	19.9823	67.602799	0.000343	3.434061	1.163491	0.027425
 502	2.5050e-01	19.9871	67.312416	-0.000727	-7.272129	-2.463864	-0.058077
 503	2.5100e-01	19.9599	67.207555	0.000263	2.626047	0.889729	-0.020972
 504	2.5150e-01	19.9085	66.973635	0.000586	5.858104	1.984779	-0.046784
 505	2.5200e-01	19.8845	66.909106	0.000162	1.616029	0.547525	-0.012906
 506	2.5250e-01	19.8331	67.138992	-0.000576	-5.757103	-1.950559	0.045977
 507	2.5300e-01	19.7914	66.796179	0.000859	8.585153	2.908729	-0.068563
 508	2.5350e-01	19.7658	66.905073	-0.000273	-2.727049	-0.923949	0.021779
 509	2.5400e-01	19.7128	66.743749	0.000404	4.040072	1.368813	-0.032265
 510	2.5450e-01	19.6775	66.481597	0.000657	6.565117	2.224322	-0.052430
 511	2.5500e-01	19.6374	66.602590	-0.000303	-3.030054	-1.026610	0.024199
 512	2.5550e-01	19.6005	66.400935	0.000505	5.050090	1.711017	-0.040331
 513	2.5600e-01	19.5492	66.328340	0.000182	1.818032	0.615966	-0.014519
 514	2.5650e-01	19.5139	66.005692	0.000808	8.080144	2.737627	-0.064530
 515	2.5700e-01	19.4770	65.969394	0.000091	0.909016	0.307983	-0.007260
 516	2.5750e-01	19.4353	65.767739	0.000505	5.050090	1.711017	-0.040331
 517	2.5800e-01	19.3936	65.553985	0.000535	5.353095	1.813678	-0.042751
 518	2.5850e-01	19.3503	65.824202	-0.000677	-6.767120	-2.292762	0.054044
 519	2.5900e-01	19.3134	65.670945	0.000384	3.838068	1.300373	-0.030652
 520	2.5950e-01	19.2781	65.332164	0.000848	8.484151	2.874508	-0.067756
 521	2.6000e-01	19.2380	65.082112	0.000626	6.262111	2.121661	-0.050010
 522	2.6050e-01	19.2107	65.045814	0.000091	0.909016	0.307983	-0.007260
 523	2.6100e-01	19.1577	65.307966	-0.000657	-6.565117	-2.224322	0.052430
 524	2.6150e-01	19.1209	64.936921	0.000929	9.292165	3.148271	-0.074209
 525	2.6200e-01	19.0807	64.582008	0.000889	8.888158	3.011390	-0.070983
 526	2.6250e-01	19.0455	64.646537	-0.000162	-1.616029	-0.547525	0.012906
 527	2.6300e-01	18.9845	64.743332	-0.000242	-2.424043	-0.821288	0.019359
 528	2.6350e-01	18.9620	64.719133	0.000061	0.606011	0.205322	-0.004840
 529	2.6400e-01	18.9251	64.525545	0.000485	4.848086	1.642576	-0.038718
 530	2.6450e-01	18.8738	64.142400	0.000960	9.595171	3.250932	-0.076629
 531	2.6500e-01	18.8321	64.134334	0.000020	0.202004	0.068441	-0.001613
 532	2.6550e-01	18.8064	63.948811	0.000465	4.646083	1.574135	-0.037105
 533	2.6600e-01	18.7535	63.694726	0.000636	6.363113	2.155881	-0.050817
 534	2.6650e-01	18.7262	63.739090	-0.000111	-1.111020	-0.376424	0.008873
 535	2.6700e-01	18.6749	63.795554	-0.000141	-1.414025	-0.479085	0.011293
 536	2.6750e-01	18.6396	63.626164	0.000424	4.242076	1.437254	-0.033878
 537	2.6800e-01	18.6027	63.456773	0.000424	4.242076	1.437254	-0.033878
 538	2.6850e-01	18.5562	63.396277	0.000152	1.515027	0.513305	-0.012099
 539	2.6900e-01	18.5257	63.222854	0.000434	4.343077	1.471474	-0.034685
 540	2.6950e-01	18.4856	63.162357	0.000152	1.515027	0.513305	-0.012099
 541	2.7000e-01	18.4423	63.089761	0.000182	1.818032	0.615966	-0.014519
 542	2.7050e-01	18.3973	62.888107	0.000505	5.050090	1.711017	-0.040331
 543	2.7100e-01	18.3604	62.855842	0.000081	0.808014	0.273763	-0.006453
 544	2.7150e-01	18.3171	62.779213	0.000192	1.919034	0.650186	-0.015326
 545	2.7200e-01	18.2722	62.529161	0.000626	6.262111	2.121661	-0.050010
 546	2.7250e-01	18.2385	62.412201	0.000293	2.929052	0.992390	-0.023392
 547	2.7300e-01	18.1952	62.097619	0.000788	7.878140	2.669186	-0.062916
 548	2.7350e-01	18.1551	62.069387	0.000071	0.707013	0.239542	-0.005646
 549	2.7400e-01	18.1118	61.912097	0.000394	3.939070	1.334593	-0.031458
 550	2.7450e-01	18.0797	61.859666	0.000131	1.313023	0.444864	-0.010486
 551	2.7500e-01	18.0364	61.783037	0.000192	1.919034	0.650186	-0.015326
 552	2.7550e-01	18.0059	61.702376	0.000202	2.020036	0.684407	-0.016132
 553	2.7600e-01	17.9530	61.528952	0.000434	4.343077	1.471474	-0.034685
 554	2.7650e-01	17.9225	61.569283	-0.000101	-1.010018	-0.342203	0.008066
 555	2.7700e-01	17.8792	61.371661	0.000495	4.949088	1.676796	-0.039524
 556	2.7750e-01	17.8455	61.036914	0.000838	8.383149	2.840288	-0.066949
 557	2.7800e-01	17.7974	61.024815	0.000030	0.303005	0.102661	-0.002420
 558	2.7850e-01	17.7653	60.669902	0.000889	8.888158	3.011390	-0.070983
 559	2.7900e-01	17.7252	60.577141	0.000232	2.323041	0.787068	-0.018552
 560	2.7950e-01	17.6738	60.702167	-0.000313	-3.131056	-1.060830	0.025005
 561	2.8000e-01	17.6353	60.609406	0.000232	2.323041	0.787068	-0.018552
 562	2.8050e-01	17.6065	60.367420	0.000606	6.060108	2.053220	-0.048397
 563	2.8100e-01	17.5551	60.234328	0.000333	3.333059	1.129271	-0.026618
 564	2.8150e-01	17.5182	60.270626	-0.000091	-0.909016	-0.307983	0.007260
 565	2.8200e-01	17.4669	60.008474	0.000657	6.565117	2.224322	-0.052430
 566	2.8250e-01	17.4380	59.923779	0.000212	2.121038	0.718627	-0.016939
 567	2.8300e-01	17.3963	59.867316	0.000141	1.414025	0.479085	-0.011293
 568	2.8350e-01	17.3642	59.556767	0.000778	7.777138	2.634966	-0.062110
 569	2.8400e-01	17.3209	59.601131	-0.000111	-1.111020	-0.376424	0.008873
 570	2.8450e-01	17.2824	59.439807	0.000404	4.040072	1.368813	-0.032265
 571	2.8500e-01	17.2455	59.355112	0.000212	2.121038	0.718627	-0.016939
 572	2.8550e-01	17.2054	59.201854	0.000384	3.838068	1.300373	-0.030652
 573	2.8600e-01	17.1557	59.149424	0.000131	1.313023	0.444864	-0.010486
 574	2.8650e-01	17.1220	58.907438	0.000606	6.060108	2.053220	-0.048397
 575	2.8700e-01	17.0835	58.758214	0.000374	3.737067	1.266152	-0.029845
 576	2.8750e-01	17.0450	58.544459	0.000535	5.353095	1.813678	-0.042751
 577	2.8800e-01	16.9936	58.512195	0.000081	0.808014	0.273763	-0.006453
 578	2.8850e-01	16.9487	58.181480	0.000828	8.282147	2.806068	-0.066143
 579	2.8900e-01	16.9070	58.129050	0.000131	1.313023	0.444864	-0.010486
 580	2.8950e-01	16.8685	58.258109	-0.000323	-3.232058	-1.095051	0.025812
 581	2.9000e-01	16.8332	57.991925	0.000667	6.666119	2.258542	-0.053237
 582	2.9050e-01	16.8011	57.987892	0.000010	0.101002	0.034220	-0.000807
 583	2.9100e-01	16.7498	57.858833	0.000323	3.232058	1.095051	-0.025812
 584	2.9150e-01	16.7129	57.596681	0.000657	6.565117	2.224322	-0.052430
 585	2.9200e-01	16.6696	57.463589	0.000333	3.333059	1.129271	-0.026618
 586	2.9250e-01	16.6407	57.544251	-0.000202	-2.020036	-0.684407	0.016132
 587	2.9300e-01	16.6070	57.205471	0.000848	8.484151	2.874508	-0.067756
 588	2.9350e-01	16.5573	57.197404	0.000020	0.202004	0.068441	-0.001613
 589	2.9400e-01	16.5172	57.084478	0.000283	2.828050	0.958169	-0.022585
 590	2.9450e-01	16.4835	56.874756	0.000525	5.252094	1.779457	-0.041944
 591	2.9500e-01	16.4434	56.725532	0.000374	3.737067	1.266152	-0.029845
 592	2.9550e-01	16.4001	56.471447	0.000636	6.363113	2.155881	-0.050817
 593	2.9600e-01	16.3632	56.293990	0.000444	4.444079	1.505695	-0.035491
 594	2.9650e-01	16.3247	56.386752	-0.000232	-2.323041	-0.787068	0.018552
 595	2.9700e-01	16.2862	56.298023	0.000222	2.222040	0.752847	-0.017746
 596	2.9750e-01	16.2380	56.225428	0.000182	1.818032	0.615966	-0.014519
 597	2.9800e-01	16.1979	55.632562	0.001485	14.847264	5.030389	-0.118573
 598	2.9850e-01	16.1562	55.616430	0.000040	0.404007	0.136881	-0.003226
 599	2.9900e-01	16.1225	55.773721	-0.000394	-3.939070	-1.334593	0.031458
 600	2.9950e-01	16.0728	55.584165	0.000475	4.747085	1.608356	-0.037911
 601	3.0000e-01	16.0391	55.584165	-0.000000	-0.000000	-0.000000	0.000000
 602	3.0050e-01	15.9814	55.430907	0.000384	3.838068	1.300373	-0.030652
 603	3.0100e-01	15.9557	55.084061	0.000869	8.686155	2.942949	-0.069369
 604	3.0150e-01	15.9268	55.152623	-0.000172	-1.717031	-0.581746	0.013713
 605	3.0200e-01	15.8739	54.987266	0.000414	4.141074	1.403034	-0.033071
 606	3.0250e-01	15.8418	54.813843	0.000434	4.343077	1.471474	-0.034685
 607	3.0300e-01	15.8017	54.753347	0.000152	1.515027	0.513305	-0.012099
 608	3.0350e-01	15.7536	54.543625	0.000525	5.252094	1.779457	-0.041944
 609	3.0400e-01	15.7135	54.410533	0.000333	3.333059	1.129271	-0.026618
 610	3.0450e-01	15.6830	54.479096	-0.000172	-1.717031	-0.581746	0.013713
 611	3.0500e-01	15.6429	54.180647	0.000747	7.474133	2.532305	-0.059690
 612	3.0550e-01	15.6076	54.023356	0.000394	3.939070	1.334593	-0.031458
 613	3.0600e-01	15.5627	53.890264	0.000333	3.333059	1.129271	-0.026618
 614	3.0650e-01	15.5097	53.902363	-0.000030	-0.303005	-0.102661	0.002420
 615	3.0700e-01	15.4808	53.769271	0.000333	3.333059	1.129271	-0.026618
 616	3.0750e-01	15.4391	53.495020	0.000687	6.868122	2.326983	-0.054850
 617	3.0800e-01	15.3830	53.527285	-0.000081	-0.808014	-0.273763	0.006453
 618	3.0850e-01	15.3589	53.156240	0.000929	9.292165	3.148271	-0.074209
 619	3.0900e-01	15.3092	53.059445	0.000242	2.424043	0.821288	-0.019359
 620	3.0950e-01	15.2755	52.644036	0.001040	10.403185	3.524695	-0.083082
 621	3.1000e-01	15.2450	52.990883	-0.000869	-8.686155	-2.942949	0.069369
 622	3.1050e-01	15.2049	52.752930	0.000596	5.959106	2.019000	-0.047591
 623	3.1100e-01	15.1552	52.672268	0.000202	2.020036	0.684407	-0.016132
 624	3.1150e-01	15.1247	52.474646	0.000495	4.949088	1.676796	-0.039524
 625	3.1200e-01	15.0830	52.260892	0.000535	5.353095	1.813678	-0.042751
 626	3.1250e-01	15.0381	51.994707	0.000667	6.666119	2.258542	-0.053237
 627	3.1300e-01	15.0012	52.079402	-0.000212	-2.121038	-0.718627	0.016939
 628	3.1350e-01	14.9579	51.897913	0.000455	4.545081	1.539915	-0.036298
 629	3.1400e-01	14.9178	51.938244	-0.000101	-1.010018	-0.342203	0.008066
 630	3.1450e-01	14.8825	51.748688	0.000475	4.747085	1.608356	-0.037911
 631	3.1500e-01	14.8424	51.462338	0.000717	7.171128	2.429644	-0.057270
 632	3.1550e-01	14.8055	51.555099	-0.000232	-2.323041	-0.787068	0.018552
 633	3.1600e-01	14.7605	51.405875	0.000374	3.737067	1.266152	-0.029845
 634	3.1650e-01	14.7172	50.966267	0.001101	11.009196	3.730017	-0.087922
 635	3.1700e-01	14.6755	50.954168	0.000030	0.303005	0.102661	-0.002420
 636	3.1750e-01	14.6386	50.772678	0.000455	4.545081	1.539915	-0.036298
 637	3.1800e-01	14.5985	50.671851	0.000253	2.525045	0.855508	-0.020165
 638	3.1850e-01	14.5632	50.510527	0.000404	4.040072	1.368813	-0.032265
 639	3.1900e-01	14.5231	50.312905	0.000495	4.949088	1.676796	-0.039524
 640	3.1950e-01	14.4830	50.333071	-0.000051	-0.505009	-0.171102	0.004033
 641	3.2000e-01	14.4445	50.195945	0.000343	3.434061	1.163491	-0.027425
 642	3.2050e-01	14.4028	50.195945	-0.000000	-0.000000	-0.000000	0.000000
 643	3.2100e-01	14.3643	49.683742	0.001283	12.827228	4.345983	-0.102441
 644	3.2150e-01	14.3226	49.716006	-0.000081	-0.808014	-0.273763	0.006453
 645	3.2200e-01	14.2857	49.748271	-0.000081	-0.808014	-0.273763	0.006453
 646	3.2250e-01	14.2472	49.461921	0.000717	7.171128	2.429644	-0.057270
 647	3.2300e-01	14.2071	49.034413	0.001071	10.706191	3.627356	-0.085502
 648	3.2350e-01	14.1606	49.199770	-0.000414	-4.141074	-1.403034	0.033071
 649	3.2400e-01	14.1237	48.986016	0.000535	5.353095	1.813678	-0.042751
 650	3.2450e-01	14.0739	48.832758	0.000384	3.838068	1.300373	-0.030652
 651	3.2500e-01	14.0451	48.901321	-0.000172	-1.717031	-0.581746	0.013713
 652	3.2550e-01	14.0017	48.768228	0.000333	3.333059	1.129271	-0.026618
 653	3.2600e-01	13.9600	48.748063	0.000051	0.505009	0.171102	-0.004033
 654	3.2650e-01	13.9215	48.586739	0.000404	4.040072	1.368813	-0.032265
 655	3.2700e-01	13.8830	48.538342	0.000121	1.212022	0.410644	-0.009679
 656	3.2750e-01	13.8445	48.070502	0.001172	11.716209	3.969559	-0.093568
 657	3.2800e-01	13.8044	48.001940	0.000172	1.717031	0.581746	-0.013713
 658	3.2850e-01	13.7579	48.094701	-0.000232	-2.323041	-0.787068	0.018552
 659	3.2900e-01	13.7274	47.788185	0.000768	7.676137	2.600746	-0.061303
 660	3.2950e-01	13.6761	47.465537	0.000808	8.080144	2.737627	-0.064530
 661	3.3000e-01	13.6408	47.308247	0.000394	3.939070	1.334593	-0.031458
 662	3.3050e-01	13.5911	47.570398	-0.000657	-6.565117	-2.224322	0.052430
 663	3.3100e-01	13.5574	47.271949	0.000747	7.474133	2.532305	-0.059690
 664	3.3150e-01	13.5253	46.985599	0.000717	7.171128	2.429644	-0.057270
 665	3.3200e-01	13.4804	47.058194	-0.000182	-1.818032	-0.615966	0.014519
 666	3.3250e-01	13.4483	46.933168	0.000313	3.131056	1.060830	-0.025005
 667	3.3300e-01	13.3905	46.759745	0.000434	4.343077	1.471474	-0.034685
 668	3.3350e-01	13.3584	46.816209	-0.000141	-1.414025	-0.479085	0.011293
 669	3.3400e-01	13.3103	46.396766	0.001050	10.504187	3.558915	-0.083888
 670	3.3450e-01	13.2766	46.263674	0.000333	3.333059	1.129271	-0.026618
 671	3.3500e-01	13.2413	46.134615	0.000323	3.232058	1.095051	-0.025812
 672	3.3550e-01	13.1820	45.953125	0.000455	4.545081	1.539915	-0.036298
 673	3.3600e-01	13.1579	45.824066	0.000323	3.232058	1.095051	-0.025812
 674	3.3650e-01	13.1146	45.465121	0.000899	8.989160	3.045610	-0.071789
 675	3.3700e-01	13.0905	45.695007	-0.000576	-5.757103	-1.950559	0.045977
 676	3.3750e-01	13.0456	45.190870	0.001263	12.625225	4.277542	-0.100827
 677	3.3800e-01	13.0039	45.025513	0.000414	4.141074	1.403034	-0.033071
 678	3.3850e-01	12.9638	45.126340	-0.000253	-2.525045	-0.855508	0.020165
 679	3.3900e-01	12.9157	44.920652	0.000515	5.151092	1.745237	-0.041138
 680	3.3950e-01	12.8804	45.154572	-0.000586	-5.858104	-1.984779	0.046784
 681	3.4000e-01	12.8451	44.779494	0.000939	9.393167	3.182491	-0.075016
 682	3.4050e-01	12.8018	44.807725	-0.000071	-0.707013	-0.239542	0.005646
 683	3.4100e-01	12.7617	44.464912	0.000859	8.585153	2.908729	-0.068563
 684	3.4150e-01	12.7168	44.380217	0.000212	2.121038	0.718627	-0.016939
 685	3.4200e-01	12.6895	44.162430	0.000545	5.454097	1.847898	-0.043557
 686	3.4250e-01	12.6478	43.976907	0.000465	4.646083	1.574135	-0.037105
 687	3.4300e-01	12.5996	44.037404	-0.000152	-1.515027	-0.513305	0.012099
 688	3.4350e-01	12.5644	43.908344	0.000323	3.232058	1.095051	-0.025812
 689	3.4400e-01	12.5242	43.646193	0.000657	6.565117	2.224322	-0.052430
 690	3.4450e-01	12.4841	43.428406	0.000545	5.454097	1.847898	-0.043557
 691	3.4500e-01	12.4505	43.275148	0.000384	3.838068	1.300373	-0.030652
 692	3.4550e-01	12.4023	43.279181	-0.000010	-0.101002	-0.034220	0.000807
 693	3.4600e-01	12.3654	43.150122	0.000323	3.232058	1.095051	-0.025812
 694	3.4650e-01	12.3221	43.057361	0.000232	2.323041	0.787068	-0.018552
 695	3.4700e-01	12.2836	42.823441	0.000586	5.858104	1.984779	-0.046784
 696	3.4750e-01	12.2467	42.593554	0.000576	5.757103	1.950559	-0.045977
 697	3.4800e-01	12.2034	42.621786	-0.000071	-0.707013	-0.239542	0.005646
 698	3.4850e-01	12.1665	42.424164	0.000495	4.949088	1.676796	-0.039524
 699	3.4900e-01	12.1232	42.214443	0.000525	5.252094	1.779457	-0.041944
 700	3.4950e-01	12.0847	42.383833	-0.000424	-4.242076	-1.437254	0.033878
 701	3.5000e-01	12.0462	41.940192	0.001111	11.110198	3.764237	-0.088728
 702	3.5050e-01	12.0045	41.795001	0.000364	3.636065	1.231932	-0.029038
 703	3.5100e-01	11.9676	41.694173	0.000253	2.525045	0.855508	-0.020165
 704	3.5150e-01	11.9243	41.605445	0.000222	2.222040	0.752847	-0.017746
 705	3.5200e-01	11.8793	41.403790	0.000505	5.050090	1.711017	-0.040331
 706	3.5250e-01	11.8408	41.298930	0.000263	2.626047	0.889729	-0.020972
 707	3.5300e-01	11.7975	41.133573	0.000414	4.141074	1.403034	-0.033071
 708	3.5350e-01	11.7574	40.835123	0.000747	7.474133	2.532305	-0.059690
 709	3.5400e-01	11.7205	41.024679	-0.000475	-4.747085	-1.608356	0.037911
 710	3.5450e-01	11.6916	40.754461	0.000677	6.767120	2.292762	-0.054044
 711	3.5500e-01	11.6531	40.621369	0.000333	3.333059	1.129271	-0.026618
 712	3.5550e-01	11.6018	40.443913	0.000444	4.444079	1.505695	-0.035491
 713	3.5600e-01	11.5617	40.520542	-0.000192	-1.919034	-0.650186	0.015326
 714	3.5650e-01	11.5232	40.246291	0.000687	6.868122	2.326983	-0.054850
 715	3.5700e-01	11.4831	39.931709	0.000788	7.878140	2.669186	-0.062916
 716	3.5750e-01	11.4414	39.734087	0.000495	4.949088	1.676796	-0.039524
 717	3.5800e-01	11.4029	39.508234	0.000566	5.656101	1.916339	-0.045171
 718	3.5850e-01	11.3676	39.350943	0.000394	3.939070	1.334593	-0.031458
 719	3.5900e-01	11.3323	39.294480	0.000141	1.414025	0.479085	-0.011293
 720	3.5950e-01	11.2874	39.286413	0.000020	0.202004	0.068441	-0.001613
 721	3.6000e-01	11.2393	39.201718	0.000212	2.121038	0.718627	-0.016939
 722	3.6050e-01	11.2008	39.141222	0.000152	1.515027	0.513305	-0.012099
 723	3.6100e-01	11.1623	39.000063	0.000354	3.535063	1.197712	-0.028232
 724	3.6150e-01	11.1173	39.028295	-0.000071	-0.707013	-0.239542	0.005646
 725	3.6200e-01	11.0788	38.637085	0.000980	9.797174	3.319373	-0.078242
 726	3.6250e-01	11.0387	38.362834	0.000687	6.868122	2.326983	-0.054850
 727	3.6300e-01	10.9986	38.298304	0.000162	1.616029	0.547525	-0.012906
 728	3.6350e-01	10.9649	38.185378	0.000283	2.828050	0.958169	-0.022585
 729	3.6400e-01	10.9248	38.048252	0.000343	3.434061	1.163491	-0.027425
 730	3.6450e-01	10.8879	37.862730	0.000465	4.646083	1.574135	-0.037105
 731	3.6500e-01	10.8494	37.870796	-0.000020	-0.202004	-0.068441	0.001613
 732	3.6550e-01	10.8093	37.826432	0.000111	1.111020	0.376424	-0.008873
 733	3.6600e-01	10.7692	37.576380	0.000626	6.262111	2.121661	-0.050010
 734	3.6650e-01	10.7259	37.423122	0.000384	3.838068	1.300373	-0.030652
 735	3.6700e-01	10.6938	37.338427	0.000212	2.121038	0.718627	-0.016939
 736	3.6750e-01	10.6457	37.132739	0.000515	5.151092	1.745237	-0.041138
 737	3.6800e-01	10.6024	37.052077	0.000202	2.020036	0.684407	-0.016132
 738	3.6850e-01	10.5575	36.765727	0.000717	7.171128	2.429644	-0.057270
 739	3.6900e-01	10.5222	36.592304	0.000434	4.343077	1.471474	-0.034685
 740	3.6950e-01	10.4772	36.491476	0.000253	2.525045	0.855508	-0.020165
 741	3.7000e-01	10.4339	36.350318	0.000354	3.535063	1.197712	-0.028232
 742	3.7050e-01	10.4099	36.281755	0.000172	1.717031	0.581746	-0.013713
 743	3.7100e-01	10.3633	35.886511	0.000990	9.898176	3.353593	-0.079049
 744	3.7150e-01	10.3216	35.793750	0.000232	2.323041	0.787068	-0.018552
 745	3.7200e-01	10.2895	35.777618	0.000040	0.404007	0.136881	-0.003226
 746	3.7250e-01	10.2414	35.757452	0.000051	0.505009	0.171102	-0.004033
 747	3.7300e-01	10.2109	35.584029	0.000434	4.343077	1.471474	-0.034685
 748	3.7350e-01	10.1580	35.503367	0.000202	2.020036	0.684407	-0.016132
 749	3.7400e-01	10.1179	35.148454	0.000889	8.888158	3.011390	-0.070983
 750	3.7450e-01	10.0826	34.874204	0.000687	6.868122	2.326983	-0.054850
 751	3.7500e-01	10.0537	35.043594	-0.000424	-4.242076	-1.437254	0.033878
 752	3.7550e-01	10.0008	34.898402	0.000364	3.636065	1.231932	-0.029038
 753	3.7600e-01	9.9623	34.523324	0.000939	9.393167	3.182491	-0.075016
 754	3.7650e-01	9.9350	34.474927	0.000121	1.212022	0.410644	-0.009679
 755	3.7700e-01	9.8837	34.450728	0.000061	0.606011	0.205322	-0.004840
 756	3.7750e-01	9.8484	34.220842	0.000576	5.757103	1.950559	-0.045977
 757	3.7800e-01	9.8035	33.841730	0.000949	9.494169	3.216712	-0.075822
 758	3.7850e-01	9.7650	33.837697	0.000010	0.101002	0.034220	-0.000807
 759	3.7900e-01	9.7313	33.450520	0.000970	9.696173	3.285152	-0.077435
 760	3.7950e-01	9.6864	33.615877	-0.000414	-4.141074	-1.403034	0.033071
 761	3.8000e-01	9.6446	33.591678	0.000061	0.606011	0.205322	-0.004840
 762	3.8050e-01	9.6045	33.184335	0.001020	10.201182	3.456254	-0.081469
 763	3.8100e-01	9.5773	33.006879	0.000444	4.444079	1.505695	-0.035491
 764	3.8150e-01	9.5147	32.922184	0.000212	2.121038	0.718627	-0.016939
 765	3.8200e-01	9.4874	32.930250	-0.000020	-0.202004	-0.068441	0.001613
 766	3.8250e-01	9.4393	32.720529	0.000525	5.252094	1.779457	-0.041944
 767	3.8300e-01	9.4056	32.506775	0.000535	5.353095	1.813678	-0.042751
 768	3.8350e-01	9.3687	32.462411	0.000111	1.111020	0.376424	-0.008873
 769	3.8400e-01	9.3206	32.212359	0.000626	6.262111	2.121661	-0.050010
 770	3.8450e-01	9.2821	32.111531	0.000253	2.525045	0.855508	-0.020165
 771	3.8500e-01	9.2388	31.926009	0.000465	4.646083	1.574135	-0.037105
 772	3.8550e-01	9.1987	31.809049	0.000293	2.929052	0.992390	-0.023392
 773	3.8600e-01	9.1554	31.643692	0.000414	4.141074	1.403034	-0.033071
 774	3.8650e-01	9.1153	31.502533	0.000354	3.535063	1.197712	-0.028232
 775	3.8700e-01	9.0848	31.260547	0.000606	6.060108	2.053220	-0.048397
 776	3.8750e-01	9.0463	31.151654	0.000273	2.727049	0.923949	-0.021779
 777	3.8800e-01	9.0078	30.865304	0.000717	7.171128	2.429644	-0.057270
 778	3.8850e-01	8.9612	30.990330	-0.000313	-3.131056	-1.060830	0.025005
 779	3.8900e-01	8.9211	30.671715	0.000798	7.979142	2.703407	-0.063723
 780	3.8950e-01	8.8746	30.740278	-0.000172	-1.717031	-0.581746	0.013713
 781	3.9000e-01	8.8506	30.361166	0.000949	9.494169	3.216712	-0.075822
 782	3.9050e-01	8.8088	30.256306	0.000263	2.626047	0.889729	-0.020972
 783	3.9100e-01	8.7591	30.385365	-0.000323	-3.232058	-1.095051	0.025812
 784	3.9150e-01	8.7286	30.066750	0.000798	7.979142	2.703407	-0.063723
 785	3.9200e-01	8.6821	30.006254	0.000152	1.515027	0.513305	-0.012099
 786	3.9250e-01	8.6436	29.877194	0.000323	3.232058	1.095051	-0.025812
 787	3.9300e-01	8.5971	29.788466	0.000222	2.222040	0.752847	-0.017746
 788	3.9350e-01	8.5538	29.280296	0.001273	12.726227	4.311762	-0.101634
 789	3.9400e-01	8.5201	29.352892	-0.000182	-1.818032	-0.615966	0.014519
 790	3.9450e-01	8.4832	29.127038	0.000566	5.656101	1.916339	-0.045171
 791	3.9500e-01	8.4351	28.808423	0.000798	7.979142	2.703407	-0.063723
 792	3.9550e-01	8.4030	28.893118	-0.000212	-2.121038	-0.718627	0.016939
 793	3.9600e-01	8.3597	28.808423	0.000212	2.121038	0.718627	-0.016939
 794	3.9650e-01	8.3228	28.719695	0.000222	2.222040	0.752847	-0.017746
 795	3.9700e-01	8.2843	28.570470	0.000374	3.737067	1.266152	-0.029845
 796	3.9750e-01	8.2442	28.219591	0.000879	8.787156	2.977169	-0.070176
 797	3.9800e-01	8.1992	28.211525	0.000020	0.202004	0.068441	-0.001613
 798	3.9850e-01	8.1543	27.884844	0.000818	8.181146	2.771847	-0.065336
 799	3.9900e-01	8.1158	27.917109	-0.000081	-0.808014	-0.273763	0.006453
 800	3.9950e-01	8.0901	27.739652	0.000444	4.444079	1.505695	-0.035491
 801	4.0000e-01	8.0404	27.489600	0.000626	6.262111	2.121661	-0.050010
 802	4.0050e-01	8.0019	27.578328	-0.000222	-2.222040	-0.752847	0.017746
 803	4.0100e-01	7.9634	27.062092	0.001293	12.928230	4.380203	-0.103247
 804	4.0150e-01	7.9217	27.251647	-0.000475	-4.747085	-1.608356	0.037911
 805	4.0200e-01	7.8816	27.098390	0.000384	3.838068	1.300373	-0.030652
 806	4.0250e-01	7.8431	26.763642	0.000838	8.383149	2.840288	-0.066949
 807	4.0300e-01	7.7998	26.795907	-0.000081	-0.808014	-0.273763	0.006453
 808	4.0350e-01	7.7645	26.517623	0.000697	6.969124	2.361203	-0.055657
 809	4.0400e-01	7.7115	26.521656	-0.000010	-0.101002	-0.034220	0.000807
 810	4.0450e-01	7.6843	26.291770	0.000576	5.757103	1.950559	-0.045977
 811	4.0500e-01	7.6426	26.053817	0.000596	5.959106	2.019000	-0.047591
 812	4.0550e-01	7.6025	25.952990	0.000253	2.525045	0.855508	-0.020165
 813	4.0600e-01	7.5640	25.787632	0.000414	4.141074	1.403034	-0.033071
 814	4.0650e-01	7.5206	25.573878	0.000535	5.353095	1.813678	-0.042751
 815	4.0700e-01	7.4821	25.339959	0.000586	5.858104	1.984779	-0.046784
 816	4.0750e-01	7.4452	25.198800	0.000354	3.535063	1.197712	-0.028232
 817	4.0800e-01	7.4003	24.880185	0.000798	7.979142	2.703407	-0.063723
 818	4.0850e-01	7.3570	24.924549	-0.000111	-1.111020	-0.376424	0.008873
 819	4.0900e-01	7.3185	24.759192	0.000414	4.141074	1.403034	-0.033071
 820	4.0950e-01	7.2816	24.807590	-0.000121	-1.212022	-0.410644	0.009679
 821	4.1000e-01	7.2479	24.448644	0.000899	8.989160	3.045610	-0.071789
 822	4.1050e-01	7.1998	24.339750	0.000273	2.727049	0.923949	-0.021779
 823	4.1100e-01	7.1629	24.065499	0.000687	6.868122	2.326983	-0.054850
 824	4.1150e-01	7.1292	23.839646	0.000566	5.656101	1.916339	-0.045171
 825	4.1200e-01	7.0795	23.775116	0.000162	1.616029	0.547525	-0.012906
 826	4.1250e-01	7.0458	23.609759	0.000414	4.141074	1.403034	-0.033071
 827	4.1300e-01	6.9961	23.690421	-0.000202	-2.020036	-0.684407	0.016132
 828	4.1350e-01	6.9624	23.646057	0.000111	1.111020	0.376424	-0.008873
 829	4.1400e-01	6.9191	23.444402	0.000505	5.050090	1.711017	-0.040331
 830	4.1450e-01	6.8854	23.061258	0.000960	9.595171	3.250932	-0.076629
 831	4.1500e-01	6.8356	22.799106	0.000657	6.565117	2.224322	-0.052430
 832	4.1550e-01	6.8036	22.956397	-0.000394	-3.939070	-1.334593	0.031458
 833	4.1600e-01	6.7554	22.746676	0.000525	5.252094	1.779457	-0.041944
 834	4.1650e-01	6.7185	22.528889	0.000545	5.454097	1.847898	-0.043557
 835	4.1700e-01	6.6784	22.512756	0.000040	0.404007	0.136881	-0.003226
 836	4.1750e-01	6.6463	22.210274	0.000758	7.575135	2.566525	-0.060496
 837	4.1800e-01	6.5982	21.883593	0.000818	8.181146	2.771847	-0.065336
 838	4.1850e-01	6.5645	21.927957	-0.000111	-1.111020	-0.376424	0.008873
 839	4.1900e-01	6.5228	21.669839	0.000646	6.464115	2.190101	-0.051624
 840	4.1950e-01	6.4795	21.504482	0.000414	4.141074	1.403034	-0.033071
 841	4.2000e-01	6.4346	21.569011	-0.000162	-1.616029	-0.547525	0.012906
 842	4.2050e-01	6.3993	21.383489	0.000465	4.646083	1.574135	-0.037105
 843	4.2100e-01	6.3512	21.298794	0.000212	2.121038	0.718627	-0.016939
 844	4.2150e-01	6.3207	21.093106	0.000515	5.151092	1.745237	-0.041138
 845	4.2200e-01	6.2822	21.036642	0.000141	1.414025	0.479085	-0.011293
 846	4.2250e-01	6.2421	20.625266	0.001030	10.302183	3.490474	-0.082275
 847	4.2300e-01	6.2068	20.621233	0.000010	0.101002	0.034220	-0.000807
 848	4.2350e-01	6.1635	20.338916	0.000707	7.070126	2.395423	-0.056463
 849	4.2400e-01	6.1298	20.306651	0.000081	0.808014	0.273763	-0.006453
 850	4.2450e-01	6.0849	20.100963	0.000515	5.151092	1.745237	-0.041138
 851	4.2500e-01	6.0383	20.177592	-0.000192	-1.919034	-0.650186	0.015326
 852	4.2550e-01	6.0079	19.822680	0.000889	8.888158	3.011390	-0.070983
 853	4.2600e-01	5.9597	19.689587	0.000333	3.333059	1.129271	-0.026618
 854	4.2650e-01	5.9244	19.713786	-0.000061	-0.606011	-0.205322	0.004840
 855	4.2700e-01	5.8795	19.375006	0.000848	8.484151	2.874508	-0.067756
 856	4.2750e-01	5.8394	19.362906	0.000030	0.303005	0.102661	-0.002420
 857	4.2800e-01	5.7961	19.128987	0.000586	5.858104	1.984779	-0.046784
 858	4.2850e-01	5.7608	19.040259	0.000222	2.222040	0.752847	-0.017746
 859	4.2900e-01	5.7271	18.814405	0.000566	5.656101	1.916339	-0.045171
 860	4.2950e-01	5.6838	18.717611	0.000242	2.424043	0.821288	-0.019359
 861	4.3000e-01	5.6325	18.536121	0.000455	4.545081	1.539915	-0.036298
 862	4.3050e-01	5.6036	18.370764	0.000414	4.141074	1.403034	-0.033071
 863	4.3100e-01	5.5683	18.140878	0.000576	5.757103	1.950559	-0.045977
 864	4.3150e-01	5.5218	17.939223	0.000505	5.050090	1.711017	-0.040331
 865	4.3200e-01	5.4736	17.729501	0.000525	5.252094	1.779457	-0.041944
 866	4.3250e-01	5.4383	17.576244	0.000384	3.838068	1.300373	-0.030652
 867	4.3300e-01	5.3950	17.431052	0.000364	3.636065	1.231932	-0.029038
 868	4.3350e-01	5.3726	17.213265	0.000545	5.454097	1.847898	-0.043557
 869	4.3400e-01	5.3228	17.197132	0.000040	0.404007	0.136881	-0.003226
 870	4.3450e-01	5.2876	16.922882	0.000687	6.868122	2.326983	-0.054850
 871	4.3500e-01	5.2394	16.878518	0.000111	1.111020	0.376424	-0.008873
 872	4.3550e-01	5.1961	16.777690	0.000253	2.525045	0.855508	-0.020165
 873	4.3600e-01	5.1688	16.761558	0.000040	0.404007	0.136881	-0.003226
 874	4.3650e-01	5.1207	16.567969	0.000485	4.848086	1.642576	-0.038718
 875	4.3700e-01	5.0854	16.342116	0.000566	5.656101	1.916339	-0.045171
 876	4.3750e-01	5.0469	16.160626	0.000455	4.545081	1.539915	-0.036298
 877	4.3800e-01	5.0020	16.059799	0.000253	2.525045	0.855508	-0.020165
 878	4.3850e-01	4.9603	15.954938	0.000263	2.626047	0.889729	-0.020972
 879	4.3900e-01	4.9186	15.870243	0.000212	2.121038	0.718627	-0.016939
 880	4.3950e-01	4.8801	15.733118	0.000343	3.434061	1.163491	-0.027425
 881	4.4000e-01	4.8303	15.305609	0.001071	10.706191	3.627356	-0.085502
 882	4.4050e-01	4.8031	15.083789	0.000556	5.555099	1.882118	-0.044364
 883	4.4100e-01	4.7630	15.216881	-0.000333	-3.333059	-1.129271	0.026618
 884	4.4150e-01	4.7229	14.894233	0.000808	8.080144	2.737627	-0.064530
 885	4.4200e-01	4.6812	14.668380	0.000566	5.656101	1.916339	-0.045171
 886	4.4250e-01	4.6378	14.708711	-0.000101	-1.010018	-0.342203	0.008066
 887	4.4300e-01	4.6041	14.478824	0.000576	5.757103	1.950559	-0.045977
 888	4.4350e-01	4.5592	14.382030	0.000242	2.424043	0.821288	-0.019359
 889	4.4400e-01	4.5175	14.289268	0.000232	2.323041	0.787068	-0.018552
 890	4.4450e-01	4.4870	13.962587	0.000818	8.181146	2.771847	-0.065336
 891	4.4500e-01	4.4437	13.781098	0.000455	4.545081	1.539915	-0.036298
 892	4.4550e-01	4.4100	13.522980	0.000646	6.464115	2.190101	-0.051624
 893	4.4600e-01	4.3571	13.454417	0.000172	1.717031	0.581746	-0.013713
 894	4.4650e-01	4.3170	13.502814	-0.000121	-1.212022	-0.410644	0.009679
 895	4.4700e-01	4.2801	13.410053	0.000232	2.323041	0.787068	-0.018552
 896	4.4750e-01	4.2416	13.034975	0.000939	9.393167	3.182491	-0.075016
 897	4.4800e-01	4.1999	12.930114	0.000263	2.626047	0.889729	-0.020972
 898	4.4850e-01	4.1550	12.740558	0.000475	4.747085	1.608356	-0.037911
 899	4.4900e-01	4.1229	12.680062	0.000152	1.515027	0.513305	-0.012099
 900	4.4950e-01	4.0892	12.329182	0.000879	8.787156	2.977169	-0.070176
 901	4.5000e-01	4.0362	12.329182	-0.000000	-0.000000	-0.000000	0.000000
 902	4.5050e-01	3.9897	12.288851	0.000101	1.010018	0.342203	-0.008066
 903	4.5100e-01	3.9625	12.014601	0.000687	6.868122	2.326983	-0.054850
 904	4.5150e-01	3.9207	11.829078	0.000465	4.646083	1.574135	-0.037105
 905	4.5200e-01	3.8903	11.486265	0.000859	8.585153	2.908729	-0.068563
 906	4.5250e-01	3.8357	11.691953	-0.000515	-5.151092	-1.745237	0.041138
 907	4.5300e-01	3.8101	11.308808	0.000960	9.595171	3.250932	-0.076629
 908	4.5350e-01	3.7603	11.191849	0.000293	2.929052	0.992390	-0.023392
 909	4.5400e-01	3.7202	10.832903	0.000899	8.989160	3.045610	-0.071789
 910	4.5450e-01	3.6833	10.788539	0.000111	1.111020	0.376424	-0.008873
 911	4.5500e-01	3.6304	10.732075	0.000141	1.414025	0.479085	-0.011293
 912	4.5550e-01	3.5919	10.655447	0.000192	1.919034	0.650186	-0.015326
 913	4.5600e-01	3.5534	10.578818	0.000192	1.919034	0.650186	-0.015326
 914	4.5650e-01	3.5213	10.352964	0.000566	5.656101	1.916339	-0.045171
 915	4.5700e-01	3.4732	10.179541	0.000434	4.343077	1.471474	-0.034685
 916	4.5750e-01	3.4459	10.002085	0.000444	4.444079	1.505695	-0.035491
 917	4.5800e-01	3.4058	10.090813	-0.000222	-2.222040	-0.752847	0.017746
 918	4.5850e-01	3.3641	10.002085	0.000222	2.222040	0.752847	-0.017746
 919	4.5900e-01	3.3240	9.538278	0.001162	11.615207	3.935339	-0.092761
 920	4.5950e-01	3.2887	9.179332	0.000899	8.989160	3.045610	-0.071789
 921	4.6000e-01	3.2325	9.009942	0.000424	4.242076	1.437254	-0.033878
 922	4.6050e-01	3.2004	8.763923	0.000616	6.161110	2.087440	-0.049204
 923	4.6100e-01	3.1716	8.743758	0.000051	0.505009	0.171102	-0.004033
 924	4.6150e-01	3.1234	8.626798	0.000293	2.929052	0.992390	-0.023392
 925	4.6200e-01	3.0833	8.477573	0.000374	3.737067	1.266152	-0.029845
 926	4.6250e-01	3.0496	8.485639	-0.000020	-0.202004	-0.068441	0.001613
 927	4.6300e-01	3.0031	8.530004	-0.000111	-1.111020	-0.376424	0.008873
 928	4.6350e-01	2.9614	8.267852	0.000657	6.565117	2.224322	-0.052430
 929	4.6400e-01	2.9229	7.783880	0.001212	12.120216	4.106440	-0.096794
 930	4.6450e-01	2.8796	7.872608	-0.000222	-2.222040	-0.752847	0.017746
 931	4.6500e-01	2.8395	7.759682	0.000283	2.828050	0.958169	-0.022585
 932	4.6550e-01	2.8010	7.610457	0.000374	3.737067	1.266152	-0.029845
 933	4.6600e-01	2.7625	7.433001	0.000444	4.444079	1.505695	-0.035491
 934	4.6650e-01	2.7224	7.174882	0.000646	6.464115	2.190101	-0.051624
 935	4.6700e-01	2.6887	7.049856	0.000313	3.131056	1.060830	-0.025005
 936	4.6750e-01	2.6422	6.840135	0.000525	5.252094	1.779457	-0.041944
 937	4.6800e-01	2.5989	6.795771	0.000111	1.111020	0.376424	-0.008873
 938	4.6850e-01	2.5652	6.634447	0.000404	4.040072	1.368813	-0.032265
 939	4.6900e-01	2.5235	6.396494	0.000596	5.959106	2.019000	-0.047591
 940	4.6950e-01	2.4834	6.315832	0.000202	2.020036	0.684407	-0.016132
 941	4.7000e-01	2.4513	6.098045	0.000545	5.454097	1.847898	-0.043557
 942	4.7050e-01	2.3967	5.956887	0.000354	3.535063	1.197712	-0.028232
 943	4.7100e-01	2.3550	5.731033	0.000566	5.656101	1.916339	-0.045171
 944	4.7150e-01	2.3213	5.618106	0.000283	2.828050	0.958169	-0.022585
 945	4.7200e-01	2.2780	5.513246	0.000263	2.626047	0.889729	-0.020972
 946	4.7250e-01	2.2427	5.166399	0.000869	8.686155	2.942949	-0.069369
 947	4.7300e-01	2.2010	5.166399	-0.000000	-0.000000	-0.000000	0.000000
 948	4.7350e-01	2.1609	4.912314	0.000636	6.363113	2.155881	-0.050817
 949	4.7400e-01	2.1176	4.686461	0.000566	5.656101	1.916339	-0.045171
 950	4.7450e-01	2.0887	4.726792	-0.000101	-1.010018	-0.342203	0.008066
 951	4.7500e-01	2.0502	4.553368	0.000434	4.343077	1.471474	-0.034685
 952	4.7550e-01	1.9876	4.396077	0.000394	3.939070	1.334593	-0.031458
 953	4.7600e-01	1.9620	4.254919	0.000354	3.535063	1.197712	-0.028232
 954	4.7650e-01	1.9235	4.101661	0.000384	3.838068	1.300373	-0.030652
 955	4.7700e-01	1.8866	3.637855	0.001162	11.615207	3.935339	-0.092761
 956	4.7750e-01	1.8352	3.666087	-0.000071	-0.707013	-0.239542	0.005646
 957	4.7800e-01	1.8016	3.779013	-0.000283	-2.828050	-0.958169	0.022585
 958	4.7850e-01	1.7631	3.347472	0.001081	10.807192	3.661576	-0.086308
 959	4.7900e-01	1.7246	3.246644	0.000253	2.525045	0.855508	-0.020165
 960	4.7950e-01	1.6877	3.008692	0.000596	5.959106	2.019000	-0.047591
 961	4.8000e-01	1.6347	2.798970	0.000525	5.252094	1.779457	-0.041944
 962	4.8050e-01	1.6074	2.968361	-0.000424	-4.242076	-1.437254	0.033878
 963	4.8100e-01	1.5609	2.673944	0.000737	7.373131	2.498085	-0.058883
 964	4.8150e-01	1.5192	2.452124	0.000556	5.555099	1.882118	-0.044364
 965	4.8200e-01	1.4807	2.298866	0.000384	3.838068	1.300373	-0.030652
 966	4.8250e-01	1.4438	2.101244	0.000495	4.949088	1.676796	-0.039524
 967	4.8300e-01	1.4133	1.988318	0.000283	2.828050	0.958169	-0.022585
 968	4.8350e-01	1.3636	1.839093	0.000374	3.737067	1.266152	-0.029845
 969	4.8400e-01	1.3123	1.895556	-0.000141	-1.414025	-0.479085	0.011293
 970	4.8450e-01	1.2866	1.645504	0.000626	6.262111	2.121661	-0.050010
 971	4.8500e-01	1.2433	1.520478	0.000313	3.131056	1.060830	-0.025005
 972	4.8550e-01	1.2112	1.213963	0.000768	7.676137	2.600746	-0.061303
 973	4.8600e-01	1.1599	1.092970	0.000303	3.030054	1.026610	-0.024199
 974	4.8650e-01	1.1214	1.020374	0.000182	1.818032	0.615966	-0.014519
 975	4.8700e-01	1.0909	0.850984	0.000424	4.242076	1.437254	-0.033878
 976	4.8750e-01	1.0331	0.649329	0.000505	5.050090	1.711017	-0.040331
 977	4.8800e-01	0.9978	0.358946	0.000727	7.272129	2.463864	-0.058077
 978	4.8850e-01	0.9674	0.104861	0.000636	6.363113	2.155881	-0.050817
 979	4.8900e-01	0.9176	0.108894	-0.000010	-0.101002	-0.034220	0.000807
 980	4.8950e-01	0.8791	0.193589	-0.000212	-2.121038	-0.718627	0.016939
 981	4.9000e-01	0.8406	-0.096794	0.000727	7.272129	2.463864	-0.058077
 982	4.9050e-01	0.7957	-0.294416	0.000495	4.949088	1.676796	-0.039524
 983	4.9100e-01	0.7588	-0.342813	0.000121	1.212022	0.410644	-0.009679
 984	4.9150e-01	0.7219	-0.395244	0.000131	1.313023	0.444864	-0.010486
 985	4.9200e-01	0.6834	-0.750156	0.000889	8.888158	3.011390	-0.070983
 986	4.9250e-01	0.6449	-0.838885	0.000222	2.222040	0.752847	-0.017746
 987	4.9300e-01	0.6080	-1.024407	0.000465	4.646083	1.574135	-0.037105
 988	4.9350e-01	0.5599	-1.028440	0.000010	0.101002	0.034220	-0.000807
 989	4.9400e-01	0.5182	-1.355121	0.000818	8.181146	2.771847	-0.065336
 990	4.9450e-01	0.4877	-1.605173	0.000626	6.262111	2.121661	-0.050010
 991	4.9500e-01	0.4396	-1.766497	0.000404	4.040072	1.368813	-0.032265
 992	4.9550e-01	0.4059	-1.851192	0.000212	2.121038	0.718627	-0.016939
 993	4.9600e-01	0.3577	-1.907656	0.000141	1.414025	0.479085	-0.011293
 994	4.9650e-01	0.3208	-1.992351	0.000212	2.121038	0.718627	-0.016939
 995	4.9700e-01	0.2856	-2.294833	0.000758	7.575135	2.566525	-0.060496
 996	4.9750e-01	0.2422	-2.690077	0.000990	9.898176	3.353593	-0.079049
 997	4.9800e-01	0.2069	-2.766706	0.000192	1.919034	0.650186	-0.015326
 998	4.9850e-01	0.1508	-2.617481	-0.000374	-3.737067	-1.266152	0.029845
 999	4.9900e-01	0.1235	-2.875599	0.000646	6.464115	2.190101	-0.051624
1000	4.9950e-01	0.0786	-2.956261	0.000202	2.020036	0.684407	-0.016132
1001	5.0000e-01	0.0497	-3.359571	0.001010	10.100180	3.422034	-0.080662
1002	5.0050e-01	0.0112	-3.339406	-0.000051	-0.505009	-0.171102	0.004033
1003	5.0100e-01	-0.0305	-3.553160	0.000535	5.353095	1.813678	-0.042751
1004	5.0150e-01	-0.0690	-3.565259	0.000030	0.303005	0.102661	-0.002420
1005	5.0200e-01	-0.1123	-3.795146	0.000576	5.757103	1.950559	-0.045977
1006	5.0250e-01	-0.1476	-3.996801	0.000505	5.050090	1.711017	-0.040331
1007	5.0300e-01	-0.1829	-4.242820	0.000616	6.161110	2.087440	-0.049204
1008	5.0350e-01	-0.2326	-4.254919	0.000030	0.303005	0.102661	-0.002420
1009	5.0400e-01	-0.2759	-4.408177	0.000384	3.838068	1.300373	-0.030652
1010	5.0450e-01	-0.3048	-4.682427	0.000687	6.868122	2.326983	-0.054850
1011	5.0500e-01	-0.3577	-4.835685	0.000384	3.838068	1.300373	-0.030652
1012	5.0550e-01	-0.3898	-4.815520	-0.000051	-0.505009	-0.171102	0.004033
1013	5.0600e-01	-0.4251	-4.952645	0.000343	3.434061	1.163491	-0.027425
1014	5.0650e-01	-0.4700	-5.142201	0.000475	4.747085	1.608356	-0.037911
1015	5.0700e-01	-0.5118	-5.476948	0.000838	8.383149	2.840288	-0.066949
1016	5.0750e-01	-0.5470	-5.735066	0.000646	6.464115	2.190101	-0.051624
1017	5.0800e-01	-0.5936	-5.722967	-0.000030	-0.303005	-0.102661	0.002420
1018	5.0850e-01	-0.6321	-5.718934	-0.000010	-0.101002	-0.034220	0.000807
1019	5.0900e-01	-0.6786	-5.787496	0.000172	1.717031	0.581746	-0.013713
1020	5.0950e-01	-0.7091	-6.098045	0.000778	7.777138	2.634966	-0.062110
1021	5.1000e-01	-0.7460	-6.444892	0.000869	8.686155	2.942949	-0.069369
1022	5.1050e-01	-0.7845	-6.432792	-0.000030	-0.303005	-0.102661	0.002420
1023	5.1100e-01	-0.8262	-6.537653	0.000263	2.626047	0.889729	-0.020972
1024	5.1150e-01	-0.8775	-6.666712	0.000323	3.232058	1.095051	-0.025812
1025	5.1200e-01	-0.9096	-6.904665	0.000596	5.959106	2.019000	-0.047591
1026	5.1250e-01	-0.9465	-7.110353	0.000515	5.151092	1.745237	-0.041138
1027	5.1300e-01	-0.9930	-7.295875	0.000465	4.646083	1.574135	-0.037105
1028	5.1350e-01	-1.0251	-7.247478	-0.000121	-1.212022	-0.410644	0.009679
1029	5.1400e-01	-1.0877	-7.497530	0.000626	6.262111	2.121661	-0.050010
1030	5.1450e-01	-1.1101	-7.824211	0.000818	8.181146	2.771847	-0.065336
1031	5.1500e-01	-1.1470	-7.759682	-0.000162	-1.616029	-0.547525	0.012906
1032	5.1550e-01	-1.1903	-8.078297	0.000798	7.979142	2.703407	-0.063723
1033	5.1600e-01	-1.2337	-8.396911	0.000798	7.979142	2.703407	-0.063723
1034	5.1650e-01	-1.2754	-8.203323	-0.000485	-4.848086	-1.642576	0.038718
1035	5.1700e-01	-1.3203	-8.175091	-0.000071	-0.707013	-0.239542	0.005646
1036	5.1750e-01	-1.3556	-8.445308	0.000677	6.767120	2.292762	-0.054044
1037	5.1800e-01	-1.3909	-8.610666	0.000414	4.141074	1.403034	-0.033071
1038	5.1850e-01	-1.4326	-8.844585	0.000586	5.858104	1.984779	-0.046784
1039	5.1900e-01	-1.4695	-9.070439	0.000566	5.656101	1.916339	-0.045171
1040	5.1950e-01	-1.5080	-9.268061	0.000495	4.949088	1.676796	-0.039524
1041	5.2000e-01	-1.5545	-9.372921	0.000263	2.626047	0.889729	-0.020972
1042	5.2050e-01	-1.5946	-9.675404	0.000758	7.575135	2.566525	-0.060496
1043	5.2100e-01	-1.6363	-9.457616	-0.000545	-5.454097	-1.847898	0.043557
1044	5.2150e-01	-1.6700	-9.469716	0.000030	0.303005	0.102661	-0.002420
1045	5.2200e-01	-1.7037	-9.957720	0.001222	12.221218	4.140661	-0.097601
1046	5.2250e-01	-1.7518	-10.082747	0.000313	3.131056	1.060830	-0.025005
1047	5.2300e-01	-1.7887	-10.139210	0.000141	1.414025	0.479085	-0.011293
1048	5.2350e-01	-1.8449	-10.332799	0.000485	4.848086	1.642576	-0.038718
1049	5.2400e-01	-1.8786	-10.538487	0.000515	5.151092	1.745237	-0.041138
1050	5.2450e-01	-1.9026	-10.635281	0.000242	2.424043	0.821288	-0.019359
1051	5.2500e-01	-1.9475	-10.824837	0.000475	4.747085	1.608356	-0.037911
1052	5.2550e-01	-1.9876	-11.058756	0.000586	5.858104	1.984779	-0.046784
1053	5.2600e-01	-2.0326	-11.111187	0.000131	1.313023	0.444864	-0.010486
1054	5.2650e-01	-2.0663	-11.328974	0.000545	5.454097	1.847898	-0.043557
1055	5.2700e-01	-2.1112	-11.433835	0.000263	2.626047	0.889729	-0.020972
1056	5.2750e-01	-2.1513	-11.655655	0.000556	5.555099	1.882118	-0.044364
1057	5.2800e-01	-2.1914	-11.655655	-0.000000	-0.000000	-0.000000	0.000000
1058	5.2850e-01	-2.2267	-11.796813	0.000354	3.535063	1.197712	-0.028232
1059	5.2900e-01	-2.2732	-12.014601	0.000545	5.454097	1.847898	-0.043557
1060	5.2950e-01	-2.3069	-12.216256	0.000505	5.050090	1.711017	-0.040331
1061	5.3000e-01	-2.3502	-12.212223	-0.000010	-0.101002	-0.034220	0.000807
1062	5.3050e-01	-2.3951	-12.361447	0.000374	3.737067	1.266152	-0.029845
1063	5.3100e-01	-2.4320	-12.365480	0.000010	0.101002	0.034220	-0.000807
1064	5.3150e-01	-2.4721	-12.659897	0.000737	7.373131	2.498085	-0.058883
1065	5.3200e-01	-2.5074	-12.885750	0.000566	5.656101	1.916339	-0.045171
1066	5.3250e-01	-2.5620	-13.256795	0.000929	9.292165	3.148271	-0.074209
1067	5.3300e-01	-2.6005	-13.071273	-0.000465	-4.646083	-1.574135	0.037105
1068	5.3350e-01	-2.6342	-13.389887	0.000798	7.979142	2.703407	-0.063723
1069	5.3400e-01	-2.6710	-13.442318	0.000131	1.313023	0.444864	-0.010486
1070	5.3450e-01	-2.7063	-13.551211	0.000273	2.727049	0.923949	-0.021779
1071	5.3500e-01	-2.7545	-13.986786	0.001091	10.908194	3.695796	-0.087115
1072	5.3550e-01	-2.7930	-14.099713	0.000283	2.828050	0.958169	-0.022585
1073	5.3600e-01	-2.8347	-14.107779	0.000020	0.202004	0.068441	-0.001613
1074	5.3650e-01	-2.8700	-14.394129	0.000717	7.171128	2.429644	-0.057270
1075	5.3700e-01	-2.9117	-14.361864	-0.000081	-0.808014	-0.273763	0.006453
1076	5.3750e-01	-2.9582	-14.611916	0.000626	6.262111	2.121661	-0.050010
1077	5.3800e-01	-2.9983	-14.563519	-0.000121	-1.212022	-0.410644	0.009679
1078	5.3850e-01	-3.0288	-14.736942	0.000434	4.343077	1.471474	-0.034685
1079	5.3900e-01	-3.0641	-15.003127	0.000667	6.666119	2.258542	-0.053237
1080	5.3950e-01	-3.1186	-15.039425	0.000091	0.909016	0.307983	-0.007260
1081	5.4000e-01	-3.1507	-15.216881	0.000444	4.444079	1.505695	-0.035491
1082	5.4050e-01	-3.2004	-15.507264	0.000727	7.272129	2.463864	-0.058077
1083	5.4100e-01	-3.2213	-15.745217	0.000596	5.959106	2.019000	-0.047591
1084	5.4150e-01	-3.2694	-15.672621	-0.000182	-1.818032	-0.615966	0.014519
1085	5.4200e-01	-3.3127	-16.003335	0.000828	8.282147	2.806068	-0.066143
1086	5.4250e-01	-3.3400	-16.055766	0.000131	1.313023	0.444864	-0.010486
1087	5.4300e-01	-3.3833	-16.301785	0.000616	6.161110	2.087440	-0.049204
1088	5.4350e-01	-3.4347	-16.172725	-0.000323	-3.232058	-1.095051	0.025812
1089	5.4400e-01	-3.4700	-16.269520	0.000242	2.424043	0.821288	-0.019359
1090	5.4450e-01	-3.5181	-16.511506	0.000606	6.060108	2.053220	-0.048397
1091	5.4500e-01	-3.5470	-16.854319	0.000859	8.585153	2.908729	-0.068563
1092	5.4550e-01	-3.5887	-17.051941	0.000495	4.949088	1.676796	-0.039524
1093	5.4600e-01	-3.6320	-17.003544	-0.000121	-1.212022	-0.410644	0.009679
1094	5.4650e-01	-3.6673	-17.144702	0.000354	3.535063	1.197712	-0.028232
1095	5.4700e-01	-3.7026	-17.366523	0.000556	5.555099	1.882118	-0.044364
1096	5.4750e-01	-3.7619	-17.390721	0.000061	0.606011	0.205322	-0.004840
1097	5.4800e-01	-3.7860	-17.652873	0.000657	6.565117	2.224322	-0.052430
1098	5.4850e-01	-3.8325	-17.818230	0.000414	4.141074	1.403034	-0.033071
1099	5.4900e-01	-3.8710	-17.939223	0.000303	3.030054	1.026610	-0.024199
1100	5.4950e-01	-3.9159	-18.136844	0.000495	4.949088	1.676796	-0.039524
1101	5.5000e-01	-3.9609	-18.290102	0.000384	3.838068	1.300373	-0.030652
1102	5.5050e-01	-3.9929	-18.233639	-0.000141	-1.414025	-0.479085	0.011293
1103	5.5100e-01	-4.0234	-18.471592	0.000596	5.959106	2.019000	-0.047591
1104	5.5150e-01	-4.0748	-18.564353	0.000232	2.323041	0.787068	-0.018552
1105	5.5200e-01	-4.1133	-18.822471	0.000646	6.464115	2.190101	-0.051624
1106	5.5250e-01	-4.1534	-19.120920	0.000747	7.474133	2.532305	-0.059690
1107	5.5300e-01	-4.1919	-19.282244	0.000404	4.040072	1.368813	-0.032265
1108	5.5350e-01	-4.2272	-19.358873	0.000192	1.919034	0.650186	-0.015326
1109	5.5400e-01	-4.2737	-19.379039	0.000051	0.505009	0.171102	-0.004033
1110	5.5450e-01	-4.3186	-19.637157	0.000646	6.464115	2.190101	-0.051624
1111	5.5500e-01	-4.3523	-19.850911	0.000535	5.353095	1.813678	-0.042751
1112	5.5550e-01	-4.3908	-19.963838	0.000283	2.828050	0.958169	-0.022585
1113	5.5600e-01	-4.4293	-20.113063	0.000374	3.737067	1.266152	-0.029845
1114	5.5650e-01	-4.4742	-20.028368	-0.000212	-2.121038	-0.718627	0.016939
1115	5.5700e-01	-4.5095	-20.278420	0.000626	6.262111	2.121661	-0.050010
1116	5.5750e-01	-4.5592	-20.351016	0.000182	1.818032	0.615966	-0.014519
1117	5.5800e-01	-4.5881	-20.673663	0.000808	8.080144	2.737627	-0.064530
1118	5.5850e-01	-4.6346	-20.758359	0.000212	2.121038	0.718627	-0.016939
1119	5.5900e-01	-4.6683	-20.722061	-0.000091	-0.909016	-0.307983	0.007260
1120	5.5950e-01	-4.7180	-20.887418	0.000414	4.141074	1.403034	-0.033071
1121	5.6000e-01	-4.7469	-21.129404	0.000606	6.060108	2.053220	-0.048397
1122	5.6050e-01	-4.7983	-21.403654	0.000687	6.868122	2.326983	-0.054850
1123	5.6100e-01	-4.8336	-21.649673	0.000616	6.161110	2.087440	-0.049204
1124	5.6150e-01	-4.8656	-21.609342	-0.000101	-1.010018	-0.342203	0.008066
1125	5.6200e-01	-4.9154	-21.875527	0.000667	6.666119	2.258542	-0.053237
1126	5.6250e-01	-4.9475	-21.988454	0.000283	2.828050	0.958169	-0.022585
1127	5.6300e-01	-4.9972	-22.036851	0.000121	1.212022	0.410644	-0.009679
1128	5.6350e-01	-5.0293	-22.206241	0.000424	4.242076	1.437254	-0.033878
1129	5.6400e-01	-5.0630	-22.339333	0.000333	3.333059	1.129271	-0.026618
1130	5.6450e-01	-5.1095	-22.399830	0.000152	1.515027	0.513305	-0.012099
1131	5.6500e-01	-5.1464	-22.540988	0.000354	3.535063	1.197712	-0.028232
1132	5.6550e-01	-5.1865	-22.678113	0.000343	3.434061	1.163491	-0.027425
1133	5.6600e-01	-5.2266	-22.831371	0.000384	3.838068	1.300373	-0.030652
1134	5.6650e-01	-5.2651	-23.008828	0.000444	4.444079	1.505695	-0.035491
1135	5.6700e-01	-5.3084	-23.077390	0.000172	1.717031	0.581746	-0.013713
1136	5.6750e-01	-5.3533	-22.984629	-0.000232	-2.323041	-0.787068	0.018552
1137	5.6800e-01	-5.3838	-23.521031	0.001343	13.433239	4.551305	-0.107280
1138	5.6850e-01	-5.4383	-23.674289	0.000384	3.838068	1.300373	-0.030652
1139	5.6900e-01	-5.4720	-23.734785	0.000152	1.515027	0.513305	-0.012099
1140	5.6950e-01	-5.5154	-23.964672	0.000576	5.757103	1.950559	-0.045977
1141	5.7000e-01	-5.5474	-24.073566	0.000273	2.727049	0.923949	-0.021779
1142	5.7050e-01	-5.5924	-24.214724	0.000354	3.535063	1.197712	-0.028232
1143	5.7100e-01	-5.6357	-24.287320	0.000182	1.818032	0.615966	-0.014519
1144	5.7150e-01	-5.6710	-24.589802	0.000758	7.575135	2.566525	-0.060496
1145	5.7200e-01	-5.7175	-24.747093	0.000394	3.939070	1.334593	-0.031458
1146	5.7250e-01	-5.7432	-24.904384	0.000394	3.939070	1.334593	-0.031458
1147	5.7300e-01	-5.7881	-24.795490	-0.000273	-2.727049	-0.923949	0.021779
1148	5.7350e-01	-5.8250	-24.759192	-0.000091	-0.909016	-0.307983	0.007260
1149	5.7400e-01	-5.8651	-25.146370	0.000970	9.696173	3.285152	-0.077435
1150	5.7450e-01	-5.9100	-25.315760	0.000424	4.242076	1.437254	-0.033878
1151	5.7500e-01	-5.9533	-25.283495	-0.000081	-0.808014	-0.273763	0.006453
1152	5.7550e-01	-5.9854	-25.348025	0.000162	1.616029	0.547525	-0.012906
1153	5.7600e-01	-6.0367	-25.674706	0.000818	8.181146	2.771847	-0.065336
1154	5.7650e-01	-6.0752	-25.872328	0.000495	4.949088	1.676796	-0.039524
1155	5.7700e-01	-6.1073	-26.013486	0.000354	3.535063	1.197712	-0.028232
1156	5.7750e-01	-6.1474	-26.122380	0.000273	2.727049	0.923949	-0.021779
1157	5.7800e-01	-6.1923	-26.251439	0.000323	3.232058	1.095051	-0.025812
1158	5.7850e-01	-6.2308	-26.481325	0.000576	5.757103	1.950559	-0.045977
1159	5.7900e-01	-6.2726	-26.614418	0.000333	3.333059	1.129271	-0.026618
1160	5.7950e-01	-6.3143	-26.408730	-0.000515	-5.151092	-1.745237	0.041138
1161	5.8000e-01	-6.3576	-26.743477	0.000838	8.383149	2.840288	-0.066949
1162	5.8050e-01	-6.3881	-26.912867	0.000424	4.242076	1.437254	-0.033878
1163	5.8100e-01	-6.4330	-27.263747	0.000879	8.787156	2.977169	-0.070176
1164	5.8150e-01	-6.4763	-27.179051	-0.000212	-2.121038	-0.718627	0.016939
1165	5.8200e-01	-6.5100	-27.130654	-0.000121	-1.212022	-0.410644	0.009679
1166	5.8250e-01	-6.5421	-27.574295	0.001111	11.110198	3.764237	-0.088728
1167	5.8300e-01	-6.5870	-27.747718	0.000434	4.343077	1.471474	-0.034685
1168	5.8350e-01	-6.6303	-27.796116	0.000121	1.212022	0.410644	-0.009679
1169	5.8400e-01	-6.6704	-28.110697	0.000788	7.878140	2.669186	-0.062916
1170	5.8450e-01	-6.7073	-28.223624	0.000283	2.828050	0.958169	-0.022585
1171	5.8500e-01	-6.7442	-28.296220	0.000182	1.818032	0.615966	-0.014519
1172	5.8550e-01	-6.7811	-28.247823	-0.000121	-1.212022	-0.410644	0.009679
1173	5.8600e-01	-6.8324	-28.457544	0.000525	5.252094	1.779457	-0.041944
1174	5.8650e-01	-6.8677	-28.788258	0.000828	8.282147	2.806068	-0.066143
1175	5.8700e-01	-6.9142	-28.743894	-0.000111	-1.111020	-0.376424	0.008873
1176	5.8750e-01	-6.9479	-29.022178	0.000697	6.969124	2.361203	-0.055657
1177	5.8800e-01	-6.9832	-29.102840	0.000202	2.020036	0.684407	-0.016132
1178	5.8850e-01	-7.0330	-28.969747	-0.000333	-3.333059	-1.129271	0.026618
1179	5.8900e-01	-7.0650	-29.340792	0.000929	9.292165	3.148271	-0.074209
1180	5.8950e-01	-7.1019	-29.598911	0.000646	6.464115	2.190101	-0.051624
1181	5.9000e-01	-7.1453	-29.417421	-0.000455	-4.545081	-1.539915	0.036298
1182	5.9050e-01	-7.1902	-29.844930	0.001071	10.706191	3.627356	-0.085502
1183	5.9100e-01	-7.2287	-29.961890	0.000293	2.929052	0.992390	-0.023392
1184	5.9150e-01	-7.2640	-30.103048	0.000354	3.535063	1.197712	-0.028232
1185	5.9200e-01	-7.3169	-29.953823	-0.000374	-3.737067	-1.266152	0.029845
1186	5.9250e-01	-7.3442	-30.207909	0.000636	6.363113	2.155881	-0.050817
1187	5.9300e-01	-7.3907	-30.377299	0.000424	4.242076	1.437254	-0.033878
1188	5.9350e-01	-7.4324	-30.595086	0.000545	5.454097	1.847898	-0.043557
1189	5.9400e-01	-7.4677	-30.708013	0.000283	2.828050	0.958169	-0.022585
1190	5.9450e-01	-7.5094	-30.627351	-0.000202	-2.020036	-0.684407	0.016132
1191	5.9500e-01	-7.5479	-31.163753	0.001343	13.433239	4.551305	-0.107280
1192	5.9550e-01	-7.5912	-31.050826	-0.000283	-2.828050	-0.958169	0.022585
1193	5.9600e-01	-7.6345	-31.240382	0.000475	4.747085	1.608356	-0.037911
1194	5.9650e-01	-7.6698	-31.575129	0.000838	8.383149	2.840288	-0.066949
1195	5.9700e-01	-7.7067	-31.421871	-0.000384	-3.838068	-1.300373	0.030652
1196	5.9750e-01	-7.7549	-31.599328	0.000444	4.444079	1.505695	-0.035491
1197	5.9800e-01	-7.7918	-32.022803	0.001061	10.605189	3.593135	-0.084695
1198	5.9850e-01	-7.8351	-31.990538	-0.000081	-0.808014	-0.273763	0.006453
1199	5.9900e-01	-7.8688	-32.143796	0.000384	3.838068	1.300373	-0.030652
1200	5.9950e-01	-7.9057	-31.897777	-0.000616	-6.161110	-2.087440	0.049204
1201	6.0000e-01	-7.9490	-32.341418	0.001111	11.110198	3.764237	-0.088728
1202	6.0050e-01	-7.9843	-32.478543	0.000343	3.434061	1.163491	-0.027425
1203	6.0100e-01	-8.0388	-32.555172	0.000192	1.919034	0.650186	-0.015326
1204	6.0150e-01	-8.0693	-32.764893	0.000525	5.252094	1.779457	-0.041944
1205	6.0200e-01	-8.1238	-32.736661	-0.000071	-0.707013	-0.239542	0.005646
1206	6.0250e-01	-8.1479	-33.156104	0.001050	10.504187	3.558915	-0.083888
1207	6.0300e-01	-8.1896	-33.127872	-0.000071	-0.707013	-0.239542	0.005646
1208	6.0350e-01	-8.2281	-33.260964	0.000333	3.333059	1.129271	-0.026618
1209	6.0400e-01	-8.2730	-33.192401	-0.000172	-1.717031	-0.581746	0.013713
1210	6.0450e-01	-8.3067	-33.248865	0.000141	1.414025	0.479085	-0.011293
1211	6.0500e-01	-8.3420	-33.394056	0.000364	3.636065	1.231932	-0.029038
1212	6.0550e-01	-8.3933	-33.857863	0.001162	11.615207	3.935339	-0.092761
1213	6.0600e-01	-8.4318	-33.978856	0.000303	3.030054	1.026610	-0.024199
1214	6.0650e-01	-8.4736	-34.027253	0.000121	1.212022	0.410644	-0.009679
1215	6.0700e-01	-8.5105	-34.107915	0.000202	2.020036	0.684407	-0.016132
1216	6.0750e-01	-8.5457	-34.188577	0.000202	2.020036	0.684407	-0.016132
1217	6.0800e-01	-8.5923	-34.612052	0.001061	10.605189	3.593135	-0.084695
1218	6.0850e-01	-8.6260	-34.616085	0.000010	0.101002	0.034220	-0.000807
1219	6.0900e-01	-8.6773	-34.656416	0.000101	1.010018	0.342203	-0.008066
1220	6.0950e-01	-8.7126	-34.708847	0.000131	1.313023	0.444864	-0.010486
1221	6.1000e-01	-8.7559	-34.781442	0.000182	1.818032	0.615966	-0.014519
1222	6.1050e-01	-8.7880	-35.051660	0.000677	6.767120	2.292762	-0.054044
1223	6.1100e-01	-8.8345	-35.329944	0.000697	6.969124	2.361203	-0.055657
1224	6.1150e-01	-8.8762	-35.467069	0.000343	3.434061	1.163491	-0.027425
1225	6.1200e-01	-8.9051	-35.668724	0.000505	5.050090	1.711017	-0.040331
1226	6.1250e-01	-8.9452	-35.652592	-0.000040	-0.404007	-0.136881	0.003226
1227	6.1300e-01	-8.9917	-35.648559	-0.000010	-0.101002	-0.034220	0.000807
1228	6.1350e-01	-9.0254	-35.821982	0.000434	4.343077	1.471474	-0.034685
1229	6.1400e-01	-9.0639	-36.051868	0.000576	5.757103	1.950559	-0.045977
1230	6.1450e-01	-9.1153	-36.354351	0.000758	7.575135	2.566525	-0.060496
1231	6.1500e-01	-9.1473	-36.229325	-0.000313	-3.131056	-1.060830	0.025005
1232	6.1550e-01	-9.1923	-36.362417	0.000333	3.333059	1.129271	-0.026618
1233	6.1600e-01	-9.2388	-36.511642	0.000374	3.737067	1.266152	-0.029845
1234	6.1650e-01	-9.2677	-36.870587	0.000899	8.989160	3.045610	-0.071789
1235	6.1700e-01	-9.3029	-36.874621	0.000010	0.101002	0.034220	-0.000807
1236	6.1750e-01	-9.3414	-37.092408	0.000545	5.454097	1.847898	-0.043557
1237	6.1800e-01	-9.3864	-37.209368	0.000293	2.929052	0.992390	-0.023392
1238	6.1850e-01	-9.4345	-37.148871	-0.000152	-1.515027	-0.513305	0.012099
1239	6.1900e-01	-9.4666	-37.334394	0.000465	4.646083	1.574135	-0.037105
1240	6.1950e-01	-9.5035	-37.596545	0.000657	6.565117	2.224322	-0.052430
1241	6.2000e-01	-9.5516	-37.495718	-0.000253	-2.525045	-0.855508	0.020165
1242	6.2050e-01	-9.5821	-37.580413	0.000212	2.121038	0.718627	-0.016939
1243	6.2100e-01	-9.6238	-38.056318	0.001192	11.918212	4.038000	-0.095181
1244	6.2150e-01	-9.6671	-37.979690	-0.000192	-1.919034	-0.650186	0.015326
1245	6.2200e-01	-9.7120	-38.007921	0.000071	0.707013	0.239542	-0.005646
1246	6.2250e-01	-9.7489	-38.290238	0.000707	7.070126	2.395423	-0.056463
1247	6.2300e-01	-9.7954	-38.350735	0.000152	1.515027	0.513305	-0.012099
1248	6.2350e-01	-9.8291	-38.544323	0.000485	4.848086	1.642576	-0.038718
1249	6.2400e-01	-9.8773	-38.290238	-0.000636	-6.363113	-2.155881	0.050817
1250	6.2450e-01	-9.9174	-38.608853	0.000798	7.979142	2.703407	-0.063723
1251	6.2500e-01	-9.9591	-38.891170	0.000707	7.070126	2.395423	-0.056463
1252	6.2550e-01	-9.9880	-39.048461	0.000394	3.939070	1.334593	-0.031458
1253	6.2600e-01	-10.0345	-39.165421	0.000293	2.929052	0.992390	-0.023392
1254	6.2650e-01	-10.0698	-39.072659	-0.000232	-2.323041	-0.787068	0.018552
1255	6.2700e-01	-10.1099	-39.379175	0.000768	7.676137	2.600746	-0.061303
1256	6.2750e-01	-10.1596	-39.564697	0.000465	4.646083	1.574135	-0.037105
1257	6.2800e-01	-10.1885	-39.609061	0.000111	1.111020	0.376424	-0.008873
1258	6.2850e-01	-10.2366	-39.786518	0.000444	4.444079	1.505695	-0.035491
1259	6.2900e-01	-10.2703	-40.028504	0.000606	6.060108	2.053220	-0.048397
1260	6.2950e-01	-10.2944	-40.008338	-0.000051	-0.505009	-0.171102	0.004033
1261	6.3000e-01	-10.3473	-40.137397	0.000323	3.232058	1.095051	-0.025812
1262	6.3050e-01	-10.3922	-39.984140	-0.000384	-3.838068	-1.300373	0.030652
1263	6.3100e-01	-10.4227	-40.379383	0.000990	9.898176	3.353593	-0.079049
1264	6.3150e-01	-10.4756	-40.577005	0.000495	4.949088	1.676796	-0.039524
1265	6.3200e-01	-10.5093	-40.689932	0.000283	2.828050	0.958169	-0.022585
1266	6.3250e-01	-10.5510	-40.532641	-0.000394	-3.939070	-1.334593	0.031458
1267	6.3300e-01	-10.5863	-40.879487	0.000869	8.686155	2.942949	-0.069369
1268	6.3350e-01	-10.6329	-41.044844	0.000414	4.141074	1.403034	-0.033071
1269	6.3400e-01	-10.6665	-41.254566	0.000525	5.252094	1.779457	-0.041944
1270	6.3450e-01	-10.7034	-41.198102	-0.000141	-1.414025	-0.479085	0.011293
1271	6.3500e-01	-10.7452	-41.258599	0.000152	1.515027	0.513305	-0.012099
1272	6.3550e-01	-10.7869	-41.581247	0.000808	8.080144	2.737627	-0.064530
1273	6.3600e-01	-10.8334	-41.605445	0.000061	0.606011	0.205322	-0.004840
1274	6.3650e-01	-10.8671	-41.795001	0.000475	4.747085	1.608356	-0.037911
1275	6.3700e-01	-10.9136	-41.936159	0.000354	3.535063	1.197712	-0.028232
1276	6.3750e-01	-10.9457	-42.230575	0.000737	7.373131	2.498085	-0.058883
1277	6.3800e-01	-10.9906	-42.174112	-0.000141	-1.414025	-0.479085	0.011293
1278	6.3850e-01	-11.0323	-42.343502	0.000424	4.242076	1.437254	-0.033878
1279	6.3900e-01	-11.0692	-42.359635	0.000040	0.404007	0.136881	-0.003226
1280	6.3950e-01	-11.1093	-42.722613	0.000909	9.090162	3.079830	-0.072596
1281	6.4000e-01	-11.1494	-42.742779	0.000051	0.505009	0.171102	-0.004033
1282	6.4050e-01	-11.1895	-42.920235	0.000444	4.444079	1.505695	-0.035491
1283	6.4100e-01	-11.2344	-42.722613	-0.000495	-4.949088	-1.676796	0.039524
1284	6.4150e-01	-11.2665	-42.847640	0.000313	3.131056	1.060830	-0.025005
1285	6.4200e-01	-11.3066	-43.166254	0.000798	7.979142	2.703407	-0.063723
1286	6.4250e-01	-11.3483	-43.198519	0.000081	0.808014	0.273763	-0.006453
1287	6.4300e-01	-11.3836	-43.541333	0.000859	8.585153	2.908729	-0.068563
1288	6.4350e-01	-11.4334	-43.327578	-0.000535	-5.353095	-1.813678	0.042751
1289	6.4400e-01	-11.4735	-43.327578	-0.000000	-0.000000	-0.000000	0.000000
1290	6.4450e-01	-11.5120	-43.863980	0.001343	13.433239	4.551305	-0.107280
1291	6.4500e-01	-11.5489	-43.783318	-0.000202	-2.020036	-0.684407	0.016132
1292	6.4550e-01	-11.5922	-43.928510	0.000364	3.636065	1.231932	-0.029038
1293	6.4600e-01	-11.6339	-44.122099	0.000485	4.848086	1.642576	-0.038718
1294	6.4650e-01	-11.6740	-44.097900	-0.000061	-0.606011	-0.205322	0.004840
1295	6.4700e-01	-11.7061	-44.311654	0.000535	5.353095	1.813678	-0.042751
1296	6.4750e-01	-11.7542	-44.323754	0.000030	0.303005	0.102661	-0.002420
1297	6.4800e-01	-11.7863	-44.634302	0.000778	7.777138	2.634966	-0.062110
1298	6.4850e-01	-11.8264	-44.751262	0.000293	2.929052	0.992390	-0.023392
1299	6.4900e-01	-11.8761	-44.783527	0.000081	0.808014	0.273763	-0.006453
1300	6.4950e-01	-11.9146	-44.803692	0.000051	0.505009	0.171102	-0.004033
1301	6.5000e-01	-11.9531	-44.892421	0.000222	2.222040	0.752847	-0.017746
1302	6.5050e-01	-11.9900	-45.307830	0.001040	10.403185	3.524695	-0.083082
1303	6.5100e-01	-12.0350	-45.219102	-0.000222	-2.222040	-0.752847	0.017746
1304	6.5150e-01	-12.0606	-45.170704	-0.000121	-1.212022	-0.410644	0.009679
1305	6.5200e-01	-12.1136	-45.574014	0.001010	10.100180	3.422034	-0.080662
1306	6.5250e-01	-12.1456	-45.630478	0.000141	1.414025	0.479085	-0.011293
1307	6.5300e-01	-12.1970	-45.767603	0.000343	3.434061	1.163491	-0.027425
1308	6.5350e-01	-12.2243	-45.836166	0.000172	1.717031	0.581746	-0.013713
1309	6.5400e-01	-12.2756	-45.920861	0.000212	2.121038	0.718627	-0.016939
1310	6.5450e-01	-12.3061	-46.154780	0.000586	5.858104	1.984779	-0.046784
1311	6.5500e-01	-12.3526	-46.336270	0.000455	4.545081	1.539915	-0.036298
1312	6.5550e-01	-12.3847	-46.344336	0.000020	0.202004	0.068441	-0.001613
1313	6.5600e-01	-12.4296	-46.586322	0.000606	6.060108	2.053220	-0.048397
1314	6.5650e-01	-12.4681	-46.602454	0.000040	0.404007	0.136881	-0.003226
1315	6.5700e-01	-12.5114	-46.767811	0.000414	4.141074	1.403034	-0.033071
1316	6.5750e-01	-12.5451	-47.029963	0.000657	6.565117	2.224322	-0.052430
1317	6.5800e-01	-12.5916	-47.159022	0.000323	3.232058	1.095051	-0.025812
1318	6.5850e-01	-12.6205	-47.090459	-0.000172	-1.717031	-0.581746	0.013713
1319	6.5900e-01	-12.6815	-47.288081	0.000495	4.949088	1.676796	-0.039524
1320	6.5950e-01	-12.7216	-47.421173	0.000333	3.333059	1.129271	-0.026618
1321	6.6000e-01	-12.7472	-47.328412	-0.000232	-2.323041	-0.787068	0.018552
1322	6.6050e-01	-12.7922	-47.574431	0.000616	6.161110	2.087440	-0.049204
1323	6.6100e-01	-12.8307	-47.364710	-0.000525	-5.252094	-1.779457	0.041944
1324	6.6150e-01	-12.8724	-47.889013	0.001313	13.130234	4.448644	-0.104861
1325	6.6200e-01	-12.9077	-48.191495	0.000758	7.575135	2.566525	-0.060496
1326	6.6250e-01	-12.9590	-47.812384	-0.000949	-9.494169	-3.216712	0.075822
1327	6.6300e-01	-12.9927	-48.155197	0.000859	8.585153	2.908729	-0.068563
1328	6.6350e-01	-13.0328	-48.304422	0.000374	3.737067	1.266152	-0.029845
1329	6.6400e-01	-13.0681	-48.518176	0.000535	5.353095	1.813678	-0.042751
1330	6.6450e-01	-13.1114	-48.614971	0.000242	2.424043	0.821288	-0.019359
1331	6.6500e-01	-13.1467	-48.510110	-0.000263	-2.626047	-0.889729	0.020972
1332	6.6550e-01	-13.1980	-48.485911	-0.000061	-0.606011	-0.205322	0.004840
1333	6.6600e-01	-13.2333	-48.792427	0.000768	7.676137	2.600746	-0.061303
1334	6.6650e-01	-13.2734	-48.873089	0.000202	2.020036	0.684407	-0.016132
1335	6.6700e-01	-13.3087	-48.994082	0.000303	3.030054	1.026610	-0.024199
1336	6.6750e-01	-13.3520	-49.336895	0.000859	8.585153	2.908729	-0.068563
1337	6.6800e-01	-13.3793	-49.252200	-0.000212	-2.121038	-0.718627	0.016939
1338	6.6850e-01	-13.4354	-49.611146	0.000899	8.989160	3.045610	-0.071789
1339	6.6900e-01	-13.4675	-49.482087	-0.000323	-3.232058	-1.095051	0.025812
1340	6.6950e-01	-13.5205	-49.857165	0.000939	9.393167	3.182491	-0.075016
1341	6.7000e-01	-13.5574	-49.679709	-0.000444	-4.444079	-1.505695	0.035491
1342	6.7050e-01	-13.5879	-49.768437	0.000222	2.222040	0.752847	-0.017746
1343	6.7100e-01	-13.6312	-50.139482	0.000929	9.292165	3.148271	-0.074209
1344	6.7150e-01	-13.6633	-50.042687	-0.000242	-2.424043	-0.821288	0.019359
1345	6.7200e-01	-13.7114	-50.373402	0.000828	8.282147	2.806068	-0.066143
1346	6.7250e-01	-13.7499	-50.486328	0.000283	2.828050	0.958169	-0.022585
1347	6.7300e-01	-13.7900	-50.478262	-0.000020	-0.202004	-0.068441	0.001613
1348	6.7350e-01	-13.8333	-50.679917	0.000505	5.050090	1.711017	-0.040331
1349	6.7400e-01	-13.8750	-50.849307	0.000424	4.242076	1.437254	-0.033878
1350	6.7450e-01	-13.9039	-50.893671	0.000111	1.111020	0.376424	-0.008873
1351	6.7500e-01	-13.9552	-51.075161	0.000455	4.545081	1.539915	-0.036298
1352	6.7550e-01	-13.9937	-51.026764	-0.000121	-1.212022	-0.410644	0.009679
1353	6.7600e-01	-14.0306	-51.365544	0.000848	8.484151	2.874508	-0.067756
1354	6.7650e-01	-14.0820	-51.333279	-0.000081	-0.808014	-0.273763	0.006453
1355	6.7700e-01	-14.1124	-51.522835	0.000475	4.747085	1.608356	-0.037911
1356	6.7750e-01	-14.1541	-51.538967	0.000040	0.404007	0.136881	-0.003226
1357	6.7800e-01	-14.1862	-51.841449	0.000758	7.575135	2.566525	-0.060496
1358	6.7850e-01	-14.2199	-51.756754	-0.000212	-2.121038	-0.718627	0.016939
1359	6.7900e-01	-14.2793	-51.655927	-0.000253	-2.525045	-0.855508	0.020165
1360	6.7950e-01	-14.3065	-51.861615	0.000515	5.151092	1.745237	-0.041138
1361	6.8000e-01	-14.3499	-52.083435	0.000556	5.555099	1.882118	-0.044364
1362	6.8050e-01	-14.3900	-51.950343	-0.000333	-3.333059	-1.129271	0.026618
1363	6.8100e-01	-14.4365	-52.208461	0.000646	6.464115	2.190101	-0.051624
1364	6.8150e-01	-14.4654	-52.482712	0.000687	6.868122	2.326983	-0.054850
1365	6.8200e-01	-14.5103	-52.502878	0.000051	0.505009	0.171102	-0.004033
1366	6.8250e-01	-14.5424	-52.797294	0.000737	7.373131	2.498085	-0.058883
1367	6.8300e-01	-14.5905	-52.849724	0.000131	1.313023	0.444864	-0.010486
1368	6.8350e-01	-14.6306	-52.966684	0.000293	2.929052	0.992390	-0.023392
1369	6.8400e-01	-14.6675	-52.902154	-0.000162	-1.616029	-0.547525	0.012906
1370	6.8450e-01	-14.7108	-53.039280	0.000343	3.434061	1.163491	-0.027425
1371	6.8500e-01	-14.7461	-53.285299	0.000616	6.161110	2.087440	-0.049204
1372	6.8550e-01	-14.7926	-53.313530	0.000071	0.707013	0.239542	-0.005646
1373	6.8600e-01	-14.8231	-53.563583	0.000626	6.262111	2.121661	-0.050010
1374	6.8650e-01	-14.8696	-53.862032	0.000747	7.474133	2.532305	-0.059690
1375	6.8700e-01	-14.9162	-53.676509	-0.000465	-4.646083	-1.574135	0.037105
1376	6.8750e-01	-14.9386	-53.987058	0.000778	7.777138	2.634966	-0.062110
1377	6.8800e-01	-14.9916	-53.793469	-0.000485	-4.848086	-1.642576	0.038718
1378	6.8850e-01	-15.0333	-53.966892	0.000434	4.343077	1.471474	-0.034685
1379	6.8900e-01	-15.0734	-54.168547	0.000505	5.050090	1.711017	-0.040331
1380	6.8950e-01	-15.1135	-54.216945	0.000121	1.212022	0.410644	-0.009679
1381	6.9000e-01	-15.1488	-54.289540	0.000182	1.818032	0.615966	-0.014519
1382	6.9050e-01	-15.1905	-54.378268	0.000222	2.222040	0.752847	-0.017746
1383	6.9100e-01	-15.2274	-54.551692	0.000434	4.343077	1.471474	-0.034685
1384	6.9150e-01	-15.2691	-54.676718	0.000313	3.131056	1.060830	-0.025005
1385	6.9200e-01	-15.3076	-54.938869	0.000657	6.565117	2.224322	-0.052430
1386	6.9250e-01	-15.3493	-54.910637	-0.000071	-0.707013	-0.239542	0.005646
1387	6.9300e-01	-15.3910	-55.112292	0.000505	5.050090	1.711017	-0.040331
1388	6.9350e-01	-15.4311	-55.192954	0.000202	2.020036	0.684407	-0.016132
1389	6.9400e-01	-15.4680	-55.289749	0.000242	2.424043	0.821288	-0.019359
1390	6.9450e-01	-15.5065	-55.612397	0.000808	8.080144	2.737627	-0.064530
1391	6.9500e-01	-15.5530	-55.471238	-0.000354	-3.535063	-1.197712	0.028232
1392	6.9550e-01	-15.5947	-55.769687	0.000747	7.474133	2.532305	-0.059690
1393	6.9600e-01	-15.6284	-55.951177	0.000455	4.545081	1.539915	-0.036298
1394	6.9650e-01	-15.6541	-56.003607	0.000131	1.313023	0.444864	-0.010486
1395	6.9700e-01	-15.7151	-55.959243	-0.000111	-1.111020	-0.376424	0.008873
1396	6.9750e-01	-15.7520	-56.281891	0.000808	8.080144	2.737627	-0.064530
1397	6.9800e-01	-15.7921	-56.019740	-0.000657	-6.565117	-2.224322	0.052430
1398	6.9850e-01	-15.8290	-56.463380	0.001111	11.110198	3.764237	-0.088728
1399	6.9900e-01	-15.8771	-56.475480	0.000030	0.303005	0.102661	-0.002420
1400	6.9950e-01	-15.9140	-56.568241	0.000232	2.323041	0.787068	-0.018552
1401	7.0000e-01	-15.9493	-56.628737	0.000152	1.515027	0.513305	-0.012099
1402	7.0050e-01	-15.9846	-56.769896	0.000354	3.535063	1.197712	-0.028232
1403	7.0100e-01	-16.0279	-56.802161	0.000081	0.808014	0.273763	-0.006453
1404	7.0150e-01	-16.0632	-56.862657	0.000152	1.515027	0.513305	-0.012099
1405	7.0200e-01	-16.1065	-57.136908	0.000687	6.868122	2.326983	-0.054850
1406	7.0250e-01	-16.1498	-57.213537	0.000192	1.919034	0.650186	-0.015326
1407	7.0300e-01	-16.1963	-57.132875	-0.000202	-2.020036	-0.684407	0.016132
1408	7.0350e-01	-16.2284	-57.520052	0.000970	9.696173	3.285152	-0.077435
1409	7.0400e-01	-16.2621	-57.774137	0.000636	6.363113	2.155881	-0.050817
1410	7.0450e-01	-16.3070	-57.524085	-0.000626	-6.262111	-2.121661	0.050010
1411	7.0500e-01	-16.3568	-57.693476	0.000424	4.242076	1.437254	-0.033878
1412	7.0550e-01	-16.3904	-57.963693	0.000677	6.767120	2.292762	-0.054044
1413	7.0600e-01	-16.4289	-57.935461	-0.000071	-0.707013	-0.239542	0.005646
1414	7.0650e-01	-16.4739	-58.197613	0.000657	6.565117	2.224322	-0.052430
1415	7.0700e-01	-16.5188	-58.266176	0.000172	1.717031	0.581746	-0.013713
1416	7.0750e-01	-16.5493	-58.459764	0.000485	4.848086	1.642576	-0.038718
1417	7.0800e-01	-16.5974	-58.516228	0.000141	1.414025	0.479085	-0.011293
1418	7.0850e-01	-16.6279	-58.459764	-0.000141	-1.414025	-0.479085	0.011293
1419	7.0900e-01	-16.6696	-58.742081	0.000707	7.070126	2.395423	-0.056463
1420	7.0950e-01	-16.7145	-58.766280	0.000061	0.606011	0.205322	-0.004840
1421	7.1000e-01	-16.7546	-58.984067	0.000545	5.454097	1.847898	-0.043557
1422	7.1050e-01	-16.7915	-59.149424	0.000414	4.141074	1.403034	-0.033071
1423	7.1100e-01	-16.8332	-59.371245	0.000556	5.555099	1.882118	-0.044364
1424	7.1150e-01	-16.8621	-59.189755	-0.000455	-4.545081	-1.539915	0.036298
1425	7.1200e-01	-16.9102	-59.443840	0.000636	6.363113	2.155881	-0.050817
1426	7.1250e-01	-16.9439	-59.665661	0.000556	5.555099	1.882118	-0.044364
1427	7.1300e-01	-16.9872	-59.484171	-0.000455	-4.545081	-1.539915	0.036298
1428	7.1350e-01	-17.0337	-59.613230	0.000323	3.232058	1.095051	-0.025812
1429	7.1400e-01	-17.0787	-59.681793	0.000172	1.717031	0.581746	-0.013713
1430	7.1450e-01	-17.1059	-59.915713	0.000586	5.858104	1.984779	-0.046784
1431	7.1500e-01	-17.1541	-60.109302	0.000485	4.848086	1.642576	-0.038718
1432	7.1550e-01	-17.1910	-59.960077	-0.000374	-3.737067	-1.266152	0.029845
1433	7.1600e-01	-17.2295	-60.169798	0.000525	5.252094	1.779457	-0.041944
1434	7.1650e-01	-17.2599	-60.089136	-0.000202	-2.020036	-0.684407	0.016132
1435	7.1700e-01	-17.3097	-60.722333	0.001586	15.857282	5.372593	-0.126639
1436	7.1750e-01	-17.3562	-60.609406	-0.000283	-2.828050	-0.958169	0.022585
1437	7.1800e-01	-17.3979	-60.682002	0.000182	1.818032	0.615966	-0.014519
1438	7.1850e-01	-17.4396	-61.000616	0.000798	7.979142	2.703407	-0.063723
1439	7.1900e-01	-17.4685	-61.097411	0.000242	2.424043	0.821288	-0.019359
1440	7.1950e-01	-17.5134	-61.109510	0.000030	0.303005	0.102661	-0.002420
1441	7.2000e-01	-17.5503	-60.968352	-0.000354	-3.535063	-1.197712	0.028232
1442	7.2050e-01	-17.5920	-61.278900	0.000778	7.777138	2.634966	-0.062110
1443	7.2100e-01	-17.6257	-61.137742	-0.000354	-3.535063	-1.197712	0.028232
1444	7.2150e-01	-17.6722	-61.407959	0.000677	6.767120	2.292762	-0.054044
1445	7.2200e-01	-17.7171	-61.581383	0.000434	4.343077	1.471474	-0.034685
1446	7.2250e-01	-17.7524	-61.686243	0.000263	2.626047	0.889729	-0.020972
1447	7.2300e-01	-17.7990	-61.827402	0.000354	3.535063	1.197712	-0.028232
1448	7.2350e-01	-17.8343	-61.690276	-0.000343	-3.434061	-1.163491	0.027425
1449	7.2400e-01	-17.8776	-61.799170	0.000273	2.727049	0.923949	-0.021779
1450	7.2450e-01	-17.9113	-61.754806	-0.000111	-1.111020	-0.376424	0.008873
1451	7.2500e-01	-17.9514	-62.069387	0.000788	7.878140	2.669186	-0.062916
1452	7.2550e-01	-17.9915	-62.170215	0.000253	2.525045	0.855508	-0.020165
1453	7.2600e-01	-18.0300	-62.464631	0.000737	7.373131	2.498085	-0.058883
1454	7.2650e-01	-18.0749	-62.541260	0.000192	1.919034	0.650186	-0.015326
1455	7.2700e-01	-18.1086	-62.650154	0.000273	2.727049	0.923949	-0.021779
1456	7.2750e-01	-18.1519	-62.839709	0.000475	4.747085	1.608356	-0.037911
1457	7.2800e-01	-18.1936	-62.952636	0.000283	2.828050	0.958169	-0.022585
1458	7.2850e-01	-18.2273	-62.823577	-0.000323	-3.232058	-1.095051	0.025812
1459	7.2900e-01	-18.2738	-62.976835	0.000384	3.838068	1.300373	-0.030652
1460	7.2950e-01	-18.3107	-63.263185	0.000717	7.171128	2.429644	-0.057270
1461	7.3000e-01	-18.3476	-63.319648	0.000141	1.414025	0.479085	-0.011293
1462	7.3050e-01	-18.3861	-63.416442	0.000242	2.424043	0.821288	-0.019359
1463	7.3100e-01	-18.4310	-63.222854	-0.000485	-4.848086	-1.642576	0.038718
1464	7.3150e-01	-18.4647	-63.605998	0.000960	9.595171	3.250932	-0.076629
1465	7.3200e-01	-18.5161	-63.872183	0.000667	6.666119	2.258542	-0.053237
1466	7.3250e-01	-18.5578	-63.908480	0.000091	0.909016	0.307983	-0.007260
1467	7.3300e-01	-18.5898	-63.751190	-0.000394	-3.939070	-1.334593	0.031458
1468	7.3350e-01	-18.6348	-64.001242	0.000626	6.262111	2.121661	-0.050010
1469	7.3400e-01	-18.6797	-64.142400	0.000354	3.535063	1.197712	-0.028232
1470	7.3450e-01	-18.7070	-64.331956	0.000475	4.747085	1.608356	-0.037911
1471	7.3500e-01	-18.7471	-64.344055	0.000030	0.303005	0.102661	-0.002420
1472	7.3550e-01	-18.7936	-64.485214	0.000354	3.535063	1.197712	-0.028232
1473	7.3600e-01	-18.8321	-64.618306	0.000333	3.333059	1.129271	-0.026618
1474	7.3650e-01	-18.8626	-64.823994	0.000515	5.151092	1.745237	-0.041138
1475	7.3700e-01	-18.9139	-64.920788	0.000242	2.424043	0.821288	-0.019359
1476	7.3750e-01	-18.9492	-64.860292	-0.000152	-1.515027	-0.513305	0.012099
1477	7.3800e-01	-19.0021	-65.001450	0.000354	3.535063	1.197712	-0.028232
1478	7.3850e-01	-19.0294	-65.122443	0.000303	3.030054	1.026610	-0.024199
1479	7.3900e-01	-19.0807	-65.146642	0.000061	0.606011	0.205322	-0.004840
1480	7.3950e-01	-19.1048	-65.029682	-0.000293	-2.929052	-0.992390	0.023392
1481	7.4000e-01	-19.1577	-65.473323	0.001111	11.110198	3.764237	-0.088728
1482	7.4050e-01	-19.1946	-65.461223	-0.000030	-0.303005	-0.102661	0.002420
1483	7.4100e-01	-19.2315	-65.457190	-0.000010	-0.101002	-0.034220	0.000807
1484	7.4150e-01	-19.2749	-65.711276	0.000636	6.363113	2.155881	-0.050817
1485	7.4200e-01	-19.3150	-65.981493	0.000677	6.767120	2.292762	-0.054044
1486	7.4250e-01	-19.3535	-65.941162	-0.000101	-1.010018	-0.342203	0.008066
1487	7.4300e-01	-19.3984	-65.925030	-0.000040	-0.404007	-0.136881	0.003226
1488	7.4350e-01	-19.4321	-66.110552	0.000465	4.646083	1.574135	-0.037105
1489	7.4400e-01	-19.4706	-66.340439	0.000576	5.757103	1.950559	-0.045977
1490	7.4450e-01	-19.5075	-66.384803	0.000111	1.111020	0.376424	-0.008873
1491	7.4500e-01	-19.5428	-66.683252	0.000747	7.474133	2.532305	-0.059690
1492	7.4550e-01	-19.5845	-66.703418	0.000051	0.505009	0.171102	-0.004033
1493	7.4600e-01	-19.6310	-66.675186	-0.000071	-0.707013	-0.239542	0.005646
1494	7.4650e-01	-19.6567	-66.828444	0.000384	3.838068	1.300373	-0.030652
1495	7.4700e-01	-19.7080	-66.929271	0.000253	2.525045	0.855508	-0.020165
1496	7.4750e-01	-19.7433	-67.026066	0.000242	2.424043	0.821288	-0.019359
1497	7.4800e-01	-19.7914	-66.909106	-0.000293	-2.929052	-0.992390	0.023392
1498	7.4850e-01	-19.8251	-67.368879	0.001151	11.514205	3.901118	-0.091955
1499	7.4900e-01	-19.8700	-67.340647	-0.000071	-0.707013	-0.239542	0.005646
1500	7.4950e-01	-19.9101	-67.501971	0.000404	4.040072	1.368813	-0.032265
1501	7.5000e-01	-19.9438	-67.578600	0.000192	1.919034	0.650186	-0.015326
1502	7.5050e-01	-19.9615	-67.481806	-0.000242	-2.424043	-0.821288	0.019359
1503	7.5100e-01	-19.9278	-67.602799	-0.000303	-3.030054	-1.026610	-0.024199
1504	7.5150e-01	-19.9005	-67.401144	0.000505	5.050090	1.711017	0.040331
1505	7.5200e-01	-19.8556	-67.336614	0.000162	1.616029	0.547525	0.012906
1506	7.5250e-01	-19.8091	-67.304349	0.000081	0.808014	0.273763	0.006453
1507	7.5300e-01	-19.7706	-67.223688	0.000202	2.020036	0.684407	0.016132
1508	7.5350e-01	-19.7385	-67.179323	0.000111	1.111020	0.376424	0.008873
1509	7.5400e-01	-19.6871	-67.062364	0.000293	2.929052	0.992390	0.023392
1510	7.5450e-01	-19.6583	-66.997834	0.000162	1.616029	0.547525	0.012906
1511	7.5500e-01	-19.6246	-67.191423	-0.000485	-4.848086	-1.642576	-0.038718
1512	7.5550e-01	-19.5765	-66.941371	0.000626	6.262111	2.121661	0.050010
1513	7.5600e-01	-19.5299	-66.743749	0.000495	4.949088	1.676796	0.039524
1514	7.5650e-01	-19.5027	-66.594524	0.000374	3.737067	1.266152	0.029845
1515	7.5700e-01	-19.4577	-66.437233	0.000394	3.939070	1.334593	0.031458
1516	7.5750e-01	-19.4128	-66.663087	-0.000566	-5.656101	-1.916339	-0.045171
1517	7.5800e-01	-19.3759	-66.691318	-0.000071	-0.707013	-0.239542	-0.005646
1518	7.5850e-01	-19.3358	-66.179115	0.001283	12.827228	4.345983	0.102441
1519	7.5900e-01	-19.2877	-66.130718	0.000121	1.212022	0.410644	0.009679
1520	7.5950e-01	-19.2460	-66.126685	0.000010	0.101002	0.034220	0.000807
1521	7.6000e-01	-19.2059	-66.296075	-0.000424	-4.242076	-1.437254	-0.033878
1522	7.6050e-01	-19.1786	-66.029890	0.000667	6.666119	2.258542	0.053237
1523	7.6100e-01	-19.1305	-65.888732	0.000354	3.535063	1.197712	0.028232
1524	7.6150e-01	-19.0984	-65.679011	0.000525	5.252094	1.779457	0.041944
1525	7.6200e-01	-19.0647	-65.864533	-0.000465	-4.646083	-1.574135	-0.037105
1526	7.6250e-01	-19.0086	-65.888732	-0.000061	-0.606011	-0.205322	-0.004840
1527	7.6300e-01	-18.9845	-65.432992	0.001141	11.413203	3.866898	0.091148
1528	7.6350e-01	-18.9364	-65.505587	-0.000182	-1.818032	-0.615966	-0.014519
1529	7.6400e-01	-18.8995	-65.493488	0.000030	0.303005	0.102661	0.002420
1530	7.6450e-01	-18.8562	-65.545918	-0.000131	-1.313023	-0.444864	-0.010486
1531	7.6500e-01	-18.8209	-65.311999	0.000586	5.858104	1.984779	0.046784
1532	7.6550e-01	-18.7808	-65.102278	0.000525	5.252094	1.779457	0.041944
1533	7.6600e-01	-18.7439	-65.255535	-0.000384	-3.838068	-1.300373	-0.030652
1534	7.6650e-01	-18.6941	-65.114377	0.000354	3.535063	1.197712	0.028232
1535	7.6700e-01	-18.6636	-64.880457	0.000586	5.858104	1.984779	0.046784
1536	7.6750e-01	-18.6123	-64.823994	0.000141	1.414025	0.479085	0.011293
1537	7.6800e-01	-18.5738	-64.674769	0.000374	3.737067	1.266152	0.029845
1538	7.6850e-01	-18.5337	-64.698968	-0.000061	-0.606011	-0.205322	-0.004840
1539	7.6900e-01	-18.4904	-64.828027	-0.000323	-3.232058	-1.095051	-0.025812
1540	7.6950e-01	-18.4535	-64.561842	0.000667	6.666119	2.258542	0.053237
1541	7.7000e-01	-18.4118	-64.541677	0.000051	0.505009	0.171102	0.004033
1542	7.7050e-01	-18.3797	-64.497313	0.000111	1.111020	0.376424	0.008873
1543	7.7100e-01	-18.3396	-64.053672	0.001111	11.110198	3.764237	0.088728
1544	7.7150e-01	-18.2963	-64.210963	-0.000394	-3.939070	-1.334593	-0.031458
1545	7.7200e-01	-18.2530	-64.162566	0.000121	1.212022	0.410644	0.009679
1546	7.7250e-01	-18.2161	-64.009308	0.000384	3.838068	1.300373	0.030652
1547	7.7300e-01	-18.1744	-63.819752	0.000475	4.747085	1.608356	0.037911
1548	7.7350e-01	-18.1423	-63.549535	0.000677	6.767120	2.292762	0.054044
1549	7.7400e-01	-18.0925	-63.694726	-0.000364	-3.636065	-1.231932	-0.029038
1550	7.7450e-01	-18.0653	-63.614064	0.000202	2.020036	0.684407	0.016132
1551	7.7500e-01	-18.0171	-63.714892	-0.000253	-2.525045	-0.855508	-0.020165
1552	7.7550e-01	-17.9738	-63.420476	0.000737	7.373131	2.498085	0.058883
1553	7.7600e-01	-17.9385	-63.347880	0.000182	1.818032	0.615966	0.014519
1554	7.7650e-01	-17.8936	-63.251085	0.000242	2.424043	0.821288	0.019359
1555	7.7700e-01	-17.8487	-63.017166	0.000586	5.858104	1.984779	0.046784
1556	7.7750e-01	-17.8150	-63.033298	-0.000040	-0.404007	-0.136881	-0.003226
1557	7.7800e-01	-17.7829	-63.041364	-0.000020	-0.202004	-0.068441	-0.001613
1558	7.7850e-01	-17.7412	-62.706617	0.000838	8.383149	2.840288	0.066949
1559	7.7900e-01	-17.6931	-62.811478	-0.000263	-2.626047	-0.889729	-0.020972
1560	7.7950e-01	-17.6642	-62.932471	-0.000303	-3.030054	-1.026610	-0.024199
1561	7.8000e-01	-17.6129	-62.609823	0.000808	8.080144	2.737627	0.064530
1562	7.8050e-01	-17.5728	-62.545293	0.000162	1.616029	0.547525	0.012906
1563	7.8100e-01	-17.5391	-62.371870	0.000434	4.343077	1.471474	0.034685
1564	7.8150e-01	-17.4926	-62.182314	0.000475	4.747085	1.608356	0.037911
1565	7.8200e-01	-17.4605	-62.029057	0.000384	3.838068	1.300373	0.030652
1566	7.8250e-01	-17.4188	-62.049222	-0.000051	-0.505009	-0.171102	-0.004033
1567	7.8300e-01	-17.3787	-61.984692	0.000162	1.616029	0.547525	0.012906
1568	7.8350e-01	-17.3353	-62.065354	-0.000202	-2.020036	-0.684407	-0.016132
1569	7.8400e-01	-17.3049	-62.000825	0.000162	1.616029	0.547525	0.012906
1570	7.8450e-01	-17.2567	-61.658011	0.000859	8.585153	2.908729	0.068563
1571	7.8500e-01	-17.2134	-61.605581	0.000131	1.313023	0.444864	0.010486
1572	7.8550e-01	-17.1797	-61.678177	-0.000182	-1.818032	-0.615966	-0.014519
1573	7.8600e-01	-17.1396	-61.411992	0.000667	6.666119	2.258542	0.053237
1574	7.8650e-01	-17.0995	-61.359562	0.000131	1.313023	0.444864	0.010486
1575	7.8700e-01	-17.0562	-61.117576	0.000606	6.060108	2.053220	0.048397
1576	7.8750e-01	-17.0129	-60.952219	0.000414	4.141074	1.403034	0.033071
1577	7.8800e-01	-16.9744	-61.266801	-0.000788	-7.878140	-2.669186	-0.062916
1578	7.8850e-01	-16.9263	-60.855425	0.001030	10.302183	3.490474	0.082275
1579	7.8900e-01	-16.8990	-60.790895	0.000162	1.616029	0.547525	0.012906
1580	7.8950e-01	-16.8541	-60.879623	-0.000222	-2.222040	-0.752847	-0.017746
1581	7.9000e-01	-16.8156	-60.718299	0.000404	4.040072	1.368813	0.032265
1582	7.9050e-01	-16.7723	-60.605373	0.000283	2.828050	0.958169	0.022585
1583	7.9100e-01	-16.7402	-60.335155	0.000677	6.767120	2.292762	0.054044
1584	7.9150e-01	-16.6904	-60.290791	0.000111	1.111020	0.376424	0.008873
1585	7.9200e-01	-16.6584	-60.367420	-0.000192	-1.919034	-0.650186	-0.015326
1586	7.9250e-01	-16.6118	-60.262559	0.000263	2.626047	0.889729	0.020972
1587	7.9300e-01	-16.5765	-60.068971	0.000485	4.848086	1.642576	0.038718
1588	7.9350e-01	-16.5316	-60.056871	0.000030	0.303005	0.102661	0.002420
1589	7.9400e-01	-16.4931	-59.956044	0.000253	2.525045	0.855508	0.020165
1590	7.9450e-01	-16.4578	-59.835051	0.000303	3.030054	1.026610	0.024199
1591	7.9500e-01	-16.4225	-59.504337	0.000828	8.282147	2.806068	0.066143
1592	7.9550e-01	-16.3808	-59.580966	-0.000192	-1.919034	-0.650186	-0.015326
1593	7.9600e-01	-16.3343	-59.560800	0.000051	0.505009	0.171102	0.004033
1594	7.9650e-01	-16.2910	-59.584999	-0.000061	-0.606011	-0.205322	-0.004840
1595	7.9700e-01	-16.2477	-59.375278	0.000525	5.252094	1.779457	0.041944
1596	7.9750e-01	-16.2140	-59.351079	0.000061	0.606011	0.205322	0.004840
1597	7.9800e-01	-16.1787	-59.153457	0.000495	4.949088	1.676796	0.039524
1598	7.9850e-01	-16.1402	-58.863074	0.000727	7.272129	2.463864	0.058077
1599	7.9900e-01	-16.0937	-58.649320	0.000535	5.353095	1.813678	0.042751
1600	7.9950e-01	-16.0584	-58.984067	-0.000838	-8.383149	-2.840288	-0.066949
1601	8.0000e-01	-16.0102	-58.830809	0.000384	3.838068	1.300373	0.030652
1602	8.0050e-01	-15.9798	-58.544459	0.000717	7.171128	2.429644	0.057270
1603	8.0100e-01	-15.9348	-58.528327	0.000040	0.404007	0.136881	0.003226
1604	8.0150e-01	-15.8915	-58.342804	0.000465	4.646083	1.574135	0.037105
1605	8.0200e-01	-15.8530	-58.411367	-0.000172	-1.717031	-0.581746	-0.013713
1606	8.0250e-01	-15.8049	-58.270209	0.000354	3.535063	1.197712	0.028232
1607	8.0300e-01	-15.7760	-58.169381	0.000253	2.525045	0.855508	0.020165
1608	8.0350e-01	-15.7327	-58.060487	0.000273	2.727049	0.923949	0.021779
1609	8.0400e-01	-15.6974	-58.088719	-0.000071	-0.707013	-0.239542	-0.005646
1610	8.0450e-01	-15.6525	-57.778171	0.000778	7.777138	2.634966	0.062110
1611	8.0500e-01	-15.6172	-57.588615	0.000475	4.747085	1.608356	0.037911
1612	8.0550e-01	-15.5755	-57.661211	-0.000182	-1.818032	-0.615966	-0.014519
1613	8.0600e-01	-15.5418	-57.592648	0.000172	1.717031	0.581746	0.013713
1614	8.0650e-01	-15.4889	-57.637012	-0.000111	-1.111020	-0.376424	-0.008873
1615	8.0700e-01	-15.4600	-57.463589	0.000434	4.343077	1.471474	0.034685
1616	8.0750e-01	-15.4167	-57.064312	0.001000	9.999178	3.387813	0.079855
1617	8.0800e-01	-15.3750	-56.999783	0.000162	1.616029	0.547525	0.012906
1618	8.0850e-01	-15.3349	-57.213537	-0.000535	-5.353095	-1.813678	-0.042751
1619	8.0900e-01	-15.2899	-56.923154	0.000727	7.272129	2.463864	0.058077
1620	8.0950e-01	-15.2611	-56.979617	-0.000141	-1.414025	-0.479085	-0.011293
1621	8.1000e-01	-15.2129	-56.636804	0.000859	8.585153	2.908729	0.068563
1622	8.1050e-01	-15.1857	-56.701333	-0.000162	-1.616029	-0.547525	-0.012906
1623	8.1100e-01	-15.1375	-56.378685	0.000808	8.080144	2.737627	0.064530
1624	8.1150e-01	-15.1039	-56.419016	-0.000101	-1.010018	-0.342203	-0.008066
1625	8.1200e-01	-15.0589	-56.068137	0.000879	8.787156	2.977169	0.070176
1626	8.1250e-01	-15.0156	-56.177030	-0.000273	-2.727049	-0.923949	-0.021779
1627	8.1300e-01	-14.9819	-56.072170	0.000263	2.626047	0.889729	0.020972
1628	8.1350e-01	-14.9322	-55.842283	0.000576	5.757103	1.950559	0.045977
1629	8.1400e-01	-14.8953	-55.943111	-0.000253	-2.525045	-0.855508	-0.020165
1630	8.1450e-01	-14.8632	-55.697092	0.000616	6.161110	2.087440	0.049204
1631	8.1500e-01	-14.8071	-55.535768	0.000404	4.040072	1.368813	0.032265
1632	8.1550e-01	-14.7814	-55.777754	-0.000606	-6.060108	-2.053220	-0.048397
1633	8.1600e-01	-14.7349	-55.680959	0.000242	2.424043	0.821288	0.019359
1634	8.1650e-01	-14.6964	-55.382510	0.000747	7.474133	2.532305	0.059690
1635	8.1700e-01	-14.6547	-55.213120	0.000424	4.242076	1.437254	0.033878
1636	8.1750e-01	-14.6210	-55.257484	-0.000111	-1.111020	-0.376424	-0.008873
1637	8.1800e-01	-14.5841	-55.120359	0.000343	3.434061	1.163491	0.027425
1638	8.1850e-01	-14.5343	-54.910637	0.000525	5.252094	1.779457	0.041944
1639	8.1900e-01	-14.4926	-54.838042	0.000182	1.818032	0.615966	0.014519
1640	8.1950e-01	-14.4493	-54.729148	0.000273	2.727049	0.923949	0.021779
1641	8.2000e-01	-14.4204	-54.450864	0.000697	6.969124	2.361203	0.055657
1642	8.2050e-01	-14.3659	-54.733181	-0.000707	-7.070126	-2.395423	-0.056463
1643	8.2100e-01	-14.3370	-54.410533	0.000808	8.080144	2.737627	0.064530
1644	8.2150e-01	-14.2969	-54.099985	0.000778	7.777138	2.634966	0.062110
1645	8.2200e-01	-14.2488	-54.136283	-0.000091	-0.909016	-0.307983	-0.007260
1646	8.2250e-01	-14.2119	-54.027389	0.000273	2.727049	0.923949	0.021779
1647	8.2300e-01	-14.1734	-54.003190	0.000061	0.606011	0.205322	0.004840
1648	8.2350e-01	-14.1333	-53.849933	0.000384	3.838068	1.300373	0.030652
1649	8.2400e-01	-14.0980	-53.672476	0.000444	4.444079	1.505695	0.035491
1650	8.2450e-01	-14.0547	-53.527285	0.000364	3.636065	1.231932	0.029038
1651	8.2500e-01	-14.0066	-53.692642	-0.000414	-4.141074	-1.403034	-0.033071
1652	8.2550e-01	-13.9793	-53.551483	0.000354	3.535063	1.197712	0.028232
1653	8.2600e-01	-13.9312	-53.232868	0.000798	7.979142	2.703407	0.063723
1654	8.2650e-01	-13.8894	-53.184471	0.000121	1.212022	0.410644	0.009679
1655	8.2700e-01	-13.8526	-52.998949	0.000465	4.646083	1.574135	0.037105
1656	8.2750e-01	-13.8189	-53.168339	-0.000424	-4.242076	-1.437254	-0.033878
1657	8.2800e-01	-13.7739	-53.015081	0.000384	3.838068	1.300373	0.030652
1658	8.2850e-01	-13.7338	-52.914254	0.000253	2.525045	0.855508	0.020165
1659	8.2900e-01	-13.7018	-52.918287	-0.000010	-0.101002	-0.034220	-0.000807
1660	8.2950e-01	-13.6504	-52.627904	0.000727	7.272129	2.463864	0.058077
1661	8.3000e-01	-13.6039	-52.635970	-0.000020	-0.202004	-0.068441	-0.001613
1662	8.3050e-01	-13.5798	-52.696466	-0.000152	-1.515027	-0.513305	-0.012099
1663	8.3100e-01	-13.5301	-52.079402	0.001545	15.453275	5.235711	0.123413
1664	8.3150e-01	-13.4868	-52.103601	-0.000061	-0.606011	-0.205322	-0.004840
1665	8.3200e-01	-13.4579	-52.103601	0.000000	0.000000	0.000000	0.000000
1666	8.3250e-01	-13.4130	-52.079402	0.000061	0.606011	0.205322	0.004840
1667	8.3300e-01	-13.3777	-51.841449	0.000596	5.959106	2.019000	0.047591
1668	8.3350e-01	-13.3408	-51.736589	0.000263	2.626047	0.889729	0.020972
1669	8.3400e-01	-13.3007	-51.526868	0.000525	5.252094	1.779457	0.041944
1670	8.3450e-01	-13.2510	-51.494603	0.000081	0.808014	0.273763	0.006453
1671	8.3500e-01	-13.2221	-51.442173	0.000131	1.313023	0.444864	0.010486
1672	8.3550e-01	-13.1740	-51.196154	0.000616	6.161110	2.087440	0.049204
1673	8.3600e-01	-13.1387	-51.313114	-0.000293	-2.929052	-0.992390	-0.023392
1674	8.3650e-01	-13.0905	-51.002565	0.000778	7.777138	2.634966	0.062110
1675	8.3700e-01	-13.0569	-51.091293	-0.000222	-2.222040	-0.752847	-0.017746
1676	8.3750e-01	-13.0167	-50.921903	0.000424	4.242076	1.437254	0.033878
1677	8.3800e-01	-12.9734	-50.857373	0.000162	1.616029	0.547525	0.012906
1678	8.3850e-01	-12.9349	-50.635553	0.000556	5.555099	1.882118	0.044364
1679	8.3900e-01	-12.8964	-50.244342	0.000980	9.797174	3.319373	0.078242
1680	8.3950e-01	-12.8579	-50.312905	-0.000172	-1.717031	-0.581746	-0.013713
1681	8.4000e-01	-12.8114	-50.248375	0.000162	1.616029	0.547525	0.012906
1682	8.4050e-01	-12.7665	-50.199978	0.000121	1.212022	0.410644	0.009679
1683	8.4100e-01	-12.7392	-50.030588	0.000424	4.242076	1.437254	0.033878
1684	8.4150e-01	-12.6991	-50.078985	-0.000121	-1.212022	-0.410644	-0.009679
1685	8.4200e-01	-12.6590	-49.925728	0.000384	3.838068	1.300373	0.030652
1686	8.4250e-01	-12.6205	-49.768437	0.000394	3.939070	1.334593	0.031458
1687	8.4300e-01	-12.5724	-49.784569	-0.000040	-0.404007	-0.136881	-0.003226
1688	8.4350e-01	-12.5435	-49.570815	0.000535	5.353095	1.813678	0.042751
1689	8.4400e-01	-12.4986	-49.494186	0.000192	1.919034	0.650186	0.015326
1690	8.4450e-01	-12.4649	-49.474021	0.000051	0.505009	0.171102	0.004033
1691	8.4500e-01	-12.4119	-49.167505	0.000768	7.676137	2.600746	0.061303
1692	8.4550e-01	-12.3734	-49.240101	-0.000182	-1.818032	-0.615966	-0.014519
1693	8.4600e-01	-12.3398	-48.990049	0.000626	6.262111	2.121661	0.050010
1694	8.4650e-01	-12.2980	-48.929552	0.000152	1.515027	0.513305	0.012099
1695	8.4700e-01	-12.2531	-48.860990	0.000172	1.717031	0.581746	0.013713
1696	8.4750e-01	-12.2162	-48.522209	0.000848	8.484151	2.874508	0.067756
1697	8.4800e-01	-12.1777	-48.594805	-0.000182	-1.818032	-0.615966	-0.014519
1698	8.4850e-01	-12.1312	-48.328621	0.000667	6.666119	2.258542	0.053237
1699	8.4900e-01	-12.1023	-48.417349	-0.000222	-2.222040	-0.752847	-0.017746
1700	8.4950e-01	-12.0606	-48.126966	0.000727	7.272129	2.463864	0.058077
1701	8.5000e-01	-12.0141	-48.102767	0.000061	0.606011	0.205322	0.004840
1702	8.5050e-01	-11.9756	-48.086635	0.000040	0.404007	0.136881	0.003226
1703	8.5100e-01	-11.9243	-47.969675	0.000293	2.929052	0.992390	0.023392
1704	8.5150e-01	-11.8970	-47.945476	0.000061	0.606011	0.205322	0.004840
1705	8.5200e-01	-11.8585	-47.703490	0.000606	6.060108	2.053220	0.048397
1706	8.5250e-01	-11.8168	-47.550233	0.000384	3.838068	1.300373	0.030652
1707	8.5300e-01	-11.7719	-47.332445	0.000545	5.454097	1.847898	0.043557
1708	8.5350e-01	-11.7318	-47.562332	-0.000576	-5.757103	-1.950559	-0.045977
1709	8.5400e-01	-11.6997	-47.271949	0.000727	7.272129	2.463864	0.058077
1710	8.5450e-01	-11.6644	-46.933168	0.000848	8.484151	2.874508	0.067756
1711	8.5500e-01	-11.6227	-46.796043	0.000343	3.434061	1.163491	0.027425
1712	8.5550e-01	-11.5729	-46.880738	-0.000212	-2.121038	-0.718627	-0.016939
1713	8.5600e-01	-11.5360	-46.816209	0.000162	1.616029	0.547525	0.012906
1714	8.5650e-01	-11.4991	-46.679083	0.000343	3.434061	1.163491	0.027425
1715	8.5700e-01	-11.4590	-46.638752	0.000101	1.010018	0.342203	0.008066
1716	8.5750e-01	-11.4205	-46.441130	0.000495	4.949088	1.676796	0.039524
1717	8.5800e-01	-11.3756	-46.537925	-0.000242	-2.424043	-0.821288	-0.019359
1718	8.5850e-01	-11.3435	-46.070085	0.001172	11.716209	3.969559	0.093568
1719	8.5900e-01	-11.2986	-45.820033	0.000626	6.262111	2.121661	0.050010
1720	8.5950e-01	-11.2521	-45.997490	-0.000444	-4.444079	-1.505695	-0.035491
1721	8.6000e-01	-11.2152	-45.743404	0.000636	6.363113	2.155881	0.050817
1722	8.6050e-01	-11.1751	-45.763570	-0.000051	-0.505009	-0.171102	-0.004033
1723	8.6100e-01	-11.1414	-45.549816	0.000535	5.353095	1.813678	0.042751
1724	8.6150e-01	-11.0997	-45.634511	-0.000212	-2.121038	-0.718627	-0.016939
1725	8.6200e-01	-11.0564	-45.299764	0.000838	8.383149	2.840288	0.066949
1726	8.6250e-01	-11.0195	-45.360260	-0.000152	-1.515027	-0.513305	-0.012099
1727	8.6300e-01	-10.9681	-45.166671	0.000485	4.848086	1.642576	0.038718
1728	8.6350e-01	-10.9361	-45.073910	0.000232	2.323041	0.787068	0.018552
1729	8.6400e-01	-10.8959	-45.025513	0.000121	1.212022	0.410644	0.009679
1730	8.6450e-01	-10.8510	-44.884354	0.000354	3.535063	1.197712	0.028232
1731	8.6500e-01	-10.8238	-44.831924	0.000131	1.313023	0.444864	0.010486
1732	8.6550e-01	-10.7772	-44.650435	0.000455	4.545081	1.539915	0.036298
1733	8.6600e-01	-10.7307	-44.424581	0.000566	5.656101	1.916339	0.045171
1734	8.6650e-01	-10.7034	-44.472978	-0.000121	-1.212022	-0.410644	-0.009679
1735	8.6700e-01	-10.6601	-44.134198	0.000848	8.484151	2.874508	0.067756
1736	8.6750e-01	-10.6184	-43.779285	0.000889	8.888158	3.011390	0.070983
1737	8.6800e-01	-10.5783	-44.097900	-0.000798	-7.979142	-2.703407	-0.063723
1738	8.6850e-01	-10.5334	-43.928510	0.000424	4.242076	1.437254	0.033878
1739	8.6900e-01	-10.5029	-43.706690	0.000556	5.555099	1.882118	0.044364
1740	8.6950e-01	-10.4580	-43.577630	0.000323	3.232058	1.095051	0.025812
1741	8.7000e-01	-10.4179	-43.424373	0.000384	3.838068	1.300373	0.030652
1742	8.7050e-01	-10.3746	-43.416306	0.000020	0.202004	0.068441	0.001613
1743	8.7100e-01	-10.3361	-43.254983	0.000404	4.040072	1.368813	0.032265
1744	8.7150e-01	-10.2976	-43.053328	0.000505	5.050090	1.711017	0.040331
1745	8.7200e-01	-10.2575	-42.928302	0.000313	3.131056	1.060830	0.025005
1746	8.7250e-01	-10.2142	-42.948467	-0.000051	-0.505009	-0.171102	-0.004033
1747	8.7300e-01	-10.1869	-42.871838	0.000192	1.919034	0.650186	0.015326
1748	8.7350e-01	-10.1275	-42.674216	0.000495	4.949088	1.676796	0.039524
1749	8.7400e-01	-10.0954	-42.738746	-0.000162	-1.616029	-0.547525	-0.012906
1750	8.7450e-01	-10.0521	-42.331403	0.001020	10.201182	3.456254	0.081469
1751	8.7500e-01	-10.0120	-42.355602	-0.000061	-0.606011	-0.205322	-0.004840
1752	8.7550e-01	-9.9831	-42.166046	0.000475	4.747085	1.608356	0.037911
1753	8.7600e-01	-9.9366	-42.198311	-0.000081	-0.808014	-0.273763	-0.006453
1754	8.7650e-01	-9.8981	-42.041020	0.000394	3.939070	1.334593	0.031458
1755	8.7700e-01	-9.8532	-41.952292	0.000222	2.222040	0.752847	0.017746
1756	8.7750e-01	-9.8179	-41.690140	0.000657	6.565117	2.224322	0.052430
1757	8.7800e-01	-9.7810	-41.710306	-0.000051	-0.505009	-0.171102	-0.004033
1758	8.7850e-01	-9.7409	-41.766769	-0.000141	-1.414025	-0.479085	-0.011293
1759	8.7900e-01	-9.7056	-41.351360	0.001040	10.403185	3.524695	0.083082
1760	8.7950e-01	-9.6543	-41.266665	0.000212	2.121038	0.718627	0.016939
1761	8.8000e-01	-9.6174	-41.218268	0.000121	1.212022	0.410644	0.009679
1762	8.8050e-01	-9.5773	-41.048878	0.000424	4.242076	1.437254	0.033878
1763	8.8100e-01	-9.5372	-40.988381	0.000152	1.515027	0.513305	0.012099
1764	8.8150e-01	-9.4955	-40.879487	0.000273	2.727049	0.923949	0.021779
1765	8.8200e-01	-9.4537	-40.661700	0.000545	5.454097	1.847898	0.043557
1766	8.8250e-01	-9.4120	-40.661700	0.000000	0.000000	0.000000	0.000000
1767	8.8300e-01	-9.3767	-40.512475	0.000374	3.737067	1.266152	0.029845
1768	8.8350e-01	-9.3302	-40.355185	0.000394	3.939070	1.334593	0.031458
1769	8.8400e-01	-9.2997	-40.242258	0.000283	2.828050	0.958169	0.022585
1770	8.8450e-01	-9.2548	-40.238225	0.000010	0.101002	0.034220	0.000807
1771	8.8500e-01	-9.2163	-40.105133	0.000333	3.333059	1.129271	0.026618
1772	8.8550e-01	-9.1762	-39.915577	0.000475	4.747085	1.608356	0.037911
1773	8.8600e-01	-9.1393	-39.935742	-0.000051	-0.505009	-0.171102	-0.004033
1774	8.8650e-01	-9.0928	-39.669558	0.000667	6.666119	2.258542	0.053237
1775	8.8700e-01	-9.0559	-39.633260	0.000091	0.909016	0.307983	0.007260
1776	8.8750e-01	-9.0110	-39.484035	0.000374	3.737067	1.266152	0.029845
1777	8.8800e-01	-8.9741	-39.238016	0.000616	6.161110	2.087440	0.049204
1778	8.8850e-01	-8.9372	-39.004097	0.000586	5.858104	1.984779	0.046784
1779	8.8900e-01	-8.8939	-38.955699	0.000121	1.212022	0.410644	0.009679
1780	8.8950e-01	-8.8522	-38.790342	0.000414	4.141074	1.403034	0.033071
1781	8.9000e-01	-8.8185	-38.697581	0.000232	2.323041	0.787068	0.018552
1782	8.9050e-01	-8.7800	-38.616919	0.000202	2.020036	0.684407	0.016132
1783	8.9100e-01	-8.7367	-38.459628	0.000394	3.939070	1.334593	0.031458
1784	8.9150e-01	-8.7014	-38.451562	0.000020	0.202004	0.068441	0.001613
1785	8.9200e-01	-8.6661	-38.290238	0.000404	4.040072	1.368813	0.032265
1786	8.9250e-01	-8.6131	-38.104716	0.000465	4.646083	1.574135	0.037105
1787	8.9300e-01	-8.5666	-37.943392	0.000404	4.040072	1.368813	0.032265
1788	8.9350e-01	-8.5361	-37.862730	0.000202	2.020036	0.684407	0.016132
1789	8.9400e-01	-8.4992	-37.842564	0.000051	0.505009	0.171102	0.004033
1790	8.9450e-01	-8.4543	-37.532016	0.000778	7.777138	2.634966	0.062110
1791	8.9500e-01	-8.4158	-37.431188	0.000253	2.525045	0.855508	0.020165
1792	8.9550e-01	-8.3837	-37.382791	0.000121	1.212022	0.410644	0.009679
1793	8.9600e-01	-8.3340	-37.160971	0.000556	5.555099	1.882118	0.044364
1794	8.9650e-01	-8.2971	-37.136772	0.000061	0.606011	0.205322	0.004840
1795	8.9700e-01	-8.2586	-37.023845	0.000283	2.828050	0.958169	0.022585
1796	8.9750e-01	-8.2089	-37.132739	-0.000273	-2.727049	-0.923949	-0.021779
1797	8.9800e-01	-8.1752	-36.822190	0.000778	7.777138	2.634966	0.062110
1798	8.9850e-01	-8.1351	-36.701197	0.000303	3.030054	1.026610	0.024199
1799	8.9900e-01	-8.0966	-36.435013	0.000667	6.666119	2.258542	0.053237
1800	8.9950e-01	-8.0629	-36.100266	0.000838	8.383149	2.840288	0.066949
1801	9.0000e-01	-8.0164	-36.096232	0.000010	0.101002	0.034220	0.000807
1802	9.0050e-01	-7.9698	-36.148663	-0.000131	-1.313023	-0.444864	-0.010486
1803	9.0100e-01	-7.9442	-36.084133	0.000162	1.616029	0.547525	0.012906
1804	9.0150e-01	-7.8992	-36.124464	-0.000101	-1.010018	-0.342203	-0.008066
1805	9.0200e-01	-7.8591	-35.797783	0.000818	8.181146	2.771847	0.065336
1806	9.0250e-01	-7.8094	-35.850213	-0.000131	-1.313023	-0.444864	-0.010486
1807	9.0300e-01	-7.7773	-35.519499	0.000828	8.282147	2.806068	0.066143
1808	9.0350e-01	-7.7308	-35.479168	0.000101	1.010018	0.342203	0.008066
1809	9.0400e-01	-7.6955	-35.342043	0.000343	3.434061	1.163491	0.027425
1810	9.0450e-01	-7.6506	-35.156521	0.000465	4.646083	1.574135	0.037105
1811	9.0500e-01	-7.6121	-34.813707	0.000859	8.585153	2.908729	0.068563
1812	9.0550e-01	-7.5768	-34.708847	0.000263	2.626047	0.889729	0.020972
1813	9.0600e-01	-7.5383	-34.878237	-0.000424	-4.242076	-1.437254	-0.033878
1814	9.0650e-01	-7.5014	-34.511225	0.000919	9.191164	3.114051	0.073402
1815	9.0700e-01	-7.4517	-34.301504	0.000525	5.252094	1.779457	0.041944
1816	9.0750e-01	-7.4083	-34.406364	-0.000263	-2.626047	-0.889729	-0.020972
1817	9.0800e-01	-7.3731	-34.353934	0.000131	1.313023	0.444864	0.010486
1818	9.0850e-01	-7.3458	-34.051451	0.000758	7.575135	2.566525	0.060496
1819	9.0900e-01	-7.2993	-33.817532	0.000586	5.858104	1.984779	0.046784
1820	9.0950e-01	-7.2543	-34.019187	-0.000505	-5.050090	-1.711017	-0.040331
1821	9.1000e-01	-7.2142	-33.724771	0.000737	7.373131	2.498085	0.058883
1822	9.1050e-01	-7.1709	-33.571513	0.000384	3.838068	1.300373	0.030652
1823	9.1100e-01	-7.1324	-33.390023	0.000455	4.545081	1.539915	0.036298
1824	9.1150e-01	-7.0891	-33.341626	0.000121	1.212022	0.410644	0.009679
1825	9.1200e-01	-7.0522	-33.240799	0.000253	2.525045	0.855508	0.020165
1826	9.1250e-01	-7.0073	-33.010912	0.000576	5.757103	1.950559	0.045977
1827	9.1300e-01	-6.9704	-32.934283	0.000192	1.919034	0.650186	0.015326
1828	9.1350e-01	-6.9399	-32.797158	0.000343	3.434061	1.163491	0.027425
1829	9.1400e-01	-6.8982	-32.579371	0.000545	5.454097	1.847898	0.043557
1830	9.1450e-01	-6.8565	-32.466444	0.000283	2.828050	0.958169	0.022585
1831	9.1500e-01	-6.8068	-32.555172	-0.000222	-2.222040	-0.752847	-0.017746
1832	9.1550e-01	-6.7795	-32.345451	0.000525	5.252094	1.779457	0.041944
1833	9.1600e-01	-6.7330	-32.115564	0.000576	5.757103	1.950559	0.045977
1834	9.1650e-01	-6.6977	-32.083299	0.000081	0.808014	0.273763	0.006453
1835	9.1700e-01	-6.6544	-31.938108	0.000364	3.636065	1.231932	0.029038
1836	9.1750e-01	-6.6175	-31.926009	0.000030	0.303005	0.102661	0.002420
1837	9.1800e-01	-6.5838	-31.619493	0.000768	7.676137	2.600746	0.061303
1838	9.1850e-01	-6.5244	-31.784850	-0.000414	-4.141074	-1.403034	-0.033071
1839	9.1900e-01	-6.4923	-31.433971	0.000879	8.787156	2.977169	0.070176
1840	9.1950e-01	-6.4570	-31.010495	0.001061	10.605189	3.593135	0.084695
1841	9.2000e-01	-6.4137	-31.070992	-0.000152	-1.515027	-0.513305	-0.012099
1842	9.2050e-01	-6.3752	-31.232316	-0.000404	-4.040072	-1.368813	-0.032265
1843	9.2100e-01	-6.3367	-30.784642	0.001121	11.211200	3.798457	0.089535
1844	9.2150e-01	-6.2982	-30.679781	0.000263	2.626047	0.889729	0.020972
1845	9.2200e-01	-6.2565	-30.389398	0.000727	7.272129	2.463864	0.058077
1846	9.2250e-01	-6.2164	-30.413597	-0.000061	-0.606011	-0.205322	-0.004840
1847	9.2300e-01	-6.1843	-30.445861	-0.000081	-0.808014	-0.273763	-0.006453
1848	9.2350e-01	-6.1458	-30.373266	0.000182	1.818032	0.615966	0.014519
1849	9.2400e-01	-6.0977	-30.094982	0.000697	6.969124	2.361203	0.055657
1850	9.2450e-01	-6.0560	-30.022386	0.000182	1.818032	0.615966	0.014519
1851	9.2500e-01	-6.0111	-30.086916	-0.000162	-1.616029	-0.547525	-0.012906
1852	9.2550e-01	-5.9774	-29.651341	0.001091	10.908194	3.695796	0.087115
1853	9.2600e-01	-5.9308	-29.546480	0.000263	2.626047	0.889729	0.020972
1854	9.2650e-01	-5.8972	-29.582778	-0.000091	-0.909016	-0.307983	-0.007260
1855	9.2700e-01	-5.8506	-29.296428	0.000717	7.171128	2.429644	0.057270
1856	9.2750e-01	-5.8137	-29.114939	0.000455	4.545081	1.539915	0.036298
1857	9.2800e-01	-5.7768	-29.034277	0.000202	2.020036	0.684407	0.016132
1858	9.2850e-01	-5.7399	-28.796324	0.000596	5.959106	2.019000	0.047591
1859	9.2900e-01	-5.6998	-28.796324	0.000000	0.000000	0.000000	0.000000
1860	9.2950e-01	-5.6549	-28.546272	0.000626	6.262111	2.121661	0.050010
1861	9.3000e-01	-5.6196	-28.622901	-0.000192	-1.919034	-0.650186	-0.015326
1862	9.3050e-01	-5.5795	-28.477709	0.000364	3.636065	1.231932	0.029038
1863	9.3100e-01	-5.5314	-28.134896	0.000859	8.585153	2.908729	0.068563
1864	9.3150e-01	-5.4993	-28.118763	0.000040	0.404007	0.136881	0.003226
1865	9.3200e-01	-5.4576	-27.937274	0.000455	4.545081	1.539915	0.036298
1866	9.3250e-01	-5.4159	-27.691255	0.000616	6.161110	2.087440	0.049204
1867	9.3300e-01	-5.3854	-27.501699	0.000475	4.747085	1.608356	0.037911
1868	9.3350e-01	-5.3341	-27.477501	0.000061	0.606011	0.205322	0.004840
1869	9.3400e-01	-5.3020	-27.481534	-0.000010	-0.101002	-0.034220	-0.000807
1870	9.3450e-01	-5.2555	-27.312144	0.000424	4.242076	1.437254	0.033878
1871	9.3500e-01	-5.2202	-27.102423	0.000525	5.252094	1.779457	0.041944
1872	9.3550e-01	-5.1897	-26.989496	0.000283	2.828050	0.958169	0.022585
1873	9.3600e-01	-5.1400	-26.904801	0.000212	2.121038	0.718627	0.016939
1874	9.3650e-01	-5.0966	-26.783808	0.000303	3.030054	1.026610	0.024199
1875	9.3700e-01	-5.0517	-26.328068	0.001141	11.413203	3.866898	0.091148
1876	9.3750e-01	-5.0132	-26.332101	-0.000010	-0.101002	-0.034220	-0.000807
1877	9.3800e-01	-4.9731	-26.194975	0.000343	3.434061	1.163491	0.027425
1878	9.3850e-01	-4.9394	-26.211108	-0.000040	-0.404007	-0.136881	-0.003226
1879	9.3900e-01	-4.9009	-26.118347	0.000232	2.323041	0.787068	0.018552
1880	9.3950e-01	-4.8608	-25.848129	0.000677	6.767120	2.292762	0.054044
1881	9.4000e-01	-4.8159	-25.856195	-0.000020	-0.202004	-0.068441	-0.001613
1882	9.4050e-01	-4.7678	-25.678739	0.000444	4.444079	1.505695	0.035491
1883	9.4100e-01	-4.7405	-25.626309	0.000131	1.313023	0.444864	0.010486
1884	9.4150e-01	-4.7004	-25.343992	0.000707	7.070126	2.395423	0.056463
1885	9.4200e-01	-4.6651	-25.170568	0.000434	4.343077	1.471474	0.034685
1886	9.4250e-01	-4.6154	-24.815656	0.000889	8.888158	3.011390	0.070983
1887	9.4300e-01	-4.5833	-25.033443	-0.000545	-5.454097	-1.847898	-0.043557
1888	9.4350e-01	-4.5368	-24.900351	0.000333	3.333059	1.129271	0.026618
1889	9.4400e-01	-4.4967	-24.630133	0.000677	6.767120	2.292762	0.054044
1890	9.4450e-01	-4.4582	-24.601901	0.000071	0.707013	0.239542	0.005646
1891	9.4500e-01	-4.4148	-24.186492	0.001040	10.403185	3.524695	0.083082
1892	9.4550e-01	-4.3844	-24.295386	-0.000273	-2.727049	-0.923949	-0.021779
1893	9.4600e-01	-4.3298	-24.146161	0.000374	3.737067	1.266152	0.029845
1894	9.4650e-01	-4.2961	-23.984837	0.000404	4.040072	1.368813	0.032265
1895	9.4700e-01	-4.2673	-23.904175	0.000202	2.020036	0.684407	0.016132
1896	9.4750e-01	-4.2111	-23.702520	0.000505	5.050090	1.711017	0.040331
1897	9.4800e-01	-4.1710	-23.678322	0.000061	0.606011	0.205322	0.004840
1898	9.4850e-01	-4.1437	-23.400038	0.000697	6.969124	2.361203	0.055657
1899	9.4900e-01	-4.0972	-23.295178	0.000263	2.626047	0.889729	0.020972
1900	9.4950e-01	-4.0571	-23.182251	0.000283	2.828050	0.958169	0.022585
1901	9.5000e-01	-4.0218	-23.145953	0.000091	0.909016	0.307983	0.007260
1902	9.5050e-01	-3.9897	-22.944298	0.000505	5.050090	1.711017	0.040331
1903	9.5100e-01	-3.9400	-22.887835	0.000141	1.414025	0.479085	0.011293
1904	9.5150e-01	-3.9047	-22.528889	0.000899	8.989160	3.045610	0.071789
1905	9.5200e-01	-3.8598	-22.403863	0.000313	3.131056	1.060830	0.025005
1906	9.5250e-01	-3.8197	-22.210274	0.000485	4.848086	1.642576	0.038718
1907	9.5300e-01	-3.7780	-22.440161	-0.000576	-5.757103	-1.950559	-0.045977
1908	9.5350e-01	-3.7395	-22.186075	0.000636	6.363113	2.155881	0.050817
1909	9.5400e-01	-3.7026	-21.810997	0.000939	9.393167	3.182491	0.075016
1910	9.5450e-01	-3.6560	-21.931990	-0.000303	-3.030054	-1.026610	-0.024199
1911	9.5500e-01	-3.6224	-21.839229	0.000232	2.323041	0.787068	0.018552
1912	9.5550e-01	-3.5855	-21.609342	0.000576	5.757103	1.950559	0.045977
1913	9.5600e-01	-3.5405	-21.318959	0.000727	7.272129	2.463864	0.058077
1914	9.5650e-01	-3.5004	-21.197966	0.000303	3.030054	1.026610	0.024199
1915	9.5700e-01	-3.4603	-20.899517	0.000747	7.474133	2.532305	0.059690
1916	9.5750e-01	-3.4122	-20.806756	0.000232	2.323041	0.787068	0.018552
1917	9.5800e-01	-3.3753	-20.834987	-0.000071	-0.707013	-0.239542	-0.005646
1918	9.5850e-01	-3.3448	-20.633332	0.000505	5.050090	1.711017	0.040331
1919	9.5900e-01	-3.2967	-20.657531	-0.000061	-0.606011	-0.205322	-0.004840
1920	9.5950e-01	-3.2614	-20.318751	0.000848	8.484151	2.874508	0.067756
1921	9.6000e-01	-3.2149	-20.141294	0.000444	4.444079	1.505695	0.035491
1922	9.6050e-01	-3.1828	-20.000136	0.000354	3.535063	1.197712	0.028232
1923	9.6100e-01	-3.1427	-19.959805	0.000101	1.010018	0.342203	0.008066
1924	9.6150e-01	-3.0962	-19.790415	0.000424	4.242076	1.437254	0.033878
1925	9.6200e-01	-3.0561	-19.774282	0.000040	0.404007	0.136881	0.003226
1926	9.6250e-01	-3.0176	-19.705720	0.000172	1.717031	0.581746	0.013713
1927	9.6300e-01	-2.9775	-19.181417	0.001313	13.130234	4.448644	0.104861
1928	9.6350e-01	-2.9357	-19.241913	-0.000152	-1.515027	-0.513305	-0.012099
1929	9.6400e-01	-2.9037	-19.128987	0.000283	2.828050	0.958169	0.022585
1930	9.6450e-01	-2.8491	-19.040259	0.000222	2.222040	0.752847	0.017746
1931	9.6500e-01	-2.8106	-18.862802	0.000444	4.444079	1.505695	0.035491
1932	9.6550e-01	-2.7673	-18.717611	0.000364	3.636065	1.231932	0.029038
1933	9.6600e-01	-2.7448	-18.294135	0.001061	10.605189	3.593135	0.084695
1934	9.6650e-01	-2.7015	-18.346566	-0.000131	-1.313023	-0.444864	-0.010486
1935	9.6700e-01	-2.6470	-18.338499	0.000020	0.202004	0.068441	0.001613
1936	9.6750e-01	-2.6165	-18.269937	0.000172	1.717031	0.581746	0.013713
1937	9.6800e-01	-2.5812	-17.943256	0.000818	8.181146	2.771847	0.065336
1938	9.6850e-01	-2.5347	-17.745634	0.000495	4.949088	1.676796	0.039524
1939	9.6900e-01	-2.4962	-17.596409	0.000374	3.737067	1.266152	0.029845
1940	9.6950e-01	-2.4657	-17.386688	0.000525	5.252094	1.779457	0.041944
1941	9.7000e-01	-2.4112	-17.410887	-0.000061	-0.606011	-0.205322	-0.004840
1942	9.7050e-01	-2.3791	-17.346357	0.000162	1.616029	0.547525	0.012906
1943	9.7100e-01	-2.3293	-17.233430	0.000283	2.828050	0.958169	0.022585
1944	9.7150e-01	-2.2973	-16.906749	0.000818	8.181146	2.771847	0.065336
1945	9.7200e-01	-2.2539	-16.813988	0.000232	2.323041	0.787068	0.018552
1946	9.7250e-01	-2.2154	-16.406645	0.001020	10.201182	3.456254	0.081469
1947	9.7300e-01	-2.1818	-16.515539	-0.000273	-2.727049	-0.923949	-0.021779
1948	9.7350e-01	-2.1352	-16.539737	-0.000061	-0.606011	-0.205322	-0.004840
1949	9.7400e-01	-2.0951	-16.354215	0.000465	4.646083	1.574135	0.037105
1950	9.7450e-01	-2.0614	-16.096097	0.000646	6.464115	2.190101	0.051624
1951	9.7500e-01	-2.0213	-15.946872	0.000374	3.737067	1.266152	0.029845
1952	9.7550e-01	-1.9892	-15.817813	0.000323	3.232058	1.095051	0.025812
1953	9.7600e-01	-1.9427	-15.337874	0.001202	12.019214	4.072220	0.095988
1954	9.7650e-01	-1.8994	-15.555661	-0.000545	-5.454097	-1.847898	-0.043557
1955	9.7700e-01	-1.8689	-15.168484	0.000970	9.696173	3.285152	0.077435
1956	9.7750e-01	-1.8176	-15.075723	0.000232	2.323041	0.787068	0.018552
1957	9.7800e-01	-1.7679	-14.918432	0.000394	3.939070	1.334593	0.031458
1958	9.7850e-01	-1.7422	-14.970862	-0.000131	-1.313023	-0.444864	-0.010486
1959	9.7900e-01	-1.6989	-14.809538	0.000404	4.040072	1.368813	0.032265
1960	9.7950e-01	-1.6604	-14.656280	0.000384	3.838068	1.300373	0.030652
1961	9.8000e-01	-1.6171	-14.224739	0.001081	10.807192	3.661576	0.086308
1962	9.8050e-01	-1.5770	-14.148110	0.000192	1.919034	0.650186	0.015326
1963	9.8100e-01	-1.5417	-13.950488	0.000495	4.949088	1.676796	0.039524
1964	9.8150e-01	-1.4951	-13.958554	-0.000020	-0.202004	-0.068441	-0.001613
1965	9.8200e-01	-1.4647	-13.861760	0.000242	2.424043	0.821288	0.019359
1966	9.8250e-01	-1.4165	-13.668171	0.000485	4.848086	1.642576	0.038718
1967	9.8300e-01	-1.3828	-13.567344	0.000253	2.525045	0.855508	0.020165
1968	9.8350e-01	-1.3492	-13.466516	0.000253	2.525045	0.855508	0.020165
1969	9.8400e-01	-1.2978	-13.196299	0.000677	6.767120	2.292762	0.054044
1970	9.8450e-01	-1.2625	-13.087405	0.000273	2.727049	0.923949	0.021779
1971	9.8500e-01	-1.2176	-12.926081	0.000404	4.040072	1.368813	0.032265
1972	9.8550e-01	-1.1791	-12.696194	0.000576	5.757103	1.950559	0.045977
1973	9.8600e-01	-1.1294	-12.502606	0.000485	4.848086	1.642576	0.038718
1974	9.8650e-01	-1.0973	-12.393712	0.000273	2.727049	0.923949	0.021779
1975	9.8700e-01	-1.0524	-12.425977	-0.000081	-0.808014	-0.273763	-0.006453
1976	9.8750e-01	-1.0187	-12.192057	0.000586	5.858104	1.984779	0.046784
1977	9.8800e-01	-0.9786	-11.804880	0.000970	9.696173	3.285152	0.077435
1978	9.8850e-01	-0.9401	-11.800847	0.000010	0.101002	0.034220	0.000807
1979	9.8900e-01	-0.8968	-11.792780	0.000020	0.202004	0.068441	0.001613
1980	9.8950e-01	-0.8502	-11.643556	0.000374	3.737067	1.266152	0.029845
1981	9.9000e-01	-0.8101	-11.486265	0.000394	3.939070	1.334593	0.031458
1982	9.9050e-01	-0.7781	-11.224113	0.000657	6.565117	2.224322	0.052430
1983	9.9100e-01	-0.7444	-11.002293	0.000556	5.555099	1.882118	0.044364
1984	9.9150e-01	-0.6882	-11.203948	-0.000505	-5.050090	-1.711017	-0.040331
1985	9.9200e-01	-0.6674	-10.840969	0.000909	9.090162	3.079830	0.072596
1986	9.9250e-01	-0.6224	-10.699811	0.000354	3.535063	1.197712	0.028232
1987	9.9300e-01	-0.5727	-10.711910	-0.000030	-0.303005	-0.102661	-0.002420
1988	9.9350e-01	-0.5358	-10.389262	0.000808	8.080144	2.737627	0.064530
1989	9.9400e-01	-0.4989	-10.038382	0.000879	8.787156	2.977169	0.070176
1990	9.9450e-01	-0.4668	-10.123077	-0.000212	-2.121038	-0.718627	-0.016939
1991	9.9500e-01	-0.4059	-10.135177	-0.000030	-0.303005	-0.102661	-0.002420
1992	9.9550e-01	-0.3802	-10.006118	0.000323	3.232058	1.095051	0.025812
1993	9.9600e-01	-0.3385	-9.812529	0.000485	4.848086	1.642576	0.038718
1994	9.9650e-01	-0.3000	-9.421318	0.000980	9.797174	3.319373	0.078242
1995	9.9700e-01	-0.2583	-9.264027	0.000394	3.939070	1.334593	0.031458
1996	9.9750e-01	-0.2118	-9.401153	-0.000343	-3.434061	-1.163491	-0.027425
1997	9.9800e-01	-0.1781	-9.235796	0.000414	4.141074	1.403034	0.033071
1998	9.9850e-01	-0.1524	-8.884916	0.000879	8.787156	2.977169	0.070176
1999	9.9900e-01	-0.1027	-8.723592	0.000404	4.040072	1.368813	0.032265
2000	9.9950e-01	-0.0658	-8.558235	0.000414	4.141074	1.403034	0.033071
2001	1.0000e+00	-0.0176	-8.409011	0.000414	4.141074	1.403034	0.029845

PMax (uC/cm2):	7.34e+01
Pr (uC/cm2):	2.73e+00
-Pr (uC/cm2):	-2.28e+00
PLoss (uC/cm2):	-2.21e+00
-Vc:	-7.13e-01
C (Max-Eff) (nF):	3.67e-01
K (Eff):	1.25e+03
Vert. (+/-Pr) Shift (uC/cm2):	2.27e-01
Offset (uC/cm2):	6.13e+00

A (Loop Area - uC/cm2·Volts):	-4.34e-02



Hysteresis Version: 5.48.1 - Radiant Technologies, Inc., 1999 - 9/12/24

