»»»»»»»»»»»»»»»»»»»»»»»»»»»»»»»»»»»» Hysteresis ««««««««««««««««««««««««««««««««««««
»»»  Executed Version:	5.48.1
»»»  Vision Version:	5.48.4 (R)
»»»  Vision Compiled:	9/18/24
»»»  Driver Version:	5.47.0
»»»  Windows Version:	Windows 8 or 8.1
»»»  Processor Information:	x86 (AMD or Intel) - 32 Processors
»»»  Tester Name:	PMF21124-494 (100V)
»»»  Tester S/N:	PMF21124-494
»»»  Internal Amp Type:	100V RevK 270k
»»»  Internal Amp S/N:	iAB2-596/K     
»»»  Execution Count:	1
»»»»»»»»»»»»»»»»»»»»»»»»»»»»»»»»»»»»»»»»»»««««««««««««««««««««««««««««««««««««««««««

Stored:	6/30/2025 - 11:53:26
Configured:	06/30/25 10:19:58 AM
Executed:	06/30/25 11:52:57 AM

»»»»»»»»»»»»»»»»»»»»»»»»»»»»»»»»»»» Sample Info ««««««««««««««««««««««««««««««««««««
Sample Name:	
Lot Name:	
Wafer Name:	
Die Row/Column:	0/0
Capacitor Number:	0
Sample Area (cm2):	1.00e-04
Sample Thickness (microns):	1.50e-01

Amplifier:	Internal

»»»»»»»»»»»»»»»»»»»»»»»»»»»»»»»»»»» Tester Info «««««««««««««««««««««««««««««««««««
Tester Name:	PMF21124-494 (100V)
Tester Serial Number:	PMF21124-494
Return Signal Amp. Level:	1.9 [Index: 2]

»»»»»»»»»»»»»»»»»»»»»»»»»»»»»»»» Hysteresis Info ««««««««««««««««««««««««««««««««««
Task Name:	Hyst-1804
Volts:	10.00
Field:	666.67 (kV/cm)
DCBias:	0.00
DCField:	0.00 (kV/cm)
Hysteresis Period (ms):	2.00e+02
Preset:	Enabled
Preset Delay (ms):	1.00e+03
Profile:	Standard Monopolar

»»»»»»»»»»»»»»»»»»»»»»»»»»»»»»»»»»»»»» Data «««««««««««««««««««««««««««««««««««««««
Points:	2011

Valid Data

Point	Time (ms)	Drive Voltage	Measured Polarization (uC/cm2)	Capacitance (uF)	Normalized Capacitance (uF/cm2)	Dielectric Constant	Instantaneous Current (mA)
   1	0.0000e+00	-0.0057	-19.077888	0.000426	4.257187	0.721187	0.000043
   2	9.9500e-02	0.0030	-19.035525	0.000426	4.257187	0.721187	0.000043
   3	1.9900e-01	0.0148	-18.986236	0.000495	4.953073	0.839073	0.000050
   4	2.9850e-01	0.0243	-18.942243	0.000442	4.420925	0.748925	0.000044
   5	3.9800e-01	0.0352	-18.889696	0.000528	5.280549	0.894549	0.000053
   6	4.9750e-01	0.0455	-18.842852	0.000471	4.707466	0.797466	0.000047
   7	5.9700e-01	0.0568	-18.803340	0.000397	3.970646	0.672646	0.000040
   8	6.9650e-01	0.0655	-18.754051	0.000495	4.953073	0.839073	0.000050
   9	7.9600e-01	0.0732	-18.710873	0.000434	4.339056	0.735056	0.000043
  10	8.9550e-01	0.0866	-18.663621	0.000475	4.748401	0.804401	0.000047
  11	9.9500e-01	0.0977	-18.620443	0.000434	4.339056	0.735056	0.000043
  12	1.0945e+00	0.1079	-18.571154	0.000495	4.953073	0.839073	0.000050
  13	1.1940e+00	0.1146	-18.528383	0.000430	4.298122	0.728122	0.000043
  14	1.2935e+00	0.1255	-18.481132	0.000475	4.748401	0.804401	0.000047
  15	1.3930e+00	0.1354	-18.435102	0.000463	4.625597	0.783597	0.000046
  16	1.4925e+00	0.1445	-18.390702	0.000446	4.461860	0.755859	0.000045
  17	1.5920e+00	0.1534	-18.343042	0.000479	4.789335	0.811335	0.000048
  18	1.6915e+00	0.1661	-18.295791	0.000475	4.748401	0.804401	0.000047
  19	1.7910e+00	0.1727	-18.255056	0.000409	4.093449	0.693449	0.000041
  20	1.8905e+00	0.1847	-18.206583	0.000487	4.871204	0.825204	0.000049
  21	1.9900e+00	0.1978	-18.166256	0.000405	4.052515	0.686515	0.000041
  22	2.0895e+00	0.2061	-18.122263	0.000442	4.420925	0.748925	0.000044
  23	2.1890e+00	0.2161	-18.078677	0.000438	4.379991	0.741990	0.000044
  24	2.2885e+00	0.2245	-18.035091	0.000438	4.379991	0.741990	0.000044
  25	2.3880e+00	0.2330	-17.989469	0.000458	4.584663	0.776663	0.000046
  26	2.4875e+00	0.2416	-17.949957	0.000397	3.970646	0.672646	0.000040
  27	2.5870e+00	0.2532	-17.907593	0.000426	4.257187	0.721187	0.000043
  28	2.6865e+00	0.2661	-17.861156	0.000467	4.666532	0.790532	0.000047
  29	2.7860e+00	0.2760	-17.812682	0.000487	4.871204	0.825204	0.000049
  30	2.8855e+00	0.2850	-17.770319	0.000426	4.257187	0.721187	0.000043
  31	2.9850e+00	0.2940	-17.723474	0.000471	4.707466	0.797466	0.000047
  32	3.0845e+00	0.3052	-17.680703	0.000430	4.298122	0.728122	0.000043
  33	3.1840e+00	0.3154	-17.636303	0.000446	4.461860	0.755859	0.000045
  34	3.2835e+00	0.3261	-17.589459	0.000471	4.707466	0.797466	0.000047
  35	3.3830e+00	0.3329	-17.544651	0.000450	4.502794	0.762794	0.000045
  36	3.4825e+00	0.3453	-17.496585	0.000483	4.830270	0.818270	0.000048
  37	3.5820e+00	0.3542	-17.452999	0.000438	4.379991	0.741990	0.000044
  38	3.6815e+00	0.3635	-17.411857	0.000413	4.134384	0.700384	0.000041
  39	3.7810e+00	0.3738	-17.364606	0.000475	4.748401	0.804401	0.000047
  40	3.8805e+00	0.3834	-17.318576	0.000463	4.625597	0.783597	0.000046
  41	3.9800e+00	0.3925	-17.272139	0.000467	4.666532	0.790532	0.000047
  42	4.0795e+00	0.4038	-17.222443	0.000499	4.994008	0.846008	0.000050
  43	4.1790e+00	0.4137	-17.182524	0.000401	4.011580	0.679580	0.000040
  44	4.2785e+00	0.4228	-17.136494	0.000463	4.625597	0.783597	0.000046
  45	4.3780e+00	0.4337	-17.088835	0.000479	4.789335	0.811335	0.000048
  46	4.4775e+00	0.4432	-17.043212	0.000458	4.584663	0.776663	0.000046
  47	4.5770e+00	0.4506	-16.997590	0.000458	4.584663	0.776663	0.000046
  48	4.6765e+00	0.4637	-16.956448	0.000413	4.134384	0.700384	0.000041
  49	4.7760e+00	0.4746	-16.908789	0.000479	4.789335	0.811335	0.000048
  50	4.8755e+00	0.4830	-16.864796	0.000442	4.420925	0.748925	0.000044
  51	4.9750e+00	0.4932	-16.819174	0.000458	4.584663	0.776663	0.000046
  52	5.0745e+00	0.5051	-16.772737	0.000467	4.666532	0.790532	0.000047
  53	5.1740e+00	0.5146	-16.728744	0.000442	4.420925	0.748925	0.000044
  54	5.2735e+00	0.5231	-16.682307	0.000467	4.666532	0.790532	0.000047
  55	5.3730e+00	0.5311	-16.637092	0.000454	4.543729	0.769728	0.000045
  56	5.4725e+00	0.5423	-16.591062	0.000463	4.625597	0.783597	0.000046
  57	5.5720e+00	0.5539	-16.547069	0.000442	4.420925	0.748925	0.000044
  58	5.6715e+00	0.5643	-16.501039	0.000463	4.625597	0.783597	0.000046
  59	5.7710e+00	0.5713	-16.457861	0.000434	4.339056	0.735056	0.000043
  60	5.8705e+00	0.5846	-16.410202	0.000479	4.789335	0.811335	0.000048
  61	5.9700e+00	0.5920	-16.365394	0.000450	4.502794	0.762794	0.000045
  62	6.0695e+00	0.6051	-16.323438	0.000422	4.216253	0.714253	0.000042
  63	6.1690e+00	0.6136	-16.277408	0.000463	4.625597	0.783597	0.000046
  64	6.2685e+00	0.6240	-16.228527	0.000491	4.912139	0.832139	0.000049
  65	6.3680e+00	0.6316	-16.186164	0.000426	4.257187	0.721187	0.000043
  66	6.4675e+00	0.6445	-16.136875	0.000495	4.953073	0.839073	0.000050
  67	6.5670e+00	0.6533	-16.093290	0.000438	4.379991	0.741990	0.000044
  68	6.6665e+00	0.6630	-16.051741	0.000418	4.175318	0.707318	0.000042
  69	6.7660e+00	0.6723	-16.004896	0.000471	4.707466	0.797466	0.000047
  70	6.8655e+00	0.6860	-15.959681	0.000454	4.543729	0.769728	0.000045
  71	6.9650e+00	0.6897	-15.912022	0.000479	4.789335	0.811335	0.000048
  72	7.0645e+00	0.7018	-15.867214	0.000450	4.502794	0.762794	0.000045
  73	7.1640e+00	0.7126	-15.819963	0.000475	4.748401	0.804401	0.000047
  74	7.2635e+00	0.7201	-15.779636	0.000405	4.052515	0.686515	0.000041
  75	7.3630e+00	0.7336	-15.732791	0.000471	4.707466	0.797466	0.000047
  76	7.4625e+00	0.7410	-15.685540	0.000475	4.748401	0.804401	0.000047
  77	7.5620e+00	0.7501	-15.640732	0.000450	4.502794	0.762794	0.000045
  78	7.6615e+00	0.7642	-15.593480	0.000475	4.748401	0.804401	0.000047
  79	7.7610e+00	0.7723	-15.546228	0.000475	4.748401	0.804401	0.000047
  80	7.8605e+00	0.7839	-15.499791	0.000467	4.666532	0.790532	0.000047
  81	7.9600e+00	0.7922	-15.458242	0.000418	4.175318	0.707318	0.000042
  82	8.0595e+00	0.8014	-15.412213	0.000463	4.625597	0.783597	0.000046
  83	8.1590e+00	0.8125	-15.369442	0.000430	4.298122	0.728122	0.000043
  84	8.2585e+00	0.8207	-15.325041	0.000446	4.461860	0.755859	0.000045
  85	8.3580e+00	0.8305	-15.283900	0.000413	4.134384	0.700384	0.000041
  86	8.4575e+00	0.8449	-15.234204	0.000499	4.994008	0.846008	0.000050
  87	8.5570e+00	0.8521	-15.194285	0.000401	4.011580	0.679580	0.000040
  88	8.6565e+00	0.8606	-15.151106	0.000434	4.339056	0.735056	0.000043
  89	8.7560e+00	0.8731	-15.108335	0.000430	4.298122	0.728122	0.000043
  90	8.8555e+00	0.8799	-15.063528	0.000450	4.502794	0.762794	0.000045
  91	8.9550e+00	0.8913	-15.022386	0.000413	4.134384	0.700384	0.000041
  92	9.0545e+00	0.9023	-14.973912	0.000487	4.871204	0.825204	0.000049
  93	9.1540e+00	0.9097	-14.926253	0.000479	4.789335	0.811335	0.000048
  94	9.2535e+00	0.9237	-14.885926	0.000405	4.052515	0.686515	0.000041
  95	9.3530e+00	0.9332	-14.837860	0.000483	4.830270	0.818270	0.000048
  96	9.4525e+00	0.9411	-14.793052	0.000450	4.502794	0.762794	0.000045
  97	9.5520e+00	0.9508	-14.747837	0.000454	4.543729	0.769728	0.000045
  98	9.6515e+00	0.9614	-14.706695	0.000413	4.134384	0.700384	0.000041
  99	9.7510e+00	0.9723	-14.657814	0.000491	4.912139	0.832139	0.000049
 100	9.8505e+00	0.9817	-14.611785	0.000463	4.625597	0.783597	0.000046
 101	9.9500e+00	0.9909	-14.570236	0.000418	4.175318	0.707318	0.000042
 102	1.0050e+01	1.0023	-14.523799	0.000467	4.666532	0.790532	0.000047
 103	1.0149e+01	1.0126	-14.476547	0.000475	4.748401	0.804401	0.000047
 104	1.0248e+01	1.0194	-14.430925	0.000458	4.584663	0.776663	0.000046
 105	1.0348e+01	1.0285	-14.384895	0.000463	4.625597	0.783597	0.000046
 106	1.0447e+01	1.0419	-14.336421	0.000487	4.871204	0.825204	0.000049
 107	1.0547e+01	1.0531	-14.289984	0.000467	4.666532	0.790532	0.000047
 108	1.0646e+01	1.0620	-14.245584	0.000446	4.461860	0.755859	0.000045
 109	1.0746e+01	1.0686	-14.199554	0.000463	4.625597	0.783597	0.000046
 110	1.0845e+01	1.0792	-14.149858	0.000499	4.994008	0.846008	0.000050
 111	1.0945e+01	1.0909	-14.106273	0.000438	4.379991	0.741990	0.000044
 112	1.1044e+01	1.1004	-14.059428	0.000471	4.707466	0.797466	0.000047
 113	1.1144e+01	1.1105	-14.009732	0.000499	4.994008	0.846008	0.000050
 114	1.1243e+01	1.1204	-13.968591	0.000413	4.134384	0.700384	0.000041
 115	1.1343e+01	1.1320	-13.920524	0.000483	4.830270	0.818270	0.000048
 116	1.1443e+01	1.1412	-13.878161	0.000426	4.257187	0.721187	0.000043
 117	1.1542e+01	1.1497	-13.833760	0.000446	4.461860	0.755859	0.000045
 118	1.1642e+01	1.1577	-13.786916	0.000471	4.707466	0.797466	0.000047
 119	1.1741e+01	1.1687	-13.739664	0.000475	4.748401	0.804401	0.000047
 120	1.1841e+01	1.1816	-13.695671	0.000442	4.420925	0.748925	0.000044
 121	1.1940e+01	1.1919	-13.646383	0.000495	4.953073	0.839073	0.000050
 122	1.2040e+01	1.2004	-13.604019	0.000426	4.257187	0.721187	0.000043
 123	1.2139e+01	1.2084	-13.558804	0.000454	4.543729	0.769728	0.000045
 124	1.2239e+01	1.2212	-13.515219	0.000438	4.379991	0.741990	0.000044
 125	1.2338e+01	1.2305	-13.468781	0.000467	4.666532	0.790532	0.000047
 126	1.2438e+01	1.2401	-13.423159	0.000458	4.584663	0.776663	0.000046
 127	1.2537e+01	1.2502	-13.381203	0.000422	4.216253	0.714253	0.000042
 128	1.2636e+01	1.2576	-13.338025	0.000434	4.339056	0.735056	0.000043
 129	1.2736e+01	1.2684	-13.289958	0.000483	4.830270	0.818270	0.000048
 130	1.2835e+01	1.2815	-13.252890	0.000373	3.725039	0.631039	0.000037
 131	1.2935e+01	1.2896	-13.207675	0.000454	4.543729	0.769728	0.000045
 132	1.3034e+01	1.2971	-13.162460	0.000454	4.543729	0.769728	0.000045
 133	1.3134e+01	1.3098	-13.118467	0.000442	4.420925	0.748925	0.000044
 134	1.3233e+01	1.3195	-13.069178	0.000495	4.953073	0.839073	0.000050
 135	1.3333e+01	1.3300	-13.024778	0.000446	4.461860	0.755859	0.000045
 136	1.3432e+01	1.3397	-12.983229	0.000418	4.175318	0.707318	0.000042
 137	1.3532e+01	1.3476	-12.937607	0.000458	4.584663	0.776663	0.000046
 138	1.3632e+01	1.3610	-12.892392	0.000454	4.543729	0.769728	0.000045
 139	1.3731e+01	1.3684	-12.848399	0.000442	4.420925	0.748925	0.000044
 140	1.3831e+01	1.3788	-12.803184	0.000454	4.543729	0.769728	0.000045
 141	1.3930e+01	1.3865	-12.756747	0.000467	4.666532	0.790532	0.000047
 142	1.4030e+01	1.3975	-12.709495	0.000475	4.748401	0.804401	0.000047
 143	1.4129e+01	1.4073	-12.669983	0.000397	3.970646	0.672646	0.000040
 144	1.4229e+01	1.4207	-12.623138	0.000471	4.707466	0.797466	0.000047
 145	1.4328e+01	1.4284	-12.577516	0.000458	4.584663	0.776663	0.000046
 146	1.4428e+01	1.4352	-12.529857	0.000479	4.789335	0.811335	0.000048
 147	1.4527e+01	1.4483	-12.489530	0.000405	4.052515	0.686515	0.000041
 148	1.4627e+01	1.4573	-12.446352	0.000434	4.339056	0.735056	0.000043
 149	1.4726e+01	1.4673	-12.402359	0.000442	4.420925	0.748925	0.000044
 150	1.4825e+01	1.4777	-12.359180	0.000434	4.339056	0.735056	0.000043
 151	1.4925e+01	1.4913	-12.313151	0.000463	4.625597	0.783597	0.000046
 152	1.5024e+01	1.4988	-12.268750	0.000446	4.461860	0.755859	0.000045
 153	1.5124e+01	1.5077	-12.222721	0.000463	4.625597	0.783597	0.000046
 154	1.5223e+01	1.5175	-12.179542	0.000434	4.339056	0.735056	0.000043
 155	1.5323e+01	1.5263	-12.132698	0.000471	4.707466	0.797466	0.000047
 156	1.5422e+01	1.5371	-12.092371	0.000405	4.052515	0.686515	0.000041
 157	1.5522e+01	1.5504	-12.050007	0.000426	4.257187	0.721187	0.000043
 158	1.5621e+01	1.5614	-12.002348	0.000479	4.789335	0.811335	0.000048
 159	1.5721e+01	1.5698	-11.959577	0.000430	4.298122	0.728122	0.000043
 160	1.5820e+01	1.5781	-11.914362	0.000454	4.543729	0.769728	0.000045
 161	1.5920e+01	1.5890	-11.871184	0.000434	4.339056	0.735056	0.000043
 162	1.6020e+01	1.5969	-11.827191	0.000442	4.420925	0.748925	0.000044
 163	1.6119e+01	1.6085	-11.785235	0.000422	4.216253	0.714253	0.000042
 164	1.6218e+01	1.6174	-11.741649	0.000438	4.379991	0.741990	0.000044
 165	1.6318e+01	1.6296	-11.696027	0.000458	4.584663	0.776663	0.000046
 166	1.6418e+01	1.6365	-11.653663	0.000426	4.257187	0.721187	0.000043
 167	1.6517e+01	1.6460	-11.612929	0.000409	4.093449	0.693449	0.000041
 168	1.6616e+01	1.6594	-11.564862	0.000483	4.830270	0.818270	0.000048
 169	1.6716e+01	1.6684	-11.514759	0.000503	5.034942	0.852942	0.000050
 170	1.6816e+01	1.6767	-11.473210	0.000418	4.175318	0.707318	0.000042
 171	1.6915e+01	1.6872	-11.426773	0.000467	4.666532	0.790532	0.000047
 172	1.7015e+01	1.6985	-11.379929	0.000471	4.707466	0.797466	0.000047
 173	1.7114e+01	1.7066	-11.335936	0.000442	4.420925	0.748925	0.000044
 174	1.7213e+01	1.7164	-11.291128	0.000450	4.502794	0.762794	0.000045
 175	1.7313e+01	1.7262	-11.245098	0.000463	4.625597	0.783597	0.000046
 176	1.7413e+01	1.7358	-11.199069	0.000463	4.625597	0.783597	0.000046
 177	1.7512e+01	1.7467	-11.156705	0.000426	4.257187	0.721187	0.000043
 178	1.7611e+01	1.7551	-11.113527	0.000434	4.339056	0.735056	0.000043
 179	1.7711e+01	1.7638	-11.074015	0.000397	3.970646	0.672646	0.000040
 180	1.7811e+01	1.7760	-11.025541	0.000487	4.871204	0.825204	0.000049
 181	1.7910e+01	1.7870	-10.981141	0.000446	4.461860	0.755859	0.000045
 182	1.8009e+01	1.7943	-10.942036	0.000393	3.929711	0.665711	0.000039
 183	1.8109e+01	1.8089	-10.899265	0.000430	4.298122	0.728122	0.000043
 184	1.8209e+01	1.8185	-10.855679	0.000438	4.379991	0.741990	0.000044
 185	1.8308e+01	1.8292	-10.810871	0.000450	4.502794	0.762794	0.000045
 186	1.8407e+01	1.8383	-10.765249	0.000458	4.584663	0.776663	0.000046
 187	1.8507e+01	1.8452	-10.725329	0.000401	4.011580	0.679580	0.000040
 188	1.8607e+01	1.8567	-10.682151	0.000434	4.339056	0.735056	0.000043
 189	1.8706e+01	1.8671	-10.642639	0.000397	3.970646	0.672646	0.000040
 190	1.8805e+01	1.8757	-10.600683	0.000422	4.216253	0.714253	0.000042
 191	1.8905e+01	1.8869	-10.563207	0.000377	3.765973	0.637973	0.000038
 192	1.9005e+01	1.8947	-10.517992	0.000454	4.543729	0.769728	0.000045
 193	1.9104e+01	1.9051	-10.475221	0.000430	4.298122	0.728122	0.000043
 194	1.9203e+01	1.9164	-10.437746	0.000377	3.765973	0.637973	0.000038
 195	1.9303e+01	1.9280	-10.396604	0.000413	4.134384	0.700384	0.000041
 196	1.9402e+01	1.9382	-10.352611	0.000442	4.420925	0.748925	0.000044
 197	1.9502e+01	1.9467	-10.309840	0.000430	4.298122	0.728122	0.000043
 198	1.9602e+01	1.9536	-10.269106	0.000409	4.093449	0.693449	0.000041
 199	1.9701e+01	1.9656	-10.226335	0.000430	4.298122	0.728122	0.000043
 200	1.9800e+01	1.9763	-10.181934	0.000446	4.461860	0.755859	0.000045
 201	1.9900e+01	1.9846	-10.141200	0.000409	4.093449	0.693449	0.000041
 202	2.0000e+01	1.9948	-10.100873	0.000405	4.052515	0.686515	0.000041
 203	2.0099e+01	2.0109	-10.054844	0.000463	4.625597	0.783597	0.000046
 204	2.0198e+01	2.0150	-10.011258	0.000438	4.379991	0.741990	0.000044
 205	2.0298e+01	2.0252	-9.969709	0.000418	4.175318	0.707318	0.000042
 206	2.0398e+01	2.0379	-9.924087	0.000458	4.584663	0.776663	0.000046
 207	2.0497e+01	2.0438	-9.887426	0.000368	3.684104	0.624104	0.000037
 208	2.0596e+01	2.0542	-9.842211	0.000454	4.543729	0.769728	0.000045
 209	2.0696e+01	2.0664	-9.799847	0.000426	4.257187	0.721187	0.000043
 210	2.0796e+01	2.0763	-9.757891	0.000422	4.216253	0.714253	0.000042
 211	2.0895e+01	2.0853	-9.710232	0.000479	4.789335	0.811335	0.000048
 212	2.0994e+01	2.0947	-9.670312	0.000401	4.011580	0.679580	0.000040
 213	2.1094e+01	2.1063	-9.627949	0.000426	4.257187	0.721187	0.000043
 214	2.1194e+01	2.1155	-9.588436	0.000397	3.970646	0.672646	0.000040
 215	2.1293e+01	2.1246	-9.543221	0.000454	4.543729	0.769728	0.000045
 216	2.1392e+01	2.1356	-9.501265	0.000422	4.216253	0.714253	0.000042
 217	2.1492e+01	2.1436	-9.459309	0.000422	4.216253	0.714253	0.000042
 218	2.1591e+01	2.1555	-9.421019	0.000385	3.847842	0.651842	0.000038
 219	2.1691e+01	2.1652	-9.373359	0.000479	4.789335	0.811335	0.000048
 220	2.1791e+01	2.1770	-9.333847	0.000397	3.970646	0.672646	0.000040
 221	2.1890e+01	2.1866	-9.291891	0.000422	4.216253	0.714253	0.000042
 222	2.1989e+01	2.1951	-9.249120	0.000430	4.298122	0.728122	0.000043
 223	2.2089e+01	2.2058	-9.212459	0.000368	3.684104	0.624104	0.000037
 224	2.2189e+01	2.2137	-9.167244	0.000454	4.543729	0.769728	0.000045
 225	2.2288e+01	2.2256	-9.124880	0.000426	4.257187	0.721187	0.000043
 226	2.2387e+01	2.2358	-9.081295	0.000438	4.379991	0.741990	0.000044
 227	2.2487e+01	2.2456	-9.037709	0.000438	4.379991	0.741990	0.000044
 228	2.2587e+01	2.2579	-8.994531	0.000434	4.339056	0.735056	0.000043
 229	2.2686e+01	2.2629	-8.956241	0.000385	3.847842	0.651842	0.000038
 230	2.2785e+01	2.2741	-8.913877	0.000426	4.257187	0.721187	0.000043
 231	2.2885e+01	2.2842	-8.868662	0.000454	4.543729	0.769728	0.000045
 232	2.2985e+01	2.2918	-8.825891	0.000430	4.298122	0.728122	0.000043
 233	2.3084e+01	2.3031	-8.784749	0.000413	4.134384	0.700384	0.000041
 234	2.3183e+01	2.3141	-8.743608	0.000413	4.134384	0.700384	0.000041
 235	2.3283e+01	2.3248	-8.697578	0.000463	4.625597	0.783597	0.000046
 236	2.3383e+01	2.3368	-8.657659	0.000401	4.011580	0.679580	0.000040
 237	2.3482e+01	2.3454	-8.615702	0.000422	4.216253	0.714253	0.000042
 238	2.3581e+01	2.3524	-8.576597	0.000393	3.929711	0.665711	0.000039
 239	2.3681e+01	2.3640	-8.529753	0.000471	4.707466	0.797466	0.000047
 240	2.3780e+01	2.3748	-8.487389	0.000426	4.257187	0.721187	0.000043
 241	2.3880e+01	2.3859	-8.445840	0.000418	4.175318	0.707318	0.000042
 242	2.3980e+01	2.3958	-8.407143	0.000389	3.888777	0.658777	0.000039
 243	2.4079e+01	2.4036	-8.366816	0.000405	4.052515	0.686515	0.000041
 244	2.4178e+01	2.4179	-8.325267	0.000418	4.175318	0.707318	0.000042
 245	2.4278e+01	2.4242	-8.279237	0.000463	4.625597	0.783597	0.000046
 246	2.4378e+01	2.4345	-8.239318	0.000401	4.011580	0.679580	0.000040
 247	2.4477e+01	2.4432	-8.196139	0.000434	4.339056	0.735056	0.000043
 248	2.4576e+01	2.4523	-8.152961	0.000434	4.339056	0.735056	0.000043
 249	2.4676e+01	2.4622	-8.114264	0.000389	3.888777	0.658777	0.000039
 250	2.4776e+01	2.4718	-8.070678	0.000438	4.379991	0.741990	0.000044
 251	2.4875e+01	2.4841	-8.032388	0.000385	3.847842	0.651842	0.000038
 252	2.4974e+01	2.4936	-7.990024	0.000426	4.257187	0.721187	0.000043
 253	2.5074e+01	2.5036	-7.954178	0.000360	3.602235	0.610235	0.000036
 254	2.5174e+01	2.5099	-7.912629	0.000418	4.175318	0.707318	0.000042
 255	2.5273e+01	2.5237	-7.874339	0.000385	3.847842	0.651842	0.000038
 256	2.5372e+01	2.5343	-7.834827	0.000397	3.970646	0.672646	0.000040
 257	2.5472e+01	2.5405	-7.796944	0.000381	3.806908	0.644908	0.000038
 258	2.5572e+01	2.5523	-7.752136	0.000450	4.502794	0.762794	0.000045
 259	2.5671e+01	2.5658	-7.710994	0.000413	4.134384	0.700384	0.000041
 260	2.5770e+01	2.5713	-7.672297	0.000389	3.888777	0.658777	0.000039
 261	2.5870e+01	2.5819	-7.633192	0.000393	3.929711	0.665711	0.000039
 262	2.5970e+01	2.5942	-7.585940	0.000475	4.748401	0.804401	0.000047
 263	2.6069e+01	2.6019	-7.546021	0.000401	4.011580	0.679580	0.000040
 264	2.6169e+01	2.6111	-7.508138	0.000381	3.806908	0.644908	0.000038
 265	2.6268e+01	2.6233	-7.468218	0.000401	4.011580	0.679580	0.000040
 266	2.6367e+01	2.6341	-7.423818	0.000446	4.461860	0.755859	0.000045
 267	2.6467e+01	2.6423	-7.385935	0.000381	3.806908	0.644908	0.000038
 268	2.6567e+01	2.6533	-7.339905	0.000463	4.625597	0.783597	0.000046
 269	2.6666e+01	2.6592	-7.299986	0.000401	4.011580	0.679580	0.000040
 270	2.6765e+01	2.6714	-7.259252	0.000409	4.093449	0.693449	0.000041
 271	2.6865e+01	2.6801	-7.214851	0.000446	4.461860	0.755859	0.000045
 272	2.6965e+01	2.6933	-7.172895	0.000422	4.216253	0.714253	0.000042
 273	2.7064e+01	2.7018	-7.129309	0.000438	4.379991	0.741990	0.000044
 274	2.7163e+01	2.7105	-7.086538	0.000430	4.298122	0.728122	0.000043
 275	2.7263e+01	2.7245	-7.041731	0.000450	4.502794	0.762794	0.000045
 276	2.7363e+01	2.7312	-6.999367	0.000426	4.257187	0.721187	0.000043
 277	2.7462e+01	2.7419	-6.958225	0.000413	4.134384	0.700384	0.000041
 278	2.7561e+01	2.7542	-6.915047	0.000434	4.339056	0.735056	0.000043
 279	2.7661e+01	2.7629	-6.871462	0.000438	4.379991	0.741990	0.000044
 280	2.7761e+01	2.7706	-6.829913	0.000418	4.175318	0.707318	0.000042
 281	2.7860e+01	2.7869	-6.789586	0.000405	4.052515	0.686515	0.000041
 282	2.7959e+01	2.7921	-6.748444	0.000413	4.134384	0.700384	0.000041
 283	2.8059e+01	2.8030	-6.704044	0.000446	4.461860	0.755859	0.000045
 284	2.8159e+01	2.8113	-6.666976	0.000373	3.725039	0.631039	0.000037
 285	2.8258e+01	2.8237	-6.623797	0.000434	4.339056	0.735056	0.000043
 286	2.8358e+01	2.8341	-6.585507	0.000385	3.847842	0.651842	0.000038
 287	2.8457e+01	2.8414	-6.541107	0.000446	4.461860	0.755859	0.000045
 288	2.8556e+01	2.8534	-6.502002	0.000393	3.929711	0.665711	0.000039
 289	2.8656e+01	2.8627	-6.456787	0.000454	4.543729	0.769728	0.000045
 290	2.8756e+01	2.8697	-6.418497	0.000385	3.847842	0.651842	0.000038
 291	2.8855e+01	2.8831	-6.380206	0.000385	3.847842	0.651842	0.000038
 292	2.8954e+01	2.8922	-6.339472	0.000409	4.093449	0.693449	0.000041
 293	2.9054e+01	2.8992	-6.293035	0.000467	4.666532	0.790532	0.000047
 294	2.9154e+01	2.9128	-6.257596	0.000356	3.561301	0.603301	0.000036
 295	2.9253e+01	2.9215	-6.216455	0.000413	4.134384	0.700384	0.000041
 296	2.9352e+01	2.9284	-6.172869	0.000438	4.379991	0.741990	0.000044
 297	2.9452e+01	2.9427	-6.131320	0.000418	4.175318	0.707318	0.000042
 298	2.9552e+01	2.9513	-6.095881	0.000356	3.561301	0.603301	0.000036
 299	2.9651e+01	2.9622	-6.049852	0.000463	4.625597	0.783597	0.000046
 300	2.9750e+01	2.9745	-6.014413	0.000356	3.561301	0.603301	0.000036
 301	2.9850e+01	2.9806	-5.973271	0.000413	4.134384	0.700384	0.000041
 302	2.9950e+01	2.9925	-5.932537	0.000409	4.093449	0.693449	0.000041
 303	3.0049e+01	3.0042	-5.887729	0.000450	4.502794	0.762794	0.000045
 304	3.0148e+01	3.0093	-5.849032	0.000389	3.888777	0.658777	0.000039
 305	3.0248e+01	3.0228	-5.806261	0.000430	4.298122	0.728122	0.000043
 306	3.0348e+01	3.0287	-5.768378	0.000381	3.806908	0.644908	0.000038
 307	3.0447e+01	3.0405	-5.727644	0.000409	4.093449	0.693449	0.000041
 308	3.0547e+01	3.0498	-5.687317	0.000405	4.052515	0.686515	0.000041
 309	3.0646e+01	3.0608	-5.647397	0.000401	4.011580	0.679580	0.000040
 310	3.0745e+01	3.0716	-5.606256	0.000413	4.134384	0.700384	0.000041
 311	3.0845e+01	3.0811	-5.565521	0.000409	4.093449	0.693449	0.000041
 312	3.0945e+01	3.0908	-5.525194	0.000405	4.052515	0.686515	0.000041
 313	3.1044e+01	3.0976	-5.485682	0.000397	3.970646	0.672646	0.000040
 314	3.1143e+01	3.1108	-5.442911	0.000430	4.298122	0.728122	0.000043
 315	3.1243e+01	3.1211	-5.404621	0.000385	3.847842	0.651842	0.000038
 316	3.1343e+01	3.1319	-5.366331	0.000385	3.847842	0.651842	0.000038
 317	3.1442e+01	3.1402	-5.327633	0.000389	3.888777	0.658777	0.000039
 318	3.1541e+01	3.1501	-5.286492	0.000413	4.134384	0.700384	0.000041
 319	3.1641e+01	3.1600	-5.248609	0.000381	3.806908	0.644908	0.000038
 320	3.1741e+01	3.1728	-5.208689	0.000401	4.011580	0.679580	0.000040
 321	3.1840e+01	3.1800	-5.163067	0.000458	4.584663	0.776663	0.000046
 322	3.1939e+01	3.1888	-5.128035	0.000352	3.520366	0.596366	0.000035
 323	3.2039e+01	3.1998	-5.087301	0.000409	4.093449	0.693449	0.000041
 324	3.2139e+01	3.2103	-5.047789	0.000397	3.970646	0.672646	0.000040
 325	3.2238e+01	3.2218	-5.007869	0.000401	4.011580	0.679580	0.000040
 326	3.2337e+01	3.2314	-4.969579	0.000385	3.847842	0.651842	0.000038
 327	3.2437e+01	3.2403	-4.928030	0.000418	4.175318	0.707318	0.000042
 328	3.2536e+01	3.2523	-4.888111	0.000401	4.011580	0.679580	0.000040
 329	3.2636e+01	3.2607	-4.850228	0.000381	3.806908	0.644908	0.000038
 330	3.2736e+01	3.2677	-4.811530	0.000389	3.888777	0.658777	0.000039
 331	3.2835e+01	3.2763	-4.775277	0.000364	3.643170	0.617170	0.000036
 332	3.2934e+01	3.2893	-4.736172	0.000393	3.929711	0.665711	0.000039
 333	3.3034e+01	3.2967	-4.692586	0.000438	4.379991	0.741990	0.000044
 334	3.3133e+01	3.3134	-4.650630	0.000422	4.216253	0.714253	0.000042
 335	3.3233e+01	3.3185	-4.612340	0.000385	3.847842	0.651842	0.000038
 336	3.3333e+01	3.3289	-4.570791	0.000418	4.175318	0.707318	0.000042
 337	3.3432e+01	3.3423	-4.528834	0.000422	4.216253	0.714253	0.000042
 338	3.3532e+01	3.3497	-4.488100	0.000409	4.093449	0.693449	0.000041
 339	3.3631e+01	3.3598	-4.444922	0.000434	4.339056	0.735056	0.000043
 340	3.3730e+01	3.3674	-4.408668	0.000364	3.643170	0.617170	0.000036
 341	3.3830e+01	3.3799	-4.365083	0.000438	4.379991	0.741990	0.000044
 342	3.3929e+01	3.3900	-4.325163	0.000401	4.011580	0.679580	0.000040
 343	3.4029e+01	3.3990	-4.286466	0.000389	3.888777	0.658777	0.000039
 344	3.4129e+01	3.4106	-4.248175	0.000385	3.847842	0.651842	0.000038
 345	3.4228e+01	3.4180	-4.208663	0.000397	3.970646	0.672646	0.000040
 346	3.4328e+01	3.4306	-4.167114	0.000418	4.175318	0.707318	0.000042
 347	3.4427e+01	3.4368	-4.129639	0.000377	3.765973	0.637973	0.000038
 348	3.4526e+01	3.4492	-4.091349	0.000385	3.847842	0.651842	0.000038
 349	3.4626e+01	3.4585	-4.051429	0.000401	4.011580	0.679580	0.000040
 350	3.4725e+01	3.4681	-4.012324	0.000393	3.929711	0.665711	0.000039
 351	3.4825e+01	3.4785	-3.974441	0.000381	3.806908	0.644908	0.000038
 352	3.4925e+01	3.4895	-3.932485	0.000422	4.216253	0.714253	0.000042
 353	3.5024e+01	3.4988	-3.894195	0.000385	3.847842	0.651842	0.000038
 354	3.5123e+01	3.5073	-3.856312	0.000381	3.806908	0.644908	0.000038
 355	3.5223e+01	3.5184	-3.816392	0.000401	4.011580	0.679580	0.000040
 356	3.5322e+01	3.5277	-3.783805	0.000327	3.274759	0.554759	0.000033
 357	3.5422e+01	3.5400	-3.744700	0.000393	3.929711	0.665711	0.000039
 358	3.5522e+01	3.5509	-3.708447	0.000364	3.643170	0.617170	0.000036
 359	3.5621e+01	3.5612	-3.671786	0.000368	3.684104	0.624104	0.000037
 360	3.5721e+01	3.5677	-3.637976	0.000340	3.397563	0.575563	0.000034
 361	3.5820e+01	3.5807	-3.598871	0.000393	3.929711	0.665711	0.000039
 362	3.5919e+01	3.5872	-3.563025	0.000360	3.602235	0.610235	0.000036
 363	3.6019e+01	3.5991	-3.524735	0.000385	3.847842	0.651842	0.000038
 364	3.6118e+01	3.6088	-3.489296	0.000356	3.561301	0.603301	0.000036
 365	3.6218e+01	3.6184	-3.450599	0.000389	3.888777	0.658777	0.000039
 366	3.6318e+01	3.6306	-3.409457	0.000413	4.134384	0.700384	0.000041
 367	3.6417e+01	3.6361	-3.373611	0.000360	3.602235	0.610235	0.000036
 368	3.6517e+01	3.6473	-3.336950	0.000368	3.684104	0.624104	0.000037
 369	3.6616e+01	3.6597	-3.297438	0.000397	3.970646	0.672646	0.000040
 370	3.6715e+01	3.6729	-3.261999	0.000356	3.561301	0.603301	0.000036
 371	3.6815e+01	3.6758	-3.222487	0.000397	3.970646	0.672646	0.000040
 372	3.6914e+01	3.6877	-3.184197	0.000385	3.847842	0.651842	0.000038
 373	3.7014e+01	3.6963	-3.148758	0.000356	3.561301	0.603301	0.000036
 374	3.7114e+01	3.7090	-3.107616	0.000413	4.134384	0.700384	0.000041
 375	3.7213e+01	3.7198	-3.072992	0.000348	3.479432	0.589432	0.000035
 376	3.7313e+01	3.7272	-3.029814	0.000434	4.339056	0.735056	0.000043
 377	3.7412e+01	3.7365	-2.993968	0.000360	3.602235	0.610235	0.000036
 378	3.7511e+01	3.7447	-2.958122	0.000360	3.602235	0.610235	0.000036
 379	3.7611e+01	3.7579	-2.919017	0.000393	3.929711	0.665711	0.000039
 380	3.7711e+01	3.7671	-2.881949	0.000373	3.725039	0.631039	0.000037
 381	3.7810e+01	3.7755	-2.846917	0.000352	3.520366	0.596366	0.000035
 382	3.7910e+01	3.7855	-2.806183	0.000409	4.093449	0.693449	0.000041
 383	3.8009e+01	3.7981	-2.769929	0.000364	3.643170	0.617170	0.000036
 384	3.8108e+01	3.8110	-2.730010	0.000401	4.011580	0.679580	0.000040
 385	3.8208e+01	3.8154	-2.695386	0.000348	3.479432	0.589432	0.000035
 386	3.8307e+01	3.8272	-2.652615	0.000430	4.298122	0.728122	0.000043
 387	3.8407e+01	3.8369	-2.617583	0.000352	3.520366	0.596366	0.000035
 388	3.8507e+01	3.8461	-2.582552	0.000352	3.520366	0.596366	0.000035
 389	3.8606e+01	3.8573	-2.542225	0.000405	4.052515	0.686515	0.000041
 390	3.8706e+01	3.8696	-2.504342	0.000381	3.806908	0.644908	0.000038
 391	3.8805e+01	3.8775	-2.470125	0.000344	3.438497	0.582497	0.000034
 392	3.8904e+01	3.8898	-2.433057	0.000373	3.725039	0.631039	0.000037
 393	3.9004e+01	3.8977	-2.394767	0.000385	3.847842	0.651842	0.000038
 394	3.9103e+01	3.9065	-2.358513	0.000364	3.643170	0.617170	0.000036
 395	3.9203e+01	3.9176	-2.321853	0.000368	3.684104	0.624104	0.000037
 396	3.9303e+01	3.9268	-2.280711	0.000413	4.134384	0.700384	0.000041
 397	3.9402e+01	3.9341	-2.244457	0.000364	3.643170	0.617170	0.000036
 398	3.9502e+01	3.9497	-2.206982	0.000377	3.765973	0.637973	0.000038
 399	3.9601e+01	3.9537	-2.167470	0.000397	3.970646	0.672646	0.000040
 400	3.9700e+01	3.9673	-2.132846	0.000348	3.479432	0.589432	0.000035
 401	3.9800e+01	3.9767	-2.090889	0.000422	4.216253	0.714253	0.000042
 402	3.9900e+01	3.9857	-2.055451	0.000356	3.561301	0.603301	0.000036
 403	3.9999e+01	3.9977	-2.016346	0.000393	3.929711	0.665711	0.000039
 404	4.0099e+01	4.0071	-1.982129	0.000344	3.438497	0.582497	0.000034
 405	4.0198e+01	4.0143	-1.945061	0.000373	3.725039	0.631039	0.000037
 406	4.0297e+01	4.0260	-1.906770	0.000385	3.847842	0.651842	0.000038
 407	4.0397e+01	4.0369	-1.869702	0.000373	3.725039	0.631039	0.000037
 408	4.0496e+01	4.0476	-1.832634	0.000373	3.725039	0.631039	0.000037
 409	4.0596e+01	4.0564	-1.792715	0.000401	4.011580	0.679580	0.000040
 410	4.0696e+01	4.0668	-1.760535	0.000323	3.233825	0.547825	0.000032
 411	4.0795e+01	4.0768	-1.718171	0.000426	4.257187	0.721187	0.000043
 412	4.0895e+01	4.0839	-1.685583	0.000327	3.274759	0.554759	0.000033
 413	4.0994e+01	4.0967	-1.646071	0.000397	3.970646	0.672646	0.000040
 414	4.1093e+01	4.1052	-1.608188	0.000381	3.806908	0.644908	0.000038
 415	4.1193e+01	4.1161	-1.575601	0.000327	3.274759	0.554759	0.000033
 416	4.1292e+01	4.1251	-1.534052	0.000418	4.175318	0.707318	0.000042
 417	4.1392e+01	4.1346	-1.500650	0.000336	3.356628	0.568628	0.000034
 418	4.1492e+01	4.1459	-1.465619	0.000352	3.520366	0.596366	0.000035
 419	4.1591e+01	4.1538	-1.424070	0.000418	4.175318	0.707318	0.000042
 420	4.1691e+01	4.1619	-1.392704	0.000315	3.151956	0.533956	0.000032
 421	4.1790e+01	4.1757	-1.355636	0.000373	3.725039	0.631039	0.000037
 422	4.1889e+01	4.1875	-1.322641	0.000332	3.315694	0.561694	0.000033
 423	4.1989e+01	4.1958	-1.289239	0.000336	3.356628	0.568628	0.000034
 424	4.2089e+01	4.2067	-1.250134	0.000393	3.929711	0.665711	0.000039
 425	4.2188e+01	4.2139	-1.215918	0.000344	3.438497	0.582497	0.000034
 426	4.2288e+01	4.2264	-1.178035	0.000381	3.806908	0.644908	0.000038
 427	4.2387e+01	4.2345	-1.143003	0.000352	3.520366	0.596366	0.000035
 428	4.2486e+01	4.2446	-1.106342	0.000368	3.684104	0.624104	0.000037
 429	4.2586e+01	4.2518	-1.070496	0.000360	3.602235	0.610235	0.000036
 430	4.2685e+01	4.2632	-1.030577	0.000401	4.011580	0.679580	0.000040
 431	4.2785e+01	4.2744	-0.995138	0.000356	3.561301	0.603301	0.000036
 432	4.2885e+01	4.2847	-0.960106	0.000352	3.520366	0.596366	0.000035
 433	4.2984e+01	4.2970	-0.922631	0.000377	3.765973	0.637973	0.000038
 434	4.3084e+01	4.3023	-0.883933	0.000389	3.888777	0.658777	0.000039
 435	4.3183e+01	4.3110	-0.848902	0.000352	3.520366	0.596366	0.000035
 436	4.3282e+01	4.3259	-0.814278	0.000348	3.479432	0.589432	0.000035
 437	4.3382e+01	4.3365	-0.777617	0.000368	3.684104	0.624104	0.000037
 438	4.3481e+01	4.3449	-0.739734	0.000381	3.806908	0.644908	0.000038
 439	4.3581e+01	4.3575	-0.701037	0.000389	3.888777	0.658777	0.000039
 440	4.3681e+01	4.3652	-0.662746	0.000385	3.847842	0.651842	0.000038
 441	4.3780e+01	4.3736	-0.624049	0.000389	3.888777	0.658777	0.000039
 442	4.3880e+01	4.3847	-0.587388	0.000368	3.684104	0.624104	0.000037
 443	4.3979e+01	4.3947	-0.547061	0.000405	4.052515	0.686515	0.000041
 444	4.4078e+01	4.4052	-0.510808	0.000364	3.643170	0.617170	0.000036
 445	4.4178e+01	4.4141	-0.472110	0.000389	3.888777	0.658777	0.000039
 446	4.4278e+01	4.4259	-0.432598	0.000397	3.970646	0.672646	0.000040
 447	4.4377e+01	4.4343	-0.394308	0.000385	3.847842	0.651842	0.000038
 448	4.4477e+01	4.4402	-0.361720	0.000327	3.274759	0.554759	0.000033
 449	4.4576e+01	4.4548	-0.323837	0.000381	3.806908	0.644908	0.000038
 450	4.4675e+01	4.4637	-0.285547	0.000385	3.847842	0.651842	0.000038
 451	4.4775e+01	4.4723	-0.248886	0.000368	3.684104	0.624104	0.000037
 452	4.4874e+01	4.4834	-0.213447	0.000356	3.561301	0.603301	0.000036
 453	4.4974e+01	4.4936	-0.174343	0.000393	3.929711	0.665711	0.000039
 454	4.5074e+01	4.5046	-0.139718	0.000348	3.479432	0.589432	0.000035
 455	4.5173e+01	4.5136	-0.102650	0.000373	3.725039	0.631039	0.000037
 456	4.5273e+01	4.5216	-0.065989	0.000368	3.684104	0.624104	0.000037
 457	4.5372e+01	4.5351	-0.032995	0.000332	3.315694	0.561694	0.000033
 458	4.5471e+01	4.5428	0.004888	0.000381	3.806908	0.644908	0.000038
 459	4.5571e+01	4.5535	0.042771	0.000381	3.806908	0.644908	0.000038
 460	4.5670e+01	4.5634	0.076988	0.000344	3.438497	0.582497	0.000034
 461	4.5770e+01	4.5730	0.113241	0.000364	3.643170	0.617170	0.000036
 462	4.5870e+01	4.5848	0.151124	0.000381	3.806908	0.644908	0.000038
 463	4.5969e+01	4.5936	0.187785	0.000368	3.684104	0.624104	0.000037
 464	4.6069e+01	4.6023	0.223631	0.000360	3.602235	0.610235	0.000036
 465	4.6168e+01	4.6131	0.256626	0.000332	3.315694	0.561694	0.000033
 466	4.6267e+01	4.6246	0.292065	0.000356	3.561301	0.603301	0.000036
 467	4.6367e+01	4.6331	0.332799	0.000409	4.093449	0.693449	0.000041
 468	4.6467e+01	4.6432	0.365386	0.000327	3.274759	0.554759	0.000033
 469	4.6566e+01	4.6519	0.404898	0.000397	3.970646	0.672646	0.000040
 470	4.6666e+01	4.6637	0.435449	0.000307	3.070087	0.520087	0.000031
 471	4.6765e+01	4.6725	0.475369	0.000401	4.011580	0.679580	0.000040
 472	4.6864e+01	4.6830	0.510400	0.000352	3.520366	0.596366	0.000035
 473	4.6964e+01	4.6929	0.546246	0.000360	3.602235	0.610235	0.000036
 474	4.7063e+01	4.7036	0.582500	0.000364	3.643170	0.617170	0.000036
 475	4.7163e+01	4.7124	0.616717	0.000344	3.438497	0.582497	0.000034
 476	4.7263e+01	4.7205	0.656636	0.000401	4.011580	0.679580	0.000040
 477	4.7362e+01	4.7309	0.691668	0.000352	3.520366	0.596366	0.000035
 478	4.7462e+01	4.7463	0.728736	0.000373	3.725039	0.631039	0.000037
 479	4.7561e+01	4.7535	0.763767	0.000352	3.520366	0.596366	0.000035
 480	4.7660e+01	4.7641	0.798391	0.000348	3.479432	0.589432	0.000035
 481	4.7760e+01	4.7706	0.834238	0.000360	3.602235	0.610235	0.000036
 482	4.7859e+01	4.7826	0.868862	0.000348	3.479432	0.589432	0.000035
 483	4.7959e+01	4.7921	0.901042	0.000323	3.233825	0.547825	0.000032
 484	4.8059e+01	4.8040	0.936481	0.000356	3.561301	0.603301	0.000036
 485	4.8158e+01	4.8135	0.972327	0.000360	3.602235	0.610235	0.000036
 486	4.8258e+01	4.8222	1.008988	0.000368	3.684104	0.624104	0.000037
 487	4.8357e+01	4.8331	1.043612	0.000348	3.479432	0.589432	0.000035
 488	4.8456e+01	4.8435	1.076606	0.000332	3.315694	0.561694	0.000033
 489	4.8556e+01	4.8546	1.116526	0.000401	4.011580	0.679580	0.000040
 490	4.8656e+01	4.8598	1.151557	0.000352	3.520366	0.596366	0.000035
 491	4.8755e+01	4.8736	1.184145	0.000327	3.274759	0.554759	0.000033
 492	4.8855e+01	4.8824	1.221213	0.000373	3.725039	0.631039	0.000037
 493	4.8954e+01	4.8919	1.257466	0.000364	3.643170	0.617170	0.000036
 494	4.9053e+01	4.9019	1.292498	0.000352	3.520366	0.596366	0.000035
 495	4.9153e+01	4.9126	1.326307	0.000340	3.397563	0.575563	0.000034
 496	4.9252e+01	4.9216	1.363376	0.000373	3.725039	0.631039	0.000037
 497	4.9352e+01	4.9310	1.394741	0.000315	3.151956	0.533956	0.000032
 498	4.9452e+01	4.9430	1.428550	0.000340	3.397563	0.575563	0.000034
 499	4.9551e+01	4.9559	1.464804	0.000364	3.643170	0.617170	0.000036
 500	4.9651e+01	4.9635	1.498613	0.000340	3.397563	0.575563	0.000034
 501	4.9750e+01	4.9689	1.536089	0.000377	3.765973	0.637973	0.000038
 502	4.9849e+01	4.9804	1.567454	0.000315	3.151956	0.533956	0.000032
 503	4.9949e+01	4.9921	1.604522	0.000373	3.725039	0.631039	0.000037
 504	5.0048e+01	5.0024	1.641590	0.000373	3.725039	0.631039	0.000037
 505	5.0148e+01	5.0108	1.678251	0.000368	3.684104	0.624104	0.000037
 506	5.0248e+01	5.0214	1.718986	0.000409	4.093449	0.693449	0.000041
 507	5.0347e+01	5.0311	1.753610	0.000348	3.479432	0.589432	0.000035
 508	5.0447e+01	5.0420	1.793122	0.000397	3.970646	0.672646	0.000040
 509	5.0546e+01	5.0520	1.825709	0.000327	3.274759	0.554759	0.000033
 510	5.0645e+01	5.0605	1.862777	0.000373	3.725039	0.631039	0.000037
 511	5.0745e+01	5.0691	1.895365	0.000327	3.274759	0.554759	0.000033
 512	5.0844e+01	5.0806	1.931618	0.000364	3.643170	0.617170	0.000036
 513	5.0944e+01	5.0900	1.965835	0.000344	3.438497	0.582497	0.000034
 514	5.1044e+01	5.1020	2.001274	0.000356	3.561301	0.603301	0.000036
 515	5.1143e+01	5.1116	2.034269	0.000332	3.315694	0.561694	0.000033
 516	5.1242e+01	5.1224	2.069300	0.000352	3.520366	0.596366	0.000035
 517	5.1342e+01	5.1321	2.104332	0.000352	3.520366	0.596366	0.000035
 518	5.1441e+01	5.1400	2.132438	0.000282	2.824480	0.478480	0.000028
 519	5.1541e+01	5.1499	2.169099	0.000368	3.684104	0.624104	0.000037
 520	5.1641e+01	5.1589	2.206167	0.000373	3.725039	0.631039	0.000037
 521	5.1740e+01	5.1698	2.239977	0.000340	3.397563	0.575563	0.000034
 522	5.1840e+01	5.1824	2.270935	0.000311	3.111021	0.527021	0.000031
 523	5.1939e+01	5.1888	2.309225	0.000385	3.847842	0.651842	0.000038
 524	5.2038e+01	5.2027	2.341812	0.000327	3.274759	0.554759	0.000033
 525	5.2138e+01	5.2097	2.373992	0.000323	3.233825	0.547825	0.000032
 526	5.2237e+01	5.2174	2.402506	0.000287	2.865414	0.485414	0.000029
 527	5.2337e+01	5.2303	2.431428	0.000291	2.906349	0.492349	0.000029
 528	5.2437e+01	5.2425	2.467681	0.000364	3.643170	0.617170	0.000036
 529	5.2536e+01	5.2496	2.498639	0.000311	3.111021	0.527021	0.000031
 530	5.2636e+01	5.2619	2.534078	0.000356	3.561301	0.603301	0.000036
 531	5.2735e+01	5.2709	2.570739	0.000368	3.684104	0.624104	0.000037
 532	5.2834e+01	5.2810	2.597216	0.000266	2.660742	0.450742	0.000027
 533	5.2934e+01	5.2908	2.634284	0.000373	3.725039	0.631039	0.000037
 534	5.3033e+01	5.2996	2.665650	0.000315	3.151956	0.533956	0.000032
 535	5.3133e+01	5.3092	2.699459	0.000340	3.397563	0.575563	0.000034
 536	5.3233e+01	5.3198	2.735713	0.000364	3.643170	0.617170	0.000036
 537	5.3332e+01	5.3291	2.768707	0.000332	3.315694	0.561694	0.000033
 538	5.3431e+01	5.3378	2.800073	0.000315	3.151956	0.533956	0.000032
 539	5.3531e+01	5.3519	2.835104	0.000352	3.520366	0.596366	0.000035
 540	5.3630e+01	5.3573	2.866877	0.000319	3.192890	0.540890	0.000032
 541	5.3730e+01	5.3684	2.902723	0.000360	3.602235	0.610235	0.000036
 542	5.3830e+01	5.3777	2.932459	0.000299	2.988218	0.506218	0.000030
 543	5.3929e+01	5.3889	2.969527	0.000373	3.725039	0.631039	0.000037
 544	5.4029e+01	5.4011	3.001300	0.000319	3.192890	0.540890	0.000032
 545	5.4128e+01	5.4095	3.037553	0.000364	3.643170	0.617170	0.000036
 546	5.4227e+01	5.4202	3.068104	0.000307	3.070087	0.520087	0.000031
 547	5.4327e+01	5.4308	3.101506	0.000336	3.356628	0.568628	0.000034
 548	5.4426e+01	5.4365	3.137760	0.000364	3.643170	0.617170	0.000036
 549	5.4526e+01	5.4487	3.170347	0.000327	3.274759	0.554759	0.000033
 550	5.4626e+01	5.4577	3.198454	0.000282	2.824480	0.478480	0.000028
 551	5.4725e+01	5.4694	3.233485	0.000352	3.520366	0.596366	0.000035
 552	5.4825e+01	5.4790	3.271368	0.000381	3.806908	0.644908	0.000038
 553	5.4924e+01	5.4855	3.307622	0.000364	3.643170	0.617170	0.000036
 554	5.5023e+01	5.4967	3.338172	0.000307	3.070087	0.520087	0.000031
 555	5.5123e+01	5.5114	3.371574	0.000336	3.356628	0.568628	0.000034
 556	5.5222e+01	5.5225	3.407828	0.000364	3.643170	0.617170	0.000036
 557	5.5322e+01	5.5286	3.439601	0.000319	3.192890	0.540890	0.000032
 558	5.5422e+01	5.5401	3.470151	0.000307	3.070087	0.520087	0.000031
 559	5.5521e+01	5.5478	3.502331	0.000323	3.233825	0.547825	0.000032
 560	5.5620e+01	5.5566	3.536955	0.000348	3.479432	0.589432	0.000035
 561	5.5720e+01	5.5692	3.567099	0.000303	3.029152	0.513152	0.000030
 562	5.5819e+01	5.5776	3.604574	0.000377	3.765973	0.637973	0.000038
 563	5.5919e+01	5.5868	3.637976	0.000336	3.356628	0.568628	0.000034
 564	5.6019e+01	5.5993	3.668527	0.000307	3.070087	0.520087	0.000031
 565	5.6118e+01	5.6072	3.703151	0.000348	3.479432	0.589432	0.000035
 566	5.6218e+01	5.6223	3.737775	0.000348	3.479432	0.589432	0.000035
 567	5.6317e+01	5.6290	3.769548	0.000319	3.192890	0.540890	0.000032
 568	5.6416e+01	5.6376	3.802950	0.000336	3.356628	0.568628	0.000034
 569	5.6516e+01	5.6490	3.836352	0.000336	3.356628	0.568628	0.000034
 570	5.6615e+01	5.6602	3.867718	0.000315	3.151956	0.533956	0.000032
 571	5.6715e+01	5.6655	3.901934	0.000344	3.438497	0.582497	0.000034
 572	5.6815e+01	5.6775	3.936558	0.000348	3.479432	0.589432	0.000035
 573	5.6914e+01	5.6882	3.966702	0.000303	3.029152	0.513152	0.000030
 574	5.7014e+01	5.6979	4.002141	0.000356	3.561301	0.603301	0.000036
 575	5.7113e+01	5.7061	4.034321	0.000323	3.233825	0.547825	0.000032
 576	5.7212e+01	5.7178	4.068537	0.000344	3.438497	0.582497	0.000034
 577	5.7312e+01	5.7259	4.099495	0.000311	3.111021	0.527021	0.000031
 578	5.7411e+01	5.7374	4.131268	0.000319	3.192890	0.540890	0.000032
 579	5.7511e+01	5.7468	4.166707	0.000356	3.561301	0.603301	0.000036
 580	5.7611e+01	5.7593	4.197665	0.000311	3.111021	0.527021	0.000031
 581	5.7710e+01	5.7705	4.233511	0.000360	3.602235	0.610235	0.000036
 582	5.7809e+01	5.7773	4.268135	0.000348	3.479432	0.589432	0.000035
 583	5.7909e+01	5.7876	4.298686	0.000307	3.070087	0.520087	0.000031
 584	5.8008e+01	5.7978	4.332495	0.000340	3.397563	0.575563	0.000034
 585	5.8108e+01	5.8085	4.363046	0.000307	3.070087	0.520087	0.000031
 586	5.8208e+01	5.8178	4.397670	0.000348	3.479432	0.589432	0.000035
 587	5.8307e+01	5.8282	4.427406	0.000299	2.988218	0.506218	0.000030
 588	5.8407e+01	5.8385	4.457550	0.000303	3.029152	0.513152	0.000030
 589	5.8506e+01	5.8450	4.488915	0.000315	3.151956	0.533956	0.000032
 590	5.8605e+01	5.8550	4.520688	0.000319	3.192890	0.540890	0.000032
 591	5.8705e+01	5.8691	4.551238	0.000307	3.070087	0.520087	0.000031
 592	5.8804e+01	5.8780	4.582604	0.000315	3.151956	0.533956	0.000032
 593	5.8904e+01	5.8855	4.612340	0.000299	2.988218	0.506218	0.000030
 594	5.9004e+01	5.8956	4.648186	0.000360	3.602235	0.610235	0.000036
 595	5.9103e+01	5.9095	4.679551	0.000315	3.151956	0.533956	0.000032
 596	5.9203e+01	5.9167	4.714175	0.000348	3.479432	0.589432	0.000035
 597	5.9302e+01	5.9263	4.744726	0.000307	3.070087	0.520087	0.000031
 598	5.9401e+01	5.9380	4.778128	0.000336	3.356628	0.568628	0.000034
 599	5.9501e+01	5.9464	4.813160	0.000352	3.520366	0.596366	0.000035
 600	5.9600e+01	5.9588	4.841266	0.000282	2.824480	0.478480	0.000028
 601	5.9700e+01	5.9661	4.875483	0.000344	3.438497	0.582497	0.000034
 602	5.9800e+01	5.9764	4.910107	0.000348	3.479432	0.589432	0.000035
 603	5.9899e+01	5.9863	4.941880	0.000319	3.192890	0.540890	0.000032
 604	5.9998e+01	5.9937	4.975282	0.000336	3.356628	0.568628	0.000034
 605	6.0098e+01	6.0046	5.005833	0.000307	3.070087	0.520087	0.000031
 606	6.0197e+01	6.0180	5.041271	0.000356	3.561301	0.603301	0.000036
 607	6.0297e+01	6.0300	5.073044	0.000319	3.192890	0.540890	0.000032
 608	6.0397e+01	6.0376	5.108483	0.000356	3.561301	0.603301	0.000036
 609	6.0496e+01	6.0464	5.145551	0.000373	3.725039	0.631039	0.000037
 610	6.0596e+01	6.0528	5.180583	0.000352	3.520366	0.596366	0.000035
 611	6.0695e+01	6.0671	5.211541	0.000311	3.111021	0.527021	0.000031
 612	6.0794e+01	6.0757	5.246979	0.000356	3.561301	0.603301	0.000036
 613	6.0894e+01	6.0865	5.284455	0.000377	3.765973	0.637973	0.000038
 614	6.0993e+01	6.0964	5.315006	0.000307	3.070087	0.520087	0.000031
 615	6.1093e+01	6.1053	5.348815	0.000340	3.397563	0.575563	0.000034
 616	6.1193e+01	6.1164	5.383439	0.000348	3.479432	0.589432	0.000035
 617	6.1292e+01	6.1251	5.412768	0.000295	2.947283	0.499283	0.000029
 618	6.1392e+01	6.1338	5.447392	0.000348	3.479432	0.589432	0.000035
 619	6.1491e+01	6.1462	5.479979	0.000327	3.274759	0.554759	0.000033
 620	6.1590e+01	6.1584	5.514603	0.000348	3.479432	0.589432	0.000035
 621	6.1690e+01	6.1645	5.544339	0.000299	2.988218	0.506218	0.000030
 622	6.1789e+01	6.1768	5.577334	0.000332	3.315694	0.561694	0.000033
 623	6.1889e+01	6.1871	5.611144	0.000340	3.397563	0.575563	0.000034
 624	6.1989e+01	6.1938	5.642916	0.000319	3.192890	0.540890	0.000032
 625	6.2088e+01	6.2054	5.676726	0.000340	3.397563	0.575563	0.000034
 626	6.2188e+01	6.2136	5.708906	0.000323	3.233825	0.547825	0.000032
 627	6.2287e+01	6.2257	5.739864	0.000311	3.111021	0.527021	0.000031
 628	6.2386e+01	6.2386	5.772451	0.000327	3.274759	0.554759	0.000033
 629	6.2486e+01	6.2457	5.805853	0.000336	3.356628	0.568628	0.000034
 630	6.2586e+01	6.2535	5.838033	0.000323	3.233825	0.547825	0.000032
 631	6.2685e+01	6.2627	5.869399	0.000315	3.151956	0.533956	0.000032
 632	6.2785e+01	6.2746	5.903208	0.000340	3.397563	0.575563	0.000034
 633	6.2884e+01	6.2817	5.937832	0.000348	3.479432	0.589432	0.000035
 634	6.2983e+01	6.2955	5.970420	0.000327	3.274759	0.554759	0.000033
 635	6.3083e+01	6.3030	5.996897	0.000266	2.660742	0.450742	0.000027
 636	6.3182e+01	6.3151	6.030706	0.000340	3.397563	0.575563	0.000034
 637	6.3282e+01	6.3244	6.062072	0.000315	3.151956	0.533956	0.000032
 638	6.3382e+01	6.3369	6.096289	0.000344	3.438497	0.582497	0.000034
 639	6.3481e+01	6.3418	6.127654	0.000315	3.151956	0.533956	0.000032
 640	6.3581e+01	6.3525	6.157797	0.000303	3.029152	0.513152	0.000030
 641	6.3680e+01	6.3653	6.189977	0.000323	3.233825	0.547825	0.000032
 642	6.3779e+01	6.3743	6.226231	0.000364	3.643170	0.617170	0.000036
 643	6.3879e+01	6.3825	6.254745	0.000287	2.865414	0.485414	0.000029
 644	6.3978e+01	6.3957	6.290998	0.000364	3.643170	0.617170	0.000036
 645	6.4078e+01	6.4050	6.323178	0.000323	3.233825	0.547825	0.000032
 646	6.4177e+01	6.4126	6.351692	0.000287	2.865414	0.485414	0.000029
 647	6.4277e+01	6.4259	6.385502	0.000340	3.397563	0.575563	0.000034
 648	6.4376e+01	6.4352	6.418497	0.000332	3.315694	0.561694	0.000033
 649	6.4476e+01	6.4437	6.449047	0.000307	3.070087	0.520087	0.000031
 650	6.4576e+01	6.4530	6.480413	0.000315	3.151956	0.533956	0.000032
 651	6.4675e+01	6.4626	6.514629	0.000344	3.438497	0.582497	0.000034
 652	6.4775e+01	6.4748	6.543143	0.000287	2.865414	0.485414	0.000029
 653	6.4874e+01	6.4835	6.575731	0.000327	3.274759	0.554759	0.000033
 654	6.4974e+01	6.4925	6.608726	0.000332	3.315694	0.561694	0.000033
 655	6.5073e+01	6.5032	6.639276	0.000307	3.070087	0.520087	0.000031
 656	6.5172e+01	6.5130	6.671049	0.000319	3.192890	0.540890	0.000032
 657	6.5272e+01	6.5231	6.704451	0.000336	3.356628	0.568628	0.000034
 658	6.5371e+01	6.5334	6.735409	0.000311	3.111021	0.527021	0.000031
 659	6.5471e+01	6.5440	6.767996	0.000327	3.274759	0.554759	0.000033
 660	6.5570e+01	6.5536	6.799362	0.000315	3.151956	0.533956	0.000032
 661	6.5670e+01	6.5620	6.830727	0.000315	3.151956	0.533956	0.000032
 662	6.5769e+01	6.5734	6.862093	0.000315	3.151956	0.533956	0.000032
 663	6.5869e+01	6.5835	6.890199	0.000282	2.824480	0.478480	0.000028
 664	6.5969e+01	6.5923	6.926045	0.000360	3.602235	0.610235	0.000036
 665	6.6068e+01	6.6036	6.952930	0.000270	2.701676	0.457676	0.000027
 666	6.6168e+01	6.6108	6.984703	0.000319	3.192890	0.540890	0.000032
 667	6.6267e+01	6.6265	7.015661	0.000311	3.111021	0.527021	0.000031
 668	6.6367e+01	6.6328	7.049470	0.000340	3.397563	0.575563	0.000034
 669	6.6466e+01	6.6435	7.080021	0.000307	3.070087	0.520087	0.000031
 670	6.6566e+01	6.6521	7.113830	0.000340	3.397563	0.575563	0.000034
 671	6.6665e+01	6.6631	7.150084	0.000364	3.643170	0.617170	0.000036
 672	6.6764e+01	6.6724	7.185115	0.000352	3.520366	0.596366	0.000035
 673	6.6864e+01	6.6808	7.215666	0.000307	3.070087	0.520087	0.000031
 674	6.6963e+01	6.6904	7.250697	0.000352	3.520366	0.596366	0.000035
 675	6.7063e+01	6.7013	7.282470	0.000319	3.192890	0.540890	0.000032
 676	6.7162e+01	6.7130	7.315872	0.000336	3.356628	0.568628	0.000034
 677	6.7262e+01	6.7233	7.348460	0.000327	3.274759	0.554759	0.000033
 678	6.7362e+01	6.7316	7.376566	0.000282	2.824480	0.478480	0.000028
 679	6.7461e+01	6.7430	7.407524	0.000311	3.111021	0.527021	0.000031
 680	6.7561e+01	6.7527	7.441334	0.000340	3.397563	0.575563	0.000034
 681	6.7660e+01	6.7611	7.473106	0.000319	3.192890	0.540890	0.000032
 682	6.7760e+01	6.7696	7.504064	0.000311	3.111021	0.527021	0.000031
 683	6.7859e+01	6.7834	7.537467	0.000336	3.356628	0.568628	0.000034
 684	6.7959e+01	6.7888	7.563536	0.000262	2.619807	0.443807	0.000026
 685	6.8058e+01	6.8012	7.597346	0.000340	3.397563	0.575563	0.000034
 686	6.8157e+01	6.8136	7.629119	0.000319	3.192890	0.540890	0.000032
 687	6.8257e+01	6.8224	7.660484	0.000315	3.151956	0.533956	0.000032
 688	6.8356e+01	6.8343	7.690627	0.000303	3.029152	0.513152	0.000030
 689	6.8456e+01	6.8404	7.722807	0.000323	3.233825	0.547825	0.000032
 690	6.8555e+01	6.8517	7.748877	0.000262	2.619807	0.443807	0.000026
 691	6.8655e+01	6.8616	7.781057	0.000323	3.233825	0.547825	0.000032
 692	6.8754e+01	6.8716	7.807127	0.000262	2.619807	0.443807	0.000026
 693	6.8854e+01	6.8804	7.841344	0.000344	3.438497	0.582497	0.000034
 694	6.8954e+01	6.8898	7.867007	0.000258	2.578873	0.436873	0.000026
 695	6.9053e+01	6.9030	7.899187	0.000323	3.233825	0.547825	0.000032
 696	6.9153e+01	6.9122	7.928108	0.000291	2.906349	0.492349	0.000029
 697	6.9252e+01	6.9208	7.955807	0.000278	2.783545	0.471545	0.000028
 698	6.9352e+01	6.9297	7.983914	0.000282	2.824480	0.478480	0.000028
 699	6.9451e+01	6.9411	8.015279	0.000315	3.151956	0.533956	0.000032
 700	6.9550e+01	6.9482	8.041757	0.000266	2.660742	0.450742	0.000027
 701	6.9650e+01	6.9600	8.076381	0.000348	3.479432	0.589432	0.000035
 702	6.9749e+01	6.9707	8.108968	0.000327	3.274759	0.554759	0.000033
 703	6.9849e+01	6.9817	8.135853	0.000270	2.701676	0.457676	0.000027
 704	6.9948e+01	6.9892	8.165589	0.000299	2.988218	0.506218	0.000030
 705	7.0048e+01	7.0022	8.195732	0.000303	3.029152	0.513152	0.000030
 706	7.0147e+01	7.0118	8.226283	0.000307	3.070087	0.520087	0.000031
 707	7.0247e+01	7.0200	8.258463	0.000323	3.233825	0.547825	0.000032
 708	7.0347e+01	7.0303	8.289421	0.000311	3.111021	0.527021	0.000031
 709	7.0446e+01	7.0421	8.319564	0.000303	3.029152	0.513152	0.000030
 710	7.0546e+01	7.0525	8.352152	0.000327	3.274759	0.554759	0.000033
 711	7.0645e+01	7.0614	8.379444	0.000274	2.742611	0.464611	0.000027
 712	7.0745e+01	7.0715	8.411624	0.000323	3.233825	0.547825	0.000032
 713	7.0844e+01	7.0797	8.440138	0.000287	2.865414	0.485414	0.000029
 714	7.0944e+01	7.0910	8.472725	0.000327	3.274759	0.554759	0.000033
 715	7.1043e+01	7.0985	8.501239	0.000287	2.865414	0.485414	0.000029
 716	7.1142e+01	7.1105	8.530975	0.000299	2.988218	0.506218	0.000030
 717	7.1242e+01	7.1215	8.563562	0.000327	3.274759	0.554759	0.000033
 718	7.1341e+01	7.1316	8.596965	0.000336	3.356628	0.568628	0.000034
 719	7.1441e+01	7.1400	8.621812	0.000250	2.497004	0.423004	0.000025
 720	7.1540e+01	7.1473	8.652770	0.000311	3.111021	0.527021	0.000031
 721	7.1640e+01	7.1569	8.684543	0.000319	3.192890	0.540890	0.000032
 722	7.1740e+01	7.1693	8.715909	0.000315	3.151956	0.533956	0.000032
 723	7.1839e+01	7.1821	8.748496	0.000327	3.274759	0.554759	0.000033
 724	7.1939e+01	7.1885	8.777010	0.000287	2.865414	0.485414	0.000029
 725	7.2038e+01	7.2024	8.806746	0.000299	2.988218	0.506218	0.000030
 726	7.2138e+01	7.2082	8.837704	0.000311	3.111021	0.527021	0.000031
 727	7.2237e+01	7.2192	8.867033	0.000295	2.947283	0.499283	0.000029
 728	7.2337e+01	7.2323	8.899620	0.000327	3.274759	0.554759	0.000033
 729	7.2436e+01	7.2382	8.927319	0.000278	2.783545	0.471545	0.000028
 730	7.2535e+01	7.2491	8.957870	0.000307	3.070087	0.520087	0.000031
 731	7.2635e+01	7.2611	8.988421	0.000307	3.070087	0.520087	0.000031
 732	7.2734e+01	7.2679	9.016527	0.000282	2.824480	0.478480	0.000028
 733	7.2834e+01	7.2803	9.046263	0.000299	2.988218	0.506218	0.000030
 734	7.2933e+01	7.2904	9.082924	0.000368	3.684104	0.624104	0.000037
 735	7.3033e+01	7.2990	9.108179	0.000254	2.537938	0.429938	0.000025
 736	7.3132e+01	7.3088	9.141174	0.000332	3.315694	0.561694	0.000033
 737	7.3232e+01	7.3190	9.173762	0.000327	3.274759	0.554759	0.000033
 738	7.3332e+01	7.3281	9.202276	0.000287	2.865414	0.485414	0.000029
 739	7.3431e+01	7.3375	9.233234	0.000311	3.111021	0.527021	0.000031
 740	7.3531e+01	7.3511	9.264599	0.000315	3.151956	0.533956	0.000032
 741	7.3630e+01	7.3595	9.296779	0.000323	3.233825	0.547825	0.000032
 742	7.3730e+01	7.3695	9.324886	0.000282	2.824480	0.478480	0.000028
 743	7.3829e+01	7.3793	9.355029	0.000303	3.029152	0.513152	0.000030
 744	7.3928e+01	7.3888	9.381914	0.000270	2.701676	0.457676	0.000027
 745	7.4028e+01	7.3983	9.414501	0.000327	3.274759	0.554759	0.000033
 746	7.4127e+01	7.4078	9.446274	0.000319	3.192890	0.540890	0.000032
 747	7.4227e+01	7.4180	9.480898	0.000348	3.479432	0.589432	0.000035
 748	7.4326e+01	7.4277	9.509412	0.000287	2.865414	0.485414	0.000029
 749	7.4426e+01	7.4383	9.538741	0.000295	2.947283	0.499283	0.000029
 750	7.4525e+01	7.4541	9.570921	0.000323	3.233825	0.547825	0.000032
 751	7.4625e+01	7.4583	9.600249	0.000295	2.947283	0.499283	0.000029
 752	7.4725e+01	7.4682	9.629985	0.000299	2.988218	0.506218	0.000030
 753	7.4824e+01	7.4759	9.656870	0.000270	2.701676	0.457676	0.000027
 754	7.4924e+01	7.4860	9.688643	0.000319	3.192890	0.540890	0.000032
 755	7.5023e+01	7.4975	9.717564	0.000291	2.906349	0.492349	0.000029
 756	7.5123e+01	7.5082	9.744041	0.000266	2.660742	0.450742	0.000027
 757	7.5222e+01	7.5200	9.776629	0.000327	3.274759	0.554759	0.000033
 758	7.5322e+01	7.5317	9.808401	0.000319	3.192890	0.540890	0.000032
 759	7.5421e+01	7.5363	9.831620	0.000233	2.333266	0.395266	0.000023
 760	7.5520e+01	7.5471	9.860948	0.000295	2.947283	0.499283	0.000029
 761	7.5620e+01	7.5582	9.895573	0.000348	3.479432	0.589432	0.000035
 762	7.5719e+01	7.5716	9.922865	0.000274	2.742611	0.464611	0.000027
 763	7.5819e+01	7.5791	9.951786	0.000291	2.906349	0.492349	0.000029
 764	7.5918e+01	7.5867	9.981522	0.000299	2.988218	0.506218	0.000030
 765	7.6018e+01	7.5957	10.016553	0.000352	3.520366	0.596366	0.000035
 766	7.6118e+01	7.6110	10.043031	0.000266	2.660742	0.450742	0.000027
 767	7.6217e+01	7.6186	10.076025	0.000332	3.315694	0.561694	0.000033
 768	7.6317e+01	7.6270	10.104947	0.000291	2.906349	0.492349	0.000029
 769	7.6416e+01	7.6362	10.137534	0.000327	3.274759	0.554759	0.000033
 770	7.6516e+01	7.6488	10.168085	0.000307	3.070087	0.520087	0.000031
 771	7.6615e+01	7.6585	10.198228	0.000303	3.029152	0.513152	0.000030
 772	7.6715e+01	7.6654	10.231630	0.000336	3.356628	0.568628	0.000034
 773	7.6814e+01	7.6783	10.262588	0.000311	3.111021	0.527021	0.000031
 774	7.6913e+01	7.6867	10.292324	0.000299	2.988218	0.506218	0.000030
 775	7.7013e+01	7.6968	10.323690	0.000315	3.151956	0.533956	0.000032
 776	7.7112e+01	7.7051	10.357499	0.000340	3.397563	0.575563	0.000034
 777	7.7212e+01	7.7166	10.391716	0.000344	3.438497	0.582497	0.000034
 778	7.7311e+01	7.7250	10.423489	0.000319	3.192890	0.540890	0.000032
 779	7.7411e+01	7.7361	10.455669	0.000323	3.233825	0.547825	0.000032
 780	7.7510e+01	7.7471	10.489478	0.000340	3.397563	0.575563	0.000034
 781	7.7610e+01	7.7571	10.517177	0.000278	2.783545	0.471545	0.000028
 782	7.7710e+01	7.7672	10.553838	0.000368	3.684104	0.624104	0.000037
 783	7.7809e+01	7.7795	10.581130	0.000274	2.742611	0.464611	0.000027
 784	7.7909e+01	7.7874	10.612088	0.000311	3.111021	0.527021	0.000031
 785	7.8008e+01	7.7964	10.644268	0.000323	3.233825	0.547825	0.000032
 786	7.8108e+01	7.8080	10.676448	0.000323	3.233825	0.547825	0.000032
 787	7.8207e+01	7.8200	10.708221	0.000319	3.192890	0.540890	0.000032
 788	7.8306e+01	7.8248	10.740808	0.000327	3.274759	0.554759	0.000033
 789	7.8406e+01	7.8371	10.768508	0.000278	2.783545	0.471545	0.000028
 790	7.8505e+01	7.8479	10.802724	0.000344	3.438497	0.582497	0.000034
 791	7.8605e+01	7.8576	10.830016	0.000274	2.742611	0.464611	0.000027
 792	7.8704e+01	7.8655	10.864641	0.000348	3.479432	0.589432	0.000035
 793	7.8804e+01	7.8781	10.895599	0.000311	3.111021	0.527021	0.000031
 794	7.8903e+01	7.8869	10.924113	0.000287	2.865414	0.485414	0.000029
 795	7.9003e+01	7.8952	10.956700	0.000327	3.274759	0.554759	0.000033
 796	7.9103e+01	7.9055	10.988065	0.000315	3.151956	0.533956	0.000032
 797	7.9202e+01	7.9160	11.020245	0.000323	3.233825	0.547825	0.000032
 798	7.9302e+01	7.9251	11.048352	0.000282	2.824480	0.478480	0.000028
 799	7.9401e+01	7.9379	11.081347	0.000332	3.315694	0.561694	0.000033
 800	7.9501e+01	7.9446	11.112305	0.000311	3.111021	0.527021	0.000031
 801	7.9600e+01	7.9563	11.139189	0.000270	2.701676	0.457676	0.000027
 802	7.9700e+01	7.9660	11.173814	0.000348	3.479432	0.589432	0.000035
 803	7.9799e+01	7.9772	11.203550	0.000299	2.988218	0.506218	0.000030
 804	7.9898e+01	7.9871	11.233693	0.000303	3.029152	0.513152	0.000030
 805	7.9998e+01	7.9949	11.263836	0.000303	3.029152	0.513152	0.000030
 806	8.0097e+01	8.0071	11.296424	0.000327	3.274759	0.554759	0.000033
 807	8.0197e+01	8.0141	11.328196	0.000319	3.192890	0.540890	0.000032
 808	8.0296e+01	8.0281	11.360376	0.000323	3.233825	0.547825	0.000032
 809	8.0396e+01	8.0347	11.392149	0.000319	3.192890	0.540890	0.000032
 810	8.0496e+01	8.0439	11.425144	0.000332	3.315694	0.561694	0.000033
 811	8.0595e+01	8.0583	11.453658	0.000287	2.865414	0.485414	0.000029
 812	8.0695e+01	8.0641	11.489097	0.000356	3.561301	0.603301	0.000036
 813	8.0794e+01	8.0763	11.518018	0.000291	2.906349	0.492349	0.000029
 814	8.0894e+01	8.0848	11.547754	0.000299	2.988218	0.506218	0.000030
 815	8.0993e+01	8.0938	11.578712	0.000311	3.111021	0.527021	0.000031
 816	8.1093e+01	8.1050	11.608041	0.000295	2.947283	0.499283	0.000029
 817	8.1192e+01	8.1145	11.641443	0.000336	3.356628	0.568628	0.000034
 818	8.1291e+01	8.1251	11.673623	0.000323	3.233825	0.547825	0.000032
 819	8.1391e+01	8.1330	11.702952	0.000295	2.947283	0.499283	0.000029
 820	8.1490e+01	8.1454	11.730243	0.000274	2.742611	0.464611	0.000027
 821	8.1590e+01	8.1552	11.759979	0.000299	2.988218	0.506218	0.000030
 822	8.1689e+01	8.1643	11.792567	0.000327	3.274759	0.554759	0.000033
 823	8.1789e+01	8.1745	11.821488	0.000291	2.906349	0.492349	0.000029
 824	8.1888e+01	8.1850	11.854483	0.000332	3.315694	0.561694	0.000033
 825	8.1988e+01	8.1945	11.886663	0.000323	3.233825	0.547825	0.000032
 826	8.2088e+01	8.2035	11.917621	0.000311	3.111021	0.527021	0.000031
 827	8.2187e+01	8.2166	11.950616	0.000332	3.315694	0.561694	0.000033
 828	8.2287e+01	8.2263	11.979944	0.000295	2.947283	0.499283	0.000029
 829	8.2386e+01	8.2352	12.012939	0.000332	3.315694	0.561694	0.000033
 830	8.2486e+01	8.2446	12.041861	0.000291	2.906349	0.492349	0.000029
 831	8.2585e+01	8.2537	12.072819	0.000311	3.111021	0.527021	0.000031
 832	8.2684e+01	8.2696	12.104184	0.000315	3.151956	0.533956	0.000032
 833	8.2784e+01	8.2748	12.131476	0.000274	2.742611	0.464611	0.000027
 834	8.2883e+01	8.2845	12.164878	0.000336	3.356628	0.568628	0.000034
 835	8.2983e+01	8.2974	12.195429	0.000307	3.070087	0.520087	0.000031
 836	8.3082e+01	8.3064	12.228831	0.000336	3.356628	0.568628	0.000034
 837	8.3182e+01	8.3145	12.261825	0.000332	3.315694	0.561694	0.000033
 838	8.3281e+01	8.3267	12.290747	0.000291	2.906349	0.492349	0.000029
 839	8.3381e+01	8.3316	12.328222	0.000377	3.765973	0.637973	0.000038
 840	8.3481e+01	8.3427	12.361217	0.000332	3.315694	0.561694	0.000033
 841	8.3580e+01	8.3532	12.396249	0.000352	3.520366	0.596366	0.000035
 842	8.3680e+01	8.3622	12.428021	0.000319	3.192890	0.540890	0.000032
 843	8.3779e+01	8.3704	12.459794	0.000319	3.192890	0.540890	0.000032
 844	8.3879e+01	8.3851	12.491974	0.000323	3.233825	0.547825	0.000032
 845	8.3978e+01	8.3952	12.523747	0.000319	3.192890	0.540890	0.000032
 846	8.4078e+01	8.4017	12.555519	0.000319	3.192890	0.540890	0.000032
 847	8.4177e+01	8.4138	12.588107	0.000327	3.274759	0.554759	0.000033
 848	8.4276e+01	8.4234	12.619472	0.000315	3.151956	0.533956	0.000032
 849	8.4376e+01	8.4329	12.651245	0.000319	3.192890	0.540890	0.000032
 850	8.4475e+01	8.4425	12.681388	0.000303	3.029152	0.513152	0.000030
 851	8.4575e+01	8.4547	12.713976	0.000327	3.274759	0.554759	0.000033
 852	8.4674e+01	8.4631	12.748192	0.000344	3.438497	0.582497	0.000034
 853	8.4774e+01	8.4737	12.778743	0.000307	3.070087	0.520087	0.000031
 854	8.4874e+01	8.4821	12.812145	0.000336	3.356628	0.568628	0.000034
 855	8.4973e+01	8.4956	12.844325	0.000323	3.233825	0.547825	0.000032
 856	8.5073e+01	8.4998	12.873247	0.000291	2.906349	0.492349	0.000029
 857	8.5172e+01	8.5159	12.905834	0.000327	3.274759	0.554759	0.000033
 858	8.5272e+01	8.5250	12.938014	0.000323	3.233825	0.547825	0.000032
 859	8.5371e+01	8.5366	12.965306	0.000274	2.742611	0.464611	0.000027
 860	8.5471e+01	8.5426	12.995857	0.000307	3.070087	0.520087	0.000031
 861	8.5570e+01	8.5525	13.029259	0.000336	3.356628	0.568628	0.000034
 862	8.5669e+01	8.5623	13.059402	0.000303	3.029152	0.513152	0.000030
 863	8.5769e+01	8.5723	13.088731	0.000295	2.947283	0.499283	0.000029
 864	8.5868e+01	8.5843	13.122540	0.000340	3.397563	0.575563	0.000034
 865	8.5968e+01	8.5922	13.151462	0.000291	2.906349	0.492349	0.000029
 866	8.6067e+01	8.6003	13.182012	0.000307	3.070087	0.520087	0.000031
 867	8.6167e+01	8.6117	13.215822	0.000340	3.397563	0.575563	0.000034
 868	8.6266e+01	8.6243	13.246780	0.000311	3.111021	0.527021	0.000031
 869	8.6366e+01	8.6340	13.280182	0.000336	3.356628	0.568628	0.000034
 870	8.6466e+01	8.6398	13.311547	0.000315	3.151956	0.533956	0.000032
 871	8.6565e+01	8.6541	13.345357	0.000340	3.397563	0.575563	0.000034
 872	8.6665e+01	8.6621	13.375500	0.000303	3.029152	0.513152	0.000030
 873	8.6764e+01	8.6733	13.406051	0.000307	3.070087	0.520087	0.000031
 874	8.6864e+01	8.6823	13.441490	0.000356	3.561301	0.603301	0.000036
 875	8.6963e+01	8.6938	13.474484	0.000332	3.315694	0.561694	0.000033
 876	8.7063e+01	8.7016	13.506664	0.000323	3.233825	0.547825	0.000032
 877	8.7162e+01	8.7115	13.540474	0.000340	3.397563	0.575563	0.000034
 878	8.7261e+01	8.7225	13.574283	0.000340	3.397563	0.575563	0.000034
 879	8.7361e+01	8.7317	13.607685	0.000336	3.356628	0.568628	0.000034
 880	8.7460e+01	8.7436	13.636199	0.000287	2.865414	0.485414	0.000029
 881	8.7560e+01	8.7549	13.669601	0.000336	3.356628	0.568628	0.000034
 882	8.7659e+01	8.7622	13.703818	0.000344	3.438497	0.582497	0.000034
 883	8.7759e+01	8.7705	13.733961	0.000303	3.029152	0.513152	0.000030
 884	8.7859e+01	8.7801	13.771030	0.000373	3.725039	0.631039	0.000037
 885	8.7958e+01	8.7910	13.799951	0.000291	2.906349	0.492349	0.000029
 886	8.8058e+01	8.8016	13.836612	0.000368	3.684104	0.624104	0.000037
 887	8.8157e+01	8.8128	13.872051	0.000356	3.561301	0.603301	0.000036
 888	8.8257e+01	8.8206	13.904638	0.000327	3.274759	0.554759	0.000033
 889	8.8356e+01	8.8281	13.936003	0.000315	3.151956	0.533956	0.000032
 890	8.8456e+01	8.8412	13.972257	0.000364	3.643170	0.617170	0.000036
 891	8.8555e+01	8.8485	14.004844	0.000327	3.274759	0.554759	0.000033
 892	8.8654e+01	8.8593	14.036210	0.000315	3.151956	0.533956	0.000032
 893	8.8754e+01	8.8721	14.073278	0.000373	3.725039	0.631039	0.000037
 894	8.8853e+01	8.8824	14.107902	0.000348	3.479432	0.589432	0.000035
 895	8.8953e+01	8.8918	14.140897	0.000332	3.315694	0.561694	0.000033
 896	8.9052e+01	8.8992	14.174706	0.000340	3.397563	0.575563	0.000034
 897	8.9152e+01	8.9124	14.209330	0.000348	3.479432	0.589432	0.000035
 898	8.9251e+01	8.9197	14.240288	0.000311	3.111021	0.527021	0.000031
 899	8.9351e+01	8.9300	14.276949	0.000368	3.684104	0.624104	0.000037
 900	8.9451e+01	8.9398	14.312388	0.000356	3.561301	0.603301	0.000036
 901	8.9550e+01	8.9512	14.345790	0.000336	3.356628	0.568628	0.000034
 902	8.9650e+01	8.9594	14.384895	0.000393	3.929711	0.665711	0.000039
 903	8.9749e+01	8.9697	14.420741	0.000360	3.602235	0.610235	0.000036
 904	8.9849e+01	8.9795	14.454958	0.000344	3.438497	0.582497	0.000034
 905	8.9948e+01	8.9895	14.492433	0.000377	3.765973	0.637973	0.000038
 906	9.0047e+01	9.0042	14.529094	0.000368	3.684104	0.624104	0.000037
 907	9.0147e+01	9.0118	14.560460	0.000315	3.151956	0.533956	0.000032
 908	9.0246e+01	9.0203	14.598750	0.000385	3.847842	0.651842	0.000038
 909	9.0346e+01	9.0284	14.634596	0.000360	3.602235	0.610235	0.000036
 910	9.0445e+01	9.0409	14.670442	0.000360	3.602235	0.610235	0.000036
 911	9.0545e+01	9.0479	14.707103	0.000368	3.684104	0.624104	0.000037
 912	9.0644e+01	9.0589	14.742949	0.000360	3.602235	0.610235	0.000036
 913	9.0744e+01	9.0679	14.780424	0.000377	3.765973	0.637973	0.000038
 914	9.0844e+01	9.0789	14.813827	0.000336	3.356628	0.568628	0.000034
 915	9.0943e+01	9.0882	14.852524	0.000389	3.888777	0.658777	0.000039
 916	9.1043e+01	9.1011	14.890407	0.000381	3.806908	0.644908	0.000038
 917	9.1142e+01	9.1090	14.929105	0.000389	3.888777	0.658777	0.000039
 918	9.1242e+01	9.1199	14.966580	0.000377	3.765973	0.637973	0.000038
 919	9.1341e+01	9.1299	15.006092	0.000397	3.970646	0.672646	0.000040
 920	9.1441e+01	9.1412	15.044790	0.000389	3.888777	0.658777	0.000039
 921	9.1540e+01	9.1504	15.081858	0.000373	3.725039	0.631039	0.000037
 922	9.1639e+01	9.1589	15.120963	0.000393	3.929711	0.665711	0.000039
 923	9.1739e+01	9.1695	15.156402	0.000356	3.561301	0.603301	0.000036
 924	9.1838e+01	9.1797	15.192655	0.000364	3.643170	0.617170	0.000036
 925	9.1938e+01	9.1885	15.229723	0.000373	3.725039	0.631039	0.000037
 926	9.2037e+01	9.1992	15.263533	0.000340	3.397563	0.575563	0.000034
 927	9.2137e+01	9.2085	15.301416	0.000381	3.806908	0.644908	0.000038
 928	9.2237e+01	9.2200	15.342150	0.000409	4.093449	0.693449	0.000041
 929	9.2336e+01	9.2285	15.376367	0.000344	3.438497	0.582497	0.000034
 930	9.2436e+01	9.2423	15.415064	0.000389	3.888777	0.658777	0.000039
 931	9.2535e+01	9.2486	15.453762	0.000389	3.888777	0.658777	0.000039
 932	9.2635e+01	9.2609	15.493274	0.000397	3.970646	0.672646	0.000040
 933	9.2734e+01	9.2700	15.530749	0.000377	3.765973	0.637973	0.000038
 934	9.2834e+01	9.2786	15.565374	0.000348	3.479432	0.589432	0.000035
 935	9.2933e+01	9.2865	15.607737	0.000426	4.257187	0.721187	0.000043
 936	9.3032e+01	9.2970	15.646027	0.000385	3.847842	0.651842	0.000038
 937	9.3132e+01	9.3070	15.685132	0.000393	3.929711	0.665711	0.000039
 938	9.3231e+01	9.3201	15.723015	0.000381	3.806908	0.644908	0.000038
 939	9.3331e+01	9.3298	15.765379	0.000426	4.257187	0.721187	0.000043
 940	9.3430e+01	9.3386	15.803262	0.000381	3.806908	0.644908	0.000038
 941	9.3530e+01	9.3494	15.845625	0.000426	4.257187	0.721187	0.000043
 942	9.3629e+01	9.3585	15.887989	0.000426	4.257187	0.721187	0.000043
 943	9.3729e+01	9.3681	15.932797	0.000450	4.502794	0.762794	0.000045
 944	9.3829e+01	9.3768	15.976382	0.000438	4.379991	0.741990	0.000044
 945	9.3928e+01	9.3885	16.017116	0.000409	4.093449	0.693449	0.000041
 946	9.4028e+01	9.3954	16.060295	0.000434	4.339056	0.735056	0.000043
 947	9.4127e+01	9.4119	16.107139	0.000471	4.707466	0.797466	0.000047
 948	9.4227e+01	9.4180	16.146244	0.000393	3.929711	0.665711	0.000039
 949	9.4326e+01	9.4268	16.188200	0.000422	4.216253	0.714253	0.000042
 950	9.4425e+01	9.4389	16.230157	0.000422	4.216253	0.714253	0.000042
 951	9.4525e+01	9.4482	16.276186	0.000463	4.625597	0.783597	0.000046
 952	9.4624e+01	9.4607	16.316106	0.000401	4.011580	0.679580	0.000040
 953	9.4724e+01	9.4668	16.358062	0.000422	4.216253	0.714253	0.000042
 954	9.4823e+01	9.4751	16.401240	0.000434	4.339056	0.735056	0.000043
 955	9.4923e+01	9.4888	16.440345	0.000393	3.929711	0.665711	0.000039
 956	9.5022e+01	9.4972	16.483931	0.000438	4.379991	0.741990	0.000044
 957	9.5122e+01	9.5057	16.527517	0.000438	4.379991	0.741990	0.000044
 958	9.5222e+01	9.5166	16.570288	0.000430	4.298122	0.728122	0.000043
 959	9.5321e+01	9.5255	16.615910	0.000458	4.584663	0.776663	0.000046
 960	9.5421e+01	9.5370	16.661940	0.000463	4.625597	0.783597	0.000046
 961	9.5520e+01	9.5468	16.706340	0.000446	4.461860	0.755859	0.000045
 962	9.5620e+01	9.5557	16.750740	0.000446	4.461860	0.755859	0.000045
 963	9.5719e+01	9.5687	16.796770	0.000463	4.625597	0.783597	0.000046
 964	9.5819e+01	9.5762	16.838319	0.000418	4.175318	0.707318	0.000042
 965	9.5918e+01	9.5888	16.889644	0.000516	5.157746	0.873746	0.000052
 966	9.6017e+01	9.5975	16.926712	0.000373	3.725039	0.631039	0.000037
 967	9.6117e+01	9.6059	16.976408	0.000499	4.994008	0.846008	0.000050
 968	9.6216e+01	9.6179	17.020809	0.000446	4.461860	0.755859	0.000045
 969	9.6316e+01	9.6271	17.066024	0.000454	4.543729	0.769728	0.000045
 970	9.6415e+01	9.6382	17.112461	0.000467	4.666532	0.790532	0.000047
 971	9.6515e+01	9.6490	17.159712	0.000475	4.748401	0.804401	0.000047
 972	9.6615e+01	9.6560	17.204520	0.000450	4.502794	0.762794	0.000045
 973	9.6714e+01	9.6646	17.248106	0.000438	4.379991	0.741990	0.000044
 974	9.6814e+01	9.6780	17.295765	0.000479	4.789335	0.811335	0.000048
 975	9.6913e+01	9.6885	17.348719	0.000532	5.321484	0.901484	0.000053
 976	9.7013e+01	9.6967	17.393527	0.000450	4.502794	0.762794	0.000045
 977	9.7112e+01	9.7051	17.447296	0.000540	5.403353	0.915353	0.000054
 978	9.7212e+01	9.7146	17.496992	0.000499	4.994008	0.846008	0.000050
 979	9.7311e+01	9.7272	17.549132	0.000524	5.239615	0.887615	0.000052
 980	9.7410e+01	9.7366	17.604123	0.000553	5.526156	0.936156	0.000055
 981	9.7510e+01	9.7454	17.652189	0.000483	4.830270	0.818270	0.000048
 982	9.7609e+01	9.7567	17.702700	0.000508	5.075877	0.859877	0.000051
 983	9.7709e+01	9.7677	17.754025	0.000516	5.157746	0.873746	0.000052
 984	9.7808e+01	9.7760	17.801277	0.000475	4.748401	0.804401	0.000047
 985	9.7908e+01	9.7865	17.843640	0.000426	4.257187	0.721187	0.000043
 986	9.8007e+01	9.7962	17.890892	0.000475	4.748401	0.804401	0.000047
 987	9.8107e+01	9.8071	17.945069	0.000544	5.444287	0.922287	0.000054
 988	9.8207e+01	9.8173	17.993950	0.000491	4.912139	0.832139	0.000049
 989	9.8306e+01	9.8267	18.044053	0.000503	5.034942	0.852942	0.000050
 990	9.8406e+01	9.8380	18.094156	0.000503	5.034942	0.852942	0.000050
 991	9.8505e+01	9.8462	18.151999	0.000581	5.812698	0.984698	0.000058
 992	9.8605e+01	9.8542	18.200065	0.000483	4.830270	0.818270	0.000048
 993	9.8704e+01	9.8647	18.252612	0.000528	5.280549	0.894549	0.000053
 994	9.8803e+01	9.8767	18.308011	0.000557	5.567091	0.943091	0.000056
 995	9.8903e+01	9.8862	18.359336	0.000516	5.157746	0.873746	0.000052
 996	9.9002e+01	9.8932	18.409032	0.000499	4.994008	0.846008	0.000050
 997	9.9102e+01	9.9060	18.462394	0.000536	5.362418	0.908418	0.000054
 998	9.9201e+01	9.9133	18.523903	0.000618	6.181108	1.047108	0.000062
 999	9.9301e+01	9.9239	18.584189	0.000606	6.058305	1.026305	0.000061
1000	9.9400e+01	9.9337	18.638366	0.000544	5.444287	0.922287	0.000054
1001	9.9500e+01	9.9454	18.691320	0.000532	5.321484	0.901484	0.000053
1002	9.9600e+01	9.9561	18.752014	0.000610	6.099239	1.033239	0.000061
1003	9.9699e+01	9.9648	18.807413	0.000557	5.567091	0.943091	0.000056
1004	9.9799e+01	9.9732	18.866478	0.000594	5.935501	1.005501	0.000059
1005	9.9898e+01	9.9844	18.921876	0.000557	5.567091	0.943091	0.000056
1006	9.9998e+01	9.9951	18.971165	0.000495	4.953073	0.839073	0.000050
1007	1.0010e+02	9.9831	18.989902	-0.000188	-1.882987	-0.318987	0.000019
1008	1.0020e+02	9.9747	18.996827	-0.000070	-0.695886	-0.117886	0.000007
1009	1.0030e+02	9.9677	19.007825	-0.000111	-1.105231	-0.187231	0.000011
1010	1.0040e+02	9.9561	19.020453	-0.000127	-1.268969	-0.214969	0.000013
1011	1.0050e+02	9.9475	19.028193	-0.000078	-0.777755	-0.131755	0.000008
1012	1.0059e+02	9.9341	19.037969	-0.000098	-0.982428	-0.166428	0.000010
1013	1.0069e+02	9.9257	19.043264	-0.000053	-0.532148	-0.090148	0.000005
1014	1.0079e+02	9.9152	19.048152	-0.000049	-0.491214	-0.083214	0.000005
1015	1.0089e+02	9.9062	19.055892	-0.000078	-0.777755	-0.131755	0.000008
1016	1.0099e+02	9.8941	19.063224	-0.000074	-0.736821	-0.124821	0.000007
1017	1.0109e+02	9.8847	19.066075	-0.000029	-0.286541	-0.048541	0.000003
1018	1.0119e+02	9.8766	19.066483	-0.000004	-0.040934	-0.006934	0.000000
1019	1.0129e+02	9.8676	19.070964	-0.000045	-0.450279	-0.076279	0.000005
1020	1.0139e+02	9.8544	19.073408	-0.000025	-0.245607	-0.041607	0.000002
1021	1.0149e+02	9.8487	19.074630	-0.000012	-0.122803	-0.020803	0.000001
1022	1.0159e+02	9.8340	19.077074	-0.000025	-0.245607	-0.041607	0.000002
1023	1.0169e+02	9.8254	19.077888	-0.000008	-0.081869	-0.013869	0.000001
1024	1.0179e+02	9.8147	19.077074	0.000008	0.081869	0.013869	-0.000001
1025	1.0189e+02	9.8053	19.071778	0.000053	0.532148	0.090148	-0.000005
1026	1.0199e+02	9.7980	19.066483	0.000053	0.532148	0.090148	-0.000005
1027	1.0209e+02	9.7854	19.064446	0.000020	0.204672	0.034672	-0.000002
1028	1.0219e+02	9.7754	19.057929	0.000065	0.654952	0.110952	-0.000007
1029	1.0229e+02	9.7668	19.054263	0.000037	0.368410	0.062410	-0.000004
1030	1.0239e+02	9.7587	19.048560	0.000057	0.573083	0.097083	-0.000006
1031	1.0248e+02	9.7475	19.043672	0.000049	0.491214	0.083214	-0.000005
1032	1.0258e+02	9.7366	19.040413	0.000033	0.327476	0.055476	-0.000003
1033	1.0268e+02	9.7272	19.033895	0.000065	0.654952	0.110952	-0.000007
1034	1.0278e+02	9.7175	19.026971	0.000070	0.695886	0.117886	-0.000007
1035	1.0288e+02	9.7083	19.021675	0.000053	0.532148	0.090148	-0.000005
1036	1.0298e+02	9.6954	19.018416	0.000033	0.327476	0.055476	-0.000003
1037	1.0308e+02	9.6875	19.011084	0.000074	0.736821	0.124821	-0.000007
1038	1.0318e+02	9.6790	19.002123	0.000090	0.900559	0.152559	-0.000009
1039	1.0328e+02	9.6670	18.994791	0.000074	0.736821	0.124821	-0.000007
1040	1.0338e+02	9.6558	18.983792	0.000111	1.105231	0.187231	-0.000011
1041	1.0348e+02	9.6460	18.978089	0.000057	0.573083	0.097083	-0.000006
1042	1.0358e+02	9.6339	18.964240	0.000139	1.391773	0.235773	-0.000014
1043	1.0368e+02	9.6260	18.959352	0.000049	0.491214	0.083214	-0.000005
1044	1.0378e+02	9.6146	18.949983	0.000094	0.941493	0.159493	-0.000009
1045	1.0388e+02	9.6053	18.938577	0.000115	1.146166	0.194166	-0.000011
1046	1.0398e+02	9.5972	18.930838	0.000078	0.777755	0.131755	-0.000008
1047	1.0408e+02	9.5859	18.922284	0.000086	0.859624	0.145624	-0.000009
1048	1.0418e+02	9.5806	18.913729	0.000086	0.859624	0.145624	-0.000009
1049	1.0428e+02	9.5657	18.905582	0.000082	0.818690	0.138690	-0.000008
1050	1.0438e+02	9.5562	18.890918	0.000147	1.473642	0.249642	-0.000015
1051	1.0447e+02	9.5448	18.878698	0.000123	1.228035	0.208035	-0.000012
1052	1.0457e+02	9.5386	18.867700	0.000111	1.105231	0.187231	-0.000011
1053	1.0467e+02	9.5277	18.854257	0.000135	1.350838	0.228838	-0.000014
1054	1.0477e+02	9.5190	18.843666	0.000106	1.064297	0.180297	-0.000011
1055	1.0487e+02	9.5071	18.829409	0.000143	1.432707	0.242707	-0.000014
1056	1.0497e+02	9.4962	18.815560	0.000139	1.391773	0.235773	-0.000014
1057	1.0507e+02	9.4873	18.801303	0.000143	1.432707	0.242707	-0.000014
1058	1.0517e+02	9.4781	18.790305	0.000111	1.105231	0.187231	-0.000011
1059	1.0527e+02	9.4656	18.773604	0.000168	1.678314	0.284314	-0.000017
1060	1.0537e+02	9.4559	18.759347	0.000143	1.432707	0.242707	-0.000014
1061	1.0547e+02	9.4483	18.747126	0.000123	1.228035	0.208035	-0.000012
1062	1.0557e+02	9.4387	18.733684	0.000135	1.350838	0.228838	-0.000014
1063	1.0567e+02	9.4263	18.713724	0.000201	2.005790	0.339790	-0.000020
1064	1.0577e+02	9.4178	18.700689	0.000131	1.309904	0.221904	-0.000013
1065	1.0587e+02	9.4082	18.686432	0.000143	1.432707	0.242707	-0.000014
1066	1.0597e+02	9.3963	18.666880	0.000196	1.964856	0.332856	-0.000020
1067	1.0607e+02	9.3874	18.655067	0.000119	1.187100	0.201100	-0.000012
1068	1.0617e+02	9.3774	18.638366	0.000168	1.678314	0.284314	-0.000017
1069	1.0627e+02	9.3689	18.619628	0.000188	1.882987	0.318987	-0.000019
1070	1.0637e+02	9.3573	18.609037	0.000106	1.064297	0.180297	-0.000011
1071	1.0647e+02	9.3465	18.589892	0.000192	1.923921	0.325921	-0.000019
1072	1.0656e+02	9.3372	18.576857	0.000131	1.309904	0.221904	-0.000013
1073	1.0666e+02	9.3288	18.562193	0.000147	1.473642	0.249642	-0.000015
1074	1.0676e+02	9.3182	18.543862	0.000184	1.842052	0.312052	-0.000018
1075	1.0686e+02	9.3093	18.527976	0.000160	1.596445	0.270445	-0.000016
1076	1.0696e+02	9.2984	18.512497	0.000156	1.555511	0.263511	-0.000016
1077	1.0706e+02	9.2859	18.494574	0.000180	1.801118	0.305118	-0.000018
1078	1.0716e+02	9.2803	18.477465	0.000172	1.719249	0.291249	-0.000017
1079	1.0726e+02	9.2690	18.461579	0.000160	1.596445	0.270445	-0.000016
1080	1.0736e+02	9.2582	18.444063	0.000176	1.760183	0.298183	-0.000018
1081	1.0746e+02	9.2480	18.430214	0.000139	1.391773	0.235773	-0.000014
1082	1.0756e+02	9.2387	18.413920	0.000164	1.637380	0.277380	-0.000016
1083	1.0766e+02	9.2285	18.395182	0.000188	1.882987	0.318987	-0.000019
1084	1.0776e+02	9.2207	18.376445	0.000188	1.882987	0.318987	-0.000019
1085	1.0786e+02	9.2090	18.359336	0.000172	1.719249	0.291249	-0.000017
1086	1.0796e+02	9.2004	18.337747	0.000217	2.169528	0.367528	-0.000022
1087	1.0806e+02	9.1901	18.319824	0.000180	1.801118	0.305118	-0.000018
1088	1.0816e+02	9.1803	18.299864	0.000201	2.005790	0.339790	-0.000020
1089	1.0826e+02	9.1688	18.281534	0.000184	1.842052	0.312052	-0.000018
1090	1.0836e+02	9.1604	18.262389	0.000192	1.923921	0.325921	-0.000019
1091	1.0845e+02	9.1465	18.238763	0.000237	2.374200	0.402200	-0.000024
1092	1.0855e+02	9.1399	18.217988	0.000209	2.087659	0.353659	-0.000021
1093	1.0865e+02	9.1293	18.197214	0.000209	2.087659	0.353659	-0.000021
1094	1.0875e+02	9.1187	18.176032	0.000213	2.128594	0.360594	-0.000021
1095	1.0885e+02	9.1077	18.154443	0.000217	2.169528	0.367528	-0.000022
1096	1.0895e+02	9.1000	18.134890	0.000196	1.964856	0.332856	-0.000020
1097	1.0905e+02	9.0885	18.117782	0.000172	1.719249	0.291249	-0.000017
1098	1.0915e+02	9.0800	18.097822	0.000201	2.005790	0.339790	-0.000020
1099	1.0925e+02	9.0711	18.082343	0.000156	1.555511	0.263511	-0.000016
1100	1.0935e+02	9.0585	18.058310	0.000242	2.415135	0.409135	-0.000024
1101	1.0945e+02	9.0522	18.037943	0.000205	2.046725	0.346725	-0.000020
1102	1.0955e+02	9.0381	18.017576	0.000205	2.046725	0.346725	-0.000020
1103	1.0965e+02	9.0289	17.996394	0.000213	2.128594	0.360594	-0.000021
1104	1.0975e+02	9.0189	17.977249	0.000192	1.923921	0.325921	-0.000019
1105	1.0985e+02	9.0088	17.955660	0.000217	2.169528	0.367528	-0.000022
1106	1.0995e+02	9.0003	17.937737	0.000180	1.801118	0.305118	-0.000018
1107	1.1005e+02	8.9942	17.910852	0.000270	2.701676	0.457676	-0.000027
1108	1.1015e+02	8.9809	17.893744	0.000172	1.719249	0.291249	-0.000017
1109	1.1025e+02	8.9710	17.877450	0.000164	1.637380	0.277380	-0.000016
1110	1.1035e+02	8.9618	17.860342	0.000172	1.719249	0.291249	-0.000017
1111	1.1044e+02	8.9492	17.839160	0.000213	2.128594	0.360594	-0.000021
1112	1.1054e+02	8.9407	17.821644	0.000176	1.760183	0.298183	-0.000018
1113	1.1064e+02	8.9334	17.806572	0.000151	1.514576	0.256576	-0.000015
1114	1.1074e+02	8.9165	17.784168	0.000225	2.251397	0.381397	-0.000023
1115	1.1084e+02	8.9100	17.767875	0.000164	1.637380	0.277380	-0.000016
1116	1.1094e+02	8.8989	17.743842	0.000242	2.415135	0.409135	-0.000024
1117	1.1104e+02	8.8892	17.727548	0.000164	1.637380	0.277380	-0.000016
1118	1.1114e+02	8.8824	17.705551	0.000221	2.210463	0.374462	-0.000022
1119	1.1124e+02	8.8710	17.682740	0.000229	2.292331	0.388331	-0.000023
1120	1.1134e+02	8.8599	17.666446	0.000164	1.637380	0.277380	-0.000016
1121	1.1144e+02	8.8491	17.642821	0.000237	2.374200	0.402200	-0.000024
1122	1.1154e+02	8.8422	17.621231	0.000217	2.169528	0.367528	-0.000022
1123	1.1164e+02	8.8298	17.600864	0.000205	2.046725	0.346725	-0.000020
1124	1.1174e+02	8.8235	17.580497	0.000205	2.046725	0.346725	-0.000020
1125	1.1184e+02	8.8132	17.559315	0.000213	2.128594	0.360594	-0.000021
1126	1.1194e+02	8.8013	17.537319	0.000221	2.210463	0.374462	-0.000022
1127	1.1204e+02	8.7904	17.515322	0.000221	2.210463	0.374462	-0.000022
1128	1.1214e+02	8.7827	17.492919	0.000225	2.251397	0.381397	-0.000023
1129	1.1224e+02	8.7688	17.470922	0.000221	2.210463	0.374462	-0.000022
1130	1.1234e+02	8.7629	17.448518	0.000225	2.251397	0.381397	-0.000023
1131	1.1244e+02	8.7533	17.428558	0.000201	2.005790	0.339790	-0.000020
1132	1.1253e+02	8.7428	17.404525	0.000242	2.415135	0.409135	-0.000024
1133	1.1263e+02	8.7336	17.382529	0.000221	2.210463	0.374462	-0.000022
1134	1.1273e+02	8.7225	17.360940	0.000217	2.169528	0.367528	-0.000022
1135	1.1283e+02	8.7122	17.336499	0.000246	2.456069	0.416069	-0.000025
1136	1.1293e+02	8.7030	17.313688	0.000229	2.292331	0.388331	-0.000023
1137	1.1303e+02	8.6933	17.292913	0.000209	2.087659	0.353659	-0.000021
1138	1.1313e+02	8.6800	17.267658	0.000254	2.537938	0.429938	-0.000025
1139	1.1323e+02	8.6733	17.246884	0.000209	2.087659	0.353659	-0.000021
1140	1.1333e+02	8.6621	17.222443	0.000246	2.456069	0.416069	-0.000025
1141	1.1343e+02	8.6542	17.200447	0.000221	2.210463	0.374462	-0.000022
1142	1.1353e+02	8.6427	17.180487	0.000201	2.005790	0.339790	-0.000020
1143	1.1363e+02	8.6319	17.156861	0.000237	2.374200	0.402200	-0.000024
1144	1.1373e+02	8.6230	17.138938	0.000180	1.801118	0.305118	-0.000018
1145	1.1383e+02	8.6136	17.116534	0.000225	2.251397	0.381397	-0.000023
1146	1.1393e+02	8.6028	17.087205	0.000295	2.947283	0.499283	-0.000029
1147	1.1403e+02	8.5947	17.067246	0.000201	2.005790	0.339790	-0.000020
1148	1.1413e+02	8.5840	17.043212	0.000242	2.415135	0.409135	-0.000024
1149	1.1423e+02	8.5719	17.019586	0.000237	2.374200	0.402200	-0.000024
1150	1.1433e+02	8.5635	16.998812	0.000209	2.087659	0.353659	-0.000021
1151	1.1442e+02	8.5541	16.974779	0.000242	2.415135	0.409135	-0.000024
1152	1.1452e+02	8.5419	16.949524	0.000254	2.537938	0.429938	-0.000025
1153	1.1462e+02	8.5316	16.922639	0.000270	2.701676	0.457676	-0.000027
1154	1.1472e+02	8.5223	16.899828	0.000229	2.292331	0.388331	-0.000023
1155	1.1482e+02	8.5156	16.875795	0.000242	2.415135	0.409135	-0.000024
1156	1.1492e+02	8.5023	16.852576	0.000233	2.333266	0.395266	-0.000023
1157	1.1502e+02	8.4940	16.830987	0.000217	2.169528	0.367528	-0.000022
1158	1.1512e+02	8.4845	16.807768	0.000233	2.333266	0.395266	-0.000023
1159	1.1522e+02	8.4719	16.785772	0.000221	2.210463	0.374462	-0.000022
1160	1.1532e+02	8.4619	16.761331	0.000246	2.456069	0.416069	-0.000025
1161	1.1542e+02	8.4526	16.736483	0.000250	2.497004	0.423004	-0.000025
1162	1.1552e+02	8.4451	16.717746	0.000188	1.882987	0.318987	-0.000019
1163	1.1562e+02	8.4338	16.691268	0.000266	2.660742	0.450742	-0.000027
1164	1.1572e+02	8.4243	16.663162	0.000282	2.824480	0.478480	-0.000028
1165	1.1582e+02	8.4118	16.639943	0.000233	2.333266	0.395266	-0.000023
1166	1.1592e+02	8.4019	16.615910	0.000242	2.415135	0.409135	-0.000024
1167	1.1602e+02	8.3936	16.589433	0.000266	2.660742	0.450742	-0.000027
1168	1.1612e+02	8.3841	16.566622	0.000229	2.292331	0.388331	-0.000023
1169	1.1622e+02	8.3716	16.544218	0.000225	2.251397	0.381397	-0.000023
1170	1.1632e+02	8.3644	16.518555	0.000258	2.578873	0.436873	-0.000026
1171	1.1642e+02	8.3547	16.494115	0.000246	2.456069	0.416069	-0.000025
1172	1.1651e+02	8.3453	16.471303	0.000229	2.292331	0.388331	-0.000023
1173	1.1661e+02	8.3352	16.448492	0.000229	2.292331	0.388331	-0.000023
1174	1.1671e+02	8.3232	16.425274	0.000233	2.333266	0.395266	-0.000023
1175	1.1681e+02	8.3156	16.404092	0.000213	2.128594	0.360594	-0.000021
1176	1.1691e+02	8.3041	16.383725	0.000205	2.046725	0.346725	-0.000020
1177	1.1701e+02	8.2954	16.359284	0.000246	2.456069	0.416069	-0.000025
1178	1.1711e+02	8.2861	16.335251	0.000242	2.415135	0.409135	-0.000024
1179	1.1721e+02	8.2743	16.312847	0.000225	2.251397	0.381397	-0.000023
1180	1.1731e+02	8.2637	16.285148	0.000278	2.783545	0.471545	-0.000028
1181	1.1741e+02	8.2502	16.263151	0.000221	2.210463	0.374462	-0.000022
1182	1.1751e+02	8.2451	16.238303	0.000250	2.497004	0.423004	-0.000025
1183	1.1761e+02	8.2351	16.211826	0.000266	2.660742	0.450742	-0.000027
1184	1.1771e+02	8.2227	16.186164	0.000258	2.578873	0.436873	-0.000026
1185	1.1781e+02	8.2151	16.166204	0.000201	2.005790	0.339790	-0.000020
1186	1.1791e+02	8.2081	16.141356	0.000250	2.497004	0.423004	-0.000025
1187	1.1801e+02	8.1963	16.115286	0.000262	2.619807	0.443807	-0.000026
1188	1.1811e+02	8.1858	16.088809	0.000266	2.660742	0.450742	-0.000027
1189	1.1821e+02	8.1747	16.065590	0.000233	2.333266	0.395266	-0.000023
1190	1.1831e+02	8.1665	16.039928	0.000258	2.578873	0.436873	-0.000026
1191	1.1841e+02	8.1530	16.015080	0.000250	2.497004	0.423004	-0.000025
1192	1.1850e+02	8.1474	15.986566	0.000287	2.865414	0.485414	-0.000029
1193	1.1860e+02	8.1333	15.963755	0.000229	2.292331	0.388331	-0.000023
1194	1.1870e+02	8.1293	15.935241	0.000287	2.865414	0.485414	-0.000029
1195	1.1880e+02	8.1181	15.907134	0.000282	2.824480	0.478480	-0.000028
1196	1.1890e+02	8.1073	15.882286	0.000250	2.497004	0.423004	-0.000025
1197	1.1900e+02	8.0974	15.853365	0.000291	2.906349	0.492349	-0.000029
1198	1.1910e+02	8.0859	15.826480	0.000270	2.701676	0.457676	-0.000027
1199	1.1920e+02	8.0740	15.799596	0.000270	2.701676	0.457676	-0.000027
1200	1.1930e+02	8.0656	15.771896	0.000278	2.783545	0.471545	-0.000028
1201	1.1940e+02	8.0569	15.747048	0.000250	2.497004	0.423004	-0.000025
1202	1.1950e+02	8.0450	15.719756	0.000274	2.742611	0.464611	-0.000027
1203	1.1960e+02	8.0347	15.694501	0.000254	2.537938	0.429938	-0.000025
1204	1.1970e+02	8.0254	15.667617	0.000270	2.701676	0.457676	-0.000027
1205	1.1980e+02	8.0157	15.641547	0.000262	2.619807	0.443807	-0.000026
1206	1.1990e+02	8.0051	15.612218	0.000295	2.947283	0.499283	-0.000029
1207	1.2000e+02	7.9969	15.589814	0.000225	2.251397	0.381397	-0.000023
1208	1.2010e+02	7.9858	15.562930	0.000270	2.701676	0.457676	-0.000027
1209	1.2020e+02	7.9764	15.536860	0.000262	2.619807	0.443807	-0.000026
1210	1.2030e+02	7.9646	15.513234	0.000237	2.374200	0.402200	-0.000024
1211	1.2039e+02	7.9565	15.485127	0.000282	2.824480	0.478480	-0.000028
1212	1.2049e+02	7.9468	15.459057	0.000262	2.619807	0.443807	-0.000026
1213	1.2059e+02	7.9386	15.436246	0.000229	2.292331	0.388331	-0.000023
1214	1.2069e+02	7.9256	15.408954	0.000274	2.742611	0.464611	-0.000027
1215	1.2079e+02	7.9159	15.382477	0.000266	2.660742	0.450742	-0.000027
1216	1.2089e+02	7.9057	15.354370	0.000282	2.824480	0.478480	-0.000028
1217	1.2099e+02	7.8955	15.335225	0.000192	1.923921	0.325921	-0.000019
1218	1.2109e+02	7.8848	15.304674	0.000307	3.070087	0.520087	-0.000031
1219	1.2119e+02	7.8762	15.278197	0.000266	2.660742	0.450742	-0.000027
1220	1.2129e+02	7.8663	15.252534	0.000258	2.578873	0.436873	-0.000026
1221	1.2139e+02	7.8548	15.226872	0.000258	2.578873	0.436873	-0.000026
1222	1.2149e+02	7.8483	15.199987	0.000270	2.701676	0.457676	-0.000027
1223	1.2159e+02	7.8356	15.174325	0.000258	2.578873	0.436873	-0.000026
1224	1.2169e+02	7.8282	15.146218	0.000282	2.824480	0.478480	-0.000028
1225	1.2179e+02	7.8149	15.123407	0.000229	2.292331	0.388331	-0.000023
1226	1.2189e+02	7.8040	15.094893	0.000287	2.865414	0.485414	-0.000029
1227	1.2199e+02	7.7966	15.064750	0.000303	3.029152	0.513152	-0.000030
1228	1.2209e+02	7.7877	15.040309	0.000246	2.456069	0.416069	-0.000025
1229	1.2219e+02	7.7755	15.015054	0.000254	2.537938	0.429938	-0.000025
1230	1.2229e+02	7.7676	14.989391	0.000258	2.578873	0.436873	-0.000026
1231	1.2239e+02	7.7563	14.958026	0.000315	3.151956	0.533956	-0.000032
1232	1.2248e+02	7.7477	14.933585	0.000246	2.456069	0.416069	-0.000025
1233	1.2258e+02	7.7377	14.908330	0.000254	2.537938	0.429938	-0.000025
1234	1.2268e+02	7.7259	14.879001	0.000295	2.947283	0.499283	-0.000029
1235	1.2278e+02	7.7164	14.853339	0.000258	2.578873	0.436873	-0.000026
1236	1.2288e+02	7.7084	14.829306	0.000242	2.415135	0.409135	-0.000024
1237	1.2298e+02	7.6984	14.799977	0.000295	2.947283	0.499283	-0.000029
1238	1.2308e+02	7.6868	14.775129	0.000250	2.497004	0.423004	-0.000025
1239	1.2318e+02	7.6770	14.747837	0.000274	2.742611	0.464611	-0.000027
1240	1.2328e+02	7.6660	14.720138	0.000278	2.783545	0.471545	-0.000028
1241	1.2338e+02	7.6595	14.693661	0.000266	2.660742	0.450742	-0.000027
1242	1.2348e+02	7.6496	14.667183	0.000266	2.660742	0.450742	-0.000027
1243	1.2358e+02	7.6354	14.641113	0.000262	2.619807	0.443807	-0.000026
1244	1.2368e+02	7.6275	14.611785	0.000295	2.947283	0.499283	-0.000029
1245	1.2378e+02	7.6195	14.584493	0.000274	2.742611	0.464611	-0.000027
1246	1.2388e+02	7.6067	14.555164	0.000295	2.947283	0.499283	-0.000029
1247	1.2398e+02	7.5966	14.529094	0.000262	2.619807	0.443807	-0.000026
1248	1.2408e+02	7.5843	14.504654	0.000246	2.456069	0.416069	-0.000025
1249	1.2418e+02	7.5781	14.480213	0.000246	2.456069	0.416069	-0.000025
1250	1.2428e+02	7.5684	14.450070	0.000303	3.029152	0.513152	-0.000030
1251	1.2438e+02	7.5565	14.426851	0.000233	2.333266	0.395266	-0.000023
1252	1.2447e+02	7.5489	14.401189	0.000258	2.578873	0.436873	-0.000026
1253	1.2457e+02	7.5378	14.375933	0.000254	2.537938	0.429938	-0.000025
1254	1.2467e+02	7.5269	14.347012	0.000291	2.906349	0.492349	-0.000029
1255	1.2477e+02	7.5196	14.318091	0.000291	2.906349	0.492349	-0.000029
1256	1.2487e+02	7.5081	14.288762	0.000295	2.947283	0.499283	-0.000029
1257	1.2497e+02	7.5000	14.260655	0.000282	2.824480	0.478480	-0.000028
1258	1.2507e+02	7.4871	14.232956	0.000278	2.783545	0.471545	-0.000028
1259	1.2517e+02	7.4770	14.201183	0.000319	3.192890	0.540890	-0.000032
1260	1.2527e+02	7.4653	14.171447	0.000299	2.988218	0.506218	-0.000030
1261	1.2537e+02	7.4597	14.142933	0.000287	2.865414	0.485414	-0.000029
1262	1.2547e+02	7.4500	14.116863	0.000262	2.619807	0.443807	-0.000026
1263	1.2557e+02	7.4390	14.088349	0.000287	2.865414	0.485414	-0.000029
1264	1.2567e+02	7.4278	14.062280	0.000262	2.619807	0.443807	-0.000026
1265	1.2577e+02	7.4203	14.035802	0.000266	2.660742	0.450742	-0.000027
1266	1.2587e+02	7.4099	14.005252	0.000307	3.070087	0.520087	-0.000031
1267	1.2597e+02	7.4003	13.979589	0.000258	2.578873	0.436873	-0.000026
1268	1.2607e+02	7.3879	13.950668	0.000291	2.906349	0.492349	-0.000029
1269	1.2617e+02	7.3794	13.925005	0.000258	2.578873	0.436873	-0.000026
1270	1.2627e+02	7.3705	13.896898	0.000282	2.824480	0.478480	-0.000028
1271	1.2636e+02	7.3587	13.867570	0.000295	2.947283	0.499283	-0.000029
1272	1.2646e+02	7.3467	13.839463	0.000282	2.824480	0.478480	-0.000028
1273	1.2656e+02	7.3399	13.810542	0.000291	2.906349	0.492349	-0.000029
1274	1.2666e+02	7.3264	13.783657	0.000270	2.701676	0.457676	-0.000027
1275	1.2676e+02	7.3200	13.756773	0.000270	2.701676	0.457676	-0.000027
1276	1.2686e+02	7.3077	13.732739	0.000242	2.415135	0.409135	-0.000024
1277	1.2696e+02	7.2986	13.707484	0.000254	2.537938	0.429938	-0.000025
1278	1.2706e+02	7.2906	13.681822	0.000258	2.578873	0.436873	-0.000026
1279	1.2716e+02	7.2805	13.658196	0.000237	2.374200	0.402200	-0.000024
1280	1.2726e+02	7.2694	13.634163	0.000242	2.415135	0.409135	-0.000024
1281	1.2736e+02	7.2581	13.608093	0.000262	2.619807	0.443807	-0.000026
1282	1.2746e+02	7.2487	13.582837	0.000254	2.537938	0.429938	-0.000025
1283	1.2756e+02	7.2400	13.551879	0.000311	3.111021	0.527021	-0.000031
1284	1.2766e+02	7.2270	13.528253	0.000237	2.374200	0.402200	-0.000024
1285	1.2776e+02	7.2192	13.502591	0.000258	2.578873	0.436873	-0.000026
1286	1.2786e+02	7.2092	13.472855	0.000299	2.988218	0.506218	-0.000030
1287	1.2796e+02	7.1994	13.445563	0.000274	2.742611	0.464611	-0.000027
1288	1.2806e+02	7.1904	13.416642	0.000291	2.906349	0.492349	-0.000029
1289	1.2816e+02	7.1804	13.391386	0.000254	2.537938	0.429938	-0.000025
1290	1.2826e+02	7.1709	13.364094	0.000274	2.742611	0.464611	-0.000027
1291	1.2835e+02	7.1582	13.338839	0.000254	2.537938	0.429938	-0.000025
1292	1.2845e+02	7.1511	13.309511	0.000295	2.947283	0.499283	-0.000029
1293	1.2855e+02	7.1421	13.280589	0.000291	2.906349	0.492349	-0.000029
1294	1.2865e+02	7.1304	13.254112	0.000266	2.660742	0.450742	-0.000027
1295	1.2875e+02	7.1206	13.226413	0.000278	2.783545	0.471545	-0.000028
1296	1.2885e+02	7.1110	13.197491	0.000291	2.906349	0.492349	-0.000029
1297	1.2895e+02	7.0988	13.170199	0.000274	2.742611	0.464611	-0.000027
1298	1.2905e+02	7.0920	13.142907	0.000274	2.742611	0.464611	-0.000027
1299	1.2915e+02	7.0815	13.113986	0.000291	2.906349	0.492349	-0.000029
1300	1.2925e+02	7.0718	13.088324	0.000258	2.578873	0.436873	-0.000026
1301	1.2935e+02	7.0608	13.057365	0.000311	3.111021	0.527021	-0.000031
1302	1.2945e+02	7.0503	13.031296	0.000262	2.619807	0.443807	-0.000026
1303	1.2955e+02	7.0379	13.006855	0.000246	2.456069	0.416069	-0.000025
1304	1.2965e+02	7.0280	12.972231	0.000348	3.479432	0.589432	-0.000035
1305	1.2975e+02	7.0211	12.946976	0.000254	2.537938	0.429938	-0.000025
1306	1.2985e+02	7.0086	12.920091	0.000270	2.701676	0.457676	-0.000027
1307	1.2995e+02	6.9985	12.889133	0.000311	3.111021	0.527021	-0.000031
1308	1.3005e+02	6.9912	12.861841	0.000274	2.742611	0.464611	-0.000027
1309	1.3015e+02	6.9811	12.835771	0.000262	2.619807	0.443807	-0.000026
1310	1.3025e+02	6.9704	12.808887	0.000270	2.701676	0.457676	-0.000027
1311	1.3034e+02	6.9607	12.779965	0.000291	2.906349	0.492349	-0.000029
1312	1.3044e+02	6.9500	12.756339	0.000237	2.374200	0.402200	-0.000024
1313	1.3054e+02	6.9407	12.727418	0.000291	2.906349	0.492349	-0.000029
1314	1.3064e+02	6.9285	12.700126	0.000274	2.742611	0.464611	-0.000027
1315	1.3074e+02	6.9216	12.669168	0.000311	3.111021	0.527021	-0.000031
1316	1.3084e+02	6.9118	12.640654	0.000287	2.865414	0.485414	-0.000029
1317	1.3094e+02	6.9012	12.610103	0.000307	3.070087	0.520087	-0.000031
1318	1.3104e+02	6.8899	12.586477	0.000237	2.374200	0.402200	-0.000024
1319	1.3114e+02	6.8813	12.555112	0.000315	3.151956	0.533956	-0.000032
1320	1.3124e+02	6.8742	12.529450	0.000258	2.578873	0.436873	-0.000026
1321	1.3134e+02	6.8635	12.494418	0.000352	3.520366	0.596366	-0.000035
1322	1.3144e+02	6.8508	12.466311	0.000282	2.824480	0.478480	-0.000028
1323	1.3154e+02	6.8440	12.435353	0.000311	3.111021	0.527021	-0.000031
1324	1.3164e+02	6.8311	12.408061	0.000274	2.742611	0.464611	-0.000027
1325	1.3174e+02	6.8214	12.381992	0.000262	2.619807	0.443807	-0.000026
1326	1.3184e+02	6.8121	12.353478	0.000287	2.865414	0.485414	-0.000029
1327	1.3194e+02	6.8031	12.324556	0.000291	2.906349	0.492349	-0.000029
1328	1.3204e+02	6.7898	12.295228	0.000295	2.947283	0.499283	-0.000029
1329	1.3214e+02	6.7800	12.269972	0.000254	2.537938	0.429938	-0.000025
1330	1.3224e+02	6.7715	12.242680	0.000274	2.742611	0.464611	-0.000027
1331	1.3234e+02	6.7629	12.212944	0.000299	2.988218	0.506218	-0.000030
1332	1.3243e+02	6.7529	12.181986	0.000311	3.111021	0.527021	-0.000031
1333	1.3253e+02	6.7387	12.153065	0.000291	2.906349	0.492349	-0.000029
1334	1.3263e+02	6.7326	12.122107	0.000311	3.111021	0.527021	-0.000031
1335	1.3273e+02	6.7223	12.091556	0.000307	3.070087	0.520087	-0.000031
1336	1.3283e+02	6.7106	12.060191	0.000315	3.151956	0.533956	-0.000032
1337	1.3293e+02	6.7022	12.032899	0.000274	2.742611	0.464611	-0.000027
1338	1.3303e+02	6.6946	12.007236	0.000258	2.578873	0.436873	-0.000026
1339	1.3313e+02	6.6836	11.975871	0.000315	3.151956	0.533956	-0.000032
1340	1.3323e+02	6.6729	11.951430	0.000246	2.456069	0.416069	-0.000025
1341	1.3333e+02	6.6628	11.926175	0.000254	2.537938	0.429938	-0.000025
1342	1.3343e+02	6.6535	11.898476	0.000278	2.783545	0.471545	-0.000028
1343	1.3353e+02	6.6418	11.870369	0.000282	2.824480	0.478480	-0.000028
1344	1.3363e+02	6.6343	11.845521	0.000250	2.497004	0.423004	-0.000025
1345	1.3373e+02	6.6238	11.814156	0.000315	3.151956	0.533956	-0.000032
1346	1.3383e+02	6.6132	11.788901	0.000254	2.537938	0.429938	-0.000025
1347	1.3393e+02	6.6027	11.759979	0.000291	2.906349	0.492349	-0.000029
1348	1.3403e+02	6.5918	11.730651	0.000295	2.947283	0.499283	-0.000029
1349	1.3413e+02	6.5829	11.702952	0.000278	2.783545	0.471545	-0.000028
1350	1.3423e+02	6.5743	11.672401	0.000307	3.070087	0.520087	-0.000031
1351	1.3432e+02	6.5621	11.643479	0.000291	2.906349	0.492349	-0.000029
1352	1.3442e+02	6.5517	11.614151	0.000295	2.947283	0.499283	-0.000029
1353	1.3452e+02	6.5432	11.586452	0.000278	2.783545	0.471545	-0.000028
1354	1.3462e+02	6.5318	11.555086	0.000315	3.151956	0.533956	-0.000032
1355	1.3472e+02	6.5218	11.528609	0.000266	2.660742	0.450742	-0.000027
1356	1.3482e+02	6.5133	11.498873	0.000299	2.988218	0.506218	-0.000030
1357	1.3492e+02	6.5047	11.469544	0.000295	2.947283	0.499283	-0.000029
1358	1.3502e+02	6.4946	11.436957	0.000327	3.274759	0.554759	-0.000033
1359	1.3512e+02	6.4823	11.409258	0.000278	2.783545	0.471545	-0.000028
1360	1.3522e+02	6.4758	11.376670	0.000327	3.274759	0.554759	-0.000033
1361	1.3532e+02	6.4649	11.345712	0.000311	3.111021	0.527021	-0.000031
1362	1.3542e+02	6.4541	11.317605	0.000282	2.824480	0.478480	-0.000028
1363	1.3552e+02	6.4421	11.281352	0.000364	3.643170	0.617170	-0.000036
1364	1.3562e+02	6.4346	11.250801	0.000307	3.070087	0.520087	-0.000031
1365	1.3572e+02	6.4264	11.222287	0.000287	2.865414	0.485414	-0.000029
1366	1.3582e+02	6.4134	11.192551	0.000299	2.988218	0.506218	-0.000030
1367	1.3592e+02	6.4063	11.156705	0.000360	3.602235	0.610235	-0.000036
1368	1.3602e+02	6.3944	11.126562	0.000303	3.029152	0.513152	-0.000030
1369	1.3612e+02	6.3852	11.095604	0.000311	3.111021	0.527021	-0.000031
1370	1.3622e+02	6.3746	11.064238	0.000315	3.151956	0.533956	-0.000032
1371	1.3631e+02	6.3654	11.036539	0.000278	2.783545	0.471545	-0.000028
1372	1.3641e+02	6.3546	11.003952	0.000327	3.274759	0.554759	-0.000033
1373	1.3651e+02	6.3427	10.974216	0.000299	2.988218	0.506218	-0.000030
1374	1.3661e+02	6.3345	10.947331	0.000270	2.701676	0.457676	-0.000027
1375	1.3671e+02	6.3233	10.910670	0.000368	3.684104	0.624104	-0.000037
1376	1.3681e+02	6.3140	10.884193	0.000266	2.660742	0.450742	-0.000027
1377	1.3691e+02	6.3030	10.852828	0.000315	3.151956	0.533956	-0.000032
1378	1.3701e+02	6.2955	10.827165	0.000258	2.578873	0.436873	-0.000026
1379	1.3711e+02	6.2864	10.792948	0.000344	3.438497	0.582497	-0.000034
1380	1.3721e+02	6.2737	10.765656	0.000274	2.742611	0.464611	-0.000027
1381	1.3731e+02	6.2654	10.737142	0.000287	2.865414	0.485414	-0.000029
1382	1.3741e+02	6.2527	10.704555	0.000327	3.274759	0.554759	-0.000033
1383	1.3751e+02	6.2462	10.676448	0.000282	2.824480	0.478480	-0.000028
1384	1.3761e+02	6.2363	10.641824	0.000348	3.479432	0.589432	-0.000035
1385	1.3771e+02	6.2266	10.614125	0.000278	2.783545	0.471545	-0.000028
1386	1.3781e+02	6.2157	10.584796	0.000295	2.947283	0.499283	-0.000029
1387	1.3791e+02	6.2041	10.550987	0.000340	3.397563	0.575563	-0.000034
1388	1.3801e+02	6.1993	10.520843	0.000303	3.029152	0.513152	-0.000030
1389	1.3811e+02	6.1846	10.494366	0.000266	2.660742	0.450742	-0.000027
1390	1.3821e+02	6.1756	10.464223	0.000303	3.029152	0.513152	-0.000030
1391	1.3831e+02	6.1622	10.432043	0.000323	3.233825	0.547825	-0.000032
1392	1.3840e+02	6.1544	10.399863	0.000323	3.233825	0.547825	-0.000032
1393	1.3850e+02	6.1459	10.373385	0.000266	2.660742	0.450742	-0.000027
1394	1.3860e+02	6.1356	10.339576	0.000340	3.397563	0.575563	-0.000034
1395	1.3870e+02	6.1251	10.308211	0.000315	3.151956	0.533956	-0.000032
1396	1.3880e+02	6.1156	10.275216	0.000332	3.315694	0.561694	-0.000033
1397	1.3890e+02	6.1044	10.247109	0.000282	2.824480	0.478480	-0.000028
1398	1.3900e+02	6.0963	10.215337	0.000319	3.192890	0.540890	-0.000032
1399	1.3910e+02	6.0842	10.182342	0.000332	3.315694	0.561694	-0.000033
1400	1.3920e+02	6.0752	10.155050	0.000274	2.742611	0.464611	-0.000027
1401	1.3930e+02	6.0645	10.122870	0.000323	3.233825	0.547825	-0.000032
1402	1.3940e+02	6.0546	10.094763	0.000282	2.824480	0.478480	-0.000028
1403	1.3950e+02	6.0485	10.062990	0.000319	3.192890	0.540890	-0.000032
1404	1.3960e+02	6.0352	10.029996	0.000332	3.315694	0.561694	-0.000033
1405	1.3970e+02	6.0268	10.004740	0.000254	2.537938	0.429938	-0.000025
1406	1.3980e+02	6.0152	9.975412	0.000295	2.947283	0.499283	-0.000029
1407	1.3990e+02	6.0049	9.943639	0.000319	3.192890	0.540890	-0.000032
1408	1.4000e+02	5.9957	9.915532	0.000282	2.824480	0.478480	-0.000028
1409	1.4010e+02	5.9896	9.882945	0.000327	3.274759	0.554759	-0.000033
1410	1.4020e+02	5.9779	9.852802	0.000303	3.029152	0.513152	-0.000030
1411	1.4029e+02	5.9707	9.819807	0.000332	3.315694	0.561694	-0.000033
1412	1.4039e+02	5.9547	9.788442	0.000315	3.151956	0.533956	-0.000032
1413	1.4049e+02	5.9473	9.755447	0.000332	3.315694	0.561694	-0.000033
1414	1.4059e+02	5.9374	9.725711	0.000299	2.988218	0.506218	-0.000030
1415	1.4069e+02	5.9241	9.698419	0.000274	2.742611	0.464611	-0.000027
1416	1.4079e+02	5.9185	9.667053	0.000315	3.151956	0.533956	-0.000032
1417	1.4089e+02	5.9069	9.636095	0.000311	3.111021	0.527021	-0.000031
1418	1.4099e+02	5.8968	9.603508	0.000327	3.274759	0.554759	-0.000033
1419	1.4109e+02	5.8858	9.574179	0.000295	2.947283	0.499283	-0.000029
1420	1.4119e+02	5.8770	9.545258	0.000291	2.906349	0.492349	-0.000029
1421	1.4129e+02	5.8657	9.511856	0.000336	3.356628	0.568628	-0.000034
1422	1.4139e+02	5.8572	9.480898	0.000311	3.111021	0.527021	-0.000031
1423	1.4149e+02	5.8480	9.449940	0.000311	3.111021	0.527021	-0.000031
1424	1.4159e+02	5.8357	9.418167	0.000319	3.192890	0.540890	-0.000032
1425	1.4169e+02	5.8239	9.384358	0.000340	3.397563	0.575563	-0.000034
1426	1.4179e+02	5.8152	9.348512	0.000360	3.602235	0.610235	-0.000036
1427	1.4189e+02	5.8067	9.319183	0.000295	2.947283	0.499283	-0.000029
1428	1.4199e+02	5.7986	9.283337	0.000360	3.602235	0.610235	-0.000036
1429	1.4209e+02	5.7856	9.251564	0.000319	3.192890	0.540890	-0.000032
1430	1.4219e+02	5.7792	9.223457	0.000282	2.824480	0.478480	-0.000028
1431	1.4228e+02	5.7674	9.189241	0.000344	3.438497	0.582497	-0.000034
1432	1.4238e+02	5.7580	9.155839	0.000336	3.356628	0.568628	-0.000034
1433	1.4248e+02	5.7491	9.125695	0.000303	3.029152	0.513152	-0.000030
1434	1.4258e+02	5.7388	9.092700	0.000332	3.315694	0.561694	-0.000033
1435	1.4268e+02	5.7259	9.060928	0.000319	3.192890	0.540890	-0.000032
1436	1.4278e+02	5.7150	9.028748	0.000323	3.233825	0.547825	-0.000032
1437	1.4288e+02	5.7095	8.998197	0.000307	3.070087	0.520087	-0.000031
1438	1.4298e+02	5.6982	8.968868	0.000295	2.947283	0.499283	-0.000029
1439	1.4308e+02	5.6878	8.937096	0.000319	3.192890	0.540890	-0.000032
1440	1.4318e+02	5.6770	8.907767	0.000295	2.947283	0.499283	-0.000029
1441	1.4328e+02	5.6689	8.874772	0.000332	3.315694	0.561694	-0.000033
1442	1.4338e+02	5.6590	8.842592	0.000323	3.233825	0.547825	-0.000032
1443	1.4348e+02	5.6482	8.811227	0.000315	3.151956	0.533956	-0.000032
1444	1.4358e+02	5.6377	8.780676	0.000307	3.070087	0.520087	-0.000031
1445	1.4368e+02	5.6292	8.754606	0.000262	2.619807	0.443807	-0.000026
1446	1.4378e+02	5.6176	8.723648	0.000311	3.111021	0.527021	-0.000031
1447	1.4388e+02	5.6063	8.698393	0.000254	2.537938	0.429938	-0.000025
1448	1.4398e+02	5.5973	8.666213	0.000323	3.233825	0.547825	-0.000032
1449	1.4408e+02	5.5889	8.634033	0.000323	3.233825	0.547825	-0.000032
1450	1.4418e+02	5.5781	8.607148	0.000270	2.701676	0.457676	-0.000027
1451	1.4428e+02	5.5677	8.577005	0.000303	3.029152	0.513152	-0.000030
1452	1.4437e+02	5.5575	8.544825	0.000323	3.233825	0.547825	-0.000032
1453	1.4447e+02	5.5477	8.517533	0.000274	2.742611	0.464611	-0.000027
1454	1.4457e+02	5.5395	8.486982	0.000307	3.070087	0.520087	-0.000031
1455	1.4467e+02	5.5279	8.454802	0.000323	3.233825	0.547825	-0.000032
1456	1.4477e+02	5.5202	8.420178	0.000348	3.479432	0.589432	-0.000035
1457	1.4487e+02	5.5096	8.392479	0.000278	2.783545	0.471545	-0.000028
1458	1.4497e+02	5.4971	8.358262	0.000344	3.438497	0.582497	-0.000034
1459	1.4507e+02	5.4887	8.326082	0.000323	3.233825	0.547825	-0.000032
1460	1.4517e+02	5.4789	8.297160	0.000291	2.906349	0.492349	-0.000029
1461	1.4527e+02	5.4693	8.264573	0.000327	3.274759	0.554759	-0.000033
1462	1.4537e+02	5.4586	8.234430	0.000303	3.029152	0.513152	-0.000030
1463	1.4547e+02	5.4478	8.203879	0.000307	3.070087	0.520087	-0.000031
1464	1.4557e+02	5.4388	8.172921	0.000311	3.111021	0.527021	-0.000031
1465	1.4567e+02	5.4288	8.141148	0.000319	3.192890	0.540890	-0.000032
1466	1.4577e+02	5.4209	8.106931	0.000344	3.438497	0.582497	-0.000034
1467	1.4587e+02	5.4082	8.074751	0.000323	3.233825	0.547825	-0.000032
1468	1.4597e+02	5.3979	8.041757	0.000332	3.315694	0.561694	-0.000033
1469	1.4607e+02	5.3927	8.009984	0.000319	3.192890	0.540890	-0.000032
1470	1.4617e+02	5.3786	7.978211	0.000319	3.192890	0.540890	-0.000032
1471	1.4626e+02	5.3672	7.949290	0.000291	2.906349	0.492349	-0.000029
1472	1.4636e+02	5.3600	7.912629	0.000368	3.684104	0.624104	-0.000037
1473	1.4646e+02	5.3480	7.882486	0.000303	3.029152	0.513152	-0.000030
1474	1.4656e+02	5.3385	7.851528	0.000311	3.111021	0.527021	-0.000031
1475	1.4666e+02	5.3337	7.816904	0.000348	3.479432	0.589432	-0.000035
1476	1.4676e+02	5.3185	7.785131	0.000319	3.192890	0.540890	-0.000032
1477	1.4686e+02	5.3079	7.760283	0.000250	2.497004	0.423004	-0.000025
1478	1.4696e+02	5.3008	7.725251	0.000352	3.520366	0.596366	-0.000035
1479	1.4706e+02	5.2898	7.693886	0.000315	3.151956	0.533956	-0.000032
1480	1.4716e+02	5.2837	7.662521	0.000315	3.151956	0.533956	-0.000032
1481	1.4726e+02	5.2691	7.629933	0.000327	3.274759	0.554759	-0.000033
1482	1.4736e+02	5.2605	7.599790	0.000303	3.029152	0.513152	-0.000030
1483	1.4746e+02	5.2503	7.567610	0.000323	3.233825	0.547825	-0.000032
1484	1.4756e+02	5.2410	7.534615	0.000332	3.315694	0.561694	-0.000033
1485	1.4766e+02	5.2312	7.503657	0.000311	3.111021	0.527021	-0.000031
1486	1.4776e+02	5.2209	7.469848	0.000340	3.397563	0.575563	-0.000034
1487	1.4786e+02	5.2081	7.436446	0.000336	3.356628	0.568628	-0.000034
1488	1.4796e+02	5.2002	7.403044	0.000336	3.356628	0.568628	-0.000034
1489	1.4806e+02	5.1909	7.370863	0.000323	3.233825	0.547825	-0.000032
1490	1.4816e+02	5.1803	7.334203	0.000368	3.684104	0.624104	-0.000037
1491	1.4825e+02	5.1711	7.302430	0.000319	3.192890	0.540890	-0.000032
1492	1.4835e+02	5.1611	7.271879	0.000307	3.070087	0.520087	-0.000031
1493	1.4845e+02	5.1488	7.241736	0.000303	3.029152	0.513152	-0.000030
1494	1.4855e+02	5.1398	7.205482	0.000364	3.643170	0.617170	-0.000036
1495	1.4865e+02	5.1287	7.175339	0.000303	3.029152	0.513152	-0.000030
1496	1.4875e+02	5.1226	7.142344	0.000332	3.315694	0.561694	-0.000033
1497	1.4885e+02	5.1104	7.110979	0.000315	3.151956	0.533956	-0.000032
1498	1.4895e+02	5.1008	7.076355	0.000348	3.479432	0.589432	-0.000035
1499	1.4905e+02	5.0898	7.047026	0.000295	2.947283	0.499283	-0.000029
1500	1.4915e+02	5.0796	7.008329	0.000389	3.888777	0.658777	-0.000039
1501	1.4925e+02	5.0684	6.979000	0.000295	2.947283	0.499283	-0.000029
1502	1.4935e+02	5.0610	6.943154	0.000360	3.602235	0.610235	-0.000036
1503	1.4945e+02	5.0496	6.912603	0.000307	3.070087	0.520087	-0.000031
1504	1.4955e+02	5.0416	6.881238	0.000315	3.151956	0.533956	-0.000032
1505	1.4965e+02	5.0330	6.850687	0.000307	3.070087	0.520087	-0.000031
1506	1.4975e+02	5.0207	6.814026	0.000368	3.684104	0.624104	-0.000037
1507	1.4985e+02	5.0115	6.780217	0.000340	3.397563	0.575563	-0.000034
1508	1.4995e+02	5.0036	6.749666	0.000307	3.070087	0.520087	-0.000031
1509	1.5005e+02	4.9920	6.720745	0.000291	2.906349	0.492349	-0.000029
1510	1.5015e+02	4.9832	6.688972	0.000319	3.192890	0.540890	-0.000032
1511	1.5025e+02	4.9715	6.658014	0.000311	3.111021	0.527021	-0.000031
1512	1.5034e+02	4.9644	6.625834	0.000323	3.233825	0.547825	-0.000032
1513	1.5044e+02	4.9512	6.599357	0.000266	2.660742	0.450742	-0.000027
1514	1.5054e+02	4.9439	6.565140	0.000344	3.438497	0.582497	-0.000034
1515	1.5064e+02	4.9323	6.530516	0.000348	3.479432	0.589432	-0.000035
1516	1.5074e+02	4.9220	6.499965	0.000307	3.070087	0.520087	-0.000031
1517	1.5084e+02	4.9125	6.464119	0.000360	3.602235	0.610235	-0.000036
1518	1.5094e+02	4.9006	6.432754	0.000315	3.151956	0.533956	-0.000032
1519	1.5104e+02	4.8916	6.396907	0.000360	3.602235	0.610235	-0.000036
1520	1.5114e+02	4.8814	6.367579	0.000295	2.947283	0.499283	-0.000029
1521	1.5124e+02	4.8705	6.331325	0.000364	3.643170	0.617170	-0.000036
1522	1.5134e+02	4.8635	6.296294	0.000352	3.520366	0.596366	-0.000035
1523	1.5144e+02	4.8537	6.266965	0.000295	2.947283	0.499283	-0.000029
1524	1.5154e+02	4.8443	6.231934	0.000352	3.520366	0.596366	-0.000035
1525	1.5164e+02	4.8309	6.196495	0.000356	3.561301	0.603301	-0.000036
1526	1.5174e+02	4.8229	6.164722	0.000319	3.192890	0.540890	-0.000032
1527	1.5184e+02	4.8103	6.129691	0.000352	3.520366	0.596366	-0.000035
1528	1.5194e+02	4.8038	6.096696	0.000332	3.315694	0.561694	-0.000033
1529	1.5204e+02	4.7939	6.057998	0.000389	3.888777	0.658777	-0.000039
1530	1.5214e+02	4.7817	6.024189	0.000340	3.397563	0.575563	-0.000034
1531	1.5224e+02	4.7732	5.984269	0.000401	4.011580	0.679580	-0.000040
1532	1.5233e+02	4.7620	5.950053	0.000344	3.438497	0.582497	-0.000034
1533	1.5243e+02	4.7520	5.915836	0.000344	3.438497	0.582497	-0.000034
1534	1.5253e+02	4.7474	5.880804	0.000352	3.520366	0.596366	-0.000035
1535	1.5263e+02	4.7350	5.844144	0.000368	3.684104	0.624104	-0.000037
1536	1.5273e+02	4.7246	5.809112	0.000352	3.520366	0.596366	-0.000035
1537	1.5283e+02	4.7132	5.776525	0.000327	3.274759	0.554759	-0.000033
1538	1.5293e+02	4.7031	5.740679	0.000360	3.602235	0.610235	-0.000036
1539	1.5303e+02	4.6938	5.706462	0.000344	3.438497	0.582497	-0.000034
1540	1.5313e+02	4.6822	5.673874	0.000327	3.274759	0.554759	-0.000033
1541	1.5323e+02	4.6745	5.641287	0.000327	3.274759	0.554759	-0.000033
1542	1.5333e+02	4.6626	5.601367	0.000401	4.011580	0.679580	-0.000040
1543	1.5343e+02	4.6532	5.568373	0.000332	3.315694	0.561694	-0.000033
1544	1.5353e+02	4.6441	5.534563	0.000340	3.397563	0.575563	-0.000034
1545	1.5363e+02	4.6334	5.505642	0.000291	2.906349	0.492349	-0.000029
1546	1.5373e+02	4.6236	5.464500	0.000413	4.134384	0.700384	-0.000041
1547	1.5383e+02	4.6131	5.429876	0.000348	3.479432	0.589432	-0.000035
1548	1.5393e+02	4.6044	5.396474	0.000336	3.356628	0.568628	-0.000034
1549	1.5403e+02	4.5930	5.360221	0.000364	3.643170	0.617170	-0.000036
1550	1.5413e+02	4.5829	5.327633	0.000327	3.274759	0.554759	-0.000033
1551	1.5422e+02	4.5717	5.293416	0.000344	3.438497	0.582497	-0.000034
1552	1.5432e+02	4.5631	5.257163	0.000364	3.643170	0.617170	-0.000036
1553	1.5442e+02	4.5522	5.227020	0.000303	3.029152	0.513152	-0.000030
1554	1.5452e+02	4.5421	5.192396	0.000348	3.479432	0.589432	-0.000035
1555	1.5462e+02	4.5316	5.155735	0.000368	3.684104	0.624104	-0.000037
1556	1.5472e+02	4.5233	5.122740	0.000332	3.315694	0.561694	-0.000033
1557	1.5482e+02	4.5153	5.087301	0.000356	3.561301	0.603301	-0.000036
1558	1.5492e+02	4.5025	5.055528	0.000319	3.192890	0.540890	-0.000032
1559	1.5502e+02	4.4919	5.017646	0.000381	3.806908	0.644908	-0.000038
1560	1.5512e+02	4.4824	4.984243	0.000336	3.356628	0.568628	-0.000034
1561	1.5522e+02	4.4749	4.952063	0.000323	3.233825	0.547825	-0.000032
1562	1.5532e+02	4.4629	4.914181	0.000381	3.806908	0.644908	-0.000038
1563	1.5542e+02	4.4564	4.879556	0.000348	3.479432	0.589432	-0.000035
1564	1.5552e+02	4.4454	4.844525	0.000352	3.520366	0.596366	-0.000035
1565	1.5562e+02	4.4336	4.806235	0.000385	3.847842	0.651842	-0.000038
1566	1.5572e+02	4.4237	4.771203	0.000352	3.520366	0.596366	-0.000035
1567	1.5582e+02	4.4158	4.736579	0.000348	3.479432	0.589432	-0.000035
1568	1.5592e+02	4.4039	4.700733	0.000360	3.602235	0.610235	-0.000036
1569	1.5602e+02	4.3941	4.668553	0.000323	3.233825	0.547825	-0.000032
1570	1.5612e+02	4.3840	4.635966	0.000327	3.274759	0.554759	-0.000033
1571	1.5622e+02	4.3760	4.601341	0.000348	3.479432	0.589432	-0.000035
1572	1.5631e+02	4.3639	4.564681	0.000368	3.684104	0.624104	-0.000037
1573	1.5641e+02	4.3555	4.530464	0.000344	3.438497	0.582497	-0.000034
1574	1.5651e+02	4.3446	4.498284	0.000323	3.233825	0.547825	-0.000032
1575	1.5661e+02	4.3353	4.464067	0.000344	3.438497	0.582497	-0.000034
1576	1.5671e+02	4.3264	4.424962	0.000393	3.929711	0.665711	-0.000039
1577	1.5681e+02	4.3132	4.390745	0.000344	3.438497	0.582497	-0.000034
1578	1.5691e+02	4.3015	4.352455	0.000385	3.847842	0.651842	-0.000038
1579	1.5701e+02	4.2931	4.319053	0.000336	3.356628	0.568628	-0.000034
1580	1.5711e+02	4.2864	4.281578	0.000377	3.765973	0.637973	-0.000038
1581	1.5721e+02	4.2760	4.255100	0.000266	2.660742	0.450742	-0.000027
1582	1.5731e+02	4.2641	4.215588	0.000397	3.970646	0.672646	-0.000040
1583	1.5741e+02	4.2541	4.181779	0.000340	3.397563	0.575563	-0.000034
1584	1.5751e+02	4.2437	4.146340	0.000356	3.561301	0.603301	-0.000036
1585	1.5761e+02	4.2359	4.111716	0.000348	3.479432	0.589432	-0.000035
1586	1.5771e+02	4.2256	4.076277	0.000356	3.561301	0.603301	-0.000036
1587	1.5781e+02	4.2151	4.039209	0.000373	3.725039	0.631039	-0.000037
1588	1.5791e+02	4.2078	4.005807	0.000336	3.356628	0.568628	-0.000034
1589	1.5801e+02	4.1961	3.968738	0.000373	3.725039	0.631039	-0.000037
1590	1.5811e+02	4.1865	3.933707	0.000352	3.520366	0.596366	-0.000035
1591	1.5821e+02	4.1766	3.897046	0.000368	3.684104	0.624104	-0.000037
1592	1.5830e+02	4.1633	3.858756	0.000385	3.847842	0.651842	-0.000038
1593	1.5840e+02	4.1560	3.821280	0.000377	3.765973	0.637973	-0.000038
1594	1.5850e+02	4.1468	3.785842	0.000356	3.561301	0.603301	-0.000036
1595	1.5860e+02	4.1362	3.749588	0.000364	3.643170	0.617170	-0.000036
1596	1.5870e+02	4.1245	3.708447	0.000413	4.134384	0.700384	-0.000041
1597	1.5880e+02	4.1172	3.673822	0.000348	3.479432	0.589432	-0.000035
1598	1.5890e+02	4.1064	3.635940	0.000381	3.806908	0.644908	-0.000038
1599	1.5900e+02	4.0972	3.600501	0.000356	3.561301	0.603301	-0.000036
1600	1.5910e+02	4.0876	3.567099	0.000336	3.356628	0.568628	-0.000034
1601	1.5920e+02	4.0754	3.531660	0.000356	3.561301	0.603301	-0.000036
1602	1.5930e+02	4.0647	3.497850	0.000340	3.397563	0.575563	-0.000034
1603	1.5940e+02	4.0559	3.458338	0.000397	3.970646	0.672646	-0.000040
1604	1.5950e+02	4.0461	3.424121	0.000344	3.438497	0.582497	-0.000034
1605	1.5960e+02	4.0358	3.387461	0.000368	3.684104	0.624104	-0.000037
1606	1.5970e+02	4.0255	3.353651	0.000340	3.397563	0.575563	-0.000034
1607	1.5980e+02	4.0137	3.313324	0.000405	4.052515	0.686515	-0.000041
1608	1.5990e+02	4.0032	3.277071	0.000364	3.643170	0.617170	-0.000036
1609	1.6000e+02	3.9979	3.245705	0.000315	3.151956	0.533956	-0.000032
1610	1.6010e+02	3.9860	3.209859	0.000360	3.602235	0.610235	-0.000036
1611	1.6019e+02	3.9790	3.178494	0.000315	3.151956	0.533956	-0.000032
1612	1.6029e+02	3.9666	3.138982	0.000397	3.970646	0.672646	-0.000040
1613	1.6039e+02	3.9551	3.106802	0.000323	3.233825	0.547825	-0.000032
1614	1.6049e+02	3.9474	3.070955	0.000360	3.602235	0.610235	-0.000036
1615	1.6059e+02	3.9358	3.038368	0.000327	3.274759	0.554759	-0.000033
1616	1.6069e+02	3.9231	3.004151	0.000344	3.438497	0.582497	-0.000034
1617	1.6079e+02	3.9145	2.969527	0.000348	3.479432	0.589432	-0.000035
1618	1.6089e+02	3.9063	2.935718	0.000340	3.397563	0.575563	-0.000034
1619	1.6099e+02	3.8969	2.900279	0.000356	3.561301	0.603301	-0.000036
1620	1.6109e+02	3.8892	2.865655	0.000348	3.479432	0.589432	-0.000035
1621	1.6119e+02	3.8786	2.828994	0.000368	3.684104	0.624104	-0.000037
1622	1.6129e+02	3.8655	2.790704	0.000385	3.847842	0.651842	-0.000038
1623	1.6139e+02	3.8599	2.759338	0.000315	3.151956	0.533956	-0.000032
1624	1.6149e+02	3.8436	2.721456	0.000381	3.806908	0.644908	-0.000038
1625	1.6159e+02	3.8396	2.685202	0.000364	3.643170	0.617170	-0.000036
1626	1.6169e+02	3.8256	2.651800	0.000336	3.356628	0.568628	-0.000034
1627	1.6179e+02	3.8168	2.611066	0.000409	4.093449	0.693449	-0.000041
1628	1.6189e+02	3.8053	2.576034	0.000352	3.520366	0.596366	-0.000035
1629	1.6199e+02	3.7991	2.541003	0.000352	3.520366	0.596366	-0.000035
1630	1.6209e+02	3.7870	2.504342	0.000368	3.684104	0.624104	-0.000037
1631	1.6219e+02	3.7766	2.471755	0.000327	3.274759	0.554759	-0.000033
1632	1.6228e+02	3.7675	2.431428	0.000405	4.052515	0.686515	-0.000041
1633	1.6238e+02	3.7574	2.396804	0.000348	3.479432	0.589432	-0.000035
1634	1.6248e+02	3.7482	2.362179	0.000348	3.479432	0.589432	-0.000035
1635	1.6258e+02	3.7360	2.323889	0.000385	3.847842	0.651842	-0.000038
1636	1.6268e+02	3.7258	2.292524	0.000315	3.151956	0.533956	-0.000032
1637	1.6278e+02	3.7138	2.253419	0.000393	3.929711	0.665711	-0.000039
1638	1.6288e+02	3.7074	2.217980	0.000356	3.561301	0.603301	-0.000036
1639	1.6298e+02	3.6990	2.179283	0.000389	3.888777	0.658777	-0.000039
1640	1.6308e+02	3.6903	2.143029	0.000364	3.643170	0.617170	-0.000036
1641	1.6318e+02	3.6784	2.107590	0.000356	3.561301	0.603301	-0.000036
1642	1.6328e+02	3.6669	2.071337	0.000364	3.643170	0.617170	-0.000036
1643	1.6338e+02	3.6581	2.034676	0.000368	3.684104	0.624104	-0.000037
1644	1.6348e+02	3.6509	1.995164	0.000397	3.970646	0.672646	-0.000040
1645	1.6358e+02	3.6373	1.960947	0.000344	3.438497	0.582497	-0.000034
1646	1.6368e+02	3.6277	1.925508	0.000356	3.561301	0.603301	-0.000036
1647	1.6378e+02	3.6175	1.890884	0.000348	3.479432	0.589432	-0.000035
1648	1.6388e+02	3.6102	1.854223	0.000368	3.684104	0.624104	-0.000037
1649	1.6398e+02	3.5973	1.815933	0.000385	3.847842	0.651842	-0.000038
1650	1.6408e+02	3.5898	1.777236	0.000389	3.888777	0.658777	-0.000039
1651	1.6418e+02	3.5795	1.743833	0.000336	3.356628	0.568628	-0.000034
1652	1.6427e+02	3.5664	1.706358	0.000377	3.765973	0.637973	-0.000038
1653	1.6437e+02	3.5587	1.669697	0.000368	3.684104	0.624104	-0.000037
1654	1.6447e+02	3.5483	1.629370	0.000405	4.052515	0.686515	-0.000041
1655	1.6457e+02	3.5387	1.590265	0.000393	3.929711	0.665711	-0.000039
1656	1.6467e+02	3.5267	1.556456	0.000340	3.397563	0.575563	-0.000034
1657	1.6477e+02	3.5199	1.516536	0.000401	4.011580	0.679580	-0.000040
1658	1.6487e+02	3.5103	1.479875	0.000368	3.684104	0.624104	-0.000037
1659	1.6497e+02	3.4985	1.441993	0.000381	3.806908	0.644908	-0.000038
1660	1.6507e+02	3.4878	1.408183	0.000340	3.397563	0.575563	-0.000034
1661	1.6517e+02	3.4801	1.367042	0.000413	4.134384	0.700384	-0.000041
1662	1.6527e+02	3.4649	1.330788	0.000364	3.643170	0.617170	-0.000036
1663	1.6537e+02	3.4595	1.294535	0.000364	3.643170	0.617170	-0.000036
1664	1.6547e+02	3.4512	1.254208	0.000405	4.052515	0.686515	-0.000041
1665	1.6557e+02	3.4398	1.219176	0.000352	3.520366	0.596366	-0.000035
1666	1.6567e+02	3.4291	1.181701	0.000377	3.765973	0.637973	-0.000038
1667	1.6577e+02	3.4182	1.146262	0.000356	3.561301	0.603301	-0.000036
1668	1.6587e+02	3.4076	1.101454	0.000450	4.502794	0.762794	-0.000045
1669	1.6597e+02	3.3982	1.067237	0.000344	3.438497	0.582497	-0.000034
1670	1.6607e+02	3.3895	1.028540	0.000389	3.888777	0.658777	-0.000039
1671	1.6616e+02	3.3801	0.992694	0.000360	3.602235	0.610235	-0.000036
1672	1.6626e+02	3.3686	0.952367	0.000405	4.052515	0.686515	-0.000041
1673	1.6636e+02	3.3565	0.918150	0.000344	3.438497	0.582497	-0.000034
1674	1.6646e+02	3.3511	0.876194	0.000422	4.216253	0.714253	-0.000042
1675	1.6656e+02	3.3387	0.840348	0.000360	3.602235	0.610235	-0.000036
1676	1.6666e+02	3.3300	0.806131	0.000344	3.438497	0.582497	-0.000034
1677	1.6676e+02	3.3204	0.770692	0.000356	3.561301	0.603301	-0.000036
1678	1.6686e+02	3.3096	0.736068	0.000348	3.479432	0.589432	-0.000035
1679	1.6696e+02	3.2977	0.698592	0.000377	3.765973	0.637973	-0.000038
1680	1.6706e+02	3.2915	0.663968	0.000348	3.479432	0.589432	-0.000035
1681	1.6716e+02	3.2823	0.627308	0.000368	3.684104	0.624104	-0.000037
1682	1.6726e+02	3.2738	0.589425	0.000381	3.806908	0.644908	-0.000038
1683	1.6736e+02	3.2607	0.553579	0.000360	3.602235	0.610235	-0.000036
1684	1.6746e+02	3.2508	0.514066	0.000397	3.970646	0.672646	-0.000040
1685	1.6756e+02	3.2384	0.473332	0.000409	4.093449	0.693449	-0.000041
1686	1.6766e+02	3.2288	0.437079	0.000364	3.643170	0.617170	-0.000036
1687	1.6776e+02	3.2183	0.395530	0.000418	4.175318	0.707318	-0.000042
1688	1.6786e+02	3.2120	0.360091	0.000356	3.561301	0.603301	-0.000036
1689	1.6796e+02	3.2020	0.318135	0.000422	4.216253	0.714253	-0.000042
1690	1.6806e+02	3.1905	0.283918	0.000344	3.438497	0.582497	-0.000034
1691	1.6816e+02	3.1818	0.245628	0.000385	3.847842	0.651842	-0.000038
1692	1.6825e+02	3.1715	0.202042	0.000438	4.379991	0.741990	-0.000044
1693	1.6835e+02	3.1620	0.166196	0.000360	3.602235	0.610235	-0.000036
1694	1.6845e+02	3.1505	0.128313	0.000381	3.806908	0.644908	-0.000038
1695	1.6855e+02	3.1402	0.089615	0.000389	3.888777	0.658777	-0.000039
1696	1.6865e+02	3.1319	0.046437	0.000434	4.339056	0.735056	-0.000043
1697	1.6875e+02	3.1207	0.004481	0.000422	4.216253	0.714253	-0.000042
1698	1.6885e+02	3.1089	-0.032995	0.000377	3.765973	0.637973	-0.000038
1699	1.6895e+02	3.1014	-0.071692	0.000389	3.888777	0.658777	-0.000039
1700	1.6905e+02	3.0930	-0.115685	0.000442	4.420925	0.748925	-0.000044
1701	1.6915e+02	3.0827	-0.156420	0.000409	4.093449	0.693449	-0.000041
1702	1.6925e+02	3.0708	-0.194302	0.000381	3.806908	0.644908	-0.000038
1703	1.6935e+02	3.0610	-0.236259	0.000422	4.216253	0.714253	-0.000042
1704	1.6945e+02	3.0524	-0.274549	0.000385	3.847842	0.651842	-0.000038
1705	1.6955e+02	3.0400	-0.315283	0.000409	4.093449	0.693449	-0.000041
1706	1.6965e+02	3.0314	-0.353573	0.000385	3.847842	0.651842	-0.000038
1707	1.6975e+02	3.0235	-0.393493	0.000401	4.011580	0.679580	-0.000040
1708	1.6985e+02	3.0082	-0.435449	0.000422	4.216253	0.714253	-0.000042
1709	1.6995e+02	3.0001	-0.472517	0.000373	3.725039	0.631039	-0.000037
1710	1.7005e+02	2.9931	-0.514881	0.000426	4.257187	0.721187	-0.000043
1711	1.7015e+02	2.9822	-0.549098	0.000344	3.438497	0.582497	-0.000034
1712	1.7024e+02	2.9717	-0.590239	0.000413	4.134384	0.700384	-0.000041
1713	1.7034e+02	2.9594	-0.629752	0.000397	3.970646	0.672646	-0.000040
1714	1.7044e+02	2.9504	-0.670893	0.000413	4.134384	0.700384	-0.000041
1715	1.7054e+02	2.9438	-0.711220	0.000405	4.052515	0.686515	-0.000041
1716	1.7064e+02	2.9295	-0.749103	0.000381	3.806908	0.644908	-0.000038
1717	1.7074e+02	2.9198	-0.789023	0.000401	4.011580	0.679580	-0.000040
1718	1.7084e+02	2.9102	-0.824054	0.000352	3.520366	0.596366	-0.000035
1719	1.7094e+02	2.9005	-0.865603	0.000418	4.175318	0.707318	-0.000042
1720	1.7104e+02	2.8942	-0.907967	0.000426	4.257187	0.721187	-0.000043
1721	1.7114e+02	2.8815	-0.943813	0.000360	3.602235	0.610235	-0.000036
1722	1.7124e+02	2.8722	-0.985769	0.000422	4.216253	0.714253	-0.000042
1723	1.7134e+02	2.8606	-1.026503	0.000409	4.093449	0.693449	-0.000041
1724	1.7144e+02	2.8509	-1.064793	0.000385	3.847842	0.651842	-0.000038
1725	1.7154e+02	2.8419	-1.101862	0.000373	3.725039	0.631039	-0.000037
1726	1.7164e+02	2.8326	-1.144633	0.000430	4.298122	0.728122	-0.000043
1727	1.7174e+02	2.8222	-1.188626	0.000442	4.420925	0.748925	-0.000044
1728	1.7184e+02	2.8114	-1.224064	0.000356	3.561301	0.603301	-0.000036
1729	1.7194e+02	2.8004	-1.260725	0.000368	3.684104	0.624104	-0.000037
1730	1.7204e+02	2.7898	-1.305126	0.000446	4.461860	0.755859	-0.000045
1731	1.7213e+02	2.7818	-1.344638	0.000397	3.970646	0.672646	-0.000040
1732	1.7223e+02	2.7740	-1.389038	0.000446	4.461860	0.755859	-0.000045
1733	1.7233e+02	2.7656	-1.427328	0.000385	3.847842	0.651842	-0.000038
1734	1.7243e+02	2.7563	-1.468063	0.000409	4.093449	0.693449	-0.000041
1735	1.7253e+02	2.7431	-1.508797	0.000409	4.093449	0.693449	-0.000041
1736	1.7263e+02	2.7299	-1.547087	0.000385	3.847842	0.651842	-0.000038
1737	1.7273e+02	2.7242	-1.591080	0.000442	4.420925	0.748925	-0.000044
1738	1.7283e+02	2.7115	-1.628963	0.000381	3.806908	0.644908	-0.000038
1739	1.7293e+02	2.7001	-1.663994	0.000352	3.520366	0.596366	-0.000035
1740	1.7303e+02	2.6936	-1.705136	0.000413	4.134384	0.700384	-0.000041
1741	1.7313e+02	2.6819	-1.743426	0.000385	3.847842	0.651842	-0.000038
1742	1.7323e+02	2.6740	-1.787012	0.000438	4.379991	0.741990	-0.000044
1743	1.7333e+02	2.6634	-1.826117	0.000393	3.929711	0.665711	-0.000039
1744	1.7343e+02	2.6537	-1.867666	0.000418	4.175318	0.707318	-0.000042
1745	1.7353e+02	2.6420	-1.908807	0.000413	4.134384	0.700384	-0.000041
1746	1.7363e+02	2.6330	-1.943839	0.000352	3.520366	0.596366	-0.000035
1747	1.7373e+02	2.6205	-1.987424	0.000438	4.379991	0.741990	-0.000044
1748	1.7383e+02	2.6117	-2.028973	0.000418	4.175318	0.707318	-0.000042
1749	1.7393e+02	2.6038	-2.070115	0.000413	4.134384	0.700384	-0.000041
1750	1.7403e+02	2.5931	-2.107590	0.000377	3.765973	0.637973	-0.000038
1751	1.7413e+02	2.5831	-2.147510	0.000401	4.011580	0.679580	-0.000040
1752	1.7422e+02	2.5710	-2.188244	0.000409	4.093449	0.693449	-0.000041
1753	1.7432e+02	2.5617	-2.229386	0.000413	4.134384	0.700384	-0.000041
1754	1.7442e+02	2.5538	-2.269713	0.000405	4.052515	0.686515	-0.000041
1755	1.7452e+02	2.5419	-2.310040	0.000405	4.052515	0.686515	-0.000041
1756	1.7462e+02	2.5318	-2.351181	0.000413	4.134384	0.700384	-0.000041
1757	1.7472e+02	2.5224	-2.391508	0.000405	4.052515	0.686515	-0.000041
1758	1.7482e+02	2.5146	-2.433464	0.000422	4.216253	0.714253	-0.000042
1759	1.7492e+02	2.5037	-2.477865	0.000446	4.461860	0.755859	-0.000045
1760	1.7502e+02	2.4931	-2.517377	0.000397	3.970646	0.672646	-0.000040
1761	1.7512e+02	2.4812	-2.560963	0.000438	4.379991	0.741990	-0.000044
1762	1.7522e+02	2.4747	-2.605770	0.000450	4.502794	0.762794	-0.000045
1763	1.7532e+02	2.4643	-2.646505	0.000409	4.093449	0.693449	-0.000041
1764	1.7542e+02	2.4532	-2.687239	0.000409	4.093449	0.693449	-0.000041
1765	1.7552e+02	2.4448	-2.732454	0.000454	4.543729	0.769728	-0.000045
1766	1.7562e+02	2.4319	-2.769522	0.000373	3.725039	0.631039	-0.000037
1767	1.7572e+02	2.4233	-2.813108	0.000438	4.379991	0.741990	-0.000044
1768	1.7582e+02	2.4155	-2.852620	0.000397	3.970646	0.672646	-0.000040
1769	1.7592e+02	2.4008	-2.894984	0.000426	4.257187	0.721187	-0.000043
1770	1.7602e+02	2.3941	-2.937347	0.000426	4.257187	0.721187	-0.000043
1771	1.7612e+02	2.3866	-2.975230	0.000381	3.806908	0.644908	-0.000038
1772	1.7621e+02	2.3739	-3.018001	0.000430	4.298122	0.728122	-0.000043
1773	1.7631e+02	2.3643	-3.059957	0.000422	4.216253	0.714253	-0.000042
1774	1.7641e+02	2.3562	-3.100692	0.000409	4.093449	0.693449	-0.000041
1775	1.7651e+02	2.3421	-3.144277	0.000438	4.379991	0.741990	-0.000044
1776	1.7661e+02	2.3347	-3.185826	0.000418	4.175318	0.707318	-0.000042
1777	1.7671e+02	2.3248	-3.223709	0.000381	3.806908	0.644908	-0.000038
1778	1.7681e+02	2.3124	-3.267295	0.000438	4.379991	0.741990	-0.000044
1779	1.7691e+02	2.3044	-3.306399	0.000393	3.929711	0.665711	-0.000039
1780	1.7701e+02	2.2964	-3.345912	0.000397	3.970646	0.672646	-0.000040
1781	1.7711e+02	2.2852	-3.387461	0.000418	4.175318	0.707318	-0.000042
1782	1.7721e+02	2.2759	-3.424529	0.000373	3.725039	0.631039	-0.000037
1783	1.7731e+02	2.2639	-3.462819	0.000385	3.847842	0.651842	-0.000038
1784	1.7741e+02	2.2546	-3.501517	0.000389	3.888777	0.658777	-0.000039
1785	1.7751e+02	2.2453	-3.541029	0.000397	3.970646	0.672646	-0.000040
1786	1.7761e+02	2.2349	-3.585022	0.000442	4.420925	0.748925	-0.000044
1787	1.7771e+02	2.2251	-3.624534	0.000397	3.970646	0.672646	-0.000040
1788	1.7781e+02	2.2149	-3.669342	0.000450	4.502794	0.762794	-0.000045
1789	1.7791e+02	2.2032	-3.703966	0.000348	3.479432	0.589432	-0.000035
1790	1.7801e+02	2.1962	-3.747144	0.000434	4.339056	0.735056	-0.000043
1791	1.7810e+02	2.1856	-3.786249	0.000393	3.929711	0.665711	-0.000039
1792	1.7820e+02	2.1755	-3.829835	0.000438	4.379991	0.741990	-0.000044
1793	1.7830e+02	2.1647	-3.873828	0.000442	4.420925	0.748925	-0.000044
1794	1.7840e+02	2.1548	-3.912525	0.000389	3.888777	0.658777	-0.000039
1795	1.7850e+02	2.1441	-3.953259	0.000409	4.093449	0.693449	-0.000041
1796	1.7860e+02	2.1333	-3.997660	0.000446	4.461860	0.755859	-0.000045
1797	1.7870e+02	2.1233	-4.039209	0.000418	4.175318	0.707318	-0.000042
1798	1.7880e+02	2.1143	-4.084424	0.000454	4.543729	0.769728	-0.000045
1799	1.7890e+02	2.1067	-4.122714	0.000385	3.847842	0.651842	-0.000038
1800	1.7900e+02	2.0959	-4.166300	0.000438	4.379991	0.741990	-0.000044
1801	1.7910e+02	2.0889	-4.205405	0.000393	3.929711	0.665711	-0.000039
1802	1.7920e+02	2.0756	-4.246546	0.000413	4.134384	0.700384	-0.000041
1803	1.7930e+02	2.0650	-4.289317	0.000430	4.298122	0.728122	-0.000043
1804	1.7940e+02	2.0561	-4.332903	0.000438	4.379991	0.741990	-0.000044
1805	1.7950e+02	2.0454	-4.371600	0.000389	3.888777	0.658777	-0.000039
1806	1.7960e+02	2.0347	-4.412742	0.000413	4.134384	0.700384	-0.000041
1807	1.7970e+02	2.0256	-4.460808	0.000483	4.830270	0.818270	-0.000048
1808	1.7980e+02	2.0149	-4.502765	0.000422	4.216253	0.714253	-0.000042
1809	1.7990e+02	2.0049	-4.543906	0.000413	4.134384	0.700384	-0.000041
1810	1.8000e+02	1.9984	-4.587492	0.000438	4.379991	0.741990	-0.000044
1811	1.8009e+02	1.9843	-4.627411	0.000401	4.011580	0.679580	-0.000040
1812	1.8019e+02	1.9765	-4.669775	0.000426	4.257187	0.721187	-0.000043
1813	1.8029e+02	1.9637	-4.715397	0.000458	4.584663	0.776663	-0.000046
1814	1.8039e+02	1.9558	-4.754095	0.000389	3.888777	0.658777	-0.000039
1815	1.8049e+02	1.9447	-4.797273	0.000434	4.339056	0.735056	-0.000043
1816	1.8059e+02	1.9366	-4.837600	0.000405	4.052515	0.686515	-0.000041
1817	1.8069e+02	1.9279	-4.878334	0.000409	4.093449	0.693449	-0.000041
1818	1.8079e+02	1.9137	-4.921513	0.000434	4.339056	0.735056	-0.000043
1819	1.8089e+02	1.9061	-4.963062	0.000418	4.175318	0.707318	-0.000042
1820	1.8099e+02	1.8959	-5.006647	0.000438	4.379991	0.741990	-0.000044
1821	1.8109e+02	1.8853	-5.049418	0.000430	4.298122	0.728122	-0.000043
1822	1.8119e+02	1.8767	-5.092189	0.000430	4.298122	0.728122	-0.000043
1823	1.8129e+02	1.8665	-5.138219	0.000463	4.625597	0.783597	-0.000046
1824	1.8139e+02	1.8555	-5.178546	0.000405	4.052515	0.686515	-0.000041
1825	1.8149e+02	1.8496	-5.225798	0.000475	4.748401	0.804401	-0.000047
1826	1.8159e+02	1.8369	-5.266125	0.000405	4.052515	0.686515	-0.000041
1827	1.8169e+02	1.8269	-5.308895	0.000430	4.298122	0.728122	-0.000043
1828	1.8179e+02	1.8156	-5.353703	0.000450	4.502794	0.762794	-0.000045
1829	1.8189e+02	1.8063	-5.396881	0.000434	4.339056	0.735056	-0.000043
1830	1.8199e+02	1.7929	-5.439652	0.000430	4.298122	0.728122	-0.000043
1831	1.8209e+02	1.7884	-5.481201	0.000418	4.175318	0.707318	-0.000042
1832	1.8218e+02	1.7757	-5.522750	0.000418	4.175318	0.707318	-0.000042
1833	1.8228e+02	1.7673	-5.567151	0.000446	4.461860	0.755859	-0.000045
1834	1.8238e+02	1.7592	-5.610736	0.000438	4.379991	0.741990	-0.000044
1835	1.8248e+02	1.7480	-5.653915	0.000434	4.339056	0.735056	-0.000043
1836	1.8258e+02	1.7397	-5.699944	0.000463	4.625597	0.783597	-0.000046
1837	1.8268e+02	1.7269	-5.744345	0.000446	4.461860	0.755859	-0.000045
1838	1.8278e+02	1.7172	-5.786301	0.000422	4.216253	0.714253	-0.000042
1839	1.8288e+02	1.7078	-5.829887	0.000438	4.379991	0.741990	-0.000044
1840	1.8298e+02	1.6975	-5.872658	0.000430	4.298122	0.728122	-0.000043
1841	1.8308e+02	1.6859	-5.919909	0.000475	4.748401	0.804401	-0.000047
1842	1.8318e+02	1.6782	-5.960236	0.000405	4.052515	0.686515	-0.000041
1843	1.8328e+02	1.6672	-6.002192	0.000422	4.216253	0.714253	-0.000042
1844	1.8338e+02	1.6591	-6.040075	0.000381	3.806908	0.644908	-0.000038
1845	1.8348e+02	1.6492	-6.086920	0.000471	4.707466	0.797466	-0.000047
1846	1.8358e+02	1.6376	-6.123581	0.000368	3.684104	0.624104	-0.000037
1847	1.8368e+02	1.6273	-6.167166	0.000438	4.379991	0.741990	-0.000044
1848	1.8378e+02	1.6180	-6.214825	0.000479	4.789335	0.811335	-0.000048
1849	1.8388e+02	1.6061	-6.255152	0.000405	4.052515	0.686515	-0.000041
1850	1.8398e+02	1.6002	-6.297923	0.000430	4.298122	0.728122	-0.000043
1851	1.8407e+02	1.5887	-6.341101	0.000434	4.339056	0.735056	-0.000043
1852	1.8417e+02	1.5783	-6.382243	0.000413	4.134384	0.700384	-0.000041
1853	1.8427e+02	1.5702	-6.429087	0.000471	4.707466	0.797466	-0.000047
1854	1.8437e+02	1.5563	-6.473488	0.000446	4.461860	0.755859	-0.000045
1855	1.8447e+02	1.5493	-6.514629	0.000413	4.134384	0.700384	-0.000041
1856	1.8457e+02	1.5375	-6.563511	0.000491	4.912139	0.832139	-0.000049
1857	1.8467e+02	1.5293	-6.607504	0.000442	4.420925	0.748925	-0.000044
1858	1.8477e+02	1.5132	-6.651497	0.000442	4.420925	0.748925	-0.000044
1859	1.8487e+02	1.5103	-6.693860	0.000426	4.257187	0.721187	-0.000043
1860	1.8497e+02	1.4971	-6.737853	0.000442	4.420925	0.748925	-0.000044
1861	1.8507e+02	1.4871	-6.781439	0.000438	4.379991	0.741990	-0.000044
1862	1.8517e+02	1.4774	-6.827469	0.000463	4.625597	0.783597	-0.000046
1863	1.8527e+02	1.4659	-6.874313	0.000471	4.707466	0.797466	-0.000047
1864	1.8537e+02	1.4574	-6.919935	0.000458	4.584663	0.776663	-0.000046
1865	1.8547e+02	1.4483	-6.970038	0.000503	5.034942	0.852942	-0.000050
1866	1.8557e+02	1.4388	-7.016068	0.000463	4.625597	0.783597	-0.000046
1867	1.8567e+02	1.4294	-7.061283	0.000454	4.543729	0.769728	-0.000045
1868	1.8577e+02	1.4161	-7.109757	0.000487	4.871204	0.825204	-0.000049
1869	1.8587e+02	1.4104	-7.155787	0.000463	4.625597	0.783597	-0.000046
1870	1.8597e+02	1.3997	-7.204260	0.000487	4.871204	0.825204	-0.000049
1871	1.8606e+02	1.3911	-7.247031	0.000430	4.298122	0.728122	-0.000043
1872	1.8616e+02	1.3796	-7.291839	0.000450	4.502794	0.762794	-0.000045
1873	1.8626e+02	1.3684	-7.340720	0.000491	4.912139	0.832139	-0.000049
1874	1.8636e+02	1.3595	-7.383491	0.000430	4.298122	0.728122	-0.000043
1875	1.8646e+02	1.3485	-7.427484	0.000442	4.420925	0.748925	-0.000044
1876	1.8656e+02	1.3377	-7.473514	0.000463	4.625597	0.783597	-0.000046
1877	1.8666e+02	1.3277	-7.519136	0.000458	4.584663	0.776663	-0.000046
1878	1.8676e+02	1.3196	-7.567203	0.000483	4.830270	0.818270	-0.000048
1879	1.8686e+02	1.3078	-7.611603	0.000446	4.461860	0.755859	-0.000045
1880	1.8696e+02	1.3002	-7.653559	0.000422	4.216253	0.714253	-0.000042
1881	1.8706e+02	1.2917	-7.701218	0.000479	4.789335	0.811335	-0.000048
1882	1.8716e+02	1.2799	-7.744397	0.000434	4.339056	0.735056	-0.000043
1883	1.8726e+02	1.2719	-7.793278	0.000491	4.912139	0.832139	-0.000049
1884	1.8736e+02	1.2603	-7.833605	0.000405	4.052515	0.686515	-0.000041
1885	1.8746e+02	1.2511	-7.876783	0.000434	4.339056	0.735056	-0.000043
1886	1.8756e+02	1.2402	-7.925257	0.000487	4.871204	0.825204	-0.000049
1887	1.8766e+02	1.2315	-7.971694	0.000467	4.666532	0.790532	-0.000047
1888	1.8776e+02	1.2212	-8.016909	0.000454	4.543729	0.769728	-0.000045
1889	1.8786e+02	1.2091	-8.064568	0.000479	4.789335	0.811335	-0.000048
1890	1.8796e+02	1.1977	-8.104895	0.000405	4.052515	0.686515	-0.000041
1891	1.8806e+02	1.1904	-8.150924	0.000463	4.625597	0.783597	-0.000046
1892	1.8815e+02	1.1802	-8.198584	0.000479	4.789335	0.811335	-0.000048
1893	1.8825e+02	1.1727	-8.242577	0.000442	4.420925	0.748925	-0.000044
1894	1.8835e+02	1.1600	-8.290236	0.000479	4.789335	0.811335	-0.000048
1895	1.8845e+02	1.1500	-8.337080	0.000471	4.707466	0.797466	-0.000047
1896	1.8855e+02	1.1401	-8.383110	0.000463	4.625597	0.783597	-0.000046
1897	1.8865e+02	1.1331	-8.429954	0.000471	4.707466	0.797466	-0.000047
1898	1.8875e+02	1.1222	-8.477206	0.000475	4.748401	0.804401	-0.000047
1899	1.8885e+02	1.1098	-8.519569	0.000426	4.257187	0.721187	-0.000043
1900	1.8895e+02	1.1017	-8.568451	0.000491	4.912139	0.832139	-0.000049
1901	1.8905e+02	1.0914	-8.614073	0.000458	4.584663	0.776663	-0.000046
1902	1.8915e+02	1.0819	-8.659695	0.000458	4.584663	0.776663	-0.000046
1903	1.8925e+02	1.0706	-8.707762	0.000483	4.830270	0.818270	-0.000048
1904	1.8935e+02	1.0589	-8.751755	0.000442	4.420925	0.748925	-0.000044
1905	1.8945e+02	1.0485	-8.799006	0.000475	4.748401	0.804401	-0.000047
1906	1.8955e+02	1.0400	-8.842999	0.000442	4.420925	0.748925	-0.000044
1907	1.8965e+02	1.0308	-8.889437	0.000467	4.666532	0.790532	-0.000047
1908	1.8975e+02	1.0191	-8.935874	0.000467	4.666532	0.790532	-0.000047
1909	1.8985e+02	1.0114	-8.976608	0.000409	4.093449	0.693449	-0.000041
1910	1.8995e+02	1.0006	-9.026711	0.000503	5.034942	0.852942	-0.000050
1911	1.9004e+02	0.9917	-9.076407	0.000499	4.994008	0.846008	-0.000050
1912	1.9014e+02	0.9809	-9.119585	0.000434	4.339056	0.735056	-0.000043
1913	1.9024e+02	0.9708	-9.163985	0.000446	4.461860	0.755859	-0.000045
1914	1.9034e+02	0.9611	-9.210422	0.000467	4.666532	0.790532	-0.000047
1915	1.9044e+02	0.9497	-9.259304	0.000491	4.912139	0.832139	-0.000049
1916	1.9054e+02	0.9418	-9.304926	0.000458	4.584663	0.776663	-0.000046
1917	1.9064e+02	0.9322	-9.349326	0.000446	4.461860	0.755859	-0.000045
1918	1.9074e+02	0.9234	-9.399022	0.000499	4.994008	0.846008	-0.000050
1919	1.9084e+02	0.9116	-9.445052	0.000463	4.625597	0.783597	-0.000046
1920	1.9094e+02	0.9023	-9.489045	0.000442	4.420925	0.748925	-0.000044
1921	1.9104e+02	0.8913	-9.538333	0.000495	4.953073	0.839073	-0.000050
1922	1.9114e+02	0.8832	-9.582734	0.000446	4.461860	0.755859	-0.000045
1923	1.9124e+02	0.8725	-9.631615	0.000491	4.912139	0.832139	-0.000049
1924	1.9134e+02	0.8621	-9.673164	0.000418	4.175318	0.707318	-0.000042
1925	1.9144e+02	0.8520	-9.723674	0.000508	5.075877	0.859877	-0.000051
1926	1.9154e+02	0.8424	-9.767667	0.000442	4.420925	0.748925	-0.000044
1927	1.9164e+02	0.8309	-9.822658	0.000553	5.526156	0.936156	-0.000055
1928	1.9174e+02	0.8234	-9.867059	0.000446	4.461860	0.755859	-0.000045
1929	1.9184e+02	0.8121	-9.917569	0.000508	5.075877	0.859877	-0.000051
1930	1.9194e+02	0.8025	-9.964821	0.000475	4.748401	0.804401	-0.000047
1931	1.9203e+02	0.7909	-10.013702	0.000491	4.912139	0.832139	-0.000049
1932	1.9213e+02	0.7809	-10.065027	0.000516	5.157746	0.873746	-0.000052
1933	1.9223e+02	0.7707	-10.111464	0.000467	4.666532	0.790532	-0.000047
1934	1.9233e+02	0.7635	-10.155050	0.000438	4.379991	0.741990	-0.000044
1935	1.9243e+02	0.7545	-10.205968	0.000512	5.116811	0.866811	-0.000051
1936	1.9253e+02	0.7418	-10.249146	0.000434	4.339056	0.735056	-0.000043
1937	1.9263e+02	0.7330	-10.301286	0.000524	5.239615	0.887615	-0.000052
1938	1.9273e+02	0.7214	-10.347315	0.000463	4.625597	0.783597	-0.000046
1939	1.9283e+02	0.7132	-10.395789	0.000487	4.871204	0.825204	-0.000049
1940	1.9293e+02	0.7026	-10.438968	0.000434	4.339056	0.735056	-0.000043
1941	1.9303e+02	0.6921	-10.489478	0.000508	5.075877	0.859877	-0.000051
1942	1.9313e+02	0.6841	-10.537544	0.000483	4.830270	0.818270	-0.000048
1943	1.9323e+02	0.6703	-10.584796	0.000475	4.748401	0.804401	-0.000047
1944	1.9333e+02	0.6634	-10.630011	0.000454	4.543729	0.769728	-0.000045
1945	1.9343e+02	0.6523	-10.678892	0.000491	4.912139	0.832139	-0.000049
1946	1.9353e+02	0.6427	-10.724107	0.000454	4.543729	0.769728	-0.000045
1947	1.9363e+02	0.6296	-10.769322	0.000454	4.543729	0.769728	-0.000045
1948	1.9373e+02	0.6236	-10.812093	0.000430	4.298122	0.728122	-0.000043
1949	1.9383e+02	0.6132	-10.861789	0.000499	4.994008	0.846008	-0.000050
1950	1.9393e+02	0.6022	-10.902523	0.000409	4.093449	0.693449	-0.000041
1951	1.9403e+02	0.5932	-10.951812	0.000495	4.953073	0.839073	-0.000050
1952	1.9412e+02	0.5833	-10.994990	0.000434	4.339056	0.735056	-0.000043
1953	1.9422e+02	0.5714	-11.040613	0.000458	4.584663	0.776663	-0.000046
1954	1.9432e+02	0.5624	-11.086642	0.000463	4.625597	0.783597	-0.000046
1955	1.9442e+02	0.5532	-11.133079	0.000467	4.666532	0.790532	-0.000047
1956	1.9452e+02	0.5456	-11.183182	0.000503	5.034942	0.852942	-0.000050
1957	1.9462e+02	0.5349	-11.227990	0.000450	4.502794	0.762794	-0.000045
1958	1.9472e+02	0.5224	-11.276057	0.000483	4.830270	0.818270	-0.000048
1959	1.9482e+02	0.5141	-11.322901	0.000471	4.707466	0.797466	-0.000047
1960	1.9492e+02	0.5061	-11.369338	0.000467	4.666532	0.790532	-0.000047
1961	1.9502e+02	0.4939	-11.417812	0.000487	4.871204	0.825204	-0.000049
1962	1.9512e+02	0.4831	-11.466285	0.000487	4.871204	0.825204	-0.000049
1963	1.9522e+02	0.4753	-11.516389	0.000503	5.034942	0.852942	-0.000050
1964	1.9532e+02	0.4659	-11.565270	0.000491	4.912139	0.832139	-0.000049
1965	1.9542e+02	0.4520	-11.612929	0.000479	4.789335	0.811335	-0.000048
1966	1.9552e+02	0.4453	-11.656514	0.000438	4.379991	0.741990	-0.000044
1967	1.9562e+02	0.4323	-11.704174	0.000479	4.789335	0.811335	-0.000048
1968	1.9572e+02	0.4252	-11.753055	0.000491	4.912139	0.832139	-0.000049
1969	1.9582e+02	0.4173	-11.801121	0.000483	4.830270	0.818270	-0.000048
1970	1.9592e+02	0.4029	-11.848373	0.000475	4.748401	0.804401	-0.000047
1971	1.9601e+02	0.3930	-11.896032	0.000479	4.789335	0.811335	-0.000048
1972	1.9611e+02	0.3820	-11.945728	0.000499	4.994008	0.846008	-0.000050
1973	1.9621e+02	0.3740	-11.991350	0.000458	4.584663	0.776663	-0.000046
1974	1.9631e+02	0.3654	-12.041046	0.000499	4.994008	0.846008	-0.000050
1975	1.9641e+02	0.3558	-12.086261	0.000454	4.543729	0.769728	-0.000045
1976	1.9651e+02	0.3466	-12.138808	0.000528	5.280549	0.894549	-0.000053
1977	1.9661e+02	0.3374	-12.184023	0.000454	4.543729	0.769728	-0.000045
1978	1.9671e+02	0.3285	-12.234534	0.000508	5.075877	0.859877	-0.000051
1979	1.9681e+02	0.3159	-12.280156	0.000458	4.584663	0.776663	-0.000046
1980	1.9691e+02	0.3026	-12.328222	0.000483	4.830270	0.818270	-0.000048
1981	1.9701e+02	0.2961	-12.376289	0.000483	4.830270	0.818270	-0.000048
1982	1.9711e+02	0.2850	-12.422726	0.000467	4.666532	0.790532	-0.000047
1983	1.9721e+02	0.2763	-12.472829	0.000503	5.034942	0.852942	-0.000050
1984	1.9731e+02	0.2656	-12.520488	0.000479	4.789335	0.811335	-0.000048
1985	1.9741e+02	0.2544	-12.569369	0.000491	4.912139	0.832139	-0.000049
1986	1.9751e+02	0.2472	-12.617028	0.000479	4.789335	0.811335	-0.000048
1987	1.9761e+02	0.2347	-12.664687	0.000479	4.789335	0.811335	-0.000048
1988	1.9771e+02	0.2232	-12.713976	0.000495	4.953073	0.839073	-0.000050
1989	1.9781e+02	0.2173	-12.763672	0.000499	4.994008	0.846008	-0.000050
1990	1.9791e+02	0.2048	-12.812553	0.000491	4.912139	0.832139	-0.000049
1991	1.9800e+02	0.1971	-12.863063	0.000508	5.075877	0.859877	-0.000051
1992	1.9810e+02	0.1836	-12.911130	0.000483	4.830270	0.818270	-0.000048
1993	1.9820e+02	0.1731	-12.961233	0.000503	5.034942	0.852942	-0.000050
1994	1.9830e+02	0.1661	-13.007262	0.000463	4.625597	0.783597	-0.000046
1995	1.9840e+02	0.1562	-13.058588	0.000516	5.157746	0.873746	-0.000052
1996	1.9850e+02	0.1470	-13.105839	0.000475	4.748401	0.804401	-0.000047
1997	1.9860e+02	0.1347	-13.155535	0.000499	4.994008	0.846008	-0.000050
1998	1.9870e+02	0.1244	-13.202787	0.000475	4.748401	0.804401	-0.000047
1999	1.9880e+02	0.1174	-13.251668	0.000491	4.912139	0.832139	-0.000049
2000	1.9890e+02	0.1040	-13.300956	0.000495	4.953073	0.839073	-0.000050
2001	1.9900e+02	0.0980	-13.350245	0.000495	4.953073	0.839073	-0.000050
2002	1.9910e+02	0.0845	-13.404421	0.000544	5.444287	0.922287	-0.000054
2003	1.9920e+02	0.0761	-13.450451	0.000463	4.625597	0.783597	-0.000046
2004	1.9930e+02	0.0660	-13.499332	0.000491	4.912139	0.832139	-0.000049
2005	1.9940e+02	0.0538	-13.551472	0.000524	5.239615	0.887615	-0.000052
2006	1.9950e+02	0.0443	-13.599538	0.000483	4.830270	0.818270	-0.000048
2007	1.9960e+02	0.0385	-13.647198	0.000479	4.789335	0.811335	-0.000048
2008	1.9970e+02	0.0248	-13.698930	0.000520	5.198680	0.880680	-0.000052
2009	1.9980e+02	0.0154	-13.743330	0.000446	4.461860	0.755859	-0.000045
2010	1.9990e+02	0.0056	-13.795878	0.000528	5.280549	0.894549	-0.000053
2011	2.0000e+02	-0.0057	-13.841500	0.000528	5.280549	0.894549	-0.000046

PMax (uC/cm2):	3.81e+01
Pr (uC/cm2):	5.24e+00
-Pr (uC/cm2):	0.00e+00
PLoss (uC/cm2):	0.00e+00
C (Max-Eff) (nF):	3.81e-01
K (Eff):	6.45e+02
Vert. (+/-Pr) Shift (uC/cm2):	2.62e+00
Offset (uC/cm2):	1.91e+01

A (Loop Area - uC/cm2·Volts):	-5.03e-02



Hysteresis Version: 5.48.1 - Radiant Technologies, Inc., 1999 - 9/12/24

