»»»»»»»»»»»»»»»»»»»»»»»»»»»»»»»»»»»» Hysteresis ««««««««««««««««««««««««««««««««««««
»»»  Executed Version:	5.48.1
»»»  Vision Version:	5.48.4 (R)
»»»  Vision Compiled:	9/18/24
»»»  Driver Version:	5.47.0
»»»  Windows Version:	Windows 8 or 8.1
»»»  Processor Information:	x86 (AMD or Intel) - 32 Processors
»»»  Tester Name:	PMF21124-494 (100V)
»»»  Tester S/N:	PMF21124-494
»»»  Internal Amp Type:	100V RevK 270k
»»»  Internal Amp S/N:	iAB2-596/K     
»»»  Execution Count:	1
»»»»»»»»»»»»»»»»»»»»»»»»»»»»»»»»»»»»»»»»»»««««««««««««««««««««««««««««««««««««««««««

Stored:	6/30/2025 - 15:34:27
Configured:	06/30/25 10:19:58 AM
Executed:	06/30/25 03:33:40 PM

»»»»»»»»»»»»»»»»»»»»»»»»»»»»»»»»»»» Sample Info ««««««««««««««««««««««««««««««««««««
Sample Name:	
Lot Name:	
Wafer Name:	
Die Row/Column:	0/0
Capacitor Number:	0
Sample Area (cm2):	1.00e-04
Sample Thickness (microns):	1.50e-01

Amplifier:	Internal

»»»»»»»»»»»»»»»»»»»»»»»»»»»»»»»»»»» Tester Info «««««««««««««««««««««««««««««««««««
Tester Name:	PMF21124-494 (100V)
Tester Serial Number:	PMF21124-494
Return Signal Amp. Level:	0.19 [Index: 3]

»»»»»»»»»»»»»»»»»»»»»»»»»»»»»»»» Hysteresis Info ««««««««««««««««««««««««««««««««««
Task Name:	Hyst-1804
Volts:	10.00
Field:	666.67 (kV/cm)
DCBias:	0.00
DCField:	0.00 (kV/cm)
Hysteresis Period (ms):	2.00e+02
Preset:	Enabled
Preset Delay (ms):	1.00e+03
Profile:	Standard Monopolar

»»»»»»»»»»»»»»»»»»»»»»»»»»»»»»»»»»»»»» Data «««««««««««««««««««««««««««««««««««««««
Points:	2011

Valid Data

Point	Time (ms)	Drive Voltage	Measured Polarization (uC/cm2)	Capacitance (uF)	Normalized Capacitance (uF/cm2)	Dielectric Constant	Instantaneous Current (mA)
   1	0.0000e+00	-0.0008	-25.008037	0.000284	2.840461	0.481187	0.000028
   2	9.9500e-02	0.0094	-24.979777	0.000284	2.840461	0.481187	0.000028
   3	1.9900e-01	0.0195	-24.927295	0.000528	5.275142	0.893633	0.000053
   4	2.9850e-01	0.0283	-24.842515	0.000852	8.521383	1.443561	0.000085
   5	3.9800e-01	0.0378	-24.810218	0.000325	3.246241	0.549928	0.000032
   6	4.9750e-01	0.0489	-24.765809	0.000446	4.463581	0.756151	0.000045
   7	5.9700e-01	0.0589	-24.685066	0.000812	8.115603	1.374820	0.000081
   8	6.9650e-01	0.0690	-24.624509	0.000609	6.086702	1.031115	0.000061
   9	7.9600e-01	0.0785	-24.612398	0.000122	1.217340	0.206223	0.000012
  10	8.9550e-01	0.0889	-24.519544	0.000933	9.332943	1.581043	0.000093
  11	9.9500e-01	0.0990	-24.442838	0.000771	7.709822	1.306079	0.000077
  12	1.0945e+00	0.1084	-24.402467	0.000406	4.057801	0.687410	0.000041
  13	1.1940e+00	0.1189	-24.406504	-0.000041	-0.405780	-0.068741	-0.000004
  14	1.2935e+00	0.1279	-24.277316	0.001298	12.984964	2.199712	0.000130
  15	1.3930e+00	0.1380	-24.277316	0.000000	0.000000	0.000000	0.000000
  16	1.4925e+00	0.1489	-24.249056	0.000284	2.840461	0.481187	0.000028
  17	1.5920e+00	0.1588	-24.152165	0.000974	9.738723	1.649784	0.000097
  18	1.6915e+00	0.1680	-24.067385	0.000852	8.521383	1.443561	0.000085
  19	1.7910e+00	0.1781	-24.059310	0.000081	0.811560	0.137482	0.000008
  20	1.8905e+00	0.1883	-24.010865	0.000487	4.869362	0.824892	0.000049
  21	1.9900e+00	0.1987	-23.938196	0.000730	7.304042	1.237338	0.000073
  22	2.0895e+00	0.2077	-23.865528	0.000730	7.304042	1.237338	0.000073
  23	2.1890e+00	0.2179	-23.833231	0.000325	3.246241	0.549928	0.000032
  24	2.2885e+00	0.2275	-23.772674	0.000609	6.086702	1.031115	0.000061
  25	2.3880e+00	0.2389	-23.748451	0.000243	2.434681	0.412446	0.000024
  26	2.4875e+00	0.2475	-23.667708	0.000812	8.115603	1.374820	0.000081
  27	2.5870e+00	0.2576	-23.627337	0.000406	4.057801	0.687410	0.000041
  28	2.6865e+00	0.2689	-23.550631	0.000771	7.709822	1.306079	0.000077
  29	2.7860e+00	0.2781	-23.554668	-0.000041	-0.405780	-0.068741	-0.000004
  30	2.8855e+00	0.2876	-23.490074	0.000649	6.492482	1.099856	0.000065
  31	2.9850e+00	0.2979	-23.421443	0.000690	6.898262	1.168597	0.000069
  32	3.0845e+00	0.3072	-23.372997	0.000487	4.869362	0.824892	0.000049
  33	3.1840e+00	0.3178	-23.312440	0.000609	6.086702	1.031115	0.000061
  34	3.2835e+00	0.3278	-23.239772	0.000730	7.304042	1.237338	0.000073
  35	3.3830e+00	0.3383	-23.187289	0.000528	5.275142	0.893633	0.000053
  36	3.4825e+00	0.3471	-23.179215	0.000081	0.811560	0.137482	0.000008
  37	3.5820e+00	0.3572	-23.114621	0.000649	6.492482	1.099856	0.000065
  38	3.6815e+00	0.3671	-23.058101	0.000568	5.680922	0.962374	0.000057
  39	3.7810e+00	0.3766	-23.001581	0.000568	5.680922	0.962374	0.000057
  40	3.8805e+00	0.3866	-22.961210	0.000406	4.057801	0.687410	0.000041
  41	3.9800e+00	0.3977	-22.888541	0.000730	7.304042	1.237338	0.000073
  42	4.0795e+00	0.4073	-22.852207	0.000365	3.652021	0.618669	0.000037
  43	4.1790e+00	0.4160	-22.807798	0.000446	4.463581	0.756151	0.000045
  44	4.2785e+00	0.4273	-22.735130	0.000730	7.304042	1.237338	0.000073
  45	4.3780e+00	0.4371	-22.690721	0.000446	4.463581	0.756151	0.000045
  46	4.4775e+00	0.4473	-22.630164	0.000609	6.086702	1.031115	0.000061
  47	4.5770e+00	0.4571	-22.581719	0.000487	4.869362	0.824892	0.000049
  48	4.6765e+00	0.4667	-22.496939	0.000852	8.521383	1.443561	0.000085
  49	4.7760e+00	0.4766	-22.464642	0.000325	3.246241	0.549928	0.000032
  50	4.8755e+00	0.4874	-22.428308	0.000365	3.652021	0.618669	0.000037
  51	4.9750e+00	0.4961	-22.396011	0.000325	3.246241	0.549928	0.000032
  52	5.0745e+00	0.5071	-22.327379	0.000690	6.898262	1.168597	0.000069
  53	5.1740e+00	0.5166	-22.307194	0.000203	2.028901	0.343705	0.000020
  54	5.2735e+00	0.5270	-22.226451	0.000812	8.115603	1.374820	0.000081
  55	5.3730e+00	0.5368	-22.190117	0.000365	3.652021	0.618669	0.000037
  56	5.4725e+00	0.5467	-22.129560	0.000609	6.086702	1.031115	0.000061
  57	5.5720e+00	0.5561	-22.089188	0.000406	4.057801	0.687410	0.000041
  58	5.6715e+00	0.5657	-22.016520	0.000730	7.304042	1.237338	0.000073
  59	5.7710e+00	0.5765	-21.984223	0.000325	3.246241	0.549928	0.000032
  60	5.8705e+00	0.5869	-21.923666	0.000609	6.086702	1.031115	0.000061
  61	5.9700e+00	0.5965	-21.826774	0.000974	9.738723	1.649784	0.000097
  62	6.0695e+00	0.6065	-21.826774	0.000000	0.000000	0.000000	0.000000
  63	6.1690e+00	0.6165	-21.721809	0.001055	10.550283	1.787266	0.000105
  64	6.2685e+00	0.6263	-21.709697	0.000122	1.217340	0.206223	0.000012
  65	6.3680e+00	0.6353	-21.653178	0.000568	5.680922	0.962374	0.000057
  66	6.4675e+00	0.6464	-21.604732	0.000487	4.869362	0.824892	0.000049
  67	6.5670e+00	0.6568	-21.519952	0.000852	8.521383	1.443561	0.000085
  68	6.6665e+00	0.6657	-21.483618	0.000365	3.652021	0.618669	0.000037
  69	6.7660e+00	0.6760	-21.451321	0.000325	3.246241	0.549928	0.000032
  70	6.8655e+00	0.6846	-21.406912	0.000446	4.463581	0.756151	0.000045
  71	6.9650e+00	0.6952	-21.305984	0.001014	10.144503	1.718525	0.000101
  72	7.0645e+00	0.7058	-21.297910	0.000081	0.811560	0.137482	0.000008
  73	7.1640e+00	0.7154	-21.245427	0.000528	5.275142	0.893633	0.000053
  74	7.2635e+00	0.7247	-21.144498	0.001014	10.144503	1.718525	0.000101
  75	7.3630e+00	0.7351	-21.108164	0.000365	3.652021	0.618669	0.000037
  76	7.4625e+00	0.7449	-21.051644	0.000568	5.680922	0.962374	0.000057
  77	7.5620e+00	0.7546	-20.995124	0.000568	5.680922	0.962374	0.000057
  78	7.6615e+00	0.7659	-20.954753	0.000406	4.057801	0.687410	0.000041
  79	7.7610e+00	0.7753	-20.869973	0.000852	8.521383	1.443561	0.000085
  80	7.8605e+00	0.7856	-20.845750	0.000243	2.434681	0.412446	0.000024
  81	7.9600e+00	0.7952	-20.789230	0.000568	5.680922	0.962374	0.000057
  82	8.0595e+00	0.8049	-20.744822	0.000446	4.463581	0.756151	0.000045
  83	8.1590e+00	0.8151	-20.676191	0.000690	6.898262	1.168597	0.000069
  84	8.2585e+00	0.8240	-20.615634	0.000609	6.086702	1.031115	0.000061
  85	8.3580e+00	0.8350	-20.555077	0.000609	6.086702	1.031115	0.000061
  86	8.4575e+00	0.8458	-20.514705	0.000406	4.057801	0.687410	0.000041
  87	8.5570e+00	0.8544	-20.425888	0.000893	8.927163	1.512302	0.000089
  88	8.6565e+00	0.8656	-20.417814	0.000081	0.811560	0.137482	0.000008
  89	8.7560e+00	0.8741	-20.365331	0.000528	5.275142	0.893633	0.000053
  90	8.8555e+00	0.8848	-20.316886	0.000487	4.869362	0.824892	0.000049
  91	8.9550e+00	0.8954	-20.236143	0.000812	8.115603	1.374820	0.000081
  92	9.0545e+00	0.9048	-20.191734	0.000446	4.463581	0.756151	0.000045
  93	9.1540e+00	0.9150	-20.151363	0.000406	4.057801	0.687410	0.000041
  94	9.2535e+00	0.9251	-20.066583	0.000852	8.521383	1.443561	0.000085
  95	9.3530e+00	0.9350	-20.038323	0.000284	2.840461	0.481187	0.000028
  96	9.4525e+00	0.9438	-19.953543	0.000852	8.521383	1.443561	0.000085
  97	9.5520e+00	0.9542	-19.897023	0.000568	5.680922	0.962374	0.000057
  98	9.6515e+00	0.9643	-19.880875	0.000162	1.623121	0.274964	0.000016
  99	9.7510e+00	0.9743	-19.788021	0.000933	9.332943	1.581043	0.000093
 100	9.8505e+00	0.9835	-19.711315	0.000771	7.709822	1.306079	0.000077
 101	9.9500e+00	0.9944	-19.699204	0.000122	1.217340	0.206223	0.000012
 102	1.0050e+01	1.0045	-19.662870	0.000365	3.652021	0.618669	0.000037
 103	1.0149e+01	1.0141	-19.537718	0.001258	12.579184	2.130971	0.000126
 104	1.0248e+01	1.0249	-19.537718	0.000000	0.000000	0.000000	0.000000
 105	1.0348e+01	1.0339	-19.436790	0.001014	10.144503	1.718525	0.000101
 106	1.0447e+01	1.0445	-19.392382	0.000446	4.463581	0.756151	0.000045
 107	1.0547e+01	1.0539	-19.347973	0.000446	4.463581	0.756151	0.000045
 108	1.0646e+01	1.0630	-19.303565	0.000446	4.463581	0.756151	0.000045
 109	1.0746e+01	1.0742	-19.230896	0.000730	7.304042	1.237338	0.000073
 110	1.0845e+01	1.0837	-19.186488	0.000446	4.463581	0.756151	0.000045
 111	1.0945e+01	1.0941	-19.125931	0.000609	6.086702	1.031115	0.000061
 112	1.1044e+01	1.1040	-19.089596	0.000365	3.652021	0.618669	0.000037
 113	1.1144e+01	1.1143	-18.984631	0.001055	10.550283	1.787266	0.000105
 114	1.1243e+01	1.1239	-18.944259	0.000406	4.057801	0.687410	0.000041
 115	1.1343e+01	1.1343	-18.871591	0.000730	7.304042	1.237338	0.000073
 116	1.1443e+01	1.1437	-18.851405	0.000203	2.028901	0.343705	0.000020
 117	1.1542e+01	1.1538	-18.790848	0.000609	6.086702	1.031115	0.000061
 118	1.1642e+01	1.1645	-18.738366	0.000528	5.275142	0.893633	0.000053
 119	1.1741e+01	1.1732	-18.665697	0.000730	7.304042	1.237338	0.000073
 120	1.1841e+01	1.1835	-18.637437	0.000284	2.840461	0.481187	0.000028
 121	1.1940e+01	1.1939	-18.552657	0.000852	8.521383	1.443561	0.000085
 122	1.2040e+01	1.2029	-18.532472	0.000203	2.028901	0.343705	0.000020
 123	1.2139e+01	1.2139	-18.467877	0.000649	6.492482	1.099856	0.000065
 124	1.2239e+01	1.2231	-18.383098	0.000852	8.521383	1.443561	0.000085
 125	1.2338e+01	1.2337	-18.314466	0.000690	6.898262	1.168597	0.000069
 126	1.2438e+01	1.2428	-18.286206	0.000284	2.840461	0.481187	0.000028
 127	1.2537e+01	1.2527	-18.241798	0.000446	4.463581	0.756151	0.000045
 128	1.2636e+01	1.2623	-18.136832	0.001055	10.550283	1.787266	0.000105
 129	1.2736e+01	1.2714	-18.116647	0.000203	2.028901	0.343705	0.000020
 130	1.2835e+01	1.2833	-18.060127	0.000568	5.680922	0.962374	0.000057
 131	1.2935e+01	1.2934	-17.979384	0.000812	8.115603	1.374820	0.000081
 132	1.3034e+01	1.3028	-17.951124	0.000284	2.840461	0.481187	0.000028
 133	1.3134e+01	1.3120	-17.858270	0.000933	9.332943	1.581043	0.000093
 134	1.3233e+01	1.3216	-17.846159	0.000122	1.217340	0.206223	0.000012
 135	1.3333e+01	1.3328	-17.838084	0.000081	0.811560	0.137482	0.000008
 136	1.3432e+01	1.3429	-17.729082	0.001096	10.956063	1.856007	0.000110
 137	1.3532e+01	1.3521	-17.652376	0.000771	7.709822	1.306079	0.000077
 138	1.3632e+01	1.3625	-17.660450	-0.000081	-0.811560	-0.137482	-0.000008
 139	1.3731e+01	1.3715	-17.523188	0.001380	13.796524	2.337194	0.000138
 140	1.3831e+01	1.3824	-17.523188	0.000000	0.000000	0.000000	0.000000
 141	1.3930e+01	1.3920	-17.410148	0.001136	11.361844	1.924748	0.000114
 142	1.4030e+01	1.4023	-17.402074	0.000081	0.811560	0.137482	0.000008
 143	1.4129e+01	1.4108	-17.349591	0.000528	5.275142	0.893633	0.000053
 144	1.4229e+01	1.4222	-17.301145	0.000487	4.869362	0.824892	0.000049
 145	1.4328e+01	1.4321	-17.228477	0.000730	7.304042	1.237338	0.000073
 146	1.4428e+01	1.4413	-17.200217	0.000284	2.840461	0.481187	0.000028
 147	1.4527e+01	1.4520	-17.111400	0.000893	8.927163	1.512302	0.000089
 148	1.4627e+01	1.4616	-17.083140	0.000284	2.840461	0.481187	0.000028
 149	1.4726e+01	1.4719	-16.998360	0.000852	8.521383	1.443561	0.000085
 150	1.4825e+01	1.4806	-16.945877	0.000528	5.275142	0.893633	0.000053
 151	1.4925e+01	1.4913	-16.909543	0.000365	3.652021	0.618669	0.000037
 152	1.5024e+01	1.5017	-16.820726	0.000893	8.927163	1.512302	0.000089
 153	1.5124e+01	1.5112	-16.772280	0.000487	4.869362	0.824892	0.000049
 154	1.5223e+01	1.5206	-16.719798	0.000528	5.275142	0.893633	0.000053
 155	1.5323e+01	1.5315	-16.655203	0.000649	6.492482	1.099856	0.000065
 156	1.5422e+01	1.5412	-16.618869	0.000365	3.652021	0.618669	0.000037
 157	1.5522e+01	1.5509	-16.558312	0.000609	6.086702	1.031115	0.000061
 158	1.5621e+01	1.5615	-16.485644	0.000730	7.304042	1.237338	0.000073
 159	1.5721e+01	1.5710	-16.477570	0.000081	0.811560	0.137482	0.000008
 160	1.5820e+01	1.5812	-16.412975	0.000649	6.492482	1.099856	0.000065
 161	1.5920e+01	1.5911	-16.352418	0.000609	6.086702	1.031115	0.000061
 162	1.6020e+01	1.6004	-16.308010	0.000446	4.463581	0.756151	0.000045
 163	1.6119e+01	1.6122	-16.259564	0.000487	4.869362	0.824892	0.000049
 164	1.6218e+01	1.6213	-16.190933	0.000690	6.898262	1.168597	0.000069
 165	1.6318e+01	1.6309	-16.158636	0.000325	3.246241	0.549928	0.000032
 166	1.6418e+01	1.6415	-16.098079	0.000609	6.086702	1.031115	0.000061
 167	1.6517e+01	1.6505	-16.037522	0.000609	6.086702	1.031115	0.000061
 168	1.6616e+01	1.6614	-15.997150	0.000406	4.057801	0.687410	0.000041
 169	1.6716e+01	1.6704	-15.932556	0.000649	6.492482	1.099856	0.000065
 170	1.6816e+01	1.6804	-15.896222	0.000365	3.652021	0.618669	0.000037
 171	1.6915e+01	1.6901	-15.779145	0.001177	11.767624	1.993489	0.000118
 172	1.7015e+01	1.7006	-15.815479	-0.000365	-3.652021	-0.618669	-0.000037
 173	1.7114e+01	1.7105	-15.726662	0.000893	8.927163	1.512302	0.000089
 174	1.7213e+01	1.7188	-15.670142	0.000568	5.680922	0.962374	0.000057
 175	1.7313e+01	1.7305	-15.649957	0.000203	2.028901	0.343705	0.000020
 176	1.7413e+01	1.7414	-15.544991	0.001055	10.550283	1.787266	0.000105
 177	1.7512e+01	1.7509	-15.540954	0.000041	0.405780	0.068741	0.000004
 178	1.7611e+01	1.7605	-15.488471	0.000528	5.275142	0.893633	0.000053
 179	1.7711e+01	1.7705	-15.444063	0.000446	4.463581	0.756151	0.000045
 180	1.7811e+01	1.7806	-15.391580	0.000528	5.275142	0.893633	0.000053
 181	1.7910e+01	1.7904	-15.314874	0.000771	7.709822	1.306079	0.000077
 182	1.8009e+01	1.7994	-15.274503	0.000406	4.057801	0.687410	0.000041
 183	1.8109e+01	1.8099	-15.230095	0.000446	4.463581	0.756151	0.000045
 184	1.8209e+01	1.8201	-15.145315	0.000852	8.521383	1.443561	0.000085
 185	1.8308e+01	1.8301	-15.113018	0.000325	3.246241	0.549928	0.000032
 186	1.8407e+01	1.8409	-15.108980	0.000041	0.405780	0.068741	0.000004
 187	1.8507e+01	1.8502	-15.028238	0.000812	8.115603	1.374820	0.000081
 188	1.8607e+01	1.8600	-14.991904	0.000365	3.652021	0.618669	0.000037
 189	1.8706e+01	1.8693	-14.903087	0.000893	8.927163	1.512302	0.000089
 190	1.8805e+01	1.8796	-14.903087	0.000000	0.000000	0.000000	0.000000
 191	1.8905e+01	1.8896	-14.818307	0.000852	8.521383	1.443561	0.000085
 192	1.9005e+01	1.8988	-14.806195	0.000122	1.217340	0.206223	0.000012
 193	1.9104e+01	1.9091	-14.701230	0.001055	10.550283	1.787266	0.000105
 194	1.9203e+01	1.9195	-14.656821	0.000446	4.463581	0.756151	0.000045
 195	1.9303e+01	1.9299	-14.640673	0.000162	1.623121	0.274964	0.000016
 196	1.9402e+01	1.9397	-14.563967	0.000771	7.709822	1.306079	0.000077
 197	1.9502e+01	1.9493	-14.535707	0.000284	2.840461	0.481187	0.000028
 198	1.9602e+01	1.9592	-14.450927	0.000852	8.521383	1.443561	0.000085
 199	1.9701e+01	1.9698	-14.418630	0.000325	3.246241	0.549928	0.000032
 200	1.9800e+01	1.9794	-14.370185	0.000487	4.869362	0.824892	0.000049
 201	1.9900e+01	1.9869	-14.370185	0.000000	0.000000	0.000000	0.000000
 202	2.0000e+01	1.9994	-14.257145	0.001136	11.361844	1.924748	0.000114
 203	2.0099e+01	2.0094	-14.212736	0.000446	4.463581	0.756151	0.000045
 204	2.0198e+01	2.0191	-14.148142	0.000649	6.492482	1.099856	0.000065
 205	2.0298e+01	2.0296	-14.140068	0.000081	0.811560	0.137482	0.000008
 206	2.0398e+01	2.0399	-14.099697	0.000406	4.057801	0.687410	0.000041
 207	2.0497e+01	2.0485	-14.018954	0.000812	8.115603	1.374820	0.000081
 208	2.0596e+01	2.0585	-13.998768	0.000203	2.028901	0.343705	0.000020
 209	2.0696e+01	2.0683	-13.966471	0.000325	3.246241	0.549928	0.000032
 210	2.0796e+01	2.0783	-13.905914	0.000609	6.086702	1.031115	0.000061
 211	2.0895e+01	2.0896	-13.817097	0.000893	8.927163	1.512302	0.000089
 212	2.0994e+01	2.0986	-13.796911	0.000203	2.028901	0.343705	0.000020
 213	2.1094e+01	2.1091	-13.772689	0.000243	2.434681	0.412446	0.000024
 214	2.1194e+01	2.1183	-13.704057	0.000690	6.898262	1.168597	0.000069
 215	2.1293e+01	2.1288	-13.675797	0.000284	2.840461	0.481187	0.000028
 216	2.1392e+01	2.1380	-13.591017	0.000852	8.521383	1.443561	0.000085
 217	2.1492e+01	2.1486	-13.595055	-0.000041	-0.405780	-0.068741	-0.000004
 218	2.1591e+01	2.1590	-13.566795	0.000284	2.840461	0.481187	0.000028
 219	2.1691e+01	2.1682	-13.486052	0.000812	8.115603	1.374820	0.000081
 220	2.1791e+01	2.1785	-13.425495	0.000609	6.086702	1.031115	0.000061
 221	2.1890e+01	2.1880	-13.385124	0.000406	4.057801	0.687410	0.000041
 222	2.1989e+01	2.1972	-13.352826	0.000325	3.246241	0.549928	0.000032
 223	2.2089e+01	2.2076	-13.288232	0.000649	6.492482	1.099856	0.000065
 224	2.2189e+01	2.2179	-13.264009	0.000243	2.434681	0.412446	0.000024
 225	2.2288e+01	2.2272	-13.167118	0.000974	9.738723	1.649784	0.000097
 226	2.2387e+01	2.2379	-13.159044	0.000081	0.811560	0.137482	0.000008
 227	2.2487e+01	2.2478	-13.070227	0.000893	8.927163	1.512302	0.000089
 228	2.2587e+01	2.2575	-13.033893	0.000365	3.652021	0.618669	0.000037
 229	2.2686e+01	2.2675	-12.989484	0.000446	4.463581	0.756151	0.000045
 230	2.2785e+01	2.2779	-12.957187	0.000325	3.246241	0.549928	0.000032
 231	2.2885e+01	2.2879	-12.908742	0.000487	4.869362	0.824892	0.000049
 232	2.2985e+01	2.2980	-12.832036	0.000771	7.709822	1.306079	0.000077
 233	2.3084e+01	2.3075	-12.811850	0.000203	2.028901	0.343705	0.000020
 234	2.3183e+01	2.3181	-12.771479	0.000406	4.057801	0.687410	0.000041
 235	2.3283e+01	2.3282	-12.731108	0.000406	4.057801	0.687410	0.000041
 236	2.3383e+01	2.3371	-12.654402	0.000771	7.709822	1.306079	0.000077
 237	2.3482e+01	2.3475	-12.662476	-0.000081	-0.811560	-0.137482	-0.000008
 238	2.3581e+01	2.3573	-12.605956	0.000568	5.680922	0.962374	0.000057
 239	2.3681e+01	2.3671	-12.513102	0.000933	9.332943	1.581043	0.000093
 240	2.3780e+01	2.3772	-12.460619	0.000528	5.275142	0.893633	0.000053
 241	2.3880e+01	2.3882	-12.456582	0.000041	0.405780	0.068741	0.000004
 242	2.3980e+01	2.3975	-12.371802	0.000852	8.521383	1.443561	0.000085
 243	2.4079e+01	2.4072	-12.331431	0.000406	4.057801	0.687410	0.000041
 244	2.4178e+01	2.4166	-12.303171	0.000284	2.840461	0.481187	0.000028
 245	2.4278e+01	2.4273	-12.202243	0.001014	10.144503	1.718525	0.000101
 246	2.4378e+01	2.4377	-12.218391	-0.000162	-1.623121	-0.274964	-0.000016
 247	2.4477e+01	2.4468	-12.129574	0.000893	8.927163	1.512302	0.000089
 248	2.4576e+01	2.4574	-12.077092	0.000528	5.275142	0.893633	0.000053
 249	2.4676e+01	2.4668	-12.020572	0.000568	5.680922	0.962374	0.000057
 250	2.4776e+01	2.4771	-11.988275	0.000325	3.246241	0.549928	0.000032
 251	2.4875e+01	2.4867	-11.943866	0.000446	4.463581	0.756151	0.000045
 252	2.4974e+01	2.4974	-11.887346	0.000568	5.680922	0.962374	0.000057
 253	2.5074e+01	2.5076	-11.838901	0.000487	4.869362	0.824892	0.000049
 254	2.5174e+01	2.5158	-11.782381	0.000568	5.680922	0.962374	0.000057
 255	2.5273e+01	2.5269	-11.729898	0.000528	5.275142	0.893633	0.000053
 256	2.5372e+01	2.5365	-11.661267	0.000690	6.898262	1.168597	0.000069
 257	2.5472e+01	2.5461	-11.645118	0.000162	1.623121	0.274964	0.000016
 258	2.5572e+01	2.5567	-11.637044	0.000081	0.811560	0.137482	0.000008
 259	2.5671e+01	2.5673	-11.548227	0.000893	8.927163	1.512302	0.000089
 260	2.5770e+01	2.5758	-11.507855	0.000406	4.057801	0.687410	0.000041
 261	2.5870e+01	2.5864	-11.463447	0.000446	4.463581	0.756151	0.000045
 262	2.5970e+01	2.5951	-11.390778	0.000730	7.304042	1.237338	0.000073
 263	2.6069e+01	2.6068	-11.338296	0.000528	5.275142	0.893633	0.000053
 264	2.6169e+01	2.6159	-11.293887	0.000446	4.463581	0.756151	0.000045
 265	2.6268e+01	2.6270	-11.253516	0.000406	4.057801	0.687410	0.000041
 266	2.6367e+01	2.6365	-11.237367	0.000162	1.623121	0.274964	0.000016
 267	2.6467e+01	2.6456	-11.140476	0.000974	9.738723	1.649784	0.000097
 268	2.6567e+01	2.6551	-11.132402	0.000081	0.811560	0.137482	0.000008
 269	2.6666e+01	2.6655	-11.043585	0.000893	8.927163	1.512302	0.000089
 270	2.6765e+01	2.6759	-11.047622	-0.000041	-0.405780	-0.068741	-0.000004
 271	2.6865e+01	2.6862	-10.966879	0.000812	8.115603	1.374820	0.000081
 272	2.6965e+01	2.6959	-10.914396	0.000528	5.275142	0.893633	0.000053
 273	2.7064e+01	2.7055	-10.857877	0.000568	5.680922	0.962374	0.000057
 274	2.7163e+01	2.7151	-10.845765	0.000122	1.217340	0.206223	0.000012
 275	2.7263e+01	2.7258	-10.740800	0.001055	10.550283	1.787266	0.000105
 276	2.7363e+01	2.7358	-10.700428	0.000406	4.057801	0.687410	0.000041
 277	2.7462e+01	2.7455	-10.664094	0.000365	3.652021	0.618669	0.000037
 278	2.7561e+01	2.7557	-10.639871	0.000243	2.434681	0.412446	0.000024
 279	2.7661e+01	2.7661	-10.575277	0.000649	6.492482	1.099856	0.000065
 280	2.7761e+01	2.7743	-10.530869	0.000446	4.463581	0.756151	0.000045
 281	2.7860e+01	2.7847	-10.470312	0.000609	6.086702	1.031115	0.000061
 282	2.7959e+01	2.7946	-10.417829	0.000528	5.275142	0.893633	0.000053
 283	2.8059e+01	2.8055	-10.393606	0.000243	2.434681	0.412446	0.000024
 284	2.8159e+01	2.8152	-10.349197	0.000446	4.463581	0.756151	0.000045
 285	2.8258e+01	2.8251	-10.240195	0.001096	10.956063	1.856007	0.000110
 286	2.8358e+01	2.8354	-10.228083	0.000122	1.217340	0.206223	0.000012
 287	2.8457e+01	2.8450	-10.155415	0.000730	7.304042	1.237338	0.000073
 288	2.8556e+01	2.8544	-10.115044	0.000406	4.057801	0.687410	0.000041
 289	2.8656e+01	2.8648	-10.094858	0.000203	2.028901	0.343705	0.000020
 290	2.8756e+01	2.8749	-10.022189	0.000730	7.304042	1.237338	0.000073
 291	2.8855e+01	2.8844	-9.957595	0.000649	6.492482	1.099856	0.000065
 292	2.8954e+01	2.8942	-9.917224	0.000406	4.057801	0.687410	0.000041
 293	2.9054e+01	2.9046	-9.856667	0.000609	6.086702	1.031115	0.000061
 294	2.9154e+01	2.9148	-9.800147	0.000568	5.680922	0.962374	0.000057
 295	2.9253e+01	2.9243	-9.759776	0.000406	4.057801	0.687410	0.000041
 296	2.9352e+01	2.9350	-9.731516	0.000284	2.840461	0.481187	0.000028
 297	2.9452e+01	2.9445	-9.658847	0.000730	7.304042	1.237338	0.000073
 298	2.9552e+01	2.9536	-9.606364	0.000528	5.275142	0.893633	0.000053
 299	2.9651e+01	2.9651	-9.594253	0.000122	1.217340	0.206223	0.000012
 300	2.9750e+01	2.9740	-9.521585	0.000730	7.304042	1.237338	0.000073
 301	2.9850e+01	2.9844	-9.444879	0.000771	7.709822	1.306079	0.000077
 302	2.9950e+01	2.9942	-9.408545	0.000365	3.652021	0.618669	0.000037
 303	3.0049e+01	3.0038	-9.356062	0.000528	5.275142	0.893633	0.000053
 304	3.0148e+01	3.0147	-9.311654	0.000446	4.463581	0.756151	0.000045
 305	3.0248e+01	3.0241	-9.279356	0.000325	3.246241	0.549928	0.000032
 306	3.0348e+01	3.0339	-9.214762	0.000649	6.492482	1.099856	0.000065
 307	3.0447e+01	3.0437	-9.121908	0.000933	9.332943	1.581043	0.000093
 308	3.0547e+01	3.0536	-9.121908	0.000000	0.000000	0.000000	0.000000
 309	3.0646e+01	3.0639	-9.101723	0.000203	2.028901	0.343705	0.000020
 310	3.0745e+01	3.0741	-9.020980	0.000812	8.115603	1.374820	0.000081
 311	3.0845e+01	3.0842	-8.964460	0.000568	5.680922	0.962374	0.000057
 312	3.0945e+01	3.0932	-8.956386	0.000081	0.811560	0.137482	0.000008
 313	3.1044e+01	3.1039	-8.867569	0.000893	8.927163	1.512302	0.000089
 314	3.1143e+01	3.1134	-8.798937	0.000690	6.898262	1.168597	0.000069
 315	3.1243e+01	3.1231	-8.770677	0.000284	2.840461	0.481187	0.000028
 316	3.1343e+01	3.1339	-8.722232	0.000487	4.869362	0.824892	0.000049
 317	3.1442e+01	3.1432	-8.706083	0.000162	1.623121	0.274964	0.000016
 318	3.1541e+01	3.1531	-8.617266	0.000893	8.927163	1.512302	0.000089
 319	3.1641e+01	3.1635	-8.617266	0.000000	0.000000	0.000000	0.000000
 320	3.1741e+01	3.1734	-8.512301	0.001055	10.550283	1.787266	0.000105
 321	3.1840e+01	3.1831	-8.480004	0.000325	3.246241	0.549928	0.000032
 322	3.1939e+01	3.1934	-8.423484	0.000568	5.680922	0.962374	0.000057
 323	3.2039e+01	3.2039	-8.375038	0.000487	4.869362	0.824892	0.000049
 324	3.2139e+01	3.2136	-8.362927	0.000122	1.217340	0.206223	0.000012
 325	3.2238e+01	3.2244	-8.302370	0.000609	6.086702	1.031115	0.000061
 326	3.2337e+01	3.2336	-8.253924	0.000487	4.869362	0.824892	0.000049
 327	3.2437e+01	3.2432	-8.189330	0.000649	6.492482	1.099856	0.000065
 328	3.2536e+01	3.2537	-8.173181	0.000162	1.623121	0.274964	0.000016
 329	3.2636e+01	3.2635	-8.104550	0.000690	6.898262	1.168597	0.000069
 330	3.2736e+01	3.2719	-8.096476	0.000081	0.811560	0.137482	0.000008
 331	3.2835e+01	3.2833	-8.084364	0.000122	1.217340	0.206223	0.000012
 332	3.2934e+01	3.2912	-7.979399	0.001055	10.550283	1.787266	0.000105
 333	3.3034e+01	3.3025	-7.939027	0.000406	4.057801	0.687410	0.000041
 334	3.3133e+01	3.3131	-7.854248	0.000852	8.521383	1.443561	0.000085
 335	3.3233e+01	3.3221	-7.854248	0.000000	0.000000	0.000000	0.000000
 336	3.3333e+01	3.3326	-7.817913	0.000365	3.652021	0.618669	0.000037
 337	3.3432e+01	3.3427	-7.749282	0.000690	6.898262	1.168597	0.000069
 338	3.3532e+01	3.3524	-7.729096	0.000203	2.028901	0.343705	0.000020
 339	3.3631e+01	3.3633	-7.672576	0.000568	5.680922	0.962374	0.000057
 340	3.3730e+01	3.3719	-7.599908	0.000730	7.304042	1.237338	0.000073
 341	3.3830e+01	3.3822	-7.587797	0.000122	1.217340	0.206223	0.000012
 342	3.3929e+01	3.3924	-7.523202	0.000649	6.492482	1.099856	0.000065
 343	3.4029e+01	3.4016	-7.482831	0.000406	4.057801	0.687410	0.000041
 344	3.4129e+01	3.4122	-7.406126	0.000771	7.709822	1.306079	0.000077
 345	3.4228e+01	3.4221	-7.406126	0.000000	0.000000	0.000000	0.000000
 346	3.4328e+01	3.4319	-7.353643	0.000528	5.275142	0.893633	0.000053
 347	3.4427e+01	3.4420	-7.333457	0.000203	2.028901	0.343705	0.000020
 348	3.4526e+01	3.4523	-7.272900	0.000609	6.086702	1.031115	0.000061
 349	3.4626e+01	3.4621	-7.204269	0.000690	6.898262	1.168597	0.000069
 350	3.4725e+01	3.4710	-7.151786	0.000528	5.275142	0.893633	0.000053
 351	3.4825e+01	3.4824	-7.119489	0.000325	3.246241	0.549928	0.000032
 352	3.4925e+01	3.4913	-7.099303	0.000203	2.028901	0.343705	0.000020
 353	3.5024e+01	3.5019	-7.071043	0.000284	2.840461	0.481187	0.000028
 354	3.5123e+01	3.5116	-7.002412	0.000690	6.898262	1.168597	0.000069
 355	3.5223e+01	3.5217	-6.949929	0.000528	5.275142	0.893633	0.000053
 356	3.5322e+01	3.5317	-6.933781	0.000162	1.623121	0.274964	0.000016
 357	3.5422e+01	3.5418	-6.877261	0.000568	5.680922	0.962374	0.000057
 358	3.5522e+01	3.5534	-6.849001	0.000284	2.840461	0.481187	0.000028
 359	3.5621e+01	3.5619	-6.840927	0.000081	0.811560	0.137482	0.000008
 360	3.5721e+01	3.5709	-6.776332	0.000649	6.492482	1.099856	0.000065
 361	3.5820e+01	3.5815	-6.711738	0.000649	6.492482	1.099856	0.000065
 362	3.5919e+01	3.5918	-6.687515	0.000243	2.434681	0.412446	0.000024
 363	3.6019e+01	3.6005	-6.614847	0.000730	7.304042	1.237338	0.000073
 364	3.6118e+01	3.6121	-6.562364	0.000528	5.275142	0.893633	0.000053
 365	3.6218e+01	3.6211	-6.570438	-0.000081	-0.811560	-0.137482	-0.000008
 366	3.6318e+01	3.6320	-6.481621	0.000893	8.927163	1.512302	0.000089
 367	3.6417e+01	3.6413	-6.453361	0.000284	2.840461	0.481187	0.000028
 368	3.6517e+01	3.6501	-6.408953	0.000446	4.463581	0.756151	0.000045
 369	3.6616e+01	3.6607	-6.352433	0.000568	5.680922	0.962374	0.000057
 370	3.6715e+01	3.6717	-6.316099	0.000365	3.652021	0.618669	0.000037
 371	3.6815e+01	3.6817	-6.283802	0.000325	3.246241	0.549928	0.000032
 372	3.6914e+01	3.6909	-6.243430	0.000406	4.057801	0.687410	0.000041
 373	3.7014e+01	3.7006	-6.199022	0.000446	4.463581	0.756151	0.000045
 374	3.7114e+01	3.7111	-6.166725	0.000325	3.246241	0.549928	0.000032
 375	3.7213e+01	3.7204	-6.114242	0.000528	5.275142	0.893633	0.000053
 376	3.7313e+01	3.7312	-6.110205	0.000041	0.405780	0.068741	0.000004
 377	3.7412e+01	3.7402	-6.065796	0.000446	4.463581	0.756151	0.000045
 378	3.7511e+01	3.7508	-6.021388	0.000446	4.463581	0.756151	0.000045
 379	3.7611e+01	3.7609	-5.964868	0.000568	5.680922	0.962374	0.000057
 380	3.7711e+01	3.7711	-5.960831	0.000041	0.405780	0.068741	0.000004
 381	3.7810e+01	3.7804	-5.896237	0.000649	6.492482	1.099856	0.000065
 382	3.7910e+01	3.7901	-5.855865	0.000406	4.057801	0.687410	0.000041
 383	3.8009e+01	3.8004	-5.799345	0.000568	5.680922	0.962374	0.000057
 384	3.8108e+01	3.8104	-5.758974	0.000406	4.057801	0.687410	0.000041
 385	3.8208e+01	3.8197	-5.726677	0.000325	3.246241	0.549928	0.000032
 386	3.8307e+01	3.8299	-5.714566	0.000122	1.217340	0.206223	0.000012
 387	3.8407e+01	3.8405	-5.629786	0.000852	8.521383	1.443561	0.000085
 388	3.8507e+01	3.8504	-5.601526	0.000284	2.840461	0.481187	0.000028
 389	3.8606e+01	3.8589	-5.532895	0.000690	6.898262	1.168597	0.000069
 390	3.8706e+01	3.8696	-5.516746	0.000162	1.623121	0.274964	0.000016
 391	3.8805e+01	3.8792	-5.488486	0.000284	2.840461	0.481187	0.000028
 392	3.8904e+01	3.8892	-5.464263	0.000243	2.434681	0.412446	0.000024
 393	3.9004e+01	3.8993	-5.367372	0.000974	9.738723	1.649784	0.000097
 394	3.9103e+01	3.9088	-5.367372	0.000000	0.000000	0.000000	0.000000
 395	3.9203e+01	3.9191	-5.335075	0.000325	3.246241	0.549928	0.000032
 396	3.9303e+01	3.9292	-5.290666	0.000446	4.463581	0.756151	0.000045
 397	3.9402e+01	3.9387	-5.230109	0.000609	6.086702	1.031115	0.000061
 398	3.9502e+01	3.9488	-5.189738	0.000406	4.057801	0.687410	0.000041
 399	3.9601e+01	3.9596	-5.141292	0.000487	4.869362	0.824892	0.000049
 400	3.9700e+01	3.9692	-5.125144	0.000162	1.623121	0.274964	0.000016
 401	3.9800e+01	3.9791	-5.076698	0.000487	4.869362	0.824892	0.000049
 402	3.9900e+01	3.9890	-5.024215	0.000528	5.275142	0.893633	0.000053
 403	3.9999e+01	3.9984	-5.020178	0.000041	0.405780	0.068741	0.000004
 404	4.0099e+01	4.0093	-4.983844	0.000365	3.652021	0.618669	0.000037
 405	4.0198e+01	4.0195	-4.890990	0.000933	9.332943	1.581043	0.000093
 406	4.0297e+01	4.0295	-4.850619	0.000406	4.057801	0.687410	0.000041
 407	4.0397e+01	4.0391	-4.826396	0.000243	2.434681	0.412446	0.000024
 408	4.0496e+01	4.0496	-4.773913	0.000528	5.275142	0.893633	0.000053
 409	4.0596e+01	4.0598	-4.697207	0.000771	7.709822	1.306079	0.000077
 410	4.0696e+01	4.0694	-4.693170	0.000041	0.405780	0.068741	0.000004
 411	4.0795e+01	4.0788	-4.685096	0.000081	0.811560	0.137482	0.000008
 412	4.0895e+01	4.0888	-4.612428	0.000730	7.304042	1.237338	0.000073
 413	4.0994e+01	4.0984	-4.568019	0.000446	4.463581	0.756151	0.000045
 414	4.1093e+01	4.1090	-4.519573	0.000487	4.869362	0.824892	0.000049
 415	4.1193e+01	4.1185	-4.459016	0.000609	6.086702	1.031115	0.000061
 416	4.1292e+01	4.1282	-4.430756	0.000284	2.840461	0.481187	0.000028
 417	4.1392e+01	4.1379	-4.446905	-0.000162	-1.623121	-0.274964	-0.000016
 418	4.1492e+01	4.1487	-4.366162	0.000812	8.115603	1.374820	0.000081
 419	4.1591e+01	4.1585	-4.341939	0.000243	2.434681	0.412446	0.000024
 420	4.1691e+01	4.1686	-4.277345	0.000649	6.492482	1.099856	0.000065
 421	4.1790e+01	4.1779	-4.228900	0.000487	4.869362	0.824892	0.000049
 422	4.1889e+01	4.1876	-4.216788	0.000122	1.217340	0.206223	0.000012
 423	4.1989e+01	4.1982	-4.180454	0.000365	3.652021	0.618669	0.000037
 424	4.2089e+01	4.2078	-4.067414	0.001136	11.361844	1.924748	0.000114
 425	4.2188e+01	4.2179	-4.091637	-0.000243	-2.434681	-0.412446	-0.000024
 426	4.2288e+01	4.2284	-4.035117	0.000568	5.680922	0.962374	0.000057
 427	4.2387e+01	4.2379	-4.002820	0.000325	3.246241	0.549928	0.000032
 428	4.2486e+01	4.2474	-3.926115	0.000771	7.709822	1.306079	0.000077
 429	4.2586e+01	4.2580	-3.897855	0.000284	2.840461	0.481187	0.000028
 430	4.2685e+01	4.2686	-3.881706	0.000162	1.623121	0.274964	0.000016
 431	4.2785e+01	4.2782	-3.833260	0.000487	4.869362	0.824892	0.000049
 432	4.2885e+01	4.2872	-3.740406	0.000933	9.332943	1.581043	0.000093
 433	4.2984e+01	4.2983	-3.712146	0.000284	2.840461	0.481187	0.000028
 434	4.3084e+01	4.3079	-3.724258	-0.000122	-1.217340	-0.206223	-0.000012
 435	4.3183e+01	4.3179	-3.655626	0.000690	6.898262	1.168597	0.000069
 436	4.3282e+01	4.3279	-3.599107	0.000568	5.680922	0.962374	0.000057
 437	4.3382e+01	4.3375	-3.570847	0.000284	2.840461	0.481187	0.000028
 438	4.3481e+01	4.3472	-3.477992	0.000933	9.332943	1.581043	0.000093
 439	4.3581e+01	4.3575	-3.494141	-0.000162	-1.623121	-0.274964	-0.000016
 440	4.3681e+01	4.3664	-3.453770	0.000406	4.057801	0.687410	0.000041
 441	4.3780e+01	4.3775	-3.389175	0.000649	6.492482	1.099856	0.000065
 442	4.3880e+01	4.3865	-3.328618	0.000609	6.086702	1.031115	0.000061
 443	4.3979e+01	4.3969	-3.324581	0.000041	0.405780	0.068741	0.000004
 444	4.4078e+01	4.4072	-3.227690	0.000974	9.738723	1.649784	0.000097
 445	4.4178e+01	4.4170	-3.227690	0.000000	0.000000	0.000000	0.000000
 446	4.4278e+01	4.4273	-3.187319	0.000406	4.057801	0.687410	0.000041
 447	4.4377e+01	4.4370	-3.138873	0.000487	4.869362	0.824892	0.000049
 448	4.4477e+01	4.4469	-3.086390	0.000528	5.275142	0.893633	0.000053
 449	4.4576e+01	4.4561	-3.054093	0.000325	3.246241	0.549928	0.000032
 450	4.4675e+01	4.4669	-3.021796	0.000325	3.246241	0.549928	0.000032
 451	4.4775e+01	4.4775	-2.941053	0.000812	8.115603	1.374820	0.000081
 452	4.4874e+01	4.4865	-2.953165	-0.000122	-1.217340	-0.206223	-0.000012
 453	4.4974e+01	4.4965	-2.896645	0.000568	5.680922	0.962374	0.000057
 454	4.5074e+01	4.5065	-2.803791	0.000933	9.332943	1.581043	0.000093
 455	4.5173e+01	4.5176	-2.787642	0.000162	1.623121	0.274964	0.000016
 456	4.5273e+01	4.5261	-2.731122	0.000568	5.680922	0.962374	0.000057
 457	4.5372e+01	4.5361	-2.714974	0.000162	1.623121	0.274964	0.000016
 458	4.5471e+01	4.5470	-2.662491	0.000528	5.275142	0.893633	0.000053
 459	4.5571e+01	4.5568	-2.626157	0.000365	3.652021	0.618669	0.000037
 460	4.5670e+01	4.5670	-2.585785	0.000406	4.057801	0.687410	0.000041
 461	4.5770e+01	4.5762	-2.492931	0.000933	9.332943	1.581043	0.000093
 462	4.5870e+01	4.5873	-2.492931	0.000000	0.000000	0.000000	0.000000
 463	4.5969e+01	4.5959	-2.452560	0.000406	4.057801	0.687410	0.000041
 464	4.6069e+01	4.6059	-2.375854	0.000771	7.709822	1.306079	0.000077
 465	4.6168e+01	4.6165	-2.339520	0.000365	3.652021	0.618669	0.000037
 466	4.6267e+01	4.6259	-2.311260	0.000284	2.840461	0.481187	0.000028
 467	4.6367e+01	4.6360	-2.266852	0.000446	4.463581	0.756151	0.000045
 468	4.6467e+01	4.6456	-2.250703	0.000162	1.623121	0.274964	0.000016
 469	4.6566e+01	4.6560	-2.157849	0.000933	9.332943	1.581043	0.000093
 470	4.6666e+01	4.6661	-2.121515	0.000365	3.652021	0.618669	0.000037
 471	4.6765e+01	4.6758	-2.137663	-0.000162	-1.623121	-0.274964	-0.000016
 472	4.6864e+01	4.6859	-2.044809	0.000933	9.332943	1.581043	0.000093
 473	4.6964e+01	4.6960	-1.968104	0.000771	7.709822	1.306079	0.000077
 474	4.7063e+01	4.7059	-1.960029	0.000081	0.811560	0.137482	0.000008
 475	4.7163e+01	4.7157	-1.895435	0.000649	6.492482	1.099856	0.000065
 476	4.7263e+01	4.7260	-1.851027	0.000446	4.463581	0.756151	0.000045
 477	4.7362e+01	4.7350	-1.830841	0.000203	2.028901	0.343705	0.000020
 478	4.7462e+01	4.7456	-1.794507	0.000365	3.652021	0.618669	0.000037
 479	4.7561e+01	4.7546	-1.729913	0.000649	6.492482	1.099856	0.000065
 480	4.7660e+01	4.7649	-1.717801	0.000122	1.217340	0.206223	0.000012
 481	4.7760e+01	4.7758	-1.669356	0.000487	4.869362	0.824892	0.000049
 482	4.7859e+01	4.7854	-1.612836	0.000568	5.680922	0.962374	0.000057
 483	4.7959e+01	4.7951	-1.568427	0.000446	4.463581	0.756151	0.000045
 484	4.8059e+01	4.8055	-1.519982	0.000487	4.869362	0.824892	0.000049
 485	4.8158e+01	4.8154	-1.503833	0.000162	1.623121	0.274964	0.000016
 486	4.8258e+01	4.8251	-1.439239	0.000649	6.492482	1.099856	0.000065
 487	4.8357e+01	4.8357	-1.419053	0.000203	2.028901	0.343705	0.000020
 488	4.8456e+01	4.8451	-1.382719	0.000365	3.652021	0.618669	0.000037
 489	4.8556e+01	4.8551	-1.326199	0.000568	5.680922	0.962374	0.000057
 490	4.8656e+01	4.8649	-1.285828	0.000406	4.057801	0.687410	0.000041
 491	4.8755e+01	4.8751	-1.221234	0.000649	6.492482	1.099856	0.000065
 492	4.8855e+01	4.8852	-1.197011	0.000243	2.434681	0.412446	0.000024
 493	4.8954e+01	4.8950	-1.132417	0.000649	6.492482	1.099856	0.000065
 494	4.9053e+01	4.9056	-1.124342	0.000081	0.811560	0.137482	0.000008
 495	4.9153e+01	4.9142	-1.079934	0.000446	4.463581	0.756151	0.000045
 496	4.9252e+01	4.9249	-1.051674	0.000284	2.840461	0.481187	0.000028
 497	4.9352e+01	4.9349	-1.015340	0.000365	3.652021	0.618669	0.000037
 498	4.9452e+01	4.9443	-0.966894	0.000487	4.869362	0.824892	0.000049
 499	4.9551e+01	4.9543	-0.942671	0.000243	2.434681	0.412446	0.000024
 500	4.9651e+01	4.9646	-0.890188	0.000528	5.275142	0.893633	0.000053
 501	4.9750e+01	4.9744	-0.861928	0.000284	2.840461	0.481187	0.000028
 502	4.9849e+01	4.9848	-0.821557	0.000406	4.057801	0.687410	0.000041
 503	4.9949e+01	4.9939	-0.740814	0.000812	8.115603	1.374820	0.000081
 504	5.0048e+01	5.0037	-0.692369	0.000487	4.869362	0.824892	0.000049
 505	5.0148e+01	5.0135	-0.676220	0.000162	1.623121	0.274964	0.000016
 506	5.0248e+01	5.0244	-0.639886	0.000365	3.652021	0.618669	0.000037
 507	5.0347e+01	5.0336	-0.599515	0.000406	4.057801	0.687410	0.000041
 508	5.0447e+01	5.0432	-0.551069	0.000487	4.869362	0.824892	0.000049
 509	5.0546e+01	5.0527	-0.514735	0.000365	3.652021	0.618669	0.000037
 510	5.0645e+01	5.0623	-0.502623	0.000122	1.217340	0.206223	0.000012
 511	5.0745e+01	5.0734	-0.470326	0.000325	3.246241	0.549928	0.000032
 512	5.0844e+01	5.0832	-0.438029	0.000325	3.246241	0.549928	0.000032
 513	5.0944e+01	5.0937	-0.369398	0.000690	6.898262	1.168597	0.000069
 514	5.1044e+01	5.1043	-0.337101	0.000325	3.246241	0.549928	0.000032
 515	5.1143e+01	5.1132	-0.312878	0.000243	2.434681	0.412446	0.000024
 516	5.1242e+01	5.1231	-0.296729	0.000162	1.623121	0.274964	0.000016
 517	5.1342e+01	5.1338	-0.240210	0.000568	5.680922	0.962374	0.000057
 518	5.1441e+01	5.1440	-0.215987	0.000243	2.434681	0.412446	0.000024
 519	5.1541e+01	5.1528	-0.179653	0.000365	3.652021	0.618669	0.000037
 520	5.1641e+01	5.1639	-0.098910	0.000812	8.115603	1.374820	0.000081
 521	5.1740e+01	5.1727	-0.070650	0.000284	2.840461	0.481187	0.000028
 522	5.1840e+01	5.1827	-0.066613	0.000041	0.405780	0.068741	0.000004
 523	5.1939e+01	5.1931	-0.014130	0.000528	5.275142	0.893633	0.000053
 524	5.2038e+01	5.2030	0.014130	0.000284	2.840461	0.481187	0.000028
 525	5.2138e+01	5.2123	0.058538	0.000446	4.463581	0.756151	0.000045
 526	5.2237e+01	5.2233	0.106984	0.000487	4.869362	0.824892	0.000049
 527	5.2337e+01	5.2333	0.155430	0.000487	4.869362	0.824892	0.000049
 528	5.2437e+01	5.2424	0.183690	0.000284	2.840461	0.481187	0.000028
 529	5.2536e+01	5.2529	0.236172	0.000528	5.275142	0.893633	0.000053
 530	5.2636e+01	5.2625	0.260395	0.000243	2.434681	0.412446	0.000024
 531	5.2735e+01	5.2741	0.316915	0.000568	5.680922	0.962374	0.000057
 532	5.2834e+01	5.2827	0.361324	0.000446	4.463581	0.756151	0.000045
 533	5.2934e+01	5.2923	0.333064	-0.000284	-2.840461	-0.481187	-0.000028
 534	5.3033e+01	5.3030	0.413806	0.000812	8.115603	1.374820	0.000081
 535	5.3133e+01	5.3121	0.438029	0.000243	2.434681	0.412446	0.000024
 536	5.3233e+01	5.3225	0.466289	0.000284	2.840461	0.481187	0.000028
 537	5.3332e+01	5.3323	0.534920	0.000690	6.898262	1.168597	0.000069
 538	5.3431e+01	5.3429	0.538958	0.000041	0.405780	0.068741	0.000004
 539	5.3531e+01	5.3521	0.595478	0.000568	5.680922	0.962374	0.000057
 540	5.3630e+01	5.3620	0.619700	0.000243	2.434681	0.412446	0.000024
 541	5.3730e+01	5.3719	0.651997	0.000325	3.246241	0.549928	0.000032
 542	5.3830e+01	5.3806	0.651997	0.000000	0.000000	0.000000	0.000000
 543	5.3929e+01	5.3915	0.704480	0.000528	5.275142	0.893633	0.000053
 544	5.4029e+01	5.4018	0.744852	0.000406	4.057801	0.687410	0.000041
 545	5.4128e+01	5.4155	0.765037	0.000203	2.028901	0.343705	0.000020
 546	5.4227e+01	5.4218	0.797334	0.000325	3.246241	0.549928	0.000032
 547	5.4327e+01	5.4317	0.878077	0.000812	8.115603	1.374820	0.000081
 548	5.4426e+01	5.4427	0.914411	0.000365	3.652021	0.618669	0.000037
 549	5.4526e+01	5.4520	0.918448	0.000041	0.405780	0.068741	0.000004
 550	5.4626e+01	5.4620	0.966894	0.000487	4.869362	0.824892	0.000049
 551	5.4725e+01	5.4713	0.987080	0.000203	2.028901	0.343705	0.000020
 552	5.4825e+01	5.4816	1.047637	0.000609	6.086702	1.031115	0.000061
 553	5.4924e+01	5.4916	1.063785	0.000162	1.623121	0.274964	0.000016
 554	5.5023e+01	5.5006	1.108194	0.000446	4.463581	0.756151	0.000045
 555	5.5123e+01	5.5111	1.128379	0.000203	2.028901	0.343705	0.000020
 556	5.5222e+01	5.5212	1.164714	0.000365	3.652021	0.618669	0.000037
 557	5.5322e+01	5.5308	1.201048	0.000365	3.652021	0.618669	0.000037
 558	5.5422e+01	5.5415	1.269679	0.000690	6.898262	1.168597	0.000069
 559	5.5521e+01	5.5509	1.261605	-0.000081	-0.811560	-0.137482	-0.000008
 560	5.5620e+01	5.5620	1.306013	0.000446	4.463581	0.756151	0.000045
 561	5.5720e+01	5.5717	1.334273	0.000284	2.840461	0.481187	0.000028
 562	5.5819e+01	5.5817	1.370608	0.000365	3.652021	0.618669	0.000037
 563	5.5919e+01	5.5921	1.427127	0.000568	5.680922	0.962374	0.000057
 564	5.6019e+01	5.6005	1.447313	0.000203	2.028901	0.343705	0.000020
 565	5.6118e+01	5.6120	1.524019	0.000771	7.709822	1.306079	0.000077
 566	5.6218e+01	5.6203	1.560353	0.000365	3.652021	0.618669	0.000037
 567	5.6317e+01	5.6312	1.556316	-0.000041	-0.405780	-0.068741	-0.000004
 568	5.6416e+01	5.6414	1.628984	0.000730	7.304042	1.237338	0.000073
 569	5.6516e+01	5.6519	1.608799	-0.000203	-2.028901	-0.343705	-0.000020
 570	5.6615e+01	5.6597	1.685504	0.000771	7.709822	1.306079	0.000077
 571	5.6715e+01	5.6716	1.701653	0.000162	1.623121	0.274964	0.000016
 572	5.6815e+01	5.6805	1.750098	0.000487	4.869362	0.824892	0.000049
 573	5.6914e+01	5.6897	1.754135	0.000041	0.405780	0.068741	0.000004
 574	5.7014e+01	5.7008	1.818730	0.000649	6.492482	1.099856	0.000065
 575	5.7113e+01	5.7104	1.855064	0.000365	3.652021	0.618669	0.000037
 576	5.7212e+01	5.7204	1.879287	0.000243	2.434681	0.412446	0.000024
 577	5.7312e+01	5.7308	1.903510	0.000243	2.434681	0.412446	0.000024
 578	5.7411e+01	5.7409	1.947918	0.000446	4.463581	0.756151	0.000045
 579	5.7511e+01	5.7514	1.960029	0.000122	1.217340	0.206223	0.000012
 580	5.7611e+01	5.7599	2.000401	0.000406	4.057801	0.687410	0.000041
 581	5.7710e+01	5.7708	2.085181	0.000852	8.521383	1.443561	0.000085
 582	5.7809e+01	5.7803	2.089218	0.000041	0.405780	0.068741	0.000004
 583	5.7909e+01	5.7899	2.129589	0.000406	4.057801	0.687410	0.000041
 584	5.8008e+01	5.8005	2.214369	0.000852	8.521383	1.443561	0.000085
 585	5.8108e+01	5.8100	2.190146	-0.000243	-2.434681	-0.412446	-0.000024
 586	5.8208e+01	5.8207	2.238592	0.000487	4.869362	0.824892	0.000049
 587	5.8307e+01	5.8294	2.238592	0.000000	0.000000	0.000000	0.000000
 588	5.8407e+01	5.8396	2.323372	0.000852	8.521383	1.443561	0.000085
 589	5.8506e+01	5.8504	2.359706	0.000365	3.652021	0.618669	0.000037
 590	5.8605e+01	5.8599	2.408151	0.000487	4.869362	0.824892	0.000049
 591	5.8705e+01	5.8704	2.420263	0.000122	1.217340	0.206223	0.000012
 592	5.8804e+01	5.8796	2.472746	0.000528	5.275142	0.893633	0.000053
 593	5.8904e+01	5.8904	2.529266	0.000568	5.680922	0.962374	0.000057
 594	5.9004e+01	5.8996	2.553488	0.000243	2.434681	0.412446	0.000024
 595	5.9103e+01	5.9097	2.610008	0.000568	5.680922	0.962374	0.000057
 596	5.9203e+01	5.9190	2.630194	0.000203	2.028901	0.343705	0.000020
 597	5.9302e+01	5.9298	2.686714	0.000568	5.680922	0.962374	0.000057
 598	5.9401e+01	5.9397	2.731122	0.000446	4.463581	0.756151	0.000045
 599	5.9501e+01	5.9499	2.743234	0.000122	1.217340	0.206223	0.000012
 600	5.9600e+01	5.9597	2.779568	0.000365	3.652021	0.618669	0.000037
 601	5.9700e+01	5.9692	2.807828	0.000284	2.840461	0.481187	0.000028
 602	5.9800e+01	5.9800	2.852236	0.000446	4.463581	0.756151	0.000045
 603	5.9899e+01	5.9892	2.860311	0.000081	0.811560	0.137482	0.000008
 604	5.9998e+01	5.9993	2.912793	0.000528	5.275142	0.893633	0.000053
 605	6.0098e+01	6.0088	2.965276	0.000528	5.275142	0.893633	0.000053
 606	6.0197e+01	6.0192	2.993536	0.000284	2.840461	0.481187	0.000028
 607	6.0297e+01	6.0290	3.066205	0.000730	7.304042	1.237338	0.000073
 608	6.0397e+01	6.0383	3.078316	0.000122	1.217340	0.206223	0.000012
 609	6.0496e+01	6.0490	3.134836	0.000568	5.680922	0.962374	0.000057
 610	6.0596e+01	6.0589	3.171170	0.000365	3.652021	0.618669	0.000037
 611	6.0695e+01	6.0686	3.199430	0.000284	2.840461	0.481187	0.000028
 612	6.0794e+01	6.0789	3.207504	0.000081	0.811560	0.137482	0.000008
 613	6.0894e+01	6.0882	3.280173	0.000730	7.304042	1.237338	0.000073
 614	6.0993e+01	6.0992	3.316507	0.000365	3.652021	0.618669	0.000037
 615	6.1093e+01	6.1089	3.360916	0.000446	4.463581	0.756151	0.000045
 616	6.1193e+01	6.1185	3.373027	0.000122	1.217340	0.206223	0.000012
 617	6.1292e+01	6.1296	3.397250	0.000243	2.434681	0.412446	0.000024
 618	6.1392e+01	6.1382	3.465881	0.000690	6.898262	1.168597	0.000069
 619	6.1491e+01	6.1487	3.526438	0.000609	6.086702	1.031115	0.000061
 620	6.1590e+01	6.1578	3.542587	0.000162	1.623121	0.274964	0.000016
 621	6.1690e+01	6.1683	3.566809	0.000243	2.434681	0.412446	0.000024
 622	6.1789e+01	6.1791	3.615255	0.000487	4.869362	0.824892	0.000049
 623	6.1889e+01	6.1884	3.675812	0.000609	6.086702	1.031115	0.000061
 624	6.1989e+01	6.1990	3.679849	0.000041	0.405780	0.068741	0.000004
 625	6.2088e+01	6.2077	3.740406	0.000609	6.086702	1.031115	0.000061
 626	6.2188e+01	6.2180	3.764629	0.000243	2.434681	0.412446	0.000024
 627	6.2287e+01	6.2286	3.825186	0.000609	6.086702	1.031115	0.000061
 628	6.2386e+01	6.2376	3.817112	-0.000081	-0.811560	-0.137482	-0.000008
 629	6.2486e+01	6.2481	3.885743	0.000690	6.898262	1.168597	0.000069
 630	6.2586e+01	6.2579	3.930152	0.000446	4.463581	0.756151	0.000045
 631	6.2685e+01	6.2682	3.982634	0.000528	5.275142	0.893633	0.000053
 632	6.2785e+01	6.2780	3.970523	-0.000122	-1.217340	-0.206223	-0.000012
 633	6.2884e+01	6.2891	4.043191	0.000730	7.304042	1.237338	0.000073
 634	6.2983e+01	6.2984	4.075489	0.000325	3.246241	0.549928	0.000032
 635	6.3083e+01	6.3072	4.099711	0.000243	2.434681	0.412446	0.000024
 636	6.3182e+01	6.3166	4.192565	0.000933	9.332943	1.581043	0.000093
 637	6.3282e+01	6.3274	4.204677	0.000122	1.217340	0.206223	0.000012
 638	6.3382e+01	6.3361	4.220825	0.000162	1.623121	0.274964	0.000016
 639	6.3481e+01	6.3462	4.301568	0.000812	8.115603	1.374820	0.000081
 640	6.3581e+01	6.3566	4.321754	0.000203	2.028901	0.343705	0.000020
 641	6.3680e+01	6.3672	4.374237	0.000528	5.275142	0.893633	0.000053
 642	6.3779e+01	6.3761	4.414608	0.000406	4.057801	0.687410	0.000041
 643	6.3879e+01	6.3874	4.463054	0.000487	4.869362	0.824892	0.000049
 644	6.3978e+01	6.3972	4.487276	0.000243	2.434681	0.412446	0.000024
 645	6.4078e+01	6.4064	4.543796	0.000568	5.680922	0.962374	0.000057
 646	6.4177e+01	6.4160	4.572056	0.000284	2.840461	0.481187	0.000028
 647	6.4277e+01	6.4262	4.620502	0.000487	4.869362	0.824892	0.000049
 648	6.4376e+01	6.4362	4.677022	0.000568	5.680922	0.962374	0.000057
 649	6.4476e+01	6.4459	4.709319	0.000325	3.246241	0.549928	0.000032
 650	6.4576e+01	6.4558	4.729505	0.000203	2.028901	0.343705	0.000020
 651	6.4675e+01	6.4674	4.790062	0.000609	6.086702	1.031115	0.000061
 652	6.4775e+01	6.4761	4.777950	-0.000122	-1.217340	-0.206223	-0.000012
 653	6.4874e+01	6.4863	4.834470	0.000568	5.680922	0.962374	0.000057
 654	6.4974e+01	6.4966	4.886953	0.000528	5.275142	0.893633	0.000053
 655	6.5073e+01	6.5057	4.923287	0.000365	3.652021	0.618669	0.000037
 656	6.5172e+01	6.5163	4.927324	0.000041	0.405780	0.068741	0.000004
 657	6.5272e+01	6.5269	4.987881	0.000609	6.086702	1.031115	0.000061
 658	6.5371e+01	6.5357	5.016141	0.000284	2.840461	0.481187	0.000028
 659	6.5471e+01	6.5459	5.052475	0.000365	3.652021	0.618669	0.000037
 660	6.5570e+01	6.5554	5.064587	0.000122	1.217340	0.206223	0.000012
 661	6.5670e+01	6.5667	5.137255	0.000730	7.304042	1.237338	0.000073
 662	6.5769e+01	6.5762	5.173589	0.000365	3.652021	0.618669	0.000037
 663	6.5869e+01	6.5855	5.181664	0.000081	0.811560	0.137482	0.000008
 664	6.5969e+01	6.5954	5.238184	0.000568	5.680922	0.962374	0.000057
 665	6.6068e+01	6.6055	5.270481	0.000325	3.246241	0.549928	0.000032
 666	6.6168e+01	6.6158	5.318926	0.000487	4.869362	0.824892	0.000049
 667	6.6267e+01	6.6261	5.343149	0.000243	2.434681	0.412446	0.000024
 668	6.6367e+01	6.6359	5.391595	0.000487	4.869362	0.824892	0.000049
 669	6.6466e+01	6.6457	5.415818	0.000243	2.434681	0.412446	0.000024
 670	6.6566e+01	6.6553	5.423892	0.000081	0.811560	0.137482	0.000008
 671	6.6665e+01	6.6662	5.472337	0.000487	4.869362	0.824892	0.000049
 672	6.6764e+01	6.6748	5.528857	0.000568	5.680922	0.962374	0.000057
 673	6.6864e+01	6.6850	5.536932	0.000081	0.811560	0.137482	0.000008
 674	6.6963e+01	6.6955	5.581340	0.000446	4.463581	0.756151	0.000045
 675	6.7063e+01	6.7054	5.637860	0.000568	5.680922	0.962374	0.000057
 676	6.7162e+01	6.7147	5.649971	0.000122	1.217340	0.206223	0.000012
 677	6.7262e+01	6.7260	5.706491	0.000568	5.680922	0.962374	0.000057
 678	6.7362e+01	6.7359	5.742826	0.000365	3.652021	0.618669	0.000037
 679	6.7461e+01	6.7456	5.783197	0.000406	4.057801	0.687410	0.000041
 680	6.7561e+01	6.7550	5.791271	0.000081	0.811560	0.137482	0.000008
 681	6.7660e+01	6.7648	5.827605	0.000365	3.652021	0.618669	0.000037
 682	6.7760e+01	6.7745	5.855865	0.000284	2.840461	0.481187	0.000028
 683	6.7859e+01	6.7858	5.912385	0.000568	5.680922	0.962374	0.000057
 684	6.7959e+01	6.7951	5.956794	0.000446	4.463581	0.756151	0.000045
 685	6.8058e+01	6.8046	5.989091	0.000325	3.246241	0.549928	0.000032
 686	6.8157e+01	6.8147	6.017351	0.000284	2.840461	0.481187	0.000028
 687	6.8257e+01	6.8250	6.053685	0.000365	3.652021	0.618669	0.000037
 688	6.8356e+01	6.8349	6.106168	0.000528	5.275142	0.893633	0.000053
 689	6.8456e+01	6.8453	6.118279	0.000122	1.217340	0.206223	0.000012
 690	6.8555e+01	6.8536	6.182873	0.000649	6.492482	1.099856	0.000065
 691	6.8655e+01	6.8654	6.174799	-0.000081	-0.811560	-0.137482	-0.000008
 692	6.8754e+01	6.8752	6.255542	0.000812	8.115603	1.374820	0.000081
 693	6.8854e+01	6.8850	6.295913	0.000406	4.057801	0.687410	0.000041
 694	6.8954e+01	6.8948	6.332247	0.000365	3.652021	0.618669	0.000037
 695	6.9053e+01	6.9048	6.336285	0.000041	0.405780	0.068741	0.000004
 696	6.9153e+01	6.9141	6.372619	0.000365	3.652021	0.618669	0.000037
 697	6.9252e+01	6.9242	6.412990	0.000406	4.057801	0.687410	0.000041
 698	6.9352e+01	6.9349	6.453361	0.000406	4.057801	0.687410	0.000041
 699	6.9451e+01	6.9449	6.493733	0.000406	4.057801	0.687410	0.000041
 700	6.9550e+01	6.9543	6.546216	0.000528	5.275142	0.893633	0.000053
 701	6.9650e+01	6.9645	6.562364	0.000162	1.623121	0.274964	0.000016
 702	6.9749e+01	6.9736	6.606773	0.000446	4.463581	0.756151	0.000045
 703	6.9849e+01	6.9833	6.630995	0.000243	2.434681	0.412446	0.000024
 704	6.9948e+01	6.9930	6.635033	0.000041	0.405780	0.068741	0.000004
 705	7.0048e+01	7.0045	6.687515	0.000528	5.275142	0.893633	0.000053
 706	7.0147e+01	7.0145	6.719812	0.000325	3.246241	0.549928	0.000032
 707	7.0247e+01	7.0245	6.768258	0.000487	4.869362	0.824892	0.000049
 708	7.0347e+01	7.0328	6.772295	0.000041	0.405780	0.068741	0.000004
 709	7.0446e+01	7.0444	6.804592	0.000325	3.246241	0.549928	0.000032
 710	7.0546e+01	7.0530	6.816704	0.000122	1.217340	0.206223	0.000012
 711	7.0645e+01	7.0634	6.897446	0.000812	8.115603	1.374820	0.000081
 712	7.0745e+01	7.0724	6.905521	0.000081	0.811560	0.137482	0.000008
 713	7.0844e+01	7.0834	6.949929	0.000446	4.463581	0.756151	0.000045
 714	7.0944e+01	7.0930	6.958003	0.000081	0.811560	0.137482	0.000008
 715	7.1043e+01	7.1038	7.018560	0.000609	6.086702	1.031115	0.000061
 716	7.1142e+01	7.1128	7.054895	0.000365	3.652021	0.618669	0.000037
 717	7.1242e+01	7.1234	7.083155	0.000284	2.840461	0.481187	0.000028
 718	7.1341e+01	7.1322	7.127563	0.000446	4.463581	0.756151	0.000045
 719	7.1441e+01	7.1432	7.159860	0.000325	3.246241	0.549928	0.000032
 720	7.1540e+01	7.1526	7.171972	0.000122	1.217340	0.206223	0.000012
 721	7.1640e+01	7.1631	7.232529	0.000609	6.086702	1.031115	0.000061
 722	7.1740e+01	7.1729	7.248677	0.000162	1.623121	0.274964	0.000016
 723	7.1839e+01	7.1829	7.268863	0.000203	2.028901	0.343705	0.000020
 724	7.1939e+01	7.1924	7.317309	0.000487	4.869362	0.824892	0.000049
 725	7.2038e+01	7.2027	7.381903	0.000649	6.492482	1.099856	0.000065
 726	7.2138e+01	7.2124	7.373828	-0.000081	-0.811560	-0.137482	-0.000008
 727	7.2237e+01	7.2237	7.414200	0.000406	4.057801	0.687410	0.000041
 728	7.2337e+01	7.2314	7.450534	0.000365	3.652021	0.618669	0.000037
 729	7.2436e+01	7.2425	7.503017	0.000528	5.275142	0.893633	0.000053
 730	7.2535e+01	7.2520	7.547425	0.000446	4.463581	0.756151	0.000045
 731	7.2635e+01	7.2626	7.531277	-0.000162	-1.623121	-0.274964	-0.000016
 732	7.2734e+01	7.2728	7.603945	0.000730	7.304042	1.237338	0.000073
 733	7.2834e+01	7.2826	7.632205	0.000284	2.840461	0.481187	0.000028
 734	7.2933e+01	7.2930	7.672576	0.000406	4.057801	0.687410	0.000041
 735	7.3033e+01	7.3026	7.712948	0.000406	4.057801	0.687410	0.000041
 736	7.3132e+01	7.3117	7.700836	-0.000122	-1.217340	-0.206223	-0.000012
 737	7.3232e+01	7.3226	7.749282	0.000487	4.869362	0.824892	0.000049
 738	7.3332e+01	7.3312	7.757356	0.000081	0.811560	0.137482	0.000008
 739	7.3431e+01	7.3423	7.830025	0.000730	7.304042	1.237338	0.000073
 740	7.3531e+01	7.3522	7.854248	0.000243	2.434681	0.412446	0.000024
 741	7.3630e+01	7.3623	7.890582	0.000365	3.652021	0.618669	0.000037
 742	7.3730e+01	7.3714	7.926916	0.000365	3.652021	0.618669	0.000037
 743	7.3829e+01	7.3824	7.975362	0.000487	4.869362	0.824892	0.000049
 744	7.3928e+01	7.3926	8.003622	0.000284	2.840461	0.481187	0.000028
 745	7.4028e+01	7.4016	8.048030	0.000446	4.463581	0.756151	0.000045
 746	7.4127e+01	7.4115	8.072253	0.000243	2.434681	0.412446	0.000024
 747	7.4227e+01	7.4213	8.132810	0.000609	6.086702	1.031115	0.000061
 748	7.4326e+01	7.4322	8.128773	-0.000041	-0.405780	-0.068741	-0.000004
 749	7.4426e+01	7.4413	8.197404	0.000690	6.898262	1.168597	0.000069
 750	7.4525e+01	7.4509	8.217590	0.000203	2.028901	0.343705	0.000020
 751	7.4625e+01	7.4615	8.261998	0.000446	4.463581	0.756151	0.000045
 752	7.4725e+01	7.4709	8.290258	0.000284	2.840461	0.481187	0.000028
 753	7.4824e+01	7.4805	8.371001	0.000812	8.115603	1.374820	0.000081
 754	7.4924e+01	7.4909	8.419447	0.000487	4.869362	0.824892	0.000049
 755	7.5023e+01	7.5025	8.415409	-0.000041	-0.405780	-0.068741	-0.000004
 756	7.5123e+01	7.5114	8.471929	0.000568	5.680922	0.962374	0.000057
 757	7.5222e+01	7.5216	8.488078	0.000162	1.623121	0.274964	0.000016
 758	7.5322e+01	7.5306	8.556709	0.000690	6.898262	1.168597	0.000069
 759	7.5421e+01	7.5420	8.556709	0.000000	0.000000	0.000000	0.000000
 760	7.5520e+01	7.5502	8.625341	0.000690	6.898262	1.168597	0.000069
 761	7.5620e+01	7.5603	8.665712	0.000406	4.057801	0.687410	0.000041
 762	7.5719e+01	7.5704	8.702046	0.000365	3.652021	0.618669	0.000037
 763	7.5819e+01	7.5804	8.754529	0.000528	5.275142	0.893633	0.000053
 764	7.5918e+01	7.5912	8.754529	0.000000	0.000000	0.000000	0.000000
 765	7.6018e+01	7.6004	8.815086	0.000609	6.086702	1.031115	0.000061
 766	7.6118e+01	7.6102	8.887754	0.000730	7.304042	1.237338	0.000073
 767	7.6217e+01	7.6206	8.867569	-0.000203	-2.028901	-0.343705	-0.000020
 768	7.6317e+01	7.6308	8.956386	0.000893	8.927163	1.512302	0.000089
 769	7.6416e+01	7.6404	8.984646	0.000284	2.840461	0.481187	0.000028
 770	7.6516e+01	7.6490	9.016943	0.000325	3.246241	0.549928	0.000032
 771	7.6615e+01	7.6600	9.045203	0.000284	2.840461	0.481187	0.000028
 772	7.6715e+01	7.6702	9.093648	0.000487	4.869362	0.824892	0.000049
 773	7.6814e+01	7.6799	9.125945	0.000325	3.246241	0.549928	0.000032
 774	7.6913e+01	7.6905	9.162280	0.000365	3.652021	0.618669	0.000037
 775	7.7013e+01	7.7001	9.206688	0.000446	4.463581	0.756151	0.000045
 776	7.7112e+01	7.7103	9.283394	0.000771	7.709822	1.306079	0.000077
 777	7.7212e+01	7.7198	9.287431	0.000041	0.405780	0.068741	0.000004
 778	7.7311e+01	7.7300	9.356062	0.000690	6.898262	1.168597	0.000069
 779	7.7411e+01	7.7406	9.384322	0.000284	2.840461	0.481187	0.000028
 780	7.7510e+01	7.7496	9.392396	0.000081	0.811560	0.137482	0.000008
 781	7.7610e+01	7.7606	9.456990	0.000649	6.492482	1.099856	0.000065
 782	7.7710e+01	7.7704	9.481213	0.000243	2.434681	0.412446	0.000024
 783	7.7809e+01	7.7792	9.533696	0.000528	5.275142	0.893633	0.000053
 784	7.7909e+01	7.7895	9.598290	0.000649	6.492482	1.099856	0.000065
 785	7.8008e+01	7.7997	9.594253	-0.000041	-0.405780	-0.068741	-0.000004
 786	7.8108e+01	7.8095	9.650773	0.000568	5.680922	0.962374	0.000057
 787	7.8207e+01	7.8197	9.707293	0.000568	5.680922	0.962374	0.000057
 788	7.8306e+01	7.8289	9.735553	0.000284	2.840461	0.481187	0.000028
 789	7.8406e+01	7.8394	9.775924	0.000406	4.057801	0.687410	0.000041
 790	7.8505e+01	7.8490	9.832444	0.000568	5.680922	0.962374	0.000057
 791	7.8605e+01	7.8589	9.884927	0.000528	5.275142	0.893633	0.000053
 792	7.8704e+01	7.8696	9.925298	0.000406	4.057801	0.687410	0.000041
 793	7.8804e+01	7.8799	9.973744	0.000487	4.869362	0.824892	0.000049
 794	7.8903e+01	7.8892	10.002004	0.000284	2.840461	0.481187	0.000028
 795	7.9003e+01	7.8996	10.034301	0.000325	3.246241	0.549928	0.000032
 796	7.9103e+01	7.9082	10.111006	0.000771	7.709822	1.306079	0.000077
 797	7.9202e+01	7.9188	10.131192	0.000203	2.028901	0.343705	0.000020
 798	7.9302e+01	7.9279	10.159452	0.000284	2.840461	0.481187	0.000028
 799	7.9401e+01	7.9395	10.215972	0.000568	5.680922	0.962374	0.000057
 800	7.9501e+01	7.9492	10.244232	0.000284	2.840461	0.481187	0.000028
 801	7.9600e+01	7.9592	10.320938	0.000771	7.709822	1.306079	0.000077
 802	7.9700e+01	7.9694	10.373420	0.000528	5.275142	0.893633	0.000053
 803	7.9799e+01	7.9793	10.442052	0.000690	6.898262	1.168597	0.000069
 804	7.9898e+01	7.9888	10.446089	0.000041	0.405780	0.068741	0.000004
 805	7.9998e+01	7.9980	10.482423	0.000365	3.652021	0.618669	0.000037
 806	8.0097e+01	8.0080	10.547017	0.000649	6.492482	1.099856	0.000065
 807	8.0197e+01	8.0181	10.551054	0.000041	0.405780	0.068741	0.000004
 808	8.0296e+01	8.0275	10.623723	0.000730	7.304042	1.237338	0.000073
 809	8.0396e+01	8.0384	10.672168	0.000487	4.869362	0.824892	0.000049
 810	8.0496e+01	8.0484	10.716577	0.000446	4.463581	0.756151	0.000045
 811	8.0595e+01	8.0582	10.752911	0.000365	3.652021	0.618669	0.000037
 812	8.0695e+01	8.0685	10.805394	0.000528	5.275142	0.893633	0.000053
 813	8.0794e+01	8.0776	10.821542	0.000162	1.623121	0.274964	0.000016
 814	8.0894e+01	8.0874	10.890174	0.000690	6.898262	1.168597	0.000069
 815	8.0993e+01	8.0977	10.942656	0.000528	5.275142	0.893633	0.000053
 816	8.1093e+01	8.1077	10.978991	0.000365	3.652021	0.618669	0.000037
 817	8.1192e+01	8.1178	11.027436	0.000487	4.869362	0.824892	0.000049
 818	8.1291e+01	8.1273	11.075882	0.000487	4.869362	0.824892	0.000049
 819	8.1391e+01	8.1390	11.092030	0.000162	1.623121	0.274964	0.000016
 820	8.1490e+01	8.1477	11.136439	0.000446	4.463581	0.756151	0.000045
 821	8.1590e+01	8.1592	11.180847	0.000446	4.463581	0.756151	0.000045
 822	8.1689e+01	8.1678	11.217182	0.000365	3.652021	0.618669	0.000037
 823	8.1789e+01	8.1778	11.305999	0.000893	8.927163	1.512302	0.000089
 824	8.1888e+01	8.1873	11.326184	0.000203	2.028901	0.343705	0.000020
 825	8.1988e+01	8.1982	11.378667	0.000528	5.275142	0.893633	0.000053
 826	8.2088e+01	8.2072	11.431150	0.000528	5.275142	0.893633	0.000053
 827	8.2187e+01	8.2178	11.491707	0.000609	6.086702	1.031115	0.000061
 828	8.2287e+01	8.2281	11.503818	0.000122	1.217340	0.206223	0.000012
 829	8.2386e+01	8.2373	11.564375	0.000609	6.086702	1.031115	0.000061
 830	8.2486e+01	8.2475	11.600710	0.000365	3.652021	0.618669	0.000037
 831	8.2585e+01	8.2568	11.612821	0.000122	1.217340	0.206223	0.000012
 832	8.2684e+01	8.2673	11.685489	0.000730	7.304042	1.237338	0.000073
 833	8.2784e+01	8.2772	11.733935	0.000487	4.869362	0.824892	0.000049
 834	8.2883e+01	8.2867	11.782381	0.000487	4.869362	0.824892	0.000049
 835	8.2983e+01	8.2974	11.794492	0.000122	1.217340	0.206223	0.000012
 836	8.3082e+01	8.3057	11.834863	0.000406	4.057801	0.687410	0.000041
 837	8.3182e+01	8.3179	11.895420	0.000609	6.086702	1.031115	0.000061
 838	8.3281e+01	8.3273	11.927718	0.000325	3.246241	0.549928	0.000032
 839	8.3381e+01	8.3375	11.980200	0.000528	5.275142	0.893633	0.000053
 840	8.3481e+01	8.3475	12.012497	0.000325	3.246241	0.549928	0.000032
 841	8.3580e+01	8.3566	12.052869	0.000406	4.057801	0.687410	0.000041
 842	8.3680e+01	8.3675	12.105352	0.000528	5.275142	0.893633	0.000053
 843	8.3779e+01	8.3768	12.173983	0.000690	6.898262	1.168597	0.000069
 844	8.3879e+01	8.3863	12.218391	0.000446	4.463581	0.756151	0.000045
 845	8.3978e+01	8.3959	12.230503	0.000122	1.217340	0.206223	0.000012
 846	8.4078e+01	8.4065	12.287023	0.000568	5.680922	0.962374	0.000057
 847	8.4177e+01	8.4163	12.331431	0.000446	4.463581	0.756151	0.000045
 848	8.4276e+01	8.4258	12.391988	0.000609	6.086702	1.031115	0.000061
 849	8.4376e+01	8.4357	12.420248	0.000284	2.840461	0.481187	0.000028
 850	8.4475e+01	8.4463	12.472731	0.000528	5.275142	0.893633	0.000053
 851	8.4575e+01	8.4562	12.484842	0.000122	1.217340	0.206223	0.000012
 852	8.4674e+01	8.4668	12.545399	0.000609	6.086702	1.031115	0.000061
 853	8.4774e+01	8.4767	12.618068	0.000730	7.304042	1.237338	0.000073
 854	8.4874e+01	8.4872	12.666513	0.000487	4.869362	0.824892	0.000049
 855	8.4973e+01	8.4974	12.739182	0.000730	7.304042	1.237338	0.000073
 856	8.5073e+01	8.5062	12.759368	0.000203	2.028901	0.343705	0.000020
 857	8.5172e+01	8.5164	12.743219	-0.000162	-1.623121	-0.274964	-0.000016
 858	8.5272e+01	8.5258	12.852222	0.001096	10.956063	1.856007	0.000110
 859	8.5371e+01	8.5345	12.876444	0.000243	2.434681	0.412446	0.000024
 860	8.5471e+01	8.5459	12.892593	0.000162	1.623121	0.274964	0.000016
 861	8.5570e+01	8.5561	13.009670	0.001177	11.767624	1.993489	0.000118
 862	8.5669e+01	8.5654	13.033893	0.000243	2.434681	0.412446	0.000024
 863	8.5769e+01	8.5760	13.082338	0.000487	4.869362	0.824892	0.000049
 864	8.5868e+01	8.5855	13.150970	0.000690	6.898262	1.168597	0.000069
 865	8.5968e+01	8.5960	13.183267	0.000325	3.246241	0.549928	0.000032
 866	8.6067e+01	8.6064	13.223638	0.000406	4.057801	0.687410	0.000041
 867	8.6167e+01	8.6162	13.284195	0.000609	6.086702	1.031115	0.000061
 868	8.6266e+01	8.6246	13.316492	0.000325	3.246241	0.549928	0.000032
 869	8.6366e+01	8.6349	13.381086	0.000649	6.492482	1.099856	0.000065
 870	8.6466e+01	8.6447	13.413383	0.000325	3.246241	0.549928	0.000032
 871	8.6565e+01	8.6557	13.494126	0.000812	8.115603	1.374820	0.000081
 872	8.6665e+01	8.6651	13.502200	0.000081	0.811560	0.137482	0.000008
 873	8.6764e+01	8.6750	13.558720	0.000568	5.680922	0.962374	0.000057
 874	8.6864e+01	8.6855	13.586980	0.000284	2.840461	0.481187	0.000028
 875	8.6963e+01	8.6954	13.607166	0.000203	2.028901	0.343705	0.000020
 876	8.7063e+01	8.7052	13.683872	0.000771	7.709822	1.306079	0.000077
 877	8.7162e+01	8.7148	13.756540	0.000730	7.304042	1.237338	0.000073
 878	8.7261e+01	8.7249	13.821134	0.000649	6.492482	1.099856	0.000065
 879	8.7361e+01	8.7354	13.865543	0.000446	4.463581	0.756151	0.000045
 880	8.7460e+01	8.7451	13.934174	0.000690	6.898262	1.168597	0.000069
 881	8.7560e+01	8.7545	13.909951	-0.000243	-2.434681	-0.412446	-0.000024
 882	8.7659e+01	8.7646	13.994731	0.000852	8.521383	1.443561	0.000085
 883	8.7759e+01	8.7746	14.014917	0.000203	2.028901	0.343705	0.000020
 884	8.7859e+01	8.7846	14.071437	0.000568	5.680922	0.962374	0.000057
 885	8.7958e+01	8.7952	14.136031	0.000649	6.492482	1.099856	0.000065
 886	8.8058e+01	8.8063	14.172365	0.000365	3.652021	0.618669	0.000037
 887	8.8157e+01	8.8147	14.253108	0.000812	8.115603	1.374820	0.000081
 888	8.8257e+01	8.8245	14.273293	0.000203	2.028901	0.343705	0.000020
 889	8.8356e+01	8.8342	14.358073	0.000852	8.521383	1.443561	0.000085
 890	8.8456e+01	8.8433	14.398445	0.000406	4.057801	0.687410	0.000041
 891	8.8555e+01	8.8535	14.450927	0.000528	5.275142	0.893633	0.000053
 892	8.8654e+01	8.8632	14.519559	0.000690	6.898262	1.168597	0.000069
 893	8.8754e+01	8.8733	14.547819	0.000284	2.840461	0.481187	0.000028
 894	8.8853e+01	8.8834	14.555893	0.000081	0.811560	0.137482	0.000008
 895	8.8953e+01	8.8942	14.656821	0.001014	10.144503	1.718525	0.000101
 896	8.9052e+01	8.9039	14.681044	0.000243	2.434681	0.412446	0.000024
 897	8.9152e+01	8.9133	14.757750	0.000771	7.709822	1.306079	0.000077
 898	8.9251e+01	8.9237	14.802158	0.000446	4.463581	0.756151	0.000045
 899	8.9351e+01	8.9336	14.854641	0.000528	5.275142	0.893633	0.000053
 900	8.9451e+01	8.9419	14.886938	0.000325	3.246241	0.549928	0.000032
 901	8.9550e+01	8.9524	14.979792	0.000933	9.332943	1.581043	0.000093
 902	8.9650e+01	8.9634	15.024201	0.000446	4.463581	0.756151	0.000045
 903	8.9749e+01	8.9737	15.100906	0.000771	7.709822	1.306079	0.000077
 904	8.9849e+01	8.9830	15.121092	0.000203	2.028901	0.343705	0.000020
 905	8.9948e+01	8.9935	15.173575	0.000528	5.275142	0.893633	0.000053
 906	9.0047e+01	9.0019	15.230095	0.000568	5.680922	0.962374	0.000057
 907	9.0147e+01	9.0130	15.286614	0.000568	5.680922	0.962374	0.000057
 908	9.0246e+01	9.0234	15.375431	0.000893	8.927163	1.512302	0.000089
 909	9.0346e+01	9.0332	15.387543	0.000122	1.217340	0.206223	0.000012
 910	9.0445e+01	9.0430	15.496546	0.001096	10.956063	1.856007	0.000110
 911	9.0545e+01	9.0527	15.512694	0.000162	1.623121	0.274964	0.000016
 912	9.0644e+01	9.0630	15.569214	0.000568	5.680922	0.962374	0.000057
 913	9.0744e+01	9.0730	15.645920	0.000771	7.709822	1.306079	0.000077
 914	9.0844e+01	9.0829	15.694365	0.000487	4.869362	0.824892	0.000049
 915	9.0943e+01	9.0918	15.738774	0.000446	4.463581	0.756151	0.000045
 916	9.1043e+01	9.1034	15.823554	0.000852	8.521383	1.443561	0.000085
 917	9.1142e+01	9.1125	15.859888	0.000365	3.652021	0.618669	0.000037
 918	9.1242e+01	9.1221	15.936593	0.000771	7.709822	1.306079	0.000077
 919	9.1341e+01	9.1317	16.009262	0.000730	7.304042	1.237338	0.000073
 920	9.1441e+01	9.1420	16.041559	0.000325	3.246241	0.549928	0.000032
 921	9.1540e+01	9.1516	16.150562	0.001096	10.956063	1.856007	0.000110
 922	9.1639e+01	9.1616	16.203044	0.000528	5.275142	0.893633	0.000053
 923	9.1739e+01	9.1721	16.231304	0.000284	2.840461	0.481187	0.000028
 924	9.1838e+01	9.1818	16.340307	0.001096	10.956063	1.856007	0.000110
 925	9.1938e+01	9.1916	16.441235	0.001014	10.144503	1.718525	0.000101
 926	9.2037e+01	9.2017	16.473532	0.000325	3.246241	0.549928	0.000032
 927	9.2137e+01	9.2117	16.521978	0.000487	4.869362	0.824892	0.000049
 928	9.2237e+01	9.2222	16.594646	0.000730	7.304042	1.237338	0.000073
 929	9.2336e+01	9.2323	16.651166	0.000568	5.680922	0.962374	0.000057
 930	9.2436e+01	9.2426	16.739983	0.000893	8.927163	1.512302	0.000089
 931	9.2535e+01	9.2515	16.800540	0.000609	6.086702	1.031115	0.000061
 932	9.2635e+01	9.2612	16.877246	0.000771	7.709822	1.306079	0.000077
 933	9.2734e+01	9.2713	16.949914	0.000730	7.304042	1.237338	0.000073
 934	9.2834e+01	9.2811	16.986249	0.000365	3.652021	0.618669	0.000037
 935	9.2933e+01	9.2921	17.083140	0.000974	9.738723	1.649784	0.000097
 936	9.3032e+01	9.3018	17.135623	0.000528	5.275142	0.893633	0.000053
 937	9.3132e+01	9.3115	17.252700	0.001177	11.767624	1.993489	0.000118
 938	9.3231e+01	9.3204	17.345554	0.000933	9.332943	1.581043	0.000093
 939	9.3331e+01	9.3311	17.389962	0.000446	4.463581	0.756151	0.000045
 940	9.3430e+01	9.3410	17.438408	0.000487	4.869362	0.824892	0.000049
 941	9.3530e+01	9.3513	17.494928	0.000568	5.680922	0.962374	0.000057
 942	9.3629e+01	9.3607	17.579708	0.000852	8.521383	1.443561	0.000085
 943	9.3729e+01	9.3716	17.660450	0.000812	8.115603	1.374820	0.000081
 944	9.3829e+01	9.3806	17.704859	0.000446	4.463581	0.756151	0.000045
 945	9.3928e+01	9.3916	17.797713	0.000933	9.332943	1.581043	0.000093
 946	9.4028e+01	9.4008	17.882493	0.000852	8.521383	1.443561	0.000085
 947	9.4127e+01	9.4103	17.947087	0.000649	6.492482	1.099856	0.000065
 948	9.4227e+01	9.4214	18.019755	0.000730	7.304042	1.237338	0.000073
 949	9.4326e+01	9.4312	18.104535	0.000852	8.521383	1.443561	0.000085
 950	9.4425e+01	9.4411	18.169129	0.000649	6.492482	1.099856	0.000065
 951	9.4525e+01	9.4507	18.286206	0.001177	11.767624	1.993489	0.000118
 952	9.4624e+01	9.4612	18.334652	0.000487	4.869362	0.824892	0.000049
 953	9.4724e+01	9.4696	18.419432	0.000852	8.521383	1.443561	0.000085
 954	9.4823e+01	9.4794	18.504212	0.000852	8.521383	1.443561	0.000085
 955	9.4923e+01	9.4904	18.556694	0.000528	5.275142	0.893633	0.000053
 956	9.5022e+01	9.4998	18.649549	0.000933	9.332943	1.581043	0.000093
 957	9.5122e+01	9.5100	18.746440	0.000974	9.738723	1.649784	0.000097
 958	9.5222e+01	9.5193	18.831220	0.000852	8.521383	1.443561	0.000085
 959	9.5321e+01	9.5297	18.924074	0.000933	9.332943	1.581043	0.000093
 960	9.5421e+01	9.5405	19.012891	0.000893	8.927163	1.512302	0.000089
 961	9.5520e+01	9.5499	19.065374	0.000528	5.275142	0.893633	0.000053
 962	9.5620e+01	9.5605	19.154191	0.000893	8.927163	1.512302	0.000089
 963	9.5719e+01	9.5704	19.259156	0.001055	10.550283	1.787266	0.000105
 964	9.5819e+01	9.5805	19.335862	0.000771	7.709822	1.306079	0.000077
 965	9.5918e+01	9.5904	19.412567	0.000771	7.709822	1.306079	0.000077
 966	9.6017e+01	9.5996	19.493310	0.000812	8.115603	1.374820	0.000081
 967	9.6117e+01	9.6098	19.557904	0.000649	6.492482	1.099856	0.000065
 968	9.6216e+01	9.6192	19.666907	0.001096	10.956063	1.856007	0.000110
 969	9.6316e+01	9.6290	19.775909	0.001096	10.956063	1.856007	0.000110
 970	9.6415e+01	9.6395	19.820318	0.000446	4.463581	0.756151	0.000045
 971	9.6515e+01	9.6497	19.880875	0.000609	6.086702	1.031115	0.000061
 972	9.6615e+01	9.6599	20.010063	0.001298	12.984964	2.199712	0.000130
 973	9.6714e+01	9.6698	20.082732	0.000730	7.304042	1.237338	0.000073
 974	9.6814e+01	9.6792	20.175586	0.000933	9.332943	1.581043	0.000093
 975	9.6913e+01	9.6889	20.260366	0.000852	8.521383	1.443561	0.000085
 976	9.7013e+01	9.6997	20.397628	0.001380	13.796524	2.337194	0.000138
 977	9.7112e+01	9.7089	20.490482	0.000933	9.332943	1.581043	0.000093
 978	9.7212e+01	9.7180	20.591411	0.001014	10.144503	1.718525	0.000101
 979	9.7311e+01	9.7297	20.664079	0.000730	7.304042	1.237338	0.000073
 980	9.7410e+01	9.7388	20.740785	0.000771	7.709822	1.306079	0.000077
 981	9.7510e+01	9.7490	20.845750	0.001055	10.550283	1.787266	0.000105
 982	9.7609e+01	9.7598	20.922456	0.000771	7.709822	1.306079	0.000077
 983	9.7709e+01	9.7683	21.023384	0.001014	10.144503	1.718525	0.000101
 984	9.7808e+01	9.7791	21.087979	0.000649	6.492482	1.099856	0.000065
 985	9.7908e+01	9.7894	21.261575	0.001745	17.448545	2.955864	0.000174
 986	9.8007e+01	9.7986	21.310021	0.000487	4.869362	0.824892	0.000049
 987	9.8107e+01	9.8086	21.406912	0.000974	9.738723	1.649784	0.000097
 988	9.8207e+01	9.8175	21.499766	0.000933	9.332943	1.581043	0.000093
 989	9.8306e+01	9.8291	21.653178	0.001542	15.419645	2.612159	0.000154
 990	9.8406e+01	9.8378	21.713735	0.000609	6.086702	1.031115	0.000061
 991	9.8505e+01	9.8486	21.810626	0.000974	9.738723	1.649784	0.000097
 992	9.8605e+01	9.8584	21.939814	0.001298	12.984964	2.199712	0.000130
 993	9.8704e+01	9.8682	22.020557	0.000812	8.115603	1.374820	0.000081
 994	9.8803e+01	9.8780	22.109374	0.000893	8.927163	1.512302	0.000089
 995	9.8903e+01	9.8878	22.254711	0.001461	14.608085	2.474677	0.000146
 996	9.9002e+01	9.8978	22.331416	0.000771	7.709822	1.306079	0.000077
 997	9.9102e+01	9.9073	22.428308	0.000974	9.738723	1.649784	0.000097
 998	9.9201e+01	9.9188	22.545385	0.001177	11.767624	1.993489	0.000118
 999	9.9301e+01	9.9280	22.634202	0.000893	8.927163	1.512302	0.000089
1000	9.9400e+01	9.9376	22.755316	0.001217	12.173404	2.062230	0.000122
1001	9.9500e+01	9.9476	22.827984	0.000730	7.304042	1.237338	0.000073
1002	9.9600e+01	9.9586	22.936987	0.001096	10.956063	1.856007	0.000110
1003	9.9699e+01	9.9677	23.058101	0.001217	12.173404	2.062230	0.000122
1004	9.9799e+01	9.9780	23.179215	0.001217	12.173404	2.062230	0.000122
1005	9.9898e+01	9.9884	23.235735	0.000568	5.680922	0.962374	0.000057
1006	9.9998e+01	9.9982	23.433554	0.001988	19.883226	3.368310	0.000199
1007	1.0010e+02	9.9878	23.453740	-0.000203	-2.028901	-0.343705	0.000020
1008	1.0020e+02	9.9777	23.498149	-0.000446	-4.463581	-0.756151	0.000045
1009	1.0030e+02	9.9677	23.603114	-0.001055	-10.550283	-1.787266	0.000105
1010	1.0040e+02	9.9573	23.574854	0.000284	2.840461	0.481187	-0.000028
1011	1.0050e+02	9.9479	23.671745	-0.000974	-9.738723	-1.649784	0.000097
1012	1.0059e+02	9.9366	23.700005	-0.000284	-2.840461	-0.481187	0.000028
1013	1.0069e+02	9.9281	23.752488	-0.000528	-5.275142	-0.893633	0.000053
1014	1.0079e+02	9.9184	23.829194	-0.000771	-7.709822	-1.306079	0.000077
1015	1.0089e+02	9.9076	23.825157	0.000041	0.405780	0.068741	-0.000004
1016	1.0099e+02	9.8975	23.889751	-0.000649	-6.492482	-1.099856	0.000065
1017	1.0109e+02	9.8886	23.926085	-0.000365	-3.652021	-0.618669	0.000037
1018	1.0119e+02	9.8779	23.962419	-0.000365	-3.652021	-0.618669	0.000037
1019	1.0129e+02	9.8682	24.010865	-0.000487	-4.869362	-0.824892	0.000049
1020	1.0139e+02	9.8589	24.043162	-0.000325	-3.246241	-0.549928	0.000032
1021	1.0149e+02	9.8492	24.099682	-0.000568	-5.680922	-0.962374	0.000057
1022	1.0159e+02	9.8389	24.152165	-0.000528	-5.275142	-0.893633	0.000053
1023	1.0169e+02	9.8291	24.172350	-0.000203	-2.028901	-0.343705	0.000020
1024	1.0179e+02	9.8176	24.176387	-0.000041	-0.405780	-0.068741	0.000004
1025	1.0189e+02	9.8084	24.240982	-0.000649	-6.492482	-1.099856	0.000065
1026	1.0199e+02	9.7974	24.249056	-0.000081	-0.811560	-0.137482	0.000008
1027	1.0209e+02	9.7887	24.277316	-0.000284	-2.840461	-0.481187	0.000028
1028	1.0219e+02	9.7777	24.293464	-0.000162	-1.623121	-0.274964	0.000016
1029	1.0229e+02	9.7681	24.349984	-0.000568	-5.680922	-0.962374	0.000057
1030	1.0239e+02	9.7585	24.382281	-0.000325	-3.246241	-0.549928	0.000032
1031	1.0248e+02	9.7491	24.410541	-0.000284	-2.840461	-0.481187	0.000028
1032	1.0258e+02	9.7395	24.414578	-0.000041	-0.405780	-0.068741	0.000004
1033	1.0268e+02	9.7293	24.446875	-0.000325	-3.246241	-0.549928	0.000032
1034	1.0278e+02	9.7189	24.467061	-0.000203	-2.028901	-0.343705	0.000020
1035	1.0288e+02	9.7095	24.519544	-0.000528	-5.275142	-0.893633	0.000053
1036	1.0298e+02	9.6991	24.527618	-0.000081	-0.811560	-0.137482	0.000008
1037	1.0308e+02	9.6889	24.539730	-0.000122	-1.217340	-0.206223	0.000012
1038	1.0318e+02	9.6790	24.563952	-0.000243	-2.434681	-0.412446	0.000024
1039	1.0328e+02	9.6687	24.572027	-0.000081	-0.811560	-0.137482	0.000008
1040	1.0338e+02	9.6589	24.588175	-0.000162	-1.623121	-0.274964	0.000016
1041	1.0348e+02	9.6494	24.608361	-0.000203	-2.028901	-0.343705	0.000020
1042	1.0358e+02	9.6396	24.628547	-0.000203	-2.028901	-0.343705	0.000020
1043	1.0368e+02	9.6296	24.656807	-0.000284	-2.840461	-0.481187	0.000028
1044	1.0378e+02	9.6204	24.656807	-0.000000	-0.000000	-0.000000	0.000000
1045	1.0388e+02	9.6098	24.709289	-0.000528	-5.275142	-0.893633	0.000053
1046	1.0398e+02	9.6000	24.697178	0.000122	1.217340	0.206223	-0.000012
1047	1.0408e+02	9.5901	24.741586	-0.000446	-4.463581	-0.756151	0.000045
1048	1.0418e+02	9.5780	24.753698	-0.000122	-1.217340	-0.206223	0.000012
1049	1.0428e+02	9.5691	24.729475	0.000243	2.434681	0.412446	-0.000024
1050	1.0438e+02	9.5597	24.769846	-0.000406	-4.057801	-0.687410	0.000041
1051	1.0447e+02	9.5499	24.757735	0.000122	1.217340	0.206223	-0.000012
1052	1.0457e+02	9.5399	24.806181	-0.000487	-4.869362	-0.824892	0.000049
1053	1.0467e+02	9.5313	24.798106	0.000081	0.811560	0.137482	-0.000008
1054	1.0477e+02	9.5206	24.806181	-0.000081	-0.811560	-0.137482	0.000008
1055	1.0487e+02	9.5105	24.810218	-0.000041	-0.405780	-0.068741	0.000004
1056	1.0497e+02	9.4998	24.834440	-0.000243	-2.434681	-0.412446	0.000024
1057	1.0507e+02	9.4898	24.874812	-0.000406	-4.057801	-0.687410	0.000041
1058	1.0517e+02	9.4801	24.903072	-0.000284	-2.840461	-0.481187	0.000028
1059	1.0527e+02	9.4705	24.882886	0.000203	2.028901	0.343705	-0.000020
1060	1.0537e+02	9.4600	24.850589	0.000325	3.246241	0.549928	-0.000032
1061	1.0547e+02	9.4507	24.923257	-0.000730	-7.304042	-1.237338	0.000073
1062	1.0557e+02	9.4413	24.927295	-0.000041	-0.405780	-0.068741	0.000004
1063	1.0567e+02	9.4302	24.931332	-0.000041	-0.405780	-0.068741	0.000004
1064	1.0577e+02	9.4215	24.935369	-0.000041	-0.405780	-0.068741	0.000004
1065	1.0587e+02	9.4115	24.943443	-0.000081	-0.811560	-0.137482	0.000008
1066	1.0597e+02	9.4009	24.943443	-0.000000	-0.000000	-0.000000	0.000000
1067	1.0607e+02	9.3896	24.947480	-0.000041	-0.405780	-0.068741	0.000004
1068	1.0617e+02	9.3803	24.979777	-0.000325	-3.246241	-0.549928	0.000032
1069	1.0627e+02	9.3716	24.935369	0.000446	4.463581	0.756151	-0.000045
1070	1.0637e+02	9.3610	24.979777	-0.000446	-4.463581	-0.756151	0.000045
1071	1.0647e+02	9.3514	24.967666	0.000122	1.217340	0.206223	-0.000012
1072	1.0656e+02	9.3416	24.935369	0.000325	3.246241	0.549928	-0.000032
1073	1.0666e+02	9.3311	24.943443	-0.000081	-0.811560	-0.137482	0.000008
1074	1.0676e+02	9.3216	24.971703	-0.000284	-2.840461	-0.481187	0.000028
1075	1.0686e+02	9.3116	25.004000	-0.000325	-3.246241	-0.549928	0.000032
1076	1.0696e+02	9.3018	24.951517	0.000528	5.275142	0.893633	-0.000053
1077	1.0706e+02	9.2915	24.979777	-0.000284	-2.840461	-0.481187	0.000028
1078	1.0716e+02	9.2822	24.995926	-0.000162	-1.623121	-0.274964	0.000016
1079	1.0726e+02	9.2725	25.008037	-0.000122	-1.217340	-0.206223	0.000012
1080	1.0736e+02	9.2618	24.979777	0.000284	2.840461	0.481187	-0.000028
1081	1.0746e+02	9.2519	24.951517	0.000284	2.840461	0.481187	-0.000028
1082	1.0756e+02	9.2417	24.967666	-0.000162	-1.623121	-0.274964	0.000016
1083	1.0766e+02	9.2319	24.939406	0.000284	2.840461	0.481187	-0.000028
1084	1.0776e+02	9.2207	24.971703	-0.000325	-3.246241	-0.549928	0.000032
1085	1.0786e+02	9.2120	24.951517	0.000203	2.028901	0.343705	-0.000020
1086	1.0796e+02	9.2019	24.951517	-0.000000	-0.000000	-0.000000	0.000000
1087	1.0806e+02	9.1920	24.947480	0.000041	0.405780	0.068741	-0.000004
1088	1.0816e+02	9.1814	24.943443	0.000041	0.405780	0.068741	-0.000004
1089	1.0826e+02	9.1714	24.915183	0.000284	2.840461	0.481187	-0.000028
1090	1.0836e+02	9.1626	24.907109	0.000081	0.811560	0.137482	-0.000008
1091	1.0845e+02	9.1513	24.963629	-0.000568	-5.680922	-0.962374	0.000057
1092	1.0855e+02	9.1415	24.919220	0.000446	4.463581	0.756151	-0.000045
1093	1.0865e+02	9.1333	24.963629	-0.000446	-4.463581	-0.756151	0.000045
1094	1.0875e+02	9.1215	24.919220	0.000446	4.463581	0.756151	-0.000045
1095	1.0885e+02	9.1114	24.939406	-0.000203	-2.028901	-0.343705	0.000020
1096	1.0895e+02	9.1032	24.907109	0.000325	3.246241	0.549928	-0.000032
1097	1.0905e+02	9.0925	24.878849	0.000284	2.840461	0.481187	-0.000028
1098	1.0915e+02	9.0814	24.899035	-0.000203	-2.028901	-0.343705	0.000020
1099	1.0925e+02	9.0723	24.903072	-0.000041	-0.405780	-0.068741	0.000004
1100	1.0935e+02	9.0625	24.890960	0.000122	1.217340	0.206223	-0.000012
1101	1.0945e+02	9.0527	24.874812	0.000162	1.623121	0.274964	-0.000016
1102	1.0955e+02	9.0430	24.866738	0.000081	0.811560	0.137482	-0.000008
1103	1.0965e+02	9.0332	24.858663	0.000081	0.811560	0.137482	-0.000008
1104	1.0975e+02	9.0234	24.822329	0.000365	3.652021	0.618669	-0.000037
1105	1.0985e+02	9.0122	24.854626	-0.000325	-3.246241	-0.549928	0.000032
1106	1.0995e+02	9.0027	24.826366	0.000284	2.840461	0.481187	-0.000028
1107	1.1005e+02	8.9936	24.838478	-0.000122	-1.217340	-0.206223	0.000012
1108	1.1015e+02	8.9832	24.810218	0.000284	2.840461	0.481187	-0.000028
1109	1.1025e+02	8.9725	24.802143	0.000081	0.811560	0.137482	-0.000008
1110	1.1035e+02	8.9625	24.802143	-0.000000	-0.000000	-0.000000	0.000000
1111	1.1044e+02	8.9533	24.802143	-0.000000	-0.000000	-0.000000	0.000000
1112	1.1054e+02	8.9435	24.777921	0.000243	2.434681	0.412446	-0.000024
1113	1.1064e+02	8.9355	24.765809	0.000122	1.217340	0.206223	-0.000012
1114	1.1074e+02	8.9227	24.773883	-0.000081	-0.811560	-0.137482	0.000008
1115	1.1084e+02	8.9131	24.725438	0.000487	4.869362	0.824892	-0.000049
1116	1.1094e+02	8.9041	24.713326	0.000122	1.217340	0.206223	-0.000012
1117	1.1104e+02	8.8934	24.733512	-0.000203	-2.028901	-0.343705	0.000020
1118	1.1114e+02	8.8833	24.697178	0.000365	3.652021	0.618669	-0.000037
1119	1.1124e+02	8.8724	24.701215	-0.000041	-0.405780	-0.068741	0.000004
1120	1.1134e+02	8.8635	24.701215	-0.000000	-0.000000	-0.000000	0.000000
1121	1.1144e+02	8.8528	24.672955	0.000284	2.840461	0.481187	-0.000028
1122	1.1154e+02	8.8434	24.664881	0.000081	0.811560	0.137482	-0.000008
1123	1.1164e+02	8.8343	24.685066	-0.000203	-2.028901	-0.343705	0.000020
1124	1.1174e+02	8.8235	24.656807	0.000284	2.840461	0.481187	-0.000028
1125	1.1184e+02	8.8135	24.624509	0.000325	3.246241	0.549928	-0.000032
1126	1.1194e+02	8.8037	24.640658	-0.000162	-1.623121	-0.274964	0.000016
1127	1.1204e+02	8.7939	24.608361	0.000325	3.246241	0.549928	-0.000032
1128	1.1214e+02	8.7852	24.588175	0.000203	2.028901	0.343705	-0.000020
1129	1.1224e+02	8.7738	24.596249	-0.000081	-0.811560	-0.137482	0.000008
1130	1.1234e+02	8.7647	24.596249	-0.000000	-0.000000	-0.000000	0.000000
1131	1.1244e+02	8.7551	24.555878	0.000406	4.057801	0.687410	-0.000041
1132	1.1253e+02	8.7446	24.572027	-0.000162	-1.623121	-0.274964	0.000016
1133	1.1263e+02	8.7341	24.515507	0.000568	5.680922	0.962374	-0.000057
1134	1.1273e+02	8.7251	24.515507	-0.000000	-0.000000	-0.000000	0.000000
1135	1.1283e+02	8.7151	24.483210	0.000325	3.246241	0.549928	-0.000032
1136	1.1293e+02	8.7038	24.491284	-0.000081	-0.811560	-0.137482	0.000008
1137	1.1303e+02	8.6958	24.458987	0.000325	3.246241	0.549928	-0.000032
1138	1.1313e+02	8.6847	24.446875	0.000122	1.217340	0.206223	-0.000012
1139	1.1323e+02	8.6753	24.450913	-0.000041	-0.405780	-0.068741	0.000004
1140	1.1333e+02	8.6655	24.430727	0.000203	2.028901	0.343705	-0.000020
1141	1.1343e+02	8.6553	24.398430	0.000325	3.246241	0.549928	-0.000032
1142	1.1353e+02	8.6454	24.390356	0.000081	0.811560	0.137482	-0.000008
1143	1.1363e+02	8.6353	24.418616	-0.000284	-2.840461	-0.481187	0.000028
1144	1.1373e+02	8.6259	24.366133	0.000528	5.275142	0.893633	-0.000053
1145	1.1383e+02	8.6157	24.386318	-0.000203	-2.028901	-0.343705	0.000020
1146	1.1393e+02	8.6054	24.366133	0.000203	2.028901	0.343705	-0.000020
1147	1.1403e+02	8.5956	24.341910	0.000243	2.434681	0.412446	-0.000024
1148	1.1413e+02	8.5858	24.317687	0.000243	2.434681	0.412446	-0.000024
1149	1.1423e+02	8.5755	24.309613	0.000081	0.811560	0.137482	-0.000008
1150	1.1433e+02	8.5651	24.277316	0.000325	3.246241	0.549928	-0.000032
1151	1.1442e+02	8.5554	24.297501	-0.000203	-2.028901	-0.343705	0.000020
1152	1.1452e+02	8.5468	24.232907	0.000649	6.492482	1.099856	-0.000065
1153	1.1462e+02	8.5355	24.220796	0.000122	1.217340	0.206223	-0.000012
1154	1.1472e+02	8.5259	24.184462	0.000365	3.652021	0.618669	-0.000037
1155	1.1482e+02	8.5165	24.232907	-0.000487	-4.869362	-0.824892	0.000049
1156	1.1492e+02	8.5059	24.180425	0.000528	5.275142	0.893633	-0.000053
1157	1.1502e+02	8.4967	24.196573	-0.000162	-1.623121	-0.274964	0.000016
1158	1.1512e+02	8.4856	24.156202	0.000406	4.057801	0.687410	-0.000041
1159	1.1522e+02	8.4769	24.136016	0.000203	2.028901	0.343705	-0.000020
1160	1.1532e+02	8.4668	24.115830	0.000203	2.028901	0.343705	-0.000020
1161	1.1542e+02	8.4562	24.091608	0.000243	2.434681	0.412446	-0.000024
1162	1.1552e+02	8.4459	24.043162	0.000487	4.869362	0.824892	-0.000049
1163	1.1562e+02	8.4370	24.039125	0.000041	0.405780	0.068741	-0.000004
1164	1.1572e+02	8.4260	24.035088	0.000041	0.405780	0.068741	-0.000004
1165	1.1582e+02	8.4170	24.031050	0.000041	0.405780	0.068741	-0.000004
1166	1.1592e+02	8.4070	24.035088	-0.000041	-0.405780	-0.068741	0.000004
1167	1.1602e+02	8.3976	23.978568	0.000568	5.680922	0.962374	-0.000057
1168	1.1612e+02	8.3868	23.986642	-0.000081	-0.811560	-0.137482	0.000008
1169	1.1622e+02	8.3770	23.909936	0.000771	7.709822	1.306079	-0.000077
1170	1.1632e+02	8.3665	23.954345	-0.000446	-4.463581	-0.756151	0.000045
1171	1.1642e+02	8.3568	23.905899	0.000487	4.869362	0.824892	-0.000049
1172	1.1651e+02	8.3469	23.889751	0.000162	1.623121	0.274964	-0.000016
1173	1.1661e+02	8.3358	23.861491	0.000284	2.840461	0.481187	-0.000028
1174	1.1671e+02	8.3263	23.825157	0.000365	3.652021	0.618669	-0.000037
1175	1.1681e+02	8.3171	23.817082	0.000081	0.811560	0.137482	-0.000008
1176	1.1691e+02	8.3058	23.784785	0.000325	3.246241	0.549928	-0.000032
1177	1.1701e+02	8.2963	23.736340	0.000487	4.869362	0.824892	-0.000049
1178	1.1711e+02	8.2877	23.683857	0.000528	5.275142	0.893633	-0.000053
1179	1.1721e+02	8.2798	23.700005	-0.000162	-1.623121	-0.274964	0.000016
1180	1.1731e+02	8.2669	23.675783	0.000243	2.434681	0.412446	-0.000024
1181	1.1741e+02	8.2571	23.643485	0.000325	3.246241	0.549928	-0.000032
1182	1.1751e+02	8.2474	23.655597	-0.000122	-1.217340	-0.206223	0.000012
1183	1.1761e+02	8.2376	23.615225	0.000406	4.057801	0.687410	-0.000041
1184	1.1771e+02	8.2272	23.586966	0.000284	2.840461	0.481187	-0.000028
1185	1.1781e+02	8.2178	23.566780	0.000203	2.028901	0.343705	-0.000020
1186	1.1791e+02	8.2066	23.542557	0.000243	2.434681	0.412446	-0.000024
1187	1.1801e+02	8.1974	23.514297	0.000284	2.840461	0.481187	-0.000028
1188	1.1811e+02	8.1882	23.534483	-0.000203	-2.028901	-0.343705	0.000020
1189	1.1821e+02	8.1779	23.477963	0.000568	5.680922	0.962374	-0.000057
1190	1.1831e+02	8.1669	23.453740	0.000243	2.434681	0.412446	-0.000024
1191	1.1841e+02	8.1577	23.417406	0.000365	3.652021	0.618669	-0.000037
1192	1.1850e+02	8.1479	23.372997	0.000446	4.463581	0.756151	-0.000045
1193	1.1860e+02	8.1383	23.368960	0.000041	0.405780	0.068741	-0.000004
1194	1.1870e+02	8.1277	23.364923	0.000041	0.405780	0.068741	-0.000004
1195	1.1880e+02	8.1201	23.340700	0.000243	2.434681	0.412446	-0.000024
1196	1.1890e+02	8.1079	23.292255	0.000487	4.869362	0.824892	-0.000049
1197	1.1900e+02	8.0984	23.255920	0.000365	3.652021	0.618669	-0.000037
1198	1.1910e+02	8.0882	23.251883	0.000041	0.405780	0.068741	-0.000004
1199	1.1920e+02	8.0784	23.243809	0.000081	0.811560	0.137482	-0.000008
1200	1.1930e+02	8.0677	23.183252	0.000609	6.086702	1.031115	-0.000061
1201	1.1940e+02	8.0581	23.175178	0.000081	0.811560	0.137482	-0.000008
1202	1.1950e+02	8.0484	23.114621	0.000609	6.086702	1.031115	-0.000061
1203	1.1960e+02	8.0386	23.114621	-0.000000	-0.000000	-0.000000	0.000000
1204	1.1970e+02	8.0280	23.114621	-0.000000	-0.000000	-0.000000	0.000000
1205	1.1980e+02	8.0176	23.078286	0.000365	3.652021	0.618669	-0.000037
1206	1.1990e+02	8.0086	23.033878	0.000446	4.463581	0.756151	-0.000045
1207	1.2000e+02	7.9990	23.009655	0.000243	2.434681	0.412446	-0.000024
1208	1.2010e+02	7.9884	22.989469	0.000203	2.028901	0.343705	-0.000020
1209	1.2020e+02	7.9791	22.957172	0.000325	3.246241	0.549928	-0.000032
1210	1.2030e+02	7.9688	22.949098	0.000081	0.811560	0.137482	-0.000008
1211	1.2039e+02	7.9590	22.908727	0.000406	4.057801	0.687410	-0.000041
1212	1.2049e+02	7.9493	22.900652	0.000081	0.811560	0.137482	-0.000008
1213	1.2059e+02	7.9395	22.880467	0.000203	2.028901	0.343705	-0.000020
1214	1.2069e+02	7.9293	22.815873	0.000649	6.492482	1.099856	-0.000065
1215	1.2079e+02	7.9195	22.779538	0.000365	3.652021	0.618669	-0.000037
1216	1.2089e+02	7.9070	22.739167	0.000406	4.057801	0.687410	-0.000041
1217	1.2099e+02	7.8995	22.731093	0.000081	0.811560	0.137482	-0.000008
1218	1.2109e+02	7.8887	22.698796	0.000325	3.246241	0.549928	-0.000032
1219	1.2119e+02	7.8796	22.694759	0.000041	0.405780	0.068741	-0.000004
1220	1.2129e+02	7.8696	22.626127	0.000690	6.898262	1.168597	-0.000069
1221	1.2139e+02	7.8597	22.585756	0.000406	4.057801	0.687410	-0.000041
1222	1.2149e+02	7.8491	22.581719	0.000041	0.405780	0.068741	-0.000004
1223	1.2159e+02	7.8401	22.577682	0.000041	0.405780	0.068741	-0.000004
1224	1.2169e+02	7.8304	22.529236	0.000487	4.869362	0.824892	-0.000049
1225	1.2179e+02	7.8201	22.525199	0.000041	0.405780	0.068741	-0.000004
1226	1.2189e+02	7.8100	22.460605	0.000649	6.492482	1.099856	-0.000065
1227	1.2199e+02	7.7997	22.444456	0.000162	1.623121	0.274964	-0.000016
1228	1.2209e+02	7.7901	22.412159	0.000325	3.246241	0.549928	-0.000032
1229	1.2219e+02	7.7804	22.379862	0.000325	3.246241	0.549928	-0.000032
1230	1.2229e+02	7.7695	22.387936	-0.000081	-0.811560	-0.137482	0.000008
1231	1.2239e+02	7.7593	22.323342	0.000649	6.492482	1.099856	-0.000065
1232	1.2248e+02	7.7490	22.278934	0.000446	4.463581	0.756151	-0.000045
1233	1.2258e+02	7.7396	22.295082	-0.000162	-1.623121	-0.274964	0.000016
1234	1.2268e+02	7.7295	22.278934	0.000162	1.623121	0.274964	-0.000016
1235	1.2278e+02	7.7197	22.198191	0.000812	8.115603	1.374820	-0.000081
1236	1.2288e+02	7.7103	22.198191	-0.000000	-0.000000	-0.000000	0.000000
1237	1.2298e+02	7.7004	22.153782	0.000446	4.463581	0.756151	-0.000045
1238	1.2308e+02	7.6905	22.141671	0.000122	1.217340	0.206223	-0.000012
1239	1.2318e+02	7.6801	22.117448	0.000243	2.434681	0.412446	-0.000024
1240	1.2328e+02	7.6705	22.069003	0.000487	4.869362	0.824892	-0.000049
1241	1.2338e+02	7.6589	22.048817	0.000203	2.028901	0.343705	-0.000020
1242	1.2348e+02	7.6506	21.988260	0.000609	6.086702	1.031115	-0.000061
1243	1.2358e+02	7.6406	22.000371	-0.000122	-1.217340	-0.206223	0.000012
1244	1.2368e+02	7.6301	21.976148	0.000243	2.434681	0.412446	-0.000024
1245	1.2378e+02	7.6202	21.980186	-0.000041	-0.405780	-0.068741	0.000004
1246	1.2388e+02	7.6099	21.895406	0.000852	8.521383	1.443561	-0.000085
1247	1.2398e+02	7.6006	21.830812	0.000649	6.492482	1.099856	-0.000065
1248	1.2408e+02	7.5906	21.875220	-0.000446	-4.463581	-0.756151	0.000045
1249	1.2418e+02	7.5806	21.826774	0.000487	4.869362	0.824892	-0.000049
1250	1.2428e+02	7.5703	21.822737	0.000041	0.405780	0.068741	-0.000004
1251	1.2438e+02	7.5609	21.758143	0.000649	6.492482	1.099856	-0.000065
1252	1.2447e+02	7.5507	21.782366	-0.000243	-2.434681	-0.412446	0.000024
1253	1.2457e+02	7.5408	21.729883	0.000528	5.275142	0.893633	-0.000053
1254	1.2467e+02	7.5308	21.701623	0.000284	2.840461	0.481187	-0.000028
1255	1.2477e+02	7.5220	21.665289	0.000365	3.652021	0.618669	-0.000037
1256	1.2487e+02	7.5117	21.608769	0.000568	5.680922	0.962374	-0.000057
1257	1.2497e+02	7.5014	21.580509	0.000284	2.840461	0.481187	-0.000028
1258	1.2507e+02	7.4914	21.584546	-0.000041	-0.405780	-0.068741	0.000004
1259	1.2517e+02	7.4816	21.519952	0.000649	6.492482	1.099856	-0.000065
1260	1.2527e+02	7.4718	21.515915	0.000041	0.405780	0.068741	-0.000004
1261	1.2537e+02	7.4614	21.515915	-0.000000	-0.000000	-0.000000	0.000000
1262	1.2547e+02	7.4506	21.467469	0.000487	4.869362	0.824892	-0.000049
1263	1.2557e+02	7.4414	21.443246	0.000243	2.434681	0.412446	-0.000024
1264	1.2567e+02	7.4313	21.451321	-0.000081	-0.811560	-0.137482	0.000008
1265	1.2577e+02	7.4223	21.410949	0.000406	4.057801	0.687410	-0.000041
1266	1.2587e+02	7.4108	21.358467	0.000528	5.275142	0.893633	-0.000053
1267	1.2597e+02	7.4009	21.346355	0.000122	1.217340	0.206223	-0.000012
1268	1.2607e+02	7.3918	21.310021	0.000365	3.652021	0.618669	-0.000037
1269	1.2617e+02	7.3815	21.305984	0.000041	0.405780	0.068741	-0.000004
1270	1.2627e+02	7.3722	21.253501	0.000528	5.275142	0.893633	-0.000053
1271	1.2636e+02	7.3608	21.209093	0.000446	4.463581	0.756151	-0.000045
1272	1.2646e+02	7.3516	21.201018	0.000081	0.811560	0.137482	-0.000008
1273	1.2656e+02	7.3424	21.160647	0.000406	4.057801	0.687410	-0.000041
1274	1.2666e+02	7.3316	21.144498	0.000162	1.623121	0.274964	-0.000016
1275	1.2676e+02	7.3230	21.120276	0.000243	2.434681	0.412446	-0.000024
1276	1.2686e+02	7.3125	21.132387	-0.000122	-1.217340	-0.206223	0.000012
1277	1.2696e+02	7.3023	21.035496	0.000974	9.738723	1.649784	-0.000097
1278	1.2706e+02	7.2924	21.015310	0.000203	2.028901	0.343705	-0.000020
1279	1.2716e+02	7.2834	21.031459	-0.000162	-1.623121	-0.274964	0.000016
1280	1.2726e+02	7.2724	20.999162	0.000325	3.246241	0.549928	-0.000032
1281	1.2736e+02	7.2622	20.983013	0.000162	1.623121	0.274964	-0.000016
1282	1.2746e+02	7.2518	20.914382	0.000690	6.898262	1.168597	-0.000069
1283	1.2756e+02	7.2404	20.902270	0.000122	1.217340	0.206223	-0.000012
1284	1.2766e+02	7.2317	20.878047	0.000243	2.434681	0.412446	-0.000024
1285	1.2776e+02	7.2231	20.878047	-0.000000	-0.000000	-0.000000	0.000000
1286	1.2786e+02	7.2131	20.829602	0.000487	4.869362	0.824892	-0.000049
1287	1.2796e+02	7.2023	20.781156	0.000487	4.869362	0.824892	-0.000049
1288	1.2806e+02	7.1928	20.777119	0.000041	0.405780	0.068741	-0.000004
1289	1.2816e+02	7.1840	20.704451	0.000730	7.304042	1.237338	-0.000073
1290	1.2826e+02	7.1720	20.696376	0.000081	0.811560	0.137482	-0.000008
1291	1.2835e+02	7.1624	20.680228	0.000162	1.623121	0.274964	-0.000016
1292	1.2845e+02	7.1535	20.664079	0.000162	1.623121	0.274964	-0.000016
1293	1.2855e+02	7.1433	20.651968	0.000122	1.217340	0.206223	-0.000012
1294	1.2865e+02	7.1324	20.635819	0.000162	1.623121	0.274964	-0.000016
1295	1.2875e+02	7.1240	20.611597	0.000243	2.434681	0.412446	-0.000024
1296	1.2885e+02	7.1131	20.551039	0.000609	6.086702	1.031115	-0.000061
1297	1.2895e+02	7.1027	20.551039	-0.000000	-0.000000	-0.000000	0.000000
1298	1.2905e+02	7.0934	20.470297	0.000812	8.115603	1.374820	-0.000081
1299	1.2915e+02	7.0843	20.482408	-0.000122	-1.217340	-0.206223	0.000012
1300	1.2925e+02	7.0728	20.433963	0.000487	4.869362	0.824892	-0.000049
1301	1.2935e+02	7.0628	20.462222	-0.000284	-2.840461	-0.481187	0.000028
1302	1.2945e+02	7.0529	20.429925	0.000325	3.246241	0.549928	-0.000032
1303	1.2955e+02	7.0428	20.345146	0.000852	8.521383	1.443561	-0.000085
1304	1.2965e+02	7.0329	20.349183	-0.000041	-0.405780	-0.068741	0.000004
1305	1.2975e+02	7.0234	20.304774	0.000446	4.463581	0.756151	-0.000045
1306	1.2985e+02	7.0134	20.276514	0.000284	2.840461	0.481187	-0.000028
1307	1.2995e+02	7.0044	20.252291	0.000243	2.434681	0.412446	-0.000024
1308	1.3005e+02	6.9938	20.252291	-0.000000	-0.000000	-0.000000	0.000000
1309	1.3015e+02	6.9846	20.191734	0.000609	6.086702	1.031115	-0.000061
1310	1.3025e+02	6.9731	20.207883	-0.000162	-1.623121	-0.274964	0.000016
1311	1.3034e+02	6.9640	20.163474	0.000446	4.463581	0.756151	-0.000045
1312	1.3044e+02	6.9535	20.143289	0.000203	2.028901	0.343705	-0.000020
1313	1.3054e+02	6.9434	20.086769	0.000568	5.680922	0.962374	-0.000057
1314	1.3064e+02	6.9338	20.094843	-0.000081	-0.811560	-0.137482	0.000008
1315	1.3074e+02	6.9247	20.026212	0.000690	6.898262	1.168597	-0.000069
1316	1.3084e+02	6.9146	20.026212	-0.000000	-0.000000	-0.000000	0.000000
1317	1.3094e+02	6.9040	20.038323	-0.000122	-1.217340	-0.206223	0.000012
1318	1.3104e+02	6.8944	19.969692	0.000690	6.898262	1.168597	-0.000069
1319	1.3114e+02	6.8848	19.965655	0.000041	0.405780	0.068741	-0.000004
1320	1.3124e+02	6.8750	19.909135	0.000568	5.680922	0.962374	-0.000057
1321	1.3134e+02	6.8641	19.901061	0.000081	0.811560	0.137482	-0.000008
1322	1.3144e+02	6.8536	19.864726	0.000365	3.652021	0.618669	-0.000037
1323	1.3154e+02	6.8453	19.860689	0.000041	0.405780	0.068741	-0.000004
1324	1.3164e+02	6.8342	19.792058	0.000690	6.898262	1.168597	-0.000069
1325	1.3174e+02	6.8250	19.804169	-0.000122	-1.217340	-0.206223	0.000012
1326	1.3184e+02	6.8142	19.763798	0.000406	4.057801	0.687410	-0.000041
1327	1.3194e+02	6.8044	19.739575	0.000243	2.434681	0.412446	-0.000024
1328	1.3204e+02	6.7946	19.679018	0.000609	6.086702	1.031115	-0.000061
1329	1.3214e+02	6.7854	19.679018	-0.000000	-0.000000	-0.000000	0.000000
1330	1.3224e+02	6.7754	19.654795	0.000243	2.434681	0.412446	-0.000024
1331	1.3234e+02	6.7651	19.638647	0.000162	1.623121	0.274964	-0.000016
1332	1.3243e+02	6.7548	19.570015	0.000690	6.898262	1.168597	-0.000069
1333	1.3253e+02	6.7454	19.561941	0.000081	0.811560	0.137482	-0.000008
1334	1.3263e+02	6.7348	19.489273	0.000730	7.304042	1.237338	-0.000073
1335	1.3273e+02	6.7255	19.497347	-0.000081	-0.811560	-0.137482	0.000008
1336	1.3283e+02	6.7153	19.452939	0.000446	4.463581	0.756151	-0.000045
1337	1.3293e+02	6.7057	19.400456	0.000528	5.275142	0.893633	-0.000053
1338	1.3303e+02	6.6961	19.392382	0.000081	0.811560	0.137482	-0.000008
1339	1.3313e+02	6.6853	19.380270	0.000122	1.217340	0.206223	-0.000012
1340	1.3323e+02	6.6753	19.352010	0.000284	2.840461	0.481187	-0.000028
1341	1.3333e+02	6.6662	19.319713	0.000325	3.246241	0.549928	-0.000032
1342	1.3343e+02	6.6553	19.283379	0.000365	3.652021	0.618669	-0.000037
1343	1.3353e+02	6.6460	19.255119	0.000284	2.840461	0.481187	-0.000028
1344	1.3363e+02	6.6357	19.234933	0.000203	2.028901	0.343705	-0.000020
1345	1.3373e+02	6.6250	19.170339	0.000649	6.492482	1.099856	-0.000065
1346	1.3383e+02	6.6157	19.142079	0.000284	2.840461	0.481187	-0.000028
1347	1.3393e+02	6.6061	19.125931	0.000162	1.623121	0.274964	-0.000016
1348	1.3403e+02	6.5953	19.093633	0.000325	3.246241	0.549928	-0.000032
1349	1.3413e+02	6.5858	19.061336	0.000325	3.246241	0.549928	-0.000032
1350	1.3423e+02	6.5764	19.053262	0.000081	0.811560	0.137482	-0.000008
1351	1.3432e+02	6.5662	18.976557	0.000771	7.709822	1.306079	-0.000077
1352	1.3442e+02	6.5553	18.936185	0.000406	4.057801	0.687410	-0.000041
1353	1.3452e+02	6.5460	18.924074	0.000122	1.217340	0.206223	-0.000012
1354	1.3462e+02	6.5351	18.871591	0.000528	5.275142	0.893633	-0.000053
1355	1.3472e+02	6.5267	18.863517	0.000081	0.811560	0.137482	-0.000008
1356	1.3482e+02	6.5162	18.851405	0.000122	1.217340	0.206223	-0.000012
1357	1.3492e+02	6.5062	18.831220	0.000203	2.028901	0.343705	-0.000020
1358	1.3502e+02	6.4967	18.782774	0.000487	4.869362	0.824892	-0.000049
1359	1.3512e+02	6.4864	18.734328	0.000487	4.869362	0.824892	-0.000049
1360	1.3522e+02	6.4767	18.718180	0.000162	1.623121	0.274964	-0.000016
1361	1.3532e+02	6.4669	18.665697	0.000528	5.275142	0.893633	-0.000053
1362	1.3542e+02	6.4568	18.637437	0.000284	2.840461	0.481187	-0.000028
1363	1.3552e+02	6.4468	18.609177	0.000284	2.840461	0.481187	-0.000028
1364	1.3562e+02	6.4375	18.568806	0.000406	4.057801	0.687410	-0.000041
1365	1.3572e+02	6.4272	18.572843	-0.000041	-0.405780	-0.068741	0.000004
1366	1.3582e+02	6.4173	18.488063	0.000852	8.521383	1.443561	-0.000085
1367	1.3592e+02	6.4065	18.447692	0.000406	4.057801	0.687410	-0.000041
1368	1.3602e+02	6.3970	18.439617	0.000081	0.811560	0.137482	-0.000008
1369	1.3612e+02	6.3860	18.407320	0.000325	3.246241	0.549928	-0.000032
1370	1.3622e+02	6.3773	18.358875	0.000487	4.869362	0.824892	-0.000049
1371	1.3631e+02	6.3663	18.338689	0.000203	2.028901	0.343705	-0.000020
1372	1.3641e+02	6.3564	18.326578	0.000122	1.217340	0.206223	-0.000012
1373	1.3651e+02	6.3471	18.270058	0.000568	5.680922	0.962374	-0.000057
1374	1.3661e+02	6.3372	18.217575	0.000528	5.275142	0.893633	-0.000053
1375	1.3671e+02	6.3277	18.173167	0.000446	4.463581	0.756151	-0.000045
1376	1.3681e+02	6.3174	18.157018	0.000162	1.623121	0.274964	-0.000016
1377	1.3691e+02	6.3072	18.140869	0.000162	1.623121	0.274964	-0.000016
1378	1.3701e+02	6.2980	18.096461	0.000446	4.463581	0.756151	-0.000045
1379	1.3711e+02	6.2879	18.072238	0.000243	2.434681	0.412446	-0.000024
1380	1.3721e+02	6.2780	18.052052	0.000203	2.028901	0.343705	-0.000020
1381	1.3731e+02	6.2678	18.007644	0.000446	4.463581	0.756151	-0.000045
1382	1.3741e+02	6.2576	17.975347	0.000325	3.246241	0.549928	-0.000032
1383	1.3751e+02	6.2476	17.930938	0.000446	4.463581	0.756151	-0.000045
1384	1.3761e+02	6.2374	17.902678	0.000284	2.840461	0.481187	-0.000028
1385	1.3771e+02	6.2278	17.858270	0.000446	4.463581	0.756151	-0.000045
1386	1.3781e+02	6.2186	17.805787	0.000528	5.275142	0.893633	-0.000053
1387	1.3791e+02	6.2089	17.797713	0.000081	0.811560	0.137482	-0.000008
1388	1.3801e+02	6.1983	17.749267	0.000487	4.869362	0.824892	-0.000049
1389	1.3811e+02	6.1880	17.741193	0.000081	0.811560	0.137482	-0.000008
1390	1.3821e+02	6.1784	17.688710	0.000528	5.275142	0.893633	-0.000053
1391	1.3831e+02	6.1680	17.656413	0.000325	3.246241	0.549928	-0.000032
1392	1.3840e+02	6.1578	17.587782	0.000690	6.898262	1.168597	-0.000069
1393	1.3850e+02	6.1494	17.571633	0.000162	1.623121	0.274964	-0.000016
1394	1.3860e+02	6.1384	17.523188	0.000487	4.869362	0.824892	-0.000049
1395	1.3870e+02	6.1285	17.539336	-0.000162	-1.623121	-0.274964	0.000016
1396	1.3880e+02	6.1182	17.482816	0.000568	5.680922	0.962374	-0.000057
1397	1.3890e+02	6.1082	17.438408	0.000446	4.463581	0.756151	-0.000045
1398	1.3900e+02	6.0986	17.414185	0.000243	2.434681	0.412446	-0.000024
1399	1.3910e+02	6.0877	17.365739	0.000487	4.869362	0.824892	-0.000049
1400	1.3920e+02	6.0795	17.313257	0.000528	5.275142	0.893633	-0.000053
1401	1.3930e+02	6.0687	17.276922	0.000365	3.652021	0.618669	-0.000037
1402	1.3940e+02	6.0593	17.268848	0.000081	0.811560	0.137482	-0.000008
1403	1.3950e+02	6.0492	17.232514	0.000365	3.652021	0.618669	-0.000037
1404	1.3960e+02	6.0384	17.192143	0.000406	4.057801	0.687410	-0.000041
1405	1.3970e+02	6.0291	17.171957	0.000203	2.028901	0.343705	-0.000020
1406	1.3980e+02	6.0193	17.119474	0.000528	5.275142	0.893633	-0.000053
1407	1.3990e+02	6.0094	17.095251	0.000243	2.434681	0.412446	-0.000024
1408	1.4000e+02	5.9991	17.054880	0.000406	4.057801	0.687410	-0.000041
1409	1.4010e+02	5.9889	16.998360	0.000568	5.680922	0.962374	-0.000057
1410	1.4020e+02	5.9795	16.974137	0.000243	2.434681	0.412446	-0.000024
1411	1.4029e+02	5.9695	16.941840	0.000325	3.246241	0.549928	-0.000032
1412	1.4039e+02	5.9597	16.909543	0.000325	3.246241	0.549928	-0.000032
1413	1.4049e+02	5.9497	16.881283	0.000284	2.840461	0.481187	-0.000028
1414	1.4059e+02	5.9396	16.824763	0.000568	5.680922	0.962374	-0.000057
1415	1.4069e+02	5.9299	16.780355	0.000446	4.463581	0.756151	-0.000045
1416	1.4079e+02	5.9200	16.764206	0.000162	1.623121	0.274964	-0.000016
1417	1.4089e+02	5.9097	16.731909	0.000325	3.246241	0.549928	-0.000032
1418	1.4099e+02	5.8997	16.671352	0.000609	6.086702	1.031115	-0.000061
1419	1.4109e+02	5.8901	16.707686	-0.000365	-3.652021	-0.618669	0.000037
1420	1.4119e+02	5.8807	16.667315	0.000406	4.057801	0.687410	-0.000041
1421	1.4129e+02	5.8709	16.606758	0.000609	6.086702	1.031115	-0.000061
1422	1.4139e+02	5.8599	16.578498	0.000284	2.840461	0.481187	-0.000028
1423	1.4149e+02	5.8497	16.554275	0.000243	2.434681	0.412446	-0.000024
1424	1.4159e+02	5.8395	16.505829	0.000487	4.869362	0.824892	-0.000049
1425	1.4169e+02	5.8294	16.449310	0.000568	5.680922	0.962374	-0.000057
1426	1.4179e+02	5.8196	16.473532	-0.000243	-2.434681	-0.412446	0.000024
1427	1.4189e+02	5.8099	16.376641	0.000974	9.738723	1.649784	-0.000097
1428	1.4199e+02	5.7992	16.404901	-0.000284	-2.840461	-0.481187	0.000028
1429	1.4209e+02	5.7903	16.368567	0.000365	3.652021	0.618669	-0.000037
1430	1.4219e+02	5.7794	16.291861	0.000771	7.709822	1.306079	-0.000077
1431	1.4228e+02	5.7701	16.259564	0.000325	3.246241	0.549928	-0.000032
1432	1.4238e+02	5.7603	16.243416	0.000162	1.623121	0.274964	-0.000016
1433	1.4248e+02	5.7497	16.207081	0.000365	3.652021	0.618669	-0.000037
1434	1.4258e+02	5.7403	16.170747	0.000365	3.652021	0.618669	-0.000037
1435	1.4268e+02	5.7312	16.138450	0.000325	3.246241	0.549928	-0.000032
1436	1.4278e+02	5.7207	16.114227	0.000243	2.434681	0.412446	-0.000024
1437	1.4288e+02	5.7110	16.098079	0.000162	1.623121	0.274964	-0.000016
1438	1.4298e+02	5.7011	16.077893	0.000203	2.028901	0.343705	-0.000020
1439	1.4308e+02	5.6908	16.009262	0.000690	6.898262	1.168597	-0.000069
1440	1.4318e+02	5.6808	15.993113	0.000162	1.623121	0.274964	-0.000016
1441	1.4328e+02	5.6710	15.985039	0.000081	0.811560	0.137482	-0.000008
1442	1.4338e+02	5.6606	15.948705	0.000365	3.652021	0.618669	-0.000037
1443	1.4348e+02	5.6521	15.880073	0.000690	6.898262	1.168597	-0.000069
1444	1.4358e+02	5.6411	15.863925	0.000162	1.623121	0.274964	-0.000016
1445	1.4368e+02	5.6330	15.819516	0.000446	4.463581	0.756151	-0.000045
1446	1.4378e+02	5.6211	15.803368	0.000162	1.623121	0.274964	-0.000016
1447	1.4388e+02	5.6115	15.787219	0.000162	1.623121	0.274964	-0.000016
1448	1.4398e+02	5.6016	15.714551	0.000730	7.304042	1.237338	-0.000073
1449	1.4408e+02	5.5913	15.718588	-0.000041	-0.405780	-0.068741	0.000004
1450	1.4418e+02	5.5820	15.629771	0.000893	8.927163	1.512302	-0.000089
1451	1.4428e+02	5.5720	15.653994	-0.000243	-2.434681	-0.412446	0.000024
1452	1.4437e+02	5.5608	15.597474	0.000568	5.680922	0.962374	-0.000057
1453	1.4447e+02	5.5511	15.585363	0.000122	1.217340	0.206223	-0.000012
1454	1.4457e+02	5.5413	15.504620	0.000812	8.115603	1.374820	-0.000081
1455	1.4467e+02	5.5311	15.549028	-0.000446	-4.463581	-0.756151	0.000045
1456	1.4477e+02	5.5220	15.452137	0.000974	9.738723	1.649784	-0.000097
1457	1.4487e+02	5.5120	15.423877	0.000284	2.840461	0.481187	-0.000028
1458	1.4497e+02	5.5024	15.415803	0.000081	0.811560	0.137482	-0.000008
1459	1.4507e+02	5.4913	15.379469	0.000365	3.652021	0.618669	-0.000037
1460	1.4517e+02	5.4816	15.347172	0.000325	3.246241	0.549928	-0.000032
1461	1.4527e+02	5.4714	15.274503	0.000730	7.304042	1.237338	-0.000073
1462	1.4537e+02	5.4623	15.262392	0.000122	1.217340	0.206223	-0.000012
1463	1.4547e+02	5.4519	15.274503	-0.000122	-1.217340	-0.206223	0.000012
1464	1.4557e+02	5.4426	15.201835	0.000730	7.304042	1.237338	-0.000073
1465	1.4567e+02	5.4321	15.205872	-0.000041	-0.405780	-0.068741	0.000004
1466	1.4577e+02	5.4218	15.145315	0.000609	6.086702	1.031115	-0.000061
1467	1.4587e+02	5.4118	15.104943	0.000406	4.057801	0.687410	-0.000041
1468	1.4597e+02	5.4025	15.072646	0.000325	3.246241	0.549928	-0.000032
1469	1.4607e+02	5.3912	15.052461	0.000203	2.028901	0.343705	-0.000020
1470	1.4617e+02	5.3816	15.020164	0.000325	3.246241	0.549928	-0.000032
1471	1.4626e+02	5.3728	14.995941	0.000243	2.434681	0.412446	-0.000024
1472	1.4636e+02	5.3626	14.959606	0.000365	3.652021	0.618669	-0.000037
1473	1.4646e+02	5.3517	14.947495	0.000122	1.217340	0.206223	-0.000012
1474	1.4656e+02	5.3420	14.870789	0.000771	7.709822	1.306079	-0.000077
1475	1.4666e+02	5.3332	14.886938	-0.000162	-1.623121	-0.274964	0.000016
1476	1.4676e+02	5.3223	14.826381	0.000609	6.086702	1.031115	-0.000061
1477	1.4686e+02	5.3123	14.806195	0.000203	2.028901	0.343705	-0.000020
1478	1.4696e+02	5.3027	14.794084	0.000122	1.217340	0.206223	-0.000012
1479	1.4706e+02	5.2930	14.757750	0.000365	3.652021	0.618669	-0.000037
1480	1.4716e+02	5.2830	14.733527	0.000243	2.434681	0.412446	-0.000024
1481	1.4726e+02	5.2728	14.656821	0.000771	7.709822	1.306079	-0.000077
1482	1.4736e+02	5.2624	14.600301	0.000568	5.680922	0.962374	-0.000057
1483	1.4746e+02	5.2523	14.588190	0.000122	1.217340	0.206223	-0.000012
1484	1.4756e+02	5.2430	14.588190	-0.000000	-0.000000	-0.000000	0.000000
1485	1.4766e+02	5.2328	14.547819	0.000406	4.057801	0.687410	-0.000041
1486	1.4776e+02	5.2248	14.499373	0.000487	4.869362	0.824892	-0.000049
1487	1.4786e+02	5.2132	14.487262	0.000122	1.217340	0.206223	-0.000012
1488	1.4796e+02	5.2034	14.450927	0.000365	3.652021	0.618669	-0.000037
1489	1.4806e+02	5.1934	14.386333	0.000649	6.492482	1.099856	-0.000065
1490	1.4816e+02	5.1832	14.349999	0.000365	3.652021	0.618669	-0.000037
1491	1.4825e+02	5.1731	14.345962	0.000041	0.405780	0.068741	-0.000004
1492	1.4835e+02	5.1629	14.309628	0.000365	3.652021	0.618669	-0.000037
1493	1.4845e+02	5.1543	14.257145	0.000528	5.275142	0.893633	-0.000053
1494	1.4855e+02	5.1425	14.261182	-0.000041	-0.405780	-0.068741	0.000004
1495	1.4865e+02	5.1332	14.188514	0.000730	7.304042	1.237338	-0.000073
1496	1.4875e+02	5.1235	14.200625	-0.000122	-1.217340	-0.206223	0.000012
1497	1.4885e+02	5.1131	14.111808	0.000893	8.927163	1.512302	-0.000089
1498	1.4895e+02	5.1040	14.115845	-0.000041	-0.405780	-0.068741	0.000004
1499	1.4905e+02	5.0939	14.079511	0.000365	3.652021	0.618669	-0.000037
1500	1.4915e+02	5.0836	14.035102	0.000446	4.463581	0.756151	-0.000045
1501	1.4925e+02	5.0729	14.022991	0.000122	1.217340	0.206223	-0.000012
1502	1.4935e+02	5.0636	13.934174	0.000893	8.927163	1.512302	-0.000089
1503	1.4945e+02	5.0529	13.893803	0.000406	4.057801	0.687410	-0.000041
1504	1.4955e+02	5.0437	13.877654	0.000162	1.623121	0.274964	-0.000016
1505	1.4965e+02	5.0344	13.877654	-0.000000	-0.000000	-0.000000	0.000000
1506	1.4975e+02	5.0238	13.829208	0.000487	4.869362	0.824892	-0.000049
1507	1.4985e+02	5.0146	13.809023	0.000203	2.028901	0.343705	-0.000020
1508	1.4995e+02	5.0037	13.764614	0.000446	4.463581	0.756151	-0.000045
1509	1.5005e+02	4.9942	13.695983	0.000690	6.898262	1.168597	-0.000069
1510	1.5015e+02	4.9854	13.671760	0.000243	2.434681	0.412446	-0.000024
1511	1.5025e+02	4.9747	13.631389	0.000406	4.057801	0.687410	-0.000041
1512	1.5034e+02	4.9639	13.582943	0.000487	4.869362	0.824892	-0.000049
1513	1.5044e+02	4.9548	13.562758	0.000203	2.028901	0.343705	-0.000020
1514	1.5054e+02	4.9450	13.522386	0.000406	4.057801	0.687410	-0.000041
1515	1.5064e+02	4.9333	13.494126	0.000284	2.840461	0.481187	-0.000028
1516	1.5074e+02	4.9242	13.465866	0.000284	2.840461	0.481187	-0.000028
1517	1.5084e+02	4.9151	13.397235	0.000690	6.898262	1.168597	-0.000069
1518	1.5094e+02	4.9055	13.360901	0.000365	3.652021	0.618669	-0.000037
1519	1.5104e+02	4.8946	13.340715	0.000203	2.028901	0.343705	-0.000020
1520	1.5114e+02	4.8847	13.296307	0.000446	4.463581	0.756151	-0.000045
1521	1.5124e+02	4.8753	13.247861	0.000487	4.869362	0.824892	-0.000049
1522	1.5134e+02	4.8656	13.203452	0.000446	4.463581	0.756151	-0.000045
1523	1.5144e+02	4.8553	13.223638	-0.000203	-2.028901	-0.343705	0.000020
1524	1.5154e+02	4.8452	13.146933	0.000771	7.709822	1.306079	-0.000077
1525	1.5164e+02	4.8351	13.110598	0.000365	3.652021	0.618669	-0.000037
1526	1.5174e+02	4.8248	13.062153	0.000487	4.869362	0.824892	-0.000049
1527	1.5184e+02	4.8140	13.025818	0.000365	3.652021	0.618669	-0.000037
1528	1.5194e+02	4.8051	13.029856	-0.000041	-0.405780	-0.068741	0.000004
1529	1.5204e+02	4.7956	12.957187	0.000730	7.304042	1.237338	-0.000073
1530	1.5214e+02	4.7855	12.872407	0.000852	8.521383	1.443561	-0.000085
1531	1.5224e+02	4.7754	12.860296	0.000122	1.217340	0.206223	-0.000012
1532	1.5233e+02	4.7649	12.815887	0.000446	4.463581	0.756151	-0.000045
1533	1.5243e+02	4.7556	12.771479	0.000446	4.463581	0.756151	-0.000045
1534	1.5253e+02	4.7458	12.743219	0.000284	2.840461	0.481187	-0.000028
1535	1.5263e+02	4.7356	12.727070	0.000162	1.623121	0.274964	-0.000016
1536	1.5273e+02	4.7261	12.694773	0.000325	3.246241	0.549928	-0.000032
1537	1.5283e+02	4.7150	12.658439	0.000365	3.652021	0.618669	-0.000037
1538	1.5293e+02	4.7062	12.614031	0.000446	4.463581	0.756151	-0.000045
1539	1.5303e+02	4.6964	12.585771	0.000284	2.840461	0.481187	-0.000028
1540	1.5313e+02	4.6857	12.549436	0.000365	3.652021	0.618669	-0.000037
1541	1.5323e+02	4.6752	12.517139	0.000325	3.246241	0.549928	-0.000032
1542	1.5333e+02	4.6651	12.468694	0.000487	4.869362	0.824892	-0.000049
1543	1.5343e+02	4.6560	12.408137	0.000609	6.086702	1.031115	-0.000061
1544	1.5353e+02	4.6468	12.383914	0.000243	2.434681	0.412446	-0.000024
1545	1.5363e+02	4.6364	12.315283	0.000690	6.898262	1.168597	-0.000069
1546	1.5373e+02	4.6258	12.299134	0.000162	1.623121	0.274964	-0.000016
1547	1.5383e+02	4.6164	12.242614	0.000568	5.680922	0.962374	-0.000057
1548	1.5393e+02	4.6064	12.226466	0.000162	1.623121	0.274964	-0.000016
1549	1.5403e+02	4.5959	12.157834	0.000690	6.898262	1.168597	-0.000069
1550	1.5413e+02	4.5864	12.145723	0.000122	1.217340	0.206223	-0.000012
1551	1.5422e+02	4.5771	12.089203	0.000568	5.680922	0.962374	-0.000057
1552	1.5432e+02	4.5666	12.052869	0.000365	3.652021	0.618669	-0.000037
1553	1.5442e+02	4.5570	12.024609	0.000284	2.840461	0.481187	-0.000028
1554	1.5452e+02	4.5464	11.980200	0.000446	4.463581	0.756151	-0.000045
1555	1.5462e+02	4.5369	11.923680	0.000568	5.680922	0.962374	-0.000057
1556	1.5472e+02	4.5264	11.899458	0.000243	2.434681	0.412446	-0.000024
1557	1.5482e+02	4.5165	11.778344	0.001217	12.173404	2.062230	-0.000122
1558	1.5492e+02	4.5068	11.790455	-0.000122	-1.217340	-0.206223	0.000012
1559	1.5502e+02	4.4958	11.758158	0.000325	3.246241	0.549928	-0.000032
1560	1.5512e+02	4.4866	11.754121	0.000041	0.405780	0.068741	-0.000004
1561	1.5522e+02	4.4771	11.685489	0.000690	6.898262	1.168597	-0.000069
1562	1.5532e+02	4.4657	11.608784	0.000771	7.709822	1.306079	-0.000077
1563	1.5542e+02	4.4582	11.592635	0.000162	1.623121	0.274964	-0.000016
1564	1.5552e+02	4.4468	11.564375	0.000284	2.840461	0.481187	-0.000028
1565	1.5562e+02	4.4369	11.511893	0.000528	5.275142	0.893633	-0.000053
1566	1.5572e+02	4.4272	11.447298	0.000649	6.492482	1.099856	-0.000065
1567	1.5582e+02	4.4176	11.398853	0.000487	4.869362	0.824892	-0.000049
1568	1.5592e+02	4.4079	11.402890	-0.000041	-0.405780	-0.068741	0.000004
1569	1.5602e+02	4.3974	11.350407	0.000528	5.275142	0.893633	-0.000053
1570	1.5612e+02	4.3870	11.293887	0.000568	5.680922	0.962374	-0.000057
1571	1.5622e+02	4.3774	11.257553	0.000365	3.652021	0.618669	-0.000037
1572	1.5631e+02	4.3664	11.237367	0.000203	2.028901	0.343705	-0.000020
1573	1.5641e+02	4.3574	11.168736	0.000690	6.898262	1.168597	-0.000069
1574	1.5651e+02	4.3473	11.156625	0.000122	1.217340	0.206223	-0.000012
1575	1.5661e+02	4.3376	11.096068	0.000609	6.086702	1.031115	-0.000061
1576	1.5671e+02	4.3278	11.071845	0.000243	2.434681	0.412446	-0.000024
1577	1.5681e+02	4.3178	10.995139	0.000771	7.709822	1.306079	-0.000077
1578	1.5691e+02	4.3081	10.962842	0.000325	3.246241	0.549928	-0.000032
1579	1.5701e+02	4.2985	10.974954	-0.000122	-1.217340	-0.206223	0.000012
1580	1.5711e+02	4.2871	10.914396	0.000609	6.086702	1.031115	-0.000061
1581	1.5721e+02	4.2785	10.849802	0.000649	6.492482	1.099856	-0.000065
1582	1.5731e+02	4.2679	10.805394	0.000446	4.463581	0.756151	-0.000045
1583	1.5741e+02	4.2577	10.813468	-0.000081	-0.811560	-0.137482	0.000008
1584	1.5751e+02	4.2479	10.744837	0.000690	6.898262	1.168597	-0.000069
1585	1.5761e+02	4.2379	10.672168	0.000730	7.304042	1.237338	-0.000073
1586	1.5771e+02	4.2280	10.656020	0.000162	1.623121	0.274964	-0.000016
1587	1.5781e+02	4.2187	10.631797	0.000243	2.434681	0.412446	-0.000024
1588	1.5791e+02	4.2085	10.587388	0.000446	4.463581	0.756151	-0.000045
1589	1.5801e+02	4.1981	10.555091	0.000325	3.246241	0.549928	-0.000032
1590	1.5811e+02	4.1874	10.498571	0.000568	5.680922	0.962374	-0.000057
1591	1.5821e+02	4.1779	10.454163	0.000446	4.463581	0.756151	-0.000045
1592	1.5830e+02	4.1686	10.401680	0.000528	5.275142	0.893633	-0.000053
1593	1.5840e+02	4.1584	10.409755	-0.000081	-0.811560	-0.137482	0.000008
1594	1.5850e+02	4.1483	10.389569	0.000203	2.028901	0.343705	-0.000020
1595	1.5860e+02	4.1390	10.304789	0.000852	8.521383	1.443561	-0.000085
1596	1.5870e+02	4.1288	10.280566	0.000243	2.434681	0.412446	-0.000024
1597	1.5880e+02	4.1192	10.244232	0.000365	3.652021	0.618669	-0.000037
1598	1.5890e+02	4.1087	10.195786	0.000487	4.869362	0.824892	-0.000049
1599	1.5900e+02	4.0989	10.143304	0.000528	5.275142	0.893633	-0.000053
1600	1.5910e+02	4.0884	10.115044	0.000284	2.840461	0.481187	-0.000028
1601	1.5920e+02	4.0788	10.094858	0.000203	2.028901	0.343705	-0.000020
1602	1.5930e+02	4.0685	10.062561	0.000325	3.246241	0.549928	-0.000032
1603	1.5940e+02	4.0594	10.014115	0.000487	4.869362	0.824892	-0.000049
1604	1.5950e+02	4.0493	9.985855	0.000284	2.840461	0.481187	-0.000028
1605	1.5960e+02	4.0388	9.913187	0.000730	7.304042	1.237338	-0.000073
1606	1.5970e+02	4.0289	9.925298	-0.000122	-1.217340	-0.206223	0.000012
1607	1.5980e+02	4.0192	9.868778	0.000568	5.680922	0.962374	-0.000057
1608	1.5990e+02	4.0087	9.808221	0.000609	6.086702	1.031115	-0.000061
1609	1.6000e+02	3.9994	9.771887	0.000365	3.652021	0.618669	-0.000037
1610	1.6010e+02	3.9896	9.739590	0.000325	3.246241	0.549928	-0.000032
1611	1.6019e+02	3.9788	9.715367	0.000243	2.434681	0.412446	-0.000024
1612	1.6029e+02	3.9690	9.662884	0.000528	5.275142	0.893633	-0.000053
1613	1.6039e+02	3.9593	9.622513	0.000406	4.057801	0.687410	-0.000041
1614	1.6049e+02	3.9487	9.598290	0.000243	2.434681	0.412446	-0.000024
1615	1.6059e+02	3.9390	9.529659	0.000690	6.898262	1.168597	-0.000069
1616	1.6069e+02	3.9297	9.537733	-0.000081	-0.811560	-0.137482	0.000008
1617	1.6079e+02	3.9193	9.481213	0.000568	5.680922	0.962374	-0.000057
1618	1.6089e+02	3.9097	9.436805	0.000446	4.463581	0.756151	-0.000045
1619	1.6099e+02	3.8993	9.420656	0.000162	1.623121	0.274964	-0.000016
1620	1.6109e+02	3.8873	9.331839	0.000893	8.927163	1.512302	-0.000089
1621	1.6119e+02	3.8794	9.331839	-0.000000	-0.000000	-0.000000	0.000000
1622	1.6129e+02	3.8702	9.263208	0.000690	6.898262	1.168597	-0.000069
1623	1.6139e+02	3.8609	9.267245	-0.000041	-0.405780	-0.068741	0.000004
1624	1.6149e+02	3.8497	9.190540	0.000771	7.709822	1.306079	-0.000077
1625	1.6159e+02	3.8398	9.146131	0.000446	4.463581	0.756151	-0.000045
1626	1.6169e+02	3.8306	9.146131	-0.000000	-0.000000	-0.000000	0.000000
1627	1.6179e+02	3.8194	9.061351	0.000852	8.521383	1.443561	-0.000085
1628	1.6189e+02	3.8110	9.057314	0.000041	0.405780	0.068741	-0.000004
1629	1.6199e+02	3.8009	8.992720	0.000649	6.492482	1.099856	-0.000065
1630	1.6209e+02	3.7890	9.004831	-0.000122	-1.217340	-0.206223	0.000012
1631	1.6219e+02	3.7816	8.916014	0.000893	8.927163	1.512302	-0.000089
1632	1.6228e+02	3.7705	8.875643	0.000406	4.057801	0.687410	-0.000041
1633	1.6238e+02	3.7605	8.855457	0.000203	2.028901	0.343705	-0.000020
1634	1.6248e+02	3.7502	8.774715	0.000812	8.115603	1.374820	-0.000081
1635	1.6258e+02	3.7410	8.802974	-0.000284	-2.840461	-0.481187	0.000028
1636	1.6268e+02	3.7312	8.742417	0.000609	6.086702	1.031115	-0.000061
1637	1.6278e+02	3.7209	8.718195	0.000243	2.434681	0.412446	-0.000024
1638	1.6288e+02	3.7114	8.661675	0.000568	5.680922	0.962374	-0.000057
1639	1.6298e+02	3.7013	8.621303	0.000406	4.057801	0.687410	-0.000041
1640	1.6308e+02	3.6912	8.633415	-0.000122	-1.217340	-0.206223	0.000012
1641	1.6318e+02	3.6810	8.548635	0.000852	8.521383	1.443561	-0.000085
1642	1.6328e+02	3.6710	8.512301	0.000365	3.652021	0.618669	-0.000037
1643	1.6338e+02	3.6605	8.496152	0.000162	1.623121	0.274964	-0.000016
1644	1.6348e+02	3.6509	8.427521	0.000690	6.898262	1.168597	-0.000069
1645	1.6358e+02	3.6411	8.407335	0.000203	2.028901	0.343705	-0.000020
1646	1.6368e+02	3.6317	8.362927	0.000446	4.463581	0.756151	-0.000045
1647	1.6378e+02	3.6212	8.302370	0.000609	6.086702	1.031115	-0.000061
1648	1.6388e+02	3.6118	8.266035	0.000365	3.652021	0.618669	-0.000037
1649	1.6398e+02	3.6007	8.225664	0.000406	4.057801	0.687410	-0.000041
1650	1.6408e+02	3.5911	8.229701	-0.000041	-0.405780	-0.068741	0.000004
1651	1.6418e+02	3.5815	8.112624	0.001177	11.767624	1.993489	-0.000118
1652	1.6427e+02	3.5718	8.128773	-0.000162	-1.623121	-0.274964	0.000016
1653	1.6437e+02	3.5612	8.104550	0.000243	2.434681	0.412446	-0.000024
1654	1.6447e+02	3.5519	8.023807	0.000812	8.115603	1.374820	-0.000081
1655	1.6457e+02	3.5413	8.015733	0.000081	0.811560	0.137482	-0.000008
1656	1.6467e+02	3.5308	7.967287	0.000487	4.869362	0.824892	-0.000049
1657	1.6477e+02	3.5213	7.922879	0.000446	4.463581	0.756151	-0.000045
1658	1.6487e+02	3.5120	7.886545	0.000365	3.652021	0.618669	-0.000037
1659	1.6497e+02	3.5021	7.874433	0.000122	1.217340	0.206223	-0.000012
1660	1.6507e+02	3.4916	7.813876	0.000609	6.086702	1.031115	-0.000061
1661	1.6517e+02	3.4811	7.805802	0.000081	0.811560	0.137482	-0.000008
1662	1.6527e+02	3.4715	7.725059	0.000812	8.115603	1.374820	-0.000081
1663	1.6537e+02	3.4619	7.692762	0.000325	3.246241	0.549928	-0.000032
1664	1.6547e+02	3.4521	7.632205	0.000609	6.086702	1.031115	-0.000061
1665	1.6557e+02	3.4413	7.612019	0.000203	2.028901	0.343705	-0.000020
1666	1.6567e+02	3.4325	7.567611	0.000446	4.463581	0.756151	-0.000045
1667	1.6577e+02	3.4232	7.507054	0.000609	6.086702	1.031115	-0.000061
1668	1.6587e+02	3.4129	7.507054	-0.000000	-0.000000	-0.000000	0.000000
1669	1.6597e+02	3.4018	7.434385	0.000730	7.304042	1.237338	-0.000073
1670	1.6607e+02	3.3920	7.410163	0.000243	2.434681	0.412446	-0.000024
1671	1.6616e+02	3.3825	7.321346	0.000893	8.927163	1.512302	-0.000089
1672	1.6626e+02	3.3725	7.313271	0.000081	0.811560	0.137482	-0.000008
1673	1.6636e+02	3.3623	7.264826	0.000487	4.869362	0.824892	-0.000049
1674	1.6646e+02	3.3525	7.224454	0.000406	4.057801	0.687410	-0.000041
1675	1.6656e+02	3.3424	7.184083	0.000406	4.057801	0.687410	-0.000041
1676	1.6666e+02	3.3329	7.155823	0.000284	2.840461	0.481187	-0.000028
1677	1.6676e+02	3.3227	7.115452	0.000406	4.057801	0.687410	-0.000041
1678	1.6686e+02	3.3125	7.058932	0.000568	5.680922	0.962374	-0.000057
1679	1.6696e+02	3.3033	7.010486	0.000487	4.869362	0.824892	-0.000049
1680	1.6706e+02	3.2919	6.953966	0.000568	5.680922	0.962374	-0.000057
1681	1.6716e+02	3.2829	6.941855	0.000122	1.217340	0.206223	-0.000012
1682	1.6726e+02	3.2729	6.865149	0.000771	7.709822	1.306079	-0.000077
1683	1.6736e+02	3.2631	6.840927	0.000243	2.434681	0.412446	-0.000024
1684	1.6746e+02	3.2522	6.744035	0.000974	9.738723	1.649784	-0.000097
1685	1.6756e+02	3.2424	6.748072	-0.000041	-0.405780	-0.068741	0.000004
1686	1.6766e+02	3.2327	6.703664	0.000446	4.463581	0.756151	-0.000045
1687	1.6776e+02	3.2227	6.663293	0.000406	4.057801	0.687410	-0.000041
1688	1.6786e+02	3.2135	6.618884	0.000446	4.463581	0.756151	-0.000045
1689	1.6796e+02	3.2030	6.606773	0.000122	1.217340	0.206223	-0.000012
1690	1.6806e+02	3.1927	6.526030	0.000812	8.115603	1.374820	-0.000081
1691	1.6816e+02	3.1837	6.493733	0.000325	3.246241	0.549928	-0.000032
1692	1.6825e+02	3.1724	6.449324	0.000446	4.463581	0.756151	-0.000045
1693	1.6835e+02	3.1632	6.376656	0.000730	7.304042	1.237338	-0.000073
1694	1.6845e+02	3.1525	6.328210	0.000487	4.869362	0.824892	-0.000049
1695	1.6855e+02	3.1443	6.283802	0.000446	4.463581	0.756151	-0.000045
1696	1.6865e+02	3.1333	6.279765	0.000041	0.405780	0.068741	-0.000004
1697	1.6875e+02	3.1229	6.207096	0.000730	7.304042	1.237338	-0.000073
1698	1.6885e+02	3.1133	6.158651	0.000487	4.869362	0.824892	-0.000049
1699	1.6895e+02	3.1043	6.110205	0.000487	4.869362	0.824892	-0.000049
1700	1.6905e+02	3.0939	6.073871	0.000365	3.652021	0.618669	-0.000037
1701	1.6915e+02	3.0836	6.041574	0.000325	3.246241	0.549928	-0.000032
1702	1.6925e+02	3.0739	5.968905	0.000730	7.304042	1.237338	-0.000073
1703	1.6935e+02	3.0651	5.940645	0.000284	2.840461	0.481187	-0.000028
1704	1.6945e+02	3.0542	5.912385	0.000284	2.840461	0.481187	-0.000028
1705	1.6955e+02	3.0446	5.847791	0.000649	6.492482	1.099856	-0.000065
1706	1.6965e+02	3.0346	5.779160	0.000690	6.898262	1.168597	-0.000069
1707	1.6975e+02	3.0241	5.742826	0.000365	3.652021	0.618669	-0.000037
1708	1.6985e+02	3.0143	5.730714	0.000122	1.217340	0.206223	-0.000012
1709	1.6995e+02	3.0037	5.674194	0.000568	5.680922	0.962374	-0.000057
1710	1.7005e+02	2.9937	5.629786	0.000446	4.463581	0.756151	-0.000045
1711	1.7015e+02	2.9849	5.569229	0.000609	6.086702	1.031115	-0.000061
1712	1.7024e+02	2.9744	5.524820	0.000446	4.463581	0.756151	-0.000045
1713	1.7034e+02	2.9642	5.468300	0.000568	5.680922	0.962374	-0.000057
1714	1.7044e+02	2.9546	5.371409	0.000974	9.738723	1.649784	-0.000097
1715	1.7054e+02	2.9470	5.379483	-0.000081	-0.811560	-0.137482	0.000008
1716	1.7064e+02	2.9345	5.322963	0.000568	5.680922	0.962374	-0.000057
1717	1.7074e+02	2.9240	5.242221	0.000812	8.115603	1.374820	-0.000081
1718	1.7084e+02	2.9141	5.238184	0.000041	0.405780	0.068741	-0.000004
1719	1.7094e+02	2.9050	5.213961	0.000243	2.434681	0.412446	-0.000024
1720	1.7104e+02	2.8946	5.125144	0.000893	8.927163	1.512302	-0.000089
1721	1.7114e+02	2.8851	5.108995	0.000162	1.623121	0.274964	-0.000016
1722	1.7124e+02	2.8747	5.044401	0.000649	6.492482	1.099856	-0.000065
1723	1.7134e+02	2.8648	5.012104	0.000325	3.246241	0.549928	-0.000032
1724	1.7144e+02	2.8544	4.963658	0.000487	4.869362	0.824892	-0.000049
1725	1.7154e+02	2.8440	4.850619	0.001136	11.361844	1.924748	-0.000114
1726	1.7164e+02	2.8350	4.822359	0.000284	2.840461	0.481187	-0.000028
1727	1.7174e+02	2.8251	4.802173	0.000203	2.028901	0.343705	-0.000020
1728	1.7184e+02	2.8139	4.729505	0.000730	7.304042	1.237338	-0.000073
1729	1.7194e+02	2.8052	4.672985	0.000568	5.680922	0.962374	-0.000057
1730	1.7204e+02	2.7947	4.640688	0.000325	3.246241	0.549928	-0.000032
1731	1.7213e+02	2.7859	4.563982	0.000771	7.709822	1.306079	-0.000077
1732	1.7223e+02	2.7750	4.559945	0.000041	0.405780	0.068741	-0.000004
1733	1.7233e+02	2.7655	4.515536	0.000446	4.463581	0.756151	-0.000045
1734	1.7243e+02	2.7565	4.471128	0.000446	4.463581	0.756151	-0.000045
1735	1.7253e+02	2.7448	4.467091	0.000041	0.405780	0.068741	-0.000004
1736	1.7263e+02	2.7348	4.378274	0.000893	8.927163	1.512302	-0.000089
1737	1.7273e+02	2.7253	4.321754	0.000568	5.680922	0.962374	-0.000057
1738	1.7283e+02	2.7151	4.257160	0.000649	6.492482	1.099856	-0.000065
1739	1.7293e+02	2.7055	4.249085	0.000081	0.811560	0.137482	-0.000008
1740	1.7303e+02	2.6958	4.140083	0.001096	10.956063	1.856007	-0.000110
1741	1.7313e+02	2.6857	4.160268	-0.000203	-2.028901	-0.343705	0.000020
1742	1.7323e+02	2.6757	4.111823	0.000487	4.869362	0.824892	-0.000049
1743	1.7333e+02	2.6650	4.059340	0.000528	5.275142	0.893633	-0.000053
1744	1.7343e+02	2.6548	3.970523	0.000893	8.927163	1.512302	-0.000089
1745	1.7353e+02	2.6459	3.938226	0.000325	3.246241	0.549928	-0.000032
1746	1.7363e+02	2.6367	3.873632	0.000649	6.492482	1.099856	-0.000065
1747	1.7373e+02	2.6266	3.861520	0.000122	1.217340	0.206223	-0.000012
1748	1.7383e+02	2.6161	3.821149	0.000406	4.057801	0.687410	-0.000041
1749	1.7393e+02	2.6061	3.736369	0.000852	8.521383	1.443561	-0.000085
1750	1.7403e+02	2.5957	3.679849	0.000568	5.680922	0.962374	-0.000057
1751	1.7413e+02	2.5858	3.639478	0.000406	4.057801	0.687410	-0.000041
1752	1.7422e+02	2.5766	3.591032	0.000487	4.869362	0.824892	-0.000049
1753	1.7432e+02	2.5670	3.578921	0.000122	1.217340	0.206223	-0.000012
1754	1.7442e+02	2.5564	3.522401	0.000568	5.680922	0.962374	-0.000057
1755	1.7452e+02	2.5467	3.469918	0.000528	5.275142	0.893633	-0.000053
1756	1.7462e+02	2.5354	3.425510	0.000446	4.463581	0.756151	-0.000045
1757	1.7472e+02	2.5269	3.373027	0.000528	5.275142	0.893633	-0.000053
1758	1.7482e+02	2.5169	3.336693	0.000365	3.652021	0.618669	-0.000037
1759	1.7492e+02	2.5065	3.308433	0.000284	2.840461	0.481187	-0.000028
1760	1.7502e+02	2.4976	3.207504	0.001014	10.144503	1.718525	-0.000101
1761	1.7512e+02	2.4868	3.179244	0.000284	2.840461	0.481187	-0.000028
1762	1.7522e+02	2.4776	3.175207	0.000041	0.405780	0.068741	-0.000004
1763	1.7532e+02	2.4661	3.070242	0.001055	10.550283	1.787266	-0.000105
1764	1.7542e+02	2.4570	3.037945	0.000325	3.246241	0.549928	-0.000032
1765	1.7552e+02	2.4468	3.001610	0.000365	3.652021	0.618669	-0.000037
1766	1.7562e+02	2.4363	2.945091	0.000568	5.680922	0.962374	-0.000057
1767	1.7572e+02	2.4265	2.937016	0.000081	0.811560	0.137482	-0.000008
1768	1.7582e+02	2.4169	2.912793	0.000243	2.434681	0.412446	-0.000024
1769	1.7592e+02	2.4070	2.832051	0.000812	8.115603	1.374820	-0.000081
1770	1.7602e+02	2.3982	2.779568	0.000528	5.275142	0.893633	-0.000053
1771	1.7612e+02	2.3876	2.710937	0.000690	6.898262	1.168597	-0.000069
1772	1.7621e+02	2.3770	2.658454	0.000528	5.275142	0.893633	-0.000053
1773	1.7631e+02	2.3675	2.654417	0.000041	0.405780	0.068741	-0.000004
1774	1.7641e+02	2.3573	2.573674	0.000812	8.115603	1.374820	-0.000081
1775	1.7651e+02	2.3482	2.557525	0.000162	1.623121	0.274964	-0.000016
1776	1.7661e+02	2.3376	2.521191	0.000365	3.652021	0.618669	-0.000037
1777	1.7671e+02	2.3284	2.448523	0.000730	7.304042	1.237338	-0.000073
1778	1.7681e+02	2.3170	2.400077	0.000487	4.869362	0.824892	-0.000049
1779	1.7691e+02	2.3072	2.363743	0.000365	3.652021	0.618669	-0.000037
1780	1.7701e+02	2.2970	2.311260	0.000528	5.275142	0.893633	-0.000053
1781	1.7711e+02	2.2883	2.242629	0.000690	6.898262	1.168597	-0.000069
1782	1.7721e+02	2.2773	2.234555	0.000081	0.811560	0.137482	-0.000008
1783	1.7731e+02	2.2682	2.182072	0.000528	5.275142	0.893633	-0.000053
1784	1.7741e+02	2.2582	2.117478	0.000649	6.492482	1.099856	-0.000065
1785	1.7751e+02	2.2478	2.060958	0.000568	5.680922	0.962374	-0.000057
1786	1.7761e+02	2.2376	2.016549	0.000446	4.463581	0.756151	-0.000045
1787	1.7771e+02	2.2273	1.951955	0.000649	6.492482	1.099856	-0.000065
1788	1.7781e+02	2.2178	1.931769	0.000203	2.028901	0.343705	-0.000020
1789	1.7791e+02	2.2083	1.895435	0.000365	3.652021	0.618669	-0.000037
1790	1.7801e+02	2.1984	1.834878	0.000609	6.086702	1.031115	-0.000061
1791	1.7810e+02	2.1889	1.826804	0.000081	0.811560	0.137482	-0.000008
1792	1.7820e+02	2.1777	1.778358	0.000487	4.869362	0.824892	-0.000049
1793	1.7830e+02	2.1682	1.721838	0.000568	5.680922	0.962374	-0.000057
1794	1.7840e+02	2.1581	1.665318	0.000568	5.680922	0.962374	-0.000057
1795	1.7850e+02	2.1490	1.616873	0.000487	4.869362	0.824892	-0.000049
1796	1.7860e+02	2.1390	1.556316	0.000609	6.086702	1.031115	-0.000061
1797	1.7870e+02	2.1285	1.519982	0.000365	3.652021	0.618669	-0.000037
1798	1.7880e+02	2.1196	1.507870	0.000122	1.217340	0.206223	-0.000012
1799	1.7890e+02	2.1082	1.423090	0.000852	8.521383	1.443561	-0.000085
1800	1.7900e+02	2.0979	1.370608	0.000528	5.275142	0.893633	-0.000053
1801	1.7910e+02	2.0885	1.322162	0.000487	4.869362	0.824892	-0.000049
1802	1.7920e+02	2.0791	1.297939	0.000243	2.434681	0.412446	-0.000024
1803	1.7930e+02	2.0685	1.241419	0.000568	5.680922	0.962374	-0.000057
1804	1.7940e+02	2.0584	1.217196	0.000243	2.434681	0.412446	-0.000024
1805	1.7950e+02	2.0486	1.156639	0.000609	6.086702	1.031115	-0.000061
1806	1.7960e+02	2.0388	1.124342	0.000325	3.246241	0.549928	-0.000032
1807	1.7970e+02	2.0291	1.079934	0.000446	4.463581	0.756151	-0.000045
1808	1.7980e+02	2.0193	1.031488	0.000487	4.869362	0.824892	-0.000049
1809	1.7990e+02	2.0089	0.966894	0.000649	6.492482	1.099856	-0.000065
1810	1.8000e+02	1.9980	0.902300	0.000649	6.492482	1.099856	-0.000065
1811	1.8009e+02	1.9901	0.874040	0.000284	2.840461	0.481187	-0.000028
1812	1.8019e+02	1.9787	0.829631	0.000446	4.463581	0.756151	-0.000045
1813	1.8029e+02	1.9691	0.748889	0.000812	8.115603	1.374820	-0.000081
1814	1.8039e+02	1.9595	0.732740	0.000162	1.623121	0.274964	-0.000016
1815	1.8049e+02	1.9495	0.720629	0.000122	1.217340	0.206223	-0.000012
1816	1.8059e+02	1.9378	0.660072	0.000609	6.086702	1.031115	-0.000061
1817	1.8069e+02	1.9286	0.599515	0.000609	6.086702	1.031115	-0.000061
1818	1.8079e+02	1.9191	0.534920	0.000649	6.492482	1.099856	-0.000065
1819	1.8089e+02	1.9085	0.486475	0.000487	4.869362	0.824892	-0.000049
1820	1.8099e+02	1.8999	0.478401	0.000081	0.811560	0.137482	-0.000008
1821	1.8109e+02	1.8888	0.442066	0.000365	3.652021	0.618669	-0.000037
1822	1.8119e+02	1.8798	0.393621	0.000487	4.869362	0.824892	-0.000049
1823	1.8129e+02	1.8702	0.320952	0.000730	7.304042	1.237338	-0.000073
1824	1.8139e+02	1.8597	0.296729	0.000243	2.434681	0.412446	-0.000024
1825	1.8149e+02	1.8506	0.236172	0.000609	6.086702	1.031115	-0.000061
1826	1.8159e+02	1.8395	0.155430	0.000812	8.115603	1.374820	-0.000081
1827	1.8169e+02	1.8300	0.123133	0.000325	3.246241	0.549928	-0.000032
1828	1.8179e+02	1.8191	0.102947	0.000203	2.028901	0.343705	-0.000020
1829	1.8189e+02	1.8102	0.034316	0.000690	6.898262	1.168597	-0.000069
1830	1.8199e+02	1.8004	-0.002019	0.000365	3.652021	0.618669	-0.000037
1831	1.8209e+02	1.7900	-0.070650	0.000690	6.898262	1.168597	-0.000069
1832	1.8218e+02	1.7799	-0.119096	0.000487	4.869362	0.824892	-0.000049
1833	1.8228e+02	1.7702	-0.191764	0.000730	7.304042	1.237338	-0.000073
1834	1.8238e+02	1.7598	-0.244247	0.000528	5.275142	0.893633	-0.000053
1835	1.8248e+02	1.7513	-0.268470	0.000243	2.434681	0.412446	-0.000024
1836	1.8258e+02	1.7409	-0.312878	0.000446	4.463581	0.756151	-0.000045
1837	1.8268e+02	1.7304	-0.361324	0.000487	4.869362	0.824892	-0.000049
1838	1.8278e+02	1.7200	-0.446103	0.000852	8.521383	1.443561	-0.000085
1839	1.8288e+02	1.7104	-0.510698	0.000649	6.492482	1.099856	-0.000065
1840	1.8298e+02	1.7007	-0.547032	0.000365	3.652021	0.618669	-0.000037
1841	1.8308e+02	1.6908	-0.607589	0.000609	6.086702	1.031115	-0.000061
1842	1.8318e+02	1.6814	-0.623737	0.000162	1.623121	0.274964	-0.000016
1843	1.8328e+02	1.6702	-0.724666	0.001014	10.144503	1.718525	-0.000101
1844	1.8338e+02	1.6602	-0.740814	0.000162	1.623121	0.274964	-0.000016
1845	1.8348e+02	1.6502	-0.777149	0.000365	3.652021	0.618669	-0.000037
1846	1.8358e+02	1.6405	-0.845780	0.000690	6.898262	1.168597	-0.000069
1847	1.8368e+02	1.6303	-0.890188	0.000446	4.463581	0.756151	-0.000045
1848	1.8378e+02	1.6206	-0.930560	0.000406	4.057801	0.687410	-0.000041
1849	1.8388e+02	1.6114	-0.987080	0.000568	5.680922	0.962374	-0.000057
1850	1.8398e+02	1.6006	-1.031488	0.000446	4.463581	0.756151	-0.000045
1851	1.8407e+02	1.5920	-1.092045	0.000609	6.086702	1.031115	-0.000061
1852	1.8417e+02	1.5816	-1.164714	0.000730	7.304042	1.237338	-0.000073
1853	1.8427e+02	1.5714	-1.253531	0.000893	8.927163	1.512302	-0.000089
1854	1.8437e+02	1.5613	-1.257568	0.000041	0.405780	0.068741	-0.000004
1855	1.8447e+02	1.5516	-1.322162	0.000649	6.492482	1.099856	-0.000065
1856	1.8457e+02	1.5411	-1.378682	0.000568	5.680922	0.962374	-0.000057
1857	1.8467e+02	1.5315	-1.358496	-0.000203	-2.028901	-0.343705	0.000020
1858	1.8477e+02	1.5216	-1.487685	0.001298	12.984964	2.199712	-0.000130
1859	1.8487e+02	1.5123	-1.511907	0.000243	2.434681	0.412446	-0.000024
1860	1.8497e+02	1.5024	-1.564390	0.000528	5.275142	0.893633	-0.000053
1861	1.8507e+02	1.4919	-1.620910	0.000568	5.680922	0.962374	-0.000057
1862	1.8517e+02	1.4815	-1.697616	0.000771	7.709822	1.306079	-0.000077
1863	1.8527e+02	1.4715	-1.725876	0.000284	2.840461	0.481187	-0.000028
1864	1.8537e+02	1.4620	-1.774321	0.000487	4.869362	0.824892	-0.000049
1865	1.8547e+02	1.4519	-1.830841	0.000568	5.680922	0.962374	-0.000057
1866	1.8557e+02	1.4417	-1.911584	0.000812	8.115603	1.374820	-0.000081
1867	1.8567e+02	1.4323	-1.935807	0.000243	2.434681	0.412446	-0.000024
1868	1.8577e+02	1.4212	-1.988289	0.000528	5.275142	0.893633	-0.000053
1869	1.8587e+02	1.4117	-2.052884	0.000649	6.492482	1.099856	-0.000065
1870	1.8597e+02	1.4023	-2.117478	0.000649	6.492482	1.099856	-0.000065
1871	1.8606e+02	1.3920	-2.169960	0.000528	5.275142	0.893633	-0.000053
1872	1.8616e+02	1.3818	-2.202258	0.000325	3.246241	0.549928	-0.000032
1873	1.8626e+02	1.3716	-2.283000	0.000812	8.115603	1.374820	-0.000081
1874	1.8636e+02	1.3622	-2.347594	0.000649	6.492482	1.099856	-0.000065
1875	1.8646e+02	1.3525	-2.363743	0.000162	1.623121	0.274964	-0.000016
1876	1.8656e+02	1.3416	-2.436411	0.000730	7.304042	1.237338	-0.000073
1877	1.8666e+02	1.3314	-2.505043	0.000690	6.898262	1.168597	-0.000069
1878	1.8676e+02	1.3224	-2.581748	0.000771	7.709822	1.306079	-0.000077
1879	1.8686e+02	1.3123	-2.597897	0.000162	1.623121	0.274964	-0.000016
1880	1.8696e+02	1.3021	-2.678640	0.000812	8.115603	1.374820	-0.000081
1881	1.8706e+02	1.2925	-2.739197	0.000609	6.086702	1.031115	-0.000061
1882	1.8716e+02	1.2820	-2.803791	0.000649	6.492482	1.099856	-0.000065
1883	1.8726e+02	1.2724	-2.836088	0.000325	3.246241	0.549928	-0.000032
1884	1.8736e+02	1.2621	-2.920868	0.000852	8.521383	1.443561	-0.000085
1885	1.8746e+02	1.2535	-2.965276	0.000446	4.463581	0.756151	-0.000045
1886	1.8756e+02	1.2428	-3.029870	0.000649	6.492482	1.099856	-0.000065
1887	1.8766e+02	1.2332	-3.086390	0.000568	5.680922	0.962374	-0.000057
1888	1.8776e+02	1.2234	-3.078316	-0.000081	-0.811560	-0.137482	0.000008
1889	1.8786e+02	1.2136	-3.203467	0.001258	12.579184	2.130971	-0.000126
1890	1.8796e+02	1.2035	-3.231727	0.000284	2.840461	0.481187	-0.000028
1891	1.8806e+02	1.1945	-3.340730	0.001096	10.956063	1.856007	-0.000110
1892	1.8815e+02	1.1845	-3.356878	0.000162	1.623121	0.274964	-0.000016
1893	1.8825e+02	1.1734	-3.429547	0.000730	7.304042	1.237338	-0.000073
1894	1.8835e+02	1.1646	-3.457807	0.000284	2.840461	0.481187	-0.000028
1895	1.8845e+02	1.1537	-3.526438	0.000690	6.898262	1.168597	-0.000069
1896	1.8855e+02	1.1436	-3.586995	0.000609	6.086702	1.031115	-0.000061
1897	1.8865e+02	1.1340	-3.643515	0.000568	5.680922	0.962374	-0.000057
1898	1.8875e+02	1.1234	-3.700035	0.000568	5.680922	0.962374	-0.000057
1899	1.8885e+02	1.1140	-3.756555	0.000568	5.680922	0.962374	-0.000057
1900	1.8895e+02	1.1031	-3.825186	0.000690	6.898262	1.168597	-0.000069
1901	1.8905e+02	1.0944	-3.873632	0.000487	4.869362	0.824892	-0.000049
1902	1.8915e+02	1.0834	-3.942263	0.000690	6.898262	1.168597	-0.000069
1903	1.8925e+02	1.0739	-3.966486	0.000243	2.434681	0.412446	-0.000024
1904	1.8935e+02	1.0645	-4.006857	0.000406	4.057801	0.687410	-0.000041
1905	1.8945e+02	1.0538	-4.148157	0.001420	14.202304	2.405936	-0.000142
1906	1.8955e+02	1.0435	-4.152194	0.000041	0.405780	0.068741	-0.000004
1907	1.8965e+02	1.0340	-4.176417	0.000243	2.434681	0.412446	-0.000024
1908	1.8975e+02	1.0246	-4.261197	0.000852	8.521383	1.443561	-0.000085
1909	1.8985e+02	1.0145	-4.362125	0.001014	10.144503	1.718525	-0.000101
1910	1.8995e+02	1.0037	-4.390385	0.000284	2.840461	0.481187	-0.000028
1911	1.9004e+02	0.9948	-4.430756	0.000406	4.057801	0.687410	-0.000041
1912	1.9014e+02	0.9848	-4.479202	0.000487	4.869362	0.824892	-0.000049
1913	1.9024e+02	0.9748	-4.531685	0.000528	5.275142	0.893633	-0.000053
1914	1.9034e+02	0.9649	-4.592242	0.000609	6.086702	1.031115	-0.000061
1915	1.9044e+02	0.9550	-4.668947	0.000771	7.709822	1.306079	-0.000077
1916	1.9054e+02	0.9445	-4.745653	0.000771	7.709822	1.306079	-0.000077
1917	1.9064e+02	0.9351	-4.773913	0.000284	2.840461	0.481187	-0.000028
1918	1.9074e+02	0.9247	-4.866767	0.000933	9.332943	1.581043	-0.000093
1919	1.9084e+02	0.9155	-4.919250	0.000528	5.275142	0.893633	-0.000053
1920	1.9094e+02	0.9054	-4.947510	0.000284	2.840461	0.481187	-0.000028
1921	1.9104e+02	0.8955	-5.024215	0.000771	7.709822	1.306079	-0.000077
1922	1.9114e+02	0.8847	-5.072661	0.000487	4.869362	0.824892	-0.000049
1923	1.9124e+02	0.8753	-5.092847	0.000203	2.028901	0.343705	-0.000020
1924	1.9134e+02	0.8653	-5.149367	0.000568	5.680922	0.962374	-0.000057
1925	1.9144e+02	0.8554	-5.226072	0.000771	7.709822	1.306079	-0.000077
1926	1.9154e+02	0.8447	-5.298741	0.000730	7.304042	1.237338	-0.000073
1927	1.9164e+02	0.8359	-5.395632	0.000974	9.738723	1.649784	-0.000097
1928	1.9174e+02	0.8247	-5.395632	-0.000000	-0.000000	-0.000000	0.000000
1929	1.9184e+02	0.8140	-5.448115	0.000528	5.275142	0.893633	-0.000053
1930	1.9194e+02	0.8054	-5.520783	0.000730	7.304042	1.237338	-0.000073
1931	1.9203e+02	0.7957	-5.561154	0.000406	4.057801	0.687410	-0.000041
1932	1.9213e+02	0.7855	-5.581340	0.000203	2.028901	0.343705	-0.000020
1933	1.9223e+02	0.7749	-5.670157	0.000893	8.927163	1.512302	-0.000089
1934	1.9233e+02	0.7653	-5.714566	0.000446	4.463581	0.756151	-0.000045
1935	1.9243e+02	0.7549	-5.771086	0.000568	5.680922	0.962374	-0.000057
1936	1.9253e+02	0.7457	-5.851828	0.000812	8.115603	1.374820	-0.000081
1937	1.9263e+02	0.7351	-5.851828	-0.000000	-0.000000	-0.000000	0.000000
1938	1.9273e+02	0.7254	-5.936608	0.000852	8.521383	1.443561	-0.000085
1939	1.9283e+02	0.7164	-6.037536	0.001014	10.144503	1.718525	-0.000101
1940	1.9293e+02	0.7058	-6.065796	0.000284	2.840461	0.481187	-0.000028
1941	1.9303e+02	0.6966	-6.094056	0.000284	2.840461	0.481187	-0.000028
1942	1.9313e+02	0.6850	-6.130391	0.000365	3.652021	0.618669	-0.000037
1943	1.9323e+02	0.6759	-6.231319	0.001014	10.144503	1.718525	-0.000101
1944	1.9333e+02	0.6667	-6.316099	0.000852	8.521383	1.443561	-0.000085
1945	1.9343e+02	0.6559	-6.328210	0.000122	1.217340	0.206223	-0.000012
1946	1.9353e+02	0.6461	-6.392804	0.000649	6.492482	1.099856	-0.000065
1947	1.9363e+02	0.6359	-6.465473	0.000730	7.304042	1.237338	-0.000073
1948	1.9373e+02	0.6255	-6.521993	0.000568	5.680922	0.962374	-0.000057
1949	1.9383e+02	0.6163	-6.554290	0.000325	3.246241	0.549928	-0.000032
1950	1.9393e+02	0.6060	-6.610810	0.000568	5.680922	0.962374	-0.000057
1951	1.9403e+02	0.5964	-6.679441	0.000690	6.898262	1.168597	-0.000069
1952	1.9412e+02	0.5863	-6.707701	0.000284	2.840461	0.481187	-0.000028
1953	1.9422e+02	0.5770	-6.752110	0.000446	4.463581	0.756151	-0.000045
1954	1.9432e+02	0.5667	-6.840927	0.000893	8.927163	1.512302	-0.000089
1955	1.9442e+02	0.5570	-6.921669	0.000812	8.115603	1.374820	-0.000081
1956	1.9452e+02	0.5475	-6.945892	0.000243	2.434681	0.412446	-0.000024
1957	1.9462e+02	0.5361	-7.010486	0.000649	6.492482	1.099856	-0.000065
1958	1.9472e+02	0.5265	-7.115452	0.001055	10.550283	1.787266	-0.000105
1959	1.9482e+02	0.5163	-7.119489	0.000041	0.405780	0.068741	-0.000004
1960	1.9492e+02	0.5074	-7.216380	0.000974	9.738723	1.649784	-0.000097
1961	1.9502e+02	0.4980	-7.256751	0.000406	4.057801	0.687410	-0.000041
1962	1.9512e+02	0.4868	-7.321346	0.000649	6.492482	1.099856	-0.000065
1963	1.9522e+02	0.4774	-7.337494	0.000162	1.623121	0.274964	-0.000016
1964	1.9532e+02	0.4666	-7.381903	0.000446	4.463581	0.756151	-0.000045
1965	1.9542e+02	0.4574	-7.470720	0.000893	8.927163	1.512302	-0.000089
1966	1.9552e+02	0.4471	-7.503017	0.000325	3.246241	0.549928	-0.000032
1967	1.9562e+02	0.4379	-7.539351	0.000365	3.652021	0.618669	-0.000037
1968	1.9572e+02	0.4269	-7.595871	0.000568	5.680922	0.962374	-0.000057
1969	1.9582e+02	0.4165	-7.692762	0.000974	9.738723	1.649784	-0.000097
1970	1.9592e+02	0.4073	-7.753319	0.000609	6.086702	1.031115	-0.000061
1971	1.9601e+02	0.3973	-7.769468	0.000162	1.623121	0.274964	-0.000016
1972	1.9611e+02	0.3867	-7.850210	0.000812	8.115603	1.374820	-0.000081
1973	1.9621e+02	0.3774	-7.918842	0.000690	6.898262	1.168597	-0.000069
1974	1.9631e+02	0.3678	-7.959213	0.000406	4.057801	0.687410	-0.000041
1975	1.9641e+02	0.3577	-7.987473	0.000284	2.840461	0.481187	-0.000028
1976	1.9651e+02	0.3480	-8.080327	0.000933	9.332943	1.581043	-0.000093
1977	1.9661e+02	0.3369	-8.092439	0.000122	1.217340	0.206223	-0.000012
1978	1.9671e+02	0.3276	-8.157033	0.000649	6.492482	1.099856	-0.000065
1979	1.9681e+02	0.3175	-8.209516	0.000528	5.275142	0.893633	-0.000053
1980	1.9691e+02	0.3082	-8.266035	0.000568	5.680922	0.962374	-0.000057
1981	1.9701e+02	0.2975	-8.354852	0.000893	8.927163	1.512302	-0.000089
1982	1.9711e+02	0.2876	-8.395224	0.000406	4.057801	0.687410	-0.000041
1983	1.9721e+02	0.2783	-8.455781	0.000609	6.086702	1.031115	-0.000061
1984	1.9731e+02	0.2680	-8.463855	0.000081	0.811560	0.137482	-0.000008
1985	1.9741e+02	0.2581	-8.520375	0.000568	5.680922	0.962374	-0.000057
1986	1.9751e+02	0.2476	-8.593043	0.000730	7.304042	1.237338	-0.000073
1987	1.9761e+02	0.2379	-8.710120	0.001177	11.767624	1.993489	-0.000118
1988	1.9771e+02	0.2278	-8.750492	0.000406	4.057801	0.687410	-0.000041
1989	1.9781e+02	0.2191	-8.811049	0.000609	6.086702	1.031115	-0.000061
1990	1.9791e+02	0.2078	-8.823160	0.000122	1.217340	0.206223	-0.000012
1991	1.9800e+02	0.1974	-8.891791	0.000690	6.898262	1.168597	-0.000069
1992	1.9810e+02	0.1877	-8.972534	0.000812	8.115603	1.374820	-0.000081
1993	1.9820e+02	0.1772	-9.061351	0.000893	8.927163	1.512302	-0.000089
1994	1.9830e+02	0.1674	-9.045203	-0.000162	-1.623121	-0.274964	0.000016
1995	1.9840e+02	0.1586	-9.162280	0.001177	11.767624	1.993489	-0.000118
1996	1.9850e+02	0.1485	-9.210725	0.000487	4.869362	0.824892	-0.000049
1997	1.9860e+02	0.1389	-9.218799	0.000081	0.811560	0.137482	-0.000008
1998	1.9870e+02	0.1286	-9.311654	0.000933	9.332943	1.581043	-0.000093
1999	1.9880e+02	0.1184	-9.356062	0.000446	4.463581	0.756151	-0.000045
2000	1.9890e+02	0.1079	-9.465065	0.001096	10.956063	1.856007	-0.000110
2001	1.9900e+02	0.0995	-9.485250	0.000203	2.028901	0.343705	-0.000020
2002	1.9910e+02	0.0884	-9.553882	0.000690	6.898262	1.168597	-0.000069
2003	1.9920e+02	0.0787	-9.622513	0.000690	6.898262	1.168597	-0.000069
2004	1.9930e+02	0.0685	-9.670959	0.000487	4.869362	0.824892	-0.000049
2005	1.9940e+02	0.0594	-9.739590	0.000690	6.898262	1.168597	-0.000069
2006	1.9950e+02	0.0488	-9.767850	0.000284	2.840461	0.481187	-0.000028
2007	1.9960e+02	0.0387	-9.860704	0.000933	9.332943	1.581043	-0.000093
2008	1.9970e+02	0.0293	-9.909150	0.000487	4.869362	0.824892	-0.000049
2009	1.9980e+02	0.0194	-9.965670	0.000568	5.680922	0.962374	-0.000057
2010	1.9990e+02	0.0089	-10.018152	0.000528	5.275142	0.893633	-0.000053
2011	2.0000e+02	-0.0005	-10.078709	0.000528	5.275142	0.893633	-0.000061

PMax (uC/cm2):	4.84e+01
Pr (uC/cm2):	1.49e+01
-Pr (uC/cm2):	0.00e+00
PLoss (uC/cm2):	0.00e+00
C (Max-Eff) (nF):	4.84e-01
K (Eff):	8.21e+02
Vert. (+/-Pr) Shift (uC/cm2):	7.46e+00
Offset (uC/cm2):	2.50e+01

A (Loop Area - uC/cm2·Volts):	-9.40e-02



Hysteresis Version: 5.48.1 - Radiant Technologies, Inc., 1999 - 9/12/24

