»»»»»»»»»»»»»»»»»»»»»»»»»»»»»»»»»»»» Hysteresis ««««««««««««««««««««««««««««««««««««
»»»  Executed Version:	5.48.1
»»»  Vision Version:	5.48.4 (R)
»»»  Vision Compiled:	9/18/24
»»»  Driver Version:	5.47.0
»»»  Windows Version:	Windows 8 or 8.1
»»»  Processor Information:	x86 (AMD or Intel) - 32 Processors
»»»  Tester Name:	PMF21124-494 (100V)
»»»  Tester S/N:	PMF21124-494
»»»  Internal Amp Type:	100V RevK 270k
»»»  Internal Amp S/N:	iAB2-596/K     
»»»  Execution Count:	1
»»»»»»»»»»»»»»»»»»»»»»»»»»»»»»»»»»»»»»»»»»««««««««««««««««««««««««««««««««««««««««««

Stored:	10/2/2025 - 17:27:3
Configured:	10/02/25 12:40:15 PM
Executed:	10/02/25 05:26:33 PM

»»»»»»»»»»»»»»»»»»»»»»»»»»»»»»»»»»» Sample Info ««««««««««««««««««««««««««««««««««««
Sample Name:	Int. Ref. Ferroelectric
Lot Name:	N/A
Wafer Name:	N/A
Die Row/Column:	0/0
Capacitor Number:	0
Sample Area (cm2):	1.00e-04
Sample Thickness (microns):	3.00e-01

Amplifier:	Internal

»»»»»»»»»»»»»»»»»»»»»»»»»»»»»»»»»»» Tester Info «««««««««««««««««««««««««««««««««««
Tester Name:	PMF21124-494 (100V)
Tester Serial Number:	PMF21124-494
Return Signal Amp. Level:	0.02 [Index: 2]

»»»»»»»»»»»»»»»»»»»»»»»»»»»»»»»» Hysteresis Info ««««««««««««««««««««««««««««««««««
Task Name:	Hyst-1
Volts:	20.00
Field:	666.67 (kV/cm)
DCBias:	0.00
DCField:	0.00 (kV/cm)
Hysteresis Period (ms):	5.00e-01
Preset:	Enabled
Preset Delay (ms):	1.00e+03
Profile:	Standard Monopolar

»»»»»»»»»»»»»»»»»»»»»»»»»»»»»»»»»»»»»» Data «««««««««««««««««««««««««««««««««««««««
Points:	1001

Valid Data

Point	Time (ms)	Drive Voltage	Measured Polarization (uC/cm2)	Capacitance (uF)	Normalized Capacitance (uF/cm2)	Dielectric Constant	Instantaneous Current (mA)
   1	0.0000e+00	0.0433	-20.479825	0.001534	15.335188	5.195702	0.123789
   2	5.0000e-04	0.0594	-19.860879	0.001534	15.335188	5.195702	0.123789
   3	1.0000e-03	0.1524	-20.079330	-0.000541	-5.412419	-1.833777	-0.043690
   4	1.5000e-03	0.1700	-20.079330	0.000000	0.000000	0.000000	0.000000
   5	2.0000e-03	0.2069	-19.933696	0.000361	3.608280	1.222518	0.029127
   6	2.5000e-03	0.2278	-19.678836	0.000631	6.314489	2.139407	0.050972
   7	3.0000e-03	0.2823	-19.751653	-0.000180	-1.804140	-0.611259	-0.014563
   8	3.5000e-03	0.3225	-19.423976	0.000812	8.118629	2.750666	0.065535
   9	4.0000e-03	0.3610	-19.423976	0.000000	0.000000	0.000000	0.000000
  10	4.5000e-03	0.4139	-19.241933	0.000451	4.510350	1.528148	0.036409
  11	5.0000e-03	0.4540	-18.768621	0.001173	11.726909	3.973184	0.094662
  12	5.5000e-03	0.4861	-19.241933	-0.001173	-11.726909	-3.973184	-0.094662
  13	6.0000e-03	0.5390	-18.695804	0.001353	13.531049	4.584443	0.109226
  14	6.5000e-03	0.5871	-18.368127	0.000812	8.118629	2.750666	0.065535
  15	7.0000e-03	0.5791	-18.914256	0.001353	13.531049	4.584443	-0.109226
  16	7.5000e-03	0.6609	-18.586579	0.000812	8.118629	2.750666	0.065535
  17	8.0000e-03	0.6658	-18.186084	0.000992	9.922769	3.361925	0.080099
  18	8.5000e-03	0.7155	-18.222493	-0.000090	-0.902070	-0.305630	-0.007282
  19	9.0000e-03	0.7845	-18.076858	0.000361	3.608280	1.222518	0.029127
  20	9.5000e-03	0.8021	-17.931224	0.000361	3.608280	1.222518	0.029127
  21	1.0000e-02	0.8262	-18.040450	-0.000271	-2.706210	-0.916889	-0.021845
  22	1.0500e-02	0.8743	-17.858407	0.000451	4.510350	1.528148	0.036409
  23	1.1000e-02	0.9321	-17.494321	0.000902	9.020699	3.056296	0.072817
  24	1.1500e-02	0.9674	-17.639956	-0.000361	-3.608280	-1.222518	-0.029127
  25	1.2000e-02	0.9738	-17.494321	0.000361	3.608280	1.222518	0.029127
  26	1.2500e-02	1.0460	-17.057418	0.001082	10.824839	3.667555	0.087381
  27	1.3000e-02	1.0925	-17.312278	-0.000631	-6.314489	-2.139407	-0.050972
  28	1.3500e-02	1.1133	-16.838967	0.001173	11.726909	3.973184	0.094662
  29	1.4000e-02	1.1679	-17.203053	-0.000902	-9.020699	-3.056296	-0.072817
  30	1.4500e-02	1.2224	-16.620515	0.001443	14.433118	4.890073	0.116507
  31	1.5000e-02	1.2529	-16.729741	-0.000271	-2.706210	-0.916889	-0.021845
  32	1.5500e-02	1.2914	-16.402064	0.000812	8.118629	2.750666	0.065535
  33	1.6000e-02	1.3026	-16.147204	0.000631	6.314489	2.139407	0.050972
  34	1.6500e-02	1.3508	-16.256430	-0.000271	-2.706210	-0.916889	-0.021845
  35	1.7000e-02	1.4133	-16.183612	0.000180	1.804140	0.611259	0.014563
  36	1.7500e-02	1.4566	-16.037978	0.000361	3.608280	1.222518	0.029127
  37	1.8000e-02	1.4791	-16.074387	-0.000090	-0.902070	-0.305630	-0.007282
  38	1.8500e-02	1.5385	-15.892344	0.000451	4.510350	1.528148	0.036409
  39	1.9000e-02	1.5705	-16.001570	-0.000271	-2.706210	-0.916889	-0.021845
  40	1.9500e-02	1.6058	-15.455441	0.001353	13.531049	4.584443	0.109226
  41	2.0000e-02	1.6331	-15.710301	-0.000631	-6.314489	-2.139407	-0.050972
  42	2.0500e-02	1.6652	-15.673892	0.000090	0.902070	0.305630	0.007282
  43	2.1000e-02	1.7294	-14.909312	0.001894	18.943468	6.418221	0.152916
  44	2.1500e-02	1.7695	-15.091355	-0.000451	-4.510350	-1.528148	-0.036409
  45	2.2000e-02	1.8048	-15.127764	-0.000090	-0.902070	-0.305630	-0.007282
  46	2.2500e-02	1.8208	-14.982129	0.000361	3.608280	1.222518	0.029127
  47	2.3000e-02	1.8818	-14.472409	0.001263	12.628979	4.278814	0.101944
  48	2.3500e-02	1.9074	-14.872904	-0.000992	-9.922769	-3.361925	-0.080099
  49	2.4000e-02	1.9636	-14.253958	0.001534	15.335188	5.195702	0.123789
  50	2.4500e-02	2.0117	-14.326775	-0.000180	-1.804140	-0.611259	-0.014563
  51	2.5000e-02	2.0438	-14.472409	-0.000361	-3.608280	-1.222518	-0.029127
  52	2.5500e-02	2.0887	-14.618044	-0.000361	-3.608280	-1.222518	-0.029127
  53	2.6000e-02	2.1449	-13.889872	0.001804	18.041398	6.112591	0.145634
  54	2.6500e-02	2.1946	-14.108324	-0.000541	-5.412419	-1.833777	-0.043690
  55	2.7000e-02	2.1914	-13.562195	-0.001353	-13.531049	-4.584443	0.109226
  56	2.7500e-02	2.2363	-13.671421	-0.000271	-2.706210	-0.916889	-0.021845
  57	2.8000e-02	2.3021	-13.780646	-0.000271	-2.706210	-0.916889	-0.021845
  58	2.8500e-02	2.3438	-13.671421	0.000271	2.706210	0.916889	0.021845
  59	2.9000e-02	2.3695	-13.416561	0.000631	6.314489	2.139407	0.050972
  60	2.9500e-02	2.4128	-13.307335	0.000271	2.706210	0.916889	0.021845
  61	3.0000e-02	2.4481	-13.525786	-0.000541	-5.412419	-1.833777	-0.043690
  62	3.0500e-02	2.4914	-13.525786	0.000000	0.000000	0.000000	0.000000
  63	3.1000e-02	2.5443	-12.943249	0.001443	14.433118	4.890073	0.116507
  64	3.1500e-02	2.5539	-12.870432	0.000180	1.804140	0.611259	0.014563
  65	3.2000e-02	2.5973	-12.797615	0.000180	1.804140	0.611259	0.014563
  66	3.2500e-02	2.6358	-12.979658	-0.000451	-4.510350	-1.528148	-0.036409
  67	3.3000e-02	2.6903	-12.797615	0.000451	4.510350	1.528148	0.036409
  68	3.3500e-02	2.7224	-12.542755	0.000631	6.314489	2.139407	0.050972
  69	3.4000e-02	2.7609	-12.287895	0.000631	6.314489	2.139407	0.050972
  70	3.4500e-02	2.8218	-12.469938	-0.000451	-4.510350	-1.528148	-0.036409
  71	3.5000e-02	2.8620	-12.178669	0.000722	7.216559	2.445036	0.058254
  72	3.5500e-02	2.8748	-12.287895	-0.000271	-2.706210	-0.916889	-0.021845
  73	3.6000e-02	2.9502	-11.778175	0.001263	12.628979	4.278814	0.101944
  74	3.6500e-02	2.9438	-11.887400	0.000271	2.706210	0.916889	-0.021845
  75	3.7000e-02	3.0111	-11.850992	0.000090	0.902070	0.305630	0.007282
  76	3.7500e-02	3.0577	-11.668949	0.000451	4.510350	1.528148	0.036409
  77	3.8000e-02	3.0881	-11.632540	0.000090	0.902070	0.305630	0.007282
  78	3.8500e-02	3.1266	-11.668949	-0.000090	-0.902070	-0.305630	-0.007282
  79	3.9000e-02	3.1587	-11.377680	0.000722	7.216559	2.445036	0.058254
  80	3.9500e-02	3.2229	-11.086412	0.000722	7.216559	2.445036	0.058254
  81	4.0000e-02	3.2598	-11.159229	-0.000180	-1.804140	-0.611259	-0.014563
  82	4.0500e-02	3.2438	-11.377680	0.000541	5.412419	1.833777	-0.043690
  83	4.1000e-02	3.3192	-10.831552	0.001353	13.531049	4.584443	0.109226
  84	4.1500e-02	3.3480	-10.904369	-0.000180	-1.804140	-0.611259	-0.014563
  85	4.2000e-02	3.3946	-10.722326	0.000451	4.510350	1.528148	0.036409
  86	4.2500e-02	3.4507	-10.321832	0.000992	9.922769	3.361925	0.080099
  87	4.3000e-02	3.4972	-10.722326	-0.000992	-9.922769	-3.361925	-0.080099
  88	4.3500e-02	3.5213	-10.431057	0.000722	7.216559	2.445036	0.058254
  89	4.4000e-02	3.5470	-10.176197	0.000631	6.314489	2.139407	0.050972
  90	4.4500e-02	3.5903	-10.649509	-0.001173	-11.726909	-3.973184	-0.094662
  91	4.5000e-02	3.6641	-10.358240	0.000722	7.216559	2.445036	0.058254
  92	4.5500e-02	3.7058	-9.994154	0.000902	9.020699	3.056296	0.072817
  93	4.6000e-02	3.7699	-9.884929	0.000271	2.706210	0.916889	0.021845
  94	4.6500e-02	3.7683	-10.103380	0.000541	5.412419	1.833777	-0.043690
  95	4.7000e-02	3.8004	-9.593660	0.001263	12.628979	4.278814	0.101944
  96	4.7500e-02	3.8389	-9.739294	-0.000361	-3.608280	-1.222518	-0.029127
  97	4.8000e-02	3.9047	-9.593660	0.000361	3.608280	1.222518	0.029127
  98	4.8500e-02	3.9272	-9.448026	0.000361	3.608280	1.222518	0.029127
  99	4.9000e-02	3.9609	-9.448026	0.000000	0.000000	0.000000	0.000000
 100	4.9500e-02	4.0170	-9.448026	0.000000	0.000000	0.000000	0.000000
 101	5.0000e-02	4.0379	-9.229574	0.000541	5.412419	1.833777	0.043690
 102	5.0500e-02	4.1068	-9.265983	-0.000090	-0.902070	-0.305630	-0.007282
 103	5.1000e-02	4.1309	-8.974714	0.000722	7.216559	2.445036	0.058254
 104	5.1500e-02	4.1502	-9.265983	-0.000722	-7.216559	-2.445036	-0.058254
 105	5.2000e-02	4.1870	-8.683446	0.001443	14.433118	4.890073	0.116507
 106	5.2500e-02	4.2480	-8.683446	0.000000	0.000000	0.000000	0.000000
 107	5.3000e-02	4.2785	-8.319360	0.000902	9.020699	3.056296	0.072817
 108	5.3500e-02	4.3202	-8.392177	-0.000180	-1.804140	-0.611259	-0.014563
 109	5.4000e-02	4.3427	-8.501403	-0.000271	-2.706210	-0.916889	-0.021845
 110	5.4500e-02	4.3908	-8.355768	0.000361	3.608280	1.222518	0.029127
 111	5.5000e-02	4.4614	-7.955274	0.000992	9.922769	3.361925	0.080099
 112	5.5500e-02	4.4870	-8.392177	-0.001082	-10.824839	-3.667555	-0.087381
 113	5.6000e-02	4.5287	-8.100908	0.000722	7.216559	2.445036	0.058254
 114	5.6500e-02	4.5705	-8.028091	0.000180	1.804140	0.611259	0.014563
 115	5.7000e-02	4.5897	-7.882457	0.000361	3.608280	1.222518	0.029127
 116	5.7500e-02	4.6266	-7.664005	0.000541	5.412419	1.833777	0.043690
 117	5.8000e-02	4.6747	-7.846048	-0.000451	-4.510350	-1.528148	-0.036409
 118	5.8500e-02	4.7293	-7.409145	0.001082	10.824839	3.667555	0.087381
 119	5.9000e-02	4.7854	-7.372737	0.000090	0.902070	0.305630	0.007282
 120	5.9500e-02	4.7886	-7.445554	-0.000180	-1.804140	-0.611259	-0.014563
 121	6.0000e-02	4.8400	-7.227103	0.000541	5.412419	1.833777	0.043690
 122	6.0500e-02	4.8721	-7.190694	0.000090	0.902070	0.305630	0.007282
 123	6.1000e-02	4.9282	-7.117877	0.000180	1.804140	0.611259	0.014563
 124	6.1500e-02	4.9860	-6.863017	0.000631	6.314489	2.139407	0.050972
 125	6.2000e-02	5.0052	-6.608157	0.000631	6.314489	2.139407	0.050972
 126	6.2500e-02	5.0501	-6.462522	0.000361	3.608280	1.222518	0.029127
 127	6.3000e-02	5.0742	-6.935834	-0.001173	-11.726909	-3.973184	-0.094662
 128	6.3500e-02	5.0918	-6.389705	0.001353	13.531049	4.584443	0.109226
 129	6.4000e-02	5.1576	-6.680974	-0.000722	-7.216559	-2.445036	-0.058254
 130	6.4500e-02	5.1977	-6.680974	0.000000	0.000000	0.000000	0.000000
 131	6.5000e-02	5.2250	-6.498931	0.000451	4.510350	1.528148	0.036409
 132	6.5500e-02	5.2795	-6.462522	0.000090	0.902070	0.305630	0.007282
 133	6.6000e-02	5.3196	-5.952802	0.001263	12.628979	4.278814	0.101944
 134	6.6500e-02	5.3870	-5.770759	0.000451	4.510350	1.528148	0.036409
 135	6.7000e-02	5.3966	-6.062028	-0.000722	-7.216559	-2.445036	-0.058254
 136	6.7500e-02	5.4480	-5.952802	0.000271	2.706210	0.916889	0.021845
 137	6.8000e-02	5.4833	-5.661534	0.000722	7.216559	2.445036	0.058254
 138	6.8500e-02	5.5041	-5.843577	-0.000451	-4.510350	-1.528148	-0.036409
 139	6.9000e-02	5.5635	-5.552308	0.000722	7.216559	2.445036	0.058254
 140	6.9500e-02	5.5875	-5.479491	0.000180	1.804140	0.611259	0.014563
 141	7.0000e-02	5.6501	-5.552308	-0.000180	-1.804140	-0.611259	-0.014563
 142	7.0500e-02	5.6902	-5.297448	0.000631	6.314489	2.139407	0.050972
 143	7.1000e-02	5.7367	-5.261039	0.000090	0.902070	0.305630	0.007282
 144	7.1500e-02	5.7704	-5.261039	0.000000	0.000000	0.000000	0.000000
 145	7.2000e-02	5.8057	-5.115405	0.000361	3.608280	1.222518	0.029127
 146	7.2500e-02	5.8378	-5.188222	-0.000180	-1.804140	-0.611259	-0.014563
 147	7.3000e-02	5.8907	-4.751319	0.001082	10.824839	3.667555	0.087381
 148	7.3500e-02	5.9100	-4.751319	0.000000	0.000000	0.000000	0.000000
 149	7.4000e-02	5.9710	-4.714911	0.000090	0.902070	0.305630	0.007282
 150	7.4500e-02	6.0255	-4.678502	0.000090	0.902070	0.305630	0.007282
 151	7.5000e-02	6.0431	-4.678502	0.000000	0.000000	0.000000	0.000000
 152	7.5500e-02	6.0977	-4.460051	0.000541	5.412419	1.833777	0.043690
 153	7.6000e-02	6.1314	-4.387234	0.000180	1.804140	0.611259	0.014563
 154	7.6500e-02	6.1490	-4.205191	0.000451	4.510350	1.528148	0.036409
 155	7.7000e-02	6.1779	-3.950331	0.000631	6.314489	2.139407	0.050972
 156	7.7500e-02	6.2340	-3.986739	-0.000090	-0.902070	-0.305630	-0.007282
 157	7.8000e-02	6.2854	-3.986739	0.000000	0.000000	0.000000	0.000000
 158	7.8500e-02	6.3335	-4.132373	-0.000361	-3.608280	-1.222518	-0.029127
 159	7.9000e-02	6.3640	-3.841105	0.000722	7.216559	2.445036	0.058254
 160	7.9500e-02	6.4105	-3.950331	-0.000271	-2.706210	-0.916889	-0.021845
 161	8.0000e-02	6.4506	-3.586245	0.000902	9.020699	3.056296	0.072817
 162	8.0500e-02	6.4859	-3.768288	-0.000451	-4.510350	-1.528148	-0.036409
 163	8.1000e-02	6.4715	-3.804696	0.000090	0.902070	0.305630	-0.007282
 164	8.1500e-02	6.5597	-3.222159	0.001443	14.433118	4.890073	0.116507
 165	8.2000e-02	6.6078	-3.258568	-0.000090	-0.902070	-0.305630	-0.007282
 166	8.2500e-02	6.6287	-2.821665	0.001082	10.824839	3.667555	0.087381
 167	8.3000e-02	6.6688	-3.149342	-0.000812	-8.118629	-2.750666	-0.065535
 168	8.3500e-02	6.7201	-2.894482	0.000631	6.314489	2.139407	0.050972
 169	8.4000e-02	6.7731	-2.967299	-0.000180	-1.804140	-0.611259	-0.014563
 170	8.4500e-02	6.8100	-3.076525	-0.000271	-2.706210	-0.916889	-0.021845
 171	8.5000e-02	6.8340	-2.858073	0.000541	5.412419	1.833777	0.043690
 172	8.5500e-02	6.8741	-2.821665	0.000090	0.902070	0.305630	0.007282
 173	8.6000e-02	6.9094	-2.566805	0.000631	6.314489	2.139407	0.050972
 174	8.6500e-02	6.9431	-2.566805	0.000000	0.000000	0.000000	0.000000
 175	8.7000e-02	7.0009	-2.748848	-0.000451	-4.510350	-1.528148	-0.036409
 176	8.7500e-02	7.0490	-2.457579	0.000722	7.216559	2.445036	0.058254
 177	8.8000e-02	7.0779	-2.566805	-0.000271	-2.706210	-0.916889	-0.021845
 178	8.8500e-02	7.1276	-2.057085	0.001263	12.628979	4.278814	0.101944
 179	8.9000e-02	7.1725	-2.202719	-0.000361	-3.608280	-1.222518	-0.029127
 180	8.9500e-02	7.2078	-2.166310	0.000090	0.902070	0.305630	0.007282
 181	9.0000e-02	7.2351	-1.875042	0.000722	7.216559	2.445036	0.058254
 182	9.0500e-02	7.2864	-1.620182	0.000631	6.314489	2.139407	0.050972
 183	9.1000e-02	7.3121	-1.875042	-0.000631	-6.314489	-2.139407	-0.050972
 184	9.1500e-02	7.3698	-1.765816	0.000271	2.706210	0.916889	0.021845
 185	9.2000e-02	7.3811	-1.583773	0.000451	4.510350	1.528148	0.036409
 186	9.2500e-02	7.4436	-1.692999	-0.000271	-2.706210	-0.916889	-0.021845
 187	9.3000e-02	7.4854	-1.183279	0.001263	12.628979	4.278814	0.101944
 188	9.3500e-02	7.5046	-1.620182	-0.001082	-10.824839	-3.667555	-0.087381
 189	9.4000e-02	7.5720	-1.328913	0.000722	7.216559	2.445036	0.058254
 190	9.4500e-02	7.5864	-1.438139	-0.000271	-2.706210	-0.916889	-0.021845
 191	9.5000e-02	7.6522	-1.256096	0.000451	4.510350	1.528148	0.036409
 192	9.5500e-02	7.6811	-1.074053	0.000451	4.510350	1.528148	0.036409
 193	9.6000e-02	7.7372	-1.146870	-0.000180	-1.804140	-0.611259	-0.014563
 194	9.6500e-02	7.7356	-1.037644	-0.000271	-2.706210	-0.916889	0.021845
 195	9.7000e-02	7.8126	-0.928419	0.000271	2.706210	0.916889	0.021845
 196	9.7500e-02	7.8319	-0.746376	0.000451	4.510350	1.528148	0.036409
 197	9.8000e-02	7.8639	-0.746376	0.000000	0.000000	0.000000	0.000000
 198	9.8500e-02	7.9169	-0.527924	0.000541	5.412419	1.833777	0.043690
 199	9.9000e-02	7.9458	-0.564333	-0.000090	-0.902070	-0.305630	-0.007282
 200	9.9500e-02	8.0228	-0.091021	0.001173	11.726909	3.973184	0.094662
 201	1.0000e-01	8.0404	-0.527924	-0.001082	-10.824839	-3.667555	-0.087381
 202	1.0050e-01	8.0950	-0.345881	0.000451	4.510350	1.528148	0.036409
 203	1.0100e-01	8.1174	0.018204	0.000902	9.020699	3.056296	0.072817
 204	1.0150e-01	8.1575	0.054613	0.000090	0.902070	0.305630	0.007282
 205	1.0200e-01	8.1864	-0.309473	-0.000902	-9.020699	-3.056296	-0.072817
 206	1.0250e-01	8.2313	-0.018204	0.000722	7.216559	2.445036	0.058254
 207	1.0300e-01	8.2746	0.163839	0.000451	4.510350	1.528148	0.036409
 208	1.0350e-01	8.3212	0.273064	0.000271	2.706210	0.916889	0.021845
 209	1.0400e-01	8.3709	0.491516	0.000541	5.412419	1.833777	0.043690
 210	1.0450e-01	8.4078	0.309473	-0.000451	-4.510350	-1.528148	-0.036409
 211	1.0500e-01	8.4254	0.127430	-0.000451	-4.510350	-1.528148	-0.036409
 212	1.0550e-01	8.4671	0.564333	0.001082	10.824839	3.667555	0.087381
 213	1.0600e-01	8.5169	0.382290	-0.000451	-4.510350	-1.528148	-0.036409
 214	1.0650e-01	8.5682	0.673559	0.000722	7.216559	2.445036	0.058254
 215	1.0700e-01	8.5971	1.001236	0.000812	8.118629	2.750666	0.065535
 216	1.0750e-01	8.6211	0.855602	-0.000361	-3.608280	-1.222518	-0.029127
 217	1.0800e-01	8.6805	0.819193	-0.000090	-0.902070	-0.305630	-0.007282
 218	1.0850e-01	8.7206	1.183279	0.000902	9.020699	3.056296	0.072817
 219	1.0900e-01	8.7575	1.146870	-0.000090	-0.902070	-0.305630	-0.007282
 220	1.0950e-01	8.8008	1.183279	0.000090	0.902070	0.305630	0.007282
 221	1.1000e-01	8.8393	1.292504	0.000271	2.706210	0.916889	0.021845
 222	1.1050e-01	8.8762	1.547365	0.000631	6.314489	2.139407	0.050972
 223	1.1100e-01	8.9276	0.928419	-0.001534	-15.335188	-5.195702	-0.123789
 224	1.1150e-01	8.9420	1.510956	0.001443	14.433118	4.890073	0.116507
 225	1.1200e-01	8.9805	1.510956	0.000000	0.000000	0.000000	0.000000
 226	1.1250e-01	9.0591	1.765816	0.000631	6.314489	2.139407	0.050972
 227	1.1300e-01	9.0992	1.692999	-0.000180	-1.804140	-0.611259	-0.014563
 228	1.1350e-01	9.1233	1.692999	0.000000	0.000000	0.000000	0.000000
 229	1.1400e-01	9.1554	1.765816	0.000180	1.804140	0.611259	0.014563
 230	1.1450e-01	9.2035	2.202719	0.001082	10.824839	3.667555	0.087381
 231	1.1500e-01	9.2484	2.057085	-0.000361	-3.608280	-1.222518	-0.029127
 232	1.1550e-01	9.2709	2.129902	0.000180	1.804140	0.611259	0.014563
 233	1.1600e-01	9.3174	2.239127	0.000271	2.706210	0.916889	0.021845
 234	1.1650e-01	9.3543	2.129902	-0.000271	-2.706210	-0.916889	-0.021845
 235	1.1700e-01	9.4104	2.275536	0.000361	3.608280	1.222518	0.029127
 236	1.1750e-01	9.4297	2.311945	0.000090	0.902070	0.305630	0.007282
 237	1.1800e-01	9.4938	2.384762	0.000180	1.804140	0.611259	0.014563
 238	1.1850e-01	9.5147	2.676030	0.000722	7.216559	2.445036	0.058254
 239	1.1900e-01	9.5917	2.603213	-0.000180	-1.804140	-0.611259	-0.014563
 240	1.1950e-01	9.5949	2.457579	-0.000361	-3.608280	-1.222518	-0.029127
 241	1.2000e-01	9.6639	2.821665	0.000902	9.020699	3.056296	0.072817
 242	1.2050e-01	9.6783	2.748848	-0.000180	-1.804140	-0.611259	-0.014563
 243	1.2100e-01	9.7088	3.003708	0.000631	6.314489	2.139407	0.050972
 244	1.2150e-01	9.7553	2.967299	-0.000090	-0.902070	-0.305630	-0.007282
 245	1.2200e-01	9.8035	3.149342	0.000451	4.510350	1.528148	0.036409
 246	1.2250e-01	9.8259	2.967299	-0.000451	-4.510350	-1.528148	-0.036409
 247	1.2300e-01	9.8452	3.076525	0.000271	2.706210	0.916889	0.021845
 248	1.2350e-01	9.9190	3.185750	0.000271	2.706210	0.916889	0.021845
 249	1.2400e-01	9.9719	3.513428	0.000812	8.118629	2.750666	0.065535
 250	1.2450e-01	9.9960	3.477019	-0.000090	-0.902070	-0.305630	-0.007282
 251	1.2500e-01	10.0216	3.804696	0.000812	8.118629	2.750666	0.065535
 252	1.2550e-01	10.0826	3.586245	-0.000541	-5.412419	-1.833777	-0.043690
 253	1.2600e-01	10.1147	3.695471	0.000271	2.706210	0.916889	0.021845
 254	1.2650e-01	10.1355	3.804696	0.000271	2.706210	0.916889	0.021845
 255	1.2700e-01	10.2045	3.659062	-0.000361	-3.608280	-1.222518	-0.029127
 256	1.2750e-01	10.2671	3.731879	0.000180	1.804140	0.611259	0.014563
 257	1.2800e-01	10.2944	4.168782	0.001082	10.824839	3.667555	0.087381
 258	1.2850e-01	10.3088	4.059556	-0.000271	-2.706210	-0.916889	-0.021845
 259	1.2900e-01	10.3810	4.168782	0.000271	2.706210	0.916889	0.021845
 260	1.2950e-01	10.3826	3.950331	-0.000541	-5.412419	-1.833777	-0.043690
 261	1.3000e-01	10.4420	4.387234	0.001082	10.824839	3.667555	0.087381
 262	1.3050e-01	10.4724	3.877513	-0.001263	-12.628979	-4.278814	-0.101944
 263	1.3100e-01	10.5286	4.605685	0.001804	18.041398	6.112591	0.145634
 264	1.3150e-01	10.5575	4.168782	-0.001082	-10.824839	-3.667555	-0.087381
 265	1.3200e-01	10.5927	4.605685	0.001082	10.824839	3.667555	0.087381
 266	1.3250e-01	10.6537	4.605685	0.000000	0.000000	0.000000	0.000000
 267	1.3300e-01	10.6762	4.714911	0.000271	2.706210	0.916889	0.021845
 268	1.3350e-01	10.7291	4.387234	-0.000812	-8.118629	-2.750666	-0.065535
 269	1.3400e-01	10.7516	5.261039	0.002165	21.649678	7.335109	0.174761
 270	1.3450e-01	10.8029	4.678502	-0.001443	-14.433118	-4.890073	-0.116507
 271	1.3500e-01	10.8542	4.933362	0.000631	6.314489	2.139407	0.050972
 272	1.3550e-01	10.8943	4.824136	-0.000271	-2.706210	-0.916889	-0.021845
 273	1.3600e-01	10.9248	5.261039	0.001082	10.824839	3.667555	0.087381
 274	1.3650e-01	10.9842	5.224631	-0.000090	-0.902070	-0.305630	-0.007282
 275	1.3700e-01	10.9842	5.042588	0.000451	4.510350	1.528148	-0.036409
 276	1.3750e-01	11.0323	5.261039	0.000541	5.412419	1.833777	0.043690
 277	1.3800e-01	11.0869	5.552308	0.000722	7.216559	2.445036	0.058254
 278	1.3850e-01	11.1414	5.479491	-0.000180	-1.804140	-0.611259	-0.014563
 279	1.3900e-01	11.1735	5.697942	0.000541	5.412419	1.833777	0.043690
 280	1.3950e-01	11.2152	5.770759	0.000180	1.804140	0.611259	0.014563
 281	1.4000e-01	11.2328	5.843577	0.000180	1.804140	0.611259	0.014563
 282	1.4050e-01	11.2858	5.697942	-0.000361	-3.608280	-1.222518	-0.029127
 283	1.4100e-01	11.3259	5.625125	-0.000180	-1.804140	-0.611259	-0.014563
 284	1.4150e-01	11.3596	5.952802	0.000812	8.118629	2.750666	0.065535
 285	1.4200e-01	11.4061	5.770759	-0.000451	-4.510350	-1.528148	-0.036409
 286	1.4250e-01	11.4398	6.207662	0.001082	10.824839	3.667555	0.087381
 287	1.4300e-01	11.4895	6.134845	-0.000180	-1.804140	-0.611259	-0.014563
 288	1.4350e-01	11.5328	6.171254	0.000090	0.902070	0.305630	0.007282
 289	1.4400e-01	11.5537	6.353297	0.000451	4.510350	1.528148	0.036409
 290	1.4450e-01	11.5986	6.462522	0.000271	2.706210	0.916889	0.021845
 291	1.4500e-01	11.6195	6.244071	-0.000541	-5.412419	-1.833777	-0.043690
 292	1.4550e-01	11.6900	6.462522	0.000541	5.412419	1.833777	0.043690
 293	1.4600e-01	11.7414	6.389705	-0.000180	-1.804140	-0.611259	-0.014563
 294	1.4650e-01	11.7735	6.753791	0.000902	9.020699	3.056296	0.072817
 295	1.4700e-01	11.7670	6.680974	0.000180	1.804140	0.611259	-0.014563
 296	1.4750e-01	11.8473	6.498931	-0.000451	-4.510350	-1.528148	-0.036409
 297	1.4800e-01	11.8713	6.899425	0.000992	9.922769	3.361925	0.080099
 298	1.4850e-01	11.9114	6.972242	0.000180	1.804140	0.611259	0.014563
 299	1.4900e-01	11.9820	7.154285	0.000451	4.510350	1.528148	0.036409
 300	1.4950e-01	12.0173	6.935834	-0.000541	-5.412419	-1.833777	-0.043690
 301	1.5000e-01	12.0446	7.154285	0.000541	5.412419	1.833777	0.043690
 302	1.5050e-01	12.0606	6.972242	-0.000451	-4.510350	-1.528148	-0.036409
 303	1.5100e-01	12.1168	7.336328	0.000902	9.020699	3.056296	0.072817
 304	1.5150e-01	12.1553	7.263511	-0.000180	-1.804140	-0.611259	-0.014563
 305	1.5200e-01	12.2162	7.627597	0.000902	9.020699	3.056296	0.072817
 306	1.5250e-01	12.2499	7.481963	-0.000361	-3.608280	-1.222518	-0.029127
 307	1.5300e-01	12.2804	7.664005	0.000451	4.510350	1.528148	0.036409
 308	1.5350e-01	12.3221	7.736823	0.000180	1.804140	0.611259	0.014563
 309	1.5400e-01	12.3638	7.955274	0.000541	5.412419	1.833777	0.043690
 310	1.5450e-01	12.4039	7.664005	-0.000722	-7.216559	-2.445036	-0.058254
 311	1.5500e-01	12.4488	7.591188	-0.000180	-1.804140	-0.611259	-0.014563
 312	1.5550e-01	12.4761	7.918865	0.000812	8.118629	2.750666	0.065535
 313	1.5600e-01	12.5194	7.846048	-0.000180	-1.804140	-0.611259	-0.014563
 314	1.5650e-01	12.5467	8.028091	0.000451	4.510350	1.528148	0.036409
 315	1.5700e-01	12.5900	8.064500	0.000090	0.902070	0.305630	0.007282
 316	1.5750e-01	12.6365	8.282951	0.000541	5.412419	1.833777	0.043690
 317	1.5800e-01	12.6750	8.064500	-0.000541	-5.412419	-1.833777	-0.043690
 318	1.5850e-01	12.6959	8.282951	0.000541	5.412419	1.833777	0.043690
 319	1.5900e-01	12.7745	8.210134	-0.000180	-1.804140	-0.611259	-0.014563
 320	1.5950e-01	12.8114	8.428586	0.000541	5.412419	1.833777	0.043690
 321	1.6000e-01	12.8467	8.574220	0.000361	3.608280	1.222518	0.029127
 322	1.6050e-01	12.8948	8.464994	-0.000271	-2.706210	-0.916889	-0.021845
 323	1.6100e-01	12.9285	8.683446	0.000541	5.412419	1.833777	0.043690
 324	1.6150e-01	12.9061	8.392177	0.000722	7.216559	2.445036	-0.058254
 325	1.6200e-01	12.9879	8.865488	0.001173	11.726909	3.973184	0.094662
 326	1.6250e-01	13.0344	8.829080	-0.000090	-0.902070	-0.305630	-0.007282
 327	1.6300e-01	13.0697	8.792671	-0.000090	-0.902070	-0.305630	-0.007282
 328	1.6350e-01	13.1146	8.974714	0.000451	4.510350	1.528148	0.036409
 329	1.6400e-01	13.1579	9.047531	0.000180	1.804140	0.611259	0.014563
 330	1.6450e-01	13.1804	9.302391	0.000631	6.314489	2.139407	0.050972
 331	1.6500e-01	13.2494	9.593660	0.000722	7.216559	2.445036	0.058254
 332	1.6550e-01	13.2622	9.120349	-0.001173	-11.726909	-3.973184	-0.094662
 333	1.6600e-01	13.3023	9.484434	0.000902	9.020699	3.056296	0.072817
 334	1.6650e-01	13.3536	9.302391	-0.000451	-4.510350	-1.528148	-0.036409
 335	1.6700e-01	13.3953	9.739294	0.001082	10.824839	3.667555	0.087381
 336	1.6750e-01	13.4627	9.484434	-0.000631	-6.314489	-2.139407	-0.050972
 337	1.6800e-01	13.4852	9.520843	0.000090	0.902070	0.305630	0.007282
 338	1.6850e-01	13.5157	9.775703	0.000631	6.314489	2.139407	0.050972
 339	1.6900e-01	13.5542	9.775703	0.000000	0.000000	0.000000	0.000000
 340	1.6950e-01	13.6039	9.775703	0.000000	0.000000	0.000000	0.000000
 341	1.7000e-01	13.6344	10.066972	0.000722	7.216559	2.445036	0.058254
 342	1.7050e-01	13.6745	9.702886	-0.000902	-9.020699	-3.056296	-0.072817
 343	1.7100e-01	13.7226	9.666477	-0.000090	-0.902070	-0.305630	-0.007282
 344	1.7150e-01	13.7595	10.066972	0.000992	9.922769	3.361925	0.080099
 345	1.7200e-01	13.7980	10.030563	-0.000090	-0.902070	-0.305630	-0.007282
 346	1.7250e-01	13.8397	10.285423	0.000631	6.314489	2.139407	0.050972
 347	1.7300e-01	13.8830	10.321832	0.000090	0.902070	0.305630	0.007282
 348	1.7350e-01	13.9215	10.467466	0.000361	3.608280	1.222518	0.029127
 349	1.7400e-01	13.9520	10.285423	-0.000451	-4.510350	-1.528148	-0.036409
 350	1.7450e-01	14.0050	10.758734	0.001173	11.726909	3.973184	0.094662
 351	1.7500e-01	14.0563	10.321832	-0.001082	-10.824839	-3.667555	-0.087381
 352	1.7550e-01	14.0707	10.394649	0.000180	1.804140	0.611259	0.014563
 353	1.7600e-01	14.1028	10.613100	0.000541	5.412419	1.833777	0.043690
 354	1.7650e-01	14.1638	10.613100	0.000000	0.000000	0.000000	0.000000
 355	1.7700e-01	14.1975	10.613100	0.000000	0.000000	0.000000	0.000000
 356	1.7750e-01	14.2536	11.122820	0.001263	12.628979	4.278814	0.101944
 357	1.7800e-01	14.2729	10.758734	-0.000902	-9.020699	-3.056296	-0.072817
 358	1.7850e-01	14.3162	10.977186	0.000541	5.412419	1.833777	0.043690
 359	1.7900e-01	14.3707	10.649509	-0.000812	-8.118629	-2.750666	-0.065535
 360	1.7950e-01	14.3916	10.940777	0.000722	7.216559	2.445036	0.058254
 361	1.8000e-01	14.4285	11.450497	0.001263	12.628979	4.278814	0.101944
 362	1.8050e-01	14.4926	11.232046	-0.000541	-5.412419	-1.833777	-0.043690
 363	1.8100e-01	14.5247	11.304863	0.000180	1.804140	0.611259	0.014563
 364	1.8150e-01	14.5729	11.486906	0.000451	4.510350	1.528148	0.036409
 365	1.8200e-01	14.5857	11.668949	0.000451	4.510350	1.528148	0.036409
 366	1.8250e-01	14.6338	11.559723	-0.000271	-2.706210	-0.916889	-0.021845
 367	1.8300e-01	14.6675	11.486906	-0.000180	-1.804140	-0.611259	-0.014563
 368	1.8350e-01	14.7204	11.414089	-0.000180	-1.804140	-0.611259	-0.014563
 369	1.8400e-01	14.7846	11.887400	0.001173	11.726909	3.973184	0.094662
 370	1.8450e-01	14.7862	11.668949	-0.000541	-5.412419	-1.833777	-0.043690
 371	1.8500e-01	14.8392	11.850992	0.000451	4.510350	1.528148	0.036409
 372	1.8550e-01	14.8744	11.778175	-0.000180	-1.804140	-0.611259	-0.014563
 373	1.8600e-01	14.8921	11.741766	-0.000090	-0.902070	-0.305630	-0.007282
 374	1.8650e-01	14.9659	11.887400	0.000361	3.608280	1.222518	0.029127
 375	1.8700e-01	14.9932	11.996626	0.000271	2.706210	0.916889	0.021845
 376	1.8750e-01	15.0204	12.069443	0.000180	1.804140	0.611259	0.014563
 377	1.8800e-01	15.0798	12.251486	0.000451	4.510350	1.528148	0.036409
 378	1.8850e-01	15.1055	12.251486	0.000000	0.000000	0.000000	0.000000
 379	1.8900e-01	15.1504	12.251486	0.000000	0.000000	0.000000	0.000000
 380	1.8950e-01	15.2001	12.397120	0.000361	3.608280	1.222518	0.029127
 381	1.9000e-01	15.2258	12.651980	0.000631	6.314489	2.139407	0.050972
 382	1.9050e-01	15.2932	12.506346	-0.000361	-3.608280	-1.222518	-0.029127
 383	1.9100e-01	15.3044	12.506346	0.000000	0.000000	0.000000	0.000000
 384	1.9150e-01	15.3268	12.688389	0.000451	4.510350	1.528148	0.036409
 385	1.9200e-01	15.3830	12.797615	0.000271	2.706210	0.916889	0.021845
 386	1.9250e-01	15.4343	12.906841	0.000271	2.706210	0.916889	0.021845
 387	1.9300e-01	15.4792	12.906841	0.000000	0.000000	0.000000	0.000000
 388	1.9350e-01	15.5145	12.906841	0.000000	0.000000	0.000000	0.000000
 389	1.9400e-01	15.5611	13.125292	0.000541	5.412419	1.833777	0.043690
 390	1.9450e-01	15.5867	13.161701	0.000090	0.902070	0.305630	0.007282
 391	1.9500e-01	15.6060	13.125292	-0.000090	-0.902070	-0.305630	-0.007282
 392	1.9550e-01	15.6637	13.198109	0.000180	1.804140	0.611259	0.014563
 393	1.9600e-01	15.6958	12.797615	-0.000992	-9.922769	-3.361925	-0.080099
 394	1.9650e-01	15.7648	13.307335	0.001263	12.628979	4.278814	0.101944
 395	1.9700e-01	15.7921	13.307335	0.000000	0.000000	0.000000	0.000000
 396	1.9750e-01	15.8482	13.416561	0.000271	2.706210	0.916889	0.021845
 397	1.9800e-01	15.8594	13.380152	-0.000090	-0.902070	-0.305630	-0.007282
 398	1.9850e-01	15.8947	13.671421	0.000722	7.216559	2.445036	0.058254
 399	1.9900e-01	15.9493	13.598603	-0.000180	-1.804140	-0.611259	-0.014563
 400	1.9950e-01	16.0070	13.635012	0.000090	0.902070	0.305630	0.007282
 401	2.0000e-01	16.0231	13.999098	0.000902	9.020699	3.056296	0.072817
 402	2.0050e-01	16.0760	13.744238	-0.000631	-6.314489	-2.139407	-0.050972
 403	2.0100e-01	16.1017	13.780646	0.000090	0.902070	0.305630	0.007282
 404	2.0150e-01	16.1578	14.108324	0.000812	8.118629	2.750666	0.065535
 405	2.0200e-01	16.1771	13.926281	-0.000451	-4.510350	-1.528148	-0.036409
 406	2.0250e-01	16.2461	14.217549	0.000722	7.216559	2.445036	0.058254
 407	2.0300e-01	16.2814	14.108324	-0.000271	-2.706210	-0.916889	-0.021845
 408	2.0350e-01	16.2830	13.926281	-0.000451	-4.510350	-1.528148	-0.036409
 409	2.0400e-01	16.3487	14.071915	0.000361	3.608280	1.222518	0.029127
 410	2.0450e-01	16.4177	14.436001	0.000902	9.020699	3.056296	0.072817
 411	2.0500e-01	16.4001	14.326775	0.000271	2.706210	0.916889	-0.021845
 412	2.0550e-01	16.4787	14.363184	0.000090	0.902070	0.305630	0.007282
 413	2.0600e-01	16.5236	14.690861	0.000812	8.118629	2.750666	0.065535
 414	2.0650e-01	16.5573	14.508818	-0.000451	-4.510350	-1.528148	-0.036409
 415	2.0700e-01	16.5878	14.654452	0.000361	3.608280	1.222518	0.029127
 416	2.0750e-01	16.6263	14.326775	-0.000812	-8.118629	-2.750666	-0.065535
 417	2.0800e-01	16.6792	14.727269	0.000992	9.922769	3.361925	0.080099
 418	2.0850e-01	16.7225	15.018538	0.000722	7.216559	2.445036	0.058254
 419	2.0900e-01	16.7626	15.018538	0.000000	0.000000	0.000000	0.000000
 420	2.0950e-01	16.7803	14.982129	-0.000090	-0.902070	-0.305630	-0.007282
 421	2.1000e-01	16.8364	14.654452	-0.000812	-8.118629	-2.750666	-0.065535
 422	2.1050e-01	16.8701	15.127764	0.001173	11.726909	3.973184	0.094662
 423	2.1100e-01	16.9150	15.054947	-0.000180	-1.804140	-0.611259	-0.014563
 424	2.1150e-01	16.9311	15.054947	0.000000	0.000000	0.000000	0.000000
 425	2.1200e-01	17.0049	15.673892	0.001534	15.335188	5.195702	0.123789
 426	2.1250e-01	17.0514	15.346215	-0.000812	-8.118629	-2.750666	-0.065535
 427	2.1300e-01	17.0738	15.419032	0.000180	1.804140	0.611259	0.014563
 428	2.1350e-01	17.1412	15.673892	0.000631	6.314489	2.139407	0.050972
 429	2.1400e-01	17.1605	15.564667	-0.000271	-2.706210	-0.916889	-0.021845
 430	2.1450e-01	17.2054	15.673892	0.000271	2.706210	0.916889	0.021845
 431	2.1500e-01	17.2279	15.346215	-0.000812	-8.118629	-2.750666	-0.065535
 432	2.1550e-01	17.2904	15.819527	0.001173	11.726909	3.973184	0.094662
 433	2.1600e-01	17.3129	16.037978	0.000541	5.412419	1.833777	0.043690
 434	2.1650e-01	17.3305	15.892344	-0.000361	-3.608280	-1.222518	-0.029127
 435	2.1700e-01	17.4107	16.110795	0.000541	5.412419	1.833777	0.043690
 436	2.1750e-01	17.4364	16.037978	-0.000180	-1.804140	-0.611259	-0.014563
 437	2.1800e-01	17.4637	16.074387	0.000090	0.902070	0.305630	0.007282
 438	2.1850e-01	17.5134	16.183612	0.000271	2.706210	0.916889	0.021845
 439	2.1900e-01	17.5519	16.037978	-0.000361	-3.608280	-1.222518	-0.029127
 440	2.1950e-01	17.5824	16.074387	0.000090	0.902070	0.305630	0.007282
 441	2.2000e-01	17.6466	16.474881	0.000992	9.922769	3.361925	0.080099
 442	2.2050e-01	17.6530	16.365655	-0.000271	-2.706210	-0.916889	-0.021845
 443	2.2100e-01	17.6995	16.438472	0.000180	1.804140	0.611259	0.014563
 444	2.2150e-01	17.7701	16.474881	0.000090	0.902070	0.305630	0.007282
 445	2.2200e-01	17.8198	16.474881	0.000000	0.000000	0.000000	0.000000
 446	2.2250e-01	17.8327	16.838967	0.000902	9.020699	3.056296	0.072817
 447	2.2300e-01	17.8808	16.693333	-0.000361	-3.608280	-1.222518	-0.029127
 448	2.2350e-01	17.9032	16.948193	0.000631	6.314489	2.139407	0.050972
 449	2.2400e-01	17.9401	17.166644	0.000541	5.412419	1.833777	0.043690
 450	2.2450e-01	17.9995	16.620515	-0.001353	-13.531049	-4.584443	-0.109226
 451	2.2500e-01	18.0444	17.203053	0.001443	14.433118	4.890073	0.116507
 452	2.2550e-01	18.0797	16.766150	-0.001082	-10.824839	-3.667555	-0.087381
 453	2.2600e-01	18.1134	17.203053	0.001082	10.824839	3.667555	0.087381
 454	2.2650e-01	18.1455	16.948193	-0.000631	-6.314489	-2.139407	-0.050972
 455	2.2700e-01	18.2064	17.312278	0.000902	9.020699	3.056296	0.072817
 456	2.2750e-01	18.2546	17.239461	-0.000180	-1.804140	-0.611259	-0.014563
 457	2.2800e-01	18.2658	17.203053	-0.000090	-0.902070	-0.305630	-0.007282
 458	2.2850e-01	18.3043	17.457913	0.000631	6.314489	2.139407	0.050972
 459	2.2900e-01	18.3444	17.530730	0.000180	1.804140	0.611259	0.014563
 460	2.2950e-01	18.3925	17.348687	-0.000451	-4.510350	-1.528148	-0.036409
 461	2.3000e-01	18.4503	17.712773	0.000902	9.020699	3.056296	0.072817
 462	2.3050e-01	18.4888	17.676364	-0.000090	-0.902070	-0.305630	-0.007282
 463	2.3100e-01	18.5112	17.749181	0.000180	1.804140	0.611259	0.014563
 464	2.3150e-01	18.5497	17.821998	0.000180	1.804140	0.611259	0.014563
 465	2.3200e-01	18.6107	17.858407	0.000090	0.902070	0.305630	0.007282
 466	2.3250e-01	18.6588	18.004041	0.000361	3.608280	1.222518	0.029127
 467	2.3300e-01	18.6973	18.258901	0.000631	6.314489	2.139407	0.050972
 468	2.3350e-01	18.7278	18.149676	-0.000271	-2.706210	-0.916889	-0.021845
 469	2.3400e-01	18.7711	18.222493	0.000180	1.804140	0.611259	0.014563
 470	2.3450e-01	18.7968	18.040450	-0.000451	-4.510350	-1.528148	-0.036409
 471	2.3500e-01	18.8225	18.477353	0.001082	10.824839	3.667555	0.087381
 472	2.3550e-01	18.8834	18.440944	-0.000090	-0.902070	-0.305630	-0.007282
 473	2.3600e-01	18.9091	18.477353	0.000090	0.902070	0.305630	0.007282
 474	2.3650e-01	18.9476	18.477353	0.000000	0.000000	0.000000	0.000000
 475	2.3700e-01	18.9893	18.732213	0.000631	6.314489	2.139407	0.050972
 476	2.3750e-01	19.0358	18.477353	-0.000631	-6.314489	-2.139407	-0.050972
 477	2.3800e-01	19.0840	18.914256	0.001082	10.824839	3.667555	0.087381
 478	2.3850e-01	19.1273	18.732213	-0.000451	-4.510350	-1.528148	-0.036409
 479	2.3900e-01	19.1658	18.914256	0.000451	4.510350	1.528148	0.036409
 480	2.3950e-01	19.1995	19.023481	0.000271	2.706210	0.916889	0.021845
 481	2.4000e-01	19.2364	18.695804	-0.000812	-8.118629	-2.750666	-0.065535
 482	2.4050e-01	19.2845	19.096299	0.000992	9.922769	3.361925	0.080099
 483	2.4100e-01	19.3166	19.387567	0.000722	7.216559	2.445036	0.058254
 484	2.4150e-01	19.3390	19.351159	-0.000090	-0.902070	-0.305630	-0.007282
 485	2.4200e-01	19.3920	19.096299	-0.000631	-6.314489	-2.139407	-0.050972
 486	2.4250e-01	19.4096	19.642427	0.001353	13.531049	4.584443	0.109226
 487	2.4300e-01	19.4658	19.533202	-0.000271	-2.706210	-0.916889	-0.021845
 488	2.4350e-01	19.5331	19.496793	-0.000090	-0.902070	-0.305630	-0.007282
 489	2.4400e-01	19.5428	19.860879	0.000902	9.020699	3.056296	0.072817
 490	2.4450e-01	19.5973	19.533202	-0.000812	-8.118629	-2.750666	-0.065535
 491	2.4500e-01	19.6406	19.715244	0.000451	4.510350	1.528148	0.036409
 492	2.4550e-01	19.6887	19.533202	-0.000451	-4.510350	-1.528148	-0.036409
 493	2.4600e-01	19.7112	19.824470	0.000722	7.216559	2.445036	0.058254
 494	2.4650e-01	19.7465	19.860879	0.000090	0.902070	0.305630	0.007282
 495	2.4700e-01	19.7978	20.334190	0.001173	11.726909	3.973184	0.094662
 496	2.4750e-01	19.8235	19.824470	-0.001263	-12.628979	-4.278814	-0.101944
 497	2.4800e-01	19.8716	20.188556	0.000902	9.020699	3.056296	0.072817
 498	2.4850e-01	19.9069	20.334190	0.000361	3.608280	1.222518	0.029127
 499	2.4900e-01	19.9663	20.152147	-0.000451	-4.510350	-1.528148	-0.036409
 500	2.4950e-01	20.0096	20.479825	0.000812	8.118629	2.750666	0.065535
 501	2.5000e-01	20.0818	20.407007	-0.000180	-1.804140	-0.611259	-0.014563
 502	2.5050e-01	19.9855	20.224965	0.000451	4.510350	1.528148	-0.036409
 503	2.5100e-01	19.9342	20.297782	-0.000180	-1.804140	-0.611259	0.014563
 504	2.5150e-01	19.9021	20.152147	0.000361	3.608280	1.222518	-0.029127
 505	2.5200e-01	19.8540	20.079330	0.000180	1.804140	0.611259	-0.014563
 506	2.5250e-01	19.7882	20.006513	0.000180	1.804140	0.611259	-0.014563
 507	2.5300e-01	19.7625	20.079330	-0.000180	-1.804140	-0.611259	0.014563
 508	2.5350e-01	19.7208	20.188556	-0.000271	-2.706210	-0.916889	0.021845
 509	2.5400e-01	19.7128	19.860879	0.000812	8.118629	2.750666	-0.065535
 510	2.5450e-01	19.6438	19.970104	-0.000271	-2.706210	-0.916889	0.021845
 511	2.5500e-01	19.6005	19.642427	0.000812	8.118629	2.750666	-0.065535
 512	2.5550e-01	19.5748	19.897287	-0.000631	-6.314489	-2.139407	0.050972
 513	2.5600e-01	19.5219	19.970104	-0.000180	-1.804140	-0.611259	0.014563
 514	2.5650e-01	19.5075	19.897287	0.000180	1.804140	0.611259	-0.014563
 515	2.5700e-01	19.4577	20.115739	-0.000541	-5.412419	-1.833777	0.043690
 516	2.5750e-01	19.4128	19.715244	0.000992	9.922769	3.361925	-0.080099
 517	2.5800e-01	19.3984	19.751653	-0.000090	-0.902070	-0.305630	0.007282
 518	2.5850e-01	19.3647	19.715244	0.000090	0.902070	0.305630	-0.007282
 519	2.5900e-01	19.3102	20.006513	-0.000722	-7.216559	-2.445036	0.058254
 520	2.5950e-01	19.2524	19.860879	0.000361	3.608280	1.222518	-0.029127
 521	2.6000e-01	19.2315	19.715244	0.000361	3.608280	1.222518	-0.029127
 522	2.6050e-01	19.1786	19.642427	0.000180	1.804140	0.611259	-0.014563
 523	2.6100e-01	19.1321	19.496793	0.000361	3.608280	1.222518	-0.029127
 524	2.6150e-01	19.1064	19.678836	-0.000451	-4.510350	-1.528148	0.036409
 525	2.6200e-01	19.0438	19.860879	-0.000451	-4.510350	-1.528148	0.036409
 526	2.6250e-01	19.0037	19.314750	0.001353	13.531049	4.584443	-0.109226
 527	2.6300e-01	18.9877	19.642427	-0.000812	-8.118629	-2.750666	0.065535
 528	2.6350e-01	18.9364	19.278342	0.000902	9.020699	3.056296	-0.072817
 529	2.6400e-01	18.9011	19.715244	-0.001082	-10.824839	-3.667555	0.087381
 530	2.6450e-01	18.8674	19.314750	0.000992	9.922769	3.361925	-0.080099
 531	2.6500e-01	18.8177	19.132707	0.000451	4.510350	1.528148	-0.036409
 532	2.6550e-01	18.7551	19.241933	-0.000271	-2.706210	-0.916889	0.021845
 533	2.6600e-01	18.7471	19.096299	0.000361	3.608280	1.222518	-0.029127
 534	2.6650e-01	18.6845	18.877847	0.000541	5.412419	1.833777	-0.043690
 535	2.6700e-01	18.6380	18.987073	-0.000271	-2.706210	-0.916889	0.021845
 536	2.6750e-01	18.6155	19.096299	-0.000271	-2.706210	-0.916889	0.021845
 537	2.6800e-01	18.5722	19.059890	0.000090	0.902070	0.305630	-0.007282
 538	2.6850e-01	18.5497	18.695804	0.000902	9.020699	3.056296	-0.072817
 539	2.6900e-01	18.4808	19.023481	-0.000812	-8.118629	-2.750666	0.065535
 540	2.6950e-01	18.4679	18.950664	0.000180	1.804140	0.611259	-0.014563
 541	2.7000e-01	18.4326	18.695804	0.000631	6.314489	2.139407	-0.050972
 542	2.7050e-01	18.3749	18.877847	-0.000451	-4.510350	-1.528148	0.036409
 543	2.7100e-01	18.3252	18.768621	0.000271	2.706210	0.916889	-0.021845
 544	2.7150e-01	18.2899	18.877847	-0.000271	-2.706210	-0.916889	0.021845
 545	2.7200e-01	18.2514	18.841439	0.000090	0.902070	0.305630	-0.007282
 546	2.7250e-01	18.2321	18.768621	0.000180	1.804140	0.611259	-0.014563
 547	2.7300e-01	18.1663	18.695804	0.000180	1.804140	0.611259	-0.014563
 548	2.7350e-01	18.1375	18.477353	0.000541	5.412419	1.833777	-0.043690
 549	2.7400e-01	18.0749	18.586579	-0.000271	-2.706210	-0.916889	0.021845
 550	2.7450e-01	18.0524	18.513761	0.000180	1.804140	0.611259	-0.014563
 551	2.7500e-01	18.0268	18.440944	0.000180	1.804140	0.611259	-0.014563
 552	2.7550e-01	17.9995	18.477353	-0.000090	-0.902070	-0.305630	0.007282
 553	2.7600e-01	17.9449	17.894816	0.001443	14.433118	4.890073	-0.116507
 554	2.7650e-01	17.9097	18.513761	-0.001534	-15.335188	-5.195702	0.123789
 555	2.7700e-01	17.8503	18.149676	0.000902	9.020699	3.056296	-0.072817
 556	2.7750e-01	17.8038	18.149676	-0.000000	-0.000000	-0.000000	0.000000
 557	2.7800e-01	17.7861	18.186084	-0.000090	-0.902070	-0.305630	0.007282
 558	2.7850e-01	17.7460	18.149676	0.000090	0.902070	0.305630	-0.007282
 559	2.7900e-01	17.6979	18.076858	0.000180	1.804140	0.611259	-0.014563
 560	2.7950e-01	17.6706	18.186084	-0.000271	-2.706210	-0.916889	0.021845
 561	2.8000e-01	17.6434	17.931224	0.000631	6.314489	2.139407	-0.050972
 562	2.8050e-01	17.5680	17.821998	0.000271	2.706210	0.916889	-0.021845
 563	2.8100e-01	17.5663	17.858407	-0.000090	-0.902070	-0.305630	0.007282
 564	2.8150e-01	17.5102	17.821998	0.000090	0.902070	0.305630	-0.007282
 565	2.8200e-01	17.4765	17.603547	0.000541	5.412419	1.833777	-0.043690
 566	2.8250e-01	17.4380	17.858407	-0.000631	-6.314489	-2.139407	0.050972
 567	2.8300e-01	17.3658	17.676364	0.000451	4.510350	1.528148	-0.036409
 568	2.8350e-01	17.3305	17.530730	0.000361	3.608280	1.222518	-0.029127
 569	2.8400e-01	17.2952	17.494321	0.000090	0.902070	0.305630	-0.007282
 570	2.8450e-01	17.2583	17.457913	0.000090	0.902070	0.305630	-0.007282
 571	2.8500e-01	17.2246	17.203053	0.000631	6.314489	2.139407	-0.050972
 572	2.8550e-01	17.1717	17.093827	0.000271	2.706210	0.916889	-0.021845
 573	2.8600e-01	17.1332	17.567138	-0.001173	-11.726909	-3.973184	0.094662
 574	2.8650e-01	17.1140	17.203053	0.000902	9.020699	3.056296	-0.072817
 575	2.8700e-01	17.0466	17.239461	-0.000090	-0.902070	-0.305630	0.007282
 576	2.8750e-01	17.0273	17.166644	0.000180	1.804140	0.611259	-0.014563
 577	2.8800e-01	16.9824	16.838967	0.000812	8.118629	2.750666	-0.065535
 578	2.8850e-01	16.9487	17.312278	-0.001173	-11.726909	-3.973184	0.094662
 579	2.8900e-01	16.8781	16.766150	0.001353	13.531049	4.584443	-0.109226
 580	2.8950e-01	16.8717	16.729741	0.000090	0.902070	0.305630	-0.007282
 581	2.9000e-01	16.8043	16.875375	-0.000361	-3.608280	-1.222518	0.029127
 582	2.9050e-01	16.7674	16.766150	0.000271	2.706210	0.916889	-0.021845
 583	2.9100e-01	16.7418	16.693333	0.000180	1.804140	0.611259	-0.014563
 584	2.9150e-01	16.7257	16.838967	-0.000361	-3.608280	-1.222518	0.029127
 585	2.9200e-01	16.6680	16.584107	0.000631	6.314489	2.139407	-0.050972
 586	2.9250e-01	16.6118	16.802558	-0.000541	-5.412419	-1.833777	0.043690
 587	2.9300e-01	16.5669	16.584107	0.000541	5.412419	1.833777	-0.043690
 588	2.9350e-01	16.5300	16.329247	0.000631	6.314489	2.139407	-0.050972
 589	2.9400e-01	16.4883	16.911784	-0.001443	-14.433118	-4.890073	0.116507
 590	2.9450e-01	16.4514	16.474881	0.001082	10.824839	3.667555	-0.087381
 591	2.9500e-01	16.4177	16.402064	0.000180	1.804140	0.611259	-0.014563
 592	2.9550e-01	16.3616	16.001570	0.000992	9.922769	3.361925	-0.080099
 593	2.9600e-01	16.3391	16.256430	-0.000631	-6.314489	-2.139407	0.050972
 594	2.9650e-01	16.2990	16.365655	-0.000271	-2.706210	-0.916889	0.021845
 595	2.9700e-01	16.2541	16.110795	0.000631	6.314489	2.139407	-0.050972
 596	2.9750e-01	16.2252	16.256430	-0.000361	-3.608280	-1.222518	0.029127
 597	2.9800e-01	16.1691	16.001570	0.000631	6.314489	2.139407	-0.050972
 598	2.9850e-01	16.1626	15.528258	0.001173	11.726909	3.973184	-0.094662
 599	2.9900e-01	16.0937	15.928752	-0.000992	-9.922769	-3.361925	0.080099
 600	2.9950e-01	16.0664	16.037978	-0.000271	-2.706210	-0.916889	0.021845
 601	3.0000e-01	16.0231	15.673892	0.000902	9.020699	3.056296	-0.072817
 602	3.0050e-01	15.9814	15.746710	-0.000180	-1.804140	-0.611259	0.014563
 603	3.0100e-01	15.9364	15.673892	0.000180	1.804140	0.611259	-0.014563
 604	3.0150e-01	15.9060	15.637484	0.000090	0.902070	0.305630	-0.007282
 605	3.0200e-01	15.8450	15.710301	-0.000180	-1.804140	-0.611259	0.014563
 606	3.0250e-01	15.8258	15.710301	-0.000000	-0.000000	-0.000000	0.000000
 607	3.0300e-01	15.7792	15.819527	-0.000271	-2.706210	-0.916889	0.021845
 608	3.0350e-01	15.7327	15.200581	0.001534	15.335188	5.195702	-0.123789
 609	3.0400e-01	15.6878	15.746710	-0.001353	-13.531049	-4.584443	0.109226
 610	3.0450e-01	15.6653	15.382624	0.000902	9.020699	3.056296	-0.072817
 611	3.0500e-01	15.6204	15.309807	0.000180	1.804140	0.611259	-0.014563
 612	3.0550e-01	15.5723	15.164172	0.000361	3.608280	1.222518	-0.029127
 613	3.0600e-01	15.5434	15.127764	0.000090	0.902070	0.305630	-0.007282
 614	3.0650e-01	15.5113	15.164172	-0.000090	-0.902070	-0.305630	0.007282
 615	3.0700e-01	15.4423	15.018538	0.000361	3.608280	1.222518	-0.029127
 616	3.0750e-01	15.4022	15.018538	-0.000000	-0.000000	-0.000000	0.000000
 617	3.0800e-01	15.3734	15.054947	-0.000090	-0.902070	-0.305630	0.007282
 618	3.0850e-01	15.3317	14.800087	0.000631	6.314489	2.139407	-0.050972
 619	3.0900e-01	15.2627	15.018538	-0.000541	-5.412419	-1.833777	0.043690
 620	3.0950e-01	15.2707	15.018538	0.000000	0.000000	0.000000	0.000000
 621	3.1000e-01	15.2338	14.872904	0.000361	3.608280	1.222518	-0.029127
 622	3.1050e-01	15.1728	14.690861	0.000451	4.510350	1.528148	-0.036409
 623	3.1100e-01	15.1295	14.800087	-0.000271	-2.706210	-0.916889	0.021845
 624	3.1150e-01	15.1087	14.690861	0.000271	2.706210	0.916889	-0.021845
 625	3.1200e-01	15.0557	14.800087	-0.000271	-2.706210	-0.916889	0.021845
 626	3.1250e-01	15.0349	14.618044	0.000451	4.510350	1.528148	-0.036409
 627	3.1300e-01	14.9948	14.727269	-0.000271	-2.706210	-0.916889	0.021845
 628	3.1350e-01	14.9386	14.472409	0.000631	6.314489	2.139407	-0.050972
 629	3.1400e-01	14.8985	14.399592	0.000180	1.804140	0.611259	-0.014563
 630	3.1450e-01	14.8777	14.217549	0.000451	4.510350	1.528148	-0.036409
 631	3.1500e-01	14.8039	14.217549	-0.000000	-0.000000	-0.000000	0.000000
 632	3.1550e-01	14.7894	14.217549	-0.000000	-0.000000	-0.000000	0.000000
 633	3.1600e-01	14.7140	14.144732	0.000180	1.804140	0.611259	-0.014563
 634	3.1650e-01	14.6723	13.817055	0.000812	8.118629	2.750666	-0.065535
 635	3.1700e-01	14.6499	14.071915	-0.000631	-6.314489	-2.139407	0.050972
 636	3.1750e-01	14.6146	14.144732	-0.000180	-1.804140	-0.611259	0.014563
 637	3.1800e-01	14.5857	13.999098	0.000361	3.608280	1.222518	-0.029127
 638	3.1850e-01	14.5360	13.707829	0.000722	7.216559	2.445036	-0.058254
 639	3.1900e-01	14.5199	14.108324	-0.000992	-9.922769	-3.361925	0.080099
 640	3.1950e-01	14.4493	13.598603	0.001263	12.628979	4.278814	-0.101944
 641	3.2000e-01	14.4397	13.817055	-0.000541	-5.412419	-1.833777	0.043690
 642	3.2050e-01	14.3627	13.489378	0.000812	8.118629	2.750666	-0.065535
 643	3.2100e-01	14.3418	13.525786	-0.000090	-0.902070	-0.305630	0.007282
 644	3.2150e-01	14.2953	13.489378	0.000090	0.902070	0.305630	-0.007282
 645	3.2200e-01	14.2376	13.416561	0.000180	1.804140	0.611259	-0.014563
 646	3.2250e-01	14.2119	13.598603	-0.000451	-4.510350	-1.528148	0.036409
 647	3.2300e-01	14.1894	13.161701	0.001082	10.824839	3.667555	-0.087381
 648	3.2350e-01	14.1221	13.270926	-0.000271	-2.706210	-0.916889	0.021845
 649	3.2400e-01	14.1189	13.343743	-0.000180	-1.804140	-0.611259	0.014563
 650	3.2450e-01	14.0804	13.270926	0.000180	1.804140	0.611259	-0.014563
 651	3.2500e-01	14.0226	13.198109	0.000180	1.804140	0.611259	-0.014563
 652	3.2550e-01	13.9761	12.979658	0.000541	5.412419	1.833777	-0.043690
 653	3.2600e-01	13.9296	12.906841	0.000180	1.804140	0.611259	-0.014563
 654	3.2650e-01	13.8943	12.469938	0.001082	10.824839	3.667555	-0.087381
 655	3.2700e-01	13.8750	13.125292	-0.001624	-16.237258	-5.501332	0.131071
 656	3.2750e-01	13.8140	12.906841	0.000541	5.412419	1.833777	-0.043690
 657	3.2800e-01	13.7707	12.761206	0.000361	3.608280	1.222518	-0.029127
 658	3.2850e-01	13.7547	12.724798	0.000090	0.902070	0.305630	-0.007282
 659	3.2900e-01	13.7001	12.469938	0.000631	6.314489	2.139407	-0.050972
 660	3.2950e-01	13.6392	12.724798	-0.000631	-6.314489	-2.139407	0.050972
 661	3.3000e-01	13.6280	12.506346	0.000541	5.412419	1.833777	-0.043690
 662	3.3050e-01	13.5879	12.324303	0.000451	4.510350	1.528148	-0.036409
 663	3.3100e-01	13.5301	12.579163	-0.000631	-6.314489	-2.139407	0.050972
 664	3.3150e-01	13.5108	12.324303	0.000631	6.314489	2.139407	-0.050972
 665	3.3200e-01	13.4499	12.287895	0.000090	0.902070	0.305630	-0.007282
 666	3.3250e-01	13.4018	12.433529	-0.000361	-3.608280	-1.222518	0.029127
 667	3.3300e-01	13.3809	12.215078	0.000541	5.412419	1.833777	-0.043690
 668	3.3350e-01	13.3328	12.215078	-0.000000	-0.000000	-0.000000	0.000000
 669	3.3400e-01	13.2991	11.887400	0.000812	8.118629	2.750666	-0.065535
 670	3.3450e-01	13.2301	11.960218	-0.000180	-1.804140	-0.611259	0.014563
 671	3.3500e-01	13.2012	11.960218	-0.000000	-0.000000	-0.000000	0.000000
 672	3.3550e-01	13.1659	12.105852	-0.000361	-3.608280	-1.222518	0.029127
 673	3.3600e-01	13.1419	11.741766	0.000902	9.020699	3.056296	-0.072817
 674	3.3650e-01	13.0745	12.069443	-0.000812	-8.118629	-2.750666	0.065535
 675	3.3700e-01	13.0328	11.122820	0.002345	23.453818	7.946368	-0.189325
 676	3.3750e-01	13.0055	11.559723	-0.001082	-10.824839	-3.667555	0.087381
 677	3.3800e-01	12.9750	11.450497	0.000271	2.706210	0.916889	-0.021845
 678	3.3850e-01	12.9381	11.450497	-0.000000	-0.000000	-0.000000	0.000000
 679	3.3900e-01	12.9173	11.523315	-0.000180	-1.804140	-0.611259	0.014563
 680	3.3950e-01	12.8611	11.086412	0.001082	10.824839	3.667555	-0.087381
 681	3.4000e-01	12.8162	11.559723	-0.001173	-11.726909	-3.973184	0.094662
 682	3.4050e-01	12.7777	11.159229	0.000992	9.922769	3.361925	-0.080099
 683	3.4100e-01	12.7472	11.232046	-0.000180	-1.804140	-0.611259	0.014563
 684	3.4150e-01	12.6991	11.159229	0.000180	1.804140	0.611259	-0.014563
 685	3.4200e-01	12.6510	11.050003	0.000271	2.706210	0.916889	-0.021845
 686	3.4250e-01	12.6333	11.086412	-0.000090	-0.902070	-0.305630	0.007282
 687	3.4300e-01	12.5836	11.159229	-0.000180	-1.804140	-0.611259	0.014563
 688	3.4350e-01	12.5579	10.831552	0.000812	8.118629	2.750666	-0.065535
 689	3.4400e-01	12.5018	10.831552	-0.000000	-0.000000	-0.000000	0.000000
 690	3.4450e-01	12.4553	10.758734	0.000180	1.804140	0.611259	-0.014563
 691	3.4500e-01	12.4312	10.722326	0.000090	0.902070	0.305630	-0.007282
 692	3.4550e-01	12.3799	10.904369	-0.000451	-4.510350	-1.528148	0.036409
 693	3.4600e-01	12.3590	10.722326	0.000451	4.510350	1.528148	-0.036409
 694	3.4650e-01	12.3013	10.394649	0.000812	8.118629	2.750666	-0.065535
 695	3.4700e-01	12.2644	10.176197	0.000541	5.412419	1.833777	-0.043690
 696	3.4750e-01	12.2178	10.394649	-0.000541	-5.412419	-1.833777	0.043690
 697	3.4800e-01	12.1858	10.285423	0.000271	2.706210	0.916889	-0.021845
 698	3.4850e-01	12.1456	10.394649	-0.000271	-2.706210	-0.916889	0.021845
 699	3.4900e-01	12.1023	10.066972	0.000812	8.118629	2.750666	-0.065535
 700	3.4950e-01	12.0430	10.176197	-0.000271	-2.706210	-0.916889	0.021845
 701	3.5000e-01	12.0077	10.066972	0.000271	2.706210	0.916889	-0.021845
 702	3.5050e-01	11.9900	9.884929	0.000451	4.510350	1.528148	-0.036409
 703	3.5100e-01	11.9387	9.812111	0.000180	1.804140	0.611259	-0.014563
 704	3.5150e-01	11.8826	9.994154	-0.000451	-4.510350	-1.528148	0.036409
 705	3.5200e-01	11.8665	9.775703	0.000541	5.412419	1.833777	-0.043690
 706	3.5250e-01	11.8312	9.884929	-0.000271	-2.706210	-0.916889	0.021845
 707	3.5300e-01	11.7895	9.702886	0.000451	4.510350	1.528148	-0.036409
 708	3.5350e-01	11.7189	9.630069	0.000180	1.804140	0.611259	-0.014563
 709	3.5400e-01	11.7061	9.630069	-0.000000	-0.000000	-0.000000	0.000000
 710	3.5450e-01	11.6868	9.593660	0.000090	0.902070	0.305630	-0.007282
 711	3.5500e-01	11.5970	9.047531	0.001353	13.531049	4.584443	-0.109226
 712	3.5550e-01	11.5745	9.484434	-0.001082	-10.824839	-3.667555	0.087381
 713	3.5600e-01	11.5649	9.265983	0.000541	5.412419	1.833777	-0.043690
 714	3.5650e-01	11.5040	9.775703	-0.001263	-12.628979	-4.278814	0.101944
 715	3.5700e-01	11.4430	8.719854	0.002616	26.160027	8.863257	-0.211170
 716	3.5750e-01	11.4350	9.011123	-0.000722	-7.216559	-2.445036	0.058254
 717	3.5800e-01	11.3836	9.047531	-0.000090	-0.902070	-0.305630	0.007282
 718	3.5850e-01	11.3259	8.901897	0.000361	3.608280	1.222518	-0.029127
 719	3.5900e-01	11.3050	9.047531	-0.000361	-3.608280	-1.222518	0.029127
 720	3.5950e-01	11.2762	8.756263	0.000722	7.216559	2.445036	-0.058254
 721	3.6000e-01	11.2328	8.792671	-0.000090	-0.902070	-0.305630	0.007282
 722	3.6050e-01	11.1847	8.647037	0.000361	3.608280	1.222518	-0.029127
 723	3.6100e-01	11.1366	8.464994	0.000451	4.510350	1.528148	-0.036409
 724	3.6150e-01	11.1093	8.756263	-0.000722	-7.216559	-2.445036	0.058254
 725	3.6200e-01	11.0596	8.719854	0.000090	0.902070	0.305630	-0.007282
 726	3.6250e-01	11.0323	8.464994	0.000631	6.314489	2.139407	-0.050972
 727	3.6300e-01	10.9649	8.355768	0.000271	2.706210	0.916889	-0.021845
 728	3.6350e-01	10.9296	8.355768	-0.000000	-0.000000	-0.000000	0.000000
 729	3.6400e-01	10.9008	8.100908	0.000631	6.314489	2.139407	-0.050972
 730	3.6450e-01	10.8542	8.464994	-0.000902	-9.020699	-3.056296	0.072817
 731	3.6500e-01	10.8366	8.137317	0.000812	8.118629	2.750666	-0.065535
 732	3.6550e-01	10.7708	8.210134	-0.000180	-1.804140	-0.611259	0.014563
 733	3.6600e-01	10.7179	8.210134	-0.000000	-0.000000	-0.000000	0.000000
 734	3.6650e-01	10.7147	8.173726	0.000090	0.902070	0.305630	-0.007282
 735	3.6700e-01	10.6826	8.064500	0.000271	2.706210	0.916889	-0.021845
 736	3.6750e-01	10.6168	7.918865	0.000361	3.608280	1.222518	-0.029127
 737	3.6800e-01	10.5879	7.299920	0.001534	15.335188	5.195702	-0.123789
 738	3.6850e-01	10.5270	8.064500	-0.001894	-18.943468	-6.418221	0.152916
 739	3.6900e-01	10.5093	7.591188	0.001173	11.726909	3.973184	-0.094662
 740	3.6950e-01	10.4724	7.299920	0.000722	7.216559	2.445036	-0.058254
 741	3.7000e-01	10.4163	7.846048	-0.001353	-13.531049	-4.584443	0.109226
 742	3.7050e-01	10.3617	7.190694	0.001624	16.237258	5.501332	-0.131071
 743	3.7100e-01	10.3489	7.518371	-0.000812	-8.118629	-2.750666	0.065535
 744	3.7150e-01	10.2831	7.372737	0.000361	3.608280	1.222518	-0.029127
 745	3.7200e-01	10.2703	7.263511	0.000271	2.706210	0.916889	-0.021845
 746	3.7250e-01	10.2350	7.081468	0.000451	4.510350	1.528148	-0.036409
 747	3.7300e-01	10.1949	6.826608	0.000631	6.314489	2.139407	-0.050972
 748	3.7350e-01	10.1323	7.008651	-0.000451	-4.510350	-1.528148	0.036409
 749	3.7400e-01	10.0890	6.899425	0.000271	2.706210	0.916889	-0.021845
 750	3.7450e-01	10.0666	6.935834	-0.000090	-0.902070	-0.305630	0.007282
 751	3.7500e-01	10.0152	7.081468	-0.000361	-3.608280	-1.222518	0.029127
 752	3.7550e-01	9.9880	6.717382	0.000902	9.020699	3.056296	-0.072817
 753	3.7600e-01	9.9382	6.717382	-0.000000	-0.000000	-0.000000	0.000000
 754	3.7650e-01	9.9158	6.680974	0.000090	0.902070	0.305630	-0.007282
 755	3.7700e-01	9.8596	6.899425	-0.000541	-5.412419	-1.833777	0.043690
 756	3.7750e-01	9.8083	6.462522	0.001082	10.824839	3.667555	-0.087381
 757	3.7800e-01	9.7874	6.207662	0.000631	6.314489	2.139407	-0.050972
 758	3.7850e-01	9.7377	5.879985	0.000812	8.118629	2.750666	-0.065535
 759	3.7900e-01	9.7072	6.353297	-0.001173	-11.726909	-3.973184	0.094662
 760	3.7950e-01	9.6719	6.535340	-0.000451	-4.510350	-1.528148	0.036409
 761	3.8000e-01	9.6158	6.062028	0.001173	11.726909	3.973184	-0.094662
 762	3.8050e-01	9.5965	5.916394	0.000361	3.608280	1.222518	-0.029127
 763	3.8100e-01	9.5291	6.025619	-0.000271	-2.706210	-0.916889	0.021845
 764	3.8150e-01	9.4906	5.734351	0.000722	7.216559	2.445036	-0.058254
 765	3.8200e-01	9.4297	5.916394	-0.000451	-4.510350	-1.528148	0.036409
 766	3.8250e-01	9.4120	5.807168	0.000271	2.706210	0.916889	-0.021845
 767	3.8300e-01	9.3976	5.697942	0.000271	2.706210	0.916889	-0.021845
 768	3.8350e-01	9.3511	5.916394	-0.000541	-5.412419	-1.833777	0.043690
 769	3.8400e-01	9.3142	5.479491	0.001082	10.824839	3.667555	-0.087381
 770	3.8450e-01	9.2516	5.552308	-0.000180	-1.804140	-0.611259	0.014563
 771	3.8500e-01	9.2195	5.370265	0.000451	4.510350	1.528148	-0.036409
 772	3.8550e-01	9.2099	5.515899	-0.000361	-3.608280	-1.222518	0.029127
 773	3.8600e-01	9.1409	5.224631	0.000722	7.216559	2.445036	-0.058254
 774	3.8650e-01	9.0912	5.697942	-0.001173	-11.726909	-3.973184	0.094662
 775	3.8700e-01	9.0431	5.297448	0.000992	9.922769	3.361925	-0.080099
 776	3.8750e-01	9.0222	4.969771	0.000812	8.118629	2.750666	-0.065535
 777	3.8800e-01	8.9805	4.678502	0.000722	7.216559	2.445036	-0.058254
 778	3.8850e-01	8.9436	5.188222	-0.001263	-12.628979	-4.278814	0.101944
 779	3.8900e-01	8.9051	4.751319	0.001082	10.824839	3.667555	-0.087381
 780	3.8950e-01	8.8730	4.824136	-0.000180	-1.804140	-0.611259	0.014563
 781	3.9000e-01	8.8217	4.969771	-0.000361	-3.608280	-1.222518	0.029127
 782	3.9050e-01	8.7687	4.460051	0.001263	12.628979	4.278814	-0.101944
 783	3.9100e-01	8.7784	4.532868	0.000180	1.804140	0.611259	0.014563
 784	3.9150e-01	8.6901	4.532868	-0.000000	-0.000000	-0.000000	0.000000
 785	3.9200e-01	8.6693	4.569276	-0.000090	-0.902070	-0.305630	0.007282
 786	3.9250e-01	8.6436	4.496459	0.000180	1.804140	0.611259	-0.014563
 787	3.9300e-01	8.5939	4.460051	0.000090	0.902070	0.305630	-0.007282
 788	3.9350e-01	8.5233	4.278008	0.000451	4.510350	1.528148	-0.036409
 789	3.9400e-01	8.4832	4.350825	-0.000180	-1.804140	-0.611259	0.014563
 790	3.9450e-01	8.4687	4.241599	0.000271	2.706210	0.916889	-0.021845
 791	3.9500e-01	8.4094	4.059556	0.000451	4.510350	1.528148	-0.036409
 792	3.9550e-01	8.4190	4.023148	-0.000090	-0.902070	-0.305630	-0.007282
 793	3.9600e-01	8.3436	4.278008	-0.000631	-6.314489	-2.139407	0.050972
 794	3.9650e-01	8.3163	3.695471	0.001443	14.433118	4.890073	-0.116507
 795	3.9700e-01	8.2810	3.659062	0.000090	0.902070	0.305630	-0.007282
 796	3.9750e-01	8.2233	3.768288	-0.000271	-2.706210	-0.916889	0.021845
 797	3.9800e-01	8.1864	3.768288	-0.000000	-0.000000	-0.000000	0.000000
 798	3.9850e-01	8.1367	3.258568	0.001263	12.628979	4.278814	-0.101944
 799	3.9900e-01	8.1158	3.804696	-0.001353	-13.531049	-4.584443	0.109226
 800	3.9950e-01	8.0709	3.294976	0.001263	12.628979	4.278814	-0.101944
 801	4.0000e-01	8.0404	3.222159	0.000180	1.804140	0.611259	-0.014563
 802	4.0050e-01	7.9762	3.294976	-0.000180	-1.804140	-0.611259	0.014563
 803	4.0100e-01	7.9506	3.112933	0.000451	4.510350	1.528148	-0.036409
 804	4.0150e-01	7.8992	3.112933	-0.000000	-0.000000	-0.000000	0.000000
 805	4.0200e-01	7.8720	3.294976	-0.000451	-4.510350	-1.528148	0.036409
 806	4.0250e-01	7.8335	3.222159	0.000180	1.804140	0.611259	-0.014563
 807	4.0300e-01	7.8030	2.821665	0.000992	9.922769	3.361925	-0.080099
 808	4.0350e-01	7.7356	2.858073	-0.000090	-0.902070	-0.305630	0.007282
 809	4.0400e-01	7.6955	2.530396	0.000812	8.118629	2.750666	-0.065535
 810	4.0450e-01	7.6779	2.603213	-0.000180	-1.804140	-0.611259	0.014563
 811	4.0500e-01	7.6281	2.712439	-0.000271	-2.706210	-0.916889	0.021845
 812	4.0550e-01	7.5800	2.421170	0.000722	7.216559	2.445036	-0.058254
 813	4.0600e-01	7.5575	2.457579	-0.000090	-0.902070	-0.305630	0.007282
 814	4.0650e-01	7.4854	2.202719	0.000631	6.314489	2.139407	-0.050972
 815	4.0700e-01	7.4436	2.530396	-0.000812	-8.118629	-2.750666	0.065535
 816	4.0750e-01	7.4276	2.493988	0.000090	0.902070	0.305630	-0.007282
 817	4.0800e-01	7.3955	1.911450	0.001443	14.433118	4.890073	-0.116507
 818	4.0850e-01	7.3586	2.202719	-0.000722	-7.216559	-2.445036	0.058254
 819	4.0900e-01	7.2944	1.765816	0.001082	10.824839	3.667555	-0.087381
 820	4.0950e-01	7.2656	2.275536	-0.001263	-12.628979	-4.278814	0.101944
 821	4.1000e-01	7.2463	1.729407	0.001353	13.531049	4.584443	-0.109226
 822	4.1050e-01	7.1886	2.093493	-0.000902	-9.020699	-3.056296	0.072817
 823	4.1100e-01	7.1693	1.802225	0.000722	7.216559	2.445036	-0.058254
 824	4.1150e-01	7.0955	1.365322	0.001082	10.824839	3.667555	-0.087381
 825	4.1200e-01	7.0715	1.583773	-0.000541	-5.412419	-1.833777	0.043690
 826	4.1250e-01	7.0330	1.474547	0.000271	2.706210	0.916889	-0.021845
 827	4.1300e-01	6.9624	1.510956	-0.000090	-0.902070	-0.305630	0.007282
 828	4.1350e-01	6.9062	1.074053	0.001082	10.824839	3.667555	-0.087381
 829	4.1400e-01	6.8773	1.474547	-0.000992	-9.922769	-3.361925	0.080099
 830	4.1450e-01	6.8469	1.256096	0.000541	5.412419	1.833777	-0.043690
 831	4.1500e-01	6.8068	1.292504	-0.000090	-0.902070	-0.305630	0.007282
 832	4.1550e-01	6.7650	1.110462	0.000451	4.510350	1.528148	-0.036409
 833	4.1600e-01	6.7394	1.074053	0.000090	0.902070	0.305630	-0.007282
 834	4.1650e-01	6.6945	0.673559	0.000992	9.922769	3.361925	-0.080099
 835	4.1700e-01	6.6351	0.819193	-0.000361	-3.608280	-1.222518	0.029127
 836	4.1750e-01	6.6287	1.037644	-0.000541	-5.412419	-1.833777	0.043690
 837	4.1800e-01	6.5982	0.637150	0.000992	9.922769	3.361925	-0.080099
 838	4.1850e-01	6.5356	0.309473	0.000812	8.118629	2.750666	-0.065535
 839	4.1900e-01	6.4987	0.345881	-0.000090	-0.902070	-0.305630	0.007282
 840	4.1950e-01	6.4747	0.382290	-0.000090	-0.902070	-0.305630	0.007282
 841	4.2000e-01	6.4410	0.236656	0.000361	3.608280	1.222518	-0.029127
 842	4.2050e-01	6.3993	0.127430	0.000271	2.706210	0.916889	-0.021845
 843	4.2100e-01	6.3592	0.345881	-0.000541	-5.412419	-1.833777	0.043690
 844	4.2150e-01	6.3223	0.018204	0.000812	8.118629	2.750666	-0.065535
 845	4.2200e-01	6.2645	0.309473	-0.000722	-7.216559	-2.445036	0.058254
 846	4.2250e-01	6.2389	0.418699	-0.000271	-2.706210	-0.916889	0.021845
 847	4.2300e-01	6.2004	-0.382290	0.001985	19.845538	6.723850	-0.160198
 848	4.2350e-01	6.1346	0.018204	-0.000992	-9.922769	-3.361925	0.080099
 849	4.2400e-01	6.1121	-0.564333	0.001443	14.433118	4.890073	-0.116507
 850	4.2450e-01	6.0800	-0.418699	-0.000361	-3.608280	-1.222518	0.029127
 851	4.2500e-01	6.0159	-0.455107	0.000090	0.902070	0.305630	-0.007282
 852	4.2550e-01	5.9790	-0.455107	-0.000000	-0.000000	-0.000000	0.000000
 853	4.2600e-01	5.9469	-0.455107	-0.000000	-0.000000	-0.000000	0.000000
 854	4.2650e-01	5.9068	-0.527924	0.000180	1.804140	0.611259	-0.014563
 855	4.2700e-01	5.8683	-0.673559	0.000361	3.608280	1.222518	-0.029127
 856	4.2750e-01	5.8603	-0.855602	0.000451	4.510350	1.528148	-0.036409
 857	4.2800e-01	5.7801	-0.819193	-0.000090	-0.902070	-0.305630	0.007282
 858	4.2850e-01	5.7480	-0.892010	0.000180	1.804140	0.611259	-0.014563
 859	4.2900e-01	5.6886	-1.328913	0.001082	10.824839	3.667555	-0.087381
 860	4.2950e-01	5.6742	-1.110462	-0.000541	-5.412419	-1.833777	0.043690
 861	4.3000e-01	5.6148	-1.328913	0.000541	5.412419	1.833777	-0.043690
 862	4.3050e-01	5.5779	-1.583773	0.000631	6.314489	2.139407	-0.050972
 863	4.3100e-01	5.5362	-1.328913	-0.000631	-6.314489	-2.139407	0.050972
 864	4.3150e-01	5.5137	-1.292504	-0.000090	-0.902070	-0.305630	0.007282
 865	4.3200e-01	5.4383	-1.802225	0.001263	12.628979	4.278814	-0.101944
 866	4.3250e-01	5.4111	-1.656590	-0.000361	-3.608280	-1.222518	0.029127
 867	4.3300e-01	5.3806	-1.729407	0.000180	1.804140	0.611259	-0.014563
 868	4.3350e-01	5.3196	-2.057085	0.000812	8.118629	2.750666	-0.065535
 869	4.3400e-01	5.3180	-2.202719	0.000361	3.608280	1.222518	-0.029127
 870	4.3450e-01	5.2571	-1.875042	-0.000812	-8.118629	-2.750666	0.065535
 871	4.3500e-01	5.2057	-1.583773	-0.000722	-7.216559	-2.445036	0.058254
 872	4.3550e-01	5.1640	-2.603213	0.002526	25.257957	8.557628	-0.203888
 873	4.3600e-01	5.1175	-2.020676	-0.001443	-14.433118	-4.890073	0.116507
 874	4.3650e-01	5.0934	-2.457579	0.001082	10.824839	3.667555	-0.087381
 875	4.3700e-01	5.0710	-2.421170	-0.000090	-0.902070	-0.305630	0.007282
 876	4.3750e-01	5.0469	-2.348353	-0.000180	-1.804140	-0.611259	0.014563
 877	4.3800e-01	4.9795	-2.457579	0.000271	2.706210	0.916889	-0.021845
 878	4.3850e-01	4.9218	-2.748848	0.000722	7.216559	2.445036	-0.058254
 879	4.3900e-01	4.8945	-2.858073	0.000271	2.706210	0.916889	-0.021845
 880	4.3950e-01	4.8769	-2.712439	-0.000361	-3.608280	-1.222518	0.029127
 881	4.4000e-01	4.8127	-2.967299	0.000631	6.314489	2.139407	-0.050972
 882	4.4050e-01	4.7549	-2.785256	-0.000451	-4.510350	-1.528148	0.036409
 883	4.4100e-01	4.7646	-3.149342	-0.000902	-9.020699	-3.056296	-0.072817
 884	4.4150e-01	4.6972	-3.112933	-0.000090	-0.902070	-0.305630	0.007282
 885	4.4200e-01	4.6443	-3.003708	-0.000271	-2.706210	-0.916889	0.021845
 886	4.4250e-01	4.6282	-3.185750	0.000451	4.510350	1.528148	-0.036409
 887	4.4300e-01	4.5881	-3.185750	-0.000000	-0.000000	-0.000000	0.000000
 888	4.4350e-01	4.5448	-3.404202	0.000541	5.412419	1.833777	-0.043690
 889	4.4400e-01	4.5111	-3.549836	0.000361	3.608280	1.222518	-0.029127
 890	4.4450e-01	4.4630	-3.731879	0.000451	4.510350	1.528148	-0.036409
 891	4.4500e-01	4.4148	-3.913922	0.000451	4.510350	1.528148	-0.036409
 892	4.4550e-01	4.3747	-3.731879	-0.000451	-4.510350	-1.528148	0.036409
 893	4.4600e-01	4.3330	-3.768288	0.000090	0.902070	0.305630	-0.007282
 894	4.4650e-01	4.3074	-4.350825	0.001443	14.433118	4.890073	-0.116507
 895	4.4700e-01	4.2689	-3.986739	-0.000902	-9.020699	-3.056296	0.072817
 896	4.4750e-01	4.1983	-3.877513	-0.000271	-2.706210	-0.916889	0.021845
 897	4.4800e-01	4.1678	-4.314416	0.001082	10.824839	3.667555	-0.087381
 898	4.4850e-01	4.1325	-4.350825	0.000090	0.902070	0.305630	-0.007282
 899	4.4900e-01	4.0956	-4.569276	0.000541	5.412419	1.833777	-0.043690
 900	4.4950e-01	4.0619	-4.642094	0.000180	1.804140	0.611259	-0.014563
 901	4.5000e-01	4.0122	-4.496459	-0.000361	-3.608280	-1.222518	0.029127
 902	4.5050e-01	3.9689	-4.569276	0.000180	1.804140	0.611259	-0.014563
 903	4.5100e-01	3.9576	-4.678502	0.000271	2.706210	0.916889	-0.021845
 904	4.5150e-01	3.9207	-4.933362	0.000631	6.314489	2.139407	-0.050972
 905	4.5200e-01	3.8678	-5.006179	0.000180	1.804140	0.611259	-0.014563
 906	4.5250e-01	3.8181	-5.370265	0.000902	9.020699	3.056296	-0.072817
 907	4.5300e-01	3.7908	-5.151814	-0.000541	-5.412419	-1.833777	0.043690
 908	4.5350e-01	3.7635	-5.261039	0.000271	2.706210	0.916889	-0.021845
 909	4.5400e-01	3.7106	-5.151814	-0.000271	-2.706210	-0.916889	0.021845
 910	4.5450e-01	3.6512	-5.443082	0.000722	7.216559	2.445036	-0.058254
 911	4.5500e-01	3.6159	-5.515899	0.000180	1.804140	0.611259	-0.014563
 912	4.5550e-01	3.5694	-5.370265	-0.000361	-3.608280	-1.222518	0.029127
 913	4.5600e-01	3.5309	-5.625125	0.000631	6.314489	2.139407	-0.050972
 914	4.5650e-01	3.4940	-5.552308	-0.000180	-1.804140	-0.611259	0.014563
 915	4.5700e-01	3.4315	-6.062028	0.001263	12.628979	4.278814	-0.101944
 916	4.5750e-01	3.4266	-6.207662	0.000361	3.608280	1.222518	-0.029127
 917	4.5800e-01	3.3817	-5.916394	-0.000722	-7.216559	-2.445036	0.058254
 918	4.5850e-01	3.3480	-6.244071	0.000812	8.118629	2.750666	-0.065535
 919	4.5900e-01	3.2887	-6.098437	-0.000361	-3.608280	-1.222518	0.029127
 920	4.5950e-01	3.2614	-6.462522	0.000902	9.020699	3.056296	-0.072817
 921	4.6000e-01	3.2406	-6.863017	0.000992	9.922769	3.361925	-0.080099
 922	4.6050e-01	3.1844	-6.498931	-0.000902	-9.020699	-3.056296	0.072817
 923	4.6100e-01	3.1427	-6.462522	-0.000090	-0.902070	-0.305630	0.007282
 924	4.6150e-01	3.0881	-6.972242	0.001263	12.628979	4.278814	-0.101944
 925	4.6200e-01	3.0657	-6.608157	-0.000902	-9.020699	-3.056296	0.072817
 926	4.6250e-01	3.0480	-7.445554	0.002075	20.747608	7.029480	-0.167479
 927	4.6300e-01	2.9903	-6.972242	-0.001173	-11.726909	-3.973184	0.094662
 928	4.6350e-01	2.9502	-6.790200	-0.000451	-4.510350	-1.528148	0.036409
 929	4.6400e-01	2.8876	-7.190694	0.000992	9.922769	3.361925	-0.080099
 930	4.6450e-01	2.8684	-7.045060	-0.000361	-3.608280	-1.222518	0.029127
 931	4.6500e-01	2.8267	-7.445554	0.000992	9.922769	3.361925	-0.080099
 932	4.6550e-01	2.7673	-7.481963	0.000090	0.902070	0.305630	-0.007282
 933	4.6600e-01	2.7400	-7.336328	-0.000361	-3.608280	-1.222518	0.029127
 934	4.6650e-01	2.6935	-7.409145	0.000180	1.804140	0.611259	-0.014563
 935	4.6700e-01	2.6566	-8.064500	0.001624	16.237258	5.501332	-0.131071
 936	4.6750e-01	2.6053	-7.809640	-0.000631	-6.314489	-2.139407	0.050972
 937	4.6800e-01	2.5636	-7.846048	0.000090	0.902070	0.305630	-0.007282
 938	4.6850e-01	2.5459	-8.100908	0.000631	6.314489	2.139407	-0.050972
 939	4.6900e-01	2.4866	-8.501403	0.000992	9.922769	3.361925	-0.080099
 940	4.6950e-01	2.4593	-8.100908	-0.000992	-9.922769	-3.361925	0.080099
 941	4.7000e-01	2.4176	-8.574220	0.001173	11.726909	3.973184	-0.094662
 942	4.7050e-01	2.3887	-8.246543	-0.000812	-8.118629	-2.750666	0.065535
 943	4.7100e-01	2.3422	-8.574220	0.000812	8.118629	2.750666	-0.065535
 944	4.7150e-01	2.3117	-8.537811	-0.000090	-0.902070	-0.305630	0.007282
 945	4.7200e-01	2.2716	-8.501403	-0.000090	-0.902070	-0.305630	0.007282
 946	4.7250e-01	2.2138	-8.974714	0.001173	11.726909	3.973184	-0.094662
 947	4.7300e-01	2.1946	-9.375209	0.000992	9.922769	3.361925	-0.080099
 948	4.7350e-01	2.1288	-9.047531	-0.000812	-8.118629	-2.750666	0.065535
 949	4.7400e-01	2.0951	-9.557251	0.001263	12.628979	4.278814	-0.101944
 950	4.7450e-01	2.0598	-8.974714	-0.001443	-14.433118	-4.890073	0.116507
 951	4.7500e-01	2.0085	-9.520843	0.001353	13.531049	4.584443	-0.109226
 952	4.7550e-01	1.9957	-9.666477	0.000361	3.608280	1.222518	-0.029127
 953	4.7600e-01	1.9524	-9.812111	0.000361	3.608280	1.222518	-0.029127
 954	4.7650e-01	1.9106	-9.484434	-0.000812	-8.118629	-2.750666	0.065535
 955	4.7700e-01	1.8545	-9.957746	0.001173	11.726909	3.973184	-0.094662
 956	4.7750e-01	1.8048	-9.957746	-0.000000	-0.000000	-0.000000	0.000000
 957	4.7800e-01	1.7807	-10.139789	0.000451	4.510350	1.528148	-0.036409
 958	4.7850e-01	1.7486	-10.212606	0.000180	1.804140	0.611259	-0.014563
 959	4.7900e-01	1.6957	-10.066972	-0.000361	-3.608280	-1.222518	0.029127
 960	4.7950e-01	1.6844	-10.431057	0.000902	9.020699	3.056296	-0.072817
 961	4.8000e-01	1.6347	-10.394649	-0.000090	-0.902070	-0.305630	0.007282
 962	4.8050e-01	1.5593	-10.977186	0.001443	14.433118	4.890073	-0.116507
 963	4.8100e-01	1.5401	-10.358240	-0.001534	-15.335188	-5.195702	0.123789
 964	4.8150e-01	1.4823	-10.467466	0.000271	2.706210	0.916889	-0.021845
 965	4.8200e-01	1.4663	-11.013595	0.001353	13.531049	4.584443	-0.109226
 966	4.8250e-01	1.4197	-11.013595	-0.000000	-0.000000	-0.000000	0.000000
 967	4.8300e-01	1.3668	-11.013595	-0.000000	-0.000000	-0.000000	0.000000
 968	4.8350e-01	1.3299	-11.013595	-0.000000	-0.000000	-0.000000	0.000000
 969	4.8400e-01	1.3010	-11.450497	0.001082	10.824839	3.667555	-0.087381
 970	4.8450e-01	1.2593	-11.268455	-0.000451	-4.510350	-1.528148	0.036409
 971	4.8500e-01	1.2064	-11.414089	0.000361	3.608280	1.222518	-0.029127
 972	4.8550e-01	1.2080	-11.668949	-0.000631	-6.314489	-2.139407	-0.050972
 973	4.8600e-01	1.1486	-11.814583	0.000361	3.608280	1.222518	-0.029127
 974	4.8650e-01	1.0989	-11.996626	0.000451	4.510350	1.528148	-0.036409
 975	4.8700e-01	1.0700	-11.814583	-0.000451	-4.510350	-1.528148	0.036409
 976	4.8750e-01	1.0075	-12.215078	0.000992	9.922769	3.361925	-0.080099
 977	4.8800e-01	0.9866	-12.360712	0.000361	3.608280	1.222518	-0.029127
 978	4.8850e-01	0.9449	-12.615572	0.000631	6.314489	2.139407	-0.050972
 979	4.8900e-01	0.9160	-12.506346	-0.000271	-2.706210	-0.916889	0.021845
 980	4.8950e-01	0.8743	-12.761206	0.000631	6.314489	2.139407	-0.050972
 981	4.9000e-01	0.8069	-12.615572	-0.000361	-3.608280	-1.222518	0.029127
 982	4.9050e-01	0.7781	-12.797615	0.000451	4.510350	1.528148	-0.036409
 983	4.9100e-01	0.7412	-12.834023	0.000090	0.902070	0.305630	-0.007282
 984	4.9150e-01	0.7010	-12.870432	0.000090	0.902070	0.305630	-0.007282
 985	4.9200e-01	0.6770	-13.234518	0.000902	9.020699	3.056296	-0.072817
 986	4.9250e-01	0.6385	-13.562195	0.000812	8.118629	2.750666	-0.065535
 987	4.9300e-01	0.5855	-13.525786	-0.000090	-0.902070	-0.305630	0.007282
 988	4.9350e-01	0.5438	-13.307335	-0.000541	-5.412419	-1.833777	0.043690
 989	4.9400e-01	0.4845	-13.489378	0.000451	4.510350	1.528148	-0.036409
 990	4.9450e-01	0.4556	-13.817055	0.000812	8.118629	2.750666	-0.065535
 991	4.9500e-01	0.4364	-13.926281	0.000271	2.706210	0.916889	-0.021845
 992	4.9550e-01	0.3850	-13.744238	-0.000451	-4.510350	-1.528148	0.036409
 993	4.9600e-01	0.3192	-14.071915	0.000812	8.118629	2.750666	-0.065535
 994	4.9650e-01	0.2984	-14.363184	0.000722	7.216559	2.445036	-0.058254
 995	4.9700e-01	0.2775	-14.399592	0.000090	0.902070	0.305630	-0.007282
 996	4.9750e-01	0.2134	-14.399592	-0.000000	-0.000000	-0.000000	0.000000
 997	4.9800e-01	0.1893	-14.581635	0.000451	4.510350	1.528148	-0.036409
 998	4.9850e-01	0.1636	-14.727269	0.000361	3.608280	1.222518	-0.029127
 999	4.9900e-01	0.1091	-14.763678	0.000090	0.902070	0.305630	-0.007282
1000	4.9950e-01	0.0850	-14.909312	0.000361	3.608280	1.222518	-0.029127
1001	5.0000e-01	0.0722	-15.236989	0.000361	3.608280	1.222518	-0.065535

PMax (uC/cm2):	4.06e+01
Pr (uC/cm2):	4.99e+00
-Pr (uC/cm2):	0.00e+00
PLoss (uC/cm2):	0.00e+00
C (Max-Eff) (nF):	2.02e-01
K (Eff):	6.86e+02
Vert. (+/-Pr) Shift (uC/cm2):	2.49e+00
Offset (uC/cm2):	2.02e+01

A (Loop Area - uC/cm2·Volts):	1.29e-01



Hysteresis Version: 5.48.1 - Radiant Technologies, Inc., 1999 - 9/12/24

