»»»»»»»»»»»»»»»»»»»»»»»»»»»»»»»»»»»» Hysteresis ««««««««««««««««««««««««««««««««««««
»»»  Executed Version:	5.48.1
»»»  Vision Version:	5.48.4 (R)
»»»  Vision Compiled:	9/18/24
»»»  Driver Version:	5.47.0
»»»  Windows Version:	Windows 8 or 8.1
»»»  Processor Information:	x86 (AMD or Intel) - 32 Processors
»»»  Tester Name:	PMF21124-494 (100V)
»»»  Tester S/N:	PMF21124-494
»»»  Internal Amp Type:	100V RevK 270k
»»»  Internal Amp S/N:	iAB2-596/K     
»»»  Execution Count:	1
»»»»»»»»»»»»»»»»»»»»»»»»»»»»»»»»»»»»»»»»»»««««««««««««««««««««««««««««««««««««««««««

Stored:	10/2/2025 - 18:26:54
Configured:	10/02/25 12:40:15 PM
Executed:	10/02/25 06:26:01 PM

»»»»»»»»»»»»»»»»»»»»»»»»»»»»»»»»»»» Sample Info ««««««««««««««««««««««««««««««««««««
Sample Name:	Int. Ref. Ferroelectric
Lot Name:	N/A
Wafer Name:	N/A
Die Row/Column:	0/0
Capacitor Number:	0
Sample Area (cm2):	1.00e-04
Sample Thickness (microns):	3.00e-01

Amplifier:	Internal

»»»»»»»»»»»»»»»»»»»»»»»»»»»»»»»»»»» Tester Info «««««««««««««««««««««««««««««««««««
Tester Name:	PMF21124-494 (100V)
Tester Serial Number:	PMF21124-494
Return Signal Amp. Level:	0.02 [Index: 2]

»»»»»»»»»»»»»»»»»»»»»»»»»»»»»»»» Hysteresis Info ««««««««««««««««««««««««««««««««««
Task Name:	Hyst-1
Volts:	20.00
Field:	666.67 (kV/cm)
DCBias:	0.00
DCField:	0.00 (kV/cm)
Hysteresis Period (ms):	5.00e-01
Preset:	Enabled
Preset Delay (ms):	1.00e+03
Profile:	Standard Monopolar

»»»»»»»»»»»»»»»»»»»»»»»»»»»»»»»»»»»»»» Data «««««««««««««««««««««««««««««««««««««««
Points:	1001

Valid Data

Point	Time (ms)	Drive Voltage	Measured Polarization (uC/cm2)	Capacitance (uF)	Normalized Capacitance (uF/cm2)	Dielectric Constant	Instantaneous Current (mA)
   1	0.0000e+00	0.0626	-30.656022	-0.002091	-20.914902	-7.086161	0.167479
   2	5.0000e-04	0.0578	-29.818625	-0.002091	-20.914902	-7.086161	0.167479
   3	1.0000e-03	0.1299	-30.182710	-0.000909	-9.093436	-3.080939	-0.072817
   4	1.5000e-03	0.1540	-29.745807	0.001091	10.912123	3.697127	0.087381
   5	2.0000e-03	0.2166	-29.782216	-0.000091	-0.909344	-0.308094	-0.007282
   6	2.5000e-03	0.2230	-29.381722	0.001000	10.002779	3.389033	0.080099
   7	3.0000e-03	0.2984	-29.308904	0.000182	1.818687	0.616188	0.014563
   8	3.5000e-03	0.3353	-29.054044	0.000637	6.365405	2.156658	0.050972
   9	4.0000e-03	0.3497	-28.872002	0.000455	4.546718	1.540470	0.036409
  10	4.5000e-03	0.4107	-28.216647	0.001637	16.368184	5.545691	0.131071
  11	5.0000e-03	0.4588	-28.544324	-0.000818	-8.184092	-2.772845	-0.065535
  12	5.5000e-03	0.4732	-28.398690	0.000364	3.637374	1.232376	0.029127
  13	6.0000e-03	0.5118	-27.743336	0.001637	16.368184	5.545691	0.131071
  14	6.5000e-03	0.5326	-28.071013	-0.000818	-8.184092	-2.772845	-0.065535
  15	7.0000e-03	0.5936	-27.597701	0.001182	11.821466	4.005221	0.094662
  16	7.5000e-03	0.6385	-27.670518	-0.000182	-1.818687	-0.616188	-0.014563
  17	8.0000e-03	0.6786	-27.852561	-0.000455	-4.546718	-1.540470	-0.036409
  18	8.5000e-03	0.7219	-27.415658	0.001091	10.912123	3.697127	0.087381
  19	9.0000e-03	0.7636	-27.160798	0.000637	6.365405	2.156658	0.050972
  20	9.5000e-03	0.7973	-26.833121	0.000818	8.184092	2.772845	0.065535
  21	1.0000e-02	0.8374	-26.651078	0.000455	4.546718	1.540470	0.036409
  22	1.0500e-02	0.8631	-26.396218	0.000637	6.365405	2.156658	0.050972
  23	1.1000e-02	0.9096	-26.214175	0.000455	4.546718	1.540470	0.036409
  24	1.1500e-02	0.9176	-25.886498	0.000818	8.184092	2.772845	0.065535
  25	1.2000e-02	0.9738	-26.141358	-0.000637	-6.365405	-2.156658	-0.050972
  26	1.2500e-02	1.0444	-25.813681	0.000818	8.184092	2.772845	0.065535
  27	1.3000e-02	1.0861	-25.376778	0.001091	10.912123	3.697127	0.087381
  28	1.3500e-02	1.1214	-25.668047	-0.000727	-7.274749	-2.464752	-0.058254
  29	1.4000e-02	1.1663	-25.303961	0.000909	9.093436	3.080939	0.072817
  30	1.4500e-02	1.1887	-24.903467	0.001000	10.002779	3.389033	0.080099
  31	1.5000e-02	1.2337	-24.284521	0.001546	15.458841	5.237597	0.123789
  32	1.5500e-02	1.2802	-24.721424	-0.001091	-10.912123	-3.697127	-0.087381
  33	1.6000e-02	1.3251	-24.648607	0.000182	1.818687	0.616188	0.014563
  34	1.6500e-02	1.3732	-24.138887	0.001273	12.730810	4.313315	0.101944
  35	1.7000e-02	1.3989	-24.211704	-0.000182	-1.818687	-0.616188	-0.014563
  36	1.7500e-02	1.4454	-23.556349	0.001637	16.368184	5.545691	0.131071
  37	1.8000e-02	1.4967	-23.629166	-0.000182	-1.818687	-0.616188	-0.014563
  38	1.8500e-02	1.5481	-23.774801	-0.000364	-3.637374	-1.232376	-0.029127
  39	1.9000e-02	1.5609	-23.301489	0.001182	11.821466	4.005221	0.094662
  40	1.9500e-02	1.6026	-23.010221	0.000727	7.274749	2.464752	0.058254
  41	2.0000e-02	1.6379	-22.973812	0.000091	0.909344	0.308094	0.007282
  42	2.0500e-02	1.6860	-22.900995	0.000182	1.818687	0.616188	0.014563
  43	2.1000e-02	1.7374	-22.718952	0.000455	4.546718	1.540470	0.036409
  44	2.1500e-02	1.7534	-22.646135	0.000182	1.818687	0.616188	0.014563
  45	2.2000e-02	1.8032	-22.100006	0.001364	13.640154	4.621409	0.109226
  46	2.2500e-02	1.8545	-22.391275	-0.000727	-7.274749	-2.464752	-0.058254
  47	2.3000e-02	1.8705	-21.808738	0.001455	14.549497	4.929503	0.116507
  48	2.3500e-02	1.9074	-22.318458	-0.001273	-12.730810	-4.313315	-0.101944
  49	2.4000e-02	1.9604	-21.954372	0.000909	9.093436	3.080939	0.072817
  50	2.4500e-02	2.0069	-21.553878	0.001000	10.002779	3.389033	0.080099
  51	2.5000e-02	2.0374	-21.189792	0.000909	9.093436	3.080939	0.072817
  52	2.5500e-02	2.0663	-21.153383	0.000091	0.909344	0.308094	0.007282
  53	2.6000e-02	2.1384	-20.862115	0.000727	7.274749	2.464752	0.058254
  54	2.6500e-02	2.1545	-21.153383	-0.000727	-7.274749	-2.464752	-0.058254
  55	2.7000e-02	2.2122	-20.934932	0.000546	5.456061	1.848564	0.043690
  56	2.7500e-02	2.2556	-20.425212	0.001273	12.730810	4.313315	0.101944
  57	2.8000e-02	2.3005	-20.570846	-0.000364	-3.637374	-1.232376	-0.029127
  58	2.8500e-02	2.3245	-20.133943	0.001091	10.912123	3.697127	0.087381
  59	2.9000e-02	2.3582	-19.988309	0.000364	3.637374	1.232376	0.029127
  60	2.9500e-02	2.4272	-20.024717	-0.000091	-0.909344	-0.308094	-0.007282
  61	3.0000e-02	2.4545	-19.733449	0.000727	7.274749	2.464752	0.058254
  62	3.0500e-02	2.4817	-19.624223	0.000273	2.728031	0.924282	0.021845
  63	3.1000e-02	2.5202	-19.478589	0.000364	3.637374	1.232376	0.029127
  64	3.1500e-02	2.5780	-19.041686	0.001091	10.912123	3.697127	0.087381
  65	3.2000e-02	2.5956	-19.332954	-0.000727	-7.274749	-2.464752	-0.058254
  66	3.2500e-02	2.6727	-18.932460	0.001000	10.002779	3.389033	0.080099
  67	3.3000e-02	2.6807	-18.786826	0.000364	3.637374	1.232376	0.029127
  68	3.3500e-02	2.7144	-18.531966	0.000637	6.365405	2.156658	0.050972
  69	3.4000e-02	2.7833	-18.349923	0.000455	4.546718	1.540470	0.036409
  70	3.4500e-02	2.8106	-18.095063	0.000637	6.365405	2.156658	0.050972
  71	3.5000e-02	2.8363	-18.131471	-0.000091	-0.909344	-0.308094	-0.007282
  72	3.5500e-02	2.8844	-17.767386	0.000909	9.093436	3.080939	0.072817
  73	3.6000e-02	2.9309	-17.913020	-0.000364	-3.637374	-1.232376	-0.029127
  74	3.6500e-02	2.9582	-17.730977	0.000455	4.546718	1.540470	0.036409
  75	3.7000e-02	3.0063	-17.366891	0.000909	9.093436	3.080939	0.072817
  76	3.7500e-02	3.0384	-17.366891	0.000000	0.000000	0.000000	0.000000
  77	3.8000e-02	3.0978	-17.512526	-0.000364	-3.637374	-1.232376	-0.029127
  78	3.8500e-02	3.1443	-17.257665	0.000637	6.365405	2.156658	0.050972
  79	3.9000e-02	3.1988	-16.675128	0.001455	14.549497	4.929503	0.116507
  80	3.9500e-02	3.2085	-16.711537	-0.000091	-0.909344	-0.308094	-0.007282
  81	4.0000e-02	3.2710	-16.565903	0.000364	3.637374	1.232376	0.029127
  82	4.0500e-02	3.2710	-16.747945	0.000455	4.546718	1.540470	-0.036409
  83	4.1000e-02	3.3288	-16.129000	0.001546	15.458841	5.237597	0.123789
  84	4.1500e-02	3.3464	-15.837731	0.000727	7.274749	2.464752	0.058254
  85	4.2000e-02	3.4058	-15.910548	-0.000182	-1.818687	-0.616188	-0.014563
  86	4.2500e-02	3.4539	-15.983365	-0.000182	-1.818687	-0.616188	-0.014563
  87	4.3000e-02	3.4892	-15.328011	0.001637	16.368184	5.545691	0.131071
  88	4.3500e-02	3.5357	-15.364419	-0.000091	-0.909344	-0.308094	-0.007282
  89	4.4000e-02	3.5742	-15.400828	-0.000091	-0.909344	-0.308094	-0.007282
  90	4.4500e-02	3.6015	-15.328011	0.000182	1.818687	0.616188	0.014563
  91	4.5000e-02	3.6304	-14.781882	0.001364	13.640154	4.621409	0.109226
  92	4.5500e-02	3.6849	-15.109559	-0.000818	-8.184092	-2.772845	-0.065535
  93	4.6000e-02	3.7266	-14.818291	0.000727	7.274749	2.464752	0.058254
  94	4.6500e-02	3.7282	-14.381388	0.001091	10.912123	3.697127	0.087381
  95	4.7000e-02	3.7940	-14.235754	0.000364	3.637374	1.232376	0.029127
  96	4.7500e-02	3.8534	-14.381388	-0.000364	-3.637374	-1.232376	-0.029127
  97	4.8000e-02	3.9015	-14.053711	0.000818	8.184092	2.772845	0.065535
  98	4.8500e-02	3.9223	-14.162936	-0.000273	-2.728031	-0.924282	-0.021845
  99	4.9000e-02	3.9625	-13.798851	0.000909	9.093436	3.080939	0.072817
 100	4.9500e-02	4.0074	-13.543991	0.000637	6.365405	2.156658	0.050972
 101	5.0000e-02	4.0411	-13.361948	0.000455	4.546718	1.540470	0.036409
 102	5.0500e-02	4.1036	-13.835259	-0.001182	-11.821466	-4.005221	-0.094662
 103	5.1000e-02	4.1213	-13.434765	0.001000	10.002779	3.389033	0.080099
 104	5.1500e-02	4.1774	-12.779411	0.001637	16.368184	5.545691	0.131071
 105	5.2000e-02	4.1999	-13.361948	-0.001455	-14.549497	-4.929503	-0.116507
 106	5.2500e-02	4.2368	-12.524550	0.002091	20.914902	7.086161	0.167479
 107	5.3000e-02	4.2881	-12.925045	-0.001000	-10.002779	-3.389033	-0.080099
 108	5.3500e-02	4.3058	-12.378916	0.001364	13.640154	4.621409	0.109226
 109	5.4000e-02	4.3780	-12.306099	0.000182	1.818687	0.616188	0.014563
 110	5.4500e-02	4.3876	-12.014830	0.000727	7.274749	2.464752	0.058254
 111	5.5000e-02	4.4341	-12.196873	-0.000455	-4.546718	-1.540470	-0.036409
 112	5.5500e-02	4.4726	-12.051239	0.000364	3.637374	1.232376	0.029127
 113	5.6000e-02	4.5304	-11.395885	0.001637	16.368184	5.545691	0.131071
 114	5.6500e-02	4.5689	-11.796379	-0.001000	-10.002779	-3.389033	-0.080099
 115	5.7000e-02	4.6122	-11.577927	0.000546	5.456061	1.848564	0.043690
 116	5.7500e-02	4.6394	-11.759970	-0.000455	-4.546718	-1.540470	-0.036409
 117	5.8000e-02	4.6779	-11.068207	0.001728	17.277528	5.853785	0.138353
 118	5.8500e-02	4.7068	-10.922573	0.000364	3.637374	1.232376	0.029127
 119	5.9000e-02	4.7549	-10.958982	-0.000091	-0.909344	-0.308094	-0.007282
 120	5.9500e-02	4.8063	-10.922573	0.000091	0.909344	0.308094	0.007282
 121	6.0000e-02	4.8496	-10.958982	-0.000091	-0.909344	-0.308094	-0.007282
 122	6.0500e-02	4.8961	-10.849756	0.000273	2.728031	0.924282	0.021845
 123	6.1000e-02	4.9170	-10.704122	0.000364	3.637374	1.232376	0.029127
 124	6.1500e-02	4.9651	-10.594896	0.000273	2.728031	0.924282	0.021845
 125	6.2000e-02	5.0020	-10.230810	0.000909	9.093436	3.080939	0.072817
 126	6.2500e-02	5.0293	-10.012359	0.000546	5.456061	1.848564	0.043690
 127	6.3000e-02	5.0630	-10.157993	-0.000364	-3.637374	-1.232376	-0.029127
 128	6.3500e-02	5.1063	-9.174961	0.002455	24.552276	8.318536	0.196606
 129	6.4000e-02	5.1480	-10.012359	-0.002091	-20.914902	-7.086161	-0.167479
 130	6.4500e-02	5.1720	-9.320596	0.001728	17.277528	5.853785	0.138353
 131	6.5000e-02	5.2202	-9.247779	0.000182	1.818687	0.616188	0.014563
 132	6.5500e-02	5.2859	-9.393413	-0.000364	-3.637374	-1.232376	-0.029127
 133	6.6000e-02	5.3180	-8.956510	0.001091	10.912123	3.697127	0.087381
 134	6.6500e-02	5.3694	-8.992919	-0.000091	-0.909344	-0.308094	-0.007282
 135	6.7000e-02	5.4303	-8.774467	0.000546	5.456061	1.848564	0.043690
 136	6.7500e-02	5.4560	-8.665241	0.000273	2.728031	0.924282	0.021845
 137	6.8000e-02	5.4688	-8.228338	0.001091	10.912123	3.697127	0.087381
 138	6.8500e-02	5.5121	-8.628833	-0.001000	-10.002779	-3.389033	-0.080099
 139	6.9000e-02	5.5587	-8.264747	0.000909	9.093436	3.080939	0.072817
 140	6.9500e-02	5.6100	-8.373973	-0.000273	-2.728031	-0.924282	-0.021845
 141	7.0000e-02	5.6405	-8.009887	0.000909	9.093436	3.080939	0.072817
 142	7.0500e-02	5.6533	-8.228338	-0.000546	-5.456061	-1.848564	-0.043690
 143	7.1000e-02	5.7047	-7.682210	0.001364	13.640154	4.621409	0.109226
 144	7.1500e-02	5.7223	-7.827844	-0.000364	-3.637374	-1.232376	-0.029127
 145	7.2000e-02	5.7833	-7.463758	0.000909	9.093436	3.080939	0.072817
 146	7.2500e-02	5.8410	-7.427350	0.000091	0.909344	0.308094	0.007282
 147	7.3000e-02	5.9084	-7.136081	0.000727	7.274749	2.464752	0.058254
 148	7.3500e-02	5.9228	-7.318124	-0.000455	-4.546718	-1.540470	-0.036409
 149	7.4000e-02	5.9501	-6.881221	0.001091	10.912123	3.697127	0.087381
 150	7.4500e-02	5.9838	-6.808404	0.000182	1.818687	0.616188	0.014563
 151	7.5000e-02	6.0447	-6.808404	0.000000	0.000000	0.000000	0.000000
 152	7.5500e-02	6.0881	-6.626361	0.000455	4.546718	1.540470	0.036409
 153	7.6000e-02	6.1218	-6.444318	0.000455	4.546718	1.540470	0.036409
 154	7.6500e-02	6.1603	-6.371501	0.000182	1.818687	0.616188	0.014563
 155	7.7000e-02	6.2020	-6.298684	0.000182	1.818687	0.616188	0.014563
 156	7.7500e-02	6.2485	-6.407910	-0.000273	-2.728031	-0.924282	-0.021845
 157	7.8000e-02	6.2806	-6.298684	0.000273	2.728031	0.924282	0.021845
 158	7.8500e-02	6.3287	-5.570512	0.001819	18.186871	6.161879	0.145634
 159	7.9000e-02	6.3512	-5.461287	0.000273	2.728031	0.924282	0.021845
 160	7.9500e-02	6.3865	-5.643329	-0.000455	-4.546718	-1.540470	-0.036409
 161	8.0000e-02	6.4282	-5.315652	0.000818	8.184092	2.772845	0.065535
 162	8.0500e-02	6.4731	-5.242835	0.000182	1.818687	0.616188	0.014563
 163	8.1000e-02	6.5052	-5.097201	0.000364	3.637374	1.232376	0.029127
 164	8.1500e-02	6.5597	-5.097201	0.000000	0.000000	0.000000	0.000000
 165	8.2000e-02	6.6126	-5.060792	0.000091	0.909344	0.308094	0.007282
 166	8.2500e-02	6.6287	-4.769524	0.000727	7.274749	2.464752	0.058254
 167	8.3000e-02	6.6608	-4.696706	0.000182	1.818687	0.616188	0.014563
 168	8.3500e-02	6.7025	-4.660298	0.000091	0.909344	0.308094	0.007282
 169	8.4000e-02	6.7506	-4.369029	0.000727	7.274749	2.464752	0.058254
 170	8.4500e-02	6.7955	-4.478255	-0.000273	-2.728031	-0.924282	-0.021845
 171	8.5000e-02	6.8485	-4.004943	0.001182	11.821466	4.005221	0.094662
 172	8.5500e-02	6.8870	-4.369029	-0.000909	-9.093436	-3.080939	-0.072817
 173	8.6000e-02	6.9207	-3.713675	0.001637	16.368184	5.545691	0.131071
 174	8.6500e-02	6.9624	-3.713675	0.000000	0.000000	0.000000	0.000000
 175	8.7000e-02	7.0249	-3.895718	-0.000455	-4.546718	-1.540470	-0.036409
 176	8.7500e-02	7.0249	-3.349589	-0.001364	-13.640154	-4.621409	0.109226
 177	8.8000e-02	7.0666	-3.313181	0.000091	0.909344	0.308094	0.007282
 178	8.8500e-02	7.1148	-3.495223	-0.000455	-4.546718	-1.540470	-0.036409
 179	8.9000e-02	7.1822	-3.276772	0.000546	5.456061	1.848564	0.043690
 180	8.9500e-02	7.2207	-3.203955	0.000182	1.818687	0.616188	0.014563
 181	9.0000e-02	7.2479	-2.803460	0.001000	10.002779	3.389033	0.080099
 182	9.0500e-02	7.2559	-2.912686	-0.000273	-2.728031	-0.924282	-0.021845
 183	9.1000e-02	7.2961	-2.548600	0.000909	9.093436	3.080939	0.072817
 184	9.1500e-02	7.3137	-2.402966	0.000364	3.637374	1.232376	0.029127
 185	9.2000e-02	7.3891	-2.767052	-0.000909	-9.093436	-3.080939	-0.072817
 186	9.2500e-02	7.4292	-2.402966	0.000909	9.093436	3.080939	0.072817
 187	9.3000e-02	7.4870	-1.820429	0.001455	14.549497	4.929503	0.116507
 188	9.3500e-02	7.5206	-1.929655	-0.000273	-2.728031	-0.924282	-0.021845
 189	9.4000e-02	7.5656	-2.111697	-0.000455	-4.546718	-1.540470	-0.036409
 190	9.4500e-02	7.5976	-2.075289	0.000091	0.909344	0.308094	0.007282
 191	9.5000e-02	7.6297	-1.638386	0.001091	10.912123	3.697127	0.087381
 192	9.5500e-02	7.6698	-1.310709	0.000818	8.184092	2.772845	0.065535
 193	9.6000e-02	7.7132	-1.529160	-0.000546	-5.456061	-1.848564	-0.043690
 194	9.6500e-02	7.7886	-1.529160	0.000000	0.000000	0.000000	0.000000
 195	9.7000e-02	7.8158	-1.310709	0.000546	5.456061	1.848564	0.043690
 196	9.7500e-02	7.8399	-0.983032	0.000818	8.184092	2.772845	0.065535
 197	9.8000e-02	7.8656	-0.873806	0.000273	2.728031	0.924282	0.021845
 198	9.8500e-02	7.9121	-0.691763	0.000455	4.546718	1.540470	0.036409
 199	9.9000e-02	7.9506	-0.800989	-0.000273	-2.728031	-0.924282	-0.021845
 200	9.9500e-02	7.9971	-0.655354	0.000364	3.637374	1.232376	0.029127
 201	1.0000e-01	8.0388	-0.546129	0.000273	2.728031	0.924282	0.021845
 202	1.0050e-01	8.0677	-0.400494	0.000364	3.637374	1.232376	0.029127
 203	1.0100e-01	8.0982	-0.036409	0.000909	9.093436	3.080939	0.072817
 204	1.0150e-01	8.1575	-0.327677	-0.000727	-7.274749	-2.464752	-0.058254
 205	1.0200e-01	8.2089	-0.036409	0.000727	7.274749	2.464752	0.058254
 206	1.0250e-01	8.2458	0.327677	0.000909	9.093436	3.080939	0.072817
 207	1.0300e-01	8.2618	0.618946	0.000727	7.274749	2.464752	0.058254
 208	1.0350e-01	8.3099	0.327677	-0.000727	-7.274749	-2.464752	-0.058254
 209	1.0400e-01	8.3645	0.546129	0.000546	5.456061	1.848564	0.043690
 210	1.0450e-01	8.4078	0.800989	0.000637	6.365405	2.156658	0.050972
 211	1.0500e-01	8.4495	0.800989	0.000000	0.000000	0.000000	0.000000
 212	1.0550e-01	8.4752	0.800989	0.000000	0.000000	0.000000	0.000000
 213	1.0600e-01	8.5072	0.837397	0.000091	0.909344	0.308094	0.007282
 214	1.0650e-01	8.5634	0.983032	0.000364	3.637374	1.232376	0.029127
 215	1.0700e-01	8.5714	1.638386	0.001637	16.368184	5.545691	0.131071
 216	1.0750e-01	8.6404	1.601977	-0.000091	-0.909344	-0.308094	-0.007282
 217	1.0800e-01	8.6725	1.529160	-0.000182	-1.818687	-0.616188	-0.014563
 218	1.0850e-01	8.7431	1.856837	0.000818	8.184092	2.772845	0.065535
 219	1.0900e-01	8.7495	1.747612	-0.000273	-2.728031	-0.924282	-0.021845
 220	1.0950e-01	8.7944	1.929655	0.000455	4.546718	1.540470	0.036409
 221	1.1000e-01	8.8345	2.075289	0.000364	3.637374	1.232376	0.029127
 222	1.1050e-01	8.8746	1.929655	-0.000364	-3.637374	-1.232376	-0.029127
 223	1.1100e-01	8.9115	1.893246	-0.000091	-0.909344	-0.308094	-0.007282
 224	1.1150e-01	8.9677	2.330149	0.001091	10.912123	3.697127	0.087381
 225	1.1200e-01	8.9837	2.803460	0.001182	11.821466	4.005221	0.094662
 226	1.1250e-01	9.0206	2.876278	0.000182	1.818687	0.616188	0.014563
 227	1.1300e-01	9.0671	2.366558	-0.001273	-12.730810	-4.313315	-0.101944
 228	1.1350e-01	9.1088	2.767052	0.001000	10.002779	3.389033	0.080099
 229	1.1400e-01	9.1473	3.021912	0.000637	6.365405	2.156658	0.050972
 230	1.1450e-01	9.1923	3.531632	0.001273	12.730810	4.313315	0.101944
 231	1.1500e-01	9.2596	3.058320	-0.001182	-11.821466	-4.005221	-0.094662
 232	1.1550e-01	9.2837	2.912686	-0.000364	-3.637374	-1.232376	-0.029127
 233	1.1600e-01	9.3142	3.276772	0.000909	9.093436	3.080939	0.072817
 234	1.1650e-01	9.3559	3.531632	0.000637	6.365405	2.156658	0.050972
 235	1.1700e-01	9.4136	3.313181	-0.000546	-5.456061	-1.848564	-0.043690
 236	1.1750e-01	9.4553	3.822901	0.001273	12.730810	4.313315	0.101944
 237	1.1800e-01	9.4826	4.369029	0.001364	13.640154	4.621409	0.109226
 238	1.1850e-01	9.5179	3.932126	-0.001091	-10.912123	-3.697127	-0.087381
 239	1.1900e-01	9.5596	3.932126	0.000000	0.000000	0.000000	0.000000
 240	1.1950e-01	9.5981	4.004943	0.000182	1.818687	0.616188	0.014563
 241	1.2000e-01	9.6430	4.041352	0.000091	0.909344	0.308094	0.007282
 242	1.2050e-01	9.6815	4.077761	0.000091	0.909344	0.308094	0.007282
 243	1.2100e-01	9.7345	4.259804	0.000455	4.546718	1.540470	0.036409
 244	1.2150e-01	9.7313	4.733115	-0.001182	-11.821466	-4.005221	0.094662
 245	1.2200e-01	9.7810	4.805932	0.000182	1.818687	0.616188	0.014563
 246	1.2250e-01	9.8179	5.133609	0.000818	8.184092	2.772845	0.065535
 247	1.2300e-01	9.8692	5.242835	0.000273	2.728031	0.924282	0.021845
 248	1.2350e-01	9.9222	5.170018	-0.000182	-1.818687	-0.616188	-0.014563
 249	1.2400e-01	9.9527	5.315652	0.000364	3.637374	1.232376	0.029127
 250	1.2450e-01	10.0008	5.315652	0.000000	0.000000	0.000000	0.000000
 251	1.2500e-01	10.0200	5.825372	0.001273	12.730810	4.313315	0.101944
 252	1.2550e-01	10.0569	5.825372	0.000000	0.000000	0.000000	0.000000
 253	1.2600e-01	10.1291	5.716147	-0.000273	-2.728031	-0.924282	-0.021845
 254	1.2650e-01	10.1644	6.153050	0.001091	10.912123	3.697127	0.087381
 255	1.2700e-01	10.1917	5.934598	-0.000546	-5.456061	-1.848564	-0.043690
 256	1.2750e-01	10.2286	6.153050	0.000546	5.456061	1.848564	0.043690
 257	1.2800e-01	10.2863	6.225867	0.000182	1.818687	0.616188	0.014563
 258	1.2850e-01	10.3104	6.407910	0.000455	4.546718	1.540470	0.036409
 259	1.2900e-01	10.3232	6.225867	-0.000455	-4.546718	-1.540470	-0.036409
 260	1.2950e-01	10.3714	6.517135	0.000727	7.274749	2.464752	0.058254
 261	1.3000e-01	10.4259	6.517135	0.000000	0.000000	0.000000	0.000000
 262	1.3050e-01	10.4548	6.699178	0.000455	4.546718	1.540470	0.036409
 263	1.3100e-01	10.4869	7.026855	0.000818	8.184092	2.772845	0.065535
 264	1.3150e-01	10.5542	6.954038	-0.000182	-1.818687	-0.616188	-0.014563
 265	1.3200e-01	10.5879	7.136081	0.000455	4.546718	1.540470	0.036409
 266	1.3250e-01	10.6216	6.990447	-0.000364	-3.637374	-1.232376	-0.029127
 267	1.3300e-01	10.6698	7.354533	0.000909	9.093436	3.080939	0.072817
 268	1.3350e-01	10.7002	7.318124	-0.000091	-0.909344	-0.308094	-0.007282
 269	1.3400e-01	10.7500	7.718618	0.001000	10.002779	3.389033	0.080099
 270	1.3450e-01	10.8029	7.718618	0.000000	0.000000	0.000000	0.000000
 271	1.3500e-01	10.8302	7.864253	0.000364	3.637374	1.232376	0.029127
 272	1.3550e-01	10.8671	8.082704	0.000546	5.456061	1.848564	0.043690
 273	1.3600e-01	10.9072	8.155521	0.000182	1.818687	0.616188	0.014563
 274	1.3650e-01	10.9521	7.900661	-0.000637	-6.365405	-2.156658	-0.050972
 275	1.3700e-01	10.9906	8.556016	0.001637	16.368184	5.545691	0.131071
 276	1.3750e-01	11.0307	8.337564	-0.000546	-5.456061	-1.848564	-0.043690
 277	1.3800e-01	11.0852	8.519607	0.000455	4.546718	1.540470	0.036409
 278	1.3850e-01	11.1125	8.774467	0.000637	6.365405	2.156658	0.050972
 279	1.3900e-01	11.1526	8.373973	-0.001000	-10.002779	-3.389033	-0.080099
 280	1.3950e-01	11.2056	8.628833	0.000637	6.365405	2.156658	0.050972
 281	1.4000e-01	11.2216	9.029327	0.001000	10.002779	3.389033	0.080099
 282	1.4050e-01	11.2665	8.665241	-0.000909	-9.093436	-3.080939	-0.072817
 283	1.4100e-01	11.2954	9.211370	0.001364	13.640154	4.621409	0.109226
 284	1.4150e-01	11.3580	9.174961	-0.000091	-0.909344	-0.308094	-0.007282
 285	1.4200e-01	11.3981	9.247779	0.000182	1.818687	0.616188	0.014563
 286	1.4250e-01	11.4270	9.174961	-0.000182	-1.818687	-0.616188	-0.014563
 287	1.4300e-01	11.4542	9.757499	0.001455	14.549497	4.929503	0.116507
 288	1.4350e-01	11.5120	9.502639	-0.000637	-6.365405	-2.156658	-0.050972
 289	1.4400e-01	11.5713	9.757499	0.000637	6.365405	2.156658	0.050972
 290	1.4450e-01	11.6018	9.684681	-0.000182	-1.818687	-0.616188	-0.014563
 291	1.4500e-01	11.6435	10.012359	0.000818	8.184092	2.772845	0.065535
 292	1.4550e-01	11.6933	9.793907	-0.000546	-5.456061	-1.848564	-0.043690
 293	1.4600e-01	11.6868	10.376444	-0.001455	-14.549497	-4.929503	0.116507
 294	1.4650e-01	11.7366	10.449262	0.000182	1.818687	0.616188	0.014563
 295	1.4700e-01	11.7975	10.340036	-0.000273	-2.728031	-0.924282	-0.021845
 296	1.4750e-01	11.8232	10.485670	0.000364	3.637374	1.232376	0.029127
 297	1.4800e-01	11.8665	10.849756	0.000909	9.093436	3.080939	0.072817
 298	1.4850e-01	11.9114	10.522079	-0.000818	-8.184092	-2.772845	-0.065535
 299	1.4900e-01	11.9563	11.031799	0.001273	12.730810	4.313315	0.101944
 300	1.4950e-01	11.9900	10.886165	-0.000364	-3.637374	-1.232376	-0.029127
 301	1.5000e-01	12.0317	11.141025	0.000637	6.365405	2.156658	0.050972
 302	1.5050e-01	12.0590	11.177433	0.000091	0.909344	0.308094	0.007282
 303	1.5100e-01	12.1136	11.505110	0.000818	8.184092	2.772845	0.065535
 304	1.5150e-01	12.1489	11.068207	-0.001091	-10.912123	-3.697127	-0.087381
 305	1.5200e-01	12.1970	11.687153	0.001546	15.458841	5.237597	0.123789
 306	1.5250e-01	12.2307	11.723562	0.000091	0.909344	0.308094	0.007282
 307	1.5300e-01	12.2676	11.759970	0.000091	0.909344	0.308094	0.007282
 308	1.5350e-01	12.3013	11.614336	-0.000364	-3.637374	-1.232376	-0.029127
 309	1.5400e-01	12.3622	11.687153	0.000182	1.818687	0.616188	0.014563
 310	1.5450e-01	12.3959	12.014830	0.000818	8.184092	2.772845	0.065535
 311	1.5500e-01	12.4376	12.378916	0.000909	9.093436	3.080939	0.072817
 312	1.5550e-01	12.4906	12.196873	-0.000455	-4.546718	-1.540470	-0.036409
 313	1.5600e-01	12.5210	12.306099	0.000273	2.728031	0.924282	0.021845
 314	1.5650e-01	12.5403	12.451733	0.000364	3.637374	1.232376	0.029127
 315	1.5700e-01	12.6173	12.706593	0.000637	6.365405	2.156658	0.050972
 316	1.5750e-01	12.6590	12.597368	-0.000273	-2.728031	-0.924282	-0.021845
 317	1.5800e-01	12.6510	12.779411	-0.000455	-4.546718	-1.540470	0.036409
 318	1.5850e-01	12.7312	12.888636	0.000273	2.728031	0.924282	0.021845
 319	1.5900e-01	12.7488	13.434765	0.001364	13.640154	4.621409	0.109226
 320	1.5950e-01	12.7761	13.252722	-0.000455	-4.546718	-1.540470	-0.036409
 321	1.6000e-01	12.8323	13.070679	-0.000455	-4.546718	-1.540470	-0.036409
 322	1.6050e-01	12.8756	12.743002	-0.000818	-8.184092	-2.772845	-0.065535
 323	1.6100e-01	12.9077	13.543991	0.002001	20.005559	6.778067	0.160198
 324	1.6150e-01	12.9285	13.252722	-0.000727	-7.274749	-2.464752	-0.058254
 325	1.6200e-01	12.9702	13.726034	0.001182	11.821466	4.005221	0.094662
 326	1.6250e-01	13.0264	13.507582	-0.000546	-5.456061	-1.848564	-0.043690
 327	1.6300e-01	13.0665	13.762442	0.000637	6.365405	2.156658	0.050972
 328	1.6350e-01	13.0937	14.126528	0.000909	9.093436	3.080939	0.072817
 329	1.6400e-01	13.1355	13.871668	-0.000637	-6.365405	-2.156658	-0.050972
 330	1.6450e-01	13.1724	13.726034	-0.000364	-3.637374	-1.232376	-0.029127
 331	1.6500e-01	13.2285	14.272162	0.001364	13.640154	4.621409	0.109226
 332	1.6550e-01	13.2718	14.381388	0.000273	2.728031	0.924282	0.021845
 333	1.6600e-01	13.3039	14.308571	-0.000182	-1.818687	-0.616188	-0.014563
 334	1.6650e-01	13.3617	14.672657	0.000909	9.093436	3.080939	0.072817
 335	1.6700e-01	13.3986	15.109559	0.001091	10.912123	3.697127	0.087381
 336	1.6750e-01	13.4050	14.891108	-0.000546	-5.456061	-1.848564	-0.043690
 337	1.6800e-01	13.4515	14.818291	-0.000182	-1.818687	-0.616188	-0.014563
 338	1.6850e-01	13.4852	15.182377	0.000909	9.093436	3.080939	0.072817
 339	1.6900e-01	13.5397	14.781882	-0.001000	-10.002779	-3.389033	-0.080099
 340	1.6950e-01	13.6007	15.291602	0.001273	12.730810	4.313315	0.101944
 341	1.7000e-01	13.6376	15.218785	-0.000182	-1.818687	-0.616188	-0.014563
 342	1.7050e-01	13.7001	15.036742	-0.000455	-4.546718	-1.540470	-0.036409
 343	1.7100e-01	13.7290	15.437237	0.001000	10.002779	3.389033	0.080099
 344	1.7150e-01	13.7435	15.473645	0.000091	0.909344	0.308094	0.007282
 345	1.7200e-01	13.7723	15.510054	0.000091	0.909344	0.308094	0.007282
 346	1.7250e-01	13.8365	15.837731	0.000818	8.184092	2.772845	0.065535
 347	1.7300e-01	13.8750	15.874140	0.000091	0.909344	0.308094	0.007282
 348	1.7350e-01	13.9392	15.983365	0.000273	2.728031	0.924282	0.021845
 349	1.7400e-01	13.9793	15.910548	-0.000182	-1.818687	-0.616188	-0.014563
 350	1.7450e-01	13.9825	16.456677	0.001364	13.640154	4.621409	0.109226
 351	1.7500e-01	14.0354	16.092591	-0.000909	-9.093436	-3.080939	-0.072817
 352	1.7550e-01	14.0643	16.201817	0.000273	2.728031	0.924282	0.021845
 353	1.7600e-01	14.0996	16.602311	0.001000	10.002779	3.389033	0.080099
 354	1.7650e-01	14.1381	16.638720	0.000091	0.909344	0.308094	0.007282
 355	1.7700e-01	14.1926	16.929988	0.000727	7.274749	2.464752	0.058254
 356	1.7750e-01	14.2520	16.638720	-0.000727	-7.274749	-2.464752	-0.058254
 357	1.7800e-01	14.2616	16.711537	0.000182	1.818687	0.616188	0.014563
 358	1.7850e-01	14.3049	16.857171	0.000364	3.637374	1.232376	0.029127
 359	1.7900e-01	14.3499	16.747945	-0.000273	-2.728031	-0.924282	-0.021845
 360	1.7950e-01	14.3948	16.929988	0.000455	4.546718	1.540470	0.036409
 361	1.8000e-01	14.4269	17.403300	0.001182	11.821466	4.005221	0.094662
 362	1.8050e-01	14.4590	17.512526	0.000273	2.728031	0.924282	0.021845
 363	1.8100e-01	14.5135	17.439708	-0.000182	-1.818687	-0.616188	-0.014563
 364	1.8150e-01	14.5696	17.366891	-0.000182	-1.818687	-0.616188	-0.014563
 365	1.8200e-01	14.6001	17.767386	0.001000	10.002779	3.389033	0.080099
 366	1.8250e-01	14.6049	17.658160	-0.000273	-2.728031	-0.924282	-0.021845
 367	1.8300e-01	14.6450	17.985837	0.000818	8.184092	2.772845	0.065535
 368	1.8350e-01	14.6868	17.840203	-0.000364	-3.637374	-1.232376	-0.029127
 369	1.8400e-01	14.7285	17.985837	0.000364	3.637374	1.232376	0.029127
 370	1.8450e-01	14.7798	18.095063	0.000273	2.728031	0.924282	0.021845
 371	1.8500e-01	14.8424	18.058654	-0.000091	-0.909344	-0.308094	-0.007282
 372	1.8550e-01	14.8648	18.604783	0.001364	13.640154	4.621409	0.109226
 373	1.8600e-01	14.8889	18.750417	0.000364	3.637374	1.232376	0.029127
 374	1.8650e-01	14.9418	18.422740	-0.000818	-8.184092	-2.772845	-0.065535
 375	1.8700e-01	15.0060	18.641191	0.000546	5.456061	1.848564	0.043690
 376	1.8750e-01	15.0509	18.568374	-0.000182	-1.818687	-0.616188	-0.014563
 377	1.8800e-01	15.0798	18.786826	0.000546	5.456061	1.848564	0.043690
 378	1.8850e-01	15.0974	19.150911	0.000909	9.093436	3.080939	0.072817
 379	1.8900e-01	15.1488	19.223729	0.000182	1.818687	0.616188	0.014563
 380	1.8950e-01	15.2113	18.714009	-0.001273	-12.730810	-4.313315	-0.101944
 381	1.9000e-01	15.2306	19.078094	0.000909	9.093436	3.080939	0.072817
 382	1.9050e-01	15.2835	19.150911	0.000182	1.818687	0.616188	0.014563
 383	1.9100e-01	15.3060	19.332954	0.000455	4.546718	1.540470	0.036409
 384	1.9150e-01	15.3381	19.332954	0.000000	0.000000	0.000000	0.000000
 385	1.9200e-01	15.3958	19.514997	0.000455	4.546718	1.540470	0.036409
 386	1.9250e-01	15.4327	19.769857	0.000637	6.365405	2.156658	0.050972
 387	1.9300e-01	15.4825	19.842674	0.000182	1.818687	0.616188	0.014563
 388	1.9350e-01	15.5081	19.951900	0.000273	2.728031	0.924282	0.021845
 389	1.9400e-01	15.5595	20.133943	0.000455	4.546718	1.540470	0.036409
 390	1.9450e-01	15.5996	20.024717	-0.000273	-2.728031	-0.924282	-0.021845
 391	1.9500e-01	15.6445	20.170352	0.000364	3.637374	1.232376	0.029127
 392	1.9550e-01	15.6701	20.461620	0.000727	7.274749	2.464752	0.058254
 393	1.9600e-01	15.7119	20.534437	0.000182	1.818687	0.616188	0.014563
 394	1.9650e-01	15.7616	20.461620	-0.000182	-1.818687	-0.616188	-0.014563
 395	1.9700e-01	15.8049	20.388803	-0.000182	-1.818687	-0.616188	-0.014563
 396	1.9750e-01	15.8482	20.243169	-0.000364	-3.637374	-1.232376	-0.029127
 397	1.9800e-01	15.8803	21.189792	0.002364	23.642933	8.010442	0.189325
 398	1.9850e-01	15.9076	20.862115	-0.000818	-8.184092	-2.772845	-0.065535
 399	1.9900e-01	15.9509	20.461620	-0.001000	-10.002779	-3.389033	-0.080099
 400	1.9950e-01	15.9926	21.153383	0.001728	17.277528	5.853785	0.138353
 401	2.0000e-01	16.0263	21.517469	0.000909	9.093436	3.080939	0.072817
 402	2.0050e-01	16.0680	21.299018	-0.000546	-5.456061	-1.848564	-0.043690
 403	2.0100e-01	16.1161	21.444652	0.000364	3.637374	1.232376	0.029127
 404	2.0150e-01	16.1434	21.226200	-0.000546	-5.456061	-1.848564	-0.043690
 405	2.0200e-01	16.1739	21.371835	0.000364	3.637374	1.232376	0.029127
 406	2.0250e-01	16.2380	21.590286	0.000546	5.456061	1.848564	0.043690
 407	2.0300e-01	16.2589	21.845146	0.000637	6.365405	2.156658	0.050972
 408	2.0350e-01	16.2942	21.917963	0.000182	1.818687	0.616188	0.014563
 409	2.0400e-01	16.3423	22.172823	0.000637	6.365405	2.156658	0.050972
 410	2.0450e-01	16.3937	22.282049	0.000273	2.728031	0.924282	0.021845
 411	2.0500e-01	16.4434	22.245641	-0.000091	-0.909344	-0.308094	-0.007282
 412	2.0550e-01	16.4755	22.318458	0.000182	1.818687	0.616188	0.014563
 413	2.0600e-01	16.4931	22.100006	-0.000546	-5.456061	-1.848564	-0.043690
 414	2.0650e-01	16.5525	22.573318	0.001182	11.821466	4.005221	0.094662
 415	2.0700e-01	16.5846	22.536909	-0.000091	-0.909344	-0.308094	-0.007282
 416	2.0750e-01	16.6295	22.536909	0.000000	0.000000	0.000000	0.000000
 417	2.0800e-01	16.6840	22.318458	-0.000546	-5.456061	-1.848564	-0.043690
 418	2.0850e-01	16.7289	23.046629	0.001819	18.186871	6.161879	0.145634
 419	2.0900e-01	16.7402	23.010221	-0.000091	-0.909344	-0.308094	-0.007282
 420	2.0950e-01	16.7915	22.937403	-0.000182	-1.818687	-0.616188	-0.014563
 421	2.1000e-01	16.8428	23.374306	0.001091	10.912123	3.697127	0.087381
 422	2.1050e-01	16.8717	23.447124	0.000182	1.818687	0.616188	0.014563
 423	2.1100e-01	16.9086	23.192264	-0.000637	-6.365405	-2.156658	-0.050972
 424	2.1150e-01	16.9583	23.374306	0.000455	4.546718	1.540470	0.036409
 425	2.1200e-01	16.9792	23.884026	0.001273	12.730810	4.313315	0.101944
 426	2.1250e-01	17.0257	23.884026	0.000000	0.000000	0.000000	0.000000
 427	2.1300e-01	17.0578	23.629166	-0.000637	-6.365405	-2.156658	-0.050972
 428	2.1350e-01	17.0883	23.920435	0.000727	7.274749	2.464752	0.058254
 429	2.1400e-01	17.1509	23.556349	-0.000909	-9.093436	-3.080939	-0.072817
 430	2.1450e-01	17.2006	23.774801	0.000546	5.456061	1.848564	0.043690
 431	2.1500e-01	17.2375	23.956844	0.000455	4.546718	1.540470	0.036409
 432	2.1550e-01	17.2760	24.029661	0.000182	1.818687	0.616188	0.014563
 433	2.1600e-01	17.3177	24.575789	0.001364	13.640154	4.621409	0.109226
 434	2.1650e-01	17.3257	24.138887	-0.001091	-10.912123	-3.697127	-0.087381
 435	2.1700e-01	17.3819	24.612198	0.001182	11.821466	4.005221	0.094662
 436	2.1750e-01	17.4268	24.430155	-0.000455	-4.546718	-1.540470	-0.036409
 437	2.1800e-01	17.4797	24.539381	0.000273	2.728031	0.924282	0.021845
 438	2.1850e-01	17.5182	24.757832	0.000546	5.456061	1.848564	0.043690
 439	2.1900e-01	17.5503	24.466564	-0.000727	-7.274749	-2.464752	-0.058254
 440	2.1950e-01	17.5920	25.158327	0.001728	17.277528	5.853785	0.138353
 441	2.2000e-01	17.6097	25.303961	0.000364	3.637374	1.232376	0.029127
 442	2.2050e-01	17.6738	25.121918	-0.000455	-4.546718	-1.540470	-0.036409
 443	2.2100e-01	17.7332	24.976284	-0.000364	-3.637374	-1.232376	-0.029127
 444	2.2150e-01	17.7605	25.486004	0.001273	12.730810	4.313315	0.101944
 445	2.2200e-01	17.7877	25.267552	-0.000546	-5.456061	-1.848564	-0.043690
 446	2.2250e-01	17.8375	25.522412	0.000637	6.365405	2.156658	0.050972
 447	2.2300e-01	17.8712	25.158327	-0.000909	-9.093436	-3.080939	-0.072817
 448	2.2350e-01	17.9289	25.740864	0.001455	14.549497	4.929503	0.116507
 449	2.2400e-01	17.9626	25.813681	0.000182	1.818687	0.616188	0.014563
 450	2.2450e-01	17.9883	25.704455	-0.000273	-2.728031	-0.924282	-0.021845
 451	2.2500e-01	18.0460	25.922907	0.000546	5.456061	1.848564	0.043690
 452	2.2550e-01	18.0621	26.104950	0.000455	4.546718	1.540470	0.036409
 453	2.2600e-01	18.1054	25.959315	-0.000364	-3.637374	-1.232376	-0.029127
 454	2.2650e-01	18.1407	26.214175	0.000637	6.365405	2.156658	0.050972
 455	2.2700e-01	18.1776	26.250584	0.000091	0.909344	0.308094	0.007282
 456	2.2750e-01	18.2417	26.651078	0.001000	10.002779	3.389033	0.080099
 457	2.2800e-01	18.2850	26.578261	-0.000182	-1.818687	-0.616188	-0.014563
 458	2.2850e-01	18.3011	26.396218	-0.000455	-4.546718	-1.540470	-0.036409
 459	2.2900e-01	18.3348	26.687487	0.000727	7.274749	2.464752	0.058254
 460	2.2950e-01	18.3829	26.905938	0.000546	5.456061	1.848564	0.043690
 461	2.3000e-01	18.4278	26.978756	0.000182	1.818687	0.616188	0.014563
 462	2.3050e-01	18.4647	26.978756	0.000000	0.000000	0.000000	0.000000
 463	2.3100e-01	18.4872	27.051573	0.000182	1.818687	0.616188	0.014563
 464	2.3150e-01	18.5417	27.087981	0.000091	0.909344	0.308094	0.007282
 465	2.3200e-01	18.6091	27.197207	0.000273	2.728031	0.924282	0.021845
 466	2.3250e-01	18.6444	27.342841	0.000364	3.637374	1.232376	0.029127
 467	2.3300e-01	18.6556	27.087981	-0.000637	-6.365405	-2.156658	-0.050972
 468	2.3350e-01	18.7166	27.415658	0.000818	8.184092	2.772845	0.065535
 469	2.3400e-01	18.7583	27.706927	0.000727	7.274749	2.464752	0.058254
 470	2.3450e-01	18.7888	27.743336	0.000091	0.909344	0.308094	0.007282
 471	2.3500e-01	18.8321	28.143830	0.001000	10.002779	3.389033	0.080099
 472	2.3550e-01	18.8770	27.415658	-0.001819	-18.186871	-6.161879	-0.145634
 473	2.3600e-01	18.9027	27.961787	0.001364	13.640154	4.621409	0.109226
 474	2.3650e-01	18.9428	28.325873	0.000909	9.093436	3.080939	0.072817
 475	2.3700e-01	18.9925	28.143830	-0.000455	-4.546718	-1.540470	-0.036409
 476	2.3750e-01	19.0278	28.289464	0.000364	3.637374	1.232376	0.029127
 477	2.3800e-01	19.0679	28.872002	0.001455	14.549497	4.929503	0.116507
 478	2.3850e-01	19.1080	28.216647	-0.001637	-16.368184	-5.545691	-0.131071
 479	2.3900e-01	19.1241	28.908410	0.001728	17.277528	5.853785	0.138353
 480	2.3950e-01	19.1834	28.726367	-0.000455	-4.546718	-1.540470	-0.036409
 481	2.4000e-01	19.2219	28.944819	0.000546	5.456061	1.848564	0.043690
 482	2.4050e-01	19.2540	28.799184	-0.000364	-3.637374	-1.232376	-0.029127
 483	2.4100e-01	19.3182	29.054044	0.000637	6.365405	2.156658	0.050972
 484	2.4150e-01	19.3390	28.689959	-0.000909	-9.093436	-3.080939	-0.072817
 485	2.4200e-01	19.3936	28.762776	0.000182	1.818687	0.616188	0.014563
 486	2.4250e-01	19.4064	29.017636	0.000637	6.365405	2.156658	0.050972
 487	2.4300e-01	19.4658	29.563764	0.001364	13.640154	4.621409	0.109226
 488	2.4350e-01	19.5187	29.090453	-0.001182	-11.821466	-4.005221	-0.094662
 489	2.4400e-01	19.5460	29.090453	0.000000	0.000000	0.000000	0.000000
 490	2.4450e-01	19.5973	29.855033	0.001910	19.096215	6.469973	0.152916
 491	2.4500e-01	19.6422	29.563764	-0.000727	-7.274749	-2.464752	-0.058254
 492	2.4550e-01	19.6631	29.891442	0.000818	8.184092	2.772845	0.065535
 493	2.4600e-01	19.7048	30.291936	0.001000	10.002779	3.389033	0.080099
 494	2.4650e-01	19.7545	30.000667	-0.000727	-7.274749	-2.464752	-0.058254
 495	2.4700e-01	19.8026	30.401162	0.001000	10.002779	3.389033	0.080099
 496	2.4750e-01	19.8139	30.291936	-0.000273	-2.728031	-0.924282	-0.021845
 497	2.4800e-01	19.8492	30.146302	-0.000364	-3.637374	-1.232376	-0.029127
 498	2.4850e-01	19.9182	30.473979	0.000818	8.184092	2.772845	0.065535
 499	2.4900e-01	19.9422	30.656022	0.000455	4.546718	1.540470	0.036409
 500	2.4950e-01	19.9663	30.546796	-0.000273	-2.728031	-0.924282	-0.021845
 501	2.5000e-01	20.0240	30.401162	-0.000364	-3.637374	-1.232376	-0.029127
 502	2.5050e-01	19.9711	30.619613	-0.000546	-5.456061	-1.848564	0.043690
 503	2.5100e-01	19.9518	30.364753	0.000637	6.365405	2.156658	-0.050972
 504	2.5150e-01	19.8989	30.328345	0.000091	0.909344	0.308094	-0.007282
 505	2.5200e-01	19.8764	30.473979	-0.000364	-3.637374	-1.232376	0.029127
 506	2.5250e-01	19.8219	30.182710	0.000727	7.274749	2.464752	-0.058254
 507	2.5300e-01	19.7962	30.255527	-0.000182	-1.818687	-0.616188	0.014563
 508	2.5350e-01	19.7433	29.672990	0.001455	14.549497	4.929503	-0.116507
 509	2.5400e-01	19.7192	29.927850	-0.000637	-6.365405	-2.156658	0.050972
 510	2.5450e-01	19.6535	29.927850	-0.000000	-0.000000	-0.000000	0.000000
 511	2.5500e-01	19.6166	29.527356	0.001000	10.002779	3.389033	-0.080099
 512	2.5550e-01	19.5845	30.109893	-0.001455	-14.549497	-4.929503	0.116507
 513	2.5600e-01	19.5476	29.745807	0.000909	9.093436	3.080939	-0.072817
 514	2.5650e-01	19.5123	29.709399	0.000091	0.909344	0.308094	-0.007282
 515	2.5700e-01	19.4626	29.709399	-0.000000	-0.000000	-0.000000	0.000000
 516	2.5750e-01	19.4241	29.527356	0.000455	4.546718	1.540470	-0.036409
 517	2.5800e-01	19.4032	29.345313	0.000455	4.546718	1.540470	-0.036409
 518	2.5850e-01	19.3663	29.090453	0.000637	6.365405	2.156658	-0.050972
 519	2.5900e-01	19.3134	29.308904	-0.000546	-5.456061	-1.848564	0.043690
 520	2.5950e-01	19.2620	29.017636	0.000727	7.274749	2.464752	-0.058254
 521	2.6000e-01	19.2396	29.308904	-0.000727	-7.274749	-2.464752	0.058254
 522	2.6050e-01	19.1818	28.799184	0.001273	12.730810	4.313315	-0.101944
 523	2.6100e-01	19.1674	29.490947	-0.001728	-17.277528	-5.853785	0.138353
 524	2.6150e-01	19.1225	29.054044	0.001091	10.912123	3.697127	-0.087381
 525	2.6200e-01	19.0775	28.544324	0.001273	12.730810	4.313315	-0.101944
 526	2.6250e-01	19.0166	28.799184	-0.000637	-6.365405	-2.156658	0.050972
 527	2.6300e-01	19.0021	28.507916	0.000727	7.274749	2.464752	-0.058254
 528	2.6350e-01	18.9556	28.762776	-0.000637	-6.365405	-2.156658	0.050972
 529	2.6400e-01	18.8930	28.617141	0.000364	3.637374	1.232376	-0.029127
 530	2.6450e-01	18.8562	28.325873	0.000727	7.274749	2.464752	-0.058254
 531	2.6500e-01	18.8193	28.253056	0.000182	1.818687	0.616188	-0.014563
 532	2.6550e-01	18.7856	28.398690	-0.000364	-3.637374	-1.232376	0.029127
 533	2.6600e-01	18.7519	28.325873	0.000182	1.818687	0.616188	-0.014563
 534	2.6650e-01	18.7102	28.071013	0.000637	6.365405	2.156658	-0.050972
 535	2.6700e-01	18.6701	28.034604	0.000091	0.909344	0.308094	-0.007282
 536	2.6750e-01	18.6187	27.925379	0.000273	2.728031	0.924282	-0.021845
 537	2.6800e-01	18.5898	27.888970	0.000091	0.909344	0.308094	-0.007282
 538	2.6850e-01	18.5530	28.071013	-0.000455	-4.546718	-1.540470	0.036409
 539	2.6900e-01	18.5032	27.561293	0.001273	12.730810	4.313315	-0.101944
 540	2.6950e-01	18.4631	27.634110	-0.000182	-1.818687	-0.616188	0.014563
 541	2.7000e-01	18.4230	27.233616	0.001000	10.002779	3.389033	-0.080099
 542	2.7050e-01	18.3925	27.561293	-0.000818	-8.184092	-2.772845	0.065535
 543	2.7100e-01	18.3412	27.634110	-0.000182	-1.818687	-0.616188	0.014563
 544	2.7150e-01	18.2995	27.160798	0.001182	11.821466	4.005221	-0.094662
 545	2.7200e-01	18.2610	27.379250	-0.000546	-5.456061	-1.848564	0.043690
 546	2.7250e-01	18.2337	26.942347	0.001091	10.912123	3.697127	-0.087381
 547	2.7300e-01	18.1984	27.015164	-0.000182	-1.818687	-0.616188	0.014563
 548	2.7350e-01	18.1615	27.124390	-0.000273	-2.728031	-0.924282	0.021845
 549	2.7400e-01	18.0813	26.541853	0.001455	14.549497	4.929503	-0.116507
 550	2.7450e-01	18.0621	26.942347	-0.001000	-10.002779	-3.389033	0.080099
 551	2.7500e-01	18.0316	26.286993	0.001637	16.368184	5.545691	-0.131071
 552	2.7550e-01	17.9818	26.250584	0.000091	0.909344	0.308094	-0.007282
 553	2.7600e-01	17.9337	26.760304	-0.001273	-12.730810	-4.313315	0.101944
 554	2.7650e-01	17.9225	26.505444	0.000637	6.365405	2.156658	-0.050972
 555	2.7700e-01	17.8728	26.250584	0.000637	6.365405	2.156658	-0.050972
 556	2.7750e-01	17.8070	26.541853	-0.000727	-7.274749	-2.464752	0.058254
 557	2.7800e-01	17.7829	26.359810	0.000455	4.546718	1.540470	-0.036409
 558	2.7850e-01	17.7476	26.104950	0.000637	6.365405	2.156658	-0.050972
 559	2.7900e-01	17.6979	26.068541	0.000091	0.909344	0.308094	-0.007282
 560	2.7950e-01	17.6562	25.959315	0.000273	2.728031	0.924282	-0.021845
 561	2.8000e-01	17.6145	25.813681	0.000364	3.637374	1.232376	-0.029127
 562	2.8050e-01	17.6081	26.177767	-0.000909	-9.093436	-3.080939	0.072817
 563	2.8100e-01	17.5391	25.922907	0.000637	6.365405	2.156658	-0.050972
 564	2.8150e-01	17.5102	25.668047	0.000637	6.365405	2.156658	-0.050972
 565	2.8200e-01	17.4877	25.922907	-0.000637	-6.365405	-2.156658	0.050972
 566	2.8250e-01	17.4188	25.449595	0.001182	11.821466	4.005221	-0.094662
 567	2.8300e-01	17.3738	25.777272	-0.000818	-8.184092	-2.772845	0.065535
 568	2.8350e-01	17.3610	25.194735	0.001455	14.549497	4.929503	-0.116507
 569	2.8400e-01	17.3097	25.413187	-0.000546	-5.456061	-1.848564	0.043690
 570	2.8450e-01	17.2567	25.231144	0.000455	4.546718	1.540470	-0.036409
 571	2.8500e-01	17.2070	25.121918	0.000273	2.728031	0.924282	-0.021845
 572	2.8550e-01	17.1669	24.903467	0.000546	5.456061	1.848564	-0.043690
 573	2.8600e-01	17.1444	24.575789	0.000818	8.184092	2.772845	-0.065535
 574	2.8650e-01	17.1156	24.685015	-0.000273	-2.728031	-0.924282	0.021845
 575	2.8700e-01	17.0626	24.648607	0.000091	0.909344	0.308094	-0.007282
 576	2.8750e-01	17.0193	25.012692	-0.000909	-9.093436	-3.080939	0.072817
 577	2.8800e-01	16.9728	24.867058	0.000364	3.637374	1.232376	-0.029127
 578	2.8850e-01	16.9423	24.502972	0.000909	9.093436	3.080939	-0.072817
 579	2.8900e-01	16.9070	24.393747	0.000273	2.728031	0.924282	-0.021845
 580	2.8950e-01	16.8701	24.284521	0.000273	2.728031	0.924282	-0.021845
 581	2.9000e-01	16.8220	24.393747	-0.000273	-2.728031	-0.924282	0.021845
 582	2.9050e-01	16.7947	24.175295	0.000546	5.456061	1.848564	-0.043690
 583	2.9100e-01	16.7450	23.956844	0.000546	5.456061	1.848564	-0.043690
 584	2.9150e-01	16.7193	24.138887	-0.000455	-4.546718	-1.540470	0.036409
 585	2.9200e-01	16.6535	23.519941	0.001546	15.458841	5.237597	-0.123789
 586	2.9250e-01	16.6391	23.884026	-0.000909	-9.093436	-3.080939	0.072817
 587	2.9300e-01	16.5814	23.811209	0.000182	1.818687	0.616188	-0.014563
 588	2.9350e-01	16.5428	23.738392	0.000182	1.818687	0.616188	-0.014563
 589	2.9400e-01	16.5124	23.301489	0.001091	10.912123	3.697127	-0.087381
 590	2.9450e-01	16.4771	23.337898	-0.000091	-0.909344	-0.308094	0.007282
 591	2.9500e-01	16.4241	23.337898	-0.000000	-0.000000	-0.000000	0.000000
 592	2.9550e-01	16.3744	23.155855	0.000455	4.546718	1.540470	-0.036409
 593	2.9600e-01	16.3519	23.046629	0.000273	2.728031	0.924282	-0.021845
 594	2.9650e-01	16.3247	23.119446	-0.000182	-1.818687	-0.616188	0.014563
 595	2.9700e-01	16.2653	23.046629	0.000182	1.818687	0.616188	-0.014563
 596	2.9750e-01	16.2284	23.010221	0.000091	0.909344	0.308094	-0.007282
 597	2.9800e-01	16.1755	23.010221	-0.000000	-0.000000	-0.000000	0.000000
 598	2.9850e-01	16.1514	22.718952	0.000727	7.274749	2.464752	-0.058254
 599	2.9900e-01	16.1129	22.864586	-0.000364	-3.637374	-1.232376	0.029127
 600	2.9950e-01	16.0648	22.427683	0.001091	10.912123	3.697127	-0.087381
 601	3.0000e-01	16.0327	22.536909	-0.000273	-2.728031	-0.924282	0.021845
 602	3.0050e-01	15.9990	22.755361	-0.000546	-5.456061	-1.848564	0.043690
 603	3.0100e-01	15.9525	22.464092	0.000727	7.274749	2.464752	-0.058254
 604	3.0150e-01	15.9076	21.845146	0.001546	15.458841	5.237597	-0.123789
 605	3.0200e-01	15.8578	22.209232	-0.000909	-9.093436	-3.080939	0.072817
 606	3.0250e-01	15.8370	22.209232	-0.000000	-0.000000	-0.000000	0.000000
 607	3.0300e-01	15.7905	21.990780	0.000546	5.456061	1.848564	-0.043690
 608	3.0350e-01	15.7648	21.699512	0.000727	7.274749	2.464752	-0.058254
 609	3.0400e-01	15.7086	21.917963	-0.000546	-5.456061	-1.848564	0.043690
 610	3.0450e-01	15.6718	21.990780	-0.000182	-1.818687	-0.616188	0.014563
 611	3.0500e-01	15.6316	21.408243	0.001455	14.549497	4.929503	-0.116507
 612	3.0550e-01	15.5835	21.735920	-0.000818	-8.184092	-2.772845	0.065535
 613	3.0600e-01	15.5498	21.444652	0.000727	7.274749	2.464752	-0.058254
 614	3.0650e-01	15.5193	21.080566	0.000909	9.093436	3.080939	-0.072817
 615	3.0700e-01	15.4680	21.189792	-0.000273	-2.728031	-0.924282	0.021845
 616	3.0750e-01	15.4151	21.080566	0.000273	2.728031	0.924282	-0.021845
 617	3.0800e-01	15.3766	21.335426	-0.000637	-6.365405	-2.156658	0.050972
 618	3.0850e-01	15.3477	20.934932	0.001000	10.002779	3.389033	-0.080099
 619	3.0900e-01	15.3092	21.116975	-0.000455	-4.546718	-1.540470	0.036409
 620	3.0950e-01	15.2530	20.971340	0.000364	3.637374	1.232376	-0.029127
 621	3.1000e-01	15.2161	20.607255	0.000909	9.093436	3.080939	-0.072817
 622	3.1050e-01	15.1825	20.716480	-0.000273	-2.728031	-0.924282	0.021845
 623	3.1100e-01	15.1568	20.570846	0.000364	3.637374	1.232376	-0.029127
 624	3.1150e-01	15.1055	20.388803	0.000455	4.546718	1.540470	-0.036409
 625	3.1200e-01	15.0670	20.206760	0.000455	4.546718	1.540470	-0.036409
 626	3.1250e-01	15.0156	20.097534	0.000273	2.728031	0.924282	-0.021845
 627	3.1300e-01	14.9707	19.879083	0.000546	5.456061	1.848564	-0.043690
 628	3.1350e-01	14.9226	20.133943	-0.000637	-6.365405	-2.156658	0.050972
 629	3.1400e-01	14.8841	20.170352	-0.000091	-0.909344	-0.308094	0.007282
 630	3.1450e-01	14.8488	19.769857	0.001000	10.002779	3.389033	-0.080099
 631	3.1500e-01	14.8231	19.879083	-0.000273	-2.728031	-0.924282	0.021845
 632	3.1550e-01	14.7622	19.806266	0.000182	1.818687	0.616188	-0.014563
 633	3.1600e-01	14.7429	19.551406	0.000637	6.365405	2.156658	-0.050972
 634	3.1650e-01	14.7172	19.551406	-0.000000	-0.000000	-0.000000	0.000000
 635	3.1700e-01	14.6627	19.478589	0.000182	1.818687	0.616188	-0.014563
 636	3.1750e-01	14.6210	19.187320	0.000727	7.274749	2.464752	-0.058254
 637	3.1800e-01	14.5841	19.114503	0.000182	1.818687	0.616188	-0.014563
 638	3.1850e-01	14.5440	19.041686	0.000182	1.818687	0.616188	-0.014563
 639	3.1900e-01	14.4991	19.078094	-0.000091	-0.909344	-0.308094	0.007282
 640	3.1950e-01	14.4541	18.896051	0.000455	4.546718	1.540470	-0.036409
 641	3.2000e-01	14.4253	18.932460	-0.000091	-0.909344	-0.308094	0.007282
 642	3.2050e-01	14.3964	18.823234	0.000273	2.728031	0.924282	-0.021845
 643	3.2100e-01	14.3547	18.495557	0.000818	8.184092	2.772845	-0.065535
 644	3.2150e-01	14.3017	18.459149	0.000091	0.909344	0.308094	-0.007282
 645	3.2200e-01	14.2568	18.714009	-0.000637	-6.365405	-2.156658	0.050972
 646	3.2250e-01	14.2263	18.386331	0.000818	8.184092	2.772845	-0.065535
 647	3.2300e-01	14.1830	18.459149	-0.000182	-1.818687	-0.616188	0.014563
 648	3.2350e-01	14.1413	18.022246	0.001091	10.912123	3.697127	-0.087381
 649	3.2400e-01	14.1237	18.095063	-0.000182	-1.818687	-0.616188	0.014563
 650	3.2450e-01	14.0611	18.095063	-0.000000	-0.000000	-0.000000	0.000000
 651	3.2500e-01	14.0210	17.767386	0.000818	8.184092	2.772845	-0.065535
 652	3.2550e-01	14.0098	17.913020	-0.000364	-3.637374	-1.232376	0.029127
 653	3.2600e-01	13.9584	17.585343	0.000818	8.184092	2.772845	-0.065535
 654	3.2650e-01	13.9039	17.621751	-0.000091	-0.909344	-0.308094	0.007282
 655	3.2700e-01	13.8670	17.512526	0.000273	2.728031	0.924282	-0.021845
 656	3.2750e-01	13.8349	17.330483	0.000455	4.546718	1.540470	-0.036409
 657	3.2800e-01	13.7675	17.366891	-0.000091	-0.909344	-0.308094	0.007282
 658	3.2850e-01	13.7370	17.330483	0.000091	0.909344	0.308094	-0.007282
 659	3.2900e-01	13.7082	16.929988	0.001000	10.002779	3.389033	-0.080099
 660	3.2950e-01	13.6665	17.039214	-0.000273	-2.728031	-0.924282	0.021845
 661	3.3000e-01	13.6135	17.148440	-0.000273	-2.728031	-0.924282	0.021845
 662	3.3050e-01	13.5782	17.148440	-0.000000	-0.000000	-0.000000	0.000000
 663	3.3100e-01	13.5558	16.711537	0.001091	10.912123	3.697127	-0.087381
 664	3.3150e-01	13.5044	16.675128	0.000091	0.909344	0.308094	-0.007282
 665	3.3200e-01	13.4691	16.201817	0.001182	11.821466	4.005221	-0.094662
 666	3.3250e-01	13.4435	16.311042	-0.000273	-2.728031	-0.924282	0.021845
 667	3.3300e-01	13.3986	15.983365	0.000818	8.184092	2.772845	-0.065535
 668	3.3350e-01	13.3296	16.238225	-0.000637	-6.365405	-2.156658	0.050972
 669	3.3400e-01	13.2911	16.092591	0.000364	3.637374	1.232376	-0.029127
 670	3.3450e-01	13.2622	16.238225	-0.000364	-3.637374	-1.232376	0.029127
 671	3.3500e-01	13.2237	16.056182	0.000455	4.546718	1.540470	-0.036409
 672	3.3550e-01	13.1980	15.692097	0.000909	9.093436	3.080939	-0.072817
 673	3.3600e-01	13.1531	16.092591	-0.001000	-10.002779	-3.389033	0.080099
 674	3.3650e-01	13.1178	15.837731	0.000637	6.365405	2.156658	-0.050972
 675	3.3700e-01	13.0520	15.364419	0.001182	11.821466	4.005221	-0.094662
 676	3.3750e-01	13.0103	15.437237	-0.000182	-1.818687	-0.616188	0.014563
 677	3.3800e-01	12.9702	15.109559	0.000818	8.184092	2.772845	-0.065535
 678	3.3850e-01	12.9446	15.182377	-0.000182	-1.818687	-0.616188	0.014563
 679	3.3900e-01	12.9221	15.218785	-0.000091	-0.909344	-0.308094	0.007282
 680	3.3950e-01	12.8884	15.109559	0.000273	2.728031	0.924282	-0.021845
 681	3.4000e-01	12.8419	14.963925	0.000364	3.637374	1.232376	-0.029127
 682	3.4050e-01	12.7938	14.854699	0.000273	2.728031	0.924282	-0.021845
 683	3.4100e-01	12.7585	15.145968	-0.000727	-7.274749	-2.464752	0.058254
 684	3.4150e-01	12.7087	14.490614	0.001637	16.368184	5.545691	-0.131071
 685	3.4200e-01	12.6606	14.563431	-0.000182	-1.818687	-0.616188	0.014563
 686	3.4250e-01	12.6269	14.781882	-0.000546	-5.456061	-1.848564	0.043690
 687	3.4300e-01	12.5772	14.417796	0.000909	9.093436	3.080939	-0.072817
 688	3.4350e-01	12.5499	14.053711	0.000909	9.093436	3.080939	-0.072817
 689	3.4400e-01	12.5210	14.235754	-0.000455	-4.546718	-1.540470	0.036409
 690	3.4450e-01	12.4729	14.454205	-0.000546	-5.456061	-1.848564	0.043690
 691	3.4500e-01	12.4424	13.762442	0.001728	17.277528	5.853785	-0.138353
 692	3.4550e-01	12.3879	13.689625	0.000182	1.818687	0.616188	-0.014563
 693	3.4600e-01	12.3398	13.944485	-0.000637	-6.365405	-2.156658	0.050972
 694	3.4650e-01	12.2884	13.835259	0.000273	2.728031	0.924282	-0.021845
 695	3.4700e-01	12.2563	13.507582	0.000818	8.184092	2.772845	-0.065535
 696	3.4750e-01	12.2259	13.580399	-0.000182	-1.818687	-0.616188	0.014563
 697	3.4800e-01	12.2002	13.361948	0.000546	5.456061	1.848564	-0.043690
 698	3.4850e-01	12.1601	13.325539	0.000091	0.909344	0.308094	-0.007282
 699	3.4900e-01	12.1104	13.143496	0.000455	4.546718	1.540470	-0.036409
 700	3.4950e-01	12.0911	12.706593	0.001091	10.912123	3.697127	-0.087381
 701	3.5000e-01	12.0334	13.070679	-0.000909	-9.093436	-3.080939	0.072817
 702	3.5050e-01	11.9756	12.633776	0.001091	10.912123	3.697127	-0.087381
 703	3.5100e-01	11.9467	12.779411	-0.000364	-3.637374	-1.232376	0.029127
 704	3.5150e-01	11.9018	12.852228	-0.000182	-1.818687	-0.616188	0.014563
 705	3.5200e-01	11.8681	12.524550	0.000818	8.184092	2.772845	-0.065535
 706	3.5250e-01	11.8104	12.670185	-0.000364	-3.637374	-1.232376	0.029127
 707	3.5300e-01	11.7927	12.779411	-0.000273	-2.728031	-0.924282	0.021845
 708	3.5350e-01	11.7526	12.233282	0.001364	13.640154	4.621409	-0.109226
 709	3.5400e-01	11.6949	12.451733	-0.000546	-5.456061	-1.848564	0.043690
 710	3.5450e-01	11.6612	12.233282	0.000546	5.456061	1.848564	-0.043690
 711	3.5500e-01	11.6179	11.869196	0.000909	9.093436	3.080939	-0.072817
 712	3.5550e-01	11.5745	12.160465	-0.000727	-7.274749	-2.464752	0.058254
 713	3.5600e-01	11.5216	11.614336	0.001364	13.640154	4.621409	-0.109226
 714	3.5650e-01	11.4991	12.087648	-0.001182	-11.821466	-4.005221	0.094662
 715	3.5700e-01	11.4751	11.395885	0.001728	17.277528	5.853785	-0.138353
 716	3.5750e-01	11.4350	10.849756	0.001364	13.640154	4.621409	-0.109226
 717	3.5800e-01	11.3884	11.177433	-0.000818	-8.184092	-2.772845	0.065535
 718	3.5850e-01	11.3499	11.468702	-0.000727	-7.274749	-2.464752	0.058254
 719	3.5900e-01	11.3211	11.250250	0.000546	5.456061	1.848564	-0.043690
 720	3.5950e-01	11.2633	10.958982	0.000727	7.274749	2.464752	-0.058254
 721	3.6000e-01	11.2312	10.776939	0.000455	4.546718	1.540470	-0.036409
 722	3.6050e-01	11.2040	10.522079	0.000637	6.365405	2.156658	-0.050972
 723	3.6100e-01	11.1382	10.704122	-0.000455	-4.546718	-1.540470	0.036409
 724	3.6150e-01	11.1173	10.558487	0.000364	3.637374	1.232376	-0.029127
 725	3.6200e-01	11.0917	10.667713	-0.000273	-2.728031	-0.924282	0.021845
 726	3.6250e-01	11.0371	10.157993	0.001273	12.730810	4.313315	-0.101944
 727	3.6300e-01	10.9970	10.485670	-0.000818	-8.184092	-2.772845	0.065535
 728	3.6350e-01	10.9633	10.230810	0.000637	6.365405	2.156658	-0.050972
 729	3.6400e-01	10.9136	9.866724	0.000909	9.093436	3.080939	-0.072817
 730	3.6450e-01	10.8623	10.157993	-0.000727	-7.274749	-2.464752	0.058254
 731	3.6500e-01	10.8109	9.684681	0.001182	11.821466	4.005221	-0.094662
 732	3.6550e-01	10.7949	10.194402	-0.001273	-12.730810	-4.313315	0.101944
 733	3.6600e-01	10.7692	9.575456	0.001546	15.458841	5.237597	-0.123789
 734	3.6650e-01	10.7179	9.611864	-0.000091	-0.909344	-0.308094	0.007282
 735	3.6700e-01	10.6313	9.866724	-0.000637	-6.365405	-2.156658	0.050972
 736	3.6750e-01	10.6152	9.357004	0.001273	12.730810	4.313315	-0.101944
 737	3.6800e-01	10.5815	9.502639	-0.000364	-3.637374	-1.232376	0.029127
 738	3.6850e-01	10.5478	9.174961	0.000818	8.184092	2.772845	-0.065535
 739	3.6900e-01	10.5366	8.992919	0.000455	4.546718	1.540470	-0.036409
 740	3.6950e-01	10.4740	8.847284	0.000364	3.637374	1.232376	-0.029127
 741	3.7000e-01	10.4275	8.738058	0.000273	2.728031	0.924282	-0.021845
 742	3.7050e-01	10.3842	8.774467	-0.000091	-0.909344	-0.308094	0.007282
 743	3.7100e-01	10.3441	8.920101	-0.000364	-3.637374	-1.232376	0.029127
 744	3.7150e-01	10.3136	8.592424	0.000818	8.184092	2.772845	-0.065535
 745	3.7200e-01	10.2623	8.337564	0.000637	6.365405	2.156658	-0.050972
 746	3.7250e-01	10.2061	8.191930	0.000364	3.637374	1.232376	-0.029127
 747	3.7300e-01	10.1708	8.446790	-0.000637	-6.365405	-2.156658	0.050972
 748	3.7350e-01	10.1436	8.556016	-0.000273	-2.728031	-0.924282	0.021845
 749	3.7400e-01	10.1019	7.937070	0.001546	15.458841	5.237597	-0.123789
 750	3.7450e-01	10.0377	8.264747	-0.000818	-8.184092	-2.772845	0.065535
 751	3.7500e-01	10.0088	7.609393	0.001637	16.368184	5.545691	-0.131071
 752	3.7550e-01	9.9719	7.718618	-0.000273	-2.728031	-0.924282	0.021845
 753	3.7600e-01	9.9495	7.827844	-0.000273	-2.728031	-0.924282	0.021845
 754	3.7650e-01	9.9158	7.500167	0.000818	8.184092	2.772845	-0.065535
 755	3.7700e-01	9.8789	6.881221	0.001546	15.458841	5.237597	-0.123789
 756	3.7750e-01	9.8500	7.318124	-0.001091	-10.912123	-3.697127	0.087381
 757	3.7800e-01	9.7938	6.735587	0.001455	14.549497	4.929503	-0.116507
 758	3.7850e-01	9.7634	7.136081	-0.001000	-10.002779	-3.389033	0.080099
 759	3.7900e-01	9.7265	7.026855	0.000273	2.728031	0.924282	-0.021845
 760	3.7950e-01	9.6831	6.917630	0.000273	2.728031	0.924282	-0.021845
 761	3.8000e-01	9.6286	7.281715	-0.000909	-9.093436	-3.080939	0.072817
 762	3.8050e-01	9.5773	6.444318	0.002091	20.914902	7.086161	-0.167479
 763	3.8100e-01	9.5436	6.917630	-0.001182	-11.821466	-4.005221	0.094662
 764	3.8150e-01	9.5131	6.444318	0.001182	11.821466	4.005221	-0.094662
 765	3.8200e-01	9.4586	6.007415	0.001091	10.912123	3.697127	-0.087381
 766	3.8250e-01	9.4136	6.116641	-0.000273	-2.728031	-0.924282	0.021845
 767	3.8300e-01	9.3687	6.007415	0.000273	2.728031	0.924282	-0.021845
 768	3.8350e-01	9.3414	5.788964	0.000546	5.456061	1.848564	-0.043690
 769	3.8400e-01	9.3302	5.716147	0.000182	1.818687	0.616188	-0.014563
 770	3.8450e-01	9.2741	5.643329	0.000182	1.818687	0.616188	-0.014563
 771	3.8500e-01	9.2259	5.606921	0.000091	0.909344	0.308094	-0.007282
 772	3.8550e-01	9.1794	5.679738	-0.000182	-1.818687	-0.616188	0.014563
 773	3.8600e-01	9.1489	5.424878	0.000637	6.365405	2.156658	-0.050972
 774	3.8650e-01	9.1185	5.279244	0.000364	3.637374	1.232376	-0.029127
 775	3.8700e-01	9.0671	5.133609	0.000364	3.637374	1.232376	-0.029127
 776	3.8750e-01	9.0575	5.097201	0.000091	0.909344	0.308094	-0.007282
 777	3.8800e-01	9.0142	4.842341	0.000637	6.365405	2.156658	-0.050972
 778	3.8850e-01	8.9500	5.097201	-0.000637	-6.365405	-2.156658	0.050972
 779	3.8900e-01	8.9211	5.170018	-0.000182	-1.818687	-0.616188	0.014563
 780	3.8950e-01	8.8762	4.587481	0.001455	14.549497	4.929503	-0.116507
 781	3.9000e-01	8.8249	4.223395	0.000909	9.093436	3.080939	-0.072817
 782	3.9050e-01	8.7768	4.405438	-0.000455	-4.546718	-1.540470	0.036409
 783	3.9100e-01	8.7463	4.077761	0.000818	8.184092	2.772845	-0.065535
 784	3.9150e-01	8.6965	4.186986	-0.000273	-2.728031	-0.924282	0.021845
 785	3.9200e-01	8.6613	4.551072	-0.000909	-9.093436	-3.080939	0.072817
 786	3.9250e-01	8.6292	3.640858	0.002273	22.733589	7.702349	-0.182043
 787	3.9300e-01	8.5955	3.786492	-0.000364	-3.637374	-1.232376	0.029127
 788	3.9350e-01	8.5570	3.677266	0.000273	2.728031	0.924282	-0.021845
 789	3.9400e-01	8.5105	4.041352	-0.000909	-9.093436	-3.080939	0.072817
 790	3.9450e-01	8.4639	3.822901	0.000546	5.456061	1.848564	-0.043690
 791	3.9500e-01	8.4399	3.640858	0.000455	4.546718	1.540470	-0.036409
 792	3.9550e-01	8.4126	3.131138	0.001273	12.730810	4.313315	-0.101944
 793	3.9600e-01	8.3613	2.985503	0.000364	3.637374	1.232376	-0.029127
 794	3.9650e-01	8.3067	3.094729	-0.000273	-2.728031	-0.924282	0.021845
 795	3.9700e-01	8.2506	2.803460	0.000727	7.274749	2.464752	-0.058254
 796	3.9750e-01	8.2249	2.585009	0.000546	5.456061	1.848564	-0.043690
 797	3.9800e-01	8.1832	2.657826	-0.000182	-1.818687	-0.616188	0.014563
 798	3.9850e-01	8.1495	2.184515	0.001182	11.821466	4.005221	-0.094662
 799	3.9900e-01	8.1014	2.548600	-0.000909	-9.093436	-3.080939	0.072817
 800	3.9950e-01	8.0869	2.038880	0.001273	12.730810	4.313315	-0.101944
 801	4.0000e-01	8.0484	2.512192	-0.001182	-11.821466	-4.005221	0.094662
 802	4.0050e-01	8.0035	2.257332	0.000637	6.365405	2.156658	-0.050972
 803	4.0100e-01	7.9426	2.075289	0.000455	4.546718	1.540470	-0.036409
 804	4.0150e-01	7.9008	1.638386	0.001091	10.912123	3.697127	-0.087381
 805	4.0200e-01	7.8559	2.002472	-0.000909	-9.093436	-3.080939	0.072817
 806	4.0250e-01	7.8335	1.274300	0.001819	18.186871	6.161879	-0.145634
 807	4.0300e-01	7.7821	1.638386	-0.000909	-9.093436	-3.080939	0.072817
 808	4.0350e-01	7.7452	1.092257	0.001364	13.640154	4.621409	-0.109226
 809	4.0400e-01	7.6746	1.237892	-0.000364	-3.637374	-1.232376	0.029127
 810	4.0450e-01	7.6538	1.128666	0.000273	2.728031	0.924282	-0.021845
 811	4.0500e-01	7.6329	1.019440	0.000273	2.728031	0.924282	-0.021845
 812	4.0550e-01	7.5720	0.946623	0.000182	1.818687	0.616188	-0.014563
 813	4.0600e-01	7.5287	0.946623	-0.000000	-0.000000	-0.000000	0.000000
 814	4.0650e-01	7.4805	0.800989	0.000364	3.637374	1.232376	-0.029127
 815	4.0700e-01	7.4773	0.218451	0.001455	14.549497	4.929503	-0.116507
 816	4.0750e-01	7.4260	0.582537	-0.000909	-9.093436	-3.080939	0.072817
 817	4.0800e-01	7.3682	0.145634	0.001091	10.912123	3.697127	-0.087381
 818	4.0850e-01	7.3394	0.618946	-0.001182	-11.821466	-4.005221	0.094662
 819	4.0900e-01	7.3426	-0.072817	-0.001728	-17.277528	-5.853785	-0.138353
 820	4.0950e-01	7.2720	0.291269	-0.000909	-9.093436	-3.080939	0.072817
 821	4.1000e-01	7.2303	-0.036409	0.000818	8.184092	2.772845	-0.065535
 822	4.1050e-01	7.1805	-0.618946	0.001455	14.549497	4.929503	-0.116507
 823	4.1100e-01	7.1420	-0.509720	-0.000273	-2.728031	-0.924282	0.021845
 824	4.1150e-01	7.1148	-0.655354	0.000364	3.637374	1.232376	-0.029127
 825	4.1200e-01	7.0634	-0.546129	-0.000273	-2.728031	-0.924282	0.021845
 826	4.1250e-01	7.0169	-0.655354	0.000273	2.728031	0.924282	-0.021845
 827	4.1300e-01	6.9736	-0.691763	0.000091	0.909344	0.308094	-0.007282
 828	4.1350e-01	6.9624	-1.310709	0.001546	15.458841	5.237597	-0.123789
 829	4.1400e-01	6.9255	-0.983032	-0.000818	-8.184092	-2.772845	0.065535
 830	4.1450e-01	6.8565	-1.601977	0.001546	15.458841	5.237597	-0.123789
 831	4.1500e-01	6.8372	-1.201483	-0.001000	-10.002779	-3.389033	0.080099
 832	4.1550e-01	6.8084	-1.529160	0.000818	8.184092	2.772845	-0.065535
 833	4.1600e-01	6.7442	-1.638386	0.000273	2.728031	0.924282	-0.021845
 834	4.1650e-01	6.7089	-1.711203	0.000182	1.818687	0.616188	-0.014563
 835	4.1700e-01	6.6640	-2.002472	0.000727	7.274749	2.464752	-0.058254
 836	4.1750e-01	6.6207	-1.711203	-0.000727	-7.274749	-2.464752	0.058254
 837	4.1800e-01	6.5854	-1.929655	0.000546	5.456061	1.848564	-0.043690
 838	4.1850e-01	6.5549	-1.820429	-0.000273	-2.728031	-0.924282	0.021845
 839	4.1900e-01	6.5084	-2.876278	0.002637	26.370964	8.934724	-0.211170
 840	4.1950e-01	6.5020	-2.730643	-0.000364	-3.637374	-1.232376	0.029127
 841	4.2000e-01	6.4474	-2.694235	-0.000091	-0.909344	-0.308094	0.007282
 842	4.2050e-01	6.3848	-2.512192	-0.000455	-4.546718	-1.540470	0.036409
 843	4.2100e-01	6.3431	-2.730643	0.000546	5.456061	1.848564	-0.043690
 844	4.2150e-01	6.3111	-3.058320	0.000818	8.184092	2.772845	-0.065535
 845	4.2200e-01	6.2437	-3.058320	-0.000000	-0.000000	-0.000000	0.000000
 846	4.2250e-01	6.2164	-3.313181	0.000637	6.365405	2.156658	-0.050972
 847	4.2300e-01	6.1827	-3.203955	-0.000273	-2.728031	-0.924282	0.021845
 848	4.2350e-01	6.1586	-3.385998	0.000455	4.546718	1.540470	-0.036409
 849	4.2400e-01	6.0897	-3.604449	0.000546	5.456061	1.848564	-0.043690
 850	4.2450e-01	6.0768	-4.004943	0.001000	10.002779	3.389033	-0.080099
 851	4.2500e-01	6.0271	-3.349589	-0.001637	-16.368184	-5.545691	0.131071
 852	4.2550e-01	5.9998	-4.004943	0.001637	16.368184	5.545691	-0.131071
 853	4.2600e-01	5.9501	-4.004943	-0.000000	-0.000000	-0.000000	0.000000
 854	4.2650e-01	5.9036	-4.077761	0.000182	1.818687	0.616188	-0.014563
 855	4.2700e-01	5.8779	-3.895718	-0.000455	-4.546718	-1.540470	0.036409
 856	4.2750e-01	5.8506	-4.623889	0.001819	18.186871	6.161879	-0.145634
 857	4.2800e-01	5.7768	-4.915158	0.000727	7.274749	2.464752	-0.058254
 858	4.2850e-01	5.7367	-4.332621	-0.001455	-14.549497	-4.929503	0.116507
 859	4.2900e-01	5.6982	-5.024384	0.001728	17.277528	5.853785	-0.138353
 860	4.2950e-01	5.6710	-4.805932	-0.000546	-5.456061	-1.848564	0.043690
 861	4.3000e-01	5.6341	-5.388469	0.001455	14.549497	4.929503	-0.116507
 862	4.3050e-01	5.5908	-5.060792	-0.000818	-8.184092	-2.772845	0.065535
 863	4.3100e-01	5.5555	-5.133609	0.000182	1.818687	0.616188	-0.014563
 864	4.3150e-01	5.5073	-5.352061	0.000546	5.456061	1.848564	-0.043690
 865	4.3200e-01	5.4849	-5.679738	0.000818	8.184092	2.772845	-0.065535
 866	4.3250e-01	5.4496	-5.570512	-0.000273	-2.728031	-0.924282	0.021845
 867	4.3300e-01	5.3886	-5.752555	0.000455	4.546718	1.540470	-0.036409
 868	4.3350e-01	5.3485	-6.153050	0.001000	10.002779	3.389033	-0.080099
 869	4.3400e-01	5.2908	-5.716147	-0.001091	-10.912123	-3.697127	0.087381
 870	4.3450e-01	5.2571	-6.335092	0.001546	15.458841	5.237597	-0.123789
 871	4.3500e-01	5.2298	-6.225867	-0.000273	-2.728031	-0.924282	0.021845
 872	4.3550e-01	5.1608	-6.298684	0.000182	1.818687	0.616188	-0.014563
 873	4.3600e-01	5.1175	-6.517135	0.000546	5.456061	1.848564	-0.043690
 874	4.3650e-01	5.1111	-7.099673	0.001455	14.549497	4.929503	-0.116507
 875	4.3700e-01	5.0614	-6.626361	-0.001182	-11.821466	-4.005221	0.094662
 876	4.3750e-01	5.0341	-6.771995	0.000364	3.637374	1.232376	-0.029127
 877	4.3800e-01	5.0036	-7.281715	0.001273	12.730810	4.313315	-0.101944
 878	4.3850e-01	4.9394	-7.536575	0.000637	6.365405	2.156658	-0.050972
 879	4.3900e-01	4.9009	-7.354533	-0.000455	-4.546718	-1.540470	0.036409
 880	4.3950e-01	4.8817	-7.609393	0.000637	6.365405	2.156658	-0.050972
 881	4.4000e-01	4.8416	-7.500167	-0.000273	-2.728031	-0.924282	0.021845
 882	4.4050e-01	4.7886	-7.973478	0.001182	11.821466	4.005221	-0.094662
 883	4.4100e-01	4.7469	-7.864253	-0.000273	-2.728031	-0.924282	0.021845
 884	4.4150e-01	4.7116	-8.119113	0.000637	6.365405	2.156658	-0.050972
 885	4.4200e-01	4.6571	-8.119113	-0.000000	-0.000000	-0.000000	0.000000
 886	4.4250e-01	4.6154	-8.446790	0.000818	8.184092	2.772845	-0.065535
 887	4.4300e-01	4.5833	-8.592424	0.000364	3.637374	1.232376	-0.029127
 888	4.4350e-01	4.5336	-8.810876	0.000546	5.456061	1.848564	-0.043690
 889	4.4400e-01	4.4951	-8.556016	-0.000637	-6.365405	-2.156658	0.050972
 890	4.4450e-01	4.4550	-8.883693	0.000818	8.184092	2.772845	-0.065535
 891	4.4500e-01	4.4277	-8.628833	-0.000637	-6.365405	-2.156658	0.050972
 892	4.4550e-01	4.3956	-8.920101	0.000727	7.274749	2.464752	-0.058254
 893	4.4600e-01	4.3539	-9.393413	0.001182	11.821466	4.005221	-0.094662
 894	4.4650e-01	4.3009	-9.284187	-0.000273	-2.728031	-0.924282	0.021845
 895	4.4700e-01	4.2657	-9.575456	0.000727	7.274749	2.464752	-0.058254
 896	4.4750e-01	4.2400	-9.429821	-0.000364	-3.637374	-1.232376	0.029127
 897	4.4800e-01	4.2143	-9.903133	0.001182	11.821466	4.005221	-0.094662
 898	4.4850e-01	4.1534	-9.866724	-0.000091	-0.909344	-0.308094	0.007282
 899	4.4900e-01	4.1277	-10.376444	0.001273	12.730810	4.313315	-0.101944
 900	4.4950e-01	4.0796	-10.594896	0.000546	5.456061	1.848564	-0.043690
 901	4.5000e-01	4.0362	-10.813347	0.000546	5.456061	1.848564	-0.043690
 902	4.5050e-01	3.9849	-10.704122	-0.000273	-2.728031	-0.924282	0.021845
 903	4.5100e-01	3.9400	-10.412853	-0.000727	-7.274749	-2.464752	0.058254
 904	4.5150e-01	3.9175	-10.740530	0.000818	8.184092	2.772845	-0.065535
 905	4.5200e-01	3.8694	-10.704122	-0.000091	-0.909344	-0.308094	0.007282
 906	4.5250e-01	3.8117	-11.141025	0.001091	10.912123	3.697127	-0.087381
 907	4.5300e-01	3.7732	-11.213842	0.000182	1.818687	0.616188	-0.014563
 908	4.5350e-01	3.7459	-11.323067	0.000273	2.728031	0.924282	-0.021845
 909	4.5400e-01	3.7058	-11.468702	0.000364	3.637374	1.232376	-0.029127
 910	4.5450e-01	3.7042	-11.359476	-0.000273	-2.728031	-0.924282	0.021845
 911	4.5500e-01	3.6208	-11.832788	0.001182	11.821466	4.005221	-0.094662
 912	4.5550e-01	3.5694	-11.796379	-0.000091	-0.909344	-0.308094	0.007282
 913	4.5600e-01	3.5405	-11.978422	0.000455	4.546718	1.540470	-0.036409
 914	4.5650e-01	3.4924	-12.160465	0.000455	4.546718	1.540470	-0.036409
 915	4.5700e-01	3.4475	-12.160465	-0.000000	-0.000000	-0.000000	0.000000
 916	4.5750e-01	3.4363	-12.706593	0.001364	13.640154	4.621409	-0.109226
 917	4.5800e-01	3.3817	-12.743002	0.000091	0.909344	0.308094	-0.007282
 918	4.5850e-01	3.3496	-12.888636	0.000364	3.637374	1.232376	-0.029127
 919	4.5900e-01	3.3192	-12.888636	-0.000000	-0.000000	-0.000000	0.000000
 920	4.5950e-01	3.2710	-13.179905	0.000727	7.274749	2.464752	-0.058254
 921	4.6000e-01	3.2325	-13.689625	0.001273	12.730810	4.313315	-0.101944
 922	4.6050e-01	3.2020	-13.070679	-0.001546	-15.458841	-5.237597	0.123789
 923	4.6100e-01	3.1507	-13.070679	-0.000000	-0.000000	-0.000000	0.000000
 924	4.6150e-01	3.1090	-13.835259	0.001910	19.096215	6.469973	-0.152916
 925	4.6200e-01	3.0801	-13.580399	-0.000637	-6.365405	-2.156658	0.050972
 926	4.6250e-01	3.0352	-14.017302	0.001091	10.912123	3.697127	-0.087381
 927	4.6300e-01	2.9887	-14.053711	0.000091	0.909344	0.308094	-0.007282
 928	4.6350e-01	2.9245	-14.490614	0.001091	10.912123	3.697127	-0.087381
 929	4.6400e-01	2.8956	-14.599839	0.000273	2.728031	0.924282	-0.021845
 930	4.6450e-01	2.8876	-14.527022	-0.000182	-1.818687	-0.616188	0.014563
 931	4.6500e-01	2.8251	-14.636248	0.000273	2.728031	0.924282	-0.021845
 932	4.6550e-01	2.8138	-15.109559	0.001182	11.821466	4.005221	-0.094662
 933	4.6600e-01	2.7593	-14.709065	-0.001000	-10.002779	-3.389033	0.080099
 934	4.6650e-01	2.7240	-15.109559	0.001000	10.002779	3.389033	-0.080099
 935	4.6700e-01	2.6759	-15.255194	0.000364	3.637374	1.232376	-0.029127
 936	4.6750e-01	2.6438	-15.328011	0.000182	1.818687	0.616188	-0.014563
 937	4.6800e-01	2.5828	-15.837731	0.001273	12.730810	4.313315	-0.101944
 938	4.6850e-01	2.5267	-15.655688	-0.000455	-4.546718	-1.540470	0.036409
 939	4.6900e-01	2.5074	-15.764914	0.000273	2.728031	0.924282	-0.021845
 940	4.6950e-01	2.4609	-16.129000	0.000909	9.093436	3.080939	-0.072817
 941	4.7000e-01	2.4144	-16.311042	0.000455	4.546718	1.540470	-0.036409
 942	4.7050e-01	2.3983	-16.420268	0.000273	2.728031	0.924282	-0.021845
 943	4.7100e-01	2.3245	-16.529494	0.000273	2.728031	0.924282	-0.021845
 944	4.7150e-01	2.2989	-16.784354	0.000637	6.365405	2.156658	-0.050972
 945	4.7200e-01	2.2716	-16.784354	-0.000000	-0.000000	-0.000000	0.000000
 946	4.7250e-01	2.2074	-16.638720	-0.000364	-3.637374	-1.232376	0.029127
 947	4.7300e-01	2.1962	-17.221257	0.001455	14.549497	4.929503	-0.116507
 948	4.7350e-01	2.1400	-17.476117	0.000637	6.365405	2.156658	-0.050972
 949	4.7400e-01	2.0967	-17.366891	-0.000273	-2.728031	-0.924282	0.021845
 950	4.7450e-01	2.0486	-17.621751	0.000637	6.365405	2.156658	-0.050972
 951	4.7500e-01	2.0181	-17.803794	0.000455	4.546718	1.540470	-0.036409
 952	4.7550e-01	1.9668	-17.913020	0.000273	2.728031	0.924282	-0.021845
 953	4.7600e-01	1.9475	-18.131471	0.000546	5.456061	1.848564	-0.043690
 954	4.7650e-01	1.9042	-18.313514	0.000455	4.546718	1.540470	-0.036409
 955	4.7700e-01	1.8753	-18.823234	0.001273	12.730810	4.313315	-0.101944
 956	4.7750e-01	1.8240	-18.641191	-0.000455	-4.546718	-1.540470	0.036409
 957	4.7800e-01	1.7871	-19.078094	0.001091	10.912123	3.697127	-0.087381
 958	4.7850e-01	1.7598	-19.296546	0.000546	5.456061	1.848564	-0.043690
 959	4.7900e-01	1.6764	-18.896051	-0.001000	-10.002779	-3.389033	0.080099
 960	4.7950e-01	1.6668	-19.369363	0.001182	11.821466	4.005221	-0.094662
 961	4.8000e-01	1.6331	-19.879083	0.001273	12.730810	4.313315	-0.101944
 962	4.8050e-01	1.5786	-19.879083	-0.000000	-0.000000	-0.000000	0.000000
 963	4.8100e-01	1.5529	-19.988309	0.000273	2.728031	0.924282	-0.021845
 964	4.8150e-01	1.5064	-19.879083	-0.000273	-2.728031	-0.924282	0.021845
 965	4.8200e-01	1.4550	-20.243169	0.000909	9.093436	3.080939	-0.072817
 966	4.8250e-01	1.4262	-20.643663	0.001000	10.002779	3.389033	-0.080099
 967	4.8300e-01	1.3989	-20.279577	-0.000909	-9.093436	-3.080939	0.072817
 968	4.8350e-01	1.3780	-20.680072	0.001000	10.002779	3.389033	-0.080099
 969	4.8400e-01	1.3171	-21.044157	0.000909	9.093436	3.080939	-0.072817
 970	4.8450e-01	1.2738	-20.934932	-0.000273	-2.728031	-0.924282	0.021845
 971	4.8500e-01	1.2112	-21.044157	0.000273	2.728031	0.924282	-0.021845
 972	4.8550e-01	1.2000	-21.481060	0.001091	10.912123	3.697127	-0.087381
 973	4.8600e-01	1.1534	-21.517469	0.000091	0.909344	0.308094	-0.007282
 974	4.8650e-01	1.1053	-21.444652	-0.000182	-1.818687	-0.616188	0.014563
 975	4.8700e-01	1.0764	-22.172823	0.001819	18.186871	6.161879	-0.145634
 976	4.8750e-01	1.0251	-22.209232	0.000091	0.909344	0.308094	-0.007282
 977	4.8800e-01	0.9914	-22.536909	0.000818	8.184092	2.772845	-0.065535
 978	4.8850e-01	0.9289	-22.464092	-0.000182	-1.818687	-0.616188	0.014563
 979	4.8900e-01	0.8920	-22.609726	0.000364	3.637374	1.232376	-0.029127
 980	4.8950e-01	0.8615	-22.682543	0.000182	1.818687	0.616188	-0.014563
 981	4.9000e-01	0.8631	-23.556349	-0.002182	-21.824246	-7.394255	-0.174761
 982	4.9050e-01	0.7941	-23.410715	-0.000364	-3.637374	-1.232376	0.029127
 983	4.9100e-01	0.7476	-23.592758	0.000455	4.546718	1.540470	-0.036409
 984	4.9150e-01	0.6962	-23.483532	-0.000273	-2.728031	-0.924282	0.021845
 985	4.9200e-01	0.6882	-23.738392	0.000637	6.365405	2.156658	-0.050972
 986	4.9250e-01	0.6305	-23.993252	0.000637	6.365405	2.156658	-0.050972
 987	4.9300e-01	0.5952	-23.774801	-0.000546	-5.456061	-1.848564	0.043690
 988	4.9350e-01	0.5599	-24.466564	0.001728	17.277528	5.853785	-0.138353
 989	4.9400e-01	0.5182	-24.830649	0.000909	9.093436	3.080939	-0.072817
 990	4.9450e-01	0.4620	-24.575789	-0.000637	-6.365405	-2.156658	0.050972
 991	4.9500e-01	0.4396	-24.830649	0.000637	6.365405	2.156658	-0.050972
 992	4.9550e-01	0.3850	-25.303961	0.001182	11.821466	4.005221	-0.094662
 993	4.9600e-01	0.3722	-25.303961	-0.000000	-0.000000	-0.000000	0.000000
 994	4.9650e-01	0.2968	-25.413187	0.000273	2.728031	0.924282	-0.021845
 995	4.9700e-01	0.2631	-25.922907	0.001273	12.730810	4.313315	-0.101944
 996	4.9750e-01	0.2294	-25.959315	0.000091	0.909344	0.308094	-0.007282
 997	4.9800e-01	0.1877	-26.286993	0.000818	8.184092	2.772845	-0.065535
 998	4.9850e-01	0.1765	-26.505444	0.000546	5.456061	1.848564	-0.043690
 999	4.9900e-01	0.1075	-26.250584	-0.000637	-6.365405	-2.156658	0.050972
1000	4.9950e-01	0.0834	-26.723895	0.001182	11.821466	4.005221	-0.094662
1001	5.0000e-01	0.0818	-26.942347	0.001182	11.821466	4.005221	-0.043690

PMax (uC/cm2):	6.08e+01
Pr (uC/cm2):	3.46e+00
-Pr (uC/cm2):	0.00e+00
PLoss (uC/cm2):	0.00e+00
C (Max-Eff) (nF):	3.04e-01
K (Eff):	1.03e+03
Vert. (+/-Pr) Shift (uC/cm2):	1.73e+00
Offset (uC/cm2):	3.04e+01

A (Loop Area - uC/cm2·Volts):	-7.30e-03



Hysteresis Version: 5.48.1 - Radiant Technologies, Inc., 1999 - 9/12/24

