»»»»»»»»»»»»»»»»»»»»»»»»»»»»»»»»»»»» Hysteresis ««««««««««««««««««««««««««««««««««««
»»»  Executed Version:	5.48.1
»»»  Vision Version:	5.48.4 (R)
»»»  Vision Compiled:	9/18/24
»»»  Driver Version:	5.47.0
»»»  Windows Version:	Windows 8 or 8.1
»»»  Processor Information:	x86 (AMD or Intel) - 32 Processors
»»»  Tester Name:	PMF21124-494 (100V)
»»»  Tester S/N:	PMF21124-494
»»»  Internal Amp Type:	100V RevK 270k
»»»  Internal Amp S/N:	iAB2-596/K     
»»»  Execution Count:	1
»»»»»»»»»»»»»»»»»»»»»»»»»»»»»»»»»»»»»»»»»»««««««««««««««««««««««««««««««««««««««««««

Stored:	10/7/2025 - 18:51:14
Configured:	10/07/25 05:55:09 PM
Executed:	10/07/25 06:50:34 PM

»»»»»»»»»»»»»»»»»»»»»»»»»»»»»»»»»»» Sample Info ««««««««««««««««««««««««««««««««««««
Sample Name:	Int. Ref. Ferroelectric
Lot Name:	N/A
Wafer Name:	N/A
Die Row/Column:	0/0
Capacitor Number:	0
Sample Area (cm2):	1.00e-04
Sample Thickness (microns):	3.00e-01

Amplifier:	Internal

»»»»»»»»»»»»»»»»»»»»»»»»»»»»»»»»»»» Tester Info «««««««««««««««««««««««««««««««««««
Tester Name:	PMF21124-494 (100V)
Tester Serial Number:	PMF21124-494
Return Signal Amp. Level:	1.9 [Index: 2]

»»»»»»»»»»»»»»»»»»»»»»»»»»»»»»»» Hysteresis Info ««««««««««««««««««««««««««««««««««
Task Name:	Hyst-1
Volts:	20.00
Field:	666.67 (kV/cm)
DCBias:	0.00
DCField:	0.00 (kV/cm)
Hysteresis Period (ms):	1.00e+02
Preset:	Enabled
Preset Delay (ms):	1.00e+03
Profile:	Standard Monopolar

»»»»»»»»»»»»»»»»»»»»»»»»»»»»»»»»»»»»»» Data «««««««««««««««««««««««««««««««««««««««
Points:	2001

Valid Data

Point	Time (ms)	Drive Voltage	Measured Polarization (uC/cm2)	Capacitance (uF)	Normalized Capacitance (uF/cm2)	Dielectric Constant	Instantaneous Current (mA)
   1	0.0000e+00	0.0112	-22.040694	0.000123	1.230404	0.416872	0.000054
   2	5.0000e-02	0.0257	-22.013810	0.000123	1.230404	0.416872	0.000054
   3	1.0000e-01	0.0706	-21.958004	0.000255	2.554021	0.865326	0.000112
   4	1.5000e-01	0.0674	-21.896495	-0.000282	-2.815016	-0.953753	0.000123
   5	2.0000e-01	0.0882	-21.831320	0.000298	2.982798	1.010599	0.000130
   6	2.5000e-01	0.1123	-21.768997	0.000285	2.852301	0.966386	0.000125
   7	3.0000e-01	0.1380	-21.705859	0.000289	2.889586	0.979018	0.000126
   8	3.5000e-01	0.1717	-21.643535	0.000285	2.852301	0.966386	0.000125
   9	4.0000e-01	0.1765	-21.586915	0.000259	2.591306	0.877958	0.000113
  10	4.5000e-01	0.2005	-21.525406	0.000282	2.815016	0.953753	0.000123
  11	5.0000e-01	0.2230	-21.458195	0.000308	3.076011	1.042181	0.000134
  12	5.5000e-01	0.2390	-21.393834	0.000295	2.945513	0.997967	0.000129
  13	6.0000e-01	0.2615	-21.323772	0.000321	3.206508	1.086394	0.000140
  14	6.5000e-01	0.2679	-21.263485	0.000276	2.759089	0.934805	0.000121
  15	7.0000e-01	0.2823	-21.205235	0.000267	2.665876	0.903223	0.000116
  16	7.5000e-01	0.3144	-21.135579	0.000319	3.187866	1.080078	0.000139
  17	8.0000e-01	0.3353	-21.069997	0.000300	3.001441	1.016916	0.000131
  18	8.5000e-01	0.3577	-21.005637	0.000295	2.945513	0.997967	0.000129
  19	9.0000e-01	0.3610	-20.939648	0.000302	3.020083	1.023232	0.000132
  20	9.5000e-01	0.4059	-20.877731	0.000283	2.833659	0.960069	0.000124
  21	1.0000e+00	0.4380	-20.819074	0.000268	2.684519	0.909540	0.000117
  22	1.0500e+00	0.4428	-20.748604	0.000323	3.225151	1.092711	0.000141
  23	1.1000e+00	0.4636	-20.684244	0.000295	2.945513	0.997967	0.000129
  24	1.1500e+00	0.4957	-20.621513	0.000287	2.870943	0.972702	0.000125
  25	1.2000e+00	0.4925	-20.557153	-0.000295	-2.945513	-0.997967	0.000129
  26	1.2500e+00	0.5166	-20.493607	0.000291	2.908228	0.985334	0.000127
  27	1.3000e+00	0.5374	-20.425989	0.000309	3.094653	1.048497	0.000135
  28	1.3500e+00	0.5551	-20.366517	0.000272	2.721804	0.922172	0.000119
  29	1.4000e+00	0.5839	-20.307452	0.000270	2.703161	0.915856	0.000118
  30	1.4500e+00	0.6048	-20.239833	0.000309	3.094653	1.048497	0.000135
  31	1.5000e+00	0.6240	-20.173844	0.000302	3.020083	1.023232	0.000132
  32	1.5500e+00	0.6273	-20.105410	0.000313	3.131938	1.061129	0.000137
  33	1.6000e+00	0.6593	-20.043901	0.000282	2.815016	0.953753	0.000123
  34	1.6500e+00	0.6690	-19.976690	0.000308	3.076011	1.042181	0.000134
  35	1.7000e+00	0.6850	-19.913959	0.000287	2.870943	0.972702	0.000125
  36	1.7500e+00	0.7123	-19.852450	0.000282	2.815016	0.953753	0.000123
  37	1.8000e+00	0.7476	-19.790127	0.000285	2.852301	0.966386	0.000125
  38	1.8500e+00	0.7444	-19.726174	-0.000293	-2.926871	-0.991651	0.000128
  39	1.9000e+00	0.7781	-19.658963	0.000308	3.076011	1.042181	0.000134
  40	1.9500e+00	0.7957	-19.595417	0.000291	2.908228	0.985334	0.000127
  41	2.0000e+00	0.8230	-19.532686	0.000287	2.870943	0.972702	0.000125
  42	2.0500e+00	0.8406	-19.466697	0.000302	3.020083	1.023232	0.000132
  43	2.1000e+00	0.8502	-19.401929	0.000296	2.964156	1.004283	0.000130
  44	2.1500e+00	0.8647	-19.339199	0.000287	2.870943	0.972702	0.000125
  45	2.2000e+00	0.8887	-19.274024	0.000298	2.982798	1.010599	0.000130
  46	2.2500e+00	0.9112	-19.223106	0.000233	2.330311	0.789531	0.000102
  47	2.3000e+00	0.9337	-19.159561	0.000291	2.908228	0.985334	0.000127
  48	2.3500e+00	0.9561	-19.094386	0.000298	2.982798	1.010599	0.000130
  49	2.4000e+00	0.9818	-19.027582	0.000306	3.057368	1.035864	0.000134
  50	2.4500e+00	0.9978	-18.964443	0.000289	2.889586	0.979018	0.000126
  51	2.5000e+00	1.0155	-18.905786	0.000268	2.684519	0.909540	0.000117
  52	2.5500e+00	1.0460	-18.839797	0.000302	3.020083	1.023232	0.000132
  53	2.6000e+00	1.0636	-18.778695	0.000280	2.796374	0.947437	0.000122
  54	2.6500e+00	1.0780	-18.719223	0.000272	2.721804	0.922172	0.000119
  55	2.7000e+00	1.0845	-18.659344	0.000274	2.740446	0.928488	0.000120
  56	2.7500e+00	1.1069	-18.591725	0.000309	3.094653	1.048497	0.000135
  57	2.8000e+00	1.1422	-18.540807	0.000233	2.330311	0.789531	0.000102
  58	2.8500e+00	1.1583	-18.472374	0.000313	3.131938	1.061129	0.000137
  59	2.9000e+00	1.1679	-18.410458	0.000283	2.833659	0.960069	0.000124
  60	2.9500e+00	1.2000	-18.348542	0.000283	2.833659	0.960069	0.000124
  61	3.0000e+00	1.2112	-18.286625	0.000283	2.833659	0.960069	0.000124
  62	3.0500e+00	1.2449	-18.227968	0.000268	2.684519	0.909540	0.000117
  63	3.1000e+00	1.2641	-18.175014	0.000242	2.423524	0.821112	0.000106
  64	3.1500e+00	1.2738	-18.111876	0.000289	2.889586	0.979018	0.000126
  65	3.2000e+00	1.2914	-18.055255	0.000259	2.591306	0.877958	0.000113
  66	3.2500e+00	1.3091	-17.987636	0.000309	3.094653	1.048497	0.000135
  67	3.3000e+00	1.3283	-17.935496	0.000239	2.386239	0.808480	0.000104
  68	3.3500e+00	1.3652	-17.873173	0.000285	2.852301	0.966386	0.000125
  69	3.4000e+00	1.3636	-17.809627	-0.000291	-2.908228	-0.985334	0.000127
  70	3.4500e+00	1.3909	-17.750563	0.000270	2.703161	0.915856	0.000118
  71	3.5000e+00	1.4069	-17.693535	0.000261	2.609949	0.884275	0.000114
  72	3.5500e+00	1.4550	-17.634877	0.000268	2.684519	0.909540	0.000117
  73	3.6000e+00	1.4599	-17.575813	0.000270	2.703161	0.915856	0.000118
  74	3.6500e+00	1.4887	-17.515933	0.000274	2.740446	0.928488	0.000120
  75	3.7000e+00	1.5048	-17.455647	0.000276	2.759089	0.934805	0.000121
  76	3.7500e+00	1.5192	-17.399026	0.000259	2.591306	0.877958	0.000113
  77	3.8000e+00	1.5433	-17.338332	0.000278	2.777731	0.941121	0.000121
  78	3.8500e+00	1.5529	-17.279675	0.000268	2.684519	0.909540	0.000117
  79	3.9000e+00	1.5657	-17.218573	0.000280	2.796374	0.947437	0.000122
  80	3.9500e+00	1.5978	-17.155843	0.000287	2.870943	0.972702	0.000125
  81	4.0000e+00	1.6187	-17.099629	0.000257	2.572664	0.871642	0.000112
  82	4.0500e+00	1.6588	-17.040972	0.000268	2.684519	0.909540	0.000117
  83	4.1000e+00	1.6411	-16.990054	-0.000233	-2.330311	-0.789531	0.000102
  84	4.1500e+00	1.6732	-16.930582	0.000272	2.721804	0.922172	0.000119
  85	4.2000e+00	1.7005	-16.869481	0.000280	2.796374	0.947437	0.000122
  86	4.2500e+00	1.7374	-16.809194	0.000276	2.759089	0.934805	0.000121
  87	4.3000e+00	1.7470	-16.750129	0.000270	2.703161	0.915856	0.000118
  88	4.3500e+00	1.7631	-16.693916	0.000257	2.572664	0.871642	0.000112
  89	4.4000e+00	1.7711	-16.640962	0.000242	2.423524	0.821112	0.000106
  90	4.4500e+00	1.8112	-16.578638	0.000285	2.852301	0.966386	0.000125
  91	4.5000e+00	1.8304	-16.523240	0.000254	2.535379	0.859010	0.000111
  92	4.5500e+00	1.8433	-16.462138	0.000280	2.796374	0.947437	0.000122
  93	4.6000e+00	1.8561	-16.401852	0.000276	2.759089	0.934805	0.000121
  94	4.6500e+00	1.8786	-16.344009	0.000265	2.647234	0.896907	0.000116
  95	4.7000e+00	1.9315	-16.289425	0.000250	2.498094	0.846377	0.000109
  96	4.7500e+00	1.9074	-16.228731	-0.000278	-2.777731	-0.941121	0.000121
  97	4.8000e+00	1.9395	-16.169666	0.000270	2.703161	0.915856	0.000118
  98	4.8500e+00	1.9507	-16.113046	0.000259	2.591306	0.877958	0.000113
  99	4.9000e+00	1.9588	-16.061313	0.000237	2.367596	0.802163	0.000103
 100	4.9500e+00	1.9941	-16.001841	0.000272	2.721804	0.922172	0.000119
 101	5.0000e+00	2.0181	-15.942776	0.000270	2.703161	0.915856	0.000118
 102	5.0500e+00	2.0390	-15.881675	0.000280	2.796374	0.947437	0.000122
 103	5.1000e+00	2.0679	-15.823832	0.000265	2.647234	0.896907	0.000116
 104	5.1500e+00	2.0598	-15.772507	-0.000235	-2.348954	-0.795847	0.000103
 105	5.2000e+00	2.1031	-15.714257	0.000267	2.665876	0.903223	0.000116
 106	5.2500e+00	2.1096	-15.652341	0.000283	2.833659	0.960069	0.000124
 107	5.3000e+00	2.1384	-15.596535	0.000255	2.554021	0.865326	0.000112
 108	5.3500e+00	2.1513	-15.541951	0.000250	2.498094	0.846377	0.000109
 109	5.4000e+00	2.1689	-15.482072	0.000274	2.740446	0.928488	0.000120
 110	5.4500e+00	2.2026	-15.425451	0.000259	2.591306	0.877958	0.000113
 111	5.5000e+00	2.2235	-15.373719	0.000237	2.367596	0.802163	0.000103
 112	5.5500e+00	2.2491	-15.311803	0.000283	2.833659	0.960069	0.000124
 113	5.6000e+00	2.2443	-15.253553	-0.000267	-2.665876	-0.903223	0.000116
 114	5.6500e+00	2.2860	-15.194896	0.000268	2.684519	0.909540	0.000117
 115	5.7000e+00	2.2732	-15.137053	-0.000265	-2.647234	-0.896907	0.000116
 116	5.7500e+00	2.2860	-15.084913	0.000239	2.386239	0.808480	0.000104
 117	5.8000e+00	2.3197	-15.030736	0.000248	2.479451	0.840061	0.000108
 118	5.8500e+00	2.3662	-14.974116	0.000259	2.591306	0.877958	0.000113
 119	5.9000e+00	2.3919	-14.917903	0.000257	2.572664	0.871642	0.000112
 120	5.9500e+00	2.4031	-14.863726	0.000248	2.479451	0.840061	0.000108
 121	6.0000e+00	2.3999	-14.808327	-0.000254	-2.535379	-0.859010	0.000111
 122	6.0500e+00	2.4320	-14.754151	0.000248	2.479451	0.840061	0.000108
 123	6.1000e+00	2.4769	-14.694272	0.000274	2.740446	0.928488	0.000120
 124	6.1500e+00	2.4801	-14.638058	0.000257	2.572664	0.871642	0.000112
 125	6.2000e+00	2.4914	-14.586326	0.000237	2.367596	0.802163	0.000103
 126	6.2500e+00	2.4994	-14.528483	0.000265	2.647234	0.896907	0.000116
 127	6.3000e+00	2.5299	-14.469826	0.000268	2.684519	0.909540	0.000117
 128	6.3500e+00	2.5604	-14.416464	0.000244	2.442166	0.827428	0.000107
 129	6.4000e+00	2.5780	-14.357399	0.000270	2.703161	0.915856	0.000118
 130	6.4500e+00	2.6053	-14.299149	0.000267	2.665876	0.903223	0.000116
 131	6.5000e+00	2.6277	-14.249453	0.000227	2.274384	0.770582	0.000099
 132	6.5500e+00	2.6630	-14.192833	0.000259	2.591306	0.877958	0.000113
 133	6.6000e+00	2.6646	-14.141100	0.000237	2.367596	0.802163	0.000103
 134	6.6500e+00	2.6582	-14.084480	-0.000259	-2.591306	-0.877958	0.000113
 135	6.7000e+00	2.6983	-14.027044	0.000263	2.628591	0.890591	0.000115
 136	6.7500e+00	2.7144	-13.974090	0.000242	2.423524	0.821112	0.000106
 137	6.8000e+00	2.7416	-13.915840	0.000267	2.665876	0.903223	0.000116
 138	6.8500e+00	2.7625	-13.862478	0.000244	2.442166	0.827428	0.000107
 139	6.9000e+00	2.7673	-13.807894	0.000250	2.498094	0.846377	0.000109
 140	6.9500e+00	2.8090	-13.755347	0.000240	2.404881	0.814796	0.000105
 141	7.0000e+00	2.8234	-13.701578	0.000246	2.460809	0.833745	0.000108
 142	7.0500e+00	2.8267	-13.649031	0.000240	2.404881	0.814796	0.000105
 143	7.1000e+00	2.8652	-13.592003	0.000261	2.609949	0.884275	0.000114
 144	7.1500e+00	2.8700	-13.534567	0.000263	2.628591	0.890591	0.000115
 145	7.2000e+00	2.8940	-13.477132	0.000263	2.628591	0.890591	0.000115
 146	7.2500e+00	2.9245	-13.426214	0.000233	2.330311	0.789531	0.000102
 147	7.3000e+00	2.9390	-13.370408	0.000255	2.554021	0.865326	0.000112
 148	7.3500e+00	2.9534	-13.312973	0.000263	2.628591	0.890591	0.000115
 149	7.4000e+00	2.9742	-13.262870	0.000229	2.293026	0.776898	0.000100
 150	7.4500e+00	3.0272	-13.209915	0.000242	2.423524	0.821112	0.000106
 151	7.5000e+00	3.0144	-13.155739	-0.000248	-2.479451	-0.840061	0.000108
 152	7.5500e+00	3.0416	-13.104006	0.000237	2.367596	0.802163	0.000103
 153	7.6000e+00	3.0817	-13.046978	0.000261	2.609949	0.884275	0.000114
 154	7.6500e+00	3.0561	-12.994024	-0.000242	-2.423524	-0.821112	0.000106
 155	7.7000e+00	3.0881	-12.942699	0.000235	2.348954	0.795847	0.000103
 156	7.7500e+00	3.1138	-12.884449	0.000267	2.665876	0.903223	0.000116
 157	7.8000e+00	3.1315	-12.831494	0.000242	2.423524	0.821112	0.000106
 158	7.8500e+00	3.1668	-12.776910	0.000250	2.498094	0.846377	0.000109
 159	7.9000e+00	3.1876	-12.727622	0.000226	2.255741	0.764266	0.000099
 160	7.9500e+00	3.2133	-12.676704	0.000233	2.330311	0.789531	0.000102
 161	8.0000e+00	3.2309	-12.620083	0.000259	2.591306	0.877958	0.000113
 162	8.0500e+00	3.2438	-12.570387	0.000227	2.274384	0.770582	0.000099
 163	8.1000e+00	3.2598	-12.511323	0.000270	2.703161	0.915856	0.000118
 164	8.1500e+00	3.2742	-12.463664	0.000218	2.181171	0.739001	0.000095
 165	8.2000e+00	3.2983	-12.400933	0.000287	2.870943	0.972702	0.000125
 166	8.2500e+00	3.3432	-12.353274	0.000218	2.181171	0.739001	0.000095
 167	8.3000e+00	3.3609	-12.296246	0.000261	2.609949	0.884275	0.000114
 168	8.3500e+00	3.3673	-12.247365	0.000224	2.237099	0.757950	0.000098
 169	8.4000e+00	3.3817	-12.191152	0.000257	2.572664	0.871642	0.000112
 170	8.4500e+00	3.3817	-12.138604	-0.000240	-2.404881	-0.814796	0.000105
 171	8.5000e+00	3.4218	-12.089723	0.000224	2.237099	0.757950	0.000098
 172	8.5500e+00	3.4475	-12.033917	0.000255	2.554021	0.865326	0.000112
 173	8.6000e+00	3.4603	-11.982185	0.000237	2.367596	0.802163	0.000103
 174	8.6500e+00	3.4796	-11.930452	0.000237	2.367596	0.802163	0.000103
 175	8.7000e+00	3.5085	-11.878312	0.000239	2.386239	0.808480	0.000104
 176	8.7500e+00	3.5213	-11.823321	0.000252	2.516736	0.852693	0.000110
 177	8.8000e+00	3.5470	-11.775662	0.000218	2.181171	0.739001	0.000095
 178	8.8500e+00	3.5293	-11.725966	-0.000227	-2.274384	-0.770582	0.000099
 179	8.9000e+00	3.5678	-11.675049	0.000233	2.330311	0.789531	0.000102
 180	8.9500e+00	3.5839	-11.624131	0.000233	2.330311	0.789531	0.000102
 181	9.0000e+00	3.6175	-11.574435	0.000227	2.274384	0.770582	0.000099
 182	9.0500e+00	3.6352	-11.514556	0.000274	2.740446	0.928488	0.000120
 183	9.1000e+00	3.6577	-11.464045	0.000231	2.311669	0.783215	0.000101
 184	9.1500e+00	3.6769	-11.415571	0.000222	2.218456	0.751633	0.000097
 185	9.2000e+00	3.6849	-11.369949	0.000209	2.087959	0.707420	0.000091
 186	9.2500e+00	3.7186	-11.317809	0.000239	2.386239	0.808480	0.000104
 187	9.3000e+00	3.7154	-11.266484	-0.000235	-2.348954	-0.795847	0.000103
 188	9.3500e+00	3.7651	-11.212307	0.000248	2.479451	0.840061	0.000108
 189	9.4000e+00	3.7764	-11.166278	0.000211	2.106601	0.713736	0.000092
 190	9.4500e+00	3.7844	-11.112508	0.000246	2.460809	0.833745	0.000108
 191	9.5000e+00	3.8084	-11.064849	0.000218	2.181171	0.739001	0.000095
 192	9.5500e+00	3.8325	-11.009858	0.000252	2.516736	0.852693	0.000110
 193	9.6000e+00	3.8614	-10.958940	0.000233	2.330311	0.789531	0.000102
 194	9.6500e+00	3.8887	-10.910059	0.000224	2.237099	0.757950	0.000098
 195	9.7000e+00	3.8903	-10.858734	0.000235	2.348954	0.795847	0.000103
 196	9.7500e+00	3.9159	-10.809038	0.000227	2.274384	0.770582	0.000099
 197	9.8000e+00	3.9288	-10.757306	0.000237	2.367596	0.802163	0.000103
 198	9.8500e+00	3.9609	-10.706388	0.000233	2.330311	0.789531	0.000102
 199	9.9000e+00	3.9785	-10.658322	0.000220	2.199814	0.745317	0.000096
 200	9.9500e+00	4.0026	-10.612292	0.000211	2.106601	0.713736	0.000092
 201	1.0000e+01	4.0330	-10.558115	0.000248	2.479451	0.840061	0.000108
 202	1.0050e+01	4.0491	-10.503939	0.000248	2.479451	0.840061	0.000108
 203	1.0100e+01	4.0683	-10.458724	0.000207	2.069316	0.701103	0.000090
 204	1.0150e+01	4.0892	-10.408213	0.000231	2.311669	0.783215	0.000101
 205	1.0200e+01	4.0956	-10.362591	0.000209	2.087959	0.707420	0.000091
 206	1.0250e+01	4.1020	-10.308414	0.000248	2.479451	0.840061	0.000108
 207	1.0300e+01	4.1341	-10.261570	0.000214	2.143886	0.726368	0.000094
 208	1.0350e+01	4.1421	-10.209023	0.000240	2.404881	0.814796	0.000105
 209	1.0400e+01	4.1790	-10.160956	0.000220	2.199814	0.745317	0.000096
 210	1.0450e+01	4.1999	-10.110853	0.000229	2.293026	0.776898	0.000100
 211	1.0500e+01	4.2175	-10.059935	0.000233	2.330311	0.789531	0.000102
 212	1.0550e+01	4.2223	-10.005759	0.000248	2.479451	0.840061	0.000108
 213	1.0600e+01	4.2576	-9.962173	0.000199	1.994746	0.675838	0.000087
 214	1.0650e+01	4.2785	-9.906775	0.000254	2.535379	0.859010	0.000111
 215	1.0700e+01	4.3154	-9.860337	0.000213	2.125244	0.720052	0.000093
 216	1.0750e+01	4.3170	-9.807790	0.000240	2.404881	0.814796	0.000105
 217	1.0800e+01	4.3346	-9.760131	0.000218	2.181171	0.739001	0.000095
 218	1.0850e+01	4.3651	-9.706362	0.000246	2.460809	0.833745	0.000108
 219	1.0900e+01	4.3876	-9.654222	0.000239	2.386239	0.808480	0.000104
 220	1.0950e+01	4.4020	-9.601675	0.000240	2.404881	0.814796	0.000105
 221	1.1000e+01	4.4084	-9.557275	0.000203	2.032031	0.688471	0.000089
 222	1.1050e+01	4.4325	-9.507171	0.000229	2.293026	0.776898	0.000100
 223	1.1100e+01	4.4469	-9.455439	0.000237	2.367596	0.802163	0.000103
 224	1.1150e+01	4.4854	-9.403706	0.000237	2.367596	0.802163	0.000103
 225	1.1200e+01	4.4999	-9.354418	0.000226	2.255741	0.764266	0.000099
 226	1.1250e+01	4.5175	-9.299019	0.000254	2.535379	0.859010	0.000111
 227	1.1300e+01	4.5223	-9.247287	0.000237	2.367596	0.802163	0.000103
 228	1.1350e+01	4.5656	-9.193110	0.000248	2.479451	0.840061	0.000108
 229	1.1400e+01	4.5753	-9.139748	0.000244	2.442166	0.827428	0.000107
 230	1.1450e+01	4.5849	-9.092089	0.000218	2.181171	0.739001	0.000095
 231	1.1500e+01	4.6074	-9.043208	0.000224	2.237099	0.757950	0.000098
 232	1.1550e+01	4.6202	-8.993513	0.000227	2.274384	0.770582	0.000099
 233	1.1600e+01	4.6651	-8.946261	0.000216	2.162529	0.732685	0.000095
 234	1.1650e+01	4.6763	-8.891677	0.000250	2.498094	0.846377	0.000109
 235	1.1700e+01	4.6972	-8.839537	0.000239	2.386239	0.808480	0.000104
 236	1.1750e+01	4.7229	-8.789027	0.000231	2.311669	0.783215	0.000101
 237	1.1800e+01	4.7277	-8.735665	0.000244	2.442166	0.827428	0.000107
 238	1.1850e+01	4.7598	-8.691264	0.000203	2.032031	0.688471	0.000089
 239	1.1900e+01	4.7598	-8.639125	-0.000239	-2.386239	-0.808480	0.000104
 240	1.1950e+01	4.8111	-8.587392	0.000237	2.367596	0.802163	0.000103
 241	1.2000e+01	4.8143	-8.537289	0.000229	2.293026	0.776898	0.000100
 242	1.2050e+01	4.8448	-8.487186	0.000229	2.293026	0.776898	0.000100
 243	1.2100e+01	4.8576	-8.442785	0.000203	2.032031	0.688471	0.000089
 244	1.2150e+01	4.8705	-8.390646	0.000239	2.386239	0.808480	0.000104
 245	1.2200e+01	4.8945	-8.339320	0.000235	2.348954	0.795847	0.000103
 246	1.2250e+01	4.9298	-8.287588	0.000237	2.367596	0.802163	0.000103
 247	1.2300e+01	4.9314	-8.241966	0.000209	2.087959	0.707420	0.000091
 248	1.2350e+01	4.9571	-8.193899	0.000220	2.199814	0.745317	0.000096
 249	1.2400e+01	4.9860	-8.138501	0.000254	2.535379	0.859010	0.000111
 250	1.2450e+01	5.0084	-8.087583	0.000233	2.330311	0.789531	0.000102
 251	1.2500e+01	5.0212	-8.038294	0.000226	2.255741	0.764266	0.000099
 252	1.2550e+01	5.0293	-7.989006	0.000226	2.255741	0.764266	0.000099
 253	1.2600e+01	5.0501	-7.940532	0.000222	2.218456	0.751633	0.000097
 254	1.2650e+01	5.0774	-7.887170	0.000244	2.442166	0.827428	0.000107
 255	1.2700e+01	5.0966	-7.838289	0.000224	2.237099	0.757950	0.000098
 256	1.2750e+01	5.1159	-7.795518	0.000196	1.957461	0.663206	0.000086
 257	1.2800e+01	5.1432	-7.739712	0.000255	2.554021	0.865326	0.000112
 258	1.2850e+01	5.1640	-7.696941	0.000196	1.957461	0.663206	0.000086
 259	1.2900e+01	5.1640	-7.646023	-0.000233	-2.330311	-0.789531	0.000102
 260	1.2950e+01	5.1881	-7.598364	0.000218	2.181171	0.739001	0.000095
 261	1.3000e+01	5.2105	-7.551113	0.000216	2.162529	0.732685	0.000095
 262	1.3050e+01	5.2523	-7.503453	0.000218	2.181171	0.739001	0.000095
 263	1.3100e+01	5.2426	-7.452128	-0.000235	-2.348954	-0.795847	0.000103
 264	1.3150e+01	5.2956	-7.399988	0.000239	2.386239	0.808480	0.000104
 265	1.3200e+01	5.3100	-7.357217	0.000196	1.957461	0.663206	0.000086
 266	1.3250e+01	5.3180	-7.308744	0.000222	2.218456	0.751633	0.000097
 267	1.3300e+01	5.3212	-7.255382	0.000244	2.442166	0.827428	0.000107
 268	1.3350e+01	5.3581	-7.213833	0.000190	1.901534	0.644257	0.000083
 269	1.3400e+01	5.3790	-7.168211	0.000209	2.087959	0.707420	0.000091
 270	1.3450e+01	5.3934	-7.118922	0.000226	2.255741	0.764266	0.000099
 271	1.3500e+01	5.4175	-7.064338	0.000250	2.498094	0.846377	0.000109
 272	1.3550e+01	5.4351	-7.020345	0.000201	2.013389	0.682155	0.000088
 273	1.3600e+01	5.4512	-6.975945	0.000203	2.032031	0.688471	0.000089
 274	1.3650e+01	5.4640	-6.929508	0.000213	2.125244	0.720052	0.000093
 275	1.3700e+01	5.4961	-6.880627	0.000224	2.237099	0.757950	0.000098
 276	1.3750e+01	5.5137	-6.830931	0.000227	2.274384	0.770582	0.000099
 277	1.3800e+01	5.5426	-6.780420	0.000231	2.311669	0.783215	0.000101
 278	1.3850e+01	5.5715	-6.733169	0.000216	2.162529	0.732685	0.000095
 279	1.3900e+01	5.5731	-6.688361	0.000205	2.050674	0.694787	0.000090
 280	1.3950e+01	5.6036	-6.641517	0.000214	2.143886	0.726368	0.000094
 281	1.4000e+01	5.6212	-6.590599	0.000233	2.330311	0.789531	0.000102
 282	1.4050e+01	5.6309	-6.547013	0.000199	1.994746	0.675838	0.000087
 283	1.4100e+01	5.6437	-6.500169	0.000214	2.143886	0.726368	0.000094
 284	1.4150e+01	5.6806	-6.452102	0.000220	2.199814	0.745317	0.000096
 285	1.4200e+01	5.7030	-6.406480	0.000209	2.087959	0.707420	0.000091
 286	1.4250e+01	5.7127	-6.360043	0.000213	2.125244	0.720052	0.000093
 287	1.4300e+01	5.7432	-6.306274	0.000246	2.460809	0.833745	0.000108
 288	1.4350e+01	5.7592	-6.257393	0.000224	2.237099	0.757950	0.000098
 289	1.4400e+01	5.7576	-6.216251	-0.000188	-1.882892	-0.637941	0.000082
 290	1.4450e+01	5.7977	-6.166148	0.000229	2.293026	0.776898	0.000100
 291	1.4500e+01	5.8153	-6.122562	0.000199	1.994746	0.675838	0.000087
 292	1.4550e+01	5.8587	-6.074088	0.000222	2.218456	0.751633	0.000097
 293	1.4600e+01	5.8635	-6.025615	0.000222	2.218456	0.751633	0.000097
 294	1.4650e+01	5.8859	-5.978363	0.000216	2.162529	0.732685	0.000095
 295	1.4700e+01	5.8907	-5.934370	0.000201	2.013389	0.682155	0.000088
 296	1.4750e+01	5.9292	-5.885896	0.000222	2.218456	0.751633	0.000097
 297	1.4800e+01	5.9501	-5.837422	0.000222	2.218456	0.751633	0.000097
 298	1.4850e+01	5.9597	-5.790985	0.000213	2.125244	0.720052	0.000093
 299	1.4900e+01	5.9758	-5.740882	0.000229	2.293026	0.776898	0.000100
 300	1.4950e+01	6.0062	-5.699741	0.000188	1.882892	0.637941	0.000082
 301	1.5000e+01	6.0143	-5.652489	0.000216	2.162529	0.732685	0.000095
 302	1.5050e+01	6.0399	-5.604830	0.000218	2.181171	0.739001	0.000095
 303	1.5100e+01	6.0688	-5.560837	0.000201	2.013389	0.682155	0.000088
 304	1.5150e+01	6.0576	-5.510326	-0.000231	-2.311669	-0.783215	0.000101
 305	1.5200e+01	6.0768	-5.468370	0.000192	1.920176	0.650573	0.000084
 306	1.5250e+01	6.1073	-5.420304	0.000220	2.199814	0.745317	0.000096
 307	1.5300e+01	6.1362	-5.371830	0.000222	2.218456	0.751633	0.000097
 308	1.5350e+01	6.1731	-5.327022	0.000205	2.050674	0.694787	0.000090
 309	1.5400e+01	6.1651	-5.279770	-0.000216	-2.162529	-0.732685	0.000095
 310	1.5450e+01	6.1731	-5.235777	0.000201	2.013389	0.682155	0.000088
 311	1.5500e+01	6.2244	-5.189340	0.000213	2.125244	0.720052	0.000093
 312	1.5550e+01	6.2373	-5.140459	0.000224	2.237099	0.757950	0.000098
 313	1.5600e+01	6.2677	-5.093615	0.000214	2.143886	0.726368	0.000094
 314	1.5650e+01	6.2886	-5.049215	0.000203	2.032031	0.688471	0.000089
 315	1.5700e+01	6.2950	-5.003185	0.000211	2.106601	0.713736	0.000092
 316	1.5750e+01	6.3175	-4.955526	0.000218	2.181171	0.739001	0.000095
 317	1.5800e+01	6.3351	-4.913570	0.000192	1.920176	0.650573	0.000084
 318	1.5850e+01	6.3415	-4.867540	0.000211	2.106601	0.713736	0.000092
 319	1.5900e+01	6.3768	-4.821103	0.000213	2.125244	0.720052	0.000093
 320	1.5950e+01	6.3768	-4.773036	-0.000220	-2.199814	-0.745317	0.000096
 321	1.6000e+01	6.4073	-4.729858	0.000198	1.976104	0.669522	0.000086
 322	1.6050e+01	6.4410	-4.683828	0.000211	2.106601	0.713736	0.000092
 323	1.6100e+01	6.4394	-4.639021	-0.000205	-2.050674	-0.694787	0.000090
 324	1.6150e+01	6.4827	-4.591362	0.000218	2.181171	0.739001	0.000095
 325	1.6200e+01	6.4843	-4.549405	0.000192	1.920176	0.650573	0.000084
 326	1.6250e+01	6.4939	-4.505820	0.000199	1.994746	0.675838	0.000087
 327	1.6300e+01	6.5324	-4.458568	0.000216	2.162529	0.732685	0.000095
 328	1.6350e+01	6.5469	-4.417019	0.000190	1.901534	0.644257	0.000083
 329	1.6400e+01	6.5597	-4.371804	0.000207	2.069316	0.701103	0.000090
 330	1.6450e+01	6.5934	-4.322515	0.000226	2.255741	0.764266	0.000099
 331	1.6500e+01	6.6078	-4.276893	0.000209	2.087959	0.707420	0.000091
 332	1.6550e+01	6.6335	-4.237788	0.000179	1.789679	0.606360	0.000078
 333	1.6600e+01	6.6592	-4.189314	0.000222	2.218456	0.751633	0.000097
 334	1.6650e+01	6.6672	-4.145729	0.000199	1.994746	0.675838	0.000087
 335	1.6700e+01	6.6848	-4.100921	0.000205	2.050674	0.694787	0.000090
 336	1.6750e+01	6.7314	-4.057743	0.000198	1.976104	0.669522	0.000086
 337	1.6800e+01	6.7330	-4.012528	0.000207	2.069316	0.701103	0.000090
 338	1.6850e+01	6.7458	-3.966091	0.000213	2.125244	0.720052	0.000093
 339	1.6900e+01	6.7843	-3.920468	0.000209	2.087959	0.707420	0.000091
 340	1.6950e+01	6.8100	-3.876883	0.000199	1.994746	0.675838	0.000087
 341	1.7000e+01	6.8212	-3.828409	0.000222	2.218456	0.751633	0.000097
 342	1.7050e+01	6.8404	-3.786045	0.000194	1.938819	0.656890	0.000085
 343	1.7100e+01	6.8517	-3.736350	0.000227	2.274384	0.770582	0.000099
 344	1.7150e+01	6.8854	-3.697245	0.000179	1.789679	0.606360	0.000078
 345	1.7200e+01	6.8806	-3.643883	-0.000244	-2.442166	-0.827428	0.000107
 346	1.7250e+01	6.8982	-3.598668	0.000207	2.069316	0.701103	0.000090
 347	1.7300e+01	6.9207	-3.553045	0.000209	2.087959	0.707420	0.000091
 348	1.7350e+01	6.9800	-3.507830	0.000207	2.069316	0.701103	0.000090
 349	1.7400e+01	6.9880	-3.464245	0.000199	1.994746	0.675838	0.000087
 350	1.7450e+01	6.9736	-3.413327	-0.000233	-2.330311	-0.789531	0.000102
 351	1.7500e+01	7.0217	-3.370963	0.000194	1.938819	0.656890	0.000085
 352	1.7550e+01	7.0281	-3.325748	0.000207	2.069316	0.701103	0.000090
 353	1.7600e+01	7.0474	-3.281755	0.000201	2.013389	0.682155	0.000088
 354	1.7650e+01	7.0699	-3.236133	0.000209	2.087959	0.707420	0.000091
 355	1.7700e+01	7.1051	-3.189696	0.000213	2.125244	0.720052	0.000093
 356	1.7750e+01	7.1132	-3.137556	0.000239	2.386239	0.808480	0.000104
 357	1.7800e+01	7.1132	-3.100080	-0.000172	-1.715109	-0.581095	0.000075
 358	1.7850e+01	7.1404	-3.055680	0.000203	2.032031	0.688471	0.000089
 359	1.7900e+01	7.1741	-3.011687	0.000201	2.013389	0.682155	0.000088
 360	1.7950e+01	7.2030	-2.964843	0.000214	2.143886	0.726368	0.000094
 361	1.8000e+01	7.2223	-2.923294	0.000190	1.901534	0.644257	0.000083
 362	1.8050e+01	7.2575	-2.873191	0.000229	2.293026	0.776898	0.000100
 363	1.8100e+01	7.2592	-2.830012	0.000198	1.976104	0.669522	0.000086
 364	1.8150e+01	7.2784	-2.787241	0.000196	1.957461	0.663206	0.000086
 365	1.8200e+01	7.2993	-2.739175	0.000220	2.199814	0.745317	0.000096
 366	1.8250e+01	7.3201	-2.695182	0.000201	2.013389	0.682155	0.000088
 367	1.8300e+01	7.3362	-2.644672	0.000231	2.311669	0.783215	0.000101
 368	1.8350e+01	7.3586	-2.604752	0.000183	1.826964	0.618992	0.000080
 369	1.8400e+01	7.3714	-2.559944	0.000205	2.050674	0.694787	0.000090
 370	1.8450e+01	7.3875	-2.515951	0.000201	2.013389	0.682155	0.000088
 371	1.8500e+01	7.4260	-2.473995	0.000192	1.920176	0.650573	0.000084
 372	1.8550e+01	7.4244	-2.428373	-0.000209	-2.087959	-0.707420	0.000091
 373	1.8600e+01	7.4468	-2.381528	0.000214	2.143886	0.726368	0.000094
 374	1.8650e+01	7.4645	-2.336313	0.000207	2.069316	0.701103	0.000090
 375	1.8700e+01	7.4837	-2.286617	0.000227	2.274384	0.770582	0.000099
 376	1.8750e+01	7.5110	-2.245068	0.000190	1.901534	0.644257	0.000083
 377	1.8800e+01	7.5399	-2.199039	0.000211	2.106601	0.713736	0.000092
 378	1.8850e+01	7.5527	-2.150972	0.000220	2.199814	0.745317	0.000096
 379	1.8900e+01	7.5672	-2.113497	0.000172	1.715109	0.581095	0.000075
 380	1.8950e+01	7.6121	-2.075614	0.000173	1.733752	0.587411	0.000076
 381	1.9000e+01	7.6185	-2.029992	0.000209	2.087959	0.707420	0.000091
 382	1.9050e+01	7.6394	-1.985184	0.000205	2.050674	0.694787	0.000090
 383	1.9100e+01	7.6554	-1.939969	0.000207	2.069316	0.701103	0.000090
 384	1.9150e+01	7.6923	-1.894754	0.000207	2.069316	0.701103	0.000090
 385	1.9200e+01	7.7019	-1.850761	0.000201	2.013389	0.682155	0.000088
 386	1.9250e+01	7.7164	-1.810027	0.000186	1.864249	0.631625	0.000081
 387	1.9300e+01	7.7356	-1.767256	0.000196	1.957461	0.663206	0.000086
 388	1.9350e+01	7.7693	-1.727336	0.000183	1.826964	0.618992	0.000080
 389	1.9400e+01	7.7645	-1.680899	-0.000213	-2.125244	-0.720052	0.000093
 390	1.9450e+01	7.7837	-1.643424	0.000172	1.715109	0.581095	0.000075
 391	1.9500e+01	7.8142	-1.595357	0.000220	2.199814	0.745317	0.000096
 392	1.9550e+01	7.8367	-1.553401	0.000192	1.920176	0.650573	0.000084
 393	1.9600e+01	7.8559	-1.513074	0.000185	1.845607	0.625308	0.000081
 394	1.9650e+01	7.8896	-1.467044	0.000211	2.106601	0.713736	0.000092
 395	1.9700e+01	7.8912	-1.429976	0.000170	1.696467	0.574778	0.000074
 396	1.9750e+01	7.9105	-1.385168	0.000205	2.050674	0.694787	0.000090
 397	1.9800e+01	7.9089	-1.350137	-0.000160	-1.603254	-0.543197	0.000070
 398	1.9850e+01	7.9522	-1.301256	0.000224	2.237099	0.757950	0.000098
 399	1.9900e+01	7.9907	-1.263373	0.000173	1.733752	0.587411	0.000076
 400	1.9950e+01	7.9843	-1.220602	-0.000196	-1.957461	-0.663206	0.000086
 401	2.0000e+01	8.0083	-1.177016	0.000199	1.994746	0.675838	0.000087
 402	2.0050e+01	8.0420	-1.138319	0.000177	1.771037	0.600043	0.000077
 403	2.0100e+01	8.0597	-1.095955	0.000194	1.938819	0.656890	0.000085
 404	2.0150e+01	8.0709	-1.051147	0.000205	2.050674	0.694787	0.000090
 405	2.0200e+01	8.0950	-1.011635	0.000181	1.808322	0.612676	0.000079
 406	2.0250e+01	8.1270	-0.971308	0.000185	1.845607	0.625308	0.000081
 407	2.0300e+01	8.1367	-0.931389	0.000183	1.826964	0.618992	0.000080
 408	2.0350e+01	8.1415	-0.886174	0.000207	2.069316	0.701103	0.000090
 409	2.0400e+01	8.1752	-0.844217	0.000192	1.920176	0.650573	0.000084
 410	2.0450e+01	8.1880	-0.800224	0.000201	2.013389	0.682155	0.000088
 411	2.0500e+01	8.2313	-0.764378	0.000164	1.640539	0.555830	0.000072
 412	2.0550e+01	8.2570	-0.722015	0.000194	1.938819	0.656890	0.000085
 413	2.0600e+01	8.2666	-0.677207	0.000205	2.050674	0.694787	0.000090
 414	2.0650e+01	8.2666	-0.639324	-0.000173	-1.733752	-0.587411	0.000076
 415	2.0700e+01	8.2875	-0.594109	0.000207	2.069316	0.701103	0.000090
 416	2.0750e+01	8.3196	-0.555412	0.000177	1.771037	0.600043	0.000077
 417	2.0800e+01	8.3532	-0.515492	0.000183	1.826964	0.618992	0.000080
 418	2.0850e+01	8.3677	-0.477202	0.000175	1.752394	0.593727	0.000077
 419	2.0900e+01	8.3741	-0.432394	0.000205	2.050674	0.694787	0.000090
 420	2.0950e+01	8.4030	-0.391253	0.000188	1.882892	0.637941	0.000082
 421	2.1000e+01	8.4302	-0.348074	0.000198	1.976104	0.669522	0.000086
 422	2.1050e+01	8.4639	-0.311006	0.000170	1.696467	0.574778	0.000074
 423	2.1100e+01	8.4687	-0.270679	0.000185	1.845607	0.625308	0.000081
 424	2.1150e+01	8.4816	-0.228723	0.000192	1.920176	0.650573	0.000084
 425	2.1200e+01	8.4880	-0.184323	0.000203	2.032031	0.688471	0.000089
 426	2.1250e+01	8.5024	-0.143588	0.000186	1.864249	0.631625	0.000081
 427	2.1300e+01	8.5281	-0.105705	0.000173	1.733752	0.587411	0.000076
 428	2.1350e+01	8.5522	-0.063749	0.000192	1.920176	0.650573	0.000084
 429	2.1400e+01	8.5778	-0.017719	0.000211	2.106601	0.713736	0.000092
 430	2.1450e+01	8.6083	0.021385	0.000179	1.789679	0.606360	0.000078
 431	2.1500e+01	8.6051	0.064564	-0.000198	-1.976104	-0.669522	0.000086
 432	2.1550e+01	8.6484	0.103669	0.000179	1.789679	0.606360	0.000078
 433	2.1600e+01	8.6532	0.148069	0.000203	2.032031	0.688471	0.000089
 434	2.1650e+01	8.6693	0.187581	0.000181	1.808322	0.612676	0.000079
 435	2.1700e+01	8.7334	0.227908	0.000185	1.845607	0.625308	0.000081
 436	2.1750e+01	8.7078	0.269457	-0.000190	-1.901534	-0.644257	0.000083
 437	2.1800e+01	8.7318	0.306933	0.000172	1.715109	0.581095	0.000075
 438	2.1850e+01	8.7623	0.351740	0.000205	2.050674	0.694787	0.000090
 439	2.1900e+01	8.7800	0.394919	0.000198	1.976104	0.669522	0.000086
 440	2.1950e+01	8.7816	0.432801	0.000173	1.733752	0.587411	0.000076
 441	2.2000e+01	8.8233	0.473536	0.000186	1.864249	0.631625	0.000081
 442	2.2050e+01	8.8409	0.520787	0.000216	2.162529	0.732685	0.000095
 443	2.2100e+01	8.8522	0.553782	0.000151	1.510042	0.511616	0.000066
 444	2.2150e+01	8.8682	0.598590	0.000205	2.050674	0.694787	0.000090
 445	2.2200e+01	8.8971	0.638509	0.000183	1.826964	0.618992	0.000080
 446	2.2250e+01	8.9163	0.684132	0.000209	2.087959	0.707420	0.000091
 447	2.2300e+01	8.9324	0.726495	0.000194	1.938819	0.656890	0.000085
 448	2.2350e+01	8.9580	0.766822	0.000185	1.845607	0.625308	0.000081
 449	2.2400e+01	8.9596	0.805520	0.000177	1.771037	0.600043	0.000077
 450	2.2450e+01	8.9837	0.845847	0.000185	1.845607	0.625308	0.000081
 451	2.2500e+01	9.0511	0.886988	0.000188	1.882892	0.637941	0.000082
 452	2.2550e+01	9.0222	0.928945	-0.000192	-1.920176	-0.650573	0.000084
 453	2.2600e+01	9.0495	0.966828	0.000173	1.733752	0.587411	0.000076
 454	2.2650e+01	9.0751	1.007562	0.000186	1.864249	0.631625	0.000081
 455	2.2700e+01	9.0992	1.055628	0.000220	2.199814	0.745317	0.000096
 456	2.2750e+01	9.1136	1.094326	0.000177	1.771037	0.600043	0.000077
 457	2.2800e+01	9.1169	1.131801	0.000172	1.715109	0.581095	0.000075
 458	2.2850e+01	9.1473	1.170499	0.000177	1.771037	0.600043	0.000077
 459	2.2900e+01	9.1666	1.211640	0.000188	1.882892	0.637941	0.000082
 460	2.2950e+01	9.1746	1.251560	0.000183	1.826964	0.618992	0.000080
 461	2.3000e+01	9.2211	1.299219	0.000218	2.181171	0.739001	0.000095
 462	2.3050e+01	9.2308	1.338324	0.000179	1.789679	0.606360	0.000078
 463	2.3100e+01	9.2628	1.378651	0.000185	1.845607	0.625308	0.000081
 464	2.3150e+01	9.2660	1.420607	0.000192	1.920176	0.650573	0.000084
 465	2.3200e+01	9.2965	1.462156	0.000190	1.901534	0.644257	0.000083
 466	2.3250e+01	9.3334	1.501261	0.000179	1.789679	0.606360	0.000078
 467	2.3300e+01	9.3382	1.542810	0.000190	1.901534	0.644257	0.000083
 468	2.3350e+01	9.3703	1.584766	0.000192	1.920176	0.650573	0.000084
 469	2.3400e+01	9.3543	1.626315	-0.000190	-1.901534	-0.644257	0.000083
 470	2.3450e+01	9.3880	1.662976	0.000168	1.677824	0.568462	0.000073
 471	2.3500e+01	9.4297	1.701674	0.000177	1.771037	0.600043	0.000077
 472	2.3550e+01	9.4313	1.744444	0.000196	1.957461	0.663206	0.000086
 473	2.3600e+01	9.4441	1.787215	0.000196	1.957461	0.663206	0.000086
 474	2.3650e+01	9.4698	1.827135	0.000183	1.826964	0.618992	0.000080
 475	2.3700e+01	9.5003	1.865833	0.000177	1.771037	0.600043	0.000077
 476	2.3750e+01	9.5115	1.910640	0.000205	2.050674	0.694787	0.000090
 477	2.3800e+01	9.5420	1.951374	0.000186	1.864249	0.631625	0.000081
 478	2.3850e+01	9.5773	1.991294	0.000183	1.826964	0.618992	0.000080
 479	2.3900e+01	9.5821	2.028362	0.000170	1.696467	0.574778	0.000074
 480	2.3950e+01	9.5981	2.073985	0.000209	2.087959	0.707420	0.000091
 481	2.4000e+01	9.6174	2.114312	0.000185	1.845607	0.625308	0.000081
 482	2.4050e+01	9.6318	2.155046	0.000186	1.864249	0.631625	0.000081
 483	2.4100e+01	9.6463	2.196595	0.000190	1.901534	0.644257	0.000083
 484	2.4150e+01	9.6896	2.234885	0.000175	1.752394	0.593727	0.000077
 485	2.4200e+01	9.6848	2.272768	-0.000173	-1.733752	-0.587411	0.000076
 486	2.4250e+01	9.7120	2.313095	0.000185	1.845607	0.625308	0.000081
 487	2.4300e+01	9.7345	2.352200	0.000179	1.789679	0.606360	0.000078
 488	2.4350e+01	9.7746	2.393749	0.000190	1.901534	0.644257	0.000083
 489	2.4400e+01	9.7569	2.434075	-0.000185	-1.845607	-0.625308	0.000081
 490	2.4450e+01	9.7906	2.474810	0.000186	1.864249	0.631625	0.000081
 491	2.4500e+01	9.8307	2.517173	0.000194	1.938819	0.656890	0.000085
 492	2.4550e+01	9.8227	2.551390	-0.000157	-1.565969	-0.530565	0.000068
 493	2.4600e+01	9.8564	2.596198	0.000205	2.050674	0.694787	0.000090
 494	2.4650e+01	9.8564	2.637747	-0.000190	-1.901534	-0.644257	0.000083
 495	2.4700e+01	9.9045	2.677666	0.000183	1.826964	0.618992	0.000080
 496	2.4750e+01	9.9206	2.716364	0.000177	1.771037	0.600043	0.000077
 497	2.4800e+01	9.9446	2.757505	0.000188	1.882892	0.637941	0.000082
 498	2.4850e+01	9.9639	2.798647	0.000188	1.882892	0.637941	0.000082
 499	2.4900e+01	9.9815	2.841418	0.000196	1.957461	0.663206	0.000086
 500	2.4950e+01	10.0024	2.884189	0.000196	1.957461	0.663206	0.000086
 501	2.5000e+01	10.0200	2.920035	0.000164	1.640539	0.555830	0.000072
 502	2.5050e+01	10.0361	2.958325	0.000175	1.752394	0.593727	0.000077
 503	2.5100e+01	10.0585	2.997430	0.000179	1.789679	0.606360	0.000078
 504	2.5150e+01	10.0650	3.041423	0.000201	2.013389	0.682155	0.000088
 505	2.5200e+01	10.0810	3.081343	0.000183	1.826964	0.618992	0.000080
 506	2.5250e+01	10.1147	3.123706	0.000194	1.938819	0.656890	0.000085
 507	2.5300e+01	10.1307	3.159145	0.000162	1.621897	0.549513	0.000071
 508	2.5350e+01	10.1676	3.201509	0.000194	1.938819	0.656890	0.000085
 509	2.5400e+01	10.1885	3.240206	0.000177	1.771037	0.600043	0.000077
 510	2.5450e+01	10.1837	3.277682	-0.000172	-1.715109	-0.581095	0.000075
 511	2.5500e+01	10.2222	3.315972	0.000175	1.752394	0.593727	0.000077
 512	2.5550e+01	10.2446	3.354262	0.000175	1.752394	0.593727	0.000077
 513	2.5600e+01	10.2494	3.394182	0.000183	1.826964	0.618992	0.000080
 514	2.5650e+01	10.2799	3.430843	0.000168	1.677824	0.568462	0.000073
 515	2.5700e+01	10.2879	3.472799	0.000192	1.920176	0.650573	0.000084
 516	2.5750e+01	10.3024	3.514348	0.000190	1.901534	0.644257	0.000083
 517	2.5800e+01	10.3329	3.552231	0.000173	1.733752	0.587411	0.000076
 518	2.5850e+01	10.3617	3.590928	0.000177	1.771037	0.600043	0.000077
 519	2.5900e+01	10.3794	3.624330	0.000153	1.528684	0.517932	0.000067
 520	2.5950e+01	10.3938	3.664250	0.000183	1.826964	0.618992	0.000080
 521	2.6000e+01	10.4147	3.702947	0.000177	1.771037	0.600043	0.000077
 522	2.6050e+01	10.4564	3.741238	0.000175	1.752394	0.593727	0.000077
 523	2.6100e+01	10.4516	3.781565	-0.000185	-1.845607	-0.625308	0.000081
 524	2.6150e+01	10.4612	3.822299	0.000186	1.864249	0.631625	0.000081
 525	2.6200e+01	10.4788	3.859774	0.000172	1.715109	0.581095	0.000075
 526	2.6250e+01	10.5029	3.902953	0.000198	1.976104	0.669522	0.000086
 527	2.6300e+01	10.5350	3.940021	0.000170	1.696467	0.574778	0.000074
 528	2.6350e+01	10.5478	3.978718	0.000177	1.771037	0.600043	0.000077
 529	2.6400e+01	10.5944	4.018231	0.000181	1.808322	0.612676	0.000079
 530	2.6450e+01	10.5879	4.057335	-0.000179	-1.789679	-0.606360	0.000078
 531	2.6500e+01	10.6056	4.096440	0.000179	1.789679	0.606360	0.000078
 532	2.6550e+01	10.6505	4.134323	0.000173	1.733752	0.587411	0.000076
 533	2.6600e+01	10.6505	4.176280	-0.000192	-1.920176	-0.650573	0.000084
 534	2.6650e+01	10.6730	4.212940	0.000168	1.677824	0.568462	0.000073
 535	2.6700e+01	10.7018	4.250416	0.000172	1.715109	0.581095	0.000075
 536	2.6750e+01	10.7147	4.288706	0.000175	1.752394	0.593727	0.000077
 537	2.6800e+01	10.7355	4.323330	0.000158	1.584612	0.536881	0.000069
 538	2.6850e+01	10.7612	4.360398	0.000170	1.696467	0.574778	0.000074
 539	2.6900e+01	10.7484	4.401947	-0.000190	-1.901534	-0.644257	0.000083
 540	2.6950e+01	10.7933	4.441867	0.000183	1.826964	0.618992	0.000080
 541	2.7000e+01	10.8318	4.480564	0.000177	1.771037	0.600043	0.000077
 542	2.7050e+01	10.8478	4.517225	0.000168	1.677824	0.568462	0.000073
 543	2.7100e+01	10.8382	4.554293	-0.000170	-1.696467	-0.574778	0.000074
 544	2.7150e+01	10.8815	4.600323	0.000211	2.106601	0.713736	0.000092
 545	2.7200e+01	10.8911	4.639428	0.000179	1.789679	0.606360	0.000078
 546	2.7250e+01	10.9136	4.679755	0.000185	1.845607	0.625308	0.000081
 547	2.7300e+01	10.9441	4.715194	0.000162	1.621897	0.549513	0.000071
 548	2.7350e+01	10.9810	4.753891	0.000177	1.771037	0.600043	0.000077
 549	2.7400e+01	10.9585	4.795440	-0.000190	-1.901534	-0.644257	0.000083
 550	2.7450e+01	10.9858	4.834138	0.000177	1.771037	0.600043	0.000077
 551	2.7500e+01	11.0115	4.873243	0.000179	1.789679	0.606360	0.000078
 552	2.7550e+01	11.0387	4.914792	0.000190	1.901534	0.644257	0.000083
 553	2.7600e+01	11.0580	4.955933	0.000188	1.882892	0.637941	0.000082
 554	2.7650e+01	11.0724	4.988113	0.000147	1.472757	0.498983	0.000064
 555	2.7700e+01	11.1029	5.029255	0.000188	1.882892	0.637941	0.000082
 556	2.7750e+01	11.1254	5.069582	0.000185	1.845607	0.625308	0.000081
 557	2.7800e+01	11.1205	5.111945	-0.000194	-1.938819	-0.656890	0.000085
 558	2.7850e+01	11.1767	5.151458	0.000181	1.808322	0.612676	0.000079
 559	2.7900e+01	11.1751	5.193821	-0.000194	-1.938819	-0.656890	0.000085
 560	2.7950e+01	11.1815	5.232111	0.000175	1.752394	0.593727	0.000077
 561	2.8000e+01	11.2184	5.272031	0.000183	1.826964	0.618992	0.000080
 562	2.8050e+01	11.2360	5.316431	0.000203	2.032031	0.688471	0.000089
 563	2.8100e+01	11.2489	5.356758	0.000185	1.845607	0.625308	0.000081
 564	2.8150e+01	11.2874	5.396270	0.000181	1.808322	0.612676	0.000079
 565	2.8200e+01	11.3018	5.436597	0.000185	1.845607	0.625308	0.000081
 566	2.8250e+01	11.3130	5.476517	0.000183	1.826964	0.618992	0.000080
 567	2.8300e+01	11.3419	5.517659	0.000188	1.882892	0.637941	0.000082
 568	2.8350e+01	11.3532	5.556763	0.000179	1.789679	0.606360	0.000078
 569	2.8400e+01	11.3548	5.596276	0.000181	1.808322	0.612676	0.000079
 570	2.8450e+01	11.3788	5.640676	0.000203	2.032031	0.688471	0.000089
 571	2.8500e+01	11.4141	5.674893	0.000157	1.565969	0.530565	0.000068
 572	2.8550e+01	11.4350	5.714812	0.000183	1.826964	0.618992	0.000080
 573	2.8600e+01	11.4510	5.760027	0.000207	2.069316	0.701103	0.000090
 574	2.8650e+01	11.4863	5.797096	0.000170	1.696467	0.574778	0.000074
 575	2.8700e+01	11.5056	5.835386	0.000175	1.752394	0.593727	0.000077
 576	2.8750e+01	11.5248	5.873676	0.000175	1.752394	0.593727	0.000077
 577	2.8800e+01	11.5601	5.915632	0.000192	1.920176	0.650573	0.000084
 578	2.8850e+01	11.5761	5.956774	0.000188	1.882892	0.637941	0.000082
 579	2.8900e+01	11.5858	6.001581	0.000205	2.050674	0.694787	0.000090
 580	2.8950e+01	11.5874	6.033354	0.000145	1.454114	0.492667	0.000064
 581	2.9000e+01	11.6098	6.076533	0.000198	1.976104	0.669522	0.000086
 582	2.9050e+01	11.6259	6.113601	0.000170	1.696467	0.574778	0.000074
 583	2.9100e+01	11.6852	6.155557	0.000192	1.920176	0.650573	0.000084
 584	2.9150e+01	11.6788	6.195069	-0.000181	-1.808322	-0.612676	0.000079
 585	2.9200e+01	11.6772	6.234989	-0.000183	-1.826964	-0.618992	0.000080
 586	2.9250e+01	11.7173	6.275316	0.000185	1.845607	0.625308	0.000081
 587	2.9300e+01	11.7542	6.312791	0.000172	1.715109	0.581095	0.000075
 588	2.9350e+01	11.7478	6.356784	-0.000201	-2.013389	-0.682155	0.000088
 589	2.9400e+01	11.7606	6.394667	0.000173	1.733752	0.587411	0.000076
 590	2.9450e+01	11.8039	6.438253	0.000199	1.994746	0.675838	0.000087
 591	2.9500e+01	11.8088	6.473691	0.000162	1.621897	0.549513	0.000071
 592	2.9550e+01	11.8232	6.516462	0.000196	1.957461	0.663206	0.000086
 593	2.9600e+01	11.8585	6.551087	0.000158	1.584612	0.536881	0.000069
 594	2.9650e+01	11.8633	6.591821	0.000186	1.864249	0.631625	0.000081
 595	2.9700e+01	11.8890	6.627260	0.000162	1.621897	0.549513	0.000071
 596	2.9750e+01	11.9098	6.667587	0.000185	1.845607	0.625308	0.000081
 597	2.9800e+01	11.9483	6.705877	0.000175	1.752394	0.593727	0.000077
 598	2.9850e+01	11.9563	6.743760	0.000173	1.733752	0.587411	0.000076
 599	2.9900e+01	11.9932	6.780828	0.000170	1.696467	0.574778	0.000074
 600	2.9950e+01	11.9932	6.819118	-0.000175	-1.752394	-0.593727	0.000077
 601	3.0000e+01	12.0029	6.855779	0.000168	1.677824	0.568462	0.000073
 602	3.0050e+01	12.0269	6.896513	0.000186	1.864249	0.631625	0.000081
 603	3.0100e+01	12.0510	6.932359	0.000164	1.640539	0.555830	0.000072
 604	3.0150e+01	12.0622	6.970242	0.000173	1.733752	0.587411	0.000076
 605	3.0200e+01	12.1023	7.015050	0.000205	2.050674	0.694787	0.000090
 606	3.0250e+01	12.1424	7.051711	0.000168	1.677824	0.568462	0.000073
 607	3.0300e+01	12.1264	7.086335	-0.000158	-1.584612	-0.536881	0.000069
 608	3.0350e+01	12.1537	7.127069	0.000186	1.864249	0.631625	0.000081
 609	3.0400e+01	12.1729	7.161286	0.000157	1.565969	0.530565	0.000068
 610	3.0450e+01	12.2034	7.202835	0.000190	1.901534	0.644257	0.000083
 611	3.0500e+01	12.2066	7.242347	0.000181	1.808322	0.612676	0.000079
 612	3.0550e+01	12.2371	7.276971	0.000158	1.584612	0.536881	0.000069
 613	3.0600e+01	12.2435	7.319742	0.000196	1.957461	0.663206	0.000086
 614	3.0650e+01	12.2756	7.359254	0.000181	1.808322	0.612676	0.000079
 615	3.0700e+01	12.2788	7.394286	0.000160	1.603254	0.543197	0.000070
 616	3.0750e+01	12.3285	7.430946	0.000168	1.677824	0.568462	0.000073
 617	3.0800e+01	12.3221	7.471273	-0.000185	-1.845607	-0.625308	0.000081
 618	3.0850e+01	12.3590	7.505898	0.000158	1.584612	0.536881	0.000069
 619	3.0900e+01	12.3847	7.548668	0.000196	1.957461	0.663206	0.000086
 620	3.0950e+01	12.4087	7.583293	0.000158	1.584612	0.536881	0.000069
 621	3.1000e+01	12.4312	7.624434	0.000188	1.882892	0.637941	0.000082
 622	3.1050e+01	12.4264	7.660688	-0.000166	-1.659182	-0.562146	0.000073
 623	3.1100e+01	12.4424	7.701829	0.000188	1.882892	0.637941	0.000082
 624	3.1150e+01	12.4890	7.734824	0.000151	1.510042	0.511616	0.000066
 625	3.1200e+01	12.4970	7.774336	0.000181	1.808322	0.612676	0.000079
 626	3.1250e+01	12.5130	7.813848	0.000181	1.808322	0.612676	0.000079
 627	3.1300e+01	12.5291	7.855805	0.000192	1.920176	0.650573	0.000084
 628	3.1350e+01	12.5611	7.888800	0.000151	1.510042	0.511616	0.000066
 629	3.1400e+01	12.5724	7.927497	0.000177	1.771037	0.600043	0.000077
 630	3.1450e+01	12.6029	7.967009	0.000181	1.808322	0.612676	0.000079
 631	3.1500e+01	12.6157	8.003263	0.000166	1.659182	0.562146	0.000073
 632	3.1550e+01	12.6381	8.046034	0.000196	1.957461	0.663206	0.000086
 633	3.1600e+01	12.6638	8.075362	0.000134	1.342259	0.454770	0.000059
 634	3.1650e+01	12.6638	8.115689	-0.000185	-1.845607	-0.625308	0.000081
 635	3.1700e+01	12.6991	8.152350	0.000168	1.677824	0.568462	0.000073
 636	3.1750e+01	12.7135	8.190233	0.000173	1.733752	0.587411	0.000076
 637	3.1800e+01	12.7440	8.228523	0.000175	1.752394	0.593727	0.000077
 638	3.1850e+01	12.7617	8.266406	0.000173	1.733752	0.587411	0.000076
 639	3.1900e+01	12.7970	8.305104	0.000177	1.771037	0.600043	0.000077
 640	3.1950e+01	12.8098	8.344616	0.000181	1.808322	0.612676	0.000079
 641	3.2000e+01	12.8130	8.371908	0.000125	1.249047	0.423189	0.000055
 642	3.2050e+01	12.8339	8.418345	0.000213	2.125244	0.720052	0.000093
 643	3.2100e+01	12.8467	8.448488	0.000138	1.379544	0.467402	0.000060
 644	3.2150e+01	12.8659	8.488000	0.000181	1.808322	0.612676	0.000079
 645	3.2200e+01	12.8900	8.529549	0.000190	1.901534	0.644257	0.000083
 646	3.2250e+01	12.9093	8.564581	0.000160	1.603254	0.543197	0.000070
 647	3.2300e+01	12.9397	8.601242	0.000168	1.677824	0.568462	0.000073
 648	3.2350e+01	12.9638	8.637088	0.000164	1.640539	0.555830	0.000072
 649	3.2400e+01	12.9478	8.672527	-0.000162	-1.621897	-0.549513	0.000071
 650	3.2450e+01	12.9831	8.706336	0.000155	1.547327	0.524248	0.000068
 651	3.2500e+01	13.0007	8.747478	0.000188	1.882892	0.637941	0.000082
 652	3.2550e+01	13.0424	8.782509	0.000160	1.603254	0.543197	0.000070
 653	3.2600e+01	13.0472	8.824058	0.000190	1.901534	0.644257	0.000083
 654	3.2650e+01	13.0857	8.859089	0.000160	1.603254	0.543197	0.000070
 655	3.2700e+01	13.0809	8.899009	-0.000183	-1.826964	-0.618992	0.000080
 656	3.2750e+01	13.1258	8.937299	0.000175	1.752394	0.593727	0.000077
 657	3.2800e+01	13.1290	8.973145	0.000164	1.640539	0.555830	0.000072
 658	3.2850e+01	13.1595	9.010214	0.000170	1.696467	0.574778	0.000074
 659	3.2900e+01	13.1691	9.044838	0.000158	1.584612	0.536881	0.000069
 660	3.2950e+01	13.1900	9.080276	0.000162	1.621897	0.549513	0.000071
 661	3.3000e+01	13.2093	9.121418	0.000188	1.882892	0.637941	0.000082
 662	3.3050e+01	13.2365	9.152376	0.000142	1.416829	0.480035	0.000062
 663	3.3100e+01	13.2526	9.191074	0.000177	1.771037	0.600043	0.000077
 664	3.3150e+01	13.2798	9.226920	0.000164	1.640539	0.555830	0.000072
 665	3.3200e+01	13.2766	9.265617	-0.000177	-1.771037	-0.600043	0.000077
 666	3.3250e+01	13.3167	9.303093	0.000172	1.715109	0.581095	0.000075
 667	3.3300e+01	13.3472	9.338939	0.000164	1.640539	0.555830	0.000072
 668	3.3350e+01	13.3552	9.377637	0.000177	1.771037	0.600043	0.000077
 669	3.3400e+01	13.3633	9.411446	0.000155	1.547327	0.524248	0.000068
 670	3.3450e+01	13.4066	9.447292	0.000164	1.640539	0.555830	0.000072
 671	3.3500e+01	13.4178	9.485990	0.000177	1.771037	0.600043	0.000077
 672	3.3550e+01	13.4387	9.523058	0.000170	1.696467	0.574778	0.000074
 673	3.3600e+01	13.4371	9.559719	-0.000168	-1.677824	-0.568462	0.000073
 674	3.3650e+01	13.4804	9.599231	0.000181	1.808322	0.612676	0.000079
 675	3.3700e+01	13.5221	9.633855	0.000158	1.584612	0.536881	0.000069
 676	3.3750e+01	13.5125	9.670516	-0.000168	-1.677824	-0.568462	0.000073
 677	3.3800e+01	13.5205	9.708806	0.000175	1.752394	0.593727	0.000077
 678	3.3850e+01	13.5542	9.746689	0.000173	1.733752	0.587411	0.000076
 679	3.3900e+01	13.5686	9.786201	0.000181	1.808322	0.612676	0.000079
 680	3.3950e+01	13.5991	9.823269	0.000170	1.696467	0.574778	0.000074
 681	3.4000e+01	13.6135	9.861152	0.000173	1.733752	0.587411	0.000076
 682	3.4050e+01	13.6328	9.899850	0.000177	1.771037	0.600043	0.000077
 683	3.4100e+01	13.6825	9.936918	0.000170	1.696467	0.574778	0.000074
 684	3.4150e+01	13.6905	9.973579	0.000168	1.677824	0.568462	0.000073
 685	3.4200e+01	13.7034	10.018386	0.000205	2.050674	0.694787	0.000090
 686	3.4250e+01	13.7098	10.046493	0.000129	1.286332	0.435821	0.000056
 687	3.4300e+01	13.7322	10.088857	0.000194	1.938819	0.656890	0.000085
 688	3.4350e+01	13.7563	10.128776	0.000183	1.826964	0.618992	0.000080
 689	3.4400e+01	13.7659	10.162586	0.000155	1.547327	0.524248	0.000068
 690	3.4450e+01	13.7932	10.201691	0.000179	1.789679	0.606360	0.000078
 691	3.4500e+01	13.8108	10.235093	0.000153	1.528684	0.517932	0.000067
 692	3.4550e+01	13.8301	10.271346	0.000166	1.659182	0.562146	0.000073
 693	3.4600e+01	13.8734	10.314524	0.000198	1.976104	0.669522	0.000086
 694	3.4650e+01	13.8798	10.348741	0.000157	1.565969	0.530565	0.000068
 695	3.4700e+01	13.9007	10.381736	0.000151	1.510042	0.511616	0.000066
 696	3.4750e+01	13.9023	10.418397	0.000168	1.677824	0.568462	0.000073
 697	3.4800e+01	13.9199	10.456280	0.000173	1.733752	0.587411	0.000076
 698	3.4850e+01	13.9552	10.491311	0.000160	1.603254	0.543197	0.000070
 699	3.4900e+01	13.9761	10.535304	0.000201	2.013389	0.682155	0.000088
 700	3.4950e+01	13.9889	10.571150	0.000164	1.640539	0.555830	0.000072
 701	3.5000e+01	14.0322	10.611884	0.000186	1.864249	0.631625	0.000081
 702	3.5050e+01	14.0418	10.644472	0.000149	1.491399	0.505300	0.000065
 703	3.5100e+01	14.0370	10.685613	-0.000188	-1.882892	-0.637941	0.000082
 704	3.5150e+01	14.0659	10.720238	0.000158	1.584612	0.536881	0.000069
 705	3.5200e+01	14.1028	10.758935	0.000177	1.771037	0.600043	0.000077
 706	3.5250e+01	14.1044	10.793152	0.000157	1.565969	0.530565	0.000068
 707	3.5300e+01	14.1285	10.828591	0.000162	1.621897	0.549513	0.000071
 708	3.5350e+01	14.1590	10.870140	0.000190	1.901534	0.644257	0.000083
 709	3.5400e+01	14.1638	10.907615	0.000172	1.715109	0.581095	0.000075
 710	3.5450e+01	14.1991	10.947942	0.000185	1.845607	0.625308	0.000081
 711	3.5500e+01	14.2295	10.978085	0.000138	1.379544	0.467402	0.000060
 712	3.5550e+01	14.2328	11.013932	0.000164	1.640539	0.555830	0.000072
 713	3.5600e+01	14.2600	11.051814	0.000173	1.733752	0.587411	0.000076
 714	3.5650e+01	14.2793	11.084402	0.000149	1.491399	0.505300	0.000065
 715	3.5700e+01	14.2969	11.123507	0.000179	1.789679	0.606360	0.000078
 716	3.5750e+01	14.3082	11.162612	0.000179	1.789679	0.606360	0.000078
 717	3.5800e+01	14.3338	11.199680	0.000170	1.696467	0.574778	0.000074
 718	3.5850e+01	14.3434	11.233489	0.000155	1.547327	0.524248	0.000068
 719	3.5900e+01	14.3803	11.267706	0.000157	1.565969	0.530565	0.000068
 720	3.5950e+01	14.3868	11.304774	0.000170	1.696467	0.574778	0.000074
 721	3.6000e+01	14.4076	11.342250	0.000172	1.715109	0.581095	0.000075
 722	3.6050e+01	14.4397	11.374837	0.000149	1.491399	0.505300	0.000065
 723	3.6100e+01	14.4734	11.409054	0.000157	1.565969	0.530565	0.000068
 724	3.6150e+01	14.4622	11.446122	-0.000170	-1.696467	-0.574778	0.000074
 725	3.6200e+01	14.4942	11.485227	0.000179	1.789679	0.606360	0.000078
 726	3.6250e+01	14.4926	11.518222	-0.000151	-1.510042	-0.511616	0.000066
 727	3.6300e+01	14.5376	11.554882	0.000168	1.677824	0.568462	0.000073
 728	3.6350e+01	14.5472	11.582582	0.000127	1.267689	0.429505	0.000055
 729	3.6400e+01	14.5793	11.618428	0.000164	1.640539	0.555830	0.000072
 730	3.6450e+01	14.5921	11.650201	0.000145	1.454114	0.492667	0.000064
 731	3.6500e+01	14.6178	11.692564	0.000194	1.938819	0.656890	0.000085
 732	3.6550e+01	14.6354	11.728410	0.000164	1.640539	0.555830	0.000072
 733	3.6600e+01	14.6563	11.761405	0.000151	1.510042	0.511616	0.000066
 734	3.6650e+01	14.6996	11.791549	0.000138	1.379544	0.467402	0.000060
 735	3.6700e+01	14.6819	11.831875	-0.000185	-1.845607	-0.625308	0.000081
 736	3.6750e+01	14.7076	11.862426	0.000140	1.398187	0.473719	0.000061
 737	3.6800e+01	14.7397	11.901531	0.000179	1.789679	0.606360	0.000078
 738	3.6850e+01	14.7477	11.932896	0.000144	1.435472	0.486351	0.000063
 739	3.6900e+01	14.7718	11.972001	0.000179	1.789679	0.606360	0.000078
 740	3.6950e+01	14.8103	11.998886	0.000123	1.230404	0.416872	0.000054
 741	3.7000e+01	14.8119	12.042879	0.000201	2.013389	0.682155	0.000088
 742	3.7050e+01	14.8408	12.073837	0.000142	1.416829	0.480035	0.000062
 743	3.7100e+01	14.8392	12.109683	-0.000164	-1.640539	-0.555830	0.000072
 744	3.7150e+01	14.8793	12.141048	0.000144	1.435472	0.486351	0.000063
 745	3.7200e+01	14.9097	12.177302	0.000166	1.659182	0.562146	0.000073
 746	3.7250e+01	14.9194	12.213148	0.000164	1.640539	0.555830	0.000072
 747	3.7300e+01	14.9129	12.248180	-0.000160	-1.603254	-0.543197	0.000070
 748	3.7350e+01	14.9498	12.282396	0.000157	1.565969	0.530565	0.000068
 749	3.7400e+01	14.9707	12.317020	0.000158	1.584612	0.536881	0.000069
 750	3.7450e+01	14.9851	12.347571	0.000140	1.398187	0.473719	0.000061
 751	3.7500e+01	15.0188	12.387491	0.000183	1.826964	0.618992	0.000080
 752	3.7550e+01	15.0301	12.419263	0.000145	1.454114	0.492667	0.000064
 753	3.7600e+01	15.0493	12.455924	0.000168	1.677824	0.568462	0.000073
 754	3.7650e+01	15.0750	12.492585	0.000168	1.677824	0.568462	0.000073
 755	3.7700e+01	15.0974	12.523950	0.000144	1.435472	0.486351	0.000063
 756	3.7750e+01	15.0846	12.561019	-0.000170	-1.696467	-0.574778	0.000074
 757	3.7800e+01	15.1231	12.595235	0.000157	1.565969	0.530565	0.000068
 758	3.7850e+01	15.1568	12.633118	0.000173	1.733752	0.587411	0.000076
 759	3.7900e+01	15.1953	12.663669	0.000140	1.398187	0.473719	0.000061
 760	3.7950e+01	15.1841	12.697886	-0.000157	-1.565969	-0.530565	0.000068
 761	3.8000e+01	15.2178	12.731288	0.000153	1.528684	0.517932	0.000067
 762	3.8050e+01	15.2274	12.774466	0.000198	1.976104	0.669522	0.000086
 763	3.8100e+01	15.2434	12.806646	0.000147	1.472757	0.498983	0.000064
 764	3.8150e+01	15.2867	12.843307	0.000168	1.677824	0.568462	0.000073
 765	3.8200e+01	15.3076	12.870599	0.000125	1.249047	0.423189	0.000055
 766	3.8250e+01	15.3188	12.910111	0.000181	1.808322	0.612676	0.000079
 767	3.8300e+01	15.3300	12.942291	0.000147	1.472757	0.498983	0.000064
 768	3.8350e+01	15.3525	12.981396	0.000179	1.789679	0.606360	0.000078
 769	3.8400e+01	15.3990	13.019686	0.000175	1.752394	0.593727	0.000077
 770	3.8450e+01	15.4135	13.054718	0.000160	1.603254	0.543197	0.000070
 771	3.8500e+01	15.4119	13.092601	-0.000173	-1.733752	-0.587411	0.000076
 772	3.8550e+01	15.4279	13.127225	0.000158	1.584612	0.536881	0.000069
 773	3.8600e+01	15.4520	13.160219	0.000151	1.510042	0.511616	0.000066
 774	3.8650e+01	15.4905	13.195251	0.000160	1.603254	0.543197	0.000070
 775	3.8700e+01	15.4792	13.229060	-0.000155	-1.547327	-0.524248	0.000068
 776	3.8750e+01	15.5258	13.265721	0.000168	1.677824	0.568462	0.000073
 777	3.8800e+01	15.5322	13.300753	0.000160	1.603254	0.543197	0.000070
 778	3.8850e+01	15.5482	13.339043	0.000175	1.752394	0.593727	0.000077
 779	3.8900e+01	15.5996	13.372852	0.000155	1.547327	0.524248	0.000068
 780	3.8950e+01	15.5867	13.414809	-0.000192	-1.920176	-0.650573	0.000084
 781	3.9000e+01	15.6349	13.445767	0.000142	1.416829	0.480035	0.000062
 782	3.9050e+01	15.6349	13.481205	-0.000162	-1.621897	-0.549513	0.000071
 783	3.9100e+01	15.6557	13.514200	0.000151	1.510042	0.511616	0.000066
 784	3.9150e+01	15.6653	13.548824	0.000158	1.584612	0.536881	0.000069
 785	3.9200e+01	15.6766	13.587929	0.000179	1.789679	0.606360	0.000078
 786	3.9250e+01	15.7151	13.624183	0.000166	1.659182	0.562146	0.000073
 787	3.9300e+01	15.7343	13.657992	0.000155	1.547327	0.524248	0.000068
 788	3.9350e+01	15.7792	13.696282	0.000175	1.752394	0.593727	0.000077
 789	3.9400e+01	15.7568	13.731721	-0.000162	-1.621897	-0.549513	0.000071
 790	3.9450e+01	15.7744	13.766345	0.000158	1.584612	0.536881	0.000069
 791	3.9500e+01	15.8001	13.806265	0.000183	1.826964	0.618992	0.000080
 792	3.9550e+01	15.8386	13.837223	0.000142	1.416829	0.480035	0.000062
 793	3.9600e+01	15.8514	13.873069	0.000164	1.640539	0.555830	0.000072
 794	3.9650e+01	15.8739	13.909322	0.000166	1.659182	0.562146	0.000073
 795	3.9700e+01	15.8931	13.945169	0.000164	1.640539	0.555830	0.000072
 796	3.9750e+01	15.9268	13.979385	0.000157	1.565969	0.530565	0.000068
 797	3.9800e+01	15.9300	14.018898	0.000181	1.808322	0.612676	0.000079
 798	3.9850e+01	15.9477	14.053114	0.000157	1.565969	0.530565	0.000068
 799	3.9900e+01	15.9798	14.090183	0.000170	1.696467	0.574778	0.000074
 800	3.9950e+01	15.9942	14.120733	0.000140	1.398187	0.473719	0.000061
 801	4.0000e+01	16.0167	14.163504	0.000196	1.957461	0.663206	0.000086
 802	4.0050e+01	16.0471	14.193240	0.000136	1.360902	0.461086	0.000059
 803	4.0100e+01	16.0712	14.230716	0.000172	1.715109	0.581095	0.000075
 804	4.0150e+01	16.0728	14.269006	0.000175	1.752394	0.593727	0.000077
 805	4.0200e+01	16.0889	14.305259	0.000166	1.659182	0.562146	0.000073
 806	4.0250e+01	16.1225	14.341920	0.000168	1.677824	0.568462	0.000073
 807	4.0300e+01	16.1482	14.375322	0.000153	1.528684	0.517932	0.000067
 808	4.0350e+01	16.1546	14.410354	0.000160	1.603254	0.543197	0.000070
 809	4.0400e+01	16.1659	14.448644	0.000175	1.752394	0.593727	0.000077
 810	4.0450e+01	16.1819	14.486119	0.000172	1.715109	0.581095	0.000075
 811	4.0500e+01	16.2108	14.524410	0.000175	1.752394	0.593727	0.000077
 812	4.0550e+01	16.2348	14.563515	0.000179	1.789679	0.606360	0.000078
 813	4.0600e+01	16.2429	14.597324	0.000155	1.547327	0.524248	0.000068
 814	4.0650e+01	16.2525	14.631541	0.000157	1.565969	0.530565	0.000068
 815	4.0700e+01	16.3006	14.666165	0.000158	1.584612	0.536881	0.000069
 816	4.0750e+01	16.3343	14.701196	0.000160	1.603254	0.543197	0.000070
 817	4.0800e+01	16.3343	14.741116	-0.000183	-1.826964	-0.618992	0.000080
 818	4.0850e+01	16.3439	14.776555	0.000162	1.621897	0.549513	0.000071
 819	4.0900e+01	16.3616	14.812401	0.000164	1.640539	0.555830	0.000072
 820	4.0950e+01	16.4129	14.849469	0.000170	1.696467	0.574778	0.000074
 821	4.1000e+01	16.4257	14.889796	0.000185	1.845607	0.625308	0.000081
 822	4.1050e+01	16.4145	14.924420	-0.000158	-1.584612	-0.536881	0.000069
 823	4.1100e+01	16.4546	14.956600	0.000147	1.472757	0.498983	0.000064
 824	4.1150e+01	16.4739	14.994890	0.000175	1.752394	0.593727	0.000077
 825	4.1200e+01	16.5043	15.031959	0.000170	1.696467	0.574778	0.000074
 826	4.1250e+01	16.5092	15.069027	0.000170	1.696467	0.574778	0.000074
 827	4.1300e+01	16.5220	15.105280	0.000166	1.659182	0.562146	0.000073
 828	4.1350e+01	16.5669	15.143978	0.000177	1.771037	0.600043	0.000077
 829	4.1400e+01	16.5589	15.181046	-0.000170	-1.696467	-0.574778	0.000074
 830	4.1450e+01	16.5958	15.216485	0.000162	1.621897	0.549513	0.000071
 831	4.1500e+01	16.6263	15.253960	0.000172	1.715109	0.581095	0.000075
 832	4.1550e+01	16.6295	15.288177	0.000157	1.565969	0.530565	0.000068
 833	4.1600e+01	16.6503	15.329726	0.000190	1.901534	0.644257	0.000083
 834	4.1650e+01	16.6728	15.362313	0.000149	1.491399	0.505300	0.000065
 835	4.1700e+01	16.6664	15.401826	-0.000181	-1.808322	-0.612676	0.000079
 836	4.1750e+01	16.7145	15.438486	0.000168	1.677824	0.568462	0.000073
 837	4.1800e+01	16.7450	15.479628	0.000188	1.882892	0.637941	0.000082
 838	4.1850e+01	16.7466	15.517918	0.000175	1.752394	0.593727	0.000077
 839	4.1900e+01	16.7979	15.552135	0.000157	1.565969	0.530565	0.000068
 840	4.1950e+01	16.7883	15.585537	-0.000153	-1.528684	-0.517932	0.000067
 841	4.2000e+01	16.8204	15.623827	0.000175	1.752394	0.593727	0.000077
 842	4.2050e+01	16.8428	15.665376	0.000190	1.901534	0.644257	0.000083
 843	4.2100e+01	16.8653	15.700408	0.000160	1.603254	0.543197	0.000070
 844	4.2150e+01	16.8974	15.728922	0.000130	1.304974	0.442137	0.000057
 845	4.2200e+01	16.8894	15.766804	-0.000173	-1.733752	-0.587411	0.000076
 846	4.2250e+01	16.8910	15.805909	0.000179	1.789679	0.606360	0.000078
 847	4.2300e+01	16.9295	15.839311	0.000153	1.528684	0.517932	0.000067
 848	4.2350e+01	16.9439	15.875565	0.000166	1.659182	0.562146	0.000073
 849	4.2400e+01	16.9632	15.915077	0.000181	1.808322	0.612676	0.000079
 850	4.2450e+01	17.0049	15.951331	0.000166	1.659182	0.562146	0.000073
 851	4.2500e+01	17.0113	15.985955	0.000158	1.584612	0.536881	0.000069
 852	4.2550e+01	17.0273	16.018542	0.000149	1.491399	0.505300	0.000065
 853	4.2600e+01	17.0883	16.057240	0.000177	1.771037	0.600043	0.000077
 854	4.2650e+01	17.0835	16.095123	-0.000173	-1.733752	-0.587411	0.000076
 855	4.2700e+01	17.0819	16.130154	-0.000160	-1.603254	-0.543197	0.000070
 856	4.2750e+01	17.0947	16.169666	0.000181	1.808322	0.612676	0.000079
 857	4.2800e+01	17.1332	16.205512	0.000164	1.640539	0.555830	0.000072
 858	4.2850e+01	17.1557	16.240137	0.000158	1.584612	0.536881	0.000069
 859	4.2900e+01	17.1717	16.280463	0.000185	1.845607	0.625308	0.000081
 860	4.2950e+01	17.1910	16.312643	0.000147	1.472757	0.498983	0.000064
 861	4.3000e+01	17.2118	16.349304	0.000168	1.677824	0.568462	0.000073
 862	4.3050e+01	17.2166	16.387595	0.000175	1.752394	0.593727	0.000077
 863	4.3100e+01	17.2567	16.426699	0.000179	1.789679	0.606360	0.000078
 864	4.3150e+01	17.2840	16.463768	0.000170	1.696467	0.574778	0.000074
 865	4.3200e+01	17.2904	16.499206	0.000162	1.621897	0.549513	0.000071
 866	4.3250e+01	17.3177	16.539941	0.000186	1.864249	0.631625	0.000081
 867	4.3300e+01	17.3418	16.572528	0.000149	1.491399	0.505300	0.000065
 868	4.3350e+01	17.3642	16.615706	0.000198	1.976104	0.669522	0.000086
 869	4.3400e+01	17.3835	16.650738	0.000160	1.603254	0.543197	0.000070
 870	4.3450e+01	17.4043	16.684140	0.000153	1.528684	0.517932	0.000067
 871	4.3500e+01	17.4075	16.720801	0.000168	1.677824	0.568462	0.000073
 872	4.3550e+01	17.4541	16.759498	0.000177	1.771037	0.600043	0.000077
 873	4.3600e+01	17.4573	16.795344	0.000164	1.640539	0.555830	0.000072
 874	4.3650e+01	17.4669	16.830783	0.000162	1.621897	0.549513	0.000071
 875	4.3700e+01	17.4813	16.869073	0.000175	1.752394	0.593727	0.000077
 876	4.3750e+01	17.5246	16.906956	0.000173	1.733752	0.587411	0.000076
 877	4.3800e+01	17.5359	16.946061	0.000179	1.789679	0.606360	0.000078
 878	4.3850e+01	17.5647	16.981907	0.000164	1.640539	0.555830	0.000072
 879	4.3900e+01	17.5583	17.021012	-0.000179	-1.789679	-0.606360	0.000078
 880	4.3950e+01	17.5856	17.058080	0.000170	1.696467	0.574778	0.000074
 881	4.4000e+01	17.5968	17.096778	0.000177	1.771037	0.600043	0.000077
 882	4.4050e+01	17.6337	17.135475	0.000177	1.771037	0.600043	0.000077
 883	4.4100e+01	17.6610	17.176617	0.000188	1.882892	0.637941	0.000082
 884	4.4150e+01	17.6690	17.219795	0.000198	1.976104	0.669522	0.000086
 885	4.4200e+01	17.6963	17.259715	0.000183	1.826964	0.618992	0.000080
 886	4.4250e+01	17.7075	17.298005	0.000175	1.752394	0.593727	0.000077
 887	4.4300e+01	17.7364	17.326519	0.000130	1.304974	0.442137	0.000057
 888	4.4350e+01	17.7492	17.369290	0.000196	1.957461	0.663206	0.000086
 889	4.4400e+01	17.7701	17.409210	0.000183	1.826964	0.618992	0.000080
 890	4.4450e+01	17.7942	17.448315	0.000179	1.789679	0.606360	0.000078
 891	4.4500e+01	17.8262	17.486605	0.000175	1.752394	0.593727	0.000077
 892	4.4550e+01	17.8471	17.531412	0.000205	2.050674	0.694787	0.000090
 893	4.4600e+01	17.8535	17.568481	0.000170	1.696467	0.574778	0.000074
 894	4.4650e+01	17.8695	17.613288	0.000205	2.050674	0.694787	0.000090
 895	4.4700e+01	17.9032	17.651986	0.000177	1.771037	0.600043	0.000077
 896	4.4750e+01	17.9353	17.690276	0.000175	1.752394	0.593727	0.000077
 897	4.4800e+01	17.9193	17.728159	-0.000173	-1.733752	-0.587411	0.000076
 898	4.4850e+01	17.9674	17.767264	0.000179	1.789679	0.606360	0.000078
 899	4.4900e+01	17.9722	17.812071	0.000205	2.050674	0.694787	0.000090
 900	4.4950e+01	17.9931	17.856064	0.000201	2.013389	0.682155	0.000088
 901	4.5000e+01	18.0075	17.898021	0.000192	1.920176	0.650573	0.000084
 902	4.5050e+01	18.0203	17.939977	0.000192	1.920176	0.650573	0.000084
 903	4.5100e+01	18.0556	17.973786	0.000155	1.547327	0.524248	0.000068
 904	4.5150e+01	18.0829	18.014928	0.000188	1.882892	0.637941	0.000082
 905	4.5200e+01	18.0957	18.056070	0.000188	1.882892	0.637941	0.000082
 906	4.5250e+01	18.0877	18.095989	-0.000183	-1.826964	-0.618992	0.000080
 907	4.5300e+01	18.1455	18.137538	0.000190	1.901534	0.644257	0.000083
 908	4.5350e+01	18.1631	18.178272	0.000186	1.864249	0.631625	0.000081
 909	4.5400e+01	18.1407	18.220636	-0.000194	-1.938819	-0.656890	0.000085
 910	4.5450e+01	18.1920	18.256075	0.000162	1.621897	0.549513	0.000071
 911	4.5500e+01	18.2209	18.298438	0.000194	1.938819	0.656890	0.000085
 912	4.5550e+01	18.2562	18.337951	0.000181	1.808322	0.612676	0.000079
 913	4.5600e+01	18.2626	18.383166	0.000207	2.069316	0.701103	0.000090
 914	4.5650e+01	18.2706	18.419419	0.000166	1.659182	0.562146	0.000073
 915	4.5700e+01	18.2883	18.459746	0.000185	1.845607	0.625308	0.000081
 916	4.5750e+01	18.3171	18.502517	0.000196	1.957461	0.663206	0.000086
 917	4.5800e+01	18.3460	18.546103	0.000199	1.994746	0.675838	0.000087
 918	4.5850e+01	18.3588	18.580319	0.000157	1.565969	0.530565	0.000068
 919	4.5900e+01	18.3861	18.626349	0.000211	2.106601	0.713736	0.000092
 920	4.5950e+01	18.3861	18.665861	-0.000181	-1.808322	-0.612676	0.000079
 921	4.6000e+01	18.4230	18.712706	0.000214	2.143886	0.726368	0.000094
 922	4.6050e+01	18.4503	18.751811	0.000179	1.789679	0.606360	0.000078
 923	4.6100e+01	18.4487	18.793360	-0.000190	-1.901534	-0.644257	0.000083
 924	4.6150e+01	18.4583	18.827169	0.000155	1.547327	0.524248	0.000068
 925	4.6200e+01	18.4952	18.876458	0.000226	2.255741	0.764266	0.000099
 926	4.6250e+01	18.5128	18.908230	0.000145	1.454114	0.492667	0.000064
 927	4.6300e+01	18.5289	18.959963	0.000237	2.367596	0.802163	0.000103
 928	4.6350e+01	18.5706	18.992957	0.000151	1.510042	0.511616	0.000066
 929	4.6400e+01	18.5915	19.039802	0.000214	2.143886	0.726368	0.000094
 930	4.6450e+01	18.5979	19.077685	0.000173	1.733752	0.587411	0.000076
 931	4.6500e+01	18.5947	19.117604	-0.000183	-1.826964	-0.618992	0.000080
 932	4.6550e+01	18.6284	19.151414	0.000155	1.547327	0.524248	0.000068
 933	4.6600e+01	18.6284	19.194185	-0.000196	-1.957461	-0.663206	0.000086
 934	4.6650e+01	18.6925	19.235734	0.000190	1.901534	0.644257	0.000083
 935	4.6700e+01	18.7038	19.273616	0.000173	1.733752	0.587411	0.000076
 936	4.6750e+01	18.7070	19.318424	0.000205	2.050674	0.694787	0.000090
 937	4.6800e+01	18.7326	19.359566	0.000188	1.882892	0.637941	0.000082
 938	4.6850e+01	18.7503	19.399078	0.000181	1.808322	0.612676	0.000079
 939	4.6900e+01	18.7583	19.440220	0.000188	1.882892	0.637941	0.000082
 940	4.6950e+01	18.7904	19.481769	0.000190	1.901534	0.644257	0.000083
 941	4.7000e+01	18.8160	19.518837	0.000170	1.696467	0.574778	0.000074
 942	4.7050e+01	18.8289	19.556312	0.000172	1.715109	0.581095	0.000075
 943	4.7100e+01	18.8594	19.599491	0.000198	1.976104	0.669522	0.000086
 944	4.7150e+01	18.8882	19.644298	0.000205	2.050674	0.694787	0.000090
 945	4.7200e+01	18.9123	19.682996	0.000177	1.771037	0.600043	0.000077
 946	4.7250e+01	18.9123	19.726989	-0.000201	-2.013389	-0.682155	0.000088
 947	4.7300e+01	18.9203	19.768130	0.000188	1.882892	0.637941	0.000082
 948	4.7350e+01	18.9412	19.810087	0.000192	1.920176	0.650573	0.000084
 949	4.7400e+01	18.9861	19.846747	0.000168	1.677824	0.568462	0.000073
 950	4.7450e+01	19.0037	19.890740	0.000201	2.013389	0.682155	0.000088
 951	4.7500e+01	19.0086	19.931067	0.000185	1.845607	0.625308	0.000081
 952	4.7550e+01	19.0278	19.973838	0.000196	1.957461	0.663206	0.000086
 953	4.7600e+01	19.0583	20.013351	0.000181	1.808322	0.612676	0.000079
 954	4.7650e+01	19.1000	20.055307	0.000192	1.920176	0.650573	0.000084
 955	4.7700e+01	19.1048	20.097263	0.000192	1.920176	0.650573	0.000084
 956	4.7750e+01	19.0952	20.138405	-0.000188	-1.882892	-0.637941	0.000082
 957	4.7800e+01	19.1225	20.177917	0.000181	1.808322	0.612676	0.000079
 958	4.7850e+01	19.1674	20.216615	0.000177	1.771037	0.600043	0.000077
 959	4.7900e+01	19.1690	20.261015	0.000203	2.032031	0.688471	0.000089
 960	4.7950e+01	19.1770	20.308674	0.000218	2.181171	0.739001	0.000095
 961	4.8000e+01	19.2251	20.344927	0.000166	1.659182	0.562146	0.000073
 962	4.8050e+01	19.2267	20.392179	0.000216	2.162529	0.732685	0.000095
 963	4.8100e+01	19.2412	20.430062	0.000173	1.733752	0.587411	0.000076
 964	4.8150e+01	19.2636	20.474462	0.000203	2.032031	0.688471	0.000089
 965	4.8200e+01	19.3005	20.512345	0.000173	1.733752	0.587411	0.000076
 966	4.8250e+01	19.3085	20.555524	0.000198	1.976104	0.669522	0.000086
 967	4.8300e+01	19.3182	20.595443	0.000183	1.826964	0.618992	0.000080
 968	4.8350e+01	19.3487	20.638214	0.000196	1.957461	0.663206	0.000086
 969	4.8400e+01	19.3727	20.681392	0.000198	1.976104	0.669522	0.000086
 970	4.8450e+01	19.3759	20.721312	0.000183	1.826964	0.618992	0.000080
 971	4.8500e+01	19.4176	20.762046	0.000186	1.864249	0.631625	0.000081
 972	4.8550e+01	19.4353	20.805224	0.000198	1.976104	0.669522	0.000086
 973	4.8600e+01	19.4593	20.851662	0.000213	2.125244	0.720052	0.000093
 974	4.8650e+01	19.4593	20.887508	-0.000164	-1.640539	-0.555830	0.000072
 975	4.8700e+01	19.5091	20.931908	0.000203	2.032031	0.688471	0.000089
 976	4.8750e+01	19.5123	20.972642	0.000186	1.864249	0.631625	0.000081
 977	4.8800e+01	19.5299	21.016228	0.000199	1.994746	0.675838	0.000087
 978	4.8850e+01	19.5508	21.055740	0.000181	1.808322	0.612676	0.000079
 979	4.8900e+01	19.5989	21.099733	0.000201	2.013389	0.682155	0.000088
 980	4.8950e+01	19.5973	21.142504	-0.000196	-1.957461	-0.663206	0.000086
 981	4.9000e+01	19.6117	21.188534	0.000211	2.106601	0.713736	0.000092
 982	4.9050e+01	19.6150	21.229675	0.000188	1.882892	0.637941	0.000082
 983	4.9100e+01	19.6599	21.270410	0.000186	1.864249	0.631625	0.000081
 984	4.9150e+01	19.6727	21.311551	0.000188	1.882892	0.637941	0.000082
 985	4.9200e+01	19.7000	21.354730	0.000198	1.976104	0.669522	0.000086
 986	4.9250e+01	19.7289	21.398315	0.000199	1.994746	0.675838	0.000087
 987	4.9300e+01	19.7321	21.437420	0.000179	1.789679	0.606360	0.000078
 988	4.9350e+01	19.7417	21.480191	0.000196	1.957461	0.663206	0.000086
 989	4.9400e+01	19.7738	21.527850	0.000218	2.181171	0.739001	0.000095
 990	4.9450e+01	19.7994	21.571028	0.000198	1.976104	0.669522	0.000086
 991	4.9500e+01	19.8187	21.614207	0.000198	1.976104	0.669522	0.000086
 992	4.9550e+01	19.8075	21.652904	-0.000177	-1.771037	-0.600043	0.000077
 993	4.9600e+01	19.8572	21.699341	0.000213	2.125244	0.720052	0.000093
 994	4.9650e+01	19.8925	21.736817	0.000172	1.715109	0.581095	0.000075
 995	4.9700e+01	19.8909	21.783254	-0.000213	-2.125244	-0.720052	0.000093
 996	4.9750e+01	19.9262	21.828469	0.000207	2.069316	0.701103	0.000090
 997	4.9800e+01	19.9326	21.870425	0.000192	1.920176	0.650573	0.000084
 998	4.9850e+01	19.9390	21.910752	0.000185	1.845607	0.625308	0.000081
 999	4.9900e+01	19.9583	21.954745	0.000201	2.013389	0.682155	0.000088
1000	4.9950e+01	19.9968	21.996294	0.000190	1.901534	0.644257	0.000083
1001	5.0000e+01	20.0064	22.040694	0.000203	2.032031	0.688471	0.000089
1002	5.0050e+01	20.0160	22.032955	-0.000035	-0.354207	-0.120009	-0.000015
1003	5.0100e+01	19.9663	22.022771	0.000047	0.466062	0.157906	-0.000020
1004	5.0150e+01	19.9470	22.003219	0.000089	0.894840	0.303180	-0.000039
1005	5.0200e+01	19.9438	21.990999	0.000056	0.559275	0.189487	-0.000024
1006	5.0250e+01	19.9214	21.970632	0.000093	0.932125	0.315812	-0.000041
1007	5.0300e+01	19.8813	21.959633	0.000050	0.503347	0.170539	-0.000022
1008	5.0350e+01	19.9037	21.941303	-0.000084	-0.838912	-0.284231	-0.000037
1009	5.0400e+01	19.8492	21.927046	0.000065	0.652487	0.221069	-0.000029
1010	5.0450e+01	19.8251	21.909530	0.000080	0.801627	0.271599	-0.000035
1011	5.0500e+01	19.8075	21.898125	0.000052	0.521990	0.176855	-0.000023
1012	5.0550e+01	19.8026	21.882646	0.000071	0.708415	0.240017	-0.000031
1013	5.0600e+01	19.7593	21.861464	0.000097	0.969409	0.328445	-0.000042
1014	5.0650e+01	19.7641	21.846392	-0.000069	-0.689772	-0.233701	-0.000030
1015	5.0700e+01	19.7305	21.828062	0.000084	0.838912	0.284231	-0.000037
1016	5.0750e+01	19.7192	21.806880	0.000097	0.969409	0.328445	-0.000042
1017	5.0800e+01	19.6855	21.793845	0.000060	0.596560	0.202120	-0.000026
1018	5.0850e+01	19.6871	21.776329	-0.000080	-0.801627	-0.271599	-0.000035
1019	5.0900e+01	19.6551	21.760443	0.000073	0.727057	0.246334	-0.000032
1020	5.0950e+01	19.6502	21.732743	0.000127	1.267689	0.429505	-0.000055
1021	5.1000e+01	19.6101	21.725004	0.000035	0.354207	0.120009	-0.000015
1022	5.1050e+01	19.6069	21.702193	0.000104	1.043979	0.353710	-0.000046
1023	5.1100e+01	19.5652	21.684270	0.000082	0.820270	0.277915	-0.000036
1024	5.1150e+01	19.5620	21.661051	0.000106	1.062622	0.360026	-0.000046
1025	5.1200e+01	19.5267	21.637018	0.000110	1.099907	0.372659	-0.000048
1026	5.1250e+01	19.5155	21.617466	0.000089	0.894840	0.303180	-0.000039
1027	5.1300e+01	19.4962	21.596691	0.000095	0.950767	0.322129	-0.000042
1028	5.1350e+01	19.4770	21.575917	0.000095	0.950767	0.322129	-0.000042
1029	5.1400e+01	19.4690	21.554735	0.000097	0.969409	0.328445	-0.000042
1030	5.1450e+01	19.4385	21.533553	0.000097	0.969409	0.328445	-0.000042
1031	5.1500e+01	19.4128	21.512371	0.000097	0.969409	0.328445	-0.000042
1032	5.1550e+01	19.4016	21.489967	0.000103	1.025337	0.347394	-0.000045
1033	5.1600e+01	19.3599	21.472044	0.000082	0.820270	0.277915	-0.000036
1034	5.1650e+01	19.3551	21.450862	0.000097	0.969409	0.328445	-0.000042
1035	5.1700e+01	19.3182	21.426422	0.000112	1.118549	0.378975	-0.000049
1036	5.1750e+01	19.2957	21.407684	0.000086	0.857555	0.290547	-0.000037
1037	5.1800e+01	19.2861	21.385280	0.000103	1.025337	0.347394	-0.000045
1038	5.1850e+01	19.2716	21.362469	0.000104	1.043979	0.353710	-0.000046
1039	5.1900e+01	19.2572	21.338843	0.000108	1.081264	0.366342	-0.000047
1040	5.1950e+01	19.2380	21.318883	0.000091	0.913482	0.309496	-0.000040
1041	5.2000e+01	19.1995	21.295258	0.000108	1.081264	0.366342	-0.000047
1042	5.2050e+01	19.1866	21.275705	0.000089	0.894840	0.303180	-0.000039
1043	5.2100e+01	19.1802	21.247598	0.000129	1.286332	0.435821	-0.000056
1044	5.2150e+01	19.1594	21.224380	0.000106	1.062622	0.360026	-0.000046
1045	5.2200e+01	19.1481	21.202791	0.000099	0.988052	0.334761	-0.000043
1046	5.2250e+01	19.1080	21.176314	0.000121	1.211762	0.410556	-0.000053
1047	5.2300e+01	19.0920	21.153910	0.000103	1.025337	0.347394	-0.000045
1048	5.2350e+01	19.0759	21.129062	0.000114	1.137192	0.385291	-0.000050
1049	5.2400e+01	19.0438	21.109917	0.000088	0.876197	0.296864	-0.000038
1050	5.2450e+01	19.0519	21.080995	-0.000132	-1.323617	-0.448454	-0.000058
1051	5.2500e+01	19.0005	21.053703	0.000125	1.249047	0.423189	-0.000055
1052	5.2550e+01	18.9845	21.028448	0.000116	1.155834	0.391607	-0.000051
1053	5.2600e+01	18.9829	21.001971	0.000121	1.211762	0.410556	-0.000053
1054	5.2650e+01	18.9620	20.975901	0.000119	1.193119	0.404240	-0.000052
1055	5.2700e+01	18.9492	20.953497	0.000103	1.025337	0.347394	-0.000045
1056	5.2750e+01	18.9027	20.930279	0.000106	1.062622	0.360026	-0.000046
1057	5.2800e+01	18.8914	20.904616	0.000117	1.174477	0.397924	-0.000051
1058	5.2850e+01	18.8834	20.878139	0.000121	1.211762	0.410556	-0.000053
1059	5.2900e+01	18.8401	20.851254	0.000123	1.230404	0.416872	-0.000054
1060	5.2950e+01	18.8481	20.819889	-0.000144	-1.435472	-0.486351	-0.000063
1061	5.3000e+01	18.8016	20.797485	0.000103	1.025337	0.347394	-0.000045
1062	5.3050e+01	18.7936	20.762861	0.000158	1.584612	0.536881	-0.000069
1063	5.3100e+01	18.7840	20.738420	0.000112	1.118549	0.378975	-0.000049
1064	5.3150e+01	18.7567	20.713572	0.000114	1.137192	0.385291	-0.000050
1065	5.3200e+01	18.7262	20.684651	0.000132	1.323617	0.448454	-0.000058
1066	5.3250e+01	18.7198	20.656952	0.000127	1.267689	0.429505	-0.000055
1067	5.3300e+01	18.6925	20.634141	0.000104	1.043979	0.353710	-0.000046
1068	5.3350e+01	18.6669	20.599924	0.000157	1.565969	0.530565	-0.000068
1069	5.3400e+01	18.6540	20.576298	0.000108	1.081264	0.366342	-0.000047
1070	5.3450e+01	18.6332	20.541267	0.000160	1.603254	0.543197	-0.000070
1071	5.3500e+01	18.6091	20.517641	0.000108	1.081264	0.366342	-0.000047
1072	5.3550e+01	18.5931	20.487090	0.000140	1.398187	0.473719	-0.000061
1073	5.3600e+01	18.5915	20.463871	0.000106	1.062622	0.360026	-0.000046
1074	5.3650e+01	18.5465	20.437802	0.000119	1.193119	0.404240	-0.000052
1075	5.3700e+01	18.5193	20.408880	0.000132	1.323617	0.448454	-0.000058
1076	5.3750e+01	18.5193	20.377107	0.000145	1.454114	0.492667	-0.000064
1077	5.3800e+01	18.4984	20.349816	0.000125	1.249047	0.423189	-0.000055
1078	5.3850e+01	18.4615	20.324560	0.000116	1.155834	0.391607	-0.000051
1079	5.3900e+01	18.4551	20.291158	0.000153	1.528684	0.517932	-0.000067
1080	5.3950e+01	18.4423	20.265903	0.000116	1.155834	0.391607	-0.000051
1081	5.4000e+01	18.4086	20.236167	0.000136	1.360902	0.461086	-0.000059
1082	5.4050e+01	18.3957	20.206838	0.000134	1.342259	0.454770	-0.000059
1083	5.4100e+01	18.3685	20.181583	0.000116	1.155834	0.391607	-0.000051
1084	5.4150e+01	18.3572	20.151032	0.000140	1.398187	0.473719	-0.000061
1085	5.4200e+01	18.3348	20.122518	0.000130	1.304974	0.442137	-0.000057
1086	5.4250e+01	18.2915	20.091153	0.000144	1.435472	0.486351	-0.000063
1087	5.4300e+01	18.2995	20.065490	-0.000117	-1.174477	-0.397924	-0.000051
1088	5.4350e+01	18.2834	20.030052	0.000162	1.621897	0.549513	-0.000071
1089	5.4400e+01	18.2498	20.002352	0.000127	1.267689	0.429505	-0.000055
1090	5.4450e+01	18.2321	19.974246	0.000129	1.286332	0.435821	-0.000056
1091	5.4500e+01	18.1936	19.951027	0.000106	1.062622	0.360026	-0.000046
1092	5.4550e+01	18.1760	19.919254	0.000145	1.454114	0.492667	-0.000064
1093	5.4600e+01	18.1535	19.892777	0.000121	1.211762	0.410556	-0.000053
1094	5.4650e+01	18.1519	19.858968	0.000155	1.547327	0.524248	-0.000068
1095	5.4700e+01	18.1407	19.830861	0.000129	1.286332	0.435821	-0.000056
1096	5.4750e+01	18.1198	19.803976	0.000123	1.230404	0.416872	-0.000054
1097	5.4800e+01	18.0829	19.771796	0.000147	1.472757	0.498983	-0.000064
1098	5.4850e+01	18.0749	19.739209	0.000149	1.491399	0.505300	-0.000065
1099	5.4900e+01	18.0781	19.712324	-0.000123	-1.230404	-0.416872	-0.000054
1100	5.4950e+01	18.0348	19.687884	0.000112	1.118549	0.378975	-0.000049
1101	5.5000e+01	18.0139	19.654889	0.000151	1.510042	0.511616	-0.000066
1102	5.5050e+01	17.9963	19.628005	0.000123	1.230404	0.416872	-0.000054
1103	5.5100e+01	17.9594	19.598676	0.000134	1.342259	0.454770	-0.000059
1104	5.5150e+01	17.9674	19.568940	-0.000136	-1.360902	-0.461086	-0.000059
1105	5.5200e+01	17.9417	19.542055	0.000123	1.230404	0.416872	-0.000054
1106	5.5250e+01	17.9032	19.512319	0.000136	1.360902	0.461086	-0.000059
1107	5.5300e+01	17.8856	19.485435	0.000123	1.230404	0.416872	-0.000054
1108	5.5350e+01	17.8631	19.452440	0.000151	1.510042	0.511616	-0.000066
1109	5.5400e+01	17.8455	19.427185	0.000116	1.155834	0.391607	-0.000051
1110	5.5450e+01	17.8487	19.392153	-0.000160	-1.603254	-0.543197	-0.000070
1111	5.5500e+01	17.8150	19.369342	0.000104	1.043979	0.353710	-0.000046
1112	5.5550e+01	17.8150	19.338384	0.000142	1.416829	0.480035	-0.000062
1113	5.5600e+01	17.7909	19.311092	0.000125	1.249047	0.423189	-0.000055
1114	5.5650e+01	17.7605	19.273616	0.000172	1.715109	0.581095	-0.000075
1115	5.5700e+01	17.7348	19.245917	0.000127	1.267689	0.429505	-0.000055
1116	5.5750e+01	17.7284	19.219440	0.000121	1.211762	0.410556	-0.000053
1117	5.5800e+01	17.6979	19.192148	0.000125	1.249047	0.423189	-0.000055
1118	5.5850e+01	17.6722	19.157931	0.000157	1.565969	0.530565	-0.000068
1119	5.5900e+01	17.6434	19.130232	0.000127	1.267689	0.429505	-0.000055
1120	5.5950e+01	17.6530	19.100089	-0.000138	-1.379544	-0.467402	-0.000060
1121	5.6000e+01	17.6081	19.066279	0.000155	1.547327	0.524248	-0.000068
1122	5.6050e+01	17.6049	19.043061	0.000106	1.062622	0.360026	-0.000046
1123	5.6100e+01	17.5663	19.012917	0.000138	1.379544	0.467402	-0.000060
1124	5.6150e+01	17.5278	18.981959	0.000142	1.416829	0.480035	-0.000062
1125	5.6200e+01	17.5599	18.949372	-0.000149	-1.491399	-0.505300	-0.000065
1126	5.6250e+01	17.5086	18.923709	0.000117	1.174477	0.397924	-0.000051
1127	5.6300e+01	17.4781	18.887456	0.000166	1.659182	0.562146	-0.000073
1128	5.6350e+01	17.4557	18.866681	0.000095	0.950767	0.322129	-0.000042
1129	5.6400e+01	17.4541	18.829206	0.000172	1.715109	0.581095	-0.000075
1130	5.6450e+01	17.4573	18.804358	-0.000114	-1.137192	-0.385291	-0.000050
1131	5.6500e+01	17.3979	18.770548	0.000155	1.547327	0.524248	-0.000068
1132	5.6550e+01	17.3963	18.740812	0.000136	1.360902	0.461086	-0.000059
1133	5.6600e+01	17.3835	18.709854	0.000142	1.416829	0.480035	-0.000062
1134	5.6650e+01	17.3674	18.682970	0.000123	1.230404	0.416872	-0.000054
1135	5.6700e+01	17.3273	18.653641	0.000134	1.342259	0.454770	-0.000059
1136	5.6750e+01	17.3225	18.623090	0.000140	1.398187	0.473719	-0.000061
1137	5.6800e+01	17.2920	18.597021	0.000119	1.193119	0.404240	-0.000052
1138	5.6850e+01	17.2792	18.564433	0.000149	1.491399	0.505300	-0.000065
1139	5.6900e+01	17.2567	18.535104	0.000134	1.342259	0.454770	-0.000059
1140	5.6950e+01	17.2327	18.500480	0.000158	1.584612	0.536881	-0.000069
1141	5.7000e+01	17.2150	18.471966	0.000130	1.304974	0.442137	-0.000057
1142	5.7050e+01	17.2038	18.439379	0.000149	1.491399	0.505300	-0.000065
1143	5.7100e+01	17.1637	18.416568	0.000104	1.043979	0.353710	-0.000046
1144	5.7150e+01	17.1428	18.385202	0.000144	1.435472	0.486351	-0.000063
1145	5.7200e+01	17.1396	18.349764	0.000162	1.621897	0.549513	-0.000071
1146	5.7250e+01	17.1027	18.322879	0.000123	1.230404	0.416872	-0.000054
1147	5.7300e+01	17.0883	18.291514	0.000144	1.435472	0.486351	-0.000063
1148	5.7350e+01	17.0658	18.258926	0.000149	1.491399	0.505300	-0.000065
1149	5.7400e+01	17.0402	18.231227	0.000127	1.267689	0.429505	-0.000055
1150	5.7450e+01	17.0353	18.198640	0.000149	1.491399	0.505300	-0.000065
1151	5.7500e+01	17.0033	18.169311	0.000134	1.342259	0.454770	-0.000059
1152	5.7550e+01	17.0113	18.139575	-0.000136	-1.360902	-0.461086	-0.000059
1153	5.7600e+01	16.9840	18.109024	0.000140	1.398187	0.473719	-0.000061
1154	5.7650e+01	16.9487	18.081732	0.000125	1.249047	0.423189	-0.000055
1155	5.7700e+01	16.9439	18.049959	0.000145	1.454114	0.492667	-0.000064
1156	5.7750e+01	16.9150	18.014928	0.000160	1.603254	0.543197	-0.000070
1157	5.7800e+01	16.8926	17.983970	0.000142	1.416829	0.480035	-0.000062
1158	5.7850e+01	16.8541	17.953827	0.000138	1.379544	0.467402	-0.000060
1159	5.7900e+01	16.8557	17.924905	-0.000132	-1.323617	-0.448454	-0.000058
1160	5.7950e+01	16.8396	17.897206	0.000127	1.267689	0.429505	-0.000055
1161	5.8000e+01	16.7995	17.862989	0.000157	1.565969	0.530565	-0.000068
1162	5.8050e+01	16.7931	17.831217	0.000145	1.454114	0.492667	-0.000064
1163	5.8100e+01	16.7530	17.804332	0.000123	1.230404	0.416872	-0.000054
1164	5.8150e+01	16.7578	17.777855	-0.000121	-1.211762	-0.410556	-0.000053
1165	5.8200e+01	16.7257	17.737935	0.000183	1.826964	0.618992	-0.000080
1166	5.8250e+01	16.7113	17.713902	0.000110	1.099907	0.372659	-0.000048
1167	5.8300e+01	16.6872	17.680500	0.000153	1.528684	0.517932	-0.000067
1168	5.8350e+01	16.6696	17.653208	0.000125	1.249047	0.423189	-0.000055
1169	5.8400e+01	16.6567	17.620213	0.000151	1.510042	0.511616	-0.000066
1170	5.8450e+01	16.6407	17.593328	0.000123	1.230404	0.416872	-0.000054
1171	5.8500e+01	16.6118	17.562370	0.000142	1.416829	0.480035	-0.000062
1172	5.8550e+01	16.5990	17.528968	0.000153	1.528684	0.517932	-0.000067
1173	5.8600e+01	16.5749	17.503306	0.000117	1.174477	0.397924	-0.000051
1174	5.8650e+01	16.5428	17.470311	0.000151	1.510042	0.511616	-0.000066
1175	5.8700e+01	16.5428	17.435687	0.000158	1.584612	0.536881	-0.000069
1176	5.8750e+01	16.5124	17.407173	0.000130	1.304974	0.442137	-0.000057
1177	5.8800e+01	16.4771	17.370919	0.000166	1.659182	0.562146	-0.000073
1178	5.8850e+01	16.4755	17.336703	0.000157	1.565969	0.530565	-0.000068
1179	5.8900e+01	16.4546	17.305745	0.000142	1.416829	0.480035	-0.000062
1180	5.8950e+01	16.4322	17.276823	0.000132	1.323617	0.448454	-0.000058
1181	5.9000e+01	16.4113	17.240162	0.000168	1.677824	0.568462	-0.000073
1182	5.9050e+01	16.3953	17.212463	0.000127	1.267689	0.429505	-0.000055
1183	5.9100e+01	16.3792	17.177839	0.000158	1.584612	0.536881	-0.000069
1184	5.9150e+01	16.3760	17.141178	0.000168	1.677824	0.568462	-0.000073
1185	5.9200e+01	16.3568	17.113072	0.000129	1.286332	0.435821	-0.000056
1186	5.9250e+01	16.3295	17.078855	0.000157	1.565969	0.530565	-0.000068
1187	5.9300e+01	16.2749	17.048304	0.000140	1.398187	0.473719	-0.000061
1188	5.9350e+01	16.2701	17.016939	0.000144	1.435472	0.486351	-0.000063
1189	5.9400e+01	16.2605	16.987203	0.000136	1.360902	0.461086	-0.000059
1190	5.9450e+01	16.2236	16.952579	0.000158	1.584612	0.536881	-0.000069
1191	5.9500e+01	16.2011	16.921621	0.000142	1.416829	0.480035	-0.000062
1192	5.9550e+01	16.1915	16.887404	0.000157	1.565969	0.530565	-0.000068
1193	5.9600e+01	16.1530	16.858075	0.000134	1.342259	0.454770	-0.000059
1194	5.9650e+01	16.1498	16.823858	0.000157	1.565969	0.530565	-0.000068
1195	5.9700e+01	16.1241	16.796159	0.000127	1.267689	0.429505	-0.000055
1196	5.9750e+01	16.1209	16.767238	0.000132	1.323617	0.448454	-0.000058
1197	5.9800e+01	16.1161	16.730170	0.000170	1.696467	0.574778	-0.000074
1198	5.9850e+01	16.0520	16.695953	0.000157	1.565969	0.530565	-0.000068
1199	5.9900e+01	16.0487	16.669883	0.000119	1.193119	0.404240	-0.000052
1200	5.9950e+01	16.0375	16.632815	0.000170	1.696467	0.574778	-0.000074
1201	6.0000e+01	16.0006	16.604708	0.000129	1.286332	0.435821	-0.000056
1202	6.0050e+01	15.9894	16.572528	0.000147	1.472757	0.498983	-0.000064
1203	6.0100e+01	15.9958	16.535460	-0.000170	-1.696467	-0.574778	-0.000074
1204	6.0150e+01	15.9477	16.507353	0.000129	1.286332	0.435821	-0.000056
1205	6.0200e+01	15.9204	16.469878	0.000172	1.715109	0.581095	-0.000075
1206	6.0250e+01	15.9076	16.445845	0.000110	1.099907	0.372659	-0.000048
1207	6.0300e+01	15.8963	16.409184	0.000168	1.677824	0.568462	-0.000073
1208	6.0350e+01	15.8803	16.377411	0.000145	1.454114	0.492667	-0.000064
1209	6.0400e+01	15.8594	16.341157	0.000166	1.659182	0.562146	-0.000073
1210	6.0450e+01	15.8129	16.311421	0.000136	1.360902	0.461086	-0.000059
1211	6.0500e+01	15.8097	16.277205	0.000157	1.565969	0.530565	-0.000068
1212	6.0550e+01	15.7824	16.249098	0.000129	1.286332	0.435821	-0.000056
1213	6.0600e+01	15.7840	16.219769	-0.000134	-1.342259	-0.454770	-0.000059
1214	6.0650e+01	15.7520	16.187997	0.000145	1.454114	0.492667	-0.000064
1215	6.0700e+01	15.7327	16.152151	0.000164	1.640539	0.555830	-0.000072
1216	6.0750e+01	15.7070	16.122415	0.000136	1.360902	0.461086	-0.000059
1217	6.0800e+01	15.6926	16.089420	0.000151	1.510042	0.511616	-0.000066
1218	6.0850e+01	15.6830	16.058462	0.000142	1.416829	0.480035	-0.000062
1219	6.0900e+01	15.6477	16.025874	0.000149	1.491399	0.505300	-0.000065
1220	6.0950e+01	15.6252	16.000212	0.000117	1.174477	0.397924	-0.000051
1221	6.1000e+01	15.6140	15.967624	0.000149	1.491399	0.505300	-0.000065
1222	6.1050e+01	15.5931	15.939110	0.000130	1.304974	0.442137	-0.000057
1223	6.1100e+01	15.5835	15.903672	0.000162	1.621897	0.549513	-0.000071
1224	6.1150e+01	15.5546	15.875565	0.000129	1.286332	0.435821	-0.000056
1225	6.1200e+01	15.5386	15.839311	0.000166	1.659182	0.562146	-0.000073
1226	6.1250e+01	15.5129	15.809575	0.000136	1.360902	0.461086	-0.000059
1227	6.1300e+01	15.4905	15.781061	0.000130	1.304974	0.442137	-0.000057
1228	6.1350e+01	15.4648	15.751325	0.000136	1.360902	0.461086	-0.000059
1229	6.1400e+01	15.4696	15.718738	-0.000149	-1.491399	-0.505300	-0.000065
1230	6.1450e+01	15.4536	15.693483	0.000116	1.155834	0.391607	-0.000051
1231	6.1500e+01	15.3958	15.661710	0.000145	1.454114	0.492667	-0.000064
1232	6.1550e+01	15.3958	15.630752	0.000142	1.416829	0.480035	-0.000062
1233	6.1600e+01	15.3862	15.601016	0.000136	1.360902	0.461086	-0.000059
1234	6.1650e+01	15.3493	15.568021	0.000151	1.510042	0.511616	-0.000066
1235	6.1700e+01	15.3477	15.541951	0.000119	1.193119	0.404240	-0.000052
1236	6.1750e+01	15.3092	15.505291	0.000168	1.677824	0.568462	-0.000073
1237	6.1800e+01	15.2851	15.474740	0.000140	1.398187	0.473719	-0.000061
1238	6.1850e+01	15.2723	15.447448	0.000125	1.249047	0.423189	-0.000055
1239	6.1900e+01	15.2819	15.418119	-0.000134	-1.342259	-0.454770	-0.000059
1240	6.1950e+01	15.2322	15.385124	0.000151	1.510042	0.511616	-0.000066
1241	6.2000e+01	15.2274	15.349278	0.000164	1.640539	0.555830	-0.000072
1242	6.2050e+01	15.2049	15.322801	0.000121	1.211762	0.410556	-0.000053
1243	6.2100e+01	15.1616	15.294694	0.000129	1.286332	0.435821	-0.000056
1244	6.2150e+01	15.1472	15.265773	0.000132	1.323617	0.448454	-0.000058
1245	6.2200e+01	15.1151	15.231556	0.000157	1.565969	0.530565	-0.000068
1246	6.2250e+01	15.1231	15.199376	-0.000147	-1.472757	-0.498983	-0.000064
1247	6.2300e+01	15.0894	15.164345	0.000160	1.603254	0.543197	-0.000070
1248	6.2350e+01	15.0974	15.136646	-0.000127	-1.267689	-0.429505	-0.000055
1249	6.2400e+01	15.0605	15.102429	0.000157	1.565969	0.530565	-0.000068
1250	6.2450e+01	15.0429	15.073507	0.000132	1.323617	0.448454	-0.000058
1251	6.2500e+01	15.0252	15.044993	0.000130	1.304974	0.442137	-0.000057
1252	6.2550e+01	14.9932	15.009147	0.000164	1.640539	0.555830	-0.000072
1253	6.2600e+01	14.9755	14.982263	0.000123	1.230404	0.416872	-0.000054
1254	6.2650e+01	14.9498	14.953341	0.000132	1.323617	0.448454	-0.000058
1255	6.2700e+01	14.9338	14.918717	0.000158	1.584612	0.536881	-0.000069
1256	6.2750e+01	14.9258	14.890203	0.000130	1.304974	0.442137	-0.000057
1257	6.2800e+01	14.8985	14.857209	0.000151	1.510042	0.511616	-0.000066
1258	6.2850e+01	14.8520	14.824621	0.000149	1.491399	0.505300	-0.000065
1259	6.2900e+01	14.8552	14.794478	-0.000138	-1.379544	-0.467402	-0.000060
1260	6.2950e+01	14.8392	14.762705	0.000145	1.454114	0.492667	-0.000064
1261	6.3000e+01	14.7798	14.732969	0.000136	1.360902	0.461086	-0.000059
1262	6.3050e+01	14.7942	14.698752	-0.000157	-1.565969	-0.530565	-0.000068
1263	6.3100e+01	14.7782	14.667387	0.000144	1.435472	0.486351	-0.000063
1264	6.3150e+01	14.7461	14.630726	0.000168	1.677824	0.568462	-0.000073
1265	6.3200e+01	14.7220	14.604249	0.000121	1.211762	0.410556	-0.000053
1266	6.3250e+01	14.7076	14.567181	0.000170	1.696467	0.574778	-0.000074
1267	6.3300e+01	14.6819	14.538667	0.000130	1.304974	0.442137	-0.000057
1268	6.3350e+01	14.6739	14.502821	0.000164	1.640539	0.555830	-0.000072
1269	6.3400e+01	14.6402	14.470233	0.000149	1.491399	0.505300	-0.000065
1270	6.3450e+01	14.6354	14.436831	0.000153	1.528684	0.517932	-0.000067
1271	6.3500e+01	14.6258	14.406688	0.000138	1.379544	0.467402	-0.000060
1272	6.3550e+01	14.6033	14.370027	0.000168	1.677824	0.568462	-0.000073
1273	6.3600e+01	14.5632	14.339069	0.000142	1.416829	0.480035	-0.000062
1274	6.3650e+01	14.5472	14.308518	0.000140	1.398187	0.473719	-0.000061
1275	6.3700e+01	14.5456	14.277560	0.000142	1.416829	0.480035	-0.000062
1276	6.3750e+01	14.5167	14.240492	0.000170	1.696467	0.574778	-0.000074
1277	6.3800e+01	14.4910	14.208312	0.000147	1.472757	0.498983	-0.000064
1278	6.3850e+01	14.4702	14.178576	0.000136	1.360902	0.461086	-0.000059
1279	6.3900e+01	14.4606	14.143952	0.000158	1.584612	0.536881	-0.000069
1280	6.3950e+01	14.4429	14.113808	0.000138	1.379544	0.467402	-0.000060
1281	6.4000e+01	14.4092	14.079184	0.000158	1.584612	0.536881	-0.000069
1282	6.4050e+01	14.3900	14.049448	0.000136	1.360902	0.461086	-0.000059
1283	6.4100e+01	14.3739	14.017676	0.000145	1.454114	0.492667	-0.000064
1284	6.4150e+01	14.3675	13.978978	0.000177	1.771037	0.600043	-0.000077
1285	6.4200e+01	14.3274	13.952093	0.000123	1.230404	0.416872	-0.000054
1286	6.4250e+01	14.3001	13.919506	0.000149	1.491399	0.505300	-0.000065
1287	6.4300e+01	14.3210	13.885697	-0.000155	-1.547327	-0.524248	-0.000068
1288	6.4350e+01	14.2889	13.856368	0.000134	1.342259	0.454770	-0.000059
1289	6.4400e+01	14.2697	13.820114	0.000166	1.659182	0.562146	-0.000073
1290	6.4450e+01	14.2328	13.781010	0.000179	1.789679	0.606360	-0.000078
1291	6.4500e+01	14.2087	13.752088	0.000132	1.323617	0.448454	-0.000058
1292	6.4550e+01	14.2071	13.721538	0.000140	1.398187	0.473719	-0.000061
1293	6.4600e+01	14.1734	13.689357	0.000147	1.472757	0.498983	-0.000064
1294	6.4650e+01	14.1622	13.659214	0.000138	1.379544	0.467402	-0.000060
1295	6.4700e+01	14.1365	13.622146	0.000170	1.696467	0.574778	-0.000074
1296	6.4750e+01	14.0996	13.592817	0.000134	1.342259	0.454770	-0.000059
1297	6.4800e+01	14.0691	13.560637	0.000147	1.472757	0.498983	-0.000064
1298	6.4850e+01	14.0675	13.526013	0.000158	1.584612	0.536881	-0.000069
1299	6.4900e+01	14.0338	13.485686	0.000185	1.845607	0.625308	-0.000081
1300	6.4950e+01	14.0338	13.456358	0.000134	1.342259	0.454770	-0.000059
1301	6.5000e+01	14.0178	13.429880	0.000121	1.211762	0.410556	-0.000053
1302	6.5050e+01	14.0001	13.394849	0.000160	1.603254	0.543197	-0.000070
1303	6.5100e+01	13.9697	13.361039	0.000155	1.547327	0.524248	-0.000068
1304	6.5150e+01	13.9440	13.331711	0.000134	1.342259	0.454770	-0.000059
1305	6.5200e+01	13.9328	13.290976	0.000186	1.864249	0.631625	-0.000081
1306	6.5250e+01	13.9103	13.261240	0.000136	1.360902	0.461086	-0.000059
1307	6.5300e+01	13.8830	13.222543	0.000177	1.771037	0.600043	-0.000077
1308	6.5350e+01	13.8766	13.191992	0.000140	1.398187	0.473719	-0.000061
1309	6.5400e+01	13.8381	13.156553	0.000162	1.621897	0.549513	-0.000071
1310	6.5450e+01	13.8173	13.129261	0.000125	1.249047	0.423189	-0.000055
1311	6.5500e+01	13.8157	13.094230	0.000160	1.603254	0.543197	-0.000070
1312	6.5550e+01	13.7980	13.060828	0.000153	1.528684	0.517932	-0.000067
1313	6.5600e+01	13.7820	13.024982	0.000164	1.640539	0.555830	-0.000072
1314	6.5650e+01	13.7403	12.990358	0.000158	1.584612	0.536881	-0.000069
1315	6.5700e+01	13.7419	12.959807	-0.000140	-1.398187	-0.473719	-0.000061
1316	6.5750e+01	13.7226	12.921517	0.000175	1.752394	0.593727	-0.000077
1317	6.5800e+01	13.6985	12.891781	0.000136	1.360902	0.461086	-0.000059
1318	6.5850e+01	13.6729	12.857971	0.000155	1.547327	0.524248	-0.000068
1319	6.5900e+01	13.6440	12.824162	0.000155	1.547327	0.524248	-0.000068
1320	6.5950e+01	13.6424	12.791982	0.000147	1.472757	0.498983	-0.000064
1321	6.6000e+01	13.6007	12.755321	0.000168	1.677824	0.568462	-0.000073
1322	6.6050e+01	13.5798	12.722734	0.000149	1.491399	0.505300	-0.000065
1323	6.6100e+01	13.5846	12.688109	-0.000158	-1.584612	-0.536881	-0.000069
1324	6.6150e+01	13.5558	12.656337	0.000145	1.454114	0.492667	-0.000064
1325	6.6200e+01	13.5333	12.622527	0.000155	1.547327	0.524248	-0.000068
1326	6.6250e+01	13.5028	12.587496	0.000160	1.603254	0.543197	-0.000070
1327	6.6300e+01	13.4788	12.554094	0.000153	1.528684	0.517932	-0.000067
1328	6.6350e+01	13.4804	12.525987	-0.000129	-1.286332	-0.435821	-0.000056
1329	6.6400e+01	13.4467	12.486475	0.000181	1.808322	0.612676	-0.000079
1330	6.6450e+01	13.4387	12.451851	0.000158	1.584612	0.536881	-0.000069
1331	6.6500e+01	13.4290	12.417227	0.000158	1.584612	0.536881	-0.000069
1332	6.6550e+01	13.3857	12.383010	0.000157	1.565969	0.530565	-0.000068
1333	6.6600e+01	13.3745	12.349608	0.000153	1.528684	0.517932	-0.000067
1334	6.6650e+01	13.3665	12.315798	0.000155	1.547327	0.524248	-0.000068
1335	6.6700e+01	13.3296	12.282804	0.000151	1.510042	0.511616	-0.000066
1336	6.6750e+01	13.3199	12.248587	0.000157	1.565969	0.530565	-0.000068
1337	6.6800e+01	13.2734	12.209889	0.000177	1.771037	0.600043	-0.000077
1338	6.6850e+01	13.2654	12.182190	0.000127	1.267689	0.429505	-0.000055
1339	6.6900e+01	13.2349	12.145122	0.000170	1.696467	0.574778	-0.000074
1340	6.6950e+01	13.2301	12.110090	0.000160	1.603254	0.543197	-0.000070
1341	6.7000e+01	13.2028	12.074652	0.000162	1.621897	0.549513	-0.000071
1342	6.7050e+01	13.2093	12.040027	-0.000158	-1.584612	-0.536881	-0.000069
1343	6.7100e+01	13.1724	12.007440	0.000149	1.491399	0.505300	-0.000065
1344	6.7150e+01	13.1595	11.978926	0.000130	1.304974	0.442137	-0.000057
1345	6.7200e+01	13.1515	11.945931	0.000151	1.510042	0.511616	-0.000066
1346	6.7250e+01	13.0954	11.909678	0.000166	1.659182	0.562146	-0.000073
1347	6.7300e+01	13.0889	11.873017	0.000168	1.677824	0.568462	-0.000073
1348	6.7350e+01	13.0841	11.838800	0.000157	1.565969	0.530565	-0.000068
1349	6.7400e+01	13.0456	11.810286	0.000130	1.304974	0.442137	-0.000057
1350	6.7450e+01	13.0103	11.778921	0.000144	1.435472	0.486351	-0.000063
1351	6.7500e+01	13.0200	11.743889	-0.000160	-1.603254	-0.543197	-0.000070
1352	6.7550e+01	12.9943	11.710487	0.000153	1.528684	0.517932	-0.000067
1353	6.7600e+01	12.9895	11.679937	0.000140	1.398187	0.473719	-0.000061
1354	6.7650e+01	12.9446	11.644905	0.000160	1.603254	0.543197	-0.000070
1355	6.7700e+01	12.9317	11.613132	0.000145	1.454114	0.492667	-0.000064
1356	6.7750e+01	12.9285	11.580138	0.000151	1.510042	0.511616	-0.000066
1357	6.7800e+01	12.9077	11.552031	0.000129	1.286332	0.435821	-0.000056
1358	6.7850e+01	12.8692	11.512112	0.000183	1.826964	0.618992	-0.000080
1359	6.7900e+01	12.8467	11.479931	0.000147	1.472757	0.498983	-0.000064
1360	6.7950e+01	12.8307	11.446122	0.000155	1.547327	0.524248	-0.000068
1361	6.8000e+01	12.8018	11.409869	0.000166	1.659182	0.562146	-0.000073
1362	6.8050e+01	12.8034	11.380133	-0.000136	-1.360902	-0.461086	-0.000059
1363	6.8100e+01	12.7633	11.343879	0.000166	1.659182	0.562146	-0.000073
1364	6.8150e+01	12.7729	11.307626	-0.000166	-1.659182	-0.562146	-0.000073
1365	6.8200e+01	12.7184	11.277482	0.000138	1.379544	0.467402	-0.000060
1366	6.8250e+01	12.7376	11.241229	-0.000166	-1.659182	-0.562146	-0.000073
1367	6.8300e+01	12.6959	11.207012	0.000157	1.565969	0.530565	-0.000068
1368	6.8350e+01	12.6750	11.173610	0.000153	1.528684	0.517932	-0.000067
1369	6.8400e+01	12.6574	11.139393	0.000157	1.565969	0.530565	-0.000068
1370	6.8450e+01	12.6317	11.108842	0.000140	1.398187	0.473719	-0.000061
1371	6.8500e+01	12.6221	11.072589	0.000166	1.659182	0.562146	-0.000073
1372	6.8550e+01	12.6141	11.043260	0.000134	1.342259	0.454770	-0.000059
1373	6.8600e+01	12.5772	11.003341	0.000183	1.826964	0.618992	-0.000080
1374	6.8650e+01	12.5387	10.969124	0.000157	1.565969	0.530565	-0.000068
1375	6.8700e+01	12.5258	10.935314	0.000155	1.547327	0.524248	-0.000068
1376	6.8750e+01	12.5275	10.903949	-0.000144	-1.435472	-0.486351	-0.000063
1377	6.8800e+01	12.4745	10.865252	0.000177	1.771037	0.600043	-0.000077
1378	6.8850e+01	12.4890	10.833071	-0.000147	-1.472757	-0.498983	-0.000064
1379	6.8900e+01	12.4505	10.796818	0.000166	1.659182	0.562146	-0.000073
1380	6.8950e+01	12.4216	10.765453	0.000144	1.435472	0.486351	-0.000063
1381	6.9000e+01	12.4264	10.723904	-0.000190	-1.901534	-0.644257	-0.000083
1382	6.9050e+01	12.3991	10.689687	0.000157	1.565969	0.530565	-0.000068
1383	6.9100e+01	12.3590	10.655877	0.000155	1.547327	0.524248	-0.000068
1384	6.9150e+01	12.3366	10.621661	0.000157	1.565969	0.530565	-0.000068
1385	6.9200e+01	12.3382	10.585815	-0.000164	-1.640539	-0.555830	-0.000072
1386	6.9250e+01	12.3205	10.553227	0.000149	1.491399	0.505300	-0.000065
1387	6.9300e+01	12.3109	10.517381	0.000164	1.640539	0.555830	-0.000072
1388	6.9350e+01	12.2644	10.481535	0.000164	1.640539	0.555830	-0.000072
1389	6.9400e+01	12.2547	10.442837	0.000177	1.771037	0.600043	-0.000077
1390	6.9450e+01	12.2307	10.408213	0.000158	1.584612	0.536881	-0.000069
1391	6.9500e+01	12.2050	10.374404	0.000155	1.547327	0.524248	-0.000068
1392	6.9550e+01	12.2034	10.335706	0.000177	1.771037	0.600043	-0.000077
1393	6.9600e+01	12.1617	10.302304	0.000153	1.528684	0.517932	-0.000067
1394	6.9650e+01	12.1649	10.262385	-0.000183	-1.826964	-0.618992	-0.000080
1395	6.9700e+01	12.1248	10.225316	0.000170	1.696467	0.574778	-0.000074
1396	6.9750e+01	12.0895	10.182953	0.000194	1.938819	0.656890	-0.000085
1397	6.9800e+01	12.1312	10.148736	-0.000157	-1.565969	-0.530565	-0.000068
1398	6.9850e+01	12.0638	10.113297	0.000162	1.621897	0.549513	-0.000071
1399	6.9900e+01	12.0510	10.077044	0.000166	1.659182	0.562146	-0.000073
1400	6.9950e+01	12.0606	10.045271	-0.000145	-1.454114	-0.492667	-0.000064
1401	7.0000e+01	12.0029	10.004129	0.000188	1.882892	0.637941	-0.000082
1402	7.0050e+01	12.0013	9.969098	0.000160	1.603254	0.543197	-0.000070
1403	7.0100e+01	12.0029	9.931215	-0.000173	-1.733752	-0.587411	-0.000076
1404	7.0150e+01	11.9531	9.893332	0.000173	1.733752	0.587411	-0.000076
1405	7.0200e+01	11.9243	9.855449	0.000173	1.733752	0.587411	-0.000076
1406	7.0250e+01	11.8938	9.816344	0.000179	1.789679	0.606360	-0.000078
1407	7.0300e+01	11.9146	9.783757	-0.000149	-1.491399	-0.505300	-0.000065
1408	7.0350e+01	11.8777	9.749948	0.000155	1.547327	0.524248	-0.000068
1409	7.0400e+01	11.8601	9.707991	0.000192	1.920176	0.650573	-0.000084
1410	7.0450e+01	11.8200	9.673775	0.000157	1.565969	0.530565	-0.000068
1411	7.0500e+01	11.8007	9.636706	0.000170	1.696467	0.574778	-0.000074
1412	7.0550e+01	11.8152	9.592306	-0.000203	-2.032031	-0.688471	-0.000089
1413	7.0600e+01	11.7606	9.560941	0.000144	1.435472	0.486351	-0.000063
1414	7.0650e+01	11.7622	9.525095	-0.000164	-1.640539	-0.555830	-0.000072
1415	7.0700e+01	11.7350	9.487212	0.000173	1.733752	0.587411	-0.000076
1416	7.0750e+01	11.7093	9.446885	0.000185	1.845607	0.625308	-0.000081
1417	7.0800e+01	11.7077	9.411446	0.000162	1.621897	0.549513	-0.000071
1418	7.0850e+01	11.6788	9.375192	0.000166	1.659182	0.562146	-0.000073
1419	7.0900e+01	11.6451	9.331607	0.000199	1.994746	0.675838	-0.000087
1420	7.0950e+01	11.6162	9.298205	0.000153	1.528684	0.517932	-0.000067
1421	7.1000e+01	11.6018	9.258285	0.000183	1.826964	0.618992	-0.000080
1422	7.1050e+01	11.5906	9.219995	0.000175	1.752394	0.593727	-0.000077
1423	7.1100e+01	11.5649	9.188222	0.000145	1.454114	0.492667	-0.000064
1424	7.1150e+01	11.5553	9.150339	0.000173	1.733752	0.587411	-0.000076
1425	7.1200e+01	11.5409	9.114086	0.000166	1.659182	0.562146	-0.000073
1426	7.1250e+01	11.5120	9.069686	0.000203	2.032031	0.688471	-0.000089
1427	7.1300e+01	11.4943	9.037098	0.000149	1.491399	0.505300	-0.000065
1428	7.1350e+01	11.4751	8.995957	0.000188	1.882892	0.637941	-0.000082
1429	7.1400e+01	11.4590	8.964591	0.000144	1.435472	0.486351	-0.000063
1430	7.1450e+01	11.4382	8.923042	0.000190	1.901534	0.644257	-0.000083
1431	7.1500e+01	11.3981	8.888418	0.000158	1.584612	0.536881	-0.000069
1432	7.1550e+01	11.3868	8.850535	0.000173	1.733752	0.587411	-0.000076
1433	7.1600e+01	11.3901	8.819577	-0.000142	-1.416829	-0.480035	-0.000062
1434	7.1650e+01	11.3564	8.773548	0.000211	2.106601	0.713736	-0.000092
1435	7.1700e+01	11.3499	8.742182	0.000144	1.435472	0.486351	-0.000063
1436	7.1750e+01	11.3114	8.701448	0.000186	1.864249	0.631625	-0.000081
1437	7.1800e+01	11.2938	8.664380	0.000170	1.696467	0.574778	-0.000074
1438	7.1850e+01	11.2713	8.628534	0.000164	1.640539	0.555830	-0.000072
1439	7.1900e+01	11.2377	8.591058	0.000172	1.715109	0.581095	-0.000075
1440	7.1950e+01	11.2473	8.556841	-0.000157	-1.565969	-0.530565	-0.000068
1441	7.2000e+01	11.2200	8.516514	0.000185	1.845607	0.625308	-0.000081
1442	7.2050e+01	11.2024	8.479039	0.000172	1.715109	0.581095	-0.000075
1443	7.2100e+01	11.1719	8.441563	0.000172	1.715109	0.581095	-0.000075
1444	7.2150e+01	11.1574	8.409383	0.000147	1.472757	0.498983	-0.000064
1445	7.2200e+01	11.1221	8.371093	0.000175	1.752394	0.593727	-0.000077
1446	7.2250e+01	11.1189	8.333618	0.000172	1.715109	0.581095	-0.000075
1447	7.2300e+01	11.0933	8.292069	0.000190	1.901534	0.644257	-0.000083
1448	7.2350e+01	11.0724	8.252556	0.000181	1.808322	0.612676	-0.000079
1449	7.2400e+01	11.0532	8.220376	0.000147	1.472757	0.498983	-0.000064
1450	7.2450e+01	11.0451	8.181679	0.000177	1.771037	0.600043	-0.000077
1451	7.2500e+01	11.0131	8.147462	0.000157	1.565969	0.530565	-0.000068
1452	7.2550e+01	10.9842	8.105506	0.000192	1.920176	0.650573	-0.000084
1453	7.2600e+01	10.9746	8.071696	0.000155	1.547327	0.524248	-0.000068
1454	7.2650e+01	10.9553	8.027296	0.000203	2.032031	0.688471	-0.000089
1455	7.2700e+01	10.9216	7.992672	0.000158	1.584612	0.536881	-0.000069
1456	7.2750e+01	10.9200	7.956418	0.000166	1.659182	0.562146	-0.000073
1457	7.2800e+01	10.9152	7.916499	0.000183	1.826964	0.618992	-0.000080
1458	7.2850e+01	10.8863	7.880653	0.000164	1.640539	0.555830	-0.000072
1459	7.2900e+01	10.8366	7.845214	0.000162	1.621897	0.549513	-0.000071
1460	7.2950e+01	10.8430	7.806516	-0.000177	-1.771037	-0.600043	-0.000077
1461	7.3000e+01	10.8238	7.771078	0.000162	1.621897	0.549513	-0.000071
1462	7.3050e+01	10.7933	7.728714	0.000194	1.938819	0.656890	-0.000085
1463	7.3100e+01	10.7612	7.696941	0.000145	1.454114	0.492667	-0.000064
1464	7.3150e+01	10.7628	7.656207	-0.000186	-1.864249	-0.631625	-0.000081
1465	7.3200e+01	10.7419	7.622805	0.000153	1.528684	0.517932	-0.000067
1466	7.3250e+01	10.7307	7.581663	0.000188	1.882892	0.637941	-0.000082
1467	7.3300e+01	10.7163	7.545410	0.000166	1.659182	0.562146	-0.000073
1468	7.3350e+01	10.6762	7.508749	0.000168	1.677824	0.568462	-0.000073
1469	7.3400e+01	10.6665	7.468829	0.000183	1.826964	0.618992	-0.000080
1470	7.3450e+01	10.6264	7.430946	0.000173	1.733752	0.587411	-0.000076
1471	7.3500e+01	10.6008	7.395100	0.000164	1.640539	0.555830	-0.000072
1472	7.3550e+01	10.6184	7.356403	-0.000177	-1.771037	-0.600043	-0.000077
1473	7.3600e+01	10.5719	7.316891	0.000181	1.808322	0.612676	-0.000079
1474	7.3650e+01	10.5735	7.278193	-0.000177	-1.771037	-0.600043	-0.000077
1475	7.3700e+01	10.5382	7.240310	0.000173	1.733752	0.587411	-0.000076
1476	7.3750e+01	10.5141	7.206501	0.000155	1.547327	0.524248	-0.000068
1477	7.3800e+01	10.5109	7.167396	0.000179	1.789679	0.606360	-0.000078
1478	7.3850e+01	10.5029	7.132772	0.000158	1.584612	0.536881	-0.000069
1479	7.3900e+01	10.4564	7.090815	0.000192	1.920176	0.650573	-0.000084
1480	7.3950e+01	10.4387	7.052525	0.000175	1.752394	0.593727	-0.000077
1481	7.4000e+01	10.4051	7.013420	0.000179	1.789679	0.606360	-0.000078
1482	7.4050e+01	10.3826	6.975130	0.000175	1.752394	0.593727	-0.000077
1483	7.4100e+01	10.3826	6.940099	0.000160	1.603254	0.543197	-0.000070
1484	7.4150e+01	10.3714	6.903438	0.000168	1.677824	0.568462	-0.000073
1485	7.4200e+01	10.3377	6.863926	0.000181	1.808322	0.612676	-0.000079
1486	7.4250e+01	10.3040	6.829302	0.000158	1.584612	0.536881	-0.000069
1487	7.4300e+01	10.3040	6.788160	0.000188	1.882892	0.637941	-0.000082
1488	7.4350e+01	10.2815	6.747426	0.000186	1.864249	0.631625	-0.000081
1489	7.4400e+01	10.2687	6.711580	0.000164	1.640539	0.555830	-0.000072
1490	7.4450e+01	10.2302	6.674511	0.000170	1.696467	0.574778	-0.000074
1491	7.4500e+01	10.1965	6.632148	0.000194	1.938819	0.656890	-0.000085
1492	7.4550e+01	10.1901	6.594265	0.000173	1.733752	0.587411	-0.000076
1493	7.4600e+01	10.1853	6.558826	0.000162	1.621897	0.549513	-0.000071
1494	7.4650e+01	10.1692	6.523387	0.000162	1.621897	0.549513	-0.000071
1495	7.4700e+01	10.1436	6.485097	0.000175	1.752394	0.593727	-0.000077
1496	7.4750e+01	10.1002	6.446400	0.000177	1.771037	0.600043	-0.000077
1497	7.4800e+01	10.1147	6.410961	-0.000162	-1.621897	-0.549513	-0.000071
1498	7.4850e+01	10.0698	6.366968	0.000201	2.013389	0.682155	-0.000088
1499	7.4900e+01	10.0585	6.329900	0.000170	1.696467	0.574778	-0.000074
1500	7.4950e+01	10.0297	6.289980	0.000183	1.826964	0.618992	-0.000080
1501	7.5000e+01	10.0200	6.255763	0.000157	1.565969	0.530565	-0.000068
1502	7.5050e+01	10.0056	6.218288	0.000172	1.715109	0.581095	-0.000075
1503	7.5100e+01	9.9815	6.185700	0.000149	1.491399	0.505300	-0.000065
1504	7.5150e+01	9.9495	6.144151	0.000190	1.901534	0.644257	-0.000083
1505	7.5200e+01	9.9591	6.108713	-0.000162	-1.621897	-0.549513	-0.000071
1506	7.5250e+01	9.8917	6.065942	0.000196	1.957461	0.663206	-0.000086
1507	7.5300e+01	9.9029	6.024800	-0.000188	-1.882892	-0.637941	-0.000082
1508	7.5350e+01	9.8933	5.988139	0.000168	1.677824	0.568462	-0.000073
1509	7.5400e+01	9.8628	5.948627	0.000181	1.808322	0.612676	-0.000079
1510	7.5450e+01	9.8372	5.905449	0.000198	1.976104	0.669522	-0.000086
1511	7.5500e+01	9.8131	5.871639	0.000155	1.547327	0.524248	-0.000068
1512	7.5550e+01	9.7858	5.828461	0.000198	1.976104	0.669522	-0.000086
1513	7.5600e+01	9.7746	5.793837	0.000158	1.584612	0.536881	-0.000069
1514	7.5650e+01	9.7553	5.750251	0.000199	1.994746	0.675838	-0.000087
1515	7.5700e+01	9.7345	5.711554	0.000177	1.771037	0.600043	-0.000077
1516	7.5750e+01	9.7233	5.671227	0.000185	1.845607	0.625308	-0.000081
1517	7.5800e+01	9.7040	5.629678	0.000190	1.901534	0.644257	-0.000083
1518	7.5850e+01	9.6719	5.588536	0.000188	1.882892	0.637941	-0.000082
1519	7.5900e+01	9.6511	5.555541	0.000151	1.510042	0.511616	-0.000066
1520	7.5950e+01	9.6350	5.516437	0.000179	1.789679	0.606360	-0.000078
1521	7.6000e+01	9.6222	5.473666	0.000196	1.957461	0.663206	-0.000086
1522	7.6050e+01	9.5821	5.435375	0.000175	1.752394	0.593727	-0.000077
1523	7.6100e+01	9.5757	5.395456	0.000183	1.826964	0.618992	-0.000080
1524	7.6150e+01	9.5644	5.349833	0.000209	2.087959	0.707420	-0.000091
1525	7.6200e+01	9.5099	5.312358	0.000172	1.715109	0.581095	-0.000075
1526	7.6250e+01	9.5179	5.275697	-0.000168	-1.677824	-0.568462	-0.000073
1527	7.6300e+01	9.4955	5.236185	0.000181	1.808322	0.612676	-0.000079
1528	7.6350e+01	9.4666	5.197080	0.000179	1.789679	0.606360	-0.000078
1529	7.6400e+01	9.4698	5.161234	-0.000164	-1.640539	-0.555830	-0.000072
1530	7.6450e+01	9.4281	5.119685	0.000190	1.901534	0.644257	-0.000083
1531	7.6500e+01	9.4265	5.079765	0.000183	1.826964	0.618992	-0.000080
1532	7.6550e+01	9.4168	5.039438	0.000185	1.845607	0.625308	-0.000081
1533	7.6600e+01	9.3735	5.001148	0.000175	1.752394	0.593727	-0.000077
1534	7.6650e+01	9.3591	4.959192	0.000192	1.920176	0.650573	-0.000084
1535	7.6700e+01	9.3495	4.918050	0.000188	1.882892	0.637941	-0.000082
1536	7.6750e+01	9.3110	4.880575	0.000172	1.715109	0.581095	-0.000075
1537	7.6800e+01	9.2853	4.838618	0.000192	1.920176	0.650573	-0.000084
1538	7.6850e+01	9.2628	4.798292	0.000185	1.845607	0.625308	-0.000081
1539	7.6900e+01	9.2500	4.758372	0.000183	1.826964	0.618992	-0.000080
1540	7.6950e+01	9.2532	4.719674	-0.000177	-1.771037	-0.600043	-0.000077
1541	7.7000e+01	9.2292	4.682199	0.000172	1.715109	0.581095	-0.000075
1542	7.7050e+01	9.1890	4.639021	0.000198	1.976104	0.669522	-0.000086
1543	7.7100e+01	9.1762	4.597879	0.000188	1.882892	0.637941	-0.000082
1544	7.7150e+01	9.1746	4.559182	0.000177	1.771037	0.600043	-0.000077
1545	7.7200e+01	9.1393	4.518855	0.000185	1.845607	0.625308	-0.000081
1546	7.7250e+01	9.1377	4.482194	0.000168	1.677824	0.568462	-0.000073
1547	7.7300e+01	9.0880	4.439423	0.000196	1.957461	0.663206	-0.000086
1548	7.7350e+01	9.0719	4.405613	0.000155	1.547327	0.524248	-0.000068
1549	7.7400e+01	9.0623	4.367323	0.000175	1.752394	0.593727	-0.000077
1550	7.7450e+01	9.0366	4.329033	0.000175	1.752394	0.593727	-0.000077
1551	7.7500e+01	9.0158	4.288299	0.000186	1.864249	0.631625	-0.000081
1552	7.7550e+01	8.9725	4.249601	0.000177	1.771037	0.600043	-0.000077
1553	7.7600e+01	8.9645	4.201942	0.000218	2.181171	0.739001	-0.000095
1554	7.7650e+01	8.9645	4.169762	0.000147	1.472757	0.498983	-0.000064
1555	7.7700e+01	8.9324	4.135138	0.000158	1.584612	0.536881	-0.000069
1556	7.7750e+01	8.9115	4.092367	0.000196	1.957461	0.663206	-0.000086
1557	7.7800e+01	8.9035	4.055299	0.000170	1.696467	0.574778	-0.000074
1558	7.7850e+01	8.8682	4.017009	0.000175	1.752394	0.593727	-0.000077
1559	7.7900e+01	8.8554	3.975052	0.000192	1.920176	0.650573	-0.000084
1560	7.7950e+01	8.8345	3.940428	0.000158	1.584612	0.536881	-0.000069
1561	7.8000e+01	8.8233	3.902138	0.000175	1.752394	0.593727	-0.000077
1562	7.8050e+01	8.7976	3.864255	0.000173	1.733752	0.587411	-0.000076
1563	7.8100e+01	8.7816	3.826372	0.000173	1.733752	0.587411	-0.000076
1564	7.8150e+01	8.7671	3.786860	0.000181	1.808322	0.612676	-0.000079
1565	7.8200e+01	8.7367	3.749385	0.000172	1.715109	0.581095	-0.000075
1566	7.8250e+01	8.7286	3.713946	0.000162	1.621897	0.549513	-0.000071
1567	7.8300e+01	8.6982	3.678914	0.000160	1.603254	0.543197	-0.000070
1568	7.8350e+01	8.6757	3.634921	0.000201	2.013389	0.682155	-0.000088
1569	7.8400e+01	8.6613	3.592965	0.000192	1.920176	0.650573	-0.000084
1570	7.8450e+01	8.6420	3.555489	0.000172	1.715109	0.581095	-0.000075
1571	7.8500e+01	8.6260	3.518014	0.000172	1.715109	0.581095	-0.000075
1572	7.8550e+01	8.5730	3.482982	0.000160	1.603254	0.543197	-0.000070
1573	7.8600e+01	8.5746	3.442248	-0.000186	-1.864249	-0.631625	-0.000081
1574	7.8650e+01	8.5602	3.401107	0.000188	1.882892	0.637941	-0.000082
1575	7.8700e+01	8.5329	3.362409	0.000177	1.771037	0.600043	-0.000077
1576	7.8750e+01	8.5201	3.327785	0.000158	1.584612	0.536881	-0.000069
1577	7.8800e+01	8.5008	3.287051	0.000186	1.864249	0.631625	-0.000081
1578	7.8850e+01	8.4944	3.244280	0.000196	1.957461	0.663206	-0.000086
1579	7.8900e+01	8.4447	3.205990	0.000175	1.752394	0.593727	-0.000077
1580	7.8950e+01	8.4286	3.166885	0.000179	1.789679	0.606360	-0.000078
1581	7.9000e+01	8.4046	3.131446	0.000162	1.621897	0.549513	-0.000071
1582	7.9050e+01	8.3901	3.095600	0.000164	1.640539	0.555830	-0.000072
1583	7.9100e+01	8.3789	3.054865	0.000186	1.864249	0.631625	-0.000081
1584	7.9150e+01	8.3484	3.014539	0.000185	1.845607	0.625308	-0.000081
1585	7.9200e+01	8.3147	2.974212	0.000185	1.845607	0.625308	-0.000081
1586	7.9250e+01	8.3147	2.935107	0.000179	1.789679	0.606360	-0.000078
1587	7.9300e+01	8.2907	2.900075	0.000160	1.603254	0.543197	-0.000070
1588	7.9350e+01	8.2746	2.860563	0.000181	1.808322	0.612676	-0.000079
1589	7.9400e+01	8.2698	2.821051	0.000181	1.808322	0.612676	-0.000079
1590	7.9450e+01	8.2538	2.783575	0.000172	1.715109	0.581095	-0.000075
1591	7.9500e+01	8.2089	2.741619	0.000192	1.920176	0.650573	-0.000084
1592	7.9550e+01	8.1960	2.705366	0.000166	1.659182	0.562146	-0.000073
1593	7.9600e+01	8.1575	2.664631	0.000186	1.864249	0.631625	-0.000081
1594	7.9650e+01	8.1623	2.621860	-0.000196	-1.957461	-0.663206	-0.000086
1595	7.9700e+01	8.1415	2.581533	0.000185	1.845607	0.625308	-0.000081
1596	7.9750e+01	8.1142	2.539170	0.000194	1.938819	0.656890	-0.000085
1597	7.9800e+01	8.0998	2.499250	0.000183	1.826964	0.618992	-0.000080
1598	7.9850e+01	8.0741	2.460553	0.000177	1.771037	0.600043	-0.000077
1599	7.9900e+01	8.0581	2.418596	0.000192	1.920176	0.650573	-0.000084
1600	7.9950e+01	8.0292	2.383158	0.000162	1.621897	0.549513	-0.000071
1601	8.0000e+01	8.0196	2.341201	0.000192	1.920176	0.650573	-0.000084
1602	8.0050e+01	8.0035	2.298023	0.000198	1.976104	0.669522	-0.000086
1603	8.0100e+01	7.9666	2.259733	0.000175	1.752394	0.593727	-0.000077
1604	8.0150e+01	7.9538	2.221035	0.000177	1.771037	0.600043	-0.000077
1605	8.0200e+01	7.9393	2.177857	0.000198	1.976104	0.669522	-0.000086
1606	8.0250e+01	7.9297	2.138752	0.000179	1.789679	0.606360	-0.000078
1607	8.0300e+01	7.8688	2.097203	0.000190	1.901534	0.644257	-0.000083
1608	8.0350e+01	7.8639	2.056469	0.000186	1.864249	0.631625	-0.000081
1609	8.0400e+01	7.8607	2.016549	0.000183	1.826964	0.618992	-0.000080
1610	8.0450e+01	7.8335	1.970112	0.000213	2.125244	0.720052	-0.000093
1611	8.0500e+01	7.8126	1.934673	0.000162	1.621897	0.549513	-0.000071
1612	8.0550e+01	7.7934	1.891088	0.000199	1.994746	0.675838	-0.000087
1613	8.0600e+01	7.7757	1.853612	0.000172	1.715109	0.581095	-0.000075
1614	8.0650e+01	7.7372	1.810841	0.000196	1.957461	0.663206	-0.000086
1615	8.0700e+01	7.7388	1.766441	-0.000203	-2.032031	-0.688471	-0.000089
1616	8.0750e+01	7.7212	1.728558	0.000173	1.733752	0.587411	-0.000076
1617	8.0800e+01	7.7067	1.687824	0.000186	1.864249	0.631625	-0.000081
1618	8.0850e+01	7.6746	1.645868	0.000192	1.920176	0.650573	-0.000084
1619	8.0900e+01	7.6666	1.602689	0.000198	1.976104	0.669522	-0.000086
1620	8.0950e+01	7.6329	1.564806	0.000173	1.733752	0.587411	-0.000076
1621	8.1000e+01	7.6217	1.524479	0.000185	1.845607	0.625308	-0.000081
1622	8.1050e+01	7.5656	1.481301	0.000198	1.976104	0.669522	-0.000086
1623	8.1100e+01	7.5656	1.440160	0.000188	1.882892	0.637941	-0.000082
1624	8.1150e+01	7.5768	1.406350	-0.000155	-1.547327	-0.524248	-0.000068
1625	8.1200e+01	7.5271	1.364801	0.000190	1.901534	0.644257	-0.000083
1626	8.1250e+01	7.5239	1.321216	0.000199	1.994746	0.675838	-0.000087
1627	8.1300e+01	7.4950	1.284147	0.000170	1.696467	0.574778	-0.000074
1628	8.1350e+01	7.4789	1.239340	0.000205	2.050674	0.694787	-0.000090
1629	8.1400e+01	7.4757	1.196161	0.000198	1.976104	0.669522	-0.000086
1630	8.1450e+01	7.4372	1.155020	0.000188	1.882892	0.637941	-0.000082
1631	8.1500e+01	7.4228	1.109397	0.000209	2.087959	0.707420	-0.000091
1632	8.1550e+01	7.3955	1.072329	0.000170	1.696467	0.574778	-0.000074
1633	8.1600e+01	7.3650	1.031188	0.000188	1.882892	0.637941	-0.000082
1634	8.1650e+01	7.3522	0.993712	0.000172	1.715109	0.581095	-0.000075
1635	8.1700e+01	7.3346	0.956644	0.000170	1.696467	0.574778	-0.000074
1636	8.1750e+01	7.3105	0.909800	0.000214	2.143886	0.726368	-0.000094
1637	8.1800e+01	7.3137	0.868658	-0.000188	-1.882892	-0.637941	-0.000082
1638	8.1850e+01	7.2848	0.818555	0.000229	2.293026	0.776898	-0.000100
1639	8.1900e+01	7.2672	0.781894	0.000168	1.677824	0.568462	-0.000073
1640	8.1950e+01	7.2351	0.740752	0.000188	1.882892	0.637941	-0.000082
1641	8.2000e+01	7.2014	0.698389	0.000194	1.938819	0.656890	-0.000085
1642	8.2050e+01	7.2014	0.656840	0.000190	1.901534	0.644257	-0.000083
1643	8.2100e+01	7.1773	0.615291	0.000190	1.901534	0.644257	-0.000083
1644	8.2150e+01	7.1677	0.575371	0.000183	1.826964	0.618992	-0.000080
1645	8.2200e+01	7.1404	0.532193	0.000198	1.976104	0.669522	-0.000086
1646	8.2250e+01	7.1228	0.490644	0.000190	1.901534	0.644257	-0.000083
1647	8.2300e+01	7.0891	0.445429	0.000207	2.069316	0.701103	-0.000090
1648	8.2350e+01	7.0795	0.401029	0.000203	2.032031	0.688471	-0.000089
1649	8.2400e+01	7.0586	0.360702	0.000185	1.845607	0.625308	-0.000081
1650	8.2450e+01	7.0314	0.324448	0.000166	1.659182	0.562146	-0.000073
1651	8.2500e+01	7.0137	0.284121	0.000185	1.845607	0.625308	-0.000081
1652	8.2550e+01	7.0121	0.241350	0.000196	1.957461	0.663206	-0.000086
1653	8.2600e+01	6.9656	0.195728	0.000209	2.087959	0.707420	-0.000091
1654	8.2650e+01	6.9479	0.150513	0.000207	2.069316	0.701103	-0.000090
1655	8.2700e+01	6.9447	0.109779	0.000186	1.864249	0.631625	-0.000081
1656	8.2750e+01	6.8998	0.073118	0.000168	1.677824	0.568462	-0.000073
1657	8.2800e+01	6.8950	0.034013	0.000179	1.789679	0.606360	-0.000078
1658	8.2850e+01	6.8790	-0.009573	0.000199	1.994746	0.675838	-0.000087
1659	8.2900e+01	6.8549	-0.056010	0.000213	2.125244	0.720052	-0.000093
1660	8.2950e+01	6.8356	-0.095522	0.000181	1.808322	0.612676	-0.000079
1661	8.3000e+01	6.8164	-0.137478	0.000192	1.920176	0.650573	-0.000084
1662	8.3050e+01	6.7955	-0.179842	0.000194	1.938819	0.656890	-0.000085
1663	8.3100e+01	6.7667	-0.229538	0.000227	2.274384	0.770582	-0.000099
1664	8.3150e+01	6.7570	-0.270679	0.000188	1.882892	0.637941	-0.000082
1665	8.3200e+01	6.7314	-0.313043	0.000194	1.938819	0.656890	-0.000085
1666	8.3250e+01	6.7121	-0.355406	0.000194	1.938819	0.656890	-0.000085
1667	8.3300e+01	6.6993	-0.396955	0.000190	1.901534	0.644257	-0.000083
1668	8.3350e+01	6.6672	-0.440134	0.000198	1.976104	0.669522	-0.000086
1669	8.3400e+01	6.6479	-0.482905	0.000196	1.957461	0.663206	-0.000086
1670	8.3450e+01	6.6271	-0.522417	0.000181	1.808322	0.612676	-0.000079
1671	8.3500e+01	6.6239	-0.570483	0.000220	2.199814	0.745317	-0.000096
1672	8.3550e+01	6.5966	-0.610810	0.000185	1.845607	0.625308	-0.000081
1673	8.3600e+01	6.5838	-0.655210	0.000203	2.032031	0.688471	-0.000089
1674	8.3650e+01	6.5469	-0.697574	0.000194	1.938819	0.656890	-0.000085
1675	8.3700e+01	6.5469	-0.741974	0.000203	2.032031	0.688471	-0.000089
1676	8.3750e+01	6.5196	-0.783116	0.000188	1.882892	0.637941	-0.000082
1677	8.3800e+01	6.5068	-0.823850	0.000186	1.864249	0.631625	-0.000081
1678	8.3850e+01	6.4875	-0.860104	0.000166	1.659182	0.562146	-0.000073
1679	8.3900e+01	6.4683	-0.905726	0.000209	2.087959	0.707420	-0.000091
1680	8.3950e+01	6.4346	-0.946868	0.000188	1.882892	0.637941	-0.000082
1681	8.4000e+01	6.4121	-0.988824	0.000192	1.920176	0.650573	-0.000084
1682	8.4050e+01	6.3993	-1.031188	0.000194	1.938819	0.656890	-0.000085
1683	8.4100e+01	6.3865	-1.072329	0.000188	1.882892	0.637941	-0.000082
1684	8.4150e+01	6.3704	-1.117952	0.000209	2.087959	0.707420	-0.000091
1685	8.4200e+01	6.3255	-1.158279	0.000185	1.845607	0.625308	-0.000081
1686	8.4250e+01	6.3351	-1.199827	-0.000190	-1.901534	-0.644257	-0.000083
1687	8.4300e+01	6.2854	-1.237303	0.000172	1.715109	0.581095	-0.000075
1688	8.4350e+01	6.3062	-1.281703	-0.000203	-2.032031	-0.688471	-0.000089
1689	8.4400e+01	6.2485	-1.325289	0.000199	1.994746	0.675838	-0.000087
1690	8.4450e+01	6.2469	-1.365209	0.000183	1.826964	0.618992	-0.000080
1691	8.4500e+01	6.2068	-1.415719	0.000231	2.311669	0.783215	-0.000101
1692	8.4550e+01	6.1779	-1.459305	0.000199	1.994746	0.675838	-0.000087
1693	8.4600e+01	6.1635	-1.498817	0.000181	1.808322	0.612676	-0.000079
1694	8.4650e+01	6.1474	-1.540773	0.000192	1.920176	0.650573	-0.000084
1695	8.4700e+01	6.1378	-1.581100	0.000185	1.845607	0.625308	-0.000081
1696	8.4750e+01	6.1314	-1.627130	0.000211	2.106601	0.713736	-0.000092
1697	8.4800e+01	6.1009	-1.668271	0.000188	1.882892	0.637941	-0.000082
1698	8.4850e+01	6.0784	-1.710635	0.000194	1.938819	0.656890	-0.000085
1699	8.4900e+01	6.0833	-1.752591	-0.000192	-1.920176	-0.650573	-0.000084
1700	8.4950e+01	6.0464	-1.799843	0.000216	2.162529	0.732685	-0.000095
1701	8.5000e+01	6.0464	-1.845465	0.000209	2.087959	0.707420	-0.000091
1702	8.5050e+01	5.9998	-1.886607	0.000188	1.882892	0.637941	-0.000082
1703	8.5100e+01	5.9806	-1.925305	0.000177	1.771037	0.600043	-0.000077
1704	8.5150e+01	5.9661	-1.968483	0.000198	1.976104	0.669522	-0.000086
1705	8.5200e+01	5.9276	-2.017771	0.000226	2.255741	0.764266	-0.000099
1706	8.5250e+01	5.9052	-2.057284	0.000181	1.808322	0.612676	-0.000079
1707	8.5300e+01	5.8923	-2.097203	0.000183	1.826964	0.618992	-0.000080
1708	8.5350e+01	5.8923	-2.142825	0.000209	2.087959	0.707420	-0.000091
1709	8.5400e+01	5.8667	-2.188041	0.000207	2.069316	0.701103	-0.000090
1710	8.5450e+01	5.8426	-2.229182	0.000188	1.882892	0.637941	-0.000082
1711	8.5500e+01	5.8250	-2.278063	0.000224	2.237099	0.757950	-0.000098
1712	8.5550e+01	5.7897	-2.320020	0.000192	1.920176	0.650573	-0.000084
1713	8.5600e+01	5.7817	-2.364827	0.000205	2.050674	0.694787	-0.000090
1714	8.5650e+01	5.7817	-2.405154	0.000185	1.845607	0.625308	-0.000081
1715	8.5700e+01	5.7271	-2.448740	0.000199	1.994746	0.675838	-0.000087
1716	8.5750e+01	5.7159	-2.496806	0.000220	2.199814	0.745317	-0.000096
1717	8.5800e+01	5.7111	-2.537948	0.000188	1.882892	0.637941	-0.000082
1718	8.5850e+01	5.6726	-2.588051	0.000229	2.293026	0.776898	-0.000100
1719	8.5900e+01	5.6533	-2.632451	0.000203	2.032031	0.688471	-0.000089
1720	8.5950e+01	5.6244	-2.673593	0.000188	1.882892	0.637941	-0.000082
1721	8.6000e+01	5.6357	-2.717993	-0.000203	-2.032031	-0.688471	-0.000089
1722	8.6050e+01	5.6116	-2.764430	0.000213	2.125244	0.720052	-0.000093
1723	8.6100e+01	5.5715	-2.809645	0.000207	2.069316	0.701103	-0.000090
1724	8.6150e+01	5.5635	-2.856490	0.000214	2.143886	0.726368	-0.000094
1725	8.6200e+01	5.5250	-2.903334	0.000214	2.143886	0.726368	-0.000094
1726	8.6250e+01	5.5089	-2.947734	0.000203	2.032031	0.688471	-0.000089
1727	8.6300e+01	5.4897	-2.999874	0.000239	2.386239	0.808480	-0.000104
1728	8.6350e+01	5.4817	-3.044682	0.000205	2.050674	0.694787	-0.000090
1729	8.6400e+01	5.4672	-3.091526	0.000214	2.143886	0.726368	-0.000094
1730	8.6450e+01	5.4383	-3.135112	0.000199	1.994746	0.675838	-0.000087
1731	8.6500e+01	5.4175	-3.176661	0.000190	1.901534	0.644257	-0.000083
1732	8.6550e+01	5.4015	-3.225135	0.000222	2.218456	0.751633	-0.000097
1733	8.6600e+01	5.3726	-3.273608	0.000222	2.218456	0.751633	-0.000097
1734	8.6650e+01	5.3549	-3.320860	0.000216	2.162529	0.732685	-0.000095
1735	8.6700e+01	5.3261	-3.368519	0.000218	2.181171	0.739001	-0.000095
1736	8.6750e+01	5.2972	-3.414549	0.000211	2.106601	0.713736	-0.000092
1737	8.6800e+01	5.2924	-3.462615	0.000220	2.199814	0.745317	-0.000096
1738	8.6850e+01	5.2956	-3.504164	-0.000190	-1.901534	-0.644257	-0.000083
1739	8.6900e+01	5.2394	-3.555082	0.000233	2.330311	0.789531	-0.000102
1740	8.6950e+01	5.2298	-3.601519	0.000213	2.125244	0.720052	-0.000093
1741	8.7000e+01	5.2009	-3.646327	0.000205	2.050674	0.694787	-0.000090
1742	8.7050e+01	5.1913	-3.698467	0.000239	2.386239	0.808480	-0.000104
1743	8.7100e+01	5.1817	-3.741645	0.000198	1.976104	0.669522	-0.000086
1744	8.7150e+01	5.1592	-3.792563	0.000233	2.330311	0.789531	-0.000102
1745	8.7200e+01	5.1239	-3.833297	0.000186	1.864249	0.631625	-0.000081
1746	8.7250e+01	5.1287	-3.880549	-0.000216	-2.162529	-0.732685	-0.000095
1747	8.7300e+01	5.1031	-3.923320	0.000196	1.957461	0.663206	-0.000086
1748	8.7350e+01	5.0950	-3.977496	0.000248	2.479451	0.840061	-0.000108
1749	8.7400e+01	5.0517	-4.018638	0.000188	1.882892	0.637941	-0.000082
1750	8.7450e+01	5.0309	-4.070778	0.000239	2.386239	0.808480	-0.000104
1751	8.7500e+01	5.0052	-4.115993	0.000207	2.069316	0.701103	-0.000090
1752	8.7550e+01	4.9795	-4.166096	0.000229	2.293026	0.776898	-0.000100
1753	8.7600e+01	4.9827	-4.211311	-0.000207	-2.069316	-0.701103	-0.000090
1754	8.7650e+01	4.9523	-4.261007	0.000227	2.274384	0.770582	-0.000099
1755	8.7700e+01	4.9346	-4.312332	0.000235	2.348954	0.795847	-0.000103
1756	8.7750e+01	4.9202	-4.353881	0.000190	1.901534	0.644257	-0.000083
1757	8.7800e+01	4.8945	-4.399911	0.000211	2.106601	0.713736	-0.000092
1758	8.7850e+01	4.8721	-4.446755	0.000214	2.143886	0.726368	-0.000094
1759	8.7900e+01	4.8496	-4.500524	0.000246	2.460809	0.833745	-0.000108
1760	8.7950e+01	4.8416	-4.548591	0.000220	2.199814	0.745317	-0.000096
1761	8.8000e+01	4.8191	-4.590547	0.000192	1.920176	0.650573	-0.000084
1762	8.8050e+01	4.8079	-4.637799	0.000216	2.162529	0.732685	-0.000095
1763	8.8100e+01	4.7742	-4.685458	0.000218	2.181171	0.739001	-0.000095
1764	8.8150e+01	4.7453	-4.736783	0.000235	2.348954	0.795847	-0.000103
1765	8.8200e+01	4.7437	-4.779554	0.000196	1.957461	0.663206	-0.000086
1766	8.8250e+01	4.7132	-4.833730	0.000248	2.479451	0.840061	-0.000108
1767	8.8300e+01	4.6908	-4.875279	0.000190	1.901534	0.644257	-0.000083
1768	8.8350e+01	4.6587	-4.927419	0.000239	2.386239	0.808480	-0.000104
1769	8.8400e+01	4.6443	-4.970597	0.000198	1.976104	0.669522	-0.000086
1770	8.8450e+01	4.6394	-5.016627	0.000211	2.106601	0.713736	-0.000092
1771	8.8500e+01	4.5993	-5.070804	0.000248	2.479451	0.840061	-0.000108
1772	8.8550e+01	4.5849	-5.112353	0.000190	1.901534	0.644257	-0.000083
1773	8.8600e+01	4.5673	-5.162048	0.000227	2.274384	0.770582	-0.000099
1774	8.8650e+01	4.5368	-5.206041	0.000201	2.013389	0.682155	-0.000088
1775	8.8700e+01	4.5608	-5.254923	-0.000224	-2.237099	-0.757950	-0.000098
1776	8.8750e+01	4.5336	-5.303804	0.000224	2.237099	0.757950	-0.000098
1777	8.8800e+01	4.4999	-5.348611	0.000205	2.050674	0.694787	-0.000090
1778	8.8850e+01	4.4758	-5.397492	0.000224	2.237099	0.757950	-0.000098
1779	8.8900e+01	4.4485	-5.449632	0.000239	2.386239	0.808480	-0.000104
1780	8.8950e+01	4.4501	-5.495662	-0.000211	-2.106601	-0.713736	-0.000092
1781	8.9000e+01	4.4245	-5.541692	0.000211	2.106601	0.713736	-0.000092
1782	8.9050e+01	4.3924	-5.586907	0.000207	2.069316	0.701103	-0.000090
1783	8.9100e+01	4.3860	-5.637010	0.000229	2.293026	0.776898	-0.000100
1784	8.9150e+01	4.3812	-5.685076	0.000220	2.199814	0.745317	-0.000096
1785	8.9200e+01	4.3539	-5.733143	0.000220	2.199814	0.745317	-0.000096
1786	8.9250e+01	4.3074	-5.784875	0.000237	2.367596	0.802163	-0.000103
1787	8.9300e+01	4.2913	-5.835386	0.000231	2.311669	0.783215	-0.000101
1788	8.9350e+01	4.2705	-5.877749	0.000194	1.938819	0.656890	-0.000085
1789	8.9400e+01	4.2576	-5.929482	0.000237	2.367596	0.802163	-0.000103
1790	8.9450e+01	4.2272	-5.974290	0.000205	2.050674	0.694787	-0.000090
1791	8.9500e+01	4.2159	-6.023985	0.000227	2.274384	0.770582	-0.000099
1792	8.9550e+01	4.2015	-6.070422	0.000213	2.125244	0.720052	-0.000093
1793	8.9600e+01	4.1614	-6.122562	0.000239	2.386239	0.808480	-0.000104
1794	8.9650e+01	4.1710	-6.174295	-0.000237	-2.367596	-0.802163	-0.000103
1795	8.9700e+01	4.1421	-6.220324	0.000211	2.106601	0.713736	-0.000092
1796	8.9750e+01	4.1197	-6.269613	0.000226	2.255741	0.764266	-0.000099
1797	8.9800e+01	4.0908	-6.318494	0.000224	2.237099	0.757950	-0.000098
1798	8.9850e+01	4.0892	-6.365746	0.000216	2.162529	0.732685	-0.000095
1799	8.9900e+01	4.0539	-6.412997	0.000216	2.162529	0.732685	-0.000095
1800	8.9950e+01	4.0427	-6.459842	0.000214	2.143886	0.726368	-0.000094
1801	9.0000e+01	4.0234	-6.508723	0.000224	2.237099	0.757950	-0.000098
1802	9.0050e+01	3.9913	-6.560455	0.000237	2.367596	0.802163	-0.000103
1803	9.0100e+01	3.9833	-6.608929	0.000222	2.218456	0.751633	-0.000097
1804	9.0150e+01	3.9384	-6.659032	0.000229	2.293026	0.776898	-0.000100
1805	9.0200e+01	3.9464	-6.705062	-0.000211	-2.106601	-0.713736	-0.000092
1806	9.0250e+01	3.9079	-6.758831	0.000246	2.460809	0.833745	-0.000108
1807	9.0300e+01	3.9015	-6.808934	0.000229	2.293026	0.776898	-0.000100
1808	9.0350e+01	3.8887	-6.855371	0.000213	2.125244	0.720052	-0.000093
1809	9.0400e+01	3.8373	-6.903438	0.000220	2.199814	0.745317	-0.000096
1810	9.0450e+01	3.8453	-6.952726	-0.000226	-2.255741	-0.764266	-0.000099
1811	9.0500e+01	3.8213	-7.002422	0.000227	2.274384	0.770582	-0.000099
1812	9.0550e+01	3.7956	-7.049267	0.000214	2.143886	0.726368	-0.000094
1813	9.0600e+01	3.7908	-7.103443	0.000248	2.479451	0.840061	-0.000108
1814	9.0650e+01	3.7539	-7.151917	0.000222	2.218456	0.751633	-0.000097
1815	9.0700e+01	3.7154	-7.196317	0.000203	2.032031	0.688471	-0.000089
1816	9.0750e+01	3.7266	-7.249679	-0.000244	-2.442166	-0.827428	-0.000107
1817	9.0800e+01	3.6849	-7.300597	0.000233	2.330311	0.789531	-0.000102
1818	9.0850e+01	3.6962	-7.349885	-0.000226	-2.255741	-0.764266	-0.000099
1819	9.0900e+01	3.6593	-7.396730	0.000214	2.143886	0.726368	-0.000094
1820	9.0950e+01	3.6384	-7.446833	0.000229	2.293026	0.776898	-0.000100
1821	9.1000e+01	3.6208	-7.500195	0.000244	2.442166	0.827428	-0.000107
1822	9.1050e+01	3.5871	-7.547854	0.000218	2.181171	0.739001	-0.000095
1823	9.1100e+01	3.5726	-7.596328	0.000222	2.218456	0.751633	-0.000097
1824	9.1150e+01	3.5806	-7.651726	-0.000254	-2.535379	-0.859010	-0.000111
1825	9.1200e+01	3.5213	-7.697756	0.000211	2.106601	0.713736	-0.000092
1826	9.1250e+01	3.5004	-7.748674	0.000233	2.330311	0.789531	-0.000102
1827	9.1300e+01	3.5101	-7.798369	-0.000227	-2.274384	-0.770582	-0.000099
1828	9.1350e+01	3.4780	-7.849287	0.000233	2.330311	0.789531	-0.000102
1829	9.1400e+01	3.4684	-7.901020	0.000237	2.367596	0.802163	-0.000103
1830	9.1450e+01	3.4427	-7.946235	0.000207	2.069316	0.701103	-0.000090
1831	9.1500e+01	3.3962	-8.001226	0.000252	2.516736	0.852693	-0.000110
1832	9.1550e+01	3.3994	-8.048070	-0.000214	-2.143886	-0.726368	-0.000094
1833	9.1600e+01	3.3641	-8.099396	0.000235	2.348954	0.795847	-0.000103
1834	9.1650e+01	3.3464	-8.151535	0.000239	2.386239	0.808480	-0.000104
1835	9.1700e+01	3.3432	-8.195528	0.000201	2.013389	0.682155	-0.000088
1836	9.1750e+01	3.3127	-8.244410	0.000224	2.237099	0.757950	-0.000098
1837	9.1800e+01	3.3047	-8.303067	0.000268	2.684519	0.909540	-0.000117
1838	9.1850e+01	3.2710	-8.348689	0.000209	2.087959	0.707420	-0.000091
1839	9.1900e+01	3.2502	-8.403681	0.000252	2.516736	0.852693	-0.000110
1840	9.1950e+01	3.2309	-8.454598	0.000233	2.330311	0.789531	-0.000102
1841	9.2000e+01	3.2197	-8.501850	0.000216	2.162529	0.732685	-0.000095
1842	9.2050e+01	3.1860	-8.558878	0.000261	2.609949	0.884275	-0.000114
1843	9.2100e+01	3.1716	-8.608981	0.000229	2.293026	0.776898	-0.000100
1844	9.2150e+01	3.1780	-8.660714	-0.000237	-2.367596	-0.802163	-0.000103
1845	9.2200e+01	3.1106	-8.713668	0.000242	2.423524	0.821112	-0.000106
1846	9.2250e+01	3.1106	-8.764993	0.000235	2.348954	0.795847	-0.000103
1847	9.2300e+01	3.0994	-8.813874	0.000224	2.237099	0.757950	-0.000098
1848	9.2350e+01	3.0898	-8.872532	0.000268	2.684519	0.909540	-0.000117
1849	9.2400e+01	3.0400	-8.921413	0.000224	2.237099	0.757950	-0.000098
1850	9.2450e+01	3.0352	-8.979663	0.000267	2.665876	0.903223	-0.000116
1851	9.2500e+01	3.0079	-9.029359	0.000227	2.274384	0.770582	-0.000099
1852	9.2550e+01	2.9791	-9.080684	0.000235	2.348954	0.795847	-0.000103
1853	9.2600e+01	2.9807	-9.135268	-0.000250	-2.498094	-0.846377	-0.000109
1854	9.2650e+01	2.9710	-9.188630	0.000244	2.442166	0.827428	-0.000107
1855	9.2700e+01	2.9454	-9.241991	0.000244	2.442166	0.827428	-0.000107
1856	9.2750e+01	2.8924	-9.292909	0.000233	2.330311	0.789531	-0.000102
1857	9.2800e+01	2.8940	-9.346271	-0.000244	-2.442166	-0.827428	-0.000107
1858	9.2850e+01	2.8652	-9.398411	0.000239	2.386239	0.808480	-0.000104
1859	9.2900e+01	2.8507	-9.448107	0.000227	2.274384	0.770582	-0.000099
1860	9.2950e+01	2.8363	-9.506357	0.000267	2.665876	0.903223	-0.000116
1861	9.3000e+01	2.8218	-9.558904	0.000240	2.404881	0.814796	-0.000105
1862	9.3050e+01	2.7978	-9.607378	0.000222	2.218456	0.751633	-0.000097
1863	9.3100e+01	2.7898	-9.659925	0.000240	2.404881	0.814796	-0.000105
1864	9.3150e+01	2.7529	-9.716953	0.000261	2.609949	0.884275	-0.000114
1865	9.3200e+01	2.7384	-9.771129	0.000248	2.479451	0.840061	-0.000108
1866	9.3250e+01	2.7015	-9.826528	0.000254	2.535379	0.859010	-0.000111
1867	9.3300e+01	2.6935	-9.879075	0.000240	2.404881	0.814796	-0.000105
1868	9.3350e+01	2.6903	-9.927956	0.000224	2.237099	0.757950	-0.000098
1869	9.3400e+01	2.6566	-9.985799	0.000265	2.647234	0.896907	-0.000116
1870	9.3450e+01	2.6438	-10.041605	0.000255	2.554021	0.865326	-0.000112
1871	9.3500e+01	2.6213	-10.095374	0.000246	2.460809	0.833745	-0.000108
1872	9.3550e+01	2.5924	-10.146699	0.000235	2.348954	0.795847	-0.000103
1873	9.3600e+01	2.5716	-10.202505	0.000255	2.554021	0.865326	-0.000112
1874	9.3650e+01	2.5523	-10.257904	0.000254	2.535379	0.859010	-0.000111
1875	9.3700e+01	2.5395	-10.311266	0.000244	2.442166	0.827428	-0.000107
1876	9.3750e+01	2.5138	-10.366257	0.000252	2.516736	0.852693	-0.000110
1877	9.3800e+01	2.4850	-10.420841	0.000250	2.498094	0.846377	-0.000109
1878	9.3850e+01	2.4753	-10.471759	0.000233	2.330311	0.789531	-0.000102
1879	9.3900e+01	2.4465	-10.522676	0.000233	2.330311	0.789531	-0.000102
1880	9.3950e+01	2.4368	-10.578075	0.000254	2.535379	0.859010	-0.000111
1881	9.4000e+01	2.4320	-10.631844	0.000246	2.460809	0.833745	-0.000108
1882	9.4050e+01	2.4240	-10.686428	0.000250	2.498094	0.846377	-0.000109
1883	9.4100e+01	2.3759	-10.736124	0.000227	2.274384	0.770582	-0.000099
1884	9.4150e+01	2.3807	-10.792745	-0.000259	-2.591306	-0.877958	-0.000113
1885	9.4200e+01	2.3486	-10.849365	0.000259	2.591306	0.877958	-0.000113
1886	9.4250e+01	2.3245	-10.904764	0.000254	2.535379	0.859010	-0.000111
1887	9.4300e+01	2.3037	-10.952016	0.000216	2.162529	0.732685	-0.000095
1888	9.4350e+01	2.2700	-11.002526	0.000231	2.311669	0.783215	-0.000101
1889	9.4400e+01	2.2588	-11.059554	0.000261	2.609949	0.884275	-0.000114
1890	9.4450e+01	2.2411	-11.114545	0.000252	2.516736	0.852693	-0.000110
1891	9.4500e+01	2.2138	-11.167907	0.000244	2.442166	0.827428	-0.000107
1892	9.4550e+01	2.1882	-11.224528	0.000259	2.591306	0.877958	-0.000113
1893	9.4600e+01	2.1802	-11.279112	0.000250	2.498094	0.846377	-0.000109
1894	9.4650e+01	2.1657	-11.330029	0.000233	2.330311	0.789531	-0.000102
1895	9.4700e+01	2.1593	-11.383391	0.000244	2.442166	0.827428	-0.000107
1896	9.4750e+01	2.1304	-11.436346	0.000242	2.423524	0.821112	-0.000106
1897	9.4800e+01	2.0935	-11.486042	0.000227	2.274384	0.770582	-0.000099
1898	9.4850e+01	2.0646	-11.545514	0.000272	2.721804	0.922172	-0.000119
1899	9.4900e+01	2.0486	-11.592765	0.000216	2.162529	0.732685	-0.000095
1900	9.4950e+01	2.0390	-11.649793	0.000261	2.609949	0.884275	-0.000114
1901	9.5000e+01	2.0149	-11.708043	0.000267	2.665876	0.903223	-0.000116
1902	9.5050e+01	2.0165	-11.764257	-0.000257	-2.572664	-0.871642	-0.000112
1903	9.5100e+01	1.9748	-11.816804	0.000240	2.404881	0.814796	-0.000105
1904	9.5150e+01	1.9443	-11.869758	0.000242	2.423524	0.821112	-0.000106
1905	9.5200e+01	1.9491	-11.924750	-0.000252	-2.516736	-0.852693	-0.000110
1906	9.5250e+01	1.9026	-11.973223	0.000222	2.218456	0.751633	-0.000097
1907	9.5300e+01	1.8882	-12.035954	0.000287	2.870943	0.972702	-0.000125
1908	9.5350e+01	1.8737	-12.088094	0.000239	2.386239	0.808480	-0.000104
1909	9.5400e+01	1.8401	-12.144307	0.000257	2.572664	0.871642	-0.000112
1910	9.5450e+01	1.8401	-12.199298	0.000252	2.516736	0.852693	-0.000110
1911	9.5500e+01	1.8048	-12.257141	0.000265	2.647234	0.896907	-0.000116
1912	9.5550e+01	1.8064	-12.314169	-0.000261	-2.609949	-0.884275	-0.000114
1913	9.5600e+01	1.7887	-12.372012	0.000265	2.647234	0.896907	-0.000116
1914	9.5650e+01	1.7406	-12.420078	0.000220	2.199814	0.745317	-0.000096
1915	9.5700e+01	1.7342	-12.474662	0.000250	2.498094	0.846377	-0.000109
1916	9.5750e+01	1.7262	-12.529653	0.000252	2.516736	0.852693	-0.000110
1917	9.5800e+01	1.6925	-12.585459	0.000255	2.554021	0.865326	-0.000112
1918	9.5850e+01	1.6893	-12.644116	0.000268	2.684519	0.909540	-0.000117
1919	9.5900e+01	1.6347	-12.695034	0.000233	2.330311	0.789531	-0.000102
1920	9.5950e+01	1.6379	-12.754914	-0.000274	-2.740446	-0.928488	-0.000120
1921	9.6000e+01	1.6203	-12.809498	0.000250	2.498094	0.846377	-0.000109
1922	9.6050e+01	1.6026	-12.866118	0.000259	2.591306	0.877958	-0.000113
1923	9.6100e+01	1.5786	-12.924775	0.000268	2.684519	0.909540	-0.000117
1924	9.6150e+01	1.5609	-12.984247	0.000272	2.721804	0.922172	-0.000119
1925	9.6200e+01	1.5401	-13.035165	0.000233	2.330311	0.789531	-0.000102
1926	9.6250e+01	1.5336	-13.092601	0.000263	2.628591	0.890591	-0.000115
1927	9.6300e+01	1.4951	-13.149629	0.000261	2.609949	0.884275	-0.000114
1928	9.6350e+01	1.4903	-13.214803	0.000298	2.982798	1.010599	-0.000130
1929	9.6400e+01	1.4599	-13.267758	0.000242	2.423524	0.821112	-0.000106
1930	9.6450e+01	1.4615	-13.326008	-0.000267	-2.665876	-0.903223	-0.000116
1931	9.6500e+01	1.4101	-13.386702	0.000278	2.777731	0.941121	-0.000121
1932	9.6550e+01	1.4101	-13.442101	0.000254	2.535379	0.859010	-0.000111
1933	9.6600e+01	1.3828	-13.497499	0.000254	2.535379	0.859010	-0.000111
1934	9.6650e+01	1.3443	-13.560230	0.000287	2.870943	0.972702	-0.000125
1935	9.6700e+01	1.3604	-13.621739	-0.000282	-2.815016	-0.953753	-0.000123
1936	9.6750e+01	1.3074	-13.674693	0.000242	2.423524	0.821112	-0.000106
1937	9.6800e+01	1.3010	-13.741497	0.000306	3.057368	1.035864	-0.000134
1938	9.6850e+01	1.2802	-13.796489	0.000252	2.516736	0.852693	-0.000110
1939	9.6900e+01	1.2577	-13.857997	0.000282	2.815016	0.953753	-0.000123
1940	9.6950e+01	1.2337	-13.914618	0.000259	2.591306	0.877958	-0.000113
1941	9.7000e+01	1.2176	-13.969202	0.000250	2.498094	0.846377	-0.000109
1942	9.7050e+01	1.1903	-14.029081	0.000274	2.740446	0.928488	-0.000120
1943	9.7100e+01	1.1759	-14.094256	0.000298	2.982798	1.010599	-0.000130
1944	9.7150e+01	1.1470	-14.151691	0.000263	2.628591	0.890591	-0.000115
1945	9.7200e+01	1.1214	-14.212793	0.000280	2.796374	0.947437	-0.000122
1946	9.7250e+01	1.1053	-14.274709	0.000283	2.833659	0.960069	-0.000124
1947	9.7300e+01	1.0893	-14.329700	0.000252	2.516736	0.852693	-0.000110
1948	9.7350e+01	1.0813	-14.390394	0.000278	2.777731	0.941121	-0.000121
1949	9.7400e+01	1.0540	-14.448237	0.000265	2.647234	0.896907	-0.000116
1950	9.7450e+01	1.0267	-14.513004	0.000296	2.964156	1.004283	-0.000130
1951	9.7500e+01	0.9946	-14.573698	0.000278	2.777731	0.941121	-0.000121
1952	9.7550e+01	0.9962	-14.632763	-0.000270	-2.703161	-0.915856	-0.000118
1953	9.7600e+01	0.9834	-14.695494	0.000287	2.870943	0.972702	-0.000125
1954	9.7650e+01	0.9369	-14.756188	0.000278	2.777731	0.941121	-0.000121
1955	9.7700e+01	0.9337	-14.815660	0.000272	2.721804	0.922172	-0.000119
1956	9.7750e+01	0.9080	-14.882464	0.000306	3.057368	1.035864	-0.000134
1957	9.7800e+01	0.9032	-14.937048	0.000250	2.498094	0.846377	-0.000109
1958	9.7850e+01	0.8599	-14.996927	0.000274	2.740446	0.928488	-0.000120
1959	9.7900e+01	0.8438	-15.060472	0.000291	2.908228	0.985334	-0.000127
1960	9.7950e+01	0.8198	-15.121574	0.000280	2.796374	0.947437	-0.000122
1961	9.8000e+01	0.8518	-15.180231	-0.000268	-2.684519	-0.909540	-0.000117
1962	9.8050e+01	0.8005	-15.241333	0.000280	2.796374	0.947437	-0.000122
1963	9.8100e+01	0.7925	-15.305693	0.000295	2.945513	0.997967	-0.000129
1964	9.8150e+01	0.7668	-15.372497	0.000306	3.057368	1.035864	-0.000134
1965	9.8200e+01	0.7299	-15.432784	0.000276	2.759089	0.934805	-0.000121
1966	9.8250e+01	0.7091	-15.492256	0.000272	2.721804	0.922172	-0.000119
1967	9.8300e+01	0.6962	-15.544803	0.000240	2.404881	0.814796	-0.000105
1968	9.8350e+01	0.7027	-15.612422	-0.000309	-3.094653	-1.048497	-0.000135
1969	9.8400e+01	0.6513	-15.676782	0.000295	2.945513	0.997967	-0.000129
1970	9.8450e+01	0.6433	-15.742364	0.000300	3.001441	1.016916	-0.000131
1971	9.8500e+01	0.6305	-15.804280	0.000283	2.833659	0.960069	-0.000124
1972	9.8550e+01	0.6080	-15.870677	0.000304	3.038726	1.029548	-0.000133
1973	9.8600e+01	0.5711	-15.930149	0.000272	2.721804	0.922172	-0.000119
1974	9.8650e+01	0.5567	-15.990436	0.000276	2.759089	0.934805	-0.000121
1975	9.8700e+01	0.5230	-16.053981	0.000291	2.908228	0.985334	-0.000127
1976	9.8750e+01	0.5358	-16.121192	-0.000308	-3.076011	-1.042181	-0.000134
1977	9.8800e+01	0.5069	-16.187589	0.000304	3.038726	1.029548	-0.000133
1978	9.8850e+01	0.4909	-16.245839	0.000267	2.665876	0.903223	-0.000116
1979	9.8900e+01	0.4636	-16.304904	0.000270	2.703161	0.915856	-0.000118
1980	9.8950e+01	0.4556	-16.371708	0.000306	3.057368	1.035864	-0.000134
1981	9.9000e+01	0.4155	-16.439734	0.000311	3.113296	1.054813	-0.000136
1982	9.9050e+01	0.3930	-16.502058	0.000285	2.852301	0.966386	-0.000125
1983	9.9100e+01	0.3626	-16.568047	0.000302	3.020083	1.023232	-0.000132
1984	9.9150e+01	0.3674	-16.629149	-0.000280	-2.796374	-0.947437	-0.000122
1985	9.9200e+01	0.3465	-16.690657	0.000282	2.815016	0.953753	-0.000123
1986	9.9250e+01	0.3257	-16.756647	0.000302	3.020083	1.023232	-0.000132
1987	9.9300e+01	0.3112	-16.824266	0.000309	3.094653	1.048497	-0.000135
1988	9.9350e+01	0.2807	-16.882923	0.000268	2.684519	0.909540	-0.000117
1989	9.9400e+01	0.2647	-16.948913	0.000302	3.020083	1.023232	-0.000132
1990	9.9450e+01	0.2390	-17.013273	0.000295	2.945513	0.997967	-0.000129
1991	9.9500e+01	0.1941	-17.083336	0.000321	3.206508	1.086394	-0.000140
1992	9.9550e+01	0.2069	-17.147696	-0.000295	-2.945513	-0.997967	-0.000129
1993	9.9600e+01	0.1652	-17.210426	0.000287	2.870943	0.972702	-0.000125
1994	9.9650e+01	0.1652	-17.276416	0.000302	3.020083	1.023232	-0.000132
1995	9.9700e+01	0.1364	-17.341591	0.000298	2.982798	1.010599	-0.000130
1996	9.9750e+01	0.1139	-17.410024	0.000313	3.131938	1.061129	-0.000137
1997	9.9800e+01	0.1203	-17.474384	-0.000295	-2.945513	-0.997967	-0.000129
1998	9.9850e+01	0.0930	-17.544447	0.000321	3.206508	1.086394	-0.000140
1999	9.9900e+01	0.0417	-17.604327	0.000274	2.740446	0.928488	-0.000120
2000	9.9950e+01	0.0273	-17.672760	0.000313	3.131938	1.061129	-0.000137
2001	1.0000e+02	0.0209	-17.714717	0.000313	3.131938	1.061129	-0.000084

PMax (uC/cm2):	4.41e+01
Pr (uC/cm2):	4.32e+00
-Pr (uC/cm2):	0.00e+00
PLoss (uC/cm2):	0.00e+00
C (Max-Eff) (nF):	2.20e-01
K (Eff):	7.46e+02
Vert. (+/-Pr) Shift (uC/cm2):	2.16e+00
Offset (uC/cm2):	2.20e+01

A (Loop Area - uC/cm2·Volts):	-8.58e-02



Hysteresis Version: 5.48.1 - Radiant Technologies, Inc., 1999 - 9/12/24

