»»»»»»»»»»»»»»»»»»»»»»»»»»»»»»»»»»»» Hysteresis ««««««««««««««««««««««««««««««««««««
»»»  Executed Version:	5.48.1
»»»  Vision Version:	5.48.4 (R)
»»»  Vision Compiled:	9/18/24
»»»  Driver Version:	5.47.0
»»»  Windows Version:	Windows 8 or 8.1
»»»  Processor Information:	x86 (AMD or Intel) - 32 Processors
»»»  Tester Name:	PMF21124-494 (100V)
»»»  Tester S/N:	PMF21124-494
»»»  Internal Amp Type:	100V RevK 270k
»»»  Internal Amp S/N:	iAB2-596/K     
»»»  Execution Count:	1
»»»»»»»»»»»»»»»»»»»»»»»»»»»»»»»»»»»»»»»»»»««««««««««««««««««««««««««««««««««««««««««

Stored:	10/7/2025 - 18:31:57
Configured:	10/07/25 05:55:09 PM
Executed:	10/07/25 06:30:57 PM

»»»»»»»»»»»»»»»»»»»»»»»»»»»»»»»»»»» Sample Info ««««««««««««««««««««««««««««««««««««
Sample Name:	Int. Ref. Ferroelectric
Lot Name:	N/A
Wafer Name:	N/A
Die Row/Column:	0/0
Capacitor Number:	0
Sample Area (cm2):	1.00e-04
Sample Thickness (microns):	3.00e-01

Amplifier:	Internal

»»»»»»»»»»»»»»»»»»»»»»»»»»»»»»»»»»» Tester Info «««««««««««««««««««««««««««««««««««
Tester Name:	PMF21124-494 (100V)
Tester Serial Number:	PMF21124-494
Return Signal Amp. Level:	0.02 [Index: 2]

»»»»»»»»»»»»»»»»»»»»»»»»»»»»»»»» Hysteresis Info ««««««««««««««««««««««««««««««««««
Task Name:	Hyst-1
Volts:	20.00
Field:	666.67 (kV/cm)
DCBias:	0.00
DCField:	0.00 (kV/cm)
Hysteresis Period (ms):	5.00e-01
Preset:	Enabled
Preset Delay (ms):	1.00e+03
Profile:	Standard Monopolar

»»»»»»»»»»»»»»»»»»»»»»»»»»»»»»»»»»»»»» Data «««««««««««««««««««««««««««««««««««««««
Points:	1001

Valid Data

Point	Time (ms)	Drive Voltage	Measured Polarization (uC/cm2)	Capacitance (uF)	Normalized Capacitance (uF/cm2)	Dielectric Constant	Instantaneous Current (mA)
   1	0.0000e+00	0.0401	-29.472743	-0.000634	-6.336911	-2.147003	-0.050972
   2	5.0000e-04	0.0481	-29.727603	-0.000634	-6.336911	-2.147003	-0.050972
   3	1.0000e-03	0.1091	-29.108657	0.001539	15.389640	5.214151	0.123789
   4	1.5000e-03	0.1348	-28.853797	0.000634	6.336911	2.147003	0.050972
   5	2.0000e-03	0.1861	-28.999432	-0.000362	-3.621092	-1.226859	-0.029127
   6	2.5000e-03	0.2342	-28.817389	0.000453	4.526365	1.533574	0.036409
   7	3.0000e-03	0.2647	-28.671754	0.000362	3.621092	1.226859	0.029127
   8	3.5000e-03	0.2888	-28.744572	-0.000181	-1.810546	-0.613430	-0.014563
   9	4.0000e-03	0.3241	-28.271260	0.001177	11.768549	3.987292	0.094662
  10	4.5000e-03	0.3882	-27.907174	0.000905	9.052730	3.067148	0.072817
  11	5.0000e-03	0.4396	-27.870766	0.000091	0.905273	0.306715	0.007282
  12	5.5000e-03	0.4813	-27.979991	-0.000272	-2.715819	-0.920144	-0.021845
  13	6.0000e-03	0.5085	-27.433863	0.001358	13.579095	4.600722	0.109226
  14	6.5000e-03	0.5711	-27.324637	0.000272	2.715819	0.920144	0.021845
  15	7.0000e-03	0.5904	-27.106186	0.000543	5.431638	1.840289	0.043690
  16	7.5000e-03	0.6160	-27.069777	0.000091	0.905273	0.306715	0.007282
  17	8.0000e-03	0.6401	-26.669283	0.000996	9.958003	3.373863	0.080099
  18	8.5000e-03	0.7235	-26.742100	-0.000181	-1.810546	-0.613430	-0.014563
  19	9.0000e-03	0.7347	-26.086745	0.001629	16.294913	5.520866	0.131071
  20	9.5000e-03	0.7957	-25.868294	0.000543	5.431638	1.840289	0.043690
  21	1.0000e-02	0.8294	-26.195971	-0.000815	-8.147457	-2.760433	-0.065535
  22	1.0500e-02	0.8535	-26.013928	0.000453	4.526365	1.533574	0.036409
  23	1.1000e-02	0.9016	-25.467800	0.001358	13.579095	4.600722	0.109226
  24	1.1500e-02	0.9240	-25.103714	0.000905	9.052730	3.067148	0.072817
  25	1.2000e-02	0.9898	-25.103714	0.000000	0.000000	0.000000	0.000000
  26	1.2500e-02	1.0460	-25.067305	0.000091	0.905273	0.306715	0.007282
  27	1.3000e-02	1.0829	-24.848854	0.000543	5.431638	1.840289	0.043690
  28	1.3500e-02	1.1358	-24.885262	-0.000091	-0.905273	-0.306715	-0.007282
  29	1.4000e-02	1.1390	-24.339134	0.001358	13.579095	4.600722	0.109226
  30	1.4500e-02	1.1839	-24.666811	-0.000815	-8.147457	-2.760433	-0.065535
  31	1.5000e-02	1.2497	-24.157091	0.001267	12.673822	4.294007	0.101944
  32	1.5500e-02	1.2898	-24.157091	0.000000	0.000000	0.000000	0.000000
  33	1.6000e-02	1.3155	-23.975048	0.000453	4.526365	1.533574	0.036409
  34	1.6500e-02	1.3636	-23.902231	0.000181	1.810546	0.613430	0.014563
  35	1.7000e-02	1.3877	-23.428919	0.001177	11.768549	3.987292	0.094662
  36	1.7500e-02	1.4278	-23.283285	0.000362	3.621092	1.226859	0.029127
  37	1.8000e-02	1.4727	-23.246876	0.000091	0.905273	0.306715	0.007282
  38	1.8500e-02	1.4967	-22.809973	0.001086	10.863276	3.680577	0.087381
  39	1.9000e-02	1.5577	-22.700748	0.000272	2.715819	0.920144	0.021845
  40	1.9500e-02	1.5882	-22.737156	-0.000091	-0.905273	-0.306715	-0.007282
  41	2.0000e-02	1.6283	-22.300253	0.001086	10.863276	3.680577	0.087381
  42	2.0500e-02	1.6556	-22.555113	-0.000634	-6.336911	-2.147003	-0.050972
  43	2.1000e-02	1.6989	-21.826942	0.001811	18.105459	6.134296	0.145634
  44	2.1500e-02	1.7550	-22.373071	-0.001358	-13.579095	-4.600722	-0.109226
  45	2.2000e-02	1.7903	-21.499265	0.002173	21.726551	7.361155	0.174761
  46	2.2500e-02	1.8192	-21.644899	-0.000362	-3.621092	-1.226859	-0.029127
  47	2.3000e-02	1.8753	-20.880319	0.001901	19.010732	6.441010	0.152916
  48	2.3500e-02	1.9074	-21.317222	-0.001086	-10.863276	-3.680577	-0.087381
  49	2.4000e-02	1.9524	-21.025953	0.000724	7.242184	2.453718	0.058254
  50	2.4500e-02	1.9973	-21.244405	-0.000543	-5.431638	-1.840289	-0.043690
  51	2.5000e-02	2.0245	-21.171588	0.000181	1.810546	0.613430	0.014563
  52	2.5500e-02	2.0791	-20.479825	0.001720	17.200186	5.827581	0.138353
  53	2.6000e-02	2.1096	-20.916727	-0.001086	-10.863276	-3.680577	-0.087381
  54	2.6500e-02	2.1384	-20.516233	0.000996	9.958003	3.373863	0.080099
  55	2.7000e-02	2.2203	-20.334190	0.000453	4.526365	1.533574	0.036409
  56	2.7500e-02	2.2363	-19.970104	0.000905	9.052730	3.067148	0.072817
  57	2.8000e-02	2.2668	-19.970104	0.000000	0.000000	0.000000	0.000000
  58	2.8500e-02	2.2989	-19.423976	0.001358	13.579095	4.600722	0.109226
  59	2.9000e-02	2.3550	-19.678836	-0.000634	-6.336911	-2.147003	-0.050972
  60	2.9500e-02	2.4128	-19.533202	0.000362	3.621092	1.226859	0.029127
  61	3.0000e-02	2.4368	-18.950664	0.001448	14.484367	4.907437	0.116507
  62	3.0500e-02	2.4657	-19.278342	-0.000815	-8.147457	-2.760433	-0.065535
  63	3.1000e-02	2.5138	-18.404536	0.002173	21.726551	7.361155	0.174761
  64	3.1500e-02	2.5620	-18.732213	-0.000815	-8.147457	-2.760433	-0.065535
  65	3.2000e-02	2.6021	-18.659396	0.000181	1.810546	0.613430	0.014563
  66	3.2500e-02	2.5924	-18.404536	-0.000634	-6.336911	-2.147003	0.050972
  67	3.3000e-02	2.6518	-18.040450	0.000905	9.052730	3.067148	0.072817
  68	3.3500e-02	2.6983	-17.858407	0.000453	4.526365	1.533574	0.036409
  69	3.4000e-02	2.7561	-18.258901	-0.000996	-9.958003	-3.373863	-0.080099
  70	3.4500e-02	2.7994	-17.712773	0.001358	13.579095	4.600722	0.109226
  71	3.5000e-02	2.8331	-17.785590	-0.000181	-1.810546	-0.613430	-0.014563
  72	3.5500e-02	2.8571	-17.567138	0.000543	5.431638	1.840289	0.043690
  73	3.6000e-02	2.9197	-17.275870	0.000724	7.242184	2.453718	0.058254
  74	3.6500e-02	2.9598	-17.457913	-0.000453	-4.526365	-1.533574	-0.036409
  75	3.7000e-02	2.9759	-16.838967	0.001539	15.389640	5.214151	0.123789
  76	3.7500e-02	3.0368	-16.875375	-0.000091	-0.905273	-0.306715	-0.007282
  77	3.8000e-02	3.0785	-16.838967	0.000091	0.905273	0.306715	0.007282
  78	3.8500e-02	3.1234	-16.802558	0.000091	0.905273	0.306715	0.007282
  79	3.9000e-02	3.1315	-16.511290	0.000724	7.242184	2.453718	0.058254
  80	3.9500e-02	3.1988	-16.256430	0.000634	6.336911	2.147003	0.050972
  81	4.0000e-02	3.2101	-16.001570	0.000634	6.336911	2.147003	0.050972
  82	4.0500e-02	3.2438	-16.074387	-0.000181	-1.810546	-0.613430	-0.014563
  83	4.1000e-02	3.3159	-16.074387	0.000000	0.000000	0.000000	0.000000
  84	4.1500e-02	3.3593	-15.637484	0.001086	10.863276	3.680577	0.087381
  85	4.2000e-02	3.3930	-15.601075	0.000091	0.905273	0.306715	0.007282
  86	4.2500e-02	3.4315	-15.455441	0.000362	3.621092	1.226859	0.029127
  87	4.3000e-02	3.4716	-15.273398	0.000453	4.526365	1.533574	0.036409
  88	4.3500e-02	3.5117	-15.309807	-0.000091	-0.905273	-0.306715	-0.007282
  89	4.4000e-02	3.5662	-15.054947	0.000634	6.336911	2.147003	0.050972
  90	4.4500e-02	3.6031	-14.945721	0.000272	2.715819	0.920144	0.021845
  91	4.5000e-02	3.6031	-14.654452	-0.000724	-7.242184	-2.453718	0.058254
  92	4.5500e-02	3.7042	-14.618044	0.000091	0.905273	0.306715	0.007282
  93	4.6000e-02	3.7106	-14.508818	0.000272	2.715819	0.920144	0.021845
  94	4.6500e-02	3.7683	-14.581635	-0.000181	-1.810546	-0.613430	-0.014563
  95	4.7000e-02	3.7924	-14.144732	0.001086	10.863276	3.680577	0.087381
  96	4.7500e-02	3.8357	-14.108324	0.000091	0.905273	0.306715	0.007282
  97	4.8000e-02	3.8742	-13.962689	0.000362	3.621092	1.226859	0.029127
  98	4.8500e-02	3.9111	-14.144732	-0.000453	-4.526365	-1.533574	-0.036409
  99	4.9000e-02	3.9272	-13.525786	0.001539	15.389640	5.214151	0.123789
 100	4.9500e-02	4.0154	-13.671421	-0.000362	-3.621092	-1.226859	-0.029127
 101	5.0000e-02	4.0314	-13.452969	0.000543	5.431638	1.840289	0.043690
 102	5.0500e-02	4.0764	-13.125292	0.000815	8.147457	2.760433	0.065535
 103	5.1000e-02	4.1181	-13.270926	-0.000362	-3.621092	-1.226859	-0.029127
 104	5.1500e-02	4.1710	-12.834023	0.001086	10.863276	3.680577	0.087381
 105	5.2000e-02	4.2111	-13.052475	-0.000543	-5.431638	-1.840289	-0.043690
 106	5.2500e-02	4.2624	-12.542755	0.001267	12.673822	4.294007	0.101944
 107	5.3000e-02	4.3026	-12.579163	-0.000091	-0.905273	-0.306715	-0.007282
 108	5.3500e-02	4.3330	-12.142260	0.001086	10.863276	3.680577	0.087381
 109	5.4000e-02	4.3298	-12.433529	0.000724	7.242184	2.453718	-0.058254
 110	5.4500e-02	4.4020	-11.960218	0.001177	11.768549	3.987292	0.094662
 111	5.5000e-02	4.4100	-11.559723	0.000996	9.958003	3.373863	0.080099
 112	5.5500e-02	4.4935	-11.632540	-0.000181	-1.810546	-0.613430	-0.014563
 113	5.6000e-02	4.5175	-11.887400	-0.000634	-6.336911	-2.147003	-0.050972
 114	5.6500e-02	4.5287	-11.195637	0.001720	17.200186	5.827581	0.138353
 115	5.7000e-02	4.6218	-11.523315	-0.000815	-8.147457	-2.760433	-0.065535
 116	5.7500e-02	4.6202	-11.268455	-0.000634	-6.336911	-2.147003	0.050972
 117	5.8000e-02	4.6795	-11.195637	0.000181	1.810546	0.613430	0.014563
 118	5.8500e-02	4.7180	-11.050003	0.000362	3.621092	1.226859	0.029127
 119	5.9000e-02	4.7421	-11.013595	0.000091	0.905273	0.306715	0.007282
 120	5.9500e-02	4.8191	-10.503874	0.001267	12.673822	4.294007	0.101944
 121	6.0000e-02	4.8432	-10.613100	-0.000272	-2.715819	-0.920144	-0.021845
 122	6.0500e-02	4.8737	-10.940777	-0.000815	-8.147457	-2.760433	-0.065535
 123	6.1000e-02	4.8945	-10.394649	0.001358	13.579095	4.600722	0.109226
 124	6.1500e-02	4.9523	-10.285423	0.000272	2.715819	0.920144	0.021845
 125	6.2000e-02	4.9924	-9.921337	0.000905	9.052730	3.067148	0.072817
 126	6.2500e-02	5.0373	-9.702886	0.000543	5.431638	1.840289	0.043690
 127	6.3000e-02	5.0870	-10.066972	-0.000905	-9.052730	-3.067148	-0.072817
 128	6.3500e-02	5.1111	-9.448026	0.001539	15.389640	5.214151	0.123789
 129	6.4000e-02	5.1528	-9.702886	-0.000634	-6.336911	-2.147003	-0.050972
 130	6.4500e-02	5.2122	-9.229574	0.001177	11.768549	3.987292	0.094662
 131	6.5000e-02	5.2426	-9.411617	-0.000453	-4.526365	-1.533574	-0.036409
 132	6.5500e-02	5.2683	-9.302391	0.000272	2.715819	0.920144	0.021845
 133	6.6000e-02	5.3036	-9.229574	0.000181	1.810546	0.613430	0.014563
 134	6.6500e-02	5.3469	-8.865488	0.000905	9.052730	3.067148	0.072817
 135	6.7000e-02	5.4031	-8.719854	0.000362	3.621092	1.226859	0.029127
 136	6.7500e-02	5.4287	-8.610628	0.000272	2.715819	0.920144	0.021845
 137	6.8000e-02	5.4929	-8.610628	0.000000	0.000000	0.000000	0.000000
 138	6.8500e-02	5.4993	-8.173726	0.001086	10.863276	3.680577	0.087381
 139	6.9000e-02	5.5603	-8.246543	-0.000181	-1.810546	-0.613430	-0.014563
 140	6.9500e-02	5.5940	-8.137317	0.000272	2.715819	0.920144	0.021845
 141	7.0000e-02	5.6357	-8.246543	-0.000272	-2.715819	-0.920144	-0.021845
 142	7.0500e-02	5.6565	-7.991683	0.000634	6.336911	2.147003	0.050972
 143	7.1000e-02	5.6790	-7.627597	0.000905	9.052730	3.067148	0.072817
 144	7.1500e-02	5.7512	-7.409145	0.000543	5.431638	1.840289	0.043690
 145	7.2000e-02	5.8266	-7.154285	0.000634	6.336911	2.147003	0.050972
 146	7.2500e-02	5.8282	-7.664005	-0.001267	-12.673822	-4.294007	-0.101944
 147	7.3000e-02	5.8795	-7.227103	0.001086	10.863276	3.680577	0.087381
 148	7.3500e-02	5.9244	-7.045060	0.000453	4.526365	1.533574	0.036409
 149	7.4000e-02	5.9790	-7.154285	-0.000272	-2.715819	-0.920144	-0.021845
 150	7.4500e-02	5.9710	-6.899425	-0.000634	-6.336911	-2.147003	0.050972
 151	7.5000e-02	6.0223	-6.644565	0.000634	6.336911	2.147003	0.050972
 152	7.5500e-02	6.0865	-6.899425	-0.000634	-6.336911	-2.147003	-0.050972
 153	7.6000e-02	6.1234	-6.280480	0.001539	15.389640	5.214151	0.123789
 154	7.6500e-02	6.1314	-6.244071	0.000091	0.905273	0.306715	0.007282
 155	7.7000e-02	6.2020	-6.207662	0.000091	0.905273	0.306715	0.007282
 156	7.7500e-02	6.2340	-6.062028	0.000362	3.621092	1.226859	0.029127
 157	7.8000e-02	6.2822	-5.879985	0.000453	4.526365	1.533574	0.036409
 158	7.8500e-02	6.3207	-6.171254	-0.000724	-7.242184	-2.453718	-0.058254
 159	7.9000e-02	6.3560	-5.661534	0.001267	12.673822	4.294007	0.101944
 160	7.9500e-02	6.4025	-5.916394	-0.000634	-6.336911	-2.147003	-0.050972
 161	8.0000e-02	6.4570	-5.588717	0.000815	8.147457	2.760433	0.065535
 162	8.0500e-02	6.4731	-5.588717	0.000000	0.000000	0.000000	0.000000
 163	8.1000e-02	6.4875	-5.042588	0.001358	13.579095	4.600722	0.109226
 164	8.1500e-02	6.5613	-5.261039	-0.000543	-5.431638	-1.840289	-0.043690
 165	8.2000e-02	6.6239	-5.042588	0.000543	5.431638	1.840289	0.043690
 166	8.2500e-02	6.6415	-5.224631	-0.000453	-4.526365	-1.533574	-0.036409
 167	8.3000e-02	6.6768	-5.006179	0.000543	5.431638	1.840289	0.043690
 168	8.3500e-02	6.6993	-4.642094	0.000905	9.052730	3.067148	0.072817
 169	8.4000e-02	6.7490	-4.569276	0.000181	1.810546	0.613430	0.014563
 170	8.4500e-02	6.7955	-4.387234	0.000453	4.526365	1.533574	0.036409
 171	8.5000e-02	6.8404	-4.205191	0.000453	4.526365	1.533574	0.036409
 172	8.5500e-02	6.8709	-4.241599	-0.000091	-0.905273	-0.306715	-0.007282
 173	8.6000e-02	6.9207	-3.549836	0.001720	17.200186	5.827581	0.138353
 174	8.6500e-02	6.9479	-3.877513	-0.000815	-8.147457	-2.760433	-0.065535
 175	8.7000e-02	7.0073	-3.877513	0.000000	0.000000	0.000000	0.000000
 176	8.7500e-02	7.0330	-3.768288	0.000272	2.715819	0.920144	0.021845
 177	8.8000e-02	7.0666	-3.659062	0.000272	2.715819	0.920144	0.021845
 178	8.8500e-02	7.1164	-3.331385	0.000815	8.147457	2.760433	0.065535
 179	8.9000e-02	7.1549	-3.112933	0.000543	5.431638	1.840289	0.043690
 180	8.9500e-02	7.2078	-2.821665	0.000724	7.242184	2.453718	0.058254
 181	9.0000e-02	7.2110	-2.858073	-0.000091	-0.905273	-0.306715	-0.007282
 182	9.0500e-02	7.2736	-2.821665	0.000091	0.905273	0.306715	0.007282
 183	9.1000e-02	7.3201	-2.676030	0.000362	3.621092	1.226859	0.029127
 184	9.1500e-02	7.3666	-2.676030	0.000000	0.000000	0.000000	0.000000
 185	9.2000e-02	7.3971	-2.421170	0.000634	6.336911	2.147003	0.050972
 186	9.2500e-02	7.4420	-2.493988	-0.000181	-1.810546	-0.613430	-0.014563
 187	9.3000e-02	7.4934	-2.457579	0.000091	0.905273	0.306715	0.007282
 188	9.3500e-02	7.4918	-2.457579	-0.000000	-0.000000	-0.000000	0.000000
 189	9.4000e-02	7.5367	-1.947859	0.001267	12.673822	4.294007	0.101944
 190	9.4500e-02	7.5848	-1.984267	-0.000091	-0.905273	-0.306715	-0.007282
 191	9.5000e-02	7.6410	-1.802225	0.000453	4.526365	1.533574	0.036409
 192	9.5500e-02	7.6698	-2.057085	-0.000634	-6.336911	-2.147003	-0.050972
 193	9.6000e-02	7.6971	-1.292504	0.001901	19.010732	6.441010	0.152916
 194	9.6500e-02	7.7565	-1.838633	-0.001358	-13.579095	-4.600722	-0.109226
 195	9.7000e-02	7.7998	-0.964827	0.002173	21.726551	7.361155	0.174761
 196	9.7500e-02	7.8254	-1.292504	-0.000815	-8.147457	-2.760433	-0.065535
 197	9.8000e-02	7.8768	-1.037644	0.000634	6.336911	2.147003	0.050972
 198	9.8500e-02	7.9121	-1.037644	0.000000	0.000000	0.000000	0.000000
 199	9.9000e-02	7.9682	-1.037644	0.000000	0.000000	0.000000	0.000000
 200	9.9500e-02	7.9746	-0.964827	0.000181	1.810546	0.613430	0.014563
 201	1.0000e-01	8.0372	-0.564333	0.000996	9.958003	3.373863	0.080099
 202	1.0050e-01	8.0645	-0.309473	0.000634	6.336911	2.147003	0.050972
 203	1.0100e-01	8.0661	-0.673559	-0.000905	-9.052730	-3.067148	-0.072817
 204	1.0150e-01	8.1367	-0.345881	0.000815	8.147457	2.760433	0.065535
 205	1.0200e-01	8.1848	-0.273064	0.000181	1.810546	0.613430	0.014563
 206	1.0250e-01	8.2153	-0.054613	0.000543	5.431638	1.840289	0.043690
 207	1.0300e-01	8.2730	0.091021	0.000362	3.621092	1.226859	0.029127
 208	1.0350e-01	8.3115	-0.091021	-0.000453	-4.526365	-1.533574	-0.036409
 209	1.0400e-01	8.3420	0.127430	0.000543	5.431638	1.840289	0.043690
 210	1.0450e-01	8.3966	0.455107	0.000815	8.147457	2.760433	0.065535
 211	1.0500e-01	8.4286	0.309473	-0.000362	-3.621092	-1.226859	-0.029127
 212	1.0550e-01	8.4687	0.782784	0.001177	11.768549	3.987292	0.094662
 213	1.0600e-01	8.5137	0.527924	-0.000634	-6.336911	-2.147003	-0.050972
 214	1.0650e-01	8.5345	0.892010	0.000905	9.052730	3.067148	0.072817
 215	1.0700e-01	8.5955	1.074053	0.000453	4.526365	1.533574	0.036409
 216	1.0750e-01	8.6260	1.365322	0.000724	7.242184	2.453718	0.058254
 217	1.0800e-01	8.6661	1.328913	-0.000091	-0.905273	-0.306715	-0.007282
 218	1.0850e-01	8.7254	1.110462	-0.000543	-5.431638	-1.840289	-0.043690
 219	1.0900e-01	8.7527	1.292504	0.000453	4.526365	1.533574	0.036409
 220	1.0950e-01	8.7912	1.984267	0.001720	17.200186	5.827581	0.138353
 221	1.1000e-01	8.8297	1.620182	-0.000905	-9.052730	-3.067148	-0.072817
 222	1.1050e-01	8.8618	1.802225	0.000453	4.526365	1.533574	0.036409
 223	1.1100e-01	8.9260	1.875042	0.000181	1.810546	0.613430	0.014563
 224	1.1150e-01	8.9436	1.947859	0.000181	1.810546	0.613430	0.014563
 225	1.1200e-01	9.0030	1.984267	0.000091	0.905273	0.306715	0.007282
 226	1.1250e-01	9.0495	2.239127	0.000634	6.336911	2.147003	0.050972
 227	1.1300e-01	9.0719	2.239127	0.000000	0.000000	0.000000	0.000000
 228	1.1350e-01	9.1088	2.311945	0.000181	1.810546	0.613430	0.014563
 229	1.1400e-01	9.1586	2.676030	0.000905	9.052730	3.067148	0.072817
 230	1.1450e-01	9.1971	2.676030	0.000000	0.000000	0.000000	0.000000
 231	1.1500e-01	9.2372	2.676030	0.000000	0.000000	0.000000	0.000000
 232	1.1550e-01	9.2644	3.040116	0.000905	9.052730	3.067148	0.072817
 233	1.1600e-01	9.2949	2.712439	-0.000815	-8.147457	-2.760433	-0.065535
 234	1.1650e-01	9.3543	3.331385	0.001539	15.389640	5.214151	0.123789
 235	1.1700e-01	9.3896	3.185750	-0.000362	-3.621092	-1.226859	-0.029127
 236	1.1750e-01	9.4265	3.404202	0.000543	5.431638	1.840289	0.043690
 237	1.1800e-01	9.4553	3.695471	0.000724	7.242184	2.453718	0.058254
 238	1.1850e-01	9.5051	3.513428	-0.000453	-4.526365	-1.533574	-0.036409
 239	1.1900e-01	9.5628	3.913922	0.000996	9.958003	3.373863	0.080099
 240	1.1950e-01	9.5981	3.440611	-0.001177	-11.768549	-3.987292	-0.094662
 241	1.2000e-01	9.6607	4.023148	0.001448	14.484367	4.907437	0.116507
 242	1.2050e-01	9.6767	4.095965	0.000181	1.810546	0.613430	0.014563
 243	1.2100e-01	9.7024	4.168782	0.000181	1.810546	0.613430	0.014563
 244	1.2150e-01	9.7425	4.132373	-0.000091	-0.905273	-0.306715	-0.007282
 245	1.2200e-01	9.8003	4.132373	0.000000	0.000000	0.000000	0.000000
 246	1.2250e-01	9.8291	4.460051	0.000815	8.147457	2.760433	0.065535
 247	1.2300e-01	9.8548	4.314416	-0.000362	-3.621092	-1.226859	-0.029127
 248	1.2350e-01	9.9093	4.496459	0.000453	4.526365	1.533574	0.036409
 249	1.2400e-01	9.9703	4.714911	0.000543	5.431638	1.840289	0.043690
 250	1.2450e-01	10.0088	4.751319	0.000091	0.905273	0.306715	0.007282
 251	1.2500e-01	10.0232	4.969771	0.000543	5.431638	1.840289	0.043690
 252	1.2550e-01	10.0746	5.078996	0.000272	2.715819	0.920144	0.021845
 253	1.2600e-01	10.1163	5.479491	0.000996	9.958003	3.373863	0.080099
 254	1.2650e-01	10.1468	5.188222	-0.000724	-7.242184	-2.453718	-0.058254
 255	1.2700e-01	10.1805	5.625125	0.001086	10.863276	3.680577	0.087381
 256	1.2750e-01	10.2093	5.515899	-0.000272	-2.715819	-0.920144	-0.021845
 257	1.2800e-01	10.2831	5.770759	0.000634	6.336911	2.147003	0.050972
 258	1.2850e-01	10.3200	5.952802	0.000453	4.526365	1.533574	0.036409
 259	1.2900e-01	10.3377	5.807168	-0.000362	-3.621092	-1.226859	-0.029127
 260	1.2950e-01	10.3826	6.462522	0.001629	16.294913	5.520866	0.131071
 261	1.3000e-01	10.4179	6.608157	0.000362	3.621092	1.226859	0.029127
 262	1.3050e-01	10.4612	6.316888	-0.000724	-7.242184	-2.453718	-0.058254
 263	1.3100e-01	10.4933	6.134845	-0.000453	-4.526365	-1.533574	-0.036409
 264	1.3150e-01	10.5478	6.062028	-0.000181	-1.810546	-0.613430	-0.014563
 265	1.3200e-01	10.5944	6.389705	0.000815	8.147457	2.760433	0.065535
 266	1.3250e-01	10.6152	7.227103	0.002082	20.821278	7.054440	0.167479
 267	1.3300e-01	10.6762	6.935834	-0.000724	-7.242184	-2.453718	-0.058254
 268	1.3350e-01	10.7259	6.717382	-0.000543	-5.431638	-1.840289	-0.043690
 269	1.3400e-01	10.7532	7.045060	0.000815	8.147457	2.760433	0.065535
 270	1.3450e-01	10.8029	7.154285	0.000272	2.715819	0.920144	0.021845
 271	1.3500e-01	10.8302	7.554780	0.000996	9.958003	3.373863	0.080099
 272	1.3550e-01	10.8639	6.972242	-0.001448	-14.484367	-4.907437	-0.116507
 273	1.3600e-01	10.8863	7.591188	0.001539	15.389640	5.214151	0.123789
 274	1.3650e-01	10.9393	7.227103	-0.000905	-9.052730	-3.067148	-0.072817
 275	1.3700e-01	11.0018	7.591188	0.000905	9.052730	3.067148	0.072817
 276	1.3750e-01	11.0419	7.591188	0.000000	0.000000	0.000000	0.000000
 277	1.3800e-01	11.0772	7.955274	0.000905	9.052730	3.067148	0.072817
 278	1.3850e-01	11.1109	7.591188	-0.000905	-9.052730	-3.067148	-0.072817
 279	1.3900e-01	11.1526	7.991683	0.000996	9.958003	3.373863	0.080099
 280	1.3950e-01	11.2024	8.246543	0.000634	6.336911	2.147003	0.050972
 281	1.4000e-01	11.2521	8.282951	0.000091	0.905273	0.306715	0.007282
 282	1.4050e-01	11.2762	8.355768	0.000181	1.810546	0.613430	0.014563
 283	1.4100e-01	11.3163	8.610628	0.000634	6.336911	2.147003	0.050972
 284	1.4150e-01	11.3548	8.974714	0.000905	9.052730	3.067148	0.072817
 285	1.4200e-01	11.4141	8.610628	-0.000905	-9.052730	-3.067148	-0.072817
 286	1.4250e-01	11.4270	8.901897	0.000724	7.242184	2.453718	0.058254
 287	1.4300e-01	11.4558	8.647037	-0.000634	-6.336911	-2.147003	-0.050972
 288	1.4350e-01	11.5152	9.484434	0.002082	20.821278	7.054440	0.167479
 289	1.4400e-01	11.5360	9.011123	-0.001177	-11.768549	-3.987292	-0.094662
 290	1.4450e-01	11.5874	9.520843	0.001267	12.673822	4.294007	0.101944
 291	1.4500e-01	11.6195	9.120349	-0.000996	-9.958003	-3.373863	-0.080099
 292	1.4550e-01	11.6820	9.193166	0.000181	1.810546	0.613430	0.014563
 293	1.4600e-01	11.7189	9.666477	0.001177	11.768549	3.987292	0.094662
 294	1.4650e-01	11.7638	9.666477	0.000000	0.000000	0.000000	0.000000
 295	1.4700e-01	11.7670	9.666477	0.000000	0.000000	0.000000	0.000000
 296	1.4750e-01	11.8296	9.848520	0.000453	4.526365	1.533574	0.036409
 297	1.4800e-01	11.8842	9.702886	-0.000362	-3.621092	-1.226859	-0.029127
 298	1.4850e-01	11.9194	9.812111	0.000272	2.715819	0.920144	0.021845
 299	1.4900e-01	11.9435	10.249014	0.001086	10.863276	3.680577	0.087381
 300	1.4950e-01	11.9916	10.176197	-0.000181	-1.810546	-0.613430	-0.014563
 301	1.5000e-01	12.0430	10.212606	0.000091	0.905273	0.306715	0.007282
 302	1.5050e-01	12.0702	10.358240	0.000362	3.621092	1.226859	0.029127
 303	1.5100e-01	12.1071	10.904369	0.001358	13.579095	4.600722	0.109226
 304	1.5150e-01	12.1601	10.176197	-0.001811	-18.105459	-6.134296	-0.145634
 305	1.5200e-01	12.2002	10.904369	0.001811	18.105459	6.134296	0.145634
 306	1.5250e-01	12.2355	10.431057	-0.001177	-11.768549	-3.987292	-0.094662
 307	1.5300e-01	12.2708	10.758734	0.000815	8.147457	2.760433	0.065535
 308	1.5350e-01	12.3061	11.086412	0.000815	8.147457	2.760433	0.065535
 309	1.5400e-01	12.3718	11.268455	0.000453	4.526365	1.533574	0.036409
 310	1.5450e-01	12.4007	11.414089	0.000362	3.621092	1.226859	0.029127
 311	1.5500e-01	12.4136	11.268455	-0.000362	-3.621092	-1.226859	-0.029127
 312	1.5550e-01	12.4585	11.377680	0.000272	2.715819	0.920144	0.021845
 313	1.5600e-01	12.5130	11.596132	0.000543	5.431638	1.840289	0.043690
 314	1.5650e-01	12.5644	11.632540	0.000091	0.905273	0.306715	0.007282
 315	1.5700e-01	12.6029	11.887400	0.000634	6.336911	2.147003	0.050972
 316	1.5750e-01	12.6317	12.142260	0.000634	6.336911	2.147003	0.050972
 317	1.5800e-01	12.6831	12.033035	-0.000272	-2.715819	-0.920144	-0.021845
 318	1.5850e-01	12.7087	12.105852	0.000181	1.810546	0.613430	0.014563
 319	1.5900e-01	12.7360	12.469938	0.000905	9.052730	3.067148	0.072817
 320	1.5950e-01	12.7905	12.469938	0.000000	0.000000	0.000000	0.000000
 321	1.6000e-01	12.8258	12.251486	-0.000543	-5.431638	-1.840289	-0.043690
 322	1.6050e-01	12.8579	12.397120	0.000362	3.621092	1.226859	0.029127
 323	1.6100e-01	12.9189	12.761206	0.000905	9.052730	3.067148	0.072817
 324	1.6150e-01	12.9189	12.724798	0.000091	0.905273	0.306715	-0.007282
 325	1.6200e-01	12.9927	12.797615	0.000181	1.810546	0.613430	0.014563
 326	1.6250e-01	13.0055	12.615572	-0.000453	-4.526365	-1.533574	-0.036409
 327	1.6300e-01	13.0424	13.052475	0.001086	10.863276	3.680577	0.087381
 328	1.6350e-01	13.1274	13.088883	0.000091	0.905273	0.306715	0.007282
 329	1.6400e-01	13.1499	12.834023	-0.000634	-6.336911	-2.147003	-0.050972
 330	1.6450e-01	13.1884	13.817055	0.002444	24.442370	8.281299	0.196606
 331	1.6500e-01	13.2285	13.307335	-0.001267	-12.673822	-4.294007	-0.101944
 332	1.6550e-01	13.2542	13.562195	0.000634	6.336911	2.147003	0.050972
 333	1.6600e-01	13.3215	13.598603	0.000091	0.905273	0.306715	0.007282
 334	1.6650e-01	13.3376	13.817055	0.000543	5.431638	1.840289	0.043690
 335	1.6700e-01	13.4130	13.671421	-0.000362	-3.621092	-1.226859	-0.029127
 336	1.6750e-01	13.4178	14.071915	0.000996	9.958003	3.373863	0.080099
 337	1.6800e-01	13.4707	13.817055	-0.000634	-6.336911	-2.147003	-0.050972
 338	1.6850e-01	13.5157	14.144732	0.000815	8.147457	2.760433	0.065535
 339	1.6900e-01	13.5429	14.071915	-0.000181	-1.810546	-0.613430	-0.014563
 340	1.6950e-01	13.5798	14.253958	0.000453	4.526365	1.533574	0.036409
 341	1.7000e-01	13.6103	14.326775	0.000181	1.810546	0.613430	0.014563
 342	1.7050e-01	13.6713	14.581635	0.000634	6.336911	2.147003	0.050972
 343	1.7100e-01	13.7098	14.181141	-0.000996	-9.958003	-3.373863	-0.080099
 344	1.7150e-01	13.7627	14.872904	0.001720	17.200186	5.827581	0.138353
 345	1.7200e-01	13.7900	14.690861	-0.000453	-4.526365	-1.533574	-0.036409
 346	1.7250e-01	13.8221	14.872904	0.000453	4.526365	1.533574	0.036409
 347	1.7300e-01	13.8943	14.872904	0.000000	0.000000	0.000000	0.000000
 348	1.7350e-01	13.9135	14.945721	0.000181	1.810546	0.613430	0.014563
 349	1.7400e-01	13.9536	15.164172	0.000543	5.431638	1.840289	0.043690
 350	1.7450e-01	13.9809	15.054947	-0.000272	-2.715819	-0.920144	-0.021845
 351	1.7500e-01	14.0274	15.309807	0.000634	6.336911	2.147003	0.050972
 352	1.7550e-01	14.0659	15.273398	-0.000091	-0.905273	-0.306715	-0.007282
 353	1.7600e-01	14.1092	15.637484	0.000905	9.052730	3.067148	0.072817
 354	1.7650e-01	14.1541	15.928752	0.000724	7.242184	2.453718	0.058254
 355	1.7700e-01	14.1830	15.528258	-0.000996	-9.958003	-3.373863	-0.080099
 356	1.7750e-01	14.2344	15.637484	0.000272	2.715819	0.920144	0.021845
 357	1.7800e-01	14.2552	15.783118	0.000362	3.621092	1.226859	0.029127
 358	1.7850e-01	14.3033	16.037978	0.000634	6.336911	2.147003	0.050972
 359	1.7900e-01	14.3515	16.292838	0.000634	6.336911	2.147003	0.050972
 360	1.7950e-01	14.3948	16.256430	-0.000091	-0.905273	-0.306715	-0.007282
 361	1.8000e-01	14.4253	16.183612	-0.000181	-1.810546	-0.613430	-0.014563
 362	1.8050e-01	14.4654	16.256430	0.000181	1.810546	0.613430	0.014563
 363	1.8100e-01	14.5183	16.656924	0.000996	9.958003	3.373863	0.080099
 364	1.8150e-01	14.5584	16.584107	-0.000181	-1.810546	-0.613430	-0.014563
 365	1.8200e-01	14.5969	16.875375	0.000724	7.242184	2.453718	0.058254
 366	1.8250e-01	14.6274	16.948193	0.000181	1.810546	0.613430	0.014563
 367	1.8300e-01	14.6595	16.802558	-0.000362	-3.621092	-1.226859	-0.029127
 368	1.8350e-01	14.7028	17.130235	0.000815	8.147457	2.760433	0.065535
 369	1.8400e-01	14.7333	16.911784	-0.000543	-5.431638	-1.840289	-0.043690
 370	1.8450e-01	14.7734	17.603547	0.001720	17.200186	5.827581	0.138353
 371	1.8500e-01	14.8359	17.312278	-0.000724	-7.242184	-2.453718	-0.058254
 372	1.8550e-01	14.8761	17.567138	0.000634	6.336911	2.147003	0.050972
 373	1.8600e-01	14.8969	17.239461	-0.000815	-8.147457	-2.760433	-0.065535
 374	1.8650e-01	14.9274	17.457913	0.000543	5.431638	1.840289	0.043690
 375	1.8700e-01	14.9787	17.858407	0.000996	9.958003	3.373863	0.080099
 376	1.8750e-01	15.0381	17.421504	-0.001086	-10.863276	-3.680577	-0.087381
 377	1.8800e-01	15.0654	17.967633	0.001358	13.579095	4.600722	0.109226
 378	1.8850e-01	15.1071	17.749181	-0.000543	-5.431638	-1.840289	-0.043690
 379	1.8900e-01	15.1504	18.076858	0.000815	8.147457	2.760433	0.065535
 380	1.8950e-01	15.2145	18.076858	0.000000	0.000000	0.000000	0.000000
 381	1.9000e-01	15.2322	18.186084	0.000272	2.715819	0.920144	0.021845
 382	1.9050e-01	15.2819	18.368127	0.000453	4.526365	1.533574	0.036409
 383	1.9100e-01	15.3124	18.513761	0.000362	3.621092	1.226859	0.029127
 384	1.9150e-01	15.3573	18.368127	-0.000362	-3.621092	-1.226859	-0.029127
 385	1.9200e-01	15.3862	18.805030	0.001086	10.863276	3.680577	0.087381
 386	1.9250e-01	15.4568	18.732213	-0.000181	-1.810546	-0.613430	-0.014563
 387	1.9300e-01	15.4776	18.513761	-0.000543	-5.431638	-1.840289	-0.043690
 388	1.9350e-01	15.5210	19.241933	0.001811	18.105459	6.134296	0.145634
 389	1.9400e-01	15.5450	18.732213	-0.001267	-12.673822	-4.294007	-0.101944
 390	1.9450e-01	15.6284	18.987073	0.000634	6.336911	2.147003	0.050972
 391	1.9500e-01	15.6477	19.314750	0.000815	8.147457	2.760433	0.065535
 392	1.9550e-01	15.6734	19.314750	0.000000	0.000000	0.000000	0.000000
 393	1.9600e-01	15.7006	19.241933	-0.000181	-1.810546	-0.613430	-0.014563
 394	1.9650e-01	15.7680	19.496793	0.000634	6.336911	2.147003	0.050972
 395	1.9700e-01	15.7857	19.278342	-0.000543	-5.431638	-1.840289	-0.043690
 396	1.9750e-01	15.8242	19.824470	0.001358	13.579095	4.600722	0.109226
 397	1.9800e-01	15.8659	19.788062	-0.000091	-0.905273	-0.306715	-0.007282
 398	1.9850e-01	15.8915	19.678836	-0.000272	-2.715819	-0.920144	-0.021845
 399	1.9900e-01	15.9332	20.006513	0.000815	8.147457	2.760433	0.065535
 400	1.9950e-01	16.0022	19.788062	-0.000543	-5.431638	-1.840289	-0.043690
 401	2.0000e-01	16.0375	20.006513	0.000543	5.431638	1.840289	0.043690
 402	2.0050e-01	16.0648	20.115739	0.000272	2.715819	0.920144	0.021845
 403	2.0100e-01	16.1001	20.625459	0.001267	12.673822	4.294007	0.101944
 404	2.0150e-01	16.1514	20.152147	-0.001177	-11.768549	-3.987292	-0.094662
 405	2.0200e-01	16.1691	20.625459	0.001177	11.768549	3.987292	0.094662
 406	2.0250e-01	16.2380	20.479825	-0.000362	-3.621092	-1.226859	-0.029127
 407	2.0300e-01	16.2733	20.771093	0.000724	7.242184	2.453718	0.058254
 408	2.0350e-01	16.3167	20.589050	-0.000453	-4.526365	-1.533574	-0.036409
 409	2.0400e-01	16.3568	20.625459	0.000091	0.905273	0.306715	0.007282
 410	2.0450e-01	16.3937	20.698276	0.000181	1.810546	0.613430	0.014563
 411	2.0500e-01	16.4289	21.317222	0.001539	15.389640	5.214151	0.123789
 412	2.0550e-01	16.4530	21.390039	0.000181	1.810546	0.613430	0.014563
 413	2.0600e-01	16.5027	21.171588	-0.000543	-5.431638	-1.840289	-0.043690
 414	2.0650e-01	16.5477	21.317222	0.000362	3.621092	1.226859	0.029127
 415	2.0700e-01	16.5974	21.317222	0.000000	0.000000	0.000000	0.000000
 416	2.0750e-01	16.6279	21.644899	0.000815	8.147457	2.760433	0.065535
 417	2.0800e-01	16.6584	21.499265	-0.000362	-3.621092	-1.226859	-0.029127
 418	2.0850e-01	16.6936	21.790533	0.000724	7.242184	2.453718	0.058254
 419	2.0900e-01	16.7706	21.644899	-0.000362	-3.621092	-1.226859	-0.029127
 420	2.0950e-01	16.8156	22.081802	0.001086	10.863276	3.680577	0.087381
 421	2.1000e-01	16.8284	22.118211	0.000091	0.905273	0.306715	0.007282
 422	2.1050e-01	16.8717	21.826942	-0.000724	-7.242184	-2.453718	-0.058254
 423	2.1100e-01	16.9214	22.081802	0.000634	6.336911	2.147003	0.050972
 424	2.1150e-01	16.9728	22.081802	0.000000	0.000000	0.000000	0.000000
 425	2.1200e-01	17.0049	22.482296	0.000996	9.958003	3.373863	0.080099
 426	2.1250e-01	17.0177	22.482296	0.000000	0.000000	0.000000	0.000000
 427	2.1300e-01	17.0738	22.482296	0.000000	0.000000	0.000000	0.000000
 428	2.1350e-01	17.0915	22.882791	0.000996	9.958003	3.373863	0.080099
 429	2.1400e-01	17.1332	22.627931	-0.000634	-6.336911	-2.147003	-0.050972
 430	2.1450e-01	17.2054	23.028425	0.000996	9.958003	3.373863	0.080099
 431	2.1500e-01	17.2166	22.700748	-0.000815	-8.147457	-2.760433	-0.065535
 432	2.1550e-01	17.2519	23.174059	0.001177	11.768549	3.987292	0.094662
 433	2.1600e-01	17.3145	23.101242	-0.000181	-1.810546	-0.613430	-0.014563
 434	2.1650e-01	17.3546	23.319694	0.000543	5.431638	1.840289	0.043690
 435	2.1700e-01	17.4059	23.319694	0.000000	0.000000	0.000000	0.000000
 436	2.1750e-01	17.4268	23.210468	-0.000272	-2.715819	-0.920144	-0.021845
 437	2.1800e-01	17.4749	23.465328	0.000634	6.336911	2.147003	0.050972
 438	2.1850e-01	17.5070	23.610962	0.000362	3.621092	1.226859	0.029127
 439	2.1900e-01	17.5471	23.501736	-0.000272	-2.715819	-0.920144	-0.021845
 440	2.1950e-01	17.5808	23.428919	-0.000181	-1.810546	-0.613430	-0.014563
 441	2.2000e-01	17.6065	23.938639	0.001267	12.673822	4.294007	0.101944
 442	2.2050e-01	17.6690	23.683779	-0.000634	-6.336911	-2.147003	-0.050972
 443	2.2100e-01	17.7043	24.266317	0.001448	14.484367	4.907437	0.116507
 444	2.2150e-01	17.7412	24.193499	-0.000181	-1.810546	-0.613430	-0.014563
 445	2.2200e-01	17.7685	24.120682	-0.000181	-1.810546	-0.613430	-0.014563
 446	2.2250e-01	17.8375	24.557585	0.001086	10.863276	3.680577	0.087381
 447	2.2300e-01	17.8792	24.084274	-0.001177	-11.768549	-3.987292	-0.094662
 448	2.2350e-01	17.9177	24.521177	0.001086	10.863276	3.680577	0.087381
 449	2.2400e-01	17.9578	24.630402	0.000272	2.715819	0.920144	0.021845
 450	2.2450e-01	17.9851	24.593994	-0.000091	-0.905273	-0.306715	-0.007282
 451	2.2500e-01	18.0123	24.958080	0.000905	9.052730	3.067148	0.072817
 452	2.2550e-01	18.0653	24.885262	-0.000181	-1.810546	-0.613430	-0.014563
 453	2.2600e-01	18.0990	25.030897	0.000362	3.621092	1.226859	0.029127
 454	2.2650e-01	18.1631	25.249348	0.000543	5.431638	1.840289	0.043690
 455	2.2700e-01	18.1840	24.812445	-0.001086	-10.863276	-3.680577	-0.087381
 456	2.2750e-01	18.2209	25.140122	0.000815	8.147457	2.760433	0.065535
 457	2.2800e-01	18.2610	25.431391	0.000724	7.242184	2.453718	0.058254
 458	2.2850e-01	18.3155	25.358574	-0.000181	-1.810546	-0.613430	-0.014563
 459	2.2900e-01	18.3460	25.431391	0.000181	1.810546	0.613430	0.014563
 460	2.2950e-01	18.3669	25.394982	-0.000091	-0.905273	-0.306715	-0.007282
 461	2.3000e-01	18.4166	25.540617	0.000362	3.621092	1.226859	0.029127
 462	2.3050e-01	18.4792	25.467800	-0.000181	-1.810546	-0.613430	-0.014563
 463	2.3100e-01	18.5032	25.540617	0.000181	1.810546	0.613430	0.014563
 464	2.3150e-01	18.5481	26.195971	0.001629	16.294913	5.520866	0.131071
 465	2.3200e-01	18.5722	26.013928	-0.000453	-4.526365	-1.533574	-0.036409
 466	2.3250e-01	18.6091	26.123154	0.000272	2.715819	0.920144	0.021845
 467	2.3300e-01	18.6717	26.086745	-0.000091	-0.905273	-0.306715	-0.007282
 468	2.3350e-01	18.7070	26.341605	0.000634	6.336911	2.147003	0.050972
 469	2.3400e-01	18.7487	26.487240	0.000362	3.621092	1.226859	0.029127
 470	2.3450e-01	18.7936	26.378014	-0.000272	-2.715819	-0.920144	-0.021845
 471	2.3500e-01	18.8305	26.778508	0.000996	9.958003	3.373863	0.080099
 472	2.3550e-01	18.8449	26.487240	-0.000724	-7.242184	-2.453718	-0.058254
 473	2.3600e-01	18.9155	26.669283	0.000453	4.526365	1.533574	0.036409
 474	2.3650e-01	18.9636	26.924143	0.000634	6.336911	2.147003	0.050972
 475	2.3700e-01	19.0005	27.142594	0.000543	5.431638	1.840289	0.043690
 476	2.3750e-01	19.0198	26.996960	-0.000362	-3.621092	-1.226859	-0.029127
 477	2.3800e-01	19.0631	27.106186	0.000272	2.715819	0.920144	0.021845
 478	2.3850e-01	19.0984	27.142594	0.000091	0.905273	0.306715	0.007282
 479	2.3900e-01	19.1529	27.397454	0.000634	6.336911	2.147003	0.050972
 480	2.3950e-01	19.2011	27.615906	0.000543	5.431638	1.840289	0.043690
 481	2.4000e-01	19.2444	27.470271	-0.000362	-3.621092	-1.226859	-0.029127
 482	2.4050e-01	19.2781	27.433863	-0.000091	-0.905273	-0.306715	-0.007282
 483	2.4100e-01	19.3182	27.688723	0.000634	6.336911	2.147003	0.050972
 484	2.4150e-01	19.3519	27.907174	0.000543	5.431638	1.840289	0.043690
 485	2.4200e-01	19.3775	27.761540	-0.000362	-3.621092	-1.226859	-0.029127
 486	2.4250e-01	19.4048	28.198443	0.001086	10.863276	3.680577	0.087381
 487	2.4300e-01	19.4658	28.198443	0.000000	0.000000	0.000000	0.000000
 488	2.4350e-01	19.5091	28.271260	0.000181	1.810546	0.613430	0.014563
 489	2.4400e-01	19.5476	28.526120	0.000634	6.336911	2.147003	0.050972
 490	2.4450e-01	19.6037	28.307669	-0.000543	-5.431638	-1.840289	-0.043690
 491	2.4500e-01	19.6358	28.562529	0.000634	6.336911	2.147003	0.050972
 492	2.4550e-01	19.6711	28.708163	0.000362	3.621092	1.226859	0.029127
 493	2.4600e-01	19.6920	28.817389	0.000272	2.715819	0.920144	0.021845
 494	2.4650e-01	19.7529	28.999432	0.000453	4.526365	1.533574	0.036409
 495	2.4700e-01	19.7658	28.926614	-0.000181	-1.810546	-0.613430	-0.014563
 496	2.4750e-01	19.8331	29.145066	0.000543	5.431638	1.840289	0.043690
 497	2.4800e-01	19.8315	29.145066	-0.000000	-0.000000	-0.000000	0.000000
 498	2.4850e-01	19.8973	29.327109	0.000453	4.526365	1.533574	0.036409
 499	2.4900e-01	19.9406	29.290700	-0.000091	-0.905273	-0.306715	-0.007282
 500	2.4950e-01	19.9968	29.509152	0.000543	5.431638	1.840289	0.043690
 501	2.5000e-01	20.0321	29.618377	0.000272	2.715819	0.920144	0.021845
 502	2.5050e-01	19.9759	29.181474	0.001086	10.863276	3.680577	-0.087381
 503	2.5100e-01	19.9438	28.890206	0.000724	7.242184	2.453718	-0.058254
 504	2.5150e-01	19.8941	29.363517	-0.001177	-11.768549	-3.987292	0.094662
 505	2.5200e-01	19.8620	28.999432	0.000905	9.052730	3.067148	-0.072817
 506	2.5250e-01	19.8171	29.181474	-0.000453	-4.526365	-1.533574	0.036409
 507	2.5300e-01	19.7786	29.727603	-0.001358	-13.579095	-4.600722	0.109226
 508	2.5350e-01	19.7321	29.181474	0.001358	13.579095	4.600722	-0.109226
 509	2.5400e-01	19.6823	28.926614	0.000634	6.336911	2.147003	-0.050972
 510	2.5450e-01	19.6711	28.744572	0.000453	4.526365	1.533574	-0.036409
 511	2.5500e-01	19.6214	29.181474	-0.001086	-10.863276	-3.680577	0.087381
 512	2.5550e-01	19.5829	28.526120	0.001629	16.294913	5.520866	-0.131071
 513	2.5600e-01	19.5347	28.853797	-0.000815	-8.147457	-2.760433	0.065535
 514	2.5650e-01	19.5011	28.489711	0.000905	9.052730	3.067148	-0.072817
 515	2.5700e-01	19.4690	28.744572	-0.000634	-6.336911	-2.147003	0.050972
 516	2.5750e-01	19.4144	28.890206	-0.000362	-3.621092	-1.226859	0.029127
 517	2.5800e-01	19.3904	28.598937	0.000724	7.242184	2.453718	-0.058254
 518	2.5850e-01	19.3326	28.344077	0.000634	6.336911	2.147003	-0.050972
 519	2.5900e-01	19.3085	28.453303	-0.000272	-2.715819	-0.920144	0.021845
 520	2.5950e-01	19.2861	28.526120	-0.000181	-1.810546	-0.613430	0.014563
 521	2.6000e-01	19.2171	27.506680	0.002535	25.347643	8.588014	-0.203888
 522	2.6050e-01	19.1802	28.089217	-0.001448	-14.484367	-4.907437	0.116507
 523	2.6100e-01	19.1449	27.870766	0.000543	5.431638	1.840289	-0.043690
 524	2.6150e-01	19.0952	28.234851	-0.000905	-9.052730	-3.067148	0.072817
 525	2.6200e-01	19.0390	27.979991	0.000634	6.336911	2.147003	-0.050972
 526	2.6250e-01	19.0070	27.979991	-0.000000	-0.000000	-0.000000	0.000000
 527	2.6300e-01	18.9845	28.016400	-0.000091	-0.905273	-0.306715	0.007282
 528	2.6350e-01	18.9460	27.834357	0.000453	4.526365	1.533574	-0.036409
 529	2.6400e-01	18.8930	27.943583	-0.000272	-2.715819	-0.920144	0.021845
 530	2.6450e-01	18.8642	27.579497	0.000905	9.052730	3.067148	-0.072817
 531	2.6500e-01	18.8225	27.761540	-0.000453	-4.526365	-1.533574	0.036409
 532	2.6550e-01	18.7519	27.797949	-0.000091	-0.905273	-0.306715	0.007282
 533	2.6600e-01	18.7439	27.433863	0.000905	9.052730	3.067148	-0.072817
 534	2.6650e-01	18.6733	27.688723	-0.000634	-6.336911	-2.147003	0.050972
 535	2.6700e-01	18.6444	27.433863	0.000634	6.336911	2.147003	-0.050972
 536	2.6750e-01	18.6139	27.288228	0.000362	3.621092	1.226859	-0.029127
 537	2.6800e-01	18.5931	27.579497	-0.000724	-7.242184	-2.453718	0.058254
 538	2.6850e-01	18.5401	27.288228	0.000724	7.242184	2.453718	-0.058254
 539	2.6900e-01	18.5096	26.960551	0.000815	8.147457	2.760433	-0.065535
 540	2.6950e-01	18.4310	27.215411	-0.000634	-6.336911	-2.147003	0.050972
 541	2.7000e-01	18.4230	27.069777	0.000362	3.621092	1.226859	-0.029127
 542	2.7050e-01	18.3588	26.960551	0.000272	2.715819	0.920144	-0.021845
 543	2.7100e-01	18.3268	26.996960	-0.000091	-0.905273	-0.306715	0.007282
 544	2.7150e-01	18.3027	26.924143	0.000181	1.810546	0.613430	-0.014563
 545	2.7200e-01	18.2578	26.814917	0.000272	2.715819	0.920144	-0.021845
 546	2.7250e-01	18.2161	26.705691	0.000272	2.715819	0.920144	-0.021845
 547	2.7300e-01	18.1583	26.705691	-0.000000	-0.000000	-0.000000	0.000000
 548	2.7350e-01	18.1310	26.669283	0.000091	0.905273	0.306715	-0.007282
 549	2.7400e-01	18.0845	26.560057	0.000272	2.715819	0.920144	-0.021845
 550	2.7450e-01	18.0733	26.487240	0.000181	1.810546	0.613430	-0.014563
 551	2.7500e-01	18.0220	26.378014	0.000272	2.715819	0.920144	-0.021845
 552	2.7550e-01	17.9834	26.378014	-0.000000	-0.000000	-0.000000	0.000000
 553	2.7600e-01	17.9337	26.086745	0.000724	7.242184	2.453718	-0.058254
 554	2.7650e-01	17.8952	26.123154	-0.000091	-0.905273	-0.306715	0.007282
 555	2.7700e-01	17.8647	26.232380	-0.000272	-2.715819	-0.920144	0.021845
 556	2.7750e-01	17.8198	26.378014	-0.000362	-3.621092	-1.226859	0.029127
 557	2.7800e-01	17.7797	25.613434	0.001901	19.010732	6.441010	-0.152916
 558	2.7850e-01	17.7412	25.941111	-0.000815	-8.147457	-2.760433	0.065535
 559	2.7900e-01	17.7027	25.868294	0.000181	1.810546	0.613430	-0.014563
 560	2.7950e-01	17.6770	25.577025	0.000724	7.242184	2.453718	-0.058254
 561	2.8000e-01	17.6241	25.613434	-0.000091	-0.905273	-0.306715	0.007282
 562	2.8050e-01	17.5712	25.868294	-0.000634	-6.336911	-2.147003	0.050972
 563	2.8100e-01	17.5583	25.613434	0.000634	6.336911	2.147003	-0.050972
 564	2.8150e-01	17.5246	25.722660	-0.000272	-2.715819	-0.920144	0.021845
 565	2.8200e-01	17.4653	25.249348	0.001177	11.768549	3.987292	-0.094662
 566	2.8250e-01	17.4332	25.577025	-0.000815	-8.147457	-2.760433	0.065535
 567	2.8300e-01	17.3819	25.285757	0.000724	7.242184	2.453718	-0.058254
 568	2.8350e-01	17.3241	25.067305	0.000543	5.431638	1.840289	-0.043690
 569	2.8400e-01	17.2792	25.140122	-0.000181	-1.810546	-0.613430	0.014563
 570	2.8450e-01	17.2680	25.140122	-0.000000	-0.000000	-0.000000	0.000000
 571	2.8500e-01	17.2134	24.812445	0.000815	8.147457	2.760433	-0.065535
 572	2.8550e-01	17.1861	24.776037	0.000091	0.905273	0.306715	-0.007282
 573	2.8600e-01	17.1492	24.885262	-0.000272	-2.715819	-0.920144	0.021845
 574	2.8650e-01	17.0851	24.848854	0.000091	0.905273	0.306715	-0.007282
 575	2.8700e-01	17.0466	24.448359	0.000996	9.958003	3.373863	-0.080099
 576	2.8750e-01	17.0193	24.557585	-0.000272	-2.715819	-0.920144	0.021845
 577	2.8800e-01	16.9904	24.339134	0.000543	5.431638	1.840289	-0.043690
 578	2.8850e-01	16.9455	24.411951	-0.000181	-1.810546	-0.613430	0.014563
 579	2.8900e-01	16.9086	24.521177	-0.000272	-2.715819	-0.920144	0.021845
 580	2.8950e-01	16.8589	24.120682	0.000996	9.958003	3.373863	-0.080099
 581	2.9000e-01	16.8204	24.302725	-0.000453	-4.526365	-1.533574	0.036409
 582	2.9050e-01	16.7658	24.011457	0.000724	7.242184	2.453718	-0.058254
 583	2.9100e-01	16.7370	24.084274	-0.000181	-1.810546	-0.613430	0.014563
 584	2.9150e-01	16.7065	24.229908	-0.000362	-3.621092	-1.226859	0.029127
 585	2.9200e-01	16.6712	23.756596	0.001177	11.768549	3.987292	-0.094662
 586	2.9250e-01	16.6134	24.193499	-0.001086	-10.863276	-3.680577	0.087381
 587	2.9300e-01	16.5830	23.756596	0.001086	10.863276	3.680577	-0.087381
 588	2.9350e-01	16.5509	23.829414	-0.000181	-1.810546	-0.613430	0.014563
 589	2.9400e-01	16.5140	23.538145	0.000724	7.242184	2.453718	-0.058254
 590	2.9450e-01	16.4674	23.465328	0.000181	1.810546	0.613430	-0.014563
 591	2.9500e-01	16.4289	23.574554	-0.000272	-2.715819	-0.920144	0.021845
 592	2.9550e-01	16.3616	23.283285	0.000724	7.242184	2.453718	-0.058254
 593	2.9600e-01	16.3295	22.992016	0.000724	7.242184	2.453718	-0.058254
 594	2.9650e-01	16.2990	23.574554	-0.001448	-14.484367	-4.907437	0.116507
 595	2.9700e-01	16.2509	23.028425	0.001358	13.579095	4.600722	-0.109226
 596	2.9750e-01	16.2156	23.210468	-0.000453	-4.526365	-1.533574	0.036409
 597	2.9800e-01	16.1931	22.919199	0.000724	7.242184	2.453718	-0.058254
 598	2.9850e-01	16.1562	22.846382	0.000181	1.810546	0.613430	-0.014563
 599	2.9900e-01	16.1049	23.028425	-0.000453	-4.526365	-1.533574	0.036409
 600	2.9950e-01	16.0648	22.919199	0.000272	2.715819	0.920144	-0.021845
 601	3.0000e-01	16.0247	22.737156	0.000453	4.526365	1.533574	-0.036409
 602	3.0050e-01	15.9830	22.846382	-0.000272	-2.715819	-0.920144	0.021845
 603	3.0100e-01	15.9413	22.591522	0.000634	6.336911	2.147003	-0.050972
 604	3.0150e-01	15.9220	22.773565	-0.000453	-4.526365	-1.533574	0.036409
 605	3.0200e-01	15.8755	22.518705	0.000634	6.336911	2.147003	-0.050972
 606	3.0250e-01	15.8065	22.263845	0.000634	6.336911	2.147003	-0.050972
 607	3.0300e-01	15.7792	21.899759	0.000905	9.052730	3.067148	-0.072817
 608	3.0350e-01	15.7327	22.263845	-0.000905	-9.052730	-3.067148	0.072817
 609	3.0400e-01	15.6910	22.373071	-0.000272	-2.715819	-0.920144	0.021845
 610	3.0450e-01	15.6541	21.936168	0.001086	10.863276	3.680577	-0.087381
 611	3.0500e-01	15.6140	21.972576	-0.000091	-0.905273	-0.306715	0.007282
 612	3.0550e-01	15.5787	22.263845	-0.000724	-7.242184	-2.453718	0.058254
 613	3.0600e-01	15.5338	21.426448	0.002082	20.821278	7.054440	-0.167479
 614	3.0650e-01	15.4921	22.045393	-0.001539	-15.389640	-5.214151	0.123789
 615	3.0700e-01	15.4744	21.608490	0.001086	10.863276	3.680577	-0.087381
 616	3.0750e-01	15.4183	21.572082	0.000091	0.905273	0.306715	-0.007282
 617	3.0800e-01	15.3686	21.317222	0.000634	6.336911	2.147003	-0.050972
 618	3.0850e-01	15.3284	21.644899	-0.000815	-8.147457	-2.760433	0.065535
 619	3.0900e-01	15.3108	21.353630	0.000724	7.242184	2.453718	-0.058254
 620	3.0950e-01	15.2755	21.353630	-0.000000	-0.000000	-0.000000	0.000000
 621	3.1000e-01	15.2402	21.062362	0.000724	7.242184	2.453718	-0.058254
 622	3.1050e-01	15.1728	20.771093	0.000724	7.242184	2.453718	-0.058254
 623	3.1100e-01	15.1424	21.244405	-0.001177	-11.768549	-3.987292	0.094662
 624	3.1150e-01	15.1071	20.807502	0.001086	10.863276	3.680577	-0.087381
 625	3.1200e-01	15.0637	20.661867	0.000362	3.621092	1.226859	-0.029127
 626	3.1250e-01	15.0220	21.207996	-0.001358	-13.579095	-4.600722	0.109226
 627	3.1300e-01	14.9883	20.589050	0.001539	15.389640	5.214151	-0.123789
 628	3.1350e-01	14.9434	20.661867	-0.000181	-1.810546	-0.613430	0.014563
 629	3.1400e-01	14.9017	20.625459	0.000091	0.905273	0.306715	-0.007282
 630	3.1450e-01	14.8600	20.334190	0.000724	7.242184	2.453718	-0.058254
 631	3.1500e-01	14.8279	20.589050	-0.000634	-6.336911	-2.147003	0.050972
 632	3.1550e-01	14.7974	20.079330	0.001267	12.673822	4.294007	-0.101944
 633	3.1600e-01	14.7493	20.479825	-0.000996	-9.958003	-3.373863	0.080099
 634	3.1650e-01	14.7060	19.751653	0.001811	18.105459	6.134296	-0.145634
 635	3.1700e-01	14.6755	19.788062	-0.000091	-0.905273	-0.306715	0.007282
 636	3.1750e-01	14.6049	19.933696	-0.000362	-3.621092	-1.226859	0.029127
 637	3.1800e-01	14.5777	19.970104	-0.000091	-0.905273	-0.306715	0.007282
 638	3.1850e-01	14.5520	19.715244	0.000634	6.336911	2.147003	-0.050972
 639	3.1900e-01	14.4910	19.678836	0.000091	0.905273	0.306715	-0.007282
 640	3.1950e-01	14.4557	19.678836	-0.000000	-0.000000	-0.000000	0.000000
 641	3.2000e-01	14.3980	19.897287	-0.000543	-5.431638	-1.840289	0.043690
 642	3.2050e-01	14.3836	19.460384	0.001086	10.863276	3.680577	-0.087381
 643	3.2100e-01	14.3130	19.423976	0.000091	0.905273	0.306715	-0.007282
 644	3.2150e-01	14.3017	19.241933	0.000453	4.526365	1.533574	-0.036409
 645	3.2200e-01	14.2664	19.533202	-0.000724	-7.242184	-2.453718	0.058254
 646	3.2250e-01	14.2456	18.805030	0.001811	18.105459	6.134296	-0.145634
 647	3.2300e-01	14.1766	19.496793	-0.001720	-17.200186	-5.827581	0.138353
 648	3.2350e-01	14.1381	19.023481	0.001177	11.768549	3.987292	-0.094662
 649	3.2400e-01	14.0964	18.805030	0.000543	5.431638	1.840289	-0.043690
 650	3.2450e-01	14.0531	18.768621	0.000091	0.905273	0.306715	-0.007282
 651	3.2500e-01	14.0146	18.659396	0.000272	2.715819	0.920144	-0.021845
 652	3.2550e-01	13.9713	18.732213	-0.000181	-1.810546	-0.613430	0.014563
 653	3.2600e-01	13.9376	18.550170	0.000453	4.526365	1.533574	-0.036409
 654	3.2650e-01	13.9071	18.586579	-0.000091	-0.905273	-0.306715	0.007282
 655	3.2700e-01	13.8686	18.004041	0.001448	14.484367	4.907437	-0.116507
 656	3.2750e-01	13.8140	18.404536	-0.000996	-9.958003	-3.373863	0.080099
 657	3.2800e-01	13.7723	18.368127	0.000091	0.905273	0.306715	-0.007282
 658	3.2850e-01	13.7258	18.368127	-0.000000	-0.000000	-0.000000	0.000000
 659	3.2900e-01	13.6793	18.076858	0.000724	7.242184	2.453718	-0.058254
 660	3.2950e-01	13.6536	18.040450	0.000091	0.905273	0.306715	-0.007282
 661	3.3000e-01	13.6167	18.040450	-0.000000	-0.000000	-0.000000	0.000000
 662	3.3050e-01	13.5830	17.749181	0.000724	7.242184	2.453718	-0.058254
 663	3.3100e-01	13.5381	17.676364	0.000181	1.810546	0.613430	-0.014563
 664	3.3150e-01	13.4804	17.275870	0.000996	9.958003	3.373863	-0.080099
 665	3.3200e-01	13.4274	17.457913	-0.000453	-4.526365	-1.533574	0.036409
 666	3.3250e-01	13.4002	17.457913	-0.000000	-0.000000	-0.000000	0.000000
 667	3.3300e-01	13.3601	17.275870	0.000453	4.526365	1.533574	-0.036409
 668	3.3350e-01	13.3264	17.421504	-0.000362	-3.621092	-1.226859	0.029127
 669	3.3400e-01	13.2847	16.875375	0.001358	13.579095	4.600722	-0.109226
 670	3.3450e-01	13.2734	16.948193	-0.000181	-1.810546	-0.613430	0.014563
 671	3.3500e-01	13.2141	16.911784	0.000091	0.905273	0.306715	-0.007282
 672	3.3550e-01	13.1980	17.093827	-0.000453	-4.526365	-1.533574	0.036409
 673	3.3600e-01	13.1531	16.802558	0.000724	7.242184	2.453718	-0.058254
 674	3.3650e-01	13.1082	16.802558	-0.000000	-0.000000	-0.000000	0.000000
 675	3.3700e-01	13.0761	16.329247	0.001177	11.768549	3.987292	-0.094662
 676	3.3750e-01	13.0200	16.584107	-0.000634	-6.336911	-2.147003	0.050972
 677	3.3800e-01	12.9510	16.511290	0.000181	1.810546	0.613430	-0.014563
 678	3.3850e-01	12.9381	16.656924	-0.000362	-3.621092	-1.226859	0.029127
 679	3.3900e-01	12.9638	16.183612	-0.001177	-11.768549	-3.987292	-0.094662
 680	3.3950e-01	12.8563	16.220021	-0.000091	-0.905273	-0.306715	0.007282
 681	3.4000e-01	12.8274	16.292838	-0.000181	-1.810546	-0.613430	0.014563
 682	3.4050e-01	12.7520	16.183612	0.000272	2.715819	0.920144	-0.021845
 683	3.4100e-01	12.7312	16.292838	-0.000272	-2.715819	-0.920144	0.021845
 684	3.4150e-01	12.6927	15.855935	0.001086	10.863276	3.680577	-0.087381
 685	3.4200e-01	12.6702	15.673892	0.000453	4.526365	1.533574	-0.036409
 686	3.4250e-01	12.6077	15.819527	-0.000362	-3.621092	-1.226859	0.029127
 687	3.4300e-01	12.5644	15.419032	0.000996	9.958003	3.373863	-0.080099
 688	3.4350e-01	12.5258	15.236989	0.000453	4.526365	1.533574	-0.036409
 689	3.4400e-01	12.5066	15.419032	-0.000453	-4.526365	-1.533574	0.036409
 690	3.4450e-01	12.4424	15.309807	0.000272	2.715819	0.920144	-0.021845
 691	3.4500e-01	12.4039	15.200581	0.000272	2.715819	0.920144	-0.021845
 692	3.4550e-01	12.3959	15.091355	0.000272	2.715819	0.920144	-0.021845
 693	3.4600e-01	12.3317	14.982129	0.000272	2.715819	0.920144	-0.021845
 694	3.4650e-01	12.2948	15.273398	-0.000724	-7.242184	-2.453718	0.058254
 695	3.4700e-01	12.2644	14.727269	0.001358	13.579095	4.600722	-0.109226
 696	3.4750e-01	12.1986	14.763678	-0.000091	-0.905273	-0.306715	0.007282
 697	3.4800e-01	12.1745	14.909312	-0.000362	-3.621092	-1.226859	0.029127
 698	3.4850e-01	12.1184	14.945721	-0.000091	-0.905273	-0.306715	0.007282
 699	3.4900e-01	12.1039	14.545226	0.000996	9.958003	3.373863	-0.080099
 700	3.4950e-01	12.0462	14.399592	0.000362	3.621092	1.226859	-0.029127
 701	3.5000e-01	11.9948	14.326775	0.000181	1.810546	0.613430	-0.014563
 702	3.5050e-01	11.9804	14.217549	0.000272	2.715819	0.920144	-0.021845
 703	3.5100e-01	11.9467	14.181141	0.000091	0.905273	0.306715	-0.007282
 704	3.5150e-01	11.9066	13.999098	0.000453	4.526365	1.533574	-0.036409
 705	3.5200e-01	11.8697	13.853464	0.000362	3.621092	1.226859	-0.029127
 706	3.5250e-01	11.8023	13.853464	-0.000000	-0.000000	-0.000000	0.000000
 707	3.5300e-01	11.7703	13.817055	0.000091	0.905273	0.306715	-0.007282
 708	3.5350e-01	11.7430	13.744238	0.000181	1.810546	0.613430	-0.014563
 709	3.5400e-01	11.7045	13.707829	0.000091	0.905273	0.306715	-0.007282
 710	3.5450e-01	11.6467	13.780646	-0.000181	-1.810546	-0.613430	0.014563
 711	3.5500e-01	11.6179	13.343743	0.001086	10.863276	3.680577	-0.087381
 712	3.5550e-01	11.5681	13.198109	0.000362	3.621092	1.226859	-0.029127
 713	3.5600e-01	11.5088	13.489378	-0.000724	-7.242184	-2.453718	0.058254
 714	3.5650e-01	11.5120	13.234518	-0.000634	-6.336911	-2.147003	-0.050972
 715	3.5700e-01	11.4462	13.052475	0.000453	4.526365	1.533574	-0.036409
 716	3.5750e-01	11.4125	12.615572	0.001086	10.863276	3.680577	-0.087381
 717	3.5800e-01	11.3756	13.525786	-0.002263	-22.631824	-7.667870	0.182043
 718	3.5850e-01	11.2922	12.542755	0.002444	24.442370	8.281299	-0.196606
 719	3.5900e-01	11.3066	12.688389	0.000362	3.621092	1.226859	0.029127
 720	3.5950e-01	11.2489	12.651980	0.000091	0.905273	0.306715	-0.007282
 721	3.6000e-01	11.2296	12.761206	-0.000272	-2.715819	-0.920144	0.021845
 722	3.6050e-01	11.1382	12.324303	0.001086	10.863276	3.680577	-0.087381
 723	3.6100e-01	11.1350	12.287895	0.000091	0.905273	0.306715	-0.007282
 724	3.6150e-01	11.1141	12.433529	-0.000362	-3.621092	-1.226859	0.029127
 725	3.6200e-01	11.0772	12.142260	0.000724	7.242184	2.453718	-0.058254
 726	3.6250e-01	11.0484	12.105852	0.000091	0.905273	0.306715	-0.007282
 727	3.6300e-01	10.9938	12.033035	0.000181	1.810546	0.613430	-0.014563
 728	3.6350e-01	10.9473	12.178669	-0.000362	-3.621092	-1.226859	0.029127
 729	3.6400e-01	10.9008	11.887400	0.000724	7.242184	2.453718	-0.058254
 730	3.6450e-01	10.8478	11.486906	0.000996	9.958003	3.373863	-0.080099
 731	3.6500e-01	10.8222	11.668949	-0.000453	-4.526365	-1.533574	0.036409
 732	3.6550e-01	10.7804	11.523315	0.000362	3.621092	1.226859	-0.029127
 733	3.6600e-01	10.7291	11.850992	-0.000815	-8.147457	-2.760433	0.065535
 734	3.6650e-01	10.7099	11.050003	0.001992	19.916005	6.747725	-0.160198
 735	3.6700e-01	10.6649	11.450497	-0.000996	-9.958003	-3.373863	0.080099
 736	3.6750e-01	10.6168	10.831552	0.001539	15.389640	5.214151	-0.123789
 737	3.6800e-01	10.5831	11.013595	-0.000453	-4.526365	-1.533574	0.036409
 738	3.6850e-01	10.5478	11.122820	-0.000272	-2.715819	-0.920144	0.021845
 739	3.6900e-01	10.4933	10.904369	0.000543	5.431638	1.840289	-0.043690
 740	3.6950e-01	10.4708	10.831552	0.000181	1.810546	0.613430	-0.014563
 741	3.7000e-01	10.4195	10.576692	0.000634	6.336911	2.147003	-0.050972
 742	3.7050e-01	10.3682	10.358240	0.000543	5.431638	1.840289	-0.043690
 743	3.7100e-01	10.3361	10.212606	0.000362	3.621092	1.226859	-0.029127
 744	3.7150e-01	10.3040	10.358240	-0.000362	-3.621092	-1.226859	0.029127
 745	3.7200e-01	10.2494	10.212606	0.000362	3.621092	1.226859	-0.029127
 746	3.7250e-01	10.2414	9.812111	0.000996	9.958003	3.373863	-0.080099
 747	3.7300e-01	10.1773	10.030563	-0.000543	-5.431638	-1.840289	0.043690
 748	3.7350e-01	10.1371	10.139789	-0.000272	-2.715819	-0.920144	0.021845
 749	3.7400e-01	10.0794	9.775703	0.000905	9.052730	3.067148	-0.072817
 750	3.7450e-01	10.0650	9.884929	-0.000272	-2.715819	-0.920144	0.021845
 751	3.7500e-01	10.0184	9.812111	0.000181	1.810546	0.613430	-0.014563
 752	3.7550e-01	9.9976	9.375209	0.001086	10.863276	3.680577	-0.087381
 753	3.7600e-01	9.9254	9.448026	-0.000181	-1.810546	-0.613430	0.014563
 754	3.7650e-01	9.8853	9.411617	0.000091	0.905273	0.306715	-0.007282
 755	3.7700e-01	9.8580	9.229574	0.000453	4.526365	1.533574	-0.036409
 756	3.7750e-01	9.8035	9.265983	-0.000091	-0.905273	-0.306715	0.007282
 757	3.7800e-01	9.7874	8.865488	0.000996	9.958003	3.373863	-0.080099
 758	3.7850e-01	9.7377	9.047531	-0.000453	-4.526365	-1.533574	0.036409
 759	3.7900e-01	9.7104	8.719854	0.000815	8.147457	2.760433	-0.065535
 760	3.7950e-01	9.6639	8.683446	0.000091	0.905273	0.306715	-0.007282
 761	3.8000e-01	9.6222	8.683446	-0.000000	-0.000000	-0.000000	0.000000
 762	3.8050e-01	9.5933	8.355768	0.000815	8.147457	2.760433	-0.065535
 763	3.8100e-01	9.5356	8.574220	-0.000543	-5.431638	-1.840289	0.043690
 764	3.8150e-01	9.5019	8.464994	0.000272	2.715819	0.920144	-0.021845
 765	3.8200e-01	9.4553	8.137317	0.000815	8.147457	2.760433	-0.065535
 766	3.8250e-01	9.4152	7.809640	0.000815	8.147457	2.760433	-0.065535
 767	3.8300e-01	9.3848	8.100908	-0.000724	-7.242184	-2.453718	0.058254
 768	3.8350e-01	9.3527	8.064500	0.000091	0.905273	0.306715	-0.007282
 769	3.8400e-01	9.3126	7.809640	0.000634	6.336911	2.147003	-0.050972
 770	3.8450e-01	9.2757	7.736823	0.000181	1.810546	0.613430	-0.014563
 771	3.8500e-01	9.2067	7.518371	0.000543	5.431638	1.840289	-0.043690
 772	3.8550e-01	9.1842	7.554780	-0.000091	-0.905273	-0.306715	0.007282
 773	3.8600e-01	9.1040	7.045060	0.001267	12.673822	4.294007	-0.101944
 774	3.8650e-01	9.0928	7.518371	-0.001177	-11.768549	-3.987292	0.094662
 775	3.8700e-01	9.0784	7.081468	0.001086	10.863276	3.680577	-0.087381
 776	3.8750e-01	9.0046	7.045060	0.000091	0.905273	0.306715	-0.007282
 777	3.8800e-01	8.9773	6.826608	0.000543	5.431638	1.840289	-0.043690
 778	3.8850e-01	8.9516	6.826608	-0.000000	-0.000000	-0.000000	0.000000
 779	3.8900e-01	8.8794	7.154285	-0.000815	-8.147457	-2.760433	0.065535
 780	3.8950e-01	8.8666	6.608157	0.001358	13.579095	4.600722	-0.109226
 781	3.9000e-01	8.8056	6.680974	-0.000181	-1.810546	-0.613430	0.014563
 782	3.9050e-01	8.7735	6.644565	0.000091	0.905273	0.306715	-0.007282
 783	3.9100e-01	8.7463	6.353297	0.000724	7.242184	2.453718	-0.058254
 784	3.9150e-01	8.7046	6.426114	-0.000181	-1.810546	-0.613430	0.014563
 785	3.9200e-01	8.6420	6.244071	0.000453	4.526365	1.533574	-0.036409
 786	3.9250e-01	8.6179	5.952802	0.000724	7.242184	2.453718	-0.058254
 787	3.9300e-01	8.5955	6.171254	-0.000543	-5.431638	-1.840289	0.043690
 788	3.9350e-01	8.5409	6.025619	0.000362	3.621092	1.226859	-0.029127
 789	3.9400e-01	8.5089	6.062028	-0.000091	-0.905273	-0.306715	0.007282
 790	3.9450e-01	8.4447	5.115405	0.002354	23.537097	7.974584	-0.189325
 791	3.9500e-01	8.3885	5.807168	-0.001720	-17.200186	-5.827581	0.138353
 792	3.9550e-01	8.3725	5.515899	0.000724	7.242184	2.453718	-0.058254
 793	3.9600e-01	8.3308	5.588717	-0.000181	-1.810546	-0.613430	0.014563
 794	3.9650e-01	8.3019	5.443082	0.000362	3.621092	1.226859	-0.029127
 795	3.9700e-01	8.2827	5.261039	0.000453	4.526365	1.533574	-0.036409
 796	3.9750e-01	8.2329	4.824136	0.001086	10.863276	3.680577	-0.087381
 797	3.9800e-01	8.1736	5.188222	-0.000905	-9.052730	-3.067148	0.072817
 798	3.9850e-01	8.1447	4.605685	0.001448	14.484367	4.907437	-0.116507
 799	3.9900e-01	8.1078	4.678502	-0.000181	-1.810546	-0.613430	0.014563
 800	3.9950e-01	8.0581	4.460051	0.000543	5.431638	1.840289	-0.043690
 801	4.0000e-01	8.0164	4.350825	0.000272	2.715819	0.920144	-0.021845
 802	4.0050e-01	7.9891	4.605685	-0.000634	-6.336911	-2.147003	0.050972
 803	4.0100e-01	7.9618	4.168782	0.001086	10.863276	3.680577	-0.087381
 804	4.0150e-01	7.8912	4.205191	-0.000091	-0.905273	-0.306715	0.007282
 805	4.0200e-01	7.8688	3.986739	0.000543	5.431638	1.840289	-0.043690
 806	4.0250e-01	7.8030	4.095965	-0.000272	-2.715819	-0.920144	0.021845
 807	4.0300e-01	7.7436	4.350825	-0.000634	-6.336911	-2.147003	0.050972
 808	4.0350e-01	7.7244	3.586245	0.001901	19.010732	6.441010	-0.152916
 809	4.0400e-01	7.7051	3.913922	-0.000815	-8.147457	-2.760433	0.065535
 810	4.0450e-01	7.6634	3.695471	0.000543	5.431638	1.840289	-0.043690
 811	4.0500e-01	7.6009	3.549836	0.000362	3.621092	1.226859	-0.029127
 812	4.0550e-01	7.5736	3.294976	0.000634	6.336911	2.147003	-0.050972
 813	4.0600e-01	7.5319	3.076525	0.000543	5.431638	1.840289	-0.043690
 814	4.0650e-01	7.5142	2.748848	0.000815	8.147457	2.760433	-0.065535
 815	4.0700e-01	7.4693	3.149342	-0.000996	-9.958003	-3.373863	0.080099
 816	4.0750e-01	7.4100	3.003708	0.000362	3.621092	1.226859	-0.029127
 817	4.0800e-01	7.3827	2.712439	0.000724	7.242184	2.453718	-0.058254
 818	4.0850e-01	7.3410	2.566805	0.000362	3.621092	1.226859	-0.029127
 819	4.0900e-01	7.2896	2.858073	-0.000724	-7.242184	-2.453718	0.058254
 820	4.0950e-01	7.2575	2.311945	0.001358	13.579095	4.600722	-0.109226
 821	4.1000e-01	7.2319	2.530396	-0.000543	-5.431638	-1.840289	0.043690
 822	4.1050e-01	7.1838	1.984267	0.001358	13.579095	4.600722	-0.109226
 823	4.1100e-01	7.1404	1.947859	0.000091	0.905273	0.306715	-0.007282
 824	4.1150e-01	7.0987	2.311945	-0.000905	-9.052730	-3.067148	0.072817
 825	4.1200e-01	7.0410	1.947859	0.000905	9.052730	3.067148	-0.072817
 826	4.1250e-01	7.0041	1.765816	0.000453	4.526365	1.533574	-0.036409
 827	4.1300e-01	6.9864	1.729407	0.000091	0.905273	0.306715	-0.007282
 828	4.1350e-01	6.9255	1.620182	0.000272	2.715819	0.920144	-0.021845
 829	4.1400e-01	6.9030	1.328913	0.000724	7.242184	2.453718	-0.058254
 830	4.1450e-01	6.8501	1.292504	0.000091	0.905273	0.306715	-0.007282
 831	4.1500e-01	6.8148	1.219687	0.000181	1.810546	0.613430	-0.014563
 832	4.1550e-01	6.7731	1.074053	0.000362	3.621092	1.226859	-0.029127
 833	4.1600e-01	6.7233	1.183279	-0.000272	-2.715819	-0.920144	0.021845
 834	4.1650e-01	6.6945	1.219687	-0.000091	-0.905273	-0.306715	0.007282
 835	4.1700e-01	6.6528	0.964827	0.000634	6.336911	2.147003	-0.050972
 836	4.1750e-01	6.5966	0.892010	0.000181	1.810546	0.613430	-0.014563
 837	4.1800e-01	6.5774	0.637150	0.000634	6.336911	2.147003	-0.050972
 838	4.1850e-01	6.5180	0.527924	0.000272	2.715819	0.920144	-0.021845
 839	4.1900e-01	6.4971	0.091021	0.001086	10.863276	3.680577	-0.087381
 840	4.1950e-01	6.4907	0.091021	-0.000000	-0.000000	-0.000000	0.000000
 841	4.2000e-01	6.4201	0.127430	-0.000091	-0.905273	-0.306715	0.007282
 842	4.2050e-01	6.3608	0.054613	0.000181	1.810546	0.613430	-0.014563
 843	4.2100e-01	6.3175	-0.309473	0.000905	9.052730	3.067148	-0.072817
 844	4.2150e-01	6.3030	-0.018204	-0.000724	-7.242184	-2.453718	0.058254
 845	4.2200e-01	6.2501	-0.091021	0.000181	1.810546	0.613430	-0.014563
 846	4.2250e-01	6.2244	-0.382290	0.000724	7.242184	2.453718	-0.058254
 847	4.2300e-01	6.1603	-0.345881	-0.000091	-0.905273	-0.306715	0.007282
 848	4.2350e-01	6.1250	-0.892010	0.001358	13.579095	4.600722	-0.109226
 849	4.2400e-01	6.1041	-0.855602	-0.000091	-0.905273	-0.306715	0.007282
 850	4.2450e-01	6.0768	-0.782784	-0.000181	-1.810546	-0.613430	0.014563
 851	4.2500e-01	6.0143	-1.037644	0.000634	6.336911	2.147003	-0.050972
 852	4.2550e-01	5.9966	-1.074053	0.000091	0.905273	0.306715	-0.007282
 853	4.2600e-01	5.9581	-1.110462	0.000091	0.905273	0.306715	-0.007282
 854	4.2650e-01	5.8972	-1.292504	0.000453	4.526365	1.533574	-0.036409
 855	4.2700e-01	5.8538	-1.401730	0.000272	2.715819	0.920144	-0.021845
 856	4.2750e-01	5.8169	-1.474547	0.000181	1.810546	0.613430	-0.014563
 857	4.2800e-01	5.7736	-1.875042	0.000996	9.958003	3.373863	-0.080099
 858	4.2850e-01	5.7303	-2.020676	0.000362	3.621092	1.226859	-0.029127
 859	4.2900e-01	5.7047	-2.129902	0.000272	2.715819	0.920144	-0.021845
 860	4.2950e-01	5.6629	-2.421170	0.000724	7.242184	2.453718	-0.058254
 861	4.3000e-01	5.6084	-2.202719	-0.000543	-5.431638	-1.840289	0.043690
 862	4.3050e-01	5.5908	-2.166310	-0.000091	-0.905273	-0.306715	0.007282
 863	4.3100e-01	5.5474	-2.384762	0.000543	5.431638	1.840289	-0.043690
 864	4.3150e-01	5.5137	-2.639622	0.000634	6.336911	2.147003	-0.050972
 865	4.3200e-01	5.4576	-2.748848	0.000272	2.715819	0.920144	-0.021845
 866	4.3250e-01	5.4175	-2.894482	0.000362	3.621092	1.226859	-0.029127
 867	4.3300e-01	5.3886	-3.076525	0.000453	4.526365	1.533574	-0.036409
 868	4.3350e-01	5.3293	-3.076525	-0.000000	-0.000000	-0.000000	0.000000
 869	4.3400e-01	5.3228	-2.821665	-0.000634	-6.336911	-2.147003	0.050972
 870	4.3450e-01	5.2763	-3.222159	0.000996	9.958003	3.373863	-0.080099
 871	4.3500e-01	5.2138	-3.149342	-0.000181	-1.810546	-0.613430	0.014563
 872	4.3550e-01	5.1833	-3.294976	0.000362	3.621092	1.226859	-0.029127
 873	4.3600e-01	5.1368	-3.549836	0.000634	6.336911	2.147003	-0.050972
 874	4.3650e-01	5.1015	-3.913922	0.000905	9.052730	3.067148	-0.072817
 875	4.3700e-01	5.0598	-4.168782	0.000634	6.336911	2.147003	-0.050972
 876	4.3750e-01	5.0148	-3.950331	-0.000543	-5.431638	-1.840289	0.043690
 877	4.3800e-01	4.9635	-4.059556	0.000272	2.715819	0.920144	-0.021845
 878	4.3850e-01	4.9282	-4.205191	0.000362	3.621092	1.226859	-0.029127
 879	4.3900e-01	4.9009	-3.768288	-0.001086	-10.863276	-3.680577	0.087381
 880	4.3950e-01	4.8640	-5.042588	0.003168	31.684554	10.735017	-0.254860
 881	4.4000e-01	4.8239	-4.314416	-0.001811	-18.105459	-6.134296	0.145634
 882	4.4050e-01	4.7854	-4.824136	0.001267	12.673822	4.294007	-0.101944
 883	4.4100e-01	4.7325	-4.532868	-0.000724	-7.242184	-2.453718	0.058254
 884	4.4150e-01	4.6908	-4.460051	-0.000181	-1.810546	-0.613430	0.014563
 885	4.4200e-01	4.6491	-4.460051	-0.000000	-0.000000	-0.000000	0.000000
 886	4.4250e-01	4.6106	-5.297448	0.002082	20.821278	7.054440	-0.167479
 887	4.4300e-01	4.5705	-5.297448	-0.000000	-0.000000	-0.000000	0.000000
 888	4.4350e-01	4.5400	-5.224631	-0.000181	-1.810546	-0.613430	0.014563
 889	4.4400e-01	4.4919	-5.734351	0.001267	12.673822	4.294007	-0.101944
 890	4.4450e-01	4.4838	-5.661534	-0.000181	-1.810546	-0.613430	0.014563
 891	4.4500e-01	4.4293	-5.879985	0.000543	5.431638	1.840289	-0.043690
 892	4.4550e-01	4.3667	-6.134845	0.000634	6.336911	2.147003	-0.050972
 893	4.4600e-01	4.3298	-6.207662	0.000181	1.810546	0.613430	-0.014563
 894	4.4650e-01	4.2865	-6.098437	-0.000272	-2.715819	-0.920144	0.021845
 895	4.4700e-01	4.2400	-6.353297	0.000634	6.336911	2.147003	-0.050972
 896	4.4750e-01	4.2352	-6.462522	0.000272	2.715819	0.920144	-0.021845
 897	4.4800e-01	4.1887	-6.280480	-0.000453	-4.526365	-1.533574	0.036409
 898	4.4850e-01	4.1502	-6.753791	0.001177	11.768549	3.987292	-0.094662
 899	4.4900e-01	4.0715	-7.045060	0.000724	7.242184	2.453718	-0.058254
 900	4.4950e-01	4.0667	-7.190694	0.000362	3.621092	1.226859	-0.029127
 901	4.5000e-01	4.0122	-7.008651	-0.000453	-4.526365	-1.533574	0.036409
 902	4.5050e-01	3.9994	-7.117877	0.000272	2.715819	0.920144	-0.021845
 903	4.5100e-01	3.9320	-7.481963	0.000905	9.052730	3.067148	-0.072817
 904	4.5150e-01	3.9111	-7.263511	-0.000543	-5.431638	-1.840289	0.043690
 905	4.5200e-01	3.8614	-7.518371	0.000634	6.336911	2.147003	-0.050972
 906	4.5250e-01	3.8213	-7.918865	0.000996	9.958003	3.373863	-0.080099
 907	4.5300e-01	3.7716	-7.955274	0.000091	0.905273	0.306715	-0.007282
 908	4.5350e-01	3.7330	-7.918865	-0.000091	-0.905273	-0.306715	0.007282
 909	4.5400e-01	3.6897	-8.137317	0.000543	5.431638	1.840289	-0.043690
 910	4.5450e-01	3.6352	-8.210134	0.000181	1.810546	0.613430	-0.014563
 911	4.5500e-01	3.6240	-8.719854	0.001267	12.673822	4.294007	-0.101944
 912	4.5550e-01	3.5774	-8.537811	-0.000453	-4.526365	-1.533574	0.036409
 913	4.5600e-01	3.5373	-8.719854	0.000453	4.526365	1.533574	-0.036409
 914	4.5650e-01	3.4940	-8.792671	0.000181	1.810546	0.613430	-0.014563
 915	4.5700e-01	3.4459	-8.719854	-0.000181	-1.810546	-0.613430	0.014563
 916	4.5750e-01	3.4282	-9.193166	0.001177	11.768549	3.987292	-0.094662
 917	4.5800e-01	3.3881	-9.047531	-0.000362	-3.621092	-1.226859	0.029127
 918	4.5850e-01	3.3432	-9.375209	0.000815	8.147457	2.760433	-0.065535
 919	4.5900e-01	3.2919	-9.702886	0.000815	8.147457	2.760433	-0.065535
 920	4.5950e-01	3.2406	-9.812111	0.000272	2.715819	0.920144	-0.021845
 921	4.6000e-01	3.2293	-9.994154	0.000453	4.526365	1.533574	-0.036409
 922	4.6050e-01	3.1876	-9.994154	-0.000000	-0.000000	-0.000000	0.000000
 923	4.6100e-01	3.1363	-9.630069	-0.000905	-9.052730	-3.067148	0.072817
 924	4.6150e-01	3.1154	-10.285423	0.001629	16.294913	5.520866	-0.131071
 925	4.6200e-01	3.0609	-10.540283	0.000634	6.336911	2.147003	-0.050972
 926	4.6250e-01	3.0464	-10.176197	-0.000905	-9.052730	-3.067148	0.072817
 927	4.6300e-01	2.9807	-10.649509	0.001177	11.768549	3.987292	-0.094662
 928	4.6350e-01	2.9454	-10.358240	-0.000724	-7.242184	-2.453718	0.058254
 929	4.6400e-01	2.8748	-10.940777	0.001448	14.484367	4.907437	-0.116507
 930	4.6450e-01	2.8603	-10.940777	-0.000000	-0.000000	-0.000000	0.000000
 931	4.6500e-01	2.8186	-11.450497	0.001267	12.673822	4.294007	-0.101944
 932	4.6550e-01	2.7609	-11.232046	-0.000543	-5.431638	-1.840289	0.043690
 933	4.6600e-01	2.7288	-11.232046	-0.000000	-0.000000	-0.000000	0.000000
 934	4.6650e-01	2.7047	-11.887400	0.001629	16.294913	5.520866	-0.131071
 935	4.6700e-01	2.6727	-11.632540	-0.000634	-6.336911	-2.147003	0.050972
 936	4.6750e-01	2.6037	-12.033035	0.000996	9.958003	3.373863	-0.080099
 937	4.6800e-01	2.5668	-12.033035	-0.000000	-0.000000	-0.000000	0.000000
 938	4.6850e-01	2.5443	-11.887400	-0.000362	-3.621092	-1.226859	0.029127
 939	4.6900e-01	2.4930	-12.287895	0.000996	9.958003	3.373863	-0.080099
 940	4.6950e-01	2.4689	-12.397120	0.000272	2.715819	0.920144	-0.021845
 941	4.7000e-01	2.4112	-12.469938	0.000181	1.810546	0.613430	-0.014563
 942	4.7050e-01	2.3871	-12.797615	0.000815	8.147457	2.760433	-0.065535
 943	4.7100e-01	2.3422	-13.016066	0.000543	5.431638	1.840289	-0.043690
 944	4.7150e-01	2.3069	-12.651980	-0.000905	-9.052730	-3.067148	0.072817
 945	4.7200e-01	2.2700	-12.979658	0.000815	8.147457	2.760433	-0.065535
 946	4.7250e-01	2.2443	-13.343743	0.000905	9.052730	3.067148	-0.072817
 947	4.7300e-01	2.1785	-13.562195	0.000543	5.431638	1.840289	-0.043690
 948	4.7350e-01	2.1497	-13.707829	0.000362	3.621092	1.226859	-0.029127
 949	4.7400e-01	2.1176	-13.926281	0.000543	5.431638	1.840289	-0.043690
 950	4.7450e-01	2.0582	-13.744238	-0.000453	-4.526365	-1.533574	0.036409
 951	4.7500e-01	2.0470	-14.071915	0.000815	8.147457	2.760433	-0.065535
 952	4.7550e-01	1.9780	-14.217549	0.000362	3.621092	1.226859	-0.029127
 953	4.7600e-01	1.9427	-14.181141	-0.000091	-0.905273	-0.306715	0.007282
 954	4.7650e-01	1.8882	-14.618044	0.001086	10.863276	3.680577	-0.087381
 955	4.7700e-01	1.8657	-14.690861	0.000181	1.810546	0.613430	-0.014563
 956	4.7750e-01	1.8433	-14.982129	0.000724	7.242184	2.453718	-0.058254
 957	4.7800e-01	1.7919	-15.273398	0.000724	7.242184	2.453718	-0.058254
 958	4.7850e-01	1.7149	-14.909312	-0.000905	-9.052730	-3.067148	0.072817
 959	4.7900e-01	1.6828	-15.346215	0.001086	10.863276	3.680577	-0.087381
 960	4.7950e-01	1.6443	-15.346215	-0.000000	-0.000000	-0.000000	0.000000
 961	4.8000e-01	1.6235	-15.819527	0.001177	11.768549	3.987292	-0.094662
 962	4.8050e-01	1.5930	-15.928752	0.000272	2.715819	0.920144	-0.021845
 963	4.8100e-01	1.5497	-15.928752	-0.000000	-0.000000	-0.000000	0.000000
 964	4.8150e-01	1.4935	-16.147204	0.000543	5.431638	1.840289	-0.043690
 965	4.8200e-01	1.4470	-16.183612	0.000091	0.905273	0.306715	-0.007282
 966	4.8250e-01	1.4230	-16.329247	0.000362	3.621092	1.226859	-0.029127
 967	4.8300e-01	1.3684	-16.802558	0.001177	11.768549	3.987292	-0.094662
 968	4.8350e-01	1.3460	-16.656924	-0.000362	-3.621092	-1.226859	0.029127
 969	4.8400e-01	1.2834	-17.057418	0.000996	9.958003	3.373863	-0.080099
 970	4.8450e-01	1.2545	-16.875375	-0.000453	-4.526365	-1.533574	0.036409
 971	4.8500e-01	1.2369	-17.348687	0.001177	11.768549	3.987292	-0.094662
 972	4.8550e-01	1.1823	-17.712773	0.000905	9.052730	3.067148	-0.072817
 973	4.8600e-01	1.1374	-17.567138	-0.000362	-3.621092	-1.226859	0.029127
 974	4.8650e-01	1.0941	-17.894816	0.000815	8.147457	2.760433	-0.065535
 975	4.8700e-01	1.0652	-17.967633	0.000181	1.810546	0.613430	-0.014563
 976	4.8750e-01	1.0203	-18.076858	0.000272	2.715819	0.920144	-0.021845
 977	4.8800e-01	0.9738	-18.440944	0.000905	9.052730	3.067148	-0.072817
 978	4.8850e-01	0.9353	-18.331719	-0.000272	-2.715819	-0.920144	0.021845
 979	4.8900e-01	0.8903	-18.659396	0.000815	8.147457	2.760433	-0.065535
 980	4.8950e-01	0.8567	-18.877847	0.000543	5.431638	1.840289	-0.043690
 981	4.9000e-01	0.8133	-18.950664	0.000181	1.810546	0.613430	-0.014563
 982	4.9050e-01	0.8037	-19.423976	0.001177	11.768549	3.987292	-0.094662
 983	4.9100e-01	0.7492	-19.387567	-0.000091	-0.905273	-0.306715	0.007282
 984	4.9150e-01	0.6994	-19.642427	0.000634	6.336911	2.147003	-0.050972
 985	4.9200e-01	0.6577	-19.606019	-0.000091	-0.905273	-0.306715	0.007282
 986	4.9250e-01	0.6144	-20.042922	0.001086	10.863276	3.680577	-0.087381
 987	4.9300e-01	0.5855	-20.370599	0.000815	8.147457	2.760433	-0.065535
 988	4.9350e-01	0.5551	-20.042922	-0.000815	-8.147457	-2.760433	0.065535
 989	4.9400e-01	0.4845	-20.261373	0.000543	5.431638	1.840289	-0.043690
 990	4.9450e-01	0.4524	-20.771093	0.001267	12.673822	4.294007	-0.101944
 991	4.9500e-01	0.4203	-20.843910	0.000181	1.810546	0.613430	-0.014563
 992	4.9550e-01	0.3513	-21.244405	0.000996	9.958003	3.373863	-0.080099
 993	4.9600e-01	0.3481	-21.244405	-0.000000	-0.000000	-0.000000	0.000000
 994	4.9650e-01	0.2791	-21.426448	0.000453	4.526365	1.533574	-0.036409
 995	4.9700e-01	0.2583	-21.426448	-0.000000	-0.000000	-0.000000	0.000000
 996	4.9750e-01	0.2262	-21.863350	0.001086	10.863276	3.680577	-0.087381
 997	4.9800e-01	0.1861	-21.353630	-0.001267	-12.673822	-4.294007	0.101944
 998	4.9850e-01	0.1219	-22.373071	0.002535	25.347643	8.588014	-0.203888
 999	4.9900e-01	0.0866	-22.555113	0.000453	4.526365	1.533574	-0.036409
1000	4.9950e-01	0.0369	-22.118211	-0.001086	-10.863276	-3.680577	0.087381
1001	5.0000e-01	0.0241	-22.518705	-0.001086	-10.863276	-3.680577	-0.080099

PMax (uC/cm2):	5.93e+01
Pr (uC/cm2):	7.14e+00
-Pr (uC/cm2):	0.00e+00
PLoss (uC/cm2):	0.00e+00
C (Max-Eff) (nF):	2.96e-01
K (Eff):	1.00e+03
Vert. (+/-Pr) Shift (uC/cm2):	3.57e+00
Offset (uC/cm2):	2.97e+01

A (Loop Area - uC/cm2·Volts):	-6.95e-03



Hysteresis Version: 5.48.1 - Radiant Technologies, Inc., 1999 - 9/12/24

