»»»»»»»»»»»»»»»»»»»»»»»»»»»»»»»»»»»» Hysteresis ««««««««««««««««««««««««««««««««««««
»»»  Executed Version:	5.48.1
»»»  Vision Version:	5.48.4 (R)
»»»  Vision Compiled:	9/18/24
»»»  Driver Version:	5.47.0
»»»  Windows Version:	Windows 8 or 8.1
»»»  Processor Information:	x86 (AMD or Intel) - 32 Processors
»»»  Tester Name:	PMF21124-494 (100V)
»»»  Tester S/N:	PMF21124-494
»»»  Internal Amp Type:	100V RevK 270k
»»»  Internal Amp S/N:	iAB2-596/K     
»»»  Execution Count:	1
»»»»»»»»»»»»»»»»»»»»»»»»»»»»»»»»»»»»»»»»»»««««««««««««««««««««««««««««««««««««««««««

Stored:	10/8/2025 - 17:19:13
Configured:	10/08/25 04:22:59 PM
Executed:	10/08/25 05:18:41 PM

»»»»»»»»»»»»»»»»»»»»»»»»»»»»»»»»»»» Sample Info ««««««««««««««««««««««««««««««««««««
Sample Name:	Int. Ref. Ferroelectric
Lot Name:	N/A
Wafer Name:	N/A
Die Row/Column:	0/0
Capacitor Number:	0
Sample Area (cm2):	1.00e-04
Sample Thickness (microns):	3.00e-01

Amplifier:	Internal

»»»»»»»»»»»»»»»»»»»»»»»»»»»»»»»»»»» Tester Info «««««««««««««««««««««««««««««««««««
Tester Name:	PMF21124-494 (100V)
Tester Serial Number:	PMF21124-494
Return Signal Amp. Level:	1.9 [Index: 2]

»»»»»»»»»»»»»»»»»»»»»»»»»»»»»»»» Hysteresis Info ««««««««««««««««««««««««««««««««««
Task Name:	Hyst-8
Volts:	20.00
Field:	666.67 (kV/cm)
DCBias:	0.00
DCField:	0.00 (kV/cm)
Hysteresis Period (ms):	1.00e+02
Preset:	Enabled
Preset Delay (ms):	1.00e+03
Profile:	Standard Monopolar

»»»»»»»»»»»»»»»»»»»»»»»»»»»»»»»»»»»»»» Data «««««««««««««««««««««««««««««««««««««««
Points:	2001

Valid Data

Point	Time (ms)	Drive Voltage	Measured Polarization (uC/cm2)	Capacitance (uF)	Normalized Capacitance (uF/cm2)	Dielectric Constant	Instantaneous Current (mA)
   1	0.0000e+00	0.0369	-14.786738	-0.000046	-0.460896	-0.156156	0.000022
   2	5.0000e-02	0.0321	-14.775740	-0.000046	-0.460896	-0.156156	0.000022
   3	1.0000e-01	0.0369	-14.739487	0.000152	1.519250	0.514736	0.000073
   4	1.5000e-01	0.0610	-14.702011	0.000157	1.570460	0.532086	0.000075
   5	2.0000e-01	0.0818	-14.664943	0.000155	1.553390	0.526303	0.000074
   6	2.5000e-01	0.1027	-14.623394	0.000174	1.741162	0.589922	0.000083
   7	3.0000e-01	0.1476	-14.581030	0.000178	1.775303	0.601489	0.000085
   8	3.5000e-01	0.1428	-14.541518	-0.000166	-1.655811	-0.561004	0.000079
   9	4.0000e-01	0.2021	-14.507301	0.000143	1.433899	0.485818	0.000068
  10	4.5000e-01	0.2053	-14.463716	0.000183	1.826514	0.618840	0.000087
  11	5.0000e-01	0.2037	-14.424203	-0.000166	-1.655811	-0.561004	0.000079
  12	5.5000e-01	0.2342	-14.385913	0.000160	1.604601	0.543653	0.000077
  13	6.0000e-01	0.2695	-14.345179	0.000171	1.707022	0.578355	0.000081
  14	6.5000e-01	0.2968	-14.304037	0.000172	1.724092	0.584138	0.000082
  15	7.0000e-01	0.2968	-14.266969	-0.000155	-1.553390	-0.526303	0.000074
  16	7.5000e-01	0.3032	-14.218495	0.000203	2.031356	0.688242	0.000097
  17	8.0000e-01	0.3225	-14.184279	0.000143	1.433899	0.485818	0.000068
  18	8.5000e-01	0.3529	-14.143544	0.000171	1.707022	0.578355	0.000081
  19	9.0000e-01	0.3610	-14.101995	0.000174	1.741162	0.589922	0.000083
  20	9.5000e-01	0.3786	-14.064927	0.000155	1.553390	0.526303	0.000074
  21	1.0000e+00	0.4075	-14.024193	0.000171	1.707022	0.578355	0.000081
  22	1.0500e+00	0.4460	-13.979793	0.000186	1.860654	0.630407	0.000089
  23	1.1000e+00	0.4428	-13.939058	-0.000171	-1.707022	-0.578355	0.000081
  24	1.1500e+00	0.4684	-13.901583	0.000157	1.570460	0.532086	0.000075
  25	1.2000e+00	0.4749	-13.859627	0.000176	1.758233	0.595705	0.000084
  26	1.2500e+00	0.5134	-13.820114	0.000166	1.655811	0.561004	0.000079
  27	1.3000e+00	0.5214	-13.778973	0.000172	1.724092	0.584138	0.000082
  28	1.3500e+00	0.5454	-13.741090	0.000159	1.587530	0.537870	0.000076
  29	1.4000e+00	0.5631	-13.697504	0.000183	1.826514	0.618840	0.000087
  30	1.4500e+00	0.5984	-13.662066	0.000149	1.485109	0.503169	0.000071
  31	1.5000e+00	0.5920	-13.624590	-0.000157	-1.570460	-0.532086	0.000075
  32	1.5500e+00	0.6305	-13.579375	0.000189	1.894794	0.641974	0.000090
  33	1.6000e+00	0.6690	-13.539455	0.000167	1.672882	0.566788	0.000080
  34	1.6500e+00	0.6818	-13.500351	0.000164	1.638741	0.555221	0.000078
  35	1.7000e+00	0.6802	-13.457172	-0.000181	-1.809443	-0.613056	0.000086
  36	1.7500e+00	0.7203	-13.420104	0.000155	1.553390	0.526303	0.000074
  37	1.8000e+00	0.7379	-13.384665	0.000149	1.485109	0.503169	0.000071
  38	1.8500e+00	0.7460	-13.338228	0.000195	1.946005	0.659324	0.000093
  39	1.9000e+00	0.7572	-13.297901	0.000169	1.689952	0.572571	0.000081
  40	1.9500e+00	0.7877	-13.256352	0.000174	1.741162	0.589922	0.000083
  41	2.0000e+00	0.8310	-13.217247	0.000164	1.638741	0.555221	0.000078
  42	2.0500e+00	0.8037	-13.172847	-0.000186	-1.860654	-0.630407	0.000089
  43	2.1000e+00	0.8695	-13.129669	0.000181	1.809443	0.613056	0.000086
  44	2.1500e+00	0.8695	-13.087305	-0.000178	-1.775303	-0.601489	0.000085
  45	2.2000e+00	0.8952	-13.045756	0.000174	1.741162	0.589922	0.000083
  46	2.2500e+00	0.8920	-13.010317	-0.000149	-1.485109	-0.503169	0.000071
  47	2.3000e+00	0.9289	-12.967139	0.000181	1.809443	0.613056	0.000086
  48	2.3500e+00	0.9465	-12.927220	0.000167	1.672882	0.566788	0.000080
  49	2.4000e+00	0.9834	-12.886485	0.000171	1.707022	0.578355	0.000081
  50	2.4500e+00	1.0379	-12.842085	0.000186	1.860654	0.630407	0.000089
  51	2.5000e+00	1.0123	-12.805017	-0.000155	-1.553390	-0.526303	0.000074
  52	2.5500e+00	1.0187	-12.763060	0.000176	1.758233	0.595705	0.000084
  53	2.6000e+00	1.1005	-12.723548	0.000166	1.655811	0.561004	0.000079
  54	2.6500e+00	1.0909	-12.681592	-0.000176	-1.758233	-0.595705	0.000084
  55	2.7000e+00	1.0748	-12.641672	-0.000167	-1.672882	-0.566788	0.000080
  56	2.7500e+00	1.1085	-12.598087	0.000183	1.826514	0.618840	0.000087
  57	2.8000e+00	1.1599	-12.556945	0.000172	1.724092	0.584138	0.000082
  58	2.8500e+00	1.1406	-12.519062	-0.000159	-1.587530	-0.537870	0.000076
  59	2.9000e+00	1.1823	-12.478328	0.000171	1.707022	0.578355	0.000081
  60	2.9500e+00	1.2128	-12.434335	0.000184	1.843584	0.624623	0.000088
  61	3.0000e+00	1.2224	-12.394008	0.000169	1.689952	0.572571	0.000081
  62	3.0500e+00	1.2706	-12.348386	0.000191	1.911865	0.647757	0.000091
  63	3.1000e+00	1.2561	-12.313354	-0.000147	-1.468039	-0.497385	0.000070
  64	3.1500e+00	1.2802	-12.266103	0.000198	1.980146	0.670891	0.000095
  65	3.2000e+00	1.2545	-12.225776	-0.000169	-1.689952	-0.572571	0.000081
  66	3.2500e+00	1.3171	-12.182597	0.000181	1.809443	0.613056	0.000086
  67	3.3000e+00	1.3363	-12.142678	0.000167	1.672882	0.566788	0.000080
  68	3.3500e+00	1.3604	-12.106017	0.000154	1.536320	0.520519	0.000073
  69	3.4000e+00	1.3748	-12.058358	0.000200	1.997216	0.676675	0.000095
  70	3.4500e+00	1.4117	-12.015180	0.000181	1.809443	0.613056	0.000086
  71	3.5000e+00	1.4149	-11.973223	0.000176	1.758233	0.595705	0.000084
  72	3.5500e+00	1.4374	-11.935340	0.000159	1.587530	0.537870	0.000076
  73	3.6000e+00	1.4358	-11.897050	-0.000160	-1.604601	-0.543653	0.000077
  74	3.6500e+00	1.4807	-11.852650	0.000186	1.860654	0.630407	0.000089
  75	3.7000e+00	1.5000	-11.809879	0.000179	1.792373	0.607272	0.000086
  76	3.7500e+00	1.5369	-11.769959	0.000167	1.672882	0.566788	0.000080
  77	3.8000e+00	1.5192	-11.728410	-0.000174	-1.741162	-0.589922	0.000083
  78	3.8500e+00	1.5577	-11.687269	0.000172	1.724092	0.584138	0.000082
  79	3.9000e+00	1.5545	-11.650608	-0.000154	-1.536320	-0.520519	0.000073
  80	3.9500e+00	1.6010	-11.604171	0.000195	1.946005	0.659324	0.000093
  81	4.0000e+00	1.6283	-11.567103	0.000155	1.553390	0.526303	0.000074
  82	4.0500e+00	1.6235	-11.527998	-0.000164	-1.638741	-0.555221	0.000078
  83	4.1000e+00	1.6812	-11.492152	0.000150	1.502179	0.508952	0.000072
  84	4.1500e+00	1.6668	-11.445307	-0.000196	-1.963075	-0.665108	0.000094
  85	4.2000e+00	1.6812	-11.403758	0.000174	1.741162	0.589922	0.000083
  86	4.2500e+00	1.7053	-11.365061	0.000162	1.621671	0.549437	0.000077
  87	4.3000e+00	1.7374	-11.325141	0.000167	1.672882	0.566788	0.000080
  88	4.3500e+00	1.7470	-11.288073	0.000155	1.553390	0.526303	0.000074
  89	4.4000e+00	1.7727	-11.247339	0.000171	1.707022	0.578355	0.000081
  90	4.4500e+00	1.7887	-11.205383	0.000176	1.758233	0.595705	0.000084
  91	4.5000e+00	1.8112	-11.164648	0.000171	1.707022	0.578355	0.000081
  92	4.5500e+00	1.8208	-11.120248	0.000186	1.860654	0.630407	0.000089
  93	4.6000e+00	1.8721	-11.076255	0.000184	1.843584	0.624623	0.000088
  94	4.6500e+00	1.8914	-11.041631	0.000145	1.450969	0.491602	0.000069
  95	4.7000e+00	1.8898	-11.002933	-0.000162	-1.621671	-0.549437	0.000077
  96	4.7500e+00	1.8930	-10.959755	0.000181	1.809443	0.613056	0.000086
  97	4.8000e+00	1.9187	-10.919021	0.000171	1.707022	0.578355	0.000081
  98	4.8500e+00	1.9588	-10.880731	0.000160	1.604601	0.543653	0.000077
  99	4.9000e+00	1.9876	-10.848958	0.000133	1.331477	0.451117	0.000064
 100	4.9500e+00	1.9941	-10.805780	0.000181	1.809443	0.613056	0.000086
 101	5.0000e+00	1.9989	-10.768711	0.000155	1.553390	0.526303	0.000074
 102	5.0500e+00	2.0278	-10.728792	0.000167	1.672882	0.566788	0.000080
 103	5.1000e+00	2.0646	-10.686021	0.000179	1.792373	0.607272	0.000086
 104	5.1500e+00	2.0550	-10.649360	-0.000154	-1.536320	-0.520519	0.000073
 105	5.2000e+00	2.0967	-10.612699	0.000154	1.536320	0.520519	0.000073
 106	5.2500e+00	2.1160	-10.571150	0.000174	1.741162	0.589922	0.000083
 107	5.3000e+00	2.1352	-10.535304	0.000150	1.502179	0.508952	0.000072
 108	5.3500e+00	2.1689	-10.494570	0.000171	1.707022	0.578355	0.000081
 109	5.4000e+00	2.1769	-10.456687	0.000159	1.587530	0.537870	0.000076
 110	5.4500e+00	2.1785	-10.420433	0.000152	1.519250	0.514736	0.000073
 111	5.5000e+00	2.2539	-10.384587	0.000150	1.502179	0.508952	0.000072
 112	5.5500e+00	2.2459	-10.342631	-0.000176	-1.758233	-0.595705	0.000084
 113	5.6000e+00	2.2604	-10.301897	0.000171	1.707022	0.578355	0.000081
 114	5.6500e+00	2.2812	-10.262792	0.000164	1.638741	0.555221	0.000078
 115	5.7000e+00	2.2908	-10.226131	0.000154	1.536320	0.520519	0.000073
 116	5.7500e+00	2.3117	-10.187434	0.000162	1.621671	0.549437	0.000077
 117	5.8000e+00	2.3358	-10.152402	0.000147	1.468039	0.497385	0.000070
 118	5.8500e+00	2.3582	-10.117778	0.000145	1.450969	0.491602	0.000069
 119	5.9000e+00	2.3951	-10.073785	0.000184	1.843584	0.624623	0.000088
 120	5.9500e+00	2.3951	-10.039161	-0.000145	-1.450969	-0.491602	0.000069
 121	6.0000e+00	2.4288	-9.997205	0.000176	1.758233	0.595705	0.000084
 122	6.0500e+00	2.4160	-9.960136	-0.000155	-1.553390	-0.526303	0.000074
 123	6.1000e+00	2.4497	-9.919402	0.000171	1.707022	0.578355	0.000081
 124	6.1500e+00	2.4834	-9.882334	0.000155	1.553390	0.526303	0.000074
 125	6.2000e+00	2.5042	-9.843636	0.000162	1.621671	0.549437	0.000077
 126	6.2500e+00	2.5106	-9.809827	0.000142	1.416828	0.480034	0.000068
 127	6.3000e+00	2.5347	-9.771129	0.000162	1.621671	0.549437	0.000077
 128	6.3500e+00	2.5604	-9.732839	0.000160	1.604601	0.543653	0.000077
 129	6.4000e+00	2.5636	-9.696993	0.000150	1.502179	0.508952	0.000072
 130	6.4500e+00	2.5732	-9.657481	0.000166	1.655811	0.561004	0.000079
 131	6.5000e+00	2.6374	-9.623264	0.000143	1.433899	0.485818	0.000068
 132	6.5500e+00	2.6325	-9.582937	-0.000169	-1.689952	-0.572571	0.000081
 133	6.6000e+00	2.6438	-9.547906	0.000147	1.468039	0.497385	0.000070
 134	6.6500e+00	2.6775	-9.509616	0.000160	1.604601	0.543653	0.000077
 135	6.7000e+00	2.6871	-9.472140	0.000157	1.570460	0.532086	0.000075
 136	6.7500e+00	2.7432	-9.435479	0.000154	1.536320	0.520519	0.000073
 137	6.8000e+00	2.7368	-9.403706	-0.000133	-1.331477	-0.451117	0.000064
 138	6.8500e+00	2.7577	-9.361750	0.000176	1.758233	0.595705	0.000084
 139	6.9000e+00	2.7930	-9.323460	0.000160	1.604601	0.543653	0.000077
 140	6.9500e+00	2.8058	-9.286392	0.000155	1.553390	0.526303	0.000074
 141	7.0000e+00	2.8251	-9.249324	0.000155	1.553390	0.526303	0.000074
 142	7.0500e+00	2.8379	-9.213070	0.000152	1.519250	0.514736	0.000073
 143	7.1000e+00	2.8507	-9.172743	0.000169	1.689952	0.572571	0.000081
 144	7.1500e+00	2.8956	-9.140563	0.000135	1.348547	0.456900	0.000064
 145	7.2000e+00	2.8684	-9.099422	-0.000172	-1.724092	-0.584138	0.000082
 146	7.2500e+00	2.8940	-9.062761	0.000154	1.536320	0.520519	0.000073
 147	7.3000e+00	2.9293	-9.027322	0.000149	1.485109	0.503169	0.000071
 148	7.3500e+00	2.9502	-8.990254	0.000155	1.553390	0.526303	0.000074
 149	7.4000e+00	2.9775	-8.953593	0.000154	1.536320	0.520519	0.000073
 150	7.4500e+00	2.9903	-8.916932	0.000154	1.536320	0.520519	0.000073
 151	7.5000e+00	2.9951	-8.881493	0.000149	1.485109	0.503169	0.000071
 152	7.5500e+00	3.0529	-8.850535	0.000130	1.297337	0.439550	0.000062
 153	7.6000e+00	3.0609	-8.810616	0.000167	1.672882	0.566788	0.000080
 154	7.6500e+00	3.0946	-8.773548	0.000155	1.553390	0.526303	0.000074
 155	7.7000e+00	3.0881	-8.735257	-0.000160	-1.604601	-0.543653	0.000077
 156	7.7500e+00	3.1266	-8.695338	0.000167	1.672882	0.566788	0.000080
 157	7.8000e+00	3.1523	-8.664787	0.000128	1.280267	0.433766	0.000061
 158	7.8500e+00	3.0962	-8.627312	-0.000157	-1.570460	-0.532086	0.000075
 159	7.9000e+00	3.1635	-8.591465	0.000150	1.502179	0.508952	0.000072
 160	7.9500e+00	3.2020	-8.555212	0.000152	1.519250	0.514736	0.000073
 161	8.0000e+00	3.2277	-8.519366	0.000150	1.502179	0.508952	0.000072
 162	8.0500e+00	3.2486	-8.486778	0.000137	1.365618	0.462684	0.000065
 163	8.1000e+00	3.2502	-8.449710	0.000155	1.553390	0.526303	0.000074
 164	8.1500e+00	3.2758	-8.413864	0.000150	1.502179	0.508952	0.000072
 165	8.2000e+00	3.2726	-8.376389	-0.000157	-1.570460	-0.532086	0.000075
 166	8.2500e+00	3.3015	-8.338506	0.000159	1.587530	0.537870	0.000076
 167	8.3000e+00	3.3384	-8.302660	0.000150	1.502179	0.508952	0.000072
 168	8.3500e+00	3.3256	-8.271702	-0.000130	-1.297337	-0.439550	0.000062
 169	8.4000e+00	3.3817	-8.232189	0.000166	1.655811	0.561004	0.000079
 170	8.4500e+00	3.4090	-8.195528	0.000154	1.536320	0.520519	0.000073
 171	8.5000e+00	3.3913	-8.158053	-0.000157	-1.570460	-0.532086	0.000075
 172	8.5500e+00	3.4250	-8.124651	0.000140	1.399758	0.474251	0.000067
 173	8.6000e+00	3.4491	-8.087175	0.000157	1.570460	0.532086	0.000075
 174	8.6500e+00	3.4732	-8.050515	0.000154	1.536320	0.520519	0.000073
 175	8.7000e+00	3.4860	-8.013854	0.000154	1.536320	0.520519	0.000073
 176	8.7500e+00	3.5149	-7.976378	0.000157	1.570460	0.532086	0.000075
 177	8.8000e+00	3.5454	-7.943383	0.000138	1.382688	0.468467	0.000066
 178	8.8500e+00	3.5357	-7.909167	-0.000143	-1.433899	-0.485818	0.000068
 179	8.9000e+00	3.5758	-7.870876	0.000160	1.604601	0.543653	0.000077
 180	8.9500e+00	3.5967	-7.835438	0.000149	1.485109	0.503169	0.000071
 181	9.0000e+00	3.5887	-7.795925	-0.000166	-1.655811	-0.561004	0.000079
 182	9.0500e+00	3.6512	-7.762523	0.000140	1.399758	0.474251	0.000067
 183	9.1000e+00	3.6480	-7.720567	-0.000176	-1.758233	-0.595705	0.000084
 184	9.1500e+00	3.7026	-7.691238	0.000123	1.229056	0.416415	0.000059
 185	9.2000e+00	3.6849	-7.652948	-0.000160	-1.604601	-0.543653	0.000077
 186	9.2500e+00	3.6865	-7.614658	0.000160	1.604601	0.543653	0.000077
 187	9.3000e+00	3.7379	-7.581663	0.000138	1.382688	0.468467	0.000066
 188	9.3500e+00	3.7828	-7.544595	0.000155	1.553390	0.526303	0.000074
 189	9.4000e+00	3.7876	-7.508749	0.000150	1.502179	0.508952	0.000072
 190	9.4500e+00	3.7780	-7.476569	-0.000135	-1.348547	-0.456900	0.000064
 191	9.5000e+00	3.8133	-7.440723	0.000150	1.502179	0.508952	0.000072
 192	9.5500e+00	3.8181	-7.403655	0.000155	1.553390	0.526303	0.000074
 193	9.6000e+00	3.8758	-7.371067	0.000137	1.365618	0.462684	0.000065
 194	9.6500e+00	3.8662	-7.332777	-0.000160	-1.604601	-0.543653	0.000077
 195	9.7000e+00	3.8838	-7.297338	0.000149	1.485109	0.503169	0.000071
 196	9.7500e+00	3.9207	-7.259863	0.000157	1.570460	0.532086	0.000075
 197	9.8000e+00	3.9336	-7.225239	0.000145	1.450969	0.491602	0.000069
 198	9.8500e+00	3.9544	-7.185726	0.000166	1.655811	0.561004	0.000079
 199	9.9000e+00	3.9801	-7.153954	0.000133	1.331477	0.451117	0.000064
 200	9.9500e+00	3.9817	-7.119329	0.000145	1.450969	0.491602	0.000069
 201	1.0000e+01	3.9977	-7.083891	0.000149	1.485109	0.503169	0.000071
 202	1.0050e+01	4.0427	-7.046415	0.000157	1.570460	0.532086	0.000075
 203	1.0100e+01	4.0667	-7.015457	0.000130	1.297337	0.439550	0.000062
 204	1.0150e+01	4.0699	-6.980018	0.000149	1.485109	0.503169	0.000071
 205	1.0200e+01	4.0972	-6.944172	0.000150	1.502179	0.508952	0.000072
 206	1.0250e+01	4.1229	-6.912399	0.000133	1.331477	0.451117	0.000064
 207	1.0300e+01	4.1341	-6.876146	0.000152	1.519250	0.514736	0.000073
 208	1.0350e+01	4.1453	-6.841929	0.000143	1.433899	0.485818	0.000068
 209	1.0400e+01	4.1518	-6.807305	0.000145	1.450969	0.491602	0.000069
 210	1.0450e+01	4.2079	-6.773903	0.000140	1.399758	0.474251	0.000067
 211	1.0500e+01	4.2496	-6.740094	0.000142	1.416828	0.480034	0.000068
 212	1.0550e+01	4.2657	-6.703840	0.000152	1.519250	0.514736	0.000073
 213	1.0600e+01	4.2592	-6.674919	-0.000121	-1.211986	-0.410632	0.000058
 214	1.0650e+01	4.2560	-6.637036	-0.000159	-1.587530	-0.537870	0.000076
 215	1.0700e+01	4.2769	-6.607300	0.000125	1.246126	0.422199	0.000059
 216	1.0750e+01	4.3074	-6.568602	0.000162	1.621671	0.549437	0.000077
 217	1.0800e+01	4.3475	-6.537237	0.000131	1.314407	0.445333	0.000063
 218	1.0850e+01	4.3411	-6.501391	-0.000150	-1.502179	-0.508952	0.000072
 219	1.0900e+01	4.3956	-6.464323	0.000155	1.553390	0.526303	0.000074
 220	1.0950e+01	4.4068	-6.432143	0.000135	1.348547	0.456900	0.000064
 221	1.1000e+01	4.4309	-6.404851	0.000114	1.143705	0.387498	0.000055
 222	1.1050e+01	4.4517	-6.368597	0.000152	1.519250	0.514736	0.000073
 223	1.1100e+01	4.4437	-6.337232	-0.000131	-1.314407	-0.445333	0.000063
 224	1.1150e+01	4.4838	-6.299349	0.000159	1.587530	0.537870	0.000076
 225	1.1200e+01	4.4983	-6.263503	0.000150	1.502179	0.508952	0.000072
 226	1.1250e+01	4.4967	-6.232545	-0.000130	-1.297337	-0.439550	0.000062
 227	1.1300e+01	4.5127	-6.199550	0.000138	1.382688	0.468467	0.000066
 228	1.1350e+01	4.5624	-6.168592	0.000130	1.297337	0.439550	0.000062
 229	1.1400e+01	4.5544	-6.133968	-0.000145	-1.450969	-0.491602	0.000069
 230	1.1450e+01	4.6090	-6.103824	0.000126	1.263196	0.427982	0.000060
 231	1.1500e+01	4.6138	-6.071237	0.000137	1.365618	0.462684	0.000065
 232	1.1550e+01	4.6410	-6.042316	0.000121	1.211986	0.410632	0.000058
 233	1.1600e+01	4.6795	-6.007692	0.000145	1.450969	0.491602	0.000069
 234	1.1650e+01	4.6683	-5.969809	-0.000159	-1.587530	-0.537870	0.000076
 235	1.1700e+01	4.6812	-5.942517	0.000114	1.143705	0.387498	0.000055
 236	1.1750e+01	4.7100	-5.912781	0.000125	1.246126	0.422199	0.000059
 237	1.1800e+01	4.7325	-5.881008	0.000133	1.331477	0.451117	0.000064
 238	1.1850e+01	4.7566	-5.850865	0.000126	1.263196	0.427982	0.000060
 239	1.1900e+01	4.8127	-5.819499	0.000131	1.314407	0.445333	0.000063
 240	1.1950e+01	4.7870	-5.784061	-0.000149	-1.485109	-0.503169	0.000071
 241	1.2000e+01	4.8416	-5.753917	0.000126	1.263196	0.427982	0.000060
 242	1.2050e+01	4.8319	-5.720515	-0.000140	-1.399758	-0.474251	0.000067
 243	1.2100e+01	4.8464	-5.689150	0.000131	1.314407	0.445333	0.000063
 244	1.2150e+01	4.8801	-5.658599	0.000128	1.280267	0.433766	0.000061
 245	1.2200e+01	4.8753	-5.623160	-0.000149	-1.485109	-0.503169	0.000071
 246	1.2250e+01	4.8945	-5.593017	0.000126	1.263196	0.427982	0.000060
 247	1.2300e+01	4.9426	-5.562466	0.000128	1.280267	0.433766	0.000061
 248	1.2350e+01	4.9667	-5.527435	0.000147	1.468039	0.497385	0.000070
 249	1.2400e+01	4.9667	-5.496069	-0.000131	-1.314407	-0.445333	0.000063
 250	1.2450e+01	5.0020	-5.466741	0.000123	1.229056	0.416415	0.000059
 251	1.2500e+01	5.0084	-5.433746	0.000138	1.382688	0.468467	0.000066
 252	1.2550e+01	5.0405	-5.402381	0.000131	1.314407	0.445333	0.000063
 253	1.2600e+01	5.0758	-5.370608	0.000133	1.331477	0.451117	0.000064
 254	1.2650e+01	5.1079	-5.342909	0.000116	1.160775	0.393281	0.000055
 255	1.2700e+01	5.1079	-5.308692	-0.000143	-1.433899	-0.485818	0.000068
 256	1.2750e+01	5.1111	-5.283844	0.000104	1.041283	0.352796	0.000050
 257	1.2800e+01	5.1159	-5.248812	0.000147	1.468039	0.497385	0.000070
 258	1.2850e+01	5.1704	-5.220298	0.000119	1.194915	0.404848	0.000057
 259	1.2900e+01	5.1464	-5.186082	-0.000143	-1.433899	-0.485818	0.000068
 260	1.2950e+01	5.1688	-5.155938	0.000126	1.263196	0.427982	0.000060
 261	1.3000e+01	5.2186	-5.125795	0.000126	1.263196	0.427982	0.000060
 262	1.3050e+01	5.2138	-5.089134	-0.000154	-1.536320	-0.520519	0.000073
 263	1.3100e+01	5.2555	-5.066323	0.000096	0.955932	0.323879	0.000046
 264	1.3150e+01	5.2699	-5.031292	0.000147	1.468039	0.497385	0.000070
 265	1.3200e+01	5.2843	-4.998297	0.000138	1.382688	0.468467	0.000066
 266	1.3250e+01	5.3036	-4.966931	0.000131	1.314407	0.445333	0.000063
 267	1.3300e+01	5.3293	-4.930678	0.000152	1.519250	0.514736	0.000073
 268	1.3350e+01	5.3662	-4.905830	0.000104	1.041283	0.352796	0.000050
 269	1.3400e+01	5.3870	-4.875279	0.000128	1.280267	0.433766	0.000061
 270	1.3450e+01	5.3934	-4.840655	0.000145	1.450969	0.491602	0.000069
 271	1.3500e+01	5.4319	-4.808882	0.000133	1.331477	0.451117	0.000064
 272	1.3550e+01	5.4143	-4.777517	-0.000131	-1.314407	-0.445333	0.000063
 273	1.3600e+01	5.4464	-4.746559	0.000130	1.297337	0.439550	0.000062
 274	1.3650e+01	5.4752	-4.715194	0.000131	1.314407	0.445333	0.000063
 275	1.3700e+01	5.5089	-4.683421	0.000133	1.331477	0.451117	0.000064
 276	1.3750e+01	5.5121	-4.651648	0.000133	1.331477	0.451117	0.000064
 277	1.3800e+01	5.5250	-4.621912	0.000125	1.246126	0.422199	0.000059
 278	1.3850e+01	5.5539	-4.589732	0.000135	1.348547	0.456900	0.000064
 279	1.3900e+01	5.5571	-4.558367	0.000131	1.314407	0.445333	0.000063
 280	1.3950e+01	5.5875	-4.527001	0.000131	1.314407	0.445333	0.000063
 281	1.4000e+01	5.6068	-4.492377	0.000145	1.450969	0.491602	0.000069
 282	1.4050e+01	5.6148	-4.463456	0.000121	1.211986	0.410632	0.000058
 283	1.4100e+01	5.6469	-4.430869	0.000137	1.365618	0.462684	0.000065
 284	1.4150e+01	5.6886	-4.404391	0.000111	1.109564	0.375931	0.000053
 285	1.4200e+01	5.7095	-4.371397	0.000138	1.382688	0.468467	0.000066
 286	1.4250e+01	5.7576	-4.340439	0.000130	1.297337	0.439550	0.000062
 287	1.4300e+01	5.7111	-4.306222	-0.000143	-1.433899	-0.485818	0.000068
 288	1.4350e+01	5.7704	-4.271190	0.000147	1.468039	0.497385	0.000070
 289	1.4400e+01	5.7801	-4.246342	0.000104	1.041283	0.352796	0.000050
 290	1.4450e+01	5.7784	-4.212126	-0.000143	-1.433899	-0.485818	0.000068
 291	1.4500e+01	5.7977	-4.183612	0.000119	1.194915	0.404848	0.000057
 292	1.4550e+01	5.8298	-4.151024	0.000137	1.365618	0.462684	0.000065
 293	1.4600e+01	5.8747	-4.121288	0.000125	1.246126	0.422199	0.000059
 294	1.4650e+01	5.8490	-4.089516	-0.000133	-1.331477	-0.451117	0.000064
 295	1.4700e+01	5.8747	-4.058150	0.000131	1.314407	0.445333	0.000063
 296	1.4750e+01	5.9180	-4.028007	0.000126	1.263196	0.427982	0.000060
 297	1.4800e+01	5.9629	-3.996641	0.000131	1.314407	0.445333	0.000063
 298	1.4850e+01	5.9581	-3.960388	-0.000152	-1.519250	-0.514736	0.000073
 299	1.4900e+01	5.9645	-3.926986	0.000140	1.399758	0.474251	0.000067
 300	1.4950e+01	5.9918	-3.903360	0.000099	0.990073	0.335446	0.000047
 301	1.5000e+01	6.0271	-3.869143	0.000143	1.433899	0.485818	0.000068
 302	1.5050e+01	6.0014	-3.835334	-0.000142	-1.416828	-0.480034	0.000068
 303	1.5100e+01	6.0367	-3.804783	0.000128	1.280267	0.433766	0.000061
 304	1.5150e+01	6.1025	-3.774640	0.000126	1.263196	0.427982	0.000060
 305	1.5200e+01	6.1105	-3.745718	0.000121	1.211986	0.410632	0.000058
 306	1.5250e+01	6.1346	-3.713538	0.000135	1.348547	0.456900	0.000064
 307	1.5300e+01	6.1394	-3.680544	0.000138	1.382688	0.468467	0.000066
 308	1.5350e+01	6.1763	-3.649178	0.000131	1.314407	0.445333	0.000063
 309	1.5400e+01	6.1490	-3.618628	-0.000128	-1.280267	-0.433766	0.000061
 310	1.5450e+01	6.1795	-3.590928	0.000116	1.160775	0.393281	0.000055
 311	1.5500e+01	6.2180	-3.562007	0.000121	1.211986	0.410632	0.000058
 312	1.5550e+01	6.2437	-3.529420	0.000137	1.365618	0.462684	0.000065
 313	1.5600e+01	6.2421	-3.499276	-0.000126	-1.263196	-0.427982	0.000060
 314	1.5650e+01	6.2613	-3.464245	0.000147	1.468039	0.497385	0.000070
 315	1.5700e+01	6.3078	-3.432065	0.000135	1.348547	0.456900	0.000064
 316	1.5750e+01	6.3447	-3.405180	0.000113	1.126635	0.381714	0.000054
 317	1.5800e+01	6.3319	-3.371371	-0.000142	-1.416828	-0.480034	0.000068
 318	1.5850e+01	6.3496	-3.341635	0.000125	1.246126	0.422199	0.000059
 319	1.5900e+01	6.3576	-3.311899	0.000125	1.246126	0.422199	0.000059
 320	1.5950e+01	6.3848	-3.280941	0.000130	1.297337	0.439550	0.000062
 321	1.6000e+01	6.4282	-3.245909	0.000147	1.468039	0.497385	0.000070
 322	1.6050e+01	6.4474	-3.218617	0.000114	1.143705	0.387498	0.000055
 323	1.6100e+01	6.4747	-3.185622	0.000138	1.382688	0.468467	0.000066
 324	1.6150e+01	6.5052	-3.154257	0.000131	1.314407	0.445333	0.000063
 325	1.6200e+01	6.4859	-3.125743	-0.000119	-1.194915	-0.404848	0.000057
 326	1.6250e+01	6.5132	-3.099266	0.000111	1.109564	0.375931	0.000053
 327	1.6300e+01	6.5228	-3.067086	0.000135	1.348547	0.456900	0.000064
 328	1.6350e+01	6.5533	-3.036128	0.000130	1.297337	0.439550	0.000062
 329	1.6400e+01	6.5597	-3.003133	0.000138	1.382688	0.468467	0.000066
 330	1.6450e+01	6.6014	-2.972582	0.000128	1.280267	0.433766	0.000061
 331	1.6500e+01	6.6303	-2.939995	0.000137	1.365618	0.462684	0.000065
 332	1.6550e+01	6.6287	-2.910259	-0.000125	-1.246126	-0.422199	0.000059
 333	1.6600e+01	6.6479	-2.882967	0.000114	1.143705	0.387498	0.000055
 334	1.6650e+01	6.6816	-2.847935	0.000147	1.468039	0.497385	0.000070
 335	1.6700e+01	6.6367	-2.819421	-0.000119	-1.194915	-0.404848	0.000057
 336	1.6750e+01	6.7282	-2.790093	0.000123	1.229056	0.416415	0.000059
 337	1.6800e+01	6.7185	-2.759135	-0.000130	-1.297337	-0.439550	0.000062
 338	1.6850e+01	6.7699	-2.729399	0.000125	1.246126	0.422199	0.000059
 339	1.6900e+01	6.7747	-2.702514	0.000113	1.126635	0.381714	0.000054
 340	1.6950e+01	6.7891	-2.671556	0.000130	1.297337	0.439550	0.000062
 341	1.7000e+01	6.8324	-2.642227	0.000123	1.229056	0.416415	0.000059
 342	1.7050e+01	6.8324	-2.613713	-0.000119	-1.194915	-0.404848	0.000057
 343	1.7100e+01	6.8453	-2.580719	0.000138	1.382688	0.468467	0.000066
 344	1.7150e+01	6.8757	-2.553834	0.000113	1.126635	0.381714	0.000054
 345	1.7200e+01	6.8806	-2.520025	0.000142	1.416828	0.480034	0.000068
 346	1.7250e+01	6.9303	-2.492325	0.000116	1.160775	0.393281	0.000055
 347	1.7300e+01	6.9223	-2.463811	-0.000119	-1.194915	-0.404848	0.000057
 348	1.7350e+01	6.9768	-2.432853	0.000130	1.297337	0.439550	0.000062
 349	1.7400e+01	6.9704	-2.404339	-0.000119	-1.194915	-0.404848	0.000057
 350	1.7450e+01	6.9880	-2.377047	0.000114	1.143705	0.387498	0.000055
 351	1.7500e+01	7.0137	-2.344867	0.000135	1.348547	0.456900	0.000064
 352	1.7550e+01	7.0522	-2.315131	0.000125	1.246126	0.422199	0.000059
 353	1.7600e+01	7.0442	-2.286210	-0.000121	-1.211986	-0.410632	0.000058
 354	1.7650e+01	7.0650	-2.253623	0.000137	1.365618	0.462684	0.000065
 355	1.7700e+01	7.0875	-2.226738	0.000113	1.126635	0.381714	0.000054
 356	1.7750e+01	7.1100	-2.193743	0.000138	1.382688	0.468467	0.000066
 357	1.7800e+01	7.1453	-2.165637	0.000118	1.177845	0.399065	0.000056
 358	1.7850e+01	7.1533	-2.136715	0.000121	1.211986	0.410632	0.000058
 359	1.7900e+01	7.1725	-2.106572	0.000126	1.263196	0.427982	0.000060
 360	1.7950e+01	7.2030	-2.077651	0.000121	1.211986	0.410632	0.000058
 361	1.8000e+01	7.1854	-2.048729	-0.000121	-1.211986	-0.410632	0.000058
 362	1.8050e+01	7.2303	-2.020623	0.000118	1.177845	0.399065	0.000056
 363	1.8100e+01	7.2303	-1.992516	-0.000118	-1.177845	-0.399065	0.000056
 364	1.8150e+01	7.2977	-1.963187	0.000123	1.229056	0.416415	0.000059
 365	1.8200e+01	7.3137	-1.932229	0.000130	1.297337	0.439550	0.000062
 366	1.8250e+01	7.2977	-1.904530	-0.000116	-1.160775	-0.393281	0.000055
 367	1.8300e+01	7.3249	-1.872757	0.000133	1.331477	0.451117	0.000064
 368	1.8350e+01	7.3410	-1.844243	0.000119	1.194915	0.404848	0.000057
 369	1.8400e+01	7.3618	-1.813693	0.000128	1.280267	0.433766	0.000061
 370	1.8450e+01	7.3795	-1.789252	0.000102	1.024213	0.347013	0.000049
 371	1.8500e+01	7.3971	-1.755443	0.000142	1.416828	0.480034	0.000068
 372	1.8550e+01	7.4083	-1.722855	0.000137	1.365618	0.462684	0.000065
 373	1.8600e+01	7.4677	-1.696785	0.000109	1.092494	0.370147	0.000052
 374	1.8650e+01	7.4533	-1.663791	-0.000138	-1.382688	-0.468467	0.000066
 375	1.8700e+01	7.4821	-1.634869	0.000121	1.211986	0.410632	0.000058
 376	1.8750e+01	7.4918	-1.601060	0.000142	1.416828	0.480034	0.000068
 377	1.8800e+01	7.5447	-1.573361	0.000116	1.160775	0.393281	0.000055
 378	1.8850e+01	7.5495	-1.538736	0.000145	1.450969	0.491602	0.000069
 379	1.8900e+01	7.5624	-1.509815	0.000121	1.211986	0.410632	0.000058
 380	1.8950e+01	7.6153	-1.480487	0.000123	1.229056	0.416415	0.000059
 381	1.9000e+01	7.5944	-1.448714	-0.000133	-1.331477	-0.451117	0.000064
 382	1.9050e+01	7.6233	-1.418570	0.000126	1.263196	0.427982	0.000060
 383	1.9100e+01	7.6602	-1.388020	0.000128	1.280267	0.433766	0.000061
 384	1.9150e+01	7.6698	-1.359098	0.000121	1.211986	0.410632	0.000058
 385	1.9200e+01	7.6730	-1.331399	0.000116	1.160775	0.393281	0.000055
 386	1.9250e+01	7.6971	-1.297590	0.000142	1.416828	0.480034	0.000068
 387	1.9300e+01	7.7244	-1.269483	0.000118	1.177845	0.399065	0.000056
 388	1.9350e+01	7.7805	-1.238525	0.000130	1.297337	0.439550	0.000062
 389	1.9400e+01	7.7725	-1.209196	-0.000123	-1.229056	-0.416415	0.000059
 390	1.9450e+01	7.7998	-1.182719	0.000111	1.109564	0.375931	0.000053
 391	1.9500e+01	7.8126	-1.152168	0.000128	1.280267	0.433766	0.000061
 392	1.9550e+01	7.8046	-1.118359	-0.000142	-1.416828	-0.480034	0.000068
 393	1.9600e+01	7.8479	-1.087401	0.000130	1.297337	0.439550	0.000062
 394	1.9650e+01	7.8591	-1.053184	0.000143	1.433899	0.485818	0.000068
 395	1.9700e+01	7.8944	-1.024670	0.000119	1.194915	0.404848	0.000057
 396	1.9750e+01	7.9073	-0.994934	0.000125	1.246126	0.422199	0.000059
 397	1.9800e+01	7.9185	-0.962754	0.000135	1.348547	0.456900	0.000064
 398	1.9850e+01	7.9746	-0.933425	0.000123	1.229056	0.416415	0.000059
 399	1.9900e+01	7.9474	-0.899209	-0.000143	-1.433899	-0.485818	0.000068
 400	1.9950e+01	7.9939	-0.871509	0.000116	1.160775	0.393281	0.000055
 401	2.0000e+01	7.9987	-0.838922	0.000137	1.365618	0.462684	0.000065
 402	2.0050e+01	8.0452	-0.804298	0.000145	1.450969	0.491602	0.000069
 403	2.0100e+01	8.0228	-0.774562	-0.000125	-1.246126	-0.422199	0.000059
 404	2.0150e+01	8.0661	-0.737494	0.000155	1.553390	0.526303	0.000074
 405	2.0200e+01	8.0805	-0.711016	0.000111	1.109564	0.375931	0.000053
 406	2.0250e+01	8.0885	-0.686983	0.000101	1.007143	0.341229	0.000048
 407	2.0300e+01	8.1174	-0.647878	0.000164	1.638741	0.555221	0.000078
 408	2.0350e+01	8.1639	-0.616513	0.000131	1.314407	0.445333	0.000063
 409	2.0400e+01	8.1591	-0.586370	-0.000126	-1.263196	-0.427982	0.000060
 410	2.0450e+01	8.1800	-0.557041	0.000123	1.229056	0.416415	0.000059
 411	2.0500e+01	8.2329	-0.524454	0.000137	1.365618	0.462684	0.000065
 412	2.0550e+01	8.2233	-0.494310	-0.000126	-1.263196	-0.427982	0.000060
 413	2.0600e+01	8.2698	-0.461723	0.000137	1.365618	0.462684	0.000065
 414	2.0650e+01	8.2810	-0.434838	0.000113	1.126635	0.381714	0.000054
 415	2.0700e+01	8.2923	-0.401843	0.000138	1.382688	0.468467	0.000066
 416	2.0750e+01	8.2923	-0.370885	-0.000130	-1.297337	-0.439550	0.000062
 417	2.0800e+01	8.3292	-0.338298	0.000137	1.365618	0.462684	0.000065
 418	2.0850e+01	8.3645	-0.312228	0.000109	1.092494	0.370147	0.000052
 419	2.0900e+01	8.3789	-0.278011	0.000143	1.433899	0.485818	0.000068
 420	2.0950e+01	8.4014	-0.248275	0.000125	1.246126	0.422199	0.000059
 421	2.1000e+01	8.4190	-0.219354	0.000121	1.211986	0.410632	0.000058
 422	2.1050e+01	8.4463	-0.189618	0.000125	1.246126	0.422199	0.000059
 423	2.1100e+01	8.4687	-0.158253	0.000131	1.314407	0.445333	0.000063
 424	2.1150e+01	8.4671	-0.124850	-0.000140	-1.399758	-0.474251	0.000067
 425	2.1200e+01	8.4655	-0.089819	-0.000147	-1.468039	-0.497385	0.000070
 426	2.1250e+01	8.5153	-0.058861	0.000130	1.297337	0.439550	0.000062
 427	2.1300e+01	8.5281	-0.033198	0.000108	1.075424	0.364363	0.000051
 428	2.1350e+01	8.5474	0.001426	0.000145	1.450969	0.491602	0.000069
 429	2.1400e+01	8.5618	0.030754	0.000123	1.229056	0.416415	0.000059
 430	2.1450e+01	8.6083	0.059268	0.000119	1.194915	0.404848	0.000057
 431	2.1500e+01	8.6292	0.089004	0.000125	1.246126	0.422199	0.000059
 432	2.1550e+01	8.6340	0.119962	0.000130	1.297337	0.439550	0.000062
 433	2.1600e+01	8.6709	0.145625	0.000108	1.075424	0.364363	0.000051
 434	2.1650e+01	8.6693	0.177805	-0.000135	-1.348547	-0.456900	0.000064
 435	2.1700e+01	8.6965	0.209985	0.000135	1.348547	0.456900	0.000064
 436	2.1750e+01	8.7158	0.238906	0.000121	1.211986	0.410632	0.000058
 437	2.1800e+01	8.7543	0.265384	0.000111	1.109564	0.375931	0.000053
 438	2.1850e+01	8.7623	0.296342	0.000130	1.297337	0.439550	0.000062
 439	2.1900e+01	8.7735	0.326892	0.000128	1.280267	0.433766	0.000061
 440	2.1950e+01	8.8201	0.352555	0.000108	1.075424	0.364363	0.000051
 441	2.2000e+01	8.8056	0.384328	-0.000133	-1.331477	-0.451117	0.000064
 442	2.2050e+01	8.8473	0.413249	0.000121	1.211986	0.410632	0.000058
 443	2.2100e+01	8.8313	0.442985	-0.000125	-1.246126	-0.422199	0.000059
 444	2.2150e+01	8.8746	0.469055	0.000109	1.092494	0.370147	0.000052
 445	2.2200e+01	8.8971	0.502050	0.000138	1.382688	0.468467	0.000066
 446	2.2250e+01	8.9324	0.531786	0.000125	1.246126	0.422199	0.000059
 447	2.2300e+01	8.9179	0.563151	-0.000131	-1.314407	-0.445333	0.000063
 448	2.2350e+01	8.9580	0.592480	0.000123	1.229056	0.416415	0.000059
 449	2.2400e+01	8.9356	0.619772	-0.000114	-1.143705	-0.387498	0.000055
 450	2.2450e+01	8.9949	0.652359	0.000137	1.365618	0.462684	0.000065
 451	2.2500e+01	9.0126	0.680058	0.000116	1.160775	0.393281	0.000055
 452	2.2550e+01	9.0511	0.707350	0.000114	1.143705	0.387498	0.000055
 453	2.2600e+01	9.0415	0.737494	-0.000126	-1.263196	-0.427982	0.000060
 454	2.2650e+01	9.0703	0.768044	0.000128	1.280267	0.433766	0.000061
 455	2.2700e+01	9.0800	0.797780	0.000125	1.246126	0.422199	0.000059
 456	2.2750e+01	9.1088	0.825480	0.000116	1.160775	0.393281	0.000055
 457	2.2800e+01	9.1393	0.856438	0.000130	1.297337	0.439550	0.000062
 458	2.2850e+01	9.1313	0.880064	-0.000099	-0.990073	-0.335446	0.000047
 459	2.2900e+01	9.1570	0.913873	0.000142	1.416828	0.480034	0.000068
 460	2.2950e+01	9.1826	0.945646	0.000133	1.331477	0.451117	0.000064
 461	2.3000e+01	9.1842	0.970494	0.000104	1.041283	0.352796	0.000050
 462	2.3050e+01	9.2500	1.002674	0.000135	1.348547	0.456900	0.000064
 463	2.3100e+01	9.2677	1.029558	0.000113	1.126635	0.381714	0.000054
 464	2.3150e+01	9.2789	1.058072	0.000119	1.194915	0.404848	0.000057
 465	2.3200e+01	9.2949	1.086586	0.000119	1.194915	0.404848	0.000057
 466	2.3250e+01	9.2997	1.117544	0.000130	1.297337	0.439550	0.000062
 467	2.3300e+01	9.3254	1.146873	0.000123	1.229056	0.416415	0.000059
 468	2.3350e+01	9.3366	1.174165	0.000114	1.143705	0.387498	0.000055
 469	2.3400e+01	9.3928	1.199420	0.000106	1.058354	0.358580	0.000051
 470	2.3450e+01	9.3864	1.231193	-0.000133	-1.331477	-0.451117	0.000064
 471	2.3500e+01	9.4297	1.262966	0.000133	1.331477	0.451117	0.000064
 472	2.3550e+01	9.4088	1.292294	-0.000123	-1.229056	-0.416415	0.000059
 473	2.3600e+01	9.4489	1.321623	0.000123	1.229056	0.416415	0.000059
 474	2.3650e+01	9.4874	1.348915	0.000114	1.143705	0.387498	0.000055
 475	2.3700e+01	9.5115	1.377021	0.000118	1.177845	0.399065	0.000056
 476	2.3750e+01	9.5243	1.405943	0.000121	1.211986	0.410632	0.000058
 477	2.3800e+01	9.5275	1.436494	0.000128	1.280267	0.433766	0.000061
 478	2.3850e+01	9.5404	1.469081	0.000137	1.365618	0.462684	0.000065
 479	2.3900e+01	9.5644	1.494336	0.000106	1.058354	0.358580	0.000051
 480	2.3950e+01	9.5981	1.519999	0.000108	1.075424	0.364363	0.000051
 481	2.4000e+01	9.5981	1.551364	-0.000131	-1.314407	-0.445333	0.000063
 482	2.4050e+01	9.6479	1.579471	0.000118	1.177845	0.399065	0.000056
 483	2.4100e+01	9.6591	1.607577	0.000118	1.177845	0.399065	0.000056
 484	2.4150e+01	9.6767	1.638128	0.000128	1.280267	0.433766	0.000061
 485	2.4200e+01	9.6992	1.665013	0.000113	1.126635	0.381714	0.000054
 486	2.4250e+01	9.7233	1.689861	0.000104	1.041283	0.352796	0.000050
 487	2.4300e+01	9.7409	1.721633	0.000133	1.331477	0.451117	0.000064
 488	2.4350e+01	9.7826	1.750147	0.000119	1.194915	0.404848	0.000057
 489	2.4400e+01	9.7569	1.779069	-0.000121	-1.211986	-0.410632	0.000058
 490	2.4450e+01	9.7714	1.806361	0.000114	1.143705	0.387498	0.000055
 491	2.4500e+01	9.8115	1.838541	0.000135	1.348547	0.456900	0.000064
 492	2.4550e+01	9.8307	1.866240	0.000116	1.160775	0.393281	0.000055
 493	2.4600e+01	9.8211	1.891902	-0.000108	-1.075424	-0.364363	0.000051
 494	2.4650e+01	9.8805	1.920416	0.000119	1.194915	0.404848	0.000057
 495	2.4700e+01	9.8853	1.950152	0.000125	1.246126	0.422199	0.000059
 496	2.4750e+01	9.9126	1.978259	0.000118	1.177845	0.399065	0.000056
 497	2.4800e+01	9.9318	2.005144	0.000113	1.126635	0.381714	0.000054
 498	2.4850e+01	9.9398	2.033250	0.000118	1.177845	0.399065	0.000056
 499	2.4900e+01	9.9815	2.065023	0.000133	1.331477	0.451117	0.000064
 500	2.4950e+01	9.9847	2.092722	0.000116	1.160775	0.393281	0.000055
 501	2.5000e+01	10.0104	2.122866	0.000126	1.263196	0.427982	0.000060
 502	2.5050e+01	10.0281	2.146899	0.000101	1.007143	0.341229	0.000048
 503	2.5100e+01	10.0730	2.176228	0.000123	1.229056	0.416415	0.000059
 504	2.5150e+01	10.0746	2.205149	0.000121	1.211986	0.410632	0.000058
 505	2.5200e+01	10.0842	2.240180	0.000147	1.468039	0.497385	0.000070
 506	2.5250e+01	10.1259	2.261770	0.000090	0.904722	0.306528	0.000043
 507	2.5300e+01	10.1564	2.293950	0.000135	1.348547	0.456900	0.000064
 508	2.5350e+01	10.1789	2.321649	0.000116	1.160775	0.393281	0.000055
 509	2.5400e+01	10.1692	2.354644	-0.000138	-1.382688	-0.468467	0.000066
 510	2.5450e+01	10.1965	2.381121	0.000111	1.109564	0.375931	0.000053
 511	2.5500e+01	10.1869	2.408413	-0.000114	-1.143705	-0.387498	0.000055
 512	2.5550e+01	10.2414	2.435705	0.000114	1.143705	0.387498	0.000055
 513	2.5600e+01	10.2559	2.467885	0.000135	1.348547	0.456900	0.000064
 514	2.5650e+01	10.2815	2.498843	0.000130	1.297337	0.439550	0.000062
 515	2.5700e+01	10.3200	2.523283	0.000102	1.024213	0.347013	0.000049
 516	2.5750e+01	10.3152	2.554649	-0.000131	-1.314407	-0.445333	0.000063
 517	2.5800e+01	10.3361	2.583570	0.000121	1.211986	0.410632	0.000058
 518	2.5850e+01	10.3617	2.612899	0.000123	1.229056	0.416415	0.000059
 519	2.5900e+01	10.3906	2.639376	0.000111	1.109564	0.375931	0.000053
 520	2.5950e+01	10.4002	2.671963	0.000137	1.365618	0.462684	0.000065
 521	2.6000e+01	10.4339	2.695182	0.000097	0.973003	0.329662	0.000046
 522	2.6050e+01	10.4403	2.722881	0.000116	1.160775	0.393281	0.000055
 523	2.6100e+01	10.4339	2.748951	-0.000109	-1.092494	-0.370147	0.000052
 524	2.6150e+01	10.4644	2.783983	0.000147	1.468039	0.497385	0.000070
 525	2.6200e+01	10.5141	2.811682	0.000116	1.160775	0.393281	0.000055
 526	2.6250e+01	10.5270	2.843455	0.000133	1.331477	0.451117	0.000064
 527	2.6300e+01	10.5206	2.870747	-0.000114	-1.143705	-0.387498	0.000055
 528	2.6350e+01	10.5334	2.898446	0.000116	1.160775	0.393281	0.000055
 529	2.6400e+01	10.5719	2.928997	0.000128	1.280267	0.433766	0.000061
 530	2.6450e+01	10.5847	2.957511	0.000119	1.194915	0.404848	0.000057
 531	2.6500e+01	10.6072	2.986432	0.000121	1.211986	0.410632	0.000058
 532	2.6550e+01	10.6184	3.014131	0.000116	1.160775	0.393281	0.000055
 533	2.6600e+01	10.6425	3.044682	0.000128	1.280267	0.433766	0.000061
 534	2.6650e+01	10.6617	3.070752	0.000109	1.092494	0.370147	0.000052
 535	2.6700e+01	10.6922	3.098858	0.000118	1.177845	0.399065	0.000056
 536	2.6750e+01	10.7211	3.129409	0.000128	1.280267	0.433766	0.000061
 537	2.6800e+01	10.7195	3.157516	-0.000118	-1.177845	-0.399065	0.000056
 538	2.6850e+01	10.7869	3.181142	0.000099	0.990073	0.335446	0.000047
 539	2.6900e+01	10.7644	3.212100	-0.000130	-1.297337	-0.439550	0.000062
 540	2.6950e+01	10.7917	3.239392	0.000114	1.143705	0.387498	0.000055
 541	2.7000e+01	10.8125	3.266684	0.000114	1.143705	0.387498	0.000055
 542	2.7050e+01	10.8494	3.293161	0.000111	1.109564	0.375931	0.000053
 543	2.7100e+01	10.8462	3.320860	-0.000116	-1.160775	-0.393281	0.000055
 544	2.7150e+01	10.8591	3.351411	0.000128	1.280267	0.433766	0.000061
 545	2.7200e+01	10.9024	3.376666	0.000106	1.058354	0.358580	0.000051
 546	2.7250e+01	10.9280	3.401921	0.000106	1.058354	0.358580	0.000051
 547	2.7300e+01	10.9168	3.431250	-0.000123	-1.229056	-0.416415	0.000059
 548	2.7350e+01	10.9505	3.455691	0.000102	1.024213	0.347013	0.000049
 549	2.7400e+01	10.9665	3.488278	0.000137	1.365618	0.462684	0.000065
 550	2.7450e+01	10.9922	3.512718	0.000102	1.024213	0.347013	0.000049
 551	2.7500e+01	11.0034	3.542454	0.000125	1.246126	0.422199	0.000059
 552	2.7550e+01	11.0243	3.567302	0.000104	1.041283	0.352796	0.000050
 553	2.7600e+01	11.0708	3.598260	0.000130	1.297337	0.439550	0.000062
 554	2.7650e+01	11.0628	3.622294	-0.000101	-1.007143	-0.341229	0.000048
 555	2.7700e+01	11.0901	3.647956	0.000108	1.075424	0.364363	0.000051
 556	2.7750e+01	11.1205	3.677285	0.000123	1.229056	0.416415	0.000059
 557	2.7800e+01	11.1238	3.704169	0.000113	1.126635	0.381714	0.000054
 558	2.7850e+01	11.1703	3.734313	0.000126	1.263196	0.427982	0.000060
 559	2.7900e+01	11.1975	3.755087	0.000087	0.870581	0.294961	0.000042
 560	2.7950e+01	11.2040	3.784416	0.000123	1.229056	0.416415	0.000059
 561	2.8000e+01	11.2248	3.812930	0.000119	1.194915	0.404848	0.000057
 562	2.8050e+01	11.2360	3.839815	0.000113	1.126635	0.381714	0.000054
 563	2.8100e+01	11.2569	3.863848	0.000101	1.007143	0.341229	0.000048
 564	2.8150e+01	11.2601	3.891547	0.000116	1.160775	0.393281	0.000055
 565	2.8200e+01	11.2697	3.914766	0.000097	0.973003	0.329662	0.000046
 566	2.8250e+01	11.2842	3.940428	0.000108	1.075424	0.364363	0.000051
 567	2.8300e+01	11.3147	3.966091	0.000108	1.075424	0.364363	0.000051
 568	2.8350e+01	11.3499	3.989309	0.000097	0.973003	0.329662	0.000046
 569	2.8400e+01	11.3868	4.017823	0.000119	1.194915	0.404848	0.000057
 570	2.8450e+01	11.3756	4.041856	-0.000101	-1.007143	-0.341229	0.000048
 571	2.8500e+01	11.4045	4.068334	0.000111	1.109564	0.375931	0.000053
 572	2.8550e+01	11.4157	4.091960	0.000099	0.990073	0.335446	0.000047
 573	2.8600e+01	11.4751	4.121288	0.000123	1.229056	0.416415	0.000059
 574	2.8650e+01	11.4719	4.144914	-0.000099	-0.990073	-0.335446	0.000047
 575	2.8700e+01	11.4879	4.168540	0.000099	0.990073	0.335446	0.000047
 576	2.8750e+01	11.5120	4.195425	0.000113	1.126635	0.381714	0.000054
 577	2.8800e+01	11.5344	4.221087	0.000108	1.075424	0.364363	0.000051
 578	2.8850e+01	11.5280	4.246342	-0.000106	-1.058354	-0.358580	0.000051
 579	2.8900e+01	11.5697	4.273634	0.000114	1.143705	0.387498	0.000055
 580	2.8950e+01	11.6002	4.296853	0.000097	0.973003	0.329662	0.000046
 581	2.9000e+01	11.6114	4.326589	0.000125	1.246126	0.422199	0.000059
 582	2.9050e+01	11.6339	4.353474	0.000113	1.126635	0.381714	0.000054
 583	2.9100e+01	11.6531	4.376285	0.000096	0.955932	0.323879	0.000046
 584	2.9150e+01	11.6836	4.401133	0.000104	1.041283	0.352796	0.000050
 585	2.9200e+01	11.7109	4.428832	0.000116	1.160775	0.393281	0.000055
 586	2.9250e+01	11.7285	4.452458	0.000099	0.990073	0.335446	0.000047
 587	2.9300e+01	11.7366	4.475676	0.000097	0.973003	0.329662	0.000046
 588	2.9350e+01	11.7478	4.504598	0.000121	1.211986	0.410632	0.000058
 589	2.9400e+01	11.7799	4.527001	0.000094	0.938862	0.318095	0.000045
 590	2.9450e+01	11.8232	4.550627	0.000099	0.990073	0.335446	0.000047
 591	2.9500e+01	11.8136	4.574661	-0.000101	-1.007143	-0.341229	0.000048
 592	2.9550e+01	11.8360	4.601138	0.000111	1.109564	0.375931	0.000053
 593	2.9600e+01	11.8505	4.628837	0.000116	1.160775	0.393281	0.000055
 594	2.9650e+01	11.8809	4.654500	0.000108	1.075424	0.364363	0.000051
 595	2.9700e+01	11.8922	4.678940	0.000102	1.024213	0.347013	0.000049
 596	2.9750e+01	11.9211	4.705010	0.000109	1.092494	0.370147	0.000052
 597	2.9800e+01	11.9291	4.728636	0.000099	0.990073	0.335446	0.000047
 598	2.9850e+01	11.9403	4.753891	0.000106	1.058354	0.358580	0.000051
 599	2.9900e+01	11.9371	4.781183	-0.000114	-1.143705	-0.387498	0.000055
 600	2.9950e+01	12.0013	4.808068	0.000113	1.126635	0.381714	0.000054
 601	3.0000e+01	12.0077	4.832508	0.000102	1.024213	0.347013	0.000049
 602	3.0050e+01	12.0285	4.860208	0.000116	1.160775	0.393281	0.000055
 603	3.0100e+01	12.0735	4.883834	0.000099	0.990073	0.335446	0.000047
 604	3.0150e+01	12.0574	4.911533	-0.000116	-1.160775	-0.393281	0.000055
 605	3.0200e+01	12.0799	4.938825	0.000114	1.143705	0.387498	0.000055
 606	3.0250e+01	12.1023	4.960007	0.000089	0.887651	0.300744	0.000042
 607	3.0300e+01	12.1424	4.982818	0.000096	0.955932	0.323879	0.000046
 608	3.0350e+01	12.1424	5.012961	-0.000126	-1.263196	-0.427982	0.000060
 609	3.0400e+01	12.1745	5.038216	0.000106	1.058354	0.358580	0.000051
 610	3.0450e+01	12.1890	5.065916	0.000116	1.160775	0.393281	0.000055
 611	3.0500e+01	12.2435	5.091986	0.000109	1.092494	0.370147	0.000052
 612	3.0550e+01	12.2259	5.113575	-0.000090	-0.904722	-0.306528	0.000043
 613	3.0600e+01	12.2371	5.142903	0.000123	1.229056	0.416415	0.000059
 614	3.0650e+01	12.2628	5.167751	0.000104	1.041283	0.352796	0.000050
 615	3.0700e+01	12.2772	5.194229	0.000111	1.109564	0.375931	0.000053
 616	3.0750e+01	12.3045	5.217854	0.000099	0.990073	0.335446	0.000047
 617	3.0800e+01	12.3478	5.245554	0.000116	1.160775	0.393281	0.000055
 618	3.0850e+01	12.3221	5.271216	-0.000108	-1.075424	-0.364363	0.000051
 619	3.0900e+01	12.4103	5.297694	0.000111	1.109564	0.375931	0.000053
 620	3.0950e+01	12.3911	5.318061	-0.000085	-0.853511	-0.289177	0.000041
 621	3.1000e+01	12.3863	5.347389	-0.000123	-1.229056	-0.416415	0.000059
 622	3.1050e+01	12.4424	5.372645	0.000106	1.058354	0.358580	0.000051
 623	3.1100e+01	12.4456	5.398307	0.000108	1.075424	0.364363	0.000051
 624	3.1150e+01	12.4777	5.423562	0.000106	1.058354	0.358580	0.000051
 625	3.1200e+01	12.4938	5.449225	0.000108	1.075424	0.364363	0.000051
 626	3.1250e+01	12.5082	5.477332	0.000118	1.177845	0.399065	0.000056
 627	3.1300e+01	12.4986	5.500957	-0.000099	-0.990073	-0.335446	0.000047
 628	3.1350e+01	12.5451	5.528249	0.000114	1.143705	0.387498	0.000055
 629	3.1400e+01	12.5740	5.554727	0.000111	1.109564	0.375931	0.000053
 630	3.1450e+01	12.5820	5.575501	0.000087	0.870581	0.294961	0.000042
 631	3.1500e+01	12.6317	5.604422	0.000121	1.211986	0.410632	0.000058
 632	3.1550e+01	12.6333	5.632529	0.000118	1.177845	0.399065	0.000056
 633	3.1600e+01	12.6430	5.656970	0.000102	1.024213	0.347013	0.000049
 634	3.1650e+01	12.6510	5.678966	0.000092	0.921792	0.312312	0.000044
 635	3.1700e+01	12.6847	5.705443	0.000111	1.109564	0.375931	0.000053
 636	3.1750e+01	12.7023	5.733550	0.000118	1.177845	0.399065	0.000056
 637	3.1800e+01	12.7424	5.761657	0.000118	1.177845	0.399065	0.000056
 638	3.1850e+01	12.7713	5.784061	0.000094	0.938862	0.318095	0.000045
 639	3.1900e+01	12.7601	5.807686	-0.000099	-0.990073	-0.335446	0.000047
 640	3.1950e+01	12.8050	5.833756	0.000109	1.092494	0.370147	0.000052
 641	3.2000e+01	12.8210	5.858604	0.000104	1.041283	0.352796	0.000050
 642	3.2050e+01	12.8210	5.887118	-0.000119	-1.194915	-0.404848	0.000057
 643	3.2100e+01	12.8290	5.911559	0.000102	1.024213	0.347013	0.000049
 644	3.2150e+01	12.8467	5.938851	0.000114	1.143705	0.387498	0.000055
 645	3.2200e+01	12.8900	5.964513	0.000108	1.075424	0.364363	0.000051
 646	3.2250e+01	12.9061	5.985695	0.000089	0.887651	0.300744	0.000042
 647	3.2300e+01	12.9221	6.008914	0.000097	0.973003	0.329662	0.000046
 648	3.2350e+01	12.9686	6.035798	0.000113	1.126635	0.381714	0.000054
 649	3.2400e+01	12.9654	6.060646	-0.000104	-1.041283	-0.352796	0.000050
 650	3.2450e+01	12.9686	6.088753	0.000118	1.177845	0.399065	0.000056
 651	3.2500e+01	13.0071	6.111157	0.000094	0.938862	0.318095	0.000045
 652	3.2550e+01	13.0408	6.135597	0.000102	1.024213	0.347013	0.000049
 653	3.2600e+01	13.0216	6.163704	-0.000118	-1.177845	-0.399065	0.000056
 654	3.2650e+01	13.0536	6.186108	0.000094	0.938862	0.318095	0.000045
 655	3.2700e+01	13.0889	6.214214	0.000118	1.177845	0.399065	0.000056
 656	3.2750e+01	13.1034	6.241099	0.000113	1.126635	0.381714	0.000054
 657	3.2800e+01	13.1547	6.267984	0.000113	1.126635	0.381714	0.000054
 658	3.2850e+01	13.1451	6.296090	-0.000118	-1.177845	-0.399065	0.000056
 659	3.2900e+01	13.1483	6.320123	0.000101	1.007143	0.341229	0.000048
 660	3.2950e+01	13.1868	6.344971	0.000104	1.041283	0.352796	0.000050
 661	3.3000e+01	13.1836	6.371041	-0.000109	-1.092494	-0.370147	0.000052
 662	3.3050e+01	13.2494	6.399555	0.000119	1.194915	0.404848	0.000057
 663	3.3100e+01	13.2718	6.425218	0.000108	1.075424	0.364363	0.000051
 664	3.3150e+01	13.2702	6.448436	-0.000097	-0.973003	-0.329662	0.000046
 665	3.3200e+01	13.2879	6.473284	0.000104	1.041283	0.352796	0.000050
 666	3.3250e+01	13.3199	6.501391	0.000118	1.177845	0.399065	0.000056
 667	3.3300e+01	13.3568	6.522980	0.000090	0.904722	0.306528	0.000043
 668	3.3350e+01	13.3376	6.547828	-0.000104	-1.041283	-0.352796	0.000050
 669	3.3400e+01	13.3601	6.575527	0.000116	1.160775	0.393281	0.000055
 670	3.3450e+01	13.3921	6.600782	0.000106	1.058354	0.358580	0.000051
 671	3.3500e+01	13.3857	6.621964	-0.000089	-0.887651	-0.300744	0.000042
 672	3.3550e+01	13.4146	6.647627	0.000108	1.075424	0.364363	0.000051
 673	3.3600e+01	13.4627	6.670438	0.000096	0.955932	0.323879	0.000046
 674	3.3650e+01	13.4740	6.698137	0.000116	1.160775	0.393281	0.000055
 675	3.3700e+01	13.4707	6.722578	-0.000102	-1.024213	-0.347013	0.000049
 676	3.3750e+01	13.5141	6.742945	0.000085	0.853511	0.289177	0.000041
 677	3.3800e+01	13.5590	6.774310	0.000131	1.314407	0.445333	0.000063
 678	3.3850e+01	13.5510	6.795492	-0.000089	-0.887651	-0.300744	0.000042
 679	3.3900e+01	13.5606	6.822377	0.000113	1.126635	0.381714	0.000054
 680	3.3950e+01	13.5702	6.842337	0.000084	0.836441	0.283394	0.000040
 681	3.4000e+01	13.6055	6.869628	0.000114	1.143705	0.387498	0.000055
 682	3.4050e+01	13.6280	6.892440	0.000096	0.955932	0.323879	0.000046
 683	3.4100e+01	13.6633	6.917695	0.000106	1.058354	0.358580	0.000051
 684	3.4150e+01	13.6793	6.942950	0.000106	1.058354	0.358580	0.000051
 685	3.4200e+01	13.6713	6.970242	-0.000114	-1.143705	-0.387498	0.000055
 686	3.4250e+01	13.7066	6.988572	0.000077	0.768160	0.260260	0.000037
 687	3.4300e+01	13.7290	7.016679	0.000118	1.177845	0.399065	0.000056
 688	3.4350e+01	13.7274	7.041527	-0.000104	-1.041283	-0.352796	0.000050
 689	3.4400e+01	13.7627	7.068004	0.000111	1.109564	0.375931	0.000053
 690	3.4450e+01	13.7916	7.092852	0.000104	1.041283	0.352796	0.000050
 691	3.4500e+01	13.8285	7.116071	0.000097	0.973003	0.329662	0.000046
 692	3.4550e+01	13.8237	7.140919	-0.000104	-1.041283	-0.352796	0.000050
 693	3.4600e+01	13.8461	7.166989	0.000109	1.092494	0.370147	0.000052
 694	3.4650e+01	13.8814	7.191429	0.000102	1.024213	0.347013	0.000049
 695	3.4700e+01	13.8959	7.213426	0.000092	0.921792	0.312312	0.000044
 696	3.4750e+01	13.9183	7.235829	0.000094	0.938862	0.318095	0.000045
 697	3.4800e+01	13.9023	7.260270	-0.000102	-1.024213	-0.347013	0.000049
 698	3.4850e+01	13.9312	7.285525	0.000106	1.058354	0.358580	0.000051
 699	3.4900e+01	13.9408	7.311188	0.000108	1.075424	0.364363	0.000051
 700	3.4950e+01	13.9921	7.332370	0.000089	0.887651	0.300744	0.000042
 701	3.5000e+01	14.0258	7.359254	0.000113	1.126635	0.381714	0.000054
 702	3.5050e+01	14.0210	7.380029	-0.000087	-0.870581	-0.294961	0.000042
 703	3.5100e+01	14.0290	7.406913	0.000113	1.126635	0.381714	0.000054
 704	3.5150e+01	14.0643	7.434613	0.000116	1.160775	0.393281	0.000055
 705	3.5200e+01	14.0707	7.459053	0.000102	1.024213	0.347013	0.000049
 706	3.5250e+01	14.1285	7.485123	0.000109	1.092494	0.370147	0.000052
 707	3.5300e+01	14.1477	7.509564	0.000102	1.024213	0.347013	0.000049
 708	3.5350e+01	14.1397	7.534819	-0.000106	-1.058354	-0.358580	0.000051
 709	3.5400e+01	14.1814	7.566184	0.000131	1.314407	0.445333	0.000063
 710	3.5450e+01	14.1894	7.587773	0.000090	0.904722	0.306528	0.000043
 711	3.5500e+01	14.2103	7.614658	0.000113	1.126635	0.381714	0.000054
 712	3.5550e+01	14.2199	7.636247	0.000090	0.904722	0.306528	0.000043
 713	3.5600e+01	14.2648	7.664761	0.000119	1.194915	0.404848	0.000057
 714	3.5650e+01	14.2745	7.688387	0.000099	0.990073	0.335446	0.000047
 715	3.5700e+01	14.2825	7.712828	0.000102	1.024213	0.347013	0.000049
 716	3.5750e+01	14.3162	7.740527	0.000116	1.160775	0.393281	0.000055
 717	3.5800e+01	14.3194	7.768226	0.000116	1.160775	0.393281	0.000055
 718	3.5850e+01	14.3290	7.789815	0.000090	0.904722	0.306528	0.000043
 719	3.5900e+01	14.3691	7.815478	0.000108	1.075424	0.364363	0.000051
 720	3.5950e+01	14.3932	7.842770	0.000114	1.143705	0.387498	0.000055
 721	3.6000e+01	14.4012	7.867210	0.000102	1.024213	0.347013	0.000049
 722	3.6050e+01	14.4301	7.894910	0.000116	1.160775	0.393281	0.000055
 723	3.6100e+01	14.4445	7.917314	0.000094	0.938862	0.318095	0.000045
 724	3.6150e+01	14.4573	7.943791	0.000111	1.109564	0.375931	0.000053
 725	3.6200e+01	14.4991	7.970675	0.000113	1.126635	0.381714	0.000054
 726	3.6250e+01	14.5119	7.997560	0.000113	1.126635	0.381714	0.000054
 727	3.6300e+01	14.5472	8.024445	0.000113	1.126635	0.381714	0.000054
 728	3.6350e+01	14.5440	8.046034	-0.000090	-0.904722	-0.306528	0.000043
 729	3.6400e+01	14.5648	8.072104	0.000109	1.092494	0.370147	0.000052
 730	3.6450e+01	14.5696	8.098581	0.000111	1.109564	0.375931	0.000053
 731	3.6500e+01	14.6114	8.125873	0.000114	1.143705	0.387498	0.000055
 732	3.6550e+01	14.6049	8.154794	-0.000121	-1.211986	-0.410632	0.000058
 733	3.6600e+01	14.6515	8.178420	0.000099	0.990073	0.335446	0.000047
 734	3.6650e+01	14.6980	8.209378	0.000130	1.297337	0.439550	0.000062
 735	3.6700e+01	14.6819	8.232189	-0.000096	-0.955932	-0.323879	0.000046
 736	3.6750e+01	14.6948	8.262333	0.000126	1.263196	0.427982	0.000060
 737	3.6800e+01	14.7140	8.289217	0.000113	1.126635	0.381714	0.000054
 738	3.6850e+01	14.7365	8.316102	0.000113	1.126635	0.381714	0.000054
 739	3.6900e+01	14.7878	8.340135	0.000101	1.007143	0.341229	0.000048
 740	3.6950e+01	14.7894	8.368649	0.000119	1.194915	0.404848	0.000057
 741	3.7000e+01	14.7910	8.394312	0.000108	1.075424	0.364363	0.000051
 742	3.7050e+01	14.8359	8.422418	0.000118	1.177845	0.399065	0.000056
 743	3.7100e+01	14.8456	8.446451	0.000101	1.007143	0.341229	0.000048
 744	3.7150e+01	14.8761	8.472929	0.000111	1.109564	0.375931	0.000053
 745	3.7200e+01	14.8873	8.501035	0.000118	1.177845	0.399065	0.000056
 746	3.7250e+01	14.9242	8.524661	0.000099	0.990073	0.335446	0.000047
 747	3.7300e+01	14.9081	8.552361	-0.000116	-1.160775	-0.393281	0.000055
 748	3.7350e+01	14.9723	8.577208	0.000104	1.041283	0.352796	0.000050
 749	3.7400e+01	14.9723	8.601242	-0.000101	-1.007143	-0.341229	0.000048
 750	3.7450e+01	14.9611	8.630163	-0.000121	-1.211986	-0.410632	0.000058
 751	3.7500e+01	15.0028	8.652974	0.000096	0.955932	0.323879	0.000046
 752	3.7550e+01	15.0461	8.681488	0.000119	1.194915	0.404848	0.000057
 753	3.7600e+01	15.0702	8.711224	0.000125	1.246126	0.422199	0.000059
 754	3.7650e+01	15.0702	8.734035	-0.000096	-0.955932	-0.323879	0.000046
 755	3.7700e+01	15.0750	8.762957	0.000121	1.211986	0.410632	0.000058
 756	3.7750e+01	15.1087	8.788212	0.000106	1.058354	0.358580	0.000051
 757	3.7800e+01	15.1247	8.809394	0.000089	0.887651	0.300744	0.000042
 758	3.7850e+01	15.1568	8.844832	0.000149	1.485109	0.503169	0.000071
 759	3.7900e+01	15.1744	8.873346	0.000119	1.194915	0.404848	0.000057
 760	3.7950e+01	15.1857	8.892084	0.000079	0.785230	0.266043	0.000037
 761	3.8000e+01	15.2001	8.920598	0.000119	1.194915	0.404848	0.000057
 762	3.8050e+01	15.2370	8.947890	0.000114	1.143705	0.387498	0.000055
 763	3.8100e+01	15.2498	8.974367	0.000111	1.109564	0.375931	0.000053
 764	3.8150e+01	15.2450	8.998808	-0.000102	-1.024213	-0.347013	0.000049
 765	3.8200e+01	15.2739	9.021212	0.000094	0.938862	0.318095	0.000045
 766	3.8250e+01	15.3236	9.046874	0.000108	1.075424	0.364363	0.000051
 767	3.8300e+01	15.3156	9.071315	-0.000102	-1.024213	-0.347013	0.000049
 768	3.8350e+01	15.3557	9.097385	0.000109	1.092494	0.370147	0.000052
 769	3.8400e+01	15.3509	9.123455	-0.000109	-1.092494	-0.370147	0.000052
 770	3.8450e+01	15.3862	9.145451	0.000092	0.921792	0.312312	0.000044
 771	3.8500e+01	15.3974	9.168670	0.000097	0.973003	0.329662	0.000046
 772	3.8550e+01	15.4263	9.199221	0.000128	1.280267	0.433766	0.000061
 773	3.8600e+01	15.4295	9.220810	0.000090	0.904722	0.306528	0.000043
 774	3.8650e+01	15.4632	9.249324	0.000119	1.194915	0.404848	0.000057
 775	3.8700e+01	15.5097	9.271320	0.000092	0.921792	0.312312	0.000044
 776	3.8750e+01	15.5145	9.298205	0.000113	1.126635	0.381714	0.000054
 777	3.8800e+01	15.5210	9.320609	0.000094	0.938862	0.318095	0.000045
 778	3.8850e+01	15.5498	9.345864	0.000106	1.058354	0.358580	0.000051
 779	3.8900e+01	15.5771	9.375600	0.000125	1.246126	0.422199	0.000059
 780	3.8950e+01	15.5964	9.401670	0.000109	1.092494	0.370147	0.000052
 781	3.9000e+01	15.5996	9.423666	0.000092	0.921792	0.312312	0.000044
 782	3.9050e+01	15.6381	9.449329	0.000108	1.075424	0.364363	0.000051
 783	3.9100e+01	15.6637	9.476621	0.000114	1.143705	0.387498	0.000055
 784	3.9150e+01	15.6766	9.499432	0.000096	0.955932	0.323879	0.000046
 785	3.9200e+01	15.6958	9.522650	0.000097	0.973003	0.329662	0.000046
 786	3.9250e+01	15.7070	9.550350	0.000116	1.160775	0.393281	0.000055
 787	3.9300e+01	15.7488	9.577234	0.000113	1.126635	0.381714	0.000054
 788	3.9350e+01	15.7680	9.601268	0.000101	1.007143	0.341229	0.000048
 789	3.9400e+01	15.7840	9.627338	0.000109	1.092494	0.370147	0.000052
 790	3.9450e+01	15.7808	9.651778	-0.000102	-1.024213	-0.347013	0.000049
 791	3.9500e+01	15.8081	9.671738	0.000084	0.836441	0.283394	0.000040
 792	3.9550e+01	15.8145	9.700252	0.000119	1.194915	0.404848	0.000057
 793	3.9600e+01	15.8739	9.726729	0.000111	1.109564	0.375931	0.000053
 794	3.9650e+01	15.8514	9.750355	-0.000099	-0.990073	-0.335446	0.000047
 795	3.9700e+01	15.9012	9.778462	0.000118	1.177845	0.399065	0.000056
 796	3.9750e+01	15.9140	9.804124	0.000108	1.075424	0.364363	0.000051
 797	3.9800e+01	15.9493	9.828157	0.000101	1.007143	0.341229	0.000048
 798	3.9850e+01	15.9445	9.851783	-0.000099	-0.990073	-0.335446	0.000047
 799	3.9900e+01	15.9830	9.876631	0.000104	1.041283	0.352796	0.000050
 800	3.9950e+01	16.0086	9.896591	0.000084	0.836441	0.283394	0.000040
 801	4.0000e+01	16.0135	9.924290	0.000116	1.160775	0.393281	0.000055
 802	4.0050e+01	16.0295	9.949545	0.000106	1.058354	0.358580	0.000051
 803	4.0100e+01	16.0391	9.976430	0.000113	1.126635	0.381714	0.000054
 804	4.0150e+01	16.0696	9.998019	0.000090	0.904722	0.306528	0.000043
 805	4.0200e+01	16.1129	10.022867	0.000104	1.041283	0.352796	0.000050
 806	4.0250e+01	16.1354	10.051381	0.000119	1.194915	0.404848	0.000057
 807	4.0300e+01	16.1193	10.078673	-0.000114	-1.143705	-0.387498	0.000055
 808	4.0350e+01	16.1306	10.097411	0.000079	0.785230	0.266043	0.000037
 809	4.0400e+01	16.1642	10.119407	0.000092	0.921792	0.312312	0.000044
 810	4.0450e+01	16.1867	10.149551	0.000126	1.263196	0.427982	0.000060
 811	4.0500e+01	16.2188	10.173584	0.000101	1.007143	0.341229	0.000048
 812	4.0550e+01	16.2252	10.202098	0.000119	1.194915	0.404848	0.000057
 813	4.0600e+01	16.2685	10.224502	0.000094	0.938862	0.318095	0.000045
 814	4.0650e+01	16.2653	10.250164	-0.000108	-1.075424	-0.364363	0.000051
 815	4.0700e+01	16.2878	10.275012	0.000104	1.041283	0.352796	0.000050
 816	4.0750e+01	16.3199	10.303119	0.000118	1.177845	0.399065	0.000056
 817	4.0800e+01	16.3439	10.319413	0.000068	0.682809	0.231342	0.000033
 818	4.0850e+01	16.3600	10.347927	0.000119	1.194915	0.404848	0.000057
 819	4.0900e+01	16.3471	10.369108	-0.000089	-0.887651	-0.300744	0.000042
 820	4.0950e+01	16.3760	10.398844	0.000125	1.246126	0.422199	0.000059
 821	4.1000e+01	16.4161	10.421656	0.000096	0.955932	0.323879	0.000046
 822	4.1050e+01	16.4289	10.451392	0.000125	1.246126	0.422199	0.000059
 823	4.1100e+01	16.4434	10.468907	0.000073	0.734019	0.248693	0.000035
 824	4.1150e+01	16.4707	10.494162	0.000106	1.058354	0.358580	0.000051
 825	4.1200e+01	16.5092	10.523084	0.000121	1.211986	0.410632	0.000058
 826	4.1250e+01	16.4899	10.547932	-0.000104	-1.041283	-0.352796	0.000050
 827	4.1300e+01	16.5092	10.569114	0.000089	0.887651	0.300744	0.000042
 828	4.1350e+01	16.5156	10.592332	0.000097	0.973003	0.329662	0.000046
 829	4.1400e+01	16.5557	10.617995	0.000108	1.075424	0.364363	0.000051
 830	4.1450e+01	16.6054	10.642843	0.000104	1.041283	0.352796	0.000050
 831	4.1500e+01	16.6247	10.667690	0.000104	1.041283	0.352796	0.000050
 832	4.1550e+01	16.6118	10.694575	-0.000113	-1.126635	-0.381714	0.000054
 833	4.1600e+01	16.6423	10.720645	0.000109	1.092494	0.370147	0.000052
 834	4.1650e+01	16.6776	10.740605	0.000084	0.836441	0.283394	0.000040
 835	4.1700e+01	16.7097	10.766675	0.000109	1.092494	0.370147	0.000052
 836	4.1750e+01	16.7338	10.792337	0.000108	1.075424	0.364363	0.000051
 837	4.1800e+01	16.7305	10.815148	-0.000096	-0.955932	-0.323879	0.000046
 838	4.1850e+01	16.7530	10.845292	0.000126	1.263196	0.427982	0.000060
 839	4.1900e+01	16.7690	10.868103	0.000096	0.955932	0.323879	0.000046
 840	4.1950e+01	16.7819	10.897432	0.000123	1.229056	0.416415	0.000059
 841	4.2000e+01	16.8027	10.921465	0.000101	1.007143	0.341229	0.000048
 842	4.2050e+01	16.8204	10.948349	0.000113	1.126635	0.381714	0.000054
 843	4.2100e+01	16.8412	10.970346	0.000092	0.921792	0.312312	0.000044
 844	4.2150e+01	16.8749	10.995194	0.000104	1.041283	0.352796	0.000050
 845	4.2200e+01	16.8974	11.020449	0.000106	1.058354	0.358580	0.000051
 846	4.2250e+01	16.8813	11.050592	-0.000126	-1.263196	-0.427982	0.000060
 847	4.2300e+01	16.9263	11.072996	0.000094	0.938862	0.318095	0.000045
 848	4.2350e+01	16.9535	11.097437	0.000102	1.024213	0.347013	0.000049
 849	4.2400e+01	16.9680	11.124321	0.000113	1.126635	0.381714	0.000054
 850	4.2450e+01	16.9872	11.146318	0.000092	0.921792	0.312312	0.000044
 851	4.2500e+01	17.0017	11.174425	0.000118	1.177845	0.399065	0.000056
 852	4.2550e+01	17.0530	11.200087	0.000108	1.075424	0.364363	0.000051
 853	4.2600e+01	17.0690	11.224935	0.000104	1.041283	0.352796	0.000050
 854	4.2650e+01	17.0738	11.251820	0.000113	1.126635	0.381714	0.000054
 855	4.2700e+01	17.0642	11.272594	-0.000087	-0.870581	-0.294961	0.000042
 856	4.2750e+01	17.1075	11.302737	0.000126	1.263196	0.427982	0.000060
 857	4.2800e+01	17.1669	11.321068	0.000077	0.768160	0.260260	0.000037
 858	4.2850e+01	17.1316	11.355285	-0.000143	-1.433899	-0.485818	0.000068
 859	4.2900e+01	17.1685	11.373615	0.000077	0.768160	0.260260	0.000037
 860	4.2950e+01	17.1733	11.402129	0.000119	1.194915	0.404848	0.000057
 861	4.3000e+01	17.1701	11.425755	-0.000099	-0.990073	-0.335446	0.000047
 862	4.3050e+01	17.2134	11.457120	0.000131	1.314407	0.445333	0.000063
 863	4.3100e+01	17.2615	11.477080	0.000084	0.836441	0.283394	0.000040
 864	4.3150e+01	17.2744	11.505187	0.000118	1.177845	0.399065	0.000056
 865	4.3200e+01	17.2856	11.529627	0.000102	1.024213	0.347013	0.000049
 866	4.3250e+01	17.3177	11.559771	0.000126	1.263196	0.427982	0.000060
 867	4.3300e+01	17.3305	11.580545	0.000087	0.870581	0.294961	0.000042
 868	4.3350e+01	17.3450	11.603764	0.000097	0.973003	0.329662	0.000046
 869	4.3400e+01	17.3899	11.629426	0.000108	1.075424	0.364363	0.000051
 870	4.3450e+01	17.3642	11.655089	-0.000108	-1.075424	-0.364363	0.000051
 871	4.3500e+01	17.3883	11.681159	0.000109	1.092494	0.370147	0.000052
 872	4.3550e+01	17.4236	11.702748	0.000090	0.904722	0.306528	0.000043
 873	4.3600e+01	17.4589	11.728410	0.000108	1.075424	0.364363	0.000051
 874	4.3650e+01	17.4990	11.756110	0.000116	1.160775	0.393281	0.000055
 875	4.3700e+01	17.5118	11.777699	0.000090	0.904722	0.306528	0.000043
 876	4.3750e+01	17.5134	11.802954	0.000106	1.058354	0.358580	0.000051
 877	4.3800e+01	17.5391	11.826987	0.000101	1.007143	0.341229	0.000048
 878	4.3850e+01	17.5391	11.848984	-0.000092	-0.921792	-0.312312	0.000044
 879	4.3900e+01	17.5455	11.873017	0.000101	1.007143	0.341229	0.000048
 880	4.3950e+01	17.5968	11.901124	0.000118	1.177845	0.399065	0.000056
 881	4.4000e+01	17.6081	11.922305	0.000089	0.887651	0.300744	0.000042
 882	4.4050e+01	17.6385	11.950412	0.000118	1.177845	0.399065	0.000056
 883	4.4100e+01	17.6337	11.974445	-0.000101	-1.007143	-0.341229	0.000048
 884	4.4150e+01	17.6594	11.997256	0.000096	0.955932	0.323879	0.000046
 885	4.4200e+01	17.7043	12.023326	0.000109	1.092494	0.370147	0.000052
 886	4.4250e+01	17.7236	12.043694	0.000085	0.853511	0.289177	0.000041
 887	4.4300e+01	17.7300	12.072208	0.000119	1.194915	0.404848	0.000057
 888	4.4350e+01	17.7556	12.097055	0.000104	1.041283	0.352796	0.000050
 889	4.4400e+01	17.7829	12.118645	0.000090	0.904722	0.306528	0.000043
 890	4.4450e+01	17.7893	12.146751	0.000118	1.177845	0.399065	0.000056
 891	4.4500e+01	17.7958	12.168340	0.000090	0.904722	0.306528	0.000043
 892	4.4550e+01	17.8278	12.191966	0.000099	0.990073	0.335446	0.000047
 893	4.4600e+01	17.8503	12.212333	0.000085	0.853511	0.289177	0.000041
 894	4.4650e+01	17.8760	12.240033	0.000116	1.160775	0.393281	0.000055
 895	4.4700e+01	17.8824	12.263251	0.000097	0.973003	0.329662	0.000046
 896	4.4750e+01	17.9032	12.289728	0.000111	1.109564	0.375931	0.000053
 897	4.4800e+01	17.9145	12.311725	0.000092	0.921792	0.312312	0.000044
 898	4.4850e+01	17.9578	12.328426	0.000070	0.699879	0.237125	0.000033
 899	4.4900e+01	17.9883	12.356125	0.000116	1.160775	0.393281	0.000055
 900	4.4950e+01	17.9802	12.377714	-0.000090	-0.904722	-0.306528	0.000043
 901	4.5000e+01	17.9818	12.402562	0.000104	1.041283	0.352796	0.000050
 902	4.5050e+01	18.0220	12.425781	0.000097	0.973003	0.329662	0.000046
 903	4.5100e+01	18.0396	12.451036	0.000106	1.058354	0.358580	0.000051
 904	4.5150e+01	18.0524	12.469367	0.000077	0.768160	0.260260	0.000037
 905	4.5200e+01	18.1006	12.491363	0.000092	0.921792	0.312312	0.000044
 906	4.5250e+01	18.1054	12.514174	0.000096	0.955932	0.323879	0.000046
 907	4.5300e+01	18.1326	12.539837	0.000108	1.075424	0.364363	0.000051
 908	4.5350e+01	18.1535	12.562648	0.000096	0.955932	0.323879	0.000046
 909	4.5400e+01	18.1631	12.586681	0.000101	1.007143	0.341229	0.000048
 910	4.5450e+01	18.1760	12.609492	0.000096	0.955932	0.323879	0.000046
 911	4.5500e+01	18.2064	12.631489	0.000092	0.921792	0.312312	0.000044
 912	4.5550e+01	18.2225	12.652671	0.000089	0.887651	0.300744	0.000042
 913	4.5600e+01	18.2883	12.675075	0.000094	0.938862	0.318095	0.000045
 914	4.5650e+01	18.2883	12.699108	-0.000101	-1.007143	-0.341229	0.000048
 915	4.5700e+01	18.2915	12.725992	0.000113	1.126635	0.381714	0.000054
 916	4.5750e+01	18.3380	12.745952	0.000084	0.836441	0.283394	0.000040
 917	4.5800e+01	18.3235	12.772837	-0.000113	-1.126635	-0.381714	0.000054
 918	4.5850e+01	18.3572	12.794019	0.000089	0.887651	0.300744	0.000042
 919	4.5900e+01	18.3669	12.817644	0.000099	0.990073	0.335446	0.000047
 920	4.5950e+01	18.3813	12.843307	0.000108	1.075424	0.364363	0.000051
 921	4.6000e+01	18.4310	12.862859	0.000082	0.819371	0.277610	0.000039
 922	4.6050e+01	18.4358	12.883634	0.000087	0.870581	0.294961	0.000042
 923	4.6100e+01	18.4631	12.908074	0.000102	1.024213	0.347013	0.000049
 924	4.6150e+01	18.4615	12.928442	-0.000085	-0.853511	-0.289177	0.000041
 925	4.6200e+01	18.4984	12.952882	0.000102	1.024213	0.347013	0.000049
 926	4.6250e+01	18.5273	12.974064	0.000089	0.887651	0.300744	0.000042
 927	4.6300e+01	18.5225	12.997282	-0.000097	-0.973003	-0.329662	0.000046
 928	4.6350e+01	18.5241	13.024574	0.000114	1.143705	0.387498	0.000055
 929	4.6400e+01	18.5578	13.042905	0.000077	0.768160	0.260260	0.000037
 930	4.6450e+01	18.5898	13.071011	0.000118	1.177845	0.399065	0.000056
 931	4.6500e+01	18.5947	13.090564	0.000082	0.819371	0.277610	0.000039
 932	4.6550e+01	18.6235	13.117449	0.000113	1.126635	0.381714	0.000054
 933	4.6600e+01	18.6428	13.139852	0.000094	0.938862	0.318095	0.000045
 934	4.6650e+01	18.6733	13.163478	0.000099	0.990073	0.335446	0.000047
 935	4.6700e+01	18.6861	13.190363	0.000113	1.126635	0.381714	0.000054
 936	4.6750e+01	18.7054	13.210323	0.000084	0.836441	0.283394	0.000040
 937	4.6800e+01	18.7743	13.238837	0.000119	1.194915	0.404848	0.000057
 938	4.6850e+01	18.7439	13.262462	-0.000099	-0.990073	-0.335446	0.000047
 939	4.6900e+01	18.7743	13.285681	0.000097	0.973003	0.329662	0.000046
 940	4.6950e+01	18.7727	13.305233	-0.000082	-0.819371	-0.277610	0.000039
 941	4.7000e+01	18.8000	13.328045	0.000096	0.955932	0.323879	0.000046
 942	4.7050e+01	18.8193	13.352485	0.000102	1.024213	0.347013	0.000049
 943	4.7100e+01	18.8513	13.374889	0.000094	0.938862	0.318095	0.000045
 944	4.7150e+01	18.8738	13.405440	0.000128	1.280267	0.433766	0.000061
 945	4.7200e+01	18.8947	13.423770	0.000077	0.768160	0.260260	0.000037
 946	4.7250e+01	18.9203	13.453099	0.000123	1.229056	0.416415	0.000059
 947	4.7300e+01	18.9492	13.473466	0.000085	0.853511	0.289177	0.000041
 948	4.7350e+01	18.9733	13.496277	0.000096	0.955932	0.323879	0.000046
 949	4.7400e+01	18.9941	13.521532	0.000106	1.058354	0.358580	0.000051
 950	4.7450e+01	19.0005	13.543121	0.000090	0.904722	0.306528	0.000043
 951	4.7500e+01	19.0182	13.570821	0.000116	1.160775	0.393281	0.000055
 952	4.7550e+01	19.0342	13.591188	0.000085	0.853511	0.289177	0.000041
 953	4.7600e+01	19.0374	13.613999	0.000096	0.955932	0.323879	0.000046
 954	4.7650e+01	19.0727	13.640476	0.000111	1.109564	0.375931	0.000053
 955	4.7700e+01	19.0872	13.666139	0.000108	1.075424	0.364363	0.000051
 956	4.7750e+01	19.1000	13.688543	0.000094	0.938862	0.318095	0.000045
 957	4.7800e+01	19.0984	13.707688	-0.000080	-0.802300	-0.271827	0.000038
 958	4.7850e+01	19.1610	13.734980	0.000114	1.143705	0.387498	0.000055
 959	4.7900e+01	19.1610	13.762679	-0.000116	-1.160775	-0.393281	0.000055
 960	4.7950e+01	19.1979	13.785083	0.000094	0.938862	0.318095	0.000045
 961	4.8000e+01	19.2043	13.807079	0.000092	0.921792	0.312312	0.000044
 962	4.8050e+01	19.2235	13.834779	0.000116	1.160775	0.393281	0.000055
 963	4.8100e+01	19.2171	13.853924	-0.000080	-0.802300	-0.271827	0.000038
 964	4.8150e+01	19.2941	13.881623	0.000116	1.160775	0.393281	0.000055
 965	4.8200e+01	19.3037	13.906471	0.000104	1.041283	0.352796	0.000050
 966	4.8250e+01	19.3182	13.928468	0.000092	0.921792	0.312312	0.000044
 967	4.8300e+01	19.3438	13.954130	0.000108	1.075424	0.364363	0.000051
 968	4.8350e+01	19.3743	13.979793	0.000108	1.075424	0.364363	0.000051
 969	4.8400e+01	19.3823	14.005048	0.000106	1.058354	0.358580	0.000051
 970	4.8450e+01	19.3759	14.029488	-0.000102	-1.024213	-0.347013	0.000049
 971	4.8500e+01	19.4048	14.052300	0.000096	0.955932	0.323879	0.000046
 972	4.8550e+01	19.4064	14.074296	0.000092	0.921792	0.312312	0.000044
 973	4.8600e+01	19.4529	14.100366	0.000109	1.092494	0.370147	0.000052
 974	4.8650e+01	19.4706	14.124399	0.000101	1.007143	0.341229	0.000048
 975	4.8700e+01	19.5363	14.150469	0.000109	1.092494	0.370147	0.000052
 976	4.8750e+01	19.4914	14.169614	-0.000080	-0.802300	-0.271827	0.000038
 977	4.8800e+01	19.5075	14.196092	0.000111	1.109564	0.375931	0.000053
 978	4.8850e+01	19.5508	14.216051	0.000084	0.836441	0.283394	0.000040
 979	4.8900e+01	19.5636	14.244158	0.000118	1.177845	0.399065	0.000056
 980	4.8950e+01	19.5845	14.271450	0.000114	1.143705	0.387498	0.000055
 981	4.9000e+01	19.5957	14.293446	0.000092	0.921792	0.312312	0.000044
 982	4.9050e+01	19.5973	14.321553	0.000118	1.177845	0.399065	0.000056
 983	4.9100e+01	19.6246	14.341920	0.000085	0.853511	0.289177	0.000041
 984	4.9150e+01	19.6406	14.361473	0.000082	0.819371	0.277610	0.000039
 985	4.9200e+01	19.7000	14.391616	0.000126	1.263196	0.427982	0.000060
 986	4.9250e+01	19.7144	14.417279	0.000108	1.075424	0.364363	0.000051
 987	4.9300e+01	19.7240	14.440904	0.000099	0.990073	0.335446	0.000047
 988	4.9350e+01	19.7641	14.464938	0.000101	1.007143	0.341229	0.000048
 989	4.9400e+01	19.7674	14.491415	0.000111	1.109564	0.375931	0.000053
 990	4.9450e+01	19.7786	14.517078	0.000108	1.075424	0.364363	0.000051
 991	4.9500e+01	19.8026	14.539481	0.000094	0.938862	0.318095	0.000045
 992	4.9550e+01	19.8636	14.562700	0.000097	0.973003	0.329662	0.000046
 993	4.9600e+01	19.8652	14.590399	0.000116	1.160775	0.393281	0.000055
 994	4.9650e+01	19.8700	14.613618	0.000097	0.973003	0.329662	0.000046
 995	4.9700e+01	19.8893	14.639688	0.000109	1.092494	0.370147	0.000052
 996	4.9750e+01	19.9149	14.664128	0.000102	1.024213	0.347013	0.000049
 997	4.9800e+01	19.9117	14.691420	-0.000114	-1.143705	-0.387498	0.000055
 998	4.9850e+01	19.9631	14.711380	0.000084	0.836441	0.283394	0.000040
 999	4.9900e+01	19.9727	14.739894	0.000119	1.194915	0.404848	0.000057
1000	4.9950e+01	20.0016	14.762298	0.000094	0.938862	0.318095	0.000045
1001	5.0000e+01	19.9936	14.786738	-0.000102	-1.024213	-0.347013	0.000049
1002	5.0050e+01	19.9952	14.779406	-0.000031	-0.307264	-0.104104	-0.000015
1003	5.0100e+01	19.9406	14.760261	0.000080	0.802300	0.271827	-0.000038
1004	5.0150e+01	19.9294	14.745189	0.000063	0.631598	0.213991	-0.000030
1005	5.0200e+01	19.9374	14.727266	-0.000075	-0.751090	-0.254476	-0.000036
1006	5.0250e+01	19.8861	14.710565	0.000070	0.699879	0.237125	-0.000033
1007	5.0300e+01	19.8797	14.689383	0.000089	0.887651	0.300744	-0.000042
1008	5.0350e+01	19.8909	14.675126	-0.000060	-0.597458	-0.202424	-0.000029
1009	5.0400e+01	19.8524	14.654352	0.000087	0.870581	0.294961	-0.000042
1010	5.0450e+01	19.8347	14.638873	0.000065	0.648668	0.219775	-0.000031
1011	5.0500e+01	19.8283	14.620543	0.000077	0.768160	0.260260	-0.000037
1012	5.0550e+01	19.8010	14.605878	0.000061	0.614528	0.208208	-0.000029
1013	5.0600e+01	19.7625	14.585104	0.000087	0.870581	0.294961	-0.000042
1014	5.0650e+01	19.7417	14.564329	0.000087	0.870581	0.294961	-0.000042
1015	5.0700e+01	19.7481	14.550072	-0.000060	-0.597458	-0.202424	-0.000029
1016	5.0750e+01	19.7080	14.528483	0.000090	0.904722	0.306528	-0.000043
1017	5.0800e+01	19.7064	14.509338	0.000080	0.802300	0.271827	-0.000038
1018	5.0850e+01	19.6711	14.491008	0.000077	0.768160	0.260260	-0.000037
1019	5.0900e+01	19.6422	14.472677	0.000077	0.768160	0.260260	-0.000037
1020	5.0950e+01	19.6342	14.460457	0.000051	0.512107	0.173506	-0.000024
1021	5.1000e+01	19.6294	14.437238	0.000097	0.973003	0.329662	-0.000046
1022	5.1050e+01	19.5716	14.419315	0.000075	0.751090	0.254476	-0.000036
1023	5.1100e+01	19.5732	14.400578	-0.000079	-0.785230	-0.266043	-0.000037
1024	5.1150e+01	19.5380	14.381840	0.000079	0.785230	0.266043	-0.000037
1025	5.1200e+01	19.5444	14.362695	-0.000080	-0.802300	-0.271827	-0.000038
1026	5.1250e+01	19.5396	14.343957	0.000079	0.785230	0.266043	-0.000037
1027	5.1300e+01	19.4946	14.324404	0.000082	0.819371	0.277610	-0.000039
1028	5.1350e+01	19.4770	14.302408	0.000092	0.921792	0.312312	-0.000044
1029	5.1400e+01	19.4401	14.285707	0.000070	0.699879	0.237125	-0.000033
1030	5.1450e+01	19.4690	14.265747	-0.000084	-0.836441	-0.283394	-0.000040
1031	5.1500e+01	19.4096	14.245380	0.000085	0.853511	0.289177	-0.000041
1032	5.1550e+01	19.3791	14.230716	0.000061	0.614528	0.208208	-0.000029
1033	5.1600e+01	19.3519	14.211571	0.000080	0.802300	0.271827	-0.000038
1034	5.1650e+01	19.3487	14.188759	0.000096	0.955932	0.323879	-0.000046
1035	5.1700e+01	19.3214	14.163912	0.000104	1.041283	0.352796	-0.000050
1036	5.1750e+01	19.2989	14.147618	0.000068	0.682809	0.231342	-0.000033
1037	5.1800e+01	19.2941	14.131731	0.000067	0.665739	0.225558	-0.000032
1038	5.1850e+01	19.2861	14.115030	0.000070	0.699879	0.237125	-0.000033
1039	5.1900e+01	19.2364	14.093849	0.000089	0.887651	0.300744	-0.000042
1040	5.1950e+01	19.2412	14.075111	-0.000079	-0.785230	-0.266043	-0.000037
1041	5.2000e+01	19.2011	14.055558	0.000082	0.819371	0.277610	-0.000039
1042	5.2050e+01	19.2075	14.042523	-0.000055	-0.546247	-0.185074	-0.000026
1043	5.2100e+01	19.1770	14.018490	0.000101	1.007143	0.341229	-0.000048
1044	5.2150e+01	19.1449	13.997716	0.000087	0.870581	0.294961	-0.000042
1045	5.2200e+01	19.1080	13.980200	0.000073	0.734019	0.248693	-0.000035
1046	5.2250e+01	19.1000	13.963906	0.000068	0.682809	0.231342	-0.000033
1047	5.2300e+01	19.0920	13.941095	0.000096	0.955932	0.323879	-0.000046
1048	5.2350e+01	19.0503	13.928060	0.000055	0.546247	0.185074	-0.000026
1049	5.2400e+01	19.0679	13.908508	-0.000082	-0.819371	-0.277610	-0.000039
1050	5.2450e+01	19.0390	13.887326	0.000089	0.887651	0.300744	-0.000042
1051	5.2500e+01	18.9925	13.863700	0.000099	0.990073	0.335446	-0.000047
1052	5.2550e+01	19.0053	13.844555	-0.000080	-0.802300	-0.271827	-0.000038
1053	5.2600e+01	18.9412	13.825817	0.000079	0.785230	0.266043	-0.000037
1054	5.2650e+01	18.9540	13.811968	-0.000058	-0.580387	-0.196641	-0.000028
1055	5.2700e+01	18.9396	13.793230	0.000079	0.785230	0.266043	-0.000037
1056	5.2750e+01	18.9348	13.772048	0.000089	0.887651	0.300744	-0.000042
1057	5.2800e+01	18.9059	13.752496	0.000082	0.819371	0.277610	-0.000039
1058	5.2850e+01	18.8658	13.735795	0.000070	0.699879	0.237125	-0.000033
1059	5.2900e+01	18.8529	13.713391	0.000094	0.938862	0.318095	-0.000045
1060	5.2950e+01	18.8225	13.695468	0.000075	0.751090	0.254476	-0.000036
1061	5.3000e+01	18.8080	13.674286	0.000089	0.887651	0.300744	-0.000042
1062	5.3050e+01	18.7920	13.657585	0.000070	0.699879	0.237125	-0.000033
1063	5.3100e+01	18.7791	13.636403	0.000089	0.887651	0.300744	-0.000042
1064	5.3150e+01	18.7631	13.623368	0.000055	0.546247	0.185074	-0.000026
1065	5.3200e+01	18.7278	13.602186	0.000089	0.887651	0.300744	-0.000042
1066	5.3250e+01	18.7021	13.585078	0.000072	0.716949	0.242909	-0.000034
1067	5.3300e+01	18.6861	13.564711	0.000085	0.853511	0.289177	-0.000041
1068	5.3350e+01	18.6733	13.546380	0.000077	0.768160	0.260260	-0.000037
1069	5.3400e+01	18.6508	13.528457	0.000075	0.751090	0.254476	-0.000036
1070	5.3450e+01	18.6284	13.515015	0.000056	0.563317	0.190857	-0.000027
1071	5.3500e+01	18.6171	13.492611	0.000094	0.938862	0.318095	-0.000045
1072	5.3550e+01	18.6027	13.477132	0.000065	0.648668	0.219775	-0.000031
1073	5.3600e+01	18.6027	13.454728	0.000094	0.938862	0.318095	-0.000045
1074	5.3650e+01	18.5738	13.437212	0.000073	0.734019	0.248693	-0.000035
1075	5.3700e+01	18.5241	13.415623	0.000090	0.904722	0.306528	-0.000043
1076	5.3750e+01	18.5193	13.399330	0.000068	0.682809	0.231342	-0.000033
1077	5.3800e+01	18.4952	13.381406	0.000075	0.751090	0.254476	-0.000036
1078	5.3850e+01	18.4840	13.364298	0.000072	0.716949	0.242909	-0.000034
1079	5.3900e+01	18.4647	13.341080	0.000097	0.973003	0.329662	-0.000046
1080	5.3950e+01	18.4230	13.322342	0.000079	0.785230	0.266043	-0.000037
1081	5.4000e+01	18.4086	13.302789	0.000082	0.819371	0.277610	-0.000039
1082	5.4050e+01	18.3845	13.284866	0.000075	0.751090	0.254476	-0.000036
1083	5.4100e+01	18.3765	13.268980	0.000067	0.665739	0.225558	-0.000032
1084	5.4150e+01	18.3508	13.244947	0.000101	1.007143	0.341229	-0.000048
1085	5.4200e+01	18.3396	13.227838	0.000072	0.716949	0.242909	-0.000034
1086	5.4250e+01	18.2995	13.209101	0.000079	0.785230	0.266043	-0.000037
1087	5.4300e+01	18.2850	13.190363	0.000079	0.785230	0.266043	-0.000037
1088	5.4350e+01	18.2626	13.169588	0.000087	0.870581	0.294961	-0.000042
1089	5.4400e+01	18.2498	13.150036	0.000082	0.819371	0.277610	-0.000039
1090	5.4450e+01	18.2289	13.135779	0.000060	0.597458	0.202424	-0.000029
1091	5.4500e+01	18.1984	13.115819	0.000084	0.836441	0.283394	-0.000040
1092	5.4550e+01	18.1904	13.095859	0.000084	0.836441	0.283394	-0.000040
1093	5.4600e+01	18.1711	13.079158	0.000070	0.699879	0.237125	-0.000033
1094	5.4650e+01	18.1471	13.058791	0.000085	0.853511	0.289177	-0.000041
1095	5.4700e+01	18.1310	13.041683	0.000072	0.716949	0.242909	-0.000034
1096	5.4750e+01	18.0957	13.022945	0.000079	0.785230	0.266043	-0.000037
1097	5.4800e+01	18.0797	12.998504	0.000102	1.024213	0.347013	-0.000049
1098	5.4850e+01	18.0572	12.979359	0.000080	0.802300	0.271827	-0.000038
1099	5.4900e+01	18.0540	12.961844	0.000073	0.734019	0.248693	-0.000035
1100	5.4950e+01	18.0059	12.941477	0.000085	0.853511	0.289177	-0.000041
1101	5.5000e+01	17.9963	12.917036	0.000102	1.024213	0.347013	-0.000049
1102	5.5050e+01	17.9818	12.899520	0.000073	0.734019	0.248693	-0.000035
1103	5.5100e+01	17.9658	12.876709	0.000096	0.955932	0.323879	-0.000046
1104	5.5150e+01	17.9385	12.856749	0.000084	0.836441	0.283394	-0.000040
1105	5.5200e+01	17.9385	12.834753	0.000092	0.921792	0.312312	-0.000044
1106	5.5250e+01	17.9000	12.814793	0.000084	0.836441	0.283394	-0.000040
1107	5.5300e+01	17.8776	12.797685	0.000072	0.716949	0.242909	-0.000034
1108	5.5350e+01	17.8535	12.776503	0.000089	0.887651	0.300744	-0.000042
1109	5.5400e+01	17.8487	12.757358	0.000080	0.802300	0.271827	-0.000038
1110	5.5450e+01	17.8519	12.733732	-0.000099	-0.990073	-0.335446	-0.000047
1111	5.5500e+01	17.7958	12.709699	0.000101	1.007143	0.341229	-0.000048
1112	5.5550e+01	17.7540	12.694220	0.000065	0.648668	0.219775	-0.000031
1113	5.5600e+01	17.7492	12.672223	0.000092	0.921792	0.312312	-0.000044
1114	5.5650e+01	17.7701	12.653893	-0.000077	-0.768160	-0.260260	-0.000037
1115	5.5700e+01	17.7091	12.630267	0.000099	0.990073	0.335446	-0.000047
1116	5.5750e+01	17.7220	12.614788	-0.000065	-0.648668	-0.219775	-0.000031
1117	5.5800e+01	17.6915	12.590755	0.000101	1.007143	0.341229	-0.000048
1118	5.5850e+01	17.6706	12.569980	0.000087	0.870581	0.294961	-0.000042
1119	5.5900e+01	17.6305	12.552057	0.000075	0.751090	0.254476	-0.000036
1120	5.5950e+01	17.6434	12.528024	-0.000101	-1.007143	-0.341229	-0.000048
1121	5.6000e+01	17.5840	12.507657	0.000085	0.853511	0.289177	-0.000041
1122	5.6050e+01	17.5920	12.490141	-0.000073	-0.734019	-0.248693	-0.000035
1123	5.6100e+01	17.5439	12.460812	0.000123	1.229056	0.416415	-0.000059
1124	5.6150e+01	17.5375	12.444111	0.000070	0.699879	0.237125	-0.000033
1125	5.6200e+01	17.5230	12.424559	0.000082	0.819371	0.277610	-0.000039
1126	5.6250e+01	17.5295	12.407450	-0.000072	-0.716949	-0.242909	-0.000034
1127	5.6300e+01	17.5070	12.381381	0.000109	1.092494	0.370147	-0.000052
1128	5.6350e+01	17.4605	12.363050	0.000077	0.768160	0.260260	-0.000037
1129	5.6400e+01	17.4765	12.339424	-0.000099	-0.990073	-0.335446	-0.000047
1130	5.6450e+01	17.4236	12.322316	0.000072	0.716949	0.242909	-0.000034
1131	5.6500e+01	17.4300	12.299505	-0.000096	-0.955932	-0.323879	-0.000046
1132	5.6550e+01	17.3626	12.277916	0.000090	0.904722	0.306528	-0.000043
1133	5.6600e+01	17.4027	12.254697	-0.000097	-0.973003	-0.329662	-0.000046
1134	5.6650e+01	17.3578	12.236774	0.000075	0.751090	0.254476	-0.000036
1135	5.6700e+01	17.3289	12.215999	0.000087	0.870581	0.294961	-0.000042
1136	5.6750e+01	17.2888	12.192781	0.000097	0.973003	0.329662	-0.000046
1137	5.6800e+01	17.3193	12.177302	-0.000065	-0.648668	-0.219775	-0.000031
1138	5.6850e+01	17.2583	12.152047	0.000106	1.058354	0.358580	-0.000051
1139	5.6900e+01	17.2567	12.131272	0.000087	0.870581	0.294961	-0.000042
1140	5.6950e+01	17.2022	12.109683	0.000090	0.904722	0.306528	-0.000043
1141	5.7000e+01	17.2102	12.087687	-0.000092	-0.921792	-0.312312	-0.000044
1142	5.7050e+01	17.1974	12.067319	0.000085	0.853511	0.289177	-0.000041
1143	5.7100e+01	17.1781	12.046952	0.000085	0.853511	0.289177	-0.000041
1144	5.7150e+01	17.1605	12.028622	0.000077	0.768160	0.260260	-0.000037
1145	5.7200e+01	17.1444	12.007033	0.000090	0.904722	0.306528	-0.000043
1146	5.7250e+01	17.1091	11.983000	0.000101	1.007143	0.341229	-0.000048
1147	5.7300e+01	17.0771	11.965484	0.000073	0.734019	0.248693	-0.000035
1148	5.7350e+01	17.0963	11.942673	-0.000096	-0.955932	-0.323879	-0.000046
1149	5.7400e+01	17.0546	11.921083	0.000090	0.904722	0.306528	-0.000043
1150	5.7450e+01	17.0450	11.898680	0.000094	0.938862	0.318095	-0.000045
1151	5.7500e+01	16.9968	11.877090	0.000090	0.904722	0.306528	-0.000043
1152	5.7550e+01	16.9872	11.853872	0.000097	0.973003	0.329662	-0.000046
1153	5.7600e+01	16.9856	11.836764	0.000072	0.716949	0.242909	-0.000034
1154	5.7650e+01	16.9311	11.813952	0.000096	0.955932	0.323879	-0.000046
1155	5.7700e+01	16.8878	11.793993	0.000084	0.836441	0.283394	-0.000040
1156	5.7750e+01	16.8958	11.765886	-0.000118	-1.177845	-0.399065	-0.000056
1157	5.7800e+01	16.8990	11.748370	-0.000073	-0.734019	-0.248693	-0.000035
1158	5.7850e+01	16.8541	11.724744	0.000099	0.990073	0.335446	-0.000047
1159	5.7900e+01	16.8428	11.704377	0.000085	0.853511	0.289177	-0.000041
1160	5.7950e+01	16.8396	11.685639	0.000079	0.785230	0.266043	-0.000037
1161	5.8000e+01	16.8043	11.663643	0.000092	0.921792	0.312312	-0.000044
1162	5.8050e+01	16.8092	11.641239	-0.000094	-0.938862	-0.318095	-0.000045
1163	5.8100e+01	16.7706	11.620872	0.000085	0.853511	0.289177	-0.000041
1164	5.8150e+01	16.7674	11.596839	0.000101	1.007143	0.341229	-0.000048
1165	5.8200e+01	16.7482	11.575250	0.000090	0.904722	0.306528	-0.000043
1166	5.8250e+01	16.7065	11.553660	0.000090	0.904722	0.306528	-0.000043
1167	5.8300e+01	16.7113	11.532886	-0.000087	-0.870581	-0.294961	-0.000042
1168	5.8350e+01	16.6616	11.509667	0.000097	0.973003	0.329662	-0.000046
1169	5.8400e+01	16.6519	11.491744	0.000075	0.751090	0.254476	-0.000036
1170	5.8450e+01	16.6423	11.466489	0.000106	1.058354	0.358580	-0.000051
1171	5.8500e+01	16.6199	11.450195	0.000068	0.682809	0.231342	-0.000033
1172	5.8550e+01	16.5974	11.428606	0.000090	0.904722	0.306528	-0.000043
1173	5.8600e+01	16.5621	11.409869	0.000079	0.785230	0.266043	-0.000037
1174	5.8650e+01	16.5525	11.387057	0.000096	0.955932	0.323879	-0.000046
1175	5.8700e+01	16.5332	11.366283	0.000087	0.870581	0.294961	-0.000042
1176	5.8750e+01	16.5252	11.339806	0.000111	1.109564	0.375931	-0.000053
1177	5.8800e+01	16.4755	11.321068	0.000079	0.785230	0.266043	-0.000037
1178	5.8850e+01	16.4674	11.299886	0.000089	0.887651	0.300744	-0.000042
1179	5.8900e+01	16.4386	11.281556	0.000077	0.768160	0.260260	-0.000037
1180	5.8950e+01	16.4354	11.261596	0.000084	0.836441	0.283394	-0.000040
1181	5.9000e+01	16.3921	11.240821	0.000087	0.870581	0.294961	-0.000042
1182	5.9050e+01	16.3840	11.218825	0.000092	0.921792	0.312312	-0.000044
1183	5.9100e+01	16.3664	11.197643	0.000089	0.887651	0.300744	-0.000042
1184	5.9150e+01	16.3664	11.178905	0.000079	0.785230	0.266043	-0.000037
1185	5.9200e+01	16.3471	11.153243	0.000108	1.075424	0.364363	-0.000051
1186	5.9250e+01	16.3231	11.132468	0.000087	0.870581	0.294961	-0.000042
1187	5.9300e+01	16.2749	11.112101	0.000085	0.853511	0.289177	-0.000041
1188	5.9350e+01	16.2733	11.092956	0.000080	0.802300	0.271827	-0.000038
1189	5.9400e+01	16.2348	11.068108	0.000104	1.041283	0.352796	-0.000050
1190	5.9450e+01	16.2236	11.046926	0.000089	0.887651	0.300744	-0.000042
1191	5.9500e+01	16.2172	11.024930	0.000092	0.921792	0.312312	-0.000044
1192	5.9550e+01	16.1995	11.004563	0.000085	0.853511	0.289177	-0.000041
1193	5.9600e+01	16.1675	10.982566	0.000092	0.921792	0.312312	-0.000044
1194	5.9650e+01	16.1450	10.962199	0.000085	0.853511	0.289177	-0.000041
1195	5.9700e+01	16.1290	10.943054	0.000080	0.802300	0.271827	-0.000038
1196	5.9750e+01	16.1161	10.919835	0.000097	0.973003	0.329662	-0.000046
1197	5.9800e+01	16.1241	10.901912	-0.000075	-0.751090	-0.254476	-0.000036
1198	5.9850e+01	16.0471	10.877879	0.000101	1.007143	0.341229	-0.000048
1199	5.9900e+01	16.0520	10.856697	-0.000089	-0.887651	-0.300744	-0.000042
1200	5.9950e+01	16.0215	10.837552	0.000080	0.802300	0.271827	-0.000038
1201	6.0000e+01	16.0086	10.814334	0.000097	0.973003	0.329662	-0.000046
1202	6.0050e+01	15.9942	10.797225	0.000072	0.716949	0.242909	-0.000034
1203	6.0100e+01	15.9814	10.769119	0.000118	1.177845	0.399065	-0.000056
1204	6.0150e+01	15.9477	10.750788	0.000077	0.768160	0.260260	-0.000037
1205	6.0200e+01	15.9316	10.726348	0.000102	1.024213	0.347013	-0.000049
1206	6.0250e+01	15.9220	10.703537	0.000096	0.955932	0.323879	-0.000046
1207	6.0300e+01	15.8947	10.682355	0.000089	0.887651	0.300744	-0.000042
1208	6.0350e+01	15.8691	10.658729	0.000099	0.990073	0.335446	-0.000047
1209	6.0400e+01	15.8258	10.635510	0.000097	0.973003	0.329662	-0.000046
1210	6.0450e+01	15.8225	10.616773	0.000079	0.785230	0.266043	-0.000037
1211	6.0500e+01	15.8193	10.593554	0.000097	0.973003	0.329662	-0.000046
1212	6.0550e+01	15.7953	10.570743	0.000096	0.955932	0.323879	-0.000046
1213	6.0600e+01	15.7680	10.549154	0.000090	0.904722	0.306528	-0.000043
1214	6.0650e+01	15.7391	10.526750	0.000094	0.938862	0.318095	-0.000045
1215	6.0700e+01	15.7231	10.501495	0.000106	1.058354	0.358580	-0.000051
1216	6.0750e+01	15.7103	10.478683	0.000096	0.955932	0.323879	-0.000046
1217	6.0800e+01	15.6525	10.458316	0.000085	0.853511	0.289177	-0.000041
1218	6.0850e+01	15.6685	10.435098	-0.000097	-0.973003	-0.329662	-0.000046
1219	6.0900e+01	15.6381	10.410657	0.000102	1.024213	0.347013	-0.000049
1220	6.0950e+01	15.6124	10.384995	0.000108	1.075424	0.364363	-0.000051
1221	6.1000e+01	15.6140	10.370738	-0.000060	-0.597458	-0.202424	-0.000029
1222	6.1050e+01	15.5867	10.343853	0.000113	1.126635	0.381714	-0.000054
1223	6.1100e+01	15.5595	10.323079	0.000087	0.870581	0.294961	-0.000042
1224	6.1150e+01	15.5546	10.298638	0.000102	1.024213	0.347013	-0.000049
1225	6.1200e+01	15.5290	10.275012	0.000099	0.990073	0.335446	-0.000047
1226	6.1250e+01	15.5113	10.253423	0.000090	0.904722	0.306528	-0.000043
1227	6.1300e+01	15.4921	10.231427	0.000092	0.921792	0.312312	-0.000044
1228	6.1350e+01	15.4792	10.204949	0.000111	1.109564	0.375931	-0.000053
1229	6.1400e+01	15.4343	10.180101	0.000104	1.041283	0.352796	-0.000050
1230	6.1450e+01	15.4279	10.158512	0.000090	0.904722	0.306528	-0.000043
1231	6.1500e+01	15.4247	10.133664	0.000104	1.041283	0.352796	-0.000050
1232	6.1550e+01	15.3830	10.110038	0.000099	0.990073	0.335446	-0.000047
1233	6.1600e+01	15.3750	10.086413	0.000099	0.990073	0.335446	-0.000047
1234	6.1650e+01	15.3621	10.060343	0.000109	1.092494	0.370147	-0.000052
1235	6.1700e+01	15.3317	10.037939	0.000094	0.938862	0.318095	-0.000045
1236	6.1750e+01	15.3012	10.011054	0.000113	1.126635	0.381714	-0.000054
1237	6.1800e+01	15.2835	9.987428	0.000099	0.990073	0.335446	-0.000047
1238	6.1850e+01	15.2482	9.960951	0.000111	1.109564	0.375931	-0.000053
1239	6.1900e+01	15.2386	9.938140	0.000096	0.955932	0.323879	-0.000046
1240	6.1950e+01	15.2450	9.912885	-0.000106	-1.058354	-0.358580	-0.000051
1241	6.2000e+01	15.2242	9.891703	0.000089	0.887651	0.300744	-0.000042
1242	6.2050e+01	15.2017	9.864818	0.000113	1.126635	0.381714	-0.000054
1243	6.2100e+01	15.1600	9.842007	0.000096	0.955932	0.323879	-0.000046
1244	6.2150e+01	15.1456	9.816344	0.000108	1.075424	0.364363	-0.000051
1245	6.2200e+01	15.1135	9.791497	0.000104	1.041283	0.352796	-0.000050
1246	6.2250e+01	15.1247	9.764612	-0.000113	-1.126635	-0.381714	-0.000054
1247	6.2300e+01	15.0894	9.743430	0.000089	0.887651	0.300744	-0.000042
1248	6.2350e+01	15.0525	9.722656	0.000087	0.870581	0.294961	-0.000042
1249	6.2400e+01	15.0381	9.696586	0.000109	1.092494	0.370147	-0.000052
1250	6.2450e+01	15.0044	9.676219	0.000085	0.853511	0.289177	-0.000041
1251	6.2500e+01	14.9883	9.648519	0.000116	1.160775	0.393281	-0.000055
1252	6.2550e+01	14.9883	9.625301	0.000097	0.973003	0.329662	-0.000046
1253	6.2600e+01	14.9803	9.595565	0.000125	1.246126	0.422199	-0.000059
1254	6.2650e+01	14.9354	9.573161	0.000094	0.938862	0.318095	-0.000045
1255	6.2700e+01	14.9434	9.545054	-0.000118	-1.177845	-0.399065	-0.000056
1256	6.2750e+01	14.9258	9.524280	0.000087	0.870581	0.294961	-0.000042
1257	6.2800e+01	14.8857	9.500654	0.000099	0.990073	0.335446	-0.000047
1258	6.2850e+01	14.8728	9.475399	0.000106	1.058354	0.358580	-0.000051
1259	6.2900e+01	14.8680	9.452995	0.000094	0.938862	0.318095	-0.000045
1260	6.2950e+01	14.8472	9.429776	0.000097	0.973003	0.329662	-0.000046
1261	6.3000e+01	14.7958	9.400448	0.000123	1.229056	0.416415	-0.000059
1262	6.3050e+01	14.7846	9.376007	0.000102	1.024213	0.347013	-0.000049
1263	6.3100e+01	14.7605	9.347493	0.000119	1.194915	0.404848	-0.000057
1264	6.3150e+01	14.7381	9.327941	0.000082	0.819371	0.277610	-0.000039
1265	6.3200e+01	14.7381	9.304315	0.000099	0.990073	0.335446	-0.000047
1266	6.3250e+01	14.6948	9.282318	0.000092	0.921792	0.312312	-0.000044
1267	6.3300e+01	14.6707	9.255841	0.000111	1.109564	0.375931	-0.000053
1268	6.3350e+01	14.6868	9.230586	-0.000106	-1.058354	-0.358580	-0.000051
1269	6.3400e+01	14.6643	9.205738	0.000104	1.041283	0.352796	-0.000050
1270	6.3450e+01	14.6097	9.184964	0.000087	0.870581	0.294961	-0.000042
1271	6.3500e+01	14.5857	9.161745	0.000097	0.973003	0.329662	-0.000046
1272	6.3550e+01	14.5825	9.135675	0.000109	1.092494	0.370147	-0.000052
1273	6.3600e+01	14.5680	9.113271	0.000094	0.938862	0.318095	-0.000045
1274	6.3650e+01	14.5376	9.084350	0.000121	1.211986	0.410632	-0.000058
1275	6.3700e+01	14.5103	9.066019	0.000077	0.768160	0.260260	-0.000037
1276	6.3750e+01	14.4942	9.039542	0.000111	1.109564	0.375931	-0.000053
1277	6.3800e+01	14.4910	9.013880	0.000108	1.075424	0.364363	-0.000051
1278	6.3850e+01	14.4750	8.989439	0.000102	1.024213	0.347013	-0.000049
1279	6.3900e+01	14.4509	8.967035	0.000094	0.938862	0.318095	-0.000045
1280	6.3950e+01	14.4413	8.943002	0.000101	1.007143	0.341229	-0.000048
1281	6.4000e+01	14.3932	8.918154	0.000104	1.041283	0.352796	-0.000050
1282	6.4050e+01	14.3771	8.894121	0.000101	1.007143	0.341229	-0.000048
1283	6.4100e+01	14.3884	8.870088	-0.000101	-1.007143	-0.341229	-0.000048
1284	6.4150e+01	14.3675	8.847277	0.000096	0.955932	0.323879	-0.000046
1285	6.4200e+01	14.3338	8.819985	0.000114	1.143705	0.387498	-0.000055
1286	6.4250e+01	14.3226	8.799617	0.000085	0.853511	0.289177	-0.000041
1287	6.4300e+01	14.2680	8.766215	0.000140	1.399758	0.474251	-0.000067
1288	6.4350e+01	14.2664	8.750736	0.000065	0.648668	0.219775	-0.000031
1289	6.4400e+01	14.2408	8.719371	0.000131	1.314407	0.445333	-0.000063
1290	6.4450e+01	14.2167	8.699411	0.000084	0.836441	0.283394	-0.000040
1291	6.4500e+01	14.1959	8.674563	0.000104	1.041283	0.352796	-0.000050
1292	6.4550e+01	14.2039	8.653789	-0.000087	-0.870581	-0.294961	-0.000042
1293	6.4600e+01	14.1718	8.628126	0.000108	1.075424	0.364363	-0.000051
1294	6.4650e+01	14.1622	8.605722	0.000094	0.938862	0.318095	-0.000045
1295	6.4700e+01	14.1349	8.578838	0.000113	1.126635	0.381714	-0.000054
1296	6.4750e+01	14.1189	8.556434	0.000094	0.938862	0.318095	-0.000045
1297	6.4800e+01	14.0787	8.534437	0.000092	0.921792	0.312312	-0.000044
1298	6.4850e+01	14.0675	8.506331	0.000118	1.177845	0.399065	-0.000056
1299	6.4900e+01	14.0386	8.483520	0.000096	0.955932	0.323879	-0.000046
1300	6.4950e+01	14.0306	8.458264	0.000106	1.058354	0.358580	-0.000051
1301	6.5000e+01	14.0242	8.432602	0.000108	1.075424	0.364363	-0.000051
1302	6.5050e+01	13.9857	8.410198	0.000094	0.938862	0.318095	-0.000045
1303	6.5100e+01	13.9713	8.387387	0.000096	0.955932	0.323879	-0.000046
1304	6.5150e+01	13.9392	8.365798	0.000090	0.904722	0.306528	-0.000043
1305	6.5200e+01	13.9584	8.338913	-0.000113	-1.126635	-0.381714	-0.000054
1306	6.5250e+01	13.9151	8.313250	0.000108	1.075424	0.364363	-0.000051
1307	6.5300e+01	13.9023	8.290439	0.000096	0.955932	0.323879	-0.000046
1308	6.5350e+01	13.8622	8.268035	0.000094	0.938862	0.318095	-0.000045
1309	6.5400e+01	13.8413	8.241151	0.000113	1.126635	0.381714	-0.000054
1310	6.5450e+01	13.8542	8.219562	-0.000090	-0.904722	-0.306528	-0.000043
1311	6.5500e+01	13.8381	8.193492	0.000109	1.092494	0.370147	-0.000052
1312	6.5550e+01	13.8157	8.167014	0.000111	1.109564	0.375931	-0.000053
1313	6.5600e+01	13.7707	8.145018	0.000092	0.921792	0.312312	-0.000044
1314	6.5650e+01	13.7515	8.120577	0.000102	1.024213	0.347013	-0.000049
1315	6.5700e+01	13.7290	8.093693	0.000113	1.126635	0.381714	-0.000054
1316	6.5750e+01	13.7082	8.067216	0.000111	1.109564	0.375931	-0.000053
1317	6.5800e+01	13.6793	8.044812	0.000094	0.938862	0.318095	-0.000045
1318	6.5850e+01	13.6809	8.024445	-0.000085	-0.853511	-0.289177	-0.000041
1319	6.5900e+01	13.6472	8.000819	0.000099	0.990073	0.335446	-0.000047
1320	6.5950e+01	13.6456	7.975563	0.000106	1.058354	0.358580	-0.000051
1321	6.6000e+01	13.6264	7.950716	0.000104	1.041283	0.352796	-0.000050
1322	6.6050e+01	13.5927	7.927497	0.000097	0.973003	0.329662	-0.000046
1323	6.6100e+01	13.5686	7.901834	0.000108	1.075424	0.364363	-0.000051
1324	6.6150e+01	13.5542	7.880653	0.000089	0.887651	0.300744	-0.000042
1325	6.6200e+01	13.5269	7.855397	0.000106	1.058354	0.358580	-0.000051
1326	6.6250e+01	13.5141	7.830550	0.000104	1.041283	0.352796	-0.000050
1327	6.6300e+01	13.4756	7.806924	0.000099	0.990073	0.335446	-0.000047
1328	6.6350e+01	13.4435	7.782890	0.000101	1.007143	0.341229	-0.000048
1329	6.6400e+01	13.4419	7.756413	0.000111	1.109564	0.375931	-0.000053
1330	6.6450e+01	13.4146	7.734009	0.000094	0.938862	0.318095	-0.000045
1331	6.6500e+01	13.4082	7.706310	0.000116	1.160775	0.393281	-0.000055
1332	6.6550e+01	13.4002	7.683906	0.000094	0.938862	0.318095	-0.000045
1333	6.6600e+01	13.3617	7.661502	0.000094	0.938862	0.318095	-0.000045
1334	6.6650e+01	13.3392	7.636654	0.000104	1.041283	0.352796	-0.000050
1335	6.6700e+01	13.3232	7.610992	0.000108	1.075424	0.364363	-0.000051
1336	6.6750e+01	13.3215	7.586551	0.000102	1.024213	0.347013	-0.000049
1337	6.6800e+01	13.2847	7.561703	0.000104	1.041283	0.352796	-0.000050
1338	6.6850e+01	13.2830	7.535634	0.000109	1.092494	0.370147	-0.000052
1339	6.6900e+01	13.2686	7.509971	0.000108	1.075424	0.364363	-0.000051
1340	6.6950e+01	13.2397	7.484716	0.000106	1.058354	0.358580	-0.000051
1341	6.7000e+01	13.2125	7.457831	0.000113	1.126635	0.381714	-0.000054
1342	6.7050e+01	13.1788	7.430539	0.000114	1.143705	0.387498	-0.000055
1343	6.7100e+01	13.1355	7.405691	0.000104	1.041283	0.352796	-0.000050
1344	6.7150e+01	13.1611	7.385324	-0.000085	-0.853511	-0.289177	-0.000041
1345	6.7200e+01	13.1515	7.358032	0.000114	1.143705	0.387498	-0.000055
1346	6.7250e+01	13.1066	7.331148	0.000113	1.126635	0.381714	-0.000054
1347	6.7300e+01	13.1050	7.305078	0.000109	1.092494	0.370147	-0.000052
1348	6.7350e+01	13.0569	7.281044	0.000101	1.007143	0.341229	-0.000048
1349	6.7400e+01	13.0408	7.254160	0.000113	1.126635	0.381714	-0.000054
1350	6.7450e+01	13.0216	7.232163	0.000092	0.921792	0.312312	-0.000044
1351	6.7500e+01	13.0087	7.204464	0.000116	1.160775	0.393281	-0.000055
1352	6.7550e+01	12.9831	7.178801	0.000108	1.075424	0.364363	-0.000051
1353	6.7600e+01	12.9895	7.153546	-0.000106	-1.058354	-0.358580	-0.000051
1354	6.7650e+01	12.9381	7.132772	0.000087	0.870581	0.294961	-0.000042
1355	6.7700e+01	12.9333	7.101814	0.000130	1.297337	0.439550	-0.000062
1356	6.7750e+01	12.9141	7.081447	0.000085	0.853511	0.289177	-0.000041
1357	6.7800e+01	12.8852	7.057006	0.000102	1.024213	0.347013	-0.000049
1358	6.7850e+01	12.8708	7.032565	0.000102	1.024213	0.347013	-0.000049
1359	6.7900e+01	12.8515	7.006903	0.000108	1.075424	0.364363	-0.000051
1360	6.7950e+01	12.8178	6.978796	0.000118	1.177845	0.399065	-0.000056
1361	6.8000e+01	12.8082	6.953948	0.000104	1.041283	0.352796	-0.000050
1362	6.8050e+01	12.7761	6.929100	0.000104	1.041283	0.352796	-0.000050
1363	6.8100e+01	12.7873	6.905475	-0.000099	-0.990073	-0.335446	-0.000047
1364	6.8150e+01	12.7408	6.877775	0.000116	1.160775	0.393281	-0.000055
1365	6.8200e+01	12.7248	6.852520	0.000106	1.058354	0.358580	-0.000051
1366	6.8250e+01	12.7087	6.826857	0.000108	1.075424	0.364363	-0.000051
1367	6.8300e+01	12.6799	6.802824	0.000101	1.007143	0.341229	-0.000048
1368	6.8350e+01	12.6831	6.774310	-0.000119	-1.194915	-0.404848	-0.000057
1369	6.8400e+01	12.6301	6.748648	0.000108	1.075424	0.364363	-0.000051
1370	6.8450e+01	12.6189	6.727466	0.000089	0.887651	0.300744	-0.000042
1371	6.8500e+01	12.6045	6.701803	0.000108	1.075424	0.364363	-0.000051
1372	6.8550e+01	12.5740	6.676548	0.000106	1.058354	0.358580	-0.000051
1373	6.8600e+01	12.5836	6.649663	-0.000113	-1.126635	-0.381714	-0.000054
1374	6.8650e+01	12.5563	6.629296	0.000085	0.853511	0.289177	-0.000041
1375	6.8700e+01	12.5531	6.602819	0.000111	1.109564	0.375931	-0.000053
1376	6.8750e+01	12.5162	6.580415	0.000094	0.938862	0.318095	-0.000045
1377	6.8800e+01	12.4970	6.550679	0.000125	1.246126	0.422199	-0.000059
1378	6.8850e+01	12.4761	6.528683	0.000092	0.921792	0.312312	-0.000044
1379	6.8900e+01	12.4617	6.501391	0.000114	1.143705	0.387498	-0.000055
1380	6.8950e+01	12.4488	6.482653	0.000079	0.785230	0.266043	-0.000037
1381	6.9000e+01	12.4055	6.458212	0.000102	1.024213	0.347013	-0.000049
1382	6.9050e+01	12.3702	6.435401	0.000096	0.955932	0.323879	-0.000046
1383	6.9100e+01	12.3686	6.406073	0.000123	1.229056	0.416415	-0.000059
1384	6.9150e+01	12.3462	6.380410	0.000108	1.075424	0.364363	-0.000051
1385	6.9200e+01	12.3462	6.353118	0.000114	1.143705	0.387498	-0.000055
1386	6.9250e+01	12.3205	6.333158	0.000084	0.836441	0.283394	-0.000040
1387	6.9300e+01	12.2980	6.308310	0.000104	1.041283	0.352796	-0.000050
1388	6.9350e+01	12.2756	6.283870	0.000102	1.024213	0.347013	-0.000049
1389	6.9400e+01	12.2788	6.257800	-0.000109	-1.092494	-0.370147	-0.000052
1390	6.9450e+01	12.2066	6.238248	0.000082	0.819371	0.277610	-0.000039
1391	6.9500e+01	12.2243	6.210956	-0.000114	-1.143705	-0.387498	-0.000055
1392	6.9550e+01	12.2162	6.185293	0.000108	1.075424	0.364363	-0.000051
1393	6.9600e+01	12.2114	6.160038	0.000106	1.058354	0.358580	-0.000051
1394	6.9650e+01	12.1489	6.136819	0.000097	0.973003	0.329662	-0.000046
1395	6.9700e+01	12.1216	6.113601	0.000097	0.973003	0.329662	-0.000046
1396	6.9750e+01	12.1232	6.085494	-0.000118	-1.177845	-0.399065	-0.000056
1397	6.9800e+01	12.0927	6.066756	0.000079	0.785230	0.266043	-0.000037
1398	6.9850e+01	12.0670	6.042723	0.000101	1.007143	0.341229	-0.000048
1399	6.9900e+01	12.0478	6.022763	0.000084	0.836441	0.283394	-0.000040
1400	6.9950e+01	12.0205	5.996693	0.000109	1.092494	0.370147	-0.000052
1401	7.0000e+01	12.0253	5.975512	-0.000089	-0.887651	-0.300744	-0.000042
1402	7.0050e+01	12.0077	5.949442	0.000109	1.092494	0.370147	-0.000052
1403	7.0100e+01	11.9804	5.923779	0.000108	1.075424	0.364363	-0.000051
1404	7.0150e+01	11.9836	5.900561	-0.000097	-0.973003	-0.329662	-0.000046
1405	7.0200e+01	11.9628	5.879379	0.000089	0.887651	0.300744	-0.000042
1406	7.0250e+01	11.8970	5.853716	0.000108	1.075424	0.364363	-0.000051
1407	7.0300e+01	11.8986	5.830090	-0.000099	-0.990073	-0.335446	-0.000047
1408	7.0350e+01	11.8729	5.809316	0.000087	0.870581	0.294961	-0.000042
1409	7.0400e+01	11.8601	5.785283	0.000101	1.007143	0.341229	-0.000048
1410	7.0450e+01	11.8521	5.760842	0.000102	1.024213	0.347013	-0.000049
1411	7.0500e+01	11.8216	5.736401	0.000102	1.024213	0.347013	-0.000049
1412	7.0550e+01	11.8152	5.713998	0.000094	0.938862	0.318095	-0.000045
1413	7.0600e+01	11.7751	5.683854	0.000126	1.263196	0.427982	-0.000060
1414	7.0650e+01	11.7494	5.663080	0.000087	0.870581	0.294961	-0.000042
1415	7.0700e+01	11.7141	5.640676	0.000094	0.938862	0.318095	-0.000045
1416	7.0750e+01	11.7013	5.614606	0.000109	1.092494	0.370147	-0.000052
1417	7.0800e+01	11.6804	5.589351	0.000106	1.058354	0.358580	-0.000051
1418	7.0850e+01	11.6644	5.565725	0.000099	0.990073	0.335446	-0.000047
1419	7.0900e+01	11.6724	5.539655	-0.000109	-1.092494	-0.370147	-0.000052
1420	7.0950e+01	11.6275	5.516844	0.000096	0.955932	0.323879	-0.000046
1421	7.1000e+01	11.5986	5.492811	0.000101	1.007143	0.341229	-0.000048
1422	7.1050e+01	11.5970	5.471221	0.000090	0.904722	0.306528	-0.000043
1423	7.1100e+01	11.5761	5.449632	0.000090	0.904722	0.306528	-0.000043
1424	7.1150e+01	11.5376	5.425599	0.000101	1.007143	0.341229	-0.000048
1425	7.1200e+01	11.5280	5.401159	0.000102	1.024213	0.347013	-0.000049
1426	7.1250e+01	11.5136	5.379162	0.000092	0.921792	0.312312	-0.000044
1427	7.1300e+01	11.4767	5.354314	0.000104	1.041283	0.352796	-0.000050
1428	7.1350e+01	11.5168	5.330688	-0.000099	-0.990073	-0.335446	-0.000047
1429	7.1400e+01	11.4414	5.305026	0.000108	1.075424	0.364363	-0.000051
1430	7.1450e+01	11.4350	5.277734	0.000114	1.143705	0.387498	-0.000055
1431	7.1500e+01	11.4109	5.251257	0.000111	1.109564	0.375931	-0.000053
1432	7.1550e+01	11.3868	5.230075	0.000089	0.887651	0.300744	-0.000042
1433	7.1600e+01	11.3772	5.207264	0.000096	0.955932	0.323879	-0.000046
1434	7.1650e+01	11.3516	5.182416	0.000104	1.041283	0.352796	-0.000050
1435	7.1700e+01	11.3387	5.155938	0.000111	1.109564	0.375931	-0.000053
1436	7.1750e+01	11.3291	5.129054	0.000113	1.126635	0.381714	-0.000054
1437	7.1800e+01	11.2970	5.101354	0.000116	1.160775	0.393281	-0.000055
1438	7.1850e+01	11.2745	5.076099	0.000106	1.058354	0.358580	-0.000051
1439	7.1900e+01	11.2569	5.053695	0.000094	0.938862	0.318095	-0.000045
1440	7.1950e+01	11.2216	5.030069	0.000099	0.990073	0.335446	-0.000047
1441	7.2000e+01	11.1975	5.004407	0.000108	1.075424	0.364363	-0.000051
1442	7.2050e+01	11.1799	4.976300	0.000118	1.177845	0.399065	-0.000056
1443	7.2100e+01	11.1623	4.950638	0.000108	1.075424	0.364363	-0.000051
1444	7.2150e+01	11.1510	4.926197	0.000102	1.024213	0.347013	-0.000049
1445	7.2200e+01	11.1526	4.903386	-0.000096	-0.955932	-0.323879	-0.000046
1446	7.2250e+01	11.1093	4.874057	0.000123	1.229056	0.416415	-0.000059
1447	7.2300e+01	11.0869	4.849617	0.000102	1.024213	0.347013	-0.000049
1448	7.2350e+01	11.0548	4.824769	0.000104	1.041283	0.352796	-0.000050
1449	7.2400e+01	11.0612	4.803180	-0.000090	-0.904722	-0.306528	-0.000043
1450	7.2450e+01	11.0435	4.775888	0.000114	1.143705	0.387498	-0.000055
1451	7.2500e+01	11.0098	4.751040	0.000104	1.041283	0.352796	-0.000050
1452	7.2550e+01	10.9842	4.725785	0.000106	1.058354	0.358580	-0.000051
1453	7.2600e+01	10.9521	4.698900	0.000113	1.126635	0.381714	-0.000054
1454	7.2650e+01	10.9473	4.671608	0.000114	1.143705	0.387498	-0.000055
1455	7.2700e+01	10.9393	4.648390	0.000097	0.973003	0.329662	-0.000046
1456	7.2750e+01	10.9377	4.621912	0.000111	1.109564	0.375931	-0.000053
1457	7.2800e+01	10.8976	4.594620	0.000114	1.143705	0.387498	-0.000055
1458	7.2850e+01	10.8815	4.572624	0.000092	0.921792	0.312312	-0.000044
1459	7.2900e+01	10.8542	4.546147	0.000111	1.109564	0.375931	-0.000053
1460	7.2950e+01	10.8382	4.518447	0.000116	1.160775	0.393281	-0.000055
1461	7.3000e+01	10.8125	4.494821	0.000099	0.990073	0.335446	-0.000047
1462	7.3050e+01	10.7740	4.467937	0.000113	1.126635	0.381714	-0.000054
1463	7.3100e+01	10.7869	4.442274	-0.000108	-1.075424	-0.364363	-0.000051
1464	7.3150e+01	10.7548	4.414575	0.000116	1.160775	0.393281	-0.000055
1465	7.3200e+01	10.7195	4.391764	0.000096	0.955932	0.323879	-0.000046
1466	7.3250e+01	10.6970	4.364879	0.000113	1.126635	0.381714	-0.000054
1467	7.3300e+01	10.6858	4.339217	0.000108	1.075424	0.364363	-0.000051
1468	7.3350e+01	10.6762	4.313961	0.000106	1.058354	0.358580	-0.000051
1469	7.3400e+01	10.6665	4.285447	0.000119	1.194915	0.404848	-0.000057
1470	7.3450e+01	10.6072	4.258155	0.000114	1.143705	0.387498	-0.000055
1471	7.3500e+01	10.6216	4.235752	-0.000094	-0.938862	-0.318095	-0.000045
1472	7.3550e+01	10.5847	4.211718	0.000101	1.007143	0.341229	-0.000048
1473	7.3600e+01	10.5703	4.184426	0.000114	1.143705	0.387498	-0.000055
1474	7.3650e+01	10.5350	4.157949	0.000111	1.109564	0.375931	-0.000053
1475	7.3700e+01	10.5125	4.136767	0.000089	0.887651	0.300744	-0.000042
1476	7.3750e+01	10.5222	4.107031	-0.000125	-1.246126	-0.422199	-0.000059
1477	7.3800e+01	10.4788	4.080554	0.000111	1.109564	0.375931	-0.000053
1478	7.3850e+01	10.4516	4.056521	0.000101	1.007143	0.341229	-0.000048
1479	7.3900e+01	10.4676	4.027192	-0.000123	-1.229056	-0.416415	-0.000059
1480	7.3950e+01	10.4243	4.001530	0.000108	1.075424	0.364363	-0.000051
1481	7.4000e+01	10.4163	3.982792	0.000079	0.785230	0.266043	-0.000037
1482	7.4050e+01	10.3906	3.954278	0.000119	1.194915	0.404848	-0.000057
1483	7.4100e+01	10.4002	3.927393	-0.000113	-1.126635	-0.381714	-0.000054
1484	7.4150e+01	10.3553	3.900916	0.000111	1.109564	0.375931	-0.000053
1485	7.4200e+01	10.3505	3.873624	0.000114	1.143705	0.387498	-0.000055
1486	7.4250e+01	10.2912	3.846739	0.000113	1.126635	0.381714	-0.000054
1487	7.4300e+01	10.2976	3.818633	-0.000118	-1.177845	-0.399065	-0.000056
1488	7.4350e+01	10.2494	3.795414	0.000097	0.973003	0.329662	-0.000046
1489	7.4400e+01	10.2494	3.767715	0.000116	1.160775	0.393281	-0.000055
1490	7.4450e+01	10.2334	3.742867	0.000104	1.041283	0.352796	-0.000050
1491	7.4500e+01	10.2254	3.711502	0.000131	1.314407	0.445333	-0.000063
1492	7.4550e+01	10.2302	3.688690	-0.000096	-0.955932	-0.323879	-0.000046
1493	7.4600e+01	10.1628	3.663843	0.000104	1.041283	0.352796	-0.000050
1494	7.4650e+01	10.1420	3.636143	0.000116	1.160775	0.393281	-0.000055
1495	7.4700e+01	10.1388	3.611295	0.000104	1.041283	0.352796	-0.000050
1496	7.4750e+01	10.0954	3.584003	0.000114	1.143705	0.387498	-0.000055
1497	7.4800e+01	10.0906	3.555897	0.000118	1.177845	0.399065	-0.000056
1498	7.4850e+01	10.0906	3.530642	0.000106	1.058354	0.358580	-0.000051
1499	7.4900e+01	10.0489	3.500091	0.000128	1.280267	0.433766	-0.000061
1500	7.4950e+01	10.0601	3.476872	-0.000097	-0.973003	-0.329662	-0.000046
1501	7.5000e+01	10.0200	3.449580	0.000114	1.143705	0.387498	-0.000055
1502	7.5050e+01	10.0056	3.425140	0.000102	1.024213	0.347013	-0.000049
1503	7.5100e+01	9.9591	3.400699	0.000102	1.024213	0.347013	-0.000049
1504	7.5150e+01	9.9366	3.372185	0.000119	1.194915	0.404848	-0.000057
1505	7.5200e+01	9.9270	3.347745	0.000102	1.024213	0.347013	-0.000049
1506	7.5250e+01	9.9334	3.323712	-0.000101	-1.007143	-0.341229	-0.000048
1507	7.5300e+01	9.9190	3.294383	0.000123	1.229056	0.416415	-0.000059
1508	7.5350e+01	9.8676	3.271164	0.000097	0.973003	0.329662	-0.000046
1509	7.5400e+01	9.8612	3.243058	0.000118	1.177845	0.399065	-0.000056
1510	7.5450e+01	9.8356	3.220654	0.000094	0.938862	0.318095	-0.000045
1511	7.5500e+01	9.8115	3.193362	0.000114	1.143705	0.387498	-0.000055
1512	7.5550e+01	9.7970	3.170143	0.000097	0.973003	0.329662	-0.000046
1513	7.5600e+01	9.7954	3.140000	0.000126	1.263196	0.427982	-0.000060
1514	7.5650e+01	9.7569	3.117596	0.000094	0.938862	0.318095	-0.000045
1515	7.5700e+01	9.7281	3.090712	0.000113	1.126635	0.381714	-0.000054
1516	7.5750e+01	9.7152	3.067493	0.000097	0.973003	0.329662	-0.000046
1517	7.5800e+01	9.7297	3.036128	-0.000131	-1.314407	-0.445333	-0.000063
1518	7.5850e+01	9.6783	3.013317	0.000096	0.955932	0.323879	-0.000046
1519	7.5900e+01	9.6543	2.989691	0.000099	0.990073	0.335446	-0.000047
1520	7.5950e+01	9.6318	2.957511	0.000135	1.348547	0.456900	-0.000064
1521	7.6000e+01	9.6094	2.934292	0.000097	0.973003	0.329662	-0.000046
1522	7.6050e+01	9.5837	2.906593	0.000116	1.160775	0.393281	-0.000055
1523	7.6100e+01	9.5933	2.882560	-0.000101	-1.007143	-0.341229	-0.000048
1524	7.6150e+01	9.5500	2.856082	0.000111	1.109564	0.375931	-0.000053
1525	7.6200e+01	9.5388	2.828383	0.000116	1.160775	0.393281	-0.000055
1526	7.6250e+01	9.4762	2.803942	0.000102	1.024213	0.347013	-0.000049
1527	7.6300e+01	9.4762	2.776651	0.000114	1.143705	0.387498	-0.000055
1528	7.6350e+01	9.4874	2.751803	-0.000104	-1.041283	-0.352796	-0.000050
1529	7.6400e+01	9.4666	2.731028	0.000087	0.870581	0.294961	-0.000042
1530	7.6450e+01	9.4265	2.698441	0.000137	1.365618	0.462684	-0.000065
1531	7.6500e+01	9.4233	2.672371	0.000109	1.092494	0.370147	-0.000052
1532	7.6550e+01	9.3864	2.647523	0.000104	1.041283	0.352796	-0.000050
1533	7.6600e+01	9.3607	2.620638	0.000113	1.126635	0.381714	-0.000054
1534	7.6650e+01	9.3366	2.594568	0.000109	1.092494	0.370147	-0.000052
1535	7.6700e+01	9.3431	2.569313	-0.000106	-1.058354	-0.358580	-0.000051
1536	7.6750e+01	9.3286	2.537948	0.000131	1.314407	0.445333	-0.000063
1537	7.6800e+01	9.2885	2.516359	0.000090	0.904722	0.306528	-0.000043
1538	7.6850e+01	9.2805	2.484993	0.000131	1.314407	0.445333	-0.000063
1539	7.6900e+01	9.2644	2.462997	0.000092	0.921792	0.312312	-0.000044
1540	7.6950e+01	9.2275	2.431224	0.000133	1.331477	0.451117	-0.000064
1541	7.7000e+01	9.2195	2.406376	0.000104	1.041283	0.352796	-0.000050
1542	7.7050e+01	9.2131	2.378269	0.000118	1.177845	0.399065	-0.000056
1543	7.7100e+01	9.1554	2.346497	0.000133	1.331477	0.451117	-0.000064
1544	7.7150e+01	9.1890	2.320427	-0.000109	-1.092494	-0.370147	-0.000052
1545	7.7200e+01	9.1441	2.293135	0.000114	1.143705	0.387498	-0.000055
1546	7.7250e+01	9.1088	2.271138	0.000092	0.921792	0.312312	-0.000044
1547	7.7300e+01	9.0976	2.243032	0.000118	1.177845	0.399065	-0.000056
1548	7.7350e+01	9.0703	2.214518	0.000119	1.194915	0.404848	-0.000057
1549	7.7400e+01	9.0623	2.187226	0.000114	1.143705	0.387498	-0.000055
1550	7.7450e+01	9.0655	2.159934	-0.000114	-1.143705	-0.387498	-0.000055
1551	7.7500e+01	9.0158	2.130605	0.000123	1.229056	0.416415	-0.000059
1552	7.7550e+01	8.9901	2.103313	0.000114	1.143705	0.387498	-0.000055
1553	7.7600e+01	8.9789	2.074392	0.000121	1.211986	0.410632	-0.000058
1554	7.7650e+01	8.9340	2.048729	0.000108	1.075424	0.364363	-0.000051
1555	7.7700e+01	8.9612	2.023474	-0.000106	-1.058354	-0.358580	-0.000051
1556	7.7750e+01	8.9211	1.996182	0.000114	1.143705	0.387498	-0.000055
1557	7.7800e+01	8.8874	1.964409	0.000133	1.331477	0.451117	-0.000064
1558	7.7850e+01	8.8842	1.935488	0.000121	1.211986	0.410632	-0.000058
1559	7.7900e+01	8.8361	1.909826	0.000108	1.075424	0.364363	-0.000051
1560	7.7950e+01	8.8169	1.878460	0.000131	1.314407	0.445333	-0.000063
1561	7.8000e+01	8.8056	1.852798	0.000108	1.075424	0.364363	-0.000051
1562	7.8050e+01	8.7719	1.822654	0.000126	1.263196	0.427982	-0.000060
1563	7.8100e+01	8.7719	1.795770	0.000113	1.126635	0.381714	-0.000054
1564	7.8150e+01	8.7671	1.764404	0.000131	1.314407	0.445333	-0.000063
1565	7.8200e+01	8.7014	1.733039	0.000131	1.314407	0.445333	-0.000063
1566	7.8250e+01	8.6869	1.707784	0.000106	1.058354	0.358580	-0.000051
1567	7.8300e+01	8.6869	1.678455	0.000123	1.229056	0.416415	-0.000059
1568	7.8350e+01	8.6773	1.648719	0.000125	1.246126	0.422199	-0.000059
1569	7.8400e+01	8.6564	1.621020	0.000116	1.160775	0.393281	-0.000055
1570	7.8450e+01	8.6083	1.587618	0.000140	1.399758	0.474251	-0.000067
1571	7.8500e+01	8.5923	1.561955	0.000108	1.075424	0.364363	-0.000051
1572	7.8550e+01	8.5923	1.531812	0.000126	1.263196	0.427982	-0.000060
1573	7.8600e+01	8.5666	1.500854	0.000130	1.297337	0.439550	-0.000062
1574	7.8650e+01	8.5457	1.473154	0.000116	1.160775	0.393281	-0.000055
1575	7.8700e+01	8.5409	1.440974	0.000135	1.348547	0.456900	-0.000064
1576	7.8750e+01	8.5185	1.415312	0.000108	1.075424	0.364363	-0.000051
1577	7.8800e+01	8.4768	1.382317	0.000138	1.382688	0.468467	-0.000066
1578	7.8850e+01	8.4800	1.356247	-0.000109	-1.092494	-0.370147	-0.000052
1579	7.8900e+01	8.4703	1.324882	0.000131	1.314407	0.445333	-0.000063
1580	7.8950e+01	8.4447	1.293924	0.000130	1.297337	0.439550	-0.000062
1581	7.9000e+01	8.4286	1.265817	0.000118	1.177845	0.399065	-0.000056
1582	7.9050e+01	8.3757	1.242598	0.000097	0.973003	0.329662	-0.000046
1583	7.9100e+01	8.3982	1.210011	-0.000137	-1.365618	-0.462684	-0.000065
1584	7.9150e+01	8.3725	1.180682	0.000123	1.229056	0.416415	-0.000059
1585	7.9200e+01	8.3292	1.148502	0.000135	1.348547	0.456900	-0.000064
1586	7.9250e+01	8.3147	1.117952	0.000128	1.280267	0.433766	-0.000061
1587	7.9300e+01	8.2843	1.090252	0.000116	1.160775	0.393281	-0.000055
1588	7.9350e+01	8.2762	1.058480	0.000133	1.331477	0.451117	-0.000064
1589	7.9400e+01	8.2313	1.031188	0.000114	1.143705	0.387498	-0.000055
1590	7.9450e+01	8.2265	0.996156	0.000147	1.468039	0.497385	-0.000070
1591	7.9500e+01	8.2137	0.968457	0.000116	1.160775	0.393281	-0.000055
1592	7.9550e+01	8.1944	0.942387	0.000109	1.092494	0.370147	-0.000052
1593	7.9600e+01	8.1912	0.908578	0.000142	1.416828	0.480034	-0.000068
1594	7.9650e+01	8.1671	0.879656	0.000121	1.211986	0.410632	-0.000058
1595	7.9700e+01	8.1463	0.845032	0.000145	1.450969	0.491602	-0.000069
1596	7.9750e+01	8.0998	0.820184	0.000104	1.041283	0.352796	-0.000050
1597	7.9800e+01	8.1014	0.792892	-0.000114	-1.143705	-0.387498	-0.000055
1598	7.9850e+01	8.0581	0.761934	0.000130	1.297337	0.439550	-0.000062
1599	7.9900e+01	8.0324	0.735050	0.000113	1.126635	0.381714	-0.000054
1600	7.9950e+01	8.0340	0.702462	-0.000137	-1.365618	-0.462684	-0.000065
1601	8.0000e+01	7.9987	0.673541	0.000121	1.211986	0.410632	-0.000058
1602	8.0050e+01	7.9923	0.645027	0.000119	1.194915	0.404848	-0.000057
1603	8.0100e+01	8.0019	0.615291	-0.000125	-1.246126	-0.422199	-0.000059
1604	8.0150e+01	7.9682	0.585555	0.000125	1.246126	0.422199	-0.000059
1605	8.0200e+01	7.9185	0.558263	0.000114	1.143705	0.387498	-0.000055
1606	8.0250e+01	7.8880	0.528527	0.000125	1.246126	0.422199	-0.000059
1607	8.0300e+01	7.9008	0.497976	-0.000128	-1.280267	-0.433766	-0.000061
1608	8.0350e+01	7.8768	0.469870	0.000118	1.177845	0.399065	-0.000056
1609	8.0400e+01	7.8319	0.442985	0.000113	1.126635	0.381714	-0.000054
1610	8.0450e+01	7.8447	0.412027	-0.000130	-1.297337	-0.439550	-0.000062
1611	8.0500e+01	7.8030	0.383920	0.000118	1.177845	0.399065	-0.000056
1612	8.0550e+01	7.7918	0.352555	0.000131	1.314407	0.445333	-0.000063
1613	8.0600e+01	7.7581	0.324041	0.000119	1.194915	0.404848	-0.000057
1614	8.0650e+01	7.7565	0.291046	0.000138	1.382688	0.468467	-0.000066
1615	8.0700e+01	7.7196	0.263347	0.000116	1.160775	0.393281	-0.000055
1616	8.0750e+01	7.7067	0.233611	0.000125	1.246126	0.422199	-0.000059
1617	8.0800e+01	7.6650	0.202246	0.000131	1.314407	0.445333	-0.000063
1618	8.0850e+01	7.6522	0.174546	0.000116	1.160775	0.393281	-0.000055
1619	8.0900e+01	7.6361	0.146032	0.000119	1.194915	0.404848	-0.000057
1620	8.0950e+01	7.5960	0.118333	0.000116	1.160775	0.393281	-0.000055
1621	8.1000e+01	7.6153	0.087375	-0.000130	-1.297337	-0.439550	-0.000062
1622	8.1050e+01	7.5993	0.057232	0.000126	1.263196	0.427982	-0.000060
1623	8.1100e+01	7.5543	0.027088	0.000126	1.263196	0.427982	-0.000060
1624	8.1150e+01	7.5640	-0.000204	-0.000114	-1.143705	-0.387498	-0.000055
1625	8.1200e+01	7.5367	-0.031569	0.000131	1.314407	0.445333	-0.000063
1626	8.1250e+01	7.5206	-0.061712	0.000126	1.263196	0.427982	-0.000060
1627	8.1300e+01	7.4773	-0.089004	0.000114	1.143705	0.387498	-0.000055
1628	8.1350e+01	7.4805	-0.121592	-0.000137	-1.365618	-0.462684	-0.000065
1629	8.1400e+01	7.4372	-0.145625	0.000101	1.007143	0.341229	-0.000048
1630	8.1450e+01	7.4292	-0.178212	0.000137	1.365618	0.462684	-0.000065
1631	8.1500e+01	7.4260	-0.205097	0.000113	1.126635	0.381714	-0.000054
1632	8.1550e+01	7.4019	-0.238092	0.000138	1.382688	0.468467	-0.000066
1633	8.1600e+01	7.3570	-0.266606	0.000119	1.194915	0.404848	-0.000057
1634	8.1650e+01	7.3779	-0.288602	-0.000092	-0.921792	-0.312312	-0.000044
1635	8.1700e+01	7.3346	-0.321597	0.000138	1.382688	0.468467	-0.000066
1636	8.1750e+01	7.2896	-0.354999	0.000140	1.399758	0.474251	-0.000067
1637	8.1800e+01	7.2993	-0.383106	-0.000118	-1.177845	-0.399065	-0.000056
1638	8.1850e+01	7.2608	-0.413656	0.000128	1.280267	0.433766	-0.000061
1639	8.1900e+01	7.2656	-0.442578	-0.000121	-1.211986	-0.410632	-0.000058
1640	8.1950e+01	7.2126	-0.475165	0.000137	1.365618	0.462684	-0.000065
1641	8.2000e+01	7.2223	-0.501235	-0.000109	-1.092494	-0.370147	-0.000052
1642	8.2050e+01	7.1822	-0.530156	0.000121	1.211986	0.410632	-0.000058
1643	8.2100e+01	7.2158	-0.559485	-0.000123	-1.229056	-0.416415	-0.000059
1644	8.2150e+01	7.1613	-0.592072	0.000137	1.365618	0.462684	-0.000065
1645	8.2200e+01	7.1212	-0.620586	0.000119	1.194915	0.404848	-0.000057
1646	8.2250e+01	7.1340	-0.647878	-0.000114	-1.143705	-0.387498	-0.000055
1647	8.2300e+01	7.0971	-0.678836	0.000130	1.297337	0.439550	-0.000062
1648	8.2350e+01	7.0650	-0.708572	0.000125	1.246126	0.422199	-0.000059
1649	8.2400e+01	7.0666	-0.743196	-0.000145	-1.450969	-0.491602	-0.000069
1650	8.2450e+01	7.0281	-0.768859	0.000108	1.075424	0.364363	-0.000051
1651	8.2500e+01	7.0265	-0.796558	0.000116	1.160775	0.393281	-0.000055
1652	8.2550e+01	6.9896	-0.828738	0.000135	1.348547	0.456900	-0.000064
1653	8.2600e+01	6.9752	-0.858474	0.000125	1.246126	0.422199	-0.000059
1654	8.2650e+01	6.9447	-0.886988	0.000119	1.194915	0.404848	-0.000057
1655	8.2700e+01	6.9495	-0.915910	-0.000121	-1.211986	-0.410632	-0.000058
1656	8.2750e+01	6.9078	-0.946868	0.000130	1.297337	0.439550	-0.000062
1657	8.2800e+01	6.9126	-0.978233	-0.000131	-1.314407	-0.445333	-0.000063
1658	8.2850e+01	6.8757	-1.004710	0.000111	1.109564	0.375931	-0.000053
1659	8.2900e+01	6.8276	-1.034039	0.000123	1.229056	0.416415	-0.000059
1660	8.2950e+01	6.8212	-1.065404	0.000131	1.314407	0.445333	-0.000063
1661	8.3000e+01	6.8068	-1.090660	0.000106	1.058354	0.358580	-0.000051
1662	8.3050e+01	6.7891	-1.122025	0.000131	1.314407	0.445333	-0.000063
1663	8.3100e+01	6.7923	-1.151761	-0.000125	-1.246126	-0.422199	-0.000059
1664	8.3150e+01	6.7763	-1.186385	0.000145	1.450969	0.491602	-0.000069
1665	8.3200e+01	6.7346	-1.215307	0.000121	1.211986	0.410632	-0.000058
1666	8.3250e+01	6.7249	-1.244635	0.000123	1.229056	0.416415	-0.000059
1667	8.3300e+01	6.6848	-1.274779	0.000126	1.263196	0.427982	-0.000060
1668	8.3350e+01	6.6672	-1.304515	0.000125	1.246126	0.422199	-0.000059
1669	8.3400e+01	6.6720	-1.335065	-0.000128	-1.280267	-0.433766	-0.000061
1670	8.3450e+01	6.6560	-1.363579	0.000119	1.194915	0.404848	-0.000057
1671	8.3500e+01	6.6191	-1.395352	0.000133	1.331477	0.451117	-0.000064
1672	8.3550e+01	6.5629	-1.427939	0.000137	1.365618	0.462684	-0.000065
1673	8.3600e+01	6.5677	-1.456453	-0.000119	-1.194915	-0.404848	-0.000057
1674	8.3650e+01	6.5549	-1.492299	0.000150	1.502179	0.508952	-0.000072
1675	8.3700e+01	6.5004	-1.521628	0.000123	1.229056	0.416415	-0.000059
1676	8.3750e+01	6.4827	-1.554623	0.000138	1.382688	0.468467	-0.000066
1677	8.3800e+01	6.4875	-1.582322	-0.000116	-1.160775	-0.393281	-0.000055
1678	8.3850e+01	6.4955	-1.608392	-0.000109	-1.092494	-0.370147	-0.000052
1679	8.3900e+01	6.4667	-1.638943	0.000128	1.280267	0.433766	-0.000061
1680	8.3950e+01	6.4201	-1.669901	0.000130	1.297337	0.439550	-0.000062
1681	8.4000e+01	6.4362	-1.702896	-0.000138	-1.382688	-0.468467	-0.000066
1682	8.4050e+01	6.3913	-1.731410	0.000119	1.194915	0.404848	-0.000057
1683	8.4100e+01	6.3993	-1.766441	-0.000147	-1.468039	-0.497385	-0.000070
1684	8.4150e+01	6.3463	-1.795362	0.000121	1.211986	0.410632	-0.000058
1685	8.4200e+01	6.3271	-1.824284	0.000121	1.211986	0.410632	-0.000058
1686	8.4250e+01	6.3014	-1.857686	0.000140	1.399758	0.474251	-0.000067
1687	8.4300e+01	6.3159	-1.888236	-0.000128	-1.280267	-0.433766	-0.000061
1688	8.4350e+01	6.2629	-1.916750	0.000119	1.194915	0.404848	-0.000057
1689	8.4400e+01	6.2373	-1.948523	0.000133	1.331477	0.451117	-0.000064
1690	8.4450e+01	6.2709	-1.979888	-0.000131	-1.314407	-0.445333	-0.000063
1691	8.4500e+01	6.2116	-2.011661	0.000133	1.331477	0.451117	-0.000064
1692	8.4550e+01	6.1763	-2.042212	0.000128	1.280267	0.433766	-0.000061
1693	8.4600e+01	6.1603	-2.074799	0.000137	1.365618	0.462684	-0.000065
1694	8.4650e+01	6.1314	-2.103721	0.000121	1.211986	0.410632	-0.000058
1695	8.4700e+01	6.1378	-2.134271	-0.000128	-1.280267	-0.433766	-0.000061
1696	8.4750e+01	6.1169	-2.168488	0.000143	1.433899	0.485818	-0.000068
1697	8.4800e+01	6.0656	-2.197409	0.000121	1.211986	0.410632	-0.000058
1698	8.4850e+01	6.0977	-2.227960	-0.000128	-1.280267	-0.433766	-0.000061
1699	8.4900e+01	6.0528	-2.262992	0.000147	1.468039	0.497385	-0.000070
1700	8.4950e+01	6.0415	-2.292320	0.000123	1.229056	0.416415	-0.000059
1701	8.5000e+01	6.0111	-2.325722	0.000140	1.399758	0.474251	-0.000067
1702	8.5050e+01	5.9998	-2.357088	0.000131	1.314407	0.445333	-0.000063
1703	8.5100e+01	5.9549	-2.383565	0.000111	1.109564	0.375931	-0.000053
1704	8.5150e+01	5.9533	-2.416560	0.000138	1.382688	0.468467	-0.000066
1705	8.5200e+01	5.9196	-2.447925	0.000131	1.314407	0.445333	-0.000063
1706	8.5250e+01	5.9036	-2.480105	0.000135	1.348547	0.456900	-0.000064
1707	8.5300e+01	5.8972	-2.506175	0.000109	1.092494	0.370147	-0.000052
1708	8.5350e+01	5.8699	-2.535911	0.000125	1.246126	0.422199	-0.000059
1709	8.5400e+01	5.8651	-2.570128	0.000143	1.433899	0.485818	-0.000068
1710	8.5450e+01	5.8234	-2.601086	0.000130	1.297337	0.439550	-0.000062
1711	8.5500e+01	5.8330	-2.632044	-0.000130	-1.297337	-0.439550	-0.000062
1712	8.5550e+01	5.8282	-2.660558	0.000119	1.194915	0.404848	-0.000057
1713	8.5600e+01	5.7720	-2.688257	0.000116	1.160775	0.393281	-0.000055
1714	8.5650e+01	5.7415	-2.719623	0.000131	1.314407	0.445333	-0.000063
1715	8.5700e+01	5.7239	-2.750173	0.000128	1.280267	0.433766	-0.000061
1716	8.5750e+01	5.7127	-2.780724	0.000128	1.280267	0.433766	-0.000061
1717	8.5800e+01	5.6934	-2.812904	0.000135	1.348547	0.456900	-0.000064
1718	8.5850e+01	5.6870	-2.840196	0.000114	1.143705	0.387498	-0.000055
1719	8.5900e+01	5.6485	-2.871561	0.000131	1.314407	0.445333	-0.000063
1720	8.5950e+01	5.6244	-2.903334	0.000133	1.331477	0.451117	-0.000064
1721	8.6000e+01	5.6180	-2.933477	0.000126	1.263196	0.427982	-0.000060
1722	8.6050e+01	5.5763	-2.963213	0.000125	1.246126	0.422199	-0.000059
1723	8.6100e+01	5.5442	-2.992542	0.000123	1.229056	0.416415	-0.000059
1724	8.6150e+01	5.5314	-3.020241	0.000116	1.160775	0.393281	-0.000055
1725	8.6200e+01	5.5506	-3.054865	-0.000145	-1.450969	-0.491602	-0.000069
1726	8.6250e+01	5.5089	-3.087046	0.000135	1.348547	0.456900	-0.000064
1727	8.6300e+01	5.4977	-3.117189	0.000126	1.263196	0.427982	-0.000060
1728	8.6350e+01	5.5250	-3.147332	-0.000126	-1.263196	-0.427982	-0.000060
1729	8.6400e+01	5.4544	-3.175032	0.000116	1.160775	0.393281	-0.000055
1730	8.6450e+01	5.4287	-3.205990	0.000130	1.297337	0.439550	-0.000062
1731	8.6500e+01	5.4175	-3.232467	0.000111	1.109564	0.375931	-0.000053
1732	8.6550e+01	5.3966	-3.261388	0.000121	1.211986	0.410632	-0.000058
1733	8.6600e+01	5.3710	-3.292346	0.000130	1.297337	0.439550	-0.000062
1734	8.6650e+01	5.3533	-3.324119	0.000133	1.331477	0.451117	-0.000064
1735	8.6700e+01	5.3373	-3.353448	0.000123	1.229056	0.416415	-0.000059
1736	8.6750e+01	5.3020	-3.382369	0.000121	1.211986	0.410632	-0.000058
1737	8.6800e+01	5.2587	-3.409661	0.000114	1.143705	0.387498	-0.000055
1738	8.6850e+01	5.2523	-3.438989	0.000123	1.229056	0.416415	-0.000059
1739	8.6900e+01	5.2507	-3.469948	0.000130	1.297337	0.439550	-0.000062
1740	8.6950e+01	5.2186	-3.498869	0.000121	1.211986	0.410632	-0.000058
1741	8.7000e+01	5.2122	-3.526161	0.000114	1.143705	0.387498	-0.000055
1742	8.7050e+01	5.2170	-3.561192	-0.000147	-1.468039	-0.497385	-0.000070
1743	8.7100e+01	5.1640	-3.590928	0.000125	1.246126	0.422199	-0.000059
1744	8.7150e+01	5.1640	-3.622701	0.000133	1.331477	0.451117	-0.000064
1745	8.7200e+01	5.1319	-3.653252	0.000128	1.280267	0.433766	-0.000061
1746	8.7250e+01	5.1047	-3.678914	0.000108	1.075424	0.364363	-0.000051
1747	8.7300e+01	5.0950	-3.713946	0.000147	1.468039	0.497385	-0.000070
1748	8.7350e+01	5.0870	-3.742052	0.000118	1.177845	0.399065	-0.000056
1749	8.7400e+01	5.0565	-3.769344	0.000114	1.143705	0.387498	-0.000055
1750	8.7450e+01	5.0084	-3.803154	0.000142	1.416828	0.480034	-0.000068
1751	8.7500e+01	5.0148	-3.832482	-0.000123	-1.229056	-0.416415	-0.000059
1752	8.7550e+01	5.0052	-3.863440	0.000130	1.297337	0.439550	-0.000062
1753	8.7600e+01	4.9860	-3.893991	0.000128	1.280267	0.433766	-0.000061
1754	8.7650e+01	4.9683	-3.922912	0.000121	1.211986	0.410632	-0.000058
1755	8.7700e+01	4.9057	-3.955500	0.000137	1.365618	0.462684	-0.000065
1756	8.7750e+01	4.9170	-3.980348	-0.000104	-1.041283	-0.352796	-0.000050
1757	8.7800e+01	4.9138	-4.012935	0.000137	1.365618	0.462684	-0.000065
1758	8.7850e+01	4.8705	-4.040227	0.000114	1.143705	0.387498	-0.000055
1759	8.7900e+01	4.8464	-4.070778	0.000128	1.280267	0.433766	-0.000061
1760	8.7950e+01	4.8432	-4.104587	0.000142	1.416828	0.480034	-0.000068
1761	8.8000e+01	4.8095	-4.134323	0.000125	1.246126	0.422199	-0.000059
1762	8.8050e+01	4.8191	-4.163652	-0.000123	-1.229056	-0.416415	-0.000059
1763	8.8100e+01	4.7934	-4.190536	0.000113	1.126635	0.381714	-0.000054
1764	8.8150e+01	4.7517	-4.225568	0.000147	1.468039	0.497385	-0.000070
1765	8.8200e+01	4.7325	-4.257341	0.000133	1.331477	0.451117	-0.000064
1766	8.8250e+01	4.7068	-4.287484	0.000126	1.263196	0.427982	-0.000060
1767	8.8300e+01	4.6876	-4.321701	0.000143	1.433899	0.485818	-0.000068
1768	8.8350e+01	4.6731	-4.355510	0.000142	1.416828	0.480034	-0.000068
1769	8.8400e+01	4.6571	-4.383617	0.000118	1.177845	0.399065	-0.000056
1770	8.8450e+01	4.6603	-4.416204	-0.000137	-1.365618	-0.462684	-0.000065
1771	8.8500e+01	4.6138	-4.446348	0.000126	1.263196	0.427982	-0.000060
1772	8.8550e+01	4.6074	-4.477713	0.000131	1.314407	0.445333	-0.000063
1773	8.8600e+01	4.5560	-4.511522	0.000142	1.416828	0.480034	-0.000068
1774	8.8650e+01	4.5640	-4.542888	-0.000131	-1.314407	-0.445333	-0.000063
1775	8.8700e+01	4.5336	-4.576290	0.000140	1.399758	0.474251	-0.000067
1776	8.8750e+01	4.4967	-4.607248	0.000130	1.297337	0.439550	-0.000062
1777	8.8800e+01	4.4999	-4.638206	-0.000130	-1.297337	-0.439550	-0.000062
1778	8.8850e+01	4.4774	-4.669979	0.000133	1.331477	0.451117	-0.000064
1779	8.8900e+01	4.4534	-4.699307	0.000123	1.229056	0.416415	-0.000059
1780	8.8950e+01	4.4501	-4.735153	0.000150	1.502179	0.508952	-0.000072
1781	8.9000e+01	4.4277	-4.764482	0.000123	1.229056	0.416415	-0.000059
1782	8.9050e+01	4.4004	-4.794626	0.000126	1.263196	0.427982	-0.000060
1783	8.9100e+01	4.3475	-4.828842	0.000143	1.433899	0.485818	-0.000068
1784	8.9150e+01	4.3667	-4.860208	-0.000131	-1.314407	-0.445333	-0.000063
1785	8.9200e+01	4.3491	-4.893202	0.000138	1.382688	0.468467	-0.000066
1786	8.9250e+01	4.3330	-4.923346	0.000126	1.263196	0.427982	-0.000060
1787	8.9300e+01	4.2801	-4.960007	0.000154	1.536320	0.520519	-0.000073
1788	8.9350e+01	4.3026	-4.988928	-0.000121	-1.211986	-0.410632	-0.000058
1789	8.9400e+01	4.2320	-5.018664	0.000125	1.246126	0.422199	-0.000059
1790	8.9450e+01	4.2368	-5.053695	-0.000147	-1.468039	-0.497385	-0.000070
1791	8.9500e+01	4.1935	-5.085468	0.000133	1.331477	0.451117	-0.000064
1792	8.9550e+01	4.1935	-5.118463	0.000138	1.382688	0.468467	-0.000066
1793	8.9600e+01	4.1870	-5.148199	0.000125	1.246126	0.422199	-0.000059
1794	8.9650e+01	4.1694	-5.182008	0.000142	1.416828	0.480034	-0.000068
1795	8.9700e+01	4.1165	-5.214596	0.000137	1.365618	0.462684	-0.000065
1796	8.9750e+01	4.0988	-5.251257	0.000154	1.536320	0.520519	-0.000073
1797	8.9800e+01	4.0828	-5.283844	0.000137	1.365618	0.462684	-0.000065
1798	8.9850e+01	4.0860	-5.312765	-0.000121	-1.211986	-0.410632	-0.000058
1799	8.9900e+01	4.0266	-5.348611	0.000150	1.502179	0.508952	-0.000072
1800	8.9950e+01	4.0314	-5.375089	-0.000111	-1.109564	-0.375931	-0.000053
1801	9.0000e+01	4.0298	-5.407269	0.000135	1.348547	0.456900	-0.000064
1802	9.0050e+01	3.9833	-5.445966	0.000162	1.621671	0.549437	-0.000077
1803	9.0100e+01	3.9801	-5.476517	0.000128	1.280267	0.433766	-0.000061
1804	9.0150e+01	3.9528	-5.508697	0.000135	1.348547	0.456900	-0.000064
1805	9.0200e+01	3.9207	-5.542506	0.000142	1.416828	0.480034	-0.000068
1806	9.0250e+01	3.9416	-5.577131	-0.000145	-1.450969	-0.491602	-0.000069
1807	9.0300e+01	3.8822	-5.611347	0.000143	1.433899	0.485818	-0.000068
1808	9.0350e+01	3.9031	-5.643935	-0.000137	-1.365618	-0.462684	-0.000065
1809	9.0400e+01	3.8405	-5.670819	0.000113	1.126635	0.381714	-0.000054
1810	9.0450e+01	3.8421	-5.706665	-0.000150	-1.502179	-0.508952	-0.000072
1811	9.0500e+01	3.7940	-5.742104	0.000149	1.485109	0.503169	-0.000071
1812	9.0550e+01	3.7940	-5.774692	0.000137	1.365618	0.462684	-0.000065
1813	9.0600e+01	3.7796	-5.804428	0.000125	1.246126	0.422199	-0.000059
1814	9.0650e+01	3.7491	-5.837015	0.000137	1.365618	0.462684	-0.000065
1815	9.0700e+01	3.7491	-5.867973	0.000130	1.297337	0.439550	-0.000062
1816	9.0750e+01	3.6897	-5.903412	0.000149	1.485109	0.503169	-0.000071
1817	9.0800e+01	3.6978	-5.937221	-0.000142	-1.416828	-0.480034	-0.000068
1818	9.0850e+01	3.6817	-5.970216	0.000138	1.382688	0.468467	-0.000066
1819	9.0900e+01	3.6593	-6.006877	0.000154	1.536320	0.520519	-0.000073
1820	9.0950e+01	3.6400	-6.035391	0.000119	1.194915	0.404848	-0.000057
1821	9.1000e+01	3.5951	-6.071644	0.000152	1.519250	0.514736	-0.000073
1822	9.1050e+01	3.5871	-6.103824	0.000135	1.348547	0.456900	-0.000064
1823	9.1100e+01	3.5646	-6.141300	0.000157	1.570460	0.532086	-0.000075
1824	9.1150e+01	3.5662	-6.176331	-0.000147	-1.468039	-0.497385	-0.000070
1825	9.1200e+01	3.5341	-6.207289	0.000130	1.297337	0.439550	-0.000062
1826	9.1250e+01	3.5149	-6.238655	0.000131	1.314407	0.445333	-0.000063
1827	9.1300e+01	3.5036	-6.272057	0.000140	1.399758	0.474251	-0.000067
1828	9.1350e+01	3.4635	-6.311977	0.000167	1.672882	0.566788	-0.000080
1829	9.1400e+01	3.4539	-6.343749	0.000133	1.331477	0.451117	-0.000064
1830	9.1450e+01	3.4266	-6.377966	0.000143	1.433899	0.485818	-0.000068
1831	9.1500e+01	3.4122	-6.409331	0.000131	1.314407	0.445333	-0.000063
1832	9.1550e+01	3.3881	-6.445178	0.000150	1.502179	0.508952	-0.000072
1833	9.1600e+01	3.3593	-6.477765	0.000137	1.365618	0.462684	-0.000065
1834	9.1650e+01	3.3432	-6.512389	0.000145	1.450969	0.491602	-0.000069
1835	9.1700e+01	3.3400	-6.542940	0.000128	1.280267	0.433766	-0.000061
1836	9.1750e+01	3.3063	-6.577564	0.000145	1.450969	0.491602	-0.000069
1837	9.1800e+01	3.2839	-6.610559	0.000138	1.382688	0.468467	-0.000066
1838	9.1850e+01	3.2566	-6.645590	0.000147	1.468039	0.497385	-0.000070
1839	9.1900e+01	3.2341	-6.678992	0.000140	1.399758	0.474251	-0.000067
1840	9.1950e+01	3.2550	-6.713209	-0.000143	-1.433899	-0.485818	-0.000068
1841	9.2000e+01	3.2020	-6.743352	0.000126	1.263196	0.427982	-0.000060
1842	9.2050e+01	3.2101	-6.778384	-0.000147	-1.468039	-0.497385	-0.000070
1843	9.2100e+01	3.1796	-6.811786	0.000140	1.399758	0.474251	-0.000067
1844	9.2150e+01	3.1523	-6.843559	0.000133	1.331477	0.451117	-0.000064
1845	9.2200e+01	3.1363	-6.878997	0.000149	1.485109	0.503169	-0.000071
1846	9.2250e+01	3.1475	-6.909955	-0.000130	-1.297337	-0.439550	-0.000062
1847	9.2300e+01	3.1090	-6.945394	0.000149	1.485109	0.503169	-0.000071
1848	9.2350e+01	3.0673	-6.979204	0.000142	1.416828	0.480034	-0.000068
1849	9.2400e+01	3.0721	-7.015050	-0.000150	-1.502179	-0.508952	-0.000072
1850	9.2450e+01	3.0095	-7.048044	0.000138	1.382688	0.468467	-0.000066
1851	9.2500e+01	3.0176	-7.081039	-0.000138	-1.382688	-0.468467	-0.000066
1852	9.2550e+01	3.0015	-7.114441	0.000140	1.399758	0.474251	-0.000067
1853	9.2600e+01	2.9855	-7.150287	0.000150	1.502179	0.508952	-0.000072
1854	9.2650e+01	2.9823	-7.182875	0.000137	1.365618	0.462684	-0.000065
1855	9.2700e+01	2.9197	-7.219128	0.000152	1.519250	0.514736	-0.000073
1856	9.2750e+01	2.9149	-7.252123	0.000138	1.382688	0.468467	-0.000066
1857	9.2800e+01	2.9245	-7.287969	-0.000150	-1.502179	-0.508952	-0.000072
1858	9.2850e+01	2.8924	-7.320964	0.000138	1.382688	0.468467	-0.000066
1859	9.2900e+01	2.8411	-7.356810	0.000150	1.502179	0.508952	-0.000072
1860	9.2950e+01	2.8379	-7.394286	0.000157	1.570460	0.532086	-0.000075
1861	9.3000e+01	2.8267	-7.424022	0.000125	1.246126	0.422199	-0.000059
1862	9.3050e+01	2.8010	-7.457831	0.000142	1.416828	0.480034	-0.000068
1863	9.3100e+01	2.7625	-7.489604	0.000133	1.331477	0.451117	-0.000064
1864	9.3150e+01	2.7753	-7.524635	-0.000147	-1.468039	-0.497385	-0.000070
1865	9.3200e+01	2.7368	-7.562111	0.000157	1.570460	0.532086	-0.000075
1866	9.3250e+01	2.6887	-7.591439	0.000123	1.229056	0.416415	-0.000059
1867	9.3300e+01	2.6582	-7.630137	0.000162	1.621671	0.549437	-0.000077
1868	9.3350e+01	2.6807	-7.664354	-0.000143	-1.433899	-0.485818	-0.000068
1869	9.3400e+01	2.6390	-7.700200	0.000150	1.502179	0.508952	-0.000072
1870	9.3450e+01	2.6229	-7.734824	0.000145	1.450969	0.491602	-0.000069
1871	9.3500e+01	2.6085	-7.769855	0.000147	1.468039	0.497385	-0.000070
1872	9.3550e+01	2.5812	-7.807738	0.000159	1.587530	0.537870	-0.000076
1873	9.3600e+01	2.5668	-7.839511	0.000133	1.331477	0.451117	-0.000064
1874	9.3650e+01	2.5507	-7.876579	0.000155	1.553390	0.526303	-0.000074
1875	9.3700e+01	2.5154	-7.916906	0.000169	1.689952	0.572571	-0.000081
1876	9.3750e+01	2.5202	-7.951123	-0.000143	-1.433899	-0.485818	-0.000068
1877	9.3800e+01	2.5042	-7.986969	0.000150	1.502179	0.508952	-0.000072
1878	9.3850e+01	2.4882	-8.023630	0.000154	1.536320	0.520519	-0.000073
1879	9.3900e+01	2.4561	-8.055810	0.000135	1.348547	0.456900	-0.000064
1880	9.3950e+01	2.4176	-8.097359	0.000174	1.741162	0.589922	-0.000083
1881	9.4000e+01	2.4176	-8.135242	0.000159	1.587530	0.537870	-0.000076
1882	9.4050e+01	2.3919	-8.169459	0.000143	1.433899	0.485818	-0.000068
1883	9.4100e+01	2.3630	-8.202861	0.000140	1.399758	0.474251	-0.000067
1884	9.4150e+01	2.3614	-8.240743	0.000159	1.587530	0.537870	-0.000076
1885	9.4200e+01	2.3342	-8.281070	0.000169	1.689952	0.572571	-0.000081
1886	9.4250e+01	2.3117	-8.314065	0.000138	1.382688	0.468467	-0.000066
1887	9.4300e+01	2.2668	-8.349911	0.000150	1.502179	0.508952	-0.000072
1888	9.4350e+01	2.2620	-8.386572	0.000154	1.536320	0.520519	-0.000073
1889	9.4400e+01	2.2347	-8.424048	0.000157	1.570460	0.532086	-0.000075
1890	9.4450e+01	2.1978	-8.458264	0.000143	1.433899	0.485818	-0.000068
1891	9.4500e+01	2.2106	-8.498591	-0.000169	-1.689952	-0.572571	-0.000081
1892	9.4550e+01	2.2106	-8.535659	0.000155	1.553390	0.526303	-0.000074
1893	9.4600e+01	2.1577	-8.571506	0.000150	1.502179	0.508952	-0.000072
1894	9.4650e+01	2.1625	-8.613462	-0.000176	-1.758233	-0.595705	-0.000084
1895	9.4700e+01	2.1128	-8.647271	0.000142	1.416828	0.480034	-0.000068
1896	9.4750e+01	2.1048	-8.686784	0.000166	1.655811	0.561004	-0.000079
1897	9.4800e+01	2.0967	-8.725074	0.000160	1.604601	0.543653	-0.000077
1898	9.4850e+01	2.0791	-8.766623	0.000174	1.741162	0.589922	-0.000083
1899	9.4900e+01	2.0775	-8.799617	0.000138	1.382688	0.468467	-0.000066
1900	9.4950e+01	2.0534	-8.839944	0.000169	1.689952	0.572571	-0.000081
1901	9.5000e+01	1.9941	-8.882308	0.000178	1.775303	0.601489	-0.000085
1902	9.5050e+01	2.0278	-8.921006	-0.000162	-1.621671	-0.549437	-0.000077
1903	9.5100e+01	2.0021	-8.960518	0.000166	1.655811	0.561004	-0.000079
1904	9.5150e+01	1.9507	-8.998401	0.000159	1.587530	0.537870	-0.000076
1905	9.5200e+01	1.9155	-9.034654	0.000152	1.519250	0.514736	-0.000073
1906	9.5250e+01	1.8914	-9.072130	0.000157	1.570460	0.532086	-0.000075
1907	9.5300e+01	1.8898	-9.113271	0.000172	1.724092	0.584138	-0.000082
1908	9.5350e+01	1.8834	-9.156857	0.000183	1.826514	0.618840	-0.000087
1909	9.5400e+01	1.8320	-9.191481	0.000145	1.450969	0.491602	-0.000069
1910	9.5450e+01	1.8368	-9.230586	-0.000164	-1.638741	-0.555221	-0.000078
1911	9.5500e+01	1.8096	-9.271320	0.000171	1.707022	0.578355	-0.000081
1912	9.5550e+01	1.7999	-9.312462	0.000172	1.724092	0.584138	-0.000082
1913	9.5600e+01	1.7679	-9.354011	0.000174	1.741162	0.589922	-0.000083
1914	9.5650e+01	1.7406	-9.385783	0.000133	1.331477	0.451117	-0.000064
1915	9.5700e+01	1.7326	-9.422037	0.000152	1.519250	0.514736	-0.000073
1916	9.5750e+01	1.6941	-9.463586	0.000174	1.741162	0.589922	-0.000083
1917	9.5800e+01	1.7101	-9.504727	-0.000172	-1.724092	-0.584138	-0.000082
1918	9.5850e+01	1.6860	-9.548313	0.000183	1.826514	0.618840	-0.000087
1919	9.5900e+01	1.6299	-9.588233	0.000167	1.672882	0.566788	-0.000080
1920	9.5950e+01	1.6171	-9.625708	0.000157	1.570460	0.532086	-0.000075
1921	9.6000e+01	1.6315	-9.665220	-0.000166	-1.655811	-0.561004	-0.000079
1922	9.6050e+01	1.6026	-9.701881	0.000154	1.536320	0.520519	-0.000073
1923	9.6100e+01	1.5978	-9.746689	0.000188	1.877724	0.636190	-0.000090
1924	9.6150e+01	1.5353	-9.789460	0.000179	1.792373	0.607272	-0.000086
1925	9.6200e+01	1.5513	-9.824899	-0.000149	-1.485109	-0.503169	-0.000071
1926	9.6250e+01	1.5240	-9.865633	0.000171	1.707022	0.578355	-0.000081
1927	9.6300e+01	1.4935	-9.910033	0.000186	1.860654	0.630407	-0.000089
1928	9.6350e+01	1.4743	-9.952397	0.000178	1.775303	0.601489	-0.000085
1929	9.6400e+01	1.4663	-9.989872	0.000157	1.570460	0.532086	-0.000075
1930	9.6450e+01	1.4438	-10.031829	0.000176	1.758233	0.595705	-0.000084
1931	9.6500e+01	1.4117	-10.066860	0.000147	1.468039	0.497385	-0.000070
1932	9.6550e+01	1.3796	-10.106780	0.000167	1.672882	0.566788	-0.000080
1933	9.6600e+01	1.3732	-10.151587	0.000188	1.877724	0.636190	-0.000090
1934	9.6650e+01	1.3411	-10.189878	0.000160	1.604601	0.543653	-0.000077
1935	9.6700e+01	1.3219	-10.229797	0.000167	1.672882	0.566788	-0.000080
1936	9.6750e+01	1.3026	-10.268495	0.000162	1.621671	0.549437	-0.000077
1937	9.6800e+01	1.2946	-10.307600	0.000164	1.638741	0.555221	-0.000078
1938	9.6850e+01	1.2738	-10.349556	0.000176	1.758233	0.595705	-0.000084
1939	9.6900e+01	1.2625	-10.392734	0.000181	1.809443	0.613056	-0.000086
1940	9.6950e+01	1.2497	-10.427766	0.000147	1.468039	0.497385	-0.000070
1941	9.7000e+01	1.2433	-10.472166	0.000186	1.860654	0.630407	-0.000089
1942	9.7050e+01	1.1839	-10.508419	0.000152	1.519250	0.514736	-0.000073
1943	9.7100e+01	1.1711	-10.550376	0.000176	1.758233	0.595705	-0.000084
1944	9.7150e+01	1.1663	-10.592332	0.000176	1.758233	0.595705	-0.000084
1945	9.7200e+01	1.1149	-10.634288	0.000176	1.758233	0.595705	-0.000084
1946	9.7250e+01	1.1085	-10.672579	0.000160	1.604601	0.543653	-0.000077
1947	9.7300e+01	1.0909	-10.717386	0.000188	1.877724	0.636190	-0.000090
1948	9.7350e+01	1.0620	-10.759342	0.000176	1.758233	0.595705	-0.000084
1949	9.7400e+01	1.0347	-10.799262	0.000167	1.672882	0.566788	-0.000080
1950	9.7450e+01	1.0556	-10.837552	-0.000160	-1.604601	-0.543653	-0.000077
1951	9.7500e+01	0.9994	-10.881138	0.000183	1.826514	0.618840	-0.000087
1952	9.7550e+01	0.9866	-10.919021	0.000159	1.587530	0.537870	-0.000076
1953	9.7600e+01	0.9930	-10.960977	-0.000176	-1.758233	-0.595705	-0.000084
1954	9.7650e+01	0.9417	-11.004970	0.000184	1.843584	0.624623	-0.000088
1955	9.7700e+01	0.9337	-11.046926	0.000176	1.758233	0.595705	-0.000084
1956	9.7750e+01	0.9112	-11.086439	0.000166	1.655811	0.561004	-0.000079
1957	9.7800e+01	0.8791	-11.126358	0.000167	1.672882	0.566788	-0.000080
1958	9.7850e+01	0.8887	-11.166278	-0.000167	-1.672882	-0.566788	-0.000080
1959	9.7900e+01	0.8518	-11.210678	0.000186	1.860654	0.630407	-0.000089
1960	9.7950e+01	0.8535	-11.252227	-0.000174	-1.741162	-0.589922	-0.000083
1961	9.8000e+01	0.8246	-11.294591	0.000178	1.775303	0.601489	-0.000085
1962	9.8050e+01	0.7716	-11.337362	0.000179	1.792373	0.607272	-0.000086
1963	9.8100e+01	0.7748	-11.377688	-0.000169	-1.689952	-0.572571	-0.000081
1964	9.8150e+01	0.7620	-11.420052	0.000178	1.775303	0.601489	-0.000085
1965	9.8200e+01	0.7508	-11.463638	0.000183	1.826514	0.618840	-0.000087
1966	9.8250e+01	0.7059	-11.501928	0.000160	1.604601	0.543653	-0.000077
1967	9.8300e+01	0.7363	-11.539811	-0.000159	-1.587530	-0.537870	-0.000076
1968	9.8350e+01	0.6898	-11.584211	0.000186	1.860654	0.630407	-0.000089
1969	9.8400e+01	0.6561	-11.627797	0.000183	1.826514	0.618840	-0.000087
1970	9.8450e+01	0.6289	-11.668938	0.000172	1.724092	0.584138	-0.000082
1971	9.8500e+01	0.5968	-11.714153	0.000189	1.894794	0.641974	-0.000090
1972	9.8550e+01	0.5984	-11.759776	-0.000191	-1.911865	-0.647757	-0.000091
1973	9.8600e+01	0.5583	-11.795622	0.000150	1.502179	0.508952	-0.000072
1974	9.8650e+01	0.5503	-11.840022	0.000186	1.860654	0.630407	-0.000089
1975	9.8700e+01	0.5037	-11.880349	0.000169	1.689952	0.572571	-0.000081
1976	9.8750e+01	0.5182	-11.921898	-0.000174	-1.741162	-0.589922	-0.000083
1977	9.8800e+01	0.4989	-11.969557	0.000200	1.997216	0.676675	-0.000095
1978	9.8850e+01	0.4732	-12.009477	0.000167	1.672882	0.566788	-0.000080
1979	9.8900e+01	0.4556	-12.048989	0.000166	1.655811	0.561004	-0.000079
1980	9.8950e+01	0.4251	-12.095833	0.000196	1.963075	0.665108	-0.000094
1981	9.9000e+01	0.4043	-12.136568	0.000171	1.707022	0.578355	-0.000081
1982	9.9050e+01	0.3946	-12.182190	0.000191	1.911865	0.647757	-0.000091
1983	9.9100e+01	0.3995	-12.225776	-0.000183	-1.826514	-0.618840	-0.000087
1984	9.9150e+01	0.3642	-12.262436	0.000154	1.536320	0.520519	-0.000073
1985	9.9200e+01	0.3273	-12.311318	0.000205	2.048426	0.694026	-0.000098
1986	9.9250e+01	0.3337	-12.353681	-0.000178	-1.775303	-0.601489	-0.000085
1987	9.9300e+01	0.2936	-12.393601	0.000167	1.672882	0.566788	-0.000080
1988	9.9350e+01	0.2743	-12.438816	0.000189	1.894794	0.641974	-0.000090
1989	9.9400e+01	0.2519	-12.478735	0.000167	1.672882	0.566788	-0.000080
1990	9.9450e+01	0.2374	-12.525987	0.000198	1.980146	0.670891	-0.000095
1991	9.9500e+01	0.1941	-12.569573	0.000183	1.826514	0.618840	-0.000087
1992	9.9550e+01	0.2037	-12.612344	-0.000179	-1.792373	-0.607272	-0.000086
1993	9.9600e+01	0.1733	-12.653078	0.000171	1.707022	0.578355	-0.000081
1994	9.9650e+01	0.1364	-12.694627	0.000174	1.741162	0.589922	-0.000083
1995	9.9700e+01	0.1380	-12.738213	-0.000183	-1.826514	-0.618840	-0.000087
1996	9.9750e+01	0.1155	-12.785057	0.000196	1.963075	0.665108	-0.000094
1997	9.9800e+01	0.1027	-12.827828	0.000179	1.792373	0.607272	-0.000086
1998	9.9850e+01	0.0690	-12.874672	0.000196	1.963075	0.665108	-0.000094
1999	9.9900e+01	0.0578	-12.914999	0.000169	1.689952	0.572571	-0.000081
2000	9.9950e+01	0.0321	-12.959400	0.000186	1.860654	0.630407	-0.000089
2001	1.0000e+02	0.0209	-12.987506	0.000186	1.860654	0.630407	-0.000056

PMax (uC/cm2):	2.96e+01
Pr (uC/cm2):	1.80e+00
-Pr (uC/cm2):	0.00e+00
PLoss (uC/cm2):	0.00e+00
C (Max-Eff) (nF):	1.48e-01
K (Eff):	5.01e+02
Vert. (+/-Pr) Shift (uC/cm2):	9.00e-01
Offset (uC/cm2):	1.48e+01

A (Loop Area - uC/cm2·Volts):	-3.24e-02



Hysteresis Version: 5.48.1 - Radiant Technologies, Inc., 1999 - 9/12/24

