»»»»»»»»»»»»»»»»»»»»»»»»»»»»»»»»»»»» Hysteresis ««««««««««««««««««««««««««««««««««««
»»»  Executed Version:	5.48.1
»»»  Vision Version:	5.48.4 (R)
»»»  Vision Compiled:	9/18/24
»»»  Driver Version:	5.47.0
»»»  Windows Version:	Windows 8 or 8.1
»»»  Processor Information:	x86 (AMD or Intel) - 32 Processors
»»»  Tester Name:	PMF21124-494 (100V)
»»»  Tester S/N:	PMF21124-494
»»»  Internal Amp Type:	100V RevK 270k
»»»  Internal Amp S/N:	iAB2-596/K     
»»»  Execution Count:	1
»»»»»»»»»»»»»»»»»»»»»»»»»»»»»»»»»»»»»»»»»»««««««««««««««««««««««««««««««««««««««««««

Stored:	10/8/2025 - 18:36:3
Configured:	10/08/25 04:22:59 PM
Executed:	10/08/25 06:35:36 PM

»»»»»»»»»»»»»»»»»»»»»»»»»»»»»»»»»»» Sample Info ««««««««««««««««««««««««««««««««««««
Sample Name:	Int. Ref. Ferroelectric
Lot Name:	N/A
Wafer Name:	N/A
Die Row/Column:	0/0
Capacitor Number:	0
Sample Area (cm2):	1.00e-04
Sample Thickness (microns):	3.00e-01

Amplifier:	Internal

»»»»»»»»»»»»»»»»»»»»»»»»»»»»»»»»»»» Tester Info «««««««««««««««««««««««««««««««««««
Tester Name:	PMF21124-494 (100V)
Tester Serial Number:	PMF21124-494
Return Signal Amp. Level:	1.9 [Index: 2]

»»»»»»»»»»»»»»»»»»»»»»»»»»»»»»»» Hysteresis Info ««««««««««««««««««««««««««««««««««
Task Name:	Hyste-8
Volts:	20.00
Field:	666.67 (kV/cm)
DCBias:	0.00
DCField:	0.00 (kV/cm)
Hysteresis Period (ms):	1.00e+02
Preset:	Enabled
Preset Delay (ms):	1.00e+03
Profile:	Standard Monopolar

»»»»»»»»»»»»»»»»»»»»»»»»»»»»»»»»»»»»»» Data «««««««««««««««««««««««««««««««««««««««
Points:	2001

Valid Data

Point	Time (ms)	Drive Voltage	Measured Polarization (uC/cm2)	Capacitance (uF)	Normalized Capacitance (uF/cm2)	Dielectric Constant	Instantaneous Current (mA)
   1	0.0000e+00	0.0273	-3.464041	0.000019	0.188092	0.063727	0.000009
   2	5.0000e-02	0.0738	-3.459560	0.000019	0.188092	0.063727	0.000009
   3	1.0000e-01	0.0433	-3.450191	-0.000039	-0.393283	-0.133248	0.000019
   4	1.5000e-01	0.0513	-3.440823	0.000039	0.393283	0.133248	0.000019
   5	2.0000e-01	0.0946	-3.431454	0.000039	0.393283	0.133248	0.000019
   6	2.5000e-01	0.1203	-3.419233	0.000051	0.512978	0.173802	0.000024
   7	3.0000e-01	0.1348	-3.410272	0.000038	0.376184	0.127454	0.000018
   8	3.5000e-01	0.1540	-3.402940	0.000031	0.307787	0.104281	0.000015
   9	4.0000e-01	0.1588	-3.394793	0.000034	0.341985	0.115868	0.000016
  10	4.5000e-01	0.1909	-3.387053	0.000032	0.324886	0.110074	0.000015
  11	5.0000e-01	0.2102	-3.374018	0.000055	0.547176	0.185388	0.000026
  12	5.5000e-01	0.2166	-3.363835	0.000043	0.427481	0.144835	0.000020
  13	6.0000e-01	0.2454	-3.361391	0.000010	0.102596	0.034760	0.000005
  14	6.5000e-01	0.2872	-3.346319	0.000063	0.632672	0.214355	0.000030
  15	7.0000e-01	0.2759	-3.337358	-0.000038	-0.376184	-0.127454	0.000018
  16	7.5000e-01	0.3369	-3.327989	0.000039	0.393283	0.133248	0.000019
  17	8.0000e-01	0.3465	-3.320249	0.000032	0.324886	0.110074	0.000015
  18	8.5000e-01	0.3610	-3.311288	0.000038	0.376184	0.127454	0.000018
  19	9.0000e-01	0.3593	-3.300697	-0.000044	-0.444581	-0.150628	0.000021
  20	9.5000e-01	0.3898	-3.291328	0.000039	0.393283	0.133248	0.000019
  21	1.0000e+00	0.4556	-3.279515	0.000050	0.495878	0.168008	0.000024
  22	1.0500e+00	0.4299	-3.271775	-0.000032	-0.324886	-0.110074	0.000015
  23	1.1000e+00	0.4861	-3.261184	0.000044	0.444581	0.150628	0.000021
  24	1.1500e+00	0.4716	-3.253445	-0.000032	-0.324886	-0.110074	0.000015
  25	1.2000e+00	0.5214	-3.244891	0.000036	0.359084	0.121661	0.000017
  26	1.2500e+00	0.5342	-3.233893	0.000046	0.461680	0.156421	0.000022
  27	1.3000e+00	0.5342	-3.225338	-0.000036	-0.359084	-0.121661	0.000017
  28	1.3500e+00	0.5470	-3.214747	0.000044	0.444581	0.150628	0.000021
  29	1.4000e+00	0.6064	-3.206601	0.000034	0.341985	0.115868	0.000016
  30	1.4500e+00	0.5855	-3.200083	-0.000027	-0.273588	-0.092694	0.000013
  31	1.5000e+00	0.6048	-3.190307	0.000041	0.410382	0.139041	0.000020
  32	1.5500e+00	0.6144	-3.180938	0.000039	0.393283	0.133248	0.000019
  33	1.6000e+00	0.6625	-3.171976	0.000038	0.376184	0.127454	0.000018
  34	1.6500e+00	0.6802	-3.156090	0.000067	0.666871	0.225942	0.000032
  35	1.7000e+00	0.6818	-3.149980	0.000026	0.256489	0.086901	0.000012
  36	1.7500e+00	0.7171	-3.140611	0.000039	0.393283	0.133248	0.000019
  37	1.8000e+00	0.7347	-3.133686	0.000029	0.290687	0.098488	0.000014
  38	1.8500e+00	0.7684	-3.125539	0.000034	0.341985	0.115868	0.000016
  39	1.9000e+00	0.7604	-3.112097	-0.000056	-0.564275	-0.191182	0.000027
  40	1.9500e+00	0.7781	-3.100284	0.000050	0.495878	0.168008	0.000024
  41	2.0000e+00	0.8101	-3.096211	0.000017	0.170993	0.057934	0.000008
  42	2.0500e+00	0.8390	-3.086435	0.000041	0.410382	0.139041	0.000020
  43	2.1000e+00	0.8663	-3.075844	0.000044	0.444581	0.150628	0.000021
  44	2.1500e+00	0.8791	-3.065253	0.000044	0.444581	0.150628	0.000021
  45	2.2000e+00	0.8936	-3.059550	0.000024	0.239390	0.081107	0.000011
  46	2.2500e+00	0.9064	-3.046515	0.000055	0.547176	0.185388	0.000026
  47	2.3000e+00	0.9032	-3.034295	-0.000051	-0.512978	-0.173802	0.000024
  48	2.3500e+00	0.9545	-3.029407	0.000021	0.205191	0.069521	0.000010
  49	2.4000e+00	0.9754	-3.021260	0.000034	0.341985	0.115868	0.000016
  50	2.4500e+00	0.9818	-3.009854	0.000048	0.478779	0.162215	0.000023
  51	2.5000e+00	1.0123	-3.002522	0.000031	0.307787	0.104281	0.000015
  52	2.5500e+00	1.0331	-2.989080	0.000056	0.564275	0.191182	0.000027
  53	2.6000e+00	1.0588	-2.984192	0.000021	0.205191	0.069521	0.000010
  54	2.6500e+00	1.0780	-2.973601	0.000044	0.444581	0.150628	0.000021
  55	2.7000e+00	1.1165	-2.958529	0.000063	0.632672	0.214355	0.000030
  56	2.7500e+00	1.1101	-2.952419	-0.000026	-0.256489	-0.086901	0.000012
  57	2.8000e+00	1.1422	-2.941421	0.000046	0.461680	0.156421	0.000022
  58	2.8500e+00	1.1743	-2.934088	0.000031	0.307787	0.104281	0.000015
  59	2.9000e+00	1.1871	-2.925942	0.000034	0.341985	0.115868	0.000016
  60	2.9500e+00	1.2256	-2.916165	0.000041	0.410382	0.139041	0.000020
  61	3.0000e+00	1.2417	-2.903945	0.000051	0.512978	0.173802	0.000024
  62	3.0500e+00	1.2385	-2.892947	-0.000046	-0.461680	-0.156421	0.000022
  63	3.1000e+00	1.2593	-2.888466	0.000019	0.188092	0.063727	0.000009
  64	3.1500e+00	1.2754	-2.877468	0.000046	0.461680	0.156421	0.000022
  65	3.2000e+00	1.3411	-2.868506	0.000038	0.376184	0.127454	0.000018
  66	3.2500e+00	1.3203	-2.860359	-0.000034	-0.341985	-0.115868	0.000016
  67	3.3000e+00	1.3315	-2.851805	0.000036	0.359084	0.121661	0.000017
  68	3.3500e+00	1.3668	-2.838770	0.000055	0.547176	0.185388	0.000026
  69	3.4000e+00	1.3556	-2.830216	-0.000036	-0.359084	-0.121661	0.000017
  70	3.4500e+00	1.3684	-2.817181	0.000055	0.547176	0.185388	0.000026
  71	3.5000e+00	1.3893	-2.806183	0.000046	0.461680	0.156421	0.000022
  72	3.5500e+00	1.4406	-2.805775	0.000002	0.017099	0.005793	0.000001
  73	3.6000e+00	1.4663	-2.797629	0.000034	0.341985	0.115868	0.000016
  74	3.6500e+00	1.4871	-2.785001	0.000053	0.530077	0.179595	0.000025
  75	3.7000e+00	1.4919	-2.777669	0.000031	0.307787	0.104281	0.000015
  76	3.7500e+00	1.5064	-2.765856	0.000050	0.495878	0.168008	0.000024
  77	3.8000e+00	1.5449	-2.755672	0.000043	0.427481	0.144835	0.000020
  78	3.8500e+00	1.5978	-2.749970	0.000024	0.239390	0.081107	0.000011
  79	3.9000e+00	1.5866	-2.737749	-0.000051	-0.512978	-0.173802	0.000024
  80	3.9500e+00	1.6058	-2.733269	0.000019	0.188092	0.063727	0.000009
  81	4.0000e+00	1.6042	-2.729195	-0.000017	-0.170993	-0.057934	0.000008
  82	4.0500e+00	1.6203	-2.713309	0.000067	0.666871	0.225942	0.000032
  83	4.1000e+00	1.6620	-2.706791	0.000027	0.273588	0.092694	0.000013
  84	4.1500e+00	1.6700	-2.696200	0.000044	0.444581	0.150628	0.000021
  85	4.2000e+00	1.7037	-2.684795	0.000048	0.478779	0.162215	0.000023
  86	4.2500e+00	1.7101	-2.678277	0.000027	0.273588	0.092694	0.000013
  87	4.3000e+00	1.7406	-2.671760	0.000027	0.273588	0.092694	0.000013
  88	4.3500e+00	1.7711	-2.662798	0.000038	0.376184	0.127454	0.000018
  89	4.4000e+00	1.7871	-2.651393	0.000048	0.478779	0.162215	0.000023
  90	4.4500e+00	1.8032	-2.642024	0.000039	0.393283	0.133248	0.000019
  91	4.5000e+00	1.8417	-2.631433	0.000044	0.444581	0.150628	0.000021
  92	4.5500e+00	1.8176	-2.624508	-0.000029	-0.290687	-0.098488	0.000014
  93	4.6000e+00	1.8497	-2.613917	0.000044	0.444581	0.150628	0.000021
  94	4.6500e+00	1.8930	-2.605363	0.000036	0.359084	0.121661	0.000017
  95	4.7000e+00	1.8770	-2.595587	-0.000041	-0.410382	-0.139041	0.000020
  96	4.7500e+00	1.9203	-2.590699	0.000021	0.205191	0.069521	0.000010
  97	4.8000e+00	1.9491	-2.581330	0.000039	0.393283	0.133248	0.000019
  98	4.8500e+00	1.9106	-2.571146	-0.000043	-0.427481	-0.144835	0.000020
  99	4.9000e+00	1.9748	-2.564629	0.000027	0.273588	0.092694	0.000013
 100	4.9500e+00	2.0310	-2.550779	0.000058	0.581375	0.196975	0.000028
 101	5.0000e+00	2.0213	-2.544262	-0.000027	-0.273588	-0.092694	0.000013
 102	5.0500e+00	2.0294	-2.534893	0.000039	0.393283	0.133248	0.000019
 103	5.1000e+00	2.0582	-2.529597	0.000022	0.222290	0.075314	0.000011
 104	5.1500e+00	2.0871	-2.526339	0.000014	0.136794	0.046347	0.000007
 105	5.2000e+00	2.0999	-2.509230	0.000072	0.718169	0.243322	0.000034
 106	5.2500e+00	2.1192	-2.500269	0.000038	0.376184	0.127454	0.000018
 107	5.3000e+00	2.1545	-2.492122	0.000034	0.341985	0.115868	0.000016
 108	5.3500e+00	2.1802	-2.483975	0.000034	0.341985	0.115868	0.000016
 109	5.4000e+00	2.1641	-2.478272	-0.000024	-0.239390	-0.081107	0.000011
 110	5.4500e+00	2.2090	-2.467681	0.000044	0.444581	0.150628	0.000021
 111	5.5000e+00	2.2299	-2.459127	0.000036	0.359084	0.121661	0.000017
 112	5.5500e+00	2.2395	-2.448536	0.000044	0.444581	0.150628	0.000021
 113	5.6000e+00	2.2604	-2.439575	0.000038	0.376184	0.127454	0.000018
 114	5.6500e+00	2.3037	-2.431020	0.000036	0.359084	0.121661	0.000017
 115	5.7000e+00	2.2828	-2.422466	-0.000036	-0.359084	-0.121661	0.000017
 116	5.7500e+00	2.3117	-2.408617	0.000058	0.581375	0.196975	0.000028
 117	5.8000e+00	2.3390	-2.399655	0.000038	0.376184	0.127454	0.000018
 118	5.8500e+00	2.3695	-2.391508	0.000034	0.341985	0.115868	0.000016
 119	5.9000e+00	2.3711	-2.376029	0.000065	0.649772	0.220149	0.000031
 120	5.9500e+00	2.4031	-2.371956	0.000017	0.170993	0.057934	0.000008
 121	6.0000e+00	2.4176	-2.363809	0.000034	0.341985	0.115868	0.000016
 122	6.0500e+00	2.4593	-2.353625	0.000043	0.427481	0.144835	0.000020
 123	6.1000e+00	2.4625	-2.344664	0.000038	0.376184	0.127454	0.000018
 124	6.1500e+00	2.4721	-2.329592	0.000063	0.632672	0.214355	0.000030
 125	6.2000e+00	2.4930	-2.320631	0.000038	0.376184	0.127454	0.000018
 126	6.2500e+00	2.5122	-2.309632	0.000046	0.461680	0.156421	0.000022
 127	6.3000e+00	2.5459	-2.302707	0.000029	0.290687	0.098488	0.000014
 128	6.3500e+00	2.5860	-2.290080	0.000053	0.530077	0.179595	0.000025
 129	6.4000e+00	2.5588	-2.285599	-0.000019	-0.188092	-0.063727	0.000009
 130	6.4500e+00	2.6021	-2.277452	0.000034	0.341985	0.115868	0.000016
 131	6.5000e+00	2.6342	-2.260751	0.000070	0.701069	0.237529	0.000033
 132	6.5500e+00	2.6694	-2.253826	0.000029	0.290687	0.098488	0.000014
 133	6.6000e+00	2.6727	-2.245272	0.000036	0.359084	0.121661	0.000017
 134	6.6500e+00	2.6662	-2.242013	-0.000014	-0.136794	-0.046347	0.000007
 135	6.7000e+00	2.7079	-2.231422	0.000044	0.444581	0.150628	0.000021
 136	6.7500e+00	2.7176	-2.222461	0.000038	0.376184	0.127454	0.000018
 137	6.8000e+00	2.7416	-2.214314	0.000034	0.341985	0.115868	0.000016
 138	6.8500e+00	2.7753	-2.206575	0.000032	0.324886	0.110074	0.000015
 139	6.9000e+00	2.7930	-2.193132	0.000056	0.564275	0.191182	0.000027
 140	6.9500e+00	2.8299	-2.187430	0.000024	0.239390	0.081107	0.000011
 141	7.0000e+00	2.8347	-2.181727	0.000024	0.239390	0.081107	0.000011
 142	7.0500e+00	2.8251	-2.170728	-0.000046	-0.461680	-0.156421	0.000022
 143	7.1000e+00	2.8587	-2.165840	0.000021	0.205191	0.069521	0.000010
 144	7.1500e+00	2.9053	-2.151583	0.000060	0.598474	0.202768	0.000029
 145	7.2000e+00	2.8908	-2.143029	-0.000036	-0.359084	-0.121661	0.000017
 146	7.2500e+00	2.9165	-2.136919	0.000026	0.256489	0.086901	0.000012
 147	7.3000e+00	2.9422	-2.127143	0.000041	0.410382	0.139041	0.000020
 148	7.3500e+00	2.9566	-2.117774	0.000039	0.393283	0.133248	0.000019
 149	7.4000e+00	2.9742	-2.117367	0.000002	0.017099	0.005793	0.000001
 150	7.4500e+00	3.0015	-2.107998	0.000039	0.393283	0.133248	0.000019
 151	7.5000e+00	2.9983	-2.097814	-0.000043	-0.427481	-0.144835	0.000020
 152	7.5500e+00	3.0513	-2.093333	0.000019	0.188092	0.063727	0.000009
 153	7.6000e+00	3.0496	-2.084779	-0.000036	-0.359084	-0.121661	0.000017
 154	7.6500e+00	3.0705	-2.075003	0.000041	0.410382	0.139041	0.000020
 155	7.7000e+00	3.0978	-2.069300	0.000024	0.239390	0.081107	0.000011
 156	7.7500e+00	3.1266	-2.057895	0.000048	0.478779	0.162215	0.000023
 157	7.8000e+00	3.1443	-2.053414	0.000019	0.188092	0.063727	0.000009
 158	7.8500e+00	3.1523	-2.041194	0.000051	0.512978	0.173802	0.000024
 159	7.9000e+00	3.1700	-2.032639	0.000036	0.359084	0.121661	0.000017
 160	7.9500e+00	3.2165	-2.028566	0.000017	0.170993	0.057934	0.000008
 161	8.0000e+00	3.1972	-2.022863	-0.000024	-0.239390	-0.081107	0.000011
 162	8.0500e+00	3.2357	-2.017568	0.000022	0.222290	0.075314	0.000011
 163	8.1000e+00	3.2694	-2.010643	0.000029	0.290687	0.098488	0.000014
 164	8.1500e+00	3.2630	-2.000459	-0.000043	-0.427481	-0.144835	0.000020
 165	8.2000e+00	3.2871	-1.991090	0.000039	0.393283	0.133248	0.000019
 166	8.2500e+00	3.3143	-1.984980	0.000026	0.256489	0.086901	0.000012
 167	8.3000e+00	3.3320	-1.977648	0.000031	0.307787	0.104281	0.000015
 168	8.3500e+00	3.3545	-1.971945	0.000024	0.239390	0.081107	0.000011
 169	8.4000e+00	3.3801	-1.966650	0.000022	0.222290	0.075314	0.000011
 170	8.4500e+00	3.3913	-1.960540	0.000026	0.256489	0.086901	0.000012
 171	8.5000e+00	3.4234	-1.951986	0.000036	0.359084	0.121661	0.000017
 172	8.5500e+00	3.4716	-1.945061	0.000029	0.290687	0.098488	0.000014
 173	8.6000e+00	3.4539	-1.936506	-0.000036	-0.359084	-0.121661	0.000017
 174	8.6500e+00	3.4796	-1.925508	0.000046	0.461680	0.156421	0.000022
 175	8.7000e+00	3.4700	-1.916954	-0.000036	-0.359084	-0.121661	0.000017
 176	8.7500e+00	3.5213	-1.916954	0.000000	0.000000	0.000000	0.000000
 177	8.8000e+00	3.5470	-1.908400	0.000036	0.359084	0.121661	0.000017
 178	8.8500e+00	3.5486	-1.897809	0.000044	0.444581	0.150628	0.000021
 179	8.9000e+00	3.5823	-1.889255	0.000036	0.359084	0.121661	0.000017
 180	8.9500e+00	3.6063	-1.885589	0.000015	0.153893	0.052140	0.000007
 181	9.0000e+00	3.6143	-1.872146	0.000056	0.564275	0.191182	0.000027
 182	9.0500e+00	3.6352	-1.865222	0.000029	0.290687	0.098488	0.000014
 183	9.1000e+00	3.6641	-1.859926	0.000022	0.222290	0.075314	0.000011
 184	9.1500e+00	3.6849	-1.853409	0.000027	0.273588	0.092694	0.000013
 185	9.2000e+00	3.7026	-1.844447	0.000038	0.376184	0.127454	0.000018
 186	9.2500e+00	3.6994	-1.834671	-0.000041	-0.410382	-0.139041	0.000020
 187	9.3000e+00	3.7250	-1.827339	0.000031	0.307787	0.104281	0.000015
 188	9.3500e+00	3.7411	-1.820414	0.000029	0.290687	0.098488	0.000014
 189	9.4000e+00	3.7587	-1.815118	0.000022	0.222290	0.075314	0.000011
 190	9.4500e+00	3.7972	-1.807379	0.000032	0.324886	0.110074	0.000015
 191	9.5000e+00	3.8197	-1.796788	0.000044	0.444581	0.150628	0.000021
 192	9.5500e+00	3.7956	-1.789863	-0.000029	-0.290687	-0.098488	0.000014
 193	9.6000e+00	3.8758	-1.777236	0.000053	0.530077	0.179595	0.000025
 194	9.6500e+00	3.8534	-1.773977	-0.000014	-0.136794	-0.046347	0.000007
 195	9.7000e+00	3.9063	-1.762164	0.000050	0.495878	0.168008	0.000024
 196	9.7500e+00	3.8887	-1.760535	-0.000007	-0.068397	-0.023174	0.000003
 197	9.8000e+00	3.9336	-1.751166	0.000039	0.393283	0.133248	0.000019
 198	9.8500e+00	3.9544	-1.743833	0.000031	0.307787	0.104281	0.000015
 199	9.9000e+00	3.9785	-1.736909	0.000029	0.290687	0.098488	0.000014
 200	9.9500e+00	3.9785	-1.725910	-0.000046	-0.461680	-0.156421	0.000022
 201	1.0000e+01	4.0026	-1.718578	0.000031	0.307787	0.104281	0.000015
 202	1.0050e+01	4.0443	-1.710024	0.000036	0.359084	0.121661	0.000017
 203	1.0100e+01	4.0443	-1.705136	-0.000021	-0.205191	-0.069521	0.000010
 204	1.0150e+01	4.0699	-1.696989	0.000034	0.341985	0.115868	0.000016
 205	1.0200e+01	4.0972	-1.686398	0.000044	0.444581	0.150628	0.000021
 206	1.0250e+01	4.1261	-1.676215	0.000043	0.427481	0.144835	0.000020
 207	1.0300e+01	4.1373	-1.669697	0.000027	0.273588	0.092694	0.000013
 208	1.0350e+01	4.1598	-1.664402	0.000022	0.222290	0.075314	0.000011
 209	1.0400e+01	4.1726	-1.658292	0.000026	0.256489	0.086901	0.000012
 210	1.0450e+01	4.2015	-1.651774	0.000027	0.273588	0.092694	0.000013
 211	1.0500e+01	4.2304	-1.639554	0.000051	0.512978	0.173802	0.000024
 212	1.0550e+01	4.2512	-1.631814	0.000032	0.324886	0.110074	0.000015
 213	1.0600e+01	4.2288	-1.625704	-0.000026	-0.256489	-0.086901	0.000012
 214	1.0650e+01	4.2721	-1.617150	0.000036	0.359084	0.121661	0.000017
 215	1.0700e+01	4.3026	-1.610225	0.000029	0.290687	0.098488	0.000014
 216	1.0750e+01	4.3378	-1.603708	0.000027	0.273588	0.092694	0.000013
 217	1.0800e+01	4.3266	-1.596375	-0.000031	-0.307787	-0.104281	0.000015
 218	1.0850e+01	4.3459	-1.589451	0.000029	0.290687	0.098488	0.000014
 219	1.0900e+01	4.3892	-1.577638	0.000050	0.495878	0.168008	0.000024
 220	1.0950e+01	4.4020	-1.567454	0.000043	0.427481	0.144835	0.000020
 221	1.1000e+01	4.4245	-1.562566	0.000021	0.205191	0.069521	0.000010
 222	1.1050e+01	4.4485	-1.558900	0.000015	0.153893	0.052140	0.000007
 223	1.1100e+01	4.4566	-1.547087	0.000050	0.495878	0.168008	0.000024
 224	1.1150e+01	4.5143	-1.538125	0.000038	0.376184	0.127454	0.000018
 225	1.1200e+01	4.4935	-1.532423	-0.000024	-0.239390	-0.081107	0.000011
 226	1.1250e+01	4.5207	-1.527127	0.000022	0.222290	0.075314	0.000011
 227	1.1300e+01	4.5239	-1.516129	0.000046	0.461680	0.156421	0.000022
 228	1.1350e+01	4.5464	-1.511241	0.000021	0.205191	0.069521	0.000010
 229	1.1400e+01	4.5769	-1.501872	0.000039	0.393283	0.133248	0.000019
 230	1.1450e+01	4.5961	-1.493318	0.000036	0.359084	0.121661	0.000017
 231	1.1500e+01	4.6154	-1.487208	0.000026	0.256489	0.086901	0.000012
 232	1.1550e+01	4.6378	-1.483949	0.000014	0.136794	0.046347	0.000007
 233	1.1600e+01	4.6715	-1.474173	0.000041	0.410382	0.139041	0.000020
 234	1.1650e+01	4.6908	-1.468470	0.000024	0.239390	0.081107	0.000011
 235	1.1700e+01	4.6892	-1.456250	-0.000051	-0.512978	-0.173802	0.000024
 236	1.1750e+01	4.7020	-1.448917	0.000031	0.307787	0.104281	0.000015
 237	1.1800e+01	4.7405	-1.445251	0.000015	0.153893	0.052140	0.000007
 238	1.1850e+01	4.7405	-1.434253	-0.000046	-0.461680	-0.156421	0.000022
 239	1.1900e+01	4.7533	-1.424477	0.000041	0.410382	0.139041	0.000020
 240	1.1950e+01	4.7934	-1.418367	0.000026	0.256489	0.086901	0.000012
 241	1.2000e+01	4.8287	-1.415108	0.000014	0.136794	0.046347	0.000007
 242	1.2050e+01	4.8352	-1.404517	0.000044	0.444581	0.150628	0.000021
 243	1.2100e+01	4.8464	-1.400851	0.000015	0.153893	0.052140	0.000007
 244	1.2150e+01	4.8801	-1.388223	0.000053	0.530077	0.179595	0.000025
 245	1.2200e+01	4.8977	-1.382113	0.000026	0.256489	0.086901	0.000012
 246	1.2250e+01	4.9394	-1.372744	0.000039	0.393283	0.133248	0.000019
 247	1.2300e+01	4.9090	-1.366634	-0.000026	-0.256489	-0.086901	0.000012
 248	1.2350e+01	4.9667	-1.358487	0.000034	0.341985	0.115868	0.000016
 249	1.2400e+01	4.9603	-1.347489	-0.000046	-0.461680	-0.156421	0.000022
 250	1.2450e+01	4.9844	-1.340564	0.000029	0.290687	0.098488	0.000014
 251	1.2500e+01	4.9988	-1.334862	0.000024	0.239390	0.081107	0.000011
 252	1.2550e+01	5.0357	-1.325493	0.000039	0.393283	0.133248	0.000019
 253	1.2600e+01	5.0293	-1.317753	-0.000032	-0.324886	-0.110074	0.000015
 254	1.2650e+01	5.0983	-1.318160	-0.000002	-0.017099	-0.005793	-0.000001
 255	1.2700e+01	5.0983	-1.303904	-0.000060	-0.598474	-0.202768	0.000029
 256	1.2750e+01	5.0918	-1.297793	-0.000026	-0.256489	-0.086901	0.000012
 257	1.2800e+01	5.1480	-1.290054	0.000032	0.324886	0.110074	0.000015
 258	1.2850e+01	5.1400	-1.284351	-0.000024	-0.239390	-0.081107	0.000011
 259	1.2900e+01	5.1704	-1.277834	0.000027	0.273588	0.092694	0.000013
 260	1.2950e+01	5.2234	-1.267243	0.000044	0.444581	0.150628	0.000021
 261	1.3000e+01	5.2154	-1.257059	-0.000043	-0.427481	-0.144835	0.000020
 262	1.3050e+01	5.2555	-1.250542	0.000027	0.273588	0.092694	0.000013
 263	1.3100e+01	5.2603	-1.243209	0.000031	0.307787	0.104281	0.000015
 264	1.3150e+01	5.2779	-1.232211	0.000046	0.461680	0.156421	0.000022
 265	1.3200e+01	5.2876	-1.225286	0.000029	0.290687	0.098488	0.000014
 266	1.3250e+01	5.3052	-1.220806	0.000019	0.188092	0.063727	0.000009
 267	1.3300e+01	5.3357	-1.213881	0.000029	0.290687	0.098488	0.000014
 268	1.3350e+01	5.3710	-1.206141	0.000032	0.324886	0.110074	0.000015
 269	1.3400e+01	5.3742	-1.198402	0.000032	0.324886	0.110074	0.000015
 270	1.3450e+01	5.3998	-1.191070	0.000031	0.307787	0.104281	0.000015
 271	1.3500e+01	5.4383	-1.182923	0.000034	0.341985	0.115868	0.000016
 272	1.3550e+01	5.4464	-1.173147	0.000041	0.410382	0.139041	0.000020
 273	1.3600e+01	5.4335	-1.167036	-0.000026	-0.256489	-0.086901	0.000012
 274	1.3650e+01	5.4624	-1.159704	0.000031	0.307787	0.104281	0.000015
 275	1.3700e+01	5.5218	-1.151150	0.000036	0.359084	0.121661	0.000017
 276	1.3750e+01	5.5170	-1.146669	-0.000019	-0.188092	-0.063727	0.000009
 277	1.3800e+01	5.5426	-1.139337	0.000031	0.307787	0.104281	0.000015
 278	1.3850e+01	5.5587	-1.130376	0.000038	0.376184	0.127454	0.000018
 279	1.3900e+01	5.5811	-1.117748	0.000053	0.530077	0.179595	0.000025
 280	1.3950e+01	5.5779	-1.114897	-0.000012	-0.119695	-0.040554	0.000006
 281	1.4000e+01	5.6036	-1.105935	0.000038	0.376184	0.127454	0.000018
 282	1.4050e+01	5.6389	-1.100640	0.000022	0.222290	0.075314	0.000011
 283	1.4100e+01	5.6613	-1.099418	0.000005	0.051298	0.017380	0.000002
 284	1.4150e+01	5.6662	-1.092900	0.000027	0.273588	0.092694	0.000013
 285	1.4200e+01	5.6758	-1.083939	0.000038	0.376184	0.127454	0.000018
 286	1.4250e+01	5.6934	-1.074977	0.000038	0.376184	0.127454	0.000018
 287	1.4300e+01	5.7271	-1.065201	0.000041	0.410382	0.139041	0.000020
 288	1.4350e+01	5.7736	-1.061127	0.000017	0.170993	0.057934	0.000008
 289	1.4400e+01	5.7801	-1.053388	0.000032	0.324886	0.110074	0.000015
 290	1.4450e+01	5.8153	-1.051351	0.000009	0.085496	0.028967	0.000004
 291	1.4500e+01	5.8041	-1.046463	-0.000021	-0.205191	-0.069521	0.000010
 292	1.4550e+01	5.8378	-1.039538	0.000029	0.290687	0.098488	0.000014
 293	1.4600e+01	5.8506	-1.029762	0.000041	0.410382	0.139041	0.000020
 294	1.4650e+01	5.8972	-1.025689	0.000017	0.170993	0.057934	0.000008
 295	1.4700e+01	5.9116	-1.012654	0.000055	0.547176	0.185388	0.000026
 296	1.4750e+01	5.9196	-1.008988	0.000015	0.153893	0.052140	0.000007
 297	1.4800e+01	5.9276	-1.004099	0.000021	0.205191	0.069521	0.000010
 298	1.4850e+01	5.9726	-1.004914	-0.000003	-0.034199	-0.011587	-0.000002
 299	1.4900e+01	5.9710	-0.994731	-0.000043	-0.427481	-0.144835	0.000020
 300	1.4950e+01	5.9854	-0.983732	0.000046	0.461680	0.156421	0.000022
 301	1.5000e+01	6.0014	-0.978029	0.000024	0.239390	0.081107	0.000011
 302	1.5050e+01	6.0271	-0.969883	0.000034	0.341985	0.115868	0.000016
 303	1.5100e+01	6.0512	-0.965402	0.000019	0.188092	0.063727	0.000009
 304	1.5150e+01	6.0624	-0.958884	0.000027	0.273588	0.092694	0.000013
 305	1.5200e+01	6.1185	-0.951145	0.000032	0.324886	0.110074	0.000015
 306	1.5250e+01	6.1153	-0.941776	-0.000039	-0.393283	-0.133248	0.000019
 307	1.5300e+01	6.1234	-0.936481	0.000022	0.222290	0.075314	0.000011
 308	1.5350e+01	6.1635	-0.926297	0.000043	0.427481	0.144835	0.000020
 309	1.5400e+01	6.1715	-0.921002	0.000022	0.222290	0.075314	0.000011
 310	1.5450e+01	6.1907	-0.909189	0.000050	0.495878	0.168008	0.000024
 311	1.5500e+01	6.2132	-0.902671	0.000027	0.273588	0.092694	0.000013
 312	1.5550e+01	6.2308	-0.897783	0.000021	0.205191	0.069521	0.000010
 313	1.5600e+01	6.2517	-0.890043	0.000032	0.324886	0.110074	0.000015
 314	1.5650e+01	6.2742	-0.881082	0.000038	0.376184	0.127454	0.000018
 315	1.5700e+01	6.3046	-0.875379	0.000024	0.239390	0.081107	0.000011
 316	1.5750e+01	6.3191	-0.866418	0.000038	0.376184	0.127454	0.000018
 317	1.5800e+01	6.3271	-0.859493	0.000029	0.290687	0.098488	0.000014
 318	1.5850e+01	6.3271	-0.845643	-0.000058	-0.581375	-0.196975	0.000028
 319	1.5900e+01	6.3945	-0.835052	0.000044	0.444581	0.150628	0.000021
 320	1.5950e+01	6.4057	-0.830571	0.000019	0.188092	0.063727	0.000009
 321	1.6000e+01	6.4330	-0.819981	0.000044	0.444581	0.150628	0.000021
 322	1.6050e+01	6.4554	-0.815092	0.000021	0.205191	0.069521	0.000010
 323	1.6100e+01	6.4458	-0.806946	-0.000034	-0.341985	-0.115868	0.000016
 324	1.6150e+01	6.4747	-0.793911	0.000055	0.547176	0.185388	0.000026
 325	1.6200e+01	6.4971	-0.791874	0.000009	0.085496	0.028967	0.000004
 326	1.6250e+01	6.5196	-0.781283	0.000044	0.444581	0.150628	0.000021
 327	1.6300e+01	6.5453	-0.771507	0.000041	0.410382	0.139041	0.000020
 328	1.6350e+01	6.5437	-0.759694	-0.000050	-0.495878	-0.168008	0.000024
 329	1.6400e+01	6.5565	-0.752769	0.000029	0.290687	0.098488	0.000014
 330	1.6450e+01	6.5934	-0.741771	0.000046	0.461680	0.156421	0.000022
 331	1.6500e+01	6.5966	-0.739327	0.000010	0.102596	0.034760	0.000005
 332	1.6550e+01	6.6511	-0.726699	0.000053	0.530077	0.179595	0.000025
 333	1.6600e+01	6.6592	-0.719367	0.000031	0.307787	0.104281	0.000015
 334	1.6650e+01	6.7009	-0.712849	0.000027	0.273588	0.092694	0.000013
 335	1.6700e+01	6.7025	-0.701037	0.000050	0.495878	0.168008	0.000024
 336	1.6750e+01	6.7217	-0.694519	0.000027	0.273588	0.092694	0.000013
 337	1.6800e+01	6.7330	-0.683928	0.000044	0.444581	0.150628	0.000021
 338	1.6850e+01	6.7346	-0.673745	0.000043	0.427481	0.144835	0.000020
 339	1.6900e+01	6.7699	-0.669264	0.000019	0.188092	0.063727	0.000009
 340	1.6950e+01	6.7859	-0.661524	0.000032	0.324886	0.110074	0.000015
 341	1.7000e+01	6.8276	-0.654192	0.000031	0.307787	0.104281	0.000015
 342	1.7050e+01	6.8565	-0.646045	0.000034	0.341985	0.115868	0.000016
 343	1.7100e+01	6.8404	-0.638306	-0.000032	-0.324886	-0.110074	0.000015
 344	1.7150e+01	6.8613	-0.631788	0.000027	0.273588	0.092694	0.000013
 345	1.7200e+01	6.8902	-0.622827	0.000038	0.376184	0.127454	0.000018
 346	1.7250e+01	6.9142	-0.612643	0.000043	0.427481	0.144835	0.000020
 347	1.7300e+01	6.9383	-0.608162	0.000019	0.188092	0.063727	0.000009
 348	1.7350e+01	6.9704	-0.601238	0.000029	0.290687	0.098488	0.000014
 349	1.7400e+01	6.9736	-0.593905	0.000031	0.307787	0.104281	0.000015
 350	1.7450e+01	7.0009	-0.587795	0.000026	0.256489	0.086901	0.000012
 351	1.7500e+01	7.0105	-0.577204	0.000044	0.444581	0.150628	0.000021
 352	1.7550e+01	7.0506	-0.571909	0.000022	0.222290	0.075314	0.000011
 353	1.7600e+01	7.0586	-0.565391	0.000027	0.273588	0.092694	0.000013
 354	1.7650e+01	7.0506	-0.558874	-0.000027	-0.273588	-0.092694	0.000013
 355	1.7700e+01	7.0891	-0.550727	0.000034	0.341985	0.115868	0.000016
 356	1.7750e+01	7.0971	-0.542173	0.000036	0.359084	0.121661	0.000017
 357	1.7800e+01	7.1356	-0.532397	0.000041	0.410382	0.139041	0.000020
 358	1.7850e+01	7.1549	-0.527916	0.000019	0.188092	0.063727	0.000009
 359	1.7900e+01	7.1950	-0.519362	0.000036	0.359084	0.121661	0.000017
 360	1.7950e+01	7.2319	-0.515696	0.000015	0.153893	0.052140	0.000007
 361	1.8000e+01	7.2303	-0.506327	-0.000039	-0.393283	-0.133248	0.000019
 362	1.8050e+01	7.2030	-0.500217	-0.000026	-0.256489	-0.086901	0.000012
 363	1.8100e+01	7.2752	-0.492884	0.000031	0.307787	0.104281	0.000015
 364	1.8150e+01	7.2784	-0.486774	0.000026	0.256489	0.086901	0.000012
 365	1.8200e+01	7.3169	-0.477405	0.000039	0.393283	0.133248	0.000019
 366	1.8250e+01	7.3089	-0.469666	-0.000032	-0.324886	-0.110074	0.000015
 367	1.8300e+01	7.3378	-0.460704	0.000038	0.376184	0.127454	0.000018
 368	1.8350e+01	7.3602	-0.455002	0.000024	0.239390	0.081107	0.000011
 369	1.8400e+01	7.3875	-0.446855	0.000034	0.341985	0.115868	0.000016
 370	1.8450e+01	7.3955	-0.441559	0.000022	0.222290	0.075314	0.000011
 371	1.8500e+01	7.3923	-0.433820	-0.000032	-0.324886	-0.110074	0.000015
 372	1.8550e+01	7.4420	-0.423636	0.000043	0.427481	0.144835	0.000020
 373	1.8600e+01	7.4709	-0.417933	0.000024	0.239390	0.081107	0.000011
 374	1.8650e+01	7.4757	-0.412231	0.000024	0.239390	0.081107	0.000011
 375	1.8700e+01	7.5046	-0.402862	0.000039	0.393283	0.133248	0.000019
 376	1.8750e+01	7.5351	-0.395122	0.000032	0.324886	0.110074	0.000015
 377	1.8800e+01	7.5303	-0.390642	-0.000019	-0.188092	-0.063727	0.000009
 378	1.8850e+01	7.5415	-0.380051	0.000044	0.444581	0.150628	0.000021
 379	1.8900e+01	7.5896	-0.372311	0.000032	0.324886	0.110074	0.000015
 380	1.8950e+01	7.5864	-0.369052	-0.000014	-0.136794	-0.046347	0.000007
 381	1.9000e+01	7.6249	-0.358869	0.000043	0.427481	0.144835	0.000020
 382	1.9050e+01	7.6378	-0.348278	0.000044	0.444581	0.150628	0.000021
 383	1.9100e+01	7.6650	-0.342168	0.000026	0.256489	0.086901	0.000012
 384	1.9150e+01	7.6714	-0.339724	0.000010	0.102596	0.034760	0.000005
 385	1.9200e+01	7.6923	-0.330762	0.000038	0.376184	0.127454	0.000018
 386	1.9250e+01	7.7372	-0.325467	0.000022	0.222290	0.075314	0.000011
 387	1.9300e+01	7.7613	-0.314876	0.000044	0.444581	0.150628	0.000021
 388	1.9350e+01	7.7645	-0.304692	0.000043	0.427481	0.144835	0.000020
 389	1.9400e+01	7.7597	-0.300619	-0.000017	-0.170993	-0.057934	0.000008
 390	1.9450e+01	7.7853	-0.293287	0.000031	0.307787	0.104281	0.000015
 391	1.9500e+01	7.8126	-0.285547	0.000032	0.324886	0.110074	0.000015
 392	1.9550e+01	7.8271	-0.274956	0.000044	0.444581	0.150628	0.000021
 393	1.9600e+01	7.8752	-0.271697	0.000014	0.136794	0.046347	0.000007
 394	1.9650e+01	7.8960	-0.262329	0.000039	0.393283	0.133248	0.000019
 395	1.9700e+01	7.8960	-0.257033	-0.000022	-0.222290	-0.075314	0.000011
 396	1.9750e+01	7.9041	-0.244406	0.000053	0.530077	0.179595	0.000025
 397	1.9800e+01	7.9153	-0.237888	0.000027	0.273588	0.092694	0.000013
 398	1.9850e+01	7.9538	-0.230963	0.000029	0.290687	0.098488	0.000014
 399	1.9900e+01	7.9730	-0.222409	0.000036	0.359084	0.121661	0.000017
 400	1.9950e+01	8.0003	-0.215484	0.000029	0.290687	0.098488	0.000014
 401	2.0000e+01	8.0468	-0.210596	0.000021	0.205191	0.069521	0.000010
 402	2.0050e+01	8.0597	-0.200413	0.000043	0.427481	0.144835	0.000020
 403	2.0100e+01	8.0805	-0.197561	0.000012	0.119695	0.040554	0.000006
 404	2.0150e+01	8.0645	-0.187378	-0.000043	-0.427481	-0.144835	0.000020
 405	2.0200e+01	8.0950	-0.181675	0.000024	0.239390	0.081107	0.000011
 406	2.0250e+01	8.1046	-0.173528	0.000034	0.341985	0.115868	0.000016
 407	2.0300e+01	8.1559	-0.167825	0.000024	0.239390	0.081107	0.000011
 408	2.0350e+01	8.1784	-0.161308	0.000027	0.273588	0.092694	0.000013
 409	2.0400e+01	8.1543	-0.154383	-0.000029	-0.290687	-0.098488	0.000014
 410	2.0450e+01	8.2008	-0.147458	0.000029	0.290687	0.098488	0.000014
 411	2.0500e+01	8.2329	-0.137274	0.000043	0.427481	0.144835	0.000020
 412	2.0550e+01	8.2506	-0.130757	0.000027	0.273588	0.092694	0.000013
 413	2.0600e+01	8.2297	-0.124647	-0.000026	-0.256489	-0.086901	0.000012
 414	2.0650e+01	8.2666	-0.120166	0.000019	0.188092	0.063727	0.000009
 415	2.0700e+01	8.2923	-0.114056	0.000026	0.256489	0.086901	0.000012
 416	2.0750e+01	8.3356	-0.107538	0.000027	0.273588	0.092694	0.000013
 417	2.0800e+01	8.3500	-0.099799	0.000032	0.324886	0.110074	0.000015
 418	2.0850e+01	8.3228	-0.092874	-0.000029	-0.290687	-0.098488	0.000014
 419	2.0900e+01	8.4030	-0.086357	0.000027	0.273588	0.092694	0.000013
 420	2.0950e+01	8.3933	-0.075766	-0.000044	-0.444581	-0.150628	0.000021
 421	2.1000e+01	8.4158	-0.070063	0.000024	0.239390	0.081107	0.000011
 422	2.1050e+01	8.4302	-0.062731	0.000031	0.307787	0.104281	0.000015
 423	2.1100e+01	8.4383	-0.058657	0.000017	0.170993	0.057934	0.000008
 424	2.1150e+01	8.5089	-0.048066	0.000044	0.444581	0.150628	0.000021
 425	2.1200e+01	8.4912	-0.039512	-0.000036	-0.359084	-0.121661	0.000017
 426	2.1250e+01	8.5457	-0.035031	0.000019	0.188092	0.063727	0.000009
 427	2.1300e+01	8.5377	-0.025663	-0.000039	-0.393283	-0.133248	0.000019
 428	2.1350e+01	8.5634	-0.021589	0.000017	0.170993	0.057934	0.000008
 429	2.1400e+01	8.5939	-0.015886	0.000024	0.239390	0.081107	0.000011
 430	2.1450e+01	8.5859	-0.006925	-0.000038	-0.376184	-0.127454	0.000018
 431	2.1500e+01	8.6308	-0.002851	0.000017	0.170993	0.057934	0.000008
 432	2.1550e+01	8.6420	0.006925	0.000041	0.410382	0.139041	0.000020
 433	2.1600e+01	8.6420	0.015072	-0.000034	-0.341985	-0.115868	0.000016
 434	2.1650e+01	8.6821	0.019145	0.000017	0.170993	0.057934	0.000008
 435	2.1700e+01	8.6837	0.025663	0.000027	0.273588	0.092694	0.000013
 436	2.1750e+01	8.7302	0.031365	0.000024	0.239390	0.081107	0.000011
 437	2.1800e+01	8.7383	0.041549	0.000043	0.427481	0.144835	0.000020
 438	2.1850e+01	8.7591	0.050510	0.000038	0.376184	0.127454	0.000018
 439	2.1900e+01	8.7511	0.057435	-0.000029	-0.290687	-0.098488	0.000014
 440	2.1950e+01	8.7848	0.059879	0.000010	0.102596	0.034760	0.000005
 441	2.2000e+01	8.8297	0.065582	0.000024	0.239390	0.081107	0.000011
 442	2.2050e+01	8.8602	0.072507	0.000029	0.290687	0.098488	0.000014
 443	2.2100e+01	8.8858	0.080246	0.000032	0.324886	0.110074	0.000015
 444	2.2150e+01	8.8826	0.086764	-0.000027	-0.273588	-0.092694	0.000013
 445	2.2200e+01	8.9195	0.094096	0.000031	0.307787	0.104281	0.000015
 446	2.2250e+01	8.9051	0.100614	-0.000027	-0.273588	-0.092694	0.000013
 447	2.2300e+01	8.9388	0.108353	0.000032	0.324886	0.110074	0.000015
 448	2.2350e+01	8.9693	0.114871	0.000027	0.273588	0.092694	0.000013
 449	2.2400e+01	8.9853	0.127906	0.000055	0.547176	0.185388	0.000026
 450	2.2450e+01	8.9757	0.137682	-0.000041	-0.410382	-0.139041	0.000020
 451	2.2500e+01	9.0126	0.145014	0.000031	0.307787	0.104281	0.000015
 452	2.2550e+01	9.0190	0.150717	0.000024	0.239390	0.081107	0.000011
 453	2.2600e+01	9.0238	0.157234	0.000027	0.273588	0.092694	0.000013
 454	2.2650e+01	9.0591	0.167418	0.000043	0.427481	0.144835	0.000020
 455	2.2700e+01	9.0960	0.177194	0.000041	0.410382	0.139041	0.000020
 456	2.2750e+01	9.0992	0.182897	0.000024	0.239390	0.081107	0.000011
 457	2.2800e+01	9.1265	0.189822	0.000029	0.290687	0.098488	0.000014
 458	2.2850e+01	9.1473	0.197561	0.000032	0.324886	0.110074	0.000015
 459	2.2900e+01	9.1810	0.209374	0.000050	0.495878	0.168008	0.000024
 460	2.2950e+01	9.1730	0.211003	-0.000007	-0.068397	-0.023174	0.000003
 461	2.3000e+01	9.2083	0.219150	0.000034	0.341985	0.115868	0.000016
 462	2.3050e+01	9.2484	0.230963	0.000050	0.495878	0.168008	0.000024
 463	2.3100e+01	9.2725	0.233000	0.000009	0.085496	0.028967	0.000004
 464	2.3150e+01	9.2949	0.245628	0.000053	0.530077	0.179595	0.000025
 465	2.3200e+01	9.2949	0.254182	-0.000036	-0.359084	-0.121661	0.000017
 466	2.3250e+01	9.3254	0.263551	0.000039	0.393283	0.133248	0.000019
 467	2.3300e+01	9.3414	0.269661	0.000026	0.256489	0.086901	0.000012
 468	2.3350e+01	9.3463	0.271290	0.000007	0.068397	0.023174	0.000003
 469	2.3400e+01	9.3896	0.282288	0.000046	0.461680	0.156421	0.000022
 470	2.3450e+01	9.4185	0.289621	0.000031	0.307787	0.104281	0.000015
 471	2.3500e+01	9.4425	0.299804	0.000043	0.427481	0.144835	0.000020
 472	2.3550e+01	9.4297	0.302248	-0.000010	-0.102596	-0.034760	0.000005
 473	2.3600e+01	9.4537	0.308358	0.000026	0.256489	0.086901	0.000012
 474	2.3650e+01	9.4714	0.318542	0.000043	0.427481	0.144835	0.000020
 475	2.3700e+01	9.4938	0.323837	0.000022	0.222290	0.075314	0.000011
 476	2.3750e+01	9.5211	0.329133	0.000022	0.222290	0.075314	0.000011
 477	2.3800e+01	9.5436	0.336465	0.000031	0.307787	0.104281	0.000015
 478	2.3850e+01	9.5259	0.345019	-0.000036	-0.359084	-0.121661	0.000017
 479	2.3900e+01	9.5725	0.352759	0.000032	0.324886	0.110074	0.000015
 480	2.3950e+01	9.5789	0.356425	0.000015	0.153893	0.052140	0.000007
 481	2.4000e+01	9.6158	0.361720	0.000022	0.222290	0.075314	0.000011
 482	2.4050e+01	9.6511	0.367423	0.000024	0.239390	0.081107	0.000011
 483	2.4100e+01	9.6687	0.378014	0.000044	0.444581	0.150628	0.000021
 484	2.4150e+01	9.6912	0.381273	0.000014	0.136794	0.046347	0.000007
 485	2.4200e+01	9.6543	0.389012	-0.000032	-0.324886	-0.110074	0.000015
 486	2.4250e+01	9.7217	0.389827	0.000003	0.034199	0.011587	0.000002
 487	2.4300e+01	9.7217	0.396344	-0.000027	-0.273588	-0.092694	0.000013
 488	2.4350e+01	9.7585	0.404491	0.000034	0.341985	0.115868	0.000016
 489	2.4400e+01	9.7826	0.415082	0.000044	0.444581	0.150628	0.000021
 490	2.4450e+01	9.8051	0.421192	0.000026	0.256489	0.086901	0.000012
 491	2.4500e+01	9.7826	0.426488	-0.000022	-0.222290	-0.075314	0.000011
 492	2.4550e+01	9.8436	0.428932	0.000010	0.102596	0.034760	0.000005
 493	2.4600e+01	9.8532	0.439115	0.000043	0.427481	0.144835	0.000020
 494	2.4650e+01	9.8805	0.440745	0.000007	0.068397	0.023174	0.000003
 495	2.4700e+01	9.8997	0.446040	0.000022	0.222290	0.075314	0.000011
 496	2.4750e+01	9.9190	0.454594	0.000036	0.359084	0.121661	0.000017
 497	2.4800e+01	9.9366	0.457446	0.000012	0.119695	0.040554	0.000006
 498	2.4850e+01	9.9318	0.462741	-0.000022	-0.222290	-0.075314	0.000011
 499	2.4900e+01	10.0024	0.466000	0.000014	0.136794	0.046347	0.000007
 500	2.4950e+01	10.0136	0.473739	0.000032	0.324886	0.110074	0.000015
 501	2.5000e+01	10.0361	0.481072	0.000031	0.307787	0.104281	0.000015
 502	2.5050e+01	10.0521	0.487182	0.000026	0.256489	0.086901	0.000012
 503	2.5100e+01	10.0313	0.488404	-0.000005	-0.051298	-0.017380	0.000002
 504	2.5150e+01	10.0970	0.495736	0.000031	0.307787	0.104281	0.000015
 505	2.5200e+01	10.1002	0.505919	0.000043	0.427481	0.144835	0.000020
 506	2.5250e+01	10.1019	0.509993	0.000017	0.170993	0.057934	0.000008
 507	2.5300e+01	10.1307	0.512437	0.000010	0.102596	0.034760	0.000005
 508	2.5350e+01	10.1628	0.518547	0.000026	0.256489	0.086901	0.000012
 509	2.5400e+01	10.1596	0.526287	-0.000032	-0.324886	-0.110074	0.000015
 510	2.5450e+01	10.1805	0.530360	0.000017	0.170993	0.057934	0.000008
 511	2.5500e+01	10.1901	0.539322	0.000038	0.376184	0.127454	0.000018
 512	2.5550e+01	10.2543	0.545839	0.000027	0.273588	0.092694	0.000013
 513	2.5600e+01	10.2559	0.551949	0.000026	0.256489	0.086901	0.000012
 514	2.5650e+01	10.2751	0.557652	0.000024	0.239390	0.081107	0.000011
 515	2.5700e+01	10.2960	0.567021	0.000039	0.393283	0.133248	0.000019
 516	2.5750e+01	10.3120	0.569058	0.000009	0.085496	0.028967	0.000004
 517	2.5800e+01	10.3521	0.575575	0.000027	0.273588	0.092694	0.000013
 518	2.5850e+01	10.3730	0.582907	0.000031	0.307787	0.104281	0.000015
 519	2.5900e+01	10.3601	0.589832	-0.000029	-0.290687	-0.098488	0.000014
 520	2.5950e+01	10.3938	0.590647	0.000003	0.034199	0.011587	0.000002
 521	2.6000e+01	10.4211	0.600830	0.000043	0.427481	0.144835	0.000020
 522	2.6050e+01	10.4371	0.608162	0.000031	0.307787	0.104281	0.000015
 523	2.6100e+01	10.4452	0.615087	0.000029	0.290687	0.098488	0.000014
 524	2.6150e+01	10.4965	0.616717	0.000007	0.068397	0.023174	0.000003
 525	2.6200e+01	10.5061	0.626086	0.000039	0.393283	0.133248	0.000019
 526	2.6250e+01	10.5174	0.635047	0.000038	0.376184	0.127454	0.000018
 527	2.6300e+01	10.5414	0.640342	0.000022	0.222290	0.075314	0.000011
 528	2.6350e+01	10.5478	0.641565	0.000005	0.051298	0.017380	0.000002
 529	2.6400e+01	10.5815	0.646860	0.000022	0.222290	0.075314	0.000011
 530	2.6450e+01	10.5863	0.654599	0.000032	0.324886	0.110074	0.000015
 531	2.6500e+01	10.6377	0.664783	0.000043	0.427481	0.144835	0.000020
 532	2.6550e+01	10.6441	0.672115	0.000031	0.307787	0.104281	0.000015
 533	2.6600e+01	10.6329	0.675781	-0.000015	-0.153893	-0.052140	0.000007
 534	2.6650e+01	10.7002	0.684335	0.000036	0.359084	0.121661	0.000017
 535	2.6700e+01	10.6906	0.693704	-0.000039	-0.393283	-0.133248	0.000019
 536	2.6750e+01	10.7291	0.697778	0.000017	0.170993	0.057934	0.000008
 537	2.6800e+01	10.7596	0.704703	0.000029	0.290687	0.098488	0.000014
 538	2.6850e+01	10.7804	0.705110	0.000002	0.017099	0.005793	0.000001
 539	2.6900e+01	10.7788	0.716108	-0.000046	-0.461680	-0.156421	0.000022
 540	2.6950e+01	10.7804	0.719367	0.000014	0.136794	0.046347	0.000007
 541	2.7000e+01	10.7949	0.729958	0.000044	0.444581	0.150628	0.000021
 542	2.7050e+01	10.8366	0.735661	0.000024	0.239390	0.081107	0.000011
 543	2.7100e+01	10.8542	0.743400	0.000032	0.324886	0.110074	0.000015
 544	2.7150e+01	10.8719	0.747474	0.000017	0.170993	0.057934	0.000008
 545	2.7200e+01	10.9216	0.749103	0.000007	0.068397	0.023174	0.000003
 546	2.7250e+01	10.9248	0.760101	0.000046	0.461680	0.156421	0.000022
 547	2.7300e+01	10.9553	0.769063	0.000038	0.376184	0.127454	0.000018
 548	2.7350e+01	10.9553	0.771507	-0.000010	-0.102596	-0.034760	0.000005
 549	2.7400e+01	10.9601	0.776395	0.000021	0.205191	0.069521	0.000010
 550	2.7450e+01	10.9906	0.788208	0.000050	0.495878	0.168008	0.000024
 551	2.7500e+01	10.9826	0.793911	-0.000024	-0.239390	-0.081107	0.000011
 552	2.7550e+01	11.0291	0.797984	0.000017	0.170993	0.057934	0.000008
 553	2.7600e+01	11.0804	0.805316	0.000031	0.307787	0.104281	0.000015
 554	2.7650e+01	11.0804	0.811426	-0.000026	-0.256489	-0.086901	0.000012
 555	2.7700e+01	11.0997	0.814278	0.000012	0.119695	0.040554	0.000006
 556	2.7750e+01	11.1254	0.822832	0.000036	0.359084	0.121661	0.000017
 557	2.7800e+01	11.1382	0.830164	0.000031	0.307787	0.104281	0.000015
 558	2.7850e+01	11.1623	0.832608	0.000010	0.102596	0.034760	0.000005
 559	2.7900e+01	11.1783	0.841570	0.000038	0.376184	0.127454	0.000018
 560	2.7950e+01	11.1943	0.847680	0.000026	0.256489	0.086901	0.000012
 561	2.8000e+01	11.1943	0.854197	-0.000027	-0.273588	-0.092694	0.000013
 562	2.8050e+01	11.2248	0.856234	0.000009	0.085496	0.028967	0.000004
 563	2.8100e+01	11.2649	0.864788	0.000036	0.359084	0.121661	0.000017
 564	2.8150e+01	11.2906	0.870898	0.000026	0.256489	0.086901	0.000012
 565	2.8200e+01	11.2906	0.878638	-0.000032	-0.324886	-0.110074	0.000015
 566	2.8250e+01	11.3259	0.885155	0.000027	0.273588	0.092694	0.000013
 567	2.8300e+01	11.3243	0.890858	-0.000024	-0.239390	-0.081107	0.000011
 568	2.8350e+01	11.3564	0.898598	0.000032	0.324886	0.110074	0.000015
 569	2.8400e+01	11.3548	0.901042	-0.000010	-0.102596	-0.034760	0.000005
 570	2.8450e+01	11.3981	0.907559	0.000027	0.273588	0.092694	0.000013
 571	2.8500e+01	11.4173	0.913669	0.000026	0.256489	0.086901	0.000012
 572	2.8550e+01	11.4462	0.920187	0.000027	0.273588	0.092694	0.000013
 573	2.8600e+01	11.4735	0.923038	0.000012	0.119695	0.040554	0.000006
 574	2.8650e+01	11.4751	0.934444	0.000048	0.478779	0.162215	0.000023
 575	2.8700e+01	11.4879	0.941776	0.000031	0.307787	0.104281	0.000015
 576	2.8750e+01	11.5248	0.946664	0.000021	0.205191	0.069521	0.000010
 577	2.8800e+01	11.5457	0.954811	0.000034	0.341985	0.115868	0.000016
 578	2.8850e+01	11.5890	0.958477	0.000015	0.153893	0.052140	0.000007
 579	2.8900e+01	11.5810	0.966624	-0.000034	-0.341985	-0.115868	0.000016
 580	2.8950e+01	11.5826	0.973141	0.000027	0.273588	0.092694	0.000013
 581	2.9000e+01	11.6130	0.980066	0.000029	0.290687	0.098488	0.000014
 582	2.9050e+01	11.6323	0.982510	0.000010	0.102596	0.034760	0.000005
 583	2.9100e+01	11.6788	0.990250	0.000032	0.324886	0.110074	0.000015
 584	2.9150e+01	11.6580	1.002063	-0.000050	-0.495878	-0.168008	0.000024
 585	2.9200e+01	11.6868	1.006543	0.000019	0.188092	0.063727	0.000009
 586	2.9250e+01	11.7173	1.008988	0.000010	0.102596	0.034760	0.000005
 587	2.9300e+01	11.7285	1.019171	0.000043	0.427481	0.144835	0.000020
 588	2.9350e+01	11.7574	1.023652	0.000019	0.188092	0.063727	0.000009
 589	2.9400e+01	11.7703	1.029355	0.000024	0.239390	0.081107	0.000011
 590	2.9450e+01	11.8104	1.037501	0.000034	0.341985	0.115868	0.000016
 591	2.9500e+01	11.8104	1.044834	-0.000031	-0.307787	-0.104281	0.000015
 592	2.9550e+01	11.8280	1.049314	0.000019	0.188092	0.063727	0.000009
 593	2.9600e+01	11.8633	1.059498	0.000043	0.427481	0.144835	0.000020
 594	2.9650e+01	11.8826	1.066015	0.000027	0.273588	0.092694	0.000013
 595	2.9700e+01	11.8922	1.070496	0.000019	0.188092	0.063727	0.000009
 596	2.9750e+01	11.9082	1.076606	0.000026	0.256489	0.086901	0.000012
 597	2.9800e+01	11.9531	1.083531	0.000029	0.290687	0.098488	0.000014
 598	2.9850e+01	11.9387	1.089641	-0.000026	-0.256489	-0.086901	0.000012
 599	2.9900e+01	11.9804	1.094529	0.000021	0.205191	0.069521	0.000010
 600	2.9950e+01	11.9997	1.096159	0.000007	0.068397	0.023174	0.000003
 601	3.0000e+01	12.0141	1.107972	0.000050	0.495878	0.168008	0.000024
 602	3.0050e+01	12.0269	1.114082	0.000026	0.256489	0.086901	0.000012
 603	3.0100e+01	12.0590	1.121414	0.000031	0.307787	0.104281	0.000015
 604	3.0150e+01	12.0831	1.131190	0.000041	0.410382	0.139041	0.000020
 605	3.0200e+01	12.0686	1.137708	-0.000027	-0.273588	-0.092694	0.000013
 606	3.0250e+01	12.1120	1.138930	0.000005	0.051298	0.017380	0.000002
 607	3.0300e+01	12.1328	1.145447	0.000027	0.273588	0.092694	0.000013
 608	3.0350e+01	12.1440	1.154001	0.000036	0.359084	0.121661	0.000017
 609	3.0400e+01	12.1729	1.158482	0.000019	0.188092	0.063727	0.000009
 610	3.0450e+01	12.2082	1.165407	0.000029	0.290687	0.098488	0.000014
 611	3.0500e+01	12.2178	1.171110	0.000024	0.239390	0.081107	0.000011
 612	3.0550e+01	12.2339	1.178035	0.000029	0.290687	0.098488	0.000014
 613	3.0600e+01	12.2515	1.181701	0.000015	0.153893	0.052140	0.000007
 614	3.0650e+01	12.2884	1.190662	0.000038	0.376184	0.127454	0.000018
 615	3.0700e+01	12.2932	1.193106	0.000010	0.102596	0.034760	0.000005
 616	3.0750e+01	12.3221	1.202475	0.000039	0.393283	0.133248	0.000019
 617	3.0800e+01	12.3382	1.206549	0.000017	0.170993	0.057934	0.000008
 618	3.0850e+01	12.3686	1.206956	0.000002	0.017099	0.005793	0.000001
 619	3.0900e+01	12.3799	1.214288	0.000031	0.307787	0.104281	0.000015
 620	3.0950e+01	12.3831	1.217954	0.000015	0.153893	0.052140	0.000007
 621	3.1000e+01	12.3959	1.225694	0.000032	0.324886	0.110074	0.000015
 622	3.1050e+01	12.4296	1.233433	0.000032	0.324886	0.110074	0.000015
 623	3.1100e+01	12.4633	1.234248	0.000003	0.034199	0.011587	0.000002
 624	3.1150e+01	12.4922	1.237914	0.000015	0.153893	0.052140	0.000007
 625	3.1200e+01	12.5018	1.241580	0.000015	0.153893	0.052140	0.000007
 626	3.1250e+01	12.5339	1.250542	0.000038	0.376184	0.127454	0.000018
 627	3.1300e+01	12.5403	1.250949	0.000002	0.017099	0.005793	0.000001
 628	3.1350e+01	12.5499	1.258688	0.000032	0.324886	0.110074	0.000015
 629	3.1400e+01	12.5676	1.264799	0.000026	0.256489	0.086901	0.000012
 630	3.1450e+01	12.5996	1.270094	0.000022	0.222290	0.075314	0.000011
 631	3.1500e+01	12.6141	1.276612	0.000027	0.273588	0.092694	0.000013
 632	3.1550e+01	12.6654	1.281092	0.000019	0.188092	0.063727	0.000009
 633	3.1600e+01	12.6622	1.286388	-0.000022	-0.222290	-0.075314	0.000011
 634	3.1650e+01	12.6783	1.293720	0.000031	0.307787	0.104281	0.000015
 635	3.1700e+01	12.7119	1.299830	0.000026	0.256489	0.086901	0.000012
 636	3.1750e+01	12.7071	1.307977	-0.000034	-0.341985	-0.115868	0.000016
 637	3.1800e+01	12.7248	1.312050	0.000017	0.170993	0.057934	0.000008
 638	3.1850e+01	12.7777	1.315716	0.000015	0.153893	0.052140	0.000007
 639	3.1900e+01	12.7841	1.324271	0.000036	0.359084	0.121661	0.000017
 640	3.1950e+01	12.7729	1.332825	-0.000036	-0.359084	-0.121661	0.000017
 641	3.2000e+01	12.8467	1.335676	0.000012	0.119695	0.040554	0.000006
 642	3.2050e+01	12.8419	1.348711	-0.000055	-0.547176	-0.185388	0.000026
 643	3.2100e+01	12.8579	1.352377	0.000015	0.153893	0.052140	0.000007
 644	3.2150e+01	12.8627	1.353599	0.000005	0.051298	0.017380	0.000002
 645	3.2200e+01	12.8788	1.358895	0.000022	0.222290	0.075314	0.000011
 646	3.2250e+01	12.9413	1.364598	0.000024	0.239390	0.081107	0.000011
 647	3.2300e+01	12.9237	1.376003	-0.000048	-0.478779	-0.162215	0.000023
 648	3.2350e+01	12.9991	1.384150	0.000034	0.341985	0.115868	0.000016
 649	3.2400e+01	12.9879	1.387409	-0.000014	-0.136794	-0.046347	0.000007
 650	3.2450e+01	12.9863	1.393926	-0.000027	-0.273588	-0.092694	0.000013
 651	3.2500e+01	13.0103	1.402480	0.000036	0.359084	0.121661	0.000017
 652	3.2550e+01	13.0264	1.409405	0.000029	0.290687	0.098488	0.000014
 653	3.2600e+01	13.0761	1.419996	0.000044	0.444581	0.150628	0.000021
 654	3.2650e+01	13.0601	1.427736	-0.000032	-0.324886	-0.110074	0.000015
 655	3.2700e+01	13.0970	1.433438	0.000024	0.239390	0.081107	0.000011
 656	3.2750e+01	13.1178	1.435068	0.000007	0.068397	0.023174	0.000003
 657	3.2800e+01	13.1226	1.443215	0.000034	0.341985	0.115868	0.000016
 658	3.2850e+01	13.1611	1.449732	0.000027	0.273588	0.092694	0.000013
 659	3.2900e+01	13.1675	1.458286	0.000036	0.359084	0.121661	0.000017
 660	3.2950e+01	13.1740	1.469285	0.000046	0.461680	0.156421	0.000022
 661	3.3000e+01	13.2205	1.474987	0.000024	0.239390	0.081107	0.000011
 662	3.3050e+01	13.2397	1.483949	0.000038	0.376184	0.127454	0.000018
 663	3.3100e+01	13.2558	1.489244	0.000022	0.222290	0.075314	0.000011
 664	3.3150e+01	13.2606	1.499021	0.000041	0.410382	0.139041	0.000020
 665	3.3200e+01	13.2782	1.503094	0.000017	0.170993	0.057934	0.000008
 666	3.3250e+01	13.2895	1.514092	0.000046	0.461680	0.156421	0.000022
 667	3.3300e+01	13.3264	1.525091	0.000046	0.461680	0.156421	0.000022
 668	3.3350e+01	13.3713	1.529164	0.000017	0.170993	0.057934	0.000008
 669	3.3400e+01	13.3745	1.538940	0.000041	0.410382	0.139041	0.000020
 670	3.3450e+01	13.3873	1.543014	0.000017	0.170993	0.057934	0.000008
 671	3.3500e+01	13.4178	1.547087	0.000017	0.170993	0.057934	0.000008
 672	3.3550e+01	13.4531	1.557678	0.000044	0.444581	0.150628	0.000021
 673	3.3600e+01	13.4579	1.566232	0.000036	0.359084	0.121661	0.000017
 674	3.3650e+01	13.4836	1.576008	0.000041	0.410382	0.139041	0.000020
 675	3.3700e+01	13.4884	1.581711	0.000024	0.239390	0.081107	0.000011
 676	3.3750e+01	13.4916	1.585785	0.000017	0.170993	0.057934	0.000008
 677	3.3800e+01	13.5461	1.589858	0.000017	0.170993	0.057934	0.000008
 678	3.3850e+01	13.5654	1.598412	0.000036	0.359084	0.121661	0.000017
 679	3.3900e+01	13.5782	1.604522	0.000026	0.256489	0.086901	0.000012
 680	3.3950e+01	13.6055	1.609410	0.000021	0.205191	0.069521	0.000010
 681	3.4000e+01	13.6231	1.616335	0.000029	0.290687	0.098488	0.000014
 682	3.4050e+01	13.6392	1.625704	0.000039	0.393283	0.133248	0.000019
 683	3.4100e+01	13.6729	1.630185	0.000019	0.188092	0.063727	0.000009
 684	3.4150e+01	13.6809	1.634258	0.000017	0.170993	0.057934	0.000008
 685	3.4200e+01	13.6713	1.641183	-0.000029	-0.290687	-0.098488	0.000014
 686	3.4250e+01	13.7194	1.642813	0.000007	0.068397	0.023174	0.000003
 687	3.4300e+01	13.7210	1.655440	0.000053	0.530077	0.179595	0.000025
 688	3.4350e+01	13.7804	1.661550	0.000026	0.256489	0.086901	0.000012
 689	3.4400e+01	13.7916	1.667253	0.000024	0.239390	0.081107	0.000011
 690	3.4450e+01	13.8028	1.668882	0.000007	0.068397	0.023174	0.000003
 691	3.4500e+01	13.8189	1.672549	0.000015	0.153893	0.052140	0.000007
 692	3.4550e+01	13.8205	1.682732	0.000043	0.427481	0.144835	0.000020
 693	3.4600e+01	13.8461	1.690064	0.000031	0.307787	0.104281	0.000015
 694	3.4650e+01	13.8782	1.699840	0.000041	0.410382	0.139041	0.000020
 695	3.4700e+01	13.8846	1.702692	0.000012	0.119695	0.040554	0.000006
 696	3.4750e+01	13.9103	1.712061	0.000039	0.393283	0.133248	0.000019
 697	3.4800e+01	13.9424	1.714912	0.000012	0.119695	0.040554	0.000006
 698	3.4850e+01	13.9793	1.719800	0.000021	0.205191	0.069521	0.000010
 699	3.4900e+01	13.9825	1.728354	0.000036	0.359084	0.121661	0.000017
 700	3.4950e+01	13.9889	1.731206	0.000012	0.119695	0.040554	0.000006
 701	3.5000e+01	14.0338	1.736094	0.000021	0.205191	0.069521	0.000010
 702	3.5050e+01	14.0290	1.747907	-0.000050	-0.495878	-0.168008	0.000024
 703	3.5100e+01	14.0691	1.749536	0.000007	0.068397	0.023174	0.000003
 704	3.5150e+01	14.0643	1.760127	-0.000044	-0.444581	-0.150628	0.000021
 705	3.5200e+01	14.1028	1.768681	0.000036	0.359084	0.121661	0.000017
 706	3.5250e+01	14.1237	1.774791	0.000026	0.256489	0.086901	0.000012
 707	3.5300e+01	14.1108	1.780087	-0.000022	-0.222290	-0.075314	0.000011
 708	3.5350e+01	14.1702	1.784568	0.000019	0.188092	0.063727	0.000009
 709	3.5400e+01	14.2071	1.790271	0.000024	0.239390	0.081107	0.000011
 710	3.5450e+01	14.1846	1.795973	-0.000024	-0.239390	-0.081107	0.000011
 711	3.5500e+01	14.2199	1.801676	0.000024	0.239390	0.081107	0.000011
 712	3.5550e+01	14.2151	1.804935	-0.000014	-0.136794	-0.046347	0.000007
 713	3.5600e+01	14.2697	1.813082	0.000034	0.341985	0.115868	0.000016
 714	3.5650e+01	14.2969	1.820414	0.000031	0.307787	0.104281	0.000015
 715	3.5700e+01	14.3001	1.828968	0.000036	0.359084	0.121661	0.000017
 716	3.5750e+01	14.3017	1.834671	0.000024	0.239390	0.081107	0.000011
 717	3.5800e+01	14.3226	1.837115	0.000010	0.102596	0.034760	0.000005
 718	3.5850e+01	14.3306	1.845669	0.000036	0.359084	0.121661	0.000017
 719	3.5900e+01	14.3707	1.848113	0.000010	0.102596	0.034760	0.000005
 720	3.5950e+01	14.3836	1.857889	0.000041	0.410382	0.139041	0.000020
 721	3.6000e+01	14.4285	1.864407	0.000027	0.273588	0.092694	0.000013
 722	3.6050e+01	14.4365	1.872554	0.000034	0.341985	0.115868	0.000016
 723	3.6100e+01	14.4573	1.876220	0.000015	0.153893	0.052140	0.000007
 724	3.6150e+01	14.4606	1.883145	0.000029	0.290687	0.098488	0.000014
 725	3.6200e+01	14.5135	1.887625	0.000019	0.188092	0.063727	0.000009
 726	3.6250e+01	14.5151	1.894143	0.000027	0.273588	0.092694	0.000013
 727	3.6300e+01	14.5440	1.901475	0.000031	0.307787	0.104281	0.000015
 728	3.6350e+01	14.5712	1.908400	0.000029	0.290687	0.098488	0.000014
 729	3.6400e+01	14.5809	1.914917	0.000027	0.273588	0.092694	0.000013
 730	3.6450e+01	14.6033	1.918991	0.000017	0.170993	0.057934	0.000008
 731	3.6500e+01	14.6001	1.928360	-0.000039	-0.393283	-0.133248	0.000019
 732	3.6550e+01	14.6434	1.933248	0.000021	0.205191	0.069521	0.000010
 733	3.6600e+01	14.6499	1.942617	0.000039	0.393283	0.133248	0.000019
 734	3.6650e+01	14.6579	1.945061	0.000010	0.102596	0.034760	0.000005
 735	3.6700e+01	14.6851	1.952393	0.000031	0.307787	0.104281	0.000015
 736	3.6750e+01	14.7413	1.956874	0.000019	0.188092	0.063727	0.000009
 737	3.6800e+01	14.7253	1.964613	-0.000032	-0.324886	-0.110074	0.000015
 738	3.6850e+01	14.7605	1.971945	0.000031	0.307787	0.104281	0.000015
 739	3.6900e+01	14.7557	1.977648	-0.000024	-0.239390	-0.081107	0.000011
 740	3.6950e+01	14.7894	1.982129	0.000019	0.188092	0.063727	0.000009
 741	3.7000e+01	14.8183	1.987017	0.000021	0.205191	0.069521	0.000010
 742	3.7050e+01	14.8183	1.994349	-0.000031	-0.307787	-0.104281	0.000015
 743	3.7100e+01	14.8456	2.004125	0.000041	0.410382	0.139041	0.000020
 744	3.7150e+01	14.8905	2.010235	0.000026	0.256489	0.086901	0.000012
 745	3.7200e+01	14.8889	2.014309	-0.000017	-0.170993	-0.057934	0.000008
 746	3.7250e+01	14.8889	2.020826	-0.000027	-0.273588	-0.092694	0.000013
 747	3.7300e+01	14.9306	2.026937	0.000026	0.256489	0.086901	0.000012
 748	3.7350e+01	14.9322	2.029381	0.000010	0.102596	0.034760	0.000005
 749	3.7400e+01	14.9659	2.035491	0.000026	0.256489	0.086901	0.000012
 750	3.7450e+01	14.9835	2.042416	0.000029	0.290687	0.098488	0.000014
 751	3.7500e+01	14.9996	2.046896	0.000019	0.188092	0.063727	0.000009
 752	3.7550e+01	15.0509	2.056265	0.000039	0.393283	0.133248	0.000019
 753	3.7600e+01	15.0589	2.063190	0.000029	0.290687	0.098488	0.000014
 754	3.7650e+01	15.0878	2.063597	0.000002	0.017099	0.005793	0.000001
 755	3.7700e+01	15.0942	2.072152	0.000036	0.359084	0.121661	0.000017
 756	3.7750e+01	15.1151	2.081928	0.000041	0.410382	0.139041	0.000020
 757	3.7800e+01	15.1311	2.084372	0.000010	0.102596	0.034760	0.000005
 758	3.7850e+01	15.1760	2.090889	0.000027	0.273588	0.092694	0.000013
 759	3.7900e+01	15.1841	2.094148	0.000014	0.136794	0.046347	0.000007
 760	3.7950e+01	15.1696	2.099036	-0.000021	-0.205191	-0.069521	0.000010
 761	3.8000e+01	15.2017	2.112478	0.000056	0.564275	0.191182	0.000027
 762	3.8050e+01	15.2402	2.114515	0.000009	0.085496	0.028967	0.000004
 763	3.8100e+01	15.2482	2.122662	0.000034	0.341985	0.115868	0.000016
 764	3.8150e+01	15.2627	2.128365	0.000024	0.239390	0.081107	0.000011
 765	3.8200e+01	15.3108	2.132846	0.000019	0.188092	0.063727	0.000009
 766	3.8250e+01	15.3284	2.141400	0.000036	0.359084	0.121661	0.000017
 767	3.8300e+01	15.3252	2.139363	0.000009	0.085496	0.028967	-0.000004
 768	3.8350e+01	15.3541	2.147917	0.000036	0.359084	0.121661	0.000017
 769	3.8400e+01	15.3653	2.155657	0.000032	0.324886	0.110074	0.000015
 770	3.8450e+01	15.4054	2.164618	0.000038	0.376184	0.127454	0.000018
 771	3.8500e+01	15.4183	2.165840	0.000005	0.051298	0.017380	0.000002
 772	3.8550e+01	15.4327	2.168284	0.000010	0.102596	0.034760	0.000005
 773	3.8600e+01	15.4472	2.177653	0.000039	0.393283	0.133248	0.000019
 774	3.8650e+01	15.5097	2.183356	0.000024	0.239390	0.081107	0.000011
 775	3.8700e+01	15.5033	2.193132	-0.000041	-0.410382	-0.139041	0.000020
 776	3.8750e+01	15.5129	2.195169	0.000009	0.085496	0.028967	0.000004
 777	3.8800e+01	15.5482	2.204945	0.000041	0.410382	0.139041	0.000020
 778	3.8850e+01	15.5514	2.211055	0.000026	0.256489	0.086901	0.000012
 779	3.8900e+01	15.5835	2.214721	0.000015	0.153893	0.052140	0.000007
 780	3.8950e+01	15.5771	2.221646	-0.000029	-0.290687	-0.098488	0.000014
 781	3.9000e+01	15.6381	2.229793	0.000034	0.341985	0.115868	0.000016
 782	3.9050e+01	15.6589	2.234681	0.000021	0.205191	0.069521	0.000010
 783	3.9100e+01	15.6541	2.239569	-0.000021	-0.205191	-0.069521	0.000010
 784	3.9150e+01	15.7006	2.246494	0.000029	0.290687	0.098488	0.000014
 785	3.9200e+01	15.6942	2.257492	-0.000046	-0.461680	-0.156421	0.000022
 786	3.9250e+01	15.7295	2.261566	0.000017	0.170993	0.057934	0.000008
 787	3.9300e+01	15.7247	2.267269	-0.000024	-0.239390	-0.081107	0.000011
 788	3.9350e+01	15.7359	2.276230	0.000038	0.376184	0.127454	0.000018
 789	3.9400e+01	15.7808	2.285192	0.000038	0.376184	0.127454	0.000018
 790	3.9450e+01	15.7889	2.288043	0.000012	0.119695	0.040554	0.000006
 791	3.9500e+01	15.8097	2.296597	0.000036	0.359084	0.121661	0.000017
 792	3.9550e+01	15.8434	2.307188	0.000044	0.444581	0.150628	0.000021
 793	3.9600e+01	15.8867	2.312484	0.000022	0.222290	0.075314	0.000011
 794	3.9650e+01	15.8771	2.316557	-0.000017	-0.170993	-0.057934	0.000008
 795	3.9700e+01	15.8963	2.325519	0.000038	0.376184	0.127454	0.000018
 796	3.9750e+01	15.9108	2.329185	0.000015	0.153893	0.052140	0.000007
 797	3.9800e+01	15.9252	2.341812	0.000053	0.530077	0.179595	0.000025
 798	3.9850e+01	15.9284	2.343442	0.000007	0.068397	0.023174	0.000003
 799	3.9900e+01	15.9669	2.347515	0.000017	0.170993	0.057934	0.000008
 800	3.9950e+01	16.0006	2.356477	0.000038	0.376184	0.127454	0.000018
 801	4.0000e+01	15.9974	2.357699	-0.000005	-0.051298	-0.017380	0.000002
 802	4.0050e+01	16.0407	2.365846	0.000034	0.341985	0.115868	0.000016
 803	4.0100e+01	16.0712	2.370734	0.000021	0.205191	0.069521	0.000010
 804	4.0150e+01	16.0520	2.387027	-0.000068	-0.683970	-0.231735	0.000033
 805	4.0200e+01	16.1033	2.389879	0.000012	0.119695	0.040554	0.000006
 806	4.0250e+01	16.1033	2.394767	-0.000021	-0.205191	-0.069521	0.000010
 807	4.0300e+01	16.1354	2.400877	0.000026	0.256489	0.086901	0.000012
 808	4.0350e+01	16.1771	2.405765	0.000021	0.205191	0.069521	0.000010
 809	4.0400e+01	16.2188	2.409839	0.000017	0.170993	0.057934	0.000008
 810	4.0450e+01	16.1931	2.415949	-0.000026	-0.256489	-0.086901	0.000012
 811	4.0500e+01	16.2252	2.422873	0.000029	0.290687	0.098488	0.000014
 812	4.0550e+01	16.2429	2.422466	-0.000002	-0.017099	-0.005793	-0.000001
 813	4.0600e+01	16.2589	2.430206	0.000032	0.324886	0.110074	0.000015
 814	4.0650e+01	16.2782	2.437538	0.000031	0.307787	0.104281	0.000015
 815	4.0700e+01	16.2926	2.445685	0.000034	0.341985	0.115868	0.000016
 816	4.0750e+01	16.3279	2.451795	0.000026	0.256489	0.086901	0.000012
 817	4.0800e+01	16.3439	2.453017	0.000005	0.051298	0.017380	0.000002
 818	4.0850e+01	16.3728	2.457905	0.000021	0.205191	0.069521	0.000010
 819	4.0900e+01	16.3776	2.464422	0.000027	0.273588	0.092694	0.000013
 820	4.0950e+01	16.4289	2.466866	0.000010	0.102596	0.034760	0.000005
 821	4.1000e+01	16.3985	2.470533	-0.000015	-0.153893	-0.052140	0.000007
 822	4.1050e+01	16.4354	2.478272	0.000032	0.324886	0.110074	0.000015
 823	4.1100e+01	16.4562	2.484382	0.000026	0.256489	0.086901	0.000012
 824	4.1150e+01	16.4787	2.495380	0.000046	0.461680	0.156421	0.000022
 825	4.1200e+01	16.4867	2.494566	-0.000003	-0.034199	-0.011587	-0.000002
 826	4.1250e+01	16.4851	2.499454	-0.000021	-0.205191	-0.069521	0.000010
 827	4.1300e+01	16.5445	2.506786	0.000031	0.307787	0.104281	0.000015
 828	4.1350e+01	16.5509	2.508823	0.000009	0.085496	0.028967	0.000004
 829	4.1400e+01	16.5525	2.513711	0.000021	0.205191	0.069521	0.000010
 830	4.1450e+01	16.6070	2.516155	0.000010	0.102596	0.034760	0.000005
 831	4.1500e+01	16.6134	2.520636	0.000019	0.188092	0.063727	0.000009
 832	4.1550e+01	16.6407	2.525524	0.000021	0.205191	0.069521	0.000010
 833	4.1600e+01	16.6439	2.529190	0.000015	0.153893	0.052140	0.000007
 834	4.1650e+01	16.6824	2.534078	0.000021	0.205191	0.069521	0.000010
 835	4.1700e+01	16.6776	2.543854	-0.000041	-0.410382	-0.139041	0.000020
 836	4.1750e+01	16.7289	2.545076	0.000005	0.051298	0.017380	0.000002
 837	4.1800e+01	16.7594	2.546706	0.000007	0.068397	0.023174	0.000003
 838	4.1850e+01	16.7370	2.558111	-0.000048	-0.478779	-0.162215	0.000023
 839	4.1900e+01	16.7658	2.563814	0.000024	0.239390	0.081107	0.000011
 840	4.1950e+01	16.7995	2.565036	0.000005	0.051298	0.017380	0.000002
 841	4.2000e+01	16.8188	2.571961	0.000029	0.290687	0.098488	0.000014
 842	4.2050e+01	16.8557	2.573183	0.000005	0.051298	0.017380	0.000002
 843	4.2100e+01	16.8621	2.581330	0.000034	0.341985	0.115868	0.000016
 844	4.2150e+01	16.8669	2.582552	0.000005	0.051298	0.017380	0.000002
 845	4.2200e+01	16.9150	2.591921	0.000039	0.393283	0.133248	0.000019
 846	4.2250e+01	16.9198	2.602512	0.000044	0.444581	0.150628	0.000021
 847	4.2300e+01	16.9327	2.604548	0.000009	0.085496	0.028967	0.000004
 848	4.2350e+01	16.9487	2.610251	0.000024	0.239390	0.081107	0.000011
 849	4.2400e+01	16.9728	2.612695	0.000010	0.102596	0.034760	0.000005
 850	4.2450e+01	16.9728	2.615547	-0.000012	-0.119695	-0.040554	0.000006
 851	4.2500e+01	17.0209	2.625323	0.000041	0.410382	0.139041	0.000020
 852	4.2550e+01	17.0177	2.629804	-0.000019	-0.188092	-0.063727	0.000009
 853	4.2600e+01	17.0562	2.635506	0.000024	0.239390	0.081107	0.000011
 854	4.2650e+01	17.0755	2.638358	0.000012	0.119695	0.040554	0.000006
 855	4.2700e+01	17.0915	2.646097	0.000032	0.324886	0.110074	0.000015
 856	4.2750e+01	17.1268	2.651393	0.000022	0.222290	0.075314	0.000011
 857	4.2800e+01	17.1460	2.659132	0.000032	0.324886	0.110074	0.000015
 858	4.2850e+01	17.1573	2.662391	0.000014	0.136794	0.046347	0.000007
 859	4.2900e+01	17.1926	2.665650	0.000014	0.136794	0.046347	0.000007
 860	4.2950e+01	17.1974	2.674204	0.000036	0.359084	0.121661	0.000017
 861	4.3000e+01	17.2102	2.677055	0.000012	0.119695	0.040554	0.000006
 862	4.3050e+01	17.2327	2.683980	0.000029	0.290687	0.098488	0.000014
 863	4.3100e+01	17.2311	2.689683	-0.000024	-0.239390	-0.081107	0.000011
 864	4.3150e+01	17.2487	2.693756	0.000017	0.170993	0.057934	0.000008
 865	4.3200e+01	17.2872	2.700274	0.000027	0.273588	0.092694	0.000013
 866	4.3250e+01	17.3145	2.706384	0.000026	0.256489	0.086901	0.000012
 867	4.3300e+01	17.3546	2.708013	0.000007	0.068397	0.023174	0.000003
 868	4.3350e+01	17.3546	2.714531	-0.000027	-0.273588	-0.092694	0.000013
 869	4.3400e+01	17.3402	2.723492	-0.000038	-0.376184	-0.127454	0.000018
 870	4.3450e+01	17.4027	2.730010	0.000027	0.273588	0.092694	0.000013
 871	4.3500e+01	17.3963	2.734491	-0.000019	-0.188092	-0.063727	0.000009
 872	4.3550e+01	17.4444	2.738157	0.000015	0.153893	0.052140	0.000007
 873	4.3600e+01	17.4669	2.740193	0.000009	0.085496	0.028967	0.000004
 874	4.3650e+01	17.4685	2.746303	0.000026	0.256489	0.086901	0.000012
 875	4.3700e+01	17.5070	2.754043	0.000032	0.324886	0.110074	0.000015
 876	4.3750e+01	17.5118	2.760153	0.000026	0.256489	0.086901	0.000012
 877	4.3800e+01	17.5182	2.761782	0.000007	0.068397	0.023174	0.000003
 878	4.3850e+01	17.5487	2.771151	0.000039	0.393283	0.133248	0.000019
 879	4.3900e+01	17.6000	2.774410	0.000014	0.136794	0.046347	0.000007
 880	4.3950e+01	17.6209	2.780928	0.000027	0.273588	0.092694	0.000013
 881	4.4000e+01	17.6129	2.788260	-0.000031	-0.307787	-0.104281	0.000015
 882	4.4050e+01	17.6209	2.793148	0.000021	0.205191	0.069521	0.000010
 883	4.4100e+01	17.6610	2.799258	0.000026	0.256489	0.086901	0.000012
 884	4.4150e+01	17.6867	2.804961	0.000024	0.239390	0.081107	0.000011
 885	4.4200e+01	17.6947	2.813515	0.000036	0.359084	0.121661	0.000017
 886	4.4250e+01	17.7556	2.812700	-0.000003	-0.034199	-0.011587	-0.000002
 887	4.4300e+01	17.7300	2.817996	-0.000022	-0.222290	-0.075314	0.000011
 888	4.4350e+01	17.7428	2.825328	0.000031	0.307787	0.104281	0.000015
 889	4.4400e+01	17.7733	2.835512	0.000043	0.427481	0.144835	0.000020
 890	4.4450e+01	17.7813	2.837956	0.000010	0.102596	0.034760	0.000005
 891	4.4500e+01	17.8006	2.844473	0.000027	0.273588	0.092694	0.000013
 892	4.4550e+01	17.8294	2.842844	-0.000007	-0.068397	-0.023174	-0.000003
 893	4.4600e+01	17.8599	2.853027	0.000043	0.427481	0.144835	0.000020
 894	4.4650e+01	17.8679	2.860767	0.000032	0.324886	0.110074	0.000015
 895	4.4700e+01	17.8952	2.862803	0.000009	0.085496	0.028967	0.000004
 896	4.4750e+01	17.9225	2.868914	0.000026	0.256489	0.086901	0.000012
 897	4.4800e+01	17.9449	2.869728	0.000003	0.034199	0.011587	0.000002
 898	4.4850e+01	17.9546	2.877468	0.000032	0.324886	0.110074	0.000015
 899	4.4900e+01	17.9754	2.880727	0.000014	0.136794	0.046347	0.000007
 900	4.4950e+01	18.0075	2.890503	0.000041	0.410382	0.139041	0.000020
 901	4.5000e+01	18.0155	2.897835	0.000031	0.307787	0.104281	0.000015
 902	4.5050e+01	18.0556	2.901094	0.000014	0.136794	0.046347	0.000007
 903	4.5100e+01	18.0669	2.905982	0.000021	0.205191	0.069521	0.000010
 904	4.5150e+01	18.0685	2.908426	0.000010	0.102596	0.034760	0.000005
 905	4.5200e+01	18.0990	2.916165	0.000032	0.324886	0.110074	0.000015
 906	4.5250e+01	18.1182	2.923090	0.000029	0.290687	0.098488	0.000014
 907	4.5300e+01	18.1134	2.926756	-0.000015	-0.153893	-0.052140	0.000007
 908	4.5350e+01	18.1631	2.933681	0.000029	0.290687	0.098488	0.000014
 909	4.5400e+01	18.2016	2.939791	0.000026	0.256489	0.086901	0.000012
 910	4.5450e+01	18.1744	2.945087	-0.000022	-0.222290	-0.075314	0.000011
 911	4.5500e+01	18.2016	2.949975	0.000021	0.205191	0.069521	0.000010
 912	4.5550e+01	18.2305	2.957307	0.000031	0.307787	0.104281	0.000015
 913	4.5600e+01	18.2321	2.961788	0.000019	0.188092	0.063727	0.000009
 914	4.5650e+01	18.2818	2.969527	0.000032	0.324886	0.110074	0.000015
 915	4.5700e+01	18.2883	2.975230	0.000024	0.239390	0.081107	0.000011
 916	4.5750e+01	18.2802	2.979303	-0.000017	-0.170993	-0.057934	0.000008
 917	4.5800e+01	18.3284	2.985006	0.000024	0.239390	0.081107	0.000011
 918	4.5850e+01	18.3268	2.991116	-0.000026	-0.256489	-0.086901	0.000012
 919	4.5900e+01	18.3941	2.996412	0.000022	0.222290	0.075314	0.000011
 920	4.5950e+01	18.3733	3.002522	-0.000026	-0.256489	-0.086901	0.000012
 921	4.6000e+01	18.3989	3.009447	0.000029	0.290687	0.098488	0.000014
 922	4.6050e+01	18.4294	3.011483	0.000009	0.085496	0.028967	0.000004
 923	4.6100e+01	18.4615	3.016372	0.000021	0.205191	0.069521	0.000010
 924	4.6150e+01	18.4679	3.024111	0.000032	0.324886	0.110074	0.000015
 925	4.6200e+01	18.5016	3.033480	0.000039	0.393283	0.133248	0.000019
 926	4.6250e+01	18.4904	3.038775	-0.000022	-0.222290	-0.075314	0.000011
 927	4.6300e+01	18.5321	3.038368	-0.000002	-0.017099	-0.005793	-0.000001
 928	4.6350e+01	18.5530	3.047737	0.000039	0.393283	0.133248	0.000019
 929	4.6400e+01	18.5610	3.052625	0.000021	0.205191	0.069521	0.000010
 930	4.6450e+01	18.6011	3.057513	0.000021	0.205191	0.069521	0.000010
 931	4.6500e+01	18.6059	3.061179	0.000015	0.153893	0.052140	0.000007
 932	4.6550e+01	18.6428	3.072992	0.000050	0.495878	0.168008	0.000024
 933	4.6600e+01	18.6460	3.078288	0.000022	0.222290	0.075314	0.000011
 934	4.6650e+01	18.6685	3.080324	0.000009	0.085496	0.028967	0.000004
 935	4.6700e+01	18.6973	3.088879	0.000036	0.359084	0.121661	0.000017
 936	4.6750e+01	18.7166	3.088064	-0.000003	-0.034199	-0.011587	-0.000002
 937	4.6800e+01	18.7374	3.091730	0.000015	0.153893	0.052140	0.000007
 938	4.6850e+01	18.7503	3.102321	0.000044	0.444581	0.150628	0.000021
 939	4.6900e+01	18.7663	3.108838	0.000027	0.273588	0.092694	0.000013
 940	4.6950e+01	18.8128	3.115763	0.000029	0.290687	0.098488	0.000014
 941	4.7000e+01	18.8096	3.123095	-0.000031	-0.307787	-0.104281	0.000015
 942	4.7050e+01	18.8369	3.130835	0.000032	0.324886	0.110074	0.000015
 943	4.7100e+01	18.8674	3.131650	0.000003	0.034199	0.011587	0.000002
 944	4.7150e+01	18.8882	3.136130	0.000019	0.188092	0.063727	0.000009
 945	4.7200e+01	18.8947	3.140611	0.000019	0.188092	0.063727	0.000009
 946	4.7250e+01	18.9364	3.147129	0.000027	0.273588	0.092694	0.000013
 947	4.7300e+01	18.9396	3.154053	0.000029	0.290687	0.098488	0.000014
 948	4.7350e+01	18.9813	3.155683	0.000007	0.068397	0.023174	0.000003
 949	4.7400e+01	18.9909	3.164237	0.000036	0.359084	0.121661	0.000017
 950	4.7450e+01	19.0005	3.169940	0.000024	0.239390	0.081107	0.000011
 951	4.7500e+01	19.0455	3.169940	0.000000	0.000000	0.000000	0.000000
 952	4.7550e+01	19.0406	3.174013	-0.000017	-0.170993	-0.057934	0.000008
 953	4.7600e+01	19.0422	3.179716	0.000024	0.239390	0.081107	0.000011
 954	4.7650e+01	19.0872	3.182567	0.000012	0.119695	0.040554	0.000006
 955	4.7700e+01	19.0952	3.188677	0.000026	0.256489	0.086901	0.000012
 956	4.7750e+01	19.1080	3.195602	0.000029	0.290687	0.098488	0.000014
 957	4.7800e+01	19.1465	3.195602	0.000000	0.000000	0.000000	0.000000
 958	4.7850e+01	19.1642	3.198861	0.000014	0.136794	0.046347	0.000007
 959	4.7900e+01	19.1642	3.207008	-0.000034	-0.341985	-0.115868	0.000016
 960	4.7950e+01	19.1882	3.212711	0.000024	0.239390	0.081107	0.000011
 961	4.8000e+01	19.2251	3.217191	0.000019	0.188092	0.063727	0.000009
 962	4.8050e+01	19.2380	3.223302	0.000026	0.256489	0.086901	0.000012
 963	4.8100e+01	19.2380	3.222894	0.000002	0.017099	0.005793	-0.000001
 964	4.8150e+01	19.2684	3.229412	0.000027	0.273588	0.092694	0.000013
 965	4.8200e+01	19.3069	3.230226	0.000003	0.034199	0.011587	0.000002
 966	4.8250e+01	19.3085	3.242447	0.000051	0.512978	0.173802	0.000024
 967	4.8300e+01	19.3519	3.246927	0.000019	0.188092	0.063727	0.000009
 968	4.8350e+01	19.3535	3.254260	0.000031	0.307787	0.104281	0.000015
 969	4.8400e+01	19.3872	3.256704	0.000010	0.102596	0.034760	0.000005
 970	4.8450e+01	19.3872	3.259962	-0.000014	-0.136794	-0.046347	0.000007
 971	4.8500e+01	19.4289	3.262814	0.000012	0.119695	0.040554	0.000006
 972	4.8550e+01	19.4273	3.272590	-0.000041	-0.410382	-0.139041	0.000020
 973	4.8600e+01	19.4401	3.275441	0.000012	0.119695	0.040554	0.000006
 974	4.8650e+01	19.5075	3.283996	0.000036	0.359084	0.121661	0.000017
 975	4.8700e+01	19.4882	3.290106	-0.000026	-0.256489	-0.086901	0.000012
 976	4.8750e+01	19.5139	3.297845	0.000032	0.324886	0.110074	0.000015
 977	4.8800e+01	19.5347	3.301919	0.000017	0.170993	0.057934	0.000008
 978	4.8850e+01	19.5508	3.306807	0.000021	0.205191	0.069521	0.000010
 979	4.8900e+01	19.5941	3.306807	0.000000	0.000000	0.000000	0.000000
 980	4.8950e+01	19.6150	3.317805	0.000046	0.461680	0.156421	0.000022
 981	4.9000e+01	19.6326	3.322286	0.000019	0.188092	0.063727	0.000009
 982	4.9050e+01	19.6358	3.331247	0.000038	0.376184	0.127454	0.000018
 983	4.9100e+01	19.6567	3.338172	0.000029	0.290687	0.098488	0.000014
 984	4.9150e+01	19.6535	3.343060	-0.000021	-0.205191	-0.069521	0.000010
 985	4.9200e+01	19.6727	3.352837	0.000041	0.410382	0.139041	0.000020
 986	4.9250e+01	19.7080	3.360169	0.000031	0.307787	0.104281	0.000015
 987	4.9300e+01	19.7144	3.369130	0.000038	0.376184	0.127454	0.000018
 988	4.9350e+01	19.7321	3.374833	0.000024	0.239390	0.081107	0.000011
 989	4.9400e+01	19.7465	3.380943	0.000026	0.256489	0.086901	0.000012
 990	4.9450e+01	19.8107	3.387053	0.000026	0.256489	0.086901	0.000012
 991	4.9500e+01	19.8235	3.390719	0.000015	0.153893	0.052140	0.000007
 992	4.9550e+01	19.8379	3.396830	0.000026	0.256489	0.086901	0.000012
 993	4.9600e+01	19.8556	3.404569	0.000032	0.324886	0.110074	0.000015
 994	4.9650e+01	19.8524	3.409050	-0.000019	-0.188092	-0.063727	0.000009
 995	4.9700e+01	19.8700	3.415567	0.000027	0.273588	0.092694	0.000013
 996	4.9750e+01	19.8845	3.429010	0.000056	0.564275	0.191182	0.000027
 997	4.9800e+01	19.9230	3.435527	0.000027	0.273588	0.092694	0.000013
 998	4.9850e+01	19.9534	3.441637	0.000026	0.256489	0.086901	0.000012
 999	4.9900e+01	19.9727	3.446118	0.000019	0.188092	0.063727	0.000009
1000	4.9950e+01	19.9984	3.455894	0.000041	0.410382	0.139041	0.000020
1001	5.0000e+01	20.0305	3.462412	0.000027	0.273588	0.092694	0.000013
1002	5.0050e+01	20.0064	3.464041	-0.000007	-0.068397	-0.023174	0.000003
1003	5.0100e+01	19.9919	3.458338	0.000024	0.239390	0.081107	-0.000011
1004	5.0150e+01	19.9599	3.455487	0.000012	0.119695	0.040554	-0.000006
1005	5.0200e+01	19.9278	3.450599	0.000021	0.205191	0.069521	-0.000010
1006	5.0250e+01	19.9182	3.446525	0.000017	0.170993	0.057934	-0.000008
1007	5.0300e+01	19.8813	3.442859	0.000015	0.153893	0.052140	-0.000007
1008	5.0350e+01	19.8797	3.442452	0.000002	0.017099	0.005793	-0.000001
1009	5.0400e+01	19.8620	3.432676	0.000041	0.410382	0.139041	-0.000020
1010	5.0450e+01	19.8379	3.429824	0.000012	0.119695	0.040554	-0.000006
1011	5.0500e+01	19.8363	3.426566	0.000014	0.136794	0.046347	-0.000007
1012	5.0550e+01	19.7770	3.424529	0.000009	0.085496	0.028967	-0.000004
1013	5.0600e+01	19.7641	3.415975	0.000036	0.359084	0.121661	-0.000017
1014	5.0650e+01	19.7577	3.414345	0.000007	0.068397	0.023174	-0.000003
1015	5.0700e+01	19.7401	3.408235	0.000026	0.256489	0.086901	-0.000012
1016	5.0750e+01	19.7256	3.398866	0.000039	0.393283	0.133248	-0.000019
1017	5.0800e+01	19.6695	3.397237	0.000007	0.068397	0.023174	-0.000003
1018	5.0850e+01	19.6807	3.397644	0.000002	0.017099	0.005793	0.000001
1019	5.0900e+01	19.6551	3.391941	0.000024	0.239390	0.081107	-0.000011
1020	5.0950e+01	19.6374	3.385017	0.000029	0.290687	0.098488	-0.000014
1021	5.1000e+01	19.6037	3.382980	0.000009	0.085496	0.028967	-0.000004
1022	5.1050e+01	19.5813	3.375648	0.000031	0.307787	0.104281	-0.000015
1023	5.1100e+01	19.5716	3.373611	0.000009	0.085496	0.028967	-0.000004
1024	5.1150e+01	19.5492	3.365872	0.000032	0.324886	0.110074	-0.000015
1025	5.1200e+01	19.5363	3.365464	0.000002	0.017099	0.005793	-0.000001
1026	5.1250e+01	19.5203	3.360576	0.000021	0.205191	0.069521	-0.000010
1027	5.1300e+01	19.4930	3.355688	0.000021	0.205191	0.069521	-0.000010
1028	5.1350e+01	19.4930	3.350392	0.000022	0.222290	0.075314	-0.000011
1029	5.1400e+01	19.4465	3.347948	0.000010	0.102596	0.034760	-0.000005
1030	5.1450e+01	19.4385	3.340209	0.000032	0.324886	0.110074	-0.000015
1031	5.1500e+01	19.4112	3.336543	0.000015	0.153893	0.052140	-0.000007
1032	5.1550e+01	19.3759	3.330840	0.000024	0.239390	0.081107	-0.000011
1033	5.1600e+01	19.3406	3.327581	0.000014	0.136794	0.046347	-0.000007
1034	5.1650e+01	19.3294	3.322286	0.000022	0.222290	0.075314	-0.000011
1035	5.1700e+01	19.3326	3.318212	-0.000017	-0.170993	-0.057934	-0.000008
1036	5.1750e+01	19.3182	3.310066	0.000034	0.341985	0.115868	-0.000016
1037	5.1800e+01	19.3166	3.308029	0.000009	0.085496	0.028967	-0.000004
1038	5.1850e+01	19.2749	3.305177	0.000012	0.119695	0.040554	-0.000006
1039	5.1900e+01	19.2716	3.299882	0.000022	0.222290	0.075314	-0.000011
1040	5.1950e+01	19.2267	3.297845	0.000009	0.085496	0.028967	-0.000004
1041	5.2000e+01	19.2043	3.292143	0.000024	0.239390	0.081107	-0.000011
1042	5.2050e+01	19.2059	3.284810	-0.000031	-0.307787	-0.104281	-0.000015
1043	5.2100e+01	19.1946	3.281144	0.000015	0.153893	0.052140	-0.000007
1044	5.2150e+01	19.1513	3.272997	0.000034	0.341985	0.115868	-0.000016
1045	5.2200e+01	19.1192	3.273812	-0.000003	-0.034199	-0.011587	0.000002
1046	5.2250e+01	19.1128	3.266073	0.000032	0.324886	0.110074	-0.000015
1047	5.2300e+01	19.0727	3.264443	0.000007	0.068397	0.023174	-0.000003
1048	5.2350e+01	19.0711	3.259962	0.000019	0.188092	0.063727	-0.000009
1049	5.2400e+01	19.0503	3.252630	0.000031	0.307787	0.104281	-0.000015
1050	5.2450e+01	19.0294	3.246520	0.000026	0.256489	0.086901	-0.000012
1051	5.2500e+01	19.0198	3.242854	0.000015	0.153893	0.052140	-0.000007
1052	5.2550e+01	19.0053	3.242854	-0.000000	-0.000000	-0.000000	0.000000
1053	5.2600e+01	19.0070	3.236744	-0.000026	-0.256489	-0.086901	-0.000012
1054	5.2650e+01	18.9299	3.229412	0.000031	0.307787	0.104281	-0.000015
1055	5.2700e+01	18.9572	3.228597	-0.000003	-0.034199	-0.011587	-0.000002
1056	5.2750e+01	18.9107	3.220043	0.000036	0.359084	0.121661	-0.000017
1057	5.2800e+01	18.9139	3.218006	-0.000009	-0.085496	-0.028967	-0.000004
1058	5.2850e+01	18.8594	3.210267	0.000032	0.324886	0.110074	-0.000015
1059	5.2900e+01	18.8401	3.210267	-0.000000	-0.000000	-0.000000	0.000000
1060	5.2950e+01	18.8209	3.206193	0.000017	0.170993	0.057934	-0.000008
1061	5.3000e+01	18.8048	3.196417	0.000041	0.410382	0.139041	-0.000020
1062	5.3050e+01	18.8096	3.196010	-0.000002	-0.017099	-0.005793	-0.000001
1063	5.3100e+01	18.7840	3.190714	0.000022	0.222290	0.075314	-0.000011
1064	5.3150e+01	18.7583	3.187455	0.000014	0.136794	0.046347	-0.000007
1065	5.3200e+01	18.7390	3.182567	0.000021	0.205191	0.069521	-0.000010
1066	5.3250e+01	18.7150	3.176050	0.000027	0.273588	0.092694	-0.000013
1067	5.3300e+01	18.7054	3.170347	0.000024	0.239390	0.081107	-0.000011
1068	5.3350e+01	18.6428	3.165459	0.000021	0.205191	0.069521	-0.000010
1069	5.3400e+01	18.6251	3.163015	0.000010	0.102596	0.034760	-0.000005
1070	5.3450e+01	18.6669	3.160978	-0.000009	-0.085496	-0.028967	-0.000004
1071	5.3500e+01	18.6219	3.156090	0.000021	0.205191	0.069521	-0.000010
1072	5.3550e+01	18.5963	3.152017	0.000017	0.170993	0.057934	-0.000008
1073	5.3600e+01	18.5706	3.144277	0.000032	0.324886	0.110074	-0.000015
1074	5.3650e+01	18.5610	3.139389	0.000021	0.205191	0.069521	-0.000010
1075	5.3700e+01	18.5241	3.137760	0.000007	0.068397	0.023174	-0.000003
1076	5.3750e+01	18.4968	3.132872	0.000021	0.205191	0.069521	-0.000010
1077	5.3800e+01	18.5080	3.124725	-0.000034	-0.341985	-0.115868	-0.000016
1078	5.3850e+01	18.4759	3.117393	0.000031	0.307787	0.104281	-0.000015
1079	5.3900e+01	18.4423	3.111690	0.000024	0.239390	0.081107	-0.000011
1080	5.3950e+01	18.4374	3.105580	0.000026	0.256489	0.086901	-0.000012
1081	5.4000e+01	18.4006	3.106394	-0.000003	-0.034199	-0.011587	0.000002
1082	5.4050e+01	18.4198	3.100284	-0.000026	-0.256489	-0.086901	-0.000012
1083	5.4100e+01	18.3781	3.097025	0.000014	0.136794	0.046347	-0.000007
1084	5.4150e+01	18.3412	3.087249	0.000041	0.410382	0.139041	-0.000020
1085	5.4200e+01	18.3460	3.082768	-0.000019	-0.188092	-0.063727	-0.000009
1086	5.4250e+01	18.3332	3.078695	0.000017	0.170993	0.057934	-0.000008
1087	5.4300e+01	18.2915	3.080732	-0.000009	-0.085496	-0.028967	0.000004
1088	5.4350e+01	18.2289	3.068104	0.000053	0.530077	0.179595	-0.000025
1089	5.4400e+01	18.2337	3.063623	-0.000019	-0.188092	-0.063727	-0.000009
1090	5.4450e+01	18.2433	3.055884	-0.000032	-0.324886	-0.110074	-0.000015
1091	5.4500e+01	18.2257	3.050181	0.000024	0.239390	0.081107	-0.000011
1092	5.4550e+01	18.1840	3.047737	0.000010	0.102596	0.034760	-0.000005
1093	5.4600e+01	18.1792	3.042034	0.000024	0.239390	0.081107	-0.000011
1094	5.4650e+01	18.1294	3.036331	0.000024	0.239390	0.081107	-0.000011
1095	5.4700e+01	18.1359	3.032665	-0.000015	-0.153893	-0.052140	-0.000007
1096	5.4750e+01	18.1278	3.027777	0.000021	0.205191	0.069521	-0.000010
1097	5.4800e+01	18.0813	3.021260	0.000027	0.273588	0.092694	-0.000013
1098	5.4850e+01	18.0701	3.018001	0.000014	0.136794	0.046347	-0.000007
1099	5.4900e+01	18.0669	3.014742	0.000014	0.136794	0.046347	-0.000007
1100	5.4950e+01	18.0236	3.009039	0.000024	0.239390	0.081107	-0.000011
1101	5.5000e+01	18.0380	3.004559	-0.000019	-0.188092	-0.063727	-0.000009
1102	5.5050e+01	18.0075	2.996412	0.000034	0.341985	0.115868	-0.000016
1103	5.5100e+01	17.9883	2.988672	0.000032	0.324886	0.110074	-0.000015
1104	5.5150e+01	17.9594	2.988672	-0.000000	-0.000000	-0.000000	0.000000
1105	5.5200e+01	17.9498	2.980933	0.000032	0.324886	0.110074	-0.000015
1106	5.5250e+01	17.9161	2.980118	0.000003	0.034199	0.011587	-0.000002
1107	5.5300e+01	17.8856	2.976045	0.000017	0.170993	0.057934	-0.000008
1108	5.5350e+01	17.8824	2.966268	0.000041	0.410382	0.139041	-0.000020
1109	5.5400e+01	17.8487	2.962195	0.000017	0.170993	0.057934	-0.000008
1110	5.5450e+01	17.8407	2.957714	0.000019	0.188092	0.063727	-0.000009
1111	5.5500e+01	17.8182	2.952826	0.000021	0.205191	0.069521	-0.000010
1112	5.5550e+01	17.7909	2.946716	0.000026	0.256489	0.086901	-0.000012
1113	5.5600e+01	17.7412	2.941828	0.000021	0.205191	0.069521	-0.000010
1114	5.5650e+01	17.7524	2.942235	0.000002	0.017099	0.005793	0.000001
1115	5.5700e+01	17.7396	2.932866	0.000039	0.393283	0.133248	-0.000019
1116	5.5750e+01	17.7236	2.932866	-0.000000	-0.000000	-0.000000	0.000000
1117	5.5800e+01	17.7091	2.925127	0.000032	0.324886	0.110074	-0.000015
1118	5.5850e+01	17.6690	2.922275	0.000012	0.119695	0.040554	-0.000006
1119	5.5900e+01	17.6722	2.916165	-0.000026	-0.256489	-0.086901	-0.000012
1120	5.5950e+01	17.6209	2.914129	0.000009	0.085496	0.028967	-0.000004
1121	5.6000e+01	17.6321	2.911685	-0.000010	-0.102596	-0.034760	-0.000005
1122	5.6050e+01	17.5920	2.908018	0.000015	0.153893	0.052140	-0.000007
1123	5.6100e+01	17.5824	2.904760	0.000014	0.136794	0.046347	-0.000007
1124	5.6150e+01	17.5647	2.898650	0.000026	0.256489	0.086901	-0.000012
1125	5.6200e+01	17.5327	2.893761	0.000021	0.205191	0.069521	-0.000010
1126	5.6250e+01	17.4958	2.892539	0.000005	0.051298	0.017380	-0.000002
1127	5.6300e+01	17.4861	2.888466	0.000017	0.170993	0.057934	-0.000008
1128	5.6350e+01	17.4589	2.888466	-0.000000	-0.000000	-0.000000	0.000000
1129	5.6400e+01	17.4541	2.876653	0.000050	0.495878	0.168008	-0.000024
1130	5.6450e+01	17.4364	2.870543	0.000026	0.256489	0.086901	-0.000012
1131	5.6500e+01	17.4284	2.865248	0.000022	0.222290	0.075314	-0.000011
1132	5.6550e+01	17.3722	2.862803	0.000010	0.102596	0.034760	-0.000005
1133	5.6600e+01	17.3530	2.862396	0.000002	0.017099	0.005793	-0.000001
1134	5.6650e+01	17.3562	2.855064	-0.000031	-0.307787	-0.104281	-0.000015
1135	5.6700e+01	17.3369	2.847732	0.000031	0.307787	0.104281	-0.000015
1136	5.6750e+01	17.3209	2.842844	0.000021	0.205191	0.069521	-0.000010
1137	5.6800e+01	17.2968	2.840400	0.000010	0.102596	0.034760	-0.000005
1138	5.6850e+01	17.2792	2.831031	0.000039	0.393283	0.133248	-0.000019
1139	5.6900e+01	17.2728	2.830216	0.000003	0.034199	0.011587	-0.000002
1140	5.6950e+01	17.2439	2.824921	0.000022	0.222290	0.075314	-0.000011
1141	5.7000e+01	17.2006	2.816366	0.000036	0.359084	0.121661	-0.000017
1142	5.7050e+01	17.1894	2.814330	0.000009	0.085496	0.028967	-0.000004
1143	5.7100e+01	17.2022	2.806998	-0.000031	-0.307787	-0.104281	-0.000015
1144	5.7150e+01	17.1348	2.800480	0.000027	0.273588	0.092694	-0.000013
1145	5.7200e+01	17.1460	2.797221	-0.000014	-0.136794	-0.046347	-0.000007
1146	5.7250e+01	17.1140	2.792333	0.000021	0.205191	0.069521	-0.000010
1147	5.7300e+01	17.1172	2.785408	-0.000029	-0.290687	-0.098488	-0.000014
1148	5.7350e+01	17.0771	2.779706	0.000024	0.239390	0.081107	-0.000011
1149	5.7400e+01	17.0418	2.774410	0.000022	0.222290	0.075314	-0.000011
1150	5.7450e+01	17.0289	2.766263	0.000034	0.341985	0.115868	-0.000016
1151	5.7500e+01	16.9824	2.762597	0.000015	0.153893	0.052140	-0.000007
1152	5.7550e+01	17.0017	2.759338	-0.000014	-0.136794	-0.046347	-0.000007
1153	5.7600e+01	16.9728	2.753636	0.000024	0.239390	0.081107	-0.000011
1154	5.7650e+01	16.9696	2.746711	0.000029	0.290687	0.098488	-0.000014
1155	5.7700e+01	16.9391	2.739379	0.000031	0.307787	0.104281	-0.000015
1156	5.7750e+01	16.9070	2.732861	0.000027	0.273588	0.092694	-0.000013
1157	5.7800e+01	16.8990	2.729195	0.000015	0.153893	0.052140	-0.000007
1158	5.7850e+01	16.8509	2.722678	0.000027	0.273588	0.092694	-0.000013
1159	5.7900e+01	16.8493	2.718604	0.000017	0.170993	0.057934	-0.000008
1160	5.7950e+01	16.8188	2.712901	0.000024	0.239390	0.081107	-0.000011
1161	5.8000e+01	16.8364	2.706791	-0.000026	-0.256489	-0.086901	-0.000012
1162	5.8050e+01	16.7947	2.694978	0.000050	0.495878	0.168008	-0.000024
1163	5.8100e+01	16.7803	2.689276	0.000024	0.239390	0.081107	-0.000011
1164	5.8150e+01	16.7434	2.680721	0.000036	0.359084	0.121661	-0.000017
1165	5.8200e+01	16.7273	2.673389	0.000031	0.307787	0.104281	-0.000015
1166	5.8250e+01	16.6953	2.672982	0.000002	0.017099	0.005793	-0.000001
1167	5.8300e+01	16.6824	2.665650	0.000031	0.307787	0.104281	-0.000015
1168	5.8350e+01	16.6824	2.658317	0.000031	0.307787	0.104281	-0.000015
1169	5.8400e+01	16.6584	2.648541	0.000041	0.410382	0.139041	-0.000020
1170	5.8450e+01	16.6407	2.643246	0.000022	0.222290	0.075314	-0.000011
1171	5.8500e+01	16.6391	2.639987	0.000014	0.136794	0.046347	-0.000007
1172	5.8550e+01	16.5862	2.631433	0.000036	0.359084	0.121661	-0.000017
1173	5.8600e+01	16.5701	2.628174	0.000014	0.136794	0.046347	-0.000007
1174	5.8650e+01	16.5316	2.621249	0.000029	0.290687	0.098488	-0.000014
1175	5.8700e+01	16.5380	2.612695	-0.000036	-0.359084	-0.121661	-0.000017
1176	5.8750e+01	16.5027	2.608622	0.000017	0.170993	0.057934	-0.000008
1177	5.8800e+01	16.4803	2.604548	0.000017	0.170993	0.057934	-0.000008
1178	5.8850e+01	16.4755	2.598031	0.000027	0.273588	0.092694	-0.000013
1179	5.8900e+01	16.4578	2.590699	0.000031	0.307787	0.104281	-0.000015
1180	5.8950e+01	16.4161	2.587847	0.000012	0.119695	0.040554	-0.000006
1181	5.9000e+01	16.4129	2.579700	0.000034	0.341985	0.115868	-0.000016
1182	5.9050e+01	16.3792	2.572368	0.000031	0.307787	0.104281	-0.000015
1183	5.9100e+01	16.3760	2.570331	0.000009	0.085496	0.028967	-0.000004
1184	5.9150e+01	16.3375	2.563814	0.000027	0.273588	0.092694	-0.000013
1185	5.9200e+01	16.3455	2.560555	-0.000014	-0.136794	-0.046347	-0.000007
1186	5.9250e+01	16.2974	2.552816	0.000032	0.324886	0.110074	-0.000015
1187	5.9300e+01	16.2685	2.545076	0.000032	0.324886	0.110074	-0.000015
1188	5.9350e+01	16.2605	2.542632	0.000010	0.102596	0.034760	-0.000005
1189	5.9400e+01	16.2653	2.536522	-0.000026	-0.256489	-0.086901	-0.000012
1190	5.9450e+01	16.2156	2.527561	0.000038	0.376184	0.127454	-0.000018
1191	5.9500e+01	16.2028	2.521858	0.000024	0.239390	0.081107	-0.000011
1192	5.9550e+01	16.2044	2.516155	-0.000024	-0.239390	-0.081107	-0.000011
1193	5.9600e+01	16.1835	2.514933	0.000005	0.051298	0.017380	-0.000002
1194	5.9650e+01	16.1434	2.506379	0.000036	0.359084	0.121661	-0.000017
1195	5.9700e+01	16.1338	2.500269	0.000026	0.256489	0.086901	-0.000012
1196	5.9750e+01	16.1306	2.497010	0.000014	0.136794	0.046347	-0.000007
1197	5.9800e+01	16.0872	2.488863	0.000034	0.341985	0.115868	-0.000016
1198	5.9850e+01	16.0680	2.482753	0.000026	0.256489	0.086901	-0.000012
1199	5.9900e+01	16.0439	2.475828	0.000029	0.290687	0.098488	-0.000014
1200	5.9950e+01	16.0391	2.473791	0.000009	0.085496	0.028967	-0.000004
1201	6.0000e+01	16.0038	2.464830	0.000038	0.376184	0.127454	-0.000018
1202	6.0050e+01	16.0135	2.459127	-0.000024	-0.239390	-0.081107	-0.000011
1203	6.0100e+01	15.9445	2.454646	0.000019	0.188092	0.063727	-0.000009
1204	6.0150e+01	15.9525	2.447721	-0.000029	-0.290687	-0.098488	-0.000014
1205	6.0200e+01	15.9268	2.446092	0.000007	0.068397	0.023174	-0.000003
1206	6.0250e+01	15.9140	2.438760	0.000031	0.307787	0.104281	-0.000015
1207	6.0300e+01	15.8996	2.435501	0.000014	0.136794	0.046347	-0.000007
1208	6.0350e+01	15.8851	2.429798	0.000024	0.239390	0.081107	-0.000011
1209	6.0400e+01	15.8466	2.420022	0.000041	0.410382	0.139041	-0.000020
1210	6.0450e+01	15.8851	2.417171	-0.000012	-0.119695	-0.040554	-0.000006
1211	6.0500e+01	15.8145	2.412690	0.000019	0.188092	0.063727	-0.000009
1212	6.0550e+01	15.8001	2.405358	0.000031	0.307787	0.104281	-0.000015
1213	6.0600e+01	15.7648	2.393952	0.000048	0.478779	0.162215	-0.000023
1214	6.0650e+01	15.7616	2.389064	0.000021	0.205191	0.069521	-0.000010
1215	6.0700e+01	15.7279	2.385805	0.000014	0.136794	0.046347	-0.000007
1216	6.0750e+01	15.7119	2.386213	-0.000002	-0.017099	-0.005793	0.000001
1217	6.0800e+01	15.6894	2.374807	0.000048	0.478779	0.162215	-0.000023
1218	6.0850e+01	15.6605	2.373178	0.000007	0.068397	0.023174	-0.000003
1219	6.0900e+01	15.6445	2.367068	0.000026	0.256489	0.086901	-0.000012
1220	6.0950e+01	15.6365	2.360957	0.000026	0.256489	0.086901	-0.000012
1221	6.1000e+01	15.6236	2.351181	0.000041	0.410382	0.139041	-0.000020
1222	6.1050e+01	15.6092	2.347922	0.000014	0.136794	0.046347	-0.000007
1223	6.1100e+01	15.5771	2.340998	0.000029	0.290687	0.098488	-0.000014
1224	6.1150e+01	15.5562	2.333665	0.000031	0.307787	0.104281	-0.000015
1225	6.1200e+01	15.5145	2.327148	0.000027	0.273588	0.092694	-0.000013
1226	6.1250e+01	15.5177	2.321853	-0.000022	-0.222290	-0.075314	-0.000011
1227	6.1300e+01	15.4937	2.319408	0.000010	0.102596	0.034760	-0.000005
1228	6.1350e+01	15.4744	2.317372	0.000009	0.085496	0.028967	-0.000004
1229	6.1400e+01	15.4472	2.307596	0.000041	0.410382	0.139041	-0.000020
1230	6.1450e+01	15.4215	2.297412	0.000043	0.427481	0.144835	-0.000020
1231	6.1500e+01	15.4199	2.292524	0.000021	0.205191	0.069521	-0.000010
1232	6.1550e+01	15.4038	2.288858	0.000015	0.153893	0.052140	-0.000007
1233	6.1600e+01	15.3814	2.284377	0.000019	0.188092	0.063727	-0.000009
1234	6.1650e+01	15.3541	2.280304	0.000017	0.170993	0.057934	-0.000008
1235	6.1700e+01	15.3397	2.274601	0.000024	0.239390	0.081107	-0.000011
1236	6.1750e+01	15.3124	2.264417	0.000043	0.427481	0.144835	-0.000020
1237	6.1800e+01	15.2915	2.257900	0.000027	0.273588	0.092694	-0.000013
1238	6.1850e+01	15.2787	2.251790	0.000026	0.256489	0.086901	-0.000012
1239	6.1900e+01	15.2691	2.244050	0.000032	0.324886	0.110074	-0.000015
1240	6.1950e+01	15.2226	2.246902	-0.000012	-0.119695	-0.040554	0.000006
1241	6.2000e+01	15.2194	2.239162	0.000032	0.324886	0.110074	-0.000015
1242	6.2050e+01	15.1905	2.232237	0.000029	0.290687	0.098488	-0.000014
1243	6.2100e+01	15.1472	2.227349	0.000021	0.205191	0.069521	-0.000010
1244	6.2150e+01	15.1504	2.219610	-0.000032	-0.324886	-0.110074	-0.000015
1245	6.2200e+01	15.1167	2.212277	0.000031	0.307787	0.104281	-0.000015
1246	6.2250e+01	15.1103	2.211870	0.000002	0.017099	0.005793	-0.000001
1247	6.2300e+01	15.0605	2.204131	0.000032	0.324886	0.110074	-0.000015
1248	6.2350e+01	15.0702	2.199650	-0.000019	-0.188092	-0.063727	-0.000009
1249	6.2400e+01	15.0686	2.195984	0.000015	0.153893	0.052140	-0.000007
1250	6.2450e+01	15.0381	2.189059	0.000029	0.290687	0.098488	-0.000014
1251	6.2500e+01	15.0156	2.181319	0.000032	0.324886	0.110074	-0.000015
1252	6.2550e+01	14.9900	2.178468	0.000012	0.119695	0.040554	-0.000006
1253	6.2600e+01	14.9819	2.172765	0.000024	0.239390	0.081107	-0.000011
1254	6.2650e+01	14.9707	2.167877	0.000021	0.205191	0.069521	-0.000010
1255	6.2700e+01	14.9178	2.160138	0.000032	0.324886	0.110074	-0.000015
1256	6.2750e+01	14.9017	2.154842	0.000022	0.222290	0.075314	-0.000011
1257	6.2800e+01	14.9097	2.143844	-0.000046	-0.461680	-0.156421	-0.000022
1258	6.2850e+01	14.8761	2.140585	0.000014	0.136794	0.046347	-0.000007
1259	6.2900e+01	14.8728	2.138956	0.000007	0.068397	0.023174	-0.000003
1260	6.2950e+01	14.8231	2.130402	0.000036	0.359084	0.121661	-0.000017
1261	6.3000e+01	14.8071	2.124699	0.000024	0.239390	0.081107	-0.000011
1262	6.3050e+01	14.7974	2.120218	0.000019	0.188092	0.063727	-0.000009
1263	6.3100e+01	14.7686	2.115330	0.000021	0.205191	0.069521	-0.000010
1264	6.3150e+01	14.7333	2.110034	0.000022	0.222290	0.075314	-0.000011
1265	6.3200e+01	14.7493	2.102295	-0.000032	-0.324886	-0.110074	-0.000015
1266	6.3250e+01	14.7124	2.099851	0.000010	0.102596	0.034760	-0.000005
1267	6.3300e+01	14.6755	2.092111	0.000032	0.324886	0.110074	-0.000015
1268	6.3350e+01	14.6723	2.086816	0.000022	0.222290	0.075314	-0.000011
1269	6.3400e+01	14.6563	2.081928	0.000021	0.205191	0.069521	-0.000010
1270	6.3450e+01	14.6386	2.075818	0.000026	0.256489	0.086901	-0.000012
1271	6.3500e+01	14.6097	2.067263	0.000036	0.359084	0.121661	-0.000017
1272	6.3550e+01	14.6226	2.060339	-0.000029	-0.290687	-0.098488	-0.000014
1273	6.3600e+01	14.5873	2.059524	0.000003	0.034199	0.011587	-0.000002
1274	6.3650e+01	14.5584	2.055043	0.000019	0.188092	0.063727	-0.000009
1275	6.3700e+01	14.5584	2.046489	0.000036	0.359084	0.121661	-0.000017
1276	6.3750e+01	14.5183	2.044045	0.000010	0.102596	0.034760	-0.000005
1277	6.3800e+01	14.4975	2.039564	0.000019	0.188092	0.063727	-0.000009
1278	6.3850e+01	14.4557	2.029381	0.000043	0.427481	0.144835	-0.000020
1279	6.3900e+01	14.4557	2.023678	0.000024	0.239390	0.081107	-0.000011
1280	6.3950e+01	14.4285	2.021234	0.000010	0.102596	0.034760	-0.000005
1281	6.4000e+01	14.4092	2.011865	0.000039	0.393283	0.133248	-0.000019
1282	6.4050e+01	14.3900	2.006162	0.000024	0.239390	0.081107	-0.000011
1283	6.4100e+01	14.3803	2.001274	0.000021	0.205191	0.069521	-0.000010
1284	6.4150e+01	14.3499	1.990276	0.000046	0.461680	0.156421	-0.000022
1285	6.4200e+01	14.3354	1.987424	0.000012	0.119695	0.040554	-0.000006
1286	6.4250e+01	14.3226	1.980092	0.000031	0.307787	0.104281	-0.000015
1287	6.4300e+01	14.2921	1.970723	0.000039	0.393283	0.133248	-0.000019
1288	6.4350e+01	14.2648	1.964613	0.000026	0.256489	0.086901	-0.000012
1289	6.4400e+01	14.2344	1.958503	0.000026	0.256489	0.086901	-0.000012
1290	6.4450e+01	14.2119	1.951578	0.000029	0.290687	0.098488	-0.000014
1291	6.4500e+01	14.2119	1.943024	0.000036	0.359084	0.121661	-0.000017
1292	6.4550e+01	14.2039	1.933655	0.000039	0.393283	0.133248	-0.000019
1293	6.4600e+01	14.1959	1.931211	0.000010	0.102596	0.034760	-0.000005
1294	6.4650e+01	14.1686	1.925101	0.000026	0.256489	0.086901	-0.000012
1295	6.4700e+01	14.1317	1.914510	0.000044	0.444581	0.150628	-0.000021
1296	6.4750e+01	14.1253	1.908807	0.000024	0.239390	0.081107	-0.000011
1297	6.4800e+01	14.0996	1.906770	0.000009	0.085496	0.028967	-0.000004
1298	6.4850e+01	14.0948	1.891291	0.000065	0.649772	0.220149	-0.000031
1299	6.4900e+01	14.0435	1.889662	0.000007	0.068397	0.023174	-0.000003
1300	6.4950e+01	14.0563	1.885996	-0.000015	-0.153893	-0.052140	-0.000007
1301	6.5000e+01	14.0226	1.879071	0.000029	0.290687	0.098488	-0.000014
1302	6.5050e+01	14.0226	1.872961	0.000026	0.256489	0.086901	-0.000012
1303	6.5100e+01	13.9632	1.864814	0.000034	0.341985	0.115868	-0.000016
1304	6.5150e+01	13.9296	1.858704	0.000026	0.256489	0.086901	-0.000012
1305	6.5200e+01	13.9312	1.853409	-0.000022	-0.222290	-0.075314	-0.000011
1306	6.5250e+01	13.9312	1.848113	0.000022	0.222290	0.075314	-0.000011
1307	6.5300e+01	13.8782	1.844447	0.000015	0.153893	0.052140	-0.000007
1308	6.5350e+01	13.8670	1.841596	0.000012	0.119695	0.040554	-0.000006
1309	6.5400e+01	13.8670	1.834264	0.000031	0.307787	0.104281	-0.000015
1310	6.5450e+01	13.8381	1.832227	0.000009	0.085496	0.028967	-0.000004
1311	6.5500e+01	13.8269	1.821636	0.000044	0.444581	0.150628	-0.000021
1312	6.5550e+01	13.7804	1.811045	0.000044	0.444581	0.150628	-0.000021
1313	6.5600e+01	13.7788	1.807786	0.000014	0.136794	0.046347	-0.000007
1314	6.5650e+01	13.7354	1.801269	0.000027	0.273588	0.092694	-0.000013
1315	6.5700e+01	13.7338	1.797195	0.000017	0.170993	0.057934	-0.000008
1316	6.5750e+01	13.7130	1.796788	0.000002	0.017099	0.005793	-0.000001
1317	6.5800e+01	13.7114	1.793122	0.000015	0.153893	0.052140	-0.000007
1318	6.5850e+01	13.6584	1.787012	0.000026	0.256489	0.086901	-0.000012
1319	6.5900e+01	13.6649	1.782124	-0.000021	-0.205191	-0.069521	-0.000010
1320	6.5950e+01	13.6440	1.774791	0.000031	0.307787	0.104281	-0.000015
1321	6.6000e+01	13.6328	1.768681	0.000026	0.256489	0.086901	-0.000012
1322	6.6050e+01	13.5927	1.766237	0.000010	0.102596	0.034760	-0.000005
1323	6.6100e+01	13.5798	1.762979	0.000014	0.136794	0.046347	-0.000007
1324	6.6150e+01	13.5365	1.753610	0.000039	0.393283	0.133248	-0.000019
1325	6.6200e+01	13.5269	1.749536	0.000017	0.170993	0.057934	-0.000008
1326	6.6250e+01	13.5157	1.750351	-0.000003	-0.034199	-0.011587	0.000002
1327	6.6300e+01	13.5141	1.743426	0.000029	0.290687	0.098488	-0.000014
1328	6.6350e+01	13.4627	1.738131	0.000022	0.222290	0.075314	-0.000011
1329	6.6400e+01	13.4371	1.732021	0.000026	0.256489	0.086901	-0.000012
1330	6.6450e+01	13.4242	1.732021	-0.000000	-0.000000	-0.000000	0.000000
1331	6.6500e+01	13.4162	1.727132	0.000021	0.205191	0.069521	-0.000010
1332	6.6550e+01	13.3937	1.720615	0.000027	0.273588	0.092694	-0.000013
1333	6.6600e+01	13.3905	1.718986	0.000007	0.068397	0.023174	-0.000003
1334	6.6650e+01	13.3296	1.709617	0.000039	0.393283	0.133248	-0.000019
1335	6.6700e+01	13.3488	1.705136	-0.000019	-0.188092	-0.063727	-0.000009
1336	6.6750e+01	13.3167	1.703914	0.000005	0.051298	0.017380	-0.000002
1337	6.6800e+01	13.3055	1.697396	0.000027	0.273588	0.092694	-0.000013
1338	6.6850e+01	13.2830	1.696582	0.000003	0.034199	0.011587	-0.000002
1339	6.6900e+01	13.2718	1.693323	0.000014	0.136794	0.046347	-0.000007
1340	6.6950e+01	13.2526	1.685583	0.000032	0.324886	0.110074	-0.000015
1341	6.7000e+01	13.2269	1.677029	0.000036	0.359084	0.121661	-0.000017
1342	6.7050e+01	13.1804	1.672141	0.000021	0.205191	0.069521	-0.000010
1343	6.7100e+01	13.1708	1.661958	0.000043	0.427481	0.144835	-0.000020
1344	6.7150e+01	13.1563	1.661958	-0.000000	-0.000000	-0.000000	0.000000
1345	6.7200e+01	13.1210	1.656255	0.000024	0.239390	0.081107	-0.000011
1346	6.7250e+01	13.1306	1.650145	-0.000026	-0.256489	-0.086901	-0.000012
1347	6.7300e+01	13.0681	1.641183	0.000038	0.376184	0.127454	-0.000018
1348	6.7350e+01	13.0873	1.633036	-0.000034	-0.341985	-0.115868	-0.000016
1349	6.7400e+01	13.0649	1.628148	0.000021	0.205191	0.069521	-0.000010
1350	6.7450e+01	13.0360	1.626111	0.000009	0.085496	0.028967	-0.000004
1351	6.7500e+01	13.0087	1.622038	0.000017	0.170993	0.057934	-0.000008
1352	6.7550e+01	13.0280	1.619187	-0.000012	-0.119695	-0.040554	-0.000006
1353	6.7600e+01	12.9654	1.612669	0.000027	0.273588	0.092694	-0.000013
1354	6.7650e+01	12.9413	1.606966	0.000024	0.239390	0.081107	-0.000011
1355	6.7700e+01	12.9221	1.598820	0.000034	0.341985	0.115868	-0.000016
1356	6.7750e+01	12.9285	1.593931	-0.000021	-0.205191	-0.069521	-0.000010
1357	6.7800e+01	12.8836	1.585785	0.000034	0.341985	0.115868	-0.000016
1358	6.7850e+01	12.8659	1.579674	0.000026	0.256489	0.086901	-0.000012
1359	6.7900e+01	12.8804	1.574786	-0.000021	-0.205191	-0.069521	-0.000010
1360	6.7950e+01	12.8435	1.568269	0.000027	0.273588	0.092694	-0.000013
1361	6.8000e+01	12.8274	1.565417	0.000012	0.119695	0.040554	-0.000006
1362	6.8050e+01	12.7970	1.557271	0.000034	0.341985	0.115868	-0.000016
1363	6.8100e+01	12.7537	1.547494	0.000041	0.410382	0.139041	-0.000020
1364	6.8150e+01	12.7537	1.543828	0.000015	0.153893	0.052140	-0.000007
1365	6.8200e+01	12.7280	1.542199	0.000007	0.068397	0.023174	-0.000003
1366	6.8250e+01	12.7360	1.536089	-0.000026	-0.256489	-0.086901	-0.000012
1367	6.8300e+01	12.7168	1.526313	0.000041	0.410382	0.139041	-0.000020
1368	6.8350e+01	12.6702	1.524276	0.000009	0.085496	0.028967	-0.000004
1369	6.8400e+01	12.6462	1.518980	0.000022	0.222290	0.075314	-0.000011
1370	6.8450e+01	12.6414	1.509611	0.000039	0.393283	0.133248	-0.000019
1371	6.8500e+01	12.6029	1.505538	0.000017	0.170993	0.057934	-0.000008
1372	6.8550e+01	12.6157	1.500243	-0.000022	-0.222290	-0.075314	-0.000011
1373	6.8600e+01	12.6141	1.492910	0.000031	0.307787	0.104281	-0.000015
1374	6.8650e+01	12.5740	1.489244	0.000015	0.153893	0.052140	-0.000007
1375	6.8700e+01	12.5531	1.482727	0.000027	0.273588	0.092694	-0.000013
1376	6.8750e+01	12.5210	1.475395	0.000031	0.307787	0.104281	-0.000015
1377	6.8800e+01	12.5050	1.468063	0.000031	0.307787	0.104281	-0.000015
1378	6.8850e+01	12.4825	1.468470	-0.000002	-0.017099	-0.005793	0.000001
1379	6.8900e+01	12.4713	1.460730	0.000032	0.324886	0.110074	-0.000015
1380	6.8950e+01	12.4200	1.454213	0.000027	0.273588	0.092694	-0.000013
1381	6.9000e+01	12.4328	1.448917	-0.000022	-0.222290	-0.075314	-0.000011
1382	6.9050e+01	12.3975	1.441178	0.000032	0.324886	0.110074	-0.000015
1383	6.9100e+01	12.3718	1.438327	0.000012	0.119695	0.040554	-0.000006
1384	6.9150e+01	12.3606	1.433438	0.000021	0.205191	0.069521	-0.000010
1385	6.9200e+01	12.3430	1.423662	0.000041	0.410382	0.139041	-0.000020
1386	6.9250e+01	12.3205	1.419589	0.000017	0.170993	0.057934	-0.000008
1387	6.9300e+01	12.2868	1.411035	0.000036	0.359084	0.121661	-0.000017
1388	6.9350e+01	12.2628	1.407776	0.000014	0.136794	0.046347	-0.000007
1389	6.9400e+01	12.2483	1.403295	0.000019	0.188092	0.063727	-0.000009
1390	6.9450e+01	12.2371	1.400036	0.000014	0.136794	0.046347	-0.000007
1391	6.9500e+01	12.2178	1.392297	0.000032	0.324886	0.110074	-0.000015
1392	6.9550e+01	12.2467	1.384150	-0.000034	-0.341985	-0.115868	-0.000016
1393	6.9600e+01	12.2050	1.380484	0.000015	0.153893	0.052140	-0.000007
1394	6.9650e+01	12.1456	1.377225	0.000014	0.136794	0.046347	-0.000007
1395	6.9700e+01	12.1232	1.366634	0.000044	0.444581	0.150628	-0.000021
1396	6.9750e+01	12.1087	1.363376	0.000014	0.136794	0.046347	-0.000007
1397	6.9800e+01	12.1168	1.358487	-0.000021	-0.205191	-0.069521	-0.000010
1398	6.9850e+01	12.0702	1.348304	0.000043	0.427481	0.144835	-0.000020
1399	6.9900e+01	12.0558	1.341786	0.000027	0.273588	0.092694	-0.000013
1400	6.9950e+01	12.0430	1.340972	0.000003	0.034199	0.011587	-0.000002
1401	7.0000e+01	12.0141	1.334454	0.000027	0.273588	0.092694	-0.000013
1402	7.0050e+01	12.0013	1.326307	0.000034	0.341985	0.115868	-0.000016
1403	7.0100e+01	11.9724	1.319383	0.000029	0.290687	0.098488	-0.000014
1404	7.0150e+01	11.9515	1.314902	0.000019	0.188092	0.063727	-0.000009
1405	7.0200e+01	11.9531	1.313680	-0.000005	-0.051298	-0.017380	-0.000002
1406	7.0250e+01	11.9194	1.305126	0.000036	0.359084	0.121661	-0.000017
1407	7.0300e+01	11.8890	1.301459	0.000015	0.153893	0.052140	-0.000007
1408	7.0350e+01	11.8826	1.291276	0.000043	0.427481	0.144835	-0.000020
1409	7.0400e+01	11.8617	1.290869	0.000002	0.017099	0.005793	-0.000001
1410	7.0450e+01	11.8152	1.281092	0.000041	0.410382	0.139041	-0.000020
1411	7.0500e+01	11.8344	1.276612	-0.000019	-0.188092	-0.063727	-0.000009
1412	7.0550e+01	11.7911	1.272131	0.000019	0.188092	0.063727	-0.000009
1413	7.0600e+01	11.7831	1.262762	0.000039	0.393283	0.133248	-0.000019
1414	7.0650e+01	11.7654	1.256244	0.000027	0.273588	0.092694	-0.000013
1415	7.0700e+01	11.7173	1.250542	0.000024	0.239390	0.081107	-0.000011
1416	7.0750e+01	11.7189	1.241987	-0.000036	-0.359084	-0.121661	-0.000017
1417	7.0800e+01	11.7061	1.235063	0.000029	0.290687	0.098488	-0.000014
1418	7.0850e+01	11.6676	1.230989	0.000017	0.170993	0.057934	-0.000008
1419	7.0900e+01	11.6596	1.224879	0.000026	0.256489	0.086901	-0.000012
1420	7.0950e+01	11.6179	1.222842	0.000009	0.085496	0.028967	-0.000004
1421	7.1000e+01	11.6275	1.214288	-0.000036	-0.359084	-0.121661	-0.000017
1422	7.1050e+01	11.5794	1.207363	0.000029	0.290687	0.098488	-0.000014
1423	7.1100e+01	11.5922	1.199216	-0.000034	-0.341985	-0.115868	-0.000016
1424	7.1150e+01	11.5425	1.193106	0.000026	0.256489	0.086901	-0.000012
1425	7.1200e+01	11.5392	1.194328	-0.000005	-0.051298	-0.017380	0.000002
1426	7.1250e+01	11.5072	1.188626	0.000024	0.239390	0.081107	-0.000011
1427	7.1300e+01	11.5040	1.177220	0.000048	0.478779	0.162215	-0.000023
1428	7.1350e+01	11.4799	1.170702	0.000027	0.273588	0.092694	-0.000013
1429	7.1400e+01	11.4478	1.165814	0.000021	0.205191	0.069521	-0.000010
1430	7.1450e+01	11.4526	1.153594	-0.000051	-0.512978	-0.173802	-0.000024
1431	7.1500e+01	11.4093	1.148299	0.000022	0.222290	0.075314	-0.000011
1432	7.1550e+01	11.4013	1.147077	0.000005	0.051298	0.017380	-0.000002
1433	7.1600e+01	11.3933	1.140152	0.000029	0.290687	0.098488	-0.000014
1434	7.1650e+01	11.3644	1.134449	0.000024	0.239390	0.081107	-0.000011
1435	7.1700e+01	11.3451	1.127117	0.000031	0.307787	0.104281	-0.000015
1436	7.1750e+01	11.3259	1.122636	0.000019	0.188092	0.063727	-0.000009
1437	7.1800e+01	11.2906	1.114897	0.000032	0.324886	0.110074	-0.000015
1438	7.1850e+01	11.2970	1.110416	-0.000019	-0.188092	-0.063727	-0.000009
1439	7.1900e+01	11.2377	1.100232	0.000043	0.427481	0.144835	-0.000020
1440	7.1950e+01	11.1991	1.100232	-0.000000	-0.000000	-0.000000	0.000000
1441	7.2000e+01	11.2072	1.092085	-0.000034	-0.341985	-0.115868	-0.000016
1442	7.2050e+01	11.2056	1.087605	0.000019	0.188092	0.063727	-0.000009
1443	7.2100e+01	11.1751	1.079050	0.000036	0.359084	0.121661	-0.000017
1444	7.2150e+01	11.1639	1.069682	0.000039	0.393283	0.133248	-0.000019
1445	7.2200e+01	11.1783	1.061535	-0.000034	-0.341985	-0.115868	-0.000016
1446	7.2250e+01	11.1077	1.057461	0.000017	0.170993	0.057934	-0.000008
1447	7.2300e+01	11.0997	1.053795	0.000015	0.153893	0.052140	-0.000007
1448	7.2350e+01	11.0708	1.043612	0.000043	0.427481	0.144835	-0.000020
1449	7.2400e+01	11.0435	1.039131	0.000019	0.188092	0.063727	-0.000009
1450	7.2450e+01	11.0435	1.040353	-0.000005	-0.051298	-0.017380	0.000002
1451	7.2500e+01	11.0227	1.033021	0.000031	0.307787	0.104281	-0.000015
1452	7.2550e+01	10.9890	1.027318	0.000024	0.239390	0.081107	-0.000011
1453	7.2600e+01	10.9713	1.024467	0.000012	0.119695	0.040554	-0.000006
1454	7.2650e+01	10.9457	1.017134	0.000031	0.307787	0.104281	-0.000015
1455	7.2700e+01	10.9120	1.016727	0.000002	0.017099	0.005793	-0.000001
1456	7.2750e+01	10.9264	1.009802	-0.000029	-0.290687	-0.098488	-0.000014
1457	7.2800e+01	10.8799	1.003692	0.000026	0.256489	0.086901	-0.000012
1458	7.2850e+01	10.8992	0.997175	-0.000027	-0.273588	-0.092694	-0.000013
1459	7.2900e+01	10.8446	0.993508	0.000015	0.153893	0.052140	-0.000007
1460	7.2950e+01	10.8414	0.988620	0.000021	0.205191	0.069521	-0.000010
1461	7.3000e+01	10.8350	0.984140	0.000019	0.188092	0.063727	-0.000009
1462	7.3050e+01	10.7965	0.975178	0.000038	0.376184	0.127454	-0.000018
1463	7.3100e+01	10.7788	0.972327	0.000012	0.119695	0.040554	-0.000006
1464	7.3150e+01	10.7692	0.969068	0.000014	0.136794	0.046347	-0.000007
1465	7.3200e+01	10.7227	0.962143	0.000029	0.290687	0.098488	-0.000014
1466	7.3250e+01	10.7034	0.955218	0.000029	0.290687	0.098488	-0.000014
1467	7.3300e+01	10.6970	0.947071	0.000034	0.341985	0.115868	-0.000016
1468	7.3350e+01	10.6970	0.941776	0.000022	0.222290	0.075314	-0.000011
1469	7.3400e+01	10.6377	0.938110	0.000015	0.153893	0.052140	-0.000007
1470	7.3450e+01	10.6345	0.930370	0.000032	0.324886	0.110074	-0.000015
1471	7.3500e+01	10.6120	0.924260	0.000026	0.256489	0.086901	-0.000012
1472	7.3550e+01	10.5815	0.918150	0.000026	0.256489	0.086901	-0.000012
1473	7.3600e+01	10.5623	0.913669	0.000019	0.188092	0.063727	-0.000009
1474	7.3650e+01	10.5510	0.905522	0.000034	0.341985	0.115868	-0.000016
1475	7.3700e+01	10.5414	0.896968	0.000036	0.359084	0.121661	-0.000017
1476	7.3750e+01	10.5013	0.892080	0.000021	0.205191	0.069521	-0.000010
1477	7.3800e+01	10.5077	0.886785	-0.000022	-0.222290	-0.075314	-0.000011
1478	7.3850e+01	10.4788	0.880267	0.000027	0.273588	0.092694	-0.000013
1479	7.3900e+01	10.4596	0.877416	0.000012	0.119695	0.040554	-0.000006
1480	7.3950e+01	10.4147	0.868454	0.000038	0.376184	0.127454	-0.000018
1481	7.4000e+01	10.4179	0.863974	-0.000019	-0.188092	-0.063727	-0.000009
1482	7.4050e+01	10.3970	0.857456	0.000027	0.273588	0.092694	-0.000013
1483	7.4100e+01	10.3906	0.848495	0.000038	0.376184	0.127454	-0.000018
1484	7.4150e+01	10.3890	0.835460	0.000055	0.547176	0.185388	-0.000026
1485	7.4200e+01	10.3425	0.830164	0.000022	0.222290	0.075314	-0.000011
1486	7.4250e+01	10.3088	0.821203	0.000038	0.376184	0.127454	-0.000018
1487	7.4300e+01	10.3008	0.813870	0.000031	0.307787	0.104281	-0.000015
1488	7.4350e+01	10.2879	0.811426	0.000010	0.102596	0.034760	-0.000005
1489	7.4400e+01	10.2462	0.804502	0.000029	0.290687	0.098488	-0.000014
1490	7.4450e+01	10.2543	0.797984	-0.000027	-0.273588	-0.092694	-0.000013
1491	7.4500e+01	10.2206	0.792281	0.000024	0.239390	0.081107	-0.000011
1492	7.4550e+01	10.1837	0.787393	0.000021	0.205191	0.069521	-0.000010
1493	7.4600e+01	10.1901	0.780468	-0.000029	-0.290687	-0.098488	-0.000014
1494	7.4650e+01	10.1612	0.769470	0.000046	0.461680	0.156421	-0.000022
1495	7.4700e+01	10.1500	0.760509	0.000038	0.376184	0.127454	-0.000018
1496	7.4750e+01	10.1131	0.753176	0.000031	0.307787	0.104281	-0.000015
1497	7.4800e+01	10.1002	0.743400	0.000041	0.410382	0.139041	-0.000020
1498	7.4850e+01	10.0794	0.737290	0.000026	0.256489	0.086901	-0.000012
1499	7.4900e+01	10.0457	0.731587	0.000024	0.239390	0.081107	-0.000011
1500	7.4950e+01	10.0393	0.722218	0.000039	0.393283	0.133248	-0.000019
1501	7.5000e+01	10.0136	0.715294	0.000029	0.290687	0.098488	-0.000014
1502	7.5050e+01	9.9880	0.711220	0.000017	0.170993	0.057934	-0.000008
1503	7.5100e+01	9.9928	0.700222	-0.000046	-0.461680	-0.156421	-0.000022
1504	7.5150e+01	9.9719	0.694519	0.000024	0.239390	0.081107	-0.000011
1505	7.5200e+01	9.9446	0.686372	0.000034	0.341985	0.115868	-0.000016
1506	7.5250e+01	9.9366	0.682706	0.000015	0.153893	0.052140	-0.000007
1507	7.5300e+01	9.8949	0.672523	0.000043	0.427481	0.144835	-0.000020
1508	7.5350e+01	9.8821	0.662746	0.000041	0.410382	0.139041	-0.000020
1509	7.5400e+01	9.8548	0.655414	0.000031	0.307787	0.104281	-0.000015
1510	7.5450e+01	9.8115	0.648489	0.000029	0.290687	0.098488	-0.000014
1511	7.5500e+01	9.8243	0.645231	-0.000014	-0.136794	-0.046347	-0.000007
1512	7.5550e+01	9.7810	0.641157	0.000017	0.170993	0.057934	-0.000008
1513	7.5600e+01	9.7794	0.628530	0.000053	0.530077	0.179595	-0.000025
1514	7.5650e+01	9.7393	0.627715	0.000003	0.034199	0.011587	-0.000002
1515	7.5700e+01	9.7521	0.617531	-0.000043	-0.427481	-0.144835	-0.000020
1516	7.5750e+01	9.7345	0.610199	0.000031	0.307787	0.104281	-0.000015
1517	7.5800e+01	9.6831	0.602460	0.000032	0.324886	0.110074	-0.000015
1518	7.5850e+01	9.7104	0.597572	-0.000021	-0.205191	-0.069521	-0.000010
1519	7.5900e+01	9.6575	0.591461	0.000026	0.256489	0.086901	-0.000012
1520	7.5950e+01	9.6446	0.583722	0.000032	0.324886	0.110074	-0.000015
1521	7.6000e+01	9.6078	0.579241	0.000019	0.188092	0.063727	-0.000009
1522	7.6050e+01	9.6318	0.570687	-0.000036	-0.359084	-0.121661	-0.000017
1523	7.6100e+01	9.5901	0.562540	0.000034	0.341985	0.115868	-0.000016
1524	7.6150e+01	9.5452	0.556023	0.000027	0.273588	0.092694	-0.000013
1525	7.6200e+01	9.5548	0.551134	-0.000021	-0.205191	-0.069521	-0.000010
1526	7.6250e+01	9.5035	0.542988	0.000034	0.341985	0.115868	-0.000016
1527	7.6300e+01	9.5019	0.538507	0.000019	0.188092	0.063727	-0.000009
1528	7.6350e+01	9.4826	0.534026	0.000019	0.188092	0.063727	-0.000009
1529	7.6400e+01	9.4602	0.525472	0.000036	0.359084	0.121661	-0.000017
1530	7.6450e+01	9.4281	0.516918	0.000036	0.359084	0.121661	-0.000017
1531	7.6500e+01	9.4425	0.507956	-0.000038	-0.376184	-0.127454	-0.000018
1532	7.6550e+01	9.3864	0.503883	0.000017	0.170993	0.057934	-0.000008
1533	7.6600e+01	9.3928	0.494514	-0.000039	-0.393283	-0.133248	-0.000019
1534	7.6650e+01	9.3671	0.487589	0.000029	0.290687	0.098488	-0.000014
1535	7.6700e+01	9.3302	0.480664	0.000029	0.290687	0.098488	-0.000014
1536	7.6750e+01	9.3447	0.471703	-0.000038	-0.376184	-0.127454	-0.000018
1537	7.6800e+01	9.2949	0.466000	0.000024	0.239390	0.081107	-0.000011
1538	7.6850e+01	9.2789	0.460297	0.000024	0.239390	0.081107	-0.000011
1539	7.6900e+01	9.2693	0.453372	0.000029	0.290687	0.098488	-0.000014
1540	7.6950e+01	9.2275	0.448484	0.000021	0.205191	0.069521	-0.000010
1541	7.7000e+01	9.2195	0.441559	0.000029	0.290687	0.098488	-0.000014
1542	7.7050e+01	9.1730	0.434635	0.000029	0.290687	0.098488	-0.000014
1543	7.7100e+01	9.1666	0.428524	0.000026	0.256489	0.086901	-0.000012
1544	7.7150e+01	9.1554	0.422007	0.000027	0.273588	0.092694	-0.000013
1545	7.7200e+01	9.1233	0.413453	0.000036	0.359084	0.121661	-0.000017
1546	7.7250e+01	9.1393	0.406935	-0.000027	-0.273588	-0.092694	-0.000013
1547	7.7300e+01	9.0800	0.396344	0.000044	0.444581	0.150628	-0.000021
1548	7.7350e+01	9.0848	0.389827	-0.000027	-0.273588	-0.092694	-0.000013
1549	7.7400e+01	9.0575	0.382902	0.000029	0.290687	0.098488	-0.000014
1550	7.7450e+01	9.0447	0.381273	0.000007	0.068397	0.023174	-0.000003
1551	7.7500e+01	9.0206	0.371496	0.000041	0.410382	0.139041	-0.000020
1552	7.7550e+01	8.9997	0.363350	0.000034	0.341985	0.115868	-0.000016
1553	7.7600e+01	8.9709	0.358054	0.000022	0.222290	0.075314	-0.000011
1554	7.7650e+01	8.9452	0.355610	0.000010	0.102596	0.034760	-0.000005
1555	7.7700e+01	8.9276	0.345019	0.000044	0.444581	0.150628	-0.000021
1556	7.7750e+01	8.9276	0.339724	0.000022	0.222290	0.075314	-0.000011
1557	7.7800e+01	8.8987	0.329540	0.000043	0.427481	0.144835	-0.000020
1558	7.7850e+01	8.8554	0.321801	0.000032	0.324886	0.110074	-0.000015
1559	7.7900e+01	8.8858	0.314061	-0.000032	-0.324886	-0.110074	-0.000015
1560	7.7950e+01	8.8345	0.309580	0.000019	0.188092	0.063727	-0.000009
1561	7.8000e+01	8.8201	0.303063	0.000027	0.273588	0.092694	-0.000013
1562	7.8050e+01	8.7960	0.294101	0.000038	0.376184	0.127454	-0.000018
1563	7.8100e+01	8.7607	0.285547	0.000036	0.359084	0.121661	-0.000017
1564	7.8150e+01	8.7367	0.280252	0.000022	0.222290	0.075314	-0.000011
1565	7.8200e+01	8.7174	0.272105	0.000034	0.341985	0.115868	-0.000016
1566	7.8250e+01	8.7078	0.266809	0.000022	0.222290	0.075314	-0.000011
1567	7.8300e+01	8.6773	0.263958	0.000012	0.119695	0.040554	-0.000006
1568	7.8350e+01	8.7030	0.257440	-0.000027	-0.273588	-0.092694	-0.000013
1569	7.8400e+01	8.6532	0.248479	0.000038	0.376184	0.127454	-0.000018
1570	7.8450e+01	8.6244	0.241961	0.000027	0.273588	0.092694	-0.000013
1571	7.8500e+01	8.6324	0.231371	-0.000044	-0.444581	-0.150628	-0.000021
1572	7.8550e+01	8.5891	0.227297	0.000017	0.170993	0.057934	-0.000008
1573	7.8600e+01	8.5666	0.220372	0.000029	0.290687	0.098488	-0.000014
1574	7.8650e+01	8.5730	0.215484	-0.000021	-0.205191	-0.069521	-0.000010
1575	7.8700e+01	8.5249	0.210189	0.000022	0.222290	0.075314	-0.000011
1576	7.8750e+01	8.5169	0.202857	0.000031	0.307787	0.104281	-0.000015
1577	7.8800e+01	8.4992	0.193895	0.000038	0.376184	0.127454	-0.000018
1578	7.8850e+01	8.4800	0.187378	0.000027	0.273588	0.092694	-0.000013
1579	7.8900e+01	8.4639	0.179638	0.000032	0.324886	0.110074	-0.000015
1580	7.8950e+01	8.4463	0.175157	0.000019	0.188092	0.063727	-0.000009
1581	7.9000e+01	8.4222	0.166603	0.000036	0.359084	0.121661	-0.000017
1582	7.9050e+01	8.3998	0.163344	0.000014	0.136794	0.046347	-0.000007
1583	7.9100e+01	8.3693	0.155605	0.000032	0.324886	0.110074	-0.000015
1584	7.9150e+01	8.3597	0.145421	0.000043	0.427481	0.144835	-0.000020
1585	7.9200e+01	8.3292	0.140941	0.000019	0.188092	0.063727	-0.000009
1586	7.9250e+01	8.2987	0.129942	0.000046	0.461680	0.156421	-0.000022
1587	7.9300e+01	8.2955	0.125054	0.000021	0.205191	0.069521	-0.000010
1588	7.9350e+01	8.2794	0.119759	0.000022	0.222290	0.075314	-0.000011
1589	7.9400e+01	8.2714	0.118129	0.000007	0.068397	0.023174	-0.000003
1590	7.9450e+01	8.2425	0.105502	0.000053	0.530077	0.179595	-0.000025
1591	7.9500e+01	8.2361	0.100206	0.000022	0.222290	0.075314	-0.000011
1592	7.9550e+01	8.2249	0.093689	0.000027	0.273588	0.092694	-0.000013
1593	7.9600e+01	8.1800	0.090430	0.000014	0.136794	0.046347	-0.000007
1594	7.9650e+01	8.1527	0.079432	0.000046	0.461680	0.156421	-0.000022
1595	7.9700e+01	8.1319	0.069248	0.000043	0.427481	0.144835	-0.000020
1596	7.9750e+01	8.1142	0.067212	0.000009	0.085496	0.028967	-0.000004
1597	7.9800e+01	8.0837	0.061916	0.000022	0.222290	0.075314	-0.000011
1598	7.9850e+01	8.0982	0.054177	-0.000032	-0.324886	-0.110074	-0.000015
1599	7.9900e+01	8.0725	0.049288	0.000021	0.205191	0.069521	-0.000010
1600	7.9950e+01	8.0228	0.039512	0.000041	0.410382	0.139041	-0.000020
1601	8.0000e+01	8.0083	0.028514	0.000046	0.461680	0.156421	-0.000022
1602	8.0050e+01	8.0019	0.022404	0.000026	0.256489	0.086901	-0.000012
1603	8.0100e+01	7.9875	0.017516	0.000021	0.205191	0.069521	-0.000010
1604	8.0150e+01	7.9377	0.013035	0.000019	0.188092	0.063727	-0.000009
1605	8.0200e+01	7.9329	0.008962	0.000017	0.170993	0.057934	-0.000008
1606	8.0250e+01	7.9297	0.001629	0.000031	0.307787	0.104281	-0.000015
1607	8.0300e+01	7.8848	-0.007740	0.000039	0.393283	0.133248	-0.000019
1608	8.0350e+01	7.8720	-0.020367	0.000053	0.530077	0.179595	-0.000025
1609	8.0400e+01	7.8672	-0.022811	0.000010	0.102596	0.034760	-0.000005
1610	8.0450e+01	7.8351	-0.028514	0.000024	0.239390	0.081107	-0.000011
1611	8.0500e+01	7.8190	-0.034217	0.000024	0.239390	0.081107	-0.000011
1612	8.0550e+01	7.7902	-0.039512	0.000022	0.222290	0.075314	-0.000011
1613	8.0600e+01	7.7805	-0.044808	0.000022	0.222290	0.075314	-0.000011
1614	8.0650e+01	7.7468	-0.054177	0.000039	0.393283	0.133248	-0.000019
1615	8.0700e+01	7.7404	-0.067619	0.000056	0.564275	0.191182	-0.000027
1616	8.0750e+01	7.6955	-0.073729	0.000026	0.256489	0.086901	-0.000012
1617	8.0800e+01	7.7164	-0.080246	-0.000027	-0.273588	-0.092694	-0.000013
1618	8.0850e+01	7.6698	-0.087171	0.000029	0.290687	0.098488	-0.000014
1619	8.0900e+01	7.6538	-0.096948	0.000041	0.410382	0.139041	-0.000020
1620	8.0950e+01	7.6281	-0.103058	0.000026	0.256489	0.086901	-0.000012
1621	8.1000e+01	7.6233	-0.118129	0.000063	0.632672	0.214355	-0.000030
1622	8.1050e+01	7.5928	-0.122203	0.000017	0.170993	0.057934	-0.000008
1623	8.1100e+01	7.5944	-0.131979	-0.000041	-0.410382	-0.139041	-0.000020
1624	8.1150e+01	7.5511	-0.139311	0.000031	0.307787	0.104281	-0.000015
1625	8.1200e+01	7.5287	-0.145014	0.000024	0.239390	0.081107	-0.000011
1626	8.1250e+01	7.4886	-0.150717	0.000024	0.239390	0.081107	-0.000011
1627	8.1300e+01	7.4934	-0.158864	-0.000034	-0.341985	-0.115868	-0.000016
1628	8.1350e+01	7.4388	-0.170677	0.000050	0.495878	0.168008	-0.000024
1629	8.1400e+01	7.4661	-0.176379	-0.000024	-0.239390	-0.081107	-0.000011
1630	8.1450e+01	7.4629	-0.184526	0.000034	0.341985	0.115868	-0.000016
1631	8.1500e+01	7.4244	-0.193895	0.000039	0.393283	0.133248	-0.000019
1632	8.1550e+01	7.4132	-0.200005	0.000026	0.256489	0.086901	-0.000012
1633	8.1600e+01	7.3955	-0.208152	0.000034	0.341985	0.115868	-0.000016
1634	8.1650e+01	7.3570	-0.213447	0.000022	0.222290	0.075314	-0.000011
1635	8.1700e+01	7.3281	-0.223224	0.000041	0.410382	0.139041	-0.000020
1636	8.1750e+01	7.3217	-0.230963	0.000032	0.324886	0.110074	-0.000015
1637	8.1800e+01	7.2944	-0.235037	0.000017	0.170993	0.057934	-0.000008
1638	8.1850e+01	7.2977	-0.245628	-0.000044	-0.444581	-0.150628	-0.000021
1639	8.1900e+01	7.2431	-0.253774	0.000034	0.341985	0.115868	-0.000016
1640	8.1950e+01	7.2174	-0.261921	0.000034	0.341985	0.115868	-0.000016
1641	8.2000e+01	7.2431	-0.263958	-0.000009	-0.085496	-0.028967	-0.000004
1642	8.2050e+01	7.2078	-0.270475	0.000027	0.273588	0.092694	-0.000013
1643	8.2100e+01	7.1709	-0.281474	0.000046	0.461680	0.156421	-0.000022
1644	8.2150e+01	7.1645	-0.285140	0.000015	0.153893	0.052140	-0.000007
1645	8.2200e+01	7.1404	-0.290843	0.000024	0.239390	0.081107	-0.000011
1646	8.2250e+01	7.1003	-0.299397	0.000036	0.359084	0.121661	-0.000017
1647	8.2300e+01	7.0811	-0.303063	0.000015	0.153893	0.052140	-0.000007
1648	8.2350e+01	7.0939	-0.312024	-0.000038	-0.376184	-0.127454	-0.000018
1649	8.2400e+01	7.0522	-0.318135	0.000026	0.256489	0.086901	-0.000012
1650	8.2450e+01	7.0330	-0.320986	0.000012	0.119695	0.040554	-0.000006
1651	8.2500e+01	7.0041	-0.326689	0.000024	0.239390	0.081107	-0.000011
1652	8.2550e+01	7.0057	-0.334836	-0.000034	-0.341985	-0.115868	-0.000016
1653	8.2600e+01	7.0025	-0.343390	0.000036	0.359084	0.121661	-0.000017
1654	8.2650e+01	6.9688	-0.350315	0.000029	0.290687	0.098488	-0.000014
1655	8.2700e+01	6.9479	-0.356832	0.000027	0.273588	0.092694	-0.000013
1656	8.2750e+01	6.9046	-0.361313	0.000019	0.188092	0.063727	-0.000009
1657	8.2800e+01	6.9062	-0.365386	-0.000017	-0.170993	-0.057934	-0.000008
1658	8.2850e+01	6.8677	-0.369052	0.000015	0.153893	0.052140	-0.000007
1659	8.2900e+01	6.8806	-0.380051	-0.000046	-0.461680	-0.156421	-0.000022
1660	8.2950e+01	6.8228	-0.386568	0.000027	0.273588	0.092694	-0.000013
1661	8.3000e+01	6.8019	-0.390234	0.000015	0.153893	0.052140	-0.000007
1662	8.3050e+01	6.7939	-0.394715	0.000019	0.188092	0.063727	-0.000009
1663	8.3100e+01	6.7715	-0.399196	0.000019	0.188092	0.063727	-0.000009
1664	8.3150e+01	6.7330	-0.404491	0.000022	0.222290	0.075314	-0.000011
1665	8.3200e+01	6.7458	-0.409787	-0.000022	-0.222290	-0.075314	-0.000011
1666	8.3250e+01	6.7153	-0.414267	0.000019	0.188092	0.063727	-0.000009
1667	8.3300e+01	6.6993	-0.421192	0.000029	0.290687	0.098488	-0.000014
1668	8.3350e+01	6.6704	-0.425673	0.000019	0.188092	0.063727	-0.000009
1669	8.3400e+01	6.6704	-0.430561	0.000021	0.205191	0.069521	-0.000010
1670	8.3450e+01	6.6030	-0.435449	0.000021	0.205191	0.069521	-0.000010
1671	8.3500e+01	6.5934	-0.444411	0.000038	0.376184	0.127454	-0.000018
1672	8.3550e+01	6.6159	-0.452965	-0.000036	-0.359084	-0.121661	-0.000017
1673	8.3600e+01	6.5581	-0.461926	0.000038	0.376184	0.127454	-0.000018
1674	8.3650e+01	6.5629	-0.462334	-0.000002	-0.017099	-0.005793	-0.000001
1675	8.3700e+01	6.5260	-0.468851	0.000027	0.273588	0.092694	-0.000013
1676	8.3750e+01	6.5244	-0.479850	0.000046	0.461680	0.156421	-0.000022
1677	8.3800e+01	6.5324	-0.486774	-0.000029	-0.290687	-0.098488	-0.000014
1678	8.3850e+01	6.4971	-0.495736	0.000038	0.376184	0.127454	-0.000018
1679	8.3900e+01	6.4795	-0.500217	0.000019	0.188092	0.063727	-0.000009
1680	8.3950e+01	6.4217	-0.503883	0.000015	0.153893	0.052140	-0.000007
1681	8.4000e+01	6.4121	-0.509993	0.000026	0.256489	0.086901	-0.000012
1682	8.4050e+01	6.3736	-0.520176	0.000043	0.427481	0.144835	-0.000020
1683	8.4100e+01	6.3736	-0.525472	0.000022	0.222290	0.075314	-0.000011
1684	8.4150e+01	6.3800	-0.534841	-0.000039	-0.393283	-0.133248	-0.000019
1685	8.4200e+01	6.3351	-0.542988	0.000034	0.341985	0.115868	-0.000016
1686	8.4250e+01	6.2854	-0.550320	0.000031	0.307787	0.104281	-0.000015
1687	8.4300e+01	6.3014	-0.558467	-0.000034	-0.341985	-0.115868	-0.000016
1688	8.4350e+01	6.2693	-0.561725	0.000014	0.136794	0.046347	-0.000007
1689	8.4400e+01	6.2485	-0.568243	0.000027	0.273588	0.092694	-0.000013
1690	8.4450e+01	6.2437	-0.575982	0.000032	0.324886	0.110074	-0.000015
1691	8.4500e+01	6.2116	-0.581278	0.000022	0.222290	0.075314	-0.000011
1692	8.4550e+01	6.2020	-0.588203	0.000029	0.290687	0.098488	-0.000014
1693	8.4600e+01	6.1506	-0.596349	0.000034	0.341985	0.115868	-0.000016
1694	8.4650e+01	6.1667	-0.604089	-0.000032	-0.324886	-0.110074	-0.000015
1695	8.4700e+01	6.1314	-0.611829	0.000032	0.324886	0.110074	-0.000015
1696	8.4750e+01	6.1378	-0.621197	-0.000039	-0.393283	-0.133248	-0.000019
1697	8.4800e+01	6.1089	-0.627308	0.000026	0.256489	0.086901	-0.000012
1698	8.4850e+01	6.0704	-0.630159	0.000012	0.119695	0.040554	-0.000006
1699	8.4900e+01	6.0736	-0.636269	-0.000026	-0.256489	-0.086901	-0.000012
1700	8.4950e+01	6.0592	-0.645638	0.000039	0.393283	0.133248	-0.000019
1701	8.5000e+01	6.0271	-0.654192	0.000036	0.359084	0.121661	-0.000017
1702	8.5050e+01	5.9774	-0.666820	0.000053	0.530077	0.179595	-0.000025
1703	8.5100e+01	5.9982	-0.668042	-0.000005	-0.051298	-0.017380	-0.000002
1704	8.5150e+01	5.9469	-0.675374	0.000031	0.307787	0.104281	-0.000015
1705	8.5200e+01	5.9405	-0.681891	0.000027	0.273588	0.092694	-0.000013
1706	8.5250e+01	5.8972	-0.688816	0.000029	0.290687	0.098488	-0.000014
1707	8.5300e+01	5.9196	-0.699407	-0.000044	-0.444581	-0.150628	-0.000021
1708	8.5350e+01	5.8699	-0.705110	0.000024	0.239390	0.081107	-0.000011
1709	8.5400e+01	5.8458	-0.713257	0.000034	0.341985	0.115868	-0.000016
1710	8.5450e+01	5.8298	-0.716108	0.000012	0.119695	0.040554	-0.000006
1711	8.5500e+01	5.7929	-0.725884	0.000041	0.410382	0.139041	-0.000020
1712	8.5550e+01	5.7897	-0.732402	0.000027	0.273588	0.092694	-0.000013
1713	8.5600e+01	5.7881	-0.740141	0.000032	0.324886	0.110074	-0.000015
1714	8.5650e+01	5.7752	-0.748288	0.000034	0.341985	0.115868	-0.000016
1715	8.5700e+01	5.7624	-0.754398	0.000026	0.256489	0.086901	-0.000012
1716	8.5750e+01	5.7287	-0.760916	0.000027	0.273588	0.092694	-0.000013
1717	8.5800e+01	5.7079	-0.768248	0.000031	0.307787	0.104281	-0.000015
1718	8.5850e+01	5.6918	-0.776802	0.000036	0.359084	0.121661	-0.000017
1719	8.5900e+01	5.6854	-0.781283	0.000019	0.188092	0.063727	-0.000009
1720	8.5950e+01	5.6421	-0.785764	0.000019	0.188092	0.063727	-0.000009
1721	8.6000e+01	5.6100	-0.797169	0.000048	0.478779	0.162215	-0.000023
1722	8.6050e+01	5.5956	-0.800021	0.000012	0.119695	0.040554	-0.000006
1723	8.6100e+01	5.5843	-0.811426	0.000048	0.478779	0.162215	-0.000023
1724	8.6150e+01	5.5747	-0.818351	0.000029	0.290687	0.098488	-0.000014
1725	8.6200e+01	5.5266	-0.824869	0.000027	0.273588	0.092694	-0.000013
1726	8.6250e+01	5.5186	-0.832608	0.000032	0.324886	0.110074	-0.000015
1727	8.6300e+01	5.4849	-0.838311	0.000024	0.239390	0.081107	-0.000011
1728	8.6350e+01	5.4736	-0.847680	0.000039	0.393283	0.133248	-0.000019
1729	8.6400e+01	5.4624	-0.852568	0.000021	0.205191	0.069521	-0.000010
1730	8.6450e+01	5.4640	-0.863159	-0.000044	-0.444581	-0.150628	-0.000021
1731	8.6500e+01	5.4223	-0.864381	0.000005	0.051298	0.017380	-0.000002
1732	8.6550e+01	5.4031	-0.869676	0.000022	0.222290	0.075314	-0.000011
1733	8.6600e+01	5.3950	-0.881897	0.000051	0.512978	0.173802	-0.000024
1734	8.6650e+01	5.3646	-0.888414	0.000027	0.273588	0.092694	-0.000013
1735	8.6700e+01	5.3244	-0.898190	0.000041	0.410382	0.139041	-0.000020
1736	8.6750e+01	5.3148	-0.901042	0.000012	0.119695	0.040554	-0.000006
1737	8.6800e+01	5.2859	-0.914484	0.000056	0.564275	0.191182	-0.000027
1738	8.6850e+01	5.2603	-0.913669	-0.000003	-0.034199	-0.011587	0.000002
1739	8.6900e+01	5.2635	-0.921816	-0.000034	-0.341985	-0.115868	-0.000016
1740	8.6950e+01	5.2394	-0.927926	0.000026	0.256489	0.086901	-0.000012
1741	8.7000e+01	5.2394	-0.940961	0.000055	0.547176	0.185388	-0.000026
1742	8.7050e+01	5.2057	-0.946257	0.000022	0.222290	0.075314	-0.000011
1743	8.7100e+01	5.1769	-0.953589	0.000031	0.307787	0.104281	-0.000015
1744	8.7150e+01	5.1656	-0.962143	0.000036	0.359084	0.121661	-0.000017
1745	8.7200e+01	5.1255	-0.966217	0.000017	0.170993	0.057934	-0.000008
1746	8.7250e+01	5.1159	-0.974771	0.000036	0.359084	0.121661	-0.000017
1747	8.7300e+01	5.0934	-0.982103	0.000031	0.307787	0.104281	-0.000015
1748	8.7350e+01	5.0774	-0.995545	0.000056	0.564275	0.191182	-0.000027
1749	8.7400e+01	5.0565	-1.001655	0.000026	0.256489	0.086901	-0.000012
1750	8.7450e+01	5.0373	-1.007765	0.000026	0.256489	0.086901	-0.000012
1751	8.7500e+01	4.9940	-1.010617	0.000012	0.119695	0.040554	-0.000006
1752	8.7550e+01	5.0132	-1.019986	-0.000039	-0.393283	-0.133248	-0.000019
1753	8.7600e+01	4.9763	-1.028540	0.000036	0.359084	0.121661	-0.000017
1754	8.7650e+01	4.9571	-1.034243	0.000024	0.239390	0.081107	-0.000011
1755	8.7700e+01	4.9539	-1.046463	0.000051	0.512978	0.173802	-0.000024
1756	8.7750e+01	4.9266	-1.052980	0.000027	0.273588	0.092694	-0.000013
1757	8.7800e+01	4.9057	-1.063571	0.000044	0.444581	0.150628	-0.000021
1758	8.7850e+01	4.8833	-1.066830	0.000014	0.136794	0.046347	-0.000007
1759	8.7900e+01	4.8384	-1.070496	0.000015	0.153893	0.052140	-0.000007
1760	8.7950e+01	4.8416	-1.080680	-0.000043	-0.427481	-0.144835	-0.000020
1761	8.8000e+01	4.8143	-1.087197	0.000027	0.273588	0.092694	-0.000013
1762	8.8050e+01	4.8031	-1.094937	0.000032	0.324886	0.110074	-0.000015
1763	8.8100e+01	4.7357	-1.107157	0.000051	0.512978	0.173802	-0.000024
1764	8.8150e+01	4.7517	-1.110416	-0.000014	-0.136794	-0.046347	-0.000007
1765	8.8200e+01	4.7421	-1.114897	0.000019	0.188092	0.063727	-0.000009
1766	8.8250e+01	4.6747	-1.126302	0.000048	0.478779	0.162215	-0.000023
1767	8.8300e+01	4.6972	-1.135671	-0.000039	-0.393283	-0.133248	-0.000019
1768	8.8350e+01	4.6635	-1.141374	0.000024	0.239390	0.081107	-0.000011
1769	8.8400e+01	4.6587	-1.147891	0.000027	0.273588	0.092694	-0.000013
1770	8.8450e+01	4.6330	-1.153187	0.000022	0.222290	0.075314	-0.000011
1771	8.8500e+01	4.6266	-1.160112	0.000029	0.290687	0.098488	-0.000014
1772	8.8550e+01	4.6122	-1.174776	0.000062	0.615573	0.208562	-0.000029
1773	8.8600e+01	4.5640	-1.179257	0.000019	0.188092	0.063727	-0.000009
1774	8.8650e+01	4.5544	-1.195550	0.000068	0.683970	0.231735	-0.000033
1775	8.8700e+01	4.5271	-1.195550	-0.000000	-0.000000	-0.000000	0.000000
1776	8.8750e+01	4.5320	-1.201661	-0.000026	-0.256489	-0.086901	-0.000012
1777	8.8800e+01	4.5239	-1.210215	0.000036	0.359084	0.121661	-0.000017
1778	8.8850e+01	4.5271	-1.219176	-0.000038	-0.376184	-0.127454	-0.000018
1779	8.8900e+01	4.4485	-1.225286	0.000026	0.256489	0.086901	-0.000012
1780	8.8950e+01	4.4373	-1.234248	0.000038	0.376184	0.127454	-0.000018
1781	8.9000e+01	4.4437	-1.243209	-0.000038	-0.376184	-0.127454	-0.000018
1782	8.9050e+01	4.3876	-1.244024	0.000003	0.034199	0.011587	-0.000002
1783	8.9100e+01	4.3475	-1.250542	0.000027	0.273588	0.092694	-0.000013
1784	8.9150e+01	4.3763	-1.259503	-0.000038	-0.376184	-0.127454	-0.000018
1785	8.9200e+01	4.3427	-1.267650	0.000034	0.341985	0.115868	-0.000016
1786	8.9250e+01	4.3042	-1.272945	0.000022	0.222290	0.075314	-0.000011
1787	8.9300e+01	4.2977	-1.281500	0.000036	0.359084	0.121661	-0.000017
1788	8.9350e+01	4.2753	-1.284758	0.000014	0.136794	0.046347	-0.000007
1789	8.9400e+01	4.2496	-1.290869	0.000026	0.256489	0.086901	-0.000012
1790	8.9450e+01	4.2288	-1.300237	0.000039	0.393283	0.133248	-0.000019
1791	8.9500e+01	4.2320	-1.301867	-0.000007	-0.068397	-0.023174	-0.000003
1792	8.9550e+01	4.2095	-1.313272	0.000048	0.478779	0.162215	-0.000023
1793	8.9600e+01	4.1694	-1.318975	0.000024	0.239390	0.081107	-0.000011
1794	8.9650e+01	4.1694	-1.327529	0.000036	0.359084	0.121661	-0.000017
1795	8.9700e+01	4.1293	-1.329159	0.000007	0.068397	0.023174	-0.000003
1796	8.9750e+01	4.1004	-1.338120	0.000038	0.376184	0.127454	-0.000018
1797	8.9800e+01	4.0988	-1.346267	0.000034	0.341985	0.115868	-0.000016
1798	8.9850e+01	4.1277	-1.350341	-0.000017	-0.170993	-0.057934	-0.000008
1799	8.9900e+01	4.0748	-1.360524	0.000043	0.427481	0.144835	-0.000020
1800	8.9950e+01	4.0250	-1.366227	0.000024	0.239390	0.081107	-0.000011
1801	9.0000e+01	4.0587	-1.374781	-0.000036	-0.359084	-0.121661	-0.000017
1802	9.0050e+01	3.9801	-1.380891	0.000026	0.256489	0.086901	-0.000012
1803	9.0100e+01	3.9833	-1.390667	-0.000041	-0.410382	-0.139041	-0.000020
1804	9.0150e+01	3.9480	-1.397185	0.000027	0.273588	0.092694	-0.000013
1805	9.0200e+01	3.9480	-1.407776	0.000044	0.444581	0.150628	-0.000021
1806	9.0250e+01	3.9143	-1.411849	0.000017	0.170993	0.057934	-0.000008
1807	9.0300e+01	3.9159	-1.422440	-0.000044	-0.444581	-0.150628	-0.000021
1808	9.0350e+01	3.8774	-1.429365	0.000029	0.290687	0.098488	-0.000014
1809	9.0400e+01	3.8662	-1.434660	0.000022	0.222290	0.075314	-0.000011
1810	9.0450e+01	3.8470	-1.445659	0.000046	0.461680	0.156421	-0.000022
1811	9.0500e+01	3.8277	-1.451769	0.000026	0.256489	0.086901	-0.000012
1812	9.0550e+01	3.7860	-1.463174	0.000048	0.478779	0.162215	-0.000023
1813	9.0600e+01	3.7635	-1.471729	0.000036	0.359084	0.121661	-0.000017
1814	9.0650e+01	3.7523	-1.479468	0.000032	0.324886	0.110074	-0.000015
1815	9.0700e+01	3.7427	-1.483134	0.000015	0.153893	0.052140	-0.000007
1816	9.0750e+01	3.7330	-1.495762	0.000053	0.530077	0.179595	-0.000025
1817	9.0800e+01	3.6801	-1.505131	0.000039	0.393283	0.133248	-0.000019
1818	9.0850e+01	3.6801	-1.514907	0.000041	0.410382	0.139041	-0.000020
1819	9.0900e+01	3.6464	-1.522239	0.000031	0.307787	0.104281	-0.000015
1820	9.0950e+01	3.6544	-1.530793	-0.000036	-0.359084	-0.121661	-0.000017
1821	9.1000e+01	3.5999	-1.538940	0.000034	0.341985	0.115868	-0.000016
1822	9.1050e+01	3.5823	-1.547902	0.000038	0.376184	0.127454	-0.000018
1823	9.1100e+01	3.5983	-1.552382	-0.000019	-0.188092	-0.063727	-0.000009
1824	9.1150e+01	3.5758	-1.562973	0.000044	0.444581	0.150628	-0.000021
1825	9.1200e+01	3.5421	-1.569084	0.000026	0.256489	0.086901	-0.000012
1826	9.1250e+01	3.5213	-1.583748	0.000062	0.615573	0.208562	-0.000029
1827	9.1300e+01	3.5004	-1.585785	0.000009	0.085496	0.028967	-0.000004
1828	9.1350e+01	3.4956	-1.599634	0.000058	0.581375	0.196975	-0.000028
1829	9.1400e+01	3.4507	-1.610225	0.000044	0.444581	0.150628	-0.000021
1830	9.1450e+01	3.4298	-1.620001	0.000041	0.410382	0.139041	-0.000020
1831	9.1500e+01	3.4186	-1.625704	0.000024	0.239390	0.081107	-0.000011
1832	9.1550e+01	3.4202	-1.637110	-0.000048	-0.478779	-0.162215	-0.000023
1833	9.1600e+01	3.3512	-1.647701	0.000044	0.444581	0.150628	-0.000021
1834	9.1650e+01	3.3561	-1.655847	-0.000034	-0.341985	-0.115868	-0.000016
1835	9.1700e+01	3.3625	-1.663180	-0.000031	-0.307787	-0.104281	-0.000015
1836	9.1750e+01	3.3143	-1.676622	0.000056	0.564275	0.191182	-0.000027
1837	9.1800e+01	3.3095	-1.686806	0.000043	0.427481	0.144835	-0.000020
1838	9.1850e+01	3.2678	-1.690879	0.000017	0.170993	0.057934	-0.000008
1839	9.1900e+01	3.2438	-1.697396	0.000027	0.273588	0.092694	-0.000013
1840	9.1950e+01	3.2037	-1.710839	0.000056	0.564275	0.191182	-0.000027
1841	9.2000e+01	3.2325	-1.718986	-0.000034	-0.341985	-0.115868	-0.000016
1842	9.2050e+01	3.2101	-1.727132	0.000034	0.341985	0.115868	-0.000016
1843	9.2100e+01	3.1603	-1.735687	0.000036	0.359084	0.121661	-0.000017
1844	9.2150e+01	3.1700	-1.740982	-0.000022	-0.222290	-0.075314	-0.000011
1845	9.2200e+01	3.1058	-1.750351	0.000039	0.393283	0.133248	-0.000019
1846	9.2250e+01	3.1154	-1.756461	-0.000026	-0.256489	-0.086901	-0.000012
1847	9.2300e+01	3.0930	-1.767867	0.000048	0.478779	0.162215	-0.000023
1848	9.2350e+01	3.0769	-1.773162	0.000022	0.222290	0.075314	-0.000011
1849	9.2400e+01	3.0705	-1.781716	0.000036	0.359084	0.121661	-0.000017
1850	9.2450e+01	3.0368	-1.795159	0.000056	0.564275	0.191182	-0.000027
1851	9.2500e+01	3.0095	-1.801269	0.000026	0.256489	0.086901	-0.000012
1852	9.2550e+01	2.9967	-1.811860	0.000044	0.444581	0.150628	-0.000021
1853	9.2600e+01	2.9534	-1.821229	0.000039	0.393283	0.133248	-0.000019
1854	9.2650e+01	2.9566	-1.828153	-0.000029	-0.290687	-0.098488	-0.000014
1855	9.2700e+01	2.9502	-1.835893	0.000032	0.324886	0.110074	-0.000015
1856	9.2750e+01	2.9470	-1.844447	0.000036	0.359084	0.121661	-0.000017
1857	9.2800e+01	2.8908	-1.851779	0.000031	0.307787	0.104281	-0.000015
1858	9.2850e+01	2.8507	-1.863592	0.000050	0.495878	0.168008	-0.000024
1859	9.2900e+01	2.8523	-1.869295	-0.000024	-0.239390	-0.081107	-0.000011
1860	9.2950e+01	2.8186	-1.877849	0.000036	0.359084	0.121661	-0.000017
1861	9.3000e+01	2.8218	-1.886403	-0.000036	-0.359084	-0.121661	-0.000017
1862	9.3050e+01	2.7882	-1.896994	0.000044	0.444581	0.150628	-0.000021
1863	9.3100e+01	2.7817	-1.907993	0.000046	0.461680	0.156421	-0.000022
1864	9.3150e+01	2.7545	-1.915325	0.000031	0.307787	0.104281	-0.000015
1865	9.3200e+01	2.7240	-1.926730	0.000048	0.478779	0.162215	-0.000023
1866	9.3250e+01	2.6967	-1.932433	0.000024	0.239390	0.081107	-0.000011
1867	9.3300e+01	2.7208	-1.940173	-0.000032	-0.324886	-0.110074	-0.000015
1868	9.3350e+01	2.6775	-1.951171	0.000046	0.461680	0.156421	-0.000022
1869	9.3400e+01	2.6406	-1.955652	0.000019	0.188092	0.063727	-0.000009
1870	9.3450e+01	2.6406	-1.965428	0.000041	0.410382	0.139041	-0.000020
1871	9.3500e+01	2.6245	-1.975204	0.000041	0.410382	0.139041	-0.000020
1872	9.3550e+01	2.6037	-1.980499	0.000022	0.222290	0.075314	-0.000011
1873	9.3600e+01	2.5812	-1.992720	0.000051	0.512978	0.173802	-0.000024
1874	9.3650e+01	2.5620	-2.001681	0.000038	0.376184	0.127454	-0.000018
1875	9.3700e+01	2.5555	-2.008606	0.000029	0.290687	0.098488	-0.000014
1876	9.3750e+01	2.5283	-2.019604	0.000046	0.461680	0.156421	-0.000022
1877	9.3800e+01	2.4866	-2.025715	0.000026	0.256489	0.086901	-0.000012
1878	9.3850e+01	2.4834	-2.036305	0.000044	0.444581	0.150628	-0.000021
1879	9.3900e+01	2.4513	-2.045267	0.000038	0.376184	0.127454	-0.000018
1880	9.3950e+01	2.4449	-2.049748	0.000019	0.188092	0.063727	-0.000009
1881	9.4000e+01	2.4063	-2.060746	0.000046	0.461680	0.156421	-0.000022
1882	9.4050e+01	2.4080	-2.067263	-0.000027	-0.273588	-0.092694	-0.000013
1883	9.4100e+01	2.3791	-2.078669	0.000048	0.478779	0.162215	-0.000023
1884	9.4150e+01	2.3887	-2.087223	-0.000036	-0.359084	-0.121661	-0.000017
1885	9.4200e+01	2.3310	-2.099851	0.000053	0.530077	0.179595	-0.000025
1886	9.4250e+01	2.3245	-2.105554	0.000024	0.239390	0.081107	-0.000011
1887	9.4300e+01	2.3358	-2.111664	-0.000026	-0.256489	-0.086901	-0.000012
1888	9.4350e+01	2.2716	-2.120218	0.000036	0.359084	0.121661	-0.000017
1889	9.4400e+01	2.2620	-2.132031	0.000050	0.495878	0.168008	-0.000024
1890	9.4450e+01	2.2700	-2.138548	-0.000027	-0.273588	-0.092694	-0.000013
1891	9.4500e+01	2.2331	-2.148325	0.000041	0.410382	0.139041	-0.000020
1892	9.4550e+01	2.1946	-2.157693	0.000039	0.393283	0.133248	-0.000019
1893	9.4600e+01	2.1818	-2.166248	0.000036	0.359084	0.121661	-0.000017
1894	9.4650e+01	2.1561	-2.175617	0.000039	0.393283	0.133248	-0.000019
1895	9.4700e+01	2.1320	-2.184985	0.000039	0.393283	0.133248	-0.000019
1896	9.4750e+01	2.1160	-2.193947	0.000038	0.376184	0.127454	-0.000018
1897	9.4800e+01	2.1112	-2.200464	0.000027	0.273588	0.092694	-0.000013
1898	9.4850e+01	2.0935	-2.213092	0.000053	0.530077	0.179595	-0.000025
1899	9.4900e+01	2.0518	-2.221239	0.000034	0.341985	0.115868	-0.000016
1900	9.4950e+01	2.0502	-2.228978	0.000032	0.324886	0.110074	-0.000015
1901	9.5000e+01	2.0069	-2.233867	0.000021	0.205191	0.069521	-0.000010
1902	9.5050e+01	2.0069	-2.245679	0.000050	0.495878	0.168008	-0.000024
1903	9.5100e+01	1.9973	-2.254641	0.000038	0.376184	0.127454	-0.000018
1904	9.5150e+01	1.9636	-2.264417	0.000041	0.410382	0.139041	-0.000020
1905	9.5200e+01	1.9283	-2.274193	0.000041	0.410382	0.139041	-0.000020
1906	9.5250e+01	1.8866	-2.285192	0.000046	0.461680	0.156421	-0.000022
1907	9.5300e+01	1.9026	-2.295375	-0.000043	-0.427481	-0.144835	-0.000020
1908	9.5350e+01	1.8786	-2.300263	0.000021	0.205191	0.069521	-0.000010
1909	9.5400e+01	1.8850	-2.311262	-0.000046	-0.461680	-0.156421	-0.000022
1910	9.5450e+01	1.8368	-2.316964	0.000024	0.239390	0.081107	-0.000011
1911	9.5500e+01	1.8320	-2.326333	0.000039	0.393283	0.133248	-0.000019
1912	9.5550e+01	1.7967	-2.334888	0.000036	0.359084	0.121661	-0.000017
1913	9.5600e+01	1.7967	-2.342627	0.000032	0.324886	0.110074	-0.000015
1914	9.5650e+01	1.7582	-2.354440	0.000050	0.495878	0.168008	-0.000024
1915	9.5700e+01	1.7534	-2.361365	0.000029	0.290687	0.098488	-0.000014
1916	9.5750e+01	1.7197	-2.370734	0.000039	0.393283	0.133248	-0.000019
1917	9.5800e+01	1.6973	-2.378881	0.000034	0.341985	0.115868	-0.000016
1918	9.5850e+01	1.6748	-2.385805	0.000029	0.290687	0.098488	-0.000014
1919	9.5900e+01	1.6508	-2.395989	0.000043	0.427481	0.144835	-0.000020
1920	9.5950e+01	1.6524	-2.405765	-0.000041	-0.410382	-0.139041	-0.000020
1921	9.6000e+01	1.6042	-2.414319	0.000036	0.359084	0.121661	-0.000017
1922	9.6050e+01	1.5705	-2.424096	0.000041	0.410382	0.139041	-0.000020
1923	9.6100e+01	1.5866	-2.434686	-0.000044	-0.444581	-0.150628	-0.000021
1924	9.6150e+01	1.5385	-2.448129	0.000056	0.564275	0.191182	-0.000027
1925	9.6200e+01	1.5369	-2.447721	-0.000002	-0.017099	-0.005793	0.000001
1926	9.6250e+01	1.5144	-2.456683	0.000038	0.376184	0.127454	-0.000018
1927	9.6300e+01	1.4887	-2.468903	0.000051	0.512978	0.173802	-0.000024
1928	9.6350e+01	1.4967	-2.481123	-0.000051	-0.512978	-0.173802	-0.000024
1929	9.6400e+01	1.4631	-2.486419	0.000022	0.222290	0.075314	-0.000011
1930	9.6450e+01	1.4727	-2.497010	-0.000044	-0.444581	-0.150628	-0.000021
1931	9.6500e+01	1.4165	-2.507193	0.000043	0.427481	0.144835	-0.000020
1932	9.6550e+01	1.4342	-2.516155	-0.000038	-0.376184	-0.127454	-0.000018
1933	9.6600e+01	1.3716	-2.522672	0.000027	0.273588	0.092694	-0.000013
1934	9.6650e+01	1.3684	-2.532856	0.000043	0.427481	0.144835	-0.000020
1935	9.6700e+01	1.3219	-2.541003	0.000034	0.341985	0.115868	-0.000016
1936	9.6750e+01	1.3203	-2.553223	0.000051	0.512978	0.173802	-0.000024
1937	9.6800e+01	1.2898	-2.562592	0.000039	0.393283	0.133248	-0.000019
1938	9.6850e+01	1.2673	-2.571146	0.000036	0.359084	0.121661	-0.000017
1939	9.6900e+01	1.2385	-2.578478	0.000031	0.307787	0.104281	-0.000015
1940	9.6950e+01	1.2385	-2.587033	0.000036	0.359084	0.121661	-0.000017
1941	9.7000e+01	1.2304	-2.595587	0.000036	0.359084	0.121661	-0.000017
1942	9.7050e+01	1.1871	-2.605770	0.000043	0.427481	0.144835	-0.000020
1943	9.7100e+01	1.1935	-2.617583	-0.000050	-0.495878	-0.168008	-0.000024
1944	9.7150e+01	1.1406	-2.623693	0.000026	0.256489	0.086901	-0.000012
1945	9.7200e+01	1.1246	-2.631840	0.000034	0.341985	0.115868	-0.000016
1946	9.7250e+01	1.1037	-2.642838	0.000046	0.461680	0.156421	-0.000022
1947	9.7300e+01	1.1149	-2.654651	-0.000050	-0.495878	-0.168008	-0.000024
1948	9.7350e+01	1.1117	-2.663206	0.000036	0.359084	0.121661	-0.000017
1949	9.7400e+01	1.0684	-2.674204	0.000046	0.461680	0.156421	-0.000022
1950	9.7450e+01	1.0203	-2.684387	0.000043	0.427481	0.144835	-0.000020
1951	9.7500e+01	1.0059	-2.696608	0.000051	0.512978	0.173802	-0.000024
1952	9.7550e+01	0.9914	-2.705977	0.000039	0.393283	0.133248	-0.000019
1953	9.7600e+01	0.9625	-2.716160	0.000043	0.427481	0.144835	-0.000020
1954	9.7650e+01	0.9561	-2.724307	0.000034	0.341985	0.115868	-0.000016
1955	9.7700e+01	0.9160	-2.733269	0.000038	0.376184	0.127454	-0.000018
1956	9.7750e+01	0.9256	-2.748340	-0.000063	-0.632672	-0.214355	-0.000030
1957	9.7800e+01	0.9016	-2.756080	0.000032	0.324886	0.110074	-0.000015
1958	9.7850e+01	0.8920	-2.769522	0.000056	0.564275	0.191182	-0.000027
1959	9.7900e+01	0.8775	-2.782150	0.000053	0.530077	0.179595	-0.000025
1960	9.7950e+01	0.8535	-2.790704	0.000036	0.359084	0.121661	-0.000017
1961	9.8000e+01	0.8198	-2.801295	0.000044	0.444581	0.150628	-0.000021
1962	9.8050e+01	0.8005	-2.812293	0.000046	0.461680	0.156421	-0.000022
1963	9.8100e+01	0.7829	-2.819625	0.000031	0.307787	0.104281	-0.000015
1964	9.8150e+01	0.7412	-2.833067	0.000056	0.564275	0.191182	-0.000027
1965	9.8200e+01	0.7299	-2.841622	0.000036	0.359084	0.121661	-0.000017
1966	9.8250e+01	0.7010	-2.848954	0.000031	0.307787	0.104281	-0.000015
1967	9.8300e+01	0.7091	-2.860359	-0.000048	-0.478779	-0.162215	-0.000023
1968	9.8350e+01	0.6738	-2.869321	0.000038	0.376184	0.127454	-0.000018
1969	9.8400e+01	0.6401	-2.877875	0.000036	0.359084	0.121661	-0.000017
1970	9.8450e+01	0.6513	-2.893354	-0.000065	-0.649772	-0.220149	-0.000031
1971	9.8500e+01	0.6385	-2.903130	0.000041	0.410382	0.139041	-0.000020
1972	9.8550e+01	0.5855	-2.914129	0.000046	0.461680	0.156421	-0.000022
1973	9.8600e+01	0.5823	-2.920239	0.000026	0.256489	0.086901	-0.000012
1974	9.8650e+01	0.5422	-2.926349	0.000026	0.256489	0.086901	-0.000012
1975	9.8700e+01	0.5390	-2.937754	0.000048	0.478779	0.162215	-0.000023
1976	9.8750e+01	0.5037	-2.952419	0.000062	0.615573	0.208562	-0.000029
1977	9.8800e+01	0.5166	-2.959344	-0.000029	-0.290687	-0.098488	-0.000014
1978	9.8850e+01	0.4668	-2.967898	0.000036	0.359084	0.121661	-0.000017
1979	9.8900e+01	0.4716	-2.978489	-0.000044	-0.444581	-0.150628	-0.000021
1980	9.8950e+01	0.4203	-2.986228	0.000032	0.324886	0.110074	-0.000015
1981	9.9000e+01	0.4011	-2.996819	0.000044	0.444581	0.150628	-0.000021
1982	9.9050e+01	0.3914	-3.006188	0.000039	0.393283	0.133248	-0.000019
1983	9.9100e+01	0.3978	-3.013520	-0.000031	-0.307787	-0.104281	-0.000015
1984	9.9150e+01	0.3850	-3.019630	0.000026	0.256489	0.086901	-0.000012
1985	9.9200e+01	0.3593	-3.028185	0.000036	0.359084	0.121661	-0.000017
1986	9.9250e+01	0.3000	-3.035517	0.000031	0.307787	0.104281	-0.000015
1987	9.9300e+01	0.2791	-3.046108	0.000044	0.444581	0.150628	-0.000021
1988	9.9350e+01	0.2807	-3.055069	-0.000038	-0.376184	-0.127454	-0.000018
1989	9.9400e+01	0.2695	-3.064031	0.000038	0.376184	0.127454	-0.000018
1990	9.9450e+01	0.2390	-3.076658	0.000053	0.530077	0.179595	-0.000025
1991	9.9500e+01	0.2053	-3.088064	0.000048	0.478779	0.162215	-0.000023
1992	9.9550e+01	0.2150	-3.091730	-0.000015	-0.153893	-0.052140	-0.000007
1993	9.9600e+01	0.1973	-3.095803	0.000017	0.170993	0.057934	-0.000008
1994	9.9650e+01	0.1540	-3.105580	0.000041	0.410382	0.139041	-0.000020
1995	9.9700e+01	0.1235	-3.110875	0.000022	0.222290	0.075314	-0.000011
1996	9.9750e+01	0.1043	-3.124725	0.000058	0.581375	0.196975	-0.000028
1997	9.9800e+01	0.0914	-3.132464	0.000032	0.324886	0.110074	-0.000015
1998	9.9850e+01	0.0770	-3.140204	0.000032	0.324886	0.110074	-0.000015
1999	9.9900e+01	0.0658	-3.148758	0.000036	0.359084	0.121661	-0.000017
2000	9.9950e+01	0.0401	-3.156497	0.000032	0.324886	0.110074	-0.000015
2001	1.0000e+02	0.0289	-3.161793	0.000032	0.324886	0.110074	-0.000011

PMax (uC/cm2):	6.94e+00
Pr (uC/cm2):	3.17e-01
-Pr (uC/cm2):	0.00e+00
PLoss (uC/cm2):	0.00e+00
C (Max-Eff) (nF):	3.47e-02
K (Eff):	1.17e+02
Vert. (+/-Pr) Shift (uC/cm2):	1.58e-01
Offset (uC/cm2):	3.48e+00

A (Loop Area - uC/cm2·Volts):	-1.81e-03



Hysteresis Version: 5.48.1 - Radiant Technologies, Inc., 1999 - 9/12/24

