»»»»»»»»»»»»»»»»»»»»»»»»»»»»»»»»»»»» Hysteresis ««««««««««««««««««««««««««««««««««««
»»»  Executed Version:	5.48.1
»»»  Vision Version:	5.48.4 (R)
»»»  Vision Compiled:	9/18/24
»»»  Driver Version:	5.47.0
»»»  Windows Version:	Windows 8 or 8.1
»»»  Processor Information:	x86 (AMD or Intel) - 32 Processors
»»»  Tester Name:	PMF21124-494 (100V)
»»»  Tester S/N:	PMF21124-494
»»»  Internal Amp Type:	100V RevK 270k
»»»  Internal Amp S/N:	iAB2-596/K     
»»»  Execution Count:	1
»»»»»»»»»»»»»»»»»»»»»»»»»»»»»»»»»»»»»»»»»»««««««««««««««««««««««««««««««««««««««««««

Stored:	10/8/2025 - 17:26:34
Configured:	10/08/25 04:22:59 PM
Executed:	10/08/25 05:26:09 PM

»»»»»»»»»»»»»»»»»»»»»»»»»»»»»»»»»»» Sample Info ««««««««««««««««««««««««««««««««««««
Sample Name:	Int. Ref. Ferroelectric
Lot Name:	N/A
Wafer Name:	N/A
Die Row/Column:	0/0
Capacitor Number:	0
Sample Area (cm2):	1.00e-04
Sample Thickness (microns):	3.00e-01

Amplifier:	Internal

»»»»»»»»»»»»»»»»»»»»»»»»»»»»»»»»»»» Tester Info «««««««««««««««««««««««««««««««««««
Tester Name:	PMF21124-494 (100V)
Tester Serial Number:	PMF21124-494
Return Signal Amp. Level:	1.9 [Index: 2]

»»»»»»»»»»»»»»»»»»»»»»»»»»»»»»»» Hysteresis Info ««««««««««««««««««««««««««««««««««
Task Name:	Hyst-8
Volts:	20.00
Field:	666.67 (kV/cm)
DCBias:	0.00
DCField:	0.00 (kV/cm)
Hysteresis Period (ms):	1.00e+02
Preset:	Enabled
Preset Delay (ms):	1.00e+03
Profile:	Standard Monopolar

»»»»»»»»»»»»»»»»»»»»»»»»»»»»»»»»»»»»»» Data «««««««««««««««««««««««««««««««««««««««
Points:	2001

Valid Data

Point	Time (ms)	Drive Voltage	Measured Polarization (uC/cm2)	Capacitance (uF)	Normalized Capacitance (uF/cm2)	Dielectric Constant	Instantaneous Current (mA)
   1	0.0000e+00	0.0369	-18.690098	-0.000077	-0.773130	-0.261944	0.000037
   2	5.0000e-02	0.0257	-18.671768	-0.000077	-0.773130	-0.261944	0.000037
   3	1.0000e-01	0.0529	-18.626146	0.000192	1.924235	0.651948	0.000091
   4	1.5000e-01	0.0930	-18.576857	0.000208	2.078861	0.704337	0.000099
   5	2.0000e-01	0.1011	-18.532457	0.000187	1.872693	0.634486	0.000089
   6	2.5000e-01	0.0979	-18.484390	-0.000203	-2.027319	-0.686874	0.000096
   7	3.0000e-01	0.1251	-18.433880	0.000213	2.130403	0.721800	0.000101
   8	3.5000e-01	0.1428	-18.389887	0.000186	1.855512	0.628665	0.000088
   9	4.0000e-01	0.1636	-18.342635	0.000199	1.992958	0.675232	0.000095
  10	4.5000e-01	0.2166	-18.297827	0.000189	1.889874	0.640307	0.000090
  11	5.0000e-01	0.1957	-18.251390	-0.000196	-1.958596	-0.663590	0.000093
  12	5.5000e-01	0.2454	-18.202102	0.000208	2.078861	0.704337	0.000099
  13	6.0000e-01	0.2503	-18.151999	0.000211	2.113222	0.715979	0.000100
  14	6.5000e-01	0.2952	-18.108820	0.000182	1.821151	0.617023	0.000086
  15	7.0000e-01	0.2856	-18.056273	-0.000222	-2.216306	-0.750905	0.000105
  16	7.5000e-01	0.3208	-18.003726	0.000222	2.216306	0.750905	0.000105
  17	8.0000e-01	0.3401	-17.957696	0.000194	1.941416	0.657769	0.000092
  18	8.5000e-01	0.3513	-17.909223	0.000204	2.044500	0.692695	0.000097
  19	9.0000e-01	0.3513	-17.861564	-0.000201	-2.010138	-0.681053	0.000095
  20	9.5000e-01	0.3978	-17.815126	0.000196	1.958596	0.663590	0.000093
  21	1.0000e+00	0.4444	-17.762579	0.000222	2.216306	0.750905	0.000105
  22	1.0500e+00	0.4540	-17.713291	0.000208	2.078861	0.704337	0.000099
  23	1.1000e+00	0.4476	-17.667261	-0.000194	-1.941416	-0.657769	0.000092
  24	1.1500e+00	0.4941	-17.614307	0.000223	2.233487	0.756726	0.000106
  25	1.2000e+00	0.4909	-17.569906	-0.000187	-1.872693	-0.634486	0.000089
  26	1.2500e+00	0.5294	-17.518174	0.000218	2.181945	0.739263	0.000103
  27	1.3000e+00	0.5519	-17.467663	0.000213	2.130403	0.721800	0.000101
  28	1.3500e+00	0.5470	-17.420819	-0.000198	-1.975777	-0.669411	0.000094
  29	1.4000e+00	0.5823	-17.373975	0.000198	1.975777	0.669411	0.000094
  30	1.4500e+00	0.6112	-17.322242	0.000218	2.181945	0.739263	0.000103
  31	1.5000e+00	0.6208	-17.275805	0.000196	1.958596	0.663590	0.000093
  32	1.5500e+00	0.6224	-17.227331	0.000204	2.044500	0.692695	0.000097
  33	1.6000e+00	0.6497	-17.172747	0.000230	2.302210	0.780010	0.000109
  34	1.6500e+00	0.6882	-17.126310	0.000196	1.958596	0.663590	0.000093
  35	1.7000e+00	0.7107	-17.077836	0.000204	2.044500	0.692695	0.000097
  36	1.7500e+00	0.7203	-17.025697	0.000220	2.199126	0.745084	0.000104
  37	1.8000e+00	0.7668	-16.980482	0.000191	1.907054	0.646127	0.000090
  38	1.8500e+00	0.7764	-16.930786	0.000210	2.096042	0.710158	0.000099
  39	1.9000e+00	0.7813	-16.879868	0.000215	2.147584	0.727621	0.000102
  40	1.9500e+00	0.8037	-16.831802	0.000203	2.027319	0.686874	0.000096
  41	2.0000e+00	0.8117	-16.786587	0.000191	1.907054	0.646127	0.000090
  42	2.0500e+00	0.8502	-16.734854	0.000218	2.181945	0.739263	0.000103
  43	2.1000e+00	0.8583	-16.685158	0.000210	2.096042	0.710158	0.000099
  44	2.1500e+00	0.8920	-16.636277	0.000206	2.061680	0.698516	0.000098
  45	2.2000e+00	0.8952	-16.587803	0.000204	2.044500	0.692695	0.000097
  46	2.2500e+00	0.9305	-16.540552	0.000199	1.992958	0.675232	0.000095
  47	2.3000e+00	0.9481	-16.486782	0.000227	2.267848	0.768368	0.000108
  48	2.3500e+00	0.9545	-16.441975	0.000189	1.889874	0.640307	0.000090
  49	2.4000e+00	0.9754	-16.393094	0.000206	2.061680	0.698516	0.000098
  50	2.4500e+00	1.0123	-16.342176	0.000215	2.147584	0.727621	0.000102
  51	2.5000e+00	0.9882	-16.293295	-0.000206	-2.061680	-0.698516	0.000098
  52	2.5500e+00	1.0235	-16.244414	0.000206	2.061680	0.698516	0.000098
  53	2.6000e+00	1.0235	-16.189015	-0.000234	-2.336571	-0.791652	0.000111
  54	2.6500e+00	1.1005	-16.149095	0.000168	1.683706	0.570455	0.000080
  55	2.7000e+00	1.1390	-16.096548	0.000222	2.216306	0.750905	0.000105
  56	2.7500e+00	1.1021	-16.045223	-0.000216	-2.164764	-0.733442	0.000103
  57	2.8000e+00	1.1342	-15.995527	0.000210	2.096042	0.710158	0.000099
  58	2.8500e+00	1.1567	-15.949498	0.000194	1.941416	0.657769	0.000092
  59	2.9000e+00	1.1599	-15.897358	0.000220	2.199126	0.745084	0.000104
  60	2.9500e+00	1.2064	-15.846847	0.000213	2.130403	0.721800	0.000101
  61	3.0000e+00	1.2128	-15.798781	0.000203	2.027319	0.686874	0.000096
  62	3.0500e+00	1.2353	-15.751936	0.000198	1.975777	0.669411	0.000094
  63	3.1000e+00	1.2385	-15.706314	0.000192	1.924235	0.651948	0.000091
  64	3.1500e+00	1.2657	-15.657433	0.000206	2.061680	0.698516	0.000098
  65	3.2000e+00	1.2770	-15.606108	0.000216	2.164764	0.733442	0.000103
  66	3.2500e+00	1.3203	-15.555597	0.000213	2.130403	0.721800	0.000101
  67	3.3000e+00	1.3219	-15.510790	0.000189	1.889874	0.640307	0.000090
  68	3.3500e+00	1.3540	-15.463538	0.000199	1.992958	0.675232	0.000095
  69	3.4000e+00	1.3796	-15.414249	0.000208	2.078861	0.704337	0.000099
  70	3.4500e+00	1.3925	-15.363739	0.000213	2.130403	0.721800	0.000101
  71	3.5000e+00	1.4246	-15.315265	0.000204	2.044500	0.692695	0.000097
  72	3.5500e+00	1.4005	-15.267606	-0.000201	-2.010138	-0.681053	0.000095
  73	3.6000e+00	1.4743	-15.218725	0.000206	2.061680	0.698516	0.000098
  74	3.6500e+00	1.4534	-15.173917	-0.000189	-1.889874	-0.640307	0.000090
  75	3.7000e+00	1.5048	-15.125444	0.000204	2.044500	0.692695	0.000097
  76	3.7500e+00	1.5032	-15.074526	-0.000215	-2.147584	-0.727621	0.000102
  77	3.8000e+00	1.5304	-15.022793	0.000218	2.181945	0.739263	0.000103
  78	3.8500e+00	1.5481	-14.977578	0.000191	1.907054	0.646127	0.000090
  79	3.9000e+00	1.5770	-14.927068	0.000213	2.130403	0.721800	0.000101
  80	3.9500e+00	1.6090	-14.879409	0.000201	2.010138	0.681053	0.000095
  81	4.0000e+00	1.6203	-14.825232	0.000229	2.285029	0.774189	0.000108
  82	4.0500e+00	1.6283	-14.777573	0.000201	2.010138	0.681053	0.000095
  83	4.1000e+00	1.6556	-14.733173	0.000187	1.872693	0.634486	0.000089
  84	4.1500e+00	1.6780	-14.681440	0.000218	2.181945	0.739263	0.000103
  85	4.2000e+00	1.6925	-14.630930	0.000213	2.130403	0.721800	0.000101
  86	4.2500e+00	1.7262	-14.580419	0.000213	2.130403	0.721800	0.000101
  87	4.3000e+00	1.7438	-14.533575	0.000198	1.975777	0.669411	0.000094
  88	4.3500e+00	1.7470	-14.484286	0.000208	2.078861	0.704337	0.000099
  89	4.4000e+00	1.8016	-14.438257	0.000194	1.941416	0.657769	0.000092
  90	4.4500e+00	1.7999	-14.387746	-0.000213	-2.130403	-0.721800	0.000101
  91	4.5000e+00	1.8112	-14.337643	0.000211	2.113222	0.715979	0.000100
  92	4.5500e+00	1.8465	-14.289169	0.000204	2.044500	0.692695	0.000097
  93	4.6000e+00	1.8946	-14.238252	0.000215	2.147584	0.727621	0.000102
  94	4.6500e+00	1.9106	-14.189370	0.000206	2.061680	0.698516	0.000098
  95	4.7000e+00	1.9443	-14.144155	0.000191	1.907054	0.646127	0.000090
  96	4.7500e+00	1.9299	-14.087942	-0.000237	-2.370932	-0.803294	0.000112
  97	4.8000e+00	1.9347	-14.045579	0.000179	1.786790	0.605381	0.000085
  98	4.8500e+00	1.9556	-13.997512	0.000203	2.027319	0.686874	0.000096
  99	4.9000e+00	1.9443	-13.952297	-0.000191	-1.907054	-0.646127	0.000090
 100	4.9500e+00	1.9989	-13.906675	0.000192	1.924235	0.651948	0.000091
 101	5.0000e+00	2.0165	-13.852091	0.000230	2.302210	0.780010	0.000109
 102	5.0500e+00	2.0294	-13.807690	0.000187	1.872693	0.634486	0.000089
 103	5.1000e+00	2.0679	-13.759624	0.000203	2.027319	0.686874	0.000096
 104	5.1500e+00	2.0839	-13.709114	0.000213	2.130403	0.721800	0.000101
 105	5.2000e+00	2.0967	-13.662677	0.000196	1.958596	0.663590	0.000093
 106	5.2500e+00	2.1176	-13.610537	0.000220	2.199126	0.745084	0.000104
 107	5.3000e+00	2.1288	-13.564507	0.000194	1.941416	0.657769	0.000092
 108	5.3500e+00	2.1465	-13.512367	0.000220	2.199126	0.745084	0.000104
 109	5.4000e+00	2.1914	-13.466745	0.000192	1.924235	0.651948	0.000091
 110	5.4500e+00	2.1994	-13.420308	0.000196	1.958596	0.663590	0.000093
 111	5.5000e+00	2.2315	-13.368575	0.000218	2.181945	0.739263	0.000103
 112	5.5500e+00	2.2138	-13.318879	-0.000210	-2.096042	-0.710158	0.000099
 113	5.6000e+00	2.2347	-13.264703	0.000229	2.285029	0.774189	0.000108
 114	5.6500e+00	2.2892	-13.216636	0.000203	2.027319	0.686874	0.000096
 115	5.7000e+00	2.2941	-13.171829	0.000189	1.889874	0.640307	0.000090
 116	5.7500e+00	2.3326	-13.126614	0.000191	1.907054	0.646127	0.000090
 117	5.8000e+00	2.3470	-13.078955	0.000201	2.010138	0.681053	0.000095
 118	5.8500e+00	2.3582	-13.032925	0.000194	1.941416	0.657769	0.000092
 119	5.9000e+00	2.3695	-12.981600	0.000216	2.164764	0.733442	0.000103
 120	5.9500e+00	2.3855	-12.936792	0.000189	1.889874	0.640307	0.000090
 121	6.0000e+00	2.4128	-12.885060	0.000218	2.181945	0.739263	0.000103
 122	6.0500e+00	2.4577	-12.834956	0.000211	2.113222	0.715979	0.000100
 123	6.1000e+00	2.4785	-12.789741	0.000191	1.907054	0.646127	0.000090
 124	6.1500e+00	2.4657	-12.744119	-0.000192	-1.924235	-0.651948	0.000091
 125	6.2000e+00	2.5235	-12.699311	0.000189	1.889874	0.640307	0.000090
 126	6.2500e+00	2.4914	-12.653282	-0.000194	-1.941416	-0.657769	0.000092
 127	6.3000e+00	2.5347	-12.608067	0.000191	1.907054	0.646127	0.000090
 128	6.3500e+00	2.5876	-12.560000	0.000203	2.027319	0.686874	0.000096
 129	6.4000e+00	2.5571	-12.513156	-0.000198	-1.975777	-0.669411	0.000094
 130	6.4500e+00	2.5716	-12.464682	0.000204	2.044500	0.692695	0.000097
 131	6.5000e+00	2.6037	-12.418652	0.000194	1.941416	0.657769	0.000092
 132	6.5500e+00	2.6438	-12.370179	0.000204	2.044500	0.692695	0.000097
 133	6.6000e+00	2.6406	-12.326186	-0.000186	-1.855512	-0.628665	0.000088
 134	6.6500e+00	2.6743	-12.281785	0.000187	1.872693	0.634486	0.000089
 135	6.7000e+00	2.6903	-12.236163	0.000192	1.924235	0.651948	0.000091
 136	6.7500e+00	2.7192	-12.188504	0.000201	2.010138	0.681053	0.000095
 137	6.8000e+00	2.7384	-12.139215	0.000208	2.078861	0.704337	0.000099
 138	6.8500e+00	2.7689	-12.091149	0.000203	2.027319	0.686874	0.000096
 139	6.9000e+00	2.7801	-12.044305	0.000198	1.975777	0.669411	0.000094
 140	6.9500e+00	2.8090	-11.995423	0.000206	2.061680	0.698516	0.000098
 141	7.0000e+00	2.7994	-11.952652	-0.000180	-1.803970	-0.611202	0.000086
 142	7.0500e+00	2.8299	-11.912326	0.000170	1.700886	0.576276	0.000081
 143	7.1000e+00	2.8283	-11.859371	-0.000223	-2.233487	-0.756726	0.000106
 144	7.1500e+00	2.8716	-11.813749	0.000192	1.924235	0.651948	0.000091
 145	7.2000e+00	2.8812	-11.767719	0.000194	1.941416	0.657769	0.000092
 146	7.2500e+00	2.9005	-11.723726	0.000186	1.855512	0.628665	0.000088
 147	7.3000e+00	2.9309	-11.677289	0.000196	1.958596	0.663590	0.000093
 148	7.3500e+00	2.9598	-11.629630	0.000201	2.010138	0.681053	0.000095
 149	7.4000e+00	2.9710	-11.582378	0.000199	1.992958	0.675232	0.000095
 150	7.4500e+00	2.9871	-11.540014	0.000179	1.786790	0.605381	0.000085
 151	7.5000e+00	3.0160	-11.490726	0.000208	2.078861	0.704337	0.000099
 152	7.5500e+00	3.0384	-11.454065	0.000155	1.546260	0.523887	0.000073
 153	7.6000e+00	3.0753	-11.410480	0.000184	1.838332	0.622844	0.000087
 154	7.6500e+00	3.0914	-11.362820	0.000201	2.010138	0.681053	0.000095
 155	7.7000e+00	3.1106	-11.315161	0.000201	2.010138	0.681053	0.000095
 156	7.7500e+00	3.1395	-11.270354	0.000189	1.889874	0.640307	0.000090
 157	7.8000e+00	3.1475	-11.225139	0.000191	1.907054	0.646127	0.000090
 158	7.8500e+00	3.1507	-11.180738	0.000187	1.872693	0.634486	0.000089
 159	7.9000e+00	3.1748	-11.135523	0.000191	1.907054	0.646127	0.000090
 160	7.9500e+00	3.1956	-11.092345	0.000182	1.821151	0.617023	0.000086
 161	8.0000e+00	3.2213	-11.047945	0.000187	1.872693	0.634486	0.000089
 162	8.0500e+00	3.2197	-11.004766	-0.000182	-1.821151	-0.617023	0.000086
 163	8.1000e+00	3.2406	-10.959551	0.000191	1.907054	0.646127	0.000090
 164	8.1500e+00	3.2678	-10.917188	0.000179	1.786790	0.605381	0.000085
 165	8.2000e+00	3.2983	-10.872787	0.000187	1.872693	0.634486	0.000089
 166	8.2500e+00	3.3320	-10.826758	0.000194	1.941416	0.657769	0.000092
 167	8.3000e+00	3.3448	-10.780728	0.000194	1.941416	0.657769	0.000092
 168	8.3500e+00	3.3416	-10.740401	-0.000170	-1.700886	-0.576276	0.000081
 169	8.4000e+00	3.3930	-10.699667	0.000172	1.718067	0.582097	0.000081
 170	8.4500e+00	3.4106	-10.654452	0.000191	1.907054	0.646127	0.000090
 171	8.5000e+00	3.4315	-10.607607	0.000198	1.975777	0.669411	0.000094
 172	8.5500e+00	3.4266	-10.562800	-0.000189	-1.889874	-0.640307	0.000090
 173	8.6000e+00	3.4555	-10.518399	0.000187	1.872693	0.634486	0.000089
 174	8.6500e+00	3.4716	-10.475221	0.000182	1.821151	0.617023	0.000086
 175	8.7000e+00	3.4523	-10.432857	-0.000179	-1.786790	-0.605381	0.000085
 176	8.7500e+00	3.5357	-10.387235	0.000192	1.924235	0.651948	0.000091
 177	8.8000e+00	3.5373	-10.343242	0.000186	1.855512	0.628665	0.000088
 178	8.8500e+00	3.5470	-10.300471	0.000180	1.803970	0.611202	0.000086
 179	8.9000e+00	3.5855	-10.260552	0.000168	1.683706	0.570455	0.000080
 180	8.9500e+00	3.5919	-10.216151	0.000187	1.872693	0.634486	0.000089
 181	9.0000e+00	3.6368	-10.171344	0.000189	1.889874	0.640307	0.000090
 182	9.0500e+00	3.6544	-10.126943	0.000187	1.872693	0.634486	0.000089
 183	9.1000e+00	3.6240	-10.080099	-0.000198	-1.975777	-0.669411	0.000094
 184	9.1500e+00	3.6913	-10.044660	0.000149	1.494718	0.506424	0.000071
 185	9.2000e+00	3.6929	-9.995372	0.000208	2.078861	0.704337	0.000099
 186	9.2500e+00	3.7042	-9.958303	0.000156	1.563441	0.529708	0.000074
 187	9.3000e+00	3.7555	-9.915940	0.000179	1.786790	0.605381	0.000085
 188	9.3500e+00	3.8004	-9.870317	0.000192	1.924235	0.651948	0.000091
 189	9.4000e+00	3.7972	-9.829990	-0.000170	-1.700886	-0.576276	0.000081
 190	9.4500e+00	3.8004	-9.788034	0.000177	1.769609	0.599560	0.000084
 191	9.5000e+00	3.8084	-9.743634	0.000187	1.872693	0.634486	0.000089
 192	9.5500e+00	3.8277	-9.700863	0.000180	1.803970	0.611202	0.000086
 193	9.6000e+00	3.8790	-9.655240	0.000192	1.924235	0.651948	0.000091
 194	9.6500e+00	3.8646	-9.613692	-0.000175	-1.752428	-0.593739	0.000083
 195	9.7000e+00	3.9063	-9.574587	0.000165	1.649344	0.558813	0.000078
 196	9.7500e+00	3.9031	-9.529779	-0.000189	-1.889874	-0.640307	0.000090
 197	9.8000e+00	3.9320	-9.491489	0.000161	1.614983	0.547171	0.000077
 198	9.8500e+00	3.9801	-9.444644	0.000198	1.975777	0.669411	0.000094
 199	9.9000e+00	3.9657	-9.406354	-0.000161	-1.614983	-0.547171	0.000077
 200	9.9500e+00	4.0282	-9.359510	0.000198	1.975777	0.669411	0.000094
 201	1.0000e+01	4.0106	-9.316739	-0.000180	-1.803970	-0.611202	0.000086
 202	1.0050e+01	4.0362	-9.274783	0.000177	1.769609	0.599560	0.000084
 203	1.0100e+01	4.0699	-9.235270	0.000167	1.666525	0.564634	0.000079
 204	1.0150e+01	4.0748	-9.192092	0.000182	1.821151	0.617023	0.000086
 205	1.0200e+01	4.1068	-9.152172	0.000168	1.683706	0.570455	0.000080
 206	1.0250e+01	4.1149	-9.108994	0.000182	1.821151	0.617023	0.000086
 207	1.0300e+01	4.1453	-9.067038	0.000177	1.769609	0.599560	0.000084
 208	1.0350e+01	4.1646	-9.021823	0.000191	1.907054	0.646127	0.000090
 209	1.0400e+01	4.1774	-8.980274	0.000175	1.752428	0.593739	0.000083
 210	1.0450e+01	4.1935	-8.940762	0.000167	1.666525	0.564634	0.000079
 211	1.0500e+01	4.1822	-8.899620	-0.000174	-1.735248	-0.587918	0.000082
 212	1.0550e+01	4.2416	-8.855220	0.000187	1.872693	0.634486	0.000089
 213	1.0600e+01	4.2689	-8.813671	0.000175	1.752428	0.593739	0.000083
 214	1.0650e+01	4.3138	-8.770900	0.000180	1.803970	0.611202	0.000086
 215	1.0700e+01	4.2977	-8.730573	-0.000170	-1.700886	-0.576276	0.000081
 216	1.0750e+01	4.3394	-8.689839	0.000172	1.718067	0.582097	0.000081
 217	1.0800e+01	4.3523	-8.643402	0.000196	1.958596	0.663590	0.000093
 218	1.0850e+01	4.3619	-8.605519	0.000160	1.597802	0.541350	0.000076
 219	1.0900e+01	4.3635	-8.563155	0.000179	1.786790	0.605381	0.000085
 220	1.0950e+01	4.4132	-8.519569	0.000184	1.838332	0.622844	0.000087
 221	1.1000e+01	4.4004	-8.482909	-0.000155	-1.546260	-0.523887	0.000073
 222	1.1050e+01	4.4453	-8.442989	0.000168	1.683706	0.570455	0.000080
 223	1.1100e+01	4.4453	-8.400625	-0.000179	-1.786790	-0.605381	0.000085
 224	1.1150e+01	4.4758	-8.358669	0.000177	1.769609	0.599560	0.000084
 225	1.1200e+01	4.4726	-8.315898	-0.000180	-1.803970	-0.611202	0.000086
 226	1.1250e+01	4.5223	-8.278423	0.000158	1.580622	0.535529	0.000075
 227	1.1300e+01	4.5384	-8.235244	0.000182	1.821151	0.617023	0.000086
 228	1.1350e+01	4.5496	-8.192881	0.000179	1.786790	0.605381	0.000085
 229	1.1400e+01	4.5865	-8.152554	0.000170	1.700886	0.576276	0.000081
 230	1.1450e+01	4.6250	-8.110190	0.000179	1.786790	0.605381	0.000085
 231	1.1500e+01	4.6426	-8.068641	0.000175	1.752428	0.593739	0.000083
 232	1.1550e+01	4.6426	-8.031573	-0.000156	-1.563441	-0.529708	0.000074
 233	1.1600e+01	4.6619	-7.987580	0.000186	1.855512	0.628665	0.000088
 234	1.1650e+01	4.6667	-7.943994	0.000184	1.838332	0.622844	0.000087
 235	1.1700e+01	4.6956	-7.905704	0.000161	1.614983	0.547171	0.000077
 236	1.1750e+01	4.7132	-7.867414	0.000161	1.614983	0.547171	0.000077
 237	1.1800e+01	4.7325	-7.825050	0.000179	1.786790	0.605381	0.000085
 238	1.1850e+01	4.7453	-7.784724	0.000170	1.700886	0.576276	0.000081
 239	1.1900e+01	4.7774	-7.745211	0.000167	1.666525	0.564634	0.000079
 240	1.1950e+01	4.8255	-7.697145	0.000203	2.027319	0.686874	0.000096
 241	1.2000e+01	4.8127	-7.660077	-0.000156	-1.563441	-0.529708	0.000074
 242	1.2050e+01	4.8448	-7.619342	0.000172	1.718067	0.582097	0.000081
 243	1.2100e+01	4.8512	-7.575757	0.000184	1.838332	0.622844	0.000087
 244	1.2150e+01	4.8945	-7.537059	0.000163	1.632164	0.552992	0.000077
 245	1.2200e+01	4.8833	-7.493474	-0.000184	-1.838332	-0.622844	0.000087
 246	1.2250e+01	4.9346	-7.456405	0.000156	1.563441	0.529708	0.000074
 247	1.2300e+01	4.9282	-7.420559	-0.000151	-1.511899	-0.512245	0.000072
 248	1.2350e+01	4.9346	-7.380232	0.000170	1.700886	0.576276	0.000081
 249	1.2400e+01	4.9988	-7.340720	0.000167	1.666525	0.564634	0.000079
 250	1.2450e+01	4.9924	-7.297949	-0.000180	-1.803970	-0.611202	0.000086
 251	1.2500e+01	5.0325	-7.262510	0.000149	1.494718	0.506424	0.000071
 252	1.2550e+01	5.0357	-7.220961	0.000175	1.752428	0.593739	0.000083
 253	1.2600e+01	5.0581	-7.183893	0.000156	1.563441	0.529708	0.000074
 254	1.2650e+01	5.0758	-7.141122	0.000180	1.803970	0.611202	0.000086
 255	1.2700e+01	5.1063	-7.104869	0.000153	1.529080	0.518066	0.000073
 256	1.2750e+01	5.1175	-7.067393	0.000158	1.580622	0.535529	0.000075
 257	1.2800e+01	5.1368	-7.023400	0.000186	1.855512	0.628665	0.000088
 258	1.2850e+01	5.1576	-6.989183	0.000144	1.443176	0.488961	0.000068
 259	1.2900e+01	5.1833	-6.948857	0.000170	1.700886	0.576276	0.000081
 260	1.2950e+01	5.2041	-6.907308	0.000175	1.752428	0.593739	0.000083
 261	1.3000e+01	5.2202	-6.871869	0.000149	1.494718	0.506424	0.000071
 262	1.3050e+01	5.2234	-6.829505	0.000179	1.786790	0.605381	0.000085
 263	1.3100e+01	5.2571	-6.794474	0.000148	1.477538	0.500603	0.000070
 264	1.3150e+01	5.2876	-6.747629	0.000198	1.975777	0.669411	0.000094
 265	1.3200e+01	5.2555	-6.713005	-0.000146	-1.460357	-0.494782	0.000069
 266	1.3250e+01	5.3261	-6.670234	0.000180	1.803970	0.611202	0.000086
 267	1.3300e+01	5.3630	-6.629500	0.000172	1.718067	0.582097	0.000081
 268	1.3350e+01	5.3774	-6.594876	0.000146	1.460357	0.494782	0.000069
 269	1.3400e+01	5.3838	-6.551698	0.000182	1.821151	0.617023	0.000086
 270	1.3450e+01	5.3854	-6.514629	0.000156	1.563441	0.529708	0.000074
 271	1.3500e+01	5.4111	-6.473895	0.000172	1.718067	0.582097	0.000081
 272	1.3550e+01	5.4351	-6.438456	0.000149	1.494718	0.506424	0.000071
 273	1.3600e+01	5.4720	-6.401388	0.000156	1.563441	0.529708	0.000074
 274	1.3650e+01	5.4897	-6.359432	0.000177	1.769609	0.599560	0.000084
 275	1.3700e+01	5.5202	-6.322364	0.000156	1.563441	0.529708	0.000074
 276	1.3750e+01	5.5057	-6.285296	-0.000156	-1.563441	-0.529708	0.000074
 277	1.3800e+01	5.5218	-6.247413	0.000160	1.597802	0.541350	0.000076
 278	1.3850e+01	5.5699	-6.205456	0.000177	1.769609	0.599560	0.000084
 279	1.3900e+01	5.5555	-6.170425	-0.000148	-1.477538	-0.500603	0.000070
 280	1.3950e+01	5.5908	-6.131727	0.000163	1.632164	0.552992	0.000077
 281	1.4000e+01	5.6036	-6.091808	0.000168	1.683706	0.570455	0.000080
 282	1.4050e+01	5.6357	-6.055962	0.000151	1.511899	0.512245	0.000072
 283	1.4100e+01	5.6645	-6.018486	0.000158	1.580622	0.535529	0.000075
 284	1.4150e+01	5.6902	-5.981418	0.000156	1.563441	0.529708	0.000074
 285	1.4200e+01	5.6982	-5.941906	0.000167	1.666525	0.564634	0.000079
 286	1.4250e+01	5.7287	-5.902394	0.000167	1.666525	0.564634	0.000079
 287	1.4300e+01	5.7255	-5.862881	-0.000167	-1.666525	-0.564634	0.000079
 288	1.4350e+01	5.7833	-5.824184	0.000163	1.632164	0.552992	0.000077
 289	1.4400e+01	5.8169	-5.787116	0.000156	1.563441	0.529708	0.000074
 290	1.4450e+01	5.8041	-5.750047	-0.000156	-1.563441	-0.529708	0.000074
 291	1.4500e+01	5.8041	-5.710535	-0.000167	-1.666525	-0.564634	0.000079
 292	1.4550e+01	5.8490	-5.671430	0.000165	1.649344	0.558813	0.000078
 293	1.4600e+01	5.8522	-5.632733	0.000163	1.632164	0.552992	0.000077
 294	1.4650e+01	5.8940	-5.593221	0.000167	1.666525	0.564634	0.000079
 295	1.4700e+01	5.8972	-5.556152	0.000156	1.563441	0.529708	0.000074
 296	1.4750e+01	5.9116	-5.513381	0.000180	1.803970	0.611202	0.000086
 297	1.4800e+01	5.9292	-5.477535	0.000151	1.511899	0.512245	0.000072
 298	1.4850e+01	5.9565	-5.438838	0.000163	1.632164	0.552992	0.000077
 299	1.4900e+01	5.9838	-5.399733	0.000165	1.649344	0.558813	0.000078
 300	1.4950e+01	6.0030	-5.363887	0.000151	1.511899	0.512245	0.000072
 301	1.5000e+01	6.0319	-5.323560	0.000170	1.700886	0.576276	0.000081
 302	1.5050e+01	6.0383	-5.284048	0.000167	1.666525	0.564634	0.000079
 303	1.5100e+01	6.0367	-5.246165	-0.000160	-1.597802	-0.541350	0.000076
 304	1.5150e+01	6.0576	-5.206652	0.000167	1.666525	0.564634	0.000079
 305	1.5200e+01	6.1089	-5.171621	0.000148	1.477538	0.500603	0.000070
 306	1.5250e+01	6.0961	-5.134960	-0.000155	-1.546260	-0.523887	0.000073
 307	1.5300e+01	6.1378	-5.093004	0.000177	1.769609	0.599560	0.000084
 308	1.5350e+01	6.1426	-5.057972	0.000148	1.477538	0.500603	0.000070
 309	1.5400e+01	6.1988	-5.019682	0.000161	1.614983	0.547171	0.000077
 310	1.5450e+01	6.2132	-4.984651	0.000148	1.477538	0.500603	0.000070
 311	1.5500e+01	6.2004	-4.945139	-0.000167	-1.666525	-0.564634	0.000079
 312	1.5550e+01	6.2340	-4.899109	0.000194	1.941416	0.657769	0.000092
 313	1.5600e+01	6.2822	-4.861226	0.000160	1.597802	0.541350	0.000076
 314	1.5650e+01	6.2950	-4.817640	0.000184	1.838332	0.622844	0.000087
 315	1.5700e+01	6.2774	-4.779350	-0.000161	-1.614983	-0.547171	0.000077
 316	1.5750e+01	6.3030	-4.740653	0.000163	1.632164	0.552992	0.000077
 317	1.5800e+01	6.3576	-4.703992	0.000155	1.546260	0.523887	0.000073
 318	1.5850e+01	6.3752	-4.660813	0.000182	1.821151	0.617023	0.000086
 319	1.5900e+01	6.3977	-4.625375	0.000149	1.494718	0.506424	0.000071
 320	1.5950e+01	6.3752	-4.587492	-0.000160	-1.597802	-0.541350	0.000076
 321	1.6000e+01	6.4121	-4.545128	0.000179	1.786790	0.605381	0.000085
 322	1.6050e+01	6.4410	-4.506023	0.000165	1.649344	0.558813	0.000078
 323	1.6100e+01	6.4554	-4.464067	0.000177	1.769609	0.599560	0.000084
 324	1.6150e+01	6.4843	-4.425777	0.000161	1.614983	0.547171	0.000077
 325	1.6200e+01	6.4827	-4.385857	-0.000168	-1.683706	-0.570455	0.000080
 326	1.6250e+01	6.5164	-4.354899	0.000131	1.305731	0.442394	0.000062
 327	1.6300e+01	6.5565	-4.314572	0.000170	1.700886	0.576276	0.000081
 328	1.6350e+01	6.5389	-4.270579	-0.000186	-1.855512	-0.628665	0.000088
 329	1.6400e+01	6.5693	-4.232289	0.000161	1.614983	0.547171	0.000077
 330	1.6450e+01	6.6094	-4.189925	0.000179	1.786790	0.605381	0.000085
 331	1.6500e+01	6.6207	-4.151635	0.000161	1.614983	0.547171	0.000077
 332	1.6550e+01	6.6383	-4.110086	0.000175	1.752428	0.593739	0.000083
 333	1.6600e+01	6.6415	-4.076277	0.000143	1.425996	0.483140	0.000068
 334	1.6650e+01	6.6672	-4.036357	0.000168	1.683706	0.570455	0.000080
 335	1.6700e+01	6.6784	-3.995623	0.000172	1.718067	0.582097	0.000081
 336	1.6750e+01	6.7169	-3.952445	0.000182	1.821151	0.617023	0.000086
 337	1.6800e+01	6.7089	-3.916191	-0.000153	-1.529080	-0.518066	0.000073
 338	1.6850e+01	6.7763	-3.880752	0.000149	1.494718	0.506424	0.000071
 339	1.6900e+01	6.7843	-3.837574	0.000182	1.821151	0.617023	0.000086
 340	1.6950e+01	6.8100	-3.797655	0.000168	1.683706	0.570455	0.000080
 341	1.7000e+01	6.8276	-3.756513	0.000174	1.735248	0.587918	0.000082
 342	1.7050e+01	6.8260	-3.720260	-0.000153	-1.529080	-0.518066	0.000073
 343	1.7100e+01	6.8725	-3.681562	0.000163	1.632164	0.552992	0.000077
 344	1.7150e+01	6.8629	-3.642457	-0.000165	-1.649344	-0.558813	0.000078
 345	1.7200e+01	6.8822	-3.602538	0.000168	1.683706	0.570455	0.000080
 346	1.7250e+01	6.9383	-3.561803	0.000172	1.718067	0.582097	0.000081
 347	1.7300e+01	6.9495	-3.523920	0.000160	1.597802	0.541350	0.000076
 348	1.7350e+01	6.9511	-3.484816	0.000165	1.649344	0.558813	0.000078
 349	1.7400e+01	6.9720	-3.446525	0.000161	1.614983	0.547171	0.000077
 350	1.7450e+01	6.9816	-3.401718	0.000189	1.889874	0.640307	0.000090
 351	1.7500e+01	7.0105	-3.364649	0.000156	1.563441	0.529708	0.000074
 352	1.7550e+01	7.0330	-3.327174	0.000158	1.580622	0.535529	0.000075
 353	1.7600e+01	7.0330	-3.290106	-0.000156	-1.563441	-0.529708	0.000074
 354	1.7650e+01	7.0650	-3.248150	0.000177	1.769609	0.599560	0.000084
 355	1.7700e+01	7.0811	-3.208230	0.000168	1.683706	0.570455	0.000080
 356	1.7750e+01	7.1164	-3.167903	0.000170	1.700886	0.576276	0.000081
 357	1.7800e+01	7.1404	-3.126354	0.000175	1.752428	0.593739	0.000083
 358	1.7850e+01	7.1420	-3.091323	0.000148	1.477538	0.500603	0.000070
 359	1.7900e+01	7.1661	-3.050588	0.000172	1.718067	0.582097	0.000081
 360	1.7950e+01	7.1918	-3.009447	0.000174	1.735248	0.587918	0.000082
 361	1.8000e+01	7.2207	-2.969120	0.000170	1.700886	0.576276	0.000081
 362	1.8050e+01	7.2527	-2.930015	0.000165	1.649344	0.558813	0.000078
 363	1.8100e+01	7.2559	-2.894984	0.000148	1.477538	0.500603	0.000070
 364	1.8150e+01	7.2720	-2.851805	0.000182	1.821151	0.617023	0.000086
 365	1.8200e+01	7.2784	-2.814330	0.000158	1.580622	0.535529	0.000075
 366	1.8250e+01	7.3089	-2.770744	0.000184	1.838332	0.622844	0.000087
 367	1.8300e+01	7.3233	-2.732046	0.000163	1.632164	0.552992	0.000077
 368	1.8350e+01	7.3618	-2.690498	0.000175	1.752428	0.593739	0.000083
 369	1.8400e+01	7.3843	-2.655466	0.000148	1.477538	0.500603	0.000070
 370	1.8450e+01	7.4244	-2.616361	0.000165	1.649344	0.558813	0.000078
 371	1.8500e+01	7.4324	-2.576034	0.000170	1.700886	0.576276	0.000081
 372	1.8550e+01	7.4452	-2.538559	0.000158	1.580622	0.535529	0.000075
 373	1.8600e+01	7.4517	-2.500269	0.000161	1.614983	0.547171	0.000077
 374	1.8650e+01	7.4757	-2.458312	0.000177	1.769609	0.599560	0.000084
 375	1.8700e+01	7.4837	-2.420022	0.000161	1.614983	0.547171	0.000077
 376	1.8750e+01	7.5335	-2.377658	0.000179	1.786790	0.605381	0.000085
 377	1.8800e+01	7.5415	-2.340998	0.000155	1.546260	0.523887	0.000073
 378	1.8850e+01	7.5672	-2.301485	0.000167	1.666525	0.564634	0.000079
 379	1.8900e+01	7.5960	-2.267269	0.000144	1.443176	0.488961	0.000068
 380	1.8950e+01	7.6009	-2.228978	0.000161	1.614983	0.547171	0.000077
 381	1.9000e+01	7.6281	-2.184578	0.000187	1.872693	0.634486	0.000089
 382	1.9050e+01	7.6361	-2.148325	0.000153	1.529080	0.518066	0.000073
 383	1.9100e+01	7.6666	-2.105146	0.000182	1.821151	0.617023	0.000086
 384	1.9150e+01	7.6682	-2.070115	0.000148	1.477538	0.500603	0.000070
 385	1.9200e+01	7.6907	-2.028566	0.000175	1.752428	0.593739	0.000083
 386	1.9250e+01	7.7340	-1.983351	0.000191	1.907054	0.646127	0.000090
 387	1.9300e+01	7.7420	-1.949541	0.000143	1.425996	0.483140	0.000068
 388	1.9350e+01	7.7051	-1.909215	-0.000170	-1.700886	-0.576276	0.000081
 389	1.9400e+01	7.8014	-1.870517	0.000163	1.632164	0.552992	0.000077
 390	1.9450e+01	7.7982	-1.828153	-0.000179	-1.786790	-0.605381	0.000085
 391	1.9500e+01	7.8078	-1.793122	0.000148	1.477538	0.500603	0.000070
 392	1.9550e+01	7.8559	-1.751980	0.000174	1.735248	0.587918	0.000082
 393	1.9600e+01	7.8543	-1.714912	-0.000156	-1.563441	-0.529708	0.000074
 394	1.9650e+01	7.8431	-1.673771	-0.000174	-1.735248	-0.587918	0.000082
 395	1.9700e+01	7.8992	-1.635073	0.000163	1.632164	0.552992	0.000077
 396	1.9750e+01	7.8960	-1.598005	-0.000156	-1.563441	-0.529708	0.000074
 397	1.9800e+01	7.9586	-1.557678	0.000170	1.700886	0.576276	0.000081
 398	1.9850e+01	7.9522	-1.518166	-0.000167	-1.666525	-0.564634	0.000079
 399	1.9900e+01	7.9682	-1.479468	0.000163	1.632164	0.552992	0.000077
 400	1.9950e+01	8.0019	-1.441585	0.000160	1.597802	0.541350	0.000076
 401	2.0000e+01	8.0035	-1.406554	0.000148	1.477538	0.500603	0.000070
 402	2.0050e+01	8.0613	-1.364598	0.000177	1.769609	0.599560	0.000084
 403	2.0100e+01	8.0565	-1.323863	-0.000172	-1.718067	-0.582097	0.000081
 404	2.0150e+01	8.0516	-1.282722	-0.000174	-1.735248	-0.587918	0.000082
 405	2.0200e+01	8.0709	-1.249727	0.000139	1.391634	0.471498	0.000066
 406	2.0250e+01	8.0934	-1.205734	0.000186	1.855512	0.628665	0.000088
 407	2.0300e+01	8.1286	-1.172739	0.000139	1.391634	0.471498	0.000066
 408	2.0350e+01	8.1479	-1.132412	0.000170	1.700886	0.576276	0.000081
 409	2.0400e+01	8.1655	-1.092493	0.000168	1.683706	0.570455	0.000080
 410	2.0450e+01	8.1976	-1.049722	0.000180	1.803970	0.611202	0.000086
 411	2.0500e+01	8.2217	-1.012654	0.000156	1.563441	0.529708	0.000074
 412	2.0550e+01	8.2201	-0.974363	-0.000161	-1.614983	-0.547171	0.000077
 413	2.0600e+01	8.2698	-0.934444	0.000168	1.683706	0.570455	0.000080
 414	2.0650e+01	8.2891	-0.898190	0.000153	1.529080	0.518066	0.000073
 415	2.0700e+01	8.2923	-0.854605	0.000184	1.838332	0.622844	0.000087
 416	2.0750e+01	8.2875	-0.814278	-0.000170	-1.700886	-0.576276	0.000081
 417	2.0800e+01	8.3484	-0.779246	0.000148	1.477538	0.500603	0.000070
 418	2.0850e+01	8.3548	-0.736068	0.000182	1.821151	0.617023	0.000086
 419	2.0900e+01	8.3966	-0.696556	0.000167	1.666525	0.564634	0.000079
 420	2.0950e+01	8.3933	-0.651748	-0.000189	-1.889874	-0.640307	0.000090
 421	2.1000e+01	8.4190	-0.619568	0.000136	1.357273	0.459856	0.000064
 422	2.1050e+01	8.4318	-0.575168	0.000187	1.872693	0.634486	0.000089
 423	2.1100e+01	8.4447	-0.538507	0.000155	1.546260	0.523887	0.000073
 424	2.1150e+01	8.4864	-0.498995	0.000167	1.666525	0.564634	0.000079
 425	2.1200e+01	8.4880	-0.456224	0.000180	1.803970	0.611202	0.000086
 426	2.1250e+01	8.5425	-0.418341	0.000160	1.597802	0.541350	0.000076
 427	2.1300e+01	8.5377	-0.378421	-0.000168	-1.683706	-0.570455	0.000080
 428	2.1350e+01	8.5859	-0.338502	0.000168	1.683706	0.570455	0.000080
 429	2.1400e+01	8.5794	-0.300211	-0.000161	-1.614983	-0.547171	0.000077
 430	2.1450e+01	8.5955	-0.261514	0.000163	1.632164	0.552992	0.000077
 431	2.1500e+01	8.6163	-0.222409	0.000165	1.649344	0.558813	0.000078
 432	2.1550e+01	8.6244	-0.184934	0.000158	1.580622	0.535529	0.000075
 433	2.1600e+01	8.6356	-0.150717	0.000144	1.443176	0.488961	0.000068
 434	2.1650e+01	8.6757	-0.109575	0.000174	1.735248	0.587918	0.000082
 435	2.1700e+01	8.6949	-0.068841	0.000172	1.718067	0.582097	0.000081
 436	2.1750e+01	8.7014	-0.027699	0.000174	1.735248	0.587918	0.000082
 437	2.1800e+01	8.7383	0.009776	0.000158	1.580622	0.535529	0.000075
 438	2.1850e+01	8.7495	0.051325	0.000175	1.752428	0.593739	0.000083
 439	2.1900e+01	8.7511	0.092874	0.000175	1.752428	0.593739	0.000083
 440	2.1950e+01	8.7944	0.129942	0.000156	1.563441	0.529708	0.000074
 441	2.2000e+01	8.8329	0.170677	0.000172	1.718067	0.582097	0.000081
 442	2.2050e+01	8.8393	0.209781	0.000165	1.649344	0.558813	0.000078
 443	2.2100e+01	8.8441	0.246442	0.000155	1.546260	0.523887	0.000073
 444	2.2150e+01	8.8618	0.290028	0.000184	1.838332	0.622844	0.000087
 445	2.2200e+01	8.9115	0.328318	0.000161	1.614983	0.547171	0.000077
 446	2.2250e+01	8.9163	0.369460	0.000174	1.735248	0.587918	0.000082
 447	2.2300e+01	8.9580	0.413453	0.000186	1.855512	0.628665	0.000088
 448	2.2350e+01	8.9628	0.450928	0.000158	1.580622	0.535529	0.000075
 449	2.2400e+01	9.0030	0.488811	0.000160	1.597802	0.541350	0.000076
 450	2.2450e+01	9.0062	0.527101	0.000161	1.614983	0.547171	0.000077
 451	2.2500e+01	9.0318	0.564984	0.000160	1.597802	0.541350	0.000076
 452	2.2550e+01	9.0527	0.602460	0.000158	1.580622	0.535529	0.000075
 453	2.2600e+01	9.0447	0.641972	-0.000167	-1.666525	-0.564634	0.000079
 454	2.2650e+01	9.0784	0.681077	0.000165	1.649344	0.558813	0.000078
 455	2.2700e+01	9.0992	0.716516	0.000149	1.494718	0.506424	0.000071
 456	2.2750e+01	9.1024	0.758879	0.000179	1.786790	0.605381	0.000085
 457	2.2800e+01	9.1538	0.795133	0.000153	1.529080	0.518066	0.000073
 458	2.2850e+01	9.1682	0.836274	0.000174	1.735248	0.587918	0.000082
 459	2.2900e+01	9.1666	0.874157	-0.000160	-1.597802	-0.541350	0.000076
 460	2.2950e+01	9.1939	0.912855	0.000163	1.632164	0.552992	0.000077
 461	2.3000e+01	9.2179	0.953996	0.000174	1.735248	0.587918	0.000082
 462	2.3050e+01	9.2227	0.989435	0.000149	1.494718	0.506424	0.000071
 463	2.3100e+01	9.2500	1.027318	0.000160	1.597802	0.541350	0.000076
 464	2.3150e+01	9.2757	1.061942	0.000146	1.460357	0.494782	0.000069
 465	2.3200e+01	9.2917	1.099825	0.000160	1.597802	0.541350	0.000076
 466	2.3250e+01	9.3254	1.139337	0.000167	1.666525	0.564634	0.000079
 467	2.3300e+01	9.3334	1.178442	0.000165	1.649344	0.558813	0.000078
 468	2.3350e+01	9.3703	1.218362	0.000168	1.683706	0.570455	0.000080
 469	2.3400e+01	9.3655	1.253800	-0.000149	-1.494718	-0.506424	0.000071
 470	2.3450e+01	9.4136	1.292498	0.000163	1.632164	0.552992	0.000077
 471	2.3500e+01	9.4104	1.333640	-0.000174	-1.735248	-0.587918	0.000082
 472	2.3550e+01	9.4249	1.368671	0.000148	1.477538	0.500603	0.000070
 473	2.3600e+01	9.4570	1.411849	0.000182	1.821151	0.617023	0.000086
 474	2.3650e+01	9.4826	1.447695	0.000151	1.511899	0.512245	0.000072
 475	2.3700e+01	9.4858	1.482320	0.000146	1.460357	0.494782	0.000069
 476	2.3750e+01	9.5051	1.522646	0.000170	1.700886	0.576276	0.000081
 477	2.3800e+01	9.5243	1.560122	0.000158	1.580622	0.535529	0.000075
 478	2.3850e+01	9.5548	1.598412	0.000161	1.614983	0.547171	0.000077
 479	2.3900e+01	9.5821	1.637517	0.000165	1.649344	0.558813	0.000078
 480	2.3950e+01	9.6110	1.673363	0.000151	1.511899	0.512245	0.000072
 481	2.4000e+01	9.5949	1.709209	-0.000151	-1.511899	-0.512245	0.000072
 482	2.4050e+01	9.6270	1.748314	0.000165	1.649344	0.558813	0.000078
 483	2.4100e+01	9.6511	1.784568	0.000153	1.529080	0.518066	0.000073
 484	2.4150e+01	9.6527	1.823265	0.000163	1.632164	0.552992	0.000077
 485	2.4200e+01	9.6896	1.857889	0.000146	1.460357	0.494782	0.000069
 486	2.4250e+01	9.7072	1.892513	0.000146	1.460357	0.494782	0.000069
 487	2.4300e+01	9.7200	1.929989	0.000158	1.580622	0.535529	0.000075
 488	2.4350e+01	9.7537	1.967465	0.000158	1.580622	0.535529	0.000075
 489	2.4400e+01	9.7874	2.006977	0.000167	1.666525	0.564634	0.000079
 490	2.4450e+01	9.8019	2.042823	0.000151	1.511899	0.512245	0.000072
 491	2.4500e+01	9.8436	2.082335	0.000167	1.666525	0.564634	0.000079
 492	2.4550e+01	9.8099	2.114515	-0.000136	-1.357273	-0.459856	0.000064
 493	2.4600e+01	9.8356	2.153620	0.000165	1.649344	0.558813	0.000078
 494	2.4650e+01	9.8612	2.186615	0.000139	1.391634	0.471498	0.000066
 495	2.4700e+01	9.9013	2.224090	0.000158	1.580622	0.535529	0.000075
 496	2.4750e+01	9.9302	2.262788	0.000163	1.632164	0.552992	0.000077
 497	2.4800e+01	9.9190	2.301078	-0.000161	-1.614983	-0.547171	0.000077
 498	2.4850e+01	9.9543	2.334888	0.000143	1.425996	0.483140	0.000068
 499	2.4900e+01	9.9703	2.369919	0.000148	1.477538	0.500603	0.000070
 500	2.4950e+01	9.9944	2.406580	0.000155	1.546260	0.523887	0.000073
 501	2.5000e+01	9.9944	2.440797	-0.000144	-1.443176	-0.488961	0.000068
 502	2.5050e+01	10.0281	2.481123	0.000170	1.700886	0.576276	0.000081
 503	2.5100e+01	10.0826	2.519006	0.000160	1.597802	0.541350	0.000076
 504	2.5150e+01	10.0682	2.552001	-0.000139	-1.391634	-0.471498	0.000066
 505	2.5200e+01	10.0938	2.592328	0.000170	1.700886	0.576276	0.000081
 506	2.5250e+01	10.1323	2.625730	0.000141	1.408815	0.477319	0.000067
 507	2.5300e+01	10.1420	2.659132	0.000141	1.408815	0.477319	0.000067
 508	2.5350e+01	10.1532	2.695386	0.000153	1.529080	0.518066	0.000073
 509	2.5400e+01	10.1580	2.737342	0.000177	1.769609	0.599560	0.000084
 510	2.5450e+01	10.2045	2.767485	0.000127	1.271370	0.430752	0.000060
 511	2.5500e+01	10.2077	2.802109	0.000146	1.460357	0.494782	0.000069
 512	2.5550e+01	10.2430	2.839178	0.000156	1.563441	0.529708	0.000074
 513	2.5600e+01	10.2655	2.875024	0.000151	1.511899	0.512245	0.000072
 514	2.5650e+01	10.2719	2.911277	0.000153	1.529080	0.518066	0.000073
 515	2.5700e+01	10.2944	2.948345	0.000156	1.563441	0.529708	0.000074
 516	2.5750e+01	10.3168	2.985821	0.000158	1.580622	0.535529	0.000075
 517	2.5800e+01	10.3232	3.020852	0.000148	1.477538	0.500603	0.000070
 518	2.5850e+01	10.3778	3.060365	0.000167	1.666525	0.564634	0.000079
 519	2.5900e+01	10.3938	3.089286	0.000122	1.219828	0.413289	0.000058
 520	2.5950e+01	10.3938	3.126354	-0.000156	-1.563441	-0.529708	0.000074
 521	2.6000e+01	10.4147	3.160164	0.000143	1.425996	0.483140	0.000068
 522	2.6050e+01	10.4195	3.196417	0.000153	1.529080	0.518066	0.000073
 523	2.6100e+01	10.4805	3.230226	0.000143	1.425996	0.483140	0.000068
 524	2.6150e+01	10.4724	3.267702	-0.000158	-1.580622	-0.535529	0.000075
 525	2.6200e+01	10.4965	3.304770	0.000156	1.563441	0.529708	0.000074
 526	2.6250e+01	10.5446	3.343468	0.000163	1.632164	0.552992	0.000077
 527	2.6300e+01	10.5254	3.372389	-0.000122	-1.219828	-0.413289	0.000058
 528	2.6350e+01	10.5623	3.411087	0.000163	1.632164	0.552992	0.000077
 529	2.6400e+01	10.5944	3.441230	0.000127	1.271370	0.430752	0.000060
 530	2.6450e+01	10.5879	3.477891	-0.000155	-1.546260	-0.523887	0.000073
 531	2.6500e+01	10.6200	3.512922	0.000148	1.477538	0.500603	0.000070
 532	2.6550e+01	10.6313	3.549176	0.000153	1.529080	0.518066	0.000073
 533	2.6600e+01	10.6505	3.580948	0.000134	1.340092	0.454036	0.000064
 534	2.6650e+01	10.6473	3.615572	-0.000146	-1.460357	-0.494782	0.000069
 535	2.6700e+01	10.7163	3.653455	0.000160	1.597802	0.541350	0.000076
 536	2.6750e+01	10.7147	3.687265	-0.000143	-1.425996	-0.483140	0.000068
 537	2.6800e+01	10.7564	3.722296	0.000148	1.477538	0.500603	0.000070
 538	2.6850e+01	10.7804	3.756106	0.000143	1.425996	0.483140	0.000068
 539	2.6900e+01	10.8093	3.790322	0.000144	1.443176	0.488961	0.000068
 540	2.6950e+01	10.7853	3.826576	-0.000153	-1.529080	-0.518066	0.000073
 541	2.7000e+01	10.8109	3.859571	0.000139	1.391634	0.471498	0.000066
 542	2.7050e+01	10.8478	3.896639	0.000156	1.563441	0.529708	0.000074
 543	2.7100e+01	10.8687	3.933707	0.000156	1.563441	0.529708	0.000074
 544	2.7150e+01	10.8847	3.966702	0.000139	1.391634	0.471498	0.000066
 545	2.7200e+01	10.9120	4.000511	0.000143	1.425996	0.483140	0.000068
 546	2.7250e+01	10.9184	4.038394	0.000160	1.597802	0.541350	0.000076
 547	2.7300e+01	10.9521	4.070981	0.000137	1.374454	0.465677	0.000065
 548	2.7350e+01	10.9585	4.109272	0.000161	1.614983	0.547171	0.000077
 549	2.7400e+01	10.9922	4.139008	0.000125	1.254189	0.424931	0.000059
 550	2.7450e+01	10.9922	4.174039	-0.000148	-1.477538	-0.500603	0.000070
 551	2.7500e+01	11.0082	4.208663	0.000146	1.460357	0.494782	0.000069
 552	2.7550e+01	11.0484	4.244102	0.000149	1.494718	0.506424	0.000071
 553	2.7600e+01	11.0580	4.280356	0.000153	1.529080	0.518066	0.000073
 554	2.7650e+01	11.0724	4.311314	0.000131	1.305731	0.442394	0.000062
 555	2.7700e+01	11.0772	4.346345	0.000148	1.477538	0.500603	0.000070
 556	2.7750e+01	11.1173	4.380969	0.000146	1.460357	0.494782	0.000069
 557	2.7800e+01	11.1238	4.414779	0.000143	1.425996	0.483140	0.000068
 558	2.7850e+01	11.1462	4.449403	0.000146	1.460357	0.494782	0.000069
 559	2.7900e+01	11.1735	4.482805	0.000141	1.408815	0.477319	0.000067
 560	2.7950e+01	11.1959	4.513355	0.000129	1.288550	0.436573	0.000061
 561	2.8000e+01	11.2152	4.550831	0.000158	1.580622	0.535529	0.000075
 562	2.8050e+01	11.2168	4.587084	0.000153	1.529080	0.518066	0.000073
 563	2.8100e+01	11.2601	4.622116	0.000148	1.477538	0.500603	0.000070
 564	2.8150e+01	11.2633	4.651852	0.000125	1.254189	0.424931	0.000059
 565	2.8200e+01	11.2922	4.685254	0.000141	1.408815	0.477319	0.000067
 566	2.8250e+01	11.3243	4.718656	0.000141	1.408815	0.477319	0.000067
 567	2.8300e+01	11.3371	4.759390	0.000172	1.718067	0.582097	0.000081
 568	2.8350e+01	11.3403	4.793607	0.000144	1.443176	0.488961	0.000068
 569	2.8400e+01	11.3756	4.824565	0.000131	1.305731	0.442394	0.000062
 570	2.8450e+01	11.4109	4.857560	0.000139	1.391634	0.471498	0.000066
 571	2.8500e+01	11.4237	4.893406	0.000151	1.511899	0.512245	0.000072
 572	2.8550e+01	11.4350	4.926401	0.000139	1.391634	0.471498	0.000066
 573	2.8600e+01	11.4270	4.967135	-0.000172	-1.718067	-0.582097	0.000081
 574	2.8650e+01	11.4719	5.001759	0.000146	1.460357	0.494782	0.000069
 575	2.8700e+01	11.5056	5.031495	0.000125	1.254189	0.424931	0.000059
 576	2.8750e+01	11.5296	5.064897	0.000141	1.408815	0.477319	0.000067
 577	2.8800e+01	11.5232	5.102373	-0.000158	-1.580622	-0.535529	0.000075
 578	2.8850e+01	11.5521	5.130479	0.000119	1.185466	0.401647	0.000056
 579	2.8900e+01	11.5842	5.168362	0.000160	1.597802	0.541350	0.000076
 580	2.8950e+01	11.5585	5.196876	-0.000120	-1.202647	-0.407468	0.000057
 581	2.9000e+01	11.6227	5.228242	0.000132	1.322912	0.448215	0.000063
 582	2.9050e+01	11.6355	5.266125	0.000160	1.597802	0.541350	0.000076
 583	2.9100e+01	11.6580	5.301156	0.000148	1.477538	0.500603	0.000070
 584	2.9150e+01	11.6852	5.327633	0.000112	1.116744	0.378363	0.000053
 585	2.9200e+01	11.6820	5.362665	-0.000148	-1.477538	-0.500603	0.000070
 586	2.9250e+01	11.7013	5.396881	0.000144	1.443176	0.488961	0.000068
 587	2.9300e+01	11.7510	5.429062	0.000136	1.357273	0.459856	0.000064
 588	2.9350e+01	11.7542	5.461649	0.000137	1.374454	0.465677	0.000065
 589	2.9400e+01	11.7847	5.494644	0.000139	1.391634	0.471498	0.000066
 590	2.9450e+01	11.7783	5.524380	-0.000125	-1.254189	-0.424931	0.000059
 591	2.9500e+01	11.8168	5.559411	0.000148	1.477538	0.500603	0.000070
 592	2.9550e+01	11.8312	5.592406	0.000139	1.391634	0.471498	0.000066
 593	2.9600e+01	11.8376	5.618068	0.000108	1.082382	0.366721	0.000051
 594	2.9650e+01	11.8777	5.659210	0.000174	1.735248	0.587918	0.000082
 595	2.9700e+01	11.9050	5.690168	0.000131	1.305731	0.442394	0.000062
 596	2.9750e+01	11.9323	5.723163	0.000139	1.391634	0.471498	0.000066
 597	2.9800e+01	11.9355	5.757787	0.000146	1.460357	0.494782	0.000069
 598	2.9850e+01	11.9772	5.789152	0.000132	1.322912	0.448215	0.000063
 599	2.9900e+01	11.9788	5.820925	0.000134	1.340092	0.454036	0.000064
 600	2.9950e+01	12.0061	5.854734	0.000143	1.425996	0.483140	0.000068
 601	3.0000e+01	12.0045	5.886915	-0.000136	-1.357273	-0.459856	0.000064
 602	3.0050e+01	12.0494	5.920724	0.000143	1.425996	0.483140	0.000068
 603	3.0100e+01	12.0494	5.957385	-0.000155	-1.546260	-0.523887	0.000073
 604	3.0150e+01	12.0863	5.990380	0.000139	1.391634	0.471498	0.000066
 605	3.0200e+01	12.1136	6.020116	0.000125	1.254189	0.424931	0.000059
 606	3.0250e+01	12.1184	6.048630	0.000120	1.202647	0.407468	0.000057
 607	3.0300e+01	12.1216	6.084476	0.000151	1.511899	0.512245	0.000072
 608	3.0350e+01	12.1473	6.113397	0.000122	1.219828	0.413289	0.000058
 609	3.0400e+01	12.1585	6.148836	0.000149	1.494718	0.506424	0.000071
 610	3.0450e+01	12.2050	6.181016	0.000136	1.357273	0.459856	0.000064
 611	3.0500e+01	12.2146	6.214011	0.000139	1.391634	0.471498	0.000066
 612	3.0550e+01	12.2307	6.243339	0.000124	1.237008	0.419110	0.000059
 613	3.0600e+01	12.2884	6.277963	0.000146	1.460357	0.494782	0.000069
 614	3.0650e+01	12.2612	6.307292	-0.000124	-1.237008	-0.419110	0.000059
 615	3.0700e+01	12.2964	6.332547	0.000107	1.065201	0.360900	0.000051
 616	3.0750e+01	12.2997	6.369208	0.000155	1.546260	0.523887	0.000073
 617	3.0800e+01	12.3125	6.400166	0.000131	1.305731	0.442394	0.000062
 618	3.0850e+01	12.3430	6.431124	0.000131	1.305731	0.442394	0.000062
 619	3.0900e+01	12.3767	6.463712	0.000137	1.374454	0.465677	0.000065
 620	3.0950e+01	12.3911	6.499965	0.000153	1.529080	0.518066	0.000073
 621	3.1000e+01	12.3991	6.533367	0.000141	1.408815	0.477319	0.000067
 622	3.1050e+01	12.4440	6.561881	0.000120	1.202647	0.407468	0.000057
 623	3.1100e+01	12.4745	6.596913	0.000148	1.477538	0.500603	0.000070
 624	3.1150e+01	12.4601	6.625834	-0.000122	-1.219828	-0.413289	0.000058
 625	3.1200e+01	12.4938	6.657607	0.000134	1.340092	0.454036	0.000064
 626	3.1250e+01	12.5066	6.690194	0.000137	1.374454	0.465677	0.000065
 627	3.1300e+01	12.5451	6.726448	0.000153	1.529080	0.518066	0.000073
 628	3.1350e+01	12.5724	6.756184	0.000125	1.254189	0.424931	0.000059
 629	3.1400e+01	12.5772	6.791622	0.000149	1.494718	0.506424	0.000071
 630	3.1450e+01	12.5708	6.824617	-0.000139	-1.391634	-0.471498	0.000066
 631	3.1500e+01	12.6173	6.859649	0.000148	1.477538	0.500603	0.000070
 632	3.1550e+01	12.6606	6.891014	0.000132	1.322912	0.448215	0.000063
 633	3.1600e+01	12.6558	6.917899	-0.000113	-1.133924	-0.384184	0.000054
 634	3.1650e+01	12.6750	6.951301	0.000141	1.408815	0.477319	0.000067
 635	3.1700e+01	12.6943	6.982666	0.000132	1.322912	0.448215	0.000063
 636	3.1750e+01	12.6879	7.016068	-0.000141	-1.408815	-0.477319	0.000067
 637	3.1800e+01	12.7585	7.052322	0.000153	1.529080	0.518066	0.000073
 638	3.1850e+01	12.7681	7.078392	0.000110	1.099563	0.372542	0.000052
 639	3.1900e+01	12.7665	7.110572	-0.000136	-1.357273	-0.459856	0.000064
 640	3.1950e+01	12.7922	7.145196	0.000146	1.460357	0.494782	0.000069
 641	3.2000e+01	12.8194	7.174932	0.000125	1.254189	0.424931	0.000059
 642	3.2050e+01	12.8323	7.205482	0.000129	1.288550	0.436573	0.000061
 643	3.2100e+01	12.8499	7.238070	0.000137	1.374454	0.465677	0.000065
 644	3.2150e+01	12.8531	7.273916	0.000151	1.511899	0.512245	0.000072
 645	3.2200e+01	12.9125	7.304874	0.000131	1.305731	0.442394	0.000062
 646	3.2250e+01	12.9012	7.341942	-0.000156	-1.563441	-0.529708	0.000074
 647	3.2300e+01	12.9365	7.374122	0.000136	1.357273	0.459856	0.000064
 648	3.2350e+01	12.9526	7.408746	0.000146	1.460357	0.494782	0.000069
 649	3.2400e+01	12.9798	7.436038	0.000115	1.151105	0.390005	0.000055
 650	3.2450e+01	12.9847	7.466996	0.000131	1.305731	0.442394	0.000062
 651	3.2500e+01	13.0216	7.499584	0.000137	1.374454	0.465677	0.000065
 652	3.2550e+01	13.0344	7.535023	0.000149	1.494718	0.506424	0.000071
 653	3.2600e+01	13.0809	7.569647	0.000146	1.460357	0.494782	0.000069
 654	3.2650e+01	13.0745	7.603456	-0.000143	-1.425996	-0.483140	0.000068
 655	3.2700e+01	13.1034	7.638080	0.000146	1.460357	0.494782	0.000069
 656	3.2750e+01	13.1130	7.671890	0.000143	1.425996	0.483140	0.000068
 657	3.2800e+01	13.1419	7.706921	0.000148	1.477538	0.500603	0.000070
 658	3.2850e+01	13.1499	7.740731	0.000143	1.425996	0.483140	0.000068
 659	3.2900e+01	13.1740	7.769652	0.000122	1.219828	0.413289	0.000058
 660	3.2950e+01	13.1868	7.802647	0.000139	1.391634	0.471498	0.000066
 661	3.3000e+01	13.2093	7.839307	0.000155	1.546260	0.523887	0.000073
 662	3.3050e+01	13.2189	7.871895	0.000137	1.374454	0.465677	0.000065
 663	3.3100e+01	13.2686	7.908963	0.000156	1.563441	0.529708	0.000074
 664	3.3150e+01	13.2943	7.940736	0.000134	1.340092	0.454036	0.000064
 665	3.3200e+01	13.2879	7.969657	-0.000122	-1.219828	-0.413289	0.000058
 666	3.3250e+01	13.2975	8.006318	0.000155	1.546260	0.523887	0.000073
 667	3.3300e+01	13.3408	8.042979	0.000155	1.546260	0.523887	0.000073
 668	3.3350e+01	13.3601	8.071900	0.000122	1.219828	0.413289	0.000058
 669	3.3400e+01	13.3713	8.113042	0.000174	1.735248	0.587918	0.000082
 670	3.3450e+01	13.3873	8.142370	0.000124	1.237008	0.419110	0.000059
 671	3.3500e+01	13.4226	8.176180	0.000143	1.425996	0.483140	0.000068
 672	3.3550e+01	13.4146	8.209174	-0.000139	-1.391634	-0.471498	0.000066
 673	3.3600e+01	13.4435	8.245835	0.000155	1.546260	0.523887	0.000073
 674	3.3650e+01	13.4740	8.276793	0.000131	1.305731	0.442394	0.000062
 675	3.3700e+01	13.4723	8.311417	-0.000146	-1.460357	-0.494782	0.000069
 676	3.3750e+01	13.5189	8.342375	0.000131	1.305731	0.442394	0.000062
 677	3.3800e+01	13.5237	8.379036	0.000155	1.546260	0.523887	0.000073
 678	3.3850e+01	13.5654	8.407143	0.000119	1.185466	0.401647	0.000056
 679	3.3900e+01	13.5622	8.446248	-0.000165	-1.649344	-0.558813	0.000078
 680	3.3950e+01	13.5782	8.475984	0.000125	1.254189	0.424931	0.000059
 681	3.4000e+01	13.6215	8.510201	0.000144	1.443176	0.488961	0.000068
 682	3.4050e+01	13.6424	8.546454	0.000153	1.529080	0.518066	0.000073
 683	3.4100e+01	13.6761	8.577819	0.000132	1.322912	0.448215	0.000063
 684	3.4150e+01	13.6697	8.611629	-0.000143	-1.425996	-0.483140	0.000068
 685	3.4200e+01	13.6809	8.645438	0.000143	1.425996	0.483140	0.000068
 686	3.4250e+01	13.7194	8.677618	0.000136	1.357273	0.459856	0.000064
 687	3.4300e+01	13.7483	8.711835	0.000144	1.443176	0.488961	0.000068
 688	3.4350e+01	13.7386	8.746867	-0.000148	-1.477538	-0.500603	0.000070
 689	3.4400e+01	13.7755	8.782713	0.000151	1.511899	0.512245	0.000072
 690	3.4450e+01	13.8124	8.816930	0.000144	1.443176	0.488961	0.000068
 691	3.4500e+01	13.8205	8.847073	0.000127	1.271370	0.430752	0.000060
 692	3.4550e+01	13.8381	8.882919	0.000151	1.511899	0.512245	0.000072
 693	3.4600e+01	13.8542	8.918358	0.000149	1.494718	0.506424	0.000071
 694	3.4650e+01	13.8542	8.949723	-0.000132	-1.322912	-0.448215	0.000063
 695	3.4700e+01	13.8814	8.985569	0.000151	1.511899	0.512245	0.000072
 696	3.4750e+01	13.9231	9.016527	0.000131	1.305731	0.442394	0.000062
 697	3.4800e+01	13.9215	9.050744	-0.000144	-1.443176	-0.488961	0.000068
 698	3.4850e+01	13.9600	9.086590	0.000151	1.511899	0.512245	0.000072
 699	3.4900e+01	13.9825	9.116326	0.000125	1.254189	0.424931	0.000059
 700	3.4950e+01	13.9809	9.152172	-0.000151	-1.511899	-0.512245	0.000072
 701	3.5000e+01	14.0050	9.186797	0.000146	1.460357	0.494782	0.000069
 702	3.5050e+01	14.0210	9.222643	0.000151	1.511899	0.512245	0.000072
 703	3.5100e+01	14.0627	9.253193	0.000129	1.288550	0.436573	0.000061
 704	3.5150e+01	14.0852	9.285781	0.000137	1.374454	0.465677	0.000065
 705	3.5200e+01	14.0964	9.319998	0.000144	1.443176	0.488961	0.000068
 706	3.5250e+01	14.1253	9.353807	0.000143	1.425996	0.483140	0.000068
 707	3.5300e+01	14.1189	9.388431	-0.000146	-1.460357	-0.494782	0.000069
 708	3.5350e+01	14.1638	9.420611	0.000136	1.357273	0.459856	0.000064
 709	3.5400e+01	14.1878	9.455235	0.000146	1.460357	0.494782	0.000069
 710	3.5450e+01	14.1846	9.488637	-0.000141	-1.408815	-0.477319	0.000067
 711	3.5500e+01	14.2103	9.526928	0.000161	1.614983	0.547171	0.000077
 712	3.5550e+01	14.2247	9.551368	0.000103	1.030840	0.349258	0.000049
 713	3.5600e+01	14.2408	9.585992	0.000146	1.460357	0.494782	0.000069
 714	3.5650e+01	14.2713	9.617358	0.000132	1.322912	0.448215	0.000063
 715	3.5700e+01	14.2953	9.655240	0.000160	1.597802	0.541350	0.000076
 716	3.5750e+01	14.3178	9.685791	0.000129	1.288550	0.436573	0.000061
 717	3.5800e+01	14.3146	9.723267	-0.000158	-1.580622	-0.535529	0.000075
 718	3.5850e+01	14.3483	9.753817	0.000129	1.288550	0.436573	0.000061
 719	3.5900e+01	14.3691	9.792515	0.000163	1.632164	0.552992	0.000077
 720	3.5950e+01	14.3980	9.821436	0.000122	1.219828	0.413289	0.000058
 721	3.6000e+01	14.4301	9.858912	0.000158	1.580622	0.535529	0.000075
 722	3.6050e+01	14.4413	9.890277	0.000132	1.322912	0.448215	0.000063
 723	3.6100e+01	14.4734	9.922865	0.000137	1.374454	0.465677	0.000065
 724	3.6150e+01	14.4702	9.961155	-0.000161	-1.614983	-0.547171	0.000077
 725	3.6200e+01	14.5071	9.992520	0.000132	1.322912	0.448215	0.000063
 726	3.6250e+01	14.5279	10.029181	0.000155	1.546260	0.523887	0.000073
 727	3.6300e+01	14.5424	10.063805	0.000146	1.460357	0.494782	0.000069
 728	3.6350e+01	14.5616	10.096392	0.000137	1.374454	0.465677	0.000065
 729	3.6400e+01	14.5712	10.123684	0.000115	1.151105	0.390005	0.000055
 730	3.6450e+01	14.5729	10.160753	0.000156	1.563441	0.529708	0.000074
 731	3.6500e+01	14.5985	10.191303	0.000129	1.288550	0.436573	0.000061
 732	3.6550e+01	14.6210	10.227964	0.000155	1.546260	0.523887	0.000073
 733	3.6600e+01	14.6450	10.258515	0.000129	1.288550	0.436573	0.000061
 734	3.6650e+01	14.6611	10.296398	0.000160	1.597802	0.541350	0.000076
 735	3.6700e+01	14.7012	10.330614	0.000144	1.443176	0.488961	0.000068
 736	3.6750e+01	14.7108	10.364424	0.000143	1.425996	0.483140	0.000068
 737	3.6800e+01	14.7317	10.394567	0.000127	1.271370	0.430752	0.000060
 738	3.6850e+01	14.7622	10.425933	0.000132	1.322912	0.448215	0.000063
 739	3.6900e+01	14.7766	10.458927	0.000139	1.391634	0.471498	0.000066
 740	3.6950e+01	14.7926	10.491107	0.000136	1.357273	0.459856	0.000064
 741	3.7000e+01	14.8087	10.527361	0.000153	1.529080	0.518066	0.000073
 742	3.7050e+01	14.8327	10.557504	0.000127	1.271370	0.430752	0.000060
 743	3.7100e+01	14.8440	10.596609	0.000165	1.649344	0.558813	0.000078
 744	3.7150e+01	14.8841	10.630826	0.000144	1.443176	0.488961	0.000068
 745	3.7200e+01	14.9178	10.659747	0.000122	1.219828	0.413289	0.000058
 746	3.7250e+01	14.9146	10.696001	-0.000153	-1.529080	-0.518066	0.000073
 747	3.7300e+01	14.9242	10.728588	0.000137	1.374454	0.465677	0.000065
 748	3.7350e+01	14.9418	10.764434	0.000151	1.511899	0.512245	0.000072
 749	3.7400e+01	14.9691	10.799058	0.000146	1.460357	0.494782	0.000069
 750	3.7450e+01	14.9691	10.833275	-0.000144	-1.443176	-0.488961	0.000068
 751	3.7500e+01	15.0172	10.868307	0.000148	1.477538	0.500603	0.000070
 752	3.7550e+01	15.0461	10.901709	0.000141	1.408815	0.477319	0.000067
 753	3.7600e+01	15.0557	10.938777	0.000156	1.563441	0.529708	0.000074
 754	3.7650e+01	15.0798	10.974216	0.000149	1.494718	0.506424	0.000071
 755	3.7700e+01	15.1087	11.006396	0.000136	1.357273	0.459856	0.000064
 756	3.7750e+01	15.1183	11.040613	0.000144	1.443176	0.488961	0.000068
 757	3.7800e+01	15.1167	11.073200	-0.000137	-1.374454	-0.465677	0.000065
 758	3.7850e+01	15.1584	11.107824	0.000146	1.460357	0.494782	0.000069
 759	3.7900e+01	15.1648	11.142448	0.000146	1.460357	0.494782	0.000069
 760	3.7950e+01	15.2001	11.181960	0.000167	1.666525	0.564634	0.000079
 761	3.8000e+01	15.1825	11.214140	-0.000136	-1.357273	-0.459856	0.000064
 762	3.8050e+01	15.2274	11.246728	0.000137	1.374454	0.465677	0.000065
 763	3.8100e+01	15.2595	11.278501	0.000134	1.340092	0.454036	0.000064
 764	3.8150e+01	15.2514	11.313532	-0.000148	-1.477538	-0.500603	0.000070
 765	3.8200e+01	15.2980	11.342861	0.000124	1.237008	0.419110	0.000059
 766	3.8250e+01	15.3268	11.382373	0.000167	1.666525	0.564634	0.000079
 767	3.8300e+01	15.3365	11.414960	0.000137	1.374454	0.465677	0.000065
 768	3.8350e+01	15.3397	11.448770	0.000143	1.425996	0.483140	0.000068
 769	3.8400e+01	15.3541	11.480950	0.000136	1.357273	0.459856	0.000064
 770	3.8450e+01	15.3878	11.515981	0.000148	1.477538	0.500603	0.000070
 771	3.8500e+01	15.4151	11.544088	0.000119	1.185466	0.401647	0.000056
 772	3.8550e+01	15.4327	11.585230	0.000174	1.735248	0.587918	0.000082
 773	3.8600e+01	15.4327	11.619446	-0.000144	-1.443176	-0.488961	0.000068
 774	3.8650e+01	15.4873	11.654478	0.000148	1.477538	0.500603	0.000070
 775	3.8700e+01	15.4969	11.688695	0.000144	1.443176	0.488961	0.000068
 776	3.8750e+01	15.4905	11.721282	-0.000137	-1.374454	-0.465677	0.000065
 777	3.8800e+01	15.5370	11.755499	0.000144	1.443176	0.488961	0.000068
 778	3.8850e+01	15.5482	11.789715	0.000144	1.443176	0.488961	0.000068
 779	3.8900e+01	15.5755	11.830450	0.000172	1.718067	0.582097	0.000081
 780	3.8950e+01	15.5771	11.864259	0.000143	1.425996	0.483140	0.000068
 781	3.9000e+01	15.6413	11.898069	0.000143	1.425996	0.483140	0.000068
 782	3.9050e+01	15.6509	11.934729	0.000155	1.546260	0.523887	0.000073
 783	3.9100e+01	15.6429	11.963243	-0.000120	-1.202647	-0.407468	0.000057
 784	3.9150e+01	15.6381	12.000312	-0.000156	-1.563441	-0.529708	0.000074
 785	3.9200e+01	15.7022	12.031677	0.000132	1.322912	0.448215	0.000063
 786	3.9250e+01	15.7215	12.060598	0.000122	1.219828	0.413289	0.000058
 787	3.9300e+01	15.7359	12.100518	0.000168	1.683706	0.570455	0.000080
 788	3.9350e+01	15.7552	12.133920	0.000141	1.408815	0.477319	0.000067
 789	3.9400e+01	15.7744	12.165285	0.000132	1.322912	0.448215	0.000063
 790	3.9450e+01	15.7889	12.202353	0.000156	1.563441	0.529708	0.000074
 791	3.9500e+01	15.8065	12.233719	0.000132	1.322912	0.448215	0.000063
 792	3.9550e+01	15.8145	12.264677	0.000131	1.305731	0.442394	0.000062
 793	3.9600e+01	15.8290	12.299301	0.000146	1.460357	0.494782	0.000069
 794	3.9650e+01	15.9220	12.331888	0.000137	1.374454	0.465677	0.000065
 795	3.9700e+01	15.8819	12.368549	-0.000155	-1.546260	-0.523887	0.000073
 796	3.9750e+01	15.9332	12.400322	0.000134	1.340092	0.454036	0.000064
 797	3.9800e+01	15.9300	12.434539	-0.000144	-1.443176	-0.488961	0.000068
 798	3.9850e+01	15.9605	12.465904	0.000132	1.322912	0.448215	0.000063
 799	3.9900e+01	15.9766	12.501343	0.000149	1.494718	0.506424	0.000071
 800	3.9950e+01	15.9958	12.533116	0.000134	1.340092	0.454036	0.000064
 801	4.0000e+01	16.0247	12.564074	0.000131	1.305731	0.442394	0.000062
 802	4.0050e+01	16.0600	12.599920	0.000151	1.511899	0.512245	0.000072
 803	4.0100e+01	16.0423	12.631285	-0.000132	-1.322912	-0.448215	0.000063
 804	4.0150e+01	16.0632	12.668353	0.000156	1.563441	0.529708	0.000074
 805	4.0200e+01	16.1001	12.698904	0.000129	1.288550	0.436573	0.000061
 806	4.0250e+01	16.1161	12.734750	0.000151	1.511899	0.512245	0.000072
 807	4.0300e+01	16.1161	12.771004	-0.000153	-1.529080	-0.518066	0.000073
 808	4.0350e+01	16.1723	12.800740	0.000125	1.254189	0.424931	0.000059
 809	4.0400e+01	16.1498	12.831698	-0.000131	-1.305731	-0.442394	0.000062
 810	4.0450e+01	16.2011	12.865507	0.000143	1.425996	0.483140	0.000068
 811	4.0500e+01	16.2124	12.898909	0.000141	1.408815	0.477319	0.000067
 812	4.0550e+01	16.2509	12.928645	0.000125	1.254189	0.424931	0.000059
 813	4.0600e+01	16.2685	12.964899	0.000153	1.529080	0.518066	0.000073
 814	4.0650e+01	16.2749	12.997079	0.000136	1.357273	0.459856	0.000064
 815	4.0700e+01	16.2974	13.032110	0.000148	1.477538	0.500603	0.000070
 816	4.0750e+01	16.3038	13.058588	0.000112	1.116744	0.378363	0.000053
 817	4.0800e+01	16.3006	13.095248	-0.000155	-1.546260	-0.523887	0.000073
 818	4.0850e+01	16.3279	13.124984	0.000125	1.254189	0.424931	0.000059
 819	4.0900e+01	16.3423	13.158386	0.000141	1.408815	0.477319	0.000067
 820	4.0950e+01	16.3904	13.189344	0.000131	1.305731	0.442394	0.000062
 821	4.1000e+01	16.4097	13.225191	0.000151	1.511899	0.512245	0.000072
 822	4.1050e+01	16.4322	13.253297	0.000119	1.185466	0.401647	0.000056
 823	4.1100e+01	16.4594	13.290365	0.000156	1.563441	0.529708	0.000074
 824	4.1150e+01	16.4739	13.317657	0.000115	1.151105	0.390005	0.000055
 825	4.1200e+01	16.5060	13.349430	0.000134	1.340092	0.454036	0.000064
 826	4.1250e+01	16.5108	13.381610	0.000136	1.357273	0.459856	0.000064
 827	4.1300e+01	16.5509	13.415012	0.000141	1.408815	0.477319	0.000067
 828	4.1350e+01	16.5493	13.442712	-0.000117	-1.168286	-0.395826	0.000055
 829	4.1400e+01	16.5765	13.472855	0.000127	1.271370	0.430752	0.000060
 830	4.1450e+01	16.5926	13.507886	0.000148	1.477538	0.500603	0.000070
 831	4.1500e+01	16.6038	13.538437	0.000129	1.288550	0.436573	0.000061
 832	4.1550e+01	16.6263	13.574691	0.000153	1.529080	0.518066	0.000073
 833	4.1600e+01	16.6680	13.608093	0.000141	1.408815	0.477319	0.000067
 834	4.1650e+01	16.6567	13.633348	-0.000107	-1.065201	-0.360900	0.000051
 835	4.1700e+01	16.6840	13.667972	0.000146	1.460357	0.494782	0.000069
 836	4.1750e+01	16.7193	13.696486	0.000120	1.202647	0.407468	0.000057
 837	4.1800e+01	16.7241	13.731517	0.000148	1.477538	0.500603	0.000070
 838	4.1850e+01	16.7626	13.764512	0.000139	1.391634	0.471498	0.000066
 839	4.1900e+01	16.7835	13.795878	0.000132	1.322912	0.448215	0.000063
 840	4.1950e+01	16.7979	13.826428	0.000129	1.288550	0.436573	0.000061
 841	4.2000e+01	16.7723	13.860645	-0.000144	-1.443176	-0.488961	0.000068
 842	4.2050e+01	16.8204	13.891603	0.000131	1.305731	0.442394	0.000062
 843	4.2100e+01	16.8605	13.920524	0.000122	1.219828	0.413289	0.000058
 844	4.2150e+01	16.8813	13.948631	0.000119	1.185466	0.401647	0.000056
 845	4.2200e+01	16.8942	13.982033	0.000141	1.408815	0.477319	0.000067
 846	4.2250e+01	16.9150	14.016657	0.000146	1.460357	0.494782	0.000069
 847	4.2300e+01	16.9407	14.046393	0.000125	1.254189	0.424931	0.000059
 848	4.2350e+01	16.9423	14.077351	0.000131	1.305731	0.442394	0.000062
 849	4.2400e+01	16.9680	14.111161	0.000143	1.425996	0.483140	0.000068
 850	4.2450e+01	16.9985	14.142933	0.000134	1.340092	0.454036	0.000064
 851	4.2500e+01	17.0001	14.173891	0.000131	1.305731	0.442394	0.000062
 852	4.2550e+01	17.0337	14.206071	0.000136	1.357273	0.459856	0.000064
 853	4.2600e+01	17.0353	14.235400	0.000124	1.237008	0.419110	0.000059
 854	4.2650e+01	17.0803	14.264321	0.000122	1.219828	0.413289	0.000058
 855	4.2700e+01	17.1059	14.297316	0.000139	1.391634	0.471498	0.000066
 856	4.2750e+01	17.1140	14.325830	0.000120	1.202647	0.407468	0.000057
 857	4.2800e+01	17.1252	14.359232	0.000141	1.408815	0.477319	0.000067
 858	4.2850e+01	17.1637	14.388561	0.000124	1.237008	0.419110	0.000059
 859	4.2900e+01	17.1557	14.424407	-0.000151	-1.511899	-0.512245	0.000072
 860	4.2950e+01	17.1926	14.450070	0.000108	1.082382	0.366721	0.000051
 861	4.3000e+01	17.2263	14.478991	0.000122	1.219828	0.413289	0.000058
 862	4.3050e+01	17.2487	14.509134	0.000127	1.271370	0.430752	0.000060
 863	4.3100e+01	17.2359	14.542129	-0.000139	-1.391634	-0.471498	0.000066
 864	4.3150e+01	17.3000	14.575124	0.000139	1.391634	0.471498	0.000066
 865	4.3200e+01	17.2519	14.604452	-0.000124	-1.237008	-0.419110	0.000059
 866	4.3250e+01	17.3145	14.632559	0.000119	1.185466	0.401647	0.000056
 867	4.3300e+01	17.3514	14.666776	0.000144	1.443176	0.488961	0.000068
 868	4.3350e+01	17.3578	14.695697	0.000122	1.219828	0.413289	0.000058
 869	4.3400e+01	17.3562	14.726248	-0.000129	-1.288550	-0.436573	0.000061
 870	4.3450e+01	17.3883	14.757613	0.000132	1.322912	0.448215	0.000063
 871	4.3500e+01	17.3995	14.786942	0.000124	1.237008	0.419110	0.000059
 872	4.3550e+01	17.4107	14.819937	0.000139	1.391634	0.471498	0.000066
 873	4.3600e+01	17.4541	14.854153	0.000144	1.443176	0.488961	0.000068
 874	4.3650e+01	17.4845	14.886334	0.000136	1.357273	0.459856	0.000064
 875	4.3700e+01	17.4990	14.914033	0.000117	1.168286	0.395826	0.000055
 876	4.3750e+01	17.5327	14.946213	0.000136	1.357273	0.459856	0.000064
 877	4.3800e+01	17.5423	14.977171	0.000131	1.305731	0.442394	0.000062
 878	4.3850e+01	17.5519	15.003648	0.000112	1.116744	0.378363	0.000053
 879	4.3900e+01	17.5712	15.035014	0.000132	1.322912	0.448215	0.000063
 880	4.3950e+01	17.6081	15.070452	0.000149	1.494718	0.506424	0.000071
 881	4.4000e+01	17.6209	15.097337	0.000113	1.133924	0.384184	0.000054
 882	4.4050e+01	17.6546	15.126666	0.000124	1.237008	0.419110	0.000059
 883	4.4100e+01	17.6498	15.160475	-0.000143	-1.425996	-0.483140	0.000068
 884	4.4150e+01	17.6786	15.189396	0.000122	1.219828	0.413289	0.000058
 885	4.4200e+01	17.7043	15.219540	0.000127	1.271370	0.430752	0.000060
 886	4.4250e+01	17.7412	15.250905	0.000132	1.322912	0.448215	0.000063
 887	4.4300e+01	17.7444	15.277790	0.000113	1.133924	0.384184	0.000054
 888	4.4350e+01	17.7412	15.306304	-0.000120	-1.202647	-0.407468	0.000057
 889	4.4400e+01	17.7813	15.334818	0.000120	1.202647	0.407468	0.000057
 890	4.4450e+01	17.7877	15.369442	0.000146	1.460357	0.494782	0.000069
 891	4.4500e+01	17.8022	15.400807	0.000132	1.322912	0.448215	0.000063
 892	4.4550e+01	17.8391	15.427692	0.000113	1.133924	0.384184	0.000054
 893	4.4600e+01	17.8551	15.460279	0.000137	1.374454	0.465677	0.000065
 894	4.4650e+01	17.8503	15.490015	-0.000125	-1.254189	-0.424931	0.000059
 895	4.4700e+01	17.8856	15.522195	0.000136	1.357273	0.459856	0.000064
 896	4.4750e+01	17.9225	15.549487	0.000115	1.151105	0.390005	0.000055
 897	4.4800e+01	17.9177	15.582075	-0.000137	-1.374454	-0.465677	0.000065
 898	4.4850e+01	17.9449	15.611403	0.000124	1.237008	0.419110	0.000059
 899	4.4900e+01	17.9658	15.642769	0.000132	1.322912	0.448215	0.000063
 900	4.4950e+01	18.0027	15.672505	0.000125	1.254189	0.424931	0.000059
 901	4.5000e+01	18.0139	15.708351	0.000151	1.511899	0.512245	0.000072
 902	4.5050e+01	18.0316	15.733199	0.000105	1.048021	0.355079	0.000050
 903	4.5100e+01	18.0380	15.767008	0.000143	1.425996	0.483140	0.000068
 904	4.5150e+01	18.0941	15.794707	0.000117	1.168286	0.395826	0.000055
 905	4.5200e+01	18.0925	15.824443	-0.000125	-1.254189	-0.424931	0.000059
 906	4.5250e+01	18.0925	15.852143	-0.000117	-1.168286	-0.395826	0.000055
 907	4.5300e+01	18.1150	15.889211	0.000156	1.563441	0.529708	0.000074
 908	4.5350e+01	18.1679	15.916910	0.000117	1.168286	0.395826	0.000055
 909	4.5400e+01	18.1695	15.950312	0.000141	1.408815	0.477319	0.000067
 910	4.5450e+01	18.1968	15.980456	0.000127	1.271370	0.430752	0.000060
 911	4.5500e+01	18.2193	16.013450	0.000139	1.391634	0.471498	0.000066
 912	4.5550e+01	18.2465	16.040335	0.000113	1.133924	0.384184	0.000054
 913	4.5600e+01	18.2562	16.066405	0.000110	1.099563	0.372542	0.000052
 914	4.5650e+01	18.2658	16.098178	0.000134	1.340092	0.454036	0.000064
 915	4.5700e+01	18.2963	16.125877	0.000117	1.168286	0.395826	0.000055
 916	4.5750e+01	18.3203	16.155613	0.000125	1.254189	0.424931	0.000059
 917	4.5800e+01	18.3316	16.188200	0.000137	1.374454	0.465677	0.000065
 918	4.5850e+01	18.3540	16.215900	0.000117	1.168286	0.395826	0.000055
 919	4.5900e+01	18.3604	16.242377	0.000112	1.116744	0.378363	0.000053
 920	4.5950e+01	18.4054	16.270891	0.000120	1.202647	0.407468	0.000057
 921	4.6000e+01	18.4374	16.302664	0.000134	1.340092	0.454036	0.000064
 922	4.6050e+01	18.4342	16.331585	-0.000122	-1.219828	-0.413289	0.000058
 923	4.6100e+01	18.4358	16.363358	0.000134	1.340092	0.454036	0.000064
 924	4.6150e+01	18.4519	16.386576	0.000098	0.979298	0.331795	0.000046
 925	4.6200e+01	18.4920	16.417534	0.000131	1.305731	0.442394	0.000062
 926	4.6250e+01	18.5080	16.447270	0.000125	1.254189	0.424931	0.000059
 927	4.6300e+01	18.5481	16.480265	0.000139	1.391634	0.471498	0.000066
 928	4.6350e+01	18.5289	16.505520	-0.000107	-1.065201	-0.360900	0.000051
 929	4.6400e+01	18.6011	16.536071	0.000129	1.288550	0.436573	0.000061
 930	4.6450e+01	18.6123	16.563770	0.000117	1.168286	0.395826	0.000055
 931	4.6500e+01	18.5931	16.595950	-0.000136	-1.357273	-0.459856	0.000064
 932	4.6550e+01	18.6364	16.624464	0.000120	1.202647	0.407468	0.000057
 933	4.6600e+01	18.6428	16.655015	0.000129	1.288550	0.436573	0.000061
 934	4.6650e+01	18.6588	16.687602	0.000137	1.374454	0.465677	0.000065
 935	4.6700e+01	18.7038	16.720190	0.000137	1.374454	0.465677	0.000065
 936	4.6750e+01	18.6957	16.744630	-0.000103	-1.030840	-0.349258	0.000049
 937	4.6800e+01	18.7374	16.778032	0.000141	1.408815	0.477319	0.000067
 938	4.6850e+01	18.7663	16.804510	0.000112	1.116744	0.378363	0.000053
 939	4.6900e+01	18.7615	16.831802	-0.000115	-1.151105	-0.390005	0.000055
 940	4.6950e+01	18.7824	16.860316	0.000120	1.202647	0.407468	0.000057
 941	4.7000e+01	18.8289	16.888830	0.000120	1.202647	0.407468	0.000057
 942	4.7050e+01	18.8241	16.920602	-0.000134	-1.340092	-0.454036	0.000064
 943	4.7100e+01	18.8401	16.948302	0.000117	1.168286	0.395826	0.000055
 944	4.7150e+01	18.8722	16.982111	0.000143	1.425996	0.483140	0.000068
 945	4.7200e+01	18.8898	17.003293	0.000089	0.893395	0.302690	0.000042
 946	4.7250e+01	18.9203	17.033843	0.000129	1.288550	0.436573	0.000061
 947	4.7300e+01	18.9476	17.061950	0.000119	1.185466	0.401647	0.000056
 948	4.7350e+01	18.9476	17.091279	-0.000124	-1.237008	-0.419110	0.000059
 949	4.7400e+01	18.9572	17.121829	0.000129	1.288550	0.436573	0.000061
 950	4.7450e+01	19.0053	17.145863	0.000101	1.013659	0.343437	0.000048
 951	4.7500e+01	19.0102	17.177228	0.000132	1.322912	0.448215	0.000063
 952	4.7550e+01	19.0070	17.208186	-0.000131	-1.305731	-0.442394	0.000062
 953	4.7600e+01	19.0390	17.236700	0.000120	1.202647	0.407468	0.000057
 954	4.7650e+01	19.0583	17.267658	0.000131	1.305731	0.442394	0.000062
 955	4.7700e+01	19.1160	17.291691	0.000101	1.013659	0.343437	0.000048
 956	4.7750e+01	19.1016	17.321835	-0.000127	-1.271370	-0.430752	0.000060
 957	4.7800e+01	19.1401	17.354422	0.000137	1.374454	0.465677	0.000065
 958	4.7850e+01	19.1658	17.380492	0.000110	1.099563	0.372542	0.000052
 959	4.7900e+01	19.1850	17.413079	0.000137	1.374454	0.465677	0.000065
 960	4.7950e+01	19.1962	17.440371	0.000115	1.151105	0.390005	0.000055
 961	4.8000e+01	19.2364	17.470922	0.000129	1.288550	0.436573	0.000061
 962	4.8050e+01	19.2267	17.496992	-0.000110	-1.099563	-0.372542	0.000052
 963	4.8100e+01	19.2540	17.532431	0.000149	1.494718	0.506424	0.000071
 964	4.8150e+01	19.2588	17.561759	0.000124	1.237008	0.419110	0.000059
 965	4.8200e+01	19.3085	17.595162	0.000141	1.408815	0.477319	0.000067
 966	4.8250e+01	19.3085	17.617565	-0.000094	-0.944937	-0.320153	0.000045
 967	4.8300e+01	19.3262	17.649745	0.000136	1.357273	0.459856	0.000064
 968	4.8350e+01	19.3358	17.679074	0.000124	1.237008	0.419110	0.000059
 969	4.8400e+01	19.3695	17.708810	0.000125	1.254189	0.424931	0.000059
 970	4.8450e+01	19.3968	17.733658	0.000105	1.048021	0.355079	0.000050
 971	4.8500e+01	19.4208	17.762987	0.000124	1.237008	0.419110	0.000059
 972	4.8550e+01	19.4674	17.793537	0.000129	1.288550	0.436573	0.000061
 973	4.8600e+01	19.4257	17.822866	-0.000124	-1.237008	-0.419110	0.000059
 974	4.8650e+01	19.4834	17.854231	0.000132	1.322912	0.448215	0.000063
 975	4.8700e+01	19.4898	17.882338	0.000119	1.185466	0.401647	0.000056
 976	4.8750e+01	19.5187	17.911667	0.000124	1.237008	0.419110	0.000059
 977	4.8800e+01	19.5267	17.939773	0.000119	1.185466	0.401647	0.000056
 978	4.8850e+01	19.5604	17.971953	0.000136	1.357273	0.459856	0.000064
 979	4.8900e+01	19.5588	18.003726	-0.000134	-1.340092	-0.454036	0.000064
 980	4.8950e+01	19.5941	18.035091	0.000132	1.322912	0.448215	0.000063
 981	4.9000e+01	19.6101	18.064420	0.000124	1.237008	0.419110	0.000059
 982	4.9050e+01	19.6310	18.094156	0.000125	1.254189	0.424931	0.000059
 983	4.9100e+01	19.6406	18.124299	0.000127	1.271370	0.430752	0.000060
 984	4.9150e+01	19.6631	18.156480	0.000136	1.357273	0.459856	0.000064
 985	4.9200e+01	19.6920	18.189067	0.000137	1.374454	0.465677	0.000065
 986	4.9250e+01	19.7192	18.220432	0.000132	1.322912	0.448215	0.000063
 987	4.9300e+01	19.7417	18.250983	0.000129	1.288550	0.436573	0.000061
 988	4.9350e+01	19.7658	18.286422	0.000149	1.494718	0.506424	0.000071
 989	4.9400e+01	19.7818	18.310455	0.000101	1.013659	0.343437	0.000048
 990	4.9450e+01	19.8026	18.346709	0.000153	1.529080	0.518066	0.000073
 991	4.9500e+01	19.8379	18.377259	0.000129	1.288550	0.436573	0.000061
 992	4.9550e+01	19.8203	18.406588	-0.000124	-1.237008	-0.419110	0.000059
 993	4.9600e+01	19.8540	18.439990	0.000141	1.408815	0.477319	0.000067
 994	4.9650e+01	19.8797	18.470948	0.000131	1.305731	0.442394	0.000062
 995	4.9700e+01	19.8829	18.503943	0.000139	1.391634	0.471498	0.000066
 996	4.9750e+01	19.8925	18.531642	0.000117	1.168286	0.395826	0.000055
 997	4.9800e+01	19.9390	18.565451	0.000143	1.425996	0.483140	0.000068
 998	4.9850e+01	19.9262	18.597224	-0.000134	-1.340092	-0.454036	0.000064
 999	4.9900e+01	19.9695	18.628182	0.000131	1.305731	0.442394	0.000062
1000	4.9950e+01	19.9839	18.663621	0.000149	1.494718	0.506424	0.000071
1001	5.0000e+01	20.0192	18.690098	0.000112	1.116744	0.378363	0.000053
1002	5.0050e+01	19.9919	18.677063	0.000055	0.549781	0.186271	-0.000026
1003	5.0100e+01	19.9823	18.658326	0.000079	0.790311	0.267765	-0.000037
1004	5.0150e+01	19.9358	18.640402	0.000076	0.755949	0.256123	-0.000036
1005	5.0200e+01	19.9406	18.622479	-0.000076	-0.755949	-0.256123	-0.000036
1006	5.0250e+01	19.8909	18.599261	0.000098	0.979298	0.331795	-0.000046
1007	5.0300e+01	19.8925	18.579708	-0.000082	-0.824672	-0.279406	-0.000039
1008	5.0350e+01	19.8797	18.556897	0.000096	0.962117	0.325974	-0.000046
1009	5.0400e+01	19.8219	18.539789	0.000072	0.721588	0.244481	-0.000034
1010	5.0450e+01	19.8299	18.512090	-0.000117	-1.168286	-0.395826	-0.000055
1011	5.0500e+01	19.8219	18.493759	0.000077	0.773130	0.261944	-0.000037
1012	5.0550e+01	19.7850	18.475429	0.000077	0.773130	0.261944	-0.000037
1013	5.0600e+01	19.7641	18.450174	0.000107	1.065201	0.360900	-0.000051
1014	5.0650e+01	19.7545	18.426955	0.000098	0.979298	0.331795	-0.000046
1015	5.0700e+01	19.7321	18.408625	0.000077	0.773130	0.261944	-0.000037
1016	5.0750e+01	19.7016	18.384999	0.000100	0.996479	0.337616	-0.000047
1017	5.0800e+01	19.6952	18.364224	0.000088	0.876214	0.296869	-0.000042
1018	5.0850e+01	19.6647	18.342228	0.000093	0.927756	0.314332	-0.000044
1019	5.0900e+01	19.6422	18.317787	0.000103	1.030840	0.349258	-0.000049
1020	5.0950e+01	19.6294	18.298235	0.000082	0.824672	0.279406	-0.000039
1021	5.1000e+01	19.6117	18.277868	0.000086	0.859033	0.291048	-0.000041
1022	5.1050e+01	19.5765	18.253020	0.000105	1.048021	0.355079	-0.000050
1023	5.1100e+01	19.5700	18.232653	0.000086	0.859033	0.291048	-0.000041
1024	5.1150e+01	19.5588	18.204953	0.000117	1.168286	0.395826	-0.000055
1025	5.1200e+01	19.5347	18.185401	0.000082	0.824672	0.279406	-0.000039
1026	5.1250e+01	19.5235	18.162590	0.000096	0.962117	0.325974	-0.000046
1027	5.1300e+01	19.4914	18.140186	0.000094	0.944937	0.320153	-0.000045
1028	5.1350e+01	19.4738	18.122670	0.000074	0.738769	0.250302	-0.000035
1029	5.1400e+01	19.4658	18.099859	0.000096	0.962117	0.325974	-0.000046
1030	5.1450e+01	19.4289	18.075826	0.000101	1.013659	0.343437	-0.000048
1031	5.1500e+01	19.4016	18.048941	0.000113	1.133924	0.384184	-0.000054
1032	5.1550e+01	19.3823	18.027352	0.000091	0.910575	0.308511	-0.000043
1033	5.1600e+01	19.3647	18.008614	0.000079	0.790311	0.267765	-0.000037
1034	5.1650e+01	19.3583	17.984174	0.000103	1.030840	0.349258	-0.000049
1035	5.1700e+01	19.3166	17.962992	0.000089	0.893395	0.302690	-0.000042
1036	5.1750e+01	19.3102	17.934478	0.000120	1.202647	0.407468	-0.000057
1037	5.1800e+01	19.2957	17.915740	0.000079	0.790311	0.267765	-0.000037
1038	5.1850e+01	19.2492	17.890485	0.000107	1.065201	0.360900	-0.000051
1039	5.1900e+01	19.2476	17.869303	0.000089	0.893395	0.302690	-0.000042
1040	5.1950e+01	19.2107	17.844048	0.000107	1.065201	0.360900	-0.000051
1041	5.2000e+01	19.2235	17.820422	-0.000100	-0.996479	-0.337616	-0.000047
1042	5.2050e+01	19.1786	17.795167	0.000107	1.065201	0.360900	-0.000051
1043	5.2100e+01	19.2123	17.769911	-0.000107	-1.065201	-0.360900	-0.000051
1044	5.2150e+01	19.1385	17.746286	0.000100	0.996479	0.337616	-0.000047
1045	5.2200e+01	19.1321	17.726326	0.000084	0.841853	0.285227	-0.000040
1046	5.2250e+01	19.1225	17.701478	0.000105	1.048021	0.355079	-0.000050
1047	5.2300e+01	19.0888	17.675408	0.000110	1.099563	0.372542	-0.000052
1048	5.2350e+01	19.0968	17.651375	-0.000101	-1.013659	-0.343437	-0.000048
1049	5.2400e+01	19.0438	17.628971	0.000094	0.944937	0.320153	-0.000045
1050	5.2450e+01	19.0294	17.604938	0.000101	1.013659	0.343437	-0.000048
1051	5.2500e+01	19.0021	17.579682	0.000107	1.065201	0.360900	-0.000051
1052	5.2550e+01	18.9957	17.562981	0.000070	0.704407	0.238660	-0.000033
1053	5.2600e+01	18.9524	17.536097	0.000113	1.133924	0.384184	-0.000054
1054	5.2650e+01	18.9476	17.511656	0.000103	1.030840	0.349258	-0.000049
1055	5.2700e+01	18.9540	17.488845	-0.000096	-0.962117	-0.325974	-0.000046
1056	5.2750e+01	18.9011	17.465219	0.000100	0.996479	0.337616	-0.000047
1057	5.2800e+01	18.8818	17.442408	0.000096	0.962117	0.325974	-0.000046
1058	5.2850e+01	18.8722	17.418782	0.000100	0.996479	0.337616	-0.000047
1059	5.2900e+01	18.8754	17.392305	-0.000112	-1.116744	-0.378363	-0.000053
1060	5.2950e+01	18.8433	17.366235	0.000110	1.099563	0.372542	-0.000052
1061	5.3000e+01	18.8241	17.343016	0.000098	0.979298	0.331795	-0.000046
1062	5.3050e+01	18.7872	17.320205	0.000096	0.962117	0.325974	-0.000046
1063	5.3100e+01	18.7920	17.294135	-0.000110	-1.099563	-0.372542	-0.000052
1064	5.3150e+01	18.7615	17.270509	0.000100	0.996479	0.337616	-0.000047
1065	5.3200e+01	18.7503	17.246069	0.000103	1.030840	0.349258	-0.000049
1066	5.3250e+01	18.7615	17.218370	-0.000117	-1.168286	-0.395826	-0.000055
1067	5.3300e+01	18.7166	17.193522	0.000105	1.048021	0.355079	-0.000050
1068	5.3350e+01	18.6733	17.170711	0.000096	0.962117	0.325974	-0.000046
1069	5.3400e+01	18.6540	17.147085	0.000100	0.996479	0.337616	-0.000047
1070	5.3450e+01	18.6348	17.118978	0.000119	1.185466	0.401647	-0.000056
1071	5.3500e+01	18.6155	17.096167	0.000096	0.962117	0.325974	-0.000046
1072	5.3550e+01	18.5786	17.070912	0.000107	1.065201	0.360900	-0.000051
1073	5.3600e+01	18.5786	17.047693	0.000098	0.979298	0.331795	-0.000046
1074	5.3650e+01	18.5578	17.024882	0.000096	0.962117	0.325974	-0.000046
1075	5.3700e+01	18.5481	16.997183	0.000117	1.168286	0.395826	-0.000055
1076	5.3750e+01	18.5064	16.972742	0.000103	1.030840	0.349258	-0.000049
1077	5.3800e+01	18.4824	16.951153	0.000091	0.910575	0.308511	-0.000043
1078	5.3850e+01	18.4439	16.923046	0.000119	1.185466	0.401647	-0.000056
1079	5.3900e+01	18.4455	16.898198	-0.000105	-1.048021	-0.355079	-0.000050
1080	5.3950e+01	18.4278	16.874573	0.000100	0.996479	0.337616	-0.000047
1081	5.4000e+01	18.3925	16.852169	0.000094	0.944937	0.320153	-0.000045
1082	5.4050e+01	18.3829	16.828543	0.000100	0.996479	0.337616	-0.000047
1083	5.4100e+01	18.4022	16.807361	-0.000089	-0.893395	-0.302690	-0.000042
1084	5.4150e+01	18.3572	16.779254	0.000119	1.185466	0.401647	-0.000056
1085	5.4200e+01	18.3588	16.759295	-0.000084	-0.841853	-0.285227	-0.000040
1086	5.4250e+01	18.3219	16.735261	0.000101	1.013659	0.343437	-0.000048
1087	5.4300e+01	18.2866	16.710413	0.000105	1.048021	0.355079	-0.000050
1088	5.4350e+01	18.2578	16.683936	0.000112	1.116744	0.378363	-0.000053
1089	5.4400e+01	18.2530	16.661125	0.000096	0.962117	0.325974	-0.000046
1090	5.4450e+01	18.2241	16.636684	0.000103	1.030840	0.349258	-0.000049
1091	5.4500e+01	18.1984	16.614281	0.000094	0.944937	0.320153	-0.000045
1092	5.4550e+01	18.1711	16.588618	0.000108	1.082382	0.366721	-0.000051
1093	5.4600e+01	18.1856	16.564178	-0.000103	-1.030840	-0.349258	-0.000049
1094	5.4650e+01	18.1551	16.534034	0.000127	1.271370	0.430752	-0.000060
1095	5.4700e+01	18.1455	16.516111	0.000076	0.755949	0.256123	-0.000036
1096	5.4750e+01	18.1198	16.490449	0.000108	1.082382	0.366721	-0.000051
1097	5.4800e+01	18.0749	16.466823	0.000100	0.996479	0.337616	-0.000047
1098	5.4850e+01	18.0717	16.437087	0.000125	1.254189	0.424931	-0.000059
1099	5.4900e+01	18.0637	16.416312	0.000088	0.876214	0.296869	-0.000042
1100	5.4950e+01	18.0556	16.391057	0.000107	1.065201	0.360900	-0.000051
1101	5.5000e+01	17.9867	16.367838	0.000098	0.979298	0.331795	-0.000046
1102	5.5050e+01	18.0091	16.340139	-0.000117	-1.168286	-0.395826	-0.000055
1103	5.5100e+01	17.9979	16.313255	0.000113	1.133924	0.384184	-0.000054
1104	5.5150e+01	17.9353	16.292887	0.000086	0.859033	0.291048	-0.000041
1105	5.5200e+01	17.9578	16.263559	-0.000124	-1.237008	-0.419110	-0.000059
1106	5.5250e+01	17.8920	16.246043	0.000074	0.738769	0.250302	-0.000035
1107	5.5300e+01	17.9032	16.218344	-0.000117	-1.168286	-0.395826	-0.000055
1108	5.5350e+01	17.8551	16.195125	0.000098	0.979298	0.331795	-0.000046
1109	5.5400e+01	17.8455	16.171499	0.000100	0.996479	0.337616	-0.000047
1110	5.5450e+01	17.8214	16.147873	0.000100	0.996479	0.337616	-0.000047
1111	5.5500e+01	17.8214	16.125877	0.000093	0.927756	0.314332	-0.000044
1112	5.5550e+01	17.7893	16.092475	0.000141	1.408815	0.477319	-0.000067
1113	5.5600e+01	17.7637	16.074959	0.000074	0.738769	0.250302	-0.000035
1114	5.5650e+01	17.7460	16.047667	0.000115	1.151105	0.390005	-0.000055
1115	5.5700e+01	17.7524	16.025671	-0.000093	-0.927756	-0.314332	-0.000044
1116	5.5750e+01	17.6899	16.004489	0.000089	0.893395	0.302690	-0.000042
1117	5.5800e+01	17.6899	15.979234	0.000107	1.065201	0.360900	-0.000051
1118	5.5850e+01	17.6770	15.953571	0.000108	1.082382	0.366721	-0.000051
1119	5.5900e+01	17.6514	15.929130	0.000103	1.030840	0.349258	-0.000049
1120	5.5950e+01	17.6273	15.900616	0.000120	1.202647	0.407468	-0.000057
1121	5.6000e+01	17.6145	15.874139	0.000112	1.116744	0.378363	-0.000053
1122	5.6050e+01	17.5888	15.851328	0.000096	0.962117	0.325974	-0.000046
1123	5.6100e+01	17.5760	15.823629	0.000117	1.168286	0.395826	-0.000055
1124	5.6150e+01	17.5663	15.797559	0.000110	1.099563	0.372542	-0.000052
1125	5.6200e+01	17.5311	15.777192	0.000086	0.859033	0.291048	-0.000041
1126	5.6250e+01	17.5038	15.747456	0.000125	1.254189	0.424931	-0.000059
1127	5.6300e+01	17.4926	15.723830	0.000100	0.996479	0.337616	-0.000047
1128	5.6350e+01	17.4765	15.698575	0.000107	1.065201	0.360900	-0.000051
1129	5.6400e+01	17.4669	15.669653	0.000122	1.219828	0.413289	-0.000058
1130	5.6450e+01	17.4541	15.643991	0.000108	1.082382	0.366721	-0.000051
1131	5.6500e+01	17.4011	15.617513	0.000112	1.116744	0.378363	-0.000053
1132	5.6550e+01	17.4107	15.592258	-0.000107	-1.065201	-0.360900	-0.000051
1133	5.6600e+01	17.3883	15.567410	0.000105	1.048021	0.355079	-0.000050
1134	5.6650e+01	17.3803	15.539711	0.000117	1.168286	0.395826	-0.000055
1135	5.6700e+01	17.3305	15.516085	0.000100	0.996479	0.337616	-0.000047
1136	5.6750e+01	17.3209	15.491645	0.000103	1.030840	0.349258	-0.000049
1137	5.6800e+01	17.3000	15.466797	0.000105	1.048021	0.355079	-0.000050
1138	5.6850e+01	17.2631	15.440319	0.000112	1.116744	0.378363	-0.000053
1139	5.6900e+01	17.2583	15.415472	0.000105	1.048021	0.355079	-0.000050
1140	5.6950e+01	17.2134	15.384513	0.000131	1.305731	0.442394	-0.000062
1141	5.7000e+01	17.2022	15.361295	0.000098	0.979298	0.331795	-0.000046
1142	5.7050e+01	17.2134	15.337669	-0.000100	-0.996479	-0.337616	-0.000047
1143	5.7100e+01	17.1589	15.313229	0.000103	1.030840	0.349258	-0.000049
1144	5.7150e+01	17.1444	15.286751	0.000112	1.116744	0.378363	-0.000053
1145	5.7200e+01	17.1412	15.255386	0.000132	1.322912	0.448215	-0.000063
1146	5.7250e+01	17.0803	15.228094	0.000115	1.151105	0.390005	-0.000055
1147	5.7300e+01	17.0883	15.199580	-0.000120	-1.202647	-0.407468	-0.000057
1148	5.7350e+01	17.0498	15.177991	0.000091	0.910575	0.308511	-0.000043
1149	5.7400e+01	17.0498	15.147847	0.000127	1.271370	0.430752	-0.000060
1150	5.7450e+01	17.0273	15.123407	0.000103	1.030840	0.349258	-0.000049
1151	5.7500e+01	16.9968	15.096115	0.000115	1.151105	0.390005	-0.000055
1152	5.7550e+01	16.9840	15.069638	0.000112	1.116744	0.378363	-0.000053
1153	5.7600e+01	16.9744	15.041938	0.000117	1.168286	0.395826	-0.000055
1154	5.7650e+01	16.9648	15.017498	0.000103	1.030840	0.349258	-0.000049
1155	5.7700e+01	16.9279	14.986132	0.000132	1.322912	0.448215	-0.000063
1156	5.7750e+01	16.9327	14.963321	-0.000096	-0.962117	-0.325974	-0.000046
1157	5.7800e+01	16.8958	14.930734	0.000137	1.374454	0.465677	-0.000065
1158	5.7850e+01	16.8621	14.902627	0.000119	1.185466	0.401647	-0.000056
1159	5.7900e+01	16.8477	14.878594	0.000101	1.013659	0.343437	-0.000048
1160	5.7950e+01	16.8252	14.853746	0.000105	1.048021	0.355079	-0.000050
1161	5.8000e+01	16.8059	14.821566	0.000136	1.357273	0.459856	-0.000064
1162	5.8050e+01	16.7947	14.799162	0.000094	0.944937	0.320153	-0.000045
1163	5.8100e+01	16.7819	14.767390	0.000134	1.340092	0.454036	-0.000064
1164	5.8150e+01	16.7594	14.739690	0.000117	1.168286	0.395826	-0.000055
1165	5.8200e+01	16.7273	14.711991	0.000117	1.168286	0.395826	-0.000055
1166	5.8250e+01	16.7097	14.685106	0.000113	1.133924	0.384184	-0.000054
1167	5.8300e+01	16.7065	14.657407	0.000117	1.168286	0.395826	-0.000055
1168	5.8350e+01	16.6808	14.627671	0.000125	1.254189	0.424931	-0.000059
1169	5.8400e+01	16.6423	14.604452	0.000098	0.979298	0.331795	-0.000046
1170	5.8450e+01	16.6295	14.573494	0.000131	1.305731	0.442394	-0.000062
1171	5.8500e+01	16.6279	14.543758	0.000125	1.254189	0.424931	-0.000059
1172	5.8550e+01	16.5765	14.515652	0.000119	1.185466	0.401647	-0.000056
1173	5.8600e+01	16.5830	14.489175	-0.000112	-1.116744	-0.378363	-0.000053
1174	5.8650e+01	16.5621	14.459846	0.000124	1.237008	0.419110	-0.000059
1175	5.8700e+01	16.5252	14.436220	0.000100	0.996479	0.337616	-0.000047
1176	5.8750e+01	16.5605	14.403633	-0.000137	-1.374454	-0.465677	-0.000065
1177	5.8800e+01	16.4915	14.375933	0.000117	1.168286	0.395826	-0.000055
1178	5.8850e+01	16.4658	14.350678	0.000107	1.065201	0.360900	-0.000051
1179	5.8900e+01	16.4594	14.319313	0.000132	1.322912	0.448215	-0.000063
1180	5.8950e+01	16.4306	14.292835	0.000112	1.116744	0.378363	-0.000053
1181	5.9000e+01	16.4209	14.268395	0.000103	1.030840	0.349258	-0.000049
1182	5.9050e+01	16.4049	14.235807	0.000137	1.374454	0.465677	-0.000065
1183	5.9100e+01	16.3776	14.202813	0.000139	1.391634	0.471498	-0.000066
1184	5.9150e+01	16.3648	14.178780	0.000101	1.013659	0.343437	-0.000048
1185	5.9200e+01	16.3343	14.148636	0.000127	1.271370	0.430752	-0.000060
1186	5.9250e+01	16.3006	14.124196	0.000103	1.030840	0.349258	-0.000049
1187	5.9300e+01	16.3167	14.095682	-0.000120	-1.202647	-0.407468	-0.000057
1188	5.9350e+01	16.2749	14.064724	0.000131	1.305731	0.442394	-0.000062
1189	5.9400e+01	16.2316	14.037432	0.000115	1.151105	0.390005	-0.000055
1190	5.9450e+01	16.2332	14.006474	-0.000131	-1.305731	-0.442394	-0.000062
1191	5.9500e+01	16.2220	13.981626	0.000105	1.048021	0.355079	-0.000050
1192	5.9550e+01	16.1947	13.944965	0.000155	1.546260	0.523887	-0.000073
1193	5.9600e+01	16.1707	13.923376	0.000091	0.910575	0.308511	-0.000043
1194	5.9650e+01	16.1546	13.890381	0.000139	1.391634	0.471498	-0.000066
1195	5.9700e+01	16.1081	13.865126	0.000107	1.065201	0.360900	-0.000051
1196	5.9750e+01	16.1241	13.834168	-0.000131	-1.305731	-0.442394	-0.000062
1197	5.9800e+01	16.1065	13.808505	0.000108	1.082382	0.366721	-0.000051
1198	5.9850e+01	16.0648	13.777547	0.000131	1.305731	0.442394	-0.000062
1199	5.9900e+01	16.0391	13.748626	0.000122	1.219828	0.413289	-0.000058
1200	5.9950e+01	16.0343	13.716853	0.000134	1.340092	0.454036	-0.000064
1201	6.0000e+01	15.9830	13.691598	0.000107	1.065201	0.360900	-0.000051
1202	6.0050e+01	15.9830	13.663491	0.000119	1.185466	0.401647	-0.000056
1203	6.0100e+01	15.9846	13.628867	-0.000146	-1.460357	-0.494782	-0.000069
1204	6.0150e+01	15.9461	13.599538	0.000124	1.237008	0.419110	-0.000059
1205	6.0200e+01	15.9381	13.571839	0.000117	1.168286	0.395826	-0.000055
1206	6.0250e+01	15.9012	13.543325	0.000120	1.202647	0.407468	-0.000057
1207	6.0300e+01	15.8771	13.514811	0.000120	1.202647	0.407468	-0.000057
1208	6.0350e+01	15.8739	13.482224	0.000137	1.374454	0.465677	-0.000065
1209	6.0400e+01	15.8546	13.457376	0.000105	1.048021	0.355079	-0.000050
1210	6.0450e+01	15.8290	13.423974	0.000141	1.408815	0.477319	-0.000067
1211	6.0500e+01	15.7937	13.396274	0.000117	1.168286	0.395826	-0.000055
1212	6.0550e+01	15.7921	13.366946	0.000124	1.237008	0.419110	-0.000059
1213	6.0600e+01	15.7728	13.341691	0.000107	1.065201	0.360900	-0.000051
1214	6.0650e+01	15.7552	13.311140	0.000129	1.288550	0.436573	-0.000061
1215	6.0700e+01	15.7311	13.281404	0.000125	1.254189	0.424931	-0.000059
1216	6.0750e+01	15.6862	13.247594	0.000143	1.425996	0.483140	-0.000068
1217	6.0800e+01	15.6878	13.220303	-0.000115	-1.151105	-0.390005	-0.000055
1218	6.0850e+01	15.6381	13.188530	0.000134	1.340092	0.454036	-0.000064
1219	6.0900e+01	15.6525	13.161238	-0.000115	-1.151105	-0.390005	-0.000055
1220	6.0950e+01	15.6140	13.127428	0.000143	1.425996	0.483140	-0.000068
1221	6.1000e+01	15.6108	13.101358	0.000110	1.099563	0.372542	-0.000052
1222	6.1050e+01	15.5883	13.072437	0.000122	1.219828	0.413289	-0.000058
1223	6.1100e+01	15.5691	13.043108	0.000124	1.237008	0.419110	-0.000059
1224	6.1150e+01	15.5514	13.011336	0.000134	1.340092	0.454036	-0.000064
1225	6.1200e+01	15.5418	12.979563	0.000134	1.340092	0.454036	-0.000064
1226	6.1250e+01	15.5193	12.950642	0.000122	1.219828	0.413289	-0.000058
1227	6.1300e+01	15.4985	12.922942	0.000117	1.168286	0.395826	-0.000055
1228	6.1350e+01	15.4520	12.890762	0.000136	1.357273	0.459856	-0.000064
1229	6.1400e+01	15.4504	12.860619	0.000127	1.271370	0.430752	-0.000060
1230	6.1450e+01	15.4600	12.831290	-0.000124	-1.237008	-0.419110	-0.000059
1231	6.1500e+01	15.4135	12.801962	0.000124	1.237008	0.419110	-0.000059
1232	6.1550e+01	15.3846	12.772633	0.000124	1.237008	0.419110	-0.000059
1233	6.1600e+01	15.3702	12.741268	0.000132	1.322912	0.448215	-0.000063
1234	6.1650e+01	15.3669	12.713568	0.000117	1.168286	0.395826	-0.000055
1235	6.1700e+01	15.2948	12.680574	0.000139	1.391634	0.471498	-0.000066
1236	6.1750e+01	15.3092	12.652060	-0.000120	-1.202647	-0.407468	-0.000057
1237	6.1800e+01	15.3076	12.619472	0.000137	1.374454	0.465677	-0.000065
1238	6.1850e+01	15.2755	12.596254	0.000098	0.979298	0.331795	-0.000046
1239	6.1900e+01	15.2659	12.566518	0.000125	1.254189	0.424931	-0.000059
1240	6.1950e+01	15.2338	12.533116	0.000141	1.408815	0.477319	-0.000067
1241	6.2000e+01	15.2097	12.506231	0.000113	1.133924	0.384184	-0.000054
1242	6.2050e+01	15.1953	12.472014	0.000144	1.443176	0.488961	-0.000068
1243	6.2100e+01	15.1568	12.447166	0.000105	1.048021	0.355079	-0.000050
1244	6.2150e+01	15.1632	12.412135	-0.000148	-1.477538	-0.500603	-0.000070
1245	6.2200e+01	15.1247	12.380770	0.000132	1.322912	0.448215	-0.000063
1246	6.2250e+01	15.1055	12.348182	0.000137	1.374454	0.465677	-0.000065
1247	6.2300e+01	15.0621	12.316409	0.000134	1.340092	0.454036	-0.000064
1248	6.2350e+01	15.0814	12.290747	-0.000108	-1.082382	-0.366721	-0.000051
1249	6.2400e+01	15.0750	12.258567	0.000136	1.357273	0.459856	-0.000064
1250	6.2450e+01	15.0461	12.227201	0.000132	1.322912	0.448215	-0.000063
1251	6.2500e+01	15.0012	12.193799	0.000141	1.408815	0.477319	-0.000067
1252	6.2550e+01	14.9932	12.157953	0.000151	1.511899	0.512245	-0.000072
1253	6.2600e+01	14.9707	12.129439	0.000120	1.202647	0.407468	-0.000057
1254	6.2650e+01	14.9691	12.101333	0.000119	1.185466	0.401647	-0.000056
1255	6.2700e+01	14.9418	12.067116	0.000144	1.443176	0.488961	-0.000068
1256	6.2750e+01	14.9017	12.038194	0.000122	1.219828	0.413289	-0.000058
1257	6.2800e+01	14.9081	12.005200	-0.000139	-1.391634	-0.471498	-0.000066
1258	6.2850e+01	14.8664	11.974242	0.000131	1.305731	0.442394	-0.000062
1259	6.2900e+01	14.8777	11.942876	-0.000132	-1.322912	-0.448215	-0.000063
1260	6.2950e+01	14.8215	11.910696	0.000136	1.357273	0.459856	-0.000064
1261	6.3000e+01	14.8071	11.880146	0.000129	1.288550	0.436573	-0.000061
1262	6.3050e+01	14.7814	11.847558	0.000137	1.374454	0.465677	-0.000065
1263	6.3100e+01	14.7622	11.817007	0.000129	1.288550	0.436573	-0.000061
1264	6.3150e+01	14.7830	11.784013	-0.000139	-1.391634	-0.471498	-0.000066
1265	6.3200e+01	14.7269	11.758757	0.000107	1.065201	0.360900	-0.000051
1266	6.3250e+01	14.7204	11.725763	0.000139	1.391634	0.471498	-0.000066
1267	6.3300e+01	14.7108	11.693990	0.000134	1.340092	0.454036	-0.000064
1268	6.3350e+01	14.6787	11.664254	0.000125	1.254189	0.424931	-0.000059
1269	6.3400e+01	14.6242	11.626778	0.000158	1.580622	0.535529	-0.000075
1270	6.3450e+01	14.6354	11.601523	-0.000107	-1.065201	-0.360900	-0.000051
1271	6.3500e+01	14.6097	11.569343	0.000136	1.357273	0.459856	-0.000064
1272	6.3550e+01	14.6418	11.537163	-0.000136	-1.357273	-0.459856	-0.000064
1273	6.3600e+01	14.5825	11.500910	0.000153	1.529080	0.518066	-0.000073
1274	6.3650e+01	14.5600	11.474025	0.000113	1.133924	0.384184	-0.000054
1275	6.3700e+01	14.5215	11.441438	0.000137	1.374454	0.465677	-0.000065
1276	6.3750e+01	14.5392	11.405184	-0.000153	-1.529080	-0.518066	-0.000073
1277	6.3800e+01	14.4958	11.375448	0.000125	1.254189	0.424931	-0.000059
1278	6.3850e+01	14.4686	11.341231	0.000144	1.443176	0.488961	-0.000068
1279	6.3900e+01	14.4413	11.307829	0.000141	1.408815	0.477319	-0.000067
1280	6.3950e+01	14.4012	11.276057	0.000134	1.340092	0.454036	-0.000064
1281	6.4000e+01	14.4140	11.245506	-0.000129	-1.288550	-0.436573	-0.000061
1282	6.4050e+01	14.3900	11.207623	0.000160	1.597802	0.541350	-0.000076
1283	6.4100e+01	14.3691	11.177480	0.000127	1.271370	0.430752	-0.000060
1284	6.4150e+01	14.3531	11.148558	0.000122	1.219828	0.413289	-0.000058
1285	6.4200e+01	14.3547	11.114342	-0.000144	-1.443176	-0.488961	-0.000068
1286	6.4250e+01	14.3290	11.081347	0.000139	1.391634	0.471498	-0.000066
1287	6.4300e+01	14.2969	11.048759	0.000137	1.374454	0.465677	-0.000065
1288	6.4350e+01	14.2697	11.018209	0.000129	1.288550	0.436573	-0.000061
1289	6.4400e+01	14.2456	10.986436	0.000134	1.340092	0.454036	-0.000064
1290	6.4450e+01	14.2215	10.953849	0.000137	1.374454	0.465677	-0.000065
1291	6.4500e+01	14.2167	10.924927	0.000122	1.219828	0.413289	-0.000058
1292	6.4550e+01	14.1910	10.891525	0.000141	1.408815	0.477319	-0.000067
1293	6.4600e+01	14.1750	10.862196	0.000124	1.237008	0.419110	-0.000059
1294	6.4650e+01	14.1445	10.826758	0.000149	1.494718	0.506424	-0.000071
1295	6.4700e+01	14.1445	10.797022	0.000125	1.254189	0.424931	-0.000059
1296	6.4750e+01	14.1060	10.764027	0.000139	1.391634	0.471498	-0.000066
1297	6.4800e+01	14.0996	10.732254	0.000134	1.340092	0.454036	-0.000064
1298	6.4850e+01	14.0723	10.703333	0.000122	1.219828	0.413289	-0.000058
1299	6.4900e+01	14.0418	10.668709	0.000146	1.460357	0.494782	-0.000069
1300	6.4950e+01	14.0402	10.636936	0.000134	1.340092	0.454036	-0.000064
1301	6.5000e+01	13.9857	10.608422	0.000120	1.202647	0.407468	-0.000057
1302	6.5050e+01	14.0162	10.579501	-0.000122	-1.219828	-0.413289	-0.000058
1303	6.5100e+01	13.9857	10.544877	0.000146	1.460357	0.494782	-0.000069
1304	6.5150e+01	13.9504	10.511067	0.000143	1.425996	0.483140	-0.000068
1305	6.5200e+01	13.9247	10.475628	0.000149	1.494718	0.506424	-0.000071
1306	6.5250e+01	13.9055	10.443041	0.000137	1.374454	0.465677	-0.000065
1307	6.5300e+01	13.9119	10.410454	-0.000137	-1.374454	-0.465677	-0.000065
1308	6.5350e+01	13.8718	10.379088	0.000132	1.322912	0.448215	-0.000063
1309	6.5400e+01	13.8397	10.346093	0.000139	1.391634	0.471498	-0.000066
1310	6.5450e+01	13.8477	10.317579	-0.000120	-1.202647	-0.407468	-0.000057
1311	6.5500e+01	13.8237	10.285807	0.000134	1.340092	0.454036	-0.000064
1312	6.5550e+01	13.8140	10.256071	0.000125	1.254189	0.424931	-0.000059
1313	6.5600e+01	13.7900	10.222261	0.000143	1.425996	0.483140	-0.000068
1314	6.5650e+01	13.7643	10.191711	0.000129	1.288550	0.436573	-0.000061
1315	6.5700e+01	13.7258	10.161160	0.000129	1.288550	0.436573	-0.000061
1316	6.5750e+01	13.7338	10.129795	-0.000132	-1.322912	-0.448215	-0.000063
1317	6.5800e+01	13.7194	10.097615	0.000136	1.357273	0.459856	-0.000064
1318	6.5850e+01	13.6777	10.072359	0.000107	1.065201	0.360900	-0.000051
1319	6.5900e+01	13.6424	10.038142	0.000144	1.443176	0.488961	-0.000068
1320	6.5950e+01	13.6536	10.009221	-0.000122	-1.219828	-0.413289	-0.000058
1321	6.6000e+01	13.6135	9.978263	0.000131	1.305731	0.442394	-0.000062
1322	6.6050e+01	13.5766	9.944046	0.000144	1.443176	0.488961	-0.000068
1323	6.6100e+01	13.5927	9.917162	-0.000113	-1.133924	-0.384184	-0.000054
1324	6.6150e+01	13.5638	9.884574	0.000137	1.374454	0.465677	-0.000065
1325	6.6200e+01	13.5189	9.854838	0.000125	1.254189	0.424931	-0.000059
1326	6.6250e+01	13.5205	9.824288	-0.000129	-1.288550	-0.436573	-0.000061
1327	6.6300e+01	13.5092	9.793737	0.000129	1.288550	0.436573	-0.000061
1328	6.6350e+01	13.4563	9.762779	0.000131	1.305731	0.442394	-0.000062
1329	6.6400e+01	13.4547	9.734672	0.000119	1.185466	0.401647	-0.000056
1330	6.6450e+01	13.4435	9.700048	0.000146	1.460357	0.494782	-0.000069
1331	6.6500e+01	13.4162	9.669905	0.000127	1.271370	0.430752	-0.000060
1332	6.6550e+01	13.3841	9.637317	0.000137	1.374454	0.465677	-0.000065
1333	6.6600e+01	13.3649	9.609618	0.000117	1.168286	0.395826	-0.000055
1334	6.6650e+01	13.3536	9.573772	0.000151	1.511899	0.512245	-0.000072
1335	6.6700e+01	13.3248	9.549739	0.000101	1.013659	0.343437	-0.000048
1336	6.6750e+01	13.3248	9.520817	0.000122	1.219828	0.413289	-0.000058
1337	6.6800e+01	13.2895	9.485379	0.000149	1.494718	0.506424	-0.000071
1338	6.6850e+01	13.2750	9.453199	0.000136	1.357273	0.459856	-0.000064
1339	6.6900e+01	13.2526	9.423055	0.000127	1.271370	0.430752	-0.000060
1340	6.6950e+01	13.2253	9.394949	0.000119	1.185466	0.401647	-0.000056
1341	6.7000e+01	13.2141	9.362361	0.000137	1.374454	0.465677	-0.000065
1342	6.7050e+01	13.2157	9.331811	-0.000129	-1.288550	-0.436573	-0.000061
1343	6.7100e+01	13.1659	9.298408	0.000141	1.408815	0.477319	-0.000067
1344	6.7150e+01	13.1563	9.276005	0.000094	0.944937	0.320153	-0.000045
1345	6.7200e+01	13.1387	9.241788	0.000144	1.443176	0.488961	-0.000068
1346	6.7250e+01	13.1130	9.212052	0.000125	1.254189	0.424931	-0.000059
1347	6.7300e+01	13.0761	9.178650	0.000141	1.408815	0.477319	-0.000067
1348	6.7350e+01	13.0456	9.146062	0.000137	1.374454	0.465677	-0.000065
1349	6.7400e+01	13.0520	9.117548	-0.000120	-1.202647	-0.407468	-0.000057
1350	6.7450e+01	13.0504	9.085368	0.000136	1.357273	0.459856	-0.000064
1351	6.7500e+01	13.0119	9.055225	0.000127	1.271370	0.430752	-0.000060
1352	6.7550e+01	12.9991	9.025082	0.000127	1.271370	0.430752	-0.000060
1353	6.7600e+01	12.9526	8.992494	0.000137	1.374454	0.465677	-0.000065
1354	6.7650e+01	12.9478	8.963573	0.000122	1.219828	0.413289	-0.000058
1355	6.7700e+01	12.9301	8.930985	0.000137	1.374454	0.465677	-0.000065
1356	6.7750e+01	12.9269	8.904101	0.000113	1.133924	0.384184	-0.000054
1357	6.7800e+01	12.8868	8.872328	0.000134	1.340092	0.454036	-0.000064
1358	6.7850e+01	12.8788	8.842999	0.000124	1.237008	0.419110	-0.000059
1359	6.7900e+01	12.8467	8.818559	0.000103	1.030840	0.349258	-0.000049
1360	6.7950e+01	12.8451	8.783935	0.000146	1.460357	0.494782	-0.000069
1361	6.8000e+01	12.8050	8.755421	0.000120	1.202647	0.407468	-0.000057
1362	6.8050e+01	12.8034	8.724870	0.000129	1.288550	0.436573	-0.000061
1363	6.8100e+01	12.7825	8.696356	0.000120	1.202647	0.407468	-0.000057
1364	6.8150e+01	12.7665	8.660103	0.000153	1.529080	0.518066	-0.000073
1365	6.8200e+01	12.7184	8.633625	0.000112	1.116744	0.378363	-0.000053
1366	6.8250e+01	12.6943	8.601038	0.000137	1.374454	0.465677	-0.000065
1367	6.8300e+01	12.6831	8.572117	0.000122	1.219828	0.413289	-0.000058
1368	6.8350e+01	12.6815	8.537900	0.000144	1.443176	0.488961	-0.000068
1369	6.8400e+01	12.6414	8.505312	0.000137	1.374454	0.465677	-0.000065
1370	6.8450e+01	12.6317	8.478428	0.000113	1.133924	0.384184	-0.000054
1371	6.8500e+01	12.6205	8.447470	0.000131	1.305731	0.442394	-0.000062
1372	6.8550e+01	12.6077	8.418141	0.000124	1.237008	0.419110	-0.000059
1373	6.8600e+01	12.5611	8.382295	0.000151	1.511899	0.512245	-0.000072
1374	6.8650e+01	12.5547	8.352559	0.000125	1.254189	0.424931	-0.000059
1375	6.8700e+01	12.5162	8.324045	0.000120	1.202647	0.407468	-0.000057
1376	6.8750e+01	12.5258	8.293087	-0.000131	-1.305731	-0.442394	-0.000062
1377	6.8800e+01	12.5050	8.261722	0.000132	1.322912	0.448215	-0.000063
1378	6.8850e+01	12.4825	8.227098	0.000146	1.460357	0.494782	-0.000069
1379	6.8900e+01	12.4649	8.196547	0.000129	1.288550	0.436573	-0.000061
1380	6.8950e+01	12.4232	8.164774	0.000134	1.340092	0.454036	-0.000064
1381	6.9000e+01	12.3975	8.138297	0.000112	1.116744	0.378363	-0.000053
1382	6.9050e+01	12.3943	8.105302	0.000139	1.391634	0.471498	-0.000066
1383	6.9100e+01	12.3638	8.073529	0.000134	1.340092	0.454036	-0.000064
1384	6.9150e+01	12.3670	8.043386	-0.000127	-1.271370	-0.430752	-0.000060
1385	6.9200e+01	12.3638	8.011613	0.000134	1.340092	0.454036	-0.000064
1386	6.9250e+01	12.3285	7.981063	0.000129	1.288550	0.436573	-0.000061
1387	6.9300e+01	12.2980	7.949697	0.000132	1.322912	0.448215	-0.000063
1388	6.9350e+01	12.2740	7.921591	0.000119	1.185466	0.401647	-0.000056
1389	6.9400e+01	12.2451	7.889003	0.000137	1.374454	0.465677	-0.000065
1390	6.9450e+01	12.2210	7.858453	0.000129	1.288550	0.436573	-0.000061
1391	6.9500e+01	12.2114	7.829124	0.000124	1.237008	0.419110	-0.000059
1392	6.9550e+01	12.1841	7.796536	0.000137	1.374454	0.465677	-0.000065
1393	6.9600e+01	12.1986	7.768022	-0.000120	-1.202647	-0.407468	-0.000057
1394	6.9650e+01	12.1280	7.737879	0.000127	1.271370	0.430752	-0.000060
1395	6.9700e+01	12.1408	7.705292	-0.000137	-1.374454	-0.465677	-0.000065
1396	6.9750e+01	12.1071	7.672704	0.000137	1.374454	0.465677	-0.000065
1397	6.9800e+01	12.1007	7.646634	0.000110	1.099563	0.372542	-0.000052
1398	6.9850e+01	12.0622	7.610381	0.000153	1.529080	0.518066	-0.000073
1399	6.9900e+01	12.0334	7.580645	0.000125	1.254189	0.424931	-0.000059
1400	6.9950e+01	12.0430	7.548872	-0.000134	-1.340092	-0.454036	-0.000064
1401	7.0000e+01	11.9916	7.515063	0.000143	1.425996	0.483140	-0.000068
1402	7.0050e+01	11.9900	7.489400	0.000108	1.082382	0.366721	-0.000051
1403	7.0100e+01	11.9756	7.452332	0.000156	1.563441	0.529708	-0.000074
1404	7.0150e+01	11.9660	7.420559	0.000134	1.340092	0.454036	-0.000064
1405	7.0200e+01	11.9563	7.391638	0.000122	1.219828	0.413289	-0.000058
1406	7.0250e+01	11.8986	7.360680	0.000131	1.305731	0.442394	-0.000062
1407	7.0300e+01	11.8713	7.331351	0.000124	1.237008	0.419110	-0.000059
1408	7.0350e+01	11.8793	7.295505	-0.000151	-1.511899	-0.512245	-0.000072
1409	7.0400e+01	11.8408	7.266176	0.000124	1.237008	0.419110	-0.000059
1410	7.0450e+01	11.8264	7.233182	0.000139	1.391634	0.471498	-0.000066
1411	7.0500e+01	11.8152	7.205075	0.000119	1.185466	0.401647	-0.000056
1412	7.0550e+01	11.8168	7.170858	-0.000144	-1.443176	-0.488961	-0.000068
1413	7.0600e+01	11.7767	7.141530	0.000124	1.237008	0.419110	-0.000059
1414	7.0650e+01	11.7735	7.114645	0.000113	1.133924	0.384184	-0.000054
1415	7.0700e+01	11.7510	7.080428	0.000144	1.443176	0.488961	-0.000068
1416	7.0750e+01	11.7093	7.049470	0.000131	1.305731	0.442394	-0.000062
1417	7.0800e+01	11.6949	7.022993	0.000112	1.116744	0.378363	-0.000053
1418	7.0850e+01	11.6531	6.992850	0.000127	1.271370	0.430752	-0.000060
1419	7.0900e+01	11.6403	6.957003	0.000151	1.511899	0.512245	-0.000072
1420	7.0950e+01	11.6243	6.929304	0.000117	1.168286	0.395826	-0.000055
1421	7.1000e+01	11.6114	6.901605	0.000117	1.168286	0.395826	-0.000055
1422	7.1050e+01	11.6002	6.868203	0.000141	1.408815	0.477319	-0.000067
1423	7.1100e+01	11.5585	6.840911	0.000115	1.151105	0.390005	-0.000055
1424	7.1150e+01	11.5617	6.810360	-0.000129	-1.288550	-0.436573	-0.000061
1425	7.1200e+01	11.5425	6.780217	0.000127	1.271370	0.430752	-0.000060
1426	7.1250e+01	11.5264	6.744371	0.000151	1.511899	0.512245	-0.000072
1427	7.1300e+01	11.4943	6.715449	0.000122	1.219828	0.413289	-0.000058
1428	7.1350e+01	11.4606	6.685306	0.000127	1.271370	0.430752	-0.000060
1429	7.1400e+01	11.4879	6.657199	-0.000119	-1.185466	-0.401647	-0.000056
1430	7.1450e+01	11.4574	6.622168	0.000148	1.477538	0.500603	-0.000070
1431	7.1500e+01	11.4286	6.592432	0.000125	1.254189	0.424931	-0.000059
1432	7.1550e+01	11.3852	6.561066	0.000132	1.322912	0.448215	-0.000063
1433	7.1600e+01	11.3676	6.532960	0.000119	1.185466	0.401647	-0.000056
1434	7.1650e+01	11.3692	6.498743	-0.000144	-1.443176	-0.488961	-0.000068
1435	7.1700e+01	11.3275	6.467378	0.000132	1.322912	0.448215	-0.000063
1436	7.1750e+01	11.3163	6.436827	0.000129	1.288550	0.436573	-0.000061
1437	7.1800e+01	11.2874	6.406684	0.000127	1.271370	0.430752	-0.000060
1438	7.1850e+01	11.2681	6.372467	0.000144	1.443176	0.488961	-0.000068
1439	7.1900e+01	11.2344	6.345175	0.000115	1.151105	0.390005	-0.000055
1440	7.1950e+01	11.2649	6.319512	-0.000108	-1.082382	-0.366721	-0.000051
1441	7.2000e+01	11.2056	6.283666	0.000151	1.511899	0.512245	-0.000072
1442	7.2050e+01	11.1831	6.255967	0.000117	1.168286	0.395826	-0.000055
1443	7.2100e+01	11.1542	6.219713	0.000153	1.529080	0.518066	-0.000073
1444	7.2150e+01	11.1590	6.198939	-0.000088	-0.876214	-0.296869	-0.000042
1445	7.2200e+01	11.1205	6.160241	0.000163	1.632164	0.552992	-0.000077
1446	7.2250e+01	11.1077	6.130098	0.000127	1.271370	0.430752	-0.000060
1447	7.2300e+01	11.0885	6.101584	0.000120	1.202647	0.407468	-0.000057
1448	7.2350e+01	11.0692	6.071441	0.000127	1.271370	0.430752	-0.000060
1449	7.2400e+01	11.0275	6.044556	0.000113	1.133924	0.384184	-0.000054
1450	7.2450e+01	11.0403	6.011561	-0.000139	-1.391634	-0.471498	-0.000066
1451	7.2500e+01	11.0227	5.981011	0.000129	1.288550	0.436573	-0.000061
1452	7.2550e+01	10.9938	5.947201	0.000143	1.425996	0.483140	-0.000068
1453	7.2600e+01	10.9762	5.916651	0.000129	1.288550	0.436573	-0.000061
1454	7.2650e+01	10.9409	5.885285	0.000132	1.322912	0.448215	-0.000063
1455	7.2700e+01	10.9296	5.857586	0.000117	1.168286	0.395826	-0.000055
1456	7.2750e+01	10.9088	5.826628	0.000131	1.305731	0.442394	-0.000062
1457	7.2800e+01	10.8895	5.789967	0.000155	1.546260	0.523887	-0.000073
1458	7.2850e+01	10.9008	5.761860	-0.000119	-1.185466	-0.401647	-0.000056
1459	7.2900e+01	10.8799	5.726014	0.000151	1.511899	0.512245	-0.000072
1460	7.2950e+01	10.8446	5.700759	0.000107	1.065201	0.360900	-0.000051
1461	7.3000e+01	10.8222	5.664506	0.000153	1.529080	0.518066	-0.000073
1462	7.3050e+01	10.7756	5.634362	0.000127	1.271370	0.430752	-0.000060
1463	7.3100e+01	10.7917	5.598516	-0.000151	-1.511899	-0.512245	-0.000072
1464	7.3150e+01	10.7772	5.566336	0.000136	1.357273	0.459856	-0.000064
1465	7.3200e+01	10.7452	5.533341	0.000139	1.391634	0.471498	-0.000066
1466	7.3250e+01	10.6842	5.503605	0.000125	1.254189	0.424931	-0.000059
1467	7.3300e+01	10.6537	5.473462	0.000127	1.271370	0.430752	-0.000060
1468	7.3350e+01	10.6970	5.438838	-0.000146	-1.460357	-0.494782	-0.000069
1469	7.3400e+01	10.6329	5.408694	0.000127	1.271370	0.430752	-0.000060
1470	7.3450e+01	10.6248	5.374070	0.000146	1.460357	0.494782	-0.000069
1471	7.3500e+01	10.6040	5.344742	0.000124	1.237008	0.419110	-0.000059
1472	7.3550e+01	10.5607	5.314191	0.000129	1.288550	0.436573	-0.000061
1473	7.3600e+01	10.5751	5.279567	-0.000146	-1.460357	-0.494782	-0.000069
1474	7.3650e+01	10.5526	5.248201	0.000132	1.322912	0.448215	-0.000063
1475	7.3700e+01	10.5286	5.221317	0.000113	1.133924	0.384184	-0.000054
1476	7.3750e+01	10.5045	5.185063	0.000153	1.529080	0.518066	-0.000073
1477	7.3800e+01	10.4853	5.151661	0.000141	1.408815	0.477319	-0.000067
1478	7.3850e+01	10.4805	5.120296	0.000132	1.322912	0.448215	-0.000063
1479	7.3900e+01	10.4355	5.086894	0.000141	1.408815	0.477319	-0.000067
1480	7.3950e+01	10.4516	5.053492	-0.000141	-1.408815	-0.477319	-0.000067
1481	7.4000e+01	10.4227	5.021719	0.000134	1.340092	0.454036	-0.000064
1482	7.4050e+01	10.4339	4.987910	-0.000143	-1.425996	-0.483140	-0.000068
1483	7.4100e+01	10.3682	4.950434	0.000158	1.580622	0.535529	-0.000075
1484	7.4150e+01	10.3794	4.921513	-0.000122	-1.219828	-0.413289	-0.000058
1485	7.4200e+01	10.3393	4.887296	0.000144	1.443176	0.488961	-0.000068
1486	7.4250e+01	10.3441	4.856338	-0.000131	-1.305731	-0.442394	-0.000062
1487	7.4300e+01	10.3072	4.824565	0.000134	1.340092	0.454036	-0.000064
1488	7.4350e+01	10.2543	4.787090	0.000158	1.580622	0.535529	-0.000075
1489	7.4400e+01	10.2607	4.756946	-0.000127	-1.271370	-0.430752	-0.000060
1490	7.4450e+01	10.2462	4.723544	0.000141	1.408815	0.477319	-0.000067
1491	7.4500e+01	10.2238	4.685254	0.000161	1.614983	0.547171	-0.000077
1492	7.4550e+01	10.1981	4.653889	0.000132	1.322912	0.448215	-0.000063
1493	7.4600e+01	10.1660	4.622523	0.000132	1.322912	0.448215	-0.000063
1494	7.4650e+01	10.1452	4.589121	0.000141	1.408815	0.477319	-0.000067
1495	7.4700e+01	10.1147	4.556534	0.000137	1.374454	0.465677	-0.000065
1496	7.4750e+01	10.1388	4.519466	-0.000156	-1.563441	-0.529708	-0.000074
1497	7.4800e+01	10.1083	4.486878	0.000137	1.374454	0.465677	-0.000065
1498	7.4850e+01	10.0938	4.452254	0.000146	1.460357	0.494782	-0.000069
1499	7.4900e+01	10.0842	4.416001	0.000153	1.529080	0.518066	-0.000073
1500	7.4950e+01	10.0297	4.382599	0.000141	1.408815	0.477319	-0.000067
1501	7.5000e+01	9.9912	4.349604	0.000139	1.391634	0.471498	-0.000066
1502	7.5050e+01	10.0136	4.320275	-0.000124	-1.237008	-0.419110	-0.000059
1503	7.5100e+01	9.9799	4.288095	0.000136	1.357273	0.459856	-0.000064
1504	7.5150e+01	9.9623	4.248583	0.000167	1.666525	0.564634	-0.000079
1505	7.5200e+01	9.9527	4.213144	0.000149	1.494718	0.506424	-0.000071
1506	7.5250e+01	9.9061	4.183001	0.000127	1.271370	0.430752	-0.000060
1507	7.5300e+01	9.8805	4.144710	0.000161	1.614983	0.547171	-0.000077
1508	7.5350e+01	9.8837	4.114567	-0.000127	-1.271370	-0.430752	-0.000060
1509	7.5400e+01	9.8548	4.078721	0.000151	1.511899	0.512245	-0.000072
1510	7.5450e+01	9.8372	4.040838	0.000160	1.597802	0.541350	-0.000076
1511	7.5500e+01	9.8179	4.008658	0.000136	1.357273	0.459856	-0.000064
1512	7.5550e+01	9.7810	3.974849	0.000143	1.425996	0.483140	-0.000068
1513	7.5600e+01	9.7826	3.942669	-0.000136	-1.357273	-0.459856	-0.000064
1514	7.5650e+01	9.7666	3.906008	0.000155	1.546260	0.523887	-0.000073
1515	7.5700e+01	9.7377	3.869754	0.000153	1.529080	0.518066	-0.000073
1516	7.5750e+01	9.7136	3.836352	0.000141	1.408815	0.477319	-0.000067
1517	7.5800e+01	9.6960	3.803765	0.000137	1.374454	0.465677	-0.000065
1518	7.5850e+01	9.6831	3.769955	0.000143	1.425996	0.483140	-0.000068
1519	7.5900e+01	9.6414	3.735739	0.000144	1.443176	0.488961	-0.000068
1520	7.5950e+01	9.5965	3.704781	0.000131	1.305731	0.442394	-0.000062
1521	7.6000e+01	9.6286	3.663639	-0.000174	-1.735248	-0.587918	-0.000082
1522	7.6050e+01	9.5917	3.630644	0.000139	1.391634	0.471498	-0.000066
1523	7.6100e+01	9.5757	3.593576	0.000156	1.563441	0.529708	-0.000074
1524	7.6150e+01	9.5532	3.559359	0.000144	1.443176	0.488961	-0.000068
1525	7.6200e+01	9.5291	3.525957	0.000141	1.408815	0.477319	-0.000067
1526	7.6250e+01	9.5484	3.487260	-0.000163	-1.632164	-0.552992	-0.000077
1527	7.6300e+01	9.4906	3.452635	0.000146	1.460357	0.494782	-0.000069
1528	7.6350e+01	9.4890	3.419233	0.000141	1.408815	0.477319	-0.000067
1529	7.6400e+01	9.4714	3.385831	0.000141	1.408815	0.477319	-0.000067
1530	7.6450e+01	9.4650	3.349170	0.000155	1.546260	0.523887	-0.000073
1531	7.6500e+01	9.4297	3.311695	0.000158	1.580622	0.535529	-0.000075
1532	7.6550e+01	9.3799	3.277071	0.000146	1.460357	0.494782	-0.000069
1533	7.6600e+01	9.3816	3.242039	-0.000148	-1.477538	-0.500603	-0.000070
1534	7.6650e+01	9.3398	3.202120	0.000168	1.683706	0.570455	-0.000080
1535	7.6700e+01	9.3350	3.170754	0.000132	1.322912	0.448215	-0.000063
1536	7.6750e+01	9.3174	3.135723	0.000148	1.477538	0.500603	-0.000070
1537	7.6800e+01	9.2821	3.099062	0.000155	1.546260	0.523887	-0.000073
1538	7.6850e+01	9.2580	3.064438	0.000146	1.460357	0.494782	-0.000069
1539	7.6900e+01	9.2324	3.030221	0.000144	1.443176	0.488961	-0.000068
1540	7.6950e+01	9.2179	2.995190	0.000148	1.477538	0.500603	-0.000070
1541	7.7000e+01	9.2067	2.955678	0.000167	1.666525	0.564634	-0.000079
1542	7.7050e+01	9.1698	2.923090	0.000137	1.374454	0.465677	-0.000065
1543	7.7100e+01	9.1858	2.886429	-0.000155	-1.546260	-0.523887	-0.000073
1544	7.7150e+01	9.1858	2.850991	0.000149	1.494718	0.506424	-0.000071
1545	7.7200e+01	9.1217	2.816366	0.000146	1.460357	0.494782	-0.000069
1546	7.7250e+01	9.1104	2.784594	0.000134	1.340092	0.454036	-0.000064
1547	7.7300e+01	9.1024	2.745081	0.000167	1.666525	0.564634	-0.000079
1548	7.7350e+01	9.0543	2.706384	0.000163	1.632164	0.552992	-0.000077
1549	7.7400e+01	9.0655	2.672574	-0.000143	-1.425996	-0.483140	-0.000068
1550	7.7450e+01	9.0286	2.637136	0.000149	1.494718	0.506424	-0.000071
1551	7.7500e+01	8.9933	2.603734	0.000141	1.408815	0.477319	-0.000067
1552	7.7550e+01	8.9949	2.566665	-0.000156	-1.563441	-0.529708	-0.000074
1553	7.7600e+01	8.9789	2.529190	0.000158	1.580622	0.535529	-0.000075
1554	7.7650e+01	8.9741	2.493751	0.000149	1.494718	0.506424	-0.000071
1555	7.7700e+01	8.9308	2.459534	0.000144	1.443176	0.488961	-0.000068
1556	7.7750e+01	8.9067	2.417985	0.000175	1.752428	0.593739	-0.000083
1557	7.7800e+01	8.8794	2.385805	0.000136	1.357273	0.459856	-0.000064
1558	7.7850e+01	8.8891	2.345886	-0.000168	-1.683706	-0.570455	-0.000080
1559	7.7900e+01	8.8602	2.308818	0.000156	1.563441	0.529708	-0.000074
1560	7.7950e+01	8.8425	2.271749	0.000156	1.563441	0.529708	-0.000074
1561	7.8000e+01	8.8377	2.238755	0.000139	1.391634	0.471498	-0.000066
1562	7.8050e+01	8.7735	2.198428	0.000170	1.700886	0.576276	-0.000081
1563	7.8100e+01	8.7671	2.166248	0.000136	1.357273	0.459856	-0.000064
1564	7.8150e+01	8.7350	2.131624	0.000146	1.460357	0.494782	-0.000069
1565	7.8200e+01	8.7543	2.093741	-0.000160	-1.597802	-0.541350	-0.000076
1566	7.8250e+01	8.7174	2.058709	0.000148	1.477538	0.500603	-0.000070
1567	7.8300e+01	8.6789	2.022048	0.000155	1.546260	0.523887	-0.000073
1568	7.8350e+01	8.6805	1.982944	-0.000165	-1.649344	-0.558813	-0.000078
1569	7.8400e+01	8.6596	1.947505	0.000149	1.494718	0.506424	-0.000071
1570	7.8450e+01	8.6452	1.910844	0.000155	1.546260	0.523887	-0.000073
1571	7.8500e+01	8.6115	1.873368	0.000158	1.580622	0.535529	-0.000075
1572	7.8550e+01	8.5939	1.842003	0.000132	1.322912	0.448215	-0.000063
1573	7.8600e+01	8.5602	1.805342	0.000155	1.546260	0.523887	-0.000073
1574	7.8650e+01	8.5457	1.769496	0.000151	1.511899	0.512245	-0.000072
1575	7.8700e+01	8.5233	1.730799	0.000163	1.632164	0.552992	-0.000077
1576	7.8750e+01	8.5121	1.694545	0.000153	1.529080	0.518066	-0.000073
1577	7.8800e+01	8.5024	1.655847	0.000163	1.632164	0.552992	-0.000077
1578	7.8850e+01	8.4671	1.622038	0.000143	1.425996	0.483140	-0.000068
1579	7.8900e+01	8.4591	1.584155	0.000160	1.597802	0.541350	-0.000076
1580	7.8950e+01	8.4511	1.547087	0.000156	1.563441	0.529708	-0.000074
1581	7.9000e+01	8.4190	1.508389	0.000163	1.632164	0.552992	-0.000077
1582	7.9050e+01	8.3933	1.473765	0.000146	1.460357	0.494782	-0.000069
1583	7.9100e+01	8.3661	1.435882	0.000160	1.597802	0.541350	-0.000076
1584	7.9150e+01	8.3725	1.395556	-0.000170	-1.700886	-0.576276	-0.000081
1585	7.9200e+01	8.3228	1.356858	0.000163	1.632164	0.552992	-0.000077
1586	7.9250e+01	8.3179	1.315309	0.000175	1.752428	0.593739	-0.000083
1587	7.9300e+01	8.2891	1.281500	0.000143	1.425996	0.483140	-0.000068
1588	7.9350e+01	8.2891	1.245654	0.000151	1.511899	0.512245	-0.000072
1589	7.9400e+01	8.2634	1.204919	0.000172	1.718067	0.582097	-0.000081
1590	7.9450e+01	8.2297	1.169888	0.000148	1.477538	0.500603	-0.000070
1591	7.9500e+01	8.1976	1.127117	0.000180	1.803970	0.611202	-0.000086
1592	7.9550e+01	8.2008	1.091271	-0.000151	-1.511899	-0.512245	-0.000072
1593	7.9600e+01	8.1832	1.053388	0.000160	1.597802	0.541350	-0.000076
1594	7.9650e+01	8.1447	1.013876	0.000167	1.666525	0.564634	-0.000079
1595	7.9700e+01	8.1495	0.973549	-0.000170	-1.700886	-0.576276	-0.000081
1596	7.9750e+01	8.1463	0.937295	0.000153	1.529080	0.518066	-0.000073
1597	7.9800e+01	8.0885	0.904708	0.000137	1.374454	0.465677	-0.000065
1598	7.9850e+01	8.0757	0.867640	0.000156	1.563441	0.529708	-0.000074
1599	7.9900e+01	8.0356	0.832608	0.000148	1.477538	0.500603	-0.000070
1600	7.9950e+01	8.0356	0.791467	0.000174	1.735248	0.587918	-0.000082
1601	8.0000e+01	8.0404	0.751140	-0.000170	-1.700886	-0.576276	-0.000081
1602	8.0050e+01	8.0067	0.714886	0.000153	1.529080	0.518066	-0.000073
1603	8.0100e+01	7.9730	0.676596	0.000161	1.614983	0.547171	-0.000077
1604	8.0150e+01	7.9442	0.641972	0.000146	1.460357	0.494782	-0.000069
1605	8.0200e+01	7.9554	0.600830	-0.000174	-1.735248	-0.587918	-0.000082
1606	8.0250e+01	7.9073	0.560503	0.000170	1.700886	0.576276	-0.000081
1607	8.0300e+01	7.8912	0.522620	0.000160	1.597802	0.541350	-0.000076
1608	8.0350e+01	7.8591	0.487589	0.000148	1.477538	0.500603	-0.000070
1609	8.0400e+01	7.8800	0.445633	-0.000177	-1.769609	-0.599560	-0.000084
1610	8.0450e+01	7.8431	0.407343	0.000161	1.614983	0.547171	-0.000077
1611	8.0500e+01	7.7982	0.367016	0.000170	1.700886	0.576276	-0.000081
1612	8.0550e+01	7.8094	0.327096	-0.000168	-1.683706	-0.570455	-0.000080
1613	8.0600e+01	7.7918	0.290843	0.000153	1.529080	0.518066	-0.000073
1614	8.0650e+01	7.7452	0.252960	0.000160	1.597802	0.541350	-0.000076
1615	8.0700e+01	7.7244	0.212633	0.000170	1.700886	0.576276	-0.000081
1616	8.0750e+01	7.7003	0.172306	0.000170	1.700886	0.576276	-0.000081
1617	8.0800e+01	7.6875	0.133608	0.000163	1.632164	0.552992	-0.000077
1618	8.0850e+01	7.7003	0.094503	-0.000165	-1.649344	-0.558813	-0.000078
1619	8.0900e+01	7.6666	0.054584	0.000168	1.683706	0.570455	-0.000080
1620	8.0950e+01	7.6249	0.016294	0.000161	1.614983	0.547171	-0.000077
1621	8.1000e+01	7.6329	-0.024033	-0.000170	-1.700886	-0.576276	-0.000081
1622	8.1050e+01	7.6009	-0.063138	0.000165	1.649344	0.558813	-0.000078
1623	8.1100e+01	7.5736	-0.103465	0.000170	1.700886	0.576276	-0.000081
1624	8.1150e+01	7.5672	-0.136867	0.000141	1.408815	0.477319	-0.000067
1625	8.1200e+01	7.5255	-0.174750	0.000160	1.597802	0.541350	-0.000076
1626	8.1250e+01	7.5142	-0.215892	0.000174	1.735248	0.587918	-0.000082
1627	8.1300e+01	7.5303	-0.255811	-0.000168	-1.683706	-0.570455	-0.000080
1628	8.1350e+01	7.4677	-0.293287	0.000158	1.580622	0.535529	-0.000075
1629	8.1400e+01	7.4485	-0.332392	0.000165	1.649344	0.558813	-0.000078
1630	8.1450e+01	7.4324	-0.368645	0.000153	1.529080	0.518066	-0.000073
1631	8.1500e+01	7.4308	-0.406528	0.000160	1.597802	0.541350	-0.000076
1632	8.1550e+01	7.3987	-0.445225	0.000163	1.632164	0.552992	-0.000077
1633	8.1600e+01	7.3779	-0.481072	0.000151	1.511899	0.512245	-0.000072
1634	8.1650e+01	7.3554	-0.521398	0.000170	1.700886	0.576276	-0.000081
1635	8.1700e+01	7.3490	-0.559281	0.000160	1.597802	0.541350	-0.000076
1636	8.1750e+01	7.3201	-0.600423	0.000174	1.735248	0.587918	-0.000082
1637	8.1800e+01	7.2688	-0.637898	0.000158	1.580622	0.535529	-0.000075
1638	8.1850e+01	7.2896	-0.674967	-0.000156	-1.563441	-0.529708	-0.000074
1639	8.1900e+01	7.2367	-0.717330	0.000179	1.786790	0.605381	-0.000085
1640	8.1950e+01	7.2030	-0.758472	0.000174	1.735248	0.587918	-0.000082
1641	8.2000e+01	7.2255	-0.792281	-0.000143	-1.425996	-0.483140	-0.000068
1642	8.2050e+01	7.2271	-0.833016	-0.000172	-1.718067	-0.582097	-0.000081
1643	8.2100e+01	7.1581	-0.871306	0.000161	1.614983	0.547171	-0.000077
1644	8.2150e+01	7.1565	-0.910818	0.000167	1.666525	0.564634	-0.000079
1645	8.2200e+01	7.1436	-0.949108	0.000161	1.614983	0.547171	-0.000077
1646	8.2250e+01	7.1084	-0.982510	0.000141	1.408815	0.477319	-0.000067
1647	8.2300e+01	7.0715	-1.022430	0.000168	1.683706	0.570455	-0.000080
1648	8.2350e+01	7.0795	-1.062349	-0.000168	-1.683706	-0.570455	-0.000080
1649	8.2400e+01	7.0666	-1.106342	0.000186	1.855512	0.628665	-0.000088
1650	8.2450e+01	7.0233	-1.138522	0.000136	1.357273	0.459856	-0.000064
1651	8.2500e+01	7.0265	-1.170702	-0.000136	-1.357273	-0.459856	-0.000064
1652	8.2550e+01	7.0041	-1.211844	0.000174	1.735248	0.587918	-0.000082
1653	8.2600e+01	6.9688	-1.249727	0.000160	1.597802	0.541350	-0.000076
1654	8.2650e+01	6.9800	-1.284351	-0.000146	-1.460357	-0.494782	-0.000069
1655	8.2700e+01	6.9415	-1.325085	0.000172	1.718067	0.582097	-0.000081
1656	8.2750e+01	6.9046	-1.357265	0.000136	1.357273	0.459856	-0.000064
1657	8.2800e+01	6.8870	-1.397592	0.000170	1.700886	0.576276	-0.000081
1658	8.2850e+01	6.8629	-1.432624	0.000148	1.477538	0.500603	-0.000070
1659	8.2900e+01	6.8404	-1.472543	0.000168	1.683706	0.570455	-0.000080
1660	8.2950e+01	6.8244	-1.510426	0.000160	1.597802	0.541350	-0.000076
1661	8.3000e+01	6.8276	-1.545865	-0.000149	-1.494718	-0.506424	-0.000071
1662	8.3050e+01	6.8052	-1.585377	0.000167	1.666525	0.564634	-0.000079
1663	8.3100e+01	6.7683	-1.625704	0.000170	1.700886	0.576276	-0.000081
1664	8.3150e+01	6.7570	-1.661958	0.000153	1.529080	0.518066	-0.000073
1665	8.3200e+01	6.7410	-1.699026	0.000156	1.563441	0.529708	-0.000074
1666	8.3250e+01	6.7282	-1.734057	0.000148	1.477538	0.500603	-0.000070
1667	8.3300e+01	6.6736	-1.771125	0.000156	1.563441	0.529708	-0.000074
1668	8.3350e+01	6.6880	-1.807379	-0.000153	-1.529080	-0.518066	-0.000073
1669	8.3400e+01	6.6592	-1.849335	0.000177	1.769609	0.599560	-0.000084
1670	8.3450e+01	6.6255	-1.886403	0.000156	1.563441	0.529708	-0.000074
1671	8.3500e+01	6.6159	-1.921842	0.000149	1.494718	0.506424	-0.000071
1672	8.3550e+01	6.5774	-1.960132	0.000161	1.614983	0.547171	-0.000077
1673	8.3600e+01	6.5709	-1.996793	0.000155	1.546260	0.523887	-0.000073
1674	8.3650e+01	6.5581	-2.041601	0.000189	1.889874	0.640307	-0.000090
1675	8.3700e+01	6.5164	-2.073781	0.000136	1.357273	0.459856	-0.000064
1676	8.3750e+01	6.5324	-2.116145	-0.000179	-1.786790	-0.605381	-0.000085
1677	8.3800e+01	6.4923	-2.147103	0.000131	1.305731	0.442394	-0.000062
1678	8.3850e+01	6.4490	-2.182949	0.000151	1.511899	0.512245	-0.000072
1679	8.3900e+01	6.4586	-2.220424	-0.000158	-1.580622	-0.535529	-0.000075
1680	8.3950e+01	6.4346	-2.256678	0.000153	1.529080	0.518066	-0.000073
1681	8.4000e+01	6.4250	-2.298227	0.000175	1.752428	0.593739	-0.000083
1682	8.4050e+01	6.3881	-2.333665	0.000149	1.494718	0.506424	-0.000071
1683	8.4100e+01	6.3784	-2.369104	0.000149	1.494718	0.506424	-0.000071
1684	8.4150e+01	6.3431	-2.407802	0.000163	1.632164	0.552992	-0.000077
1685	8.4200e+01	6.3303	-2.450573	0.000180	1.803970	0.611202	-0.000086
1686	8.4250e+01	6.3159	-2.488456	0.000160	1.597802	0.541350	-0.000076
1687	8.4300e+01	6.3094	-2.520636	0.000136	1.357273	0.459856	-0.000064
1688	8.4350e+01	6.2886	-2.554852	0.000144	1.443176	0.488961	-0.000068
1689	8.4400e+01	6.2517	-2.599253	0.000187	1.872693	0.634486	-0.000089
1690	8.4450e+01	6.2421	-2.635099	0.000151	1.511899	0.512245	-0.000072
1691	8.4500e+01	6.2212	-2.672574	0.000158	1.580622	0.535529	-0.000075
1692	8.4550e+01	6.1923	-2.713309	0.000172	1.718067	0.582097	-0.000081
1693	8.4600e+01	6.1859	-2.749970	0.000155	1.546260	0.523887	-0.000073
1694	8.4650e+01	6.1442	-2.785816	0.000151	1.511899	0.512245	-0.000072
1695	8.4700e+01	6.1169	-2.824513	0.000163	1.632164	0.552992	-0.000077
1696	8.4750e+01	6.1153	-2.859137	0.000146	1.460357	0.494782	-0.000069
1697	8.4800e+01	6.0977	-2.900279	0.000174	1.735248	0.587918	-0.000082
1698	8.4850e+01	6.1121	-2.938569	-0.000161	-1.614983	-0.547171	-0.000077
1699	8.4900e+01	6.0480	-2.974008	0.000149	1.494718	0.506424	-0.000071
1700	8.4950e+01	6.0544	-3.018408	-0.000187	-1.872693	-0.634486	-0.000089
1701	8.5000e+01	6.0223	-3.056291	0.000160	1.597802	0.541350	-0.000076
1702	8.5050e+01	5.9934	-3.090915	0.000146	1.460357	0.494782	-0.000069
1703	8.5100e+01	5.9758	-3.128798	0.000160	1.597802	0.541350	-0.000076
1704	8.5150e+01	5.9308	-3.167496	0.000163	1.632164	0.552992	-0.000077
1705	8.5200e+01	5.9645	-3.201305	-0.000143	-1.425996	-0.483140	-0.000068
1706	8.5250e+01	5.9020	-3.240003	0.000163	1.632164	0.552992	-0.000077
1707	8.5300e+01	5.9020	-3.278293	0.000161	1.614983	0.547171	-0.000077
1708	8.5350e+01	5.8571	-3.315361	0.000156	1.563441	0.529708	-0.000074
1709	8.5400e+01	5.8490	-3.352837	0.000158	1.580622	0.535529	-0.000075
1710	8.5450e+01	5.8298	-3.393571	0.000172	1.718067	0.582097	-0.000081
1711	8.5500e+01	5.8234	-3.433898	0.000170	1.700886	0.576276	-0.000081
1712	8.5550e+01	5.7833	-3.470559	0.000155	1.546260	0.523887	-0.000073
1713	8.5600e+01	5.7640	-3.509663	0.000165	1.649344	0.558813	-0.000078
1714	8.5650e+01	5.7624	-3.549583	0.000168	1.683706	0.570455	-0.000080
1715	8.5700e+01	5.7319	-3.587466	0.000160	1.597802	0.541350	-0.000076
1716	8.5750e+01	5.7223	-3.624941	0.000158	1.580622	0.535529	-0.000075
1717	8.5800e+01	5.6662	-3.663232	0.000161	1.614983	0.547171	-0.000077
1718	8.5850e+01	5.6790	-3.704373	-0.000174	-1.735248	-0.587918	-0.000082
1719	8.5900e+01	5.6180	-3.741441	0.000156	1.563441	0.529708	-0.000074
1720	8.5950e+01	5.6244	-3.780139	-0.000163	-1.632164	-0.552992	-0.000077
1721	8.6000e+01	5.6260	-3.812726	-0.000137	-1.374454	-0.465677	-0.000065
1722	8.6050e+01	5.6068	-3.852646	0.000168	1.683706	0.570455	-0.000080
1723	8.6100e+01	5.5859	-3.887677	0.000148	1.477538	0.500603	-0.000070
1724	8.6150e+01	5.5506	-3.926375	0.000163	1.632164	0.552992	-0.000077
1725	8.6200e+01	5.5298	-3.967516	0.000174	1.735248	0.587918	-0.000082
1726	8.6250e+01	5.5218	-4.002548	0.000148	1.477538	0.500603	-0.000070
1727	8.6300e+01	5.5025	-4.042060	0.000167	1.666525	0.564634	-0.000079
1728	8.6350e+01	5.4865	-4.086460	0.000187	1.872693	0.634486	-0.000089
1729	8.6400e+01	5.4544	-4.124751	0.000161	1.614983	0.547171	-0.000077
1730	8.6450e+01	5.4319	-4.156931	0.000136	1.357273	0.459856	-0.000064
1731	8.6500e+01	5.4031	-4.197665	0.000172	1.718067	0.582097	-0.000081
1732	8.6550e+01	5.3966	-4.239214	0.000175	1.752428	0.593739	-0.000083
1733	8.6600e+01	5.3790	-4.273838	0.000146	1.460357	0.494782	-0.000069
1734	8.6650e+01	5.3646	-4.310499	0.000155	1.546260	0.523887	-0.000073
1735	8.6700e+01	5.3405	-4.352863	0.000179	1.786790	0.605381	-0.000085
1736	8.6750e+01	5.3373	-4.392782	0.000168	1.683706	0.570455	-0.000080
1737	8.6800e+01	5.2940	-4.430665	0.000160	1.597802	0.541350	-0.000076
1738	8.6850e+01	5.3068	-4.466918	-0.000153	-1.529080	-0.518066	-0.000073
1739	8.6900e+01	5.2635	-4.506023	0.000165	1.649344	0.558813	-0.000078
1740	8.6950e+01	5.2507	-4.547572	0.000175	1.752428	0.593739	-0.000083
1741	8.7000e+01	5.2154	-4.584233	0.000155	1.546260	0.523887	-0.000073
1742	8.7050e+01	5.1897	-4.626189	0.000177	1.769609	0.599560	-0.000084
1743	8.7100e+01	5.1849	-4.659591	0.000141	1.408815	0.477319	-0.000067
1744	8.7150e+01	5.1319	-4.704806	0.000191	1.907054	0.646127	-0.000090
1745	8.7200e+01	5.1031	-4.741060	0.000153	1.529080	0.518066	-0.000073
1746	8.7250e+01	5.1287	-4.778943	-0.000160	-1.597802	-0.541350	-0.000076
1747	8.7300e+01	5.0854	-4.816418	0.000158	1.580622	0.535529	-0.000075
1748	8.7350e+01	5.0790	-4.853487	0.000156	1.563441	0.529708	-0.000074
1749	8.7400e+01	5.0405	-4.890555	0.000156	1.563441	0.529708	-0.000074
1750	8.7450e+01	5.0517	-4.930474	-0.000168	-1.683706	-0.570455	-0.000080
1751	8.7500e+01	5.0116	-4.968764	0.000161	1.614983	0.547171	-0.000077
1752	8.7550e+01	5.0100	-5.004203	0.000149	1.494718	0.506424	-0.000071
1753	8.7600e+01	4.9860	-5.042086	0.000160	1.597802	0.541350	-0.000076
1754	8.7650e+01	4.9394	-5.083635	0.000175	1.752428	0.593739	-0.000083
1755	8.7700e+01	4.9539	-5.119074	-0.000149	-1.494718	-0.506424	-0.000071
1756	8.7750e+01	4.8977	-5.156549	0.000158	1.580622	0.535529	-0.000075
1757	8.7800e+01	4.9090	-5.193618	-0.000156	-1.563441	-0.529708	-0.000074
1758	8.7850e+01	4.8496	-5.233130	0.000167	1.666525	0.564634	-0.000079
1759	8.7900e+01	4.8448	-5.270605	0.000158	1.580622	0.535529	-0.000075
1760	8.7950e+01	4.8271	-5.309710	0.000165	1.649344	0.558813	-0.000078
1761	8.8000e+01	4.8239	-5.348000	0.000161	1.614983	0.547171	-0.000077
1762	8.8050e+01	4.8095	-5.383032	0.000148	1.477538	0.500603	-0.000070
1763	8.8100e+01	4.7630	-5.422544	0.000167	1.666525	0.564634	-0.000079
1764	8.8150e+01	4.7373	-5.466944	0.000187	1.872693	0.634486	-0.000089
1765	8.8200e+01	4.7533	-5.502791	-0.000151	-1.511899	-0.512245	-0.000072
1766	8.8250e+01	4.7309	-5.541895	0.000165	1.649344	0.558813	-0.000078
1767	8.8300e+01	4.6812	-5.579371	0.000158	1.580622	0.535529	-0.000075
1768	8.8350e+01	4.6779	-5.620105	0.000172	1.718067	0.582097	-0.000081
1769	8.8400e+01	4.6603	-5.661654	0.000175	1.752428	0.593739	-0.000083
1770	8.8450e+01	4.6330	-5.700352	0.000163	1.632164	0.552992	-0.000077
1771	8.8500e+01	4.5977	-5.738642	0.000161	1.614983	0.547171	-0.000077
1772	8.8550e+01	4.5945	-5.772859	0.000144	1.443176	0.488961	-0.000068
1773	8.8600e+01	4.5544	-5.811964	0.000165	1.649344	0.558813	-0.000078
1774	8.8650e+01	4.5865	-5.848624	-0.000155	-1.546260	-0.523887	-0.000073
1775	8.8700e+01	4.5239	-5.891395	0.000180	1.803970	0.611202	-0.000086
1776	8.8750e+01	4.5207	-5.926427	0.000148	1.477538	0.500603	-0.000070
1777	8.8800e+01	4.5015	-5.965532	0.000165	1.649344	0.558813	-0.000078
1778	8.8850e+01	4.4726	-6.004637	0.000165	1.649344	0.558813	-0.000078
1779	8.8900e+01	4.4758	-6.041705	-0.000156	-1.563441	-0.529708	-0.000074
1780	8.8950e+01	4.4710	-6.084068	0.000179	1.786790	0.605381	-0.000085
1781	8.9000e+01	4.4277	-6.122359	0.000161	1.614983	0.547171	-0.000077
1782	8.9050e+01	4.3876	-6.156575	0.000144	1.443176	0.488961	-0.000068
1783	8.9100e+01	4.3892	-6.191607	-0.000148	-1.477538	-0.500603	-0.000070
1784	8.9150e+01	4.3443	-6.232341	0.000172	1.718067	0.582097	-0.000081
1785	8.9200e+01	4.3186	-6.271446	0.000165	1.649344	0.558813	-0.000078
1786	8.9250e+01	4.3218	-6.315439	-0.000186	-1.855512	-0.628665	-0.000088
1787	8.9300e+01	4.2993	-6.354136	0.000163	1.632164	0.552992	-0.000077
1788	8.9350e+01	4.2753	-6.395278	0.000174	1.735248	0.587918	-0.000082
1789	8.9400e+01	4.2496	-6.433976	0.000163	1.632164	0.552992	-0.000077
1790	8.9450e+01	4.2336	-6.473488	0.000167	1.666525	0.564634	-0.000079
1791	8.9500e+01	4.1967	-6.513815	0.000170	1.700886	0.576276	-0.000081
1792	8.9550e+01	4.1758	-6.554549	0.000172	1.718067	0.582097	-0.000081
1793	8.9600e+01	4.1774	-6.591210	-0.000155	-1.546260	-0.523887	-0.000073
1794	8.9650e+01	4.1598	-6.629500	0.000161	1.614983	0.547171	-0.000077
1795	8.9700e+01	4.0940	-6.669012	0.000167	1.666525	0.564634	-0.000079
1796	8.9750e+01	4.1245	-6.715042	-0.000194	-1.941416	-0.657769	-0.000092
1797	8.9800e+01	4.0667	-6.754147	0.000165	1.649344	0.558813	-0.000078
1798	8.9850e+01	4.0812	-6.796918	-0.000180	-1.803970	-0.611202	-0.000086
1799	8.9900e+01	4.0539	-6.835208	0.000161	1.614983	0.547171	-0.000077
1800	8.9950e+01	4.0330	-6.874313	0.000165	1.649344	0.558813	-0.000078
1801	9.0000e+01	4.0314	-6.915454	0.000174	1.735248	0.587918	-0.000082
1802	9.0050e+01	3.9881	-6.956596	0.000174	1.735248	0.587918	-0.000082
1803	9.0100e+01	3.9737	-6.994886	0.000161	1.614983	0.547171	-0.000077
1804	9.0150e+01	3.9913	-7.033991	-0.000165	-1.649344	-0.558813	-0.000078
1805	9.0200e+01	3.9288	-7.075133	0.000174	1.735248	0.587918	-0.000082
1806	9.0250e+01	3.9191	-7.114238	0.000165	1.649344	0.558813	-0.000078
1807	9.0300e+01	3.9223	-7.157416	-0.000182	-1.821151	-0.617023	-0.000086
1808	9.0350e+01	3.8534	-7.196521	0.000165	1.649344	0.558813	-0.000078
1809	9.0400e+01	3.8598	-7.233182	-0.000155	-1.546260	-0.523887	-0.000073
1810	9.0450e+01	3.8373	-7.275545	0.000179	1.786790	0.605381	-0.000085
1811	9.0500e+01	3.8117	-7.316280	0.000172	1.718067	0.582097	-0.000081
1812	9.0550e+01	3.7667	-7.358643	0.000179	1.786790	0.605381	-0.000085
1813	9.0600e+01	3.7748	-7.403044	-0.000187	-1.872693	-0.634486	-0.000089
1814	9.0650e+01	3.7507	-7.442148	0.000165	1.649344	0.558813	-0.000078
1815	9.0700e+01	3.7443	-7.483697	0.000175	1.752428	0.593739	-0.000083
1816	9.0750e+01	3.7042	-7.525654	0.000177	1.769609	0.599560	-0.000084
1817	9.0800e+01	3.6913	-7.565166	0.000167	1.666525	0.564634	-0.000079
1818	9.0850e+01	3.6673	-7.608752	0.000184	1.838332	0.622844	-0.000087
1819	9.0900e+01	3.6849	-7.646634	-0.000160	-1.597802	-0.541350	-0.000076
1820	9.0950e+01	3.6272	-7.693886	0.000199	1.992958	0.675232	-0.000095
1821	9.1000e+01	3.5871	-7.732584	0.000163	1.632164	0.552992	-0.000077
1822	9.1050e+01	3.5806	-7.776169	0.000184	1.838332	0.622844	-0.000087
1823	9.1100e+01	3.5758	-7.823014	0.000198	1.975777	0.669411	-0.000094
1824	9.1150e+01	3.5614	-7.864970	0.000177	1.769609	0.599560	-0.000084
1825	9.1200e+01	3.5389	-7.902853	0.000160	1.597802	0.541350	-0.000076
1826	9.1250e+01	3.4972	-7.945216	0.000179	1.786790	0.605381	-0.000085
1827	9.1300e+01	3.4796	-7.987987	0.000180	1.803970	0.611202	-0.000086
1828	9.1350e+01	3.4988	-8.031980	-0.000186	-1.855512	-0.628665	-0.000088
1829	9.1400e+01	3.4443	-8.071493	0.000167	1.666525	0.564634	-0.000079
1830	9.1450e+01	3.4427	-8.114671	0.000182	1.821151	0.617023	-0.000086
1831	9.1500e+01	3.4138	-8.153776	0.000165	1.649344	0.558813	-0.000078
1832	9.1550e+01	3.3913	-8.201028	0.000199	1.992958	0.675232	-0.000095
1833	9.1600e+01	3.3769	-8.246243	0.000191	1.907054	0.646127	-0.000090
1834	9.1650e+01	3.3593	-8.284125	0.000160	1.597802	0.541350	-0.000076
1835	9.1700e+01	3.3609	-8.328933	-0.000189	-1.889874	-0.640307	-0.000090
1836	9.1750e+01	3.3208	-8.370482	0.000175	1.752428	0.593739	-0.000083
1837	9.1800e+01	3.2887	-8.416104	0.000192	1.924235	0.651948	-0.000091
1838	9.1850e+01	3.2951	-8.458468	-0.000179	-1.786790	-0.605381	-0.000085
1839	9.1900e+01	3.2646	-8.501239	0.000180	1.803970	0.611202	-0.000086
1840	9.1950e+01	3.2341	-8.546047	0.000189	1.889874	0.640307	-0.000090
1841	9.2000e+01	3.2261	-8.591262	0.000191	1.907054	0.646127	-0.000090
1842	9.2050e+01	3.2117	-8.630774	0.000167	1.666525	0.564634	-0.000079
1843	9.2100e+01	3.1844	-8.675989	0.000191	1.907054	0.646127	-0.000090
1844	9.2150e+01	3.1603	-8.716723	0.000172	1.718067	0.582097	-0.000081
1845	9.2200e+01	3.1507	-8.758680	0.000177	1.769609	0.599560	-0.000084
1846	9.2250e+01	3.1315	-8.801858	0.000182	1.821151	0.617023	-0.000086
1847	9.2300e+01	3.0946	-8.847073	0.000191	1.907054	0.646127	-0.000090
1848	9.2350e+01	3.0689	-8.894325	0.000199	1.992958	0.675232	-0.000095
1849	9.2400e+01	3.0641	-8.937096	0.000180	1.803970	0.611202	-0.000086
1850	9.2450e+01	3.0384	-8.983125	0.000194	1.941416	0.657769	-0.000092
1851	9.2500e+01	3.0224	-9.021415	0.000161	1.614983	0.547171	-0.000077
1852	9.2550e+01	2.9967	-9.065408	0.000186	1.855512	0.628665	-0.000088
1853	9.2600e+01	2.9726	-9.111438	0.000194	1.941416	0.657769	-0.000092
1854	9.2650e+01	2.9710	-9.154209	0.000180	1.803970	0.611202	-0.000086
1855	9.2700e+01	2.9566	-9.196573	0.000179	1.786790	0.605381	-0.000085
1856	9.2750e+01	2.9261	-9.243010	0.000196	1.958596	0.663590	-0.000093
1857	9.2800e+01	2.9133	-9.287410	0.000187	1.872693	0.634486	-0.000089
1858	9.2850e+01	2.8507	-9.330996	0.000184	1.838332	0.622844	-0.000087
1859	9.2900e+01	2.8507	-9.379470	0.000204	2.044500	0.692695	-0.000097
1860	9.2950e+01	2.8732	-9.423463	-0.000186	-1.855512	-0.628665	-0.000088
1861	9.3000e+01	2.8202	-9.469085	0.000192	1.924235	0.651948	-0.000091
1862	9.3050e+01	2.8026	-9.512263	0.000182	1.821151	0.617023	-0.000086
1863	9.3100e+01	2.7898	-9.555034	0.000180	1.803970	0.611202	-0.000086
1864	9.3150e+01	2.7689	-9.599842	0.000189	1.889874	0.640307	-0.000090
1865	9.3200e+01	2.7368	-9.646686	0.000198	1.975777	0.669411	-0.000094
1866	9.3250e+01	2.6694	-9.694345	0.000201	2.010138	0.681053	-0.000095
1867	9.3300e+01	2.7144	-9.735487	-0.000174	-1.735248	-0.587918	-0.000082
1868	9.3350e+01	2.7095	-9.778665	0.000182	1.821151	0.617023	-0.000086
1869	9.3400e+01	2.6486	-9.828361	0.000210	2.096042	0.710158	-0.000099
1870	9.3450e+01	2.6486	-9.872761	0.000187	1.872693	0.634486	-0.000089
1871	9.3500e+01	2.6085	-9.916347	0.000184	1.838332	0.622844	-0.000087
1872	9.3550e+01	2.5956	-9.963599	0.000199	1.992958	0.675232	-0.000095
1873	9.3600e+01	2.5748	-10.007592	0.000186	1.855512	0.628665	-0.000088
1874	9.3650e+01	2.5571	-10.053622	0.000194	1.941416	0.657769	-0.000092
1875	9.3700e+01	2.5154	-10.100059	0.000196	1.958596	0.663590	-0.000093
1876	9.3750e+01	2.5138	-10.148125	0.000203	2.027319	0.686874	-0.000096
1877	9.3800e+01	2.4882	-10.198228	0.000211	2.113222	0.715979	-0.000100
1878	9.3850e+01	2.4753	-10.236518	0.000161	1.614983	0.547171	-0.000077
1879	9.3900e+01	2.4705	-10.282955	0.000196	1.958596	0.663590	-0.000093
1880	9.3950e+01	2.4449	-10.326948	0.000186	1.855512	0.628665	-0.000088
1881	9.4000e+01	2.4224	-10.370534	0.000184	1.838332	0.622844	-0.000087
1882	9.4050e+01	2.4015	-10.423081	0.000222	2.216306	0.750905	-0.000105
1883	9.4100e+01	2.3646	-10.466667	0.000184	1.838332	0.622844	-0.000087
1884	9.4150e+01	2.3630	-10.512289	0.000192	1.924235	0.651948	-0.000091
1885	9.4200e+01	2.3342	-10.560763	0.000204	2.044500	0.692695	-0.000097
1886	9.4250e+01	2.3133	-10.605163	0.000187	1.872693	0.634486	-0.000089
1887	9.4300e+01	2.2828	-10.653637	0.000204	2.044500	0.692695	-0.000097
1888	9.4350e+01	2.2908	-10.695593	-0.000177	-1.769609	-0.599560	-0.000084
1889	9.4400e+01	2.2604	-10.747733	0.000220	2.199126	0.745084	-0.000104
1890	9.4450e+01	2.2572	-10.792541	0.000189	1.889874	0.640307	-0.000090
1891	9.4500e+01	2.2203	-10.841422	0.000206	2.061680	0.698516	-0.000098
1892	9.4550e+01	2.1898	-10.888266	0.000198	1.975777	0.669411	-0.000094
1893	9.4600e+01	2.1898	-10.934296	0.000194	1.941416	0.657769	-0.000092
1894	9.4650e+01	2.1625	-10.981955	0.000201	2.010138	0.681053	-0.000095
1895	9.4700e+01	2.1449	-11.026763	0.000189	1.889874	0.640307	-0.000090
1896	9.4750e+01	2.0999	-11.073607	0.000198	1.975777	0.669411	-0.000094
1897	9.4800e+01	2.1048	-11.123303	-0.000210	-2.096042	-0.710158	-0.000099
1898	9.4850e+01	2.0679	-11.164852	0.000175	1.752428	0.593739	-0.000083
1899	9.4900e+01	2.0502	-11.220658	0.000235	2.353752	0.797473	-0.000112
1900	9.4950e+01	2.0486	-11.262207	0.000175	1.752428	0.593739	-0.000083
1901	9.5000e+01	2.0085	-11.309051	0.000198	1.975777	0.669411	-0.000094
1902	9.5050e+01	1.9860	-11.357118	0.000203	2.027319	0.686874	-0.000096
1903	9.5100e+01	1.9540	-11.404777	0.000201	2.010138	0.681053	-0.000095
1904	9.5150e+01	1.9652	-11.452436	-0.000201	-2.010138	-0.681053	-0.000095
1905	9.5200e+01	1.9459	-11.493985	0.000175	1.752428	0.593739	-0.000083
1906	9.5250e+01	1.9363	-11.544903	0.000215	2.147584	0.727621	-0.000102
1907	9.5300e+01	1.9090	-11.590525	0.000192	1.924235	0.651948	-0.000091
1908	9.5350e+01	1.8994	-11.640628	0.000211	2.113222	0.715979	-0.000100
1909	9.5400e+01	1.8593	-11.685436	0.000189	1.889874	0.640307	-0.000090
1910	9.5450e+01	1.8208	-11.736761	0.000216	2.164764	0.733442	-0.000103
1911	9.5500e+01	1.8176	-11.782383	0.000192	1.924235	0.651948	-0.000091
1912	9.5550e+01	1.8128	-11.832486	0.000211	2.113222	0.715979	-0.000100
1913	9.5600e+01	1.7871	-11.885034	0.000222	2.216306	0.750905	-0.000105
1914	9.5650e+01	1.7614	-11.932285	0.000199	1.992958	0.675232	-0.000095
1915	9.5700e+01	1.7470	-11.978722	0.000196	1.958596	0.663590	-0.000093
1916	9.5750e+01	1.7053	-12.027196	0.000204	2.044500	0.692695	-0.000097
1917	9.5800e+01	1.6957	-12.077707	0.000213	2.130403	0.721800	-0.000101
1918	9.5850e+01	1.6989	-12.129032	-0.000216	-2.164764	-0.733442	-0.000103
1919	9.5900e+01	1.6668	-12.179542	0.000213	2.130403	0.721800	-0.000101
1920	9.5950e+01	1.6475	-12.228831	0.000208	2.078861	0.704337	-0.000099
1921	9.6000e+01	1.6219	-12.278527	0.000210	2.096042	0.710158	-0.000099
1922	9.6050e+01	1.5978	-12.320890	0.000179	1.786790	0.605381	-0.000085
1923	9.6100e+01	1.5754	-12.374252	0.000225	2.250668	0.762547	-0.000107
1924	9.6150e+01	1.5609	-12.425985	0.000218	2.181945	0.739263	-0.000103
1925	9.6200e+01	1.5561	-12.474051	0.000203	2.027319	0.686874	-0.000096
1926	9.6250e+01	1.5240	-12.527413	0.000225	2.250668	0.762547	-0.000107
1927	9.6300e+01	1.5016	-12.575887	0.000204	2.044500	0.692695	-0.000097
1928	9.6350e+01	1.4839	-12.626397	0.000213	2.130403	0.721800	-0.000101
1929	9.6400e+01	1.4486	-12.677315	0.000215	2.147584	0.727621	-0.000102
1930	9.6450e+01	1.4374	-12.725381	0.000203	2.027319	0.686874	-0.000096
1931	9.6500e+01	1.4406	-12.768560	-0.000182	-1.821151	-0.617023	-0.000086
1932	9.6550e+01	1.4133	-12.821921	0.000225	2.250668	0.762547	-0.000107
1933	9.6600e+01	1.3604	-12.872839	0.000215	2.147584	0.727621	-0.000102
1934	9.6650e+01	1.3604	-12.922942	0.000211	2.113222	0.715979	-0.000100
1935	9.6700e+01	1.3748	-12.973860	-0.000215	-2.147584	-0.727621	-0.000102
1936	9.6750e+01	1.2994	-13.020297	0.000196	1.958596	0.663590	-0.000093
1937	9.6800e+01	1.2882	-13.071215	0.000215	2.147584	0.727621	-0.000102
1938	9.6850e+01	1.2818	-13.121318	0.000211	2.113222	0.715979	-0.000100
1939	9.6900e+01	1.2722	-13.173865	0.000222	2.216306	0.750905	-0.000105
1940	9.6950e+01	1.2224	-13.223561	0.000210	2.096042	0.710158	-0.000099
1941	9.7000e+01	1.2369	-13.275701	-0.000220	-2.199126	-0.745084	-0.000104
1942	9.7050e+01	1.1807	-13.327026	0.000216	2.164764	0.733442	-0.000103
1943	9.7100e+01	1.1679	-13.380795	0.000227	2.267848	0.768368	-0.000108
1944	9.7150e+01	1.1647	-13.430084	0.000208	2.078861	0.704337	-0.000099
1945	9.7200e+01	1.1214	-13.483853	0.000227	2.267848	0.768368	-0.000108
1946	9.7250e+01	1.0893	-13.537622	0.000227	2.267848	0.768368	-0.000108
1947	9.7300e+01	1.0925	-13.589762	-0.000220	-2.199126	-0.745084	-0.000104
1948	9.7350e+01	1.0684	-13.643531	0.000227	2.267848	0.768368	-0.000108
1949	9.7400e+01	1.0636	-13.691598	0.000203	2.027319	0.686874	-0.000096
1950	9.7450e+01	1.0315	-13.744960	0.000225	2.250668	0.762547	-0.000107
1951	9.7500e+01	1.0042	-13.792211	0.000199	1.992958	0.675232	-0.000095
1952	9.7550e+01	0.9882	-13.846795	0.000230	2.302210	0.780010	-0.000109
1953	9.7600e+01	0.9577	-13.897306	0.000213	2.130403	0.721800	-0.000101
1954	9.7650e+01	0.9465	-13.952297	0.000232	2.319390	0.785831	-0.000110
1955	9.7700e+01	0.9224	-14.003622	0.000216	2.164764	0.733442	-0.000103
1956	9.7750e+01	0.9224	-14.056577	0.000223	2.233487	0.756726	-0.000106
1957	9.7800e+01	0.8903	-14.105051	0.000204	2.044500	0.692695	-0.000097
1958	9.7850e+01	0.8839	-14.158005	0.000223	2.233487	0.756726	-0.000106
1959	9.7900e+01	0.8374	-14.211367	0.000225	2.250668	0.762547	-0.000107
1960	9.7950e+01	0.8438	-14.262285	-0.000215	-2.147584	-0.727621	-0.000102
1961	9.8000e+01	0.8294	-14.316869	0.000230	2.302210	0.780010	-0.000109
1962	9.8050e+01	0.7797	-14.367786	0.000215	2.147584	0.727621	-0.000102
1963	9.8100e+01	0.7604	-14.421556	0.000227	2.267848	0.768368	-0.000108
1964	9.8150e+01	0.7476	-14.473288	0.000218	2.181945	0.739263	-0.000103
1965	9.8200e+01	0.7363	-14.520947	0.000201	2.010138	0.681053	-0.000095
1966	9.8250e+01	0.6946	-14.574309	0.000225	2.250668	0.762547	-0.000107
1967	9.8300e+01	0.7010	-14.627671	-0.000225	-2.250668	-0.762547	-0.000107
1968	9.8350e+01	0.6609	-14.679811	0.000220	2.199126	0.745084	-0.000104
1969	9.8400e+01	0.6898	-14.729507	-0.000210	-2.096042	-0.710158	-0.000099
1970	9.8450e+01	0.6465	-14.785720	0.000237	2.370932	0.803294	-0.000112
1971	9.8500e+01	0.6369	-14.841119	0.000234	2.336571	0.791652	-0.000111
1972	9.8550e+01	0.6064	-14.896110	0.000232	2.319390	0.785831	-0.000110
1973	9.8600e+01	0.5839	-14.946620	0.000213	2.130403	0.721800	-0.000101
1974	9.8650e+01	0.5166	-14.999982	0.000225	2.250668	0.762547	-0.000107
1975	9.8700e+01	0.5278	-15.048863	-0.000206	-2.061680	-0.698516	-0.000098
1976	9.8750e+01	0.5294	-15.104669	-0.000235	-2.353752	-0.797473	-0.000112
1977	9.8800e+01	0.4941	-15.162919	0.000246	2.456836	0.832398	-0.000116
1978	9.8850e+01	0.4797	-15.209764	0.000198	1.975777	0.669411	-0.000094
1979	9.8900e+01	0.4572	-15.264347	0.000230	2.302210	0.780010	-0.000109
1980	9.8950e+01	0.4267	-15.317302	0.000223	2.233487	0.756726	-0.000106
1981	9.9000e+01	0.4251	-15.366998	0.000210	2.096042	0.710158	-0.000099
1982	9.9050e+01	0.3850	-15.422396	0.000234	2.336571	0.791652	-0.000111
1983	9.9100e+01	0.3850	-15.475351	0.000223	2.233487	0.756726	-0.000106
1984	9.9150e+01	0.3674	-15.525861	0.000213	2.130403	0.721800	-0.000101
1985	9.9200e+01	0.3369	-15.574335	0.000204	2.044500	0.692695	-0.000097
1986	9.9250e+01	0.3337	-15.627697	0.000225	2.250668	0.762547	-0.000107
1987	9.9300e+01	0.2888	-15.679022	0.000216	2.164764	0.733442	-0.000103
1988	9.9350e+01	0.2647	-15.732791	0.000227	2.267848	0.768368	-0.000108
1989	9.9400e+01	0.2567	-15.784931	0.000220	2.199126	0.745084	-0.000104
1990	9.9450e+01	0.2454	-15.843589	0.000247	2.474016	0.838219	-0.000117
1991	9.9500e+01	0.2294	-15.892470	0.000206	2.061680	0.698516	-0.000098
1992	9.9550e+01	0.1765	-15.941758	0.000208	2.078861	0.704337	-0.000099
1993	9.9600e+01	0.2086	-15.997157	-0.000234	-2.336571	-0.791652	-0.000111
1994	9.9650e+01	0.1412	-16.051741	0.000230	2.302210	0.780010	-0.000109
1995	9.9700e+01	0.1235	-16.101436	0.000210	2.096042	0.710158	-0.000099
1996	9.9750e+01	0.1059	-16.154391	0.000223	2.233487	0.756726	-0.000106
1997	9.9800e+01	0.1027	-16.209382	0.000232	2.319390	0.785831	-0.000110
1998	9.9850e+01	0.0738	-16.263151	0.000227	2.267848	0.768368	-0.000108
1999	9.9900e+01	0.0513	-16.312440	0.000208	2.078861	0.704337	-0.000099
2000	9.9950e+01	0.0273	-16.365802	0.000225	2.250668	0.762547	-0.000107
2001	1.0000e+02	0.0048	-16.397574	0.000225	2.250668	0.762547	-0.000064

PMax (uC/cm2):	3.74e+01
Pr (uC/cm2):	2.29e+00
-Pr (uC/cm2):	0.00e+00
PLoss (uC/cm2):	0.00e+00
C (Max-Eff) (nF):	1.87e-01
K (Eff):	6.33e+02
Vert. (+/-Pr) Shift (uC/cm2):	1.14e+00
Offset (uC/cm2):	1.87e+01

A (Loop Area - uC/cm2·Volts):	-4.50e-02



Hysteresis Version: 5.48.1 - Radiant Technologies, Inc., 1999 - 9/12/24

