»»»»»»»»»»»»»»»»»»»»»»»»»»»»»»»»»»»» Hysteresis ««««««««««««««««««««««««««««««««««««
»»»  Executed Version:	5.48.1
»»»  Vision Version:	5.48.4 (R)
»»»  Vision Compiled:	9/18/24
»»»  Driver Version:	5.47.0
»»»  Windows Version:	Windows 8 or 8.1
»»»  Processor Information:	x86 (AMD or Intel) - 32 Processors
»»»  Tester Name:	PMF21124-494 (100V)
»»»  Tester S/N:	PMF21124-494
»»»  Internal Amp Type:	100V RevK 270k
»»»  Internal Amp S/N:	iAB2-596/K     
»»»  Execution Count:	1
»»»»»»»»»»»»»»»»»»»»»»»»»»»»»»»»»»»»»»»»»»««««««««««««««««««««««««««««««««««««««««««

Stored:	10/8/2025 - 18:22:0
Configured:	10/08/25 04:22:59 PM
Executed:	10/08/25 06:21:36 PM

»»»»»»»»»»»»»»»»»»»»»»»»»»»»»»»»»»» Sample Info ««««««««««««««««««««««««««««««««««««
Sample Name:	Int. Ref. Ferroelectric
Lot Name:	N/A
Wafer Name:	N/A
Die Row/Column:	0/0
Capacitor Number:	0
Sample Area (cm2):	1.00e-04
Sample Thickness (microns):	3.00e-01

Amplifier:	Internal

»»»»»»»»»»»»»»»»»»»»»»»»»»»»»»»»»»» Tester Info «««««««««««««««««««««««««««««««««««
Tester Name:	PMF21124-494 (100V)
Tester Serial Number:	PMF21124-494
Return Signal Amp. Level:	0.02 [Index: 2]

»»»»»»»»»»»»»»»»»»»»»»»»»»»»»»»» Hysteresis Info ««««««««««««««««««««««««««««««««««
Task Name:	\
Volts:	20.00
Field:	666.67 (kV/cm)
DCBias:	0.00
DCField:	0.00 (kV/cm)
Hysteresis Period (ms):	5.00e-01
Preset:	Enabled
Preset Delay (ms):	1.00e+03
Profile:	Standard Monopolar

»»»»»»»»»»»»»»»»»»»»»»»»»»»»»»»»»»»»»» Data «««««««««««««««««««««««««««««««««««««««
Points:	1001

Valid Data

Point	Time (ms)	Drive Voltage	Measured Polarization (uC/cm2)	Capacitance (uF)	Normalized Capacitance (uF/cm2)	Dielectric Constant	Instantaneous Current (mA)
   1	0.0000e+00	0.0449	-12.342508	-0.000453	-4.528356	-1.534248	-0.036409
   2	5.0000e-04	0.0529	-12.524550	-0.000453	-4.528356	-1.534248	-0.036409
   3	1.0000e-03	0.1171	-11.614336	0.002264	22.641779	7.671242	0.182043
   4	1.5000e-03	0.1652	-11.942013	-0.000815	-8.151040	-2.761647	-0.065535
   5	2.0000e-03	0.1957	-12.269690	-0.000815	-8.151040	-2.761647	-0.065535
   6	2.5000e-03	0.2310	-11.978422	0.000725	7.245369	2.454798	0.058254
   7	3.0000e-03	0.2679	-11.869196	0.000272	2.717013	0.920549	0.021845
   8	3.5000e-03	0.3273	-12.051239	-0.000453	-4.528356	-1.534248	-0.036409
   9	4.0000e-03	0.3593	-11.687153	0.000906	9.056711	3.068497	0.072817
  10	4.5000e-03	0.3882	-11.359476	0.000815	8.151040	2.761647	0.065535
  11	5.0000e-03	0.4331	-11.323067	0.000091	0.905671	0.306850	0.007282
  12	5.5000e-03	0.4829	-11.468702	-0.000362	-3.622685	-1.227399	-0.029127
  13	6.0000e-03	0.5198	-11.359476	0.000272	2.717013	0.920549	0.021845
  14	6.5000e-03	0.5615	-11.359476	0.000000	0.000000	0.000000	0.000000
  15	7.0000e-03	0.5920	-11.505110	-0.000362	-3.622685	-1.227399	-0.029127
  16	7.5000e-03	0.6289	-10.886165	0.001540	15.396409	5.216445	0.123789
  17	8.0000e-03	0.6674	-11.068207	-0.000453	-4.528356	-1.534248	-0.036409
  18	8.5000e-03	0.7043	-11.104616	-0.000091	-0.905671	-0.306850	-0.007282
  19	9.0000e-03	0.7508	-11.068207	0.000091	0.905671	0.306850	0.007282
  20	9.5000e-03	0.8005	-10.776939	0.000725	7.245369	2.454798	0.058254
  21	1.0000e-02	0.8374	-10.667713	0.000272	2.717013	0.920549	0.021845
  22	1.0500e-02	0.8551	-10.303627	0.000906	9.056711	3.068497	0.072817
  23	1.1000e-02	0.9016	-10.776939	-0.001177	-11.773725	-3.989046	-0.094662
  24	1.1500e-02	0.9513	-10.449262	0.000815	8.151040	2.761647	0.065535
  25	1.2000e-02	0.9882	-10.267219	0.000453	4.528356	1.534248	0.036409
  26	1.2500e-02	1.0411	-10.412853	-0.000362	-3.622685	-1.227399	-0.029127
  27	1.3000e-02	1.0829	-10.157993	0.000634	6.339698	2.147948	0.050972
  28	1.3500e-02	1.1214	-10.485670	-0.000815	-8.151040	-2.761647	-0.065535
  29	1.4000e-02	1.1438	-9.975950	0.001268	12.679396	4.295896	0.101944
  30	1.4500e-02	1.1968	-10.157993	-0.000453	-4.528356	-1.534248	-0.036409
  31	1.5000e-02	1.2369	-9.866724	0.000725	7.245369	2.454798	0.058254
  32	1.5500e-02	1.2722	-10.267219	-0.000996	-9.962383	-3.375347	-0.080099
  33	1.6000e-02	1.3331	-9.684681	0.001449	14.490738	4.909595	0.116507
  34	1.6500e-02	1.3732	-10.267219	-0.001449	-14.490738	-4.909595	-0.116507
  35	1.7000e-02	1.4117	-9.903133	0.000906	9.056711	3.068497	0.072817
  36	1.7500e-02	1.4342	-9.648273	0.000634	6.339698	2.147948	0.050972
  37	1.8000e-02	1.4951	-9.866724	-0.000543	-5.434027	-1.841098	-0.043690
  38	1.8500e-02	1.5064	-9.648273	0.000543	5.434027	1.841098	0.043690
  39	1.9000e-02	1.5561	-9.466230	0.000453	4.528356	1.534248	0.036409
  40	1.9500e-02	1.6010	-9.466230	0.000000	0.000000	0.000000	0.000000
  41	2.0000e-02	1.6155	-9.466230	0.000000	0.000000	0.000000	0.000000
  42	2.0500e-02	1.6844	-9.393413	0.000181	1.811342	0.613699	0.014563
  43	2.1000e-02	1.7069	-8.774467	0.001540	15.396409	5.216445	0.123789
  44	2.1500e-02	1.7518	-9.174961	-0.000996	-9.962383	-3.375347	-0.080099
  45	2.2000e-02	1.7999	-8.992919	0.000453	4.528356	1.534248	0.036409
  46	2.2500e-02	1.8336	-9.211370	-0.000543	-5.434027	-1.841098	-0.043690
  47	2.3000e-02	1.8737	-9.102144	0.000272	2.717013	0.920549	0.021845
  48	2.3500e-02	1.9090	-8.592424	0.001268	12.679396	4.295896	0.101944
  49	2.4000e-02	1.9572	-8.701650	-0.000272	-2.717013	-0.920549	-0.021845
  50	2.4500e-02	2.0021	-8.920101	-0.000543	-5.434027	-1.841098	-0.043690
  51	2.5000e-02	2.0326	-8.592424	0.000815	8.151040	2.761647	0.065535
  52	2.5500e-02	2.0743	-8.920101	-0.000815	-8.151040	-2.761647	-0.065535
  53	2.6000e-02	2.0855	-8.628833	0.000725	7.245369	2.454798	0.058254
  54	2.6500e-02	2.1433	-8.519607	0.000272	2.717013	0.920549	0.021845
  55	2.7000e-02	2.1946	-8.264747	0.000634	6.339698	2.147948	0.050972
  56	2.7500e-02	2.2315	-8.191930	0.000181	1.811342	0.613699	0.014563
  57	2.8000e-02	2.2588	-8.483198	-0.000725	-7.245369	-2.454798	-0.058254
  58	2.8500e-02	2.3037	-7.755027	0.001811	18.113423	6.136994	0.145634
  59	2.9000e-02	2.3614	-8.519607	-0.001902	-19.019094	-6.443844	-0.152916
  60	2.9500e-02	2.3967	-8.082704	0.001087	10.868054	3.682196	0.087381
  61	3.0000e-02	2.4465	-8.264747	-0.000453	-4.528356	-1.534248	-0.036409
  62	3.0500e-02	2.4705	-8.082704	0.000453	4.528356	1.534248	0.036409
  63	3.1000e-02	2.5042	-7.572984	0.001268	12.679396	4.295896	0.101944
  64	3.1500e-02	2.5652	-7.755027	-0.000453	-4.528356	-1.534248	-0.036409
  65	3.2000e-02	2.6277	-7.900661	-0.000362	-3.622685	-1.227399	-0.029127
  66	3.2500e-02	2.6149	-7.281715	-0.001540	-15.396409	-5.216445	0.123789
  67	3.3000e-02	2.6823	-7.827844	-0.001359	-13.585067	-4.602745	-0.109226
  68	3.3500e-02	2.7176	-7.318124	0.001268	12.679396	4.295896	0.101944
  69	3.4000e-02	2.7561	-7.973478	-0.001630	-16.302081	-5.523294	-0.131071
  70	3.4500e-02	2.8074	-7.245307	0.001811	18.113423	6.136994	0.145634
  71	3.5000e-02	2.8138	-7.536575	-0.000725	-7.245369	-2.454798	-0.058254
  72	3.5500e-02	2.8844	-7.172490	0.000906	9.056711	3.068497	0.072817
  73	3.6000e-02	2.9101	-7.318124	-0.000362	-3.622685	-1.227399	-0.029127
  74	3.6500e-02	2.9454	-7.245307	0.000181	1.811342	0.613699	0.014563
  75	3.7000e-02	2.9839	-7.245307	0.000000	0.000000	0.000000	0.000000
  76	3.7500e-02	3.0513	-7.245307	0.000000	0.000000	0.000000	0.000000
  77	3.8000e-02	3.0865	-7.281715	-0.000091	-0.905671	-0.306850	-0.007282
  78	3.8500e-02	3.0994	-6.589952	0.001721	17.207752	5.830144	0.138353
  79	3.9000e-02	3.1555	-6.954038	-0.000906	-9.056711	-3.068497	-0.072817
  80	3.9500e-02	3.1860	-6.771995	0.000453	4.528356	1.534248	0.036409
  81	4.0000e-02	3.2341	-6.735587	0.000091	0.905671	0.306850	0.007282
  82	4.0500e-02	3.2774	-7.026855	-0.000725	-7.245369	-2.454798	-0.058254
  83	4.1000e-02	3.3256	-6.844812	0.000453	4.528356	1.534248	0.036409
  84	4.1500e-02	3.3737	-6.298684	0.001359	13.585067	4.602745	0.109226
  85	4.2000e-02	3.3930	-6.553544	-0.000634	-6.339698	-2.147948	-0.050972
  86	4.2500e-02	3.4395	-6.444318	0.000272	2.717013	0.920549	0.021845
  87	4.3000e-02	3.4892	-6.480727	-0.000091	-0.905671	-0.306850	-0.007282
  88	4.3500e-02	3.5165	-6.225867	0.000634	6.339698	2.147948	0.050972
  89	4.4000e-02	3.5438	-6.335092	-0.000272	-2.717013	-0.920549	-0.021845
  90	4.4500e-02	3.5903	-6.043824	0.000725	7.245369	2.454798	0.058254
  91	4.5000e-02	3.6496	-6.189458	-0.000362	-3.622685	-1.227399	-0.029127
  92	4.5500e-02	3.6769	-6.007415	0.000453	4.528356	1.534248	0.036409
  93	4.6000e-02	3.7266	-6.080232	-0.000181	-1.811342	-0.613699	-0.014563
  94	4.6500e-02	3.7459	-5.716147	0.000906	9.056711	3.068497	0.072817
  95	4.7000e-02	3.8052	-5.971007	-0.000634	-6.339698	-2.147948	-0.050972
  96	4.7500e-02	3.8309	-5.716147	0.000634	6.339698	2.147948	0.050972
  97	4.8000e-02	3.8774	-5.461287	0.000634	6.339698	2.147948	0.050972
  98	4.8500e-02	3.9111	-5.898189	-0.001087	-10.868054	-3.682196	-0.087381
  99	4.9000e-02	3.9657	-5.461287	0.001087	10.868054	3.682196	0.087381
 100	4.9500e-02	4.0010	-5.497695	-0.000091	-0.905671	-0.306850	-0.007282
 101	5.0000e-02	4.0362	-5.643329	-0.000362	-3.622685	-1.227399	-0.029127
 102	5.0500e-02	4.0764	-5.497695	0.000362	3.622685	1.227399	0.029127
 103	5.1000e-02	4.1100	-5.352061	0.000362	3.622685	1.227399	0.029127
 104	5.1500e-02	4.1582	-5.606921	-0.000634	-6.339698	-2.147948	-0.050972
 105	5.2000e-02	4.1999	-5.206427	0.000996	9.962383	3.375347	0.080099
 106	5.2500e-02	4.2384	-5.097201	0.000272	2.717013	0.920549	0.021845
 107	5.3000e-02	4.2624	-5.643329	-0.001359	-13.585067	-4.602745	-0.109226
 108	5.3500e-02	4.3138	-4.951566	0.001721	17.207752	5.830144	0.138353
 109	5.4000e-02	4.3715	-4.987975	-0.000091	-0.905671	-0.306850	-0.007282
 110	5.4500e-02	4.3908	-5.315652	-0.000815	-8.151040	-2.761647	-0.065535
 111	5.5000e-02	4.4405	-4.842341	0.001177	11.773725	3.989046	0.094662
 112	5.5500e-02	4.4822	-5.024384	-0.000453	-4.528356	-1.534248	-0.036409
 113	5.6000e-02	4.5175	-4.733115	0.000725	7.245369	2.454798	0.058254
 114	5.6500e-02	4.5528	-4.769524	-0.000091	-0.905671	-0.306850	-0.007282
 115	5.7000e-02	4.6186	-4.733115	0.000091	0.905671	0.306850	0.007282
 116	5.7500e-02	4.6282	-4.878749	-0.000362	-3.622685	-1.227399	-0.029127
 117	5.8000e-02	4.6699	-4.587481	0.000725	7.245369	2.454798	0.058254
 118	5.8500e-02	4.7148	-4.478255	0.000272	2.717013	0.920549	0.021845
 119	5.9000e-02	4.7469	-4.696706	-0.000543	-5.434027	-1.841098	-0.043690
 120	5.9500e-02	4.7967	-4.150578	0.001359	13.585067	4.602745	0.109226
 121	6.0000e-02	4.8464	-4.332621	-0.000453	-4.528356	-1.534248	-0.036409
 122	6.0500e-02	4.8737	-4.696706	-0.000906	-9.056711	-3.068497	-0.072817
 123	6.1000e-02	4.9154	-4.259804	0.001087	10.868054	3.682196	0.087381
 124	6.1500e-02	4.9507	-4.004943	0.000634	6.339698	2.147948	0.050972
 125	6.2000e-02	5.0116	-4.441846	-0.001087	-10.868054	-3.682196	-0.087381
 126	6.2500e-02	5.0389	-4.296212	0.000362	3.622685	1.227399	0.029127
 127	6.3000e-02	5.0742	-3.786492	0.001268	12.679396	4.295896	0.101944
 128	6.3500e-02	5.1047	-4.223395	-0.001087	-10.868054	-3.682196	-0.087381
 129	6.4000e-02	5.1608	-3.968535	0.000634	6.339698	2.147948	0.050972
 130	6.4500e-02	5.1913	-3.822901	0.000362	3.622685	1.227399	0.029127
 131	6.5000e-02	5.2410	-3.713675	0.000272	2.717013	0.920549	0.021845
 132	6.5500e-02	5.2779	-4.041352	-0.000815	-8.151040	-2.761647	-0.065535
 133	6.6000e-02	5.3164	-3.786492	0.000634	6.339698	2.147948	0.050972
 134	6.6500e-02	5.3421	-3.786492	0.000000	0.000000	0.000000	0.000000
 135	6.7000e-02	5.3982	-3.422406	0.000906	9.056711	3.068497	0.072817
 136	6.7500e-02	5.4608	-3.568041	-0.000362	-3.622685	-1.227399	-0.029127
 137	6.8000e-02	5.4704	-3.568041	0.000000	0.000000	0.000000	0.000000
 138	6.8500e-02	5.5202	-3.422406	0.000362	3.622685	1.227399	0.029127
 139	6.9000e-02	5.5506	-3.385998	0.000091	0.905671	0.306850	0.007282
 140	6.9500e-02	5.5988	-3.313181	0.000181	1.811342	0.613699	0.014563
 141	7.0000e-02	5.6341	-3.385998	-0.000181	-1.811342	-0.613699	-0.014563
 142	7.0500e-02	5.6822	-3.313181	0.000181	1.811342	0.613699	0.014563
 143	7.1000e-02	5.7239	-3.094729	0.000543	5.434027	1.841098	0.043690
 144	7.1500e-02	5.7736	-2.912686	0.000453	4.528356	1.534248	0.036409
 145	7.2000e-02	5.7752	-3.313181	-0.000996	-9.962383	-3.375347	-0.080099
 146	7.2500e-02	5.8314	-3.203955	0.000272	2.717013	0.920549	0.021845
 147	7.3000e-02	5.8811	-3.240363	-0.000091	-0.905671	-0.306850	-0.007282
 148	7.3500e-02	5.9052	-2.839869	0.000996	9.962383	3.375347	0.080099
 149	7.4000e-02	5.9629	-2.767052	0.000181	1.811342	0.613699	0.014563
 150	7.4500e-02	5.9902	-2.621418	0.000362	3.622685	1.227399	0.029127
 151	7.5000e-02	6.0367	-2.767052	-0.000362	-3.622685	-1.227399	-0.029127
 152	7.5500e-02	6.0816	-2.839869	-0.000181	-1.811342	-0.613699	-0.014563
 153	7.6000e-02	6.1282	-2.767052	0.000181	1.811342	0.613699	0.014563
 154	7.6500e-02	6.1683	-2.330149	0.001087	10.868054	3.682196	0.087381
 155	7.7000e-02	6.2084	-2.694235	-0.000906	-9.056711	-3.068497	-0.072817
 156	7.7500e-02	6.2212	-2.366558	0.000815	8.151040	2.761647	0.065535
 157	7.8000e-02	6.2886	-2.512192	-0.000362	-3.622685	-1.227399	-0.029127
 158	7.8500e-02	6.3223	-2.694235	-0.000453	-4.528356	-1.534248	-0.036409
 159	7.9000e-02	6.3255	-2.730643	-0.000091	-0.905671	-0.306850	-0.007282
 160	7.9500e-02	6.3913	-2.512192	0.000543	5.434027	1.841098	0.043690
 161	8.0000e-02	6.4490	-2.075289	0.001087	10.868054	3.682196	0.087381
 162	8.0500e-02	6.4747	-2.293740	-0.000543	-5.434027	-1.841098	-0.043690
 163	8.1000e-02	6.4891	-1.929655	0.000906	9.056711	3.068497	0.072817
 164	8.1500e-02	6.5693	-2.293740	-0.000906	-9.056711	-3.068497	-0.072817
 165	8.2000e-02	6.5934	-1.711203	0.001449	14.490738	4.909595	0.116507
 166	8.2500e-02	6.6511	-1.820429	-0.000272	-2.717013	-0.920549	-0.021845
 167	8.3000e-02	6.6784	-2.038880	-0.000543	-5.434027	-1.841098	-0.043690
 168	8.3500e-02	6.7265	-1.747612	0.000725	7.245369	2.454798	0.058254
 169	8.4000e-02	6.7586	-1.711203	0.000091	0.905671	0.306850	0.007282
 170	8.4500e-02	6.8276	-1.820429	-0.000272	-2.717013	-0.920549	-0.021845
 171	8.5000e-02	6.8324	-1.674795	0.000362	3.622685	1.227399	0.029127
 172	8.5500e-02	6.8950	-1.747612	-0.000181	-1.811342	-0.613699	-0.014563
 173	8.6000e-02	6.9014	-2.148106	-0.000996	-9.962383	-3.375347	-0.080099
 174	8.6500e-02	6.9383	-1.820429	0.000815	8.151040	2.761647	0.065535
 175	8.7000e-02	7.0009	-1.674795	0.000362	3.622685	1.227399	0.029127
 176	8.7500e-02	7.0458	-1.419935	0.000634	6.339698	2.147948	0.050972
 177	8.8000e-02	7.0779	-1.274300	0.000362	3.622685	1.227399	0.029127
 178	8.8500e-02	7.1196	-1.529160	-0.000634	-6.339698	-2.147948	-0.050972
 179	8.9000e-02	7.1469	-1.638386	-0.000272	-2.717013	-0.920549	-0.021845
 180	8.9500e-02	7.2062	-1.092257	0.001359	13.585067	4.602745	0.109226
 181	9.0000e-02	7.2239	-1.055849	0.000091	0.905671	0.306850	0.007282
 182	9.0500e-02	7.2784	-1.237892	-0.000453	-4.528356	-1.534248	-0.036409
 183	9.1000e-02	7.3105	-1.347117	-0.000272	-2.717013	-0.920549	-0.021845
 184	9.1500e-02	7.3698	-1.201483	0.000362	3.622685	1.227399	0.029127
 185	9.2000e-02	7.3859	-1.674795	-0.001177	-11.773725	-3.989046	-0.094662
 186	9.2500e-02	7.4340	-1.092257	0.001449	14.490738	4.909595	0.116507
 187	9.3000e-02	7.4854	-0.946623	0.000362	3.622685	1.227399	0.029127
 188	9.3500e-02	7.5142	-1.055849	-0.000272	-2.717013	-0.920549	-0.021845
 189	9.4000e-02	7.5591	-0.800989	0.000634	6.339698	2.147948	0.050972
 190	9.4500e-02	7.5928	-0.800989	0.000000	0.000000	0.000000	0.000000
 191	9.5000e-02	7.6345	-0.728172	0.000181	1.811342	0.613699	0.014563
 192	9.5500e-02	7.6682	-0.728172	0.000000	0.000000	0.000000	0.000000
 193	9.6000e-02	7.7404	-0.364086	0.000906	9.056711	3.068497	0.072817
 194	9.6500e-02	7.7661	-0.873806	-0.001268	-12.679396	-4.295896	-0.101944
 195	9.7000e-02	7.7950	-0.036409	0.002083	20.830436	7.057543	0.167479
 196	9.7500e-02	7.8222	-0.582537	-0.001359	-13.585067	-4.602745	-0.109226
 197	9.8000e-02	7.9057	0.218451	0.001992	19.924765	6.750693	0.160198
 198	9.8500e-02	7.9233	0.109226	-0.000272	-2.717013	-0.920549	-0.021845
 199	9.9000e-02	7.9538	-0.436903	-0.001359	-13.585067	-4.602745	-0.109226
 200	9.9500e-02	7.9987	-0.145634	0.000725	7.245369	2.454798	0.058254
 201	1.0000e-01	8.0340	0.000000	0.000362	3.622685	1.227399	0.029127
 202	1.0050e-01	8.0821	-0.327677	-0.000815	-8.151040	-2.761647	-0.065535
 203	1.0100e-01	8.1254	-0.291269	0.000091	0.905671	0.306850	0.007282
 204	1.0150e-01	8.1639	-0.036409	0.000634	6.339698	2.147948	0.050972
 205	1.0200e-01	8.2105	0.546129	0.001449	14.490738	4.909595	0.116507
 206	1.0250e-01	8.2393	-0.254860	-0.001992	-19.924765	-6.750693	-0.160198
 207	1.0300e-01	8.2730	0.072817	0.000815	8.151040	2.761647	0.065535
 208	1.0350e-01	8.3324	0.182043	0.000272	2.717013	0.920549	0.021845
 209	1.0400e-01	8.3741	0.182043	0.000000	0.000000	0.000000	0.000000
 210	1.0450e-01	8.3966	0.254860	0.000181	1.811342	0.613699	0.014563
 211	1.0500e-01	8.4318	0.400494	0.000362	3.622685	1.227399	0.029127
 212	1.0550e-01	8.5056	0.145634	-0.000634	-6.339698	-2.147948	-0.050972
 213	1.0600e-01	8.5313	0.182043	0.000091	0.905671	0.306850	0.007282
 214	1.0650e-01	8.5522	0.546129	0.000906	9.056711	3.068497	0.072817
 215	1.0700e-01	8.5891	0.509720	-0.000091	-0.905671	-0.306850	-0.007282
 216	1.0750e-01	8.6436	0.655354	0.000362	3.622685	1.227399	0.029127
 217	1.0800e-01	8.6757	0.400494	-0.000634	-6.339698	-2.147948	-0.050972
 218	1.0850e-01	8.7238	0.728172	0.000815	8.151040	2.761647	0.065535
 219	1.0900e-01	8.7463	0.364086	-0.000906	-9.056711	-3.068497	-0.072817
 220	1.0950e-01	8.8008	1.019440	0.001630	16.302081	5.523294	0.131071
 221	1.1000e-01	8.8201	0.364086	-0.001630	-16.302081	-5.523294	-0.131071
 222	1.1050e-01	8.8826	0.910214	0.001359	13.585067	4.602745	0.109226
 223	1.1100e-01	8.9179	0.618946	-0.000725	-7.245369	-2.454798	-0.058254
 224	1.1150e-01	8.9709	0.873806	0.000634	6.339698	2.147948	0.050972
 225	1.1200e-01	9.0046	1.128666	0.000634	6.339698	2.147948	0.050972
 226	1.1250e-01	9.0399	1.019440	-0.000272	-2.717013	-0.920549	-0.021845
 227	1.1300e-01	9.0655	1.055849	0.000091	0.905671	0.306850	0.007282
 228	1.1350e-01	9.1377	1.201483	0.000362	3.622685	1.227399	0.029127
 229	1.1400e-01	9.1393	1.055849	-0.000362	-3.622685	-1.227399	-0.029127
 230	1.1450e-01	9.2099	0.946623	-0.000272	-2.717013	-0.920549	-0.021845
 231	1.1500e-01	9.2195	1.165074	0.000543	5.434027	1.841098	0.043690
 232	1.1550e-01	9.3013	1.092257	-0.000181	-1.811342	-0.613699	-0.014563
 233	1.1600e-01	9.3126	1.237892	0.000362	3.622685	1.227399	0.029127
 234	1.1650e-01	9.3527	1.711203	0.001177	11.773725	3.989046	0.094662
 235	1.1700e-01	9.4201	1.456343	-0.000634	-6.339698	-2.147948	-0.050972
 236	1.1750e-01	9.4553	1.383526	-0.000181	-1.811342	-0.613699	-0.014563
 237	1.1800e-01	9.4778	1.638386	0.000634	6.339698	2.147948	0.050972
 238	1.1850e-01	9.5099	1.601977	-0.000091	-0.905671	-0.306850	-0.007282
 239	1.1900e-01	9.5532	1.601977	0.000000	0.000000	0.000000	0.000000
 240	1.1950e-01	9.6061	1.638386	0.000091	0.905671	0.306850	0.007282
 241	1.2000e-01	9.6286	1.747612	0.000272	2.717013	0.920549	0.021845
 242	1.2050e-01	9.6831	1.747612	0.000000	0.000000	0.000000	0.000000
 243	1.2100e-01	9.7377	1.601977	-0.000362	-3.622685	-1.227399	-0.029127
 244	1.2150e-01	9.7329	1.784020	-0.000453	-4.528356	-1.534248	0.036409
 245	1.2200e-01	9.8195	2.184515	0.000996	9.962383	3.375347	0.080099
 246	1.2250e-01	9.8484	1.893246	-0.000725	-7.245369	-2.454798	-0.058254
 247	1.2300e-01	9.8789	1.929655	0.000091	0.905671	0.306850	0.007282
 248	1.2350e-01	9.9126	1.929655	0.000000	0.000000	0.000000	0.000000
 249	1.2400e-01	9.9639	2.330149	0.000996	9.962383	3.375347	0.080099
 250	1.2450e-01	9.9992	2.038880	-0.000725	-7.245369	-2.454798	-0.058254
 251	1.2500e-01	10.0377	2.002472	-0.000091	-0.905671	-0.306850	-0.007282
 252	1.2550e-01	10.0826	2.366558	0.000906	9.056711	3.068497	0.072817
 253	1.2600e-01	10.1067	2.293740	-0.000181	-1.811342	-0.613699	-0.014563
 254	1.2650e-01	10.1644	2.475783	0.000453	4.528356	1.534248	0.036409
 255	1.2700e-01	10.2013	2.402966	-0.000181	-1.811342	-0.613699	-0.014563
 256	1.2750e-01	10.2350	2.512192	0.000272	2.717013	0.920549	0.021845
 257	1.2800e-01	10.2863	2.475783	-0.000091	-0.905671	-0.306850	-0.007282
 258	1.2850e-01	10.3072	2.730643	0.000634	6.339698	2.147948	0.050972
 259	1.2900e-01	10.3649	2.585009	-0.000362	-3.622685	-1.227399	-0.029127
 260	1.2950e-01	10.3874	2.293740	-0.000725	-7.245369	-2.454798	-0.058254
 261	1.3000e-01	10.4420	2.475783	0.000453	4.528356	1.534248	0.036409
 262	1.3050e-01	10.4676	2.512192	0.000091	0.905671	0.306850	0.007282
 263	1.3100e-01	10.5206	2.585009	0.000181	1.811342	0.613699	0.014563
 264	1.3150e-01	10.5542	2.730643	0.000362	3.622685	1.227399	0.029127
 265	1.3200e-01	10.5767	2.949095	0.000543	5.434027	1.841098	0.043690
 266	1.3250e-01	10.6585	2.876278	-0.000181	-1.811342	-0.613699	-0.014563
 267	1.3300e-01	10.6842	3.240363	0.000906	9.056711	3.068497	0.072817
 268	1.3350e-01	10.7291	2.876278	-0.000906	-9.056711	-3.068497	-0.072817
 269	1.3400e-01	10.7644	3.240363	0.000906	9.056711	3.068497	0.072817
 270	1.3450e-01	10.8013	2.985503	-0.000634	-6.339698	-2.147948	-0.050972
 271	1.3500e-01	10.8430	3.203955	0.000543	5.434027	1.841098	0.043690
 272	1.3550e-01	10.8639	2.876278	-0.000815	-8.151040	-2.761647	-0.065535
 273	1.3600e-01	10.9200	3.094729	0.000543	5.434027	1.841098	0.043690
 274	1.3650e-01	10.9569	2.912686	-0.000453	-4.528356	-1.534248	-0.036409
 275	1.3700e-01	10.9922	3.568041	0.001630	16.302081	5.523294	0.131071
 276	1.3750e-01	11.0403	3.240363	-0.000815	-8.151040	-2.761647	-0.065535
 277	1.3800e-01	11.0740	3.458815	0.000543	5.434027	1.841098	0.043690
 278	1.3850e-01	11.1013	2.949095	-0.001268	-12.679396	-4.295896	-0.101944
 279	1.3900e-01	11.1671	3.822901	0.002174	21.736107	7.364393	0.174761
 280	1.3950e-01	11.2008	3.786492	-0.000091	-0.905671	-0.306850	-0.007282
 281	1.4000e-01	11.2409	3.677266	-0.000272	-2.717013	-0.920549	-0.021845
 282	1.4050e-01	11.2729	3.131138	-0.001359	-13.585067	-4.602745	-0.109226
 283	1.4100e-01	11.3130	3.568041	0.001087	10.868054	3.682196	0.087381
 284	1.4150e-01	11.3548	3.895718	0.000815	8.151040	2.761647	0.065535
 285	1.4200e-01	11.4045	4.150578	0.000634	6.339698	2.147948	0.050972
 286	1.4250e-01	11.4318	3.713675	-0.001087	-10.868054	-3.682196	-0.087381
 287	1.4300e-01	11.4606	3.859309	0.000362	3.622685	1.227399	0.029127
 288	1.4350e-01	11.5200	3.786492	-0.000181	-1.811342	-0.613699	-0.014563
 289	1.4400e-01	11.5729	4.114169	0.000815	8.151040	2.761647	0.065535
 290	1.4450e-01	11.6002	3.568041	-0.001359	-13.585067	-4.602745	-0.109226
 291	1.4500e-01	11.6355	4.114169	0.001359	13.585067	4.602745	0.109226
 292	1.4550e-01	11.6564	3.968535	-0.000362	-3.622685	-1.227399	-0.029127
 293	1.4600e-01	11.7157	4.077761	0.000272	2.717013	0.920549	0.021845
 294	1.4650e-01	11.7574	3.822901	-0.000634	-6.339698	-2.147948	-0.050972
 295	1.4700e-01	11.8104	4.623889	0.001992	19.924765	6.750693	0.160198
 296	1.4750e-01	11.8360	4.114169	-0.001268	-12.679396	-4.295896	-0.101944
 297	1.4800e-01	11.8697	4.369029	0.000634	6.339698	2.147948	0.050972
 298	1.4850e-01	11.9227	4.259804	-0.000272	-2.717013	-0.920549	-0.021845
 299	1.4900e-01	11.9563	4.551072	0.000725	7.245369	2.454798	0.058254
 300	1.4950e-01	11.9900	4.004943	-0.001359	-13.585067	-4.602745	-0.109226
 301	1.5000e-01	12.0253	4.369029	0.000906	9.056711	3.068497	0.072817
 302	1.5050e-01	12.0719	4.296212	-0.000181	-1.811342	-0.613699	-0.014563
 303	1.5100e-01	12.1120	4.478255	0.000453	4.528356	1.534248	0.036409
 304	1.5150e-01	12.1424	4.660298	0.000453	4.528356	1.534248	0.036409
 305	1.5200e-01	12.1938	4.805932	0.000362	3.622685	1.227399	0.029127
 306	1.5250e-01	12.2515	4.805932	0.000000	0.000000	0.000000	0.000000
 307	1.5300e-01	12.2772	4.660298	-0.000362	-3.622685	-1.227399	-0.029127
 308	1.5350e-01	12.3125	4.696706	0.000091	0.905671	0.306850	0.007282
 309	1.5400e-01	12.3590	4.878749	0.000453	4.528356	1.534248	0.036409
 310	1.5450e-01	12.4055	5.133609	0.000634	6.339698	2.147948	0.050972
 311	1.5500e-01	12.4553	4.805932	-0.000815	-8.151040	-2.761647	-0.065535
 312	1.5550e-01	12.5082	5.097201	0.000725	7.245369	2.454798	0.058254
 313	1.5600e-01	12.5050	4.769524	0.000815	8.151040	2.761647	-0.065535
 314	1.5650e-01	12.5724	5.133609	0.000906	9.056711	3.068497	0.072817
 315	1.5700e-01	12.6141	5.279244	0.000362	3.622685	1.227399	0.029127
 316	1.5750e-01	12.6574	4.915158	-0.000906	-9.056711	-3.068497	-0.072817
 317	1.5800e-01	12.6702	5.242835	0.000815	8.151040	2.761647	0.065535
 318	1.5850e-01	12.7071	5.060792	-0.000453	-4.528356	-1.534248	-0.036409
 319	1.5900e-01	12.7408	5.461287	0.000996	9.962383	3.375347	0.080099
 320	1.5950e-01	12.7970	5.097201	-0.000906	-9.056711	-3.068497	-0.072817
 321	1.6000e-01	12.8451	5.388469	0.000725	7.245369	2.454798	0.058254
 322	1.6050e-01	12.8676	5.461287	0.000181	1.811342	0.613699	0.014563
 323	1.6100e-01	12.9028	5.279244	-0.000453	-4.528356	-1.534248	-0.036409
 324	1.6150e-01	12.9430	5.606921	0.000815	8.151040	2.761647	0.065535
 325	1.6200e-01	13.0023	5.825372	0.000543	5.434027	1.841098	0.043690
 326	1.6250e-01	13.0248	5.861781	0.000091	0.905671	0.306850	0.007282
 327	1.6300e-01	13.0793	5.570512	-0.000725	-7.245369	-2.454798	-0.058254
 328	1.6350e-01	13.1130	5.606921	0.000091	0.905671	0.306850	0.007282
 329	1.6400e-01	13.1772	5.606921	0.000000	0.000000	0.000000	0.000000
 330	1.6450e-01	13.1884	5.971007	0.000906	9.056711	3.068497	0.072817
 331	1.6500e-01	13.2301	5.606921	-0.000906	-9.056711	-3.068497	-0.072817
 332	1.6550e-01	13.2750	5.606921	0.000000	0.000000	0.000000	0.000000
 333	1.6600e-01	13.3087	5.971007	0.000906	9.056711	3.068497	0.072817
 334	1.6650e-01	13.3649	5.461287	-0.001268	-12.679396	-4.295896	-0.101944
 335	1.6700e-01	13.3889	5.788964	0.000815	8.151040	2.761647	0.065535
 336	1.6750e-01	13.4467	6.225867	0.001087	10.868054	3.682196	0.087381
 337	1.6800e-01	13.4868	5.825372	-0.000996	-9.962383	-3.375347	-0.080099
 338	1.6850e-01	13.5157	6.444318	0.001540	15.396409	5.216445	0.123789
 339	1.6900e-01	13.5510	6.371501	-0.000181	-1.811342	-0.613699	-0.014563
 340	1.6950e-01	13.5911	6.080232	-0.000725	-7.245369	-2.454798	-0.058254
 341	1.7000e-01	13.6408	6.517135	0.001087	10.868054	3.682196	0.087381
 342	1.7050e-01	13.6649	6.153050	-0.000906	-9.056711	-3.068497	-0.072817
 343	1.7100e-01	13.7146	6.480727	0.000815	8.151040	2.761647	0.065535
 344	1.7150e-01	13.7451	6.153050	-0.000815	-8.151040	-2.761647	-0.065535
 345	1.7200e-01	13.7980	6.298684	0.000362	3.622685	1.227399	0.029127
 346	1.7250e-01	13.8253	6.444318	0.000362	3.622685	1.227399	0.029127
 347	1.7300e-01	13.8702	6.153050	-0.000725	-7.245369	-2.454798	-0.058254
 348	1.7350e-01	13.9215	6.517135	0.000906	9.056711	3.068497	0.072817
 349	1.7400e-01	13.9600	6.699178	0.000453	4.528356	1.534248	0.036409
 350	1.7450e-01	14.0017	6.553544	-0.000362	-3.622685	-1.227399	-0.029127
 351	1.7500e-01	14.0258	6.771995	0.000543	5.434027	1.841098	0.043690
 352	1.7550e-01	14.0723	6.335092	-0.001087	-10.868054	-3.682196	-0.087381
 353	1.7600e-01	14.1060	6.881221	0.001359	13.585067	4.602745	0.109226
 354	1.7650e-01	14.1590	6.480727	-0.000996	-9.962383	-3.375347	-0.080099
 355	1.7700e-01	14.1878	6.662770	0.000453	4.528356	1.534248	0.036409
 356	1.7750e-01	14.2472	6.808404	0.000362	3.622685	1.227399	0.029127
 357	1.7800e-01	14.2713	6.771995	-0.000091	-0.905671	-0.306850	-0.007282
 358	1.7850e-01	14.3162	6.844812	0.000181	1.811342	0.613699	0.014563
 359	1.7900e-01	14.3483	6.517135	-0.000815	-8.151040	-2.761647	-0.065535
 360	1.7950e-01	14.3980	7.172490	0.001630	16.302081	5.523294	0.131071
 361	1.8000e-01	14.4381	6.589952	-0.001449	-14.490738	-4.909595	-0.116507
 362	1.8050e-01	14.4798	7.026855	0.001087	10.868054	3.682196	0.087381
 363	1.8100e-01	14.5055	6.735587	-0.000725	-7.245369	-2.454798	-0.058254
 364	1.8150e-01	14.5616	7.354533	0.001540	15.396409	5.216445	0.123789
 365	1.8200e-01	14.5857	6.844812	-0.001268	-12.679396	-4.295896	-0.101944
 366	1.8250e-01	14.6531	7.536575	0.001721	17.207752	5.830144	0.138353
 367	1.8300e-01	14.6739	7.026855	-0.001268	-12.679396	-4.295896	-0.101944
 368	1.8350e-01	14.7012	7.245307	0.000543	5.434027	1.841098	0.043690
 369	1.8400e-01	14.7381	7.245307	0.000000	0.000000	0.000000	0.000000
 370	1.8450e-01	14.8071	7.318124	0.000181	1.811342	0.613699	0.014563
 371	1.8500e-01	14.8392	7.500167	0.000453	4.528356	1.534248	0.036409
 372	1.8550e-01	14.8728	7.390941	-0.000272	-2.717013	-0.920549	-0.021845
 373	1.8600e-01	14.9162	7.427350	0.000091	0.905671	0.306850	0.007282
 374	1.8650e-01	14.9579	7.536575	0.000272	2.717013	0.920549	0.021845
 375	1.8700e-01	14.9932	7.755027	0.000543	5.434027	1.841098	0.043690
 376	1.8750e-01	15.0381	7.318124	-0.001087	-10.868054	-3.682196	-0.087381
 377	1.8800e-01	15.0862	7.572984	0.000634	6.339698	2.147948	0.050972
 378	1.8850e-01	15.1119	7.682210	0.000272	2.717013	0.920549	0.021845
 379	1.8900e-01	15.1728	7.500167	-0.000453	-4.528356	-1.534248	-0.036409
 380	1.8950e-01	15.2210	7.900661	0.000996	9.962383	3.375347	0.080099
 381	1.9000e-01	15.2370	8.119113	0.000543	5.434027	1.841098	0.043690
 382	1.9050e-01	15.2659	7.755027	-0.000906	-9.056711	-3.068497	-0.072817
 383	1.9100e-01	15.3124	7.864253	0.000272	2.717013	0.920549	0.021845
 384	1.9150e-01	15.3541	8.301156	0.001087	10.868054	3.682196	0.087381
 385	1.9200e-01	15.3878	8.264747	-0.000091	-0.905671	-0.306850	-0.007282
 386	1.9250e-01	15.4359	7.755027	-0.001268	-12.679396	-4.295896	-0.101944
 387	1.9300e-01	15.4648	8.155521	0.000996	9.962383	3.375347	0.080099
 388	1.9350e-01	15.5210	7.827844	-0.000815	-8.151040	-2.761647	-0.065535
 389	1.9400e-01	15.5498	8.410381	0.001449	14.490738	4.909595	0.116507
 390	1.9450e-01	15.5980	7.827844	-0.001449	-14.490738	-4.909595	-0.116507
 391	1.9500e-01	15.6525	8.264747	0.001087	10.868054	3.682196	0.087381
 392	1.9550e-01	15.6782	8.337564	0.000181	1.811342	0.613699	0.014563
 393	1.9600e-01	15.7231	8.337564	0.000000	0.000000	0.000000	0.000000
 394	1.9650e-01	15.7600	8.446790	0.000272	2.717013	0.920549	0.021845
 395	1.9700e-01	15.8033	8.228338	-0.000543	-5.434027	-1.841098	-0.043690
 396	1.9750e-01	15.8145	8.119113	-0.000272	-2.717013	-0.920549	-0.021845
 397	1.9800e-01	15.9060	8.483198	0.000906	9.056711	3.068497	0.072817
 398	1.9850e-01	15.9220	8.119113	-0.000906	-9.056711	-3.068497	-0.072817
 399	1.9900e-01	15.9701	8.519607	0.000996	9.962383	3.375347	0.080099
 400	1.9950e-01	15.9974	8.701650	0.000453	4.528356	1.534248	0.036409
 401	2.0000e-01	16.0343	8.738058	0.000091	0.905671	0.306850	0.007282
 402	2.0050e-01	16.0905	8.519607	-0.000543	-5.434027	-1.841098	-0.043690
 403	2.0100e-01	16.1257	9.029327	0.001268	12.679396	4.295896	0.101944
 404	2.0150e-01	16.1642	8.738058	-0.000725	-7.245369	-2.454798	-0.058254
 405	2.0200e-01	16.1723	8.738058	0.000000	0.000000	0.000000	0.000000
 406	2.0250e-01	16.2525	8.920101	0.000453	4.528356	1.534248	0.036409
 407	2.0300e-01	16.2862	8.592424	-0.000815	-8.151040	-2.761647	-0.065535
 408	2.0350e-01	16.3118	8.519607	-0.000181	-1.811342	-0.613699	-0.014563
 409	2.0400e-01	16.3519	9.029327	0.001268	12.679396	4.295896	0.101944
 410	2.0450e-01	16.3937	8.883693	-0.000362	-3.622685	-1.227399	-0.029127
 411	2.0500e-01	16.4562	8.847284	-0.000091	-0.905671	-0.306850	-0.007282
 412	2.0550e-01	16.4578	9.320596	0.001177	11.773725	3.989046	0.094662
 413	2.0600e-01	16.5220	9.502639	0.000453	4.528356	1.534248	0.036409
 414	2.0650e-01	16.5589	8.956510	-0.001359	-13.585067	-4.602745	-0.109226
 415	2.0700e-01	16.5894	9.466230	0.001268	12.679396	4.295896	0.101944
 416	2.0750e-01	16.6295	8.701650	-0.001902	-19.019094	-6.443844	-0.152916
 417	2.0800e-01	16.6872	9.357004	0.001630	16.302081	5.523294	0.131071
 418	2.0850e-01	16.7177	9.502639	0.000362	3.622685	1.227399	0.029127
 419	2.0900e-01	16.7562	9.138553	-0.000906	-9.056711	-3.068497	-0.072817
 420	2.0950e-01	16.8059	9.429821	0.000725	7.245369	2.454798	0.058254
 421	2.1000e-01	16.8220	9.247779	-0.000453	-4.528356	-1.534248	-0.036409
 422	2.1050e-01	16.9182	9.284187	0.000091	0.905671	0.306850	0.007282
 423	2.1100e-01	16.9134	9.320596	-0.000091	-0.905671	-0.306850	0.007282
 424	2.1150e-01	16.9632	9.284187	-0.000091	-0.905671	-0.306850	-0.007282
 425	2.1200e-01	16.9728	9.502639	0.000543	5.434027	1.841098	0.043690
 426	2.1250e-01	17.0241	9.830316	0.000815	8.151040	2.761647	0.065535
 427	2.1300e-01	17.0674	9.357004	-0.001177	-11.773725	-3.989046	-0.094662
 428	2.1350e-01	17.1220	10.048767	0.001721	17.207752	5.830144	0.138353
 429	2.1400e-01	17.1653	9.466230	-0.001449	-14.490738	-4.909595	-0.116507
 430	2.1450e-01	17.2279	9.866724	0.000996	9.962383	3.375347	0.080099
 431	2.1500e-01	17.2230	9.648273	0.000543	5.434027	1.841098	-0.043690
 432	2.1550e-01	17.2728	9.793907	0.000362	3.622685	1.227399	0.029127
 433	2.1600e-01	17.3017	9.611864	-0.000453	-4.528356	-1.534248	-0.036409
 434	2.1650e-01	17.3450	10.194402	0.001449	14.490738	4.909595	0.116507
 435	2.1700e-01	17.3963	9.284187	-0.002264	-22.641779	-7.671242	-0.182043
 436	2.1750e-01	17.4348	9.793907	0.001268	12.679396	4.295896	0.101944
 437	2.1800e-01	17.4893	10.121584	0.000815	8.151040	2.761647	0.065535
 438	2.1850e-01	17.5070	10.085176	-0.000091	-0.905671	-0.306850	-0.007282
 439	2.1900e-01	17.5455	10.085176	0.000000	0.000000	0.000000	0.000000
 440	2.1950e-01	17.6049	10.012359	-0.000181	-1.811342	-0.613699	-0.014563
 441	2.2000e-01	17.6369	10.376444	0.000906	9.056711	3.068497	0.072817
 442	2.2050e-01	17.6786	9.866724	-0.001268	-12.679396	-4.295896	-0.101944
 443	2.2100e-01	17.7252	10.303627	0.001087	10.868054	3.682196	0.087381
 444	2.2150e-01	17.7653	10.194402	-0.000272	-2.717013	-0.920549	-0.021845
 445	2.2200e-01	17.8134	10.267219	0.000181	1.811342	0.613699	0.014563
 446	2.2250e-01	17.8294	10.267219	0.000000	0.000000	0.000000	0.000000
 447	2.2300e-01	17.8904	10.303627	0.000091	0.905671	0.306850	0.007282
 448	2.2350e-01	17.9241	10.813347	0.001268	12.679396	4.295896	0.101944
 449	2.2400e-01	17.9642	10.303627	-0.001268	-12.679396	-4.295896	-0.101944
 450	2.2450e-01	18.0107	10.412853	0.000272	2.717013	0.920549	0.021845
 451	2.2500e-01	18.0187	10.740530	0.000815	8.151040	2.761647	0.065535
 452	2.2550e-01	18.0524	10.340036	-0.000996	-9.962383	-3.375347	-0.080099
 453	2.2600e-01	18.1214	10.522079	0.000453	4.528356	1.534248	0.036409
 454	2.2650e-01	18.1920	10.667713	0.000362	3.622685	1.227399	0.029127
 455	2.2700e-01	18.2048	10.485670	-0.000453	-4.528356	-1.534248	-0.036409
 456	2.2750e-01	18.2546	10.776939	0.000725	7.245369	2.454798	0.058254
 457	2.2800e-01	18.2947	10.740530	-0.000091	-0.905671	-0.306850	-0.007282
 458	2.2850e-01	18.3091	10.594896	-0.000362	-3.622685	-1.227399	-0.029127
 459	2.2900e-01	18.3620	10.704122	0.000272	2.717013	0.920549	0.021845
 460	2.2950e-01	18.4006	10.776939	0.000181	1.811342	0.613699	0.014563
 461	2.3000e-01	18.4407	10.813347	0.000091	0.905671	0.306850	0.007282
 462	2.3050e-01	18.4808	11.068207	0.000634	6.339698	2.147948	0.050972
 463	2.3100e-01	18.5257	10.958982	-0.000272	-2.717013	-0.920549	-0.021845
 464	2.3150e-01	18.5818	10.995390	0.000091	0.905671	0.306850	0.007282
 465	2.3200e-01	18.6235	10.995390	0.000000	0.000000	0.000000	0.000000
 466	2.3250e-01	18.6620	10.995390	0.000000	0.000000	0.000000	0.000000
 467	2.3300e-01	18.6877	10.958982	-0.000091	-0.905671	-0.306850	-0.007282
 468	2.3350e-01	18.7021	10.922573	-0.000091	-0.905671	-0.306850	-0.007282
 469	2.3400e-01	18.7487	11.250250	0.000815	8.151040	2.761647	0.065535
 470	2.3450e-01	18.7872	11.141025	-0.000272	-2.717013	-0.920549	-0.021845
 471	2.3500e-01	18.8193	11.359476	0.000543	5.434027	1.841098	0.043690
 472	2.3550e-01	18.9011	11.177433	-0.000453	-4.528356	-1.534248	-0.036409
 473	2.3600e-01	18.9267	11.577927	0.000996	9.962383	3.375347	0.080099
 474	2.3650e-01	18.9572	11.468702	-0.000272	-2.717013	-0.920549	-0.021845
 475	2.3700e-01	19.0166	11.250250	-0.000543	-5.434027	-1.841098	-0.043690
 476	2.3750e-01	19.0342	11.286659	0.000091	0.905671	0.306850	0.007282
 477	2.3800e-01	19.0727	11.141025	-0.000362	-3.622685	-1.227399	-0.029127
 478	2.3850e-01	19.1080	11.577927	0.001087	10.868054	3.682196	0.087381
 479	2.3900e-01	19.1577	11.286659	-0.000725	-7.245369	-2.454798	-0.058254
 480	2.3950e-01	19.2011	11.650745	0.000906	9.056711	3.068497	0.072817
 481	2.4000e-01	19.2460	11.395885	-0.000634	-6.339698	-2.147948	-0.050972
 482	2.4050e-01	19.3102	11.468702	0.000181	1.811342	0.613699	0.014563
 483	2.4100e-01	19.3214	12.051239	0.001449	14.490738	4.909595	0.116507
 484	2.4150e-01	19.3519	11.832788	-0.000543	-5.434027	-1.841098	-0.043690
 485	2.4200e-01	19.3936	11.869196	0.000091	0.905671	0.306850	0.007282
 486	2.4250e-01	19.4144	11.541519	-0.000815	-8.151040	-2.761647	-0.065535
 487	2.4300e-01	19.4898	11.978422	0.001087	10.868054	3.682196	0.087381
 488	2.4350e-01	19.5251	11.832788	-0.000362	-3.622685	-1.227399	-0.029127
 489	2.4400e-01	19.5604	11.978422	0.000362	3.622685	1.227399	0.029127
 490	2.4450e-01	19.6182	12.233282	0.000634	6.339698	2.147948	0.050972
 491	2.4500e-01	19.6134	11.905605	0.000815	8.151040	2.761647	-0.065535
 492	2.4550e-01	19.6759	12.124056	0.000543	5.434027	1.841098	0.043690
 493	2.4600e-01	19.7096	11.759970	-0.000906	-9.056711	-3.068497	-0.072817
 494	2.4650e-01	19.7497	12.342508	0.001449	14.490738	4.909595	0.116507
 495	2.4700e-01	19.7674	12.378916	0.000091	0.905671	0.306850	0.007282
 496	2.4750e-01	19.8764	12.524550	0.000362	3.622685	1.227399	0.029127
 497	2.4800e-01	19.8797	12.342508	-0.000453	-4.528356	-1.534248	-0.036409
 498	2.4850e-01	19.9037	12.269690	-0.000181	-1.811342	-0.613699	-0.014563
 499	2.4900e-01	19.9663	12.196873	-0.000181	-1.811342	-0.613699	-0.014563
 500	2.4950e-01	19.9936	12.196873	0.000000	0.000000	0.000000	0.000000
 501	2.5000e-01	20.0401	12.233282	0.000091	0.905671	0.306850	0.007282
 502	2.5050e-01	19.9903	12.524550	-0.000725	-7.245369	-2.454798	0.058254
 503	2.5100e-01	19.9342	12.160465	0.000906	9.056711	3.068497	-0.072817
 504	2.5150e-01	19.8893	12.196873	-0.000091	-0.905671	-0.306850	0.007282
 505	2.5200e-01	19.8652	12.488142	-0.000725	-7.245369	-2.454798	0.058254
 506	2.5250e-01	19.7962	11.978422	0.001268	12.679396	4.295896	-0.101944
 507	2.5300e-01	19.7802	12.306099	-0.000815	-8.151040	-2.761647	0.065535
 508	2.5350e-01	19.7337	12.342508	-0.000091	-0.905671	-0.306850	0.007282
 509	2.5400e-01	19.6871	11.942013	0.000996	9.962383	3.375347	-0.080099
 510	2.5450e-01	19.6727	11.978422	-0.000091	-0.905671	-0.306850	0.007282
 511	2.5500e-01	19.6037	11.650745	0.000815	8.151040	2.761647	-0.065535
 512	2.5550e-01	19.5588	11.541519	0.000272	2.717013	0.920549	-0.021845
 513	2.5600e-01	19.5428	12.196873	-0.001630	-16.302081	-5.523294	0.131071
 514	2.5650e-01	19.5059	11.650745	0.001359	13.585067	4.602745	-0.109226
 515	2.5700e-01	19.4561	12.160465	-0.001268	-12.679396	-4.295896	0.101944
 516	2.5750e-01	19.4064	12.160465	-0.000000	-0.000000	-0.000000	0.000000
 517	2.5800e-01	19.3968	12.160465	-0.000000	-0.000000	-0.000000	0.000000
 518	2.5850e-01	19.3214	11.687153	0.001177	11.773725	3.989046	-0.094662
 519	2.5900e-01	19.3262	11.650745	-0.000091	-0.905671	-0.306850	-0.007282
 520	2.5950e-01	19.2348	11.723562	-0.000181	-1.811342	-0.613699	0.014563
 521	2.6000e-01	19.2235	11.796379	-0.000181	-1.811342	-0.613699	0.014563
 522	2.6050e-01	19.1882	11.577927	0.000543	5.434027	1.841098	-0.043690
 523	2.6100e-01	19.1337	11.468702	0.000272	2.717013	0.920549	-0.021845
 524	2.6150e-01	19.1144	11.468702	-0.000000	-0.000000	-0.000000	0.000000
 525	2.6200e-01	19.0695	11.687153	-0.000543	-5.434027	-1.841098	0.043690
 526	2.6250e-01	19.0278	11.286659	0.000996	9.962383	3.375347	-0.080099
 527	2.6300e-01	18.9781	11.942013	-0.001630	-16.302081	-5.523294	0.131071
 528	2.6350e-01	18.9332	11.541519	0.000996	9.962383	3.375347	-0.080099
 529	2.6400e-01	18.8834	11.359476	0.000453	4.528356	1.534248	-0.036409
 530	2.6450e-01	18.8642	11.141025	0.000543	5.434027	1.841098	-0.043690
 531	2.6500e-01	18.8016	11.359476	-0.000543	-5.434027	-1.841098	0.043690
 532	2.6550e-01	18.7727	11.505110	-0.000362	-3.622685	-1.227399	0.029127
 533	2.6600e-01	18.7519	11.541519	-0.000091	-0.905671	-0.306850	0.007282
 534	2.6650e-01	18.6957	11.614336	-0.000181	-1.811342	-0.613699	0.014563
 535	2.6700e-01	18.6604	11.286659	0.000815	8.151040	2.761647	-0.065535
 536	2.6750e-01	18.6027	11.432293	-0.000362	-3.622685	-1.227399	0.029127
 537	2.6800e-01	18.5722	10.995390	0.001087	10.868054	3.682196	-0.087381
 538	2.6850e-01	18.5385	11.068207	-0.000181	-1.811342	-0.613699	0.014563
 539	2.6900e-01	18.5016	11.031799	0.000091	0.905671	0.306850	-0.007282
 540	2.6950e-01	18.4423	10.958982	0.000181	1.811342	0.613699	-0.014563
 541	2.7000e-01	18.4310	11.104616	-0.000362	-3.622685	-1.227399	0.029127
 542	2.7050e-01	18.3957	11.031799	0.000181	1.811342	0.613699	-0.014563
 543	2.7100e-01	18.3284	10.922573	0.000272	2.717013	0.920549	-0.021845
 544	2.7150e-01	18.3043	11.104616	-0.000453	-4.528356	-1.534248	0.036409
 545	2.7200e-01	18.2417	10.849756	0.000634	6.339698	2.147948	-0.050972
 546	2.7250e-01	18.2161	10.849756	-0.000000	-0.000000	-0.000000	0.000000
 547	2.7300e-01	18.1808	11.177433	-0.000815	-8.151040	-2.761647	0.065535
 548	2.7350e-01	18.1134	11.068207	0.000272	2.717013	0.920549	-0.021845
 549	2.7400e-01	18.1086	10.813347	0.000634	6.339698	2.147948	-0.050972
 550	2.7450e-01	18.0717	10.813347	-0.000000	-0.000000	-0.000000	0.000000
 551	2.7500e-01	18.0091	11.031799	-0.000543	-5.434027	-1.841098	0.043690
 552	2.7550e-01	17.9690	10.886165	0.000362	3.622685	1.227399	-0.029127
 553	2.7600e-01	17.9578	11.031799	-0.000362	-3.622685	-1.227399	0.029127
 554	2.7650e-01	17.9032	10.485670	0.001359	13.585067	4.602745	-0.109226
 555	2.7700e-01	17.8728	10.667713	-0.000453	-4.528356	-1.534248	0.036409
 556	2.7750e-01	17.8086	10.412853	0.000634	6.339698	2.147948	-0.050972
 557	2.7800e-01	17.7653	10.558487	-0.000362	-3.622685	-1.227399	0.029127
 558	2.7850e-01	17.7412	10.886165	-0.000815	-8.151040	-2.761647	0.065535
 559	2.7900e-01	17.6915	10.012359	0.002174	21.736107	7.364393	-0.174761
 560	2.7950e-01	17.6594	10.340036	-0.000815	-8.151040	-2.761647	0.065535
 561	2.8000e-01	17.6129	10.303627	0.000091	0.905671	0.306850	-0.007282
 562	2.8050e-01	17.5856	10.376444	-0.000181	-1.811342	-0.613699	0.014563
 563	2.8100e-01	17.5246	10.594896	-0.000543	-5.434027	-1.841098	0.043690
 564	2.8150e-01	17.4910	10.412853	0.000453	4.528356	1.534248	-0.036409
 565	2.8200e-01	17.4428	10.267219	0.000362	3.622685	1.227399	-0.029127
 566	2.8250e-01	17.4268	10.412853	-0.000362	-3.622685	-1.227399	0.029127
 567	2.8300e-01	17.3754	10.157993	0.000634	6.339698	2.147948	-0.050972
 568	2.8350e-01	17.3225	10.194402	-0.000091	-0.905671	-0.306850	0.007282
 569	2.8400e-01	17.2696	10.121584	0.000181	1.811342	0.613699	-0.014563
 570	2.8450e-01	17.2551	10.194402	-0.000181	-1.811342	-0.613699	0.014563
 571	2.8500e-01	17.2375	10.121584	0.000181	1.811342	0.613699	-0.014563
 572	2.8550e-01	17.1781	9.939542	0.000453	4.528356	1.534248	-0.036409
 573	2.8600e-01	17.1380	10.194402	-0.000634	-6.339698	-2.147948	0.050972
 574	2.8650e-01	17.0771	9.611864	0.001449	14.490738	4.909595	-0.116507
 575	2.8700e-01	17.0498	9.757499	-0.000362	-3.622685	-1.227399	0.029127
 576	2.8750e-01	17.0113	9.975950	-0.000543	-5.434027	-1.841098	0.043690
 577	2.8800e-01	16.9567	9.830316	0.000362	3.622685	1.227399	-0.029127
 578	2.8850e-01	16.9407	9.793907	0.000091	0.905671	0.306850	-0.007282
 579	2.8900e-01	16.9038	9.975950	-0.000453	-4.528356	-1.534248	0.036409
 580	2.8950e-01	16.8557	9.539047	0.001087	10.868054	3.682196	-0.087381
 581	2.9000e-01	16.8156	9.757499	-0.000543	-5.434027	-1.841098	0.043690
 582	2.9050e-01	16.7771	9.684681	0.000181	1.811342	0.613699	-0.014563
 583	2.9100e-01	16.7402	9.793907	-0.000272	-2.717013	-0.920549	0.021845
 584	2.9150e-01	16.6920	9.830316	-0.000091	-0.905671	-0.306850	0.007282
 585	2.9200e-01	16.6728	9.575456	0.000634	6.339698	2.147948	-0.050972
 586	2.9250e-01	16.5942	9.320596	0.000634	6.339698	2.147948	-0.050972
 587	2.9300e-01	16.5942	9.793907	-0.001177	-11.773725	-3.989046	0.094662
 588	2.9350e-01	16.5364	9.575456	0.000543	5.434027	1.841098	-0.043690
 589	2.9400e-01	16.4915	9.357004	0.000543	5.434027	1.841098	-0.043690
 590	2.9450e-01	16.4466	9.357004	-0.000000	-0.000000	-0.000000	0.000000
 591	2.9500e-01	16.4273	9.393413	-0.000091	-0.905671	-0.306850	0.007282
 592	2.9550e-01	16.3872	9.684681	-0.000725	-7.245369	-2.454798	0.058254
 593	2.9600e-01	16.3439	9.065736	0.001540	15.396409	5.216445	-0.123789
 594	2.9650e-01	16.2717	9.247779	-0.000453	-4.528356	-1.534248	0.036409
 595	2.9700e-01	16.2605	9.284187	-0.000091	-0.905671	-0.306850	0.007282
 596	2.9750e-01	16.2108	9.102144	0.000453	4.528356	1.534248	-0.036409
 597	2.9800e-01	16.1610	9.029327	0.000181	1.811342	0.613699	-0.014563
 598	2.9850e-01	16.1514	9.320596	-0.000725	-7.245369	-2.454798	0.058254
 599	2.9900e-01	16.0889	9.065736	0.000634	6.339698	2.147948	-0.050972
 600	2.9950e-01	16.0568	9.247779	-0.000453	-4.528356	-1.534248	0.036409
 601	3.0000e-01	16.0151	8.992919	0.000634	6.339698	2.147948	-0.050972
 602	3.0050e-01	15.9733	8.774467	0.000543	5.434027	1.841098	-0.043690
 603	3.0100e-01	15.9124	9.102144	-0.000815	-8.151040	-2.761647	0.065535
 604	3.0150e-01	15.8979	8.628833	0.001177	11.773725	3.989046	-0.094662
 605	3.0200e-01	15.8627	8.847284	-0.000543	-5.434027	-1.841098	0.043690
 606	3.0250e-01	15.8033	8.810876	0.000091	0.905671	0.306850	-0.007282
 607	3.0300e-01	15.7536	8.519607	0.000725	7.245369	2.454798	-0.058254
 608	3.0350e-01	15.7327	8.701650	-0.000453	-4.528356	-1.534248	0.036409
 609	3.0400e-01	15.7135	8.519607	0.000453	4.528356	1.534248	-0.036409
 610	3.0450e-01	15.6798	9.138553	-0.001540	-15.396409	-5.216445	0.123789
 611	3.0500e-01	15.6044	8.665241	0.001177	11.773725	3.989046	-0.094662
 612	3.0550e-01	15.5739	8.519607	0.000362	3.622685	1.227399	-0.029127
 613	3.0600e-01	15.5386	8.556016	-0.000091	-0.905671	-0.306850	0.007282
 614	3.0650e-01	15.5065	8.810876	-0.000634	-6.339698	-2.147948	0.050972
 615	3.0700e-01	15.4439	9.029327	-0.000543	-5.434027	-1.841098	0.043690
 616	3.0750e-01	15.4295	8.446790	0.001449	14.490738	4.909595	-0.116507
 617	3.0800e-01	15.3734	8.446790	-0.000000	-0.000000	-0.000000	0.000000
 618	3.0850e-01	15.3413	8.119113	0.000815	8.151040	2.761647	-0.065535
 619	3.0900e-01	15.2803	8.301156	-0.000453	-4.528356	-1.534248	0.036409
 620	3.0950e-01	15.2627	8.301156	-0.000000	-0.000000	-0.000000	0.000000
 621	3.1000e-01	15.2129	8.373973	-0.000181	-1.811342	-0.613699	0.014563
 622	3.1050e-01	15.1857	8.046296	0.000815	8.151040	2.761647	-0.065535
 623	3.1100e-01	15.1520	7.900661	0.000362	3.622685	1.227399	-0.029127
 624	3.1150e-01	15.1055	8.337564	-0.001087	-10.868054	-3.682196	0.087381
 625	3.1200e-01	15.0621	8.155521	0.000453	4.528356	1.534248	-0.036409
 626	3.1250e-01	15.0236	7.791435	0.000906	9.056711	3.068497	-0.072817
 627	3.1300e-01	14.9675	7.682210	0.000272	2.717013	0.920549	-0.021845
 628	3.1350e-01	14.9434	7.937070	-0.000634	-6.339698	-2.147948	0.050972
 629	3.1400e-01	14.9001	7.937070	-0.000000	-0.000000	-0.000000	0.000000
 630	3.1450e-01	14.8616	7.973478	-0.000091	-0.905671	-0.306850	0.007282
 631	3.1500e-01	14.8295	7.973478	-0.000000	-0.000000	-0.000000	0.000000
 632	3.1550e-01	14.7814	7.864253	0.000272	2.717013	0.920549	-0.021845
 633	3.1600e-01	14.7253	7.572984	0.000725	7.245369	2.454798	-0.058254
 634	3.1650e-01	14.6980	7.791435	-0.000543	-5.434027	-1.841098	0.043690
 635	3.1700e-01	14.6499	7.937070	-0.000362	-3.622685	-1.227399	0.029127
 636	3.1750e-01	14.6114	7.827844	0.000272	2.717013	0.920549	-0.021845
 637	3.1800e-01	14.5873	7.827844	-0.000000	-0.000000	-0.000000	0.000000
 638	3.1850e-01	14.5456	7.463758	0.000906	9.056711	3.068497	-0.072817
 639	3.1900e-01	14.4894	7.318124	0.000362	3.622685	1.227399	-0.029127
 640	3.1950e-01	14.4413	7.827844	-0.001268	-12.679396	-4.295896	0.101944
 641	3.2000e-01	14.4204	7.682210	0.000362	3.622685	1.227399	-0.029127
 642	3.2050e-01	14.3803	7.755027	-0.000181	-1.811342	-0.613699	0.014563
 643	3.2100e-01	14.3450	7.463758	0.000725	7.245369	2.454798	-0.058254
 644	3.2150e-01	14.2793	7.026855	0.001087	10.868054	3.682196	-0.087381
 645	3.2200e-01	14.2536	7.463758	-0.001087	-10.868054	-3.682196	0.087381
 646	3.2250e-01	14.2087	7.172490	0.000725	7.245369	2.454798	-0.058254
 647	3.2300e-01	14.2039	7.136081	0.000091	0.905671	0.306850	-0.007282
 648	3.2350e-01	14.1381	7.500167	-0.000906	-9.056711	-3.068497	0.072817
 649	3.2400e-01	14.0964	7.500167	-0.000000	-0.000000	-0.000000	0.000000
 650	3.2450e-01	14.0483	7.281715	0.000543	5.434027	1.841098	-0.043690
 651	3.2500e-01	14.0130	7.099673	0.000453	4.528356	1.534248	-0.036409
 652	3.2550e-01	13.9761	7.063264	0.000091	0.905671	0.306850	-0.007282
 653	3.2600e-01	13.9424	6.990447	0.000181	1.811342	0.613699	-0.014563
 654	3.2650e-01	13.8991	6.589952	0.000996	9.962383	3.375347	-0.080099
 655	3.2700e-01	13.8333	7.245307	-0.001630	-16.302081	-5.523294	0.131071
 656	3.2750e-01	13.8044	6.662770	0.001449	14.490738	4.909595	-0.116507
 657	3.2800e-01	13.7868	7.318124	-0.001630	-16.302081	-5.523294	0.131071
 658	3.2850e-01	13.7563	7.063264	0.000634	6.339698	2.147948	-0.050972
 659	3.2900e-01	13.7082	6.771995	0.000725	7.245369	2.454798	-0.058254
 660	3.2950e-01	13.6408	7.136081	-0.000906	-9.056711	-3.068497	0.072817
 661	3.3000e-01	13.6167	6.589952	0.001359	13.585067	4.602745	-0.109226
 662	3.3050e-01	13.5686	6.335092	0.000634	6.339698	2.147948	-0.050972
 663	3.3100e-01	13.5317	6.735587	-0.000996	-9.962383	-3.375347	0.080099
 664	3.3150e-01	13.4932	6.662770	0.000181	1.811342	0.613699	-0.014563
 665	3.3200e-01	13.4483	6.371501	0.000725	7.245369	2.454798	-0.058254
 666	3.3250e-01	13.4258	6.699178	-0.000815	-8.151040	-2.761647	0.065535
 667	3.3300e-01	13.3745	6.954038	-0.000634	-6.339698	-2.147948	0.050972
 668	3.3350e-01	13.3183	6.189458	0.001902	19.019094	6.443844	-0.152916
 669	3.3400e-01	13.3007	6.225867	-0.000091	-0.905671	-0.306850	0.007282
 670	3.3450e-01	13.2365	6.262275	-0.000091	-0.905671	-0.306850	0.007282
 671	3.3500e-01	13.2253	6.662770	-0.000996	-9.962383	-3.375347	0.080099
 672	3.3550e-01	13.1595	6.444318	0.000543	5.434027	1.841098	-0.043690
 673	3.3600e-01	13.1146	6.407910	0.000091	0.905671	0.306850	-0.007282
 674	3.3650e-01	13.1082	5.934598	0.001177	11.773725	3.989046	-0.094662
 675	3.3700e-01	13.0681	6.589952	-0.001630	-16.302081	-5.523294	0.131071
 676	3.3750e-01	13.0087	6.153050	0.001087	10.868054	3.682196	-0.087381
 677	3.3800e-01	12.9911	6.371501	-0.000543	-5.434027	-1.841098	0.043690
 678	3.3850e-01	12.9221	6.153050	0.000543	5.434027	1.841098	-0.043690
 679	3.3900e-01	12.9446	6.007415	-0.000362	-3.622685	-1.227399	-0.029127
 680	3.3950e-01	12.8467	6.080232	-0.000181	-1.811342	-0.613699	0.014563
 681	3.4000e-01	12.8242	5.788964	0.000725	7.245369	2.454798	-0.058254
 682	3.4050e-01	12.7424	5.752555	0.000091	0.905671	0.306850	-0.007282
 683	3.4100e-01	12.7424	5.898189	-0.000362	-3.622685	-1.227399	0.029127
 684	3.4150e-01	12.7216	5.788964	0.000272	2.717013	0.920549	-0.021845
 685	3.4200e-01	12.6398	5.752555	0.000091	0.905671	0.306850	-0.007282
 686	3.4250e-01	12.6381	5.716147	0.000091	0.905671	0.306850	-0.007282
 687	3.4300e-01	12.5644	5.716147	-0.000000	-0.000000	-0.000000	0.000000
 688	3.4350e-01	12.5258	5.861781	-0.000362	-3.622685	-1.227399	0.029127
 689	3.4400e-01	12.5034	5.643329	0.000543	5.434027	1.841098	-0.043690
 690	3.4450e-01	12.4521	5.424878	0.000543	5.434027	1.841098	-0.043690
 691	3.4500e-01	12.4071	5.315652	0.000272	2.717013	0.920549	-0.021845
 692	3.4550e-01	12.3815	5.352061	-0.000091	-0.905671	-0.306850	0.007282
 693	3.4600e-01	12.3349	5.643329	-0.000725	-7.245369	-2.454798	0.058254
 694	3.4650e-01	12.2932	5.716147	-0.000181	-1.811342	-0.613699	0.014563
 695	3.4700e-01	12.2692	5.352061	0.000906	9.056711	3.068497	-0.072817
 696	3.4750e-01	12.2034	5.388469	-0.000091	-0.905671	-0.306850	0.007282
 697	3.4800e-01	12.1777	5.133609	0.000634	6.339698	2.147948	-0.050972
 698	3.4850e-01	12.1328	5.352061	-0.000543	-5.434027	-1.841098	0.043690
 699	3.4900e-01	12.1232	5.315652	0.000091	0.905671	0.306850	-0.007282
 700	3.4950e-01	12.0414	5.643329	-0.000815	-8.151040	-2.761647	0.065535
 701	3.5000e-01	12.0173	4.951566	0.001721	17.207752	5.830144	-0.138353
 702	3.5050e-01	11.9900	4.987975	-0.000091	-0.905671	-0.306850	0.007282
 703	3.5100e-01	11.9162	4.878749	0.000272	2.717013	0.920549	-0.021845
 704	3.5150e-01	11.9082	5.133609	-0.000634	-6.339698	-2.147948	0.050972
 705	3.5200e-01	11.8441	4.478255	0.001630	16.302081	5.523294	-0.131071
 706	3.5250e-01	11.8280	5.170018	-0.001721	-17.207752	-5.830144	0.138353
 707	3.5300e-01	11.7719	4.987975	0.000453	4.528356	1.534248	-0.036409
 708	3.5350e-01	11.7173	4.951566	0.000091	0.905671	0.306850	-0.007282
 709	3.5400e-01	11.7093	4.660298	0.000725	7.245369	2.454798	-0.058254
 710	3.5450e-01	11.6483	4.951566	-0.000725	-7.245369	-2.454798	0.058254
 711	3.5500e-01	11.6098	4.915158	0.000091	0.905671	0.306850	-0.007282
 712	3.5550e-01	11.5713	4.733115	0.000453	4.528356	1.534248	-0.036409
 713	3.5600e-01	11.5296	4.478255	0.000634	6.339698	2.147948	-0.050972
 714	3.5650e-01	11.5007	4.660298	-0.000453	-4.528356	-1.534248	0.036409
 715	3.5700e-01	11.4478	4.733115	-0.000181	-1.811342	-0.613699	0.014563
 716	3.5750e-01	11.4382	4.769524	-0.000091	-0.905671	-0.306850	0.007282
 717	3.5800e-01	11.3868	4.332621	0.001087	10.868054	3.682196	-0.087381
 718	3.5850e-01	11.3323	4.478255	-0.000362	-3.622685	-1.227399	0.029127
 719	3.5900e-01	11.3130	4.623889	-0.000362	-3.622685	-1.227399	0.029127
 720	3.5950e-01	11.2553	4.478255	0.000362	3.622685	1.227399	-0.029127
 721	3.6000e-01	11.2232	3.895718	0.001449	14.490738	4.909595	-0.116507
 722	3.6050e-01	11.1815	4.369029	-0.001177	-11.773725	-3.989046	0.094662
 723	3.6100e-01	11.1462	4.441846	-0.000181	-1.811342	-0.613699	0.014563
 724	3.6150e-01	11.0981	4.332621	0.000272	2.717013	0.920549	-0.021845
 725	3.6200e-01	11.0419	4.332621	-0.000000	-0.000000	-0.000000	0.000000
 726	3.6250e-01	11.0307	3.859309	0.001177	11.773725	3.989046	-0.094662
 727	3.6300e-01	10.9778	3.786492	0.000181	1.811342	0.613699	-0.014563
 728	3.6350e-01	10.9489	4.259804	-0.001177	-11.773725	-3.989046	0.094662
 729	3.6400e-01	10.9040	3.895718	0.000906	9.056711	3.068497	-0.072817
 730	3.6450e-01	10.8414	3.713675	0.000453	4.528356	1.534248	-0.036409
 731	3.6500e-01	10.8093	3.786492	-0.000181	-1.811342	-0.613699	0.014563
 732	3.6550e-01	10.7949	3.713675	0.000181	1.811342	0.613699	-0.014563
 733	3.6600e-01	10.7355	3.968535	-0.000634	-6.339698	-2.147948	0.050972
 734	3.6650e-01	10.7131	3.786492	0.000453	4.528356	1.534248	-0.036409
 735	3.6700e-01	10.6649	3.750083	0.000091	0.905671	0.306850	-0.007282
 736	3.6750e-01	10.5992	3.422406	0.000815	8.151040	2.761647	-0.065535
 737	3.6800e-01	10.5831	3.677266	-0.000634	-6.339698	-2.147948	0.050972
 738	3.6850e-01	10.5318	3.568041	0.000272	2.717013	0.920549	-0.021845
 739	3.6900e-01	10.4788	3.568041	-0.000000	-0.000000	-0.000000	0.000000
 740	3.6950e-01	10.4692	3.203955	0.000906	9.056711	3.068497	-0.072817
 741	3.7000e-01	10.4131	3.021912	0.000453	4.528356	1.534248	-0.036409
 742	3.7050e-01	10.3954	3.677266	-0.001630	-16.302081	-5.523294	0.131071
 743	3.7100e-01	10.3264	3.385998	0.000725	7.245369	2.454798	-0.058254
 744	3.7150e-01	10.2912	3.058320	0.000815	8.151040	2.761647	-0.065535
 745	3.7200e-01	10.2510	3.094729	-0.000091	-0.905671	-0.306850	0.007282
 746	3.7250e-01	10.2206	3.385998	-0.000725	-7.245369	-2.454798	0.058254
 747	3.7300e-01	10.1789	3.131138	0.000634	6.339698	2.147948	-0.050972
 748	3.7350e-01	10.1436	3.167546	-0.000091	-0.905671	-0.306850	0.007282
 749	3.7400e-01	10.1099	3.167546	-0.000000	-0.000000	-0.000000	0.000000
 750	3.7450e-01	10.0650	3.131138	0.000091	0.905671	0.306850	-0.007282
 751	3.7500e-01	10.0184	3.203955	-0.000181	-1.811342	-0.613699	0.014563
 752	3.7550e-01	9.9783	2.949095	0.000634	6.339698	2.147948	-0.050972
 753	3.7600e-01	9.9511	3.458815	-0.001268	-12.679396	-4.295896	0.101944
 754	3.7650e-01	9.8853	2.366558	0.002717	27.170134	9.205491	-0.218451
 755	3.7700e-01	9.8516	3.131138	-0.001902	-19.019094	-6.443844	0.152916
 756	3.7750e-01	9.8099	2.330149	0.001992	19.924765	6.750693	-0.160198
 757	3.7800e-01	9.7602	2.876278	-0.001359	-13.585067	-4.602745	0.109226
 758	3.7850e-01	9.7249	2.839869	0.000091	0.905671	0.306850	-0.007282
 759	3.7900e-01	9.7088	2.475783	0.000906	9.056711	3.068497	-0.072817
 760	3.7950e-01	9.6607	2.548600	-0.000181	-1.811342	-0.613699	0.014563
 761	3.8000e-01	9.6174	2.621418	-0.000181	-1.811342	-0.613699	0.014563
 762	3.8050e-01	9.5660	2.439375	0.000453	4.528356	1.534248	-0.036409
 763	3.8100e-01	9.5291	2.803460	-0.000906	-9.056711	-3.068497	0.072817
 764	3.8150e-01	9.4987	2.621418	0.000453	4.528356	1.534248	-0.036409
 765	3.8200e-01	9.4714	2.512192	0.000272	2.717013	0.920549	-0.021845
 766	3.8250e-01	9.4136	2.038880	0.001177	11.773725	3.989046	-0.094662
 767	3.8300e-01	9.3639	2.184515	-0.000362	-3.622685	-1.227399	0.029127
 768	3.8350e-01	9.3414	2.184515	-0.000000	-0.000000	-0.000000	0.000000
 769	3.8400e-01	9.3094	2.002472	0.000453	4.528356	1.534248	-0.036409
 770	3.8450e-01	9.2693	2.330149	-0.000815	-8.151040	-2.761647	0.065535
 771	3.8500e-01	9.2227	2.148106	0.000453	4.528356	1.534248	-0.036409
 772	3.8550e-01	9.1682	1.929655	0.000543	5.434027	1.841098	-0.043690
 773	3.8600e-01	9.1249	2.002472	-0.000181	-1.811342	-0.613699	0.014563
 774	3.8650e-01	9.1104	1.893246	0.000272	2.717013	0.920549	-0.021845
 775	3.8700e-01	9.0431	1.893246	-0.000000	-0.000000	-0.000000	0.000000
 776	3.8750e-01	9.0286	1.893246	-0.000000	-0.000000	-0.000000	0.000000
 777	3.8800e-01	8.9677	1.601977	0.000725	7.245369	2.454798	-0.058254
 778	3.8850e-01	8.9388	1.674795	-0.000181	-1.811342	-0.613699	0.014563
 779	3.8900e-01	8.9131	2.002472	-0.000815	-8.151040	-2.761647	0.065535
 780	3.8950e-01	8.8441	1.601977	0.000996	9.962383	3.375347	-0.080099
 781	3.9000e-01	8.8345	1.784020	-0.000453	-4.528356	-1.534248	0.036409
 782	3.9050e-01	8.7671	1.784020	-0.000000	-0.000000	-0.000000	0.000000
 783	3.9100e-01	8.7447	1.638386	0.000362	3.622685	1.227399	-0.029127
 784	3.9150e-01	8.6982	1.674795	-0.000091	-0.905671	-0.306850	0.007282
 785	3.9200e-01	8.6500	1.237892	0.001087	10.868054	3.682196	-0.087381
 786	3.9250e-01	8.6484	1.784020	-0.001359	-13.585067	-4.602745	0.109226
 787	3.9300e-01	8.5923	1.383526	0.000996	9.962383	3.375347	-0.080099
 788	3.9350e-01	8.5345	1.237892	0.000362	3.622685	1.227399	-0.029127
 789	3.9400e-01	8.5024	1.601977	-0.000906	-9.056711	-3.068497	0.072817
 790	3.9450e-01	8.4639	1.529160	0.000181	1.811342	0.613699	-0.014563
 791	3.9500e-01	8.4190	0.728172	0.001992	19.924765	6.750693	-0.160198
 792	3.9550e-01	8.3725	1.237892	-0.001268	-12.679396	-4.295896	0.101944
 793	3.9600e-01	8.3436	0.837397	0.000996	9.962383	3.375347	-0.080099
 794	3.9650e-01	8.3019	0.910214	-0.000181	-1.811342	-0.613699	0.014563
 795	3.9700e-01	8.2618	0.946623	-0.000091	-0.905671	-0.306850	0.007282
 796	3.9750e-01	8.2217	1.092257	-0.000362	-3.622685	-1.227399	0.029127
 797	3.9800e-01	8.1704	1.092257	-0.000000	-0.000000	-0.000000	0.000000
 798	3.9850e-01	8.1335	0.728172	0.000906	9.056711	3.068497	-0.072817
 799	3.9900e-01	8.0934	0.764580	-0.000091	-0.905671	-0.306850	0.007282
 800	3.9950e-01	8.0661	0.618946	0.000362	3.622685	1.227399	-0.029127
 801	4.0000e-01	8.0131	0.582537	0.000091	0.905671	0.306850	-0.007282
 802	4.0050e-01	7.9698	0.873806	-0.000725	-7.245369	-2.454798	0.058254
 803	4.0100e-01	7.9522	0.691763	0.000453	4.528356	1.534248	-0.036409
 804	4.0150e-01	7.8848	0.327677	0.000906	9.056711	3.068497	-0.072817
 805	4.0200e-01	7.8559	0.327677	-0.000000	-0.000000	-0.000000	0.000000
 806	4.0250e-01	7.8222	0.546129	-0.000543	-5.434027	-1.841098	0.043690
 807	4.0300e-01	7.7629	0.400494	0.000362	3.622685	1.227399	-0.029127
 808	4.0350e-01	7.7725	0.291269	-0.000272	-2.717013	-0.920549	-0.021845
 809	4.0400e-01	7.6779	0.072817	0.000543	5.434027	1.841098	-0.043690
 810	4.0450e-01	7.6698	0.473312	-0.000996	-9.962383	-3.375347	0.080099
 811	4.0500e-01	7.6233	0.327677	0.000362	3.622685	1.227399	-0.029127
 812	4.0550e-01	7.5752	0.291269	0.000091	0.905671	0.306850	-0.007282
 813	4.0600e-01	7.5447	0.400494	-0.000272	-2.717013	-0.920549	0.021845
 814	4.0650e-01	7.4886	-0.036409	0.001087	10.868054	3.682196	-0.087381
 815	4.0700e-01	7.4436	0.036409	-0.000181	-1.811342	-0.613699	0.014563
 816	4.0750e-01	7.4308	-0.072817	0.000272	2.717013	0.920549	-0.021845
 817	4.0800e-01	7.4003	0.109226	-0.000453	-4.528356	-1.534248	0.036409
 818	4.0850e-01	7.3281	0.218451	-0.000272	-2.717013	-0.920549	0.021845
 819	4.0900e-01	7.3041	-0.254860	0.001177	11.773725	3.989046	-0.094662
 820	4.0950e-01	7.2592	-0.618946	0.000906	9.056711	3.068497	-0.072817
 821	4.1000e-01	7.2174	-0.327677	-0.000725	-7.245369	-2.454798	0.058254
 822	4.1050e-01	7.1822	-0.291269	-0.000091	-0.905671	-0.306850	0.007282
 823	4.1100e-01	7.1420	-0.473312	0.000453	4.528356	1.534248	-0.036409
 824	4.1150e-01	7.1068	-0.109226	-0.000906	-9.056711	-3.068497	0.072817
 825	4.1200e-01	7.0538	-0.873806	0.001902	19.019094	6.443844	-0.152916
 826	4.1250e-01	7.0153	-0.291269	-0.001449	-14.490738	-4.909595	0.116507
 827	4.1300e-01	6.9768	-0.436903	0.000362	3.622685	1.227399	-0.029127
 828	4.1350e-01	6.9383	-0.837397	0.000996	9.962383	3.375347	-0.080099
 829	4.1400e-01	6.9014	-0.327677	-0.001268	-12.679396	-4.295896	0.101944
 830	4.1450e-01	6.8533	-0.983032	0.001630	16.302081	5.523294	-0.131071
 831	4.1500e-01	6.8148	-0.364086	-0.001540	-15.396409	-5.216445	0.123789
 832	4.1550e-01	6.7763	-0.655354	0.000725	7.245369	2.454798	-0.058254
 833	4.1600e-01	6.7282	-0.983032	0.000815	8.151040	2.761647	-0.065535
 834	4.1650e-01	6.6945	-0.728172	-0.000634	-6.339698	-2.147948	0.050972
 835	4.1700e-01	6.6864	-0.873806	0.000362	3.622685	1.227399	-0.029127
 836	4.1750e-01	6.6110	-1.055849	0.000453	4.528356	1.534248	-0.036409
 837	4.1800e-01	6.5709	-1.019440	-0.000091	-0.905671	-0.306850	0.007282
 838	4.1850e-01	6.5517	-0.728172	-0.000725	-7.245369	-2.454798	0.058254
 839	4.1900e-01	6.5100	-1.565569	0.002083	20.830436	7.057543	-0.167479
 840	4.1950e-01	6.4779	-1.274300	-0.000725	-7.245369	-2.454798	0.058254
 841	4.2000e-01	6.4025	-1.128666	-0.000362	-3.622685	-1.227399	0.029127
 842	4.2050e-01	6.3816	-1.529160	0.000996	9.962383	3.375347	-0.080099
 843	4.2100e-01	6.3383	-1.201483	-0.000815	-8.151040	-2.761647	0.065535
 844	4.2150e-01	6.2790	-1.565569	0.000906	9.056711	3.068497	-0.072817
 845	4.2200e-01	6.2709	-1.456343	-0.000272	-2.717013	-0.920549	0.021845
 846	4.2250e-01	6.2100	-1.601977	0.000362	3.622685	1.227399	-0.029127
 847	4.2300e-01	6.1827	-1.856837	0.000634	6.339698	2.147948	-0.050972
 848	4.2350e-01	6.1522	-1.856837	-0.000000	-0.000000	-0.000000	0.000000
 849	4.2400e-01	6.1073	-1.529160	-0.000815	-8.151040	-2.761647	0.065535
 850	4.2450e-01	6.0560	-1.638386	0.000272	2.717013	0.920549	-0.021845
 851	4.2500e-01	6.0175	-1.929655	0.000725	7.245369	2.454798	-0.058254
 852	4.2550e-01	5.9758	-1.638386	-0.000725	-7.245369	-2.454798	0.058254
 853	4.2600e-01	5.9485	-1.893246	0.000634	6.339698	2.147948	-0.050972
 854	4.2650e-01	5.8891	-1.966063	0.000181	1.811342	0.613699	-0.014563
 855	4.2700e-01	5.8683	-1.820429	-0.000362	-3.622685	-1.227399	0.029127
 856	4.2750e-01	5.8186	-2.075289	0.000634	6.339698	2.147948	-0.050972
 857	4.2800e-01	5.7993	-2.257332	0.000453	4.528356	1.534248	-0.036409
 858	4.2850e-01	5.7207	-1.856837	-0.000996	-9.962383	-3.375347	0.080099
 859	4.2900e-01	5.7127	-2.220923	0.000906	9.056711	3.068497	-0.072817
 860	4.2950e-01	5.6517	-2.330149	0.000272	2.717013	0.920549	-0.021845
 861	4.3000e-01	5.6276	-2.075289	-0.000634	-6.339698	-2.147948	0.050972
 862	4.3050e-01	5.5747	-2.220923	0.000362	3.622685	1.227399	-0.029127
 863	4.3100e-01	5.5330	-2.402966	0.000453	4.528356	1.534248	-0.036409
 864	4.3150e-01	5.5041	-2.694235	0.000725	7.245369	2.454798	-0.058254
 865	4.3200e-01	5.4672	-2.038880	-0.001630	-16.302081	-5.523294	0.131071
 866	4.3250e-01	5.4207	-2.075289	0.000091	0.905671	0.306850	-0.007282
 867	4.3300e-01	5.3838	-2.512192	0.001087	10.868054	3.682196	-0.087381
 868	4.3350e-01	5.3437	-2.949095	0.001087	10.868054	3.682196	-0.087381
 869	4.3400e-01	5.2876	-2.694235	-0.000634	-6.339698	-2.147948	0.050972
 870	4.3450e-01	5.2667	-2.657826	-0.000091	-0.905671	-0.306850	0.007282
 871	4.3500e-01	5.2250	-2.767052	0.000272	2.717013	0.920549	-0.021845
 872	4.3550e-01	5.1929	-2.767052	-0.000000	-0.000000	-0.000000	0.000000
 873	4.3600e-01	5.1448	-2.912686	0.000362	3.622685	1.227399	-0.029127
 874	4.3650e-01	5.0902	-2.839869	-0.000181	-1.811342	-0.613699	0.014563
 875	4.3700e-01	5.0565	-3.058320	0.000543	5.434027	1.841098	-0.043690
 876	4.3750e-01	5.0196	-2.657826	-0.000996	-9.962383	-3.375347	0.080099
 877	4.3800e-01	4.9972	-3.203955	0.001359	13.585067	4.602745	-0.109226
 878	4.3850e-01	4.9314	-3.276772	0.000181	1.811342	0.613699	-0.014563
 879	4.3900e-01	4.8913	-3.094729	-0.000453	-4.528356	-1.534248	0.036409
 880	4.3950e-01	4.8865	-3.240363	0.000362	3.622685	1.227399	-0.029127
 881	4.4000e-01	4.8255	-3.495223	0.000634	6.339698	2.147948	-0.050972
 882	4.4050e-01	4.7870	-3.058320	-0.001087	-10.868054	-3.682196	0.087381
 883	4.4100e-01	4.7373	-3.422406	0.000906	9.056711	3.068497	-0.072817
 884	4.4150e-01	4.7068	-3.458815	0.000091	0.905671	0.306850	-0.007282
 885	4.4200e-01	4.6459	-3.604449	0.000362	3.622685	1.227399	-0.029127
 886	4.4250e-01	4.6362	-3.313181	-0.000725	-7.245369	-2.454798	0.058254
 887	4.4300e-01	4.5945	-3.458815	0.000362	3.622685	1.227399	-0.029127
 888	4.4350e-01	4.5336	-3.604449	0.000362	3.622685	1.227399	-0.029127
 889	4.4400e-01	4.5175	-3.568041	-0.000091	-0.905671	-0.306850	0.007282
 890	4.4450e-01	4.4662	-3.750083	0.000453	4.528356	1.534248	-0.036409
 891	4.4500e-01	4.4084	-3.750083	-0.000000	-0.000000	-0.000000	0.000000
 892	4.4550e-01	4.3908	-3.786492	0.000091	0.905671	0.306850	-0.007282
 893	4.4600e-01	4.3330	-3.822901	0.000091	0.905671	0.306850	-0.007282
 894	4.4650e-01	4.3009	-4.332621	0.001268	12.679396	4.295896	-0.101944
 895	4.4700e-01	4.2801	-3.859309	-0.001177	-11.773725	-3.989046	0.094662
 896	4.4750e-01	4.2207	-4.441846	0.001449	14.490738	4.909595	-0.116507
 897	4.4800e-01	4.1806	-4.259804	-0.000453	-4.528356	-1.534248	0.036409
 898	4.4850e-01	4.1614	-4.114169	-0.000362	-3.622685	-1.227399	0.029127
 899	4.4900e-01	4.0956	-4.077761	-0.000091	-0.905671	-0.306850	0.007282
 900	4.4950e-01	4.0507	-4.623889	0.001359	13.585067	4.602745	-0.109226
 901	4.5000e-01	4.0042	-4.369029	-0.000634	-6.339698	-2.147948	0.050972
 902	4.5050e-01	3.9753	-4.441846	0.000181	1.811342	0.613699	-0.014563
 903	4.5100e-01	3.9544	-4.660298	0.000543	5.434027	1.841098	-0.043690
 904	4.5150e-01	3.8822	-4.514664	-0.000362	-3.622685	-1.227399	0.029127
 905	4.5200e-01	3.8774	-4.842341	0.000815	8.151040	2.761647	-0.065535
 906	4.5250e-01	3.8245	-4.842341	-0.000000	-0.000000	-0.000000	0.000000
 907	4.5300e-01	3.7780	-4.623889	-0.000543	-5.434027	-1.841098	0.043690
 908	4.5350e-01	3.7587	-4.769524	0.000362	3.622685	1.227399	-0.029127
 909	4.5400e-01	3.7090	-4.951566	0.000453	4.528356	1.534248	-0.036409
 910	4.5450e-01	3.6593	-4.587481	-0.000906	-9.056711	-3.068497	0.072817
 911	4.5500e-01	3.6208	-5.315652	0.001811	18.113423	6.136994	-0.145634
 912	4.5550e-01	3.5806	-4.623889	-0.001721	-17.207752	-5.830144	0.138353
 913	4.5600e-01	3.5373	-5.279244	0.001630	16.302081	5.523294	-0.131071
 914	4.5650e-01	3.5101	-5.133609	-0.000362	-3.622685	-1.227399	0.029127
 915	4.5700e-01	3.4667	-5.060792	-0.000181	-1.811342	-0.613699	0.014563
 916	4.5750e-01	3.4186	-5.424878	0.000906	9.056711	3.068497	-0.072817
 917	4.5800e-01	3.3865	-5.424878	-0.000000	-0.000000	-0.000000	0.000000
 918	4.5850e-01	3.3304	-5.534104	0.000272	2.717013	0.920549	-0.021845
 919	4.5900e-01	3.2935	-5.497695	-0.000091	-0.905671	-0.306850	0.007282
 920	4.5950e-01	3.2646	-5.570512	0.000181	1.811342	0.613699	-0.014563
 921	4.6000e-01	3.2389	-5.861781	0.000725	7.245369	2.454798	-0.058254
 922	4.6050e-01	3.1668	-5.643329	-0.000543	-5.434027	-1.841098	0.043690
 923	4.6100e-01	3.1587	-5.716147	0.000181	1.811342	0.613699	-0.014563
 924	4.6150e-01	3.1074	-6.007415	0.000725	7.245369	2.454798	-0.058254
 925	4.6200e-01	3.0561	-5.534104	-0.001177	-11.773725	-3.989046	0.094662
 926	4.6250e-01	3.0208	-5.643329	0.000272	2.717013	0.920549	-0.021845
 927	4.6300e-01	2.9855	-5.643329	-0.000000	-0.000000	-0.000000	0.000000
 928	4.6350e-01	2.9438	-6.153050	0.001268	12.679396	4.295896	-0.101944
 929	4.6400e-01	2.9021	-5.971007	-0.000453	-4.528356	-1.534248	0.036409
 930	4.6450e-01	2.8555	-5.825372	-0.000362	-3.622685	-1.227399	0.029127
 931	4.6500e-01	2.8234	-6.407910	0.001449	14.490738	4.909595	-0.116507
 932	4.6550e-01	2.7914	-5.788964	-0.001540	-15.396409	-5.216445	0.123789
 933	4.6600e-01	2.7240	-6.189458	0.000996	9.962383	3.375347	-0.080099
 934	4.6650e-01	2.7176	-6.080232	-0.000272	-2.717013	-0.920549	0.021845
 935	4.6700e-01	2.6550	-6.517135	0.001087	10.868054	3.682196	-0.087381
 936	4.6750e-01	2.6213	-6.553544	0.000091	0.905671	0.306850	-0.007282
 937	4.6800e-01	2.5940	-6.153050	-0.000996	-9.962383	-3.375347	0.080099
 938	4.6850e-01	2.5539	-6.444318	0.000725	7.245369	2.454798	-0.058254
 939	4.6900e-01	2.4866	-6.881221	0.001087	10.868054	3.682196	-0.087381
 940	4.6950e-01	2.4641	-6.662770	-0.000543	-5.434027	-1.841098	0.043690
 941	4.7000e-01	2.4112	-6.298684	-0.000906	-9.056711	-3.068497	0.072817
 942	4.7050e-01	2.3951	-7.026855	0.001811	18.113423	6.136994	-0.145634
 943	4.7100e-01	2.3422	-6.589952	-0.001087	-10.868054	-3.682196	0.087381
 944	4.7150e-01	2.3037	-6.917630	0.000815	8.151040	2.761647	-0.065535
 945	4.7200e-01	2.2684	-6.917630	-0.000000	-0.000000	-0.000000	0.000000
 946	4.7250e-01	2.2170	-7.354533	0.001087	10.868054	3.682196	-0.087381
 947	4.7300e-01	2.1802	-6.954038	-0.000996	-9.962383	-3.375347	0.080099
 948	4.7350e-01	2.1545	-7.099673	0.000362	3.622685	1.227399	-0.029127
 949	4.7400e-01	2.1144	-7.172490	0.000181	1.811342	0.613699	-0.014563
 950	4.7450e-01	2.0518	-7.245307	0.000181	1.811342	0.613699	-0.014563
 951	4.7500e-01	2.0326	-7.463758	0.000543	5.434027	1.841098	-0.043690
 952	4.7550e-01	1.9764	-7.500167	0.000091	0.905671	0.306850	-0.007282
 953	4.7600e-01	1.9556	-7.245307	-0.000634	-6.339698	-2.147948	0.050972
 954	4.7650e-01	1.9074	-7.536575	0.000725	7.245369	2.454798	-0.058254
 955	4.7700e-01	1.8577	-7.463758	-0.000181	-1.811342	-0.613699	0.014563
 956	4.7750e-01	1.8256	-7.645801	0.000453	4.528356	1.534248	-0.036409
 957	4.7800e-01	1.7823	-8.046296	0.000996	9.962383	3.375347	-0.080099
 958	4.7850e-01	1.7358	-7.755027	-0.000725	-7.245369	-2.454798	0.058254
 959	4.7900e-01	1.7037	-7.973478	0.000543	5.434027	1.841098	-0.043690
 960	4.7950e-01	1.6668	-7.572984	-0.000996	-9.962383	-3.375347	0.080099
 961	4.8000e-01	1.6315	-7.827844	0.000634	6.339698	2.147948	-0.050972
 962	4.8050e-01	1.5754	-8.337564	0.001268	12.679396	4.295896	-0.101944
 963	4.8100e-01	1.5336	-7.900661	-0.001087	-10.868054	-3.682196	0.087381
 964	4.8150e-01	1.5016	-8.009887	0.000272	2.717013	0.920549	-0.021845
 965	4.8200e-01	1.4663	-8.228338	0.000543	5.434027	1.841098	-0.043690
 966	4.8250e-01	1.4149	-8.373973	0.000362	3.622685	1.227399	-0.029127
 967	4.8300e-01	1.3877	-8.665241	0.000725	7.245369	2.454798	-0.058254
 968	4.8350e-01	1.3427	-8.483198	-0.000453	-4.528356	-1.534248	0.036409
 969	4.8400e-01	1.3107	-8.519607	0.000091	0.905671	0.306850	-0.007282
 970	4.8450e-01	1.2818	-8.337564	-0.000453	-4.528356	-1.534248	0.036409
 971	4.8500e-01	1.2112	-8.738058	0.000996	9.962383	3.375347	-0.080099
 972	4.8550e-01	1.1743	-8.883693	0.000362	3.622685	1.227399	-0.029127
 973	4.8600e-01	1.1262	-8.883693	-0.000000	-0.000000	-0.000000	0.000000
 974	4.8650e-01	1.0941	-8.883693	-0.000000	-0.000000	-0.000000	0.000000
 975	4.8700e-01	1.0652	-9.174961	0.000725	7.245369	2.454798	-0.058254
 976	4.8750e-01	1.0155	-8.992919	-0.000453	-4.528356	-1.534248	0.036409
 977	4.8800e-01	0.9770	-9.320596	0.000815	8.151040	2.761647	-0.065535
 978	4.8850e-01	0.9497	-8.810876	-0.001268	-12.679396	-4.295896	0.101944
 979	4.8900e-01	0.8920	-9.211370	0.000996	9.962383	3.375347	-0.080099
 980	4.8950e-01	0.8855	-9.466230	0.000634	6.339698	2.147948	-0.050972
 981	4.9000e-01	0.8294	-9.211370	-0.000634	-6.339698	-2.147948	0.050972
 982	4.9050e-01	0.7941	-9.539047	0.000815	8.151040	2.761647	-0.065535
 983	4.9100e-01	0.7556	-9.903133	0.000906	9.056711	3.068497	-0.072817
 984	4.9150e-01	0.6978	-9.502639	-0.000996	-9.962383	-3.375347	0.080099
 985	4.9200e-01	0.6545	-10.048767	0.001359	13.585067	4.602745	-0.109226
 986	4.9250e-01	0.6064	-9.939542	-0.000272	-2.717013	-0.920549	0.021845
 987	4.9300e-01	0.6032	-10.048767	0.000272	2.717013	0.920549	-0.021845
 988	4.9350e-01	0.5438	-9.721090	-0.000815	-8.151040	-2.761647	0.065535
 989	4.9400e-01	0.5118	-10.303627	0.001449	14.490738	4.909595	-0.116507
 990	4.9450e-01	0.4684	-10.230810	-0.000181	-1.811342	-0.613699	0.014563
 991	4.9500e-01	0.4107	-9.939542	-0.000725	-7.245369	-2.454798	0.058254
 992	4.9550e-01	0.3770	-10.412853	0.001177	11.773725	3.989046	-0.094662
 993	4.9600e-01	0.3433	-10.594896	0.000453	4.528356	1.534248	-0.036409
 994	4.9650e-01	0.3032	-10.485670	-0.000272	-2.717013	-0.920549	0.021845
 995	4.9700e-01	0.2679	-10.594896	0.000272	2.717013	0.920549	-0.021845
 996	4.9750e-01	0.2134	-10.376444	-0.000543	-5.434027	-1.841098	0.043690
 997	4.9800e-01	0.1813	-10.558487	0.000453	4.528356	1.534248	-0.036409
 998	4.9850e-01	0.1380	-10.886165	0.000815	8.151040	2.761647	-0.065535
 999	4.9900e-01	0.1123	-10.849756	-0.000091	-0.905671	-0.306850	0.007282
1000	4.9950e-01	0.0626	-10.776939	-0.000181	-1.811342	-0.613699	0.014563
1001	5.0000e-01	0.0658	-10.922573	-0.000181	-1.811342	-0.613699	-0.029127

PMax (uC/cm2):	2.46e+01
Pr (uC/cm2):	1.42e+00
-Pr (uC/cm2):	0.00e+00
PLoss (uC/cm2):	0.00e+00
C (Max-Eff) (nF):	1.23e-01
K (Eff):	4.16e+02
Vert. (+/-Pr) Shift (uC/cm2):	7.10e-01
Offset (uC/cm2):	1.23e+01

A (Loop Area - uC/cm2·Volts):	-3.41e-01



Hysteresis Version: 5.48.1 - Radiant Technologies, Inc., 1999 - 9/12/24

