»»»»»»»»»»»»»»»»»»»»»»»»»»»»»»»»»»»» Hysteresis ««««««««««««««««««««««««««««««««««««
»»»  Executed Version:	5.48.1
»»»  Vision Version:	5.48.4 (R)
»»»  Vision Compiled:	9/18/24
»»»  Driver Version:	5.47.0
»»»  Windows Version:	Windows 8 or 8.1
»»»  Processor Information:	x86 (AMD or Intel) - 32 Processors
»»»  Tester Name:	PMF21124-494 (100V)
»»»  Tester S/N:	PMF21124-494
»»»  Internal Amp Type:	100V RevK 270k
»»»  Internal Amp S/N:	iAB2-596/K     
»»»  Execution Count:	1
»»»»»»»»»»»»»»»»»»»»»»»»»»»»»»»»»»»»»»»»»»««««««««««««««««««««««««««««««««««««««««««

Stored:	10/8/2025 - 19:0:11
Configured:	10/08/25 04:22:59 PM
Executed:	10/08/25 06:59:47 PM

»»»»»»»»»»»»»»»»»»»»»»»»»»»»»»»»»»» Sample Info ««««««««««««««««««««««««««««««««««««
Sample Name:	Int. Ref. Ferroelectric
Lot Name:	N/A
Wafer Name:	N/A
Die Row/Column:	0/0
Capacitor Number:	0
Sample Area (cm2):	1.00e-04
Sample Thickness (microns):	3.00e-01

Amplifier:	Internal

»»»»»»»»»»»»»»»»»»»»»»»»»»»»»»»»»»» Tester Info «««««««««««««««««««««««««««««««««««
Tester Name:	PMF21124-494 (100V)
Tester Serial Number:	PMF21124-494
Return Signal Amp. Level:	0.02 [Index: 2]

»»»»»»»»»»»»»»»»»»»»»»»»»»»»»»»» Hysteresis Info ««««««««««««««««««««««««««««««««««
Task Name:	Hyste-8
Volts:	20.00
Field:	666.67 (kV/cm)
DCBias:	0.00
DCField:	0.00 (kV/cm)
Hysteresis Period (ms):	5.00e-01
Preset:	Enabled
Preset Delay (ms):	1.00e+03
Profile:	Standard Monopolar

»»»»»»»»»»»»»»»»»»»»»»»»»»»»»»»»»»»»»» Data «««««««««««««««««««««««««««««««««««««««
Points:	1001

Valid Data

Point	Time (ms)	Drive Voltage	Measured Polarization (uC/cm2)	Capacitance (uF)	Normalized Capacitance (uF/cm2)	Dielectric Constant	Instantaneous Current (mA)
   1	0.0000e+00	0.0305	-11.031799	0.000994	9.936161	3.366462	0.080099
   2	5.0000e-04	0.0561	-10.631304	0.000994	9.936161	3.366462	0.080099
   3	1.0000e-03	0.0930	-10.412853	0.000542	5.419724	1.836252	0.043690
   4	1.5000e-03	0.1604	-10.594896	-0.000452	-4.516437	-1.530210	-0.036409
   5	2.0000e-03	0.1813	-10.558487	0.000090	0.903287	0.306042	0.007282
   6	2.5000e-03	0.2294	-10.631304	-0.000181	-1.806575	-0.612084	-0.014563
   7	3.0000e-03	0.2454	-10.522079	0.000271	2.709862	0.918126	0.021845
   8	3.5000e-03	0.3128	-10.121584	0.000994	9.936161	3.366462	0.080099
   9	4.0000e-03	0.3481	-10.157993	-0.000090	-0.903287	-0.306042	-0.007282
  10	4.5000e-03	0.4139	-10.048767	0.000271	2.709862	0.918126	0.021845
  11	5.0000e-03	0.4155	-10.412853	-0.000903	-9.032873	-3.060420	-0.072817
  12	5.5000e-03	0.4861	-10.085176	0.000813	8.129586	2.754378	0.065535
  13	6.0000e-03	0.5053	-10.194402	-0.000271	-2.709862	-0.918126	-0.021845
  14	6.5000e-03	0.5599	-10.157993	0.000090	0.903287	0.306042	0.007282
  15	7.0000e-03	0.5888	-9.539047	0.001536	15.355885	5.202715	0.123789
  16	7.5000e-03	0.6208	-10.267219	-0.001807	-18.065746	-6.120841	-0.145634
  17	8.0000e-03	0.6818	-9.793907	0.001174	11.742735	3.978546	0.094662
  18	8.5000e-03	0.7347	-9.648273	0.000361	3.613149	1.224168	0.029127
  19	9.0000e-03	0.7652	-9.575456	0.000181	1.806575	0.612084	0.014563
  20	9.5000e-03	0.7781	-9.939542	-0.000903	-9.032873	-3.060420	-0.072817
  21	1.0000e-02	0.8502	-9.721090	0.000542	5.419724	1.836252	0.043690
  22	1.0500e-02	0.8871	-8.920101	0.001987	19.872321	6.732925	0.160198
  23	1.1000e-02	0.9048	-9.284187	-0.000903	-9.032873	-3.060420	-0.072817
  24	1.1500e-02	0.9417	-9.247779	0.000090	0.903287	0.306042	0.007282
  25	1.2000e-02	0.9994	-9.357004	-0.000271	-2.709862	-0.918126	-0.021845
  26	1.2500e-02	1.0636	-8.920101	0.001084	10.839448	3.672504	0.087381
  27	1.3000e-02	1.0620	-9.284187	0.000903	9.032873	3.060420	-0.072817
  28	1.3500e-02	1.1182	-8.956510	0.000813	8.129586	2.754378	0.065535
  29	1.4000e-02	1.1599	-8.920101	0.000090	0.903287	0.306042	0.007282
  30	1.4500e-02	1.1935	-8.992919	-0.000181	-1.806575	-0.612084	-0.014563
  31	1.5000e-02	1.2529	-8.556016	0.001084	10.839448	3.672504	0.087381
  32	1.5500e-02	1.2689	-8.992919	-0.001084	-10.839448	-3.672504	-0.087381
  33	1.6000e-02	1.3074	-8.519607	0.001174	11.742735	3.978546	0.094662
  34	1.6500e-02	1.3540	-8.810876	-0.000723	-7.226299	-2.448336	-0.058254
  35	1.7000e-02	1.4197	-8.628833	0.000452	4.516437	1.530210	0.036409
  36	1.7500e-02	1.4470	-8.446790	0.000452	4.516437	1.530210	0.036409
  37	1.8000e-02	1.4615	-8.592424	-0.000361	-3.613149	-1.224168	-0.029127
  38	1.8500e-02	1.5112	-8.301156	0.000723	7.226299	2.448336	0.058254
  39	1.9000e-02	1.5657	-8.155521	0.000361	3.613149	1.224168	0.029127
  40	1.9500e-02	1.6010	-8.155521	0.000000	0.000000	0.000000	0.000000
  41	2.0000e-02	1.6347	-8.119113	0.000090	0.903287	0.306042	0.007282
  42	2.0500e-02	1.6796	-8.191930	-0.000181	-1.806575	-0.612084	-0.014563
  43	2.1000e-02	1.7278	-7.900661	0.000723	7.226299	2.448336	0.058254
  44	2.1500e-02	1.7550	-7.864253	0.000090	0.903287	0.306042	0.007282
  45	2.2000e-02	1.7903	-8.082704	-0.000542	-5.419724	-1.836252	-0.043690
  46	2.2500e-02	1.8481	-7.791435	0.000723	7.226299	2.448336	0.058254
  47	2.3000e-02	1.8673	-7.900661	-0.000271	-2.709862	-0.918126	-0.021845
  48	2.3500e-02	1.9155	-7.973478	-0.000181	-1.806575	-0.612084	-0.014563
  49	2.4000e-02	1.9491	-7.718618	0.000632	6.323011	2.142294	0.050972
  50	2.4500e-02	2.0069	-7.791435	-0.000181	-1.806575	-0.612084	-0.014563
  51	2.5000e-02	2.0294	-7.572984	0.000542	5.419724	1.836252	0.043690
  52	2.5500e-02	2.1048	-7.755027	-0.000452	-4.516437	-1.530210	-0.036409
  53	2.6000e-02	2.1208	-7.390941	0.000903	9.032873	3.060420	0.072817
  54	2.6500e-02	2.1481	-7.390941	0.000000	0.000000	0.000000	0.000000
  55	2.7000e-02	2.2042	-7.609393	-0.000542	-5.419724	-1.836252	-0.043690
  56	2.7500e-02	2.2283	-7.463758	0.000361	3.613149	1.224168	0.029127
  57	2.8000e-02	2.2780	-7.390941	0.000181	1.806575	0.612084	0.014563
  58	2.8500e-02	2.3245	-7.026855	0.000903	9.032873	3.060420	0.072817
  59	2.9000e-02	2.3678	-7.026855	0.000000	0.000000	0.000000	0.000000
  60	2.9500e-02	2.3775	-7.281715	-0.000632	-6.323011	-2.142294	-0.050972
  61	3.0000e-02	2.4577	-7.026855	0.000632	6.323011	2.142294	0.050972
  62	3.0500e-02	2.4834	-7.172490	-0.000361	-3.613149	-1.224168	-0.029127
  63	3.1000e-02	2.5283	-6.881221	0.000723	7.226299	2.448336	0.058254
  64	3.1500e-02	2.5459	-7.136081	-0.000632	-6.323011	-2.142294	-0.050972
  65	3.2000e-02	2.6069	-7.172490	-0.000090	-0.903287	-0.306042	-0.007282
  66	3.2500e-02	2.6390	-6.553544	0.001536	15.355885	5.202715	0.123789
  67	3.3000e-02	2.6791	-6.735587	-0.000452	-4.516437	-1.530210	-0.036409
  68	3.3500e-02	2.7095	-6.771995	-0.000090	-0.903287	-0.306042	-0.007282
  69	3.4000e-02	2.7529	-6.407910	0.000903	9.032873	3.060420	0.072817
  70	3.4500e-02	2.8090	-6.553544	-0.000361	-3.613149	-1.224168	-0.029127
  71	3.5000e-02	2.8363	-6.662770	-0.000271	-2.709862	-0.918126	-0.021845
  72	3.5500e-02	2.8700	-6.298684	0.000903	9.032873	3.060420	0.072817
  73	3.6000e-02	2.9165	-6.480727	-0.000452	-4.516437	-1.530210	-0.036409
  74	3.6500e-02	2.9566	-6.699178	-0.000542	-5.419724	-1.836252	-0.043690
  75	3.7000e-02	3.0095	-6.553544	0.000361	3.613149	1.224168	0.029127
  76	3.7500e-02	3.0496	-6.189458	0.000903	9.032873	3.060420	0.072817
  77	3.8000e-02	3.0673	-6.007415	0.000452	4.516437	1.530210	0.036409
  78	3.8500e-02	3.1090	-6.225867	-0.000542	-5.419724	-1.836252	-0.043690
  79	3.9000e-02	3.1571	-5.898189	0.000813	8.129586	2.754378	0.065535
  80	3.9500e-02	3.2133	-6.116641	-0.000542	-5.419724	-1.836252	-0.043690
  81	4.0000e-02	3.2277	-6.225867	-0.000271	-2.709862	-0.918126	-0.021845
  82	4.0500e-02	3.2726	-6.298684	-0.000181	-1.806575	-0.612084	-0.014563
  83	4.1000e-02	3.3288	-5.971007	0.000813	8.129586	2.754378	0.065535
  84	4.1500e-02	3.3545	-5.643329	0.000813	8.129586	2.754378	0.065535
  85	4.2000e-02	3.4138	-6.116641	-0.001174	-11.742735	-3.978546	-0.094662
  86	4.2500e-02	3.4331	-5.825372	0.000723	7.226299	2.448336	0.058254
  87	4.3000e-02	3.4860	-5.861781	-0.000090	-0.903287	-0.306042	-0.007282
  88	4.3500e-02	3.5149	-5.497695	0.000903	9.032873	3.060420	0.072817
  89	4.4000e-02	3.5806	-5.606921	-0.000271	-2.709862	-0.918126	-0.021845
  90	4.4500e-02	3.6063	-5.170018	0.001084	10.839448	3.672504	0.087381
  91	4.5000e-02	3.6336	-4.987975	0.000452	4.516437	1.530210	0.036409
  92	4.5500e-02	3.6881	-5.752555	-0.001897	-18.969034	-6.426883	-0.152916
  93	4.6000e-02	3.7282	-5.388469	0.000903	9.032873	3.060420	0.072817
  94	4.6500e-02	3.7587	-5.097201	0.000723	7.226299	2.448336	0.058254
  95	4.7000e-02	3.8036	-4.951566	0.000361	3.613149	1.224168	0.029127
  96	4.7500e-02	3.8325	-4.987975	-0.000090	-0.903287	-0.306042	-0.007282
  97	4.8000e-02	3.8550	-4.987975	0.000000	0.000000	0.000000	0.000000
  98	4.8500e-02	3.9400	-5.388469	-0.000994	-9.936161	-3.366462	-0.080099
  99	4.9000e-02	3.9753	-4.951566	0.001084	10.839448	3.672504	0.087381
 100	4.9500e-02	3.9897	-4.987975	-0.000090	-0.903287	-0.306042	-0.007282
 101	5.0000e-02	4.0683	-4.660298	0.000813	8.129586	2.754378	0.065535
 102	5.0500e-02	4.0651	-4.915158	0.000632	6.323011	2.142294	-0.050972
 103	5.1000e-02	4.1245	-4.915158	0.000000	0.000000	0.000000	0.000000
 104	5.1500e-02	4.1598	-4.769524	0.000361	3.613149	1.224168	0.029127
 105	5.2000e-02	4.2207	-4.259804	0.001265	12.646023	4.284588	0.101944
 106	5.2500e-02	4.2255	-5.097201	-0.002078	-20.775608	-7.038967	-0.167479
 107	5.3000e-02	4.2801	-4.805932	0.000723	7.226299	2.448336	0.058254
 108	5.3500e-02	4.3218	-4.733115	0.000181	1.806575	0.612084	0.014563
 109	5.4000e-02	4.3619	-4.587481	0.000361	3.613149	1.224168	0.029127
 110	5.4500e-02	4.4165	-4.514664	0.000181	1.806575	0.612084	0.014563
 111	5.5000e-02	4.4357	-4.369029	0.000361	3.613149	1.224168	0.029127
 112	5.5500e-02	4.4870	-4.733115	-0.000903	-9.032873	-3.060420	-0.072817
 113	5.6000e-02	4.5271	-4.186986	0.001355	13.549310	4.590630	0.109226
 114	5.6500e-02	4.5480	-4.478255	-0.000723	-7.226299	-2.448336	-0.058254
 115	5.7000e-02	4.6074	-4.004943	0.001174	11.742735	3.978546	0.094662
 116	5.7500e-02	4.6523	-4.186986	-0.000452	-4.516437	-1.530210	-0.036409
 117	5.8000e-02	4.6651	-4.223395	-0.000090	-0.903287	-0.306042	-0.007282
 118	5.8500e-02	4.6988	-4.296212	-0.000181	-1.806575	-0.612084	-0.014563
 119	5.9000e-02	4.7630	-4.041352	0.000632	6.323011	2.142294	0.050972
 120	5.9500e-02	4.7967	-4.114169	-0.000181	-1.806575	-0.612084	-0.014563
 121	6.0000e-02	4.8512	-4.186986	-0.000181	-1.806575	-0.612084	-0.014563
 122	6.0500e-02	4.8913	-4.041352	0.000361	3.613149	1.224168	0.029127
 123	6.1000e-02	4.9154	-4.259804	-0.000542	-5.419724	-1.836252	-0.043690
 124	6.1500e-02	4.9731	-3.640858	0.001536	15.355885	5.202715	0.123789
 125	6.2000e-02	5.0068	-3.349589	0.000723	7.226299	2.448336	0.058254
 126	6.2500e-02	5.0389	-3.786492	-0.001084	-10.839448	-3.672504	-0.087381
 127	6.3000e-02	5.0822	-3.458815	0.000813	8.129586	2.754378	0.065535
 128	6.3500e-02	5.1335	-3.276772	0.000452	4.516437	1.530210	0.036409
 129	6.4000e-02	5.1656	-3.422406	-0.000361	-3.613149	-1.224168	-0.029127
 130	6.4500e-02	5.1785	-3.640858	-0.000542	-5.419724	-1.836252	-0.043690
 131	6.5000e-02	5.2555	-3.276772	0.000903	9.032873	3.060420	0.072817
 132	6.5500e-02	5.2779	-3.604449	-0.000813	-8.129586	-2.754378	-0.065535
 133	6.6000e-02	5.3309	-3.531632	0.000181	1.806575	0.612084	0.014563
 134	6.6500e-02	5.3630	-3.859309	-0.000813	-8.129586	-2.754378	-0.065535
 135	6.7000e-02	5.3950	-2.730643	0.002800	28.001907	9.487303	0.225733
 136	6.7500e-02	5.4480	-3.203955	-0.001174	-11.742735	-3.978546	-0.094662
 137	6.8000e-02	5.4752	-3.094729	0.000271	2.709862	0.918126	0.021845
 138	6.8500e-02	5.5073	-3.167546	-0.000181	-1.806575	-0.612084	-0.014563
 139	6.9000e-02	5.5715	-3.458815	-0.000723	-7.226299	-2.448336	-0.058254
 140	6.9500e-02	5.5859	-3.131138	0.000813	8.129586	2.754378	0.065535
 141	7.0000e-02	5.6389	-3.167546	-0.000090	-0.903287	-0.306042	-0.007282
 142	7.0500e-02	5.6613	-3.167546	0.000000	0.000000	0.000000	0.000000
 143	7.1000e-02	5.7239	-3.203955	-0.000090	-0.903287	-0.306042	-0.007282
 144	7.1500e-02	5.7720	-2.512192	0.001716	17.162459	5.814799	0.138353
 145	7.2000e-02	5.7817	-3.240363	-0.001807	-18.065746	-6.120841	-0.145634
 146	7.2500e-02	5.8330	-2.694235	0.001355	13.549310	4.590630	0.109226
 147	7.3000e-02	5.8811	-2.985503	-0.000723	-7.226299	-2.448336	-0.058254
 148	7.3500e-02	5.9196	-2.839869	0.000361	3.613149	1.224168	0.029127
 149	7.4000e-02	5.9694	-2.839869	0.000000	0.000000	0.000000	0.000000
 150	7.4500e-02	6.0079	-2.657826	0.000452	4.516437	1.530210	0.036409
 151	7.5000e-02	6.0528	-2.439375	0.000542	5.419724	1.836252	0.043690
 152	7.5500e-02	6.1057	-2.803460	-0.000903	-9.032873	-3.060420	-0.072817
 153	7.6000e-02	6.1073	-2.366558	0.001084	10.839448	3.672504	0.087381
 154	7.6500e-02	6.1827	-2.512192	-0.000361	-3.613149	-1.224168	-0.029127
 155	7.7000e-02	6.1955	-2.038880	0.001174	11.742735	3.978546	0.094662
 156	7.7500e-02	6.2373	-2.512192	-0.001174	-11.742735	-3.978546	-0.094662
 157	7.8000e-02	6.2902	-2.111697	0.000994	9.936161	3.366462	0.080099
 158	7.8500e-02	6.3094	-2.075289	0.000090	0.903287	0.306042	0.007282
 159	7.9000e-02	6.3496	-2.621418	-0.001355	-13.549310	-4.590630	-0.109226
 160	7.9500e-02	6.4137	-2.111697	0.001265	12.646023	4.284588	0.101944
 161	8.0000e-02	6.4330	-1.893246	0.000542	5.419724	1.836252	0.043690
 162	8.0500e-02	6.4891	-2.075289	-0.000452	-4.516437	-1.530210	-0.036409
 163	8.1000e-02	6.4923	-1.893246	0.000452	4.516437	1.530210	0.036409
 164	8.1500e-02	6.5758	-2.002472	-0.000271	-2.709862	-0.918126	-0.021845
 165	8.2000e-02	6.6159	-1.529160	0.001174	11.742735	3.978546	0.094662
 166	8.2500e-02	6.6399	-1.674795	-0.000361	-3.613149	-1.224168	-0.029127
 167	8.3000e-02	6.6880	-1.747612	-0.000181	-1.806575	-0.612084	-0.014563
 168	8.3500e-02	6.6752	-1.929655	0.000452	4.516437	1.530210	-0.036409
 169	8.4000e-02	6.7827	-2.002472	-0.000181	-1.806575	-0.612084	-0.014563
 170	8.4500e-02	6.8068	-1.856837	0.000361	3.613149	1.224168	0.029127
 171	8.5000e-02	6.8308	-1.492752	0.000903	9.032873	3.060420	0.072817
 172	8.5500e-02	6.8870	-1.893246	-0.000994	-9.936161	-3.366462	-0.080099
 173	8.6000e-02	6.9191	-1.711203	0.000452	4.516437	1.530210	0.036409
 174	8.6500e-02	6.9527	-1.674795	0.000090	0.903287	0.306042	0.007282
 175	8.7000e-02	6.9977	-1.565569	0.000271	2.709862	0.918126	0.021845
 176	8.7500e-02	7.0474	-1.310709	0.000632	6.323011	2.142294	0.050972
 177	8.8000e-02	7.1100	-0.946623	0.000903	9.032873	3.060420	0.072817
 178	8.8500e-02	7.1132	-1.201483	-0.000632	-6.323011	-2.142294	-0.050972
 179	8.9000e-02	7.1693	-0.910214	0.000723	7.226299	2.448336	0.058254
 180	8.9500e-02	7.2142	-1.019440	-0.000271	-2.709862	-0.918126	-0.021845
 181	9.0000e-02	7.2303	-1.092257	-0.000181	-1.806575	-0.612084	-0.014563
 182	9.0500e-02	7.2880	-1.383526	-0.000723	-7.226299	-2.448336	-0.058254
 183	9.1000e-02	7.3057	-1.237892	0.000361	3.613149	1.224168	0.029127
 184	9.1500e-02	7.3458	-0.983032	0.000632	6.323011	2.142294	0.050972
 185	9.2000e-02	7.3955	-0.983032	0.000000	0.000000	0.000000	0.000000
 186	9.2500e-02	7.4597	-0.837397	0.000361	3.613149	1.224168	0.029127
 187	9.3000e-02	7.4870	-1.092257	-0.000632	-6.323011	-2.142294	-0.050972
 188	9.3500e-02	7.5078	-0.837397	0.000632	6.323011	2.142294	0.050972
 189	9.4000e-02	7.5624	-0.691763	0.000361	3.613149	1.224168	0.029127
 190	9.4500e-02	7.5993	-0.946623	-0.000632	-6.323011	-2.142294	-0.050972
 191	9.5000e-02	7.6217	-0.910214	0.000090	0.903287	0.306042	0.007282
 192	9.5500e-02	7.7035	-0.655354	0.000632	6.323011	2.142294	0.050972
 193	9.6000e-02	7.7244	-0.582537	0.000181	1.806575	0.612084	0.014563
 194	9.6500e-02	7.7725	-0.764580	-0.000452	-4.516437	-1.530210	-0.036409
 195	9.7000e-02	7.8078	-0.400494	0.000903	9.032873	3.060420	0.072817
 196	9.7500e-02	7.8303	-0.400494	0.000000	0.000000	0.000000	0.000000
 197	9.8000e-02	7.8816	-0.509720	-0.000271	-2.709862	-0.918126	-0.021845
 198	9.8500e-02	7.9089	-0.800989	-0.000723	-7.226299	-2.448336	-0.058254
 199	9.9000e-02	7.9538	-0.254860	0.001355	13.549310	4.590630	0.109226
 200	9.9500e-02	8.0228	-0.582537	-0.000813	-8.129586	-2.754378	-0.065535
 201	1.0000e-01	8.0388	-0.327677	0.000632	6.323011	2.142294	0.050972
 202	1.0050e-01	8.0885	-0.182043	0.000361	3.613149	1.224168	0.029127
 203	1.0100e-01	8.1158	-0.327677	-0.000361	-3.613149	-1.224168	-0.029127
 204	1.0150e-01	8.1768	-0.036409	0.000723	7.226299	2.448336	0.058254
 205	1.0200e-01	8.2040	-0.364086	-0.000813	-8.129586	-2.754378	-0.065535
 206	1.0250e-01	8.2506	-0.182043	0.000452	4.516437	1.530210	0.036409
 207	1.0300e-01	8.2602	0.145634	0.000813	8.129586	2.754378	0.065535
 208	1.0350e-01	8.3356	-0.072817	-0.000542	-5.419724	-1.836252	-0.043690
 209	1.0400e-01	8.3629	0.000000	0.000181	1.806575	0.612084	0.014563
 210	1.0450e-01	8.3933	0.000000	0.000000	0.000000	0.000000	0.000000
 211	1.0500e-01	8.4302	0.291269	0.000723	7.226299	2.448336	0.058254
 212	1.0550e-01	8.4960	0.109226	-0.000452	-4.516437	-1.530210	-0.036409
 213	1.0600e-01	8.5249	0.291269	0.000452	4.516437	1.530210	0.036409
 214	1.0650e-01	8.5698	0.072817	-0.000542	-5.419724	-1.836252	-0.043690
 215	1.0700e-01	8.5794	0.000000	-0.000181	-1.806575	-0.612084	-0.014563
 216	1.0750e-01	8.6308	0.327677	0.000813	8.129586	2.754378	0.065535
 217	1.0800e-01	8.6837	0.436903	0.000271	2.709862	0.918126	0.021845
 218	1.0850e-01	8.7302	0.436903	0.000000	0.000000	0.000000	0.000000
 219	1.0900e-01	8.7575	0.473312	0.000090	0.903287	0.306042	0.007282
 220	1.0950e-01	8.8104	0.400494	-0.000181	-1.806575	-0.612084	-0.014563
 221	1.1000e-01	8.8554	0.582537	0.000452	4.516437	1.530210	0.036409
 222	1.1050e-01	8.8971	0.691763	0.000271	2.709862	0.918126	0.021845
 223	1.1100e-01	8.9195	0.582537	-0.000271	-2.709862	-0.918126	-0.021845
 224	1.1150e-01	8.9564	0.873806	0.000723	7.226299	2.448336	0.058254
 225	1.1200e-01	8.9981	0.509720	-0.000903	-9.032873	-3.060420	-0.072817
 226	1.1250e-01	9.0382	0.873806	0.000903	9.032873	3.060420	0.072817
 227	1.1300e-01	9.0880	1.092257	0.000542	5.419724	1.836252	0.043690
 228	1.1350e-01	9.1201	0.800989	-0.000723	-7.226299	-2.448336	-0.058254
 229	1.1400e-01	9.1650	0.873806	0.000181	1.806575	0.612084	0.014563
 230	1.1450e-01	9.1955	0.800989	-0.000181	-1.806575	-0.612084	-0.014563
 231	1.1500e-01	9.2372	0.983032	0.000452	4.516437	1.530210	0.036409
 232	1.1550e-01	9.2869	0.691763	-0.000723	-7.226299	-2.448336	-0.058254
 233	1.1600e-01	9.3206	1.310709	0.001536	15.355885	5.202715	0.123789
 234	1.1650e-01	9.3479	1.019440	-0.000723	-7.226299	-2.448336	-0.058254
 235	1.1700e-01	9.4024	1.310709	0.000723	7.226299	2.448336	0.058254
 236	1.1750e-01	9.4586	0.910214	-0.000994	-9.936161	-3.366462	-0.080099
 237	1.1800e-01	9.4778	1.347117	0.001084	10.839448	3.672504	0.087381
 238	1.1850e-01	9.5067	1.492752	0.000361	3.613149	1.224168	0.029127
 239	1.1900e-01	9.5660	1.092257	-0.000994	-9.936161	-3.366462	-0.080099
 240	1.1950e-01	9.6045	1.347117	0.000632	6.323011	2.142294	0.050972
 241	1.2000e-01	9.6270	1.419935	0.000181	1.806575	0.612084	0.014563
 242	1.2050e-01	9.6960	1.565569	0.000361	3.613149	1.224168	0.029127
 243	1.2100e-01	9.7184	1.310709	-0.000632	-6.323011	-2.142294	-0.050972
 244	1.2150e-01	9.7505	1.601977	0.000723	7.226299	2.448336	0.058254
 245	1.2200e-01	9.8356	1.492752	-0.000271	-2.709862	-0.918126	-0.021845
 246	1.2250e-01	9.8436	1.638386	0.000361	3.613149	1.224168	0.029127
 247	1.2300e-01	9.8708	1.529160	-0.000271	-2.709862	-0.918126	-0.021845
 248	1.2350e-01	9.9238	1.893246	0.000903	9.032873	3.060420	0.072817
 249	1.2400e-01	9.9495	1.674795	-0.000542	-5.419724	-1.836252	-0.043690
 250	1.2450e-01	10.0024	1.711203	0.000090	0.903287	0.306042	0.007282
 251	1.2500e-01	10.0393	1.638386	-0.000181	-1.806575	-0.612084	-0.014563
 252	1.2550e-01	10.0858	1.674795	0.000090	0.903287	0.306042	0.007282
 253	1.2600e-01	10.1307	1.856837	0.000452	4.516437	1.530210	0.036409
 254	1.2650e-01	10.1468	1.893246	0.000090	0.903287	0.306042	0.007282
 255	1.2700e-01	10.2029	1.856837	-0.000090	-0.903287	-0.306042	-0.007282
 256	1.2750e-01	10.2478	2.293740	0.001084	10.839448	3.672504	0.087381
 257	1.2800e-01	10.2671	1.784020	-0.001265	-12.646023	-4.284588	-0.101944
 258	1.2850e-01	10.3281	2.002472	0.000542	5.419724	1.836252	0.043690
 259	1.2900e-01	10.3521	1.820429	-0.000452	-4.516437	-1.530210	-0.036409
 260	1.2950e-01	10.4307	2.220923	0.000994	9.936161	3.366462	0.080099
 261	1.3000e-01	10.4291	2.257332	-0.000090	-0.903287	-0.306042	0.007282
 262	1.3050e-01	10.4869	1.966063	-0.000723	-7.226299	-2.448336	-0.058254
 263	1.3100e-01	10.5334	2.512192	0.001355	13.549310	4.590630	0.109226
 264	1.3150e-01	10.5719	2.366558	-0.000361	-3.613149	-1.224168	-0.029127
 265	1.3200e-01	10.5944	2.366558	0.000000	0.000000	0.000000	0.000000
 266	1.3250e-01	10.6313	2.293740	-0.000181	-1.806575	-0.612084	-0.014563
 267	1.3300e-01	10.7002	2.330149	0.000090	0.903287	0.306042	0.007282
 268	1.3350e-01	10.7596	2.585009	0.000632	6.323011	2.142294	0.050972
 269	1.3400e-01	10.7387	2.767052	-0.000452	-4.516437	-1.530210	0.036409
 270	1.3450e-01	10.8125	2.730643	-0.000090	-0.903287	-0.306042	-0.007282
 271	1.3500e-01	10.8286	2.803460	0.000181	1.806575	0.612084	0.014563
 272	1.3550e-01	10.8719	2.657826	-0.000361	-3.613149	-1.224168	-0.029127
 273	1.3600e-01	10.9248	2.402966	-0.000632	-6.323011	-2.142294	-0.050972
 274	1.3650e-01	10.9665	2.366558	-0.000090	-0.903287	-0.306042	-0.007282
 275	1.3700e-01	10.9858	2.876278	0.001265	12.646023	4.284588	0.101944
 276	1.3750e-01	11.0259	2.694235	-0.000452	-4.516437	-1.530210	-0.036409
 277	1.3800e-01	11.0756	2.293740	-0.000994	-9.936161	-3.366462	-0.080099
 278	1.3850e-01	11.1205	2.694235	0.000994	9.936161	3.366462	0.080099
 279	1.3900e-01	11.1494	2.912686	0.000542	5.419724	1.836252	0.043690
 280	1.3950e-01	11.2120	3.021912	0.000271	2.709862	0.918126	0.021845
 281	1.4000e-01	11.2505	3.349589	0.000813	8.129586	2.754378	0.065535
 282	1.4050e-01	11.2986	2.985503	-0.000903	-9.032873	-3.060420	-0.072817
 283	1.4100e-01	11.3034	3.021912	0.000090	0.903287	0.306042	0.007282
 284	1.4150e-01	11.3740	3.058320	0.000090	0.903287	0.306042	0.007282
 285	1.4200e-01	11.4013	3.240363	0.000452	4.516437	1.530210	0.036409
 286	1.4250e-01	11.4414	2.985503	-0.000632	-6.323011	-2.142294	-0.050972
 287	1.4300e-01	11.4767	3.058320	0.000181	1.806575	0.612084	0.014563
 288	1.4350e-01	11.5296	3.313181	0.000632	6.323011	2.142294	0.050972
 289	1.4400e-01	11.5553	3.422406	0.000271	2.709862	0.918126	0.021845
 290	1.4450e-01	11.5970	3.568041	0.000361	3.613149	1.224168	0.029127
 291	1.4500e-01	11.6307	3.131138	-0.001084	-10.839448	-3.672504	-0.087381
 292	1.4550e-01	11.6965	3.349589	0.000542	5.419724	1.836252	0.043690
 293	1.4600e-01	11.7446	3.640858	0.000723	7.226299	2.448336	0.058254
 294	1.4650e-01	11.7815	3.422406	-0.000542	-5.419724	-1.836252	-0.043690
 295	1.4700e-01	11.7975	3.276772	-0.000361	-3.613149	-1.224168	-0.029127
 296	1.4750e-01	11.8232	3.313181	0.000090	0.903287	0.306042	0.007282
 297	1.4800e-01	11.8922	3.640858	0.000813	8.129586	2.754378	0.065535
 298	1.4850e-01	11.9211	3.822901	0.000452	4.516437	1.530210	0.036409
 299	1.4900e-01	11.9676	4.004943	0.000452	4.516437	1.530210	0.036409
 300	1.4950e-01	11.9916	3.604449	-0.000994	-9.936161	-3.366462	-0.080099
 301	1.5000e-01	12.0366	3.604449	0.000000	0.000000	0.000000	0.000000
 302	1.5050e-01	12.0686	3.895718	0.000723	7.226299	2.448336	0.058254
 303	1.5100e-01	12.1521	3.822901	-0.000181	-1.806575	-0.612084	-0.014563
 304	1.5150e-01	12.1569	3.568041	-0.000632	-6.323011	-2.142294	-0.050972
 305	1.5200e-01	12.1906	3.859309	0.000723	7.226299	2.448336	0.058254
 306	1.5250e-01	12.2435	4.004943	0.000361	3.613149	1.224168	0.029127
 307	1.5300e-01	12.2868	3.786492	-0.000542	-5.419724	-1.836252	-0.043690
 308	1.5350e-01	12.3237	3.968535	0.000452	4.516437	1.530210	0.036409
 309	1.5400e-01	12.3670	4.077761	0.000271	2.709862	0.918126	0.021845
 310	1.5450e-01	12.3975	4.186986	0.000271	2.709862	0.918126	0.021845
 311	1.5500e-01	12.4569	4.369029	0.000452	4.516437	1.530210	0.036409
 312	1.5550e-01	12.4938	3.859309	-0.001265	-12.646023	-4.284588	-0.101944
 313	1.5600e-01	12.5146	4.223395	0.000903	9.032873	3.060420	0.072817
 314	1.5650e-01	12.5515	4.478255	0.000632	6.323011	2.142294	0.050972
 315	1.5700e-01	12.6109	4.223395	-0.000632	-6.323011	-2.142294	-0.050972
 316	1.5750e-01	12.6398	4.369029	0.000361	3.613149	1.224168	0.029127
 317	1.5800e-01	12.6654	4.441846	0.000181	1.806575	0.612084	0.014563
 318	1.5850e-01	12.7168	4.405438	-0.000090	-0.903287	-0.306042	-0.007282
 319	1.5900e-01	12.7553	4.369029	-0.000090	-0.903287	-0.306042	-0.007282
 320	1.5950e-01	12.8050	4.332621	-0.000090	-0.903287	-0.306042	-0.007282
 321	1.6000e-01	12.8258	4.660298	0.000813	8.129586	2.754378	0.065535
 322	1.6050e-01	12.9044	4.587481	-0.000181	-1.806575	-0.612084	-0.014563
 323	1.6100e-01	12.9333	4.733115	0.000361	3.613149	1.224168	0.029127
 324	1.6150e-01	12.9558	4.296212	-0.001084	-10.839448	-3.672504	-0.087381
 325	1.6200e-01	13.0023	4.842341	0.001355	13.549310	4.590630	0.109226
 326	1.6250e-01	13.0360	4.441846	-0.000994	-9.936161	-3.366462	-0.080099
 327	1.6300e-01	13.0729	4.660298	0.000542	5.419724	1.836252	0.043690
 328	1.6350e-01	13.1210	5.206427	0.001355	13.549310	4.590630	0.109226
 329	1.6400e-01	13.1756	4.951566	-0.000632	-6.323011	-2.142294	-0.050972
 330	1.6450e-01	13.1868	5.060792	0.000271	2.709862	0.918126	0.021845
 331	1.6500e-01	13.2478	4.915158	-0.000361	-3.613149	-1.224168	-0.029127
 332	1.6550e-01	13.2782	4.915158	0.000000	0.000000	0.000000	0.000000
 333	1.6600e-01	13.3199	4.587481	-0.000813	-8.129586	-2.754378	-0.065535
 334	1.6650e-01	13.3665	4.915158	0.000813	8.129586	2.754378	0.065535
 335	1.6700e-01	13.3905	5.024384	0.000271	2.709862	0.918126	0.021845
 336	1.6750e-01	13.4354	4.987975	-0.000090	-0.903287	-0.306042	-0.007282
 337	1.6800e-01	13.4756	4.987975	0.000000	0.000000	0.000000	0.000000
 338	1.6850e-01	13.5012	5.060792	0.000181	1.806575	0.612084	0.014563
 339	1.6900e-01	13.5429	5.133609	0.000181	1.806575	0.612084	0.014563
 340	1.6950e-01	13.6103	5.315652	0.000452	4.516437	1.530210	0.036409
 341	1.7000e-01	13.6280	5.206427	-0.000271	-2.709862	-0.918126	-0.021845
 342	1.7050e-01	13.6905	4.915158	-0.000723	-7.226299	-2.448336	-0.058254
 343	1.7100e-01	13.7146	5.315652	0.000994	9.936161	3.366462	0.080099
 344	1.7150e-01	13.7627	5.424878	0.000271	2.709862	0.918126	0.021845
 345	1.7200e-01	13.7964	5.570512	0.000361	3.613149	1.224168	0.029127
 346	1.7250e-01	13.8445	5.716147	0.000361	3.613149	1.224168	0.029127
 347	1.7300e-01	13.8782	5.752555	0.000090	0.903287	0.306042	0.007282
 348	1.7350e-01	13.9151	5.133609	-0.001536	-15.355885	-5.202715	-0.123789
 349	1.7400e-01	13.9632	5.315652	0.000452	4.516437	1.530210	0.036409
 350	1.7450e-01	13.9937	5.825372	0.001265	12.646023	4.284588	0.101944
 351	1.7500e-01	14.0194	5.679738	-0.000361	-3.613149	-1.224168	-0.029127
 352	1.7550e-01	14.0804	5.388469	-0.000723	-7.226299	-2.448336	-0.058254
 353	1.7600e-01	14.1253	5.570512	0.000452	4.516437	1.530210	0.036409
 354	1.7650e-01	14.1622	5.788964	0.000542	5.419724	1.836252	0.043690
 355	1.7700e-01	14.1959	5.971007	0.000452	4.516437	1.530210	0.036409
 356	1.7750e-01	14.2376	6.007415	0.000090	0.903287	0.306042	0.007282
 357	1.7800e-01	14.2793	5.825372	-0.000452	-4.516437	-1.530210	-0.036409
 358	1.7850e-01	14.3210	6.371501	0.001355	13.549310	4.590630	0.109226
 359	1.7900e-01	14.3707	5.606921	-0.001897	-18.969034	-6.426883	-0.152916
 360	1.7950e-01	14.4028	5.934598	0.000813	8.129586	2.754378	0.065535
 361	1.8000e-01	14.4317	6.225867	0.000723	7.226299	2.448336	0.058254
 362	1.8050e-01	14.4942	6.262275	0.000090	0.903287	0.306042	0.007282
 363	1.8100e-01	14.5327	6.007415	-0.000632	-6.323011	-2.142294	-0.050972
 364	1.8150e-01	14.5632	6.298684	0.000723	7.226299	2.448336	0.058254
 365	1.8200e-01	14.5937	6.298684	0.000000	0.000000	0.000000	0.000000
 366	1.8250e-01	14.6306	6.225867	-0.000181	-1.806575	-0.612084	-0.014563
 367	1.8300e-01	14.6803	6.335092	0.000271	2.709862	0.918126	0.021845
 368	1.8350e-01	14.6996	5.861781	-0.001174	-11.742735	-3.978546	-0.094662
 369	1.8400e-01	14.7670	6.225867	0.000903	9.032873	3.060420	0.072817
 370	1.8450e-01	14.8151	6.480727	0.000632	6.323011	2.142294	0.050972
 371	1.8500e-01	14.8231	6.335092	-0.000361	-3.613149	-1.224168	-0.029127
 372	1.8550e-01	14.8744	6.626361	0.000723	7.226299	2.448336	0.058254
 373	1.8600e-01	14.9065	6.407910	-0.000542	-5.419724	-1.836252	-0.043690
 374	1.8650e-01	14.9835	6.444318	0.000090	0.903287	0.306042	0.007282
 375	1.8700e-01	14.9916	6.662770	0.000542	5.419724	1.836252	0.043690
 376	1.8750e-01	15.0365	6.407910	-0.000632	-6.323011	-2.142294	-0.050972
 377	1.8800e-01	15.1006	6.262275	-0.000361	-3.613149	-1.224168	-0.029127
 378	1.8850e-01	15.1375	6.626361	0.000903	9.032873	3.060420	0.072817
 379	1.8900e-01	15.1600	6.553544	-0.000181	-1.806575	-0.612084	-0.014563
 380	1.8950e-01	15.1873	6.517135	-0.000090	-0.903287	-0.306042	-0.007282
 381	1.9000e-01	15.2434	6.553544	0.000090	0.903287	0.306042	0.007282
 382	1.9050e-01	15.2627	6.553544	0.000000	0.000000	0.000000	0.000000
 383	1.9100e-01	15.3220	6.771995	0.000542	5.419724	1.836252	0.043690
 384	1.9150e-01	15.3637	6.844812	0.000181	1.806575	0.612084	0.014563
 385	1.9200e-01	15.4103	6.990447	0.000361	3.613149	1.224168	0.029127
 386	1.9250e-01	15.4247	6.917630	-0.000181	-1.806575	-0.612084	-0.014563
 387	1.9300e-01	15.4969	6.808404	-0.000271	-2.709862	-0.918126	-0.021845
 388	1.9350e-01	15.5210	7.208898	0.000994	9.936161	3.366462	0.080099
 389	1.9400e-01	15.5498	7.063264	-0.000361	-3.613149	-1.224168	-0.029127
 390	1.9450e-01	15.5996	6.954038	-0.000271	-2.709862	-0.918126	-0.021845
 391	1.9500e-01	15.6349	7.063264	0.000271	2.709862	0.918126	0.021845
 392	1.9550e-01	15.6878	7.427350	0.000903	9.032873	3.060420	0.072817
 393	1.9600e-01	15.7279	7.026855	-0.000994	-9.936161	-3.366462	-0.080099
 394	1.9650e-01	15.7600	7.136081	0.000271	2.709862	0.918126	0.021845
 395	1.9700e-01	15.8258	7.208898	0.000181	1.806575	0.612084	0.014563
 396	1.9750e-01	15.8177	7.099673	0.000271	2.709862	0.918126	-0.021845
 397	1.9800e-01	15.8723	6.990447	-0.000271	-2.709862	-0.918126	-0.021845
 398	1.9850e-01	15.9220	6.990447	0.000000	0.000000	0.000000	0.000000
 399	1.9900e-01	15.9589	7.463758	0.001174	11.742735	3.978546	0.094662
 400	1.9950e-01	15.9958	7.318124	-0.000361	-3.613149	-1.224168	-0.029127
 401	2.0000e-01	16.0471	7.390941	0.000181	1.806575	0.612084	0.014563
 402	2.0050e-01	16.0824	7.245307	-0.000361	-3.613149	-1.224168	-0.029127
 403	2.0100e-01	16.1306	7.609393	0.000903	9.032873	3.060420	0.072817
 404	2.0150e-01	16.1530	7.318124	-0.000723	-7.226299	-2.448336	-0.058254
 405	2.0200e-01	16.1562	7.500167	0.000452	4.516437	1.530210	0.036409
 406	2.0250e-01	16.2637	7.500167	0.000000	0.000000	0.000000	0.000000
 407	2.0300e-01	16.2701	7.609393	0.000271	2.709862	0.918126	0.021845
 408	2.0350e-01	16.3343	7.427350	-0.000452	-4.516437	-1.530210	-0.036409
 409	2.0400e-01	16.3391	7.536575	0.000271	2.709862	0.918126	0.021845
 410	2.0450e-01	16.4033	7.718618	0.000452	4.516437	1.530210	0.036409
 411	2.0500e-01	16.4418	8.264747	0.001355	13.549310	4.590630	0.109226
 412	2.0550e-01	16.4755	7.572984	-0.001716	-17.162459	-5.814799	-0.138353
 413	2.0600e-01	16.4963	7.718618	0.000361	3.613149	1.224168	0.029127
 414	2.0650e-01	16.5428	7.791435	0.000181	1.806575	0.612084	0.014563
 415	2.0700e-01	16.6102	8.009887	0.000542	5.419724	1.836252	0.043690
 416	2.0750e-01	16.6600	7.791435	-0.000542	-5.419724	-1.836252	-0.043690
 417	2.0800e-01	16.6744	7.827844	0.000090	0.903287	0.306042	0.007282
 418	2.0850e-01	16.7161	7.900661	0.000181	1.806575	0.612084	0.014563
 419	2.0900e-01	16.7610	8.009887	0.000271	2.709862	0.918126	0.021845
 420	2.0950e-01	16.7995	8.628833	0.001536	15.355885	5.202715	0.123789
 421	2.1000e-01	16.8412	7.937070	-0.001716	-17.162459	-5.814799	-0.138353
 422	2.1050e-01	16.8990	8.264747	0.000813	8.129586	2.754378	0.065535
 423	2.1100e-01	16.9038	8.119113	-0.000361	-3.613149	-1.224168	-0.029127
 424	2.1150e-01	16.9343	8.009887	-0.000271	-2.709862	-0.918126	-0.021845
 425	2.1200e-01	17.0193	8.009887	0.000000	0.000000	0.000000	0.000000
 426	2.1250e-01	17.0402	7.973478	-0.000090	-0.903287	-0.306042	-0.007282
 427	2.1300e-01	17.0803	8.301156	0.000813	8.129586	2.754378	0.065535
 428	2.1350e-01	17.1268	8.264747	-0.000090	-0.903287	-0.306042	-0.007282
 429	2.1400e-01	17.1541	8.228338	-0.000090	-0.903287	-0.306042	-0.007282
 430	2.1450e-01	17.2086	8.519607	0.000723	7.226299	2.448336	0.058254
 431	2.1500e-01	17.2391	8.665241	0.000361	3.613149	1.224168	0.029127
 432	2.1550e-01	17.2792	8.191930	-0.001174	-11.742735	-3.978546	-0.094662
 433	2.1600e-01	17.3369	8.337564	0.000361	3.613149	1.224168	0.029127
 434	2.1650e-01	17.3690	8.446790	0.000271	2.709862	0.918126	0.021845
 435	2.1700e-01	17.3995	8.446790	0.000000	0.000000	0.000000	0.000000
 436	2.1750e-01	17.4541	8.628833	0.000452	4.516437	1.530210	0.036409
 437	2.1800e-01	17.4813	8.592424	-0.000090	-0.903287	-0.306042	-0.007282
 438	2.1850e-01	17.5086	8.847284	0.000632	6.323011	2.142294	0.050972
 439	2.1900e-01	17.5728	9.029327	0.000452	4.516437	1.530210	0.036409
 440	2.1950e-01	17.5968	8.665241	-0.000903	-9.032873	-3.060420	-0.072817
 441	2.2000e-01	17.6562	8.628833	-0.000090	-0.903287	-0.306042	-0.007282
 442	2.2050e-01	17.6899	8.628833	0.000000	0.000000	0.000000	0.000000
 443	2.2100e-01	17.7059	8.956510	0.000813	8.129586	2.754378	0.065535
 444	2.2150e-01	17.7460	8.738058	-0.000542	-5.419724	-1.836252	-0.043690
 445	2.2200e-01	17.8118	8.556016	-0.000452	-4.516437	-1.530210	-0.036409
 446	2.2250e-01	17.8439	8.373973	-0.000452	-4.516437	-1.530210	-0.036409
 447	2.2300e-01	17.8728	8.956510	0.001445	14.452597	4.896672	0.116507
 448	2.2350e-01	17.9257	9.284187	0.000813	8.129586	2.754378	0.065535
 449	2.2400e-01	17.9802	8.883693	-0.000994	-9.936161	-3.366462	-0.080099
 450	2.2450e-01	17.9931	9.102144	0.000542	5.419724	1.836252	0.043690
 451	2.2500e-01	18.0268	9.393413	0.000723	7.226299	2.448336	0.058254
 452	2.2550e-01	18.0653	8.883693	-0.001265	-12.646023	-4.284588	-0.101944
 453	2.2600e-01	18.1359	9.065736	0.000452	4.516437	1.530210	0.036409
 454	2.2650e-01	18.1792	9.539047	0.001174	11.742735	3.978546	0.094662
 455	2.2700e-01	18.1984	9.247779	-0.000723	-7.226299	-2.448336	-0.058254
 456	2.2750e-01	18.2562	9.357004	0.000271	2.709862	0.918126	0.021845
 457	2.2800e-01	18.3059	9.174961	-0.000452	-4.516437	-1.530210	-0.036409
 458	2.2850e-01	18.3268	9.065736	-0.000271	-2.709862	-0.918126	-0.021845
 459	2.2900e-01	18.3637	9.466230	0.000994	9.936161	3.366462	0.080099
 460	2.2950e-01	18.4182	9.466230	0.000000	0.000000	0.000000	0.000000
 461	2.3000e-01	18.4358	9.502639	0.000090	0.903287	0.306042	0.007282
 462	2.3050e-01	18.4695	9.102144	-0.000994	-9.936161	-3.366462	-0.080099
 463	2.3100e-01	18.5273	9.721090	0.001536	15.355885	5.202715	0.123789
 464	2.3150e-01	18.5530	9.903133	0.000452	4.516437	1.530210	0.036409
 465	2.3200e-01	18.6059	9.393413	-0.001265	-12.646023	-4.284588	-0.101944
 466	2.3250e-01	18.6380	9.429821	0.000090	0.903287	0.306042	0.007282
 467	2.3300e-01	18.6781	9.539047	0.000271	2.709862	0.918126	0.021845
 468	2.3350e-01	18.7102	9.684681	0.000361	3.613149	1.224168	0.029127
 469	2.3400e-01	18.7695	9.830316	0.000361	3.613149	1.224168	0.029127
 470	2.3450e-01	18.8177	9.757499	-0.000181	-1.806575	-0.612084	-0.014563
 471	2.3500e-01	18.8144	9.575456	0.000452	4.516437	1.530210	-0.036409
 472	2.3550e-01	18.8995	9.793907	0.000542	5.419724	1.836252	0.043690
 473	2.3600e-01	18.9187	9.793907	0.000000	0.000000	0.000000	0.000000
 474	2.3650e-01	18.9668	9.575456	-0.000542	-5.419724	-1.836252	-0.043690
 475	2.3700e-01	19.0021	9.721090	0.000361	3.613149	1.224168	0.029127
 476	2.3750e-01	19.0503	10.230810	0.001265	12.646023	4.284588	0.101944
 477	2.3800e-01	19.0743	9.939542	-0.000723	-7.226299	-2.448336	-0.058254
 478	2.3850e-01	19.1160	10.012359	0.000181	1.806575	0.612084	0.014563
 479	2.3900e-01	19.1545	10.121584	0.000271	2.709862	0.918126	0.021845
 480	2.3950e-01	19.1898	10.085176	-0.000090	-0.903287	-0.306042	-0.007282
 481	2.4000e-01	19.2380	9.866724	-0.000542	-5.419724	-1.836252	-0.043690
 482	2.4050e-01	19.2733	10.449262	0.001445	14.452597	4.896672	0.116507
 483	2.4100e-01	19.2941	10.267219	-0.000452	-4.516437	-1.530210	-0.036409
 484	2.4150e-01	19.3839	10.194402	-0.000181	-1.806575	-0.612084	-0.014563
 485	2.4200e-01	19.4064	10.012359	-0.000452	-4.516437	-1.530210	-0.036409
 486	2.4250e-01	19.4032	10.376444	-0.000903	-9.032873	-3.060420	0.072817
 487	2.4300e-01	19.4930	9.975950	-0.000994	-9.936161	-3.366462	-0.080099
 488	2.4350e-01	19.5187	10.121584	0.000361	3.613149	1.224168	0.029127
 489	2.4400e-01	19.5444	10.376444	0.000632	6.323011	2.142294	0.050972
 490	2.4450e-01	19.6069	10.303627	-0.000181	-1.806575	-0.612084	-0.014563
 491	2.4500e-01	19.6390	10.485670	0.000452	4.516437	1.530210	0.036409
 492	2.4550e-01	19.6871	10.376444	-0.000271	-2.709862	-0.918126	-0.021845
 493	2.4600e-01	19.7192	10.194402	-0.000452	-4.516437	-1.530210	-0.036409
 494	2.4650e-01	19.7545	10.631304	0.001084	10.839448	3.672504	0.087381
 495	2.4700e-01	19.7962	10.340036	-0.000723	-7.226299	-2.448336	-0.058254
 496	2.4750e-01	19.8492	10.776939	0.001084	10.839448	3.672504	0.087381
 497	2.4800e-01	19.9069	10.340036	-0.001084	-10.839448	-3.672504	-0.087381
 498	2.4850e-01	19.9085	10.558487	0.000542	5.419724	1.836252	0.043690
 499	2.4900e-01	19.9438	10.485670	-0.000181	-1.806575	-0.612084	-0.014563
 500	2.4950e-01	20.0128	11.031799	0.001355	13.549310	4.590630	0.109226
 501	2.5000e-01	20.0481	10.631304	-0.000994	-9.936161	-3.366462	-0.080099
 502	2.5050e-01	19.9631	10.667713	-0.000090	-0.903287	-0.306042	0.007282
 503	2.5100e-01	19.9326	10.594896	0.000181	1.806575	0.612084	-0.014563
 504	2.5150e-01	19.8957	10.958982	-0.000903	-9.032873	-3.060420	0.072817
 505	2.5200e-01	19.8428	10.631304	0.000813	8.129586	2.754378	-0.065535
 506	2.5250e-01	19.8107	10.485670	0.000361	3.613149	1.224168	-0.029127
 507	2.5300e-01	19.7898	10.558487	-0.000181	-1.806575	-0.612084	0.014563
 508	2.5350e-01	19.7337	10.776939	-0.000542	-5.419724	-1.836252	0.043690
 509	2.5400e-01	19.6968	10.485670	0.000723	7.226299	2.448336	-0.058254
 510	2.5450e-01	19.6551	10.048767	0.001084	10.839448	3.672504	-0.087381
 511	2.5500e-01	19.6150	10.449262	-0.000994	-9.936161	-3.366462	0.080099
 512	2.5550e-01	19.5925	10.157993	0.000723	7.226299	2.448336	-0.058254
 513	2.5600e-01	19.5155	10.267219	-0.000271	-2.709862	-0.918126	0.021845
 514	2.5650e-01	19.5155	10.376444	-0.000271	-2.709862	-0.918126	0.021845
 515	2.5700e-01	19.4545	10.157993	0.000542	5.419724	1.836252	-0.043690
 516	2.5750e-01	19.3904	9.866724	0.000723	7.226299	2.448336	-0.058254
 517	2.5800e-01	19.3888	10.376444	-0.001265	-12.646023	-4.284588	0.101944
 518	2.5850e-01	19.3198	9.975950	0.000994	9.936161	3.366462	-0.080099
 519	2.5900e-01	19.3085	10.485670	-0.001265	-12.646023	-4.284588	0.101944
 520	2.5950e-01	19.2620	10.340036	0.000361	3.613149	1.224168	-0.029127
 521	2.6000e-01	19.2075	9.975950	0.000903	9.032873	3.060420	-0.072817
 522	2.6050e-01	19.1674	10.303627	-0.000813	-8.129586	-2.754378	0.065535
 523	2.6100e-01	19.1321	9.757499	0.001355	13.549310	4.590630	-0.109226
 524	2.6150e-01	19.0823	10.340036	-0.001445	-14.452597	-4.896672	0.116507
 525	2.6200e-01	19.0455	9.866724	0.001174	11.742735	3.978546	-0.094662
 526	2.6250e-01	19.0118	10.157993	-0.000723	-7.226299	-2.448336	0.058254
 527	2.6300e-01	18.9765	10.048767	0.000271	2.709862	0.918126	-0.021845
 528	2.6350e-01	18.9412	9.611864	0.001084	10.839448	3.672504	-0.087381
 529	2.6400e-01	18.8850	9.611864	-0.000000	-0.000000	-0.000000	0.000000
 530	2.6450e-01	18.8385	9.466230	0.000361	3.613149	1.224168	-0.029127
 531	2.6500e-01	18.8209	9.903133	-0.001084	-10.839448	-3.672504	0.087381
 532	2.6550e-01	18.7743	10.303627	-0.000994	-9.936161	-3.366462	0.080099
 533	2.6600e-01	18.7310	9.721090	0.001445	14.452597	4.896672	-0.116507
 534	2.6650e-01	18.6909	9.575456	0.000361	3.613149	1.224168	-0.029127
 535	2.6700e-01	18.6444	9.793907	-0.000542	-5.419724	-1.836252	0.043690
 536	2.6750e-01	18.6107	9.684681	0.000271	2.709862	0.918126	-0.021845
 537	2.6800e-01	18.5738	9.721090	-0.000090	-0.903287	-0.306042	0.007282
 538	2.6850e-01	18.5305	9.648273	0.000181	1.806575	0.612084	-0.014563
 539	2.6900e-01	18.4840	9.939542	-0.000723	-7.226299	-2.448336	0.058254
 540	2.6950e-01	18.4647	9.684681	0.000632	6.323011	2.142294	-0.050972
 541	2.7000e-01	18.4230	9.466230	0.000542	5.419724	1.836252	-0.043690
 542	2.7050e-01	18.3685	9.575456	-0.000271	-2.709862	-0.918126	0.021845
 543	2.7100e-01	18.3235	9.502639	0.000181	1.806575	0.612084	-0.014563
 544	2.7150e-01	18.2979	9.320596	0.000452	4.516437	1.530210	-0.036409
 545	2.7200e-01	18.2498	9.502639	-0.000452	-4.516437	-1.530210	0.036409
 546	2.7250e-01	18.2113	9.429821	0.000181	1.806575	0.612084	-0.014563
 547	2.7300e-01	18.1776	8.920101	0.001265	12.646023	4.284588	-0.101944
 548	2.7350e-01	18.1423	9.429821	-0.001265	-12.646023	-4.284588	0.101944
 549	2.7400e-01	18.0781	9.102144	0.000813	8.129586	2.754378	-0.065535
 550	2.7450e-01	18.0412	9.102144	-0.000000	-0.000000	-0.000000	0.000000
 551	2.7500e-01	18.0091	8.920101	0.000452	4.516437	1.530210	-0.036409
 552	2.7550e-01	17.9818	9.320596	-0.000994	-9.936161	-3.366462	0.080099
 553	2.7600e-01	17.9449	9.102144	0.000542	5.419724	1.836252	-0.043690
 554	2.7650e-01	17.8776	9.065736	0.000090	0.903287	0.306042	-0.007282
 555	2.7700e-01	17.8519	9.211370	-0.000361	-3.613149	-1.224168	0.029127
 556	2.7750e-01	17.8327	8.920101	0.000723	7.226299	2.448336	-0.058254
 557	2.7800e-01	17.7813	9.575456	-0.001626	-16.259172	-5.508757	0.131071
 558	2.7850e-01	17.7268	9.247779	0.000813	8.129586	2.754378	-0.065535
 559	2.7900e-01	17.6626	8.665241	0.001445	14.452597	4.896672	-0.116507
 560	2.7950e-01	17.6209	8.920101	-0.000632	-6.323011	-2.142294	0.050972
 561	2.8000e-01	17.5952	8.883693	0.000090	0.903287	0.306042	-0.007282
 562	2.8050e-01	17.5904	9.065736	-0.000452	-4.516437	-1.530210	0.036409
 563	2.8100e-01	17.5246	8.956510	0.000271	2.709862	0.918126	-0.021845
 564	2.8150e-01	17.4813	8.810876	0.000361	3.613149	1.224168	-0.029127
 565	2.8200e-01	17.4733	8.920101	-0.000271	-2.709862	-0.918126	0.021845
 566	2.8250e-01	17.4252	8.883693	0.000090	0.903287	0.306042	-0.007282
 567	2.8300e-01	17.3690	8.483198	0.000994	9.936161	3.366462	-0.080099
 568	2.8350e-01	17.3450	8.883693	-0.000994	-9.936161	-3.366462	0.080099
 569	2.8400e-01	17.3097	8.519607	0.000903	9.032873	3.060420	-0.072817
 570	2.8450e-01	17.2455	8.774467	-0.000632	-6.323011	-2.142294	0.050972
 571	2.8500e-01	17.2343	8.337564	0.001084	10.839448	3.672504	-0.087381
 572	2.8550e-01	17.1621	8.592424	-0.000632	-6.323011	-2.142294	0.050972
 573	2.8600e-01	17.1124	8.592424	-0.000000	-0.000000	-0.000000	0.000000
 574	2.8650e-01	17.0803	8.519607	0.000181	1.806575	0.612084	-0.014563
 575	2.8700e-01	17.0755	8.483198	0.000090	0.903287	0.306042	-0.007282
 576	2.8750e-01	17.0209	8.810876	-0.000813	-8.129586	-2.754378	0.065535
 577	2.8800e-01	16.9728	8.628833	0.000452	4.516437	1.530210	-0.036409
 578	2.8850e-01	16.9166	8.046296	0.001445	14.452597	4.896672	-0.116507
 579	2.8900e-01	16.9022	8.191930	-0.000361	-3.613149	-1.224168	0.029127
 580	2.8950e-01	16.8637	8.665241	-0.001174	-11.742735	-3.978546	0.094662
 581	2.9000e-01	16.8043	8.410381	0.000632	6.323011	2.142294	-0.050972
 582	2.9050e-01	16.7690	8.155521	0.000632	6.323011	2.142294	-0.050972
 583	2.9100e-01	16.7177	8.373973	-0.000542	-5.419724	-1.836252	0.043690
 584	2.9150e-01	16.7001	8.264747	0.000271	2.709862	0.918126	-0.021845
 585	2.9200e-01	16.6551	8.228338	0.000090	0.903287	0.306042	-0.007282
 586	2.9250e-01	16.6391	8.337564	-0.000271	-2.709862	-0.918126	0.021845
 587	2.9300e-01	16.5733	8.264747	0.000181	1.806575	0.612084	-0.014563
 588	2.9350e-01	16.5204	8.009887	0.000632	6.323011	2.142294	-0.050972
 589	2.9400e-01	16.4899	8.082704	-0.000181	-1.806575	-0.612084	0.014563
 590	2.9450e-01	16.4642	8.119113	-0.000090	-0.903287	-0.306042	0.007282
 591	2.9500e-01	16.4209	8.155521	-0.000090	-0.903287	-0.306042	0.007282
 592	2.9550e-01	16.4017	7.755027	0.000994	9.936161	3.366462	-0.080099
 593	2.9600e-01	16.3263	8.191930	-0.001084	-10.839448	-3.672504	0.087381
 594	2.9650e-01	16.2749	7.718618	0.001174	11.742735	3.978546	-0.094662
 595	2.9700e-01	16.2461	7.645801	0.000181	1.806575	0.612084	-0.014563
 596	2.9750e-01	16.2252	7.973478	-0.000813	-8.129586	-2.754378	0.065535
 597	2.9800e-01	16.1883	8.191930	-0.000542	-5.419724	-1.836252	0.043690
 598	2.9850e-01	16.1434	7.718618	0.001174	11.742735	3.978546	-0.094662
 599	2.9900e-01	16.1017	7.827844	-0.000271	-2.709862	-0.918126	0.021845
 600	2.9950e-01	16.0568	7.572984	0.000632	6.323011	2.142294	-0.050972
 601	3.0000e-01	16.0247	7.864253	-0.000723	-7.226299	-2.448336	0.058254
 602	3.0050e-01	15.9750	7.827844	0.000090	0.903287	0.306042	-0.007282
 603	3.0100e-01	15.9477	7.500167	0.000813	8.129586	2.754378	-0.065535
 604	3.0150e-01	15.8996	7.609393	-0.000271	-2.709862	-0.918126	0.021845
 605	3.0200e-01	15.8434	7.755027	-0.000361	-3.613149	-1.224168	0.029127
 606	3.0250e-01	15.8258	7.536575	0.000542	5.419724	1.836252	-0.043690
 607	3.0300e-01	15.7664	7.427350	0.000271	2.709862	0.918126	-0.021845
 608	3.0350e-01	15.7407	7.609393	-0.000452	-4.516437	-1.530210	0.036409
 609	3.0400e-01	15.7038	7.609393	-0.000000	-0.000000	-0.000000	0.000000
 610	3.0450e-01	15.6653	7.318124	0.000723	7.226299	2.448336	-0.058254
 611	3.0500e-01	15.6172	7.390941	-0.000181	-1.806575	-0.612084	0.014563
 612	3.0550e-01	15.5803	7.572984	-0.000452	-4.516437	-1.530210	0.036409
 613	3.0600e-01	15.5386	7.245307	0.000813	8.129586	2.754378	-0.065535
 614	3.0650e-01	15.4905	7.318124	-0.000181	-1.806575	-0.612084	0.014563
 615	3.0700e-01	15.4359	7.245307	0.000181	1.806575	0.612084	-0.014563
 616	3.0750e-01	15.4038	7.354533	-0.000271	-2.709862	-0.918126	0.021845
 617	3.0800e-01	15.3878	7.572984	-0.000542	-5.419724	-1.836252	0.043690
 618	3.0850e-01	15.3349	7.063264	0.001265	12.646023	4.284588	-0.101944
 619	3.0900e-01	15.2996	7.136081	-0.000181	-1.806575	-0.612084	0.014563
 620	3.0950e-01	15.2819	7.281715	-0.000361	-3.613149	-1.224168	0.029127
 621	3.1000e-01	15.2210	7.172490	0.000271	2.709862	0.918126	-0.021845
 622	3.1050e-01	15.1712	7.318124	-0.000361	-3.613149	-1.224168	0.029127
 623	3.1100e-01	15.1231	6.771995	0.001355	13.549310	4.590630	-0.109226
 624	3.1150e-01	15.1183	7.026855	-0.000632	-6.323011	-2.142294	0.050972
 625	3.1200e-01	15.0670	7.026855	-0.000000	-0.000000	-0.000000	0.000000
 626	3.1250e-01	15.0301	7.354533	-0.000813	-8.129586	-2.754378	0.065535
 627	3.1300e-01	14.9787	6.735587	0.001536	15.355885	5.202715	-0.123789
 628	3.1350e-01	14.9242	6.881221	-0.000361	-3.613149	-1.224168	0.029127
 629	3.1400e-01	14.9033	7.136081	-0.000632	-6.323011	-2.142294	0.050972
 630	3.1450e-01	14.8392	6.662770	0.001174	11.742735	3.978546	-0.094662
 631	3.1500e-01	14.7942	6.662770	-0.000000	-0.000000	-0.000000	0.000000
 632	3.1550e-01	14.7702	6.699178	-0.000090	-0.903287	-0.306042	0.007282
 633	3.1600e-01	14.7397	6.407910	0.000723	7.226299	2.448336	-0.058254
 634	3.1650e-01	14.6916	7.063264	-0.001626	-16.259172	-5.508757	0.131071
 635	3.1700e-01	14.6434	6.662770	0.000994	9.936161	3.366462	-0.080099
 636	3.1750e-01	14.6162	6.771995	-0.000271	-2.709862	-0.918126	0.021845
 637	3.1800e-01	14.5761	6.626361	0.000361	3.613149	1.224168	-0.029127
 638	3.1850e-01	14.5440	6.735587	-0.000271	-2.709862	-0.918126	0.021845
 639	3.1900e-01	14.5023	6.553544	0.000452	4.516437	1.530210	-0.036409
 640	3.1950e-01	14.4573	6.626361	-0.000181	-1.806575	-0.612084	0.014563
 641	3.2000e-01	14.4204	6.262275	0.000903	9.032873	3.060420	-0.072817
 642	3.2050e-01	14.3787	6.298684	-0.000090	-0.903287	-0.306042	0.007282
 643	3.2100e-01	14.3402	6.371501	-0.000181	-1.806575	-0.612084	0.014563
 644	3.2150e-01	14.2889	6.043824	0.000813	8.129586	2.754378	-0.065535
 645	3.2200e-01	14.2472	6.735587	-0.001716	-17.162459	-5.814799	0.138353
 646	3.2250e-01	14.2167	6.080232	0.001626	16.259172	5.508757	-0.131071
 647	3.2300e-01	14.1606	6.225867	-0.000361	-3.613149	-1.224168	0.029127
 648	3.2350e-01	14.1285	6.043824	0.000452	4.516437	1.530210	-0.036409
 649	3.2400e-01	14.0964	6.407910	-0.000903	-9.032873	-3.060420	0.072817
 650	3.2450e-01	14.0723	6.116641	0.000723	7.226299	2.448336	-0.058254
 651	3.2500e-01	14.0338	6.080232	0.000090	0.903287	0.306042	-0.007282
 652	3.2550e-01	13.9857	6.225867	-0.000361	-3.613149	-1.224168	0.029127
 653	3.2600e-01	13.9328	6.407910	-0.000452	-4.516437	-1.530210	0.036409
 654	3.2650e-01	13.8943	5.898189	0.001265	12.646023	4.284588	-0.101944
 655	3.2700e-01	13.8638	5.971007	-0.000181	-1.806575	-0.612084	0.014563
 656	3.2750e-01	13.8205	5.898189	0.000181	1.806575	0.612084	-0.014563
 657	3.2800e-01	13.7852	6.116641	-0.000542	-5.419724	-1.836252	0.043690
 658	3.2850e-01	13.7146	5.898189	0.000542	5.419724	1.836252	-0.043690
 659	3.2900e-01	13.6857	5.898189	-0.000000	-0.000000	-0.000000	0.000000
 660	3.2950e-01	13.6665	5.788964	0.000271	2.709862	0.918126	-0.021845
 661	3.3000e-01	13.6151	6.080232	-0.000723	-7.226299	-2.448336	0.058254
 662	3.3050e-01	13.5895	5.534104	0.001355	13.549310	4.590630	-0.109226
 663	3.3100e-01	13.5285	5.679738	-0.000361	-3.613149	-1.224168	0.029127
 664	3.3150e-01	13.5012	5.679738	-0.000000	-0.000000	-0.000000	0.000000
 665	3.3200e-01	13.4483	5.570512	0.000271	2.709862	0.918126	-0.021845
 666	3.3250e-01	13.3937	5.170018	0.000994	9.936161	3.366462	-0.080099
 667	3.3300e-01	13.3617	5.461287	-0.000723	-7.226299	-2.448336	0.058254
 668	3.3350e-01	13.3328	5.570512	-0.000271	-2.709862	-0.918126	0.021845
 669	3.3400e-01	13.2814	5.534104	0.000090	0.903287	0.306042	-0.007282
 670	3.3450e-01	13.2654	5.497695	0.000090	0.903287	0.306042	-0.007282
 671	3.3500e-01	13.2044	5.606921	-0.000271	-2.709862	-0.918126	0.021845
 672	3.3550e-01	13.1691	4.842341	0.001897	18.969034	6.426883	-0.152916
 673	3.3600e-01	13.1435	5.570512	-0.001807	-18.065746	-6.120841	0.145634
 674	3.3650e-01	13.0970	5.424878	0.000361	3.613149	1.224168	-0.029127
 675	3.3700e-01	13.0569	5.170018	0.000632	6.323011	2.142294	-0.050972
 676	3.3750e-01	12.9911	5.133609	0.000090	0.903287	0.306042	-0.007282
 677	3.3800e-01	12.9654	5.060792	0.000181	1.806575	0.612084	-0.014563
 678	3.3850e-01	12.9205	5.315652	-0.000632	-6.323011	-2.142294	0.050972
 679	3.3900e-01	12.9269	5.170018	-0.000361	-3.613149	-1.224168	-0.029127
 680	3.3950e-01	12.8339	4.733115	0.001084	10.839448	3.672504	-0.087381
 681	3.4000e-01	12.7905	5.133609	-0.000994	-9.936161	-3.366462	0.080099
 682	3.4050e-01	12.7970	4.842341	-0.000723	-7.226299	-2.448336	-0.058254
 683	3.4100e-01	12.7569	4.915158	-0.000181	-1.806575	-0.612084	0.014563
 684	3.4150e-01	12.6783	4.769524	0.000361	3.613149	1.224168	-0.029127
 685	3.4200e-01	12.6478	4.478255	0.000723	7.226299	2.448336	-0.058254
 686	3.4250e-01	12.6109	5.024384	-0.001355	-13.549310	-4.590630	0.109226
 687	3.4300e-01	12.5499	4.769524	0.000632	6.323011	2.142294	-0.050972
 688	3.4350e-01	12.5323	4.696706	0.000181	1.806575	0.612084	-0.014563
 689	3.4400e-01	12.4873	4.878749	-0.000452	-4.516437	-1.530210	0.036409
 690	3.4450e-01	12.4617	4.514664	0.000903	9.032873	3.060420	-0.072817
 691	3.4500e-01	12.4280	4.696706	-0.000452	-4.516437	-1.530210	0.036409
 692	3.4550e-01	12.3478	4.805932	-0.000271	-2.709862	-0.918126	0.021845
 693	3.4600e-01	12.3382	4.114169	0.001716	17.162459	5.814799	-0.138353
 694	3.4650e-01	12.3109	4.805932	-0.001716	-17.162459	-5.814799	0.138353
 695	3.4700e-01	12.2644	4.077761	0.001807	18.065746	6.120841	-0.145634
 696	3.4750e-01	12.2098	4.551072	-0.001174	-11.742735	-3.978546	0.094662
 697	3.4800e-01	12.1793	4.514664	0.000090	0.903287	0.306042	-0.007282
 698	3.4850e-01	12.1184	4.551072	-0.000090	-0.903287	-0.306042	0.007282
 699	3.4900e-01	12.1071	4.405438	0.000361	3.613149	1.224168	-0.029127
 700	3.4950e-01	12.0767	4.660298	-0.000632	-6.323011	-2.142294	0.050972
 701	3.5000e-01	12.0045	4.587481	0.000181	1.806575	0.612084	-0.014563
 702	3.5050e-01	11.9916	4.041352	0.001355	13.549310	4.590630	-0.109226
 703	3.5100e-01	11.9371	4.514664	-0.001174	-11.742735	-3.978546	0.094662
 704	3.5150e-01	11.8986	4.405438	0.000271	2.709862	0.918126	-0.021845
 705	3.5200e-01	11.8649	3.859309	0.001355	13.549310	4.590630	-0.109226
 706	3.5250e-01	11.8039	4.405438	-0.001355	-13.549310	-4.590630	0.109226
 707	3.5300e-01	11.7638	4.223395	0.000452	4.516437	1.530210	-0.036409
 708	3.5350e-01	11.7366	4.223395	-0.000000	-0.000000	-0.000000	0.000000
 709	3.5400e-01	11.6916	4.296212	-0.000181	-1.806575	-0.612084	0.014563
 710	3.5450e-01	11.6467	4.186986	0.000271	2.709862	0.918126	-0.021845
 711	3.5500e-01	11.6371	3.750083	0.001084	10.839448	3.672504	-0.087381
 712	3.5550e-01	11.5810	3.750083	-0.000000	-0.000000	-0.000000	0.000000
 713	3.5600e-01	11.5232	3.822901	-0.000181	-1.806575	-0.612084	0.014563
 714	3.5650e-01	11.5056	4.041352	-0.000542	-5.419724	-1.836252	0.043690
 715	3.5700e-01	11.4606	3.822901	0.000542	5.419724	1.836252	-0.043690
 716	3.5750e-01	11.4318	3.750083	0.000181	1.806575	0.612084	-0.014563
 717	3.5800e-01	11.3933	3.640858	0.000271	2.709862	0.918126	-0.021845
 718	3.5850e-01	11.3275	3.895718	-0.000632	-6.323011	-2.142294	0.050972
 719	3.5900e-01	11.3098	3.568041	0.000813	8.129586	2.754378	-0.065535
 720	3.5950e-01	11.2505	3.240363	0.000813	8.129586	2.754378	-0.065535
 721	3.6000e-01	11.2184	3.786492	-0.001355	-13.549310	-4.590630	0.109226
 722	3.6050e-01	11.1751	3.531632	0.000632	6.323011	2.142294	-0.050972
 723	3.6100e-01	11.1494	3.677266	-0.000361	-3.613149	-1.224168	0.029127
 724	3.6150e-01	11.1013	3.713675	-0.000090	-0.903287	-0.306042	0.007282
 725	3.6200e-01	11.0451	3.568041	0.000361	3.613149	1.224168	-0.029127
 726	3.6250e-01	11.0115	2.985503	0.001445	14.452597	4.896672	-0.116507
 727	3.6300e-01	10.9713	3.531632	-0.001355	-13.549310	-4.590630	0.109226
 728	3.6350e-01	10.9409	3.276772	0.000632	6.323011	2.142294	-0.050972
 729	3.6400e-01	10.9040	3.458815	-0.000452	-4.516437	-1.530210	0.036409
 730	3.6450e-01	10.8494	3.349589	0.000271	2.709862	0.918126	-0.021845
 731	3.6500e-01	10.8109	3.240363	0.000271	2.709862	0.918126	-0.021845
 732	3.6550e-01	10.7965	3.713675	-0.001174	-11.742735	-3.978546	0.094662
 733	3.6600e-01	10.7291	3.131138	0.001445	14.452597	4.896672	-0.116507
 734	3.6650e-01	10.7002	3.167546	-0.000090	-0.903287	-0.306042	0.007282
 735	3.6700e-01	10.6505	2.803460	0.000903	9.032873	3.060420	-0.072817
 736	3.6750e-01	10.6296	3.021912	-0.000542	-5.419724	-1.836252	0.043690
 737	3.6800e-01	10.5767	3.240363	-0.000542	-5.419724	-1.836252	0.043690
 738	3.6850e-01	10.5382	2.839869	0.000994	9.936161	3.366462	-0.080099
 739	3.6900e-01	10.5077	2.767052	0.000181	1.806575	0.612084	-0.014563
 740	3.6950e-01	10.4436	3.058320	-0.000723	-7.226299	-2.448336	0.058254
 741	3.7000e-01	10.4307	2.694235	0.000903	9.032873	3.060420	-0.072817
 742	3.7050e-01	10.3473	2.839869	-0.000361	-3.613149	-1.224168	0.029127
 743	3.7100e-01	10.3377	2.912686	-0.000181	-1.806575	-0.612084	0.014563
 744	3.7150e-01	10.3120	2.694235	0.000542	5.419724	1.836252	-0.043690
 745	3.7200e-01	10.2527	2.803460	-0.000271	-2.709862	-0.918126	0.021845
 746	3.7250e-01	10.2045	2.330149	0.001174	11.742735	3.978546	-0.094662
 747	3.7300e-01	10.1676	2.621418	-0.000723	-7.226299	-2.448336	0.058254
 748	3.7350e-01	10.1612	2.730643	-0.000271	-2.709862	-0.918126	0.021845
 749	3.7400e-01	10.1002	2.293740	0.001084	10.839448	3.672504	-0.087381
 750	3.7450e-01	10.0698	2.657826	-0.000903	-9.032873	-3.060420	0.072817
 751	3.7500e-01	10.0104	2.767052	-0.000271	-2.709862	-0.918126	0.021845
 752	3.7550e-01	9.9799	2.621418	0.000361	3.613149	1.224168	-0.029127
 753	3.7600e-01	9.9366	2.257332	0.000903	9.032873	3.060420	-0.072817
 754	3.7650e-01	9.8853	2.439375	-0.000452	-4.516437	-1.530210	0.036409
 755	3.7700e-01	9.8564	2.002472	0.001084	10.839448	3.672504	-0.087381
 756	3.7750e-01	9.8195	2.075289	-0.000181	-1.806575	-0.612084	0.014563
 757	3.7800e-01	9.7666	2.002472	0.000181	1.806575	0.612084	-0.014563
 758	3.7850e-01	9.7393	2.075289	-0.000181	-1.806575	-0.612084	0.014563
 759	3.7900e-01	9.7233	2.075289	-0.000000	-0.000000	-0.000000	0.000000
 760	3.7950e-01	9.6511	2.257332	-0.000452	-4.516437	-1.530210	0.036409
 761	3.8000e-01	9.5965	2.002472	0.000632	6.323011	2.142294	-0.050972
 762	3.8050e-01	9.5805	2.148106	-0.000361	-3.613149	-1.224168	0.029127
 763	3.8100e-01	9.5324	2.184515	-0.000090	-0.903287	-0.306042	0.007282
 764	3.8150e-01	9.4987	2.330149	-0.000361	-3.613149	-1.224168	0.029127
 765	3.8200e-01	9.4634	1.784020	0.001355	13.549310	4.590630	-0.109226
 766	3.8250e-01	9.3992	1.856837	-0.000181	-1.806575	-0.612084	0.014563
 767	3.8300e-01	9.3735	1.565569	0.000723	7.226299	2.448336	-0.058254
 768	3.8350e-01	9.3318	1.820429	-0.000632	-6.323011	-2.142294	0.050972
 769	3.8400e-01	9.3222	1.601977	0.000542	5.419724	1.836252	-0.043690
 770	3.8450e-01	9.2660	1.711203	-0.000271	-2.709862	-0.918126	0.021845
 771	3.8500e-01	9.2292	1.820429	-0.000271	-2.709862	-0.918126	0.021845
 772	3.8550e-01	9.1971	1.784020	0.000090	0.903287	0.306042	-0.007282
 773	3.8600e-01	9.1281	1.929655	-0.000361	-3.613149	-1.224168	0.029127
 774	3.8650e-01	9.1024	1.492752	0.001084	10.839448	3.672504	-0.087381
 775	3.8700e-01	9.0302	1.784020	-0.000723	-7.226299	-2.448336	0.058254
 776	3.8750e-01	9.0174	1.237892	0.001355	13.549310	4.590630	-0.109226
 777	3.8800e-01	8.9677	1.492752	-0.000632	-6.323011	-2.142294	0.050972
 778	3.8850e-01	8.9276	1.747612	-0.000632	-6.323011	-2.142294	0.050972
 779	3.8900e-01	8.9147	1.383526	0.000903	9.032873	3.060420	-0.072817
 780	3.8950e-01	8.8522	1.347117	0.000090	0.903287	0.306042	-0.007282
 781	3.9000e-01	8.8072	1.383526	-0.000090	-0.903287	-0.306042	0.007282
 782	3.9050e-01	8.7960	1.492752	-0.000271	-2.709862	-0.918126	0.021845
 783	3.9100e-01	8.7286	0.983032	0.001265	12.646023	4.284588	-0.101944
 784	3.9150e-01	8.6965	1.201483	-0.000542	-5.419724	-1.836252	0.043690
 785	3.9200e-01	8.6500	0.764580	0.001084	10.839448	3.672504	-0.087381
 786	3.9250e-01	8.6099	1.201483	-0.001084	-10.839448	-3.672504	0.087381
 787	3.9300e-01	8.5762	0.873806	0.000813	8.129586	2.754378	-0.065535
 788	3.9350e-01	8.5457	1.310709	-0.001084	-10.839448	-3.672504	0.087381
 789	3.9400e-01	8.5008	1.274300	0.000090	0.903287	0.306042	-0.007282
 790	3.9450e-01	8.4543	0.910214	0.000903	9.032873	3.060420	-0.072817
 791	3.9500e-01	8.4014	0.873806	0.000090	0.903287	0.306042	-0.007282
 792	3.9550e-01	8.4094	0.546129	-0.000813	-8.129586	-2.754378	-0.065535
 793	3.9600e-01	8.3179	0.946623	-0.000994	-9.936161	-3.366462	0.080099
 794	3.9650e-01	8.3035	1.019440	-0.000181	-1.806575	-0.612084	0.014563
 795	3.9700e-01	8.2634	0.436903	0.001445	14.452597	4.896672	-0.116507
 796	3.9750e-01	8.2169	0.618946	-0.000452	-4.516437	-1.530210	0.036409
 797	3.9800e-01	8.1832	0.873806	-0.000632	-6.323011	-2.142294	0.050972
 798	3.9850e-01	8.1559	0.473312	0.000994	9.936161	3.366462	-0.080099
 799	3.9900e-01	8.0998	0.436903	0.000090	0.903287	0.306042	-0.007282
 800	3.9950e-01	8.0565	0.800989	-0.000903	-9.032873	-3.060420	0.072817
 801	4.0000e-01	7.9827	-0.145634	0.002349	23.485470	7.957093	-0.189325
 802	4.0050e-01	7.9811	0.691763	-0.002078	-20.775608	-7.038967	0.167479
 803	4.0100e-01	7.9474	-0.036409	0.001807	18.065746	6.120841	-0.145634
 804	4.0150e-01	7.9217	0.291269	-0.000813	-8.129586	-2.754378	0.065535
 805	4.0200e-01	7.8431	0.436903	-0.000361	-3.613149	-1.224168	0.029127
 806	4.0250e-01	7.8254	0.145634	0.000723	7.226299	2.448336	-0.058254
 807	4.0300e-01	7.7837	0.254860	-0.000271	-2.709862	-0.918126	0.021845
 808	4.0350e-01	7.7260	0.109226	0.000361	3.613149	1.224168	-0.029127
 809	4.0400e-01	7.7003	0.291269	-0.000452	-4.516437	-1.530210	0.036409
 810	4.0450e-01	7.6490	0.036409	0.000632	6.323011	2.142294	-0.050972
 811	4.0500e-01	7.6041	0.218451	-0.000452	-4.516437	-1.530210	0.036409
 812	4.0550e-01	7.5800	-0.109226	0.000813	8.129586	2.754378	-0.065535
 813	4.0600e-01	7.5174	-0.400494	0.000723	7.226299	2.448336	-0.058254
 814	4.0650e-01	7.4693	-0.182043	-0.000542	-5.419724	-1.836252	0.043690
 815	4.0700e-01	7.4597	0.182043	-0.000903	-9.032873	-3.060420	0.072817
 816	4.0750e-01	7.4051	-0.327677	0.001265	12.646023	4.284588	-0.101944
 817	4.0800e-01	7.3747	0.145634	-0.001174	-11.742735	-3.978546	0.094662
 818	4.0850e-01	7.3586	-0.182043	0.000813	8.129586	2.754378	-0.065535
 819	4.0900e-01	7.2977	-0.400494	0.000542	5.419724	1.836252	-0.043690
 820	4.0950e-01	7.2736	-0.473312	0.000181	1.806575	0.612084	-0.014563
 821	4.1000e-01	7.2094	-0.546129	0.000181	1.806575	0.612084	-0.014563
 822	4.1050e-01	7.1822	0.109226	-0.001626	-16.259172	-5.508757	0.131071
 823	4.1100e-01	7.1308	-0.364086	0.001174	11.742735	3.978546	-0.094662
 824	4.1150e-01	7.0955	-0.800989	0.001084	10.839448	3.672504	-0.087381
 825	4.1200e-01	7.0763	-0.327677	-0.001174	-11.742735	-3.978546	0.094662
 826	4.1250e-01	7.0169	-0.691763	0.000903	9.032873	3.060420	-0.072817
 827	4.1300e-01	6.9752	-0.218451	-0.001174	-11.742735	-3.978546	0.094662
 828	4.1350e-01	6.9447	-0.800989	0.001445	14.452597	4.896672	-0.116507
 829	4.1400e-01	6.9030	-0.837397	0.000090	0.903287	0.306042	-0.007282
 830	4.1450e-01	6.8340	-0.983032	0.000361	3.613149	1.224168	-0.029127
 831	4.1500e-01	6.8212	-1.019440	0.000090	0.903287	0.306042	-0.007282
 832	4.1550e-01	6.7971	-1.055849	0.000090	0.903287	0.306042	-0.007282
 833	4.1600e-01	6.7121	-0.873806	-0.000452	-4.516437	-1.530210	0.036409
 834	4.1650e-01	6.6977	-1.310709	0.001084	10.839448	3.672504	-0.087381
 835	4.1700e-01	6.6576	-1.055849	-0.000632	-6.323011	-2.142294	0.050972
 836	4.1750e-01	6.6046	-0.618946	-0.001084	-10.839448	-3.672504	0.087381
 837	4.1800e-01	6.5806	-0.837397	0.000542	5.419724	1.836252	-0.043690
 838	4.1850e-01	6.5501	-0.764580	-0.000181	-1.806575	-0.612084	0.014563
 839	4.1900e-01	6.4939	-1.419935	0.001626	16.259172	5.508757	-0.131071
 840	4.1950e-01	6.4827	-1.019440	-0.000994	-9.936161	-3.366462	0.080099
 841	4.2000e-01	6.3929	-1.383526	0.000903	9.032873	3.060420	-0.072817
 842	4.2050e-01	6.3881	-1.201483	-0.000452	-4.516437	-1.530210	0.036409
 843	4.2100e-01	6.3447	-1.347117	0.000361	3.613149	1.224168	-0.029127
 844	4.2150e-01	6.3062	-1.347117	-0.000000	-0.000000	-0.000000	0.000000
 845	4.2200e-01	6.2421	-1.419935	0.000181	1.806575	0.612084	-0.014563
 846	4.2250e-01	6.2148	-1.237892	-0.000452	-4.516437	-1.530210	0.036409
 847	4.2300e-01	6.1859	-1.492752	0.000632	6.323011	2.142294	-0.050972
 848	4.2350e-01	6.1137	-1.565569	0.000181	1.806575	0.612084	-0.014563
 849	4.2400e-01	6.1009	-1.601977	0.000090	0.903287	0.306042	-0.007282
 850	4.2450e-01	6.0736	-1.820429	0.000542	5.419724	1.836252	-0.043690
 851	4.2500e-01	6.0079	-1.674795	-0.000361	-3.613149	-1.224168	0.029127
 852	4.2550e-01	5.9629	-1.092257	-0.001445	-14.452597	-4.896672	0.116507
 853	4.2600e-01	5.9517	-1.820429	0.001807	18.065746	6.120841	-0.145634
 854	4.2650e-01	5.8747	-1.674795	-0.000361	-3.613149	-1.224168	0.029127
 855	4.2700e-01	5.8827	-1.747612	-0.000181	-1.806575	-0.612084	-0.014563
 856	4.2750e-01	5.8137	-1.856837	0.000271	2.709862	0.918126	-0.021845
 857	4.2800e-01	5.7817	-2.002472	0.000361	3.613149	1.224168	-0.029127
 858	4.2850e-01	5.7480	-1.966063	-0.000090	-0.903287	-0.306042	0.007282
 859	4.2900e-01	5.7095	-2.184515	0.000542	5.419724	1.836252	-0.043690
 860	4.2950e-01	5.6710	-2.002472	-0.000452	-4.516437	-1.530210	0.036409
 861	4.3000e-01	5.5891	-2.075289	0.000181	1.806575	0.612084	-0.014563
 862	4.3050e-01	5.6020	-2.184515	-0.000271	-2.709862	-0.918126	-0.021845
 863	4.3100e-01	5.5490	-1.893246	-0.000723	-7.226299	-2.448336	0.058254
 864	4.3150e-01	5.4977	-2.366558	0.001174	11.742735	3.978546	-0.094662
 865	4.3200e-01	5.4544	-2.038880	-0.000813	-8.129586	-2.754378	0.065535
 866	4.3250e-01	5.4175	-1.820429	-0.000542	-5.419724	-1.836252	0.043690
 867	4.3300e-01	5.3934	-2.439375	0.001536	15.355885	5.202715	-0.123789
 868	4.3350e-01	5.3261	-2.366558	-0.000181	-1.806575	-0.612084	0.014563
 869	4.3400e-01	5.2843	-2.439375	0.000181	1.806575	0.612084	-0.014563
 870	4.3450e-01	5.2779	-2.767052	0.000813	8.129586	2.754378	-0.065535
 871	4.3500e-01	5.1977	-2.366558	-0.000994	-9.936161	-3.366462	0.080099
 872	4.3550e-01	5.2025	-2.803460	-0.001084	-10.839448	-3.672504	-0.087381
 873	4.3600e-01	5.1319	-2.730643	-0.000181	-1.806575	-0.612084	0.014563
 874	4.3650e-01	5.1095	-2.912686	0.000452	4.516437	1.530210	-0.036409
 875	4.3700e-01	5.0646	-2.839869	-0.000181	-1.806575	-0.612084	0.014563
 876	4.3750e-01	5.0084	-2.803460	-0.000090	-0.903287	-0.306042	0.007282
 877	4.3800e-01	4.9876	-2.767052	-0.000090	-0.903287	-0.306042	0.007282
 878	4.3850e-01	4.9507	-2.803460	0.000090	0.903287	0.306042	-0.007282
 879	4.3900e-01	4.8929	-3.058320	0.000632	6.323011	2.142294	-0.050972
 880	4.3950e-01	4.8688	-2.949095	-0.000271	-2.709862	-0.918126	0.021845
 881	4.4000e-01	4.8303	-2.839869	-0.000271	-2.709862	-0.918126	0.021845
 882	4.4050e-01	4.7742	-2.912686	0.000181	1.806575	0.612084	-0.014563
 883	4.4100e-01	4.7485	-2.839869	-0.000181	-1.806575	-0.612084	0.014563
 884	4.4150e-01	4.6940	-3.058320	0.000542	5.419724	1.836252	-0.043690
 885	4.4200e-01	4.6410	-3.713675	0.001626	16.259172	5.508757	-0.131071
 886	4.4250e-01	4.6218	-3.203955	-0.001265	-12.646023	-4.284588	0.101944
 887	4.4300e-01	4.5705	-3.640858	0.001084	10.839448	3.672504	-0.087381
 888	4.4350e-01	4.5352	-3.313181	-0.000813	-8.129586	-2.754378	0.065535
 889	4.4400e-01	4.5239	-3.385998	0.000181	1.806575	0.612084	-0.014563
 890	4.4450e-01	4.4566	-3.458815	0.000181	1.806575	0.612084	-0.014563
 891	4.4500e-01	4.4132	-3.640858	0.000452	4.516437	1.530210	-0.036409
 892	4.4550e-01	4.3908	-3.895718	0.000632	6.323011	2.142294	-0.050972
 893	4.4600e-01	4.3394	-3.822901	-0.000181	-1.806575	-0.612084	0.014563
 894	4.4650e-01	4.3170	-3.568041	-0.000632	-6.323011	-2.142294	0.050972
 895	4.4700e-01	4.2608	-3.677266	0.000271	2.709862	0.918126	-0.021845
 896	4.4750e-01	4.2191	-4.150578	0.001174	11.742735	3.978546	-0.094662
 897	4.4800e-01	4.1967	-3.895718	-0.000632	-6.323011	-2.142294	0.050972
 898	4.4850e-01	4.1405	-3.640858	-0.000632	-6.323011	-2.142294	0.050972
 899	4.4900e-01	4.0924	-4.077761	0.001084	10.839448	3.672504	-0.087381
 900	4.4950e-01	4.0796	-3.859309	-0.000542	-5.419724	-1.836252	0.043690
 901	4.5000e-01	4.0218	-3.822901	-0.000090	-0.903287	-0.306042	0.007282
 902	4.5050e-01	3.9737	-4.223395	0.000994	9.936161	3.366462	-0.080099
 903	4.5100e-01	3.9528	-4.478255	0.000632	6.323011	2.142294	-0.050972
 904	4.5150e-01	3.8806	-4.186986	-0.000723	-7.226299	-2.448336	0.058254
 905	4.5200e-01	3.8742	-4.332621	0.000361	3.613149	1.224168	-0.029127
 906	4.5250e-01	3.8084	-4.514664	0.000452	4.516437	1.530210	-0.036409
 907	4.5300e-01	3.7908	-4.296212	-0.000542	-5.419724	-1.836252	0.043690
 908	4.5350e-01	3.7507	-4.441846	0.000361	3.613149	1.224168	-0.029127
 909	4.5400e-01	3.7090	-4.587481	0.000361	3.613149	1.224168	-0.029127
 910	4.5450e-01	3.6913	-4.878749	0.000723	7.226299	2.448336	-0.058254
 911	4.5500e-01	3.6111	-4.769524	-0.000271	-2.709862	-0.918126	0.021845
 912	4.5550e-01	3.5823	-4.696706	-0.000181	-1.806575	-0.612084	0.014563
 913	4.5600e-01	3.5438	-4.587481	-0.000271	-2.709862	-0.918126	0.021845
 914	4.5650e-01	3.4956	-4.805932	0.000542	5.419724	1.836252	-0.043690
 915	4.5700e-01	3.4764	-4.987975	0.000452	4.516437	1.530210	-0.036409
 916	4.5750e-01	3.4234	-4.951566	-0.000090	-0.903287	-0.306042	0.007282
 917	4.5800e-01	3.3849	-4.551072	-0.000994	-9.936161	-3.366462	0.080099
 918	4.5850e-01	3.3545	-4.623889	0.000181	1.806575	0.612084	-0.014563
 919	4.5900e-01	3.3127	-5.242835	0.001536	15.355885	5.202715	-0.123789
 920	4.5950e-01	3.2550	-5.060792	-0.000452	-4.516437	-1.530210	0.036409
 921	4.6000e-01	3.2261	-5.060792	-0.000000	-0.000000	-0.000000	0.000000
 922	4.6050e-01	3.2020	-5.242835	0.000452	4.516437	1.530210	-0.036409
 923	4.6100e-01	3.1299	-4.987975	-0.000632	-6.323011	-2.142294	0.050972
 924	4.6150e-01	3.0994	-5.097201	0.000271	2.709862	0.918126	-0.021845
 925	4.6200e-01	3.0625	-5.279244	0.000452	4.516437	1.530210	-0.036409
 926	4.6250e-01	3.0288	-5.461287	0.000452	4.516437	1.530210	-0.036409
 927	4.6300e-01	2.9855	-5.643329	0.000452	4.516437	1.530210	-0.036409
 928	4.6350e-01	2.9309	-5.643329	-0.000000	-0.000000	-0.000000	0.000000
 929	4.6400e-01	2.9069	-5.097201	-0.001355	-13.549310	-4.590630	0.109226
 930	4.6450e-01	2.8652	-5.534104	0.001084	10.839448	3.672504	-0.087381
 931	4.6500e-01	2.8170	-5.679738	0.000361	3.613149	1.224168	-0.029127
 932	4.6550e-01	2.7833	-5.716147	0.000090	0.903287	0.306042	-0.007282
 933	4.6600e-01	2.7208	-5.934598	0.000542	5.419724	1.836252	-0.043690
 934	4.6650e-01	2.6999	-5.497695	-0.001084	-10.839448	-3.672504	0.087381
 935	4.6700e-01	2.6630	-5.861781	0.000903	9.032873	3.060420	-0.072817
 936	4.6750e-01	2.6085	-5.825372	-0.000090	-0.903287	-0.306042	0.007282
 937	4.6800e-01	2.5876	-5.971007	0.000361	3.613149	1.224168	-0.029127
 938	4.6850e-01	2.5427	-6.262275	0.000723	7.226299	2.448336	-0.058254
 939	4.6900e-01	2.5106	-5.934598	-0.000813	-8.129586	-2.754378	0.065535
 940	4.6950e-01	2.4737	-6.225867	0.000723	7.226299	2.448336	-0.058254
 941	4.7000e-01	2.4080	-5.716147	-0.001265	-12.646023	-4.284588	0.101944
 942	4.7050e-01	2.3935	-6.407910	0.001716	17.162459	5.814799	-0.138353
 943	4.7100e-01	2.3261	-6.335092	-0.000181	-1.806575	-0.612084	0.014563
 944	4.7150e-01	2.3342	-6.444318	-0.000271	-2.709862	-0.918126	-0.021845
 945	4.7200e-01	2.2652	-6.808404	0.000903	9.032873	3.060420	-0.072817
 946	4.7250e-01	2.2138	-6.298684	-0.001265	-12.646023	-4.284588	0.101944
 947	4.7300e-01	2.1962	-6.298684	-0.000000	-0.000000	-0.000000	0.000000
 948	4.7350e-01	2.1449	-6.517135	0.000542	5.419724	1.836252	-0.043690
 949	4.7400e-01	2.1080	-6.298684	-0.000542	-5.419724	-1.836252	0.043690
 950	4.7450e-01	2.0646	-6.553544	0.000632	6.323011	2.142294	-0.050972
 951	4.7500e-01	2.0406	-6.771995	0.000542	5.419724	1.836252	-0.043690
 952	4.7550e-01	1.9668	-6.917630	0.000361	3.613149	1.224168	-0.029127
 953	4.7600e-01	1.9427	-6.735587	-0.000452	-4.516437	-1.530210	0.036409
 954	4.7650e-01	1.9010	-7.063264	0.000813	8.129586	2.754378	-0.065535
 955	4.7700e-01	1.8721	-6.699178	-0.000903	-9.032873	-3.060420	0.072817
 956	4.7750e-01	1.8224	-7.318124	0.001536	15.355885	5.202715	-0.123789
 957	4.7800e-01	1.7855	-7.136081	-0.000452	-4.516437	-1.530210	0.036409
 958	4.7850e-01	1.7422	-7.354533	0.000542	5.419724	1.836252	-0.043690
 959	4.7900e-01	1.7005	-7.354533	-0.000000	-0.000000	-0.000000	0.000000
 960	4.7950e-01	1.6636	-6.954038	-0.000994	-9.936161	-3.366462	0.080099
 961	4.8000e-01	1.6411	-7.063264	0.000271	2.709862	0.918126	-0.021845
 962	4.8050e-01	1.5850	-7.536575	0.001174	11.742735	3.978546	-0.094662
 963	4.8100e-01	1.5336	-7.208898	-0.000813	-8.129586	-2.754378	0.065535
 964	4.8150e-01	1.5240	-7.755027	0.001355	13.549310	4.590630	-0.109226
 965	4.8200e-01	1.4550	-7.390941	-0.000903	-9.032873	-3.060420	0.072817
 966	4.8250e-01	1.4037	-7.536575	0.000361	3.613149	1.224168	-0.029127
 967	4.8300e-01	1.3957	-7.427350	-0.000271	-2.709862	-0.918126	0.021845
 968	4.8350e-01	1.3347	-7.500167	0.000181	1.806575	0.612084	-0.014563
 969	4.8400e-01	1.2978	-7.755027	0.000632	6.323011	2.142294	-0.050972
 970	4.8450e-01	1.2657	-7.755027	-0.000000	-0.000000	-0.000000	0.000000
 971	4.8500e-01	1.2112	-7.937070	0.000452	4.516437	1.530210	-0.036409
 972	4.8550e-01	1.1871	-7.755027	-0.000452	-4.516437	-1.530210	0.036409
 973	4.8600e-01	1.1679	-7.937070	0.000452	4.516437	1.530210	-0.036409
 974	4.8650e-01	1.0957	-7.864253	-0.000181	-1.806575	-0.612084	0.014563
 975	4.8700e-01	1.0732	-7.755027	-0.000271	-2.709862	-0.918126	0.021845
 976	4.8750e-01	1.0299	-8.009887	0.000632	6.323011	2.142294	-0.050972
 977	4.8800e-01	0.9770	-8.191930	0.000452	4.516437	1.530210	-0.036409
 978	4.8850e-01	0.9513	-8.228338	0.000090	0.903287	0.306042	-0.007282
 979	4.8900e-01	0.9144	-8.410381	0.000452	4.516437	1.530210	-0.036409
 980	4.8950e-01	0.8583	-8.701650	0.000723	7.226299	2.448336	-0.058254
 981	4.9000e-01	0.8182	-8.701650	-0.000000	-0.000000	-0.000000	0.000000
 982	4.9050e-01	0.8117	-8.519607	-0.000452	-4.516437	-1.530210	0.036409
 983	4.9100e-01	0.7508	-8.373973	-0.000361	-3.613149	-1.224168	0.029127
 984	4.9150e-01	0.6930	-8.519607	0.000361	3.613149	1.224168	-0.029127
 985	4.9200e-01	0.6850	-8.883693	0.000903	9.032873	3.060420	-0.072817
 986	4.9250e-01	0.6128	-8.883693	-0.000000	-0.000000	-0.000000	0.000000
 987	4.9300e-01	0.6048	-8.992919	0.000271	2.709862	0.918126	-0.021845
 988	4.9350e-01	0.5631	-8.920101	-0.000181	-1.806575	-0.612084	0.014563
 989	4.9400e-01	0.5053	-9.174961	0.000632	6.323011	2.142294	-0.050972
 990	4.9450e-01	0.4700	-8.847284	-0.000813	-8.129586	-2.754378	0.065535
 991	4.9500e-01	0.4251	-9.284187	0.001084	10.839448	3.672504	-0.087381
 992	4.9550e-01	0.3882	-9.065736	-0.000542	-5.419724	-1.836252	0.043690
 993	4.9600e-01	0.3417	-9.502639	0.001084	10.839448	3.672504	-0.087381
 994	4.9650e-01	0.3000	-9.174961	-0.000813	-8.129586	-2.754378	0.065535
 995	4.9700e-01	0.2631	-9.429821	0.000632	6.323011	2.142294	-0.050972
 996	4.9750e-01	0.2053	-9.247779	-0.000452	-4.516437	-1.530210	0.036409
 997	4.9800e-01	0.1877	-9.575456	0.000813	8.129586	2.754378	-0.065535
 998	4.9850e-01	0.1412	-9.757499	0.000452	4.516437	1.530210	-0.036409
 999	4.9900e-01	0.1235	-9.648273	-0.000271	-2.709862	-0.918126	0.021845
1000	4.9950e-01	0.0578	-10.012359	0.000903	9.032873	3.060420	-0.072817
1001	5.0000e-01	0.0578	-9.648273	0.000903	9.032873	3.060420	0.072817

PMax (uC/cm2):	2.15e+01
Pr (uC/cm2):	1.20e+00
-Pr (uC/cm2):	0.00e+00
PLoss (uC/cm2):	0.00e+00
C (Max-Eff) (nF):	1.07e-01
K (Eff):	3.63e+02
Vert. (+/-Pr) Shift (uC/cm2):	6.01e-01
Offset (uC/cm2):	1.08e+01

A (Loop Area - uC/cm2·Volts):	2.86e-01



Hysteresis Version: 5.48.1 - Radiant Technologies, Inc., 1999 - 9/12/24

