»»»»»»»»»»»»»»»»»»»»»»»»»»»»»»»»»»»» Hysteresis ««««««««««««««««««««««««««««««««««««
»»»  Executed Version:	5.48.1
»»»  Vision Version:	5.48.4 (R)
»»»  Vision Compiled:	9/18/24
»»»  Driver Version:	5.47.0
»»»  Windows Version:	Windows 8 or 8.1
»»»  Processor Information:	x86 (AMD or Intel) - 32 Processors
»»»  Tester Name:	PMF21124-494 (100V)
»»»  Tester S/N:	PMF21124-494
»»»  Internal Amp Type:	100V RevK 270k
»»»  Internal Amp S/N:	iAB2-596/K     
»»»  Execution Count:	1
»»»»»»»»»»»»»»»»»»»»»»»»»»»»»»»»»»»»»»»»»»««««««««««««««««««««««««««««««««««««««««««

Stored:	10/8/2025 - 18:56:38
Configured:	10/08/25 04:22:59 PM
Executed:	10/08/25 06:56:12 PM

»»»»»»»»»»»»»»»»»»»»»»»»»»»»»»»»»»» Sample Info ««««««««««««««««««««««««««««««««««««
Sample Name:	Int. Ref. Ferroelectric
Lot Name:	N/A
Wafer Name:	N/A
Die Row/Column:	0/0
Capacitor Number:	0
Sample Area (cm2):	1.00e-04
Sample Thickness (microns):	3.00e-01

Amplifier:	Internal

»»»»»»»»»»»»»»»»»»»»»»»»»»»»»»»»»»» Tester Info «««««««««««««««««««««««««««««««««««
Tester Name:	PMF21124-494 (100V)
Tester Serial Number:	PMF21124-494
Return Signal Amp. Level:	1.9 [Index: 2]

»»»»»»»»»»»»»»»»»»»»»»»»»»»»»»»» Hysteresis Info ««««««««««««««««««««««««««««««««««
Task Name:	Hyste-8
Volts:	20.00
Field:	666.67 (kV/cm)
DCBias:	0.00
DCField:	0.00 (kV/cm)
Hysteresis Period (ms):	1.00e+02
Preset:	Enabled
Preset Delay (ms):	1.00e+03
Profile:	Standard Monopolar

»»»»»»»»»»»»»»»»»»»»»»»»»»»»»»»»»»»»»» Data «««««««««««««««««««««««««««««««««««««««
Points:	2001

Valid Data

Point	Time (ms)	Drive Voltage	Measured Polarization (uC/cm2)	Capacitance (uF)	Normalized Capacitance (uF/cm2)	Dielectric Constant	Instantaneous Current (mA)
   1	0.0000e+00	0.0176	-9.009806	0.000061	0.608098	0.206029	0.000028
   2	5.0000e-02	0.0225	-8.995957	0.000061	0.608098	0.206029	0.000028
   3	1.0000e-01	0.0449	-8.971516	0.000107	1.073113	0.363581	0.000049
   4	1.5000e-01	0.0802	-8.945853	0.000113	1.126769	0.381760	0.000051
   5	2.0000e-01	0.0914	-8.923042	0.000100	1.001573	0.339342	0.000046
   6	2.5000e-01	0.1203	-8.894121	0.000127	1.269851	0.430237	0.000058
   7	3.0000e-01	0.1267	-8.865607	0.000125	1.251966	0.424177	0.000057
   8	3.5000e-01	0.1700	-8.838315	0.000120	1.198310	0.405998	0.000055
   9	4.0000e-01	0.1765	-8.812245	0.000114	1.144654	0.387819	0.000052
  10	4.5000e-01	0.2166	-8.786583	0.000113	1.126769	0.381760	0.000051
  11	5.0000e-01	0.2021	-8.760920	-0.000113	-1.126769	-0.381760	0.000051
  12	5.5000e-01	0.2471	-8.731184	0.000131	1.305621	0.442356	0.000059
  13	6.0000e-01	0.2615	-8.700633	0.000134	1.341392	0.454476	0.000061
  14	6.5000e-01	0.2743	-8.673341	0.000120	1.198310	0.405998	0.000055
  15	7.0000e-01	0.2791	-8.644827	0.000125	1.251966	0.424177	0.000057
  16	7.5000e-01	0.3273	-8.619572	0.000111	1.108884	0.375700	0.000051
  17	8.0000e-01	0.3353	-8.587392	0.000141	1.412933	0.478715	0.000064
  18	8.5000e-01	0.3401	-8.564581	0.000100	1.001573	0.339342	0.000046
  19	9.0000e-01	0.3706	-8.537696	0.000118	1.180425	0.399939	0.000054
  20	9.5000e-01	0.3978	-8.508775	0.000127	1.269851	0.430237	0.000058
  21	1.0000e+00	0.4267	-8.482705	0.000114	1.144654	0.387819	0.000052
  22	1.0500e+00	0.4460	-8.457042	0.000113	1.126769	0.381760	0.000051
  23	1.1000e+00	0.4620	-8.428936	0.000123	1.234080	0.418118	0.000056
  24	1.1500e+00	0.4813	-8.404495	0.000107	1.073113	0.363581	0.000049
  25	1.2000e+00	0.5118	-8.376796	0.000122	1.216195	0.412058	0.000055
  26	1.2500e+00	0.5021	-8.348689	-0.000123	-1.234080	-0.418118	0.000056
  27	1.3000e+00	0.5374	-8.323434	0.000111	1.108884	0.375700	0.000051
  28	1.3500e+00	0.5695	-8.298179	0.000111	1.108884	0.375700	0.000051
  29	1.4000e+00	0.5759	-8.273738	0.000107	1.073113	0.363581	0.000049
  30	1.4500e+00	0.6016	-8.248890	0.000109	1.090999	0.369640	0.000050
  31	1.5000e+00	0.6433	-8.219969	0.000127	1.269851	0.430237	0.000058
  32	1.5500e+00	0.6305	-8.190640	-0.000129	-1.287736	-0.436297	0.000059
  33	1.6000e+00	0.6946	-8.164570	0.000114	1.144654	0.387819	0.000052
  34	1.6500e+00	0.6738	-8.138908	-0.000113	-1.126769	-0.381760	0.000051
  35	1.7000e+00	0.7107	-8.114875	0.000106	1.055228	0.357521	0.000048
  36	1.7500e+00	0.7235	-8.084324	0.000134	1.341392	0.454476	0.000061
  37	1.8000e+00	0.7299	-8.067216	0.000075	0.751179	0.254506	0.000034
  38	1.8500e+00	0.7508	-8.034628	0.000143	1.430818	0.484774	0.000065
  39	1.9000e+00	0.7973	-8.012224	0.000098	0.983687	0.333282	0.000045
  40	1.9500e+00	0.8037	-7.984118	0.000123	1.234080	0.418118	0.000056
  41	2.0000e+00	0.8438	-7.960084	0.000106	1.055228	0.357521	0.000048
  42	2.0500e+00	0.8278	-7.932793	-0.000120	-1.198310	-0.405998	0.000055
  43	2.1000e+00	0.8695	-7.911203	0.000095	0.947917	0.321163	0.000043
  44	2.1500e+00	0.8727	-7.880245	0.000136	1.359277	0.460536	0.000062
  45	2.2000e+00	0.8887	-7.852546	0.000122	1.216195	0.412058	0.000055
  46	2.2500e+00	0.9289	-7.835030	0.000077	0.769065	0.260566	0.000035
  47	2.3000e+00	0.9417	-7.807331	0.000122	1.216195	0.412058	0.000055
  48	2.3500e+00	0.9690	-7.778817	0.000125	1.251966	0.424177	0.000057
  49	2.4000e+00	0.9754	-7.756006	0.000100	1.001573	0.339342	0.000046
  50	2.4500e+00	0.9962	-7.729529	0.000116	1.162540	0.393879	0.000053
  51	2.5000e+00	1.0299	-7.709161	0.000089	0.894261	0.302984	0.000041
  52	2.5500e+00	1.0460	-7.682684	0.000116	1.162540	0.393879	0.000053
  53	2.6000e+00	1.0620	-7.656207	0.000116	1.162540	0.393879	0.000053
  54	2.6500e+00	1.0989	-7.632174	0.000106	1.055228	0.357521	0.000048
  55	2.7000e+00	1.0925	-7.606511	-0.000113	-1.126769	-0.381760	0.000051
  56	2.7500e+00	1.1182	-7.580849	0.000113	1.126769	0.381760	0.000051
  57	2.8000e+00	1.1534	-7.561296	0.000086	0.858491	0.290865	0.000039
  58	2.8500e+00	1.1631	-7.535634	0.000113	1.126769	0.381760	0.000051
  59	2.9000e+00	1.1855	-7.508342	0.000120	1.198310	0.405998	0.000055
  60	2.9500e+00	1.2096	-7.483901	0.000107	1.073113	0.363581	0.000049
  61	3.0000e+00	1.2144	-7.458646	0.000111	1.108884	0.375700	0.000051
  62	3.0500e+00	1.2433	-7.433798	0.000109	1.090999	0.369640	0.000050
  63	3.1000e+00	1.2641	-7.408950	0.000109	1.090999	0.369640	0.000050
  64	3.1500e+00	1.2657	-7.381251	0.000122	1.216195	0.412058	0.000055
  65	3.2000e+00	1.2946	-7.358847	0.000098	0.983687	0.333282	0.000045
  66	3.2500e+00	1.3235	-7.335221	0.000104	1.037343	0.351461	0.000047
  67	3.3000e+00	1.3235	-7.309966	-0.000111	-1.108884	-0.375700	0.000051
  68	3.3500e+00	1.3652	-7.288784	0.000093	0.930032	0.315103	0.000042
  69	3.4000e+00	1.4101	-7.261492	0.000120	1.198310	0.405998	0.000055
  70	3.4500e+00	1.4021	-7.235829	-0.000113	-1.126769	-0.381760	0.000051
  71	3.5000e+00	1.3909	-7.210982	-0.000109	-1.090999	-0.369640	0.000050
  72	3.5500e+00	1.4278	-7.190207	0.000091	0.912146	0.309044	0.000042
  73	3.6000e+00	1.4615	-7.163322	0.000118	1.180425	0.399939	0.000054
  74	3.6500e+00	1.4791	-7.143363	0.000088	0.876376	0.296924	0.000040
  75	3.7000e+00	1.5192	-7.116885	0.000116	1.162540	0.393879	0.000053
  76	3.7500e+00	1.5224	-7.095704	0.000093	0.930032	0.315103	0.000042
  77	3.8000e+00	1.5545	-7.065968	0.000131	1.305621	0.442356	0.000059
  78	3.8500e+00	1.5689	-7.046822	0.000084	0.840606	0.284805	0.000038
  79	3.9000e+00	1.5738	-7.024826	0.000097	0.965802	0.327223	0.000044
  80	3.9500e+00	1.5962	-6.999571	0.000111	1.108884	0.375700	0.000051
  81	4.0000e+00	1.6058	-6.973908	0.000113	1.126769	0.381760	0.000051
  82	4.0500e+00	1.6267	-6.950690	0.000102	1.019458	0.345402	0.000046
  83	4.1000e+00	1.6764	-6.932359	0.000080	0.804835	0.272686	0.000037
  84	4.1500e+00	1.6989	-6.905882	0.000116	1.162540	0.393879	0.000053
  85	4.2000e+00	1.6941	-6.880219	-0.000113	-1.126769	-0.381760	0.000051
  86	4.2500e+00	1.7262	-6.857001	0.000102	1.019458	0.345402	0.000046
  87	4.3000e+00	1.7390	-6.835819	0.000093	0.930032	0.315103	0.000042
  88	4.3500e+00	1.7566	-6.809342	0.000116	1.162540	0.393879	0.000053
  89	4.4000e+00	1.7711	-6.782050	0.000120	1.198310	0.405998	0.000055
  90	4.4500e+00	1.8096	-6.760053	0.000097	0.965802	0.327223	0.000044
  91	4.5000e+00	1.8096	-6.739279	-0.000091	-0.912146	-0.309044	0.000042
  92	4.5500e+00	1.8128	-6.716875	0.000098	0.983687	0.333282	0.000045
  93	4.6000e+00	1.8449	-6.693249	0.000104	1.037343	0.351461	0.000047
  94	4.6500e+00	1.8866	-6.672475	0.000091	0.912146	0.309044	0.000042
  95	4.7000e+00	1.8834	-6.644775	-0.000122	-1.216195	-0.412058	0.000055
  96	4.7500e+00	1.9203	-6.624408	0.000089	0.894261	0.302984	0.000041
  97	4.8000e+00	1.9556	-6.598746	0.000113	1.126769	0.381760	0.000051
  98	4.8500e+00	1.9524	-6.579601	-0.000084	-0.840606	-0.284805	0.000038
  99	4.9000e+00	1.9588	-6.558011	0.000095	0.947917	0.321163	0.000043
 100	4.9500e+00	2.0181	-6.536830	0.000093	0.930032	0.315103	0.000042
 101	5.0000e+00	2.0101	-6.512389	-0.000107	-1.073113	-0.363581	0.000049
 102	5.0500e+00	2.0133	-6.489171	0.000102	1.019458	0.345402	0.000046
 103	5.1000e+00	2.0743	-6.463915	0.000111	1.108884	0.375700	0.000051
 104	5.1500e+00	2.0823	-6.446400	0.000077	0.769065	0.260566	0.000035
 105	5.2000e+00	2.0983	-6.426440	0.000088	0.876376	0.296924	0.000040
 106	5.2500e+00	2.1176	-6.404036	0.000098	0.983687	0.333282	0.000045
 107	5.3000e+00	2.1465	-6.385298	0.000082	0.822720	0.278745	0.000037
 108	5.3500e+00	2.1673	-6.362487	0.000100	1.001573	0.339342	0.000046
 109	5.4000e+00	2.1850	-6.336417	0.000114	1.144654	0.387819	0.000052
 110	5.4500e+00	2.1914	-6.320531	0.000070	0.697524	0.236327	0.000032
 111	5.5000e+00	2.2235	-6.299349	0.000093	0.930032	0.315103	0.000042
 112	5.5500e+00	2.2491	-6.274501	0.000109	1.090999	0.369640	0.000050
 113	5.6000e+00	2.2652	-6.256171	0.000080	0.804835	0.272686	0.000037
 114	5.6500e+00	2.2620	-6.230508	-0.000113	-1.126769	-0.381760	0.000051
 115	5.7000e+00	2.3037	-6.209326	0.000093	0.930032	0.315103	0.000042
 116	5.7500e+00	2.3117	-6.194255	0.000066	0.661753	0.224208	0.000030
 117	5.8000e+00	2.3454	-6.168999	0.000111	1.108884	0.375700	0.000051
 118	5.8500e+00	2.3438	-6.144559	-0.000107	-1.073113	-0.363581	0.000049
 119	5.9000e+00	2.3791	-6.121340	0.000102	1.019458	0.345402	0.000046
 120	5.9500e+00	2.3983	-6.104639	0.000073	0.733294	0.248447	0.000033
 121	6.0000e+00	2.3967	-6.079791	-0.000109	-1.090999	-0.369640	0.000050
 122	6.0500e+00	2.4352	-6.059017	0.000091	0.912146	0.309044	0.000042
 123	6.1000e+00	2.4769	-6.036613	0.000098	0.983687	0.333282	0.000045
 124	6.1500e+00	2.4801	-6.014209	0.000098	0.983687	0.333282	0.000045
 125	6.2000e+00	2.4801	-5.993842	-0.000089	-0.894261	-0.302984	0.000041
 126	6.2500e+00	2.5283	-5.975104	0.000082	0.822720	0.278745	0.000037
 127	6.3000e+00	2.5219	-5.956366	-0.000082	-0.822720	-0.278745	0.000037
 128	6.3500e+00	2.5620	-5.933963	0.000098	0.983687	0.333282	0.000045
 129	6.4000e+00	2.5844	-5.908707	0.000111	1.108884	0.375700	0.000051
 130	6.4500e+00	2.6021	-5.890377	0.000080	0.804835	0.272686	0.000037
 131	6.5000e+00	2.6037	-5.870417	0.000088	0.876376	0.296924	0.000040
 132	6.5500e+00	2.6438	-5.849235	0.000093	0.930032	0.315103	0.000042
 133	6.6000e+00	2.6422	-5.831720	-0.000077	-0.769065	-0.260566	0.000035
 134	6.6500e+00	2.6727	-5.807279	0.000107	1.073113	0.363581	0.000049
 135	6.7000e+00	2.7031	-5.786912	0.000089	0.894261	0.302984	0.000041
 136	6.7500e+00	2.7079	-5.766952	0.000088	0.876376	0.296924	0.000040
 137	6.8000e+00	2.7336	-5.742104	0.000109	1.090999	0.369640	0.000050
 138	6.8500e+00	2.7673	-5.722959	0.000084	0.840606	0.284805	0.000038
 139	6.9000e+00	2.7898	-5.702999	0.000088	0.876376	0.296924	0.000040
 140	6.9500e+00	2.7978	-5.677337	0.000113	1.126769	0.381760	0.000051
 141	7.0000e+00	2.8267	-5.656155	0.000093	0.930032	0.315103	0.000042
 142	7.0500e+00	2.8507	-5.636195	0.000088	0.876376	0.296924	0.000040
 143	7.1000e+00	2.8652	-5.615013	0.000093	0.930032	0.315103	0.000042
 144	7.1500e+00	2.8828	-5.593424	0.000095	0.947917	0.321163	0.000043
 145	7.2000e+00	2.9101	-5.566947	0.000116	1.162540	0.393879	0.000053
 146	7.2500e+00	2.9293	-5.549431	0.000077	0.769065	0.260566	0.000035
 147	7.3000e+00	2.9662	-5.527842	0.000095	0.947917	0.321163	0.000043
 148	7.3500e+00	2.9518	-5.505438	-0.000098	-0.983687	-0.333282	0.000045
 149	7.4000e+00	2.9791	-5.482220	0.000102	1.019458	0.345402	0.000046
 150	7.4500e+00	3.0047	-5.461038	0.000093	0.930032	0.315103	0.000042
 151	7.5000e+00	3.0160	-5.441893	0.000084	0.840606	0.284805	0.000038
 152	7.5500e+00	3.0304	-5.421933	0.000088	0.876376	0.296924	0.000040
 153	7.6000e+00	3.0561	-5.401973	0.000088	0.876376	0.296924	0.000040
 154	7.6500e+00	3.0930	-5.381606	0.000089	0.894261	0.302984	0.000041
 155	7.7000e+00	3.1250	-5.360017	0.000095	0.947917	0.321163	0.000043
 156	7.7500e+00	3.1202	-5.338835	-0.000093	-0.930032	-0.315103	0.000042
 157	7.8000e+00	3.1331	-5.321319	0.000077	0.769065	0.260566	0.000035
 158	7.8500e+00	3.1555	-5.297286	0.000106	1.055228	0.357521	0.000048
 159	7.9000e+00	3.1876	-5.281400	0.000070	0.697524	0.236327	0.000032
 160	7.9500e+00	3.1956	-5.258589	0.000100	1.001573	0.339342	0.000046
 161	8.0000e+00	3.2502	-5.240666	0.000079	0.786950	0.266626	0.000036
 162	8.0500e+00	3.2229	-5.219891	-0.000091	-0.912146	-0.309044	0.000042
 163	8.1000e+00	3.2534	-5.197487	0.000098	0.983687	0.333282	0.000045
 164	8.1500e+00	3.2807	-5.179564	0.000079	0.786950	0.266626	0.000036
 165	8.2000e+00	3.2983	-5.160012	0.000086	0.858491	0.290865	0.000039
 166	8.2500e+00	3.3288	-5.136793	0.000102	1.019458	0.345402	0.000046
 167	8.3000e+00	3.3609	-5.117648	0.000084	0.840606	0.284805	0.000038
 168	8.3500e+00	3.3448	-5.100540	-0.000075	-0.751179	-0.254506	0.000034
 169	8.4000e+00	3.3769	-5.080580	0.000088	0.876376	0.296924	0.000040
 170	8.4500e+00	3.3897	-5.057769	0.000100	1.001573	0.339342	0.000046
 171	8.5000e+00	3.4331	-5.032921	0.000109	1.090999	0.369640	0.000050
 172	8.5500e+00	3.4282	-5.014998	-0.000079	-0.786950	-0.266626	0.000036
 173	8.6000e+00	3.4667	-4.996667	0.000080	0.804835	0.272686	0.000037
 174	8.6500e+00	3.4748	-4.974264	0.000098	0.983687	0.333282	0.000045
 175	8.7000e+00	3.5197	-4.953896	0.000089	0.894261	0.302984	0.000041
 176	8.7500e+00	3.5052	-4.931493	-0.000098	-0.983687	-0.333282	0.000045
 177	8.8000e+00	3.5389	-4.913570	0.000079	0.786950	0.266626	0.000036
 178	8.8500e+00	3.5454	-4.894017	0.000086	0.858491	0.290865	0.000039
 179	8.9000e+00	3.5774	-4.874872	0.000084	0.840606	0.284805	0.000038
 180	8.9500e+00	3.5919	-4.856949	0.000079	0.786950	0.266626	0.000036
 181	9.0000e+00	3.6191	-4.836582	0.000089	0.894261	0.302984	0.000041
 182	9.0500e+00	3.6352	-4.817029	0.000086	0.858491	0.290865	0.000039
 183	9.1000e+00	3.6881	-4.796662	0.000089	0.894261	0.302984	0.000041
 184	9.1500e+00	3.6817	-4.771000	-0.000113	-1.126769	-0.381760	0.000051
 185	9.2000e+00	3.7010	-4.752669	0.000080	0.804835	0.272686	0.000037
 186	9.2500e+00	3.7138	-4.735561	0.000075	0.751179	0.254506	0.000034
 187	9.3000e+00	3.7347	-4.713972	0.000095	0.947917	0.321163	0.000043
 188	9.3500e+00	3.7571	-4.692790	0.000093	0.930032	0.315103	0.000042
 189	9.4000e+00	3.7828	-4.670793	0.000097	0.965802	0.327223	0.000044
 190	9.4500e+00	3.7988	-4.649204	0.000095	0.947917	0.321163	0.000043
 191	9.5000e+00	3.8470	-4.630466	0.000082	0.822720	0.278745	0.000037
 192	9.5500e+00	3.8325	-4.604397	-0.000114	-1.144654	-0.387819	0.000052
 193	9.6000e+00	3.8774	-4.584029	0.000089	0.894261	0.302984	0.000041
 194	9.6500e+00	3.8758	-4.565699	-0.000080	-0.804835	-0.272686	0.000037
 195	9.7000e+00	3.8742	-4.540036	-0.000113	-1.126769	-0.381760	0.000051
 196	9.7500e+00	3.9256	-4.523743	0.000072	0.715409	0.242387	0.000033
 197	9.8000e+00	3.9416	-4.502968	0.000091	0.912146	0.309044	0.000042
 198	9.8500e+00	3.9689	-4.480564	0.000098	0.983687	0.333282	0.000045
 199	9.9000e+00	3.9849	-4.462641	0.000079	0.786950	0.266626	0.000036
 200	9.9500e+00	3.9865	-4.434942	0.000122	1.216195	0.412058	0.000055
 201	1.0000e+01	4.0234	-4.415797	0.000084	0.840606	0.284805	0.000038
 202	1.0050e+01	4.0411	-4.393800	0.000097	0.965802	0.327223	0.000044
 203	1.0100e+01	4.0619	-4.378321	0.000068	0.679638	0.230268	0.000031
 204	1.0150e+01	4.0699	-4.353066	0.000111	1.108884	0.375700	0.000051
 205	1.0200e+01	4.0972	-4.332699	0.000089	0.894261	0.302984	0.000041
 206	1.0250e+01	4.1036	-4.311517	0.000093	0.930032	0.315103	0.000042
 207	1.0300e+01	4.1566	-4.290335	0.000093	0.930032	0.315103	0.000042
 208	1.0350e+01	4.1710	-4.266302	0.000106	1.055228	0.357521	0.000048
 209	1.0400e+01	4.1774	-4.246750	0.000086	0.858491	0.290865	0.000039
 210	1.0450e+01	4.1870	-4.227197	0.000086	0.858491	0.290865	0.000039
 211	1.0500e+01	4.2191	-4.202757	0.000107	1.073113	0.363581	0.000049
 212	1.0550e+01	4.2304	-4.181982	0.000091	0.912146	0.309044	0.000042
 213	1.0600e+01	4.2480	-4.156320	0.000113	1.126769	0.381760	0.000051
 214	1.0650e+01	4.2849	-4.139619	0.000073	0.733294	0.248447	0.000033
 215	1.0700e+01	4.3009	-4.119659	0.000088	0.876376	0.296924	0.000040
 216	1.0750e+01	4.3090	-4.094811	0.000109	1.090999	0.369640	0.000050
 217	1.0800e+01	4.3250	-4.076073	0.000082	0.822720	0.278745	0.000037
 218	1.0850e+01	4.3507	-4.055299	0.000091	0.912146	0.309044	0.000042
 219	1.0900e+01	4.3844	-4.032488	0.000100	1.001573	0.339342	0.000046
 220	1.0950e+01	4.4165	-4.011306	0.000093	0.930032	0.315103	0.000042
 221	1.1000e+01	4.4165	-3.989309	-0.000097	-0.965802	-0.327223	0.000044
 222	1.1050e+01	4.4052	-3.971386	-0.000079	-0.786950	-0.266626	0.000036
 223	1.1100e+01	4.4726	-3.951019	0.000089	0.894261	0.302984	0.000041
 224	1.1150e+01	4.4806	-3.926579	0.000107	1.073113	0.363581	0.000049
 225	1.1200e+01	4.5047	-3.908248	0.000080	0.804835	0.272686	0.000037
 226	1.1250e+01	4.5143	-3.889103	0.000084	0.840606	0.284805	0.000038
 227	1.1300e+01	4.5416	-3.867107	0.000097	0.965802	0.327223	0.000044
 228	1.1350e+01	4.5496	-3.845110	0.000097	0.965802	0.327223	0.000044
 229	1.1400e+01	4.5689	-3.821891	0.000102	1.019458	0.345402	0.000046
 230	1.1450e+01	4.5865	-3.802746	0.000084	0.840606	0.284805	0.000038
 231	1.1500e+01	4.6314	-3.786045	0.000073	0.733294	0.248447	0.000033
 232	1.1550e+01	4.6410	-3.763234	0.000100	1.001573	0.339342	0.000046
 233	1.1600e+01	4.6475	-3.740830	0.000098	0.983687	0.333282	0.000045
 234	1.1650e+01	4.6683	-3.720871	0.000088	0.876376	0.296924	0.000040
 235	1.1700e+01	4.6844	-3.700096	0.000091	0.912146	0.309044	0.000042
 236	1.1750e+01	4.7148	-3.678914	0.000093	0.930032	0.315103	0.000042
 237	1.1800e+01	4.7598	-3.657325	0.000095	0.947917	0.321163	0.000043
 238	1.1850e+01	4.7582	-3.636958	-0.000089	-0.894261	-0.302984	0.000041
 239	1.1900e+01	4.7790	-3.614961	0.000097	0.965802	0.327223	0.000044
 240	1.1950e+01	4.7983	-3.595816	0.000084	0.840606	0.284805	0.000038
 241	1.2000e+01	4.8271	-3.572191	0.000104	1.037343	0.351461	0.000047
 242	1.2050e+01	4.8207	-3.552231	-0.000088	-0.876376	-0.296924	0.000040
 243	1.2100e+01	4.8705	-3.535530	0.000073	0.733294	0.248447	0.000033
 244	1.2150e+01	4.9106	-3.513533	0.000097	0.965802	0.327223	0.000044
 245	1.2200e+01	4.8977	-3.489907	-0.000104	-1.037343	-0.351461	0.000047
 246	1.2250e+01	4.9282	-3.467503	0.000098	0.983687	0.333282	0.000045
 247	1.2300e+01	4.9330	-3.449580	0.000079	0.786950	0.266626	0.000036
 248	1.2350e+01	4.9683	-3.425547	0.000106	1.055228	0.357521	0.000048
 249	1.2400e+01	4.9555	-3.406809	-0.000082	-0.822720	-0.278745	0.000037
 250	1.2450e+01	5.0004	-3.387664	0.000084	0.840606	0.284805	0.000038
 251	1.2500e+01	5.0116	-3.366483	0.000093	0.930032	0.315103	0.000042
 252	1.2550e+01	5.0565	-3.342449	0.000106	1.055228	0.357521	0.000048
 253	1.2600e+01	5.0581	-3.323304	0.000084	0.840606	0.284805	0.000038
 254	1.2650e+01	5.0790	-3.303344	0.000088	0.876376	0.296924	0.000040
 255	1.2700e+01	5.1111	-3.281755	0.000095	0.947917	0.321163	0.000043
 256	1.2750e+01	5.1416	-3.261388	0.000089	0.894261	0.302984	0.000041
 257	1.2800e+01	5.1287	-3.239799	-0.000095	-0.947917	-0.321163	0.000043
 258	1.2850e+01	5.1496	-3.226357	0.000059	0.590212	0.199969	0.000027
 259	1.2900e+01	5.1688	-3.201101	0.000111	1.108884	0.375700	0.000051
 260	1.2950e+01	5.2186	-3.183993	0.000075	0.751179	0.254506	0.000034
 261	1.3000e+01	5.2122	-3.157516	-0.000116	-1.162540	-0.393879	0.000053
 262	1.3050e+01	5.2410	-3.137963	0.000086	0.858491	0.290865	0.000039
 263	1.3100e+01	5.2667	-3.119226	0.000082	0.822720	0.278745	0.000037
 264	1.3150e+01	5.2619	-3.095600	-0.000104	-1.037343	-0.351461	0.000047
 265	1.3200e+01	5.3116	-3.075640	0.000088	0.876376	0.296924	0.000040
 266	1.3250e+01	5.3421	-3.059754	0.000070	0.697524	0.236327	0.000032
 267	1.3300e+01	5.3421	-3.031647	-0.000123	-1.234080	-0.418118	0.000056
 268	1.3350e+01	5.3790	-3.013317	0.000080	0.804835	0.272686	0.000037
 269	1.3400e+01	5.3694	-2.990505	-0.000100	-1.001573	-0.339342	0.000046
 270	1.3450e+01	5.4015	-2.970546	0.000088	0.876376	0.296924	0.000040
 271	1.3500e+01	5.4143	-2.946920	0.000104	1.037343	0.351461	0.000047
 272	1.3550e+01	5.4528	-2.921664	0.000111	1.108884	0.375700	0.000051
 273	1.3600e+01	5.4480	-2.904556	-0.000075	-0.751179	-0.254506	0.000034
 274	1.3650e+01	5.4480	-2.879708	-0.000109	-1.090999	-0.369640	0.000050
 275	1.3700e+01	5.5218	-2.861378	0.000080	0.804835	0.272686	0.000037
 276	1.3750e+01	5.5250	-2.836530	0.000109	1.090999	0.369640	0.000050
 277	1.3800e+01	5.5410	-2.818199	0.000080	0.804835	0.272686	0.000037
 278	1.3850e+01	5.5603	-2.792130	0.000114	1.144654	0.387819	0.000052
 279	1.3900e+01	5.5843	-2.772984	0.000084	0.840606	0.284805	0.000038
 280	1.3950e+01	5.5843	-2.754654	-0.000080	-0.804835	-0.272686	0.000037
 281	1.4000e+01	5.6405	-2.731435	0.000102	1.019458	0.345402	0.000046
 282	1.4050e+01	5.6180	-2.710254	-0.000093	-0.930032	-0.315103	0.000042
 283	1.4100e+01	5.6662	-2.687035	0.000102	1.019458	0.345402	0.000046
 284	1.4150e+01	5.6517	-2.667075	-0.000088	-0.876376	-0.296924	0.000040
 285	1.4200e+01	5.6966	-2.643857	0.000102	1.019458	0.345402	0.000046
 286	1.4250e+01	5.7255	-2.621860	0.000097	0.965802	0.327223	0.000044
 287	1.4300e+01	5.7335	-2.602308	0.000086	0.858491	0.290865	0.000039
 288	1.4350e+01	5.7624	-2.586014	0.000072	0.715409	0.242387	0.000033
 289	1.4400e+01	5.8009	-2.563610	0.000098	0.983687	0.333282	0.000045
 290	1.4450e+01	5.8105	-2.542429	0.000093	0.930032	0.315103	0.000042
 291	1.4500e+01	5.8137	-2.518395	0.000106	1.055228	0.357521	0.000048
 292	1.4550e+01	5.8234	-2.503324	0.000066	0.661753	0.224208	0.000030
 293	1.4600e+01	5.8907	-2.476846	0.000116	1.162540	0.393879	0.000053
 294	1.4650e+01	5.8811	-2.456072	-0.000091	-0.912146	-0.309044	0.000042
 295	1.4700e+01	5.9164	-2.433668	0.000098	0.983687	0.333282	0.000045
 296	1.4750e+01	5.9116	-2.416152	-0.000077	-0.769065	-0.260566	0.000035
 297	1.4800e+01	5.9469	-2.389268	0.000118	1.180425	0.399939	0.000054
 298	1.4850e+01	5.9533	-2.369715	0.000086	0.858491	0.290865	0.000039
 299	1.4900e+01	5.9822	-2.346904	0.000100	1.001573	0.339342	0.000046
 300	1.4950e+01	5.9838	-2.325315	0.000095	0.947917	0.321163	0.000043
 301	1.5000e+01	6.0143	-2.308614	0.000073	0.733294	0.248447	0.000033
 302	1.5050e+01	6.0480	-2.287432	0.000093	0.930032	0.315103	0.000042
 303	1.5100e+01	6.0431	-2.261770	-0.000113	-1.126769	-0.381760	0.000051
 304	1.5150e+01	6.0897	-2.246698	0.000066	0.661753	0.224208	0.000030
 305	1.5200e+01	6.1330	-2.226738	0.000088	0.876376	0.296924	0.000040
 306	1.5250e+01	6.1266	-2.201890	-0.000109	-1.090999	-0.369640	0.000050
 307	1.5300e+01	6.1346	-2.184374	0.000077	0.769065	0.260566	0.000035
 308	1.5350e+01	6.1651	-2.167673	0.000073	0.733294	0.248447	0.000033
 309	1.5400e+01	6.1843	-2.150565	0.000075	0.751179	0.254506	0.000034
 310	1.5450e+01	6.2020	-2.127346	0.000102	1.019458	0.345402	0.000046
 311	1.5500e+01	6.2228	-2.110645	0.000073	0.733294	0.248447	0.000033
 312	1.5550e+01	6.2292	-2.089056	0.000095	0.947917	0.321163	0.000043
 313	1.5600e+01	6.2485	-2.069911	0.000084	0.840606	0.284805	0.000038
 314	1.5650e+01	6.2838	-2.049137	0.000091	0.912146	0.309044	0.000042
 315	1.5700e+01	6.2934	-2.028770	0.000089	0.894261	0.302984	0.000041
 316	1.5750e+01	6.3143	-2.007588	0.000093	0.930032	0.315103	0.000042
 317	1.5800e+01	6.3191	-1.992109	0.000068	0.679638	0.230268	0.000031
 318	1.5850e+01	6.3447	-1.969705	0.000098	0.983687	0.333282	0.000045
 319	1.5900e+01	6.3720	-1.950152	0.000086	0.858491	0.290865	0.000039
 320	1.5950e+01	6.4025	-1.931415	0.000082	0.822720	0.278745	0.000037
 321	1.6000e+01	6.4105	-1.909011	0.000098	0.983687	0.333282	0.000045
 322	1.6050e+01	6.4490	-1.888236	0.000091	0.912146	0.309044	0.000042
 323	1.6100e+01	6.4699	-1.864611	0.000104	1.037343	0.351461	0.000047
 324	1.6150e+01	6.4779	-1.846280	0.000080	0.804835	0.272686	0.000037
 325	1.6200e+01	6.4971	-1.829579	0.000073	0.733294	0.248447	0.000033
 326	1.6250e+01	6.5180	-1.807583	0.000097	0.965802	0.327223	0.000044
 327	1.6300e+01	6.5597	-1.788845	0.000082	0.822720	0.278745	0.000037
 328	1.6350e+01	6.5693	-1.768885	0.000088	0.876376	0.296924	0.000040
 329	1.6400e+01	6.5645	-1.748111	-0.000091	-0.912146	-0.309044	0.000042
 330	1.6450e+01	6.5982	-1.726114	0.000097	0.965802	0.327223	0.000044
 331	1.6500e+01	6.6319	-1.706969	0.000084	0.840606	0.284805	0.000038
 332	1.6550e+01	6.6367	-1.686194	0.000091	0.912146	0.309044	0.000042
 333	1.6600e+01	6.6560	-1.668271	0.000079	0.786950	0.266626	0.000036
 334	1.6650e+01	6.6672	-1.644646	0.000104	1.037343	0.351461	0.000047
 335	1.6700e+01	6.7121	-1.624686	0.000088	0.876376	0.296924	0.000040
 336	1.6750e+01	6.7057	-1.603504	-0.000093	-0.930032	-0.315103	0.000042
 337	1.6800e+01	6.7346	-1.586803	0.000073	0.733294	0.248447	0.000033
 338	1.6850e+01	6.7538	-1.564806	0.000097	0.965802	0.327223	0.000044
 339	1.6900e+01	6.7731	-1.546883	0.000079	0.786950	0.266626	0.000036
 340	1.6950e+01	6.7955	-1.524887	0.000097	0.965802	0.327223	0.000044
 341	1.7000e+01	6.8068	-1.508186	0.000073	0.733294	0.248447	0.000033
 342	1.7050e+01	6.8324	-1.490670	0.000077	0.769065	0.260566	0.000035
 343	1.7100e+01	6.8212	-1.466637	-0.000106	-1.055228	-0.357521	0.000048
 344	1.7150e+01	6.8725	-1.444640	0.000097	0.965802	0.327223	0.000044
 345	1.7200e+01	6.8870	-1.426717	0.000079	0.786950	0.266626	0.000036
 346	1.7250e+01	6.9030	-1.405943	0.000091	0.912146	0.309044	0.000042
 347	1.7300e+01	6.9303	-1.388020	0.000079	0.786950	0.266626	0.000036
 348	1.7350e+01	6.9399	-1.368467	0.000086	0.858491	0.290865	0.000039
 349	1.7400e+01	6.9704	-1.347285	0.000093	0.930032	0.315103	0.000042
 350	1.7450e+01	6.9912	-1.326511	0.000091	0.912146	0.309044	0.000042
 351	1.7500e+01	7.0201	-1.306551	0.000088	0.876376	0.296924	0.000040
 352	1.7550e+01	7.0330	-1.289443	0.000075	0.751179	0.254506	0.000034
 353	1.7600e+01	7.0586	-1.268668	0.000091	0.912146	0.309044	0.000042
 354	1.7650e+01	7.0747	-1.247487	0.000093	0.930032	0.315103	0.000042
 355	1.7700e+01	7.0843	-1.228749	0.000082	0.822720	0.278745	0.000037
 356	1.7750e+01	7.1324	-1.210418	0.000080	0.804835	0.272686	0.000037
 357	1.7800e+01	7.1388	-1.190866	0.000086	0.858491	0.290865	0.000039
 358	1.7850e+01	7.1485	-1.173350	0.000077	0.769065	0.260566	0.000035
 359	1.7900e+01	7.1822	-1.150539	0.000100	1.001573	0.339342	0.000046
 360	1.7950e+01	7.1966	-1.135467	0.000066	0.661753	0.224208	0.000030
 361	1.8000e+01	7.2255	-1.115508	0.000088	0.876376	0.296924	0.000040
 362	1.8050e+01	7.2592	-1.094326	0.000093	0.930032	0.315103	0.000042
 363	1.8100e+01	7.2495	-1.079254	-0.000066	-0.661753	-0.224208	0.000030
 364	1.8150e+01	7.2784	-1.058480	0.000091	0.912146	0.309044	0.000042
 365	1.8200e+01	7.3121	-1.040557	0.000079	0.786950	0.266626	0.000036
 366	1.8250e+01	7.3169	-1.024263	0.000072	0.715409	0.242387	0.000033
 367	1.8300e+01	7.3522	-1.004303	0.000088	0.876376	0.296924	0.000040
 368	1.8350e+01	7.3714	-0.984751	0.000086	0.858491	0.290865	0.000039
 369	1.8400e+01	7.3907	-0.967235	0.000077	0.769065	0.260566	0.000035
 370	1.8450e+01	7.3987	-0.950941	0.000072	0.715409	0.242387	0.000033
 371	1.8500e+01	7.4083	-0.932611	0.000080	0.804835	0.272686	0.000037
 372	1.8550e+01	7.4356	-0.915095	0.000077	0.769065	0.260566	0.000035
 373	1.8600e+01	7.4517	-0.894728	0.000089	0.894261	0.302984	0.000041
 374	1.8650e+01	7.4725	-0.874361	0.000089	0.894261	0.302984	0.000041
 375	1.8700e+01	7.5078	-0.853994	0.000089	0.894261	0.302984	0.000041
 376	1.8750e+01	7.5158	-0.839737	0.000063	0.625983	0.212089	0.000029
 377	1.8800e+01	7.5206	-0.820592	0.000084	0.840606	0.284805	0.000038
 378	1.8850e+01	7.5511	-0.802261	0.000080	0.804835	0.272686	0.000037
 379	1.8900e+01	7.5736	-0.787189	0.000066	0.661753	0.224208	0.000030
 380	1.8950e+01	7.5864	-0.766822	0.000089	0.894261	0.302984	0.000041
 381	1.9000e+01	7.6233	-0.747677	0.000084	0.840606	0.284805	0.000038
 382	1.9050e+01	7.6554	-0.730569	0.000075	0.751179	0.254506	0.000034
 383	1.9100e+01	7.6730	-0.715497	0.000066	0.661753	0.224208	0.000030
 384	1.9150e+01	7.6795	-0.697574	0.000079	0.786950	0.266626	0.000036
 385	1.9200e+01	7.6971	-0.676800	0.000091	0.912146	0.309044	0.000042
 386	1.9250e+01	7.6939	-0.660506	-0.000072	-0.715409	-0.242387	0.000033
 387	1.9300e+01	7.7404	-0.642990	0.000077	0.769065	0.260566	0.000035
 388	1.9350e+01	7.7404	-0.626289	-0.000073	-0.733294	-0.248447	0.000033
 389	1.9400e+01	7.7902	-0.605515	0.000091	0.912146	0.309044	0.000042
 390	1.9450e+01	7.8014	-0.592072	0.000059	0.590212	0.199969	0.000027
 391	1.9500e+01	7.7821	-0.571298	-0.000091	-0.912146	-0.309044	0.000042
 392	1.9550e+01	7.8206	-0.554597	0.000073	0.733294	0.248447	0.000033
 393	1.9600e+01	7.8591	-0.539933	0.000064	0.643868	0.218148	0.000029
 394	1.9650e+01	7.8656	-0.518343	0.000095	0.947917	0.321163	0.000043
 395	1.9700e+01	7.8976	-0.502050	0.000072	0.715409	0.242387	0.000033
 396	1.9750e+01	7.9073	-0.484941	0.000075	0.751179	0.254506	0.000034
 397	1.9800e+01	7.9249	-0.467833	0.000075	0.751179	0.254506	0.000034
 398	1.9850e+01	7.9666	-0.447466	0.000089	0.894261	0.302984	0.000041
 399	1.9900e+01	7.9891	-0.428321	0.000084	0.840606	0.284805	0.000038
 400	1.9950e+01	8.0196	-0.413249	0.000066	0.661753	0.224208	0.000030
 401	2.0000e+01	8.0083	-0.399807	-0.000059	-0.590212	-0.199969	0.000027
 402	2.0050e+01	8.0308	-0.379440	0.000089	0.894261	0.302984	0.000041
 403	2.0100e+01	8.0837	-0.359072	0.000089	0.894261	0.302984	0.000041
 404	2.0150e+01	8.0757	-0.344408	-0.000064	-0.643868	-0.218148	0.000029
 405	2.0200e+01	8.0918	-0.326485	0.000079	0.786950	0.266626	0.000036
 406	2.0250e+01	8.1142	-0.310599	0.000070	0.697524	0.236327	0.000032
 407	2.0300e+01	8.1303	-0.292676	0.000079	0.786950	0.266626	0.000036
 408	2.0350e+01	8.1543	-0.275160	0.000077	0.769065	0.260566	0.000035
 409	2.0400e+01	8.1704	-0.259681	0.000068	0.679638	0.230268	0.000031
 410	2.0450e+01	8.1880	-0.237684	0.000097	0.965802	0.327223	0.000044
 411	2.0500e+01	8.2265	-0.222613	0.000066	0.661753	0.224208	0.000030
 412	2.0550e+01	8.2201	-0.208763	-0.000061	-0.608098	-0.206029	0.000028
 413	2.0600e+01	8.2458	-0.189211	0.000086	0.858491	0.290865	0.000039
 414	2.0650e+01	8.2634	-0.170880	0.000080	0.804835	0.272686	0.000037
 415	2.0700e+01	8.2730	-0.153772	0.000075	0.751179	0.254506	0.000034
 416	2.0750e+01	8.3003	-0.138700	0.000066	0.661753	0.224208	0.000030
 417	2.0800e+01	8.3452	-0.118740	0.000088	0.876376	0.296924	0.000040
 418	2.0850e+01	8.3468	-0.104891	0.000061	0.608098	0.206029	0.000028
 419	2.0900e+01	8.3757	-0.082487	0.000098	0.983687	0.333282	0.000045
 420	2.0950e+01	8.4126	-0.069859	0.000055	0.554442	0.187850	0.000025
 421	2.1000e+01	8.4174	-0.049492	0.000089	0.894261	0.302984	0.000041
 422	2.1050e+01	8.4511	-0.034828	0.000064	0.643868	0.218148	0.000029
 423	2.1100e+01	8.4415	-0.020978	-0.000061	-0.608098	-0.206029	0.000028
 424	2.1150e+01	8.4736	0.002240	0.000102	1.019458	0.345402	0.000046
 425	2.1200e+01	8.4944	0.016497	0.000063	0.625983	0.212089	0.000029
 426	2.1250e+01	8.5313	0.038087	0.000095	0.947917	0.321163	0.000043
 427	2.1300e+01	8.5554	0.050714	0.000055	0.554442	0.187850	0.000025
 428	2.1350e+01	8.5810	0.070267	0.000086	0.858491	0.290865	0.000039
 429	2.1400e+01	8.5602	0.085746	-0.000068	-0.679638	-0.230268	0.000031
 430	2.1450e+01	8.5955	0.102039	0.000072	0.715409	0.242387	0.000033
 431	2.1500e+01	8.6051	0.115074	0.000057	0.572327	0.193910	0.000026
 432	2.1550e+01	8.6500	0.131775	0.000073	0.733294	0.248447	0.000033
 433	2.1600e+01	8.6452	0.142774	-0.000048	-0.482901	-0.163611	0.000022
 434	2.1650e+01	8.6885	0.165992	0.000102	1.019458	0.345402	0.000046
 435	2.1700e+01	8.6949	0.181471	0.000068	0.679638	0.230268	0.000031
 436	2.1750e+01	8.7094	0.196543	0.000066	0.661753	0.224208	0.000030
 437	2.1800e+01	8.7527	0.211207	0.000064	0.643868	0.218148	0.000029
 438	2.1850e+01	8.7527	0.228723	-0.000077	-0.769065	-0.260566	0.000035
 439	2.1900e+01	8.7896	0.243795	0.000066	0.661753	0.224208	0.000030
 440	2.1950e+01	8.8217	0.259681	0.000070	0.697524	0.236327	0.000032
 441	2.2000e+01	8.8233	0.272308	0.000055	0.554442	0.187850	0.000025
 442	2.2050e+01	8.8393	0.288602	0.000072	0.715409	0.242387	0.000033
 443	2.2100e+01	8.8457	0.305303	0.000073	0.733294	0.248447	0.000033
 444	2.2150e+01	8.8810	0.322412	0.000075	0.751179	0.254506	0.000034
 445	2.2200e+01	8.9115	0.335039	0.000055	0.554442	0.187850	0.000025
 446	2.2250e+01	8.9308	0.355406	0.000089	0.894261	0.302984	0.000041
 447	2.2300e+01	8.9276	0.368441	-0.000057	-0.572327	-0.193910	0.000026
 448	2.2350e+01	8.9532	0.385142	0.000073	0.733294	0.248447	0.000033
 449	2.2400e+01	8.9725	0.402251	0.000075	0.751179	0.254506	0.000034
 450	2.2450e+01	9.0030	0.415693	0.000059	0.590212	0.199969	0.000027
 451	2.2500e+01	9.0254	0.431172	0.000068	0.679638	0.230268	0.000031
 452	2.2550e+01	9.0286	0.453983	0.000100	1.001573	0.339342	0.000046
 453	2.2600e+01	9.0671	0.465796	0.000052	0.518671	0.175731	0.000024
 454	2.2650e+01	9.1072	0.482497	0.000073	0.733294	0.248447	0.000033
 455	2.2700e+01	9.1153	0.493903	0.000050	0.500786	0.169671	0.000023
 456	2.2750e+01	9.1377	0.512641	0.000082	0.822720	0.278745	0.000037
 457	2.2800e+01	9.1361	0.524454	-0.000052	-0.518671	-0.175731	0.000024
 458	2.2850e+01	9.1746	0.542784	0.000080	0.804835	0.272686	0.000037
 459	2.2900e+01	9.1586	0.556634	-0.000061	-0.608098	-0.206029	0.000028
 460	2.2950e+01	9.1939	0.576186	0.000086	0.858491	0.290865	0.000039
 461	2.3000e+01	9.2067	0.588406	0.000054	0.536557	0.181790	0.000024
 462	2.3050e+01	9.2275	0.608366	0.000088	0.876376	0.296924	0.000040
 463	2.3100e+01	9.2837	0.620179	0.000052	0.518671	0.175731	0.000024
 464	2.3150e+01	9.2917	0.631177	0.000048	0.482901	0.163611	0.000022
 465	2.3200e+01	9.3142	0.650730	0.000086	0.858491	0.290865	0.000039
 466	2.3250e+01	9.3110	0.665801	-0.000066	-0.661753	-0.224208	0.000030
 467	2.3300e+01	9.3190	0.682095	0.000072	0.715409	0.242387	0.000033
 468	2.3350e+01	9.3559	0.695537	0.000059	0.590212	0.199969	0.000027
 469	2.3400e+01	9.3848	0.715497	0.000088	0.876376	0.296924	0.000040
 470	2.3450e+01	9.3912	0.730569	0.000066	0.661753	0.224208	0.000030
 471	2.3500e+01	9.4233	0.748085	0.000077	0.769065	0.260566	0.000035
 472	2.3550e+01	9.4297	0.761934	0.000061	0.608098	0.206029	0.000028
 473	2.3600e+01	9.4618	0.780672	0.000082	0.822720	0.278745	0.000037
 474	2.3650e+01	9.4714	0.794929	0.000063	0.625983	0.212089	0.000029
 475	2.3700e+01	9.4602	0.810001	-0.000066	-0.661753	-0.224208	0.000030
 476	2.3750e+01	9.5195	0.826294	0.000072	0.715409	0.242387	0.000033
 477	2.3800e+01	9.5548	0.846254	0.000088	0.876376	0.296924	0.000040
 478	2.3850e+01	9.5596	0.863363	0.000075	0.751179	0.254506	0.000034
 479	2.3900e+01	9.5725	0.879249	0.000070	0.697524	0.236327	0.000032
 480	2.3950e+01	9.6126	0.891062	0.000052	0.518671	0.175731	0.000024
 481	2.4000e+01	9.6414	0.911022	0.000088	0.876376	0.296924	0.000040
 482	2.4050e+01	9.6623	0.926501	0.000068	0.679638	0.230268	0.000031
 483	2.4100e+01	9.6430	0.944424	-0.000079	-0.786950	-0.266626	0.000036
 484	2.4150e+01	9.6719	0.956644	0.000054	0.536557	0.181790	0.000024
 485	2.4200e+01	9.6848	0.972530	0.000070	0.697524	0.236327	0.000032
 486	2.4250e+01	9.7120	0.988009	0.000068	0.679638	0.230268	0.000031
 487	2.4300e+01	9.7441	1.006747	0.000082	0.822720	0.278745	0.000037
 488	2.4350e+01	9.7537	1.018967	0.000054	0.536557	0.181790	0.000024
 489	2.4400e+01	9.7954	1.036483	0.000077	0.769065	0.260566	0.000035
 490	2.4450e+01	9.7906	1.050333	-0.000061	-0.608098	-0.206029	0.000028
 491	2.4500e+01	9.8147	1.067034	0.000073	0.733294	0.248447	0.000033
 492	2.4550e+01	9.8339	1.080069	0.000057	0.572327	0.193910	0.000026
 493	2.4600e+01	9.8612	1.095548	0.000068	0.679638	0.230268	0.000031
 494	2.4650e+01	9.8692	1.108175	0.000055	0.554442	0.187850	0.000025
 495	2.4700e+01	9.9029	1.125284	0.000075	0.751179	0.254506	0.000034
 496	2.4750e+01	9.9446	1.142392	0.000075	0.751179	0.254506	0.000034
 497	2.4800e+01	9.9543	1.157871	0.000068	0.679638	0.230268	0.000031
 498	2.4850e+01	9.9559	1.174165	0.000072	0.715409	0.242387	0.000033
 499	2.4900e+01	9.9414	1.186793	-0.000055	-0.554442	-0.187850	0.000025
 500	2.4950e+01	9.9735	1.207160	0.000089	0.894261	0.302984	0.000041
 501	2.5000e+01	10.0329	1.217751	0.000047	0.465016	0.157552	0.000021
 502	2.5050e+01	10.0281	1.234044	-0.000072	-0.715409	-0.242387	0.000033
 503	2.5100e+01	10.0489	1.250745	0.000073	0.733294	0.248447	0.000033
 504	2.5150e+01	10.0650	1.265410	0.000064	0.643868	0.218148	0.000029
 505	2.5200e+01	10.0858	1.280481	0.000066	0.661753	0.224208	0.000030
 506	2.5250e+01	10.1179	1.293924	0.000059	0.590212	0.199969	0.000027
 507	2.5300e+01	10.1227	1.314291	0.000089	0.894261	0.302984	0.000041
 508	2.5350e+01	10.1548	1.331806	0.000077	0.769065	0.260566	0.000035
 509	2.5400e+01	10.1837	1.343619	0.000052	0.518671	0.175731	0.000024
 510	2.5450e+01	10.1821	1.359098	-0.000068	-0.679638	-0.230268	0.000031
 511	2.5500e+01	10.2206	1.373763	0.000064	0.643868	0.218148	0.000029
 512	2.5550e+01	10.2414	1.389242	0.000068	0.679638	0.230268	0.000031
 513	2.5600e+01	10.2350	1.407980	-0.000082	-0.822720	-0.278745	0.000037
 514	2.5650e+01	10.2783	1.421829	0.000061	0.608098	0.206029	0.000028
 515	2.5700e+01	10.2960	1.438938	0.000075	0.751179	0.254506	0.000034
 516	2.5750e+01	10.3104	1.458083	0.000084	0.840606	0.284805	0.000038
 517	2.5800e+01	10.3521	1.468266	0.000045	0.447131	0.151492	0.000020
 518	2.5850e+01	10.3617	1.480079	0.000052	0.518671	0.175731	0.000024
 519	2.5900e+01	10.3794	1.493114	0.000057	0.572327	0.193910	0.000026
 520	2.5950e+01	10.3874	1.514296	0.000093	0.930032	0.315103	0.000042
 521	2.6000e+01	10.4083	1.530590	0.000072	0.715409	0.242387	0.000033
 522	2.6050e+01	10.4387	1.547698	0.000075	0.751179	0.254506	0.000034
 523	2.6100e+01	10.4756	1.562770	0.000066	0.661753	0.224208	0.000030
 524	2.6150e+01	10.4917	1.581915	0.000084	0.840606	0.284805	0.000038
 525	2.6200e+01	10.4869	1.597801	-0.000070	-0.697524	-0.236327	0.000032
 526	2.6250e+01	10.5093	1.622242	0.000107	1.073113	0.363581	0.000049
 527	2.6300e+01	10.5222	1.633647	0.000050	0.500786	0.169671	0.000023
 528	2.6350e+01	10.5703	1.646275	0.000055	0.554442	0.187850	0.000025
 529	2.6400e+01	10.5655	1.660939	-0.000064	-0.643868	-0.218148	0.000029
 530	2.6450e+01	10.6072	1.682121	0.000093	0.930032	0.315103	0.000042
 531	2.6500e+01	10.6152	1.697193	0.000066	0.661753	0.224208	0.000030
 532	2.6550e+01	10.6505	1.712264	0.000066	0.661753	0.224208	0.000030
 533	2.6600e+01	10.6537	1.731410	0.000084	0.840606	0.284805	0.000038
 534	2.6650e+01	10.6778	1.748925	0.000077	0.769065	0.260566	0.000035
 535	2.6700e+01	10.7147	1.767663	0.000082	0.822720	0.278745	0.000037
 536	2.6750e+01	10.7179	1.781105	0.000059	0.590212	0.199969	0.000027
 537	2.6800e+01	10.7387	1.797806	0.000073	0.733294	0.248447	0.000033
 538	2.6850e+01	10.7756	1.812878	0.000066	0.661753	0.224208	0.000030
 539	2.6900e+01	10.7772	1.833652	0.000091	0.912146	0.309044	0.000042
 540	2.6950e+01	10.8029	1.849132	0.000068	0.679638	0.230268	0.000031
 541	2.7000e+01	10.8254	1.865833	0.000073	0.733294	0.248447	0.000033
 542	2.7050e+01	10.8574	1.884978	0.000084	0.840606	0.284805	0.000038
 543	2.7100e+01	10.8703	1.900049	0.000066	0.661753	0.224208	0.000030
 544	2.7150e+01	10.8992	1.917565	0.000077	0.769065	0.260566	0.000035
 545	2.7200e+01	10.9008	1.933451	0.000070	0.697524	0.236327	0.000032
 546	2.7250e+01	10.9152	1.951374	0.000079	0.786950	0.266626	0.000036
 547	2.7300e+01	10.9345	1.970112	0.000082	0.822720	0.278745	0.000037
 548	2.7350e+01	10.9457	1.985591	0.000068	0.679638	0.230268	0.000031
 549	2.7400e+01	11.0115	2.003107	0.000077	0.769065	0.260566	0.000035
 550	2.7450e+01	11.0115	2.016957	-0.000061	-0.608098	-0.206029	0.000028
 551	2.7500e+01	11.0115	2.039360	-0.000098	-0.983687	-0.333282	0.000045
 552	2.7550e+01	11.0484	2.055654	0.000072	0.715409	0.242387	0.000033
 553	2.7600e+01	11.0628	2.071133	0.000068	0.679638	0.230268	0.000031
 554	2.7650e+01	11.1173	2.089056	0.000079	0.786950	0.266626	0.000036
 555	2.7700e+01	11.1013	2.104943	-0.000070	-0.697524	-0.236327	0.000032
 556	2.7750e+01	11.1141	2.124902	0.000088	0.876376	0.296924	0.000040
 557	2.7800e+01	11.1318	2.133864	0.000039	0.393475	0.133313	0.000018
 558	2.7850e+01	11.1655	2.154638	0.000091	0.912146	0.309044	0.000042
 559	2.7900e+01	11.1719	2.172154	0.000077	0.769065	0.260566	0.000035
 560	2.7950e+01	11.2184	2.190077	0.000079	0.786950	0.266626	0.000036
 561	2.8000e+01	11.2312	2.202705	0.000055	0.554442	0.187850	0.000025
 562	2.8050e+01	11.2409	2.222665	0.000088	0.876376	0.296924	0.000040
 563	2.8100e+01	11.2617	2.238958	0.000072	0.715409	0.242387	0.000033
 564	2.8150e+01	11.2810	2.254437	0.000068	0.679638	0.230268	0.000031
 565	2.8200e+01	11.2681	2.271138	-0.000073	-0.733294	-0.248447	0.000033
 566	2.8250e+01	11.2970	2.290283	0.000084	0.840606	0.284805	0.000038
 567	2.8300e+01	11.3243	2.303318	0.000057	0.572327	0.193910	0.000026
 568	2.8350e+01	11.3227	2.321649	-0.000080	-0.804835	-0.272686	0.000037
 569	2.8400e+01	11.3772	2.337943	0.000072	0.715409	0.242387	0.000033
 570	2.8450e+01	11.3804	2.355866	0.000079	0.786950	0.266626	0.000036
 571	2.8500e+01	11.4350	2.375418	0.000086	0.858491	0.290865	0.000039
 572	2.8550e+01	11.4237	2.391712	-0.000072	-0.715409	-0.242387	0.000033
 573	2.8600e+01	11.4430	2.405969	0.000063	0.625983	0.212089	0.000029
 574	2.8650e+01	11.4478	2.423485	0.000077	0.769065	0.260566	0.000035
 575	2.8700e+01	11.4895	2.439371	0.000070	0.697524	0.236327	0.000032
 576	2.8750e+01	11.5056	2.458109	0.000082	0.822720	0.278745	0.000037
 577	2.8800e+01	11.5184	2.473995	0.000070	0.697524	0.236327	0.000032
 578	2.8850e+01	11.5473	2.493140	0.000084	0.840606	0.284805	0.000038
 579	2.8900e+01	11.5729	2.510248	0.000075	0.751179	0.254506	0.000034
 580	2.8950e+01	11.5745	2.526542	0.000072	0.715409	0.242387	0.000033
 581	2.9000e+01	11.6259	2.540392	0.000061	0.608098	0.206029	0.000028
 582	2.9050e+01	11.6596	2.561166	0.000091	0.912146	0.309044	0.000042
 583	2.9100e+01	11.6531	2.574201	-0.000057	-0.572327	-0.193910	0.000026
 584	2.9150e+01	11.7029	2.593754	0.000086	0.858491	0.290865	0.000039
 585	2.9200e+01	11.7077	2.608418	0.000064	0.643868	0.218148	0.000029
 586	2.9250e+01	11.7045	2.626748	-0.000080	-0.804835	-0.272686	0.000037
 587	2.9300e+01	11.7590	2.642227	0.000068	0.679638	0.230268	0.000031
 588	2.9350e+01	11.7783	2.661780	0.000086	0.858491	0.290865	0.000039
 589	2.9400e+01	11.7703	2.677666	-0.000070	-0.697524	-0.236327	0.000032
 590	2.9450e+01	11.8344	2.692331	0.000064	0.643868	0.218148	0.000029
 591	2.9500e+01	11.8441	2.706995	0.000064	0.643868	0.218148	0.000029
 592	2.9550e+01	11.8473	2.727769	0.000091	0.912146	0.309044	0.000042
 593	2.9600e+01	11.8424	2.744063	-0.000072	-0.715409	-0.242387	0.000033
 594	2.9650e+01	11.8809	2.759135	0.000066	0.661753	0.224208	0.000030
 595	2.9700e+01	11.9307	2.775428	0.000072	0.715409	0.242387	0.000033
 596	2.9750e+01	11.9066	2.797425	-0.000097	-0.965802	-0.327223	0.000044
 597	2.9800e+01	11.9580	2.814533	0.000075	0.751179	0.254506	0.000034
 598	2.9850e+01	11.9692	2.830012	0.000068	0.679638	0.230268	0.000031
 599	2.9900e+01	11.9868	2.846306	0.000072	0.715409	0.242387	0.000033
 600	2.9950e+01	12.0093	2.863414	0.000075	0.751179	0.254506	0.000034
 601	3.0000e+01	12.0013	2.880523	-0.000075	-0.751179	-0.254506	0.000034
 602	3.0050e+01	12.0237	2.898039	0.000077	0.769065	0.260566	0.000035
 603	3.0100e+01	12.0606	2.915962	0.000079	0.786950	0.266626	0.000036
 604	3.0150e+01	12.0670	2.937958	0.000097	0.965802	0.327223	0.000044
 605	3.0200e+01	12.1007	2.956696	0.000082	0.822720	0.278745	0.000037
 606	3.0250e+01	12.1120	2.971768	0.000066	0.661753	0.224208	0.000030
 607	3.0300e+01	12.1537	2.988876	0.000075	0.751179	0.254506	0.000034
 608	3.0350e+01	12.1473	3.008428	-0.000086	-0.858491	-0.290865	0.000039
 609	3.0400e+01	12.1713	3.024315	0.000070	0.697524	0.236327	0.000032
 610	3.0450e+01	12.1906	3.045497	0.000093	0.930032	0.315103	0.000042
 611	3.0500e+01	12.2226	3.062605	0.000075	0.751179	0.254506	0.000034
 612	3.0550e+01	12.2515	3.081750	0.000084	0.840606	0.284805	0.000038
 613	3.0600e+01	12.2531	3.097229	0.000068	0.679638	0.230268	0.000031
 614	3.0650e+01	12.2644	3.116782	0.000086	0.858491	0.290865	0.000039
 615	3.0700e+01	12.3045	3.132668	0.000070	0.697524	0.236327	0.000032
 616	3.0750e+01	12.3157	3.150184	0.000077	0.769065	0.260566	0.000035
 617	3.0800e+01	12.3382	3.168514	0.000080	0.804835	0.272686	0.000037
 618	3.0850e+01	12.3654	3.183586	0.000066	0.661753	0.224208	0.000030
 619	3.0900e+01	12.3991	3.201101	0.000077	0.769065	0.260566	0.000035
 620	3.0950e+01	12.3767	3.219025	-0.000079	-0.786950	-0.266626	0.000036
 621	3.1000e+01	12.4280	3.236133	0.000075	0.751179	0.254506	0.000034
 622	3.1050e+01	12.4360	3.254463	0.000080	0.804835	0.272686	0.000037
 623	3.1100e+01	12.4360	3.270350	-0.000070	-0.697524	-0.236327	0.000032
 624	3.1150e+01	12.4825	3.285014	0.000064	0.643868	0.218148	0.000029
 625	3.1200e+01	12.4954	3.307418	0.000098	0.983687	0.333282	0.000045
 626	3.1250e+01	12.5002	3.323304	0.000070	0.697524	0.236327	0.000032
 627	3.1300e+01	12.5258	3.343264	0.000088	0.876376	0.296924	0.000040
 628	3.1350e+01	12.5499	3.363631	0.000089	0.894261	0.302984	0.000041
 629	3.1400e+01	12.5644	3.381147	0.000077	0.769065	0.260566	0.000035
 630	3.1450e+01	12.5932	3.399070	0.000079	0.786950	0.266626	0.000036
 631	3.1500e+01	12.6205	3.411698	0.000055	0.554442	0.187850	0.000025
 632	3.1550e+01	12.6590	3.429213	0.000077	0.769065	0.260566	0.000035
 633	3.1600e+01	12.6558	3.448358	-0.000084	-0.840606	-0.284805	0.000038
 634	3.1650e+01	12.7023	3.466689	0.000080	0.804835	0.272686	0.000037
 635	3.1700e+01	12.6783	3.482982	-0.000072	-0.715409	-0.242387	0.000033
 636	3.1750e+01	12.6991	3.503350	0.000089	0.894261	0.302984	0.000041
 637	3.1800e+01	12.7472	3.517607	0.000063	0.625983	0.212089	0.000029
 638	3.1850e+01	12.7456	3.534715	-0.000075	-0.751179	-0.254506	0.000034
 639	3.1900e+01	12.7633	3.549379	0.000064	0.643868	0.218148	0.000029
 640	3.1950e+01	12.7938	3.565266	0.000070	0.697524	0.236327	0.000032
 641	3.2000e+01	12.8290	3.581967	0.000073	0.733294	0.248447	0.000033
 642	3.2050e+01	12.8371	3.597038	0.000066	0.661753	0.224208	0.000030
 643	3.2100e+01	12.8643	3.610888	0.000061	0.608098	0.206029	0.000028
 644	3.2150e+01	12.8820	3.628811	0.000079	0.786950	0.266626	0.000036
 645	3.2200e+01	12.9093	3.649178	0.000089	0.894261	0.302984	0.000041
 646	3.2250e+01	12.9285	3.660176	0.000048	0.482901	0.163611	0.000022
 647	3.2300e+01	12.9221	3.678507	-0.000080	-0.804835	-0.272686	0.000037
 648	3.2350e+01	12.9542	3.694393	0.000070	0.697524	0.236327	0.000032
 649	3.2400e+01	12.9718	3.709872	0.000068	0.679638	0.230268	0.000031
 650	3.2450e+01	12.9959	3.725351	0.000068	0.679638	0.230268	0.000031
 651	3.2500e+01	13.0328	3.738386	0.000057	0.572327	0.193910	0.000026
 652	3.2550e+01	13.0392	3.757124	0.000082	0.822720	0.278745	0.000037
 653	3.2600e+01	13.0777	3.772603	0.000068	0.679638	0.230268	0.000031
 654	3.2650e+01	13.0713	3.790526	-0.000079	-0.786950	-0.266626	0.000036
 655	3.2700e+01	13.0905	3.810486	0.000088	0.876376	0.296924	0.000040
 656	3.2750e+01	13.1419	3.826780	0.000072	0.715409	0.242387	0.000033
 657	3.2800e+01	13.1483	3.842259	0.000068	0.679638	0.230268	0.000031
 658	3.2850e+01	13.1804	3.864255	0.000097	0.965802	0.327223	0.000044
 659	3.2900e+01	13.1708	3.876475	-0.000054	-0.536557	-0.181790	0.000024
 660	3.2950e+01	13.1836	3.891140	0.000064	0.643868	0.218148	0.000029
 661	3.3000e+01	13.1980	3.912729	0.000095	0.947917	0.321163	0.000043
 662	3.3050e+01	13.2205	3.926579	0.000061	0.608098	0.206029	0.000028
 663	3.3100e+01	13.2895	3.942872	0.000072	0.715409	0.242387	0.000033
 664	3.3150e+01	13.2766	3.959166	-0.000072	-0.715409	-0.242387	0.000033
 665	3.3200e+01	13.2847	3.979940	0.000091	0.912146	0.309044	0.000042
 666	3.3250e+01	13.3312	3.997049	0.000075	0.751179	0.254506	0.000034
 667	3.3300e+01	13.3520	4.014565	0.000077	0.769065	0.260566	0.000035
 668	3.3350e+01	13.3328	4.029636	-0.000066	-0.661753	-0.224208	0.000030
 669	3.3400e+01	13.3889	4.048374	0.000082	0.822720	0.278745	0.000037
 670	3.3450e+01	13.3889	4.063853	-0.000068	-0.679638	-0.230268	0.000031
 671	3.3500e+01	13.4435	4.078110	0.000063	0.625983	0.212089	0.000029
 672	3.3550e+01	13.4675	4.094404	0.000072	0.715409	0.242387	0.000033
 673	3.3600e+01	13.4483	4.111512	-0.000075	-0.751179	-0.254506	0.000034
 674	3.3650e+01	13.4707	4.126176	0.000064	0.643868	0.218148	0.000029
 675	3.3700e+01	13.4804	4.147766	0.000095	0.947917	0.321163	0.000043
 676	3.3750e+01	13.4868	4.161615	0.000061	0.608098	0.206029	0.000028
 677	3.3800e+01	13.5269	4.176280	0.000064	0.643868	0.218148	0.000029
 678	3.3850e+01	13.5461	4.195425	0.000084	0.840606	0.284805	0.000038
 679	3.3900e+01	13.5718	4.212533	0.000075	0.751179	0.254506	0.000034
 680	3.3950e+01	13.5830	4.227605	0.000066	0.661753	0.224208	0.000030
 681	3.4000e+01	13.6087	4.248379	0.000091	0.912146	0.309044	0.000042
 682	3.4050e+01	13.6360	4.262229	0.000061	0.608098	0.206029	0.000028
 683	3.4100e+01	13.6568	4.278522	0.000072	0.715409	0.242387	0.000033
 684	3.4150e+01	13.6793	4.291557	0.000057	0.572327	0.193910	0.000026
 685	3.4200e+01	13.7130	4.312739	0.000093	0.930032	0.315103	0.000042
 686	3.4250e+01	13.7290	4.328626	0.000070	0.697524	0.236327	0.000032
 687	3.4300e+01	13.7370	4.347771	0.000084	0.840606	0.284805	0.000038
 688	3.4350e+01	13.7643	4.359991	0.000054	0.536557	0.181790	0.000024
 689	3.4400e+01	13.7804	4.376285	0.000072	0.715409	0.242387	0.000033
 690	3.4450e+01	13.8012	4.390134	0.000061	0.608098	0.206029	0.000028
 691	3.4500e+01	13.8253	4.405206	0.000066	0.661753	0.224208	0.000030
 692	3.4550e+01	13.8381	4.420278	0.000066	0.661753	0.224208	0.000030
 693	3.4600e+01	13.8782	4.439015	0.000082	0.822720	0.278745	0.000037
 694	3.4650e+01	13.8766	4.453680	-0.000064	-0.643868	-0.218148	0.000029
 695	3.4700e+01	13.8911	4.469973	0.000072	0.715409	0.242387	0.000033
 696	3.4750e+01	13.9263	4.487082	0.000075	0.751179	0.254506	0.000034
 697	3.4800e+01	13.9183	4.500117	-0.000057	-0.572327	-0.193910	0.000026
 698	3.4850e+01	13.9713	4.515596	0.000068	0.679638	0.230268	0.000031
 699	3.4900e+01	13.9648	4.528631	-0.000057	-0.572327	-0.193910	0.000026
 700	3.4950e+01	14.0066	4.546554	0.000079	0.786950	0.266626	0.000036
 701	3.5000e+01	14.0386	4.565292	0.000082	0.822720	0.278745	0.000037
 702	3.5050e+01	14.0354	4.581993	-0.000073	-0.733294	-0.248447	0.000033
 703	3.5100e+01	14.0499	4.592176	0.000045	0.447131	0.151492	0.000020
 704	3.5150e+01	14.0852	4.607655	0.000068	0.679638	0.230268	0.000031
 705	3.5200e+01	14.0980	4.623134	0.000068	0.679638	0.230268	0.000031
 706	3.5250e+01	14.1237	4.637391	0.000063	0.625983	0.212089	0.000029
 707	3.5300e+01	14.1221	4.651241	-0.000061	-0.608098	-0.206029	0.000028
 708	3.5350e+01	14.1590	4.665905	0.000064	0.643868	0.218148	0.000029
 709	3.5400e+01	14.1686	4.683828	0.000079	0.786950	0.266626	0.000036
 710	3.5450e+01	14.2135	4.698900	0.000066	0.661753	0.224208	0.000030
 711	3.5500e+01	14.2344	4.716008	0.000075	0.751179	0.254506	0.000034
 712	3.5550e+01	14.2392	4.729043	0.000057	0.572327	0.193910	0.000026
 713	3.5600e+01	14.2568	4.743708	0.000064	0.643868	0.218148	0.000029
 714	3.5650e+01	14.2969	4.754299	0.000047	0.465016	0.157552	0.000021
 715	3.5700e+01	14.2985	4.771000	0.000073	0.733294	0.248447	0.000033
 716	3.5750e+01	14.2953	4.784442	-0.000059	-0.590212	-0.199969	0.000027
 717	3.5800e+01	14.3258	4.800736	0.000072	0.715409	0.242387	0.000033
 718	3.5850e+01	14.3611	4.816215	0.000068	0.679638	0.230268	0.000031
 719	3.5900e+01	14.4012	4.834952	0.000082	0.822720	0.278745	0.000037
 720	3.5950e+01	14.3980	4.843914	-0.000039	-0.393475	-0.133313	0.000018
 721	3.6000e+01	14.4140	4.864281	0.000089	0.894261	0.302984	0.000041
 722	3.6050e+01	14.4429	4.873243	0.000039	0.393475	0.133313	0.000018
 723	3.6100e+01	14.4894	4.887500	0.000063	0.625983	0.212089	0.000029
 724	3.6150e+01	14.4910	4.903386	0.000070	0.697524	0.236327	0.000032
 725	3.6200e+01	14.4910	4.918865	-0.000068	-0.679638	-0.230268	0.000031
 726	3.6250e+01	14.5167	4.935566	0.000073	0.733294	0.248447	0.000033
 727	3.6300e+01	14.5408	4.945750	0.000045	0.447131	0.151492	0.000020
 728	3.6350e+01	14.5279	4.963673	-0.000079	-0.786950	-0.266626	0.000036
 729	3.6400e+01	14.5664	4.973856	0.000045	0.447131	0.151492	0.000020
 730	3.6450e+01	14.5985	4.988113	0.000063	0.625983	0.212089	0.000029
 731	3.6500e+01	14.6033	5.004814	0.000073	0.733294	0.248447	0.000033
 732	3.6550e+01	14.6146	5.021515	0.000073	0.733294	0.248447	0.000033
 733	3.6600e+01	14.6675	5.030069	0.000038	0.375590	0.127253	0.000017
 734	3.6650e+01	14.6739	5.050437	0.000089	0.894261	0.302984	0.000041
 735	3.6700e+01	14.7156	5.063472	0.000057	0.572327	0.193910	0.000026
 736	3.6750e+01	14.7381	5.081395	0.000079	0.786950	0.266626	0.000036
 737	3.6800e+01	14.7333	5.091171	-0.000043	-0.429245	-0.145432	0.000020
 738	3.6850e+01	14.7493	5.105835	0.000064	0.643868	0.218148	0.000029
 739	3.6900e+01	14.7798	5.118055	0.000054	0.536557	0.181790	0.000024
 740	3.6950e+01	14.7990	5.136793	0.000082	0.822720	0.278745	0.000037
 741	3.7000e+01	14.8087	5.151865	0.000066	0.661753	0.224208	0.000030
 742	3.7050e+01	14.8440	5.163271	0.000050	0.500786	0.169671	0.000023
 743	3.7100e+01	14.8648	5.175083	0.000052	0.518671	0.175731	0.000024
 744	3.7150e+01	14.8921	5.192192	0.000075	0.751179	0.254506	0.000034
 745	3.7200e+01	14.8873	5.204819	-0.000055	-0.554442	-0.187850	0.000025
 746	3.7250e+01	14.9242	5.221520	0.000073	0.733294	0.248447	0.000033
 747	3.7300e+01	14.9290	5.235777	0.000063	0.625983	0.212089	0.000029
 748	3.7350e+01	14.9498	5.247998	0.000054	0.536557	0.181790	0.000024
 749	3.7400e+01	14.9675	5.262662	0.000064	0.643868	0.218148	0.000029
 750	3.7450e+01	15.0092	5.279363	0.000073	0.733294	0.248447	0.000033
 751	3.7500e+01	15.0156	5.291583	0.000054	0.536557	0.181790	0.000024
 752	3.7550e+01	15.0301	5.303396	0.000052	0.518671	0.175731	0.000024
 753	3.7600e+01	15.0397	5.319690	0.000072	0.715409	0.242387	0.000033
 754	3.7650e+01	15.0718	5.332318	0.000055	0.554442	0.187850	0.000025
 755	3.7700e+01	15.1167	5.347389	0.000066	0.661753	0.224208	0.000030
 756	3.7750e+01	15.1199	5.358795	0.000050	0.500786	0.169671	0.000023
 757	3.7800e+01	15.1375	5.378755	0.000088	0.876376	0.296924	0.000040
 758	3.7850e+01	15.1632	5.389753	0.000048	0.482901	0.163611	0.000022
 759	3.7900e+01	15.1937	5.406047	0.000072	0.715409	0.242387	0.000033
 760	3.7950e+01	15.2290	5.419489	0.000059	0.590212	0.199969	0.000027
 761	3.8000e+01	15.2145	5.432117	-0.000055	-0.554442	-0.187850	0.000025
 762	3.8050e+01	15.2530	5.445152	0.000057	0.572327	0.193910	0.000026
 763	3.8100e+01	15.2643	5.460631	0.000068	0.679638	0.230268	0.000031
 764	3.8150e+01	15.2739	5.473258	0.000055	0.554442	0.187850	0.000025
 765	3.8200e+01	15.2964	5.485886	0.000055	0.554442	0.187850	0.000025
 766	3.8250e+01	15.3172	5.496477	0.000047	0.465016	0.157552	0.000021
 767	3.8300e+01	15.3172	5.511548	-0.000066	-0.661753	-0.224208	0.000030
 768	3.8350e+01	15.3477	5.525398	0.000061	0.608098	0.206029	0.000028
 769	3.8400e+01	15.3637	5.544950	0.000086	0.858491	0.290865	0.000039
 770	3.8450e+01	15.4103	5.553505	0.000038	0.375590	0.127253	0.000017
 771	3.8500e+01	15.4327	5.563688	0.000045	0.447131	0.151492	0.000020
 772	3.8550e+01	15.4375	5.581204	0.000077	0.769065	0.260566	0.000035
 773	3.8600e+01	15.4744	5.590980	0.000043	0.429245	0.145432	0.000020
 774	3.8650e+01	15.4921	5.600756	0.000043	0.429245	0.145432	0.000020
 775	3.8700e+01	15.5033	5.616643	0.000070	0.697524	0.236327	0.000032
 776	3.8750e+01	15.5322	5.628863	0.000054	0.536557	0.181790	0.000024
 777	3.8800e+01	15.5161	5.643527	-0.000064	-0.643868	-0.218148	0.000029
 778	3.8850e+01	15.5514	5.656562	0.000057	0.572327	0.193910	0.000026
 779	3.8900e+01	15.5771	5.667968	0.000050	0.500786	0.169671	0.000023
 780	3.8950e+01	15.5996	5.681818	0.000061	0.608098	0.206029	0.000028
 781	3.9000e+01	15.6220	5.693223	0.000050	0.500786	0.169671	0.000023
 782	3.9050e+01	15.6429	5.705851	0.000055	0.554442	0.187850	0.000025
 783	3.9100e+01	15.6573	5.716442	0.000047	0.465016	0.157552	0.000021
 784	3.9150e+01	15.6846	5.733143	0.000073	0.733294	0.248447	0.000033
 785	3.9200e+01	15.6910	5.744548	0.000050	0.500786	0.169671	0.000023
 786	3.9250e+01	15.7151	5.758398	0.000061	0.608098	0.206029	0.000028
 787	3.9300e+01	15.7391	5.775914	0.000077	0.769065	0.260566	0.000035
 788	3.9350e+01	15.7520	5.785690	0.000043	0.429245	0.145432	0.000020
 789	3.9400e+01	15.7776	5.801169	0.000068	0.679638	0.230268	0.000031
 790	3.9450e+01	15.8225	5.808908	0.000034	0.339819	0.115134	0.000015
 791	3.9500e+01	15.8274	5.824795	0.000070	0.697524	0.236327	0.000032
 792	3.9550e+01	15.8402	5.834164	0.000041	0.411360	0.139373	0.000019
 793	3.9600e+01	15.8418	5.852901	0.000082	0.822720	0.278745	0.000037
 794	3.9650e+01	15.8771	5.863492	0.000047	0.465016	0.157552	0.000021
 795	3.9700e+01	15.8931	5.874491	0.000048	0.482901	0.163611	0.000022
 796	3.9750e+01	15.9316	5.886711	0.000054	0.536557	0.181790	0.000024
 797	3.9800e+01	15.9316	5.901783	-0.000066	-0.661753	-0.224208	0.000030
 798	3.9850e+01	15.9862	5.912781	0.000048	0.482901	0.163611	0.000022
 799	3.9900e+01	15.9782	5.927445	-0.000064	-0.643868	-0.218148	0.000029
 800	3.9950e+01	15.9910	5.939665	0.000054	0.536557	0.181790	0.000024
 801	4.0000e+01	16.0135	5.952700	0.000057	0.572327	0.193910	0.000026
 802	4.0050e+01	16.0231	5.965735	0.000057	0.572327	0.193910	0.000026
 803	4.0100e+01	16.0648	5.981622	0.000070	0.697524	0.236327	0.000032
 804	4.0150e+01	16.0872	5.995064	0.000059	0.590212	0.199969	0.000027
 805	4.0200e+01	16.0937	6.010136	0.000066	0.661753	0.224208	0.000030
 806	4.0250e+01	16.1274	6.021949	0.000052	0.518671	0.175731	0.000024
 807	4.0300e+01	16.1482	6.034169	0.000054	0.536557	0.181790	0.000024
 808	4.0350e+01	16.1514	6.045574	0.000050	0.500786	0.169671	0.000023
 809	4.0400e+01	16.1995	6.062276	0.000073	0.733294	0.248447	0.000033
 810	4.0450e+01	16.1867	6.076533	-0.000063	-0.625983	-0.212089	0.000029
 811	4.0500e+01	16.2188	6.091197	0.000064	0.643868	0.218148	0.000029
 812	4.0550e+01	16.2429	6.107898	0.000073	0.733294	0.248447	0.000033
 813	4.0600e+01	16.2396	6.117267	-0.000041	-0.411360	-0.139373	0.000019
 814	4.0650e+01	16.2942	6.132746	0.000068	0.679638	0.230268	0.000031
 815	4.0700e+01	16.2749	6.145373	-0.000055	-0.554442	-0.187850	0.000025
 816	4.0750e+01	16.3279	6.160852	0.000068	0.679638	0.230268	0.000031
 817	4.0800e+01	16.3215	6.171443	-0.000047	-0.465016	-0.157552	0.000021
 818	4.0850e+01	16.3584	6.190181	0.000082	0.822720	0.278745	0.000037
 819	4.0900e+01	16.3856	6.200365	0.000045	0.447131	0.151492	0.000020
 820	4.0950e+01	16.4017	6.214622	0.000063	0.625983	0.212089	0.000029
 821	4.1000e+01	16.4161	6.227657	0.000057	0.572327	0.193910	0.000026
 822	4.1050e+01	16.4402	6.241506	0.000061	0.608098	0.206029	0.000028
 823	4.1100e+01	16.4626	6.252504	0.000048	0.482901	0.163611	0.000022
 824	4.1150e+01	16.4931	6.265947	0.000059	0.590212	0.199969	0.000027
 825	4.1200e+01	16.5140	6.279796	0.000061	0.608098	0.206029	0.000028
 826	4.1250e+01	16.4931	6.289573	-0.000043	-0.429245	-0.145432	0.000020
 827	4.1300e+01	16.5332	6.300978	0.000050	0.500786	0.169671	0.000023
 828	4.1350e+01	16.5685	6.315643	0.000064	0.643868	0.218148	0.000029
 829	4.1400e+01	16.5589	6.329085	-0.000059	-0.590212	-0.199969	0.000027
 830	4.1450e+01	16.5926	6.341305	0.000054	0.536557	0.181790	0.000024
 831	4.1500e+01	16.6359	6.355970	0.000064	0.643868	0.218148	0.000029
 832	4.1550e+01	16.6311	6.366153	-0.000045	-0.447131	-0.151492	0.000020
 833	4.1600e+01	16.6680	6.380003	0.000061	0.608098	0.206029	0.000028
 834	4.1650e+01	16.6680	6.395074	-0.000066	-0.661753	-0.224208	0.000030
 835	4.1700e+01	16.6824	6.407295	0.000054	0.536557	0.181790	0.000024
 836	4.1750e+01	16.7402	6.423181	0.000070	0.697524	0.236327	0.000032
 837	4.1800e+01	16.7305	6.433772	-0.000047	-0.465016	-0.157552	0.000021
 838	4.1850e+01	16.7642	6.449658	0.000070	0.697524	0.236327	0.000032
 839	4.1900e+01	16.7562	6.459435	-0.000043	-0.429245	-0.145432	0.000020
 840	4.1950e+01	16.7979	6.475321	0.000070	0.697524	0.236327	0.000032
 841	4.2000e+01	16.8108	6.488356	0.000057	0.572327	0.193910	0.000026
 842	4.2050e+01	16.8236	6.503020	0.000064	0.643868	0.218148	0.000029
 843	4.2100e+01	16.8717	6.516055	0.000057	0.572327	0.193910	0.000026
 844	4.2150e+01	16.8733	6.527868	0.000052	0.518671	0.175731	0.000024
 845	4.2200e+01	16.8813	6.541310	0.000059	0.590212	0.199969	0.000027
 846	4.2250e+01	16.9198	6.557604	0.000072	0.715409	0.242387	0.000033
 847	4.2300e+01	16.9279	6.567380	0.000043	0.429245	0.145432	0.000020
 848	4.2350e+01	16.9535	6.582452	0.000066	0.661753	0.224208	0.000030
 849	4.2400e+01	16.9968	6.596302	0.000061	0.608098	0.206029	0.000028
 850	4.2450e+01	17.0081	6.606893	0.000047	0.465016	0.157552	0.000021
 851	4.2500e+01	17.0353	6.625630	0.000082	0.822720	0.278745	0.000037
 852	4.2550e+01	17.0225	6.637443	-0.000052	-0.518671	-0.175731	0.000024
 853	4.2600e+01	17.0514	6.648034	0.000047	0.465016	0.157552	0.000021
 854	4.2650e+01	17.0883	6.663106	0.000066	0.661753	0.224208	0.000030
 855	4.2700e+01	17.0883	6.677770	-0.000064	-0.643868	-0.218148	0.000029
 856	4.2750e+01	17.1204	6.692434	0.000064	0.643868	0.218148	0.000029
 857	4.2800e+01	17.1685	6.707913	0.000068	0.679638	0.230268	0.000031
 858	4.2850e+01	17.1492	6.720134	-0.000054	-0.536557	-0.181790	0.000024
 859	4.2900e+01	17.1926	6.737649	0.000077	0.769065	0.260566	0.000035
 860	4.2950e+01	17.1990	6.750684	0.000057	0.572327	0.193910	0.000026
 861	4.3000e+01	17.1910	6.765756	-0.000066	-0.661753	-0.224208	0.000030
 862	4.3050e+01	17.2359	6.780828	0.000066	0.661753	0.224208	0.000030
 863	4.3100e+01	17.2423	6.795492	0.000064	0.643868	0.218148	0.000029
 864	4.3150e+01	17.2872	6.811378	0.000070	0.697524	0.236327	0.000032
 865	4.3200e+01	17.2904	6.824006	0.000055	0.554442	0.187850	0.000025
 866	4.3250e+01	17.3225	6.839078	0.000066	0.661753	0.224208	0.000030
 867	4.3300e+01	17.3434	6.853335	0.000063	0.625983	0.212089	0.000029
 868	4.3350e+01	17.3482	6.867184	0.000061	0.608098	0.206029	0.000028
 869	4.3400e+01	17.3867	6.884700	0.000077	0.769065	0.260566	0.000035
 870	4.3450e+01	17.3995	6.898142	0.000059	0.590212	0.199969	0.000027
 871	4.3500e+01	17.4284	6.913214	0.000066	0.661753	0.224208	0.000030
 872	4.3550e+01	17.4444	6.931137	0.000079	0.786950	0.266626	0.000036
 873	4.3600e+01	17.4605	6.949468	0.000080	0.804835	0.272686	0.000037
 874	4.3650e+01	17.4797	6.958022	0.000038	0.375590	0.127253	0.000017
 875	4.3700e+01	17.5102	6.975130	0.000075	0.751179	0.254506	0.000034
 876	4.3750e+01	17.5262	6.991424	0.000072	0.715409	0.242387	0.000033
 877	4.3800e+01	17.5391	7.005274	0.000061	0.608098	0.206029	0.000028
 878	4.3850e+01	17.5599	7.021975	0.000073	0.733294	0.248447	0.000033
 879	4.3900e+01	17.5663	7.037861	0.000070	0.697524	0.236327	0.000032
 880	4.3950e+01	17.5776	7.050896	0.000057	0.572327	0.193910	0.000026
 881	4.4000e+01	17.6257	7.066782	0.000070	0.697524	0.236327	0.000032
 882	4.4050e+01	17.6466	7.084705	0.000079	0.786950	0.266626	0.000036
 883	4.4100e+01	17.6177	7.100184	-0.000068	-0.679638	-0.230268	0.000031
 884	4.4150e+01	17.6594	7.112405	0.000054	0.536557	0.181790	0.000024
 885	4.4200e+01	17.6674	7.130328	0.000079	0.786950	0.266626	0.000036
 886	4.4250e+01	17.7123	7.143363	0.000057	0.572327	0.193910	0.000026
 887	4.4300e+01	17.7460	7.157212	0.000061	0.608098	0.206029	0.000028
 888	4.4350e+01	17.7396	7.176357	-0.000084	-0.840606	-0.284805	0.000038
 889	4.4400e+01	17.7669	7.189392	0.000057	0.572327	0.193910	0.000026
 890	4.4450e+01	17.7974	7.202835	0.000059	0.590212	0.199969	0.000027
 891	4.4500e+01	17.8070	7.220350	0.000077	0.769065	0.260566	0.000035
 892	4.4550e+01	17.8535	7.238273	0.000079	0.786950	0.266626	0.000036
 893	4.4600e+01	17.8503	7.246013	-0.000034	-0.339819	-0.115134	0.000015
 894	4.4650e+01	17.8535	7.268009	0.000097	0.965802	0.327223	0.000044
 895	4.4700e+01	17.8872	7.282674	0.000064	0.643868	0.218148	0.000029
 896	4.4750e+01	17.9000	7.296931	0.000063	0.625983	0.212089	0.000029
 897	4.4800e+01	17.9482	7.310780	0.000061	0.608098	0.206029	0.000028
 898	4.4850e+01	17.9482	7.326259	-0.000068	-0.679638	-0.230268	0.000031
 899	4.4900e+01	17.9818	7.339702	0.000059	0.590212	0.199969	0.000027
 900	4.4950e+01	18.0059	7.359662	0.000088	0.876376	0.296924	0.000040
 901	4.5000e+01	18.0300	7.374326	0.000064	0.643868	0.218148	0.000029
 902	4.5050e+01	18.0492	7.390212	0.000070	0.697524	0.236327	0.000032
 903	4.5100e+01	18.0669	7.397952	0.000034	0.339819	0.115134	0.000015
 904	4.5150e+01	18.0813	7.417504	0.000086	0.858491	0.290865	0.000039
 905	4.5200e+01	18.1038	7.435835	0.000080	0.804835	0.272686	0.000037
 906	4.5250e+01	18.1150	7.451314	0.000068	0.679638	0.230268	0.000031
 907	4.5300e+01	18.1487	7.465571	0.000063	0.625983	0.212089	0.000029
 908	4.5350e+01	18.1631	7.483901	0.000080	0.804835	0.272686	0.000037
 909	4.5400e+01	18.1792	7.495307	0.000050	0.500786	0.169671	0.000023
 910	4.5450e+01	18.1952	7.514859	0.000086	0.858491	0.290865	0.000039
 911	4.5500e+01	18.2048	7.528709	0.000061	0.608098	0.206029	0.000028
 912	4.5550e+01	18.2610	7.539707	0.000048	0.482901	0.163611	0.000022
 913	4.5600e+01	18.2562	7.560481	-0.000091	-0.912146	-0.309044	0.000042
 914	4.5650e+01	18.2818	7.571887	0.000050	0.500786	0.169671	0.000023
 915	4.5700e+01	18.3059	7.588181	0.000072	0.715409	0.242387	0.000033
 916	4.5750e+01	18.3075	7.604067	0.000070	0.697524	0.236327	0.000032
 917	4.5800e+01	18.3348	7.625249	0.000093	0.930032	0.315103	0.000042
 918	4.5850e+01	18.3508	7.635432	0.000045	0.447131	0.151492	0.000020
 919	4.5900e+01	18.3861	7.650911	0.000068	0.679638	0.230268	0.000031
 920	4.5950e+01	18.3861	7.663539	-0.000055	-0.554442	-0.187850	0.000025
 921	4.6000e+01	18.4102	7.683906	0.000089	0.894261	0.302984	0.000041
 922	4.6050e+01	18.4230	7.700200	0.000072	0.715409	0.242387	0.000033
 923	4.6100e+01	18.4599	7.714457	0.000063	0.625983	0.212089	0.000029
 924	4.6150e+01	18.4840	7.729936	0.000068	0.679638	0.230268	0.000031
 925	4.6200e+01	18.4952	7.745008	0.000066	0.661753	0.224208	0.000030
 926	4.6250e+01	18.5145	7.758857	0.000061	0.608098	0.206029	0.000028
 927	4.6300e+01	18.5433	7.776780	0.000079	0.786950	0.266626	0.000036
 928	4.6350e+01	18.5706	7.793074	0.000072	0.715409	0.242387	0.000033
 929	4.6400e+01	18.5898	7.809775	0.000073	0.733294	0.248447	0.000033
 930	4.6450e+01	18.5979	7.828105	0.000080	0.804835	0.272686	0.000037
 931	4.6500e+01	18.5866	7.838289	-0.000045	-0.447131	-0.151492	0.000020
 932	4.6550e+01	18.6107	7.858249	0.000088	0.876376	0.296924	0.000040
 933	4.6600e+01	18.6508	7.874543	0.000072	0.715409	0.242387	0.000033
 934	4.6650e+01	18.6989	7.890022	0.000068	0.679638	0.230268	0.000031
 935	4.6700e+01	18.7054	7.907537	0.000077	0.769065	0.260566	0.000035
 936	4.6750e+01	18.7118	7.921387	0.000061	0.608098	0.206029	0.000028
 937	4.6800e+01	18.7390	7.943383	0.000097	0.965802	0.327223	0.000044
 938	4.6850e+01	18.7487	7.959270	0.000070	0.697524	0.236327	0.000032
 939	4.6900e+01	18.7599	7.975971	0.000073	0.733294	0.248447	0.000033
 940	4.6950e+01	18.7872	7.993894	0.000079	0.786950	0.266626	0.000036
 941	4.7000e+01	18.8193	8.010595	0.000073	0.733294	0.248447	0.000033
 942	4.7050e+01	18.8369	8.028925	0.000080	0.804835	0.272686	0.000037
 943	4.7100e+01	18.8529	8.044812	0.000070	0.697524	0.236327	0.000032
 944	4.7150e+01	18.8722	8.061920	0.000075	0.751179	0.254506	0.000034
 945	4.7200e+01	18.9107	8.079028	0.000075	0.751179	0.254506	0.000034
 946	4.7250e+01	18.8930	8.100210	-0.000093	-0.930032	-0.315103	0.000042
 947	4.7300e+01	18.9620	8.114875	0.000064	0.643868	0.218148	0.000029
 948	4.7350e+01	18.9636	8.131168	0.000072	0.715409	0.242387	0.000033
 949	4.7400e+01	18.9717	8.146240	0.000066	0.661753	0.224208	0.000030
 950	4.7450e+01	18.9845	8.163348	0.000075	0.751179	0.254506	0.000034
 951	4.7500e+01	19.0358	8.180457	0.000075	0.751179	0.254506	0.000034
 952	4.7550e+01	19.0246	8.197565	-0.000075	-0.751179	-0.254506	0.000034
 953	4.7600e+01	19.0374	8.211007	0.000059	0.590212	0.199969	0.000027
 954	4.7650e+01	19.0631	8.230967	0.000088	0.876376	0.296924	0.000040
 955	4.7700e+01	19.0936	8.246854	0.000070	0.697524	0.236327	0.000032
 956	4.7750e+01	19.1273	8.261925	0.000066	0.661753	0.224208	0.000030
 957	4.7800e+01	19.1433	8.277404	0.000068	0.679638	0.230268	0.000031
 958	4.7850e+01	19.1465	8.294513	0.000075	0.751179	0.254506	0.000034
 959	4.7900e+01	19.1674	8.313658	0.000084	0.840606	0.284805	0.000038
 960	4.7950e+01	19.1802	8.330766	0.000075	0.751179	0.254506	0.000034
 961	4.8000e+01	19.2203	8.350319	0.000086	0.858491	0.290865	0.000039
 962	4.8050e+01	19.2540	8.367427	0.000075	0.751179	0.254506	0.000034
 963	4.8100e+01	19.2668	8.384535	0.000075	0.751179	0.254506	0.000034
 964	4.8150e+01	19.2765	8.401644	0.000075	0.751179	0.254506	0.000034
 965	4.8200e+01	19.2925	8.415901	0.000063	0.625983	0.212089	0.000029
 966	4.8250e+01	19.2893	8.434639	-0.000082	-0.822720	-0.278745	0.000037
 967	4.8300e+01	19.3567	8.449710	0.000066	0.661753	0.224208	0.000030
 968	4.8350e+01	19.3615	8.472114	0.000098	0.983687	0.333282	0.000045
 969	4.8400e+01	19.3583	8.485149	-0.000057	-0.572327	-0.193910	0.000026
 970	4.8450e+01	19.3711	8.498184	0.000057	0.572327	0.193910	0.000026
 971	4.8500e+01	19.4241	8.509590	0.000050	0.500786	0.169671	0.000023
 972	4.8550e+01	19.4433	8.534030	0.000107	1.073113	0.363581	0.000049
 973	4.8600e+01	19.4609	8.545843	0.000052	0.518671	0.175731	0.000024
 974	4.8650e+01	19.4722	8.562544	0.000073	0.733294	0.248447	0.000033
 975	4.8700e+01	19.5011	8.579245	0.000073	0.733294	0.248447	0.000033
 976	4.8750e+01	19.5027	8.594317	0.000066	0.661753	0.224208	0.000030
 977	4.8800e+01	19.5412	8.608574	0.000063	0.625983	0.212089	0.000029
 978	4.8850e+01	19.5363	8.624460	-0.000070	-0.697524	-0.236327	0.000032
 979	4.8900e+01	19.5732	8.641976	0.000077	0.769065	0.260566	0.000035
 980	4.8950e+01	19.5893	8.658677	0.000073	0.733294	0.248447	0.000033
 981	4.9000e+01	19.6246	8.674156	0.000068	0.679638	0.230268	0.000031
 982	4.9050e+01	19.6198	8.688413	-0.000063	-0.625983	-0.212089	0.000029
 983	4.9100e+01	19.6535	8.708373	0.000088	0.876376	0.296924	0.000040
 984	4.9150e+01	19.6871	8.720593	0.000054	0.536557	0.181790	0.000024
 985	4.9200e+01	19.6952	8.733628	0.000057	0.572327	0.193910	0.000026
 986	4.9250e+01	19.7224	8.751551	0.000079	0.786950	0.266626	0.000036
 987	4.9300e+01	19.7529	8.770289	0.000082	0.822720	0.278745	0.000037
 988	4.9350e+01	19.7658	8.786990	0.000073	0.733294	0.248447	0.000033
 989	4.9400e+01	19.7866	8.803691	0.000073	0.733294	0.248447	0.000033
 990	4.9450e+01	19.8026	8.820392	0.000073	0.733294	0.248447	0.000033
 991	4.9500e+01	19.8091	8.839130	0.000082	0.822720	0.278745	0.000037
 992	4.9550e+01	19.8171	8.852979	0.000061	0.608098	0.206029	0.000028
 993	4.9600e+01	19.8476	8.872532	0.000086	0.858491	0.290865	0.000039
 994	4.9650e+01	19.8732	8.888011	0.000068	0.679638	0.230268	0.000031
 995	4.9700e+01	19.8797	8.904305	0.000072	0.715409	0.242387	0.000033
 996	4.9750e+01	19.9246	8.919784	0.000068	0.679638	0.230268	0.000031
 997	4.9800e+01	19.9422	8.941780	0.000097	0.965802	0.327223	0.000044
 998	4.9850e+01	19.9567	8.955222	0.000059	0.590212	0.199969	0.000027
 999	4.9900e+01	19.9663	8.971923	0.000073	0.733294	0.248447	0.000033
1000	4.9950e+01	19.9871	8.991068	0.000084	0.840606	0.284805	0.000038
1001	5.0000e+01	20.0080	9.009806	0.000082	0.822720	0.278745	0.000037
1002	5.0050e+01	19.9968	9.004918	0.000021	0.214623	0.072716	-0.000010
1003	5.0100e+01	19.9679	8.995957	0.000039	0.393475	0.133313	-0.000018
1004	5.0150e+01	19.9470	8.986588	0.000041	0.411360	0.139373	-0.000019
1005	5.0200e+01	19.9390	8.979663	0.000030	0.304049	0.103015	-0.000014
1006	5.0250e+01	19.9117	8.974367	0.000023	0.232508	0.078776	-0.000011
1007	5.0300e+01	19.9005	8.968257	0.000027	0.268278	0.090895	-0.000012
1008	5.0350e+01	19.8861	8.955222	0.000057	0.572327	0.193910	-0.000026
1009	5.0400e+01	19.8572	8.949927	0.000023	0.232508	0.078776	-0.000011
1010	5.0450e+01	19.8363	8.938929	0.000048	0.482901	0.163611	-0.000022
1011	5.0500e+01	19.8347	8.934448	0.000020	0.196737	0.066656	-0.000009
1012	5.0550e+01	19.7898	8.921820	0.000055	0.554442	0.187850	-0.000025
1013	5.0600e+01	19.7674	8.915303	0.000029	0.286164	0.096955	-0.000013
1014	5.0650e+01	19.7802	8.910822	-0.000020	-0.196737	-0.066656	-0.000009
1015	5.0700e+01	19.7337	8.899824	0.000048	0.482901	0.163611	-0.000022
1016	5.0750e+01	19.7112	8.892899	0.000030	0.304049	0.103015	-0.000014
1017	5.0800e+01	19.7000	8.885567	0.000032	0.321934	0.109074	-0.000015
1018	5.0850e+01	19.6695	8.874976	0.000047	0.465016	0.157552	-0.000021
1019	5.0900e+01	19.6374	8.864792	0.000045	0.447131	0.151492	-0.000020
1020	5.0950e+01	19.6406	8.860312	-0.000020	-0.196737	-0.066656	-0.000009
1021	5.1000e+01	19.6150	8.848906	0.000050	0.500786	0.169671	-0.000023
1022	5.1050e+01	19.5765	8.842388	0.000029	0.286164	0.096955	-0.000013
1023	5.1100e+01	19.5909	8.830576	-0.000052	-0.518671	-0.175731	-0.000024
1024	5.1150e+01	19.5508	8.821614	0.000039	0.393475	0.133313	-0.000018
1025	5.1200e+01	19.5396	8.807357	0.000063	0.625983	0.212089	-0.000029
1026	5.1250e+01	19.5315	8.800432	0.000030	0.304049	0.103015	-0.000014
1027	5.1300e+01	19.4706	8.796359	0.000018	0.178852	0.060597	-0.000008
1028	5.1350e+01	19.4786	8.779658	-0.000073	-0.733294	-0.248447	-0.000033
1029	5.1400e+01	19.4385	8.771103	0.000038	0.375590	0.127253	-0.000017
1030	5.1450e+01	19.4353	8.762549	0.000038	0.375590	0.127253	-0.000017
1031	5.1500e+01	19.4176	8.751144	0.000050	0.500786	0.169671	-0.000023
1032	5.1550e+01	19.4016	8.745848	0.000023	0.232508	0.078776	-0.000011
1033	5.1600e+01	19.3823	8.730777	0.000066	0.661753	0.224208	-0.000030
1034	5.1650e+01	19.3583	8.723444	0.000032	0.321934	0.109074	-0.000015
1035	5.1700e+01	19.3519	8.711224	0.000054	0.536557	0.181790	-0.000024
1036	5.1750e+01	19.3134	8.699411	0.000052	0.518671	0.175731	-0.000024
1037	5.1800e+01	19.2877	8.693301	0.000027	0.268278	0.090895	-0.000012
1038	5.1850e+01	19.2636	8.679044	0.000063	0.625983	0.212089	-0.000029
1039	5.1900e+01	19.2412	8.668453	0.000047	0.465016	0.157552	-0.000021
1040	5.1950e+01	19.2364	8.660306	0.000036	0.357704	0.121194	-0.000016
1041	5.2000e+01	19.2059	8.648493	0.000052	0.518671	0.175731	-0.000024
1042	5.2050e+01	19.1898	8.637902	0.000047	0.465016	0.157552	-0.000021
1043	5.2100e+01	19.1786	8.624460	0.000059	0.590212	0.199969	-0.000027
1044	5.2150e+01	19.1594	8.613462	0.000048	0.482901	0.163611	-0.000022
1045	5.2200e+01	19.1417	8.602464	0.000048	0.482901	0.163611	-0.000022
1046	5.2250e+01	19.1176	8.592687	0.000043	0.429245	0.145432	-0.000020
1047	5.2300e+01	19.1032	8.578838	0.000061	0.608098	0.206029	-0.000028
1048	5.2350e+01	19.0775	8.569469	0.000041	0.411360	0.139373	-0.000019
1049	5.2400e+01	19.0743	8.558063	0.000050	0.500786	0.169671	-0.000023
1050	5.2450e+01	19.0246	8.548287	0.000043	0.429245	0.145432	-0.000020
1051	5.2500e+01	19.0262	8.534845	-0.000059	-0.590212	-0.199969	-0.000027
1052	5.2550e+01	18.9845	8.519773	0.000066	0.661753	0.224208	-0.000030
1053	5.2600e+01	18.9845	8.512034	0.000034	0.339819	0.115134	-0.000015
1054	5.2650e+01	18.9749	8.498591	0.000059	0.590212	0.199969	-0.000027
1055	5.2700e+01	18.9476	8.488408	0.000045	0.447131	0.151492	-0.000020
1056	5.2750e+01	18.9123	8.474558	0.000061	0.608098	0.206029	-0.000028
1057	5.2800e+01	18.8947	8.466411	0.000036	0.357704	0.121194	-0.000016
1058	5.2850e+01	18.8802	8.455413	0.000048	0.482901	0.163611	-0.000022
1059	5.2900e+01	18.8578	8.440749	0.000064	0.643868	0.218148	-0.000029
1060	5.2950e+01	18.8289	8.428121	0.000055	0.554442	0.187850	-0.000025
1061	5.3000e+01	18.8048	8.416308	0.000052	0.518671	0.175731	-0.000024
1062	5.3050e+01	18.8160	8.406532	-0.000043	-0.429245	-0.145432	-0.000020
1063	5.3100e+01	18.7888	8.395534	0.000048	0.482901	0.163611	-0.000022
1064	5.3150e+01	18.7423	8.382091	0.000059	0.590212	0.199969	-0.000027
1065	5.3200e+01	18.7599	8.374352	-0.000034	-0.339819	-0.115134	-0.000015
1066	5.3250e+01	18.6957	8.358465	0.000070	0.697524	0.236327	-0.000032
1067	5.3300e+01	18.6765	8.348282	0.000045	0.447131	0.151492	-0.000020
1068	5.3350e+01	18.6909	8.334432	-0.000061	-0.608098	-0.206029	-0.000028
1069	5.3400e+01	18.6636	8.325471	0.000039	0.393475	0.133313	-0.000018
1070	5.3450e+01	18.6332	8.307955	0.000077	0.769065	0.260566	-0.000035
1071	5.3500e+01	18.6267	8.299401	0.000038	0.375590	0.127253	-0.000017
1072	5.3550e+01	18.5947	8.290032	0.000041	0.411360	0.139373	-0.000019
1073	5.3600e+01	18.5770	8.274960	0.000066	0.661753	0.224208	-0.000030
1074	5.3650e+01	18.5562	8.263962	0.000048	0.482901	0.163611	-0.000022
1075	5.3700e+01	18.5401	8.252149	0.000052	0.518671	0.175731	-0.000024
1076	5.3750e+01	18.5305	8.233411	0.000082	0.822720	0.278745	-0.000037
1077	5.3800e+01	18.5000	8.223228	0.000045	0.447131	0.151492	-0.000020
1078	5.3850e+01	18.4824	8.212637	0.000047	0.465016	0.157552	-0.000021
1079	5.3900e+01	18.4310	8.200824	0.000052	0.518671	0.175731	-0.000024
1080	5.3950e+01	18.4439	8.190233	-0.000047	-0.465016	-0.157552	-0.000021
1081	5.4000e+01	18.4022	8.176791	0.000059	0.590212	0.199969	-0.000027
1082	5.4050e+01	18.3909	8.163756	0.000057	0.572327	0.193910	-0.000026
1083	5.4100e+01	18.3701	8.148684	0.000066	0.661753	0.224208	-0.000030
1084	5.4150e+01	18.3556	8.137686	0.000048	0.482901	0.163611	-0.000022
1085	5.4200e+01	18.3268	8.126280	0.000050	0.500786	0.169671	-0.000023
1086	5.4250e+01	18.3059	8.114875	0.000050	0.500786	0.169671	-0.000023
1087	5.4300e+01	18.2963	8.098581	0.000072	0.715409	0.242387	-0.000033
1088	5.4350e+01	18.2899	8.085953	0.000055	0.554442	0.187850	-0.000025
1089	5.4400e+01	18.2289	8.073326	0.000055	0.554442	0.187850	-0.000025
1090	5.4450e+01	18.2562	8.064364	-0.000039	-0.393475	-0.133313	-0.000018
1091	5.4500e+01	18.2032	8.054995	0.000041	0.411360	0.139373	-0.000019
1092	5.4550e+01	18.2321	8.039109	-0.000070	-0.697524	-0.236327	-0.000032
1093	5.4600e+01	18.1711	8.024037	0.000066	0.661753	0.224208	-0.000030
1094	5.4650e+01	18.1599	8.011410	0.000055	0.554442	0.187850	-0.000025
1095	5.4700e+01	18.1423	7.999189	0.000054	0.536557	0.181790	-0.000024
1096	5.4750e+01	18.1198	7.986562	0.000055	0.554442	0.187850	-0.000025
1097	5.4800e+01	18.0813	7.973119	0.000059	0.590212	0.199969	-0.000027
1098	5.4850e+01	18.0733	7.958455	0.000064	0.643868	0.218148	-0.000029
1099	5.4900e+01	18.0284	7.945420	0.000057	0.572327	0.193910	-0.000026
1100	5.4950e+01	18.0396	7.932385	-0.000057	-0.572327	-0.193910	-0.000026
1101	5.5000e+01	18.0075	7.919758	0.000055	0.554442	0.187850	-0.000025
1102	5.5050e+01	17.9626	7.904686	0.000066	0.661753	0.224208	-0.000030
1103	5.5100e+01	18.0011	7.892466	-0.000054	-0.536557	-0.181790	-0.000024
1104	5.5150e+01	17.9738	7.877801	0.000064	0.643868	0.218148	-0.000029
1105	5.5200e+01	17.9305	7.864359	0.000059	0.590212	0.199969	-0.000027
1106	5.5250e+01	17.9000	7.846029	0.000080	0.804835	0.272686	-0.000037
1107	5.5300e+01	17.8856	7.832994	0.000057	0.572327	0.193910	-0.000026
1108	5.5350e+01	17.8760	7.821588	0.000050	0.500786	0.169671	-0.000023
1109	5.5400e+01	17.8391	7.805702	0.000070	0.697524	0.236327	-0.000032
1110	5.5450e+01	17.8455	7.791445	-0.000063	-0.625983	-0.212089	-0.000029
1111	5.5500e+01	17.8230	7.774744	0.000073	0.733294	0.248447	-0.000033
1112	5.5550e+01	17.8102	7.762523	0.000054	0.536557	0.181790	-0.000024
1113	5.5600e+01	17.7845	7.748266	0.000063	0.625983	0.212089	-0.000029
1114	5.5650e+01	17.7492	7.736046	0.000054	0.536557	0.181790	-0.000024
1115	5.5700e+01	17.7428	7.721382	0.000064	0.643868	0.218148	-0.000029
1116	5.5750e+01	17.7171	7.706310	0.000066	0.661753	0.224208	-0.000030
1117	5.5800e+01	17.6883	7.693275	0.000057	0.572327	0.193910	-0.000026
1118	5.5850e+01	17.6674	7.677796	0.000068	0.679638	0.230268	-0.000031
1119	5.5900e+01	17.6401	7.664761	0.000057	0.572327	0.193910	-0.000026
1120	5.5950e+01	17.6353	7.654578	0.000045	0.447131	0.151492	-0.000020
1121	5.6000e+01	17.6417	7.641135	-0.000059	-0.590212	-0.199969	-0.000027
1122	5.6050e+01	17.5824	7.628915	0.000054	0.536557	0.181790	-0.000024
1123	5.6100e+01	17.6161	7.608548	-0.000089	-0.894261	-0.302984	-0.000041
1124	5.6150e+01	17.5278	7.601216	0.000032	0.321934	0.109074	-0.000015
1125	5.6200e+01	17.5551	7.584107	-0.000075	-0.751179	-0.254506	-0.000034
1126	5.6250e+01	17.5278	7.568628	0.000068	0.679638	0.230268	-0.000031
1127	5.6300e+01	17.4733	7.554371	0.000063	0.625983	0.212089	-0.000029
1128	5.6350e+01	17.4749	7.538485	-0.000070	-0.697524	-0.236327	-0.000032
1129	5.6400e+01	17.4428	7.526265	0.000054	0.536557	0.181790	-0.000024
1130	5.6450e+01	17.4396	7.511193	0.000066	0.661753	0.224208	-0.000030
1131	5.6500e+01	17.4075	7.497343	0.000061	0.608098	0.206029	-0.000028
1132	5.6550e+01	17.4107	7.481864	-0.000068	-0.679638	-0.230268	-0.000031
1133	5.6600e+01	17.4011	7.463941	0.000079	0.786950	0.266626	-0.000036
1134	5.6650e+01	17.3594	7.452128	0.000052	0.518671	0.175731	-0.000024
1135	5.6700e+01	17.3498	7.437057	0.000066	0.661753	0.224208	-0.000030
1136	5.6750e+01	17.3305	7.425244	0.000052	0.518671	0.175731	-0.000024
1137	5.6800e+01	17.3065	7.412616	0.000055	0.554442	0.187850	-0.000025
1138	5.6850e+01	17.2824	7.399581	0.000057	0.572327	0.193910	-0.000026
1139	5.6900e+01	17.2567	7.386546	0.000057	0.572327	0.193910	-0.000026
1140	5.6950e+01	17.2295	7.369438	0.000075	0.751179	0.254506	-0.000034
1141	5.7000e+01	17.2054	7.358847	0.000047	0.465016	0.157552	-0.000021
1142	5.7050e+01	17.2086	7.339294	-0.000086	-0.858491	-0.290865	-0.000039
1143	5.7100e+01	17.2375	7.331148	-0.000036	-0.357704	-0.121194	-0.000016
1144	5.7150e+01	17.1492	7.314447	0.000073	0.733294	0.248447	-0.000033
1145	5.7200e+01	17.1428	7.305485	0.000039	0.393475	0.133313	-0.000018
1146	5.7250e+01	17.0947	7.293265	0.000054	0.536557	0.181790	-0.000024
1147	5.7300e+01	17.1188	7.277786	-0.000068	-0.679638	-0.230268	-0.000031
1148	5.7350e+01	17.0755	7.262714	0.000066	0.661753	0.224208	-0.000030
1149	5.7400e+01	17.0498	7.250494	0.000054	0.536557	0.181790	-0.000024
1150	5.7450e+01	17.0337	7.234607	0.000070	0.697524	0.236327	-0.000032
1151	5.7500e+01	17.0129	7.224831	0.000043	0.429245	0.145432	-0.000020
1152	5.7550e+01	16.9840	7.210574	0.000063	0.625983	0.212089	-0.000029
1153	5.7600e+01	16.9664	7.196725	0.000061	0.608098	0.206029	-0.000028
1154	5.7650e+01	16.9583	7.181653	0.000066	0.661753	0.224208	-0.000030
1155	5.7700e+01	16.9343	7.164952	0.000073	0.733294	0.248447	-0.000033
1156	5.7750e+01	16.9150	7.151510	0.000059	0.590212	0.199969	-0.000027
1157	5.7800e+01	16.8878	7.134808	0.000073	0.733294	0.248447	-0.000033
1158	5.7850e+01	16.8685	7.119737	0.000066	0.661753	0.224208	-0.000030
1159	5.7900e+01	16.8605	7.108331	0.000050	0.500786	0.169671	-0.000023
1160	5.7950e+01	16.8460	7.093260	0.000066	0.661753	0.224208	-0.000030
1161	5.8000e+01	16.8284	7.077373	0.000070	0.697524	0.236327	-0.000032
1162	5.8050e+01	16.8140	7.063931	0.000059	0.590212	0.199969	-0.000027
1163	5.8100e+01	16.7755	7.047230	0.000073	0.733294	0.248447	-0.000033
1164	5.8150e+01	16.7578	7.032158	0.000066	0.661753	0.224208	-0.000030
1165	5.8200e+01	16.7658	7.022789	-0.000041	-0.411360	-0.139373	-0.000019
1166	5.8250e+01	16.7145	7.006088	0.000073	0.733294	0.248447	-0.000033
1167	5.8300e+01	16.6969	6.990609	0.000068	0.679638	0.230268	-0.000031
1168	5.8350e+01	16.6728	6.975130	0.000068	0.679638	0.230268	-0.000031
1169	5.8400e+01	16.6808	6.962095	-0.000057	-0.572327	-0.193910	-0.000026
1170	5.8450e+01	16.6311	6.949468	0.000055	0.554442	0.187850	-0.000025
1171	5.8500e+01	16.6295	6.933989	0.000068	0.679638	0.230268	-0.000031
1172	5.8550e+01	16.6182	6.925027	0.000039	0.393475	0.133313	-0.000018
1173	5.8600e+01	16.5797	6.912399	0.000055	0.554442	0.187850	-0.000025
1174	5.8650e+01	16.5685	6.892847	0.000086	0.858491	0.290865	-0.000039
1175	5.8700e+01	16.5493	6.879812	0.000057	0.572327	0.193910	-0.000026
1176	5.8750e+01	16.5156	6.863111	0.000073	0.733294	0.248447	-0.000033
1177	5.8800e+01	16.4835	6.851705	0.000050	0.500786	0.169671	-0.000023
1178	5.8850e+01	16.4787	6.840300	0.000050	0.500786	0.169671	-0.000023
1179	5.8900e+01	16.4482	6.823191	0.000075	0.751179	0.254506	-0.000034
1180	5.8950e+01	16.4177	6.810156	0.000057	0.572327	0.193910	-0.000026
1181	5.9000e+01	16.4209	6.796714	-0.000059	-0.590212	-0.199969	-0.000027
1182	5.9050e+01	16.4145	6.778384	0.000080	0.804835	0.272686	-0.000037
1183	5.9100e+01	16.3648	6.762090	0.000072	0.715409	0.242387	-0.000033
1184	5.9150e+01	16.3503	6.750684	0.000050	0.500786	0.169671	-0.000023
1185	5.9200e+01	16.3343	6.732354	0.000080	0.804835	0.272686	-0.000037
1186	5.9250e+01	16.3231	6.721763	0.000047	0.465016	0.157552	-0.000021
1187	5.9300e+01	16.2958	6.708321	0.000059	0.590212	0.199969	-0.000027
1188	5.9350e+01	16.2830	6.692027	0.000072	0.715409	0.242387	-0.000033
1189	5.9400e+01	16.2765	6.681844	0.000045	0.447131	0.151492	-0.000020
1190	5.9450e+01	16.2268	6.669623	0.000054	0.536557	0.181790	-0.000024
1191	5.9500e+01	16.2252	6.655774	0.000061	0.608098	0.206029	-0.000028
1192	5.9550e+01	16.2140	6.640295	0.000068	0.679638	0.230268	-0.000031
1193	5.9600e+01	16.1723	6.631740	0.000038	0.375590	0.127253	-0.000017
1194	5.9650e+01	16.1546	6.618705	0.000057	0.572327	0.193910	-0.000026
1195	5.9700e+01	16.1434	6.605263	0.000059	0.590212	0.199969	-0.000027
1196	5.9750e+01	16.1370	6.592636	0.000055	0.554442	0.187850	-0.000025
1197	5.9800e+01	16.1049	6.573898	0.000082	0.822720	0.278745	-0.000037
1198	5.9850e+01	16.0953	6.563714	0.000045	0.447131	0.151492	-0.000020
1199	5.9900e+01	16.0776	6.550272	0.000059	0.590212	0.199969	-0.000027
1200	5.9950e+01	16.0279	6.537237	0.000057	0.572327	0.193910	-0.000026
1201	6.0000e+01	16.0070	6.525017	0.000054	0.536557	0.181790	-0.000024
1202	6.0050e+01	15.9942	6.511982	0.000057	0.572327	0.193910	-0.000026
1203	6.0100e+01	15.9701	6.502613	0.000041	0.411360	0.139373	-0.000019
1204	6.0150e+01	15.9669	6.486319	0.000072	0.715409	0.242387	-0.000033
1205	6.0200e+01	15.9172	6.474099	0.000054	0.536557	0.181790	-0.000024
1206	6.0250e+01	15.9060	6.461879	0.000054	0.536557	0.181790	-0.000024
1207	6.0300e+01	15.8883	6.449251	0.000055	0.554442	0.187850	-0.000025
1208	6.0350e+01	15.8578	6.437845	0.000050	0.500786	0.169671	-0.000023
1209	6.0400e+01	15.8578	6.421552	0.000072	0.715409	0.242387	-0.000033
1210	6.0450e+01	15.8498	6.408109	0.000059	0.590212	0.199969	-0.000027
1211	6.0500e+01	15.8209	6.397926	0.000045	0.447131	0.151492	-0.000020
1212	6.0550e+01	15.7905	6.383669	0.000063	0.625983	0.212089	-0.000029
1213	6.0600e+01	15.7744	6.373485	0.000045	0.447131	0.151492	-0.000020
1214	6.0650e+01	15.7696	6.357599	0.000070	0.697524	0.236327	-0.000032
1215	6.0700e+01	15.7407	6.348637	0.000039	0.393475	0.133313	-0.000018
1216	6.0750e+01	15.7151	6.334788	0.000061	0.608098	0.206029	-0.000028
1217	6.0800e+01	15.6990	6.325419	0.000041	0.411360	0.139373	-0.000019
1218	6.0850e+01	15.7054	6.309940	-0.000068	-0.679638	-0.230268	-0.000031
1219	6.0900e+01	15.6509	6.293646	0.000072	0.715409	0.242387	-0.000033
1220	6.0950e+01	15.6060	6.282648	0.000048	0.482901	0.163611	-0.000022
1221	6.1000e+01	15.6156	6.269206	-0.000059	-0.590212	-0.199969	-0.000027
1222	6.1050e+01	15.6012	6.259429	0.000043	0.429245	0.145432	-0.000020
1223	6.1100e+01	15.5867	6.245987	0.000059	0.590212	0.199969	-0.000027
1224	6.1150e+01	15.5578	6.230915	0.000066	0.661753	0.224208	-0.000030
1225	6.1200e+01	15.5434	6.217880	0.000057	0.572327	0.193910	-0.000026
1226	6.1250e+01	15.4921	6.206067	0.000052	0.518671	0.175731	-0.000024
1227	6.1300e+01	15.4969	6.193032	-0.000057	-0.572327	-0.193910	-0.000026
1228	6.1350e+01	15.4680	6.181220	0.000052	0.518671	0.175731	-0.000024
1229	6.1400e+01	15.4456	6.164519	0.000073	0.733294	0.248447	-0.000033
1230	6.1450e+01	15.4199	6.153928	0.000047	0.465016	0.157552	-0.000021
1231	6.1500e+01	15.4391	6.139263	-0.000064	-0.643868	-0.218148	-0.000029
1232	6.1550e+01	15.4071	6.127043	0.000054	0.536557	0.181790	-0.000024
1233	6.1600e+01	15.3958	6.116452	0.000047	0.465016	0.157552	-0.000021
1234	6.1650e+01	15.3669	6.104639	0.000052	0.518671	0.175731	-0.000024
1235	6.1700e+01	15.3300	6.089160	0.000068	0.679638	0.230268	-0.000031
1236	6.1750e+01	15.2915	6.073681	0.000068	0.679638	0.230268	-0.000031
1237	6.1800e+01	15.2964	6.061461	-0.000054	-0.536557	-0.181790	-0.000024
1238	6.1850e+01	15.2627	6.048833	0.000055	0.554442	0.187850	-0.000025
1239	6.1900e+01	15.2755	6.040279	-0.000038	-0.375590	-0.127253	-0.000017
1240	6.1950e+01	15.2338	6.023985	0.000072	0.715409	0.242387	-0.000033
1241	6.2000e+01	15.2049	6.015024	0.000039	0.393475	0.133313	-0.000018
1242	6.2050e+01	15.1841	6.001989	0.000057	0.572327	0.193910	-0.000026
1243	6.2100e+01	15.1536	5.988139	0.000061	0.608098	0.206029	-0.000028
1244	6.2150e+01	15.1343	5.972660	0.000068	0.679638	0.230268	-0.000031
1245	6.2200e+01	15.1231	5.958403	0.000063	0.625983	0.212089	-0.000029
1246	6.2250e+01	15.1199	5.945368	0.000057	0.572327	0.193910	-0.000026
1247	6.2300e+01	15.1022	5.935592	0.000043	0.429245	0.145432	-0.000020
1248	6.2350e+01	15.0702	5.920113	0.000068	0.679638	0.230268	-0.000031
1249	6.2400e+01	15.0445	5.909115	0.000048	0.482901	0.163611	-0.000022
1250	6.2450e+01	15.0268	5.894043	0.000066	0.661753	0.224208	-0.000030
1251	6.2500e+01	15.0349	5.881823	-0.000054	-0.536557	-0.181790	-0.000024
1252	6.2550e+01	14.9883	5.870417	0.000050	0.500786	0.169671	-0.000023
1253	6.2600e+01	14.9771	5.854938	0.000068	0.679638	0.230268	-0.000031
1254	6.2650e+01	14.9482	5.842718	0.000054	0.536557	0.181790	-0.000024
1255	6.2700e+01	14.9627	5.832127	-0.000047	-0.465016	-0.157552	-0.000021
1256	6.2750e+01	14.9354	5.815833	0.000072	0.715409	0.242387	-0.000033
1257	6.2800e+01	14.9001	5.804835	0.000048	0.482901	0.163611	-0.000022
1258	6.2850e+01	14.8873	5.791800	0.000057	0.572327	0.193910	-0.000026
1259	6.2900e+01	14.8809	5.777543	0.000063	0.625983	0.212089	-0.000029
1260	6.2950e+01	14.8392	5.762471	0.000066	0.661753	0.224208	-0.000030
1261	6.3000e+01	14.8039	5.753917	0.000038	0.375590	0.127253	-0.000017
1262	6.3050e+01	14.8071	5.738438	-0.000068	-0.679638	-0.230268	-0.000031
1263	6.3100e+01	14.7573	5.724181	0.000063	0.625983	0.212089	-0.000029
1264	6.3150e+01	14.7910	5.712776	-0.000050	-0.500786	-0.169671	-0.000023
1265	6.3200e+01	14.7397	5.700963	0.000052	0.518671	0.175731	-0.000024
1266	6.3250e+01	14.7204	5.687113	0.000061	0.608098	0.206029	-0.000028
1267	6.3300e+01	14.7140	5.678966	0.000036	0.357704	0.121194	-0.000016
1268	6.3350e+01	14.6579	5.662672	0.000072	0.715409	0.242387	-0.000033
1269	6.3400e+01	14.6434	5.654118	0.000038	0.375590	0.127253	-0.000017
1270	6.3450e+01	14.6482	5.639861	-0.000063	-0.625983	-0.212089	-0.000029
1271	6.3500e+01	14.6226	5.631307	0.000038	0.375590	0.127253	-0.000017
1272	6.3550e+01	14.5985	5.621124	0.000045	0.447131	0.151492	-0.000020
1273	6.3600e+01	14.5921	5.606459	0.000064	0.643868	0.218148	-0.000029
1274	6.3650e+01	14.5520	5.593424	0.000057	0.572327	0.193910	-0.000026
1275	6.3700e+01	14.5343	5.585685	0.000034	0.339819	0.115134	-0.000015
1276	6.3750e+01	14.5424	5.573057	-0.000055	-0.554442	-0.187850	-0.000025
1277	6.3800e+01	14.4991	5.561244	0.000052	0.518671	0.175731	-0.000024
1278	6.3850e+01	14.4862	5.547802	0.000059	0.590212	0.199969	-0.000027
1279	6.3900e+01	14.4493	5.538433	0.000041	0.411360	0.139373	-0.000019
1280	6.3950e+01	14.4590	5.524583	-0.000061	-0.608098	-0.206029	-0.000028
1281	6.4000e+01	14.4092	5.514400	0.000045	0.447131	0.151492	-0.000020
1282	6.4050e+01	14.4028	5.500957	0.000059	0.590212	0.199969	-0.000027
1283	6.4100e+01	14.3675	5.487923	0.000057	0.572327	0.193910	-0.000026
1284	6.4150e+01	14.3707	5.476110	-0.000052	-0.518671	-0.175731	-0.000024
1285	6.4200e+01	14.3258	5.463889	0.000054	0.536557	0.181790	-0.000024
1286	6.4250e+01	14.2985	5.453706	0.000045	0.447131	0.151492	-0.000020
1287	6.4300e+01	14.2969	5.439449	0.000063	0.625983	0.212089	-0.000029
1288	6.4350e+01	14.2697	5.425599	0.000061	0.608098	0.206029	-0.000028
1289	6.4400e+01	14.2424	5.414601	0.000048	0.482901	0.163611	-0.000022
1290	6.4450e+01	14.2392	5.395456	0.000084	0.840606	0.284805	-0.000038
1291	6.4500e+01	14.2023	5.390160	0.000023	0.232508	0.078776	-0.000011
1292	6.4550e+01	14.2055	5.374681	-0.000068	-0.679638	-0.230268	-0.000031
1293	6.4600e+01	14.1574	5.366534	0.000036	0.357704	0.121194	-0.000016
1294	6.4650e+01	14.1606	5.350241	-0.000072	-0.715409	-0.242387	-0.000033
1295	6.4700e+01	14.1558	5.340872	0.000041	0.411360	0.139373	-0.000019
1296	6.4750e+01	14.1333	5.330688	0.000045	0.447131	0.151492	-0.000020
1297	6.4800e+01	14.1076	5.318061	0.000055	0.554442	0.187850	-0.000025
1298	6.4850e+01	14.0964	5.303396	0.000064	0.643868	0.218148	-0.000029
1299	6.4900e+01	14.0451	5.292805	0.000047	0.465016	0.157552	-0.000021
1300	6.4950e+01	14.0226	5.283844	0.000039	0.393475	0.133313	-0.000018
1301	6.5000e+01	14.0050	5.269587	0.000063	0.625983	0.212089	-0.000029
1302	6.5050e+01	14.0178	5.256552	-0.000057	-0.572327	-0.193910	-0.000026
1303	6.5100e+01	13.9793	5.247183	0.000041	0.411360	0.139373	-0.000019
1304	6.5150e+01	13.9665	5.230889	0.000072	0.715409	0.242387	-0.000033
1305	6.5200e+01	13.9440	5.213781	0.000075	0.751179	0.254506	-0.000034
1306	6.5250e+01	13.9328	5.203190	0.000047	0.465016	0.157552	-0.000021
1307	6.5300e+01	13.8959	5.188118	0.000066	0.661753	0.224208	-0.000030
1308	6.5350e+01	13.8830	5.175491	0.000055	0.554442	0.187850	-0.000025
1309	6.5400e+01	13.8429	5.164493	0.000048	0.482901	0.163611	-0.000022
1310	6.5450e+01	13.8542	5.146977	-0.000077	-0.769065	-0.260566	-0.000035
1311	6.5500e+01	13.8301	5.132720	0.000063	0.625983	0.212089	-0.000029
1312	6.5550e+01	13.7868	5.118870	0.000061	0.608098	0.206029	-0.000028
1313	6.5600e+01	13.7547	5.107465	0.000050	0.500786	0.169671	-0.000023
1314	6.5650e+01	13.7547	5.092800	0.000064	0.643868	0.218148	-0.000029
1315	6.5700e+01	13.7386	5.078951	0.000061	0.608098	0.206029	-0.000028
1316	6.5750e+01	13.7098	5.062657	0.000072	0.715409	0.242387	-0.000033
1317	6.5800e+01	13.6953	5.053695	0.000039	0.393475	0.133313	-0.000018
1318	6.5850e+01	13.6985	5.038624	-0.000066	-0.661753	-0.224208	-0.000030
1319	6.5900e+01	13.6584	5.027218	0.000050	0.500786	0.169671	-0.000023
1320	6.5950e+01	13.6344	5.011739	0.000068	0.679638	0.230268	-0.000031
1321	6.6000e+01	13.6103	4.996260	0.000068	0.679638	0.230268	-0.000031
1322	6.6050e+01	13.6039	4.986891	0.000041	0.411360	0.139373	-0.000019
1323	6.6100e+01	13.5718	4.977115	0.000043	0.429245	0.145432	-0.000020
1324	6.6150e+01	13.5558	4.964487	0.000055	0.554442	0.187850	-0.000025
1325	6.6200e+01	13.5590	4.948601	-0.000070	-0.697524	-0.236327	-0.000032
1326	6.6250e+01	13.5157	4.937603	0.000048	0.482901	0.163611	-0.000022
1327	6.6300e+01	13.4820	4.924975	0.000055	0.554442	0.187850	-0.000025
1328	6.6350e+01	13.4707	4.909903	0.000066	0.661753	0.224208	-0.000030
1329	6.6400e+01	13.4579	4.897683	0.000054	0.536557	0.181790	-0.000024
1330	6.6450e+01	13.4547	4.886278	0.000050	0.500786	0.169671	-0.000023
1331	6.6500e+01	13.4194	4.872021	0.000063	0.625983	0.212089	-0.000029
1332	6.6550e+01	13.3921	4.856542	0.000068	0.679638	0.230268	-0.000031
1333	6.6600e+01	13.3809	4.848802	0.000034	0.339819	0.115134	-0.000015
1334	6.6650e+01	13.3440	4.834545	0.000063	0.625983	0.212089	-0.000029
1335	6.6700e+01	13.3697	4.821510	-0.000057	-0.572327	-0.193910	-0.000026
1336	6.6750e+01	13.3248	4.809697	0.000052	0.518671	0.175731	-0.000024
1337	6.6800e+01	13.2895	4.795440	0.000063	0.625983	0.212089	-0.000029
1338	6.6850e+01	13.2734	4.780369	0.000066	0.661753	0.224208	-0.000030
1339	6.6900e+01	13.2574	4.768148	0.000054	0.536557	0.181790	-0.000024
1340	6.6950e+01	13.2542	4.751855	0.000072	0.715409	0.242387	-0.000033
1341	6.7000e+01	13.2221	4.738820	0.000057	0.572327	0.193910	-0.000026
1342	6.7050e+01	13.1964	4.729451	0.000041	0.411360	0.139373	-0.000019
1343	6.7100e+01	13.1836	4.716008	0.000059	0.590212	0.199969	-0.000027
1344	6.7150e+01	13.1451	4.702973	0.000057	0.572327	0.193910	-0.000026
1345	6.7200e+01	13.1419	4.689124	0.000061	0.608098	0.206029	-0.000028
1346	6.7250e+01	13.1050	4.670386	0.000082	0.822720	0.278745	-0.000037
1347	6.7300e+01	13.0954	4.664276	0.000027	0.268278	0.090895	-0.000012
1348	6.7350e+01	13.0841	4.647167	0.000075	0.751179	0.254506	-0.000034
1349	6.7400e+01	13.0456	4.637391	0.000043	0.429245	0.145432	-0.000020
1350	6.7450e+01	13.0424	4.624356	0.000057	0.572327	0.193910	-0.000026
1351	6.7500e+01	12.9718	4.611321	0.000057	0.572327	0.193910	-0.000026
1352	6.7550e+01	12.9718	4.596250	0.000066	0.661753	0.224208	-0.000030
1353	6.7600e+01	12.9815	4.583622	-0.000055	-0.554442	-0.187850	-0.000025
1354	6.7650e+01	12.9333	4.570994	0.000055	0.554442	0.187850	-0.000025
1355	6.7700e+01	12.9349	4.556330	-0.000064	-0.643868	-0.218148	-0.000029
1356	6.7750e+01	12.9333	4.543702	0.000055	0.554442	0.187850	-0.000025
1357	6.7800e+01	12.8900	4.527816	0.000070	0.697524	0.236327	-0.000032
1358	6.7850e+01	12.8884	4.510708	0.000075	0.751179	0.254506	-0.000034
1359	6.7900e+01	12.8194	4.499302	0.000050	0.500786	0.169671	-0.000023
1360	6.7950e+01	12.8194	4.485860	0.000059	0.590212	0.199969	-0.000027
1361	6.8000e+01	12.8066	4.471196	0.000064	0.643868	0.218148	-0.000029
1362	6.8050e+01	12.8242	4.458975	-0.000054	-0.536557	-0.181790	-0.000024
1363	6.8100e+01	12.7825	4.445533	0.000059	0.590212	0.199969	-0.000027
1364	6.8150e+01	12.7585	4.431683	0.000061	0.608098	0.206029	-0.000028
1365	6.8200e+01	12.7488	4.412538	0.000084	0.840606	0.284805	-0.000038
1366	6.8250e+01	12.7151	4.401947	0.000047	0.465016	0.157552	-0.000021
1367	6.8300e+01	12.7055	4.387690	0.000063	0.625983	0.212089	-0.000029
1368	6.8350e+01	12.6831	4.374655	0.000057	0.572327	0.193910	-0.000026
1369	6.8400e+01	12.6574	4.359584	0.000066	0.661753	0.224208	-0.000030
1370	6.8450e+01	12.6301	4.343697	0.000070	0.697524	0.236327	-0.000032
1371	6.8500e+01	12.6269	4.326996	0.000073	0.733294	0.248447	-0.000033
1372	6.8550e+01	12.5996	4.313147	0.000061	0.608098	0.206029	-0.000028
1373	6.8600e+01	12.5772	4.300519	0.000055	0.554442	0.187850	-0.000025
1374	6.8650e+01	12.5692	4.285040	0.000068	0.679638	0.230268	-0.000031
1375	6.8700e+01	12.5451	4.269154	0.000070	0.697524	0.236327	-0.000032
1376	6.8750e+01	12.5226	4.251231	0.000079	0.786950	0.266626	-0.000036
1377	6.8800e+01	12.4970	4.238196	0.000057	0.572327	0.193910	-0.000026
1378	6.8850e+01	12.5002	4.223531	-0.000064	-0.643868	-0.218148	-0.000029
1379	6.8900e+01	12.4633	4.208460	0.000066	0.661753	0.224208	-0.000030
1380	6.8950e+01	12.4569	4.193388	0.000066	0.661753	0.224208	-0.000030
1381	6.9000e+01	12.4264	4.178724	0.000064	0.643868	0.218148	-0.000029
1382	6.9050e+01	12.3959	4.163245	0.000068	0.679638	0.230268	-0.000031
1383	6.9100e+01	12.3815	4.149395	0.000061	0.608098	0.206029	-0.000028
1384	6.9150e+01	12.3462	4.133916	0.000068	0.679638	0.230268	-0.000031
1385	6.9200e+01	12.3430	4.118030	0.000070	0.697524	0.236327	-0.000032
1386	6.9250e+01	12.3285	4.100921	0.000075	0.751179	0.254506	-0.000034
1387	6.9300e+01	12.3013	4.086664	0.000063	0.625983	0.212089	-0.000029
1388	6.9350e+01	12.2804	4.070778	0.000070	0.697524	0.236327	-0.000032
1389	6.9400e+01	12.2483	4.056521	0.000063	0.625983	0.212089	-0.000029
1390	6.9450e+01	12.2435	4.036968	0.000086	0.858491	0.290865	-0.000039
1391	6.9500e+01	12.2275	4.026785	0.000045	0.447131	0.151492	-0.000020
1392	6.9550e+01	12.2082	4.013342	0.000059	0.590212	0.199969	-0.000027
1393	6.9600e+01	12.1697	3.993790	0.000086	0.858491	0.290865	-0.000039
1394	6.9650e+01	12.1649	3.977496	0.000072	0.715409	0.242387	-0.000033
1395	6.9700e+01	12.1601	3.962425	0.000066	0.661753	0.224208	-0.000030
1396	6.9750e+01	12.0991	3.950204	0.000054	0.536557	0.181790	-0.000024
1397	6.9800e+01	12.0959	3.933503	0.000073	0.733294	0.248447	-0.000033
1398	6.9850e+01	12.0927	3.913951	0.000086	0.858491	0.290865	-0.000039
1399	6.9900e+01	12.0558	3.900509	0.000059	0.590212	0.199969	-0.000027
1400	6.9950e+01	12.0285	3.889918	0.000047	0.465016	0.157552	-0.000021
1401	7.0000e+01	11.9916	3.870773	0.000084	0.840606	0.284805	-0.000038
1402	7.0050e+01	12.0013	3.859367	-0.000050	-0.500786	-0.169671	-0.000023
1403	7.0100e+01	11.9868	3.840629	0.000082	0.822720	0.278745	-0.000037
1404	7.0150e+01	11.9724	3.819447	0.000093	0.930032	0.315103	-0.000042
1405	7.0200e+01	11.9243	3.811301	0.000036	0.357704	0.121194	-0.000016
1406	7.0250e+01	11.9355	3.792563	-0.000082	-0.822720	-0.278745	-0.000037
1407	7.0300e+01	11.9082	3.778306	0.000063	0.625983	0.212089	-0.000029
1408	7.0350e+01	11.8922	3.761605	0.000073	0.733294	0.248447	-0.000033
1409	7.0400e+01	11.8745	3.746126	0.000068	0.679638	0.230268	-0.000031
1410	7.0450e+01	11.8489	3.726981	0.000084	0.840606	0.284805	-0.000038
1411	7.0500e+01	11.8168	3.713946	0.000057	0.572327	0.193910	-0.000026
1412	7.0550e+01	11.7975	3.697652	0.000072	0.715409	0.242387	-0.000033
1413	7.0600e+01	11.7895	3.683802	0.000061	0.608098	0.206029	-0.000028
1414	7.0650e+01	11.7638	3.667509	0.000072	0.715409	0.242387	-0.000033
1415	7.0700e+01	11.7526	3.651622	0.000070	0.697524	0.236327	-0.000032
1416	7.0750e+01	11.7366	3.633699	0.000079	0.786950	0.266626	-0.000036
1417	7.0800e+01	11.7077	3.621479	0.000054	0.536557	0.181790	-0.000024
1418	7.0850e+01	11.6724	3.604778	0.000073	0.733294	0.248447	-0.000033
1419	7.0900e+01	11.6499	3.587670	0.000075	0.751179	0.254506	-0.000034
1420	7.0950e+01	11.6195	3.568932	0.000082	0.822720	0.278745	-0.000037
1421	7.1000e+01	11.6211	3.557934	-0.000048	-0.482901	-0.163611	-0.000022
1422	7.1050e+01	11.6034	3.540418	0.000077	0.769065	0.260566	-0.000035
1423	7.1100e+01	11.5826	3.523309	0.000075	0.751179	0.254506	-0.000034
1424	7.1150e+01	11.5649	3.508238	0.000066	0.661753	0.224208	-0.000030
1425	7.1200e+01	11.5601	3.493166	0.000066	0.661753	0.224208	-0.000030
1426	7.1250e+01	11.5136	3.477687	0.000068	0.679638	0.230268	-0.000031
1427	7.1300e+01	11.4959	3.456098	0.000095	0.947917	0.321163	-0.000043
1428	7.1350e+01	11.4638	3.445100	0.000048	0.482901	0.163611	-0.000022
1429	7.1400e+01	11.4478	3.425955	0.000084	0.840606	0.284805	-0.000038
1430	7.1450e+01	11.4189	3.411290	0.000064	0.643868	0.218148	-0.000029
1431	7.1500e+01	11.4221	3.393367	-0.000079	-0.786950	-0.266626	-0.000036
1432	7.1550e+01	11.3804	3.378703	0.000064	0.643868	0.218148	-0.000029
1433	7.1600e+01	11.3724	3.362002	0.000073	0.733294	0.248447	-0.000033
1434	7.1650e+01	11.3692	3.343671	0.000080	0.804835	0.272686	-0.000037
1435	7.1700e+01	11.3387	3.326156	0.000077	0.769065	0.260566	-0.000035
1436	7.1750e+01	11.3211	3.307825	0.000080	0.804835	0.272686	-0.000037
1437	7.1800e+01	11.2858	3.289495	0.000080	0.804835	0.272686	-0.000037
1438	7.1850e+01	11.2697	3.272386	0.000075	0.751179	0.254506	-0.000034
1439	7.1900e+01	11.2505	3.260981	0.000050	0.500786	0.169671	-0.000023
1440	7.1950e+01	11.2296	3.240206	0.000091	0.912146	0.309044	-0.000042
1441	7.2000e+01	11.2360	3.223098	-0.000075	-0.751179	-0.254506	-0.000034
1442	7.2050e+01	11.2040	3.206397	0.000073	0.733294	0.248447	-0.000033
1443	7.2100e+01	11.1751	3.191733	0.000064	0.643868	0.218148	-0.000029
1444	7.2150e+01	11.1510	3.167292	0.000107	1.073113	0.363581	-0.000049
1445	7.2200e+01	11.1286	3.150591	0.000073	0.733294	0.248447	-0.000033
1446	7.2250e+01	11.1302	3.133890	-0.000073	-0.733294	-0.248447	-0.000033
1447	7.2300e+01	11.0933	3.116374	0.000077	0.769065	0.260566	-0.000035
1448	7.2350e+01	11.0596	3.098858	0.000077	0.769065	0.260566	-0.000035
1449	7.2400e+01	11.0724	3.089490	-0.000041	-0.411360	-0.139373	-0.000019
1450	7.2450e+01	11.0435	3.068308	0.000093	0.930032	0.315103	-0.000042
1451	7.2500e+01	11.0291	3.048755	0.000086	0.858491	0.290865	-0.000039
1452	7.2550e+01	11.0018	3.031647	0.000075	0.751179	0.254506	-0.000034
1453	7.2600e+01	10.9762	3.013317	0.000080	0.804835	0.272686	-0.000037
1454	7.2650e+01	10.9649	3.000282	0.000057	0.572327	0.193910	-0.000026
1455	7.2700e+01	10.9345	2.982766	0.000077	0.769065	0.260566	-0.000035
1456	7.2750e+01	10.9312	2.966472	0.000072	0.715409	0.242387	-0.000033
1457	7.2800e+01	10.8895	2.946512	0.000088	0.876376	0.296924	-0.000040
1458	7.2850e+01	10.8655	2.930626	0.000070	0.697524	0.236327	-0.000032
1459	7.2900e+01	10.8462	2.914332	0.000072	0.715409	0.242387	-0.000033
1460	7.2950e+01	10.8446	2.894780	0.000086	0.858491	0.290865	-0.000039
1461	7.3000e+01	10.8270	2.875227	0.000086	0.858491	0.290865	-0.000039
1462	7.3050e+01	10.8206	2.858526	0.000073	0.733294	0.248447	-0.000033
1463	7.3100e+01	10.7788	2.836123	0.000098	0.983687	0.333282	-0.000045
1464	7.3150e+01	10.7644	2.823902	0.000054	0.536557	0.181790	-0.000024
1465	7.3200e+01	10.7275	2.803128	0.000091	0.912146	0.309044	-0.000042
1466	7.3250e+01	10.7227	2.787241	0.000070	0.697524	0.236327	-0.000032
1467	7.3300e+01	10.7099	2.770133	0.000075	0.751179	0.254506	-0.000034
1468	7.3350e+01	10.7034	2.757913	0.000054	0.536557	0.181790	-0.000024
1469	7.3400e+01	10.6714	2.736731	0.000093	0.930032	0.315103	-0.000042
1470	7.3450e+01	10.6264	2.721252	0.000068	0.679638	0.230268	-0.000031
1471	7.3500e+01	10.6345	2.702107	-0.000084	-0.840606	-0.284805	-0.000038
1472	7.3550e+01	10.5911	2.688257	0.000061	0.608098	0.206029	-0.000028
1473	7.3600e+01	10.5944	2.667890	-0.000089	-0.894261	-0.302984	-0.000041
1474	7.3650e+01	10.5478	2.651189	0.000073	0.733294	0.248447	-0.000033
1475	7.3700e+01	10.5478	2.636117	0.000066	0.661753	0.224208	-0.000030
1476	7.3750e+01	10.5157	2.620231	0.000070	0.697524	0.236327	-0.000032
1477	7.3800e+01	10.4853	2.603937	0.000072	0.715409	0.242387	-0.000033
1478	7.3850e+01	10.4596	2.585607	0.000080	0.804835	0.272686	-0.000037
1479	7.3900e+01	10.4548	2.569720	0.000070	0.697524	0.236327	-0.000032
1480	7.3950e+01	10.4468	2.551797	0.000079	0.786950	0.266626	-0.000036
1481	7.4000e+01	10.4355	2.538355	0.000059	0.590212	0.199969	-0.000027
1482	7.4050e+01	10.3986	2.520432	0.000079	0.786950	0.266626	-0.000036
1483	7.4100e+01	10.3730	2.503731	0.000073	0.733294	0.248447	-0.000033
1484	7.4150e+01	10.3297	2.484179	0.000086	0.858491	0.290865	-0.000039
1485	7.4200e+01	10.3553	2.466255	-0.000079	-0.786950	-0.266626	-0.000036
1486	7.4250e+01	10.3264	2.450369	0.000070	0.697524	0.236327	-0.000032
1487	7.4300e+01	10.3040	2.436112	0.000063	0.625983	0.212089	-0.000029
1488	7.4350e+01	10.2639	2.419004	0.000075	0.751179	0.254506	-0.000034
1489	7.4400e+01	10.2639	2.397822	0.000093	0.930032	0.315103	-0.000042
1490	7.4450e+01	10.2254	2.376233	0.000095	0.947917	0.321163	-0.000043
1491	7.4500e+01	10.2093	2.361976	0.000063	0.625983	0.212089	-0.000029
1492	7.4550e+01	10.2109	2.343238	-0.000082	-0.822720	-0.278745	-0.000037
1493	7.4600e+01	10.1789	2.325722	0.000077	0.769065	0.260566	-0.000035
1494	7.4650e+01	10.1612	2.310651	0.000066	0.661753	0.224208	-0.000030
1495	7.4700e+01	10.1259	2.288247	0.000098	0.983687	0.333282	-0.000045
1496	7.4750e+01	10.1131	2.274804	0.000059	0.590212	0.199969	-0.000027
1497	7.4800e+01	10.0858	2.253623	0.000093	0.930032	0.315103	-0.000042
1498	7.4850e+01	10.0858	2.237329	0.000072	0.715409	0.242387	-0.000033
1499	7.4900e+01	10.0489	2.218999	0.000080	0.804835	0.272686	-0.000037
1500	7.4950e+01	10.0377	2.202705	0.000072	0.715409	0.242387	-0.000033
1501	7.5000e+01	10.0249	2.183967	0.000082	0.822720	0.278745	-0.000037
1502	7.5050e+01	10.0040	2.169303	0.000064	0.643868	0.218148	-0.000029
1503	7.5100e+01	9.9655	2.150972	0.000080	0.804835	0.272686	-0.000037
1504	7.5150e+01	9.9591	2.133864	0.000075	0.751179	0.254506	-0.000034
1505	7.5200e+01	9.9543	2.115941	0.000079	0.786950	0.266626	-0.000036
1506	7.5250e+01	9.9061	2.097610	0.000080	0.804835	0.272686	-0.000037
1507	7.5300e+01	9.8692	2.082946	0.000064	0.643868	0.218148	-0.000029
1508	7.5350e+01	9.8853	2.065023	-0.000079	-0.786950	-0.266626	-0.000036
1509	7.5400e+01	9.8741	2.051173	0.000061	0.608098	0.206029	-0.000028
1510	7.5450e+01	9.8468	2.029584	0.000095	0.947917	0.321163	-0.000043
1511	7.5500e+01	9.8339	2.013291	0.000072	0.715409	0.242387	-0.000033
1512	7.5550e+01	9.7842	1.994553	0.000082	0.822720	0.278745	-0.000037
1513	7.5600e+01	9.7778	1.975408	0.000084	0.840606	0.284805	-0.000038
1514	7.5650e+01	9.7569	1.957892	0.000077	0.769065	0.260566	-0.000035
1515	7.5700e+01	9.7457	1.944857	0.000057	0.572327	0.193910	-0.000026
1516	7.5750e+01	9.7136	1.923675	0.000093	0.930032	0.315103	-0.000042
1517	7.5800e+01	9.7024	1.906567	0.000075	0.751179	0.254506	-0.000034
1518	7.5850e+01	9.6912	1.890273	0.000072	0.715409	0.242387	-0.000033
1519	7.5900e+01	9.6286	1.870313	0.000088	0.876376	0.296924	-0.000040
1520	7.5950e+01	9.6366	1.855242	-0.000066	-0.661753	-0.224208	-0.000030
1521	7.6000e+01	9.6158	1.837319	0.000079	0.786950	0.266626	-0.000036
1522	7.6050e+01	9.6222	1.822247	-0.000066	-0.661753	-0.224208	-0.000030
1523	7.6100e+01	9.5548	1.807583	0.000064	0.643868	0.218148	-0.000029
1524	7.6150e+01	9.5644	1.788030	-0.000086	-0.858491	-0.290865	-0.000039
1525	7.6200e+01	9.5628	1.768478	0.000086	0.858491	0.290865	-0.000039
1526	7.6250e+01	9.5356	1.756665	0.000052	0.518671	0.175731	-0.000024
1527	7.6300e+01	9.5051	1.738334	0.000080	0.804835	0.272686	-0.000037
1528	7.6350e+01	9.4810	1.723263	0.000066	0.661753	0.224208	-0.000030
1529	7.6400e+01	9.4794	1.706969	0.000072	0.715409	0.242387	-0.000033
1530	7.6450e+01	9.4505	1.692305	0.000064	0.643868	0.218148	-0.000029
1531	7.6500e+01	9.4233	1.672752	0.000086	0.858491	0.290865	-0.000039
1532	7.6550e+01	9.4024	1.658088	0.000064	0.643868	0.218148	-0.000029
1533	7.6600e+01	9.4008	1.643424	0.000064	0.643868	0.218148	-0.000029
1534	7.6650e+01	9.3719	1.625500	0.000079	0.786950	0.266626	-0.000036
1535	7.6700e+01	9.3350	1.612873	0.000055	0.554442	0.187850	-0.000025
1536	7.6750e+01	9.3222	1.593320	0.000086	0.858491	0.290865	-0.000039
1537	7.6800e+01	9.3222	1.578656	0.000064	0.643868	0.218148	-0.000029
1538	7.6850e+01	9.2773	1.562362	0.000072	0.715409	0.242387	-0.000033
1539	7.6900e+01	9.2805	1.544847	-0.000077	-0.769065	-0.260566	-0.000035
1540	7.6950e+01	9.2356	1.529368	0.000068	0.679638	0.230268	-0.000031
1541	7.7000e+01	9.2308	1.514296	0.000066	0.661753	0.224208	-0.000030
1542	7.7050e+01	9.1906	1.494336	0.000088	0.876376	0.296924	-0.000040
1543	7.7100e+01	9.1794	1.479672	0.000064	0.643868	0.218148	-0.000029
1544	7.7150e+01	9.1698	1.463378	0.000072	0.715409	0.242387	-0.000033
1545	7.7200e+01	9.1425	1.447492	0.000070	0.697524	0.236327	-0.000032
1546	7.7250e+01	9.1441	1.434864	-0.000055	-0.554442	-0.187850	-0.000025
1547	7.7300e+01	9.1024	1.419792	0.000066	0.661753	0.224208	-0.000030
1548	7.7350e+01	9.0591	1.400240	0.000086	0.858491	0.290865	-0.000039
1549	7.7400e+01	9.0399	1.385168	0.000066	0.661753	0.224208	-0.000030
1550	7.7450e+01	9.0174	1.368467	0.000073	0.733294	0.248447	-0.000033
1551	7.7500e+01	9.0126	1.351359	0.000075	0.751179	0.254506	-0.000034
1552	7.7550e+01	9.0142	1.336287	-0.000066	-0.661753	-0.224208	-0.000030
1553	7.7600e+01	8.9612	1.318364	0.000079	0.786950	0.266626	-0.000036
1554	7.7650e+01	8.9548	1.303700	0.000064	0.643868	0.218148	-0.000029
1555	7.7700e+01	8.9243	1.287813	0.000070	0.697524	0.236327	-0.000032
1556	7.7750e+01	8.9211	1.276001	0.000052	0.518671	0.175731	-0.000024
1557	7.7800e+01	8.9067	1.258892	0.000075	0.751179	0.254506	-0.000034
1558	7.7850e+01	8.8730	1.239747	0.000084	0.840606	0.284805	-0.000038
1559	7.7900e+01	8.8506	1.223861	0.000070	0.697524	0.236327	-0.000032
1560	7.7950e+01	8.8409	1.204308	0.000086	0.858491	0.290865	-0.000039
1561	7.8000e+01	8.8056	1.190866	0.000059	0.590212	0.199969	-0.000027
1562	7.8050e+01	8.8104	1.174165	-0.000073	-0.733294	-0.248447	-0.000033
1563	7.8100e+01	8.7687	1.159501	0.000064	0.643868	0.218148	-0.000029
1564	7.8150e+01	8.7671	1.141985	0.000077	0.769065	0.260566	-0.000035
1565	7.8200e+01	8.7527	1.127321	0.000064	0.643868	0.218148	-0.000029
1566	7.8250e+01	8.7350	1.106953	0.000089	0.894261	0.302984	-0.000041
1567	7.8300e+01	8.6949	1.089030	0.000079	0.786950	0.266626	-0.000036
1568	7.8350e+01	8.6693	1.073959	0.000066	0.661753	0.224208	-0.000030
1569	7.8400e+01	8.6340	1.057258	0.000073	0.733294	0.248447	-0.000033
1570	7.8450e+01	8.6308	1.045445	0.000052	0.518671	0.175731	-0.000024
1571	7.8500e+01	8.6099	1.028336	0.000075	0.751179	0.254506	-0.000034
1572	7.8550e+01	8.5826	1.012043	0.000072	0.715409	0.242387	-0.000033
1573	7.8600e+01	8.5875	0.998193	-0.000061	-0.608098	-0.206029	-0.000028
1574	7.8650e+01	8.5554	0.977418	0.000091	0.912146	0.309044	-0.000042
1575	7.8700e+01	8.5634	0.959088	-0.000080	-0.804835	-0.272686	-0.000037
1576	7.8750e+01	8.5345	0.948904	0.000045	0.447131	0.151492	-0.000020
1577	7.8800e+01	8.4976	0.928130	0.000091	0.912146	0.309044	-0.000042
1578	7.8850e+01	8.4784	0.917539	0.000047	0.465016	0.157552	-0.000021
1579	7.8900e+01	8.4479	0.898801	0.000082	0.822720	0.278745	-0.000037
1580	7.8950e+01	8.4286	0.881286	0.000077	0.769065	0.260566	-0.000035
1581	7.9000e+01	8.4222	0.863770	0.000077	0.769065	0.260566	-0.000035
1582	7.9050e+01	8.4014	0.851550	0.000054	0.536557	0.181790	-0.000024
1583	7.9100e+01	8.3821	0.831182	0.000089	0.894261	0.302984	-0.000041
1584	7.9150e+01	8.3500	0.814074	0.000075	0.751179	0.254506	-0.000034
1585	7.9200e+01	8.3484	0.799410	0.000064	0.643868	0.218148	-0.000029
1586	7.9250e+01	8.3340	0.785153	0.000063	0.625983	0.212089	-0.000029
1587	7.9300e+01	8.3019	0.768859	0.000072	0.715409	0.242387	-0.000033
1588	7.9350e+01	8.2810	0.750529	0.000080	0.804835	0.272686	-0.000037
1589	7.9400e+01	8.2329	0.737494	0.000057	0.572327	0.193910	-0.000026
1590	7.9450e+01	8.2409	0.717534	-0.000088	-0.876376	-0.296924	-0.000040
1591	7.9500e+01	8.2105	0.698389	0.000084	0.840606	0.284805	-0.000038
1592	7.9550e+01	8.2153	0.686576	-0.000052	-0.518671	-0.175731	-0.000024
1593	7.9600e+01	8.2008	0.665801	0.000091	0.912146	0.309044	-0.000042
1594	7.9650e+01	8.1607	0.649100	0.000073	0.733294	0.248447	-0.000033
1595	7.9700e+01	8.1447	0.636065	0.000057	0.572327	0.193910	-0.000026
1596	7.9750e+01	8.1206	0.620179	0.000070	0.697524	0.236327	-0.000032
1597	7.9800e+01	8.1094	0.600219	0.000088	0.876376	0.296924	-0.000040
1598	7.9850e+01	8.0837	0.587184	0.000057	0.572327	0.193910	-0.000026
1599	7.9900e+01	8.0532	0.573742	0.000059	0.590212	0.199969	-0.000027
1600	7.9950e+01	8.0452	0.557448	0.000072	0.715409	0.242387	-0.000033
1601	8.0000e+01	8.0115	0.538303	0.000084	0.840606	0.284805	-0.000038
1602	8.0050e+01	8.0147	0.525268	-0.000057	-0.572327	-0.193910	-0.000026
1603	8.0100e+01	7.9730	0.509382	0.000070	0.697524	0.236327	-0.000032
1604	8.0150e+01	7.9811	0.492273	-0.000075	-0.751179	-0.254506	-0.000034
1605	8.0200e+01	7.9490	0.477202	0.000066	0.661753	0.224208	-0.000030
1606	8.0250e+01	7.9105	0.468648	0.000038	0.375590	0.127253	-0.000017
1607	8.0300e+01	7.9217	0.447058	-0.000095	-0.947917	-0.321163	-0.000043
1608	8.0350e+01	7.8784	0.433616	0.000059	0.590212	0.199969	-0.000027
1609	8.0400e+01	7.8736	0.420989	0.000055	0.554442	0.187850	-0.000025
1610	8.0450e+01	7.8639	0.408768	0.000054	0.536557	0.181790	-0.000024
1611	8.0500e+01	7.8206	0.389623	0.000084	0.840606	0.284805	-0.000038
1612	8.0550e+01	7.7982	0.375366	0.000063	0.625983	0.212089	-0.000029
1613	8.0600e+01	7.7709	0.358258	0.000075	0.751179	0.254506	-0.000034
1614	8.0650e+01	7.7661	0.344815	0.000059	0.590212	0.199969	-0.000027
1615	8.0700e+01	7.7276	0.326485	0.000080	0.804835	0.272686	-0.000037
1616	8.0750e+01	7.7356	0.312635	-0.000061	-0.608098	-0.206029	-0.000028
1617	8.0800e+01	7.6795	0.297156	0.000068	0.679638	0.230268	-0.000031
1618	8.0850e+01	7.7003	0.282085	-0.000066	-0.661753	-0.224208	-0.000030
1619	8.0900e+01	7.6923	0.265791	0.000072	0.715409	0.242387	-0.000033
1620	8.0950e+01	7.6265	0.244609	0.000093	0.930032	0.315103	-0.000042
1621	8.1000e+01	7.6201	0.230352	0.000063	0.625983	0.212089	-0.000029
1622	8.1050e+01	7.6057	0.214466	0.000070	0.697524	0.236327	-0.000032
1623	8.1100e+01	7.5591	0.199394	0.000066	0.661753	0.224208	-0.000030
1624	8.1150e+01	7.5752	0.181878	-0.000077	-0.769065	-0.260566	-0.000035
1625	8.1200e+01	7.5271	0.170880	0.000048	0.482901	0.163611	-0.000022
1626	8.1250e+01	7.5190	0.153364	0.000077	0.769065	0.260566	-0.000035
1627	8.1300e+01	7.5110	0.139922	0.000059	0.590212	0.199969	-0.000027
1628	8.1350e+01	7.5126	0.125665	-0.000063	-0.625983	-0.212089	-0.000029
1629	8.1400e+01	7.4420	0.111408	0.000063	0.625983	0.212089	-0.000029
1630	8.1450e+01	7.4067	0.095114	0.000072	0.715409	0.242387	-0.000033
1631	8.1500e+01	7.4100	0.077599	-0.000077	-0.769065	-0.260566	-0.000035
1632	8.1550e+01	7.3939	0.062120	0.000068	0.679638	0.230268	-0.000031
1633	8.1600e+01	7.3490	0.047863	0.000063	0.625983	0.212089	-0.000029
1634	8.1650e+01	7.3602	0.029532	-0.000080	-0.804835	-0.272686	-0.000037
1635	8.1700e+01	7.3666	0.013239	-0.000072	-0.715409	-0.242387	-0.000033
1636	8.1750e+01	7.3201	0.000204	0.000057	0.572327	0.193910	-0.000026
1637	8.1800e+01	7.2977	-0.018941	0.000084	0.840606	0.284805	-0.000038
1638	8.1850e+01	7.2704	-0.036457	0.000077	0.769065	0.260566	-0.000035
1639	8.1900e+01	7.2495	-0.056010	0.000086	0.858491	0.290865	-0.000039
1640	8.1950e+01	7.2287	-0.067415	0.000050	0.500786	0.169671	-0.000023
1641	8.2000e+01	7.2142	-0.088190	0.000091	0.912146	0.309044	-0.000042
1642	8.2050e+01	7.2174	-0.105705	-0.000077	-0.769065	-0.260566	-0.000035
1643	8.2100e+01	7.1661	-0.121184	0.000068	0.679638	0.230268	-0.000031
1644	8.2150e+01	7.1549	-0.137071	0.000070	0.697524	0.236327	-0.000032
1645	8.2200e+01	7.1501	-0.156216	0.000084	0.840606	0.284805	-0.000038
1646	8.2250e+01	7.1292	-0.171695	0.000068	0.679638	0.230268	-0.000031
1647	8.2300e+01	7.0875	-0.189618	0.000079	0.786950	0.266626	-0.000036
1648	8.2350e+01	7.0715	-0.207134	0.000077	0.769065	0.260566	-0.000035
1649	8.2400e+01	7.0570	-0.224242	0.000075	0.751179	0.254506	-0.000034
1650	8.2450e+01	7.0249	-0.242980	0.000082	0.822720	0.278745	-0.000037
1651	8.2500e+01	6.9993	-0.258052	0.000066	0.661753	0.224208	-0.000030
1652	8.2550e+01	7.0217	-0.275975	-0.000079	-0.786950	-0.266626	-0.000036
1653	8.2600e+01	6.9672	-0.293083	0.000075	0.751179	0.254506	-0.000034
1654	8.2650e+01	6.9704	-0.309377	-0.000072	-0.715409	-0.242387	-0.000033
1655	8.2700e+01	6.9303	-0.326078	0.000073	0.733294	0.248447	-0.000033
1656	8.2750e+01	6.9383	-0.344408	-0.000080	-0.804835	-0.272686	-0.000037
1657	8.2800e+01	6.8966	-0.355814	0.000050	0.500786	0.169671	-0.000023
1658	8.2850e+01	6.8725	-0.374959	0.000084	0.840606	0.284805	-0.000038
1659	8.2900e+01	6.8244	-0.390845	0.000070	0.697524	0.236327	-0.000032
1660	8.2950e+01	6.8404	-0.405917	-0.000066	-0.661753	-0.224208	-0.000030
1661	8.3000e+01	6.8132	-0.424247	0.000080	0.804835	0.272686	-0.000037
1662	8.3050e+01	6.8116	-0.438912	0.000064	0.643868	0.218148	-0.000029
1663	8.3100e+01	6.7859	-0.454798	0.000070	0.697524	0.236327	-0.000032
1664	8.3150e+01	6.7586	-0.473128	0.000080	0.804835	0.272686	-0.000037
1665	8.3200e+01	6.7378	-0.490237	0.000075	0.751179	0.254506	-0.000034
1666	8.3250e+01	6.7185	-0.502457	0.000054	0.536557	0.181790	-0.000024
1667	8.3300e+01	6.6993	-0.525268	0.000100	1.001573	0.339342	-0.000046
1668	8.3350e+01	6.6688	-0.539525	0.000063	0.625983	0.212089	-0.000029
1669	8.3400e+01	6.6736	-0.554190	-0.000064	-0.643868	-0.218148	-0.000029
1670	8.3450e+01	6.6463	-0.571705	0.000077	0.769065	0.260566	-0.000035
1671	8.3500e+01	6.5998	-0.589628	0.000079	0.786950	0.266626	-0.000036
1672	8.3550e+01	6.6110	-0.605515	-0.000070	-0.697524	-0.236327	-0.000032
1673	8.3600e+01	6.5822	-0.621401	0.000070	0.697524	0.236327	-0.000032
1674	8.3650e+01	6.5485	-0.638917	0.000077	0.769065	0.260566	-0.000035
1675	8.3700e+01	6.5340	-0.660099	0.000093	0.930032	0.315103	-0.000042
1676	8.3750e+01	6.5052	-0.675985	0.000070	0.697524	0.236327	-0.000032
1677	8.3800e+01	6.4907	-0.691871	0.000070	0.697524	0.236327	-0.000032
1678	8.3850e+01	6.4683	-0.704092	0.000054	0.536557	0.181790	-0.000024
1679	8.3900e+01	6.4458	-0.720385	0.000072	0.715409	0.242387	-0.000033
1680	8.3950e+01	6.4298	-0.736679	0.000072	0.715409	0.242387	-0.000033
1681	8.4000e+01	6.4282	-0.755417	0.000082	0.822720	0.278745	-0.000037
1682	8.4050e+01	6.4009	-0.772932	0.000077	0.769065	0.260566	-0.000035
1683	8.4100e+01	6.3848	-0.788004	0.000066	0.661753	0.224208	-0.000030
1684	8.4150e+01	6.3463	-0.802261	0.000063	0.625983	0.212089	-0.000029
1685	8.4200e+01	6.3207	-0.822628	0.000089	0.894261	0.302984	-0.000041
1686	8.4250e+01	6.3399	-0.838922	-0.000072	-0.715409	-0.242387	-0.000033
1687	8.4300e+01	6.2774	-0.853179	0.000063	0.625983	0.212089	-0.000029
1688	8.4350e+01	6.2870	-0.873139	-0.000088	-0.876376	-0.296924	-0.000040
1689	8.4400e+01	6.2629	-0.896357	0.000102	1.019458	0.345402	-0.000046
1690	8.4450e+01	6.2276	-0.915910	0.000086	0.858491	0.290865	-0.000039
1691	8.4500e+01	6.2469	-0.927723	-0.000052	-0.518671	-0.175731	-0.000024
1692	8.4550e+01	6.2036	-0.948497	0.000091	0.912146	0.309044	-0.000042
1693	8.4600e+01	6.1683	-0.965198	0.000073	0.733294	0.248447	-0.000033
1694	8.4650e+01	6.1362	-0.980677	0.000068	0.679638	0.230268	-0.000031
1695	8.4700e+01	6.1458	-1.000230	-0.000086	-0.858491	-0.290865	-0.000039
1696	8.4750e+01	6.1378	-1.018153	0.000079	0.786950	0.266626	-0.000036
1697	8.4800e+01	6.1185	-1.039742	0.000095	0.947917	0.321163	-0.000043
1698	8.4850e+01	6.0736	-1.053184	0.000059	0.590212	0.199969	-0.000027
1699	8.4900e+01	6.0608	-1.075588	0.000098	0.983687	0.333282	-0.000045
1700	8.4950e+01	6.0335	-1.090660	0.000066	0.661753	0.224208	-0.000030
1701	8.5000e+01	6.0239	-1.108990	0.000080	0.804835	0.272686	-0.000037
1702	8.5050e+01	5.9982	-1.127728	0.000082	0.822720	0.278745	-0.000037
1703	8.5100e+01	5.9661	-1.139948	0.000054	0.536557	0.181790	-0.000024
1704	8.5150e+01	5.9421	-1.167240	0.000120	1.198310	0.405998	-0.000055
1705	8.5200e+01	5.9405	-1.178646	0.000050	0.500786	0.169671	-0.000023
1706	8.5250e+01	5.9116	-1.197383	0.000082	0.822720	0.278745	-0.000037
1707	8.5300e+01	5.8940	-1.219787	0.000098	0.983687	0.333282	-0.000045
1708	8.5350e+01	5.8795	-1.236488	0.000073	0.733294	0.248447	-0.000033
1709	8.5400e+01	5.8779	-1.253597	0.000075	0.751179	0.254506	-0.000034
1710	8.5450e+01	5.8474	-1.275593	0.000097	0.965802	0.327223	-0.000044
1711	8.5500e+01	5.8298	-1.298812	0.000102	1.019458	0.345402	-0.000046
1712	8.5550e+01	5.7945	-1.311847	0.000057	0.572327	0.193910	-0.000026
1713	8.5600e+01	5.8041	-1.330584	-0.000082	-0.822720	-0.278745	-0.000037
1714	8.5650e+01	5.7672	-1.352581	0.000097	0.965802	0.327223	-0.000044
1715	8.5700e+01	5.7319	-1.367653	0.000066	0.661753	0.224208	-0.000030
1716	8.5750e+01	5.7159	-1.388834	0.000093	0.930032	0.315103	-0.000042
1717	8.5800e+01	5.7143	-1.411238	0.000098	0.983687	0.333282	-0.000045
1718	8.5850e+01	5.6870	-1.427532	0.000072	0.715409	0.242387	-0.000033
1719	8.5900e+01	5.6549	-1.445862	0.000080	0.804835	0.272686	-0.000037
1720	8.5950e+01	5.6405	-1.469081	0.000102	1.019458	0.345402	-0.000046
1721	8.6000e+01	5.6084	-1.487004	0.000079	0.786950	0.266626	-0.000036
1722	8.6050e+01	5.6084	-1.502483	0.000068	0.679638	0.230268	-0.000031
1723	8.6100e+01	5.5795	-1.525294	0.000100	1.001573	0.339342	-0.000046
1724	8.6150e+01	5.5474	-1.543625	0.000080	0.804835	0.272686	-0.000037
1725	8.6200e+01	5.5394	-1.562362	0.000082	0.822720	0.278745	-0.000037
1726	8.6250e+01	5.5154	-1.583137	0.000091	0.912146	0.309044	-0.000042
1727	8.6300e+01	5.5073	-1.602282	0.000084	0.840606	0.284805	-0.000038
1728	8.6350e+01	5.4688	-1.620205	0.000079	0.786950	0.266626	-0.000036
1729	8.6400e+01	5.4608	-1.638128	0.000079	0.786950	0.266626	-0.000036
1730	8.6450e+01	5.4480	-1.658495	0.000089	0.894261	0.302984	-0.000041
1731	8.6500e+01	5.4127	-1.674789	0.000072	0.715409	0.242387	-0.000033
1732	8.6550e+01	5.3934	-1.697193	0.000098	0.983687	0.333282	-0.000045
1733	8.6600e+01	5.4111	-1.716338	-0.000084	-0.840606	-0.284805	-0.000038
1734	8.6650e+01	5.3646	-1.734261	0.000079	0.786950	0.266626	-0.000036
1735	8.6700e+01	5.3469	-1.752591	0.000080	0.804835	0.272686	-0.000037
1736	8.6750e+01	5.3004	-1.774995	0.000098	0.983687	0.333282	-0.000045
1737	8.6800e+01	5.2876	-1.796584	0.000095	0.947917	0.321163	-0.000043
1738	8.6850e+01	5.2715	-1.815322	0.000082	0.822720	0.278745	-0.000037
1739	8.6900e+01	5.2571	-1.834060	0.000082	0.822720	0.278745	-0.000037
1740	8.6950e+01	5.2394	-1.852390	0.000080	0.804835	0.272686	-0.000037
1741	8.7000e+01	5.2410	-1.870313	-0.000079	-0.786950	-0.266626	-0.000036
1742	8.7050e+01	5.1929	-1.891088	0.000091	0.912146	0.309044	-0.000042
1743	8.7100e+01	5.1881	-1.911048	0.000088	0.876376	0.296924	-0.000040
1744	8.7150e+01	5.1737	-1.932637	0.000095	0.947917	0.321163	-0.000043
1745	8.7200e+01	5.1400	-1.951782	0.000084	0.840606	0.284805	-0.000038
1746	8.7250e+01	5.1111	-1.970927	0.000084	0.840606	0.284805	-0.000038
1747	8.7300e+01	5.1239	-1.988850	-0.000079	-0.786950	-0.266626	-0.000036
1748	8.7350e+01	5.1047	-2.012883	0.000106	1.055228	0.357521	-0.000048
1749	8.7400e+01	5.0662	-2.029584	0.000073	0.733294	0.248447	-0.000033
1750	8.7450e+01	5.0501	-2.048729	0.000084	0.840606	0.284805	-0.000038
1751	8.7500e+01	5.0132	-2.068689	0.000088	0.876376	0.296924	-0.000040
1752	8.7550e+01	5.0229	-2.089464	-0.000091	-0.912146	-0.309044	-0.000042
1753	8.7600e+01	4.9667	-2.107387	0.000079	0.786950	0.266626	-0.000036
1754	8.7650e+01	4.9651	-2.129791	0.000098	0.983687	0.333282	-0.000045
1755	8.7700e+01	4.9394	-2.147714	0.000079	0.786950	0.266626	-0.000036
1756	8.7750e+01	4.9426	-2.166451	-0.000082	-0.822720	-0.278745	-0.000037
1757	8.7800e+01	4.9073	-2.188448	0.000097	0.965802	0.327223	-0.000044
1758	8.7850e+01	4.8528	-2.207593	0.000084	0.840606	0.284805	-0.000038
1759	8.7900e+01	4.8881	-2.229997	-0.000098	-0.983687	-0.333282	-0.000045
1760	8.7950e+01	4.8544	-2.247105	0.000075	0.751179	0.254506	-0.000034
1761	8.8000e+01	4.8271	-2.270731	0.000104	1.037343	0.351461	-0.000047
1762	8.8050e+01	4.8095	-2.289469	0.000082	0.822720	0.278745	-0.000037
1763	8.8100e+01	4.7742	-2.309429	0.000088	0.876376	0.296924	-0.000040
1764	8.8150e+01	4.7549	-2.330203	0.000091	0.912146	0.309044	-0.000042
1765	8.8200e+01	4.7341	-2.355458	0.000111	1.108884	0.375700	-0.000051
1766	8.8250e+01	4.7052	-2.376640	0.000093	0.930032	0.315103	-0.000042
1767	8.8300e+01	4.6972	-2.398229	0.000095	0.947917	0.321163	-0.000043
1768	8.8350e+01	4.6972	-2.414523	0.000072	0.715409	0.242387	-0.000033
1769	8.8400e+01	4.6635	-2.434483	0.000088	0.876376	0.296924	-0.000040
1770	8.8450e+01	4.6507	-2.459331	0.000109	1.090999	0.369640	-0.000050
1771	8.8500e+01	4.6234	-2.483364	0.000106	1.055228	0.357521	-0.000048
1772	8.8550e+01	4.5913	-2.504138	0.000091	0.912146	0.309044	-0.000042
1773	8.8600e+01	4.5801	-2.525320	0.000093	0.930032	0.315103	-0.000042
1774	8.8650e+01	4.5656	-2.544873	0.000086	0.858491	0.290865	-0.000039
1775	8.8700e+01	4.5320	-2.566869	0.000097	0.965802	0.327223	-0.000044
1776	8.8750e+01	4.5271	-2.588458	0.000095	0.947917	0.321163	-0.000043
1777	8.8800e+01	4.4886	-2.611677	0.000102	1.019458	0.345402	-0.000046
1778	8.8850e+01	4.4999	-2.630822	-0.000084	-0.840606	-0.284805	-0.000038
1779	8.8900e+01	4.4726	-2.655670	0.000109	1.090999	0.369640	-0.000050
1780	8.8950e+01	4.4293	-2.676852	0.000093	0.930032	0.315103	-0.000042
1781	8.9000e+01	4.3956	-2.703329	0.000116	1.162540	0.393879	-0.000053
1782	8.9050e+01	4.3956	-2.718401	0.000066	0.661753	0.224208	-0.000030
1783	8.9100e+01	4.3763	-2.739582	0.000093	0.930032	0.315103	-0.000042
1784	8.9150e+01	4.3619	-2.758727	0.000084	0.840606	0.284805	-0.000038
1785	8.9200e+01	4.3234	-2.778687	0.000088	0.876376	0.296924	-0.000040
1786	8.9250e+01	4.3282	-2.802313	-0.000104	-1.037343	-0.351461	-0.000047
1787	8.9300e+01	4.2865	-2.824717	0.000098	0.983687	0.333282	-0.000045
1788	8.9350e+01	4.3058	-2.848343	-0.000104	-1.037343	-0.351461	-0.000047
1789	8.9400e+01	4.2881	-2.865044	0.000073	0.733294	0.248447	-0.000033
1790	8.9450e+01	4.2320	-2.891521	0.000116	1.162540	0.393879	-0.000053
1791	8.9500e+01	4.2111	-2.909444	0.000079	0.786950	0.266626	-0.000036
1792	8.9550e+01	4.1935	-2.931441	0.000097	0.965802	0.327223	-0.000044
1793	8.9600e+01	4.1774	-2.953030	0.000095	0.947917	0.321163	-0.000043
1794	8.9650e+01	4.1806	-2.974212	-0.000093	-0.930032	-0.315103	-0.000042
1795	8.9700e+01	4.1133	-2.999874	0.000113	1.126769	0.381760	-0.000051
1796	8.9750e+01	4.1100	-3.020649	0.000091	0.912146	0.309044	-0.000042
1797	8.9800e+01	4.1068	-3.044275	0.000104	1.037343	0.351461	-0.000047
1798	8.9850e+01	4.0780	-3.062198	0.000079	0.786950	0.266626	-0.000036
1799	8.9900e+01	4.0683	-3.088675	0.000116	1.162540	0.393879	-0.000053
1800	8.9950e+01	4.0362	-3.109857	0.000093	0.930032	0.315103	-0.000042
1801	9.0000e+01	4.0234	-3.130224	0.000089	0.894261	0.302984	-0.000041
1802	9.0050e+01	4.0122	-3.153850	0.000104	1.037343	0.351461	-0.000047
1803	9.0100e+01	3.9689	-3.173402	0.000086	0.858491	0.290865	-0.000039
1804	9.0150e+01	3.9528	-3.192955	0.000086	0.858491	0.290865	-0.000039
1805	9.0200e+01	3.9288	-3.216173	0.000102	1.019458	0.345402	-0.000046
1806	9.0250e+01	3.9175	-3.236948	0.000091	0.912146	0.309044	-0.000042
1807	9.0300e+01	3.8951	-3.258537	0.000095	0.947917	0.321163	-0.000043
1808	9.0350e+01	3.8646	-3.279719	0.000093	0.930032	0.315103	-0.000042
1809	9.0400e+01	3.8614	-3.297642	0.000079	0.786950	0.266626	-0.000036
1810	9.0450e+01	3.8453	-3.318009	0.000089	0.894261	0.302984	-0.000041
1811	9.0500e+01	3.8197	-3.345708	0.000122	1.216195	0.412058	-0.000055
1812	9.0550e+01	3.8084	-3.362409	0.000073	0.733294	0.248447	-0.000033
1813	9.0600e+01	3.7780	-3.388072	0.000113	1.126769	0.381760	-0.000051
1814	9.0650e+01	3.7507	-3.405180	0.000075	0.751179	0.254506	-0.000034
1815	9.0700e+01	3.7443	-3.425547	0.000089	0.894261	0.302984	-0.000041
1816	9.0750e+01	3.7539	-3.449988	-0.000107	-1.073113	-0.363581	-0.000049
1817	9.0800e+01	3.6881	-3.470355	0.000089	0.894261	0.302984	-0.000041
1818	9.0850e+01	3.6929	-3.491537	-0.000093	-0.930032	-0.315103	-0.000042
1819	9.0900e+01	3.6881	-3.510682	0.000084	0.840606	0.284805	-0.000038
1820	9.0950e+01	3.6384	-3.533900	0.000102	1.019458	0.345402	-0.000046
1821	9.1000e+01	3.6272	-3.557526	0.000104	1.037343	0.351461	-0.000047
1822	9.1050e+01	3.5951	-3.582781	0.000111	1.108884	0.375700	-0.000051
1823	9.1100e+01	3.5983	-3.601927	-0.000084	-0.840606	-0.284805	-0.000038
1824	9.1150e+01	3.5566	-3.630033	0.000123	1.234080	0.418118	-0.000056
1825	9.1200e+01	3.5389	-3.649178	0.000084	0.840606	0.284805	-0.000038
1826	9.1250e+01	3.5486	-3.670360	-0.000093	-0.930032	-0.315103	-0.000042
1827	9.1300e+01	3.4988	-3.692764	0.000098	0.983687	0.333282	-0.000045
1828	9.1350e+01	3.4956	-3.718426	0.000113	1.126769	0.381760	-0.000051
1829	9.1400e+01	3.4603	-3.739201	0.000091	0.912146	0.309044	-0.000042
1830	9.1450e+01	3.4379	-3.757124	0.000079	0.786950	0.266626	-0.000036
1831	9.1500e+01	3.4282	-3.785638	0.000125	1.251966	0.424177	-0.000057
1832	9.1550e+01	3.3978	-3.806820	0.000093	0.930032	0.315103	-0.000042
1833	9.1600e+01	3.3721	-3.828816	0.000097	0.965802	0.327223	-0.000044
1834	9.1650e+01	3.3689	-3.848369	0.000086	0.858491	0.290865	-0.000039
1835	9.1700e+01	3.3480	-3.870365	0.000097	0.965802	0.327223	-0.000044
1836	9.1750e+01	3.3304	-3.894398	0.000106	1.055228	0.357521	-0.000048
1837	9.1800e+01	3.3127	-3.913544	0.000084	0.840606	0.284805	-0.000038
1838	9.1850e+01	3.2694	-3.937984	0.000107	1.073113	0.363581	-0.000049
1839	9.1900e+01	3.2662	-3.960795	0.000100	1.001573	0.339342	-0.000046
1840	9.1950e+01	3.2454	-3.984421	0.000104	1.037343	0.351461	-0.000047
1841	9.2000e+01	3.2149	-4.006825	0.000098	0.983687	0.333282	-0.000045
1842	9.2050e+01	3.1940	-4.028822	0.000097	0.965802	0.327223	-0.000044
1843	9.2100e+01	3.1892	-4.051225	0.000098	0.983687	0.333282	-0.000045
1844	9.2150e+01	3.1780	-4.074037	0.000100	1.001573	0.339342	-0.000046
1845	9.2200e+01	3.1299	-4.095626	0.000095	0.947917	0.321163	-0.000043
1846	9.2250e+01	3.1234	-4.119659	0.000106	1.055228	0.357521	-0.000048
1847	9.2300e+01	3.1122	-4.138804	0.000084	0.840606	0.284805	-0.000038
1848	9.2350e+01	3.0865	-4.161208	0.000098	0.983687	0.333282	-0.000045
1849	9.2400e+01	3.0657	-4.186463	0.000111	1.108884	0.375700	-0.000051
1850	9.2450e+01	3.0352	-4.210904	0.000107	1.073113	0.363581	-0.000049
1851	9.2500e+01	3.0320	-4.230456	0.000086	0.858491	0.290865	-0.000039
1852	9.2550e+01	3.0208	-4.249601	0.000084	0.840606	0.284805	-0.000038
1853	9.2600e+01	2.9983	-4.276078	0.000116	1.162540	0.393879	-0.000053
1854	9.2650e+01	2.9486	-4.299704	0.000104	1.037343	0.351461	-0.000047
1855	9.2700e+01	2.9470	-4.320071	0.000089	0.894261	0.302984	-0.000041
1856	9.2750e+01	2.9229	-4.339217	0.000084	0.840606	0.284805	-0.000038
1857	9.2800e+01	2.8780	-4.361213	0.000097	0.965802	0.327223	-0.000044
1858	9.2850e+01	2.8780	-4.384839	0.000104	1.037343	0.351461	-0.000047
1859	9.2900e+01	2.8716	-4.403169	0.000080	0.804835	0.272686	-0.000037
1860	9.2950e+01	2.8363	-4.428017	0.000109	1.090999	0.369640	-0.000050
1861	9.3000e+01	2.8106	-4.445533	0.000077	0.769065	0.260566	-0.000035
1862	9.3050e+01	2.8058	-4.465900	0.000089	0.894261	0.302984	-0.000041
1863	9.3100e+01	2.7769	-4.488304	0.000098	0.983687	0.333282	-0.000045
1864	9.3150e+01	2.7785	-4.513559	-0.000111	-1.108884	-0.375700	-0.000051
1865	9.3200e+01	2.7481	-4.536370	0.000100	1.001573	0.339342	-0.000046
1866	9.3250e+01	2.7208	-4.559589	0.000102	1.019458	0.345402	-0.000046
1867	9.3300e+01	2.7144	-4.578734	0.000084	0.840606	0.284805	-0.000038
1868	9.3350e+01	2.6807	-4.600323	0.000095	0.947917	0.321163	-0.000043
1869	9.3400e+01	2.6598	-4.621505	0.000093	0.930032	0.315103	-0.000042
1870	9.3450e+01	2.6502	-4.643094	0.000095	0.947917	0.321163	-0.000043
1871	9.3500e+01	2.5973	-4.663461	0.000089	0.894261	0.302984	-0.000041
1872	9.3550e+01	2.6165	-4.688309	-0.000109	-1.090999	-0.369640	-0.000050
1873	9.3600e+01	2.5668	-4.707454	0.000084	0.840606	0.284805	-0.000038
1874	9.3650e+01	2.5668	-4.729451	0.000097	0.965802	0.327223	-0.000044
1875	9.3700e+01	2.5459	-4.750633	0.000093	0.930032	0.315103	-0.000042
1876	9.3750e+01	2.5138	-4.775888	0.000111	1.108884	0.375700	-0.000051
1877	9.3800e+01	2.4930	-4.796662	0.000091	0.912146	0.309044	-0.000042
1878	9.3850e+01	2.4914	-4.815807	0.000084	0.840606	0.284805	-0.000038
1879	9.3900e+01	2.4673	-4.835360	0.000086	0.858491	0.290865	-0.000039
1880	9.3950e+01	2.4320	-4.858171	0.000100	1.001573	0.339342	-0.000046
1881	9.4000e+01	2.4208	-4.878538	0.000089	0.894261	0.302984	-0.000041
1882	9.4050e+01	2.4047	-4.901757	0.000102	1.019458	0.345402	-0.000046
1883	9.4100e+01	2.3695	-4.920494	0.000082	0.822720	0.278745	-0.000037
1884	9.4150e+01	2.3759	-4.944120	-0.000104	-1.037343	-0.351461	-0.000047
1885	9.4200e+01	2.3390	-4.966931	0.000100	1.001573	0.339342	-0.000046
1886	9.4250e+01	2.3326	-4.992187	0.000111	1.108884	0.375700	-0.000051
1887	9.4300e+01	2.2924	-5.009295	0.000075	0.751179	0.254506	-0.000034
1888	9.4350e+01	2.2668	-5.032106	0.000100	1.001573	0.339342	-0.000046
1889	9.4400e+01	2.2539	-5.056547	0.000107	1.073113	0.363581	-0.000049
1890	9.4450e+01	2.2652	-5.076507	-0.000088	-0.876376	-0.296924	-0.000040
1891	9.4500e+01	2.2315	-5.096466	0.000088	0.876376	0.296924	-0.000040
1892	9.4550e+01	2.1930	-5.123758	0.000120	1.198310	0.405998	-0.000055
1893	9.4600e+01	2.1802	-5.143718	0.000088	0.876376	0.296924	-0.000040
1894	9.4650e+01	2.1657	-5.160419	0.000073	0.733294	0.248447	-0.000033
1895	9.4700e+01	2.1577	-5.189340	0.000127	1.269851	0.430237	-0.000058
1896	9.4750e+01	2.1400	-5.206449	0.000075	0.751179	0.254506	-0.000034
1897	9.4800e+01	2.0887	-5.231704	0.000111	1.108884	0.375700	-0.000051
1898	9.4850e+01	2.0614	-5.252479	0.000091	0.912146	0.309044	-0.000042
1899	9.4900e+01	2.0502	-5.275697	0.000102	1.019458	0.345402	-0.000046
1900	9.4950e+01	2.0502	-5.295657	0.000088	0.876376	0.296924	-0.000040
1901	9.5000e+01	2.0181	-5.320505	0.000109	1.090999	0.369640	-0.000050
1902	9.5050e+01	1.9957	-5.344945	0.000107	1.073113	0.363581	-0.000049
1903	9.5100e+01	1.9876	-5.366942	0.000097	0.965802	0.327223	-0.000044
1904	9.5150e+01	1.9588	-5.389753	0.000100	1.001573	0.339342	-0.000046
1905	9.5200e+01	1.9475	-5.412157	0.000098	0.983687	0.333282	-0.000045
1906	9.5250e+01	1.9219	-5.433746	0.000095	0.947917	0.321163	-0.000043
1907	9.5300e+01	1.8753	-5.454520	0.000091	0.912146	0.309044	-0.000042
1908	9.5350e+01	1.8850	-5.483034	-0.000125	-1.251966	-0.424177	-0.000057
1909	9.5400e+01	1.8834	-5.500550	0.000077	0.769065	0.260566	-0.000035
1910	9.5450e+01	1.8256	-5.523361	0.000100	1.001573	0.339342	-0.000046
1911	9.5500e+01	1.8192	-5.544950	0.000095	0.947917	0.321163	-0.000043
1912	9.5550e+01	1.8096	-5.569391	0.000107	1.073113	0.363581	-0.000049
1913	9.5600e+01	1.7727	-5.592610	0.000102	1.019458	0.345402	-0.000046
1914	9.5650e+01	1.7454	-5.614606	0.000097	0.965802	0.327223	-0.000044
1915	9.5700e+01	1.7278	-5.639454	0.000109	1.090999	0.369640	-0.000050
1916	9.5750e+01	1.7262	-5.661450	0.000097	0.965802	0.327223	-0.000044
1917	9.5800e+01	1.7342	-5.679374	-0.000079	-0.786950	-0.266626	-0.000036
1918	9.5850e+01	1.6588	-5.701370	0.000097	0.965802	0.327223	-0.000044
1919	9.5900e+01	1.6363	-5.727847	0.000116	1.162540	0.393879	-0.000053
1920	9.5950e+01	1.6363	-5.748622	0.000091	0.912146	0.309044	-0.000042
1921	9.6000e+01	1.6090	-5.768582	0.000088	0.876376	0.296924	-0.000040
1922	9.6050e+01	1.6106	-5.797503	-0.000127	-1.269851	-0.430237	-0.000058
1923	9.6100e+01	1.5721	-5.820314	0.000100	1.001573	0.339342	-0.000046
1924	9.6150e+01	1.5513	-5.843125	0.000100	1.001573	0.339342	-0.000046
1925	9.6200e+01	1.5561	-5.863492	-0.000089	-0.894261	-0.302984	-0.000041
1926	9.6250e+01	1.5288	-5.891192	0.000122	1.216195	0.412058	-0.000055
1927	9.6300e+01	1.5080	-5.912373	0.000093	0.930032	0.315103	-0.000042
1928	9.6350e+01	1.4631	-5.935592	0.000102	1.019458	0.345402	-0.000046
1929	9.6400e+01	1.4695	-5.956366	-0.000091	-0.912146	-0.309044	-0.000042
1930	9.6450e+01	1.4214	-5.981214	0.000109	1.090999	0.369640	-0.000050
1931	9.6500e+01	1.4149	-6.002804	0.000095	0.947917	0.321163	-0.000043
1932	9.6550e+01	1.4197	-6.027244	-0.000107	-1.073113	-0.363581	-0.000049
1933	9.6600e+01	1.3893	-6.052092	0.000109	1.090999	0.369640	-0.000050
1934	9.6650e+01	1.3588	-6.070830	0.000082	0.822720	0.278745	-0.000037
1935	9.6700e+01	1.3171	-6.095270	0.000107	1.073113	0.363581	-0.000049
1936	9.6750e+01	1.2978	-6.117674	0.000098	0.983687	0.333282	-0.000045
1937	9.6800e+01	1.2930	-6.138856	0.000093	0.930032	0.315103	-0.000042
1938	9.6850e+01	1.2706	-6.160852	0.000097	0.965802	0.327223	-0.000044
1939	9.6900e+01	1.2497	-6.183664	0.000100	1.001573	0.339342	-0.000046
1940	9.6950e+01	1.2401	-6.202401	0.000082	0.822720	0.278745	-0.000037
1941	9.7000e+01	1.2256	-6.223991	0.000095	0.947917	0.321163	-0.000043
1942	9.7050e+01	1.1984	-6.244765	0.000091	0.912146	0.309044	-0.000042
1943	9.7100e+01	1.1903	-6.274094	0.000129	1.287736	0.436297	-0.000059
1944	9.7150e+01	1.1663	-6.292424	0.000080	0.804835	0.272686	-0.000037
1945	9.7200e+01	1.1262	-6.315643	0.000102	1.019458	0.345402	-0.000046
1946	9.7250e+01	1.0989	-6.339676	0.000106	1.055228	0.357521	-0.000048
1947	9.7300e+01	1.0829	-6.359636	0.000088	0.876376	0.296924	-0.000040
1948	9.7350e+01	1.0748	-6.384891	0.000111	1.108884	0.375700	-0.000051
1949	9.7400e+01	1.0620	-6.409739	0.000109	1.090999	0.369640	-0.000050
1950	9.7450e+01	1.0540	-6.432550	0.000100	1.001573	0.339342	-0.000046
1951	9.7500e+01	0.9930	-6.453732	0.000093	0.930032	0.315103	-0.000042
1952	9.7550e+01	1.0026	-6.479802	-0.000114	-1.144654	-0.387819	-0.000052
1953	9.7600e+01	1.0010	-6.505872	0.000114	1.144654	0.387819	-0.000052
1954	9.7650e+01	0.9657	-6.528275	0.000098	0.983687	0.333282	-0.000045
1955	9.7700e+01	0.9272	-6.551901	0.000104	1.037343	0.351461	-0.000047
1956	9.7750e+01	0.9048	-6.571046	0.000084	0.840606	0.284805	-0.000038
1957	9.7800e+01	0.9176	-6.597116	-0.000114	-1.144654	-0.387819	-0.000052
1958	9.7850e+01	0.8984	-6.620742	0.000104	1.037343	0.351461	-0.000047
1959	9.7900e+01	0.8583	-6.643961	0.000102	1.019458	0.345402	-0.000046
1960	9.7950e+01	0.8406	-6.664735	0.000091	0.912146	0.309044	-0.000042
1961	9.8000e+01	0.8262	-6.690398	0.000113	1.126769	0.381760	-0.000051
1962	9.8050e+01	0.8021	-6.712802	0.000098	0.983687	0.333282	-0.000045
1963	9.8100e+01	0.7700	-6.737242	0.000107	1.073113	0.363581	-0.000049
1964	9.8150e+01	0.7668	-6.762090	0.000109	1.090999	0.369640	-0.000050
1965	9.8200e+01	0.7492	-6.786531	0.000107	1.073113	0.363581	-0.000049
1966	9.8250e+01	0.7171	-6.806490	0.000088	0.876376	0.296924	-0.000040
1967	9.8300e+01	0.6914	-6.828487	0.000097	0.965802	0.327223	-0.000044
1968	9.8350e+01	0.6754	-6.852927	0.000107	1.073113	0.363581	-0.000049
1969	9.8400e+01	0.6706	-6.878183	0.000111	1.108884	0.375700	-0.000051
1970	9.8450e+01	0.6545	-6.907511	0.000129	1.287736	0.436297	-0.000059
1971	9.8500e+01	0.6032	-6.928693	0.000093	0.930032	0.315103	-0.000042
1972	9.8550e+01	0.6064	-6.960466	-0.000140	-1.395047	-0.472655	-0.000064
1973	9.8600e+01	0.5759	-6.981240	0.000091	0.912146	0.309044	-0.000042
1974	9.8650e+01	0.5663	-7.009347	0.000123	1.234080	0.418118	-0.000056
1975	9.8700e+01	0.5519	-7.028899	0.000086	0.858491	0.290865	-0.000039
1976	9.8750e+01	0.5214	-7.060265	0.000138	1.377162	0.466595	-0.000063
1977	9.8800e+01	0.5150	-7.083483	0.000102	1.019458	0.345402	-0.000046
1978	9.8850e+01	0.4604	-7.112812	0.000129	1.287736	0.436297	-0.000059
1979	9.8900e+01	0.4492	-7.134808	0.000097	0.965802	0.327223	-0.000044
1980	9.8950e+01	0.4364	-7.160064	0.000111	1.108884	0.375700	-0.000051
1981	9.9000e+01	0.4219	-7.186134	0.000114	1.144654	0.387819	-0.000052
1982	9.9050e+01	0.4027	-7.215055	0.000127	1.269851	0.430237	-0.000058
1983	9.9100e+01	0.3882	-7.237459	0.000098	0.983687	0.333282	-0.000045
1984	9.9150e+01	0.3642	-7.262307	0.000109	1.090999	0.369640	-0.000050
1985	9.9200e+01	0.3417	-7.286340	0.000106	1.055228	0.357521	-0.000048
1986	9.9250e+01	0.3112	-7.314447	0.000123	1.234080	0.418118	-0.000056
1987	9.9300e+01	0.3064	-7.338887	0.000107	1.073113	0.363581	-0.000049
1988	9.9350e+01	0.2839	-7.364957	0.000114	1.144654	0.387819	-0.000052
1989	9.9400e+01	0.2599	-7.392656	0.000122	1.216195	0.412058	-0.000055
1990	9.9450e+01	0.2503	-7.412616	0.000088	0.876376	0.296924	-0.000040
1991	9.9500e+01	0.2134	-7.441537	0.000127	1.269851	0.430237	-0.000058
1992	9.9550e+01	0.1797	-7.463127	0.000095	0.947917	0.321163	-0.000043
1993	9.9600e+01	0.1733	-7.488789	0.000113	1.126769	0.381760	-0.000051
1994	9.9650e+01	0.1476	-7.516896	0.000123	1.234080	0.418118	-0.000056
1995	9.9700e+01	0.1524	-7.539707	-0.000100	-1.001573	-0.339342	-0.000046
1996	9.9750e+01	0.1059	-7.566592	0.000118	1.180425	0.399939	-0.000054
1997	9.9800e+01	0.1091	-7.595106	-0.000125	-1.251966	-0.424177	-0.000057
1998	9.9850e+01	0.0802	-7.619953	0.000109	1.090999	0.369640	-0.000050
1999	9.9900e+01	0.0738	-7.648060	0.000123	1.234080	0.418118	-0.000056
2000	9.9950e+01	0.0642	-7.668835	0.000091	0.912146	0.309044	-0.000042
2001	1.0000e+02	0.0321	-7.685943	0.000091	0.912146	0.309044	-0.000034

PMax (uC/cm2):	1.80e+01
Pr (uC/cm2):	1.33e+00
-Pr (uC/cm2):	0.00e+00
PLoss (uC/cm2):	0.00e+00
C (Max-Eff) (nF):	9.01e-02
K (Eff):	3.05e+02
Vert. (+/-Pr) Shift (uC/cm2):	6.67e-01
Offset (uC/cm2):	9.02e+00

A (Loop Area - uC/cm2·Volts):	-2.71e-02



Hysteresis Version: 5.48.1 - Radiant Technologies, Inc., 1999 - 9/12/24

