»»»»»»»»»»»»»»»»»»»»»»»»»»»»»»»»»»»» Hysteresis ««««««««««««««««««««««««««««««««««««
»»»  Executed Version:	5.48.1
»»»  Vision Version:	5.48.4 (R)
»»»  Vision Compiled:	9/18/24
»»»  Driver Version:	5.47.0
»»»  Windows Version:	Windows 8 or 8.1
»»»  Processor Information:	x86 (AMD or Intel) - 32 Processors
»»»  Tester Name:	PMF21124-494 (100V)
»»»  Tester S/N:	PMF21124-494
»»»  Internal Amp Type:	100V RevK 270k
»»»  Internal Amp S/N:	iAB2-596/K     
»»»  Execution Count:	1
»»»»»»»»»»»»»»»»»»»»»»»»»»»»»»»»»»»»»»»»»»««««««««««««««««««««««««««««««««««««««««««

Stored:	10/8/2025 - 19:25:49
Configured:	10/08/25 04:22:59 PM
Executed:	10/08/25 07:25:03 PM

»»»»»»»»»»»»»»»»»»»»»»»»»»»»»»»»»»» Sample Info ««««««««««««««««««««««««««««««««««««
Sample Name:	Int. Ref. Ferroelectric
Lot Name:	N/A
Wafer Name:	N/A
Die Row/Column:	0/0
Capacitor Number:	0
Sample Area (cm2):	1.00e-04
Sample Thickness (microns):	3.00e-01

Amplifier:	Internal

»»»»»»»»»»»»»»»»»»»»»»»»»»»»»»»»»»» Tester Info «««««««««««««««««««««««««««««««««««
Tester Name:	PMF21124-494 (100V)
Tester Serial Number:	PMF21124-494
Return Signal Amp. Level:	0.02 [Index: 2]

»»»»»»»»»»»»»»»»»»»»»»»»»»»»»»»» Hysteresis Info ««««««««««««««««««««««««««««««««««
Task Name:	Hyste-8
Volts:	20.00
Field:	666.67 (kV/cm)
DCBias:	0.00
DCField:	0.00 (kV/cm)
Hysteresis Period (ms):	5.00e-01
Preset:	Enabled
Preset Delay (ms):	1.00e+03
Profile:	Standard Monopolar

»»»»»»»»»»»»»»»»»»»»»»»»»»»»»»»»»»»»»» Data «««««««««««««««««««««««««««««««««««««««
Points:	1001

Valid Data

Point	Time (ms)	Drive Voltage	Measured Polarization (uC/cm2)	Capacitance (uF)	Normalized Capacitance (uF/cm2)	Dielectric Constant	Instantaneous Current (mA)
   1	0.0000e+00	0.0305	-11.832788	0.000722	7.223051	2.447236	0.058254
   2	5.0000e-04	0.0738	-11.541519	0.000722	7.223051	2.447236	0.058254
   3	1.0000e-03	0.1155	-11.432293	0.000271	2.708644	0.917714	0.021845
   4	1.5000e-03	0.1444	-11.614336	-0.000451	-4.514407	-1.529523	-0.036409
   5	2.0000e-03	0.2037	-11.286659	0.000813	8.125933	2.753141	0.065535
   6	2.5000e-03	0.2454	-11.869196	-0.001445	-14.446103	-4.894472	-0.116507
   7	3.0000e-03	0.2839	-11.432293	0.001083	10.834577	3.670854	0.087381
   8	3.5000e-03	0.3273	-11.286659	0.000361	3.611526	1.223618	0.029127
   9	4.0000e-03	0.3593	-11.505110	-0.000542	-5.417288	-1.835427	-0.043690
  10	4.5000e-03	0.4139	-10.995390	0.001264	12.640340	4.282663	0.101944
  11	5.0000e-03	0.4171	-11.213842	-0.000542	-5.417288	-1.835427	-0.043690
  12	5.5000e-03	0.4700	-11.323067	-0.000271	-2.708644	-0.917714	-0.021845
  13	6.0000e-03	0.5118	-11.213842	0.000271	2.708644	0.917714	0.021845
  14	6.5000e-03	0.5695	-11.104616	0.000271	2.708644	0.917714	0.021845
  15	7.0000e-03	0.6000	-10.704122	0.000993	9.931696	3.364950	0.080099
  16	7.5000e-03	0.6513	-11.177433	-0.001174	-11.737458	-3.976759	-0.094662
  17	8.0000e-03	0.6577	-10.813347	0.000903	9.028814	3.059045	0.072817
  18	8.5000e-03	0.7219	-10.522079	0.000722	7.223051	2.447236	0.058254
  19	9.0000e-03	0.7444	-10.740530	-0.000542	-5.417288	-1.835427	-0.043690
  20	9.5000e-03	0.7829	-10.558487	0.000451	4.514407	1.529523	0.036409
  21	1.0000e-02	0.8454	-10.594896	-0.000090	-0.902881	-0.305905	-0.007282
  22	1.0500e-02	0.8759	-10.740530	-0.000361	-3.611526	-1.223618	-0.029127
  23	1.1000e-02	0.9064	-10.340036	0.000993	9.931696	3.364950	0.080099
  24	1.1500e-02	0.9449	-10.558487	-0.000542	-5.417288	-1.835427	-0.043690
  25	1.2000e-02	0.9850	-10.376444	0.000451	4.514407	1.529523	0.036409
  26	1.2500e-02	1.0315	-10.121584	0.000632	6.320170	2.141332	0.050972
  27	1.3000e-02	1.0780	-10.085176	0.000090	0.902881	0.305905	0.007282
  28	1.3500e-02	1.1165	-10.303627	-0.000542	-5.417288	-1.835427	-0.043690
  29	1.4000e-02	1.1679	-10.048767	0.000632	6.320170	2.141332	0.050972
  30	1.4500e-02	1.2016	-10.121584	-0.000181	-1.805763	-0.611809	-0.014563
  31	1.5000e-02	1.2465	-10.085176	0.000090	0.902881	0.305905	0.007282
  32	1.5500e-02	1.2673	-9.903133	0.000451	4.514407	1.529523	0.036409
  33	1.6000e-02	1.3010	-10.012359	-0.000271	-2.708644	-0.917714	-0.021845
  34	1.6500e-02	1.3700	-9.575456	0.001083	10.834577	3.670854	0.087381
  35	1.7000e-02	1.3877	-9.575456	0.000000	0.000000	0.000000	0.000000
  36	1.7500e-02	1.4502	-9.684681	-0.000271	-2.708644	-0.917714	-0.021845
  37	1.8000e-02	1.4775	-9.757499	-0.000181	-1.805763	-0.611809	-0.014563
  38	1.8500e-02	1.5160	-9.684681	0.000181	1.805763	0.611809	0.014563
  39	1.9000e-02	1.5673	-9.757499	-0.000181	-1.805763	-0.611809	-0.014563
  40	1.9500e-02	1.5850	-9.721090	0.000090	0.902881	0.305905	0.007282
  41	2.0000e-02	1.6540	-9.320596	0.000993	9.931696	3.364950	0.080099
  42	2.0500e-02	1.6716	-9.575456	-0.000632	-6.320170	-2.141332	-0.050972
  43	2.1000e-02	1.7021	-9.429821	0.000361	3.611526	1.223618	0.029127
  44	2.1500e-02	1.7695	-9.320596	0.000271	2.708644	0.917714	0.021845
  45	2.2000e-02	1.8032	-9.138553	0.000451	4.514407	1.529523	0.036409
  46	2.2500e-02	1.8417	-9.065736	0.000181	1.805763	0.611809	0.014563
  47	2.3000e-02	1.8721	-9.284187	-0.000542	-5.417288	-1.835427	-0.043690
  48	2.3500e-02	1.9283	-9.029327	0.000632	6.320170	2.141332	0.050972
  49	2.4000e-02	1.9443	-8.847284	0.000451	4.514407	1.529523	0.036409
  50	2.4500e-02	1.9957	-8.810876	0.000090	0.902881	0.305905	0.007282
  51	2.5000e-02	2.0261	-8.665241	0.000361	3.611526	1.223618	0.029127
  52	2.5500e-02	2.0855	-8.847284	-0.000451	-4.514407	-1.529523	-0.036409
  53	2.6000e-02	2.0999	-8.701650	0.000361	3.611526	1.223618	0.029127
  54	2.6500e-02	2.1769	-8.556016	0.000361	3.611526	1.223618	0.029127
  55	2.7000e-02	2.2042	-8.446790	0.000271	2.708644	0.917714	0.021845
  56	2.7500e-02	2.2299	-8.665241	-0.000542	-5.417288	-1.835427	-0.043690
  57	2.8000e-02	2.2812	-8.410381	0.000632	6.320170	2.141332	0.050972
  58	2.8500e-02	2.3165	-8.373973	0.000090	0.902881	0.305905	0.007282
  59	2.9000e-02	2.3791	-8.228338	0.000361	3.611526	1.223618	0.029127
  60	2.9500e-02	2.4096	-8.410381	-0.000451	-4.514407	-1.529523	-0.036409
  61	3.0000e-02	2.4336	-8.628833	-0.000542	-5.417288	-1.835427	-0.043690
  62	3.0500e-02	2.4673	-8.337564	0.000722	7.223051	2.447236	0.058254
  63	3.1000e-02	2.5090	-8.082704	0.000632	6.320170	2.141332	0.050972
  64	3.1500e-02	2.5716	-8.446790	-0.000903	-9.028814	-3.059045	-0.072817
  65	3.2000e-02	2.5908	-8.009887	0.001083	10.834577	3.670854	0.087381
  66	3.2500e-02	2.6406	-8.119113	-0.000271	-2.708644	-0.917714	-0.021845
  67	3.3000e-02	2.6967	-7.973478	0.000361	3.611526	1.223618	0.029127
  68	3.3500e-02	2.7144	-8.082704	-0.000271	-2.708644	-0.917714	-0.021845
  69	3.4000e-02	2.7593	-7.755027	0.000813	8.125933	2.753141	0.065535
  70	3.4500e-02	2.8138	-7.390941	0.000903	9.028814	3.059045	0.072817
  71	3.5000e-02	2.8363	-7.900661	-0.001264	-12.640340	-4.282663	-0.101944
  72	3.5500e-02	2.8764	-7.755027	0.000361	3.611526	1.223618	0.029127
  73	3.6000e-02	2.9197	-7.864253	-0.000271	-2.708644	-0.917714	-0.021845
  74	3.6500e-02	2.9454	-7.572984	0.000722	7.223051	2.447236	0.058254
  75	3.7000e-02	3.0079	-7.463758	0.000271	2.708644	0.917714	0.021845
  76	3.7500e-02	3.0368	-7.572984	-0.000271	-2.708644	-0.917714	-0.021845
  77	3.8000e-02	3.0673	-7.500167	0.000181	1.805763	0.611809	0.014563
  78	3.8500e-02	3.1315	-7.390941	0.000271	2.708644	0.917714	0.021845
  79	3.9000e-02	3.1475	-7.172490	0.000542	5.417288	1.835427	0.043690
  80	3.9500e-02	3.2069	-7.354533	-0.000451	-4.514407	-1.529523	-0.036409
  81	4.0000e-02	3.2293	-7.245307	0.000271	2.708644	0.917714	0.021845
  82	4.0500e-02	3.2742	-7.208898	0.000090	0.902881	0.305905	0.007282
  83	4.1000e-02	3.3143	-7.063264	0.000361	3.611526	1.223618	0.029127
  84	4.1500e-02	3.3561	-6.626361	0.001083	10.834577	3.670854	0.087381
  85	4.2000e-02	3.3946	-7.136081	-0.001264	-12.640340	-4.282663	-0.101944
  86	4.2500e-02	3.4475	-6.699178	0.001083	10.834577	3.670854	0.087381
  87	4.3000e-02	3.4651	-7.099673	-0.000993	-9.931696	-3.364950	-0.080099
  88	4.3500e-02	3.5165	-6.553544	0.001354	13.543221	4.588568	0.109226
  89	4.4000e-02	3.5662	-6.699178	-0.000361	-3.611526	-1.223618	-0.029127
  90	4.4500e-02	3.6015	-6.844812	-0.000361	-3.611526	-1.223618	-0.029127
  91	4.5000e-02	3.6416	-6.626361	0.000542	5.417288	1.835427	0.043690
  92	4.5500e-02	3.6705	-6.699178	-0.000181	-1.805763	-0.611809	-0.014563
  93	4.6000e-02	3.7266	-6.262275	0.001083	10.834577	3.670854	0.087381
  94	4.6500e-02	3.7555	-6.735587	-0.001174	-11.737458	-3.976759	-0.094662
  95	4.7000e-02	3.8020	-6.335092	0.000993	9.931696	3.364950	0.080099
  96	4.7500e-02	3.8101	-6.407910	-0.000181	-1.805763	-0.611809	-0.014563
  97	4.8000e-02	3.8822	-6.589952	-0.000451	-4.514407	-1.529523	-0.036409
  98	4.8500e-02	3.9304	-5.679738	0.002257	22.572035	7.647613	0.182043
  99	4.9000e-02	3.9576	-6.407910	-0.001806	-18.057628	-6.118090	-0.145634
 100	4.9500e-02	4.0218	-6.116641	0.000722	7.223051	2.447236	0.058254
 101	5.0000e-02	4.0395	-6.262275	-0.000361	-3.611526	-1.223618	-0.029127
 102	5.0500e-02	4.0748	-5.971007	0.000722	7.223051	2.447236	0.058254
 103	5.1000e-02	4.1309	-6.080232	-0.000271	-2.708644	-0.917714	-0.021845
 104	5.1500e-02	4.1630	-5.971007	0.000271	2.708644	0.917714	0.021845
 105	5.2000e-02	4.2015	-5.606921	0.000903	9.028814	3.059045	0.072817
 106	5.2500e-02	4.2496	-5.752555	-0.000361	-3.611526	-1.223618	-0.029127
 107	5.3000e-02	4.2913	-5.133609	0.001535	15.348984	5.200377	0.123789
 108	5.3500e-02	4.3378	-5.679738	-0.001354	-13.543221	-4.588568	-0.109226
 109	5.4000e-02	4.3362	-5.716147	0.000090	0.902881	0.305905	-0.007282
 110	5.4500e-02	4.4004	-5.679738	0.000090	0.902881	0.305905	0.007282
 111	5.5000e-02	4.4501	-5.570512	0.000271	2.708644	0.917714	0.021845
 112	5.5500e-02	4.4870	-5.825372	-0.000632	-6.320170	-2.141332	-0.050972
 113	5.6000e-02	4.5271	-5.461287	0.000903	9.028814	3.059045	0.072817
 114	5.6500e-02	4.5592	-5.170018	0.000722	7.223051	2.447236	0.058254
 115	5.7000e-02	4.6025	-5.206427	-0.000090	-0.902881	-0.305905	-0.007282
 116	5.7500e-02	4.6394	-5.206427	0.000000	0.000000	0.000000	0.000000
 117	5.8000e-02	4.6683	-5.279244	-0.000181	-1.805763	-0.611809	-0.014563
 118	5.8500e-02	4.7277	-5.279244	0.000000	0.000000	0.000000	0.000000
 119	5.9000e-02	4.7694	-4.696706	0.001445	14.446103	4.894472	0.116507
 120	5.9500e-02	4.7999	-5.279244	-0.001445	-14.446103	-4.894472	-0.116507
 121	6.0000e-02	4.8303	-4.769524	0.001264	12.640340	4.282663	0.101944
 122	6.0500e-02	4.8865	-5.024384	-0.000632	-6.320170	-2.141332	-0.050972
 123	6.1000e-02	4.9025	-4.951566	0.000181	1.805763	0.611809	0.014563
 124	6.1500e-02	4.9603	-4.878749	0.000181	1.805763	0.611809	0.014563
 125	6.2000e-02	5.0277	-4.915158	-0.000090	-0.902881	-0.305905	-0.007282
 126	6.2500e-02	5.0421	-5.024384	-0.000271	-2.708644	-0.917714	-0.021845
 127	6.3000e-02	5.0886	-4.769524	0.000632	6.320170	2.141332	0.050972
 128	6.3500e-02	5.1384	-4.623889	0.000361	3.611526	1.223618	0.029127
 129	6.4000e-02	5.1656	-4.587481	0.000090	0.902881	0.305905	0.007282
 130	6.4500e-02	5.1897	-4.733115	-0.000361	-3.611526	-1.223618	-0.029127
 131	6.5000e-02	5.2282	-4.514664	0.000542	5.417288	1.835427	0.043690
 132	6.5500e-02	5.2892	-4.441846	0.000181	1.805763	0.611809	0.014563
 133	6.6000e-02	5.3196	-4.441846	0.000000	0.000000	0.000000	0.000000
 134	6.6500e-02	5.3501	-4.623889	-0.000451	-4.514407	-1.529523	-0.036409
 135	6.7000e-02	5.3998	-4.259804	0.000903	9.028814	3.059045	0.072817
 136	6.7500e-02	5.4416	-4.332621	-0.000181	-1.805763	-0.611809	-0.014563
 137	6.8000e-02	5.4977	-4.041352	0.000722	7.223051	2.447236	0.058254
 138	6.8500e-02	5.5186	-4.150578	-0.000271	-2.708644	-0.917714	-0.021845
 139	6.9000e-02	5.5587	-4.004943	0.000361	3.611526	1.223618	0.029127
 140	6.9500e-02	5.6228	-3.750083	0.000632	6.320170	2.141332	0.050972
 141	7.0000e-02	5.6373	-3.822901	-0.000181	-1.805763	-0.611809	-0.014563
 142	7.0500e-02	5.6790	-3.859309	-0.000090	-0.902881	-0.305905	-0.007282
 143	7.1000e-02	5.7351	-4.004943	-0.000361	-3.611526	-1.223618	-0.029127
 144	7.1500e-02	5.7544	-4.041352	-0.000090	-0.902881	-0.305905	-0.007282
 145	7.2000e-02	5.8266	-3.385998	0.001625	16.251865	5.506281	0.131071
 146	7.2500e-02	5.8218	-3.822901	0.001083	10.834577	3.670854	-0.087381
 147	7.3000e-02	5.9004	-4.077761	-0.000632	-6.320170	-2.141332	-0.050972
 148	7.3500e-02	5.9196	-3.495223	0.001445	14.446103	4.894472	0.116507
 149	7.4000e-02	5.9613	-3.750083	-0.000632	-6.320170	-2.141332	-0.050972
 150	7.4500e-02	6.0095	-3.422406	0.000813	8.125933	2.753141	0.065535
 151	7.5000e-02	6.0335	-3.495223	-0.000181	-1.805763	-0.611809	-0.014563
 152	7.5500e-02	6.0736	-3.385998	0.000271	2.708644	0.917714	0.021845
 153	7.6000e-02	6.1153	-3.167546	0.000542	5.417288	1.835427	0.043690
 154	7.6500e-02	6.1603	-3.531632	-0.000903	-9.028814	-3.059045	-0.072817
 155	7.7000e-02	6.2052	-3.276772	0.000632	6.320170	2.141332	0.050972
 156	7.7500e-02	6.2357	-3.313181	-0.000090	-0.902881	-0.305905	-0.007282
 157	7.8000e-02	6.2918	-3.058320	0.000632	6.320170	2.141332	0.050972
 158	7.8500e-02	6.3062	-3.058320	0.000000	0.000000	0.000000	0.000000
 159	7.9000e-02	6.3720	-3.021912	0.000090	0.902881	0.305905	0.007282
 160	7.9500e-02	6.4089	-2.876278	0.000361	3.611526	1.223618	0.029127
 161	8.0000e-02	6.4426	-2.803460	0.000181	1.805763	0.611809	0.014563
 162	8.0500e-02	6.4923	-3.131138	-0.000813	-8.125933	-2.753141	-0.065535
 163	8.1000e-02	6.4939	-3.240363	-0.000271	-2.708644	-0.917714	-0.021845
 164	8.1500e-02	6.5645	-2.767052	0.001174	11.737458	3.976759	0.094662
 165	8.2000e-02	6.6014	-2.839869	-0.000181	-1.805763	-0.611809	-0.014563
 166	8.2500e-02	6.6367	-2.730643	0.000271	2.708644	0.917714	0.021845
 167	8.3000e-02	6.6495	-3.094729	-0.000903	-9.028814	-3.059045	-0.072817
 168	8.3500e-02	6.7442	-2.293740	0.001986	19.863391	6.729899	0.160198
 169	8.4000e-02	6.7586	-2.839869	-0.001354	-13.543221	-4.588568	-0.109226
 170	8.4500e-02	6.7811	-2.657826	0.000451	4.514407	1.529523	0.036409
 171	8.5000e-02	6.8421	-2.621418	0.000090	0.902881	0.305905	0.007282
 172	8.5500e-02	6.8741	-2.657826	-0.000090	-0.902881	-0.305905	-0.007282
 173	8.6000e-02	6.9383	-2.366558	0.000722	7.223051	2.447236	0.058254
 174	8.6500e-02	6.9367	-2.220923	-0.000361	-3.611526	-1.223618	0.029127
 175	8.7000e-02	7.0073	-2.184515	0.000090	0.902881	0.305905	0.007282
 176	8.7500e-02	7.0297	-1.929655	0.000632	6.320170	2.141332	0.050972
 177	8.8000e-02	7.0731	-2.184515	-0.000632	-6.320170	-2.141332	-0.050972
 178	8.8500e-02	7.1116	-2.038880	0.000361	3.611526	1.223618	0.029127
 179	8.9000e-02	7.1453	-2.220923	-0.000451	-4.514407	-1.529523	-0.036409
 180	8.9500e-02	7.2062	-2.002472	0.000542	5.417288	1.835427	0.043690
 181	9.0000e-02	7.2335	-2.184515	-0.000451	-4.514407	-1.529523	-0.036409
 182	9.0500e-02	7.2720	-1.747612	0.001083	10.834577	3.670854	0.087381
 183	9.1000e-02	7.3217	-1.784020	-0.000090	-0.902881	-0.305905	-0.007282
 184	9.1500e-02	7.3731	-1.747612	0.000090	0.902881	0.305905	0.007282
 185	9.2000e-02	7.3939	-1.747612	0.000000	0.000000	0.000000	0.000000
 186	9.2500e-02	7.4709	-1.492752	0.000632	6.320170	2.141332	0.050972
 187	9.3000e-02	7.4821	-1.747612	-0.000632	-6.320170	-2.141332	-0.050972
 188	9.3500e-02	7.5062	-1.856837	-0.000271	-2.708644	-0.917714	-0.021845
 189	9.4000e-02	7.5607	-1.638386	0.000542	5.417288	1.835427	0.043690
 190	9.4500e-02	7.6073	-1.565569	0.000181	1.805763	0.611809	0.014563
 191	9.5000e-02	7.6378	-1.492752	0.000181	1.805763	0.611809	0.014563
 192	9.5500e-02	7.6811	-1.638386	-0.000361	-3.611526	-1.223618	-0.029127
 193	9.6000e-02	7.7260	-1.492752	0.000361	3.611526	1.223618	0.029127
 194	9.6500e-02	7.7500	-1.419935	0.000181	1.805763	0.611809	0.014563
 195	9.7000e-02	7.8062	-1.128666	0.000722	7.223051	2.447236	0.058254
 196	9.7500e-02	7.8399	-1.165074	-0.000090	-0.902881	-0.305905	-0.007282
 197	9.8000e-02	7.8752	-1.529160	-0.000903	-9.028814	-3.059045	-0.072817
 198	9.8500e-02	7.9233	-1.383526	0.000361	3.611526	1.223618	0.029127
 199	9.9000e-02	7.9458	-1.019440	0.000903	9.028814	3.059045	0.072817
 200	9.9500e-02	8.0147	-0.946623	0.000181	1.805763	0.611809	0.014563
 201	1.0000e-01	8.0452	-1.092257	-0.000361	-3.611526	-1.223618	-0.029127
 202	1.0050e-01	8.0934	-1.128666	-0.000090	-0.902881	-0.305905	-0.007282
 203	1.0100e-01	8.1367	-0.837397	0.000722	7.223051	2.447236	0.058254
 204	1.0150e-01	8.1704	-0.546129	0.000722	7.223051	2.447236	0.058254
 205	1.0200e-01	8.2089	-1.019440	-0.001174	-11.737458	-3.976759	-0.094662
 206	1.0250e-01	8.2538	-0.546129	0.001174	11.737458	3.976759	0.094662
 207	1.0300e-01	8.2746	-0.691763	-0.000361	-3.611526	-1.223618	-0.029127
 208	1.0350e-01	8.3147	-0.873806	-0.000451	-4.514407	-1.529523	-0.036409
 209	1.0400e-01	8.3629	-0.800989	0.000181	1.805763	0.611809	0.014563
 210	1.0450e-01	8.4030	-0.582537	0.000542	5.417288	1.835427	0.043690
 211	1.0500e-01	8.4351	-0.582537	0.000000	0.000000	0.000000	0.000000
 212	1.0550e-01	8.4912	-0.509720	0.000181	1.805763	0.611809	0.014563
 213	1.0600e-01	8.5329	-0.728172	-0.000542	-5.417288	-1.835427	-0.043690
 214	1.0650e-01	8.5490	-0.546129	0.000451	4.514407	1.529523	0.036409
 215	1.0700e-01	8.6099	0.000000	0.001354	13.543221	4.588568	0.109226
 216	1.0750e-01	8.6340	-0.618946	-0.001535	-15.348984	-5.200377	-0.123789
 217	1.0800e-01	8.6677	-0.072817	0.001354	13.543221	4.588568	0.109226
 218	1.0850e-01	8.7270	-0.327677	-0.000632	-6.320170	-2.141332	-0.050972
 219	1.0900e-01	8.7719	-0.072817	0.000632	6.320170	2.141332	0.050972
 220	1.0950e-01	8.8121	0.000000	0.000181	1.805763	0.611809	0.014563
 221	1.1000e-01	8.8249	-0.618946	-0.001535	-15.348984	-5.200377	-0.123789
 222	1.1050e-01	8.8714	-0.109226	0.001264	12.640340	4.282663	0.101944
 223	1.1100e-01	8.9308	0.000000	0.000271	2.708644	0.917714	0.021845
 224	1.1150e-01	8.9612	0.072817	0.000181	1.805763	0.611809	0.014563
 225	1.1200e-01	9.0030	0.473312	0.000993	9.931696	3.364950	0.080099
 226	1.1250e-01	9.0431	0.109226	-0.000903	-9.028814	-3.059045	-0.072817
 227	1.1300e-01	9.0784	0.582537	0.001174	11.737458	3.976759	0.094662
 228	1.1350e-01	9.1329	0.400494	-0.000451	-4.514407	-1.529523	-0.036409
 229	1.1400e-01	9.1409	0.218451	-0.000451	-4.514407	-1.529523	-0.036409
 230	1.1450e-01	9.2227	0.364086	0.000361	3.611526	1.223618	0.029127
 231	1.1500e-01	9.2404	0.364086	0.000000	0.000000	0.000000	0.000000
 232	1.1550e-01	9.2869	0.655354	0.000722	7.223051	2.447236	0.058254
 233	1.1600e-01	9.3094	0.218451	-0.001083	-10.834577	-3.670854	-0.087381
 234	1.1650e-01	9.3591	0.509720	0.000722	7.223051	2.447236	0.058254
 235	1.1700e-01	9.4072	0.618946	0.000271	2.708644	0.917714	0.021845
 236	1.1750e-01	9.4425	0.728172	0.000271	2.708644	0.917714	0.021845
 237	1.1800e-01	9.5067	0.655354	-0.000181	-1.805763	-0.611809	-0.014563
 238	1.1850e-01	9.5035	0.800989	-0.000361	-3.611526	-1.223618	0.029127
 239	1.1900e-01	9.5452	0.764580	-0.000090	-0.902881	-0.305905	-0.007282
 240	1.1950e-01	9.5917	0.873806	0.000271	2.708644	0.917714	0.021845
 241	1.2000e-01	9.6479	0.837397	-0.000090	-0.902881	-0.305905	-0.007282
 242	1.2050e-01	9.7024	1.055849	0.000542	5.417288	1.835427	0.043690
 243	1.2100e-01	9.7120	1.092257	0.000090	0.902881	0.305905	0.007282
 244	1.2150e-01	9.7441	0.837397	-0.000632	-6.320170	-2.141332	-0.050972
 245	1.2200e-01	9.8115	0.837397	0.000000	0.000000	0.000000	0.000000
 246	1.2250e-01	9.8388	1.055849	0.000542	5.417288	1.835427	0.043690
 247	1.2300e-01	9.9029	1.128666	0.000181	1.805763	0.611809	0.014563
 248	1.2350e-01	9.9366	1.456343	0.000813	8.125933	2.753141	0.065535
 249	1.2400e-01	9.9350	1.347117	0.000271	2.708644	0.917714	-0.021845
 250	1.2450e-01	10.0152	1.274300	-0.000181	-1.805763	-0.611809	-0.014563
 251	1.2500e-01	10.0297	1.274300	0.000000	0.000000	0.000000	0.000000
 252	1.2550e-01	10.0666	1.383526	0.000271	2.708644	0.917714	0.021845
 253	1.2600e-01	10.1131	1.383526	0.000000	0.000000	0.000000	0.000000
 254	1.2650e-01	10.1676	1.347117	-0.000090	-0.902881	-0.305905	-0.007282
 255	1.2700e-01	10.2109	1.383526	0.000090	0.902881	0.305905	0.007282
 256	1.2750e-01	10.2350	1.237892	-0.000361	-3.611526	-1.223618	-0.029127
 257	1.2800e-01	10.2976	1.856837	0.001535	15.348984	5.200377	0.123789
 258	1.2850e-01	10.3232	1.893246	0.000090	0.902881	0.305905	0.007282
 259	1.2900e-01	10.3617	1.565569	-0.000813	-8.125933	-2.753141	-0.065535
 260	1.2950e-01	10.4002	1.929655	0.000903	9.028814	3.059045	0.072817
 261	1.3000e-01	10.4564	2.002472	0.000181	1.805763	0.611809	0.014563
 262	1.3050e-01	10.4692	1.711203	-0.000722	-7.223051	-2.447236	-0.058254
 263	1.3100e-01	10.5366	2.257332	0.001354	13.543221	4.588568	0.109226
 264	1.3150e-01	10.5575	2.111697	-0.000361	-3.611526	-1.223618	-0.029127
 265	1.3200e-01	10.5960	2.148106	0.000090	0.902881	0.305905	0.007282
 266	1.3250e-01	10.6409	1.893246	-0.000632	-6.320170	-2.141332	-0.050972
 267	1.3300e-01	10.6874	2.111697	0.000542	5.417288	1.835427	0.043690
 268	1.3350e-01	10.7275	2.293740	0.000451	4.514407	1.529523	0.036409
 269	1.3400e-01	10.7564	2.111697	-0.000451	-4.514407	-1.529523	-0.036409
 270	1.3450e-01	10.7997	2.075289	-0.000090	-0.902881	-0.305905	-0.007282
 271	1.3500e-01	10.8302	2.220923	0.000361	3.611526	1.223618	0.029127
 272	1.3550e-01	10.8591	2.257332	0.000090	0.902881	0.305905	0.007282
 273	1.3600e-01	10.9264	2.257332	0.000000	0.000000	0.000000	0.000000
 274	1.3650e-01	10.9665	2.475783	0.000542	5.417288	1.835427	0.043690
 275	1.3700e-01	10.9842	2.657826	0.000451	4.514407	1.529523	0.036409
 276	1.3750e-01	11.0516	2.512192	-0.000361	-3.611526	-1.223618	-0.029127
 277	1.3800e-01	11.0788	2.475783	-0.000090	-0.902881	-0.305905	-0.007282
 278	1.3850e-01	11.1382	2.694235	0.000542	5.417288	1.835427	0.043690
 279	1.3900e-01	11.1687	2.657826	-0.000090	-0.902881	-0.305905	-0.007282
 280	1.3950e-01	11.1799	2.912686	0.000632	6.320170	2.141332	0.050972
 281	1.4000e-01	11.2537	2.694235	-0.000542	-5.417288	-1.835427	-0.043690
 282	1.4050e-01	11.2826	3.058320	0.000903	9.028814	3.059045	0.072817
 283	1.4100e-01	11.3355	2.912686	-0.000361	-3.611526	-1.223618	-0.029127
 284	1.4150e-01	11.3532	3.094729	0.000451	4.514407	1.529523	0.036409
 285	1.4200e-01	11.3981	3.058320	-0.000090	-0.902881	-0.305905	-0.007282
 286	1.4250e-01	11.4446	3.094729	0.000090	0.902881	0.305905	0.007282
 287	1.4300e-01	11.4879	3.058320	-0.000090	-0.902881	-0.305905	-0.007282
 288	1.4350e-01	11.4943	2.912686	-0.000361	-3.611526	-1.223618	-0.029127
 289	1.4400e-01	11.5729	2.475783	-0.001083	-10.834577	-3.670854	-0.087381
 290	1.4450e-01	11.5938	3.349589	0.002167	21.669154	7.341708	0.174761
 291	1.4500e-01	11.6355	2.985503	-0.000903	-9.028814	-3.059045	-0.072817
 292	1.4550e-01	11.6724	2.949095	-0.000090	-0.902881	-0.305905	-0.007282
 293	1.4600e-01	11.7253	3.240363	0.000722	7.223051	2.447236	0.058254
 294	1.4650e-01	11.7542	3.276772	0.000090	0.902881	0.305905	0.007282
 295	1.4700e-01	11.7991	3.385998	0.000271	2.708644	0.917714	0.021845
 296	1.4750e-01	11.8296	3.313181	-0.000181	-1.805763	-0.611809	-0.014563
 297	1.4800e-01	11.8793	3.458815	0.000361	3.611526	1.223618	0.029127
 298	1.4850e-01	11.9403	3.422406	-0.000090	-0.902881	-0.305905	-0.007282
 299	1.4900e-01	11.9820	3.713675	0.000722	7.223051	2.447236	0.058254
 300	1.4950e-01	11.9868	3.458815	-0.000632	-6.320170	-2.141332	-0.050972
 301	1.5000e-01	12.0366	3.604449	0.000361	3.611526	1.223618	0.029127
 302	1.5050e-01	12.0686	3.422406	-0.000451	-4.514407	-1.529523	-0.036409
 303	1.5100e-01	12.1473	3.786492	0.000903	9.028814	3.059045	0.072817
 304	1.5150e-01	12.1344	3.640858	0.000361	3.611526	1.223618	-0.029127
 305	1.5200e-01	12.2034	3.822901	0.000451	4.514407	1.529523	0.036409
 306	1.5250e-01	12.2467	3.713675	-0.000271	-2.708644	-0.917714	-0.021845
 307	1.5300e-01	12.2820	3.968535	0.000632	6.320170	2.141332	0.050972
 308	1.5350e-01	12.3237	3.859309	-0.000271	-2.708644	-0.917714	-0.021845
 309	1.5400e-01	12.3751	4.114169	0.000632	6.320170	2.141332	0.050972
 310	1.5450e-01	12.4103	3.932126	-0.000451	-4.514407	-1.529523	-0.036409
 311	1.5500e-01	12.4569	4.150578	0.000542	5.417288	1.835427	0.043690
 312	1.5550e-01	12.4954	3.932126	-0.000542	-5.417288	-1.835427	-0.043690
 313	1.5600e-01	12.4970	4.186986	0.000632	6.320170	2.141332	0.050972
 314	1.5650e-01	12.5692	4.186986	0.000000	0.000000	0.000000	0.000000
 315	1.5700e-01	12.6093	4.369029	0.000451	4.514407	1.529523	0.036409
 316	1.5750e-01	12.6462	4.405438	0.000090	0.902881	0.305905	0.007282
 317	1.5800e-01	12.6654	4.259804	-0.000361	-3.611526	-1.223618	-0.029127
 318	1.5850e-01	12.7119	4.478255	0.000542	5.417288	1.835427	0.043690
 319	1.5900e-01	12.7713	4.441846	-0.000090	-0.902881	-0.305905	-0.007282
 320	1.5950e-01	12.8130	4.915158	0.001174	11.737458	3.976759	0.094662
 321	1.6000e-01	12.8563	4.405438	-0.001264	-12.640340	-4.282663	-0.101944
 322	1.6050e-01	12.8868	4.296212	-0.000271	-2.708644	-0.917714	-0.021845
 323	1.6100e-01	12.9333	4.733115	0.001083	10.834577	3.670854	0.087381
 324	1.6150e-01	12.9478	4.077761	-0.001625	-16.251865	-5.506281	-0.131071
 325	1.6200e-01	13.0200	4.660298	0.001445	14.446103	4.894472	0.116507
 326	1.6250e-01	13.0151	4.660298	-0.000000	-0.000000	-0.000000	0.000000
 327	1.6300e-01	13.0937	4.769524	0.000271	2.708644	0.917714	0.021845
 328	1.6350e-01	13.1226	4.587481	-0.000451	-4.514407	-1.529523	-0.036409
 329	1.6400e-01	13.1483	4.805932	0.000542	5.417288	1.835427	0.043690
 330	1.6450e-01	13.1932	4.878749	0.000181	1.805763	0.611809	0.014563
 331	1.6500e-01	13.2494	5.024384	0.000361	3.611526	1.223618	0.029127
 332	1.6550e-01	13.2718	4.769524	-0.000632	-6.320170	-2.141332	-0.050972
 333	1.6600e-01	13.3296	4.987975	0.000542	5.417288	1.835427	0.043690
 334	1.6650e-01	13.3777	5.170018	0.000451	4.514407	1.529523	0.036409
 335	1.6700e-01	13.4034	4.987975	-0.000451	-4.514407	-1.529523	-0.036409
 336	1.6750e-01	13.4258	5.315652	0.000813	8.125933	2.753141	0.065535
 337	1.6800e-01	13.4996	5.279244	-0.000090	-0.902881	-0.305905	-0.007282
 338	1.6850e-01	13.5269	5.097201	-0.000451	-4.514407	-1.529523	-0.036409
 339	1.6900e-01	13.5477	5.388469	0.000722	7.223051	2.447236	0.058254
 340	1.6950e-01	13.5830	4.805932	-0.001445	-14.446103	-4.894472	-0.116507
 341	1.7000e-01	13.6360	5.643329	0.002077	20.766272	7.035804	0.167479
 342	1.7050e-01	13.7098	4.951566	-0.001715	-17.154747	-5.812186	-0.138353
 343	1.7100e-01	13.6937	5.424878	-0.001174	-11.737458	-3.976759	0.094662
 344	1.7150e-01	13.7723	5.606921	0.000451	4.514407	1.529523	0.036409
 345	1.7200e-01	13.7836	5.279244	-0.000813	-8.125933	-2.753141	-0.065535
 346	1.7250e-01	13.8429	5.461287	0.000451	4.514407	1.529523	0.036409
 347	1.7300e-01	13.8862	5.352061	-0.000271	-2.708644	-0.917714	-0.021845
 348	1.7350e-01	13.9119	5.643329	0.000722	7.223051	2.447236	0.058254
 349	1.7400e-01	13.9745	5.971007	0.000813	8.125933	2.753141	0.065535
 350	1.7450e-01	14.0082	5.570512	-0.000993	-9.931696	-3.364950	-0.080099
 351	1.7500e-01	14.0595	5.934598	0.000903	9.028814	3.059045	0.072817
 352	1.7550e-01	14.0643	5.716147	-0.000542	-5.417288	-1.835427	-0.043690
 353	1.7600e-01	14.1140	6.043824	0.000813	8.125933	2.753141	0.065535
 354	1.7650e-01	14.1445	6.043824	0.000000	0.000000	0.000000	0.000000
 355	1.7700e-01	14.1991	6.153050	0.000271	2.708644	0.917714	0.021845
 356	1.7750e-01	14.2552	5.825372	-0.000813	-8.125933	-2.753141	-0.065535
 357	1.7800e-01	14.2777	5.861781	0.000090	0.902881	0.305905	0.007282
 358	1.7850e-01	14.3306	6.189458	0.000813	8.125933	2.753141	0.065535
 359	1.7900e-01	14.3499	6.189458	0.000000	0.000000	0.000000	0.000000
 360	1.7950e-01	14.4028	6.335092	0.000361	3.611526	1.223618	0.029127
 361	1.8000e-01	14.4301	6.043824	-0.000722	-7.223051	-2.447236	-0.058254
 362	1.8050e-01	14.4702	6.116641	0.000181	1.805763	0.611809	0.014563
 363	1.8100e-01	14.5263	6.116641	0.000000	0.000000	0.000000	0.000000
 364	1.8150e-01	14.5696	6.080232	-0.000090	-0.902881	-0.305905	-0.007282
 365	1.8200e-01	14.5745	6.517135	0.001083	10.834577	3.670854	0.087381
 366	1.8250e-01	14.6402	6.735587	0.000542	5.417288	1.835427	0.043690
 367	1.8300e-01	14.6739	6.553544	-0.000451	-4.514407	-1.529523	-0.036409
 368	1.8350e-01	14.7381	6.444318	-0.000271	-2.708644	-0.917714	-0.021845
 369	1.8400e-01	14.7670	6.626361	0.000451	4.514407	1.529523	0.036409
 370	1.8450e-01	14.7814	6.699178	0.000181	1.805763	0.611809	0.014563
 371	1.8500e-01	14.8295	6.371501	-0.000813	-8.125933	-2.753141	-0.065535
 372	1.8550e-01	14.8905	6.881221	0.001264	12.640340	4.282663	0.101944
 373	1.8600e-01	14.9178	6.589952	-0.000722	-7.223051	-2.447236	-0.058254
 374	1.8650e-01	14.9563	6.662770	0.000181	1.805763	0.611809	0.014563
 375	1.8700e-01	14.9996	6.881221	0.000542	5.417288	1.835427	0.043690
 376	1.8750e-01	15.0140	6.735587	-0.000361	-3.611526	-1.223618	-0.029127
 377	1.8800e-01	15.0766	6.771995	0.000090	0.902881	0.305905	0.007282
 378	1.8850e-01	15.1039	6.771995	0.000000	0.000000	0.000000	0.000000
 379	1.8900e-01	15.1632	6.735587	-0.000090	-0.902881	-0.305905	-0.007282
 380	1.8950e-01	15.1889	7.390941	0.001625	16.251865	5.506281	0.131071
 381	1.9000e-01	15.2434	6.771995	-0.001535	-15.348984	-5.200377	-0.123789
 382	1.9050e-01	15.2867	7.463758	0.001715	17.154747	5.812186	0.138353
 383	1.9100e-01	15.3108	6.881221	-0.001445	-14.446103	-4.894472	-0.116507
 384	1.9150e-01	15.3589	7.463758	0.001445	14.446103	4.894472	0.116507
 385	1.9200e-01	15.3974	7.063264	-0.000993	-9.931696	-3.364950	-0.080099
 386	1.9250e-01	15.4472	7.390941	0.000813	8.125933	2.753141	0.065535
 387	1.9300e-01	15.4744	7.026855	-0.000903	-9.028814	-3.059045	-0.072817
 388	1.9350e-01	15.4985	7.427350	0.000993	9.931696	3.364950	0.080099
 389	1.9400e-01	15.5627	7.463758	0.000090	0.902881	0.305905	0.007282
 390	1.9450e-01	15.6156	7.136081	-0.000813	-8.125933	-2.753141	-0.065535
 391	1.9500e-01	15.6316	7.572984	0.001083	10.834577	3.670854	0.087381
 392	1.9550e-01	15.6814	7.354533	-0.000542	-5.417288	-1.835427	-0.043690
 393	1.9600e-01	15.7215	7.427350	0.000181	1.805763	0.611809	0.014563
 394	1.9650e-01	15.7584	7.609393	0.000451	4.514407	1.529523	0.036409
 395	1.9700e-01	15.8193	7.572984	-0.000090	-0.902881	-0.305905	-0.007282
 396	1.9750e-01	15.8322	7.609393	0.000090	0.902881	0.305905	0.007282
 397	1.9800e-01	15.8803	7.718618	0.000271	2.708644	0.917714	0.021845
 398	1.9850e-01	15.9124	7.645801	-0.000181	-1.805763	-0.611809	-0.014563
 399	1.9900e-01	15.9509	7.718618	0.000181	1.805763	0.611809	0.014563
 400	1.9950e-01	16.0135	7.827844	0.000271	2.708644	0.917714	0.021845
 401	2.0000e-01	16.0536	8.009887	0.000451	4.514407	1.529523	0.036409
 402	2.0050e-01	16.0744	7.973478	-0.000090	-0.902881	-0.305905	-0.007282
 403	2.0100e-01	16.1209	7.900661	-0.000181	-1.805763	-0.611809	-0.014563
 404	2.0150e-01	16.1594	8.009887	0.000271	2.708644	0.917714	0.021845
 405	2.0200e-01	16.1819	7.791435	-0.000542	-5.417288	-1.835427	-0.043690
 406	2.0250e-01	16.2701	8.264747	0.001174	11.737458	3.976759	0.094662
 407	2.0300e-01	16.2749	7.973478	-0.000722	-7.223051	-2.447236	-0.058254
 408	2.0350e-01	16.3295	8.082704	0.000271	2.708644	0.917714	0.021845
 409	2.0400e-01	16.3439	8.155521	0.000181	1.805763	0.611809	0.014563
 410	2.0450e-01	16.4065	8.155521	0.000000	0.000000	0.000000	0.000000
 411	2.0500e-01	16.4273	8.119113	-0.000090	-0.902881	-0.305905	-0.007282
 412	2.0550e-01	16.4707	8.446790	0.000813	8.125933	2.753141	0.065535
 413	2.0600e-01	16.5156	8.410381	-0.000090	-0.902881	-0.305905	-0.007282
 414	2.0650e-01	16.5701	8.373973	-0.000090	-0.902881	-0.305905	-0.007282
 415	2.0700e-01	16.6118	8.483198	0.000271	2.708644	0.917714	0.021845
 416	2.0750e-01	16.6359	8.446790	-0.000090	-0.902881	-0.305905	-0.007282
 417	2.0800e-01	16.7017	8.556016	0.000271	2.708644	0.917714	0.021845
 418	2.0850e-01	16.7177	8.410381	-0.000361	-3.611526	-1.223618	-0.029127
 419	2.0900e-01	16.7674	8.519607	0.000271	2.708644	0.917714	0.021845
 420	2.0950e-01	16.7883	8.665241	0.000361	3.611526	1.223618	0.029127
 421	2.1000e-01	16.8412	8.774467	0.000271	2.708644	0.917714	0.021845
 422	2.1050e-01	16.8910	8.665241	-0.000271	-2.708644	-0.917714	-0.021845
 423	2.1100e-01	16.9070	8.519607	-0.000361	-3.611526	-1.223618	-0.029127
 424	2.1150e-01	16.9616	8.628833	0.000271	2.708644	0.917714	0.021845
 425	2.1200e-01	17.0049	8.956510	0.000813	8.125933	2.753141	0.065535
 426	2.1250e-01	17.0273	8.738058	-0.000542	-5.417288	-1.835427	-0.043690
 427	2.1300e-01	17.0738	8.847284	0.000271	2.708644	0.917714	0.021845
 428	2.1350e-01	17.1396	8.920101	0.000181	1.805763	0.611809	0.014563
 429	2.1400e-01	17.1605	9.102144	0.000451	4.514407	1.529523	0.036409
 430	2.1450e-01	17.1958	9.284187	0.000451	4.514407	1.529523	0.036409
 431	2.1500e-01	17.2439	8.920101	-0.000903	-9.028814	-3.059045	-0.072817
 432	2.1550e-01	17.2808	9.102144	0.000451	4.514407	1.529523	0.036409
 433	2.1600e-01	17.3129	9.138553	0.000090	0.902881	0.305905	0.007282
 434	2.1650e-01	17.3738	9.284187	0.000361	3.611526	1.223618	0.029127
 435	2.1700e-01	17.3979	8.883693	-0.000993	-9.931696	-3.364950	-0.080099
 436	2.1750e-01	17.4396	9.539047	0.001625	16.251865	5.506281	0.131071
 437	2.1800e-01	17.4845	9.320596	-0.000542	-5.417288	-1.835427	-0.043690
 438	2.1850e-01	17.5150	9.138553	-0.000451	-4.514407	-1.529523	-0.036409
 439	2.1900e-01	17.5760	9.320596	0.000451	4.514407	1.529523	0.036409
 440	2.1950e-01	17.6065	9.393413	0.000181	1.805763	0.611809	0.014563
 441	2.2000e-01	17.6514	9.284187	-0.000271	-2.708644	-0.917714	-0.021845
 442	2.2050e-01	17.6706	9.393413	0.000271	2.708644	0.917714	0.021845
 443	2.2100e-01	17.7091	9.721090	0.000813	8.125933	2.753141	0.065535
 444	2.2150e-01	17.7573	9.502639	-0.000542	-5.417288	-1.835427	-0.043690
 445	2.2200e-01	17.8038	9.429821	-0.000181	-1.805763	-0.611809	-0.014563
 446	2.2250e-01	17.8487	9.721090	0.000722	7.223051	2.447236	0.058254
 447	2.2300e-01	17.8712	9.466230	-0.000632	-6.320170	-2.141332	-0.050972
 448	2.2350e-01	17.9225	10.048767	0.001445	14.446103	4.894472	0.116507
 449	2.2400e-01	17.9674	9.393413	-0.001625	-16.251865	-5.506281	-0.131071
 450	2.2450e-01	18.0091	10.230810	0.002077	20.766272	7.035804	0.167479
 451	2.2500e-01	18.0187	9.466230	-0.001896	-18.960510	-6.423995	-0.152916
 452	2.2550e-01	18.0765	9.975950	0.001264	12.640340	4.282663	0.101944
 453	2.2600e-01	18.1294	9.975950	0.000000	0.000000	0.000000	0.000000
 454	2.2650e-01	18.1615	10.157993	0.000451	4.514407	1.529523	0.036409
 455	2.2700e-01	18.1984	9.975950	-0.000451	-4.514407	-1.529523	-0.036409
 456	2.2750e-01	18.2417	10.048767	0.000181	1.805763	0.611809	0.014563
 457	2.2800e-01	18.2931	9.757499	-0.000722	-7.223051	-2.447236	-0.058254
 458	2.2850e-01	18.3155	10.340036	0.001445	14.446103	4.894472	0.116507
 459	2.2900e-01	18.3572	10.230810	-0.000271	-2.708644	-0.917714	-0.021845
 460	2.2950e-01	18.3909	10.194402	-0.000090	-0.902881	-0.305905	-0.007282
 461	2.3000e-01	18.4615	10.449262	0.000632	6.320170	2.141332	0.050972
 462	2.3050e-01	18.4808	10.121584	-0.000813	-8.125933	-2.753141	-0.065535
 463	2.3100e-01	18.5080	10.412853	0.000722	7.223051	2.447236	0.058254
 464	2.3150e-01	18.5754	10.194402	-0.000542	-5.417288	-1.835427	-0.043690
 465	2.3200e-01	18.6219	10.849756	0.001625	16.251865	5.506281	0.131071
 466	2.3250e-01	18.6348	10.449262	-0.000993	-9.931696	-3.364950	-0.080099
 467	2.3300e-01	18.6925	10.594896	0.000361	3.611526	1.223618	0.029127
 468	2.3350e-01	18.7134	10.667713	0.000181	1.805763	0.611809	0.014563
 469	2.3400e-01	18.7503	10.449262	-0.000542	-5.417288	-1.835427	-0.043690
 470	2.3450e-01	18.8048	10.667713	0.000542	5.417288	1.835427	0.043690
 471	2.3500e-01	18.8513	10.886165	0.000542	5.417288	1.835427	0.043690
 472	2.3550e-01	18.8834	10.340036	-0.001354	-13.543221	-4.588568	-0.109226
 473	2.3600e-01	18.9267	10.704122	0.000903	9.028814	3.059045	0.072817
 474	2.3650e-01	18.9540	10.558487	-0.000361	-3.611526	-1.223618	-0.029127
 475	2.3700e-01	18.9893	10.485670	-0.000181	-1.805763	-0.611809	-0.014563
 476	2.3750e-01	19.0471	10.704122	0.000542	5.417288	1.835427	0.043690
 477	2.3800e-01	19.0856	10.995390	0.000722	7.223051	2.447236	0.058254
 478	2.3850e-01	19.1353	11.068207	0.000181	1.805763	0.611809	0.014563
 479	2.3900e-01	19.1545	10.776939	-0.000722	-7.223051	-2.447236	-0.058254
 480	2.3950e-01	19.2043	11.031799	0.000632	6.320170	2.141332	0.050972
 481	2.4000e-01	19.2331	10.849756	-0.000451	-4.514407	-1.529523	-0.036409
 482	2.4050e-01	19.2797	10.740530	-0.000271	-2.708644	-0.917714	-0.021845
 483	2.4100e-01	19.3150	10.958982	0.000542	5.417288	1.835427	0.043690
 484	2.4150e-01	19.3599	11.141025	0.000451	4.514407	1.529523	0.036409
 485	2.4200e-01	19.4112	11.323067	0.000451	4.514407	1.529523	0.036409
 486	2.4250e-01	19.4048	10.813347	0.001264	12.640340	4.282663	-0.101944
 487	2.4300e-01	19.5187	11.432293	0.001535	15.348984	5.200377	0.123789
 488	2.4350e-01	19.5107	11.104616	0.000813	8.125933	2.753141	-0.065535
 489	2.4400e-01	19.5620	11.286659	0.000451	4.514407	1.529523	0.036409
 490	2.4450e-01	19.5893	11.104616	-0.000451	-4.514407	-1.529523	-0.036409
 491	2.4500e-01	19.6422	11.323067	0.000542	5.417288	1.835427	0.043690
 492	2.4550e-01	19.6743	11.286659	-0.000090	-0.902881	-0.305905	-0.007282
 493	2.4600e-01	19.7064	11.468702	0.000451	4.514407	1.529523	0.036409
 494	2.4650e-01	19.7465	11.614336	0.000361	3.611526	1.223618	0.029127
 495	2.4700e-01	19.7882	11.650745	0.000090	0.902881	0.305905	0.007282
 496	2.4750e-01	19.8444	11.759970	0.000271	2.708644	0.917714	0.021845
 497	2.4800e-01	19.8652	11.796379	0.000090	0.902881	0.305905	0.007282
 498	2.4850e-01	19.9198	11.577927	-0.000542	-5.417288	-1.835427	-0.043690
 499	2.4900e-01	19.9406	11.869196	0.000722	7.223051	2.447236	0.058254
 500	2.4950e-01	19.9952	11.395885	-0.001174	-11.737458	-3.976759	-0.094662
 501	2.5000e-01	20.0401	11.869196	0.001174	11.737458	3.976759	0.094662
 502	2.5050e-01	20.0000	11.468702	0.000993	9.931696	3.364950	-0.080099
 503	2.5100e-01	19.9358	11.359476	0.000271	2.708644	0.917714	-0.021845
 504	2.5150e-01	19.8877	11.723562	-0.000903	-9.028814	-3.059045	0.072817
 505	2.5200e-01	19.8524	11.687153	0.000090	0.902881	0.305905	-0.007282
 506	2.5250e-01	19.8155	11.323067	0.000903	9.028814	3.059045	-0.072817
 507	2.5300e-01	19.7786	11.723562	-0.000993	-9.931696	-3.364950	0.080099
 508	2.5350e-01	19.7192	11.577927	0.000361	3.611526	1.223618	-0.029127
 509	2.5400e-01	19.6887	11.141025	0.001083	10.834577	3.670854	-0.087381
 510	2.5450e-01	19.6519	11.250250	-0.000271	-2.708644	-0.917714	0.021845
 511	2.5500e-01	19.6438	11.468702	-0.000542	-5.417288	-1.835427	0.043690
 512	2.5550e-01	19.5684	10.849756	0.001535	15.348984	5.200377	-0.123789
 513	2.5600e-01	19.5524	11.250250	-0.000993	-9.931696	-3.364950	0.080099
 514	2.5650e-01	19.4834	11.104616	0.000361	3.611526	1.223618	-0.029127
 515	2.5700e-01	19.4802	11.468702	-0.000903	-9.028814	-3.059045	0.072817
 516	2.5750e-01	19.4273	11.286659	0.000451	4.514407	1.529523	-0.036409
 517	2.5800e-01	19.3936	11.395885	-0.000271	-2.708644	-0.917714	0.021845
 518	2.5850e-01	19.3374	11.141025	0.000632	6.320170	2.141332	-0.050972
 519	2.5900e-01	19.2797	11.286659	-0.000361	-3.611526	-1.223618	0.029127
 520	2.5950e-01	19.2845	11.031799	-0.000632	-6.320170	-2.141332	-0.050972
 521	2.6000e-01	19.2123	11.250250	-0.000542	-5.417288	-1.835427	0.043690
 522	2.6050e-01	19.1962	10.886165	0.000903	9.028814	3.059045	-0.072817
 523	2.6100e-01	19.1289	11.068207	-0.000451	-4.514407	-1.529523	0.036409
 524	2.6150e-01	19.0711	11.104616	-0.000090	-0.902881	-0.305905	0.007282
 525	2.6200e-01	19.0711	10.886165	0.000542	5.417288	1.835427	-0.043690
 526	2.6250e-01	19.0182	10.740530	0.000361	3.611526	1.223618	-0.029127
 527	2.6300e-01	18.9845	10.667713	0.000181	1.805763	0.611809	-0.014563
 528	2.6350e-01	18.9412	10.813347	-0.000361	-3.611526	-1.223618	0.029127
 529	2.6400e-01	18.8818	10.449262	0.000903	9.028814	3.059045	-0.072817
 530	2.6450e-01	18.8610	10.631304	-0.000451	-4.514407	-1.529523	0.036409
 531	2.6500e-01	18.8289	10.886165	-0.000632	-6.320170	-2.141332	0.050972
 532	2.6550e-01	18.7695	10.704122	0.000451	4.514407	1.529523	-0.036409
 533	2.6600e-01	18.7326	10.594896	0.000271	2.708644	0.917714	-0.021845
 534	2.6650e-01	18.6893	10.522079	0.000181	1.805763	0.611809	-0.014563
 535	2.6700e-01	18.6572	10.740530	-0.000542	-5.417288	-1.835427	0.043690
 536	2.6750e-01	18.6251	10.449262	0.000722	7.223051	2.447236	-0.058254
 537	2.6800e-01	18.5610	10.412853	0.000090	0.902881	0.305905	-0.007282
 538	2.6850e-01	18.5337	10.558487	-0.000361	-3.611526	-1.223618	0.029127
 539	2.6900e-01	18.4888	10.412853	0.000361	3.611526	1.223618	-0.029127
 540	2.6950e-01	18.4631	10.522079	-0.000271	-2.708644	-0.917714	0.021845
 541	2.7000e-01	18.4134	10.376444	0.000361	3.611526	1.223618	-0.029127
 542	2.7050e-01	18.3749	10.485670	-0.000271	-2.708644	-0.917714	0.021845
 543	2.7100e-01	18.3524	10.267219	0.000542	5.417288	1.835427	-0.043690
 544	2.7150e-01	18.2818	10.303627	-0.000090	-0.902881	-0.305905	0.007282
 545	2.7200e-01	18.2690	10.230810	0.000181	1.805763	0.611809	-0.014563
 546	2.7250e-01	18.2289	10.157993	0.000181	1.805763	0.611809	-0.014563
 547	2.7300e-01	18.1727	9.903133	0.000632	6.320170	2.141332	-0.050972
 548	2.7350e-01	18.1278	9.975950	-0.000181	-1.805763	-0.611809	0.014563
 549	2.7400e-01	18.1006	9.793907	0.000451	4.514407	1.529523	-0.036409
 550	2.7450e-01	18.0428	10.048767	-0.000632	-6.320170	-2.141332	0.050972
 551	2.7500e-01	18.0396	9.757499	0.000722	7.223051	2.447236	-0.058254
 552	2.7550e-01	17.9674	10.012359	-0.000632	-6.320170	-2.141332	0.050972
 553	2.7600e-01	17.9514	10.048767	-0.000090	-0.902881	-0.305905	0.007282
 554	2.7650e-01	17.8952	9.539047	0.001264	12.640340	4.282663	-0.101944
 555	2.7700e-01	17.8487	10.121584	-0.001445	-14.446103	-4.894472	0.116507
 556	2.7750e-01	17.8391	9.975950	0.000361	3.611526	1.223618	-0.029127
 557	2.7800e-01	17.7701	9.866724	0.000271	2.708644	0.917714	-0.021845
 558	2.7850e-01	17.7605	10.012359	-0.000361	-3.611526	-1.223618	0.029127
 559	2.7900e-01	17.7171	9.721090	0.000722	7.223051	2.447236	-0.058254
 560	2.7950e-01	17.6514	9.975950	-0.000632	-6.320170	-2.141332	0.050972
 561	2.8000e-01	17.6065	9.357004	0.001535	15.348984	5.200377	-0.123789
 562	2.8050e-01	17.6016	9.611864	-0.000632	-6.320170	-2.141332	0.050972
 563	2.8100e-01	17.5134	9.611864	-0.000000	-0.000000	-0.000000	0.000000
 564	2.8150e-01	17.5134	9.866724	-0.000632	-6.320170	-2.141332	0.050972
 565	2.8200e-01	17.4541	9.539047	0.000813	8.125933	2.753141	-0.065535
 566	2.8250e-01	17.4236	9.611864	-0.000181	-1.805763	-0.611809	0.014563
 567	2.8300e-01	17.3658	9.211370	0.000993	9.931696	3.364950	-0.080099
 568	2.8350e-01	17.3241	9.174961	0.000090	0.902881	0.305905	-0.007282
 569	2.8400e-01	17.3033	9.539047	-0.000903	-9.028814	-3.059045	0.072817
 570	2.8450e-01	17.2471	9.357004	0.000451	4.514407	1.529523	-0.036409
 571	2.8500e-01	17.2134	8.956510	0.000993	9.931696	3.364950	-0.080099
 572	2.8550e-01	17.1910	9.393413	-0.001083	-10.834577	-3.670854	0.087381
 573	2.8600e-01	17.1268	9.102144	0.000722	7.223051	2.447236	-0.058254
 574	2.8650e-01	17.1075	9.357004	-0.000632	-6.320170	-2.141332	0.050972
 575	2.8700e-01	17.0434	9.247779	0.000271	2.708644	0.917714	-0.021845
 576	2.8750e-01	17.0033	9.211370	0.000090	0.902881	0.305905	-0.007282
 577	2.8800e-01	16.9904	8.920101	0.000722	7.223051	2.447236	-0.058254
 578	2.8850e-01	16.9519	8.920101	-0.000000	-0.000000	-0.000000	0.000000
 579	2.8900e-01	16.8813	8.992919	-0.000181	-1.805763	-0.611809	0.014563
 580	2.8950e-01	16.8589	8.701650	0.000722	7.223051	2.447236	-0.058254
 581	2.9000e-01	16.8300	8.810876	-0.000271	-2.708644	-0.917714	0.021845
 582	2.9050e-01	16.7819	8.592424	0.000542	5.417288	1.835427	-0.043690
 583	2.9100e-01	16.7530	8.810876	-0.000542	-5.417288	-1.835427	0.043690
 584	2.9150e-01	16.6856	8.738058	0.000181	1.805763	0.611809	-0.014563
 585	2.9200e-01	16.6680	8.956510	-0.000542	-5.417288	-1.835427	0.043690
 586	2.9250e-01	16.6118	8.410381	0.001354	13.543221	4.588568	-0.109226
 587	2.9300e-01	16.5733	8.446790	-0.000090	-0.902881	-0.305905	0.007282
 588	2.9350e-01	16.5493	8.665241	-0.000542	-5.417288	-1.835427	0.043690
 589	2.9400e-01	16.4883	8.774467	-0.000271	-2.708644	-0.917714	0.021845
 590	2.9450e-01	16.4578	8.483198	0.000722	7.223051	2.447236	-0.058254
 591	2.9500e-01	16.4001	8.483198	-0.000000	-0.000000	-0.000000	0.000000
 592	2.9550e-01	16.3792	8.410381	0.000181	1.805763	0.611809	-0.014563
 593	2.9600e-01	16.3134	8.483198	-0.000181	-1.805763	-0.611809	0.014563
 594	2.9650e-01	16.3086	8.337564	0.000361	3.611526	1.223618	-0.029127
 595	2.9700e-01	16.2573	8.410381	-0.000181	-1.805763	-0.611809	0.014563
 596	2.9750e-01	16.2364	8.301156	0.000271	2.708644	0.917714	-0.021845
 597	2.9800e-01	16.1739	8.373973	-0.000181	-1.805763	-0.611809	0.014563
 598	2.9850e-01	16.1530	8.337564	0.000090	0.902881	0.305905	-0.007282
 599	2.9900e-01	16.0824	8.264747	0.000181	1.805763	0.611809	-0.014563
 600	2.9950e-01	16.0680	8.009887	0.000632	6.320170	2.141332	-0.050972
 601	3.0000e-01	16.0343	8.264747	-0.000632	-6.320170	-2.141332	0.050972
 602	3.0050e-01	15.9621	7.937070	0.000813	8.125933	2.753141	-0.065535
 603	3.0100e-01	15.9493	8.046296	-0.000271	-2.708644	-0.917714	0.021845
 604	3.0150e-01	15.8931	8.046296	-0.000000	-0.000000	-0.000000	0.000000
 605	3.0200e-01	15.8386	8.119113	-0.000181	-1.805763	-0.611809	0.014563
 606	3.0250e-01	15.8306	8.483198	-0.000903	-9.028814	-3.059045	0.072817
 607	3.0300e-01	15.7840	7.791435	0.001715	17.154747	5.812186	-0.138353
 608	3.0350e-01	15.7488	7.827844	-0.000090	-0.902881	-0.305905	0.007282
 609	3.0400e-01	15.7022	8.009887	-0.000451	-4.514407	-1.529523	0.036409
 610	3.0450e-01	15.6509	7.718618	0.000722	7.223051	2.447236	-0.058254
 611	3.0500e-01	15.6028	7.682210	0.000090	0.902881	0.305905	-0.007282
 612	3.0550e-01	15.5787	7.682210	-0.000000	-0.000000	-0.000000	0.000000
 613	3.0600e-01	15.5210	7.536575	0.000361	3.611526	1.223618	-0.029127
 614	3.0650e-01	15.5129	7.973478	-0.001083	-10.834577	-3.670854	0.087381
 615	3.0700e-01	15.4568	7.791435	0.000451	4.514407	1.529523	-0.036409
 616	3.0750e-01	15.4247	7.827844	-0.000090	-0.902881	-0.305905	0.007282
 617	3.0800e-01	15.3686	7.645801	0.000451	4.514407	1.529523	-0.036409
 618	3.0850e-01	15.3541	7.682210	-0.000090	-0.902881	-0.305905	0.007282
 619	3.0900e-01	15.2851	7.609393	0.000181	1.805763	0.611809	-0.014563
 620	3.0950e-01	15.2707	7.390941	0.000542	5.417288	1.835427	-0.043690
 621	3.1000e-01	15.2226	7.755027	-0.000903	-9.028814	-3.059045	0.072817
 622	3.1050e-01	15.1456	7.281715	0.001174	11.737458	3.976759	-0.094662
 623	3.1100e-01	15.1424	7.281715	-0.000000	-0.000000	-0.000000	0.000000
 624	3.1150e-01	15.1151	7.172490	0.000271	2.708644	0.917714	-0.021845
 625	3.1200e-01	15.0718	7.427350	-0.000632	-6.320170	-2.141332	0.050972
 626	3.1250e-01	15.0092	6.990447	0.001083	10.834577	3.670854	-0.087381
 627	3.1300e-01	14.9707	7.281715	-0.000722	-7.223051	-2.447236	0.058254
 628	3.1350e-01	14.9482	7.245307	0.000090	0.902881	0.305905	-0.007282
 629	3.1400e-01	14.9017	7.281715	-0.000090	-0.902881	-0.305905	0.007282
 630	3.1450e-01	14.8472	7.245307	0.000090	0.902881	0.305905	-0.007282
 631	3.1500e-01	14.8151	6.954038	0.000722	7.223051	2.447236	-0.058254
 632	3.1550e-01	14.7974	7.463758	-0.001264	-12.640340	-4.282663	0.101944
 633	3.1600e-01	14.7525	7.354533	0.000271	2.708644	0.917714	-0.021845
 634	3.1650e-01	14.6835	6.517135	0.002077	20.766272	7.035804	-0.167479
 635	3.1700e-01	14.6370	6.844812	-0.000813	-8.125933	-2.753141	0.065535
 636	3.1750e-01	14.6194	6.771995	0.000181	1.805763	0.611809	-0.014563
 637	3.1800e-01	14.5761	6.954038	-0.000451	-4.514407	-1.529523	0.036409
 638	3.1850e-01	14.5408	6.844812	0.000271	2.708644	0.917714	-0.021845
 639	3.1900e-01	14.4878	6.881221	-0.000090	-0.902881	-0.305905	0.007282
 640	3.1950e-01	14.4670	6.881221	-0.000000	-0.000000	-0.000000	0.000000
 641	3.2000e-01	14.4237	6.881221	-0.000000	-0.000000	-0.000000	0.000000
 642	3.2050e-01	14.3723	6.517135	0.000903	9.028814	3.059045	-0.072817
 643	3.2100e-01	14.3226	6.626361	-0.000271	-2.708644	-0.917714	0.021845
 644	3.2150e-01	14.2761	6.553544	0.000181	1.805763	0.611809	-0.014563
 645	3.2200e-01	14.2504	6.225867	0.000813	8.125933	2.753141	-0.065535
 646	3.2250e-01	14.2119	6.517135	-0.000722	-7.223051	-2.447236	0.058254
 647	3.2300e-01	14.1734	6.735587	-0.000542	-5.417288	-1.835427	0.043690
 648	3.2350e-01	14.1301	6.262275	0.001174	11.737458	3.976759	-0.094662
 649	3.2400e-01	14.1124	6.662770	-0.000993	-9.931696	-3.364950	0.080099
 650	3.2450e-01	14.0627	6.225867	0.001083	10.834577	3.670854	-0.087381
 651	3.2500e-01	14.0242	6.407910	-0.000451	-4.514407	-1.529523	0.036409
 652	3.2550e-01	13.9697	6.262275	0.000361	3.611526	1.223618	-0.029127
 653	3.2600e-01	13.9424	6.589952	-0.000813	-8.125933	-2.753141	0.065535
 654	3.2650e-01	13.8975	6.116641	0.001174	11.737458	3.976759	-0.094662
 655	3.2700e-01	13.8638	6.444318	-0.000813	-8.125933	-2.753141	0.065535
 656	3.2750e-01	13.8205	6.517135	-0.000181	-1.805763	-0.611809	0.014563
 657	3.2800e-01	13.7691	6.043824	0.001174	11.737458	3.976759	-0.094662
 658	3.2850e-01	13.7354	6.007415	0.000090	0.902881	0.305905	-0.007282
 659	3.2900e-01	13.6793	6.007415	-0.000000	-0.000000	-0.000000	0.000000
 660	3.2950e-01	13.6456	5.898189	0.000271	2.708644	0.917714	-0.021845
 661	3.3000e-01	13.6215	5.861781	0.000090	0.902881	0.305905	-0.007282
 662	3.3050e-01	13.5734	6.007415	-0.000361	-3.611526	-1.223618	0.029127
 663	3.3100e-01	13.5510	6.007415	-0.000000	-0.000000	-0.000000	0.000000
 664	3.3150e-01	13.4948	5.679738	0.000813	8.125933	2.753141	-0.065535
 665	3.3200e-01	13.4579	5.861781	-0.000451	-4.514407	-1.529523	0.036409
 666	3.3250e-01	13.3986	5.716147	0.000361	3.611526	1.223618	-0.029127
 667	3.3300e-01	13.3889	6.116641	-0.000993	-9.931696	-3.364950	0.080099
 668	3.3350e-01	13.3199	5.643329	0.001174	11.737458	3.976759	-0.094662
 669	3.3400e-01	13.2911	5.534104	0.000271	2.708644	0.917714	-0.021845
 670	3.3450e-01	13.2397	5.788964	-0.000632	-6.320170	-2.141332	0.050972
 671	3.3500e-01	13.2189	5.352061	0.001083	10.834577	3.670854	-0.087381
 672	3.3550e-01	13.1836	5.534104	-0.000451	-4.514407	-1.529523	0.036409
 673	3.3600e-01	13.1435	5.060792	0.001174	11.737458	3.976759	-0.094662
 674	3.3650e-01	13.0954	5.570512	-0.001264	-12.640340	-4.282663	0.101944
 675	3.3700e-01	13.0729	5.097201	0.001174	11.737458	3.976759	-0.094662
 676	3.3750e-01	13.0039	5.315652	-0.000542	-5.417288	-1.835427	0.043690
 677	3.3800e-01	12.9734	5.097201	0.000542	5.417288	1.835427	-0.043690
 678	3.3850e-01	12.9285	5.424878	-0.000813	-8.125933	-2.753141	0.065535
 679	3.3900e-01	12.9333	5.315652	-0.000271	-2.708644	-0.917714	-0.021845
 680	3.3950e-01	12.8339	4.878749	0.001083	10.834577	3.670854	-0.087381
 681	3.4000e-01	12.8082	5.424878	-0.001354	-13.543221	-4.588568	0.109226
 682	3.4050e-01	12.7954	5.097201	0.000813	8.125933	2.753141	-0.065535
 683	3.4100e-01	12.7264	5.534104	-0.001083	-10.834577	-3.670854	0.087381
 684	3.4150e-01	12.6895	4.733115	0.001986	19.863391	6.729899	-0.160198
 685	3.4200e-01	12.6558	5.060792	-0.000813	-8.125933	-2.753141	0.065535
 686	3.4250e-01	12.6365	4.915158	0.000361	3.611526	1.223618	-0.029127
 687	3.4300e-01	12.5852	4.696706	0.000542	5.417288	1.835427	-0.043690
 688	3.4350e-01	12.5371	4.951566	-0.000632	-6.320170	-2.141332	0.050972
 689	3.4400e-01	12.4825	4.733115	0.000542	5.417288	1.835427	-0.043690
 690	3.4450e-01	12.4585	4.878749	-0.000361	-3.611526	-1.223618	0.029127
 691	3.4500e-01	12.4039	4.623889	0.000632	6.320170	2.141332	-0.050972
 692	3.4550e-01	12.3767	4.696706	-0.000181	-1.805763	-0.611809	0.014563
 693	3.4600e-01	12.3398	4.733115	-0.000090	-0.902881	-0.305905	0.007282
 694	3.4650e-01	12.2964	4.660298	0.000181	1.805763	0.611809	-0.014563
 695	3.4700e-01	12.2563	4.150578	0.001264	12.640340	4.282663	-0.101944
 696	3.4750e-01	12.2243	4.551072	-0.000993	-9.931696	-3.364950	0.080099
 697	3.4800e-01	12.1777	4.660298	-0.000271	-2.708644	-0.917714	0.021845
 698	3.4850e-01	12.1264	4.150578	0.001264	12.640340	4.282663	-0.101944
 699	3.4900e-01	12.0975	4.478255	-0.000813	-8.125933	-2.753141	0.065535
 700	3.4950e-01	12.0510	4.223395	0.000632	6.320170	2.141332	-0.050972
 701	3.5000e-01	12.0301	4.332621	-0.000271	-2.708644	-0.917714	0.021845
 702	3.5050e-01	11.9724	4.150578	0.000451	4.514407	1.529523	-0.036409
 703	3.5100e-01	11.9740	4.369029	0.000542	5.417288	1.835427	0.043690
 704	3.5150e-01	11.9146	3.895718	0.001174	11.737458	3.976759	-0.094662
 705	3.5200e-01	11.8569	4.004943	-0.000271	-2.708644	-0.917714	0.021845
 706	3.5250e-01	11.8039	3.677266	0.000813	8.125933	2.753141	-0.065535
 707	3.5300e-01	11.7943	4.332621	-0.001625	-16.251865	-5.506281	0.131071
 708	3.5350e-01	11.7350	4.296212	0.000090	0.902881	0.305905	-0.007282
 709	3.5400e-01	11.6852	4.259804	0.000090	0.902881	0.305905	-0.007282
 710	3.5450e-01	11.6548	3.385998	0.002167	21.669154	7.341708	-0.174761
 711	3.5500e-01	11.6034	3.932126	-0.001354	-13.543221	-4.588568	0.109226
 712	3.5550e-01	11.5761	3.822901	0.000271	2.708644	0.917714	-0.021845
 713	3.5600e-01	11.5553	3.640858	0.000451	4.514407	1.529523	-0.036409
 714	3.5650e-01	11.4975	4.041352	-0.000993	-9.931696	-3.364950	0.080099
 715	3.5700e-01	11.4638	3.422406	0.001535	15.348984	5.200377	-0.123789
 716	3.5750e-01	11.4093	3.750083	-0.000813	-8.125933	-2.753141	0.065535
 717	3.5800e-01	11.3804	3.422406	0.000813	8.125933	2.753141	-0.065535
 718	3.5850e-01	11.3403	3.495223	-0.000181	-1.805763	-0.611809	0.014563
 719	3.5900e-01	11.3259	3.385998	0.000271	2.708644	0.917714	-0.021845
 720	3.5950e-01	11.2553	3.349589	0.000090	0.902881	0.305905	-0.007282
 721	3.6000e-01	11.2136	3.349589	-0.000000	-0.000000	-0.000000	0.000000
 722	3.6050e-01	11.1831	3.058320	0.000722	7.223051	2.447236	-0.058254
 723	3.6100e-01	11.1366	3.495223	-0.001083	-10.834577	-3.670854	0.087381
 724	3.6150e-01	11.1077	3.240363	0.000632	6.320170	2.141332	-0.050972
 725	3.6200e-01	11.0692	3.313181	-0.000181	-1.805763	-0.611809	0.014563
 726	3.6250e-01	11.0243	3.021912	0.000722	7.223051	2.447236	-0.058254
 727	3.6300e-01	10.9713	3.349589	-0.000813	-8.125933	-2.753141	0.065535
 728	3.6350e-01	10.9473	2.876278	0.001174	11.737458	3.976759	-0.094662
 729	3.6400e-01	10.9104	3.276772	-0.000993	-9.931696	-3.364950	0.080099
 730	3.6450e-01	10.8398	2.730643	0.001354	13.543221	4.588568	-0.109226
 731	3.6500e-01	10.8189	3.094729	-0.000903	-9.028814	-3.059045	0.072817
 732	3.6550e-01	10.7708	2.694235	0.000993	9.931696	3.364950	-0.080099
 733	3.6600e-01	10.7355	3.131138	-0.001083	-10.834577	-3.670854	0.087381
 734	3.6650e-01	10.6842	2.949095	0.000451	4.514407	1.529523	-0.036409
 735	3.6700e-01	10.6473	2.949095	-0.000000	-0.000000	-0.000000	0.000000
 736	3.6750e-01	10.6152	2.730643	0.000542	5.417288	1.835427	-0.043690
 737	3.6800e-01	10.5703	2.730643	-0.000000	-0.000000	-0.000000	0.000000
 738	3.6850e-01	10.5238	2.839869	-0.000271	-2.708644	-0.917714	0.021845
 739	3.6900e-01	10.5157	3.058320	-0.000542	-5.417288	-1.835427	0.043690
 740	3.6950e-01	10.4516	2.402966	0.001625	16.251865	5.506281	-0.131071
 741	3.7000e-01	10.4371	2.694235	-0.000722	-7.223051	-2.447236	0.058254
 742	3.7050e-01	10.3810	2.366558	0.000813	8.125933	2.753141	-0.065535
 743	3.7100e-01	10.3489	2.512192	-0.000361	-3.611526	-1.223618	0.029127
 744	3.7150e-01	10.2960	2.439375	0.000181	1.805763	0.611809	-0.014563
 745	3.7200e-01	10.2639	2.585009	-0.000361	-3.611526	-1.223618	0.029127
 746	3.7250e-01	10.2109	2.402966	0.000451	4.514407	1.529523	-0.036409
 747	3.7300e-01	10.1949	2.439375	-0.000090	-0.902881	-0.305905	0.007282
 748	3.7350e-01	10.1436	2.439375	-0.000000	-0.000000	-0.000000	0.000000
 749	3.7400e-01	10.0954	2.293740	0.000361	3.611526	1.223618	-0.029127
 750	3.7450e-01	10.0634	2.184515	0.000271	2.708644	0.917714	-0.021845
 751	3.7500e-01	10.0265	2.184515	-0.000000	-0.000000	-0.000000	0.000000
 752	3.7550e-01	9.9751	2.038880	0.000361	3.611526	1.223618	-0.029127
 753	3.7600e-01	9.9719	2.075289	-0.000090	-0.902881	-0.305905	0.007282
 754	3.7650e-01	9.8965	2.148106	-0.000181	-1.805763	-0.611809	0.014563
 755	3.7700e-01	9.8612	1.929655	0.000542	5.417288	1.835427	-0.043690
 756	3.7750e-01	9.8388	2.038880	-0.000271	-2.708644	-0.917714	0.021845
 757	3.7800e-01	9.7778	1.601977	0.001083	10.834577	3.670854	-0.087381
 758	3.7850e-01	9.7409	1.820429	-0.000542	-5.417288	-1.835427	0.043690
 759	3.7900e-01	9.7104	1.893246	-0.000181	-1.805763	-0.611809	0.014563
 760	3.7950e-01	9.6591	1.674795	0.000542	5.417288	1.835427	-0.043690
 761	3.8000e-01	9.6174	1.856837	-0.000451	-4.514407	-1.529523	0.036409
 762	3.8050e-01	9.5821	1.347117	0.001264	12.640340	4.282663	-0.101944
 763	3.8100e-01	9.5420	1.674795	-0.000813	-8.125933	-2.753141	0.065535
 764	3.8150e-01	9.4971	1.492752	0.000451	4.514407	1.529523	-0.036409
 765	3.8200e-01	9.4810	1.674795	-0.000451	-4.514407	-1.529523	0.036409
 766	3.8250e-01	9.3992	1.274300	0.000993	9.931696	3.364950	-0.080099
 767	3.8300e-01	9.3767	1.347117	-0.000181	-1.805763	-0.611809	0.014563
 768	3.8350e-01	9.3447	1.529160	-0.000451	-4.514407	-1.529523	0.036409
 769	3.8400e-01	9.2981	1.601977	-0.000181	-1.805763	-0.611809	0.014563
 770	3.8450e-01	9.2612	1.310709	0.000722	7.223051	2.447236	-0.058254
 771	3.8500e-01	9.2404	1.492752	-0.000451	-4.514407	-1.529523	0.036409
 772	3.8550e-01	9.1987	0.910214	0.001445	14.446103	4.894472	-0.116507
 773	3.8600e-01	9.1265	1.055849	-0.000361	-3.611526	-1.223618	0.029127
 774	3.8650e-01	9.1169	1.019440	0.000090	0.902881	0.305905	-0.007282
 775	3.8700e-01	9.0495	0.837397	0.000451	4.514407	1.529523	-0.036409
 776	3.8750e-01	9.0206	1.347117	-0.001264	-12.640340	-4.282663	0.101944
 777	3.8800e-01	8.9917	0.800989	0.001354	13.543221	4.588568	-0.109226
 778	3.8850e-01	8.9484	1.347117	-0.001354	-13.543221	-4.588568	0.109226
 779	3.8900e-01	8.8858	0.983032	0.000903	9.028814	3.059045	-0.072817
 780	3.8950e-01	8.8489	0.691763	0.000722	7.223051	2.447236	-0.058254
 781	3.9000e-01	8.8185	0.764580	-0.000181	-1.805763	-0.611809	0.014563
 782	3.9050e-01	8.7719	0.728172	0.000090	0.902881	0.305905	-0.007282
 783	3.9100e-01	8.7383	0.946623	-0.000542	-5.417288	-1.835427	0.043690
 784	3.9150e-01	8.7078	0.837397	0.000271	2.708644	0.917714	-0.021845
 785	3.9200e-01	8.6516	0.509720	0.000813	8.125933	2.753141	-0.065535
 786	3.9250e-01	8.6163	0.655354	-0.000361	-3.611526	-1.223618	0.029127
 787	3.9300e-01	8.5634	0.509720	0.000361	3.611526	1.223618	-0.029127
 788	3.9350e-01	8.5281	0.473312	0.000090	0.902881	0.305905	-0.007282
 789	3.9400e-01	8.5185	0.327677	0.000361	3.611526	1.223618	-0.029127
 790	3.9450e-01	8.4511	0.400494	-0.000181	-1.805763	-0.611809	0.014563
 791	3.9500e-01	8.4367	0.364086	0.000090	0.902881	0.305905	-0.007282
 792	3.9550e-01	8.3693	-0.036409	0.000993	9.931696	3.364950	-0.080099
 793	3.9600e-01	8.3452	0.254860	-0.000722	-7.223051	-2.447236	0.058254
 794	3.9650e-01	8.2955	0.218451	0.000090	0.902881	0.305905	-0.007282
 795	3.9700e-01	8.2586	0.327677	-0.000271	-2.708644	-0.917714	0.021845
 796	3.9750e-01	8.2089	0.291269	0.000090	0.902881	0.305905	-0.007282
 797	3.9800e-01	8.1880	-0.109226	0.000993	9.931696	3.364950	-0.080099
 798	3.9850e-01	8.1527	-0.036409	-0.000181	-1.805763	-0.611809	0.014563
 799	3.9900e-01	8.0918	-0.072817	0.000090	0.902881	0.305905	-0.007282
 800	3.9950e-01	8.0677	0.072817	-0.000361	-3.611526	-1.223618	0.029127
 801	4.0000e-01	8.0067	-0.109226	0.000451	4.514407	1.529523	-0.036409
 802	4.0050e-01	7.9827	-0.400494	0.000722	7.223051	2.447236	-0.058254
 803	4.0100e-01	7.9506	0.072817	-0.001174	-11.737458	-3.976759	0.094662
 804	4.0150e-01	7.8992	-0.618946	0.001715	17.154747	5.812186	-0.138353
 805	4.0200e-01	7.8752	0.218451	-0.002077	-20.766272	-7.035804	0.167479
 806	4.0250e-01	7.8367	-0.473312	0.001715	17.154747	5.812186	-0.138353
 807	4.0300e-01	7.7805	-0.655354	0.000451	4.514407	1.529523	-0.036409
 808	4.0350e-01	7.7324	-0.582537	-0.000181	-1.805763	-0.611809	0.014563
 809	4.0400e-01	7.7003	-0.509720	-0.000181	-1.805763	-0.611809	0.014563
 810	4.0450e-01	7.6570	-0.509720	-0.000000	-0.000000	-0.000000	0.000000
 811	4.0500e-01	7.6089	-0.655354	0.000361	3.611526	1.223618	-0.029127
 812	4.0550e-01	7.5752	-0.764580	0.000271	2.708644	0.917714	-0.021845
 813	4.0600e-01	7.5287	-0.800989	0.000090	0.902881	0.305905	-0.007282
 814	4.0650e-01	7.5030	-0.436903	-0.000903	-9.028814	-3.059045	0.072817
 815	4.0700e-01	7.4645	-0.764580	0.000813	8.125933	2.753141	-0.065535
 816	4.0750e-01	7.4228	-0.800989	0.000090	0.902881	0.305905	-0.007282
 817	4.0800e-01	7.3843	-0.691763	-0.000271	-2.708644	-0.917714	0.021845
 818	4.0850e-01	7.3313	-0.946623	0.000632	6.320170	2.141332	-0.050972
 819	4.0900e-01	7.2864	-1.237892	0.000722	7.223051	2.447236	-0.058254
 820	4.0950e-01	7.2768	-1.128666	-0.000271	-2.708644	-0.917714	0.021845
 821	4.1000e-01	7.2223	-1.128666	-0.000000	-0.000000	-0.000000	0.000000
 822	4.1050e-01	7.1757	-1.165074	0.000090	0.902881	0.305905	-0.007282
 823	4.1100e-01	7.1308	-1.092257	-0.000181	-1.805763	-0.611809	0.014563
 824	4.1150e-01	7.0987	-1.019440	-0.000181	-1.805763	-0.611809	0.014563
 825	4.1200e-01	7.0827	-1.165074	0.000361	3.611526	1.223618	-0.029127
 826	4.1250e-01	7.0121	-1.456343	0.000722	7.223051	2.447236	-0.058254
 827	4.1300e-01	6.9864	-1.019440	-0.001083	-10.834577	-3.670854	0.087381
 828	4.1350e-01	6.9255	-1.747612	0.001806	18.057628	6.118090	-0.145634
 829	4.1400e-01	6.8870	-1.601977	-0.000361	-3.611526	-1.223618	0.029127
 830	4.1450e-01	6.8645	-1.492752	-0.000271	-2.708644	-0.917714	0.021845
 831	4.1500e-01	6.8356	-1.419935	-0.000181	-1.805763	-0.611809	0.014563
 832	4.1550e-01	6.7971	-1.419935	-0.000000	-0.000000	-0.000000	0.000000
 833	4.1600e-01	6.7538	-1.347117	-0.000181	-1.805763	-0.611809	0.014563
 834	4.1650e-01	6.7105	-1.784020	0.001083	10.834577	3.670854	-0.087381
 835	4.1700e-01	6.6576	-1.929655	0.000361	3.611526	1.223618	-0.029127
 836	4.1750e-01	6.6319	-1.893246	-0.000090	-0.902881	-0.305905	0.007282
 837	4.1800e-01	6.5806	-1.747612	-0.000361	-3.611526	-1.223618	0.029127
 838	4.1850e-01	6.5228	-1.856837	0.000271	2.708644	0.917714	-0.021845
 839	4.1900e-01	6.5132	-2.366558	0.001264	12.640340	4.282663	-0.101944
 840	4.1950e-01	6.4843	-2.148106	-0.000542	-5.417288	-1.835427	0.043690
 841	4.2000e-01	6.4394	-2.257332	0.000271	2.708644	0.917714	-0.021845
 842	4.2050e-01	6.3752	-1.929655	-0.000813	-8.125933	-2.753141	0.065535
 843	4.2100e-01	6.3335	-1.929655	-0.000000	-0.000000	-0.000000	0.000000
 844	4.2150e-01	6.3030	-2.439375	0.001264	12.640340	4.282663	-0.101944
 845	4.2200e-01	6.2645	-2.293740	-0.000361	-3.611526	-1.223618	0.029127
 846	4.2250e-01	6.2292	-2.075289	-0.000542	-5.417288	-1.835427	0.043690
 847	4.2300e-01	6.1667	-2.220923	0.000361	3.611526	1.223618	-0.029127
 848	4.2350e-01	6.1538	-2.548600	0.000813	8.125933	2.753141	-0.065535
 849	4.2400e-01	6.1025	-2.585009	0.000090	0.902881	0.305905	-0.007282
 850	4.2450e-01	6.0624	-2.293740	-0.000722	-7.223051	-2.447236	0.058254
 851	4.2500e-01	6.0239	-2.548600	0.000632	6.320170	2.141332	-0.050972
 852	4.2550e-01	5.9790	-2.585009	0.000090	0.902881	0.305905	-0.007282
 853	4.2600e-01	5.9357	-2.694235	0.000271	2.708644	0.917714	-0.021845
 854	4.2650e-01	5.9036	-2.876278	0.000451	4.514407	1.529523	-0.036409
 855	4.2700e-01	5.8827	-2.949095	0.000181	1.805763	0.611809	-0.014563
 856	4.2750e-01	5.8153	-2.839869	-0.000271	-2.708644	-0.917714	0.021845
 857	4.2800e-01	5.7817	-2.912686	0.000181	1.805763	0.611809	-0.014563
 858	4.2850e-01	5.7704	-2.694235	-0.000542	-5.417288	-1.835427	0.043690
 859	4.2900e-01	5.6966	-2.767052	0.000181	1.805763	0.611809	-0.014563
 860	4.2950e-01	5.6822	-3.203955	0.001083	10.834577	3.670854	-0.087381
 861	4.3000e-01	5.6212	-3.058320	-0.000361	-3.611526	-1.223618	0.029127
 862	4.3050e-01	5.6004	-2.657826	-0.000993	-9.931696	-3.364950	0.080099
 863	4.3100e-01	5.5490	-3.167546	0.001264	12.640340	4.282663	-0.101944
 864	4.3150e-01	5.4913	-3.131138	-0.000090	-0.902881	-0.305905	0.007282
 865	4.3200e-01	5.4512	-3.385998	0.000632	6.320170	2.141332	-0.050972
 866	4.3250e-01	5.4400	-3.203955	-0.000451	-4.514407	-1.529523	0.036409
 867	4.3300e-01	5.3742	-3.568041	0.000903	9.028814	3.059045	-0.072817
 868	4.3350e-01	5.3501	-3.167546	-0.000993	-9.931696	-3.364950	0.080099
 869	4.3400e-01	5.3132	-3.604449	0.001083	10.834577	3.670854	-0.087381
 870	4.3450e-01	5.2571	-3.640858	0.000090	0.902881	0.305905	-0.007282
 871	4.3500e-01	5.2298	-3.495223	-0.000361	-3.611526	-1.223618	0.029127
 872	4.3550e-01	5.1769	-3.859309	0.000903	9.028814	3.059045	-0.072817
 873	4.3600e-01	5.1335	-3.568041	-0.000722	-7.223051	-2.447236	0.058254
 874	4.3650e-01	5.0999	-3.859309	0.000722	7.223051	2.447236	-0.058254
 875	4.3700e-01	5.0630	-3.932126	0.000181	1.805763	0.611809	-0.014563
 876	4.3750e-01	5.0245	-3.568041	-0.000903	-9.028814	-3.059045	0.072817
 877	4.3800e-01	4.9860	-3.786492	0.000542	5.417288	1.835427	-0.043690
 878	4.3850e-01	4.9394	-4.004943	0.000542	5.417288	1.835427	-0.043690
 879	4.3900e-01	4.9073	-4.041352	0.000090	0.902881	0.305905	-0.007282
 880	4.3950e-01	4.8672	-4.551072	0.001264	12.640340	4.282663	-0.101944
 881	4.4000e-01	4.8271	-3.968535	-0.001445	-14.446103	-4.894472	0.116507
 882	4.4050e-01	4.7918	-4.041352	0.000181	1.805763	0.611809	-0.014563
 883	4.4100e-01	4.7405	-4.186986	0.000361	3.611526	1.223618	-0.029127
 884	4.4150e-01	4.7164	-4.077761	-0.000271	-2.708644	-0.917714	0.021845
 885	4.4200e-01	4.6699	-4.478255	0.000993	9.931696	3.364950	-0.080099
 886	4.4250e-01	4.6410	-3.932126	-0.001354	-13.543221	-4.588568	0.109226
 887	4.4300e-01	4.5993	-4.150578	0.000542	5.417288	1.835427	-0.043690
 888	4.4350e-01	4.5287	-4.441846	0.000722	7.223051	2.447236	-0.058254
 889	4.4400e-01	4.5287	-4.369029	-0.000181	-1.805763	-0.611809	0.014563
 890	4.4450e-01	4.4630	-4.259804	-0.000271	-2.708644	-0.917714	0.021845
 891	4.4500e-01	4.3956	-4.805932	0.001354	13.543221	4.588568	-0.109226
 892	4.4550e-01	4.3956	-4.405438	-0.000993	-9.931696	-3.364950	0.080099
 893	4.4600e-01	4.3475	-4.478255	0.000181	1.805763	0.611809	-0.014563
 894	4.4650e-01	4.2945	-4.805932	0.000813	8.125933	2.753141	-0.065535
 895	4.4700e-01	4.2705	-4.915158	0.000271	2.708644	0.917714	-0.021845
 896	4.4750e-01	4.2400	-4.587481	-0.000813	-8.125933	-2.753141	0.065535
 897	4.4800e-01	4.1887	-5.060792	0.001174	11.737458	3.976759	-0.094662
 898	4.4850e-01	4.1469	-4.660298	-0.000993	-9.931696	-3.364950	0.080099
 899	4.4900e-01	4.1133	-4.878749	0.000542	5.417288	1.835427	-0.043690
 900	4.4950e-01	4.0571	-5.170018	0.000722	7.223051	2.447236	-0.058254
 901	4.5000e-01	4.0170	-5.097201	-0.000181	-1.805763	-0.611809	0.014563
 902	4.5050e-01	3.9913	-5.242835	0.000361	3.611526	1.223618	-0.029127
 903	4.5100e-01	3.9400	-5.097201	-0.000361	-3.611526	-1.223618	0.029127
 904	4.5150e-01	3.9063	-5.060792	-0.000090	-0.902881	-0.305905	0.007282
 905	4.5200e-01	3.8630	-5.315652	0.000632	6.320170	2.141332	-0.050972
 906	4.5250e-01	3.8229	-5.388469	0.000181	1.805763	0.611809	-0.014563
 907	4.5300e-01	3.7876	-5.424878	0.000090	0.902881	0.305905	-0.007282
 908	4.5350e-01	3.7314	-5.315652	-0.000271	-2.708644	-0.917714	0.021845
 909	4.5400e-01	3.7106	-5.825372	0.001264	12.640340	4.282663	-0.101944
 910	4.5450e-01	3.6721	-5.606921	-0.000542	-5.417288	-1.835427	0.043690
 911	4.5500e-01	3.6272	-5.679738	0.000181	1.805763	0.611809	-0.014563
 912	4.5550e-01	3.5758	-5.825372	0.000361	3.611526	1.223618	-0.029127
 913	4.5600e-01	3.5502	-5.643329	-0.000451	-4.514407	-1.529523	0.036409
 914	4.5650e-01	3.4988	-5.934598	0.000722	7.223051	2.447236	-0.058254
 915	4.5700e-01	3.4539	-5.861781	-0.000181	-1.805763	-0.611809	0.014563
 916	4.5750e-01	3.4074	-6.153050	0.000722	7.223051	2.447236	-0.058254
 917	4.5800e-01	3.3817	-6.080232	-0.000181	-1.805763	-0.611809	0.014563
 918	4.5850e-01	3.3593	-6.043824	-0.000090	-0.902881	-0.305905	0.007282
 919	4.5900e-01	3.3047	-6.043824	-0.000000	-0.000000	-0.000000	0.000000
 920	4.5950e-01	3.2614	-6.007415	-0.000090	-0.902881	-0.305905	0.007282
 921	4.6000e-01	3.2245	-6.335092	0.000813	8.125933	2.753141	-0.065535
 922	4.6050e-01	3.1780	-6.407910	0.000181	1.805763	0.611809	-0.014563
 923	4.6100e-01	3.1443	-6.371501	-0.000090	-0.902881	-0.305905	0.007282
 924	4.6150e-01	3.1138	-6.407910	0.000090	0.902881	0.305905	-0.007282
 925	4.6200e-01	3.0577	-6.189458	-0.000542	-5.417288	-1.835427	0.043690
 926	4.6250e-01	3.0288	-6.626361	0.001083	10.834577	3.670854	-0.087381
 927	4.6300e-01	2.9662	-6.480727	-0.000361	-3.611526	-1.223618	0.029127
 928	4.6350e-01	2.9374	-6.517135	0.000090	0.902881	0.305905	-0.007282
 929	4.6400e-01	2.8988	-6.699178	0.000451	4.514407	1.529523	-0.036409
 930	4.6450e-01	2.8491	-6.917630	0.000542	5.417288	1.835427	-0.043690
 931	4.6500e-01	2.8202	-6.589952	-0.000813	-8.125933	-2.753141	0.065535
 932	4.6550e-01	2.7817	-7.063264	0.001174	11.737458	3.976759	-0.094662
 933	4.6600e-01	2.7497	-6.589952	-0.001174	-11.737458	-3.976759	0.094662
 934	4.6650e-01	2.7256	-6.808404	0.000542	5.417288	1.835427	-0.043690
 935	4.6700e-01	2.6646	-7.026855	0.000542	5.417288	1.835427	-0.043690
 936	4.6750e-01	2.6342	-7.427350	0.000993	9.931696	3.364950	-0.080099
 937	4.6800e-01	2.5876	-7.063264	-0.000903	-9.028814	-3.059045	0.072817
 938	4.6850e-01	2.5427	-7.500167	0.001083	10.834577	3.670854	-0.087381
 939	4.6900e-01	2.4930	-7.208898	-0.000722	-7.223051	-2.447236	0.058254
 940	4.6950e-01	2.4753	-7.172490	-0.000090	-0.902881	-0.305905	0.007282
 941	4.7000e-01	2.4561	-7.172490	-0.000000	-0.000000	-0.000000	0.000000
 942	4.7050e-01	2.3775	-7.609393	0.001083	10.834577	3.670854	-0.087381
 943	4.7100e-01	2.3261	-7.390941	-0.000542	-5.417288	-1.835427	0.043690
 944	4.7150e-01	2.3021	-7.718618	0.000813	8.125933	2.753141	-0.065535
 945	4.7200e-01	2.2876	-7.354533	-0.000903	-9.028814	-3.059045	0.072817
 946	4.7250e-01	2.2154	-7.536575	0.000451	4.514407	1.529523	-0.036409
 947	4.7300e-01	2.1978	-7.755027	0.000542	5.417288	1.835427	-0.043690
 948	4.7350e-01	2.1224	-7.827844	0.000181	1.805763	0.611809	-0.014563
 949	4.7400e-01	2.1112	-7.572984	-0.000632	-6.320170	-2.141332	0.050972
 950	4.7450e-01	2.0679	-7.900661	0.000813	8.125933	2.753141	-0.065535
 951	4.7500e-01	2.0181	-7.827844	-0.000181	-1.805763	-0.611809	0.014563
 952	4.7550e-01	1.9860	-7.973478	0.000361	3.611526	1.223618	-0.029127
 953	4.7600e-01	1.9443	-7.900661	-0.000181	-1.805763	-0.611809	0.014563
 954	4.7650e-01	1.9171	-8.155521	0.000632	6.320170	2.141332	-0.050972
 955	4.7700e-01	1.8753	-7.937070	-0.000542	-5.417288	-1.835427	0.043690
 956	4.7750e-01	1.8240	-8.228338	0.000722	7.223051	2.447236	-0.058254
 957	4.7800e-01	1.7855	-8.373973	0.000361	3.611526	1.223618	-0.029127
 958	4.7850e-01	1.7454	-8.082704	-0.000722	-7.223051	-2.447236	0.058254
 959	4.7900e-01	1.6957	-8.228338	0.000361	3.611526	1.223618	-0.029127
 960	4.7950e-01	1.6459	-8.810876	0.001445	14.446103	4.894472	-0.116507
 961	4.8000e-01	1.6508	-8.046296	0.001896	18.960510	6.423995	0.152916
 962	4.8050e-01	1.5705	-8.556016	0.001264	12.640340	4.282663	-0.101944
 963	4.8100e-01	1.5401	-8.883693	0.000813	8.125933	2.753141	-0.065535
 964	4.8150e-01	1.5096	-8.410381	-0.001174	-11.737458	-3.976759	0.094662
 965	4.8200e-01	1.4615	-8.992919	0.001445	14.446103	4.894472	-0.116507
 966	4.8250e-01	1.4406	-8.738058	-0.000632	-6.320170	-2.141332	0.050972
 967	4.8300e-01	1.3877	-8.628833	-0.000271	-2.708644	-0.917714	0.021845
 968	4.8350e-01	1.3492	-8.847284	0.000542	5.417288	1.835427	-0.043690
 969	4.8400e-01	1.3123	-9.102144	0.000632	6.320170	2.141332	-0.050972
 970	4.8450e-01	1.2770	-8.738058	-0.000903	-9.028814	-3.059045	0.072817
 971	4.8500e-01	1.2465	-9.138553	0.000993	9.931696	3.364950	-0.080099
 972	4.8550e-01	1.1839	-9.174961	0.000090	0.902881	0.305905	-0.007282
 973	4.8600e-01	1.1534	-9.029327	-0.000361	-3.611526	-1.223618	0.029127
 974	4.8650e-01	1.1117	-9.284187	0.000632	6.320170	2.141332	-0.050972
 975	4.8700e-01	1.0716	-9.502639	0.000542	5.417288	1.835427	-0.043690
 976	4.8750e-01	1.0379	-9.247779	-0.000632	-6.320170	-2.141332	0.050972
 977	4.8800e-01	0.9722	-9.029327	-0.000542	-5.417288	-1.835427	0.043690
 978	4.8850e-01	0.9401	-9.684681	0.001625	16.251865	5.506281	-0.131071
 979	4.8900e-01	0.9000	-9.320596	-0.000903	-9.028814	-3.059045	0.072817
 980	4.8950e-01	0.8518	-9.975950	0.001625	16.251865	5.506281	-0.131071
 981	4.9000e-01	0.8101	-9.466230	-0.001264	-12.640340	-4.282663	0.101944
 982	4.9050e-01	0.8005	-9.975950	0.001264	12.640340	4.282663	-0.101944
 983	4.9100e-01	0.7476	-9.757499	-0.000542	-5.417288	-1.835427	0.043690
 984	4.9150e-01	0.6850	-9.975950	0.000542	5.417288	1.835427	-0.043690
 985	4.9200e-01	0.6674	-10.194402	0.000542	5.417288	1.835427	-0.043690
 986	4.9250e-01	0.6273	-9.975950	-0.000542	-5.417288	-1.835427	0.043690
 987	4.9300e-01	0.5871	-10.303627	0.000813	8.125933	2.753141	-0.065535
 988	4.9350e-01	0.5599	-10.230810	-0.000181	-1.805763	-0.611809	0.014563
 989	4.9400e-01	0.4973	-10.485670	0.000632	6.320170	2.141332	-0.050972
 990	4.9450e-01	0.4572	-10.267219	-0.000542	-5.417288	-1.835427	0.043690
 991	4.9500e-01	0.4251	-10.048767	-0.000542	-5.417288	-1.835427	0.043690
 992	4.9550e-01	0.4091	-10.376444	0.000813	8.125933	2.753141	-0.065535
 993	4.9600e-01	0.3465	-10.776939	0.000993	9.931696	3.364950	-0.080099
 994	4.9650e-01	0.3000	-10.340036	-0.001083	-10.834577	-3.670854	0.087381
 995	4.9700e-01	0.2743	-10.485670	0.000361	3.611526	1.223618	-0.029127
 996	4.9750e-01	0.2214	-10.740530	0.000632	6.320170	2.141332	-0.050972
 997	4.9800e-01	0.1813	-10.704122	-0.000090	-0.902881	-0.305905	0.007282
 998	4.9850e-01	0.1604	-10.958982	0.000632	6.320170	2.141332	-0.050972
 999	4.9900e-01	0.0882	-10.958982	-0.000000	-0.000000	-0.000000	0.000000
1000	4.9950e-01	0.0658	-11.177433	0.000542	5.417288	1.835427	-0.043690
1001	5.0000e-01	0.0401	-10.849756	0.000542	5.417288	1.835427	0.065535

PMax (uC/cm2):	2.37e+01
Pr (uC/cm2):	1.02e+00
-Pr (uC/cm2):	0.00e+00
PLoss (uC/cm2):	0.00e+00
C (Max-Eff) (nF):	1.18e-01
K (Eff):	4.01e+02
Vert. (+/-Pr) Shift (uC/cm2):	5.10e-01
Offset (uC/cm2):	1.19e+01

A (Loop Area - uC/cm2·Volts):	1.78e-01



Hysteresis Version: 5.48.1 - Radiant Technologies, Inc., 1999 - 9/12/24

