»»»»»»»»»»»»»»»»»»»»»»»»»»»»»»»»»»»» Hysteresis ««««««««««««««««««««««««««««««««««««
»»»  Executed Version:	5.48.1
»»»  Vision Version:	5.48.4 (R)
»»»  Vision Compiled:	9/18/24
»»»  Driver Version:	5.47.0
»»»  Windows Version:	Windows 8 or 8.1
»»»  Processor Information:	x86 (AMD or Intel) - 32 Processors
»»»  Tester Name:	PMF21124-494 (100V)
»»»  Tester S/N:	PMF21124-494
»»»  Internal Amp Type:	100V RevK 270k
»»»  Internal Amp S/N:	iAB2-596/K     
»»»  Execution Count:	1
»»»»»»»»»»»»»»»»»»»»»»»»»»»»»»»»»»»»»»»»»»««««««««««««««««««««««««««««««««««««««««««

Stored:	10/8/2025 - 19:48:45
Configured:	10/08/25 04:22:59 PM
Executed:	10/08/25 07:48:28 PM

»»»»»»»»»»»»»»»»»»»»»»»»»»»»»»»»»»» Sample Info ««««««««««««««««««««««««««««««««««««
Sample Name:	Int. Ref. Ferroelectric
Lot Name:	N/A
Wafer Name:	N/A
Die Row/Column:	0/0
Capacitor Number:	0
Sample Area (cm2):	1.00e-04
Sample Thickness (microns):	3.00e-01

Amplifier:	Internal

»»»»»»»»»»»»»»»»»»»»»»»»»»»»»»»»»»» Tester Info «««««««««««««««««««««««««««««««««««
Tester Name:	PMF21124-494 (100V)
Tester Serial Number:	PMF21124-494
Return Signal Amp. Level:	0.02 [Index: 2]

»»»»»»»»»»»»»»»»»»»»»»»»»»»»»»»» Hysteresis Info ««««««««««««««««««««««««««««««««««
Task Name:	Hyste-8
Volts:	20.00
Field:	666.67 (kV/cm)
DCBias:	0.00
DCField:	0.00 (kV/cm)
Hysteresis Period (ms):	5.00e-01
Preset:	Enabled
Preset Delay (ms):	1.00e+03
Profile:	Standard Monopolar

»»»»»»»»»»»»»»»»»»»»»»»»»»»»»»»»»»»»»» Data «««««««««««««««««««««««««««««««««««««««
Points:	1001

Valid Data

Point	Time (ms)	Drive Voltage	Measured Polarization (uC/cm2)	Capacitance (uF)	Normalized Capacitance (uF/cm2)	Dielectric Constant	Instantaneous Current (mA)
   1	0.0000e+00	0.0257	-15.291602	-0.000543	-5.432304	-1.840514	-0.043690
   2	5.0000e-04	0.0674	-15.510054	-0.000543	-5.432304	-1.840514	-0.043690
   3	1.0000e-03	0.0882	-15.364419	0.000362	3.621536	1.227010	0.029127
   4	1.5000e-03	0.1588	-15.255194	0.000272	2.716152	0.920257	0.021845
   5	2.0000e-03	0.1909	-15.073151	0.000453	4.526920	1.533762	0.036409
   6	2.5000e-03	0.2438	-14.891108	0.000453	4.526920	1.533762	0.036409
   7	3.0000e-03	0.2872	-14.745474	0.000362	3.621536	1.227010	0.029127
   8	3.5000e-03	0.3257	-15.109559	-0.000905	-9.053840	-3.067524	-0.072817
   9	4.0000e-03	0.3674	-14.709065	0.000996	9.959223	3.374276	0.080099
  10	4.5000e-03	0.4059	-14.781882	-0.000181	-1.810768	-0.613505	-0.014563
  11	5.0000e-03	0.4219	-14.563431	0.000543	5.432304	1.840514	0.043690
  12	5.5000e-03	0.4636	-13.944485	0.001539	15.391527	5.214791	0.123789
  13	6.0000e-03	0.5005	-13.871668	0.000181	1.810768	0.613505	0.014563
  14	6.5000e-03	0.5711	-14.235754	-0.000905	-9.053840	-3.067524	-0.072817
  15	7.0000e-03	0.6144	-14.235754	0.000000	0.000000	0.000000	0.000000
  16	7.5000e-03	0.6369	-14.344979	-0.000272	-2.716152	-0.920257	-0.021845
  17	8.0000e-03	0.6754	-13.689625	0.001630	16.296911	5.521543	0.131071
  18	8.5000e-03	0.7107	-14.053711	-0.000905	-9.053840	-3.067524	-0.072817
  19	9.0000e-03	0.7492	-13.252722	0.001992	19.918447	6.748553	0.160198
  20	9.5000e-03	0.7925	-13.361948	-0.000272	-2.716152	-0.920257	-0.021845
  21	1.0000e-02	0.8374	-13.543991	-0.000453	-4.526920	-1.533762	-0.036409
  22	1.0500e-02	0.8679	-13.580399	-0.000091	-0.905384	-0.306752	-0.007282
  23	1.1000e-02	0.9112	-13.179905	0.000996	9.959223	3.374276	0.080099
  24	1.1500e-02	0.9465	-13.580399	-0.000996	-9.959223	-3.374276	-0.080099
  25	1.2000e-02	1.0026	-12.961453	0.001539	15.391527	5.214791	0.123789
  26	1.2500e-02	1.0460	-13.325539	-0.000905	-9.053840	-3.067524	-0.072817
  27	1.3000e-02	1.0941	-12.997862	0.000815	8.148456	2.760771	0.065535
  28	1.3500e-02	1.1053	-12.925045	0.000181	1.810768	0.613505	0.014563
  29	1.4000e-02	1.1518	-12.524550	0.000996	9.959223	3.374276	0.080099
  30	1.4500e-02	1.2224	-13.289131	-0.001901	-19.013063	-6.441800	-0.152916
  31	1.5000e-02	1.2545	-12.706593	0.001449	14.486143	4.908038	0.116507
  32	1.5500e-02	1.2738	-12.560959	0.000362	3.621536	1.227010	0.029127
  33	1.6000e-02	1.2930	-12.488142	0.000181	1.810768	0.613505	0.014563
  34	1.6500e-02	1.3460	-12.378916	0.000272	2.716152	0.920257	0.021845
  35	1.7000e-02	1.3877	-11.869196	0.001268	12.675375	4.294533	0.101944
  36	1.7500e-02	1.4294	-12.124056	-0.000634	-6.337688	-2.147267	-0.050972
  37	1.8000e-02	1.4647	-12.196873	-0.000181	-1.810768	-0.613505	-0.014563
  38	1.8500e-02	1.5224	-11.869196	0.000815	8.148456	2.760771	0.065535
  39	1.9000e-02	1.5369	-12.269690	-0.000996	-9.959223	-3.374276	-0.080099
  40	1.9500e-02	1.5641	-11.978422	0.000724	7.243072	2.454019	0.058254
  41	2.0000e-02	1.6363	-11.942013	0.000091	0.905384	0.306752	0.007282
  42	2.0500e-02	1.6780	-11.687153	0.000634	6.337688	2.147267	0.050972
  43	2.1000e-02	1.7213	-11.323067	0.000905	9.053840	3.067524	0.072817
  44	2.1500e-02	1.7679	-11.796379	-0.001177	-11.769991	-3.987781	-0.094662
  45	2.2000e-02	1.8032	-11.541519	0.000634	6.337688	2.147267	0.050972
  46	2.2500e-02	1.8336	-11.177433	0.000905	9.053840	3.067524	0.072817
  47	2.3000e-02	1.8721	-11.614336	-0.001086	-10.864607	-3.681029	-0.087381
  48	2.3500e-02	1.9427	-11.141025	0.001177	11.769991	3.987781	0.094662
  49	2.4000e-02	1.9524	-11.213842	-0.000181	-1.810768	-0.613505	-0.014563
  50	2.4500e-02	1.9780	-10.886165	0.000815	8.148456	2.760771	0.065535
  51	2.5000e-02	2.0358	-10.886165	0.000000	0.000000	0.000000	0.000000
  52	2.5500e-02	2.0807	-11.104616	-0.000543	-5.432304	-1.840514	-0.043690
  53	2.6000e-02	2.1048	-10.667713	0.001086	10.864607	3.681029	0.087381
  54	2.6500e-02	2.1400	-10.631304	0.000091	0.905384	0.306752	0.007282
  55	2.7000e-02	2.1866	-10.522079	0.000272	2.716152	0.920257	0.021845
  56	2.7500e-02	2.2379	-10.667713	-0.000362	-3.621536	-1.227010	-0.029127
  57	2.8000e-02	2.2684	-10.740530	-0.000181	-1.810768	-0.613505	-0.014563
  58	2.8500e-02	2.3085	-10.048767	0.001720	17.202295	5.828295	0.138353
  59	2.9000e-02	2.3518	-10.631304	-0.001449	-14.486143	-4.908038	-0.116507
  60	2.9500e-02	2.3711	-10.340036	0.000724	7.243072	2.454019	0.058254
  61	3.0000e-02	2.4304	-10.157993	0.000453	4.526920	1.533762	0.036409
  62	3.0500e-02	2.4866	-10.157993	0.000000	0.000000	0.000000	0.000000
  63	3.1000e-02	2.5186	-9.757499	0.000996	9.959223	3.374276	0.080099
  64	3.1500e-02	2.5555	-9.721090	0.000091	0.905384	0.306752	0.007282
  65	3.2000e-02	2.5860	-9.975950	-0.000634	-6.337688	-2.147267	-0.050972
  66	3.2500e-02	2.6374	-9.793907	0.000453	4.526920	1.533762	0.036409
  67	3.3000e-02	2.6694	-9.611864	0.000453	4.526920	1.533762	0.036409
  68	3.3500e-02	2.7128	-9.284187	0.000815	8.148456	2.760771	0.065535
  69	3.4000e-02	2.7529	-9.793907	-0.001268	-12.675375	-4.294533	-0.101944
  70	3.4500e-02	2.8042	-9.174961	0.001539	15.391527	5.214791	0.123789
  71	3.5000e-02	2.8331	-9.502639	-0.000815	-8.148456	-2.760771	-0.065535
  72	3.5500e-02	2.8652	-9.429821	0.000181	1.810768	0.613505	0.014563
  73	3.6000e-02	2.9309	-9.174961	0.000634	6.337688	2.147267	0.050972
  74	3.6500e-02	2.9454	-9.138553	0.000091	0.905384	0.306752	0.007282
  75	3.7000e-02	2.9855	-8.701650	0.001086	10.864607	3.681029	0.087381
  76	3.7500e-02	3.0144	-8.920101	-0.000543	-5.432304	-1.840514	-0.043690
  77	3.8000e-02	3.0849	-8.810876	0.000272	2.716152	0.920257	0.021845
  78	3.8500e-02	3.0994	-8.956510	-0.000362	-3.621536	-1.227010	-0.029127
  79	3.9000e-02	3.1523	-8.701650	0.000634	6.337688	2.147267	0.050972
  80	3.9500e-02	3.2020	-8.883693	-0.000453	-4.526920	-1.533762	-0.036409
  81	4.0000e-02	3.2309	-8.774467	0.000272	2.716152	0.920257	0.021845
  82	4.0500e-02	3.2502	-8.701650	0.000181	1.810768	0.613505	0.014563
  83	4.1000e-02	3.3095	-8.373973	0.000815	8.148456	2.760771	0.065535
  84	4.1500e-02	3.3416	-8.446790	-0.000181	-1.810768	-0.613505	-0.014563
  85	4.2000e-02	3.4026	-8.009887	0.001086	10.864607	3.681029	0.087381
  86	4.2500e-02	3.4282	-8.264747	-0.000634	-6.337688	-2.147267	-0.050972
  87	4.3000e-02	3.4539	-8.373973	-0.000272	-2.716152	-0.920257	-0.021845
  88	4.3500e-02	3.5117	-8.483198	-0.000272	-2.716152	-0.920257	-0.021845
  89	4.4000e-02	3.5293	-8.155521	0.000815	8.148456	2.760771	0.065535
  90	4.4500e-02	3.5951	-7.609393	0.001358	13.580759	4.601286	0.109226
  91	4.5000e-02	3.6368	-7.572984	0.000091	0.905384	0.306752	0.007282
  92	4.5500e-02	3.6833	-7.973478	-0.000996	-9.959223	-3.374276	-0.080099
  93	4.6000e-02	3.7218	-7.463758	0.001268	12.675375	4.294533	0.101944
  94	4.6500e-02	3.7603	-7.682210	-0.000543	-5.432304	-1.840514	-0.043690
  95	4.7000e-02	3.8165	-7.718618	-0.000091	-0.905384	-0.306752	-0.007282
  96	4.7500e-02	3.8405	-7.318124	0.000996	9.959223	3.374276	0.080099
  97	4.8000e-02	3.8534	-7.463758	-0.000362	-3.621536	-1.227010	-0.029127
  98	4.8500e-02	3.9031	-7.354533	0.000272	2.716152	0.920257	0.021845
  99	4.9000e-02	3.9528	-7.172490	0.000453	4.526920	1.533762	0.036409
 100	4.9500e-02	3.9769	-7.208898	-0.000091	-0.905384	-0.306752	-0.007282
 101	5.0000e-02	4.0250	-7.427350	-0.000543	-5.432304	-1.840514	-0.043690
 102	5.0500e-02	4.0924	-7.063264	0.000905	9.053840	3.067524	0.072817
 103	5.1000e-02	4.1116	-7.136081	-0.000181	-1.810768	-0.613505	-0.014563
 104	5.1500e-02	4.1469	-6.808404	0.000815	8.148456	2.760771	0.065535
 105	5.2000e-02	4.1887	-6.771995	0.000091	0.905384	0.306752	0.007282
 106	5.2500e-02	4.2255	-6.771995	0.000000	0.000000	0.000000	0.000000
 107	5.3000e-02	4.2801	-6.699178	0.000181	1.810768	0.613505	0.014563
 108	5.3500e-02	4.3106	-6.662770	0.000091	0.905384	0.306752	0.007282
 109	5.4000e-02	4.3699	-6.407910	0.000634	6.337688	2.147267	0.050972
 110	5.4500e-02	4.4052	-6.553544	-0.000362	-3.621536	-1.227010	-0.029127
 111	5.5000e-02	4.4325	-6.844812	-0.000724	-7.243072	-2.454019	-0.058254
 112	5.5500e-02	4.4726	-6.407910	0.001086	10.864607	3.681029	0.087381
 113	5.6000e-02	4.4983	-6.189458	0.000543	5.432304	1.840514	0.043690
 114	5.6500e-02	4.5480	-6.116641	0.000181	1.810768	0.613505	0.014563
 115	5.7000e-02	4.5785	-6.371501	-0.000634	-6.337688	-2.147267	-0.050972
 116	5.7500e-02	4.6314	-5.716147	0.001630	16.296911	5.521543	0.131071
 117	5.8000e-02	4.6587	-5.861781	-0.000362	-3.621536	-1.227010	-0.029127
 118	5.8500e-02	4.7245	-5.934598	-0.000181	-1.810768	-0.613505	-0.014563
 119	5.9000e-02	4.7453	-5.825372	0.000272	2.716152	0.920257	0.021845
 120	5.9500e-02	4.7983	-5.606921	0.000543	5.432304	1.840514	0.043690
 121	6.0000e-02	4.7951	-6.043824	0.001086	10.864607	3.681029	-0.087381
 122	6.0500e-02	4.8881	-5.497695	0.001358	13.580759	4.601286	0.109226
 123	6.1000e-02	4.9073	-5.497695	0.000000	0.000000	0.000000	0.000000
 124	6.1500e-02	4.9426	-5.279244	0.000543	5.432304	1.840514	0.043690
 125	6.2000e-02	5.0116	-5.570512	-0.000724	-7.243072	-2.454019	-0.058254
 126	6.2500e-02	5.0164	-5.206427	0.000905	9.053840	3.067524	0.072817
 127	6.3000e-02	5.0678	-5.024384	0.000453	4.526920	1.533762	0.036409
 128	6.3500e-02	5.0934	-5.242835	-0.000543	-5.432304	-1.840514	-0.043690
 129	6.4000e-02	5.1656	-5.060792	0.000453	4.526920	1.533762	0.036409
 130	6.4500e-02	5.1785	-4.551072	0.001268	12.675375	4.294533	0.101944
 131	6.5000e-02	5.2266	-4.769524	-0.000543	-5.432304	-1.840514	-0.043690
 132	6.5500e-02	5.2571	-5.024384	-0.000634	-6.337688	-2.147267	-0.050972
 133	6.6000e-02	5.3036	-4.805932	0.000543	5.432304	1.840514	0.043690
 134	6.6500e-02	5.3437	-4.733115	0.000181	1.810768	0.613505	0.014563
 135	6.7000e-02	5.4175	-4.514664	0.000543	5.432304	1.840514	0.043690
 136	6.7500e-02	5.4239	-4.551072	-0.000091	-0.905384	-0.306752	-0.007282
 137	6.8000e-02	5.4801	-4.441846	0.000272	2.716152	0.920257	0.021845
 138	6.8500e-02	5.5121	-4.915158	-0.001177	-11.769991	-3.987781	-0.094662
 139	6.9000e-02	5.5539	-4.405438	0.001268	12.675375	4.294533	0.101944
 140	6.9500e-02	5.5731	-4.405438	0.000000	0.000000	0.000000	0.000000
 141	7.0000e-02	5.6341	-4.369029	0.000091	0.905384	0.306752	0.007282
 142	7.0500e-02	5.6726	-4.114169	0.000634	6.337688	2.147267	0.050972
 143	7.1000e-02	5.6966	-4.223395	-0.000272	-2.716152	-0.920257	-0.021845
 144	7.1500e-02	5.7560	-4.041352	0.000453	4.526920	1.533762	0.036409
 145	7.2000e-02	5.7929	-4.041352	0.000000	0.000000	0.000000	0.000000
 146	7.2500e-02	5.8218	-4.369029	-0.000815	-8.148456	-2.760771	-0.065535
 147	7.3000e-02	5.8779	-3.968535	0.000996	9.959223	3.374276	0.080099
 148	7.3500e-02	5.9020	-3.932126	0.000091	0.905384	0.306752	0.007282
 149	7.4000e-02	5.9694	-4.004943	-0.000181	-1.810768	-0.613505	-0.014563
 150	7.4500e-02	5.9934	-3.458815	0.001358	13.580759	4.601286	0.109226
 151	7.5000e-02	6.0592	-3.750083	-0.000724	-7.243072	-2.454019	-0.058254
 152	7.5500e-02	6.0576	-3.385998	-0.000905	-9.053840	-3.067524	0.072817
 153	7.6000e-02	6.1137	-3.495223	-0.000272	-2.716152	-0.920257	-0.021845
 154	7.6500e-02	6.1522	-3.131138	0.000905	9.053840	3.067524	0.072817
 155	7.7000e-02	6.1907	-3.640858	-0.001268	-12.675375	-4.294533	-0.101944
 156	7.7500e-02	6.2180	-3.604449	0.000091	0.905384	0.306752	0.007282
 157	7.8000e-02	6.2886	-3.276772	0.000815	8.148456	2.760771	0.065535
 158	7.8500e-02	6.3271	-3.276772	0.000000	0.000000	0.000000	0.000000
 159	7.9000e-02	6.3640	-2.985503	0.000724	7.243072	2.454019	0.058254
 160	7.9500e-02	6.4009	-3.203955	-0.000543	-5.432304	-1.840514	-0.043690
 161	8.0000e-02	6.4282	-3.058320	0.000362	3.621536	1.227010	0.029127
 162	8.0500e-02	6.4971	-2.985503	0.000181	1.810768	0.613505	0.014563
 163	8.1000e-02	6.4506	-2.803460	-0.000453	-4.526920	-1.533762	0.036409
 164	8.1500e-02	6.5533	-2.767052	0.000091	0.905384	0.306752	0.007282
 165	8.2000e-02	6.5677	-2.621418	0.000362	3.621536	1.227010	0.029127
 166	8.2500e-02	6.6495	-2.621418	0.000000	0.000000	0.000000	0.000000
 167	8.3000e-02	6.6672	-2.366558	0.000634	6.337688	2.147267	0.050972
 168	8.3500e-02	6.7249	-2.293740	0.000181	1.810768	0.613505	0.014563
 169	8.4000e-02	6.7650	-2.475783	-0.000453	-4.526920	-1.533762	-0.036409
 170	8.4500e-02	6.7955	-2.475783	0.000000	0.000000	0.000000	0.000000
 171	8.5000e-02	6.8260	-2.402966	0.000181	1.810768	0.613505	0.014563
 172	8.5500e-02	6.8725	-2.257332	0.000362	3.621536	1.227010	0.029127
 173	8.6000e-02	6.9223	-2.220923	0.000091	0.905384	0.306752	0.007282
 174	8.6500e-02	6.9495	-2.038880	0.000453	4.526920	1.533762	0.036409
 175	8.7000e-02	6.9929	-1.820429	0.000543	5.432304	1.840514	0.043690
 176	8.7500e-02	7.0281	-2.075289	-0.000634	-6.337688	-2.147267	-0.050972
 177	8.8000e-02	7.0602	-2.038880	0.000091	0.905384	0.306752	0.007282
 178	8.8500e-02	7.1324	-1.601977	0.001086	10.864607	3.681029	0.087381
 179	8.9000e-02	7.1613	-1.784020	-0.000453	-4.526920	-1.533762	-0.036409
 180	8.9500e-02	7.1966	-1.310709	0.001177	11.769991	3.987781	0.094662
 181	9.0000e-02	7.2303	-1.820429	-0.001268	-12.675375	-4.294533	-0.101944
 182	9.0500e-02	7.2672	-1.565569	0.000634	6.337688	2.147267	0.050972
 183	9.1000e-02	7.3169	-1.601977	-0.000091	-0.905384	-0.306752	-0.007282
 184	9.1500e-02	7.3586	-1.128666	0.001177	11.769991	3.987781	0.094662
 185	9.2000e-02	7.3747	-1.529160	-0.000996	-9.959223	-3.374276	-0.080099
 186	9.2500e-02	7.4148	-1.347117	0.000453	4.526920	1.533762	0.036409
 187	9.3000e-02	7.4741	-0.873806	0.001177	11.769991	3.987781	0.094662
 188	9.3500e-02	7.5206	-1.310709	-0.001086	-10.864607	-3.681029	-0.087381
 189	9.4000e-02	7.5479	-1.092257	0.000543	5.432304	1.840514	0.043690
 190	9.4500e-02	7.6073	-0.618946	0.001177	11.769991	3.987781	0.094662
 191	9.5000e-02	7.6201	-1.128666	-0.001268	-12.675375	-4.294533	-0.101944
 192	9.5500e-02	7.6843	-1.019440	0.000272	2.716152	0.920257	0.021845
 193	9.6000e-02	7.7180	-0.764580	0.000634	6.337688	2.147267	0.050972
 194	9.6500e-02	7.7549	-1.274300	-0.001268	-12.675375	-4.294533	-0.101944
 195	9.7000e-02	7.7821	-0.436903	0.002082	20.823831	7.055305	0.167479
 196	9.7500e-02	7.8319	-0.582537	-0.000362	-3.621536	-1.227010	-0.029127
 197	9.8000e-02	7.8864	-0.291269	0.000724	7.243072	2.454019	0.058254
 198	9.8500e-02	7.8944	-0.691763	-0.000996	-9.959223	-3.374276	-0.080099
 199	9.9000e-02	7.9506	-0.946623	-0.000634	-6.337688	-2.147267	-0.050972
 200	9.9500e-02	8.0180	-0.436903	0.001268	12.675375	4.294533	0.101944
 201	1.0000e-01	8.0372	-0.473312	-0.000091	-0.905384	-0.306752	-0.007282
 202	1.0050e-01	8.0709	-0.291269	0.000453	4.526920	1.533762	0.036409
 203	1.0100e-01	8.1335	-0.364086	-0.000181	-1.810768	-0.613505	-0.014563
 204	1.0150e-01	8.1511	-0.182043	0.000453	4.526920	1.533762	0.036409
 205	1.0200e-01	8.1880	0.072817	0.000634	6.337688	2.147267	0.050972
 206	1.0250e-01	8.2265	0.000000	-0.000181	-1.810768	-0.613505	-0.014563
 207	1.0300e-01	8.2442	0.000000	0.000000	0.000000	0.000000	0.000000
 208	1.0350e-01	8.3276	-0.218451	-0.000543	-5.432304	-1.840514	-0.043690
 209	1.0400e-01	8.3340	-0.218451	0.000000	0.000000	0.000000	0.000000
 210	1.0450e-01	8.3917	0.364086	0.001449	14.486143	4.908038	0.116507
 211	1.0500e-01	8.4270	-0.218451	-0.001449	-14.486143	-4.908038	-0.116507
 212	1.0550e-01	8.4768	0.182043	0.000996	9.959223	3.374276	0.080099
 213	1.0600e-01	8.5040	0.218451	0.000091	0.905384	0.306752	0.007282
 214	1.0650e-01	8.5538	0.618946	0.000996	9.959223	3.374276	0.080099
 215	1.0700e-01	8.6019	0.436903	-0.000453	-4.526920	-1.533762	-0.036409
 216	1.0750e-01	8.6115	0.291269	-0.000362	-3.621536	-1.227010	-0.029127
 217	1.0800e-01	8.6741	0.691763	0.000996	9.959223	3.374276	0.080099
 218	1.0850e-01	8.7094	0.546129	-0.000362	-3.621536	-1.227010	-0.029127
 219	1.0900e-01	8.7591	0.582537	0.000091	0.905384	0.306752	0.007282
 220	1.0950e-01	8.8137	0.983032	0.000996	9.959223	3.374276	0.080099
 221	1.1000e-01	8.8153	0.618946	-0.000905	-9.053840	-3.067524	-0.072817
 222	1.1050e-01	8.8842	0.873806	0.000634	6.337688	2.147267	0.050972
 223	1.1100e-01	8.9035	1.456343	0.001449	14.486143	4.908038	0.116507
 224	1.1150e-01	8.9564	1.383526	-0.000181	-1.810768	-0.613505	-0.014563
 225	1.1200e-01	9.0046	1.055849	-0.000815	-8.148456	-2.760771	-0.065535
 226	1.1250e-01	9.0495	0.764580	-0.000724	-7.243072	-2.454019	-0.058254
 227	1.1300e-01	9.0735	1.747612	0.002445	24.445367	8.282314	0.196606
 228	1.1350e-01	9.0992	1.092257	-0.001630	-16.296911	-5.521543	-0.131071
 229	1.1400e-01	9.1441	1.419935	0.000815	8.148456	2.760771	0.065535
 230	1.1450e-01	9.1906	1.092257	-0.000815	-8.148456	-2.760771	-0.065535
 231	1.1500e-01	9.2259	1.310709	0.000543	5.432304	1.840514	0.043690
 232	1.1550e-01	9.2596	1.237892	-0.000181	-1.810768	-0.613505	-0.014563
 233	1.1600e-01	9.3110	1.383526	0.000362	3.621536	1.227010	0.029127
 234	1.1650e-01	9.3479	1.565569	0.000453	4.526920	1.533762	0.036409
 235	1.1700e-01	9.3944	1.419935	-0.000362	-3.621536	-1.227010	-0.029127
 236	1.1750e-01	9.4265	1.638386	0.000543	5.432304	1.840514	0.043690
 237	1.1800e-01	9.4826	1.674795	0.000091	0.905384	0.306752	0.007282
 238	1.1850e-01	9.5195	2.038880	0.000905	9.053840	3.067524	0.072817
 239	1.1900e-01	9.5468	2.075289	0.000091	0.905384	0.306752	0.007282
 240	1.1950e-01	9.5997	1.856837	-0.000543	-5.432304	-1.840514	-0.043690
 241	1.2000e-01	9.6286	1.820429	-0.000091	-0.905384	-0.306752	-0.007282
 242	1.2050e-01	9.6623	1.565569	-0.000634	-6.337688	-2.147267	-0.050972
 243	1.2100e-01	9.7297	2.330149	0.001901	19.013063	6.441800	0.152916
 244	1.2150e-01	9.7329	1.966063	-0.000905	-9.053840	-3.067524	-0.072817
 245	1.2200e-01	9.7842	2.148106	0.000453	4.526920	1.533762	0.036409
 246	1.2250e-01	9.8356	2.475783	0.000815	8.148456	2.760771	0.065535
 247	1.2300e-01	9.8757	2.366558	-0.000272	-2.716152	-0.920257	-0.021845
 248	1.2350e-01	9.8981	2.512192	0.000362	3.621536	1.227010	0.029127
 249	1.2400e-01	9.9607	2.402966	-0.000272	-2.716152	-0.920257	-0.021845
 250	1.2450e-01	10.0024	2.548600	0.000362	3.621536	1.227010	0.029127
 251	1.2500e-01	10.0200	2.366558	-0.000453	-4.526920	-1.533762	-0.036409
 252	1.2550e-01	10.0826	2.657826	0.000724	7.243072	2.454019	0.058254
 253	1.2600e-01	10.1067	2.585009	-0.000181	-1.810768	-0.613505	-0.014563
 254	1.2650e-01	10.1532	2.912686	0.000815	8.148456	2.760771	0.065535
 255	1.2700e-01	10.1885	2.912686	0.000000	0.000000	0.000000	0.000000
 256	1.2750e-01	10.2398	2.548600	-0.000905	-9.053840	-3.067524	-0.072817
 257	1.2800e-01	10.2639	3.021912	0.001177	11.769991	3.987781	0.094662
 258	1.2850e-01	10.3184	3.422406	0.000996	9.959223	3.374276	0.080099
 259	1.2900e-01	10.3649	3.531632	0.000272	2.716152	0.920257	0.021845
 260	1.2950e-01	10.3842	2.585009	-0.002354	-23.539983	-7.975562	-0.189325
 261	1.3000e-01	10.4355	3.240363	0.001630	16.296911	5.521543	0.131071
 262	1.3050e-01	10.4596	3.203955	-0.000091	-0.905384	-0.306752	-0.007282
 263	1.3100e-01	10.5061	3.167546	-0.000091	-0.905384	-0.306752	-0.007282
 264	1.3150e-01	10.5719	3.203955	0.000091	0.905384	0.306752	0.007282
 265	1.3200e-01	10.5895	3.385998	0.000453	4.526920	1.533762	0.036409
 266	1.3250e-01	10.6329	3.458815	0.000181	1.810768	0.613505	0.014563
 267	1.3300e-01	10.6633	3.422406	-0.000091	-0.905384	-0.306752	-0.007282
 268	1.3350e-01	10.7083	3.349589	-0.000181	-1.810768	-0.613505	-0.014563
 269	1.3400e-01	10.7484	3.822901	0.001177	11.769991	3.987781	0.094662
 270	1.3450e-01	10.7853	3.531632	-0.000724	-7.243072	-2.454019	-0.058254
 271	1.3500e-01	10.8286	3.604449	0.000181	1.810768	0.613505	0.014563
 272	1.3550e-01	10.8767	3.895718	0.000724	7.243072	2.454019	0.058254
 273	1.3600e-01	10.9040	3.968535	0.000181	1.810768	0.613505	0.014563
 274	1.3650e-01	10.9585	3.932126	-0.000091	-0.905384	-0.306752	-0.007282
 275	1.3700e-01	10.9922	3.640858	-0.000724	-7.243072	-2.454019	-0.058254
 276	1.3750e-01	11.0355	4.077761	0.001086	10.864607	3.681029	0.087381
 277	1.3800e-01	11.0804	3.968535	-0.000272	-2.716152	-0.920257	-0.021845
 278	1.3850e-01	11.1109	4.441846	0.001177	11.769991	3.987781	0.094662
 279	1.3900e-01	11.1494	4.223395	-0.000543	-5.432304	-1.840514	-0.043690
 280	1.3950e-01	11.2024	4.150578	-0.000181	-1.810768	-0.613505	-0.014563
 281	1.4000e-01	11.2216	4.296212	0.000362	3.621536	1.227010	0.029127
 282	1.4050e-01	11.2729	4.077761	-0.000543	-5.432304	-1.840514	-0.043690
 283	1.4100e-01	11.3082	4.186986	0.000272	2.716152	0.920257	0.021845
 284	1.4150e-01	11.3195	4.696706	0.001268	12.675375	4.294533	0.101944
 285	1.4200e-01	11.4077	4.696706	0.000000	0.000000	0.000000	0.000000
 286	1.4250e-01	11.4253	4.405438	-0.000724	-7.243072	-2.454019	-0.058254
 287	1.4300e-01	11.4703	4.405438	0.000000	0.000000	0.000000	0.000000
 288	1.4350e-01	11.5136	4.696706	0.000724	7.243072	2.454019	0.058254
 289	1.4400e-01	11.5665	4.805932	0.000272	2.716152	0.920257	0.021845
 290	1.4450e-01	11.5858	4.623889	-0.000453	-4.526920	-1.533762	-0.036409
 291	1.4500e-01	11.6307	4.805932	0.000453	4.526920	1.533762	0.036409
 292	1.4550e-01	11.6804	4.915158	0.000272	2.716152	0.920257	0.021845
 293	1.4600e-01	11.7173	5.242835	0.000815	8.148456	2.760771	0.065535
 294	1.4650e-01	11.7462	5.424878	0.000453	4.526920	1.533762	0.036409
 295	1.4700e-01	11.7895	5.060792	-0.000905	-9.053840	-3.067524	-0.072817
 296	1.4750e-01	11.8457	5.060792	0.000000	0.000000	0.000000	0.000000
 297	1.4800e-01	11.8793	5.170018	0.000272	2.716152	0.920257	0.021845
 298	1.4850e-01	11.9034	5.242835	0.000181	1.810768	0.613505	0.014563
 299	1.4900e-01	11.9676	5.606921	0.000905	9.053840	3.067524	0.072817
 300	1.4950e-01	12.0029	5.752555	0.000362	3.621536	1.227010	0.029127
 301	1.5000e-01	12.0382	5.242835	-0.001268	-12.675375	-4.294533	-0.101944
 302	1.5050e-01	12.0719	5.424878	0.000453	4.526920	1.533762	0.036409
 303	1.5100e-01	12.1184	5.497695	0.000181	1.810768	0.613505	0.014563
 304	1.5150e-01	12.1617	5.424878	-0.000181	-1.810768	-0.613505	-0.014563
 305	1.5200e-01	12.1938	5.534104	0.000272	2.716152	0.920257	0.021845
 306	1.5250e-01	12.2355	5.752555	0.000543	5.432304	1.840514	0.043690
 307	1.5300e-01	12.2804	5.606921	-0.000362	-3.621536	-1.227010	-0.029127
 308	1.5350e-01	12.3205	5.606921	0.000000	0.000000	0.000000	0.000000
 309	1.5400e-01	12.3574	5.679738	0.000181	1.810768	0.613505	0.014563
 310	1.5450e-01	12.4119	5.716147	0.000091	0.905384	0.306752	0.007282
 311	1.5500e-01	12.4216	5.679738	-0.000091	-0.905384	-0.306752	-0.007282
 312	1.5550e-01	12.4841	5.971007	0.000724	7.243072	2.454019	0.058254
 313	1.5600e-01	12.5082	6.335092	0.000905	9.053840	3.067524	0.072817
 314	1.5650e-01	12.5483	6.262275	-0.000181	-1.810768	-0.613505	-0.014563
 315	1.5700e-01	12.5964	6.298684	0.000091	0.905384	0.306752	0.007282
 316	1.5750e-01	12.6478	5.934598	-0.000905	-9.053840	-3.067524	-0.072817
 317	1.5800e-01	12.6750	6.589952	0.001630	16.296911	5.521543	0.131071
 318	1.5850e-01	12.6991	6.225867	-0.000905	-9.053840	-3.067524	-0.072817
 319	1.5900e-01	12.7569	6.444318	0.000543	5.432304	1.840514	0.043690
 320	1.5950e-01	12.7938	6.298684	-0.000362	-3.621536	-1.227010	-0.029127
 321	1.6000e-01	12.8307	6.699178	0.000996	9.959223	3.374276	0.080099
 322	1.6050e-01	12.8643	6.444318	-0.000634	-6.337688	-2.147267	-0.050972
 323	1.6100e-01	12.9093	6.881221	0.001086	10.864607	3.681029	0.087381
 324	1.6150e-01	12.9301	6.335092	-0.001358	-13.580759	-4.601286	-0.109226
 325	1.6200e-01	13.0023	6.881221	0.001358	13.580759	4.601286	0.109226
 326	1.6250e-01	13.0296	7.136081	0.000634	6.337688	2.147267	0.050972
 327	1.6300e-01	13.0665	6.589952	-0.001358	-13.580759	-4.601286	-0.109226
 328	1.6350e-01	13.1194	6.662770	0.000181	1.810768	0.613505	0.014563
 329	1.6400e-01	13.1371	6.517135	-0.000362	-3.621536	-1.227010	-0.029127
 330	1.6450e-01	13.1916	6.954038	0.001086	10.864607	3.681029	0.087381
 331	1.6500e-01	13.2301	7.136081	0.000453	4.526920	1.533762	0.036409
 332	1.6550e-01	13.2734	6.954038	-0.000453	-4.526920	-1.533762	-0.036409
 333	1.6600e-01	13.3167	7.500167	0.001358	13.580759	4.601286	0.109226
 334	1.6650e-01	13.3440	7.245307	-0.000634	-6.337688	-2.147267	-0.050972
 335	1.6700e-01	13.3889	7.281715	0.000091	0.905384	0.306752	0.007282
 336	1.6750e-01	13.4387	7.572984	0.000724	7.243072	2.454019	0.058254
 337	1.6800e-01	13.4659	7.354533	-0.000543	-5.432304	-1.840514	-0.043690
 338	1.6850e-01	13.5221	7.645801	0.000724	7.243072	2.454019	0.058254
 339	1.6900e-01	13.5349	7.645801	0.000000	0.000000	0.000000	0.000000
 340	1.6950e-01	13.5911	7.572984	-0.000181	-1.810768	-0.613505	-0.014563
 341	1.7000e-01	13.6440	7.718618	0.000362	3.621536	1.227010	0.029127
 342	1.7050e-01	13.6761	7.390941	-0.000815	-8.148456	-2.760771	-0.065535
 343	1.7100e-01	13.6985	7.682210	0.000724	7.243072	2.454019	0.058254
 344	1.7150e-01	13.7707	7.827844	0.000362	3.621536	1.227010	0.029127
 345	1.7200e-01	13.7980	7.791435	-0.000091	-0.905384	-0.306752	-0.007282
 346	1.7250e-01	13.8012	7.609393	-0.000453	-4.526920	-1.533762	-0.036409
 347	1.7300e-01	13.8927	8.082704	0.001177	11.769991	3.987781	0.094662
 348	1.7350e-01	13.9199	7.937070	-0.000362	-3.621536	-1.227010	-0.029127
 349	1.7400e-01	13.9520	7.827844	-0.000272	-2.716152	-0.920257	-0.021845
 350	1.7450e-01	14.0050	8.009887	0.000453	4.526920	1.533762	0.036409
 351	1.7500e-01	14.0274	8.228338	0.000543	5.432304	1.840514	0.043690
 352	1.7550e-01	14.0707	8.155521	-0.000181	-1.810768	-0.613505	-0.014563
 353	1.7600e-01	14.1092	8.155521	0.000000	0.000000	0.000000	0.000000
 354	1.7650e-01	14.1590	8.556016	0.000996	9.959223	3.374276	0.080099
 355	1.7700e-01	14.1991	8.373973	-0.000453	-4.526920	-1.533762	-0.036409
 356	1.7750e-01	14.2279	8.301156	-0.000181	-1.810768	-0.613505	-0.014563
 357	1.7800e-01	14.2632	8.592424	0.000724	7.243072	2.454019	0.058254
 358	1.7850e-01	14.3114	8.337564	-0.000634	-6.337688	-2.147267	-0.050972
 359	1.7900e-01	14.3467	8.446790	0.000272	2.716152	0.920257	0.021845
 360	1.7950e-01	14.4092	8.519607	0.000181	1.810768	0.613505	0.014563
 361	1.8000e-01	14.4237	8.373973	-0.000362	-3.621536	-1.227010	-0.029127
 362	1.8050e-01	14.4541	8.556016	0.000453	4.526920	1.533762	0.036409
 363	1.8100e-01	14.5183	8.701650	0.000362	3.621536	1.227010	0.029127
 364	1.8150e-01	14.5584	8.519607	-0.000453	-4.526920	-1.533762	-0.036409
 365	1.8200e-01	14.5889	8.701650	0.000453	4.526920	1.533762	0.036409
 366	1.8250e-01	14.6178	8.628833	-0.000181	-1.810768	-0.613505	-0.014563
 367	1.8300e-01	14.6755	9.102144	0.001177	11.769991	3.987781	0.094662
 368	1.8350e-01	14.7220	9.029327	-0.000181	-1.810768	-0.613505	-0.014563
 369	1.8400e-01	14.7285	8.956510	-0.000181	-1.810768	-0.613505	-0.014563
 370	1.8450e-01	14.7942	8.992919	0.000091	0.905384	0.306752	0.007282
 371	1.8500e-01	14.8279	9.174961	0.000453	4.526920	1.533762	0.036409
 372	1.8550e-01	14.8728	9.029327	-0.000362	-3.621536	-1.227010	-0.029127
 373	1.8600e-01	14.9274	9.138553	0.000272	2.716152	0.920257	0.021845
 374	1.8650e-01	14.9434	8.738058	-0.000996	-9.959223	-3.374276	-0.080099
 375	1.8700e-01	14.9932	9.357004	0.001539	15.391527	5.214791	0.123789
 376	1.8750e-01	15.0188	9.247779	-0.000272	-2.716152	-0.920257	-0.021845
 377	1.8800e-01	15.0766	9.284187	0.000091	0.905384	0.306752	0.007282
 378	1.8850e-01	15.0990	9.466230	0.000453	4.526920	1.533762	0.036409
 379	1.8900e-01	15.1456	9.793907	0.000815	8.148456	2.760771	0.065535
 380	1.8950e-01	15.1937	9.284187	-0.001268	-12.675375	-4.294533	-0.101944
 381	1.9000e-01	15.2418	9.466230	0.000453	4.526920	1.533762	0.036409
 382	1.9050e-01	15.2787	9.903133	0.001086	10.864607	3.681029	0.087381
 383	1.9100e-01	15.2883	9.648273	-0.000634	-6.337688	-2.147267	-0.050972
 384	1.9150e-01	15.3525	9.539047	-0.000272	-2.716152	-0.920257	-0.021845
 385	1.9200e-01	15.3958	9.793907	0.000634	6.337688	2.147267	0.050972
 386	1.9250e-01	15.4311	9.903133	0.000272	2.716152	0.920257	0.021845
 387	1.9300e-01	15.4680	9.866724	-0.000091	-0.905384	-0.306752	-0.007282
 388	1.9350e-01	15.5193	10.194402	0.000815	8.148456	2.760771	0.065535
 389	1.9400e-01	15.5530	9.757499	-0.001086	-10.864607	-3.681029	-0.087381
 390	1.9450e-01	15.5915	10.340036	0.001449	14.486143	4.908038	0.116507
 391	1.9500e-01	15.6316	10.340036	0.000000	0.000000	0.000000	0.000000
 392	1.9550e-01	15.6637	9.975950	-0.000905	-9.053840	-3.067524	-0.072817
 393	1.9600e-01	15.7151	9.975950	0.000000	0.000000	0.000000	0.000000
 394	1.9650e-01	15.7263	9.939542	-0.000091	-0.905384	-0.306752	-0.007282
 395	1.9700e-01	15.8033	10.485670	0.001358	13.580759	4.601286	0.109226
 396	1.9750e-01	15.8193	10.412853	-0.000181	-1.810768	-0.613505	-0.014563
 397	1.9800e-01	15.8947	10.412853	0.000000	0.000000	0.000000	0.000000
 398	1.9850e-01	15.9076	10.340036	-0.000181	-1.810768	-0.613505	-0.014563
 399	1.9900e-01	15.9605	10.376444	0.000091	0.905384	0.306752	0.007282
 400	1.9950e-01	15.9958	10.740530	0.000905	9.053840	3.067524	0.072817
 401	2.0000e-01	16.0423	10.667713	-0.000181	-1.810768	-0.613505	-0.014563
 402	2.0050e-01	16.0616	10.485670	-0.000453	-4.526920	-1.533762	-0.036409
 403	2.0100e-01	16.1177	10.704122	0.000543	5.432304	1.840514	0.043690
 404	2.0150e-01	16.1626	10.558487	-0.000362	-3.621536	-1.227010	-0.029127
 405	2.0200e-01	16.1995	10.849756	0.000724	7.243072	2.454019	0.058254
 406	2.0250e-01	16.2188	10.813347	-0.000091	-0.905384	-0.306752	-0.007282
 407	2.0300e-01	16.2701	10.849756	0.000091	0.905384	0.306752	0.007282
 408	2.0350e-01	16.3199	11.141025	0.000724	7.243072	2.454019	0.058254
 409	2.0400e-01	16.3552	10.922573	-0.000543	-5.432304	-1.840514	-0.043690
 410	2.0450e-01	16.3856	10.922573	0.000000	0.000000	0.000000	0.000000
 411	2.0500e-01	16.4482	11.031799	0.000272	2.716152	0.920257	0.021845
 412	2.0550e-01	16.4835	11.359476	0.000815	8.148456	2.760771	0.065535
 413	2.0600e-01	16.5092	10.704122	-0.001630	-16.296911	-5.521543	-0.131071
 414	2.0650e-01	16.5428	10.995390	0.000724	7.243072	2.454019	0.058254
 415	2.0700e-01	16.6086	11.432293	0.001086	10.864607	3.681029	0.087381
 416	2.0750e-01	16.6391	11.141025	-0.000724	-7.243072	-2.454019	-0.058254
 417	2.0800e-01	16.6728	11.614336	0.001177	11.769991	3.987781	0.094662
 418	2.0850e-01	16.7241	11.505110	-0.000272	-2.716152	-0.920257	-0.021845
 419	2.0900e-01	16.7562	11.250250	-0.000634	-6.337688	-2.147267	-0.050972
 420	2.0950e-01	16.7867	11.104616	-0.000362	-3.621536	-1.227010	-0.029127
 421	2.1000e-01	16.8236	11.468702	0.000905	9.053840	3.067524	0.072817
 422	2.1050e-01	16.8669	10.922573	-0.001358	-13.580759	-4.601286	-0.109226
 423	2.1100e-01	16.9150	11.978422	0.002626	26.256135	8.895819	0.211170
 424	2.1150e-01	16.9664	11.177433	-0.001992	-19.918447	-6.748553	-0.160198
 425	2.1200e-01	17.0001	11.541519	0.000905	9.053840	3.067524	0.072817
 426	2.1250e-01	17.0321	11.796379	0.000634	6.337688	2.147267	0.050972
 427	2.1300e-01	17.0931	11.650745	-0.000362	-3.621536	-1.227010	-0.029127
 428	2.1350e-01	17.1027	11.832788	0.000453	4.526920	1.533762	0.036409
 429	2.1400e-01	17.1396	11.723562	-0.000272	-2.716152	-0.920257	-0.021845
 430	2.1450e-01	17.2022	11.942013	0.000543	5.432304	1.840514	0.043690
 431	2.1500e-01	17.2375	12.124056	0.000453	4.526920	1.533762	0.036409
 432	2.1550e-01	17.2792	12.014830	-0.000272	-2.716152	-0.920257	-0.021845
 433	2.1600e-01	17.3177	11.796379	-0.000543	-5.432304	-1.840514	-0.043690
 434	2.1650e-01	17.3594	12.160465	0.000905	9.053840	3.067524	0.072817
 435	2.1700e-01	17.3690	12.160465	0.000000	0.000000	0.000000	0.000000
 436	2.1750e-01	17.4348	12.087648	-0.000181	-1.810768	-0.613505	-0.014563
 437	2.1800e-01	17.4845	12.196873	0.000272	2.716152	0.920257	0.021845
 438	2.1850e-01	17.5230	12.269690	0.000181	1.810768	0.613505	0.014563
 439	2.1900e-01	17.5423	12.160465	-0.000272	-2.716152	-0.920257	-0.021845
 440	2.1950e-01	17.5840	12.378916	0.000543	5.432304	1.840514	0.043690
 441	2.2000e-01	17.6337	12.306099	-0.000181	-1.810768	-0.613505	-0.014563
 442	2.2050e-01	17.6819	12.378916	0.000181	1.810768	0.613505	0.014563
 443	2.2100e-01	17.7075	12.196873	-0.000453	-4.526920	-1.533762	-0.036409
 444	2.2150e-01	17.7460	12.378916	0.000453	4.526920	1.533762	0.036409
 445	2.2200e-01	17.7925	12.779411	0.000996	9.959223	3.374276	0.080099
 446	2.2250e-01	17.8246	12.451733	-0.000815	-8.148456	-2.760771	-0.065535
 447	2.2300e-01	17.8599	12.633776	0.000453	4.526920	1.533762	0.036409
 448	2.2350e-01	17.9129	12.597368	-0.000091	-0.905384	-0.306752	-0.007282
 449	2.2400e-01	17.9546	12.670185	0.000181	1.810768	0.613505	0.014563
 450	2.2450e-01	17.9979	12.997862	0.000815	8.148456	2.760771	0.065535
 451	2.2500e-01	18.0364	13.107088	0.000272	2.716152	0.920257	0.021845
 452	2.2550e-01	18.0765	12.815819	-0.000724	-7.243072	-2.454019	-0.058254
 453	2.2600e-01	18.1006	13.325539	0.001268	12.675375	4.294533	0.101944
 454	2.2650e-01	18.1551	12.706593	-0.001539	-15.391527	-5.214791	-0.123789
 455	2.2700e-01	18.2000	13.252722	0.001358	13.580759	4.601286	0.109226
 456	2.2750e-01	18.2321	12.925045	-0.000815	-8.148456	-2.760771	-0.065535
 457	2.2800e-01	18.2626	13.107088	0.000453	4.526920	1.533762	0.036409
 458	2.2850e-01	18.3123	13.507582	0.000996	9.959223	3.374276	0.080099
 459	2.2900e-01	18.3653	12.961453	-0.001358	-13.580759	-4.601286	-0.109226
 460	2.2950e-01	18.3765	13.070679	0.000272	2.716152	0.920257	0.021845
 461	2.3000e-01	18.4503	13.325539	0.000634	6.337688	2.147267	0.050972
 462	2.3050e-01	18.4647	13.726034	0.000996	9.959223	3.374276	0.080099
 463	2.3100e-01	18.5177	13.179905	-0.001358	-13.580759	-4.601286	-0.109226
 464	2.3150e-01	18.5481	13.835259	0.001630	16.296911	5.521543	0.131071
 465	2.3200e-01	18.6011	13.252722	-0.001449	-14.486143	-4.908038	-0.116507
 466	2.3250e-01	18.6251	13.398356	0.000362	3.621536	1.227010	0.029127
 467	2.3300e-01	18.6797	13.289131	-0.000272	-2.716152	-0.920257	-0.021845
 468	2.3350e-01	18.7134	13.252722	-0.000091	-0.905384	-0.306752	-0.007282
 469	2.3400e-01	18.7487	13.798851	0.001358	13.580759	4.601286	0.109226
 470	2.3450e-01	18.7695	13.689625	-0.000272	-2.716152	-0.920257	-0.021845
 471	2.3500e-01	18.8257	13.798851	0.000272	2.716152	0.920257	0.021845
 472	2.3550e-01	18.8834	13.726034	-0.000181	-1.810768	-0.613505	-0.014563
 473	2.3600e-01	18.9139	13.798851	0.000181	1.810768	0.613505	0.014563
 474	2.3650e-01	18.9845	14.344979	0.001358	13.580759	4.601286	0.109226
 475	2.3700e-01	18.9925	13.944485	-0.000996	-9.959223	-3.374276	-0.080099
 476	2.3750e-01	19.0118	13.944485	0.000000	0.000000	0.000000	0.000000
 477	2.3800e-01	19.0631	13.835259	-0.000272	-2.716152	-0.920257	-0.021845
 478	2.3850e-01	19.0968	13.762442	-0.000181	-1.810768	-0.613505	-0.014563
 479	2.3900e-01	19.1626	14.053711	0.000724	7.243072	2.454019	0.058254
 480	2.3950e-01	19.1995	14.235754	0.000453	4.526920	1.533762	0.036409
 481	2.4000e-01	19.2075	14.090119	-0.000362	-3.621536	-1.227010	-0.029127
 482	2.4050e-01	19.2781	14.162936	0.000181	1.810768	0.613505	0.014563
 483	2.4100e-01	19.2909	14.235754	0.000181	1.810768	0.613505	0.014563
 484	2.4150e-01	19.3470	14.272162	0.000091	0.905384	0.306752	0.007282
 485	2.4200e-01	19.3872	14.417796	0.000362	3.621536	1.227010	0.029127
 486	2.4250e-01	19.4112	14.563431	0.000362	3.621536	1.227010	0.029127
 487	2.4300e-01	19.4690	14.599839	0.000091	0.905384	0.306752	0.007282
 488	2.4350e-01	19.4994	14.490614	-0.000272	-2.716152	-0.920257	-0.021845
 489	2.4400e-01	19.5492	14.126528	-0.000905	-9.053840	-3.067524	-0.072817
 490	2.4450e-01	19.5973	14.745474	0.001539	15.391527	5.214791	0.123789
 491	2.4500e-01	19.6230	14.417796	-0.000815	-8.148456	-2.760771	-0.065535
 492	2.4550e-01	19.6791	14.490614	0.000181	1.810768	0.613505	0.014563
 493	2.4600e-01	19.7112	14.563431	0.000181	1.810768	0.613505	0.014563
 494	2.4650e-01	19.7417	14.781882	0.000543	5.432304	1.840514	0.043690
 495	2.4700e-01	19.7946	14.818291	0.000091	0.905384	0.306752	0.007282
 496	2.4750e-01	19.8267	14.745474	-0.000181	-1.810768	-0.613505	-0.014563
 497	2.4800e-01	19.8732	14.781882	0.000091	0.905384	0.306752	0.007282
 498	2.4850e-01	19.9085	14.709065	-0.000181	-1.810768	-0.613505	-0.014563
 499	2.4900e-01	19.9486	14.891108	0.000453	4.526920	1.533762	0.036409
 500	2.4950e-01	20.0096	15.510054	0.001539	15.391527	5.214791	0.123789
 501	2.5000e-01	20.0433	15.000334	-0.001268	-12.675375	-4.294533	-0.101944
 502	2.5050e-01	19.9631	14.963925	0.000091	0.905384	0.306752	-0.007282
 503	2.5100e-01	19.9342	15.145968	-0.000453	-4.526920	-1.533762	0.036409
 504	2.5150e-01	19.8861	14.963925	0.000453	4.526920	1.533762	-0.036409
 505	2.5200e-01	19.8604	14.636248	0.000815	8.148456	2.760771	-0.065535
 506	2.5250e-01	19.8107	14.927517	-0.000724	-7.243072	-2.454019	0.058254
 507	2.5300e-01	19.7658	14.891108	0.000091	0.905384	0.306752	-0.007282
 508	2.5350e-01	19.7497	15.000334	-0.000272	-2.716152	-0.920257	0.021845
 509	2.5400e-01	19.6855	14.745474	0.000634	6.337688	2.147267	-0.050972
 510	2.5450e-01	19.6599	14.527022	0.000543	5.432304	1.840514	-0.043690
 511	2.5500e-01	19.6182	14.490614	0.000091	0.905384	0.306752	-0.007282
 512	2.5550e-01	19.5444	14.381388	0.000272	2.716152	0.920257	-0.021845
 513	2.5600e-01	19.5396	14.381388	-0.000000	-0.000000	-0.000000	0.000000
 514	2.5650e-01	19.4866	14.709065	-0.000815	-8.148456	-2.760771	0.065535
 515	2.5700e-01	19.4593	14.454205	0.000634	6.337688	2.147267	-0.050972
 516	2.5750e-01	19.4273	14.854699	-0.000996	-9.959223	-3.374276	0.080099
 517	2.5800e-01	19.3872	14.090119	0.001901	19.013063	6.441800	-0.152916
 518	2.5850e-01	19.3150	14.199345	-0.000272	-2.716152	-0.920257	0.021845
 519	2.5900e-01	19.2925	14.235754	-0.000091	-0.905384	-0.306752	0.007282
 520	2.5950e-01	19.2652	14.017302	0.000543	5.432304	1.840514	-0.043690
 521	2.6000e-01	19.2075	14.490614	-0.001177	-11.769991	-3.987781	0.094662
 522	2.6050e-01	19.1738	14.417796	0.000181	1.810768	0.613505	-0.014563
 523	2.6100e-01	19.1449	14.490614	-0.000181	-1.810768	-0.613505	0.014563
 524	2.6150e-01	19.0888	14.090119	0.000996	9.959223	3.374276	-0.080099
 525	2.6200e-01	19.0406	13.980894	0.000272	2.716152	0.920257	-0.021845
 526	2.6250e-01	19.0262	14.017302	-0.000091	-0.905384	-0.306752	0.007282
 527	2.6300e-01	18.9588	13.980894	0.000091	0.905384	0.306752	-0.007282
 528	2.6350e-01	18.9299	13.944485	0.000091	0.905384	0.306752	-0.007282
 529	2.6400e-01	18.8866	13.689625	0.000634	6.337688	2.147267	-0.050972
 530	2.6450e-01	18.8481	13.726034	-0.000091	-0.905384	-0.306752	0.007282
 531	2.6500e-01	18.8096	13.871668	-0.000362	-3.621536	-1.227010	0.029127
 532	2.6550e-01	18.7695	13.726034	0.000362	3.621536	1.227010	-0.029127
 533	2.6600e-01	18.7278	13.726034	-0.000000	-0.000000	-0.000000	0.000000
 534	2.6650e-01	18.6829	13.726034	-0.000000	-0.000000	-0.000000	0.000000
 535	2.6700e-01	18.6492	13.616808	0.000272	2.716152	0.920257	-0.021845
 536	2.6750e-01	18.6075	13.835259	-0.000543	-5.432304	-1.840514	0.043690
 537	2.6800e-01	18.5818	13.543991	0.000724	7.243072	2.454019	-0.058254
 538	2.6850e-01	18.5401	13.762442	-0.000543	-5.432304	-1.840514	0.043690
 539	2.6900e-01	18.4856	13.616808	0.000362	3.621536	1.227010	-0.029127
 540	2.6950e-01	18.4374	13.507582	0.000272	2.716152	0.920257	-0.021845
 541	2.7000e-01	18.4214	13.543991	-0.000091	-0.905384	-0.306752	0.007282
 542	2.7050e-01	18.3620	13.216313	0.000815	8.148456	2.760771	-0.065535
 543	2.7100e-01	18.3284	13.325539	-0.000272	-2.716152	-0.920257	0.021845
 544	2.7150e-01	18.3203	13.471173	-0.000362	-3.621536	-1.227010	0.029127
 545	2.7200e-01	18.2642	13.325539	0.000362	3.621536	1.227010	-0.029127
 546	2.7250e-01	18.2048	13.361948	-0.000091	-0.905384	-0.306752	0.007282
 547	2.7300e-01	18.1727	13.689625	-0.000815	-8.148456	-2.760771	0.065535
 548	2.7350e-01	18.1118	12.997862	0.001720	17.202295	5.828295	-0.138353
 549	2.7400e-01	18.1182	13.034271	0.000091	0.905384	0.306752	0.007282
 550	2.7450e-01	18.0717	13.252722	-0.000543	-5.432304	-1.840514	0.043690
 551	2.7500e-01	17.9995	13.070679	0.000453	4.526920	1.533762	-0.036409
 552	2.7550e-01	17.9899	12.925045	0.000362	3.621536	1.227010	-0.029127
 553	2.7600e-01	17.9417	13.179905	-0.000634	-6.337688	-2.147267	0.050972
 554	2.7650e-01	17.8984	13.070679	0.000272	2.716152	0.920257	-0.021845
 555	2.7700e-01	17.8471	12.925045	0.000362	3.621536	1.227010	-0.029127
 556	2.7750e-01	17.8070	12.852228	0.000181	1.810768	0.613505	-0.014563
 557	2.7800e-01	17.7765	12.925045	-0.000181	-1.810768	-0.613505	0.014563
 558	2.7850e-01	17.7412	12.815819	0.000272	2.716152	0.920257	-0.021845
 559	2.7900e-01	17.6786	12.415325	0.000996	9.959223	3.374276	-0.080099
 560	2.7950e-01	17.6546	12.779411	-0.000905	-9.053840	-3.067524	0.072817
 561	2.8000e-01	17.5984	12.233282	0.001358	13.580759	4.601286	-0.109226
 562	2.8050e-01	17.5599	12.888636	-0.001630	-16.296911	-5.521543	0.131071
 563	2.8100e-01	17.5375	12.488142	0.000996	9.959223	3.374276	-0.080099
 564	2.8150e-01	17.4958	12.415325	0.000181	1.810768	0.613505	-0.014563
 565	2.8200e-01	17.4589	12.342508	0.000181	1.810768	0.613505	-0.014563
 566	2.8250e-01	17.4316	12.451733	-0.000272	-2.716152	-0.920257	0.021845
 567	2.8300e-01	17.3498	12.124056	0.000815	8.148456	2.760771	-0.065535
 568	2.8350e-01	17.3369	12.160465	-0.000091	-0.905384	-0.306752	0.007282
 569	2.8400e-01	17.2808	12.342508	-0.000453	-4.526920	-1.533762	0.036409
 570	2.8450e-01	17.2615	12.415325	-0.000181	-1.810768	-0.613505	0.014563
 571	2.8500e-01	17.2134	12.233282	0.000453	4.526920	1.533762	-0.036409
 572	2.8550e-01	17.1717	12.051239	0.000453	4.526920	1.533762	-0.036409
 573	2.8600e-01	17.1444	12.160465	-0.000272	-2.716152	-0.920257	0.021845
 574	2.8650e-01	17.0851	11.759970	0.000996	9.959223	3.374276	-0.080099
 575	2.8700e-01	17.0530	12.051239	-0.000724	-7.243072	-2.454019	0.058254
 576	2.8750e-01	17.0097	11.796379	0.000634	6.337688	2.147267	-0.050972
 577	2.8800e-01	16.9808	12.196873	-0.000996	-9.959223	-3.374276	0.080099
 578	2.8850e-01	16.9182	11.942013	0.000634	6.337688	2.147267	-0.050972
 579	2.8900e-01	16.8846	11.978422	-0.000091	-0.905384	-0.306752	0.007282
 580	2.8950e-01	16.8637	11.869196	0.000272	2.716152	0.920257	-0.021845
 581	2.9000e-01	16.8188	11.942013	-0.000181	-1.810768	-0.613505	0.014563
 582	2.9050e-01	16.7771	11.432293	0.001268	12.675375	4.294533	-0.101944
 583	2.9100e-01	16.7450	11.723562	-0.000724	-7.243072	-2.454019	0.058254
 584	2.9150e-01	16.6680	11.832788	-0.000272	-2.716152	-0.920257	0.021845
 585	2.9200e-01	16.6600	11.577927	0.000634	6.337688	2.147267	-0.050972
 586	2.9250e-01	16.6134	11.869196	-0.000724	-7.243072	-2.454019	0.058254
 587	2.9300e-01	16.5749	11.577927	0.000724	7.243072	2.454019	-0.058254
 588	2.9350e-01	16.5316	11.577927	-0.000000	-0.000000	-0.000000	0.000000
 589	2.9400e-01	16.5027	11.468702	0.000272	2.716152	0.920257	-0.021845
 590	2.9450e-01	16.4691	11.031799	0.001086	10.864607	3.681029	-0.087381
 591	2.9500e-01	16.4273	11.104616	-0.000181	-1.810768	-0.613505	0.014563
 592	2.9550e-01	16.3888	11.141025	-0.000091	-0.905384	-0.306752	0.007282
 593	2.9600e-01	16.3535	11.104616	0.000091	0.905384	0.306752	-0.007282
 594	2.9650e-01	16.2814	11.395885	-0.000724	-7.243072	-2.454019	0.058254
 595	2.9700e-01	16.2461	11.468702	-0.000181	-1.810768	-0.613505	0.014563
 596	2.9750e-01	16.2284	11.286659	0.000453	4.526920	1.533762	-0.036409
 597	2.9800e-01	16.1482	10.922573	0.000905	9.053840	3.067524	-0.072817
 598	2.9850e-01	16.1402	10.776939	0.000362	3.621536	1.227010	-0.029127
 599	2.9900e-01	16.0856	10.922573	-0.000362	-3.621536	-1.227010	0.029127
 600	2.9950e-01	16.0568	11.141025	-0.000543	-5.432304	-1.840514	0.043690
 601	3.0000e-01	16.0006	10.776939	0.000905	9.053840	3.067524	-0.072817
 602	3.0050e-01	15.9669	10.631304	0.000362	3.621536	1.227010	-0.029127
 603	3.0100e-01	15.9445	10.776939	-0.000362	-3.621536	-1.227010	0.029127
 604	3.0150e-01	15.9060	11.177433	-0.000996	-9.959223	-3.374276	0.080099
 605	3.0200e-01	15.8675	10.594896	0.001449	14.486143	4.908038	-0.116507
 606	3.0250e-01	15.8161	10.631304	-0.000091	-0.905384	-0.306752	0.007282
 607	3.0300e-01	15.7792	10.449262	0.000453	4.526920	1.533762	-0.036409
 608	3.0350e-01	15.7167	10.740530	-0.000724	-7.243072	-2.454019	0.058254
 609	3.0400e-01	15.7022	10.558487	0.000453	4.526920	1.533762	-0.036409
 610	3.0450e-01	15.6509	10.340036	0.000543	5.432304	1.840514	-0.043690
 611	3.0500e-01	15.6092	10.813347	-0.001177	-11.769991	-3.987781	0.094662
 612	3.0550e-01	15.5787	10.558487	0.000634	6.337688	2.147267	-0.050972
 613	3.0600e-01	15.5274	9.975950	0.001449	14.486143	4.908038	-0.116507
 614	3.0650e-01	15.4857	10.522079	-0.001358	-13.580759	-4.601286	0.109226
 615	3.0700e-01	15.4359	10.485670	0.000091	0.905384	0.306752	-0.007282
 616	3.0750e-01	15.4263	10.230810	0.000634	6.337688	2.147267	-0.050972
 617	3.0800e-01	15.3669	10.157993	0.000181	1.810768	0.613505	-0.014563
 618	3.0850e-01	15.3429	10.194402	-0.000091	-0.905384	-0.306752	0.007282
 619	3.0900e-01	15.2883	10.412853	-0.000543	-5.432304	-1.840514	0.043690
 620	3.0950e-01	15.2482	10.267219	0.000362	3.621536	1.227010	-0.029127
 621	3.1000e-01	15.2210	10.303627	-0.000091	-0.905384	-0.306752	0.007282
 622	3.1050e-01	15.1889	10.012359	0.000724	7.243072	2.454019	-0.058254
 623	3.1100e-01	15.1456	9.830316	0.000453	4.526920	1.533762	-0.036409
 624	3.1150e-01	15.0830	9.793907	0.000091	0.905384	0.306752	-0.007282
 625	3.1200e-01	15.0525	9.939542	-0.000362	-3.621536	-1.227010	0.029127
 626	3.1250e-01	15.0140	9.830316	0.000272	2.716152	0.920257	-0.021845
 627	3.1300e-01	14.9675	9.757499	0.000181	1.810768	0.613505	-0.014563
 628	3.1350e-01	14.9402	9.975950	-0.000543	-5.432304	-1.840514	0.043690
 629	3.1400e-01	14.8969	9.575456	0.000996	9.959223	3.374276	-0.080099
 630	3.1450e-01	14.8536	9.757499	-0.000453	-4.526920	-1.533762	0.036409
 631	3.1500e-01	14.8023	9.247779	0.001268	12.675375	4.294533	-0.101944
 632	3.1550e-01	14.7798	9.830316	-0.001449	-14.486143	-4.908038	0.116507
 633	3.1600e-01	14.7349	9.211370	0.001539	15.391527	5.214791	-0.123789
 634	3.1650e-01	14.6819	9.393413	-0.000453	-4.526920	-1.533762	0.036409
 635	3.1700e-01	14.6499	9.284187	0.000272	2.716152	0.920257	-0.021845
 636	3.1750e-01	14.6162	9.721090	-0.001086	-10.864607	-3.681029	0.087381
 637	3.1800e-01	14.5712	9.174961	0.001358	13.580759	4.601286	-0.109226
 638	3.1850e-01	14.5408	9.429821	-0.000634	-6.337688	-2.147267	0.050972
 639	3.1900e-01	14.4814	9.102144	0.000815	8.148456	2.760771	-0.065535
 640	3.1950e-01	14.4429	9.065736	0.000091	0.905384	0.306752	-0.007282
 641	3.2000e-01	14.4108	9.320596	-0.000634	-6.337688	-2.147267	0.050972
 642	3.2050e-01	14.3787	8.920101	0.000996	9.959223	3.374276	-0.080099
 643	3.2100e-01	14.3274	9.284187	-0.000905	-9.053840	-3.067524	0.072817
 644	3.2150e-01	14.2809	8.556016	0.001811	18.107679	6.135048	-0.145634
 645	3.2200e-01	14.2504	9.174961	-0.001539	-15.391527	-5.214791	0.123789
 646	3.2250e-01	14.2183	8.446790	0.001811	18.107679	6.135048	-0.145634
 647	3.2300e-01	14.1670	9.211370	-0.001901	-19.013063	-6.441800	0.152916
 648	3.2350e-01	14.1477	8.592424	0.001539	15.391527	5.214791	-0.123789
 649	3.2400e-01	14.1060	8.665241	-0.000181	-1.810768	-0.613505	0.014563
 650	3.2450e-01	14.0451	8.446790	0.000543	5.432304	1.840514	-0.043690
 651	3.2500e-01	14.0354	8.592424	-0.000362	-3.621536	-1.227010	0.029127
 652	3.2550e-01	13.9745	8.628833	-0.000091	-0.905384	-0.306752	0.007282
 653	3.2600e-01	13.9376	8.592424	0.000091	0.905384	0.306752	-0.007282
 654	3.2650e-01	13.8943	8.264747	0.000815	8.148456	2.760771	-0.065535
 655	3.2700e-01	13.8509	8.446790	-0.000453	-4.526920	-1.533762	0.036409
 656	3.2750e-01	13.8221	8.301156	0.000362	3.621536	1.227010	-0.029127
 657	3.2800e-01	13.7691	8.701650	-0.000996	-9.959223	-3.374276	0.080099
 658	3.2850e-01	13.7306	8.191930	0.001268	12.675375	4.294533	-0.101944
 659	3.2900e-01	13.6889	8.337564	-0.000362	-3.621536	-1.227010	0.029127
 660	3.2950e-01	13.6472	8.155521	0.000453	4.526920	1.533762	-0.036409
 661	3.3000e-01	13.6071	7.900661	0.000634	6.337688	2.147267	-0.050972
 662	3.3050e-01	13.5830	8.082704	-0.000453	-4.526920	-1.533762	0.036409
 663	3.3100e-01	13.5413	7.973478	0.000272	2.716152	0.920257	-0.021845
 664	3.3150e-01	13.4900	7.827844	0.000362	3.621536	1.227010	-0.029127
 665	3.3200e-01	13.4435	7.572984	0.000634	6.337688	2.147267	-0.050972
 666	3.3250e-01	13.4114	7.791435	-0.000543	-5.432304	-1.840514	0.043690
 667	3.3300e-01	13.3649	7.718618	0.000181	1.810768	0.613505	-0.014563
 668	3.3350e-01	13.3472	7.718618	-0.000000	-0.000000	-0.000000	0.000000
 669	3.3400e-01	13.2991	8.155521	-0.001086	-10.864607	-3.681029	0.087381
 670	3.3450e-01	13.2590	7.609393	0.001358	13.580759	4.601286	-0.109226
 671	3.3500e-01	13.2012	7.645801	-0.000091	-0.905384	-0.306752	0.007282
 672	3.3550e-01	13.1932	7.755027	-0.000272	-2.716152	-0.920257	0.021845
 673	3.3600e-01	13.1210	7.463758	0.000724	7.243072	2.454019	-0.058254
 674	3.3650e-01	13.1018	7.354533	0.000272	2.716152	0.920257	-0.021845
 675	3.3700e-01	13.0585	7.318124	0.000091	0.905384	0.306752	-0.007282
 676	3.3750e-01	13.0087	7.609393	-0.000724	-7.243072	-2.454019	0.058254
 677	3.3800e-01	12.9654	7.281715	0.000815	8.148456	2.760771	-0.065535
 678	3.3850e-01	12.9333	7.354533	-0.000181	-1.810768	-0.613505	0.014563
 679	3.3900e-01	12.9301	7.026855	0.000815	8.148456	2.760771	-0.065535
 680	3.3950e-01	12.8724	7.172490	-0.000362	-3.621536	-1.227010	0.029127
 681	3.4000e-01	12.7986	7.136081	0.000091	0.905384	0.306752	-0.007282
 682	3.4050e-01	12.7809	7.427350	-0.000724	-7.243072	-2.454019	0.058254
 683	3.4100e-01	12.7328	6.917630	0.001268	12.675375	4.294533	-0.101944
 684	3.4150e-01	12.6831	6.990447	-0.000181	-1.810768	-0.613505	0.014563
 685	3.4200e-01	12.6446	6.735587	0.000634	6.337688	2.147267	-0.050972
 686	3.4250e-01	12.6205	7.172490	-0.001086	-10.864607	-3.681029	0.087381
 687	3.4300e-01	12.5820	6.954038	0.000543	5.432304	1.840514	-0.043690
 688	3.4350e-01	12.5291	6.990447	-0.000091	-0.905384	-0.306752	0.007282
 689	3.4400e-01	12.4986	6.954038	0.000091	0.905384	0.306752	-0.007282
 690	3.4450e-01	12.4617	6.662770	0.000724	7.243072	2.454019	-0.058254
 691	3.4500e-01	12.3975	6.699178	-0.000091	-0.905384	-0.306752	0.007282
 692	3.4550e-01	12.3911	6.626361	0.000181	1.810768	0.613505	-0.014563
 693	3.4600e-01	12.3285	6.626361	-0.000000	-0.000000	-0.000000	0.000000
 694	3.4650e-01	12.3237	6.917630	-0.000724	-7.243072	-2.454019	0.058254
 695	3.4700e-01	12.2724	6.335092	0.001449	14.486143	4.908038	-0.116507
 696	3.4750e-01	12.2050	6.080232	0.000634	6.337688	2.147267	-0.050972
 697	3.4800e-01	12.1729	6.189458	-0.000272	-2.716152	-0.920257	0.021845
 698	3.4850e-01	12.1344	6.480727	-0.000724	-7.243072	-2.454019	0.058254
 699	3.4900e-01	12.0863	6.262275	0.000543	5.432304	1.840514	-0.043690
 700	3.4950e-01	12.0494	6.116641	0.000362	3.621536	1.227010	-0.029127
 701	3.5000e-01	12.0189	6.335092	-0.000543	-5.432304	-1.840514	0.043690
 702	3.5050e-01	11.9804	6.116641	0.000543	5.432304	1.840514	-0.043690
 703	3.5100e-01	11.9467	6.407910	-0.000724	-7.243072	-2.454019	0.058254
 704	3.5150e-01	11.8793	6.335092	0.000181	1.810768	0.613505	-0.014563
 705	3.5200e-01	11.8617	5.788964	0.001358	13.580759	4.601286	-0.109226
 706	3.5250e-01	11.8248	6.080232	-0.000724	-7.243072	-2.454019	0.058254
 707	3.5300e-01	11.7687	5.898189	0.000453	4.526920	1.533762	-0.036409
 708	3.5350e-01	11.7462	5.861781	0.000091	0.905384	0.306752	-0.007282
 709	3.5400e-01	11.6933	5.606921	0.000634	6.337688	2.147267	-0.050972
 710	3.5450e-01	11.6483	5.934598	-0.000815	-8.148456	-2.760771	0.065535
 711	3.5500e-01	11.6146	5.971007	-0.000091	-0.905384	-0.306752	0.007282
 712	3.5550e-01	11.5922	5.716147	0.000634	6.337688	2.147267	-0.050972
 713	3.5600e-01	11.5537	5.570512	0.000362	3.621536	1.227010	-0.029127
 714	3.5650e-01	11.4911	5.752555	-0.000453	-4.526920	-1.533762	0.036409
 715	3.5700e-01	11.4655	5.097201	0.001630	16.296911	5.521543	-0.131071
 716	3.5750e-01	11.4173	5.461287	-0.000905	-9.053840	-3.067524	0.072817
 717	3.5800e-01	11.3692	5.497695	-0.000091	-0.905384	-0.306752	0.007282
 718	3.5850e-01	11.3403	5.497695	-0.000000	-0.000000	-0.000000	0.000000
 719	3.5900e-01	11.2954	5.206427	0.000724	7.243072	2.454019	-0.058254
 720	3.5950e-01	11.2505	5.643329	-0.001086	-10.864607	-3.681029	0.087381
 721	3.6000e-01	11.1911	4.842341	0.001992	19.918447	6.748553	-0.160198
 722	3.6050e-01	11.1959	5.352061	0.001268	12.675375	4.294533	0.101944
 723	3.6100e-01	11.1302	4.769524	0.001449	14.486143	4.908038	-0.116507
 724	3.6150e-01	11.0981	5.060792	-0.000724	-7.243072	-2.454019	0.058254
 725	3.6200e-01	11.0532	5.060792	-0.000000	-0.000000	-0.000000	0.000000
 726	3.6250e-01	11.0339	4.878749	0.000453	4.526920	1.533762	-0.036409
 727	3.6300e-01	10.9665	4.769524	0.000272	2.716152	0.920257	-0.021845
 728	3.6350e-01	10.9425	5.024384	-0.000634	-6.337688	-2.147267	0.050972
 729	3.6400e-01	10.8911	4.951566	0.000181	1.810768	0.613505	-0.014563
 730	3.6450e-01	10.8510	4.660298	0.000724	7.243072	2.454019	-0.058254
 731	3.6500e-01	10.8238	4.296212	0.000905	9.053840	3.067524	-0.072817
 732	3.6550e-01	10.7901	4.587481	-0.000724	-7.243072	-2.454019	0.058254
 733	3.6600e-01	10.7355	4.733115	-0.000362	-3.621536	-1.227010	0.029127
 734	3.6650e-01	10.7018	4.405438	0.000815	8.148456	2.760771	-0.065535
 735	3.6700e-01	10.6633	4.077761	0.000815	8.148456	2.760771	-0.065535
 736	3.6750e-01	10.5976	4.478255	-0.000996	-9.959223	-3.374276	0.080099
 737	3.6800e-01	10.5895	4.150578	0.000815	8.148456	2.760771	-0.065535
 738	3.6850e-01	10.5318	4.296212	-0.000362	-3.621536	-1.227010	0.029127
 739	3.6900e-01	10.5174	4.150578	0.000362	3.621536	1.227010	-0.029127
 740	3.6950e-01	10.4644	4.259804	-0.000272	-2.716152	-0.920257	0.021845
 741	3.7000e-01	10.4034	4.077761	0.000453	4.526920	1.533762	-0.036409
 742	3.7050e-01	10.3762	4.405438	-0.000815	-8.148456	-2.760771	0.065535
 743	3.7100e-01	10.3409	3.932126	0.001177	11.769991	3.987781	-0.094662
 744	3.7150e-01	10.3072	3.895718	0.000091	0.905384	0.306752	-0.007282
 745	3.7200e-01	10.2655	3.932126	-0.000091	-0.905384	-0.306752	0.007282
 746	3.7250e-01	10.2350	3.786492	0.000362	3.621536	1.227010	-0.029127
 747	3.7300e-01	10.1708	3.895718	-0.000272	-2.716152	-0.920257	0.021845
 748	3.7350e-01	10.1291	4.077761	-0.000453	-4.526920	-1.533762	0.036409
 749	3.7400e-01	10.1067	3.495223	0.001449	14.486143	4.908038	-0.116507
 750	3.7450e-01	10.0601	3.531632	-0.000091	-0.905384	-0.306752	0.007282
 751	3.7500e-01	10.0265	3.313181	0.000543	5.432304	1.840514	-0.043690
 752	3.7550e-01	9.9896	3.640858	-0.000815	-8.148456	-2.760771	0.065535
 753	3.7600e-01	9.9254	3.385998	0.000634	6.337688	2.147267	-0.050972
 754	3.7650e-01	9.8981	3.568041	-0.000453	-4.526920	-1.533762	0.036409
 755	3.7700e-01	9.8757	3.604449	-0.000091	-0.905384	-0.306752	0.007282
 756	3.7750e-01	9.7970	3.276772	0.000815	8.148456	2.760771	-0.065535
 757	3.7800e-01	9.7970	2.730643	0.001358	13.580759	4.601286	-0.109226
 758	3.7850e-01	9.7377	3.422406	-0.001720	-17.202295	-5.828295	0.138353
 759	3.7900e-01	9.7040	3.131138	0.000724	7.243072	2.454019	-0.058254
 760	3.7950e-01	9.6511	3.021912	0.000272	2.716152	0.920257	-0.021845
 761	3.8000e-01	9.6238	3.349589	-0.000815	-8.148456	-2.760771	0.065535
 762	3.8050e-01	9.5692	2.621418	0.001811	18.107679	6.135048	-0.145634
 763	3.8100e-01	9.5275	2.876278	-0.000634	-6.337688	-2.147267	0.050972
 764	3.8150e-01	9.5003	2.839869	0.000091	0.905384	0.306752	-0.007282
 765	3.8200e-01	9.4810	2.512192	0.000815	8.148456	2.760771	-0.065535
 766	3.8250e-01	9.4233	2.730643	-0.000543	-5.432304	-1.840514	0.043690
 767	3.8300e-01	9.3912	2.402966	0.000815	8.148456	2.760771	-0.065535
 768	3.8350e-01	9.3334	2.293740	0.000272	2.716152	0.920257	-0.021845
 769	3.8400e-01	9.3094	2.694235	-0.000996	-9.959223	-3.374276	0.080099
 770	3.8450e-01	9.2741	2.730643	-0.000091	-0.905384	-0.306752	0.007282
 771	3.8500e-01	9.2195	2.402966	0.000815	8.148456	2.760771	-0.065535
 772	3.8550e-01	9.1906	2.220923	0.000453	4.526920	1.533762	-0.036409
 773	3.8600e-01	9.1457	2.803460	-0.001449	-14.486143	-4.908038	0.116507
 774	3.8650e-01	9.1072	2.148106	0.001630	16.296911	5.521543	-0.131071
 775	3.8700e-01	9.0607	2.038880	0.000272	2.716152	0.920257	-0.021845
 776	3.8750e-01	9.0350	2.184515	-0.000362	-3.621536	-1.227010	0.029127
 777	3.8800e-01	8.9821	2.002472	0.000453	4.526920	1.533762	-0.036409
 778	3.8850e-01	8.9484	1.601977	0.000996	9.959223	3.374276	-0.080099
 779	3.8900e-01	8.8858	1.492752	0.000272	2.716152	0.920257	-0.021845
 780	3.8950e-01	8.8698	1.784020	-0.000724	-7.243072	-2.454019	0.058254
 781	3.9000e-01	8.8249	1.856837	-0.000181	-1.810768	-0.613505	0.014563
 782	3.9050e-01	8.7832	1.820429	0.000091	0.905384	0.306752	-0.007282
 783	3.9100e-01	8.7367	2.439375	-0.001539	-15.391527	-5.214791	0.123789
 784	3.9150e-01	8.7126	1.711203	0.001811	18.107679	6.135048	-0.145634
 785	3.9200e-01	8.6548	1.201483	0.001268	12.675375	4.294533	-0.101944
 786	3.9250e-01	8.6404	1.456343	-0.000634	-6.337688	-2.147267	0.050972
 787	3.9300e-01	8.5810	1.529160	-0.000181	-1.810768	-0.613505	0.014563
 788	3.9350e-01	8.5506	1.711203	-0.000453	-4.526920	-1.533762	0.036409
 789	3.9400e-01	8.4928	1.419935	0.000724	7.243072	2.454019	-0.058254
 790	3.9450e-01	8.4527	1.092257	0.000815	8.148456	2.760771	-0.065535
 791	3.9500e-01	8.4110	1.165074	-0.000181	-1.810768	-0.613505	0.014563
 792	3.9550e-01	8.3837	1.347117	-0.000453	-4.526920	-1.533762	0.036409
 793	3.9600e-01	8.3308	1.347117	-0.000000	-0.000000	-0.000000	0.000000
 794	3.9650e-01	8.2923	1.201483	0.000362	3.621536	1.227010	-0.029127
 795	3.9700e-01	8.2602	1.128666	0.000181	1.810768	0.613505	-0.014563
 796	3.9750e-01	8.2313	0.983032	0.000362	3.621536	1.227010	-0.029127
 797	3.9800e-01	8.1800	0.946623	0.000091	0.905384	0.306752	-0.007282
 798	3.9850e-01	8.1495	1.201483	-0.000634	-6.337688	-2.147267	0.050972
 799	3.9900e-01	8.0869	0.983032	0.000543	5.432304	1.840514	-0.043690
 800	3.9950e-01	8.0853	1.055849	-0.000181	-1.810768	-0.613505	0.014563
 801	4.0000e-01	8.0356	0.582537	0.001177	11.769991	3.987781	-0.094662
 802	4.0050e-01	7.9618	0.546129	0.000091	0.905384	0.306752	-0.007282
 803	4.0100e-01	7.9442	0.218451	0.000815	8.148456	2.760771	-0.065535
 804	4.0150e-01	7.8928	0.728172	-0.001268	-12.675375	-4.294533	0.101944
 805	4.0200e-01	7.8848	0.582537	0.000362	3.621536	1.227010	-0.029127
 806	4.0250e-01	7.8174	0.837397	-0.000634	-6.337688	-2.147267	0.050972
 807	4.0300e-01	7.7805	0.436903	0.000996	9.959223	3.374276	-0.080099
 808	4.0350e-01	7.7292	0.364086	0.000181	1.810768	0.613505	-0.014563
 809	4.0400e-01	7.6827	0.364086	-0.000000	-0.000000	-0.000000	0.000000
 810	4.0450e-01	7.6779	0.364086	-0.000000	-0.000000	-0.000000	0.000000
 811	4.0500e-01	7.6121	0.291269	0.000181	1.810768	0.613505	-0.014563
 812	4.0550e-01	7.5768	0.182043	0.000272	2.716152	0.920257	-0.021845
 813	4.0600e-01	7.5110	-0.145634	0.000815	8.148456	2.760771	-0.065535
 814	4.0650e-01	7.5046	-0.109226	-0.000091	-0.905384	-0.306752	0.007282
 815	4.0700e-01	7.4629	0.436903	-0.001358	-13.580759	-4.601286	0.109226
 816	4.0750e-01	7.4083	-0.254860	0.001720	17.202295	5.828295	-0.138353
 817	4.0800e-01	7.3923	-0.109226	-0.000362	-3.621536	-1.227010	0.029127
 818	4.0850e-01	7.3426	0.182043	-0.000724	-7.243072	-2.454019	0.058254
 819	4.0900e-01	7.2928	-0.291269	0.001177	11.769991	3.987781	-0.094662
 820	4.0950e-01	7.2575	0.000000	-0.000724	-7.243072	-2.454019	0.058254
 821	4.1000e-01	7.2174	-0.218451	0.000543	5.432304	1.840514	-0.043690
 822	4.1050e-01	7.1934	-0.509720	0.000724	7.243072	2.454019	-0.058254
 823	4.1100e-01	7.1244	-0.218451	-0.000724	-7.243072	-2.454019	0.058254
 824	4.1150e-01	7.1003	-0.072817	-0.000362	-3.621536	-1.227010	0.029127
 825	4.1200e-01	7.0763	-0.291269	0.000543	5.432304	1.840514	-0.043690
 826	4.1250e-01	7.0169	-1.019440	0.001811	18.107679	6.135048	-0.145634
 827	4.1300e-01	6.9880	-0.655354	-0.000905	-9.053840	-3.067524	0.072817
 828	4.1350e-01	6.9255	-0.691763	0.000091	0.905384	0.306752	-0.007282
 829	4.1400e-01	6.9110	-1.092257	0.000996	9.959223	3.374276	-0.080099
 830	4.1450e-01	6.8517	-1.019440	-0.000181	-1.810768	-0.613505	0.014563
 831	4.1500e-01	6.8019	-0.800989	-0.000543	-5.432304	-1.840514	0.043690
 832	4.1550e-01	6.7843	-1.019440	0.000543	5.432304	1.840514	-0.043690
 833	4.1600e-01	6.7314	-1.092257	0.000181	1.810768	0.613505	-0.014563
 834	4.1650e-01	6.6961	-1.347117	0.000634	6.337688	2.147267	-0.050972
 835	4.1700e-01	6.6528	-1.419935	0.000181	1.810768	0.613505	-0.014563
 836	4.1750e-01	6.6223	-1.529160	0.000272	2.716152	0.920257	-0.021845
 837	4.1800e-01	6.5725	-1.601977	0.000181	1.810768	0.613505	-0.014563
 838	4.1850e-01	6.5565	-1.383526	-0.000543	-5.432304	-1.840514	0.043690
 839	4.1900e-01	6.4827	-2.038880	0.001630	16.296911	5.521543	-0.131071
 840	4.1950e-01	6.4923	-1.456343	0.001449	14.486143	4.908038	0.116507
 841	4.2000e-01	6.4073	-1.966063	0.001268	12.675375	4.294533	-0.101944
 842	4.2050e-01	6.3929	-1.456343	-0.001268	-12.675375	-4.294533	0.101944
 843	4.2100e-01	6.3415	-1.929655	0.001177	11.769991	3.987781	-0.094662
 844	4.2150e-01	6.3046	-1.784020	-0.000362	-3.621536	-1.227010	0.029127
 845	4.2200e-01	6.2726	-1.784020	-0.000000	-0.000000	-0.000000	0.000000
 846	4.2250e-01	6.2244	-2.111697	0.000815	8.148456	2.760771	-0.065535
 847	4.2300e-01	6.1699	-2.402966	0.000724	7.243072	2.454019	-0.058254
 848	4.2350e-01	6.1298	-2.002472	-0.000996	-9.959223	-3.374276	0.080099
 849	4.2400e-01	6.1041	-2.585009	0.001449	14.486143	4.908038	-0.116507
 850	4.2450e-01	6.0624	-2.184515	-0.000996	-9.959223	-3.374276	0.080099
 851	4.2500e-01	5.9982	-2.512192	0.000815	8.148456	2.760771	-0.065535
 852	4.2550e-01	5.9790	-2.366558	-0.000362	-3.621536	-1.227010	0.029127
 853	4.2600e-01	5.9677	-2.293740	-0.000181	-1.810768	-0.613505	0.014563
 854	4.2650e-01	5.8940	-2.439375	0.000362	3.621536	1.227010	-0.029127
 855	4.2700e-01	5.8490	-2.548600	0.000272	2.716152	0.920257	-0.021845
 856	4.2750e-01	5.8298	-2.585009	0.000091	0.905384	0.306752	-0.007282
 857	4.2800e-01	5.7833	-2.694235	0.000272	2.716152	0.920257	-0.021845
 858	4.2850e-01	5.7528	-2.694235	-0.000000	-0.000000	-0.000000	0.000000
 859	4.2900e-01	5.7047	-2.985503	0.000724	7.243072	2.454019	-0.058254
 860	4.2950e-01	5.6918	-3.058320	0.000181	1.810768	0.613505	-0.014563
 861	4.3000e-01	5.6581	-3.058320	-0.000000	-0.000000	-0.000000	0.000000
 862	4.3050e-01	5.5763	-3.094729	0.000091	0.905384	0.306752	-0.007282
 863	4.3100e-01	5.5346	-3.203955	0.000272	2.716152	0.920257	-0.021845
 864	4.3150e-01	5.4929	-3.568041	0.000905	9.053840	3.067524	-0.072817
 865	4.3200e-01	5.4608	-3.021912	-0.001358	-13.580759	-4.601286	0.109226
 866	4.3250e-01	5.4207	-3.385998	0.000905	9.053840	3.067524	-0.072817
 867	4.3300e-01	5.3549	-3.568041	0.000453	4.526920	1.533762	-0.036409
 868	4.3350e-01	5.3565	-3.313181	0.000634	6.337688	2.147267	0.050972
 869	4.3400e-01	5.2956	-3.640858	0.000815	8.148456	2.760771	-0.065535
 870	4.3450e-01	5.2635	-3.677266	0.000091	0.905384	0.306752	-0.007282
 871	4.3500e-01	5.2170	-3.531632	-0.000362	-3.621536	-1.227010	0.029127
 872	4.3550e-01	5.1961	-3.750083	0.000543	5.432304	1.840514	-0.043690
 873	4.3600e-01	5.1480	-3.385998	-0.000905	-9.053840	-3.067524	0.072817
 874	4.3650e-01	5.0934	-3.822901	0.001086	10.864607	3.681029	-0.087381
 875	4.3700e-01	5.0790	-3.822901	-0.000000	-0.000000	-0.000000	0.000000
 876	4.3750e-01	5.0132	-4.114169	0.000724	7.243072	2.454019	-0.058254
 877	4.3800e-01	4.9715	-3.822901	-0.000724	-7.243072	-2.454019	0.058254
 878	4.3850e-01	4.9362	-3.895718	0.000181	1.810768	0.613505	-0.014563
 879	4.3900e-01	4.9057	-3.968535	0.000181	1.810768	0.613505	-0.014563
 880	4.3950e-01	4.8849	-4.696706	0.001811	18.107679	6.135048	-0.145634
 881	4.4000e-01	4.8255	-4.186986	-0.001268	-12.675375	-4.294533	0.101944
 882	4.4050e-01	4.7870	-4.259804	0.000181	1.810768	0.613505	-0.014563
 883	4.4100e-01	4.7421	-4.405438	0.000362	3.621536	1.227010	-0.029127
 884	4.4150e-01	4.6988	-4.223395	-0.000453	-4.526920	-1.533762	0.036409
 885	4.4200e-01	4.6475	-4.623889	0.000996	9.959223	3.374276	-0.080099
 886	4.4250e-01	4.6058	-4.733115	0.000272	2.716152	0.920257	-0.021845
 887	4.4300e-01	4.5737	-4.587481	-0.000362	-3.621536	-1.227010	0.029127
 888	4.4350e-01	4.5368	-4.441846	-0.000362	-3.621536	-1.227010	0.029127
 889	4.4400e-01	4.5015	-4.915158	0.001177	11.769991	3.987781	-0.094662
 890	4.4450e-01	4.4646	-5.024384	0.000272	2.716152	0.920257	-0.021845
 891	4.4500e-01	4.4229	-5.060792	0.000091	0.905384	0.306752	-0.007282
 892	4.4550e-01	4.3892	-4.805932	-0.000634	-6.337688	-2.147267	0.050972
 893	4.4600e-01	4.3507	-4.769524	-0.000091	-0.905384	-0.306752	0.007282
 894	4.4650e-01	4.3042	-5.279244	0.001268	12.675375	4.294533	-0.101944
 895	4.4700e-01	4.2737	-5.606921	0.000815	8.148456	2.760771	-0.065535
 896	4.4750e-01	4.2143	-5.242835	-0.000905	-9.053840	-3.067524	0.072817
 897	4.4800e-01	4.1806	-5.133609	-0.000272	-2.716152	-0.920257	0.021845
 898	4.4850e-01	4.1357	-5.679738	0.001358	13.580759	4.601286	-0.109226
 899	4.4900e-01	4.1052	-5.424878	-0.000634	-6.337688	-2.147267	0.050972
 900	4.4950e-01	4.0667	-5.825372	0.000996	9.959223	3.374276	-0.080099
 901	4.5000e-01	4.0250	-5.534104	-0.000724	-7.243072	-2.454019	0.058254
 902	4.5050e-01	3.9849	-5.752555	0.000543	5.432304	1.840514	-0.043690
 903	4.5100e-01	3.9625	-5.534104	-0.000543	-5.432304	-1.840514	0.043690
 904	4.5150e-01	3.8983	-6.007415	0.001177	11.769991	3.987781	-0.094662
 905	4.5200e-01	3.8598	-5.825372	-0.000453	-4.526920	-1.533762	0.036409
 906	4.5250e-01	3.8197	-6.080232	0.000634	6.337688	2.147267	-0.050972
 907	4.5300e-01	3.7956	-5.788964	-0.000724	-7.243072	-2.454019	0.058254
 908	4.5350e-01	3.7443	-6.699178	0.002263	22.634599	7.668810	-0.182043
 909	4.5400e-01	3.6994	-5.934598	-0.001901	-19.013063	-6.441800	0.152916
 910	4.5450e-01	3.6625	-6.153050	0.000543	5.432304	1.840514	-0.043690
 911	4.5500e-01	3.6272	-6.298684	0.000362	3.621536	1.227010	-0.029127
 912	4.5550e-01	3.5662	-6.262275	-0.000091	-0.905384	-0.306752	0.007282
 913	4.5600e-01	3.5470	-6.444318	0.000453	4.526920	1.533762	-0.036409
 914	4.5650e-01	3.5004	-6.771995	0.000815	8.148456	2.760771	-0.065535
 915	4.5700e-01	3.4539	-6.553544	-0.000543	-5.432304	-1.840514	0.043690
 916	4.5750e-01	3.4170	-6.444318	-0.000272	-2.716152	-0.920257	0.021845
 917	4.5800e-01	3.3946	-7.026855	0.001449	14.486143	4.908038	-0.116507
 918	4.5850e-01	3.3496	-6.662770	-0.000905	-9.053840	-3.067524	0.072817
 919	4.5900e-01	3.2855	-7.026855	0.000905	9.053840	3.067524	-0.072817
 920	4.5950e-01	3.2726	-6.771995	-0.000634	-6.337688	-2.147267	0.050972
 921	4.6000e-01	3.2406	-7.245307	0.001177	11.769991	3.987781	-0.094662
 922	4.6050e-01	3.1892	-7.500167	0.000634	6.337688	2.147267	-0.050972
 923	4.6100e-01	3.1331	-6.881221	-0.001539	-15.391527	-5.214791	0.123789
 924	4.6150e-01	3.0801	-7.172490	0.000724	7.243072	2.454019	-0.058254
 925	4.6200e-01	3.0609	-7.281715	0.000272	2.716152	0.920257	-0.021845
 926	4.6250e-01	3.0272	-7.318124	0.000091	0.905384	0.306752	-0.007282
 927	4.6300e-01	2.9726	-7.645801	0.000815	8.148456	2.760771	-0.065535
 928	4.6350e-01	2.9309	-7.245307	-0.000996	-9.959223	-3.374276	0.080099
 929	4.6400e-01	2.8876	-7.463758	0.000543	5.432304	1.840514	-0.043690
 930	4.6450e-01	2.8555	-7.463758	-0.000000	-0.000000	-0.000000	0.000000
 931	4.6500e-01	2.8106	-7.827844	0.000905	9.053840	3.067524	-0.072817
 932	4.6550e-01	2.7737	-7.973478	0.000362	3.621536	1.227010	-0.029127
 933	4.6600e-01	2.7304	-7.900661	-0.000181	-1.810768	-0.613505	0.014563
 934	4.6650e-01	2.7031	-8.046296	0.000362	3.621536	1.227010	-0.029127
 935	4.6700e-01	2.6582	-8.191930	0.000362	3.621536	1.227010	-0.029127
 936	4.6750e-01	2.6422	-8.155521	-0.000091	-0.905384	-0.306752	0.007282
 937	4.6800e-01	2.5764	-8.446790	0.000724	7.243072	2.454019	-0.058254
 938	4.6850e-01	2.5186	-8.009887	-0.001086	-10.864607	-3.681029	0.087381
 939	4.6900e-01	2.5010	-8.337564	0.000815	8.148456	2.760771	-0.065535
 940	4.6950e-01	2.4673	-8.373973	0.000091	0.905384	0.306752	-0.007282
 941	4.7000e-01	2.4304	-8.228338	-0.000362	-3.621536	-1.227010	0.029127
 942	4.7050e-01	2.3839	-8.628833	0.000996	9.959223	3.374276	-0.080099
 943	4.7100e-01	2.3293	-8.701650	0.000181	1.810768	0.613505	-0.014563
 944	4.7150e-01	2.3037	-9.029327	0.000815	8.148456	2.760771	-0.065535
 945	4.7200e-01	2.2941	-8.956510	-0.000181	-1.810768	-0.613505	0.014563
 946	4.7250e-01	2.2363	-8.992919	0.000091	0.905384	0.306752	-0.007282
 947	4.7300e-01	2.2074	-9.138553	0.000362	3.621536	1.227010	-0.029127
 948	4.7350e-01	2.1545	-8.992919	-0.000362	-3.621536	-1.227010	0.029127
 949	4.7400e-01	2.1080	-9.502639	0.001268	12.675375	4.294533	-0.101944
 950	4.7450e-01	2.0518	-8.665241	-0.002082	-20.823831	-7.055305	0.167479
 951	4.7500e-01	2.0310	-9.575456	0.002263	22.634599	7.668810	-0.182043
 952	4.7550e-01	1.9588	-9.284187	-0.000724	-7.243072	-2.454019	0.058254
 953	4.7600e-01	1.9219	-9.357004	0.000181	1.810768	0.613505	-0.014563
 954	4.7650e-01	1.8914	-9.793907	0.001086	10.864607	3.681029	-0.087381
 955	4.7700e-01	1.8882	-9.866724	0.000181	1.810768	0.613505	-0.014563
 956	4.7750e-01	1.8304	-10.085176	0.000543	5.432304	1.840514	-0.043690
 957	4.7800e-01	1.7759	-10.194402	0.000272	2.716152	0.920257	-0.021845
 958	4.7850e-01	1.7342	-9.903133	-0.000724	-7.243072	-2.454019	0.058254
 959	4.7900e-01	1.6748	-9.939542	0.000091	0.905384	0.306752	-0.007282
 960	4.7950e-01	1.6620	-10.267219	0.000815	8.148456	2.760771	-0.065535
 961	4.8000e-01	1.6283	-10.157993	-0.000272	-2.716152	-0.920257	0.021845
 962	4.8050e-01	1.5657	-10.594896	0.001086	10.864607	3.681029	-0.087381
 963	4.8100e-01	1.5353	-9.903133	-0.001720	-17.202295	-5.828295	0.138353
 964	4.8150e-01	1.5096	-10.412853	0.001268	12.675375	4.294533	-0.101944
 965	4.8200e-01	1.4615	-10.704122	0.000724	7.243072	2.454019	-0.058254
 966	4.8250e-01	1.4053	-10.776939	0.000181	1.810768	0.613505	-0.014563
 967	4.8300e-01	1.3893	-10.849756	0.000181	1.810768	0.613505	-0.014563
 968	4.8350e-01	1.3395	-10.740530	-0.000272	-2.716152	-0.920257	0.021845
 969	4.8400e-01	1.3091	-10.667713	-0.000181	-1.810768	-0.613505	0.014563
 970	4.8450e-01	1.2577	-10.631304	-0.000091	-0.905384	-0.306752	0.007282
 971	4.8500e-01	1.2417	-10.886165	0.000634	6.337688	2.147267	-0.050972
 972	4.8550e-01	1.1952	-11.250250	0.000905	9.053840	3.067524	-0.072817
 973	4.8600e-01	1.1486	-11.432293	0.000453	4.526920	1.533762	-0.036409
 974	4.8650e-01	1.1246	-11.323067	-0.000272	-2.716152	-0.920257	0.021845
 975	4.8700e-01	1.0636	-11.213842	-0.000272	-2.716152	-0.920257	0.021845
 976	4.8750e-01	1.0299	-11.395885	0.000453	4.526920	1.533762	-0.036409
 977	4.8800e-01	0.9914	-11.395885	-0.000000	-0.000000	-0.000000	0.000000
 978	4.8850e-01	0.9625	-11.614336	0.000543	5.432304	1.840514	-0.043690
 979	4.8900e-01	0.9048	-11.687153	0.000181	1.810768	0.613505	-0.014563
 980	4.8950e-01	0.8631	-11.687153	-0.000000	-0.000000	-0.000000	0.000000
 981	4.9000e-01	0.8278	-11.687153	-0.000000	-0.000000	-0.000000	0.000000
 982	4.9050e-01	0.7813	-12.051239	0.000905	9.053840	3.067524	-0.072817
 983	4.9100e-01	0.7428	-12.415325	0.000905	9.053840	3.067524	-0.072817
 984	4.9150e-01	0.7075	-12.451733	0.000091	0.905384	0.306752	-0.007282
 985	4.9200e-01	0.6609	-12.014830	-0.001086	-10.864607	-3.681029	0.087381
 986	4.9250e-01	0.6289	-12.451733	0.001086	10.864607	3.681029	-0.087381
 987	4.9300e-01	0.5807	-12.378916	-0.000181	-1.810768	-0.613505	0.014563
 988	4.9350e-01	0.5390	-12.706593	0.000815	8.148456	2.760771	-0.065535
 989	4.9400e-01	0.5005	-12.852228	0.000362	3.621536	1.227010	-0.029127
 990	4.9450e-01	0.4652	-12.560959	-0.000724	-7.243072	-2.454019	0.058254
 991	4.9500e-01	0.3930	-12.925045	0.000905	9.053840	3.067524	-0.072817
 992	4.9550e-01	0.3850	-13.107088	0.000453	4.526920	1.533762	-0.036409
 993	4.9600e-01	0.3449	-12.597368	-0.001268	-12.675375	-4.294533	0.101944
 994	4.9650e-01	0.2823	-13.179905	0.001449	14.486143	4.908038	-0.116507
 995	4.9700e-01	0.2438	-12.852228	-0.000815	-8.148456	-2.760771	0.065535
 996	4.9750e-01	0.2102	-12.888636	0.000091	0.905384	0.306752	-0.007282
 997	4.9800e-01	0.1733	-12.961453	0.000181	1.810768	0.613505	-0.014563
 998	4.9850e-01	0.1155	-13.507582	0.001358	13.580759	4.601286	-0.109226
 999	4.9900e-01	0.1043	-13.471173	-0.000091	-0.905384	-0.306752	0.007282
1000	4.9950e-01	0.0529	-13.471173	-0.000000	-0.000000	-0.000000	0.000000
1001	5.0000e-01	0.0706	-13.471173	-0.000000	-0.000000	-0.000000	0.000000

PMax (uC/cm2):	3.05e+01
Pr (uC/cm2):	2.04e+00
-Pr (uC/cm2):	0.00e+00
PLoss (uC/cm2):	0.00e+00
C (Max-Eff) (nF):	1.52e-01
K (Eff):	5.16e+02
Vert. (+/-Pr) Shift (uC/cm2):	1.02e+00
Offset (uC/cm2):	1.55e+01

A (Loop Area - uC/cm2·Volts):	9.37e-02



Hysteresis Version: 5.48.1 - Radiant Technologies, Inc., 1999 - 9/12/24

