»»»»»»»»»»»»»»»»»»»»»»»»»»»»»»»»»»»» Hysteresis ««««««««««««««««««««««««««««««««««««
»»»  Executed Version:	5.48.1
»»»  Vision Version:	5.48.4 (R)
»»»  Vision Compiled:	9/18/24
»»»  Driver Version:	5.47.0
»»»  Windows Version:	Windows 8 or 8.1
»»»  Processor Information:	x86 (AMD or Intel) - 32 Processors
»»»  Tester Name:	PMF21124-494 (100V)
»»»  Tester S/N:	PMF21124-494
»»»  Internal Amp Type:	100V RevK 270k
»»»  Internal Amp S/N:	iAB2-596/K     
»»»  Execution Count:	1
»»»»»»»»»»»»»»»»»»»»»»»»»»»»»»»»»»»»»»»»»»««««««««««««««««««««««««««««««««««««««««««

Stored:	10/8/2025 - 19:37:47
Configured:	10/08/25 04:22:59 PM
Executed:	10/08/25 07:37:25 PM

»»»»»»»»»»»»»»»»»»»»»»»»»»»»»»»»»»» Sample Info ««««««««««««««««««««««««««««««««««««
Sample Name:	Int. Ref. Ferroelectric
Lot Name:	N/A
Wafer Name:	N/A
Die Row/Column:	0/0
Capacitor Number:	0
Sample Area (cm2):	1.00e-04
Sample Thickness (microns):	3.00e-01

Amplifier:	Internal

»»»»»»»»»»»»»»»»»»»»»»»»»»»»»»»»»»» Tester Info «««««««««««««««««««««««««««««««««««
Tester Name:	PMF21124-494 (100V)
Tester Serial Number:	PMF21124-494
Return Signal Amp. Level:	1.9 [Index: 2]

»»»»»»»»»»»»»»»»»»»»»»»»»»»»»»»» Hysteresis Info ««««««««««««««««««««««««««««««««««
Task Name:	Hyste-8
Volts:	20.00
Field:	666.67 (kV/cm)
DCBias:	0.00
DCField:	0.00 (kV/cm)
Hysteresis Period (ms):	1.00e+02
Preset:	Enabled
Preset Delay (ms):	1.00e+03
Profile:	Standard Monopolar

»»»»»»»»»»»»»»»»»»»»»»»»»»»»»»»»»»»»»» Data «««««««««««««««««««««««««««««««««««««««
Points:	2001

Valid Data

Point	Time (ms)	Drive Voltage	Measured Polarization (uC/cm2)	Capacitance (uF)	Normalized Capacitance (uF/cm2)	Dielectric Constant	Instantaneous Current (mA)
   1	0.0000e+00	-0.0080	-20.484850	0.000012	0.118487	0.040144	0.000006
   2	5.0000e-02	0.0064	-20.481998	0.000012	0.118487	0.040144	0.000006
   3	1.0000e-01	0.0529	-20.466112	0.000066	0.660140	0.223662	0.000032
   4	1.5000e-01	0.0754	-20.433524	0.000135	1.354134	0.458793	0.000065
   5	2.0000e-01	0.1155	-20.398493	0.000146	1.455694	0.493202	0.000070
   6	2.5000e-01	0.1412	-20.356537	0.000174	1.743447	0.590696	0.000084
   7	3.0000e-01	0.1283	-20.310914	-0.000190	-1.895787	-0.642310	0.000091
   8	3.5000e-01	0.1428	-20.258774	0.000217	2.166614	0.734069	0.000104
   9	4.0000e-01	0.1957	-20.206635	0.000217	2.166614	0.734069	0.000104
  10	4.5000e-01	0.2182	-20.152458	0.000225	2.251247	0.762743	0.000108
  11	5.0000e-01	0.2326	-20.096652	0.000232	2.318954	0.785683	0.000112
  12	5.5000e-01	0.2342	-20.046549	0.000208	2.081980	0.705394	0.000100
  13	6.0000e-01	0.2422	-19.987892	0.000244	2.437440	0.825827	0.000117
  14	6.5000e-01	0.2984	-19.934530	0.000222	2.217394	0.751273	0.000107
  15	7.0000e-01	0.3048	-19.882797	0.000215	2.149687	0.728334	0.000103
  16	7.5000e-01	0.3064	-19.826584	0.000234	2.335880	0.791418	0.000112
  17	8.0000e-01	0.3144	-19.777296	0.000205	2.048127	0.693924	0.000099
  18	8.5000e-01	0.3642	-19.713750	0.000264	2.640561	0.894646	0.000127
  19	9.0000e-01	0.3642	-19.655093	-0.000244	-2.437440	-0.825827	0.000117
  20	9.5000e-01	0.4315	-19.604175	0.000212	2.115834	0.716864	0.000102
  21	1.0000e+00	0.4043	-19.551628	-0.000218	-2.183540	-0.739804	0.000105
  22	1.0500e+00	0.4428	-19.489304	0.000259	2.589781	0.877441	0.000125
  23	1.1000e+00	0.4700	-19.438794	0.000210	2.098907	0.711129	0.000101
  24	1.1500e+00	0.4829	-19.385432	0.000222	2.217394	0.751273	0.000107
  25	1.2000e+00	0.4797	-19.329219	-0.000234	-2.335880	-0.791418	0.000112
  26	1.2500e+00	0.5326	-19.276264	0.000220	2.200467	0.745538	0.000106
  27	1.3000e+00	0.5342	-19.221273	0.000229	2.285100	0.774213	0.000110
  28	1.3500e+00	0.5615	-19.161394	0.000249	2.488220	0.843032	0.000120
  29	1.4000e+00	0.5791	-19.105995	0.000230	2.302027	0.779948	0.000111
  30	1.4500e+00	0.5952	-19.050189	0.000232	2.318954	0.785683	0.000112
  31	1.5000e+00	0.5936	-18.997235	-0.000220	-2.200467	-0.745538	0.000106
  32	1.5500e+00	0.6545	-18.945095	0.000217	2.166614	0.734069	0.000104
  33	1.6000e+00	0.6658	-18.883586	0.000256	2.555927	0.865972	0.000123
  34	1.6500e+00	0.6770	-18.821670	0.000257	2.572854	0.871706	0.000124
  35	1.7000e+00	0.6914	-18.762198	0.000247	2.471294	0.837297	0.000119
  36	1.7500e+00	0.7139	-18.714539	0.000198	1.980420	0.670985	0.000095
  37	1.8000e+00	0.7508	-18.655067	0.000247	2.471294	0.837297	0.000119
  38	1.8500e+00	0.7556	-18.600483	0.000227	2.268174	0.768478	0.000109
  39	1.9000e+00	0.7764	-18.540604	0.000249	2.488220	0.843032	0.000120
  40	1.9500e+00	0.8101	-18.485612	0.000229	2.285100	0.774213	0.000110
  41	2.0000e+00	0.8422	-18.430621	0.000229	2.285100	0.774213	0.000110
  42	2.0500e+00	0.8390	-18.375630	-0.000229	-2.285100	-0.774213	0.000110
  43	2.1000e+00	0.8390	-18.321861	-0.000223	-2.234320	-0.757008	0.000108
  44	2.1500e+00	0.9064	-18.270535	0.000213	2.132760	0.722599	0.000103
  45	2.2000e+00	0.9144	-18.219210	0.000213	2.132760	0.722599	0.000103
  46	2.2500e+00	0.9064	-18.161775	-0.000239	-2.386660	-0.808622	0.000115
  47	2.3000e+00	0.9256	-18.110857	0.000212	2.115834	0.716864	0.000102
  48	2.3500e+00	0.9722	-18.056681	0.000225	2.251247	0.762743	0.000108
  49	2.4000e+00	0.9593	-18.002504	-0.000225	-2.251247	-0.762743	0.000108
  50	2.4500e+00	1.0395	-17.946291	0.000234	2.335880	0.791418	0.000112
  51	2.5000e+00	1.0139	-17.895373	-0.000212	-2.115834	-0.716864	0.000102
  52	2.5500e+00	1.0171	-17.840789	0.000227	2.268174	0.768478	0.000109
  53	2.6000e+00	1.0411	-17.787020	0.000223	2.234320	0.757008	0.000108
  54	2.6500e+00	1.0941	-17.743842	0.000179	1.794227	0.607901	0.000086
  55	2.7000e+00	1.0748	-17.691702	-0.000217	-2.166614	-0.734069	0.000104
  56	2.7500e+00	1.1246	-17.637525	0.000225	2.251247	0.762743	0.000108
  57	2.8000e+00	1.1246	-17.579275	-0.000242	-2.420514	-0.820092	0.000116
  58	2.8500e+00	1.1631	-17.528357	0.000212	2.115834	0.716864	0.000102
  59	2.9000e+00	1.1903	-17.469700	0.000244	2.437440	0.825827	0.000117
  60	2.9500e+00	1.1935	-17.416745	0.000220	2.200467	0.745538	0.000106
  61	3.0000e+00	1.2112	-17.362162	0.000227	2.268174	0.768478	0.000109
  62	3.0500e+00	1.2433	-17.302282	0.000249	2.488220	0.843032	0.000120
  63	3.1000e+00	1.2401	-17.247291	-0.000229	-2.285100	-0.774213	0.000110
  64	3.1500e+00	1.2882	-17.193929	0.000222	2.217394	0.751273	0.000107
  65	3.2000e+00	1.3123	-17.142197	0.000215	2.149687	0.728334	0.000103
  66	3.2500e+00	1.3331	-17.081095	0.000254	2.539001	0.860237	0.000122
  67	3.3000e+00	1.3267	-17.026511	-0.000227	-2.268174	-0.768478	0.000109
  68	3.3500e+00	1.3540	-16.976001	0.000210	2.098907	0.711129	0.000101
  69	3.4000e+00	1.4005	-16.917344	0.000244	2.437440	0.825827	0.000117
  70	3.4500e+00	1.4342	-16.868055	0.000205	2.048127	0.693924	0.000099
  71	3.5000e+00	1.4133	-16.811842	-0.000234	-2.335880	-0.791418	0.000112
  72	3.5500e+00	1.4502	-16.758887	0.000220	2.200467	0.745538	0.000106
  73	3.6000e+00	1.4599	-16.706747	0.000217	2.166614	0.734069	0.000104
  74	3.6500e+00	1.4823	-16.654608	0.000217	2.166614	0.734069	0.000104
  75	3.7000e+00	1.5000	-16.598394	0.000234	2.335880	0.791418	0.000112
  76	3.7500e+00	1.5112	-16.539737	0.000244	2.437440	0.825827	0.000117
  77	3.8000e+00	1.5433	-16.477414	0.000259	2.589781	0.877441	0.000125
  78	3.8500e+00	1.5465	-16.425681	0.000215	2.149687	0.728334	0.000103
  79	3.9000e+00	1.5754	-16.363765	0.000257	2.572854	0.871706	0.000124
  80	3.9500e+00	1.6123	-16.311625	0.000217	2.166614	0.734069	0.000104
  81	4.0000e+00	1.6139	-16.255819	0.000232	2.318954	0.785683	0.000112
  82	4.0500e+00	1.6636	-16.190644	0.000271	2.708267	0.917586	0.000130
  83	4.1000e+00	1.6796	-16.131172	0.000247	2.471294	0.837297	0.000119
  84	4.1500e+00	1.6828	-16.073330	0.000240	2.403587	0.814357	0.000116
  85	4.2000e+00	1.6925	-16.011821	0.000256	2.555927	0.865972	0.000123
  86	4.2500e+00	1.7246	-15.965791	0.000191	1.912714	0.648045	0.000092
  87	4.3000e+00	1.7406	-15.909171	0.000235	2.352807	0.797153	0.000113
  88	4.3500e+00	1.7807	-15.857031	0.000217	2.166614	0.734069	0.000104
  89	4.4000e+00	1.7903	-15.806113	0.000212	2.115834	0.716864	0.000102
  90	4.4500e+00	1.7823	-15.756010	-0.000208	-2.081980	-0.705394	0.000100
  91	4.5000e+00	1.8465	-15.703055	0.000220	2.200467	0.745538	0.000106
  92	4.5500e+00	1.8401	-15.651323	-0.000215	-2.149687	-0.728334	0.000103
  93	4.6000e+00	1.8689	-15.591444	0.000249	2.488220	0.843032	0.000120
  94	4.6500e+00	1.9187	-15.534008	0.000239	2.386660	0.808622	0.000115
  95	4.7000e+00	1.8753	-15.481054	-0.000220	-2.200467	-0.745538	0.000106
  96	4.7500e+00	1.9219	-15.431765	0.000205	2.048127	0.693924	0.000099
  97	4.8000e+00	1.9604	-15.380847	0.000212	2.115834	0.716864	0.000102
  98	4.8500e+00	1.9572	-15.328708	-0.000217	-2.166614	-0.734069	0.000104
  99	4.9000e+00	2.0005	-15.276568	0.000217	2.166614	0.734069	0.000104
 100	4.9500e+00	2.0037	-15.222391	0.000225	2.251247	0.762743	0.000108
 101	5.0000e+00	2.0213	-15.172288	0.000208	2.081980	0.705394	0.000100
 102	5.0500e+00	2.0181	-15.123814	-0.000201	-2.014274	-0.682454	0.000097
 103	5.1000e+00	2.0470	-15.065564	0.000242	2.420514	0.820092	0.000116
 104	5.1500e+00	2.0887	-15.012610	0.000220	2.200467	0.745538	0.000106
 105	5.2000e+00	2.0935	-14.956396	0.000234	2.335880	0.791418	0.000112
 106	5.2500e+00	2.1417	-14.898554	0.000240	2.403587	0.814357	0.000116
 107	5.3000e+00	2.1641	-14.837452	0.000254	2.539001	0.860237	0.000122
 108	5.3500e+00	2.1882	-14.785313	0.000217	2.166614	0.734069	0.000104
 109	5.4000e+00	2.1705	-14.738468	-0.000195	-1.946567	-0.659515	0.000094
 110	5.4500e+00	2.1882	-14.683477	0.000229	2.285100	0.774213	0.000110
 111	5.5000e+00	2.2187	-14.627671	0.000232	2.318954	0.785683	0.000112
 112	5.5500e+00	2.2427	-14.573494	0.000225	2.251247	0.762743	0.000108
 113	5.6000e+00	2.2828	-14.511171	0.000259	2.589781	0.877441	0.000125
 114	5.6500e+00	2.2828	-14.459031	-0.000217	-2.166614	-0.734069	0.000104
 115	5.7000e+00	2.3085	-14.406891	0.000217	2.166614	0.734069	0.000104
 116	5.7500e+00	2.3133	-14.350678	0.000234	2.335880	0.791418	0.000112
 117	5.8000e+00	2.2908	-14.293650	-0.000237	-2.369734	-0.802888	0.000114
 118	5.8500e+00	2.3646	-14.237437	0.000234	2.335880	0.791418	0.000112
 119	5.9000e+00	2.3791	-14.175113	0.000259	2.589781	0.877441	0.000125
 120	5.9500e+00	2.4063	-14.112790	0.000259	2.589781	0.877441	0.000125
 121	6.0000e+00	2.4192	-14.052503	0.000251	2.505147	0.848767	0.000121
 122	6.0500e+00	2.4449	-14.008918	0.000181	1.811154	0.613635	0.000087
 123	6.1000e+00	2.4785	-13.958815	0.000208	2.081980	0.705394	0.000100
 124	6.1500e+00	2.4737	-13.906267	-0.000218	-2.183540	-0.739804	0.000105
 125	6.2000e+00	2.5170	-13.854942	0.000213	2.132760	0.722599	0.000103
 126	6.2500e+00	2.5475	-13.806061	0.000203	2.031200	0.688189	0.000098
 127	6.3000e+00	2.5251	-13.757180	-0.000203	-2.031200	-0.688189	0.000098
 128	6.3500e+00	2.5924	-13.701781	0.000230	2.302027	0.779948	0.000111
 129	6.4000e+00	2.5812	-13.648420	-0.000222	-2.217394	-0.751273	0.000107
 130	6.4500e+00	2.5989	-13.588948	0.000247	2.471294	0.837297	0.000119
 131	6.5000e+00	2.5860	-13.533142	-0.000232	-2.318954	-0.785683	0.000112
 132	6.5500e+00	2.6229	-13.478150	0.000229	2.285100	0.774213	0.000110
 133	6.6000e+00	2.6614	-13.422752	0.000230	2.302027	0.779948	0.000111
 134	6.6500e+00	2.6598	-13.377537	-0.000188	-1.878860	-0.636575	0.000090
 135	6.7000e+00	2.7047	-13.327434	0.000208	2.081980	0.705394	0.000100
 136	6.7500e+00	2.7031	-13.272850	-0.000227	-2.268174	-0.768478	0.000109
 137	6.8000e+00	2.7481	-13.223154	0.000207	2.065054	0.699659	0.000099
 138	6.8500e+00	2.7464	-13.176717	-0.000193	-1.929640	-0.653780	0.000093
 139	6.9000e+00	2.7689	-13.122540	0.000225	2.251247	0.762743	0.000108
 140	6.9500e+00	2.8202	-13.068364	0.000225	2.251247	0.762743	0.000108
 141	7.0000e+00	2.8283	-13.013780	0.000227	2.268174	0.768478	0.000109
 142	7.0500e+00	2.8331	-12.966121	0.000198	1.980420	0.670985	0.000095
 143	7.1000e+00	2.8539	-12.913981	0.000217	2.166614	0.734069	0.000104
 144	7.1500e+00	2.9037	-12.862248	0.000215	2.149687	0.728334	0.000103
 145	7.2000e+00	2.9245	-12.814589	0.000198	1.980420	0.670985	0.000095
 146	7.2500e+00	2.8924	-12.764894	-0.000207	-2.065054	-0.699659	0.000099
 147	7.3000e+00	2.9037	-12.711939	0.000220	2.200467	0.745538	0.000106
 148	7.3500e+00	2.9534	-12.662651	0.000205	2.048127	0.693924	0.000099
 149	7.4000e+00	2.9742	-12.611325	0.000213	2.132760	0.722599	0.000103
 150	7.4500e+00	2.9887	-12.556741	0.000227	2.268174	0.768478	0.000109
 151	7.5000e+00	3.0384	-12.509082	0.000198	1.980420	0.670985	0.000095
 152	7.5500e+00	3.0464	-12.463460	0.000190	1.895787	0.642310	0.000091
 153	7.6000e+00	3.0785	-12.417838	0.000190	1.895787	0.642310	0.000091
 154	7.6500e+00	3.0817	-12.366513	0.000213	2.132760	0.722599	0.000103
 155	7.7000e+00	3.1122	-12.314373	0.000217	2.166614	0.734069	0.000104
 156	7.7500e+00	3.0994	-12.261418	-0.000220	-2.200467	-0.745538	0.000106
 157	7.8000e+00	3.1459	-12.212944	0.000201	2.014274	0.682454	0.000097
 158	7.8500e+00	3.1828	-12.158768	0.000225	2.251247	0.762743	0.000108
 159	7.9000e+00	3.1940	-12.115182	0.000181	1.811154	0.613635	0.000087
 160	7.9500e+00	3.2053	-12.062635	0.000218	2.183540	0.739804	0.000105
 161	8.0000e+00	3.2149	-12.017013	0.000190	1.895787	0.642310	0.000091
 162	8.0500e+00	3.2406	-11.966909	0.000208	2.081980	0.705394	0.000100
 163	8.1000e+00	3.2406	-11.911511	-0.000230	-2.302027	-0.779948	0.000111
 164	8.1500e+00	3.2758	-11.862222	0.000205	2.048127	0.693924	0.000099
 165	8.2000e+00	3.3031	-11.813749	0.000201	2.014274	0.682454	0.000097
 166	8.2500e+00	3.3288	-11.768941	0.000186	1.861934	0.630840	0.000090
 167	8.3000e+00	3.3416	-11.729836	0.000162	1.624960	0.550551	0.000078
 168	8.3500e+00	3.3496	-11.684214	0.000190	1.895787	0.642310	0.000091
 169	8.4000e+00	3.3673	-11.640221	0.000183	1.828080	0.619370	0.000088
 170	8.4500e+00	3.4010	-11.588488	0.000215	2.149687	0.728334	0.000103
 171	8.5000e+00	3.4202	-11.538792	0.000207	2.065054	0.699659	0.000099
 172	8.5500e+00	3.4523	-11.487467	0.000213	2.132760	0.722599	0.000103
 173	8.6000e+00	3.4972	-11.443474	0.000183	1.828080	0.619370	0.000088
 174	8.6500e+00	3.4828	-11.396630	-0.000195	-1.946567	-0.659515	0.000094
 175	8.7000e+00	3.4924	-11.348563	0.000200	1.997347	0.676720	0.000096
 176	8.7500e+00	3.5101	-11.301312	0.000196	1.963494	0.665250	0.000095
 177	8.8000e+00	3.5373	-11.253653	0.000198	1.980420	0.670985	0.000095
 178	8.8500e+00	3.5341	-11.204364	-0.000205	-2.048127	-0.693924	0.000099
 179	8.9000e+00	3.5790	-11.158335	0.000191	1.912714	0.648045	0.000092
 180	8.9500e+00	3.5903	-11.103751	0.000227	2.268174	0.768478	0.000109
 181	9.0000e+00	3.6095	-11.052425	0.000213	2.132760	0.722599	0.000103
 182	9.0500e+00	3.6448	-11.003137	0.000205	2.048127	0.693924	0.000099
 183	9.1000e+00	3.6641	-10.954663	0.000201	2.014274	0.682454	0.000097
 184	9.1500e+00	3.6705	-10.908634	0.000191	1.912714	0.648045	0.000092
 185	9.2000e+00	3.7090	-10.861789	0.000195	1.946567	0.659515	0.000094
 186	9.2500e+00	3.7138	-10.816167	0.000190	1.895787	0.642310	0.000091
 187	9.3000e+00	3.7298	-10.766471	0.000207	2.065054	0.699659	0.000099
 188	9.3500e+00	3.7475	-10.718405	0.000200	1.997347	0.676720	0.000096
 189	9.4000e+00	3.7972	-10.667894	0.000210	2.098907	0.711129	0.000101
 190	9.4500e+00	3.7924	-10.618198	-0.000207	-2.065054	-0.699659	0.000099
 191	9.5000e+00	3.8117	-10.569725	0.000201	2.014274	0.682454	0.000097
 192	9.5500e+00	3.8357	-10.519214	0.000210	2.098907	0.711129	0.000101
 193	9.6000e+00	3.8566	-10.466667	0.000218	2.183540	0.739804	0.000105
 194	9.6500e+00	3.8903	-10.418193	0.000201	2.014274	0.682454	0.000097
 195	9.7000e+00	3.8887	-10.372978	-0.000188	-1.878860	-0.636575	0.000090
 196	9.7500e+00	3.9320	-10.324912	0.000200	1.997347	0.676720	0.000096
 197	9.8000e+00	3.9480	-10.283770	0.000171	1.709594	0.579226	0.000082
 198	9.8500e+00	3.9384	-10.227557	-0.000234	-2.335880	-0.791418	0.000112
 199	9.9000e+00	3.9689	-10.180305	0.000196	1.963494	0.665250	0.000095
 200	9.9500e+00	4.0122	-10.136312	0.000183	1.828080	0.619370	0.000088
 201	1.0000e+01	4.0266	-10.084580	0.000215	2.149687	0.728334	0.000103
 202	1.0050e+01	4.0346	-10.041401	0.000179	1.794227	0.607901	0.000086
 203	1.0100e+01	4.0571	-9.995779	0.000190	1.895787	0.642310	0.000091
 204	1.0150e+01	4.0924	-9.947305	0.000201	2.014274	0.682454	0.000097
 205	1.0200e+01	4.1020	-9.898831	0.000201	2.014274	0.682454	0.000097
 206	1.0250e+01	4.1052	-9.849950	0.000203	2.031200	0.688189	0.000098
 207	1.0300e+01	4.1453	-9.802291	0.000198	1.980420	0.670985	0.000095
 208	1.0350e+01	4.1534	-9.751781	0.000210	2.098907	0.711129	0.000101
 209	1.0400e+01	4.2015	-9.702900	0.000203	2.031200	0.688189	0.000098
 210	1.0450e+01	4.2207	-9.660129	0.000178	1.777300	0.602166	0.000086
 211	1.0500e+01	4.2079	-9.609618	-0.000210	-2.098907	-0.711129	0.000101
 212	1.0550e+01	4.2400	-9.566032	0.000181	1.811154	0.613635	0.000087
 213	1.0600e+01	4.2480	-9.519188	0.000195	1.946567	0.659515	0.000094
 214	1.0650e+01	4.3009	-9.469900	0.000205	2.048127	0.693924	0.000099
 215	1.0700e+01	4.3042	-9.421833	0.000200	1.997347	0.676720	0.000096
 216	1.0750e+01	4.3234	-9.377433	0.000185	1.845007	0.625105	0.000089
 217	1.0800e+01	4.3330	-9.335477	0.000174	1.743447	0.590696	0.000084
 218	1.0850e+01	4.3555	-9.284559	0.000212	2.115834	0.716864	0.000102
 219	1.0900e+01	4.4020	-9.237714	0.000195	1.946567	0.659515	0.000094
 220	1.0950e+01	4.3683	-9.191277	-0.000193	-1.929640	-0.653780	0.000093
 221	1.1000e+01	4.4357	-9.146062	0.000188	1.878860	0.636575	0.000090
 222	1.1050e+01	4.4389	-9.100440	0.000190	1.895787	0.642310	0.000091
 223	1.1100e+01	4.4517	-9.055632	0.000186	1.861934	0.630840	0.000090
 224	1.1150e+01	4.4935	-9.008381	0.000196	1.963494	0.665250	0.000095
 225	1.1200e+01	4.5095	-8.957055	0.000213	2.132760	0.722599	0.000103
 226	1.1250e+01	4.5175	-8.906138	0.000212	2.115834	0.716864	0.000102
 227	1.1300e+01	4.5512	-8.862145	0.000183	1.828080	0.619370	0.000088
 228	1.1350e+01	4.5656	-8.817337	0.000186	1.861934	0.630840	0.000090
 229	1.1400e+01	4.5881	-8.768456	0.000203	2.031200	0.688189	0.000098
 230	1.1450e+01	4.6009	-8.718353	0.000208	2.081980	0.705394	0.000100
 231	1.1500e+01	4.6250	-8.678840	0.000164	1.641887	0.556286	0.000079
 232	1.1550e+01	4.6298	-8.627923	0.000212	2.115834	0.716864	0.000102
 233	1.1600e+01	4.6443	-8.585559	0.000176	1.760374	0.596431	0.000085
 234	1.1650e+01	4.6844	-8.538307	0.000196	1.963494	0.665250	0.000095
 235	1.1700e+01	4.6812	-8.486982	-0.000213	-2.132760	-0.722599	0.000103
 236	1.1750e+01	4.7293	-8.439730	0.000196	1.963494	0.665250	0.000095
 237	1.1800e+01	4.7469	-8.399811	0.000166	1.658814	0.562021	0.000080
 238	1.1850e+01	4.7582	-8.359076	0.000169	1.692667	0.573491	0.000081
 239	1.1900e+01	4.7902	-8.306529	0.000218	2.183540	0.739804	0.000105
 240	1.1950e+01	4.8063	-8.256426	0.000208	2.081980	0.705394	0.000100
 241	1.2000e+01	4.8191	-8.209174	0.000196	1.963494	0.665250	0.000095
 242	1.2050e+01	4.8608	-8.165181	0.000183	1.828080	0.619370	0.000088
 243	1.2100e+01	4.8592	-8.128113	-0.000154	-1.540327	-0.521877	0.000074
 244	1.2150e+01	4.9025	-8.084935	0.000179	1.794227	0.607901	0.000086
 245	1.2200e+01	4.9410	-8.042571	0.000176	1.760374	0.596431	0.000085
 246	1.2250e+01	4.9218	-7.990839	-0.000215	-2.149687	-0.728334	0.000103
 247	1.2300e+01	4.9475	-7.942772	0.000200	1.997347	0.676720	0.000096
 248	1.2350e+01	4.9667	-7.896335	0.000193	1.929640	0.653780	0.000093
 249	1.2400e+01	4.9860	-7.851120	0.000188	1.878860	0.636575	0.000090
 250	1.2450e+01	4.9827	-7.813237	-0.000157	-1.574180	-0.533347	0.000076
 251	1.2500e+01	5.0245	-7.763542	0.000207	2.065054	0.699659	0.000099
 252	1.2550e+01	5.0598	-7.720771	0.000178	1.777300	0.602166	0.000086
 253	1.2600e+01	5.0630	-7.677185	0.000181	1.811154	0.613635	0.000087
 254	1.2650e+01	5.0549	-7.632377	-0.000186	-1.861934	-0.630840	0.000090
 255	1.2700e+01	5.1223	-7.587162	0.000188	1.878860	0.636575	0.000090
 256	1.2750e+01	5.1368	-7.542762	0.000185	1.845007	0.625105	0.000089
 257	1.2800e+01	5.1528	-7.499584	0.000179	1.794227	0.607901	0.000086
 258	1.2850e+01	5.1704	-7.458035	0.000173	1.726520	0.584961	0.000083
 259	1.2900e+01	5.1640	-7.410783	-0.000196	-1.963494	-0.665250	0.000095
 260	1.2950e+01	5.1881	-7.366383	0.000185	1.845007	0.625105	0.000089
 261	1.3000e+01	5.2250	-7.326463	0.000166	1.658814	0.562021	0.000080
 262	1.3050e+01	5.2683	-7.278397	0.000200	1.997347	0.676720	0.000096
 263	1.3100e+01	5.2426	-7.229516	-0.000203	-2.031200	-0.688189	0.000098
 264	1.3150e+01	5.2811	-7.187559	0.000174	1.743447	0.590696	0.000084
 265	1.3200e+01	5.3004	-7.143159	0.000185	1.845007	0.625105	0.000089
 266	1.3250e+01	5.3164	-7.100795	0.000176	1.760374	0.596431	0.000085
 267	1.3300e+01	5.3694	-7.061283	0.000164	1.641887	0.556286	0.000079
 268	1.3350e+01	5.3389	-7.016068	-0.000188	-1.878860	-0.636575	0.000090
 269	1.3400e+01	5.3485	-6.975334	0.000169	1.692667	0.573491	0.000081
 270	1.3450e+01	5.4111	-6.924416	0.000212	2.115834	0.716864	0.000102
 271	1.3500e+01	5.4271	-6.877164	0.000196	1.963494	0.665250	0.000095
 272	1.3550e+01	5.4512	-6.836430	0.000169	1.692667	0.573491	0.000081
 273	1.3600e+01	5.4223	-6.793252	-0.000179	-1.794227	-0.607901	0.000086
 274	1.3650e+01	5.4688	-6.743556	0.000207	2.065054	0.699659	0.000099
 275	1.3700e+01	5.4865	-6.698341	0.000188	1.878860	0.636575	0.000090
 276	1.3750e+01	5.5154	-6.654755	0.000181	1.811154	0.613635	0.000087
 277	1.3800e+01	5.5089	-6.607096	-0.000198	-1.980420	-0.670985	0.000095
 278	1.3850e+01	5.5779	-6.561881	0.000188	1.878860	0.636575	0.000090
 279	1.3900e+01	5.5843	-6.517481	0.000185	1.845007	0.625105	0.000089
 280	1.3950e+01	5.5988	-6.470636	0.000195	1.946567	0.659515	0.000094
 281	1.4000e+01	5.6036	-6.428273	0.000176	1.760374	0.596431	0.000085
 282	1.4050e+01	5.6180	-6.386317	0.000174	1.743447	0.590696	0.000084
 283	1.4100e+01	5.6581	-6.343138	0.000179	1.794227	0.607901	0.000086
 284	1.4150e+01	5.6597	-6.297516	0.000190	1.895787	0.642310	0.000091
 285	1.4200e+01	5.6950	-6.246598	0.000212	2.115834	0.716864	0.000102
 286	1.4250e+01	5.7239	-6.196088	0.000210	2.098907	0.711129	0.000101
 287	1.4300e+01	5.7303	-6.145170	0.000212	2.115834	0.716864	0.000102
 288	1.4350e+01	5.7624	-6.095474	0.000207	2.065054	0.699659	0.000099
 289	1.4400e+01	5.7897	-6.055147	0.000168	1.675740	0.567756	0.000081
 290	1.4450e+01	5.8121	-6.019708	0.000147	1.472620	0.498937	0.000071
 291	1.4500e+01	5.8330	-5.975308	0.000185	1.845007	0.625105	0.000089
 292	1.4550e+01	5.8346	-5.929686	0.000190	1.895787	0.642310	0.000091
 293	1.4600e+01	5.8442	-5.882841	0.000195	1.946567	0.659515	0.000094
 294	1.4650e+01	5.8940	-5.840478	0.000176	1.760374	0.596431	0.000085
 295	1.4700e+01	5.9100	-5.796485	0.000183	1.828080	0.619370	0.000088
 296	1.4750e+01	5.8972	-5.749640	-0.000195	-1.946567	-0.659515	0.000094
 297	1.4800e+01	5.9677	-5.704018	0.000190	1.895787	0.642310	0.000091
 298	1.4850e+01	5.9469	-5.655544	-0.000201	-2.014274	-0.682454	0.000097
 299	1.4900e+01	5.9854	-5.612366	0.000179	1.794227	0.607901	0.000086
 300	1.4950e+01	5.9790	-5.574890	-0.000156	-1.557254	-0.527612	0.000075
 301	1.5000e+01	6.0480	-5.531712	0.000179	1.794227	0.607901	0.000086
 302	1.5050e+01	6.0191	-5.490570	-0.000171	-1.709594	-0.579226	0.000082
 303	1.5100e+01	6.0752	-5.441689	0.000203	2.031200	0.688189	0.000098
 304	1.5150e+01	6.0608	-5.399733	-0.000174	-1.743447	-0.590696	0.000084
 305	1.5200e+01	6.1137	-5.355333	0.000185	1.845007	0.625105	0.000089
 306	1.5250e+01	6.1153	-5.311747	0.000181	1.811154	0.613635	0.000087
 307	1.5300e+01	6.1314	-5.264902	0.000195	1.946567	0.659515	0.000094
 308	1.5350e+01	6.1570	-5.224576	0.000168	1.675740	0.567756	0.000081
 309	1.5400e+01	6.1731	-5.178139	0.000193	1.929640	0.653780	0.000093
 310	1.5450e+01	6.1955	-5.131701	0.000193	1.929640	0.653780	0.000093
 311	1.5500e+01	6.2389	-5.090967	0.000169	1.692667	0.573491	0.000081
 312	1.5550e+01	6.2549	-5.048604	0.000176	1.760374	0.596431	0.000085
 313	1.5600e+01	6.2533	-5.009499	-0.000162	-1.624960	-0.550551	0.000078
 314	1.5650e+01	6.2693	-4.958581	0.000212	2.115834	0.716864	0.000102
 315	1.5700e+01	6.3239	-4.917847	0.000169	1.692667	0.573491	0.000081
 316	1.5750e+01	6.3287	-4.874261	0.000181	1.811154	0.613635	0.000087
 317	1.5800e+01	6.3383	-4.834341	0.000166	1.658814	0.562021	0.000080
 318	1.5850e+01	6.3624	-4.788312	0.000191	1.912714	0.648045	0.000092
 319	1.5900e+01	6.3897	-4.744726	0.000181	1.811154	0.613635	0.000087
 320	1.5950e+01	6.3977	-4.696660	0.000200	1.997347	0.676720	0.000096
 321	1.6000e+01	6.4009	-4.655518	0.000171	1.709594	0.579226	0.000082
 322	1.6050e+01	6.4522	-4.612340	0.000179	1.794227	0.607901	0.000086
 323	1.6100e+01	6.4570	-4.570791	0.000173	1.726520	0.584961	0.000083
 324	1.6150e+01	6.4827	-4.527205	0.000181	1.811154	0.613635	0.000087
 325	1.6200e+01	6.5244	-4.484434	0.000178	1.777300	0.602166	0.000086
 326	1.6250e+01	6.4971	-4.444515	-0.000166	-1.658814	-0.562021	0.000080
 327	1.6300e+01	6.5324	-4.403780	0.000169	1.692667	0.573491	0.000081
 328	1.6350e+01	6.5485	-4.358973	0.000186	1.861934	0.630840	0.000090
 329	1.6400e+01	6.5822	-4.316609	0.000176	1.760374	0.596431	0.000085
 330	1.6450e+01	6.5998	-4.275875	0.000169	1.692667	0.573491	0.000081
 331	1.6500e+01	6.5998	-4.232289	-0.000181	-1.811154	-0.613635	0.000087
 332	1.6550e+01	6.6511	-4.190740	0.000173	1.726520	0.584961	0.000083
 333	1.6600e+01	6.6528	-4.148377	0.000176	1.760374	0.596431	0.000085
 334	1.6650e+01	6.6832	-4.110494	0.000157	1.574180	0.533347	0.000076
 335	1.6700e+01	6.6880	-4.069352	0.000171	1.709594	0.579226	0.000082
 336	1.6750e+01	6.7265	-4.032284	0.000154	1.540327	0.521877	0.000074
 337	1.6800e+01	6.7265	-3.989513	-0.000178	-1.777300	-0.602166	0.000086
 338	1.6850e+01	6.7538	-3.952852	0.000152	1.523400	0.516142	0.000073
 339	1.6900e+01	6.7859	-3.909674	0.000179	1.794227	0.607901	0.000086
 340	1.6950e+01	6.8003	-3.866088	0.000181	1.811154	0.613635	0.000087
 341	1.7000e+01	6.8372	-3.823317	0.000178	1.777300	0.602166	0.000086
 342	1.7050e+01	6.8372	-3.780954	-0.000176	-1.760374	-0.596431	0.000085
 343	1.7100e+01	6.8565	-3.737368	0.000181	1.811154	0.613635	0.000087
 344	1.7150e+01	6.8709	-3.695004	0.000176	1.760374	0.596431	0.000085
 345	1.7200e+01	6.8950	-3.651826	0.000179	1.794227	0.607901	0.000086
 346	1.7250e+01	6.9303	-3.609055	0.000178	1.777300	0.602166	0.000086
 347	1.7300e+01	6.9576	-3.565469	0.000181	1.811154	0.613635	0.000087
 348	1.7350e+01	6.9431	-3.525142	-0.000168	-1.675740	-0.567756	0.000081
 349	1.7400e+01	7.0009	-3.484408	0.000169	1.692667	0.573491	0.000081
 350	1.7450e+01	7.0009	-3.438378	-0.000191	-1.912714	-0.648045	0.000092
 351	1.7500e+01	7.0297	-3.396422	0.000174	1.743447	0.590696	0.000084
 352	1.7550e+01	7.0346	-3.355281	0.000171	1.709594	0.579226	0.000082
 353	1.7600e+01	7.0490	-3.313732	0.000173	1.726520	0.584961	0.000083
 354	1.7650e+01	7.0650	-3.274627	0.000162	1.624960	0.550551	0.000078
 355	1.7700e+01	7.1148	-3.236744	0.000157	1.574180	0.533347	0.000076
 356	1.7750e+01	7.1501	-3.196824	0.000166	1.658814	0.562021	0.000080
 357	1.7800e+01	7.1388	-3.152017	-0.000186	-1.861934	-0.630840	0.000090
 358	1.7850e+01	7.1918	-3.113726	0.000159	1.591107	0.539082	0.000077
 359	1.7900e+01	7.1934	-3.075844	0.000157	1.574180	0.533347	0.000076
 360	1.7950e+01	7.2078	-3.033887	0.000174	1.743447	0.590696	0.000084
 361	1.8000e+01	7.2319	-2.993153	0.000169	1.692667	0.573491	0.000081
 362	1.8050e+01	7.2287	-2.947123	-0.000191	-1.912714	-0.648045	0.000092
 363	1.8100e+01	7.2431	-2.905574	0.000173	1.726520	0.584961	0.000083
 364	1.8150e+01	7.2928	-2.863618	0.000174	1.743447	0.590696	0.000084
 365	1.8200e+01	7.3041	-2.821662	0.000174	1.743447	0.590696	0.000084
 366	1.8250e+01	7.3185	-2.778484	0.000179	1.794227	0.607901	0.000086
 367	1.8300e+01	7.3313	-2.735713	0.000178	1.777300	0.602166	0.000086
 368	1.8350e+01	7.3586	-2.692127	0.000181	1.811154	0.613635	0.000087
 369	1.8400e+01	7.3747	-2.652615	0.000164	1.641887	0.556286	0.000079
 370	1.8450e+01	7.4356	-2.607807	0.000186	1.861934	0.630840	0.000090
 371	1.8500e+01	7.4132	-2.567887	-0.000166	-1.658814	-0.562021	0.000080
 372	1.8550e+01	7.4468	-2.527968	0.000166	1.658814	0.562021	0.000080
 373	1.8600e+01	7.4677	-2.481531	0.000193	1.929640	0.653780	0.000093
 374	1.8650e+01	7.4629	-2.440797	-0.000169	-1.692667	-0.573491	0.000081
 375	1.8700e+01	7.4902	-2.403728	0.000154	1.540327	0.521877	0.000074
 376	1.8750e+01	7.5319	-2.366253	0.000156	1.557254	0.527612	0.000075
 377	1.8800e+01	7.5591	-2.326333	0.000166	1.658814	0.562021	0.000080
 378	1.8850e+01	7.5559	-2.281526	-0.000186	-1.861934	-0.630840	0.000090
 379	1.8900e+01	7.5784	-2.244457	0.000154	1.540327	0.521877	0.000074
 380	1.8950e+01	7.6217	-2.202501	0.000174	1.743447	0.590696	0.000084
 381	1.9000e+01	7.6313	-2.163804	0.000161	1.608034	0.544817	0.000077
 382	1.9050e+01	7.6297	-2.118589	-0.000188	-1.878860	-0.636575	0.000090
 383	1.9100e+01	7.6698	-2.072966	0.000190	1.895787	0.642310	0.000091
 384	1.9150e+01	7.6763	-2.035083	0.000157	1.574180	0.533347	0.000076
 385	1.9200e+01	7.6891	-1.988646	0.000193	1.929640	0.653780	0.000093
 386	1.9250e+01	7.7003	-1.950356	0.000159	1.591107	0.539082	0.000077
 387	1.9300e+01	7.7452	-1.910844	0.000164	1.641887	0.556286	0.000079
 388	1.9350e+01	7.7709	-1.876220	0.000144	1.438767	0.487467	0.000069
 389	1.9400e+01	7.7725	-1.835078	0.000171	1.709594	0.579226	0.000082
 390	1.9450e+01	7.8383	-1.791493	0.000181	1.811154	0.613635	0.000087
 391	1.9500e+01	7.8078	-1.750758	-0.000169	-1.692667	-0.573491	0.000081
 392	1.9550e+01	7.8607	-1.705951	0.000186	1.861934	0.630840	0.000090
 393	1.9600e+01	7.8431	-1.666438	-0.000164	-1.641887	-0.556286	0.000079
 394	1.9650e+01	7.8768	-1.627333	0.000162	1.624960	0.550551	0.000078
 395	1.9700e+01	7.8944	-1.584563	0.000178	1.777300	0.602166	0.000086
 396	1.9750e+01	7.8992	-1.539755	0.000186	1.861934	0.630840	0.000090
 397	1.9800e+01	7.9410	-1.499835	0.000166	1.658814	0.562021	0.000080
 398	1.9850e+01	7.9393	-1.454620	-0.000188	-1.878860	-0.636575	0.000090
 399	1.9900e+01	7.9778	-1.417145	0.000156	1.557254	0.527612	0.000075
 400	1.9950e+01	8.0067	-1.376410	0.000169	1.692667	0.573491	0.000081
 401	2.0000e+01	8.0035	-1.329159	-0.000196	-1.963494	-0.665250	0.000095
 402	2.0050e+01	8.0372	-1.288424	0.000169	1.692667	0.573491	0.000081
 403	2.0100e+01	8.0468	-1.243209	0.000188	1.878860	0.636575	0.000090
 404	2.0150e+01	8.0853	-1.198809	0.000185	1.845007	0.625105	0.000089
 405	2.0200e+01	8.0918	-1.159297	0.000164	1.641887	0.556286	0.000079
 406	2.0250e+01	8.1254	-1.116119	0.000179	1.794227	0.607901	0.000086
 407	2.0300e+01	8.1800	-1.078236	0.000157	1.574180	0.533347	0.000076
 408	2.0350e+01	8.1591	-1.040353	-0.000157	-1.574180	-0.533347	0.000076
 409	2.0400e+01	8.1575	-0.997582	-0.000178	-1.777300	-0.602166	0.000086
 410	2.0450e+01	8.2105	-0.951145	0.000193	1.929640	0.653780	0.000093
 411	2.0500e+01	8.2057	-0.907559	-0.000181	-1.811154	-0.613635	0.000087
 412	2.0550e+01	8.2442	-0.858271	0.000205	2.048127	0.693924	0.000099
 413	2.0600e+01	8.2794	-0.822832	0.000147	1.472620	0.498937	0.000071
 414	2.0650e+01	8.2682	-0.785764	-0.000154	-1.540327	-0.521877	0.000074
 415	2.0700e+01	8.3212	-0.745030	0.000169	1.692667	0.573491	0.000081
 416	2.0750e+01	8.3228	-0.704703	0.000168	1.675740	0.567756	0.000081
 417	2.0800e+01	8.3468	-0.664783	0.000166	1.658814	0.562021	0.000080
 418	2.0850e+01	8.3388	-0.617124	-0.000198	-1.980420	-0.670985	0.000095
 419	2.0900e+01	8.3821	-0.574353	0.000178	1.777300	0.602166	0.000086
 420	2.0950e+01	8.4222	-0.529545	0.000186	1.861934	0.630840	0.000090
 421	2.1000e+01	8.4254	-0.485145	0.000185	1.845007	0.625105	0.000089
 422	2.1050e+01	8.4351	-0.438301	0.000195	1.946567	0.659515	0.000094
 423	2.1100e+01	8.4816	-0.399603	0.000161	1.608034	0.544817	0.000077
 424	2.1150e+01	8.4720	-0.362128	-0.000156	-1.557254	-0.527612	0.000075
 425	2.1200e+01	8.5153	-0.322208	0.000166	1.658814	0.562021	0.000080
 426	2.1250e+01	8.5153	-0.277400	-0.000186	-1.861934	-0.630840	0.000090
 427	2.1300e+01	8.5121	-0.239517	-0.000157	-1.574180	-0.533347	0.000076
 428	2.1350e+01	8.5457	-0.197154	0.000176	1.760374	0.596431	0.000085
 429	2.1400e+01	8.5971	-0.154383	0.000178	1.777300	0.602166	0.000086
 430	2.1450e+01	8.6179	-0.109982	0.000185	1.845007	0.625105	0.000089
 431	2.1500e+01	8.6147	-0.067212	-0.000178	-1.777300	-0.602166	0.000086
 432	2.1550e+01	8.6629	-0.026885	0.000168	1.675740	0.567756	0.000081
 433	2.1600e+01	8.6596	0.012628	-0.000164	-1.641887	-0.556286	0.000079
 434	2.1650e+01	8.6693	0.049288	0.000152	1.523400	0.516142	0.000073
 435	2.1700e+01	8.6949	0.090837	0.000173	1.726520	0.584961	0.000083
 436	2.1750e+01	8.7254	0.134016	0.000179	1.794227	0.607901	0.000086
 437	2.1800e+01	8.7270	0.173528	0.000164	1.641887	0.556286	0.000079
 438	2.1850e+01	8.7752	0.213040	0.000164	1.641887	0.556286	0.000079
 439	2.1900e+01	8.7735	0.253367	-0.000168	-1.675740	-0.567756	0.000081
 440	2.1950e+01	8.8056	0.292879	0.000164	1.641887	0.556286	0.000079
 441	2.2000e+01	8.7848	0.336872	-0.000183	-1.828080	-0.619370	0.000088
 442	2.2050e+01	8.8506	0.385753	0.000203	2.031200	0.688189	0.000098
 443	2.2100e+01	8.8778	0.423636	0.000157	1.574180	0.533347	0.000076
 444	2.2150e+01	8.9035	0.468851	0.000188	1.878860	0.636575	0.000090
 445	2.2200e+01	8.9131	0.512030	0.000179	1.794227	0.607901	0.000086
 446	2.2250e+01	8.9035	0.557652	-0.000190	-1.895787	-0.642310	0.000091
 447	2.2300e+01	8.9356	0.601645	0.000183	1.828080	0.619370	0.000088
 448	2.2350e+01	8.9612	0.639935	0.000159	1.591107	0.539082	0.000077
 449	2.2400e+01	8.9997	0.683928	0.000183	1.828080	0.619370	0.000088
 450	2.2450e+01	8.9997	0.725070	-0.000171	-1.709594	-0.579226	0.000082
 451	2.2500e+01	9.0318	0.776395	0.000213	2.132760	0.722599	0.000103
 452	2.2550e+01	9.0302	0.832608	-0.000234	-2.335880	-0.791418	0.000112
 453	2.2600e+01	9.0671	0.879860	0.000196	1.963494	0.665250	0.000095
 454	2.2650e+01	9.0928	0.932407	0.000218	2.183540	0.739804	0.000105
 455	2.2700e+01	9.0960	0.971919	0.000164	1.641887	0.556286	0.000079
 456	2.2750e+01	9.1313	1.013468	0.000173	1.726520	0.584961	0.000083
 457	2.2800e+01	9.1570	1.049314	0.000149	1.489547	0.504672	0.000072
 458	2.2850e+01	9.1762	1.089234	0.000166	1.658814	0.562021	0.000080
 459	2.2900e+01	9.1762	1.127932	-0.000161	-1.608034	-0.544817	0.000077
 460	2.2950e+01	9.1842	1.166222	0.000159	1.591107	0.539082	0.000077
 461	2.3000e+01	9.2564	1.209400	0.000179	1.794227	0.607901	0.000086
 462	2.3050e+01	9.2628	1.252986	0.000181	1.811154	0.613635	0.000087
 463	2.3100e+01	9.2693	1.299423	0.000193	1.929640	0.653780	0.000093
 464	2.3150e+01	9.2660	1.347897	-0.000201	-2.014274	-0.682454	0.000097
 465	2.3200e+01	9.2949	1.392704	0.000186	1.861934	0.630840	0.000090
 466	2.3250e+01	9.3190	1.433438	0.000169	1.692667	0.573491	0.000081
 467	2.3300e+01	9.3495	1.468877	0.000147	1.472620	0.498937	0.000071
 468	2.3350e+01	9.3623	1.509611	0.000169	1.692667	0.573491	0.000081
 469	2.3400e+01	9.3880	1.547087	0.000156	1.557254	0.527612	0.000075
 470	2.3450e+01	9.3751	1.584563	-0.000156	-1.557254	-0.527612	0.000075
 471	2.3500e+01	9.4570	1.627741	0.000179	1.794227	0.607901	0.000086
 472	2.3550e+01	9.4570	1.671326	-0.000181	-1.811154	-0.613635	0.000087
 473	2.3600e+01	9.4618	1.707173	0.000149	1.489547	0.504672	0.000072
 474	2.3650e+01	9.4938	1.753202	0.000191	1.912714	0.648045	0.000092
 475	2.3700e+01	9.4987	1.795566	0.000176	1.760374	0.596431	0.000085
 476	2.3750e+01	9.5468	1.831005	0.000147	1.472620	0.498937	0.000071
 477	2.3800e+01	9.5307	1.869702	-0.000161	-1.608034	-0.544817	0.000077
 478	2.3850e+01	9.5468	1.907993	0.000159	1.591107	0.539082	0.000077
 479	2.3900e+01	9.5773	1.943839	0.000149	1.489547	0.504672	0.000072
 480	2.3950e+01	9.6013	1.976019	0.000134	1.337207	0.453058	0.000064
 481	2.4000e+01	9.6254	2.019604	0.000181	1.811154	0.613635	0.000087
 482	2.4050e+01	9.6318	2.060746	0.000171	1.709594	0.579226	0.000082
 483	2.4100e+01	9.6350	2.100666	0.000166	1.658814	0.562021	0.000080
 484	2.4150e+01	9.6783	2.139363	0.000161	1.608034	0.544817	0.000077
 485	2.4200e+01	9.6848	2.176839	0.000156	1.557254	0.527612	0.000075
 486	2.4250e+01	9.7120	2.216758	0.000166	1.658814	0.562021	0.000080
 487	2.4300e+01	9.7377	2.265232	0.000201	2.014274	0.682454	0.000097
 488	2.4350e+01	9.7425	2.304337	0.000162	1.624960	0.550551	0.000078
 489	2.4400e+01	9.7890	2.342627	0.000159	1.591107	0.539082	0.000077
 490	2.4450e+01	9.7954	2.378881	0.000151	1.506474	0.510407	0.000073
 491	2.4500e+01	9.8083	2.422059	0.000179	1.794227	0.607901	0.000086
 492	2.4550e+01	9.8500	2.455054	0.000137	1.371060	0.464528	0.000066
 493	2.4600e+01	9.8757	2.496602	0.000173	1.726520	0.584961	0.000083
 494	2.4650e+01	9.9077	2.536115	0.000164	1.641887	0.556286	0.000079
 495	2.4700e+01	9.9045	2.578071	-0.000174	-1.743447	-0.590696	0.000084
 496	2.4750e+01	9.9366	2.615139	0.000154	1.540327	0.521877	0.000074
 497	2.4800e+01	9.9430	2.655466	0.000168	1.675740	0.567756	0.000081
 498	2.4850e+01	9.9511	2.691720	0.000151	1.506474	0.510407	0.000073
 499	2.4900e+01	10.0040	2.723492	0.000132	1.320280	0.447323	0.000064
 500	2.4950e+01	9.9863	2.761375	-0.000157	-1.574180	-0.533347	0.000076
 501	2.5000e+01	10.0104	2.800480	0.000162	1.624960	0.550551	0.000078
 502	2.5050e+01	10.0329	2.835919	0.000147	1.472620	0.498937	0.000071
 503	2.5100e+01	10.0441	2.871765	0.000149	1.489547	0.504672	0.000072
 504	2.5150e+01	10.0617	2.908018	0.000151	1.506474	0.510407	0.000073
 505	2.5200e+01	10.1019	2.945901	0.000157	1.574180	0.533347	0.000076
 506	2.5250e+01	10.1115	2.984192	0.000159	1.591107	0.539082	0.000077
 507	2.5300e+01	10.1227	3.021667	0.000156	1.557254	0.527612	0.000075
 508	2.5350e+01	10.1259	3.066067	0.000185	1.845007	0.625105	0.000089
 509	2.5400e+01	10.1756	3.102728	0.000152	1.523400	0.516142	0.000073
 510	2.5450e+01	10.2045	3.143870	0.000171	1.709594	0.579226	0.000082
 511	2.5500e+01	10.2174	3.180123	0.000151	1.506474	0.510407	0.000073
 512	2.5550e+01	10.2125	3.220043	-0.000166	-1.658814	-0.562021	0.000080
 513	2.5600e+01	10.2446	3.261999	0.000174	1.743447	0.590696	0.000084
 514	2.5650e+01	10.2671	3.302733	0.000169	1.692667	0.573491	0.000081
 515	2.5700e+01	10.3088	3.341024	0.000159	1.591107	0.539082	0.000077
 516	2.5750e+01	10.3216	3.380943	0.000166	1.658814	0.562021	0.000080
 517	2.5800e+01	10.3553	3.420048	0.000162	1.624960	0.550551	0.000078
 518	2.5850e+01	10.3633	3.459560	0.000164	1.641887	0.556286	0.000079
 519	2.5900e+01	10.3938	3.500702	0.000171	1.709594	0.579226	0.000082
 520	2.5950e+01	10.4179	3.540621	0.000166	1.658814	0.562021	0.000080
 521	2.6000e+01	10.4179	3.577282	-0.000152	-1.523400	-0.516142	0.000073
 522	2.6050e+01	10.4355	3.613128	0.000149	1.489547	0.504672	0.000072
 523	2.6100e+01	10.4708	3.653048	0.000166	1.658814	0.562021	0.000080
 524	2.6150e+01	10.4837	3.691746	0.000161	1.608034	0.544817	0.000077
 525	2.6200e+01	10.5109	3.728406	0.000152	1.523400	0.516142	0.000073
 526	2.6250e+01	10.5157	3.769548	0.000171	1.709594	0.579226	0.000082
 527	2.6300e+01	10.5510	3.806209	0.000152	1.523400	0.516142	0.000073
 528	2.6350e+01	10.5751	3.848980	0.000178	1.777300	0.602166	0.000086
 529	2.6400e+01	10.5510	3.890121	-0.000171	-1.709594	-0.579226	0.000082
 530	2.6450e+01	10.6329	3.925153	0.000146	1.455694	0.493202	0.000070
 531	2.6500e+01	10.6553	3.962221	0.000154	1.540327	0.521877	0.000074
 532	2.6550e+01	10.6393	4.004992	-0.000178	-1.777300	-0.602166	0.000086
 533	2.6600e+01	10.6665	4.042060	0.000154	1.540327	0.521877	0.000074
 534	2.6650e+01	10.6970	4.082387	0.000168	1.675740	0.567756	0.000081
 535	2.6700e+01	10.6938	4.130046	-0.000198	-1.980420	-0.670985	0.000095
 536	2.6750e+01	10.7115	4.168336	0.000159	1.591107	0.539082	0.000077
 537	2.6800e+01	10.7259	4.204997	0.000152	1.523400	0.516142	0.000073
 538	2.6850e+01	10.7532	4.242880	0.000157	1.574180	0.533347	0.000076
 539	2.6900e+01	10.7917	4.279948	0.000154	1.540327	0.521877	0.000074
 540	2.6950e+01	10.8189	4.321904	0.000174	1.743447	0.590696	0.000084
 541	2.7000e+01	10.8318	4.360195	0.000159	1.591107	0.539082	0.000077
 542	2.7050e+01	10.8655	4.402558	0.000176	1.760374	0.596431	0.000085
 543	2.7100e+01	10.8430	4.440034	-0.000156	-1.557254	-0.527612	0.000075
 544	2.7150e+01	10.8927	4.481990	0.000174	1.743447	0.590696	0.000084
 545	2.7200e+01	10.8815	4.519058	-0.000154	-1.540327	-0.521877	0.000074
 546	2.7250e+01	10.9072	4.556534	0.000156	1.557254	0.527612	0.000075
 547	2.7300e+01	10.9248	4.592380	0.000149	1.489547	0.504672	0.000072
 548	2.7350e+01	10.9553	4.631077	0.000161	1.608034	0.544817	0.000077
 549	2.7400e+01	10.9842	4.672219	0.000171	1.709594	0.579226	0.000082
 550	2.7450e+01	10.9970	4.708065	0.000149	1.489547	0.504672	0.000072
 551	2.7500e+01	11.0195	4.750429	0.000176	1.760374	0.596431	0.000085
 552	2.7550e+01	11.0371	4.783831	0.000139	1.387987	0.470263	0.000067
 553	2.7600e+01	11.0612	4.824158	0.000168	1.675740	0.567756	0.000081
 554	2.7650e+01	11.0435	4.859189	-0.000146	-1.455694	-0.493202	0.000070
 555	2.7700e+01	11.1109	4.891777	0.000135	1.354134	0.458793	0.000065
 556	2.7750e+01	11.1302	4.928030	0.000151	1.506474	0.510407	0.000073
 557	2.7800e+01	11.1446	4.964284	0.000151	1.506474	0.510407	0.000073
 558	2.7850e+01	11.1975	5.004203	0.000166	1.658814	0.562021	0.000080
 559	2.7900e+01	11.1815	5.042901	-0.000161	-1.608034	-0.544817	0.000077
 560	2.7950e+01	11.2184	5.086079	0.000179	1.794227	0.607901	0.000086
 561	2.8000e+01	11.2264	5.124777	0.000161	1.608034	0.544817	0.000077
 562	2.8050e+01	11.2409	5.163882	0.000162	1.624960	0.550551	0.000078
 563	2.8100e+01	11.2778	5.200135	0.000151	1.506474	0.510407	0.000073
 564	2.8150e+01	11.2986	5.238425	0.000159	1.591107	0.539082	0.000077
 565	2.8200e+01	11.2986	5.276715	-0.000159	-1.591107	-0.539082	0.000077
 566	2.8250e+01	11.3483	5.318672	0.000174	1.743447	0.590696	0.000084
 567	2.8300e+01	11.3387	5.358999	-0.000168	-1.675740	-0.567756	0.000081
 568	2.8350e+01	11.3483	5.400140	0.000171	1.709594	0.579226	0.000082
 569	2.8400e+01	11.3596	5.440060	0.000166	1.658814	0.562021	0.000080
 570	2.8450e+01	11.4077	5.477535	0.000156	1.557254	0.527612	0.000075
 571	2.8500e+01	11.4221	5.515825	0.000159	1.591107	0.539082	0.000077
 572	2.8550e+01	11.4398	5.551264	0.000147	1.472620	0.498937	0.000071
 573	2.8600e+01	11.4542	5.586296	0.000146	1.455694	0.493202	0.000070
 574	2.8650e+01	11.5072	5.621735	0.000147	1.472620	0.498937	0.000071
 575	2.8700e+01	11.5104	5.659210	0.000156	1.557254	0.527612	0.000075
 576	2.8750e+01	11.5328	5.697908	0.000161	1.608034	0.544817	0.000077
 577	2.8800e+01	11.5569	5.744345	0.000193	1.929640	0.653780	0.000093
 578	2.8850e+01	11.5633	5.782228	0.000157	1.574180	0.533347	0.000076
 579	2.8900e+01	11.5954	5.822554	0.000168	1.675740	0.567756	0.000081
 580	2.8950e+01	11.5954	5.859623	-0.000154	-1.540327	-0.521877	0.000074
 581	2.9000e+01	11.6018	5.900357	0.000169	1.692667	0.573491	0.000081
 582	2.9050e+01	11.6467	5.938647	0.000159	1.591107	0.539082	0.000077
 583	2.9100e+01	11.6692	5.984269	0.000190	1.895787	0.642310	0.000091
 584	2.9150e+01	11.6724	6.022967	0.000161	1.608034	0.544817	0.000077
 585	2.9200e+01	11.6644	6.064109	-0.000171	-1.709594	-0.579226	0.000082
 586	2.9250e+01	11.7189	6.100362	0.000151	1.506474	0.510407	0.000073
 587	2.9300e+01	11.7285	6.138245	0.000157	1.574180	0.533347	0.000076
 588	2.9350e+01	11.7542	6.176535	0.000159	1.591107	0.539082	0.000077
 589	2.9400e+01	11.7751	6.215640	0.000162	1.624960	0.550551	0.000078
 590	2.9450e+01	11.7895	6.246598	0.000129	1.286427	0.435853	0.000062
 591	2.9500e+01	11.8088	6.281629	0.000146	1.455694	0.493202	0.000070
 592	2.9550e+01	11.8489	6.316661	0.000146	1.455694	0.493202	0.000070
 593	2.9600e+01	11.8585	6.349248	0.000135	1.354134	0.458793	0.000065
 594	2.9650e+01	11.8745	6.383465	0.000142	1.421840	0.481733	0.000068
 595	2.9700e+01	11.9018	6.427051	0.000181	1.811154	0.613635	0.000087
 596	2.9750e+01	11.9291	6.462082	0.000146	1.455694	0.493202	0.000070
 597	2.9800e+01	11.9339	6.494262	0.000134	1.337207	0.453058	0.000064
 598	2.9850e+01	11.9628	6.531330	0.000154	1.540327	0.521877	0.000074
 599	2.9900e+01	11.9547	6.567177	-0.000149	-1.489547	-0.504672	0.000072
 600	2.9950e+01	11.9997	6.595691	0.000118	1.184867	0.401444	0.000057
 601	3.0000e+01	12.0237	6.636832	0.000171	1.709594	0.579226	0.000082
 602	3.0050e+01	12.0574	6.673493	0.000152	1.523400	0.516142	0.000073
 603	3.0100e+01	12.0526	6.711376	-0.000157	-1.574180	-0.533347	0.000076
 604	3.0150e+01	12.0767	6.740297	0.000120	1.201794	0.407179	0.000058
 605	3.0200e+01	12.1152	6.780624	0.000168	1.675740	0.567756	0.000081
 606	3.0250e+01	12.0895	6.812804	-0.000134	-1.337207	-0.453058	0.000064
 607	3.0300e+01	12.1232	6.849465	0.000152	1.523400	0.516142	0.000073
 608	3.0350e+01	12.1553	6.887348	0.000157	1.574180	0.533347	0.000076
 609	3.0400e+01	12.1681	6.921972	0.000144	1.438767	0.487467	0.000069
 610	3.0450e+01	12.2082	6.961484	0.000164	1.641887	0.556286	0.000079
 611	3.0500e+01	12.2226	7.000182	0.000161	1.608034	0.544817	0.000077
 612	3.0550e+01	12.2531	7.029918	0.000124	1.235647	0.418649	0.000059
 613	3.0600e+01	12.2740	7.064949	0.000146	1.455694	0.493202	0.000070
 614	3.0650e+01	12.3109	7.098351	0.000139	1.387987	0.470263	0.000067
 615	3.0700e+01	12.3061	7.137049	-0.000161	-1.608034	-0.544817	0.000077
 616	3.0750e+01	12.3125	7.169636	0.000135	1.354134	0.458793	0.000065
 617	3.0800e+01	12.3269	7.205890	0.000151	1.506474	0.510407	0.000073
 618	3.0850e+01	12.3670	7.244587	0.000161	1.608034	0.544817	0.000077
 619	3.0900e+01	12.3670	7.286544	-0.000174	-1.743447	-0.590696	0.000084
 620	3.0950e+01	12.4184	7.336647	0.000208	2.081980	0.705394	0.000100
 621	3.1000e+01	12.4248	7.384713	0.000200	1.997347	0.676720	0.000096
 622	3.1050e+01	12.4601	7.423818	0.000162	1.624960	0.550551	0.000078
 623	3.1100e+01	12.4841	7.460479	0.000152	1.523400	0.516142	0.000073
 624	3.1150e+01	12.4745	7.495103	-0.000144	-1.438767	-0.487467	0.000069
 625	3.1200e+01	12.4970	7.529320	0.000142	1.421840	0.481733	0.000068
 626	3.1250e+01	12.5178	7.567610	0.000159	1.591107	0.539082	0.000077
 627	3.1300e+01	12.5499	7.601012	0.000139	1.387987	0.470263	0.000067
 628	3.1350e+01	12.5820	7.638895	0.000157	1.574180	0.533347	0.000076
 629	3.1400e+01	12.5900	7.681258	0.000176	1.760374	0.596431	0.000085
 630	3.1450e+01	12.6253	7.724437	0.000179	1.794227	0.607901	0.000086
 631	3.1500e+01	12.6157	7.763949	-0.000164	-1.641887	-0.556286	0.000079
 632	3.1550e+01	12.6349	7.806313	0.000176	1.760374	0.596431	0.000085
 633	3.1600e+01	12.6606	7.841344	0.000146	1.455694	0.493202	0.000070
 634	3.1650e+01	12.6766	7.874746	0.000139	1.387987	0.470263	0.000067
 635	3.1700e+01	12.6927	7.910592	0.000149	1.489547	0.504672	0.000072
 636	3.1750e+01	12.6895	7.946031	-0.000147	-1.472620	-0.498937	0.000071
 637	3.1800e+01	12.7713	7.983099	0.000154	1.540327	0.521877	0.000074
 638	3.1850e+01	12.7681	8.012835	-0.000124	-1.235647	-0.418649	0.000059
 639	3.1900e+01	12.7922	8.046237	0.000139	1.387987	0.470263	0.000067
 640	3.1950e+01	12.8082	8.089008	0.000178	1.777300	0.602166	0.000086
 641	3.2000e+01	12.8082	8.123633	-0.000144	-1.438767	-0.487467	0.000069
 642	3.2050e+01	12.8531	8.164774	0.000171	1.709594	0.579226	0.000082
 643	3.2100e+01	12.8499	8.199398	-0.000144	-1.438767	-0.487467	0.000069
 644	3.2150e+01	12.8708	8.235652	0.000151	1.506474	0.510407	0.000073
 645	3.2200e+01	12.8900	8.273535	0.000157	1.574180	0.533347	0.000076
 646	3.2250e+01	12.9253	8.308566	0.000146	1.455694	0.493202	0.000070
 647	3.2300e+01	12.9430	8.336673	0.000117	1.167940	0.395709	0.000056
 648	3.2350e+01	12.9478	8.375370	0.000161	1.608034	0.544817	0.000077
 649	3.2400e+01	12.9542	8.405106	0.000124	1.235647	0.418649	0.000059
 650	3.2450e+01	13.0007	8.440545	0.000147	1.472620	0.498937	0.000071
 651	3.2500e+01	12.9991	8.474354	-0.000140	-1.404914	-0.475998	0.000068
 652	3.2550e+01	13.0408	8.511423	0.000154	1.540327	0.521877	0.000074
 653	3.2600e+01	13.0456	8.548491	0.000154	1.540327	0.521877	0.000074
 654	3.2650e+01	13.0793	8.590854	0.000176	1.760374	0.596431	0.000085
 655	3.2700e+01	13.1098	8.618961	0.000117	1.167940	0.395709	0.000056
 656	3.2750e+01	13.1403	8.655215	0.000151	1.506474	0.510407	0.000073
 657	3.2800e+01	13.1306	8.690653	-0.000147	-1.472620	-0.498937	0.000071
 658	3.2850e+01	13.1435	8.726092	0.000147	1.472620	0.498937	0.000071
 659	3.2900e+01	13.1611	8.760309	0.000142	1.421840	0.481733	0.000068
 660	3.2950e+01	13.1804	8.799821	0.000164	1.641887	0.556286	0.000079
 661	3.3000e+01	13.2141	8.831594	0.000132	1.320280	0.447323	0.000064
 662	3.3050e+01	13.2189	8.863367	0.000132	1.320280	0.447323	0.000064
 663	3.3100e+01	13.2718	8.897991	0.000144	1.438767	0.487467	0.000069
 664	3.3150e+01	13.2879	8.940354	0.000176	1.760374	0.596431	0.000085
 665	3.3200e+01	13.2814	8.974571	-0.000142	-1.421840	-0.481733	0.000068
 666	3.3250e+01	13.3055	9.007566	0.000137	1.371060	0.464528	0.000066
 667	3.3300e+01	13.3360	9.034450	0.000112	1.117160	0.378504	0.000054
 668	3.3350e+01	13.3424	9.070297	0.000149	1.489547	0.504672	0.000072
 669	3.3400e+01	13.3552	9.098403	0.000117	1.167940	0.395709	0.000056
 670	3.3450e+01	13.4002	9.141989	0.000181	1.811154	0.613635	0.000087
 671	3.3500e+01	13.4178	9.171725	0.000124	1.235647	0.418649	0.000059
 672	3.3550e+01	13.4403	9.210422	0.000161	1.608034	0.544817	0.000077
 673	3.3600e+01	13.4242	9.243010	-0.000135	-1.354134	-0.458793	0.000065
 674	3.3650e+01	13.4852	9.280893	0.000157	1.574180	0.533347	0.000076
 675	3.3700e+01	13.4788	9.317554	-0.000152	-1.523400	-0.516142	0.000073
 676	3.3750e+01	13.5269	9.348919	0.000130	1.303354	0.441588	0.000063
 677	3.3800e+01	13.5173	9.383950	-0.000146	-1.455694	-0.493202	0.000070
 678	3.3850e+01	13.5477	9.414908	0.000129	1.286427	0.435853	0.000062
 679	3.3900e+01	13.5959	9.452384	0.000156	1.557254	0.527612	0.000075
 680	3.3950e+01	13.6199	9.488230	0.000149	1.489547	0.504672	0.000072
 681	3.4000e+01	13.6151	9.526928	-0.000161	-1.608034	-0.544817	0.000077
 682	3.4050e+01	13.6440	9.561959	0.000146	1.455694	0.493202	0.000070
 683	3.4100e+01	13.6504	9.596991	0.000146	1.455694	0.493202	0.000070
 684	3.4150e+01	13.6809	9.635688	0.000161	1.608034	0.544817	0.000077
 685	3.4200e+01	13.6985	9.668683	0.000137	1.371060	0.464528	0.000066
 686	3.4250e+01	13.7226	9.701270	0.000135	1.354134	0.458793	0.000065
 687	3.4300e+01	13.7403	9.736709	0.000147	1.472620	0.498937	0.000071
 688	3.4350e+01	13.7643	9.768889	0.000134	1.337207	0.453058	0.000064
 689	3.4400e+01	13.7932	9.805143	0.000151	1.506474	0.510407	0.000073
 690	3.4450e+01	13.7996	9.837730	0.000135	1.354134	0.458793	0.000065
 691	3.4500e+01	13.7964	9.871132	-0.000139	-1.387987	-0.470263	0.000067
 692	3.4550e+01	13.8285	9.907793	0.000152	1.523400	0.516142	0.000073
 693	3.4600e+01	13.8862	9.934677	0.000112	1.117160	0.378504	0.000054
 694	3.4650e+01	13.8782	9.970931	-0.000151	-1.506474	-0.510407	0.000073
 695	3.4700e+01	13.8862	10.003926	0.000137	1.371060	0.464528	0.000066
 696	3.4750e+01	13.8991	10.037328	0.000139	1.387987	0.470263	0.000067
 697	3.4800e+01	13.9087	10.076025	0.000161	1.608034	0.544817	0.000077
 698	3.4850e+01	13.9279	10.112279	0.000151	1.506474	0.510407	0.000073
 699	3.4900e+01	13.9745	10.154235	0.000174	1.743447	0.590696	0.000084
 700	3.4950e+01	13.9889	10.189267	0.000146	1.455694	0.493202	0.000070
 701	3.5000e+01	14.0114	10.219410	0.000125	1.252574	0.424383	0.000060
 702	3.5050e+01	14.0515	10.249553	0.000125	1.252574	0.424383	0.000060
 703	3.5100e+01	14.0691	10.282141	0.000135	1.354134	0.458793	0.000065
 704	3.5150e+01	14.0868	10.319616	0.000156	1.557254	0.527612	0.000075
 705	3.5200e+01	14.1140	10.355870	0.000151	1.506474	0.510407	0.000073
 706	3.5250e+01	14.1365	10.391308	0.000147	1.472620	0.498937	0.000071
 707	3.5300e+01	14.1172	10.430006	-0.000161	-1.608034	-0.544817	0.000077
 708	3.5350e+01	14.1429	10.472370	0.000176	1.760374	0.596431	0.000085
 709	3.5400e+01	14.1590	10.502513	0.000125	1.252574	0.424383	0.000060
 710	3.5450e+01	14.1910	10.536730	0.000142	1.421840	0.481733	0.000068
 711	3.5500e+01	14.2103	10.571354	0.000144	1.438767	0.487467	0.000069
 712	3.5550e+01	14.2279	10.599461	0.000117	1.167940	0.395709	0.000056
 713	3.5600e+01	14.2697	10.631641	0.000134	1.337207	0.453058	0.000064
 714	3.5650e+01	14.2841	10.666672	0.000146	1.455694	0.493202	0.000070
 715	3.5700e+01	14.2873	10.702518	0.000149	1.489547	0.504672	0.000072
 716	3.5750e+01	14.3146	10.733069	0.000127	1.269500	0.430118	0.000061
 717	3.5800e+01	14.3258	10.770544	0.000156	1.557254	0.527612	0.000075
 718	3.5850e+01	14.3611	10.803132	0.000135	1.354134	0.458793	0.000065
 719	3.5900e+01	14.3900	10.838978	0.000149	1.489547	0.504672	0.000072
 720	3.5950e+01	14.3932	10.874824	0.000149	1.489547	0.504672	0.000072
 721	3.6000e+01	14.3996	10.902116	0.000113	1.134087	0.384239	0.000055
 722	3.6050e+01	14.4349	10.937148	0.000146	1.455694	0.493202	0.000070
 723	3.6100e+01	14.4237	10.964847	-0.000115	-1.151014	-0.389974	0.000055
 724	3.6150e+01	14.4862	10.997027	0.000134	1.337207	0.453058	0.000064
 725	3.6200e+01	14.4942	11.036539	0.000164	1.641887	0.556286	0.000079
 726	3.6250e+01	14.5039	11.072793	0.000151	1.506474	0.510407	0.000073
 727	3.6300e+01	14.5408	11.110675	0.000157	1.574180	0.533347	0.000076
 728	3.6350e+01	14.5600	11.146522	0.000149	1.489547	0.504672	0.000072
 729	3.6400e+01	14.5873	11.185219	0.000161	1.608034	0.544817	0.000077
 730	3.6450e+01	14.6017	11.216177	0.000129	1.286427	0.435853	0.000062
 731	3.6500e+01	14.6178	11.249579	0.000139	1.387987	0.470263	0.000067
 732	3.6550e+01	14.6370	11.276464	0.000112	1.117160	0.378504	0.000054
 733	3.6600e+01	14.6691	11.311495	0.000146	1.455694	0.493202	0.000070
 734	3.6650e+01	14.6659	11.347341	-0.000149	-1.489547	-0.504672	0.000072
 735	3.6700e+01	14.7076	11.384410	0.000154	1.540327	0.521877	0.000074
 736	3.6750e+01	14.7172	11.425144	0.000169	1.692667	0.573491	0.000081
 737	3.6800e+01	14.7605	11.461805	0.000152	1.523400	0.516142	0.000073
 738	3.6850e+01	14.7605	11.494799	-0.000137	-1.371060	-0.464528	0.000066
 739	3.6900e+01	14.7702	11.525350	0.000127	1.269500	0.430118	0.000061
 740	3.6950e+01	14.7750	11.562011	0.000152	1.523400	0.516142	0.000073
 741	3.7000e+01	14.8119	11.594598	0.000135	1.354134	0.458793	0.000065
 742	3.7050e+01	14.8552	11.635740	0.000171	1.709594	0.579226	0.000082
 743	3.7100e+01	14.8905	11.673215	0.000156	1.557254	0.527612	0.000075
 744	3.7150e+01	14.8809	11.707840	-0.000144	-1.438767	-0.487467	0.000069
 745	3.7200e+01	14.8969	11.742871	0.000146	1.455694	0.493202	0.000070
 746	3.7250e+01	14.9274	11.774644	0.000132	1.320280	0.447323	0.000064
 747	3.7300e+01	14.9450	11.813341	0.000161	1.608034	0.544817	0.000077
 748	3.7350e+01	14.9883	11.845929	0.000135	1.354134	0.458793	0.000065
 749	3.7400e+01	14.9691	11.886256	-0.000168	-1.675740	-0.567756	0.000081
 750	3.7450e+01	14.9900	11.927397	0.000171	1.709594	0.579226	0.000082
 751	3.7500e+01	15.0252	11.964873	0.000156	1.557254	0.527612	0.000075
 752	3.7550e+01	15.0413	12.003163	0.000159	1.591107	0.539082	0.000077
 753	3.7600e+01	15.0637	12.038194	0.000146	1.455694	0.493202	0.000070
 754	3.7650e+01	15.1071	12.072819	0.000144	1.438767	0.487467	0.000069
 755	3.7700e+01	15.0926	12.110701	-0.000157	-1.574180	-0.533347	0.000076
 756	3.7750e+01	15.1375	12.150621	0.000166	1.658814	0.562021	0.000080
 757	3.7800e+01	15.1616	12.186874	0.000151	1.506474	0.510407	0.000073
 758	3.7850e+01	15.1696	12.223128	0.000151	1.506474	0.510407	0.000073
 759	3.7900e+01	15.1937	12.262233	0.000162	1.624960	0.550551	0.000078
 760	3.7950e+01	15.2049	12.298486	0.000151	1.506474	0.510407	0.000073
 761	3.8000e+01	15.2178	12.330666	0.000134	1.337207	0.453058	0.000064
 762	3.8050e+01	15.2434	12.370179	0.000164	1.641887	0.556286	0.000079
 763	3.8100e+01	15.2514	12.407654	0.000156	1.557254	0.527612	0.000075
 764	3.8150e+01	15.2932	12.444315	0.000152	1.523400	0.516142	0.000073
 765	3.8200e+01	15.2883	12.478124	-0.000140	-1.404914	-0.475998	0.000068
 766	3.8250e+01	15.3236	12.506638	0.000118	1.184867	0.401444	0.000057
 767	3.8300e+01	15.3317	12.548187	0.000173	1.726520	0.584961	0.000083
 768	3.8350e+01	15.3702	12.584441	0.000151	1.506474	0.510407	0.000073
 769	3.8400e+01	15.3621	12.620694	-0.000151	-1.506474	-0.510407	0.000073
 770	3.8450e+01	15.3782	12.657762	0.000154	1.540327	0.521877	0.000074
 771	3.8500e+01	15.4279	12.692794	0.000146	1.455694	0.493202	0.000070
 772	3.8550e+01	15.4327	12.732713	0.000166	1.658814	0.562021	0.000080
 773	3.8600e+01	15.4648	12.766116	0.000139	1.387987	0.470263	0.000067
 774	3.8650e+01	15.5001	12.797888	0.000132	1.320280	0.447323	0.000064
 775	3.8700e+01	15.5097	12.840252	0.000176	1.760374	0.596431	0.000085
 776	3.8750e+01	15.5386	12.872025	0.000132	1.320280	0.447323	0.000064
 777	3.8800e+01	15.5386	12.910315	-0.000159	-1.591107	-0.539082	0.000077
 778	3.8850e+01	15.5578	12.944124	0.000140	1.404914	0.475998	0.000068
 779	3.8900e+01	15.5867	12.983229	0.000162	1.624960	0.550551	0.000078
 780	3.8950e+01	15.5899	13.017039	0.000140	1.404914	0.475998	0.000068
 781	3.9000e+01	15.6012	13.056143	0.000162	1.624960	0.550551	0.000078
 782	3.9050e+01	15.6701	13.090360	0.000142	1.421840	0.481733	0.000068
 783	3.9100e+01	15.6621	13.131094	-0.000169	-1.692667	-0.573491	0.000081
 784	3.9150e+01	15.6701	13.167348	0.000151	1.506474	0.510407	0.000073
 785	3.9200e+01	15.6830	13.208082	0.000169	1.692667	0.573491	0.000081
 786	3.9250e+01	15.7263	13.249224	0.000171	1.709594	0.579226	0.000082
 787	3.9300e+01	15.7471	13.289551	0.000168	1.675740	0.567756	0.000081
 788	3.9350e+01	15.7439	13.325397	-0.000149	-1.489547	-0.504672	0.000072
 789	3.9400e+01	15.7584	13.360836	0.000147	1.472620	0.498937	0.000071
 790	3.9450e+01	15.7824	13.397497	0.000152	1.523400	0.516142	0.000073
 791	3.9500e+01	15.8290	13.429677	0.000134	1.337207	0.453058	0.000064
 792	3.9550e+01	15.8258	13.463079	-0.000139	-1.387987	-0.470263	0.000067
 793	3.9600e+01	15.8739	13.492000	0.000120	1.201794	0.407179	0.000058
 794	3.9650e+01	15.8931	13.530290	0.000159	1.591107	0.539082	0.000077
 795	3.9700e+01	15.9076	13.566544	0.000151	1.506474	0.510407	0.000073
 796	3.9750e+01	15.9156	13.608093	0.000173	1.726520	0.584961	0.000083
 797	3.9800e+01	15.9477	13.648420	0.000168	1.675740	0.567756	0.000081
 798	3.9850e+01	15.9413	13.682229	-0.000140	-1.404914	-0.475998	0.000068
 799	3.9900e+01	15.9717	13.719704	0.000156	1.557254	0.527612	0.000075
 800	3.9950e+01	15.9766	13.753514	0.000140	1.404914	0.475998	0.000068
 801	4.0000e+01	16.0006	13.790989	0.000156	1.557254	0.527612	0.000075
 802	4.0050e+01	16.0391	13.821540	0.000127	1.269500	0.430118	0.000061
 803	4.0100e+01	16.0407	13.851683	0.000125	1.252574	0.424383	0.000060
 804	4.0150e+01	16.0792	13.888344	0.000152	1.523400	0.516142	0.000073
 805	4.0200e+01	16.1065	13.919710	0.000130	1.303354	0.441588	0.000063
 806	4.0250e+01	16.1161	13.962888	0.000179	1.794227	0.607901	0.000086
 807	4.0300e+01	16.1370	13.993439	0.000127	1.269500	0.430118	0.000061
 808	4.0350e+01	16.1370	14.025619	-0.000134	-1.337207	-0.453058	0.000064
 809	4.0400e+01	16.1707	14.054133	0.000118	1.184867	0.401444	0.000057
 810	4.0450e+01	16.2108	14.092423	0.000159	1.591107	0.539082	0.000077
 811	4.0500e+01	16.2092	14.129898	-0.000156	-1.557254	-0.527612	0.000075
 812	4.0550e+01	16.2669	14.165337	0.000147	1.472620	0.498937	0.000071
 813	4.0600e+01	16.2653	14.196703	-0.000130	-1.303354	-0.441588	0.000063
 814	4.0650e+01	16.2894	14.228068	0.000130	1.303354	0.441588	0.000063
 815	4.0700e+01	16.2798	14.258619	-0.000127	-1.269500	-0.430118	0.000061
 816	4.0750e+01	16.2958	14.292428	0.000140	1.404914	0.475998	0.000068
 817	4.0800e+01	16.3632	14.325016	0.000135	1.354134	0.458793	0.000065
 818	4.0850e+01	16.3535	14.362898	-0.000157	-1.574180	-0.533347	0.000076
 819	4.0900e+01	16.3856	14.403633	0.000169	1.692667	0.573491	0.000081
 820	4.0950e+01	16.3888	14.434591	0.000129	1.286427	0.435853	0.000062
 821	4.1000e+01	16.4129	14.468807	0.000142	1.421840	0.481733	0.000068
 822	4.1050e+01	16.4498	14.496507	0.000115	1.151014	0.389974	0.000055
 823	4.1100e+01	16.4674	14.538056	0.000173	1.726520	0.584961	0.000083
 824	4.1150e+01	16.4691	14.567384	0.000122	1.218720	0.412914	0.000059
 825	4.1200e+01	16.5011	14.607304	0.000166	1.658814	0.562021	0.000080
 826	4.1250e+01	16.5252	14.635818	0.000118	1.184867	0.401444	0.000057
 827	4.1300e+01	16.5525	14.672886	0.000154	1.540327	0.521877	0.000074
 828	4.1350e+01	16.5477	14.704659	-0.000132	-1.320280	-0.447323	0.000064
 829	4.1400e+01	16.5669	14.741320	0.000152	1.523400	0.516142	0.000073
 830	4.1450e+01	16.5797	14.771463	0.000125	1.252574	0.424383	0.000060
 831	4.1500e+01	16.6391	14.806087	0.000144	1.438767	0.487467	0.000069
 832	4.1550e+01	16.6327	14.843155	-0.000154	-1.540327	-0.521877	0.000074
 833	4.1600e+01	16.6584	14.878187	0.000146	1.455694	0.493202	0.000070
 834	4.1650e+01	16.7001	14.909552	0.000130	1.303354	0.441588	0.000063
 835	4.1700e+01	16.7145	14.937659	0.000117	1.167940	0.395709	0.000056
 836	4.1750e+01	16.7145	14.975134	-0.000156	-1.557254	-0.527612	0.000075
 837	4.1800e+01	16.7338	15.004056	0.000120	1.201794	0.407179	0.000058
 838	4.1850e+01	16.7466	15.043568	0.000164	1.641887	0.556286	0.000079
 839	4.1900e+01	16.7723	15.071267	0.000115	1.151014	0.389974	0.000055
 840	4.1950e+01	16.7787	15.109557	0.000159	1.591107	0.539082	0.000077
 841	4.2000e+01	16.7915	15.140515	0.000129	1.286427	0.435853	0.000062
 842	4.2050e+01	16.8236	15.182472	0.000174	1.743447	0.590696	0.000084
 843	4.2100e+01	16.8332	15.210578	0.000117	1.167940	0.395709	0.000056
 844	4.2150e+01	16.8781	15.244388	0.000140	1.404914	0.475998	0.000068
 845	4.2200e+01	16.9022	15.276975	0.000135	1.354134	0.458793	0.000065
 846	4.2250e+01	16.9247	15.308340	0.000130	1.303354	0.441588	0.000063
 847	4.2300e+01	16.9375	15.342965	0.000144	1.438767	0.487467	0.000069
 848	4.2350e+01	16.9551	15.381255	0.000159	1.591107	0.539082	0.000077
 849	4.2400e+01	16.9776	15.413435	0.000134	1.337207	0.453058	0.000064
 850	4.2450e+01	16.9968	15.447244	0.000140	1.404914	0.475998	0.000068
 851	4.2500e+01	17.0321	15.481054	0.000140	1.404914	0.475998	0.000068
 852	4.2550e+01	17.0434	15.516085	0.000146	1.455694	0.493202	0.000070
 853	4.2600e+01	17.0578	15.547858	0.000132	1.320280	0.447323	0.000064
 854	4.2650e+01	17.0482	15.580038	-0.000134	-1.337207	-0.453058	0.000064
 855	4.2700e+01	17.1140	15.611811	0.000132	1.320280	0.447323	0.000064
 856	4.2750e+01	17.1107	15.648879	-0.000154	-1.540327	-0.521877	0.000074
 857	4.2800e+01	17.1525	15.676985	0.000117	1.167940	0.395709	0.000056
 858	4.2850e+01	17.1669	15.711610	0.000144	1.438767	0.487467	0.000069
 859	4.2900e+01	17.1974	15.745826	0.000142	1.421840	0.481733	0.000068
 860	4.2950e+01	17.1974	15.782895	-0.000154	-1.540327	-0.521877	0.000074
 861	4.3000e+01	17.2134	15.817926	0.000146	1.455694	0.493202	0.000070
 862	4.3050e+01	17.2423	15.846033	0.000117	1.167940	0.395709	0.000056
 863	4.3100e+01	17.2583	15.880249	0.000142	1.421840	0.481733	0.000068
 864	4.3150e+01	17.2968	15.912429	0.000134	1.337207	0.453058	0.000064
 865	4.3200e+01	17.2984	15.947461	0.000146	1.455694	0.493202	0.000070
 866	4.3250e+01	17.3257	15.985751	0.000159	1.591107	0.539082	0.000077
 867	4.3300e+01	17.3321	16.019153	0.000139	1.387987	0.470263	0.000067
 868	4.3350e+01	17.3434	16.053777	0.000144	1.438767	0.487467	0.000069
 869	4.3400e+01	17.3787	16.084735	0.000129	1.286427	0.435853	0.000062
 870	4.3450e+01	17.3851	16.123433	0.000161	1.608034	0.544817	0.000077
 871	4.3500e+01	17.4188	16.150725	0.000113	1.134087	0.384239	0.000055
 872	4.3550e+01	17.4492	16.189422	0.000161	1.608034	0.544817	0.000077
 873	4.3600e+01	17.4621	16.221602	0.000134	1.337207	0.453058	0.000064
 874	4.3650e+01	17.4605	16.255819	-0.000142	-1.421840	-0.481733	0.000068
 875	4.3700e+01	17.4926	16.298183	0.000176	1.760374	0.596431	0.000085
 876	4.3750e+01	17.5262	16.329141	0.000129	1.286427	0.435853	0.000062
 877	4.3800e+01	17.5471	16.365802	0.000152	1.523400	0.516142	0.000073
 878	4.3850e+01	17.5599	16.400426	0.000144	1.438767	0.487467	0.000069
 879	4.3900e+01	17.5696	16.431384	0.000129	1.286427	0.435853	0.000062
 880	4.3950e+01	17.6081	16.470489	0.000162	1.624960	0.550551	0.000078
 881	4.4000e+01	17.6113	16.505520	0.000146	1.455694	0.493202	0.000070
 882	4.4050e+01	17.6594	16.537293	0.000132	1.320280	0.447323	0.000064
 883	4.4100e+01	17.6690	16.575176	0.000157	1.574180	0.533347	0.000076
 884	4.4150e+01	17.6995	16.605726	0.000127	1.269500	0.430118	0.000061
 885	4.4200e+01	17.6899	16.644831	-0.000162	-1.624960	-0.550551	0.000078
 886	4.4250e+01	17.7043	16.671309	0.000110	1.100234	0.372769	0.000053
 887	4.4300e+01	17.7460	16.705525	0.000142	1.421840	0.481733	0.000068
 888	4.4350e+01	17.7428	16.733225	-0.000115	-1.151014	-0.389974	0.000055
 889	4.4400e+01	17.8006	16.764997	0.000132	1.320280	0.447323	0.000064
 890	4.4450e+01	17.7861	16.799214	-0.000142	-1.421840	-0.481733	0.000068
 891	4.4500e+01	17.8022	16.837912	0.000161	1.608034	0.544817	0.000077
 892	4.4550e+01	17.8391	16.871314	0.000139	1.387987	0.470263	0.000067
 893	4.4600e+01	17.8343	16.904716	-0.000139	-1.387987	-0.470263	0.000067
 894	4.4650e+01	17.8824	16.936489	0.000132	1.320280	0.447323	0.000064
 895	4.4700e+01	17.9161	16.970298	0.000140	1.404914	0.475998	0.000068
 896	4.4750e+01	17.9064	17.007366	-0.000154	-1.540327	-0.521877	0.000074
 897	4.4800e+01	17.9321	17.039954	0.000135	1.354134	0.458793	0.000065
 898	4.4850e+01	17.9610	17.069282	0.000122	1.218720	0.412914	0.000059
 899	4.4900e+01	17.9690	17.101870	0.000135	1.354134	0.458793	0.000065
 900	4.4950e+01	17.9915	17.132420	0.000127	1.269500	0.430118	0.000061
 901	4.5000e+01	18.0203	17.167452	0.000146	1.455694	0.493202	0.000070
 902	4.5050e+01	18.0364	17.201669	0.000142	1.421840	0.481733	0.000068
 903	4.5100e+01	18.0572	17.233849	0.000134	1.337207	0.453058	0.000064
 904	4.5150e+01	18.0829	17.267251	0.000139	1.387987	0.470263	0.000067
 905	4.5200e+01	18.0669	17.300653	-0.000139	-1.387987	-0.470263	0.000067
 906	4.5250e+01	18.1006	17.336092	0.000147	1.472620	0.498937	0.000071
 907	4.5300e+01	18.1294	17.369901	0.000140	1.404914	0.475998	0.000068
 908	4.5350e+01	18.1455	17.398415	0.000118	1.184867	0.401444	0.000057
 909	4.5400e+01	18.1663	17.430595	0.000134	1.337207	0.453058	0.000064
 910	4.5450e+01	18.1888	17.470107	0.000164	1.641887	0.556286	0.000079
 911	4.5500e+01	18.2177	17.510434	0.000168	1.675740	0.567756	0.000081
 912	4.5550e+01	18.2562	17.545466	0.000146	1.455694	0.493202	0.000070
 913	4.5600e+01	18.2481	17.577646	-0.000134	-1.337207	-0.453058	0.000064
 914	4.5650e+01	18.2530	17.608604	0.000129	1.286427	0.435853	0.000062
 915	4.5700e+01	18.3027	17.643635	0.000146	1.455694	0.493202	0.000070
 916	4.5750e+01	18.3235	17.681111	0.000156	1.557254	0.527612	0.000075
 917	4.5800e+01	18.3364	17.715328	0.000142	1.421840	0.481733	0.000068
 918	4.5850e+01	18.3861	17.746693	0.000130	1.303354	0.441588	0.000063
 919	4.5900e+01	18.3845	17.777244	-0.000127	-1.269500	-0.430118	0.000061
 920	4.5950e+01	18.3909	17.813904	0.000152	1.523400	0.516142	0.000073
 921	4.6000e+01	18.4342	17.842011	0.000117	1.167940	0.395709	0.000056
 922	4.6050e+01	18.4471	17.871340	0.000122	1.218720	0.412914	0.000059
 923	4.6100e+01	18.4663	17.900261	0.000120	1.201794	0.407179	0.000058
 924	4.6150e+01	18.4808	17.930812	0.000127	1.269500	0.430118	0.000061
 925	4.6200e+01	18.4904	17.967065	0.000151	1.506474	0.510407	0.000073
 926	4.6250e+01	18.5161	17.995579	0.000118	1.184867	0.401444	0.000057
 927	4.6300e+01	18.5449	18.023279	0.000115	1.151014	0.389974	0.000055
 928	4.6350e+01	18.5562	18.050163	0.000112	1.117160	0.378504	0.000054
 929	4.6400e+01	18.5963	18.078677	0.000118	1.184867	0.401444	0.000057
 930	4.6450e+01	18.5882	18.113709	-0.000146	-1.455694	-0.493202	0.000070
 931	4.6500e+01	18.5995	18.145481	0.000132	1.320280	0.447323	0.000064
 932	4.6550e+01	18.6669	18.179698	0.000142	1.421840	0.481733	0.000068
 933	4.6600e+01	18.6845	18.206175	0.000110	1.100234	0.372769	0.000053
 934	4.6650e+01	18.6604	18.237133	-0.000129	-1.286427	-0.435853	0.000062
 935	4.6700e+01	18.6957	18.267684	0.000127	1.269500	0.430118	0.000061
 936	4.6750e+01	18.7423	18.303530	0.000149	1.489547	0.504672	0.000072
 937	4.6800e+01	18.7455	18.337340	0.000140	1.404914	0.475998	0.000068
 938	4.6850e+01	18.7872	18.380111	0.000178	1.777300	0.602166	0.000086
 939	4.6900e+01	18.7904	18.414327	0.000142	1.421840	0.481733	0.000068
 940	4.6950e+01	18.7888	18.442434	-0.000117	-1.167940	-0.395709	0.000056
 941	4.7000e+01	18.7808	18.474614	-0.000134	-1.337207	-0.453058	0.000064
 942	4.7050e+01	18.8562	18.510053	0.000147	1.472620	0.498937	0.000071
 943	4.7100e+01	18.8754	18.542233	0.000134	1.337207	0.453058	0.000064
 944	4.7150e+01	18.8834	18.581338	0.000162	1.624960	0.550551	0.000078
 945	4.7200e+01	18.9107	18.608630	0.000113	1.134087	0.384239	0.000055
 946	4.7250e+01	18.9139	18.643661	0.000146	1.455694	0.493202	0.000070
 947	4.7300e+01	18.9235	18.677063	0.000139	1.387987	0.470263	0.000067
 948	4.7350e+01	18.9620	18.707207	0.000125	1.252574	0.424383	0.000060
 949	4.7400e+01	18.9909	18.740201	0.000137	1.371060	0.464528	0.000066
 950	4.7450e+01	19.0214	18.772381	0.000134	1.337207	0.453058	0.000064
 951	4.7500e+01	19.0005	18.812301	-0.000166	-1.658814	-0.562021	0.000080
 952	4.7550e+01	19.0246	18.852221	0.000166	1.658814	0.562021	0.000080
 953	4.7600e+01	19.0487	18.892548	0.000168	1.675740	0.567756	0.000081
 954	4.7650e+01	19.0791	18.927986	0.000147	1.472620	0.498937	0.000071
 955	4.7700e+01	19.1176	18.957722	0.000124	1.235647	0.418649	0.000059
 956	4.7750e+01	19.0968	18.987458	-0.000124	-1.235647	-0.418649	0.000059
 957	4.7800e+01	19.1401	19.020453	0.000137	1.371060	0.464528	0.000066
 958	4.7850e+01	19.1321	19.057114	-0.000152	-1.523400	-0.516142	0.000073
 959	4.7900e+01	19.1690	19.083999	0.000112	1.117160	0.378504	0.000054
 960	4.7950e+01	19.1850	19.111290	0.000113	1.134087	0.384239	0.000055
 961	4.8000e+01	19.2396	19.143471	0.000134	1.337207	0.453058	0.000064
 962	4.8050e+01	19.2396	19.173207	-0.000124	-1.235647	-0.418649	0.000059
 963	4.8100e+01	19.2572	19.215163	0.000174	1.743447	0.590696	0.000084
 964	4.8150e+01	19.2861	19.254268	0.000162	1.624960	0.550551	0.000078
 965	4.8200e+01	19.3150	19.288484	0.000142	1.421840	0.481733	0.000068
 966	4.8250e+01	19.2925	19.321479	-0.000137	-1.371060	-0.464528	0.000066
 967	4.8300e+01	19.3470	19.356103	0.000144	1.438767	0.487467	0.000069
 968	4.8350e+01	19.3759	19.387061	0.000129	1.286427	0.435853	0.000062
 969	4.8400e+01	19.3888	19.421686	0.000144	1.438767	0.487467	0.000069
 970	4.8450e+01	19.4016	19.454680	0.000137	1.371060	0.464528	0.000066
 971	4.8500e+01	19.3984	19.480343	-0.000107	-1.066380	-0.361299	0.000051
 972	4.8550e+01	19.4561	19.510894	0.000127	1.269500	0.430118	0.000061
 973	4.8600e+01	19.4497	19.544703	-0.000140	-1.404914	-0.475998	0.000068
 974	4.8650e+01	19.4690	19.573624	0.000120	1.201794	0.407179	0.000058
 975	4.8700e+01	19.5187	19.615988	0.000176	1.760374	0.596431	0.000085
 976	4.8750e+01	19.5219	19.655500	0.000164	1.641887	0.556286	0.000079
 977	4.8800e+01	19.5107	19.686458	-0.000129	-1.286427	-0.435853	0.000062
 978	4.8850e+01	19.5396	19.721490	0.000146	1.455694	0.493202	0.000070
 979	4.8900e+01	19.5716	19.750411	0.000120	1.201794	0.407179	0.000058
 980	4.8950e+01	19.5989	19.784220	0.000140	1.404914	0.475998	0.000068
 981	4.9000e+01	19.6358	19.821696	0.000156	1.557254	0.527612	0.000075
 982	4.9050e+01	19.6342	19.852654	-0.000129	-1.286427	-0.435853	0.000062
 983	4.9100e+01	19.6952	19.881983	0.000122	1.218720	0.412914	0.000059
 984	4.9150e+01	19.6984	19.916199	0.000142	1.421840	0.481733	0.000068
 985	4.9200e+01	19.6936	19.946343	-0.000125	-1.252574	-0.424383	0.000060
 986	4.9250e+01	19.6936	19.971598	-0.000105	-1.049454	-0.355564	0.000051
 987	4.9300e+01	19.7385	20.010295	0.000161	1.608034	0.544817	0.000077
 988	4.9350e+01	19.7545	20.042476	0.000134	1.337207	0.453058	0.000064
 989	4.9400e+01	19.7706	20.077914	0.000147	1.472620	0.498937	0.000071
 990	4.9450e+01	19.7818	20.110909	0.000137	1.371060	0.464528	0.000066
 991	4.9500e+01	19.8219	20.145126	0.000142	1.421840	0.481733	0.000068
 992	4.9550e+01	19.8299	20.179750	0.000144	1.438767	0.487467	0.000069
 993	4.9600e+01	19.8540	20.210301	0.000127	1.269500	0.430118	0.000061
 994	4.9650e+01	19.8845	20.245739	0.000147	1.472620	0.498937	0.000071
 995	4.9700e+01	19.9117	20.278734	0.000137	1.371060	0.464528	0.000066
 996	4.9750e+01	19.9198	20.312136	0.000139	1.387987	0.470263	0.000067
 997	4.9800e+01	19.9438	20.340243	0.000117	1.167940	0.395709	0.000056
 998	4.9850e+01	19.9518	20.374867	0.000144	1.438767	0.487467	0.000069
 999	4.9900e+01	19.9791	20.407454	0.000135	1.354134	0.458793	0.000065
1000	4.9950e+01	20.0497	20.442079	0.000144	1.438767	0.487467	0.000069
1001	5.0000e+01	20.0192	20.473444	-0.000130	-1.303354	-0.441588	0.000063
1002	5.0050e+01	19.9807	20.484850	-0.000047	-0.473947	-0.160578	0.000023
1003	5.0100e+01	19.9679	20.483628	0.000005	0.050780	0.017205	-0.000002
1004	5.0150e+01	19.9374	20.471407	0.000051	0.507800	0.172047	-0.000024
1005	5.0200e+01	19.9663	20.458780	-0.000052	-0.524727	-0.177782	-0.000025
1006	5.0250e+01	19.9069	20.440857	0.000074	0.744773	0.252336	-0.000036
1007	5.0300e+01	19.8989	20.420489	0.000085	0.846334	0.286746	-0.000041
1008	5.0350e+01	19.8748	20.398493	0.000091	0.914040	0.309685	-0.000044
1009	5.0400e+01	19.8428	20.377311	0.000088	0.880187	0.298215	-0.000042
1010	5.0450e+01	19.8540	20.351241	-0.000108	-1.083307	-0.367034	-0.000052
1011	5.0500e+01	19.7898	20.328430	0.000095	0.947894	0.321155	-0.000046
1012	5.0550e+01	19.7770	20.308063	0.000085	0.846334	0.286746	-0.000041
1013	5.0600e+01	19.7834	20.281993	-0.000108	-1.083307	-0.367034	-0.000052
1014	5.0650e+01	19.7577	20.253479	0.000118	1.184867	0.401444	-0.000057
1015	5.0700e+01	19.7513	20.235149	0.000076	0.761700	0.258071	-0.000037
1016	5.0750e+01	19.7321	20.210708	0.000102	1.015600	0.344095	-0.000049
1017	5.0800e+01	19.6663	20.183009	0.000115	1.151014	0.389974	-0.000055
1018	5.0850e+01	19.6727	20.155309	-0.000115	-1.151014	-0.389974	-0.000055
1019	5.0900e+01	19.6807	20.132498	-0.000095	-0.947894	-0.321155	-0.000046
1020	5.0950e+01	19.6326	20.108465	0.000100	0.998674	0.338360	-0.000048
1021	5.1000e+01	19.6230	20.084839	0.000098	0.981747	0.332625	-0.000047
1022	5.1050e+01	19.5957	20.053881	0.000129	1.286427	0.435853	-0.000062
1023	5.1100e+01	19.5652	20.031477	0.000093	0.930967	0.315420	-0.000045
1024	5.1150e+01	19.5540	19.996853	0.000144	1.438767	0.487467	-0.000069
1025	5.1200e+01	19.5396	19.975671	0.000088	0.880187	0.298215	-0.000042
1026	5.1250e+01	19.4994	19.952860	0.000095	0.947894	0.321155	-0.000046
1027	5.1300e+01	19.5155	19.928420	-0.000102	-1.015600	-0.344095	-0.000049
1028	5.1350e+01	19.4642	19.903572	0.000103	1.032527	0.349830	-0.000050
1029	5.1400e+01	19.4385	19.875872	0.000115	1.151014	0.389974	-0.000055
1030	5.1450e+01	19.4577	19.847358	-0.000118	-1.184867	-0.401444	-0.000057
1031	5.1500e+01	19.4032	19.821696	0.000107	1.066380	0.361299	-0.000051
1032	5.1550e+01	19.3791	19.793182	0.000118	1.184867	0.401444	-0.000057
1033	5.1600e+01	19.3984	19.772000	-0.000088	-0.880187	-0.298215	-0.000042
1034	5.1650e+01	19.3551	19.743486	0.000118	1.184867	0.401444	-0.000057
1035	5.1700e+01	19.3246	19.718638	0.000103	1.032527	0.349830	-0.000050
1036	5.1750e+01	19.2909	19.691346	0.000113	1.134087	0.384239	-0.000055
1037	5.1800e+01	19.2941	19.666906	-0.000102	-1.015600	-0.344095	-0.000049
1038	5.1850e+01	19.2668	19.639614	0.000113	1.134087	0.384239	-0.000055
1039	5.1900e+01	19.2829	19.614359	-0.000105	-1.049454	-0.355564	-0.000051
1040	5.1950e+01	19.2364	19.586252	0.000117	1.167940	0.395709	-0.000056
1041	5.2000e+01	19.2139	19.564255	0.000091	0.914040	0.309685	-0.000044
1042	5.2050e+01	19.1786	19.533297	0.000129	1.286427	0.435853	-0.000062
1043	5.2100e+01	19.1706	19.512523	0.000086	0.863260	0.292480	-0.000042
1044	5.2150e+01	19.1786	19.477491	-0.000146	-1.455694	-0.493202	-0.000070
1045	5.2200e+01	19.1353	19.450199	0.000113	1.134087	0.384239	-0.000055
1046	5.2250e+01	19.1225	19.424537	0.000107	1.066380	0.361299	-0.000051
1047	5.2300e+01	19.1016	19.393986	0.000127	1.269500	0.430118	-0.000061
1048	5.2350e+01	19.0791	19.366287	0.000115	1.151014	0.389974	-0.000055
1049	5.2400e+01	19.0823	19.340217	-0.000108	-1.083307	-0.367034	-0.000052
1050	5.2450e+01	19.0422	19.311296	0.000120	1.201794	0.407179	-0.000058
1051	5.2500e+01	19.0262	19.281967	0.000122	1.218720	0.412914	-0.000059
1052	5.2550e+01	18.9989	19.255490	0.000110	1.100234	0.372769	-0.000053
1053	5.2600e+01	18.9701	19.226568	0.000120	1.201794	0.407179	-0.000058
1054	5.2650e+01	18.9476	19.195610	0.000129	1.286427	0.435853	-0.000062
1055	5.2700e+01	18.9556	19.163838	-0.000132	-1.320280	-0.447323	-0.000064
1056	5.2750e+01	18.8979	19.135731	0.000117	1.167940	0.395709	-0.000056
1057	5.2800e+01	18.8898	19.110476	0.000105	1.049454	0.355564	-0.000051
1058	5.2850e+01	18.8898	19.088072	0.000093	0.930967	0.315420	-0.000045
1059	5.2900e+01	18.8481	19.063631	0.000102	1.015600	0.344095	-0.000049
1060	5.2950e+01	18.8385	19.037154	0.000110	1.100234	0.372769	-0.000053
1061	5.3000e+01	18.8160	19.010270	0.000112	1.117160	0.378504	-0.000054
1062	5.3050e+01	18.8193	18.984200	-0.000108	-1.083307	-0.367034	-0.000052
1063	5.3100e+01	18.7695	18.957722	0.000110	1.100234	0.372769	-0.000053
1064	5.3150e+01	18.7663	18.930023	0.000115	1.151014	0.389974	-0.000055
1065	5.3200e+01	18.7406	18.905582	0.000102	1.015600	0.344095	-0.000049
1066	5.3250e+01	18.6893	18.879105	0.000110	1.100234	0.372769	-0.000053
1067	5.3300e+01	18.6765	18.848147	0.000129	1.286427	0.435853	-0.000062
1068	5.3350e+01	18.6877	18.811486	-0.000152	-1.523400	-0.516142	-0.000073
1069	5.3400e+01	18.6588	18.786638	0.000103	1.032527	0.349830	-0.000050
1070	5.3450e+01	18.6476	18.755273	0.000130	1.303354	0.441588	-0.000063
1071	5.3500e+01	18.6251	18.729611	0.000107	1.066380	0.361299	-0.000051
1072	5.3550e+01	18.6123	18.703948	0.000107	1.066380	0.361299	-0.000051
1073	5.3600e+01	18.5995	18.677471	0.000110	1.100234	0.372769	-0.000053
1074	5.3650e+01	18.5417	18.648549	0.000120	1.201794	0.407179	-0.000058
1075	5.3700e+01	18.5530	18.620443	-0.000117	-1.167940	-0.395709	-0.000056
1076	5.3750e+01	18.5321	18.595595	0.000103	1.032527	0.349830	-0.000050
1077	5.3800e+01	18.4984	18.575228	0.000085	0.846334	0.286746	-0.000041
1078	5.3850e+01	18.4711	18.550380	0.000103	1.032527	0.349830	-0.000050
1079	5.3900e+01	18.4503	18.520236	0.000125	1.252574	0.424383	-0.000060
1080	5.3950e+01	18.4214	18.498647	0.000090	0.897114	0.303950	-0.000043
1081	5.4000e+01	18.4118	18.466875	0.000132	1.320280	0.447323	-0.000064
1082	5.4050e+01	18.3797	18.442027	0.000103	1.032527	0.349830	-0.000050
1083	5.4100e+01	18.3797	18.421660	0.000085	0.846334	0.286746	-0.000041
1084	5.4150e+01	18.3364	18.392738	0.000120	1.201794	0.407179	-0.000058
1085	5.4200e+01	18.3492	18.363817	-0.000120	-1.201794	-0.407179	-0.000058
1086	5.4250e+01	18.3059	18.340191	0.000098	0.981747	0.332625	-0.000047
1087	5.4300e+01	18.3075	18.313306	-0.000112	-1.117160	-0.378504	-0.000054
1088	5.4350e+01	18.2514	18.288866	0.000102	1.015600	0.344095	-0.000049
1089	5.4400e+01	18.2786	18.257501	-0.000130	-1.303354	-0.441588	-0.000063
1090	5.4450e+01	18.2465	18.231838	0.000107	1.066380	0.361299	-0.000051
1091	5.4500e+01	18.2257	18.199251	0.000135	1.354134	0.458793	-0.000065
1092	5.4550e+01	18.2032	18.175625	0.000098	0.981747	0.332625	-0.000047
1093	5.4600e+01	18.1727	18.148333	0.000113	1.134087	0.384239	-0.000055
1094	5.4650e+01	18.1760	18.116153	-0.000134	-1.337207	-0.453058	-0.000064
1095	5.4700e+01	18.1439	18.090083	0.000108	1.083307	0.367034	-0.000052
1096	5.4750e+01	18.1310	18.062791	0.000113	1.134087	0.384239	-0.000055
1097	5.4800e+01	18.0974	18.033055	0.000124	1.235647	0.418649	-0.000059
1098	5.4850e+01	18.0701	18.000060	0.000137	1.371060	0.464528	-0.000066
1099	5.4900e+01	18.0653	17.976027	0.000100	0.998674	0.338360	-0.000048
1100	5.4950e+01	18.0460	17.944254	0.000132	1.320280	0.447323	-0.000064
1101	5.5000e+01	18.0075	17.917369	0.000112	1.117160	0.378504	-0.000054
1102	5.5050e+01	18.0316	17.890485	-0.000112	-1.117160	-0.378504	-0.000054
1103	5.5100e+01	18.0011	17.861156	0.000122	1.218720	0.412914	-0.000059
1104	5.5150e+01	17.9498	17.830606	0.000127	1.269500	0.430118	-0.000061
1105	5.5200e+01	17.9449	17.804536	0.000108	1.083307	0.367034	-0.000052
1106	5.5250e+01	17.9241	17.778058	0.000110	1.100234	0.372769	-0.000053
1107	5.5300e+01	17.9129	17.755654	0.000093	0.930967	0.315420	-0.000045
1108	5.5350e+01	17.9016	17.727548	0.000117	1.167940	0.395709	-0.000056
1109	5.5400e+01	17.8615	17.704737	0.000095	0.947894	0.321155	-0.000046
1110	5.5450e+01	17.8567	17.675408	0.000122	1.218720	0.412914	-0.000059
1111	5.5500e+01	17.8166	17.651375	0.000100	0.998674	0.338360	-0.000048
1112	5.5550e+01	17.7925	17.622453	0.000120	1.201794	0.407179	-0.000058
1113	5.5600e+01	17.7605	17.601272	0.000088	0.880187	0.298215	-0.000042
1114	5.5650e+01	17.7540	17.575609	0.000107	1.066380	0.361299	-0.000051
1115	5.5700e+01	17.7204	17.550354	0.000105	1.049454	0.355564	-0.000051
1116	5.5750e+01	17.7621	17.523062	-0.000113	-1.134087	-0.384239	-0.000055
1117	5.5800e+01	17.7011	17.497807	0.000105	1.049454	0.355564	-0.000051
1118	5.5850e+01	17.6770	17.474181	0.000098	0.981747	0.332625	-0.000047
1119	5.5900e+01	17.6514	17.447296	0.000112	1.117160	0.378504	-0.000054
1120	5.5950e+01	17.6273	17.418375	0.000120	1.201794	0.407179	-0.000058
1121	5.6000e+01	17.6369	17.391490	-0.000112	-1.117160	-0.378504	-0.000054
1122	5.6050e+01	17.5968	17.353607	0.000157	1.574180	0.533347	-0.000076
1123	5.6100e+01	17.5712	17.327130	0.000110	1.100234	0.372769	-0.000053
1124	5.6150e+01	17.5455	17.293728	0.000139	1.387987	0.470263	-0.000067
1125	5.6200e+01	17.5391	17.261141	0.000135	1.354134	0.458793	-0.000065
1126	5.6250e+01	17.5262	17.235885	0.000105	1.049454	0.355564	-0.000051
1127	5.6300e+01	17.5150	17.207779	0.000117	1.167940	0.395709	-0.000056
1128	5.6350e+01	17.4476	17.177635	0.000125	1.252574	0.424383	-0.000060
1129	5.6400e+01	17.4701	17.141789	-0.000149	-1.489547	-0.504672	-0.000072
1130	5.6450e+01	17.4188	17.112053	0.000124	1.235647	0.418649	-0.000059
1131	5.6500e+01	17.4172	17.082725	0.000122	1.218720	0.412914	-0.000059
1132	5.6550e+01	17.4139	17.061543	0.000088	0.880187	0.298215	-0.000042
1133	5.6600e+01	17.3851	17.031399	0.000125	1.252574	0.424383	-0.000060
1134	5.6650e+01	17.3674	17.010625	0.000086	0.863260	0.292480	-0.000042
1135	5.6700e+01	17.3305	16.976816	0.000140	1.404914	0.475998	-0.000068
1136	5.6750e+01	17.3033	16.951153	0.000107	1.066380	0.361299	-0.000051
1137	5.6800e+01	17.2936	16.916121	0.000146	1.455694	0.493202	-0.000070
1138	5.6850e+01	17.2583	16.890052	0.000108	1.083307	0.367034	-0.000052
1139	5.6900e+01	17.2439	16.854205	0.000149	1.489547	0.504672	-0.000072
1140	5.6950e+01	17.2583	16.828135	-0.000108	-1.083307	-0.367034	-0.000052
1141	5.7000e+01	17.2311	16.795548	0.000135	1.354134	0.458793	-0.000065
1142	5.7050e+01	17.1910	16.771515	0.000100	0.998674	0.338360	-0.000048
1143	5.7100e+01	17.1829	16.738520	0.000137	1.371060	0.464528	-0.000066
1144	5.7150e+01	17.1717	16.709599	0.000120	1.201794	0.407179	-0.000058
1145	5.7200e+01	17.1332	16.674975	0.000144	1.438767	0.487467	-0.000069
1146	5.7250e+01	17.1252	16.647275	0.000115	1.151014	0.389974	-0.000055
1147	5.7300e+01	17.1075	16.617539	0.000124	1.235647	0.418649	-0.000059
1148	5.7350e+01	17.0771	16.594728	0.000095	0.947894	0.321155	-0.000046
1149	5.7400e+01	17.0370	16.566214	0.000118	1.184867	0.401444	-0.000057
1150	5.7450e+01	17.0289	16.535256	0.000129	1.286427	0.435853	-0.000062
1151	5.7500e+01	17.0386	16.502669	-0.000135	-1.354134	-0.458793	-0.000065
1152	5.7550e+01	16.9744	16.478228	0.000102	1.015600	0.344095	-0.000049
1153	5.7600e+01	16.9535	16.452973	0.000105	1.049454	0.355564	-0.000051
1154	5.7650e+01	16.9551	16.426088	-0.000112	-1.117160	-0.378504	-0.000054
1155	5.7700e+01	16.9407	16.393908	0.000134	1.337207	0.453058	-0.000064
1156	5.7750e+01	16.9054	16.369060	0.000103	1.032527	0.349830	-0.000050
1157	5.7800e+01	16.8878	16.332400	0.000152	1.523400	0.516142	-0.000073
1158	5.7850e+01	16.8862	16.303886	0.000118	1.184867	0.401444	-0.000057
1159	5.7900e+01	16.8573	16.268447	0.000147	1.472620	0.498937	-0.000071
1160	5.7950e+01	16.8156	16.252560	0.000066	0.660140	0.223662	-0.000032
1161	5.8000e+01	16.8156	16.219973	0.000135	1.354134	0.458793	-0.000065
1162	5.8050e+01	16.7899	16.196347	0.000098	0.981747	0.332625	-0.000047
1163	5.8100e+01	16.7803	16.165389	0.000129	1.286427	0.435853	-0.000062
1164	5.8150e+01	16.7273	16.134024	0.000130	1.303354	0.441588	-0.000063
1165	5.8200e+01	16.7338	16.107547	-0.000110	-1.100234	-0.372769	-0.000053
1166	5.8250e+01	16.7321	16.077811	0.000124	1.235647	0.418649	-0.000059
1167	5.8300e+01	16.7209	16.052148	0.000107	1.066380	0.361299	-0.000051
1168	5.8350e+01	16.6744	16.016302	0.000149	1.489547	0.504672	-0.000072
1169	5.8400e+01	16.6744	15.990639	0.000107	1.066380	0.361299	-0.000051
1170	5.8450e+01	16.6439	15.962125	0.000118	1.184867	0.401444	-0.000057
1171	5.8500e+01	16.6295	15.934426	0.000115	1.151014	0.389974	-0.000055
1172	5.8550e+01	16.5765	15.898172	0.000151	1.506474	0.510407	-0.000073
1173	5.8600e+01	16.5830	15.864770	-0.000139	-1.387987	-0.470263	-0.000067
1174	5.8650e+01	16.5669	15.832590	0.000134	1.337207	0.453058	-0.000064
1175	5.8700e+01	16.5509	15.802040	0.000127	1.269500	0.430118	-0.000061
1176	5.8750e+01	16.5140	15.767415	0.000144	1.438767	0.487467	-0.000069
1177	5.8800e+01	16.5043	15.740938	0.000110	1.100234	0.372769	-0.000053
1178	5.8850e+01	16.4739	15.707536	0.000139	1.387987	0.470263	-0.000067
1179	5.8900e+01	16.4707	15.676171	0.000130	1.303354	0.441588	-0.000063
1180	5.8950e+01	16.4193	15.650101	0.000108	1.083307	0.367034	-0.000052
1181	5.9000e+01	16.4257	15.619550	-0.000127	-1.269500	-0.430118	-0.000061
1182	5.9050e+01	16.4177	15.593073	0.000110	1.100234	0.372769	-0.000053
1183	5.9100e+01	16.3872	15.559671	0.000139	1.387987	0.470263	-0.000067
1184	5.9150e+01	16.3808	15.527491	0.000134	1.337207	0.453058	-0.000064
1185	5.9200e+01	16.3199	15.498162	0.000122	1.218720	0.412914	-0.000059
1186	5.9250e+01	16.3391	15.467611	-0.000127	-1.269500	-0.430118	-0.000061
1187	5.9300e+01	16.2846	15.440727	0.000112	1.117160	0.378504	-0.000054
1188	5.9350e+01	16.3070	15.408954	-0.000132	-1.320280	-0.447323	-0.000064
1189	5.9400e+01	16.2846	15.381662	0.000113	1.134087	0.384239	-0.000055
1190	5.9450e+01	16.2300	15.348667	0.000137	1.371060	0.464528	-0.000066
1191	5.9500e+01	16.2092	15.315673	0.000137	1.371060	0.464528	-0.000066
1192	5.9550e+01	16.2011	15.283493	0.000134	1.337207	0.453058	-0.000064
1193	5.9600e+01	16.1691	15.257423	0.000108	1.083307	0.367034	-0.000052
1194	5.9650e+01	16.1129	15.230131	0.000113	1.134087	0.384239	-0.000055
1195	5.9700e+01	16.1498	15.194692	-0.000147	-1.472620	-0.498937	-0.000071
1196	5.9750e+01	16.1129	15.169437	0.000105	1.049454	0.355564	-0.000051
1197	5.9800e+01	16.1033	15.136849	0.000135	1.354134	0.458793	-0.000065
1198	5.9850e+01	16.0889	15.109965	0.000112	1.117160	0.378504	-0.000054
1199	5.9900e+01	16.0552	15.077785	0.000134	1.337207	0.453058	-0.000064
1200	5.9950e+01	16.0231	15.050900	0.000112	1.117160	0.378504	-0.000054
1201	6.0000e+01	16.0102	15.015868	0.000146	1.455694	0.493202	-0.000070
1202	6.0050e+01	15.9750	14.987762	0.000117	1.167940	0.395709	-0.000056
1203	6.0100e+01	15.9589	14.957211	0.000127	1.269500	0.430118	-0.000061
1204	6.0150e+01	15.9461	14.931956	0.000105	1.049454	0.355564	-0.000051
1205	6.0200e+01	15.9268	14.900591	0.000130	1.303354	0.441588	-0.000063
1206	6.0250e+01	15.9012	14.875743	0.000103	1.032527	0.349830	-0.000050
1207	6.0300e+01	15.8931	14.844377	0.000130	1.303354	0.441588	-0.000063
1208	6.0350e+01	15.8466	14.814234	0.000125	1.252574	0.424383	-0.000060
1209	6.0400e+01	15.8562	14.780832	-0.000139	-1.387987	-0.470263	-0.000067
1210	6.0450e+01	15.8482	14.755169	0.000107	1.066380	0.361299	-0.000051
1211	6.0500e+01	15.8209	14.719730	0.000147	1.472620	0.498937	-0.000071
1212	6.0550e+01	15.7905	14.693253	0.000110	1.100234	0.372769	-0.000053
1213	6.0600e+01	15.7712	14.665961	0.000113	1.134087	0.384239	-0.000055
1214	6.0650e+01	15.7552	14.638262	0.000115	1.151014	0.389974	-0.000055
1215	6.0700e+01	15.7375	14.608526	0.000124	1.235647	0.418649	-0.000059
1216	6.0750e+01	15.7070	14.578383	0.000125	1.252574	0.424383	-0.000060
1217	6.0800e+01	15.6701	14.542536	0.000149	1.489547	0.504672	-0.000072
1218	6.0850e+01	15.6750	14.518096	-0.000102	-1.015600	-0.344095	-0.000049
1219	6.0900e+01	15.6573	14.488767	0.000122	1.218720	0.412914	-0.000059
1220	6.0950e+01	15.6204	14.455772	0.000137	1.371060	0.464528	-0.000066
1221	6.1000e+01	15.6349	14.419112	-0.000152	-1.523400	-0.516142	-0.000073
1222	6.1050e+01	15.5964	14.387339	0.000132	1.320280	0.447323	-0.000064
1223	6.1100e+01	15.5851	14.351085	0.000151	1.506474	0.510407	-0.000073
1224	6.1150e+01	15.5578	14.322979	0.000117	1.167940	0.395709	-0.000056
1225	6.1200e+01	15.5402	14.296094	0.000112	1.117160	0.378504	-0.000054
1226	6.1250e+01	15.5226	14.265543	0.000127	1.269500	0.430118	-0.000061
1227	6.1300e+01	15.5033	14.226031	0.000164	1.641887	0.556286	-0.000079
1228	6.1350e+01	15.4808	14.198332	0.000115	1.151014	0.389974	-0.000055
1229	6.1400e+01	15.4680	14.169003	0.000122	1.218720	0.412914	-0.000059
1230	6.1450e+01	15.4311	14.139675	0.000122	1.218720	0.412914	-0.000059
1231	6.1500e+01	15.4472	14.102199	-0.000156	-1.557254	-0.527612	-0.000075
1232	6.1550e+01	15.3958	14.072056	0.000125	1.252574	0.424383	-0.000060
1233	6.1600e+01	15.3766	14.039876	0.000134	1.337207	0.453058	-0.000064
1234	6.1650e+01	15.3413	14.006881	0.000137	1.371060	0.464528	-0.000066
1235	6.1700e+01	15.3317	13.976330	0.000127	1.269500	0.430118	-0.000061
1236	6.1750e+01	15.3284	13.948631	0.000115	1.151014	0.389974	-0.000055
1237	6.1800e+01	15.2948	13.908711	0.000166	1.658814	0.562021	-0.000080
1238	6.1850e+01	15.2948	13.881012	0.000115	1.151014	0.389974	-0.000055
1239	6.1900e+01	15.2498	13.844759	0.000151	1.506474	0.510407	-0.000073
1240	6.1950e+01	15.2579	13.813801	-0.000129	-1.286427	-0.435853	-0.000062
1241	6.2000e+01	15.2161	13.782028	0.000132	1.320280	0.447323	-0.000064
1242	6.2050e+01	15.1793	13.752699	0.000122	1.218720	0.412914	-0.000059
1243	6.2100e+01	15.1568	13.720927	0.000132	1.320280	0.447323	-0.000064
1244	6.2150e+01	15.1407	13.687932	0.000137	1.371060	0.464528	-0.000066
1245	6.2200e+01	15.1167	13.658603	0.000122	1.218720	0.412914	-0.000059
1246	6.2250e+01	15.1103	13.628867	0.000124	1.235647	0.418649	-0.000059
1247	6.2300e+01	15.0990	13.599946	0.000120	1.201794	0.407179	-0.000058
1248	6.2350e+01	15.0557	13.564100	0.000149	1.489547	0.504672	-0.000072
1249	6.2400e+01	15.0445	13.529476	0.000144	1.438767	0.487467	-0.000069
1250	6.2450e+01	15.0461	13.502591	-0.000112	-1.117160	-0.378504	-0.000054
1251	6.2500e+01	15.0108	13.468781	0.000140	1.404914	0.475998	-0.000068
1252	6.2550e+01	15.0301	13.441490	-0.000113	-1.134087	-0.384239	-0.000055
1253	6.2600e+01	14.9851	13.408087	0.000139	1.387987	0.470263	-0.000067
1254	6.2650e+01	14.9514	13.378351	0.000124	1.235647	0.418649	-0.000059
1255	6.2700e+01	14.9386	13.346171	0.000134	1.337207	0.453058	-0.000064
1256	6.2750e+01	14.9017	13.316028	0.000125	1.252574	0.424383	-0.000060
1257	6.2800e+01	14.8873	13.275701	0.000168	1.675740	0.567756	-0.000081
1258	6.2850e+01	14.8937	13.242706	-0.000137	-1.371060	-0.464528	-0.000066
1259	6.2900e+01	14.8632	13.204009	0.000161	1.608034	0.544817	-0.000077
1260	6.2950e+01	14.8456	13.171014	0.000137	1.371060	0.464528	-0.000066
1261	6.3000e+01	14.8183	13.140463	0.000127	1.269500	0.430118	-0.000061
1262	6.3050e+01	14.8135	13.109505	0.000129	1.286427	0.435853	-0.000062
1263	6.3100e+01	14.7798	13.074881	0.000144	1.438767	0.487467	-0.000069
1264	6.3150e+01	14.7349	13.040664	0.000142	1.421840	0.481733	-0.000068
1265	6.3200e+01	14.7557	13.005633	-0.000146	-1.455694	-0.493202	-0.000070
1266	6.3250e+01	14.7156	12.972638	0.000137	1.371060	0.464528	-0.000066
1267	6.3300e+01	14.6964	12.938421	0.000142	1.421840	0.481733	-0.000068
1268	6.3350e+01	14.6675	12.901761	0.000152	1.523400	0.516142	-0.000073
1269	6.3400e+01	14.6531	12.872432	0.000122	1.218720	0.412914	-0.000059
1270	6.3450e+01	14.6579	12.842289	-0.000125	-1.252574	-0.424383	-0.000060
1271	6.3500e+01	14.6178	12.810923	0.000130	1.303354	0.441588	-0.000063
1272	6.3550e+01	14.5969	12.769782	0.000171	1.709594	0.579226	-0.000082
1273	6.3600e+01	14.5729	12.738009	0.000132	1.320280	0.447323	-0.000064
1274	6.3650e+01	14.5664	12.707458	0.000127	1.269500	0.430118	-0.000061
1275	6.3700e+01	14.5536	12.676500	0.000129	1.286427	0.435853	-0.000062
1276	6.3750e+01	14.5151	12.641876	0.000144	1.438767	0.487467	-0.000069
1277	6.3800e+01	14.4862	12.604401	0.000156	1.557254	0.527612	-0.000075
1278	6.3850e+01	14.4798	12.571813	0.000135	1.354134	0.458793	-0.000065
1279	6.3900e+01	14.4541	12.531079	0.000169	1.692667	0.573491	-0.000081
1280	6.3950e+01	14.4349	12.506638	0.000102	1.015600	0.344095	-0.000049
1281	6.4000e+01	14.4221	12.469978	0.000152	1.523400	0.516142	-0.000073
1282	6.4050e+01	14.3980	12.438612	0.000130	1.303354	0.441588	-0.000063
1283	6.4100e+01	14.3771	12.401951	0.000152	1.523400	0.516142	-0.000073
1284	6.4150e+01	14.3723	12.369364	0.000135	1.354134	0.458793	-0.000065
1285	6.4200e+01	14.3402	12.337591	0.000132	1.320280	0.447323	-0.000064
1286	6.4250e+01	14.3338	12.304189	0.000139	1.387987	0.470263	-0.000067
1287	6.4300e+01	14.2985	12.267121	0.000154	1.540327	0.521877	-0.000074
1288	6.4350e+01	14.2809	12.229645	0.000156	1.557254	0.527612	-0.000075
1289	6.4400e+01	14.2793	12.189726	0.000166	1.658814	0.562021	-0.000080
1290	6.4450e+01	14.2648	12.159583	0.000125	1.252574	0.424383	-0.000060
1291	6.4500e+01	14.2311	12.126995	0.000135	1.354134	0.458793	-0.000065
1292	6.4550e+01	14.2055	12.095630	0.000130	1.303354	0.441588	-0.000063
1293	6.4600e+01	14.1574	12.059376	0.000151	1.506474	0.510407	-0.000073
1294	6.4650e+01	14.1590	12.028011	-0.000130	-1.303354	-0.441588	-0.000063
1295	6.4700e+01	14.1381	11.991757	0.000151	1.506474	0.510407	-0.000073
1296	6.4750e+01	14.1349	11.955911	0.000149	1.489547	0.504672	-0.000072
1297	6.4800e+01	14.0900	11.920880	0.000146	1.455694	0.493202	-0.000070
1298	6.4850e+01	14.0515	11.885034	0.000149	1.489547	0.504672	-0.000072
1299	6.4900e+01	14.0338	11.851224	0.000140	1.404914	0.475998	-0.000068
1300	6.4950e+01	14.0483	11.819451	-0.000132	-1.320280	-0.447323	-0.000064
1301	6.5000e+01	14.0162	11.784827	0.000144	1.438767	0.487467	-0.000069
1302	6.5050e+01	14.0050	11.754277	0.000127	1.269500	0.430118	-0.000061
1303	6.5100e+01	13.9873	11.716801	0.000156	1.557254	0.527612	-0.000075
1304	6.5150e+01	13.9632	11.689102	0.000115	1.151014	0.389974	-0.000055
1305	6.5200e+01	13.9376	11.645109	0.000183	1.828080	0.619370	-0.000088
1306	6.5250e+01	13.9424	11.609670	-0.000147	-1.472620	-0.498937	-0.000071
1307	6.5300e+01	13.8670	11.573009	0.000152	1.523400	0.516142	-0.000073
1308	6.5350e+01	13.8558	11.543273	0.000124	1.235647	0.418649	-0.000059
1309	6.5400e+01	13.8670	11.509871	-0.000139	-1.387987	-0.470263	-0.000067
1310	6.5450e+01	13.8253	11.472396	0.000156	1.557254	0.527612	-0.000075
1311	6.5500e+01	13.8157	11.434920	0.000156	1.557254	0.527612	-0.000075
1312	6.5550e+01	13.7900	11.405591	0.000122	1.218720	0.412914	-0.000059
1313	6.5600e+01	13.7707	11.366079	0.000164	1.641887	0.556286	-0.000079
1314	6.5650e+01	13.7579	11.331455	0.000144	1.438767	0.487467	-0.000069
1315	6.5700e+01	13.7306	11.298460	0.000137	1.371060	0.464528	-0.000066
1316	6.5750e+01	13.6905	11.263022	0.000147	1.472620	0.498937	-0.000071
1317	6.5800e+01	13.7226	11.228805	-0.000142	-1.421840	-0.481733	-0.000068
1318	6.5850e+01	13.6697	11.201920	0.000112	1.117160	0.378504	-0.000054
1319	6.5900e+01	13.6520	11.168111	0.000140	1.404914	0.475998	-0.000068
1320	6.5950e+01	13.6488	11.135523	0.000135	1.354134	0.458793	-0.000065
1321	6.6000e+01	13.6055	11.099270	0.000151	1.506474	0.510407	-0.000073
1322	6.6050e+01	13.6247	11.061387	-0.000157	-1.574180	-0.533347	-0.000076
1323	6.6100e+01	13.5750	11.031244	0.000125	1.252574	0.424383	-0.000060
1324	6.6150e+01	13.5734	10.998249	0.000137	1.371060	0.464528	-0.000066
1325	6.6200e+01	13.5558	10.967698	0.000127	1.269500	0.430118	-0.000061
1326	6.6250e+01	13.5317	10.933074	0.000144	1.438767	0.487467	-0.000069
1327	6.6300e+01	13.4916	10.900487	0.000135	1.354134	0.458793	-0.000065
1328	6.6350e+01	13.4852	10.869529	0.000129	1.286427	0.435853	-0.000062
1329	6.6400e+01	13.4579	10.833682	0.000149	1.489547	0.504672	-0.000072
1330	6.6450e+01	13.4515	10.807205	0.000110	1.100234	0.372769	-0.000053
1331	6.6500e+01	13.4130	10.774210	0.000137	1.371060	0.464528	-0.000066
1332	6.6550e+01	13.3986	10.747326	0.000112	1.117160	0.378504	-0.000054
1333	6.6600e+01	13.3761	10.714331	0.000137	1.371060	0.464528	-0.000066
1334	6.6650e+01	13.3568	10.684595	0.000124	1.235647	0.418649	-0.000059
1335	6.6700e+01	13.3039	10.652008	0.000135	1.354134	0.458793	-0.000065
1336	6.6750e+01	13.3039	10.618198	0.000140	1.404914	0.475998	-0.000068
1337	6.6800e+01	13.2734	10.580315	0.000157	1.574180	0.533347	-0.000076
1338	6.6850e+01	13.2879	10.545691	-0.000144	-1.438767	-0.487467	-0.000069
1339	6.6900e+01	13.2590	10.509438	0.000151	1.506474	0.510407	-0.000073
1340	6.6950e+01	13.2397	10.484590	0.000103	1.032527	0.349830	-0.000050
1341	6.7000e+01	13.2253	10.449558	0.000146	1.455694	0.493202	-0.000070
1342	6.7050e+01	13.1804	10.416971	0.000135	1.354134	0.458793	-0.000065
1343	6.7100e+01	13.1708	10.380718	0.000151	1.506474	0.510407	-0.000073
1344	6.7150e+01	13.1547	10.343649	0.000154	1.540327	0.521877	-0.000074
1345	6.7200e+01	13.1371	10.315543	0.000117	1.167940	0.395709	-0.000056
1346	6.7250e+01	13.1178	10.278067	0.000156	1.557254	0.527612	-0.000075
1347	6.7300e+01	13.0761	10.241406	0.000152	1.523400	0.516142	-0.000073
1348	6.7350e+01	13.0569	10.205153	0.000151	1.506474	0.510407	-0.000073
1349	6.7400e+01	13.0472	10.177454	0.000115	1.151014	0.389974	-0.000055
1350	6.7450e+01	13.0440	10.142422	0.000146	1.455694	0.493202	-0.000070
1351	6.7500e+01	13.0183	10.105354	0.000154	1.540327	0.521877	-0.000074
1352	6.7550e+01	12.9879	10.070323	0.000146	1.455694	0.493202	-0.000070
1353	6.7600e+01	12.9927	10.033254	-0.000154	-1.540327	-0.521877	-0.000074
1354	6.7650e+01	12.9702	9.999852	0.000139	1.387987	0.470263	-0.000067
1355	6.7700e+01	12.9253	9.966043	0.000140	1.404914	0.475998	-0.000068
1356	6.7750e+01	12.8996	9.929382	0.000152	1.523400	0.516142	-0.000073
1357	6.7800e+01	12.8900	9.897609	0.000132	1.320280	0.447323	-0.000064
1358	6.7850e+01	12.8868	9.860948	0.000152	1.523400	0.516142	-0.000073
1359	6.7900e+01	12.8467	9.823473	0.000156	1.557254	0.527612	-0.000075
1360	6.7950e+01	12.8226	9.789256	0.000142	1.421840	0.481733	-0.000068
1361	6.8000e+01	12.8210	9.759520	0.000124	1.235647	0.418649	-0.000059
1362	6.8050e+01	12.8018	9.724081	0.000147	1.472620	0.498937	-0.000071
1363	6.8100e+01	12.7697	9.686199	0.000157	1.574180	0.533347	-0.000076
1364	6.8150e+01	12.7569	9.652796	0.000139	1.387987	0.470263	-0.000067
1365	6.8200e+01	12.7665	9.618172	-0.000144	-1.438767	-0.487467	-0.000069
1366	6.8250e+01	12.7168	9.581511	0.000152	1.523400	0.516142	-0.000073
1367	6.8300e+01	12.6927	9.548109	0.000139	1.387987	0.470263	-0.000067
1368	6.8350e+01	12.6799	9.510634	0.000156	1.557254	0.527612	-0.000075
1369	6.8400e+01	12.6606	9.480083	0.000127	1.269500	0.430118	-0.000061
1370	6.8450e+01	12.6157	9.440978	0.000162	1.624960	0.550551	-0.000078
1371	6.8500e+01	12.6093	9.411242	0.000124	1.235647	0.418649	-0.000059
1372	6.8550e+01	12.5996	9.376618	0.000144	1.438767	0.487467	-0.000069
1373	6.8600e+01	12.5708	9.341587	0.000146	1.455694	0.493202	-0.000070
1374	6.8650e+01	12.5403	9.310629	0.000129	1.286427	0.435853	-0.000062
1375	6.8700e+01	12.5339	9.271524	0.000162	1.624960	0.550551	-0.000078
1376	6.8750e+01	12.5258	9.232419	0.000162	1.624960	0.550551	-0.000078
1377	6.8800e+01	12.5018	9.199424	0.000137	1.371060	0.464528	-0.000066
1378	6.8850e+01	12.4873	9.166837	0.000135	1.354134	0.458793	-0.000065
1379	6.8900e+01	12.4713	9.130176	0.000152	1.523400	0.516142	-0.000073
1380	6.8950e+01	12.4200	9.095144	0.000146	1.455694	0.493202	-0.000070
1381	6.9000e+01	12.4055	9.060113	0.000146	1.455694	0.493202	-0.000070
1382	6.9050e+01	12.4119	9.025896	-0.000142	-1.421840	-0.481733	-0.000068
1383	6.9100e+01	12.3638	8.993309	0.000135	1.354134	0.458793	-0.000065
1384	6.9150e+01	12.3654	8.956648	-0.000152	-1.523400	-0.516142	-0.000073
1385	6.9200e+01	12.3157	8.920802	0.000149	1.489547	0.504672	-0.000072
1386	6.9250e+01	12.3333	8.886178	-0.000144	-1.438767	-0.487467	-0.000069
1387	6.9300e+01	12.3013	8.845036	0.000171	1.709594	0.579226	-0.000082
1388	6.9350e+01	12.2563	8.814078	0.000129	1.286427	0.435853	-0.000062
1389	6.9400e+01	12.2772	8.771307	-0.000178	-1.777300	-0.602166	-0.000086
1390	6.9450e+01	12.2387	8.733424	0.000157	1.574180	0.533347	-0.000076
1391	6.9500e+01	12.2291	8.699208	0.000142	1.421840	0.481733	-0.000068
1392	6.9550e+01	12.1954	8.668657	0.000127	1.269500	0.430118	-0.000061
1393	6.9600e+01	12.1745	8.631996	0.000152	1.523400	0.516142	-0.000073
1394	6.9650e+01	12.1601	8.592891	0.000162	1.624960	0.550551	-0.000078
1395	6.9700e+01	12.1553	8.560711	0.000134	1.337207	0.453058	-0.000064
1396	6.9750e+01	12.1023	8.524050	0.000152	1.523400	0.516142	-0.000073
1397	6.9800e+01	12.1264	8.491055	-0.000137	-1.371060	-0.464528	-0.000066
1398	6.9850e+01	12.0735	8.462949	0.000117	1.167940	0.395709	-0.000056
1399	6.9900e+01	12.0301	8.432398	0.000127	1.269500	0.430118	-0.000061
1400	6.9950e+01	12.0157	8.394515	0.000157	1.574180	0.533347	-0.000076
1401	7.0000e+01	12.0221	8.356632	-0.000157	-1.574180	-0.533347	-0.000076
1402	7.0050e+01	11.9916	8.323638	0.000137	1.371060	0.464528	-0.000066
1403	7.0100e+01	11.9804	8.293087	0.000127	1.269500	0.430118	-0.000061
1404	7.0150e+01	11.9563	8.259278	0.000140	1.404914	0.475998	-0.000068
1405	7.0200e+01	11.9467	8.231986	0.000113	1.134087	0.384239	-0.000055
1406	7.0250e+01	11.9291	8.201842	0.000125	1.252574	0.424383	-0.000060
1407	7.0300e+01	11.8745	8.170070	0.000132	1.320280	0.447323	-0.000064
1408	7.0350e+01	11.8761	8.136667	-0.000139	-1.387987	-0.470263	-0.000067
1409	7.0400e+01	11.8633	8.096341	0.000168	1.675740	0.567756	-0.000081
1410	7.0450e+01	11.8441	8.065383	0.000129	1.286427	0.435853	-0.000062
1411	7.0500e+01	11.8312	8.027907	0.000156	1.557254	0.527612	-0.000075
1412	7.0550e+01	11.8072	7.998171	0.000124	1.235647	0.418649	-0.000059
1413	7.0600e+01	11.7767	7.957029	0.000171	1.709594	0.579226	-0.000082
1414	7.0650e+01	11.7654	7.927293	0.000124	1.235647	0.418649	-0.000059
1415	7.0700e+01	11.7318	7.892262	0.000146	1.455694	0.493202	-0.000070
1416	7.0750e+01	11.7013	7.853972	0.000159	1.591107	0.539082	-0.000077
1417	7.0800e+01	11.7061	7.821384	-0.000135	-1.354134	-0.458793	-0.000065
1418	7.0850e+01	11.6724	7.788390	0.000137	1.371060	0.464528	-0.000066
1419	7.0900e+01	11.6820	7.752951	-0.000147	-1.472620	-0.498937	-0.000071
1420	7.0950e+01	11.6435	7.711809	0.000171	1.709594	0.579226	-0.000082
1421	7.1000e+01	11.6130	7.680444	0.000130	1.303354	0.441588	-0.000063
1422	7.1050e+01	11.5826	7.650708	0.000124	1.235647	0.418649	-0.000059
1423	7.1100e+01	11.5986	7.615269	-0.000147	-1.472620	-0.498937	-0.000071
1424	7.1150e+01	11.5858	7.579016	0.000151	1.506474	0.510407	-0.000073
1425	7.1200e+01	11.5409	7.543169	0.000149	1.489547	0.504672	-0.000072
1426	7.1250e+01	11.5152	7.510175	0.000137	1.371060	0.464528	-0.000066
1427	7.1300e+01	11.4927	7.479624	0.000127	1.269500	0.430118	-0.000061
1428	7.1350e+01	11.4606	7.444592	0.000146	1.455694	0.493202	-0.000070
1429	7.1400e+01	11.4606	7.406710	0.000157	1.574180	0.533347	-0.000076
1430	7.1450e+01	11.4125	7.373308	0.000139	1.387987	0.470263	-0.000067
1431	7.1500e+01	11.4270	7.331759	-0.000173	-1.726520	-0.584961	-0.000083
1432	7.1550e+01	11.4334	7.299579	-0.000134	-1.337207	-0.453058	-0.000064
1433	7.1600e+01	11.4205	7.260066	0.000164	1.641887	0.556286	-0.000079
1434	7.1650e+01	11.3724	7.226664	0.000139	1.387987	0.470263	-0.000067
1435	7.1700e+01	11.3435	7.192040	0.000144	1.438767	0.487467	-0.000069
1436	7.1750e+01	11.2938	7.159453	0.000135	1.354134	0.458793	-0.000065
1437	7.1800e+01	11.3211	7.122385	-0.000154	-1.540327	-0.521877	-0.000074
1438	7.1850e+01	11.2585	7.086131	0.000151	1.506474	0.510407	-0.000073
1439	7.1900e+01	11.2377	7.047433	0.000161	1.608034	0.544817	-0.000077
1440	7.1950e+01	11.2553	7.013624	-0.000140	-1.404914	-0.475998	-0.000068
1441	7.2000e+01	11.2248	6.985517	0.000117	1.167940	0.395709	-0.000056
1442	7.2050e+01	11.1943	6.955781	0.000124	1.235647	0.418649	-0.000059
1443	7.2100e+01	11.1671	6.917899	0.000157	1.574180	0.533347	-0.000076
1444	7.2150e+01	11.1494	6.888977	0.000120	1.201794	0.407179	-0.000058
1445	7.2200e+01	11.1574	6.851909	-0.000154	-1.540327	-0.521877	-0.000074
1446	7.2250e+01	11.1302	6.820136	0.000132	1.320280	0.447323	-0.000064
1447	7.2300e+01	11.1093	6.784698	0.000147	1.472620	0.498937	-0.000071
1448	7.2350e+01	11.0676	6.751295	0.000139	1.387987	0.470263	-0.000067
1449	7.2400e+01	11.0323	6.717893	0.000139	1.387987	0.470263	-0.000067
1450	7.2450e+01	11.0644	6.684084	-0.000140	-1.404914	-0.475998	-0.000068
1451	7.2500e+01	11.0066	6.651497	0.000135	1.354134	0.458793	-0.000065
1452	7.2550e+01	10.9954	6.611984	0.000164	1.641887	0.556286	-0.000079
1453	7.2600e+01	10.9890	6.568806	0.000179	1.794227	0.607901	-0.000086
1454	7.2650e+01	10.9601	6.532552	0.000151	1.506474	0.510407	-0.000073
1455	7.2700e+01	10.9377	6.500780	0.000132	1.320280	0.447323	-0.000064
1456	7.2750e+01	10.9345	6.465341	0.000147	1.472620	0.498937	-0.000071
1457	7.2800e+01	10.9056	6.427051	0.000159	1.591107	0.539082	-0.000077
1458	7.2850e+01	10.8799	6.392427	0.000144	1.438767	0.487467	-0.000069
1459	7.2900e+01	10.8799	6.358617	0.000140	1.404914	0.475998	-0.000068
1460	7.2950e+01	10.8430	6.317883	0.000169	1.692667	0.573491	-0.000081
1461	7.3000e+01	10.8045	6.275519	0.000176	1.760374	0.596431	-0.000085
1462	7.3050e+01	10.7997	6.240081	0.000147	1.472620	0.498937	-0.000071
1463	7.3100e+01	10.8077	6.204234	-0.000149	-1.489547	-0.504672	-0.000072
1464	7.3150e+01	10.7548	6.164315	0.000166	1.658814	0.562021	-0.000080
1465	7.3200e+01	10.7339	6.127654	0.000152	1.523400	0.516142	-0.000073
1466	7.3250e+01	10.7099	6.086105	0.000173	1.726520	0.584961	-0.000083
1467	7.3300e+01	10.7050	6.047408	0.000161	1.608034	0.544817	-0.000077
1468	7.3350e+01	10.6778	6.014413	0.000137	1.371060	0.464528	-0.000066
1469	7.3400e+01	10.6922	5.979789	-0.000144	-1.438767	-0.487467	-0.000069
1470	7.3450e+01	10.6136	5.951682	0.000117	1.167940	0.395709	-0.000056
1471	7.3500e+01	10.6008	5.906467	0.000188	1.878860	0.636575	-0.000090
1472	7.3550e+01	10.5639	5.869806	0.000152	1.523400	0.516142	-0.000073
1473	7.3600e+01	10.5783	5.830294	-0.000164	-1.641887	-0.556286	-0.000079
1474	7.3650e+01	10.5398	5.793633	0.000152	1.523400	0.516142	-0.000073
1475	7.3700e+01	10.5222	5.757380	0.000151	1.506474	0.510407	-0.000073
1476	7.3750e+01	10.5157	5.720719	0.000152	1.523400	0.516142	-0.000073
1477	7.3800e+01	10.5157	5.682429	0.000159	1.591107	0.539082	-0.000077
1478	7.3850e+01	10.4805	5.648619	0.000140	1.404914	0.475998	-0.000068
1479	7.3900e+01	10.4692	5.608700	0.000166	1.658814	0.562021	-0.000080
1480	7.3950e+01	10.4756	5.575705	-0.000137	-1.371060	-0.464528	-0.000066
1481	7.4000e+01	10.4083	5.543525	0.000134	1.337207	0.453058	-0.000064
1482	7.4050e+01	10.4051	5.507679	0.000149	1.489547	0.504672	-0.000072
1483	7.4100e+01	10.3778	5.476313	0.000130	1.303354	0.441588	-0.000063
1484	7.4150e+01	10.3553	5.437616	0.000161	1.608034	0.544817	-0.000077
1485	7.4200e+01	10.3473	5.405843	0.000132	1.320280	0.447323	-0.000064
1486	7.4250e+01	10.3441	5.367960	0.000157	1.574180	0.533347	-0.000076
1487	7.4300e+01	10.3024	5.338631	0.000122	1.218720	0.412914	-0.000059
1488	7.4350e+01	10.2735	5.306859	0.000132	1.320280	0.447323	-0.000064
1489	7.4400e+01	10.2527	5.275493	0.000130	1.303354	0.441588	-0.000063
1490	7.4450e+01	10.2591	5.238425	-0.000154	-1.540327	-0.521877	-0.000074
1491	7.4500e+01	10.2045	5.201357	0.000154	1.540327	0.521877	-0.000074
1492	7.4550e+01	10.1933	5.166326	0.000146	1.455694	0.493202	-0.000070
1493	7.4600e+01	10.1789	5.130479	0.000149	1.489547	0.504672	-0.000072
1494	7.4650e+01	10.1500	5.094226	0.000151	1.506474	0.510407	-0.000073
1495	7.4700e+01	10.1211	5.059194	0.000146	1.455694	0.493202	-0.000070
1496	7.4750e+01	10.1147	5.022941	0.000151	1.506474	0.510407	-0.000073
1497	7.4800e+01	10.1051	4.990354	0.000135	1.354134	0.458793	-0.000065
1498	7.4850e+01	10.0666	4.952063	0.000159	1.591107	0.539082	-0.000077
1499	7.4900e+01	10.0666	4.918254	0.000140	1.404914	0.475998	-0.000068
1500	7.4950e+01	10.0457	4.884445	0.000140	1.404914	0.475998	-0.000068
1501	7.5000e+01	10.0441	4.851042	0.000139	1.387987	0.470263	-0.000067
1502	7.5050e+01	10.0200	4.810716	0.000168	1.675740	0.567756	-0.000081
1503	7.5100e+01	9.9815	4.774462	0.000151	1.506474	0.510407	-0.000073
1504	7.5150e+01	9.9446	4.734135	0.000168	1.675740	0.567756	-0.000081
1505	7.5200e+01	9.9398	4.700326	0.000140	1.404914	0.475998	-0.000068
1506	7.5250e+01	9.9222	4.659184	0.000171	1.709594	0.579226	-0.000082
1507	7.5300e+01	9.9238	4.619672	-0.000164	-1.641887	-0.556286	-0.000079
1508	7.5350e+01	9.8821	4.584640	0.000146	1.455694	0.493202	-0.000070
1509	7.5400e+01	9.8773	4.544721	0.000166	1.658814	0.562021	-0.000080
1510	7.5450e+01	9.8163	4.506023	0.000161	1.608034	0.544817	-0.000077
1511	7.5500e+01	9.8307	4.468955	-0.000154	-1.540327	-0.521877	-0.000074
1512	7.5550e+01	9.8115	4.434331	0.000144	1.438767	0.487467	-0.000069
1513	7.5600e+01	9.7794	4.395226	0.000162	1.624960	0.550551	-0.000078
1514	7.5650e+01	9.7730	4.354492	0.000169	1.692667	0.573491	-0.000081
1515	7.5700e+01	9.7329	4.318238	0.000151	1.506474	0.510407	-0.000073
1516	7.5750e+01	9.7329	4.281985	0.000151	1.506474	0.510407	-0.000073
1517	7.5800e+01	9.7024	4.244102	0.000157	1.574180	0.533347	-0.000076
1518	7.5850e+01	9.6767	4.206627	0.000156	1.557254	0.527612	-0.000075
1519	7.5900e+01	9.6896	4.174039	-0.000135	-1.354134	-0.458793	-0.000065
1520	7.5950e+01	9.6430	4.135749	0.000159	1.591107	0.539082	-0.000077
1521	7.6000e+01	9.6222	4.098681	0.000154	1.540327	0.521877	-0.000074
1522	7.6050e+01	9.6045	4.058761	0.000166	1.658814	0.562021	-0.000080
1523	7.6100e+01	9.6174	4.023322	-0.000147	-1.472620	-0.498937	-0.000071
1524	7.6150e+01	9.5324	3.982181	0.000171	1.709594	0.579226	-0.000082
1525	7.6200e+01	9.5291	3.950815	0.000130	1.303354	0.441588	-0.000063
1526	7.6250e+01	9.5291	3.915784	0.000146	1.455694	0.493202	-0.000070
1527	7.6300e+01	9.4826	3.885641	0.000125	1.252574	0.424383	-0.000060
1528	7.6350e+01	9.5035	3.846943	-0.000161	-1.608034	-0.544817	-0.000077
1529	7.6400e+01	9.4778	3.809875	0.000154	1.540327	0.521877	-0.000074
1530	7.6450e+01	9.4890	3.773214	-0.000152	-1.523400	-0.516142	-0.000073
1531	7.6500e+01	9.4136	3.729628	0.000181	1.811154	0.613635	-0.000087
1532	7.6550e+01	9.3832	3.695004	0.000144	1.438767	0.487467	-0.000069
1533	7.6600e+01	9.3944	3.657936	-0.000154	-1.540327	-0.521877	-0.000074
1534	7.6650e+01	9.3334	3.619646	0.000159	1.591107	0.539082	-0.000077
1535	7.6700e+01	9.3559	3.580541	-0.000162	-1.624960	-0.550551	-0.000078
1536	7.6750e+01	9.3174	3.544288	0.000151	1.506474	0.510407	-0.000073
1537	7.6800e+01	9.3062	3.506812	0.000156	1.557254	0.527612	-0.000075
1538	7.6850e+01	9.2725	3.468929	0.000157	1.574180	0.533347	-0.000076
1539	7.6900e+01	9.2821	3.424121	-0.000186	-1.861934	-0.630840	-0.000090
1540	7.6950e+01	9.2532	3.389905	0.000142	1.421840	0.481733	-0.000068
1541	7.7000e+01	9.2083	3.347541	0.000176	1.760374	0.596431	-0.000085
1542	7.7050e+01	9.1666	3.315768	0.000132	1.320280	0.447323	-0.000064
1543	7.7100e+01	9.1971	3.277886	-0.000157	-1.574180	-0.533347	-0.000076
1544	7.7150e+01	9.1505	3.240410	0.000156	1.557254	0.527612	-0.000075
1545	7.7200e+01	9.1521	3.202527	-0.000157	-1.574180	-0.533347	-0.000076
1546	7.7250e+01	9.1281	3.165052	0.000156	1.557254	0.527612	-0.000075
1547	7.7300e+01	9.1008	3.130428	0.000144	1.438767	0.487467	-0.000069
1548	7.7350e+01	9.0751	3.095803	0.000144	1.438767	0.487467	-0.000069
1549	7.7400e+01	9.0366	3.056291	0.000164	1.641887	0.556286	-0.000079
1550	7.7450e+01	9.0607	3.017186	-0.000162	-1.624960	-0.550551	-0.000078
1551	7.7500e+01	9.0302	2.976859	0.000168	1.675740	0.567756	-0.000081
1552	7.7550e+01	9.0302	2.939791	0.000154	1.540327	0.521877	-0.000074
1553	7.7600e+01	9.0094	2.909241	0.000127	1.269500	0.430118	-0.000061
1554	7.7650e+01	8.9532	2.868914	0.000168	1.675740	0.567756	-0.000081
1555	7.7700e+01	8.9324	2.831438	0.000156	1.557254	0.527612	-0.000075
1556	7.7750e+01	8.9147	2.787038	0.000185	1.845007	0.625105	-0.000089
1557	7.7800e+01	8.8891	2.745489	0.000173	1.726520	0.584961	-0.000083
1558	7.7850e+01	8.9003	2.708421	-0.000154	-1.540327	-0.521877	-0.000074
1559	7.7900e+01	8.8618	2.670538	0.000157	1.574180	0.533347	-0.000076
1560	7.7950e+01	8.8473	2.633062	0.000156	1.557254	0.527612	-0.000075
1561	7.8000e+01	8.8345	2.593550	0.000164	1.641887	0.556286	-0.000079
1562	7.8050e+01	8.8281	2.550779	0.000178	1.777300	0.602166	-0.000086
1563	7.8100e+01	8.7687	2.512489	0.000159	1.591107	0.539082	-0.000077
1564	7.8150e+01	8.7703	2.478272	-0.000142	-1.421840	-0.481733	-0.000068
1565	7.8200e+01	8.7447	2.443241	0.000146	1.455694	0.493202	-0.000070
1566	7.8250e+01	8.7302	2.404136	0.000162	1.624960	0.550551	-0.000078
1567	7.8300e+01	8.6885	2.367068	0.000154	1.540327	0.521877	-0.000074
1568	7.8350e+01	8.6821	2.322260	0.000186	1.861934	0.630840	-0.000090
1569	7.8400e+01	8.6677	2.285599	0.000152	1.523400	0.516142	-0.000073
1570	7.8450e+01	8.6372	2.239162	0.000193	1.929640	0.653780	-0.000093
1571	7.8500e+01	8.6131	2.202094	0.000154	1.540327	0.521877	-0.000074
1572	7.8550e+01	8.5907	2.165840	0.000151	1.506474	0.510407	-0.000073
1573	7.8600e+01	8.5810	2.129587	0.000151	1.506474	0.510407	-0.000073
1574	7.8650e+01	8.5666	2.089667	0.000166	1.658814	0.562021	-0.000080
1575	7.8700e+01	8.5345	2.047304	0.000176	1.760374	0.596431	-0.000085
1576	7.8750e+01	8.5297	2.008606	0.000161	1.608034	0.544817	-0.000077
1577	7.8800e+01	8.5056	1.971131	0.000156	1.557254	0.527612	-0.000075
1578	7.8850e+01	8.5072	1.930396	-0.000169	-1.692667	-0.573491	-0.000081
1579	7.8900e+01	8.4639	1.894550	0.000149	1.489547	0.504672	-0.000072
1580	7.8950e+01	8.4543	1.858297	0.000151	1.506474	0.510407	-0.000073
1581	7.9000e+01	8.4030	1.822451	0.000149	1.489547	0.504672	-0.000072
1582	7.9050e+01	8.3982	1.785790	0.000152	1.523400	0.516142	-0.000073
1583	7.9100e+01	8.3741	1.740982	0.000186	1.861934	0.630840	-0.000090
1584	7.9150e+01	8.3372	1.700655	0.000168	1.675740	0.567756	-0.000081
1585	7.9200e+01	8.3420	1.659514	-0.000171	-1.709594	-0.579226	-0.000082
1586	7.9250e+01	8.3131	1.620409	0.000162	1.624960	0.550551	-0.000078
1587	7.9300e+01	8.2971	1.577638	0.000178	1.777300	0.602166	-0.000086
1588	7.9350e+01	8.2843	1.541792	0.000149	1.489547	0.504672	-0.000072
1589	7.9400e+01	8.2586	1.500650	0.000171	1.709594	0.579226	-0.000082
1590	7.9450e+01	8.2185	1.461545	0.000162	1.624960	0.550551	-0.000078
1591	7.9500e+01	8.1976	1.425292	0.000151	1.506474	0.510407	-0.000073
1592	7.9550e+01	8.2201	1.384557	-0.000169	-1.692667	-0.573491	-0.000081
1593	7.9600e+01	8.1864	1.337713	0.000195	1.946567	0.659515	-0.000094
1594	7.9650e+01	8.1559	1.300237	0.000156	1.557254	0.527612	-0.000075
1595	7.9700e+01	8.1383	1.254615	0.000190	1.895787	0.642310	-0.000091
1596	7.9750e+01	8.1399	1.217954	-0.000152	-1.523400	-0.516142	-0.000073
1597	7.9800e+01	8.0998	1.165814	0.000217	2.166614	0.734069	-0.000104
1598	7.9850e+01	8.0837	1.124265	0.000173	1.726520	0.584961	-0.000083
1599	7.9900e+01	8.0420	1.080272	0.000183	1.828080	0.619370	-0.000088
1600	7.9950e+01	8.0661	1.042390	-0.000157	-1.574180	-0.533347	-0.000076
1601	8.0000e+01	8.0196	1.000841	0.000173	1.726520	0.584961	-0.000083
1602	8.0050e+01	8.0099	0.958477	0.000176	1.760374	0.596431	-0.000085
1603	8.0100e+01	7.9666	0.914484	0.000183	1.828080	0.619370	-0.000088
1604	8.0150e+01	7.9554	0.873342	0.000171	1.709594	0.579226	-0.000082
1605	8.0200e+01	7.8976	0.835867	0.000156	1.557254	0.527612	-0.000075
1606	8.0250e+01	7.9249	0.800428	-0.000147	-1.472620	-0.498937	-0.000071
1607	8.0300e+01	7.8768	0.762953	0.000156	1.557254	0.527612	-0.000075
1608	8.0350e+01	7.8816	0.721811	-0.000171	-1.709594	-0.579226	-0.000082
1609	8.0400e+01	7.8656	0.683521	0.000159	1.591107	0.539082	-0.000077
1610	8.0450e+01	7.8431	0.638306	0.000188	1.878860	0.636575	-0.000090
1611	8.0500e+01	7.8206	0.600423	0.000157	1.574180	0.533347	-0.000076
1612	8.0550e+01	7.7869	0.560096	0.000168	1.675740	0.567756	-0.000081
1613	8.0600e+01	7.7741	0.520991	0.000162	1.624960	0.550551	-0.000078
1614	8.0650e+01	7.7597	0.481479	0.000164	1.641887	0.556286	-0.000079
1615	8.0700e+01	7.7292	0.440745	0.000169	1.692667	0.573491	-0.000081
1616	8.0750e+01	7.7404	0.398788	-0.000174	-1.743447	-0.590696	-0.000084
1617	8.0800e+01	7.6907	0.358461	0.000168	1.675740	0.567756	-0.000081
1618	8.0850e+01	7.6426	0.319764	0.000161	1.608034	0.544817	-0.000077
1619	8.0900e+01	7.6554	0.280659	-0.000162	-1.624960	-0.550551	-0.000078
1620	8.0950e+01	7.6281	0.229741	0.000212	2.115834	0.716864	-0.000102
1621	8.1000e+01	7.6169	0.180453	0.000205	2.048127	0.693924	-0.000099
1622	8.1050e+01	7.6201	0.132794	-0.000198	-1.980420	-0.670985	-0.000095
1623	8.1100e+01	7.5816	0.088801	0.000183	1.828080	0.619370	-0.000088
1624	8.1150e+01	7.5672	0.047252	0.000173	1.726520	0.584961	-0.000083
1625	8.1200e+01	7.5335	0.010184	0.000154	1.540327	0.521877	-0.000074
1626	8.1250e+01	7.5126	-0.028107	0.000159	1.591107	0.539082	-0.000077
1627	8.1300e+01	7.5126	-0.071285	0.000179	1.794227	0.607901	-0.000086
1628	8.1350e+01	7.4741	-0.116500	0.000188	1.878860	0.636575	-0.000090
1629	8.1400e+01	7.4693	-0.167010	0.000210	2.098907	0.711129	-0.000101
1630	8.1450e+01	7.4789	-0.208152	-0.000171	-1.709594	-0.579226	-0.000082
1631	8.1500e+01	7.4308	-0.251738	0.000181	1.811154	0.613635	-0.000087
1632	8.1550e+01	7.4228	-0.296138	0.000185	1.845007	0.625105	-0.000089
1633	8.1600e+01	7.3811	-0.334428	0.000159	1.591107	0.539082	-0.000077
1634	8.1650e+01	7.3297	-0.372311	0.000157	1.574180	0.533347	-0.000076
1635	8.1700e+01	7.3329	-0.413860	-0.000173	-1.726520	-0.584961	-0.000083
1636	8.1750e+01	7.3201	-0.450928	0.000154	1.540327	0.521877	-0.000074
1637	8.1800e+01	7.2912	-0.487589	0.000152	1.523400	0.516142	-0.000073
1638	8.1850e+01	7.2752	-0.531989	0.000185	1.845007	0.625105	-0.000089
1639	8.1900e+01	7.2543	-0.569465	0.000156	1.557254	0.527612	-0.000075
1640	8.1950e+01	7.2271	-0.610606	0.000171	1.709594	0.579226	-0.000082
1641	8.2000e+01	7.2142	-0.655414	0.000186	1.861934	0.630840	-0.000090
1642	8.2050e+01	7.1934	-0.695741	0.000168	1.675740	0.567756	-0.000081
1643	8.2100e+01	7.1918	-0.744622	0.000203	2.031200	0.688189	-0.000098
1644	8.2150e+01	7.1661	-0.782098	0.000156	1.557254	0.527612	-0.000075
1645	8.2200e+01	7.1436	-0.819573	0.000156	1.557254	0.527612	-0.000075
1646	8.2250e+01	7.1260	-0.856641	0.000154	1.540327	0.521877	-0.000074
1647	8.2300e+01	7.1051	-0.896154	0.000164	1.641887	0.556286	-0.000079
1648	8.2350e+01	7.0634	-0.936073	0.000166	1.658814	0.562021	-0.000080
1649	8.2400e+01	7.0426	-0.981288	0.000188	1.878860	0.636575	-0.000090
1650	8.2450e+01	7.0314	-1.019171	0.000157	1.574180	0.533347	-0.000076
1651	8.2500e+01	7.0025	-1.056239	0.000154	1.540327	0.521877	-0.000074
1652	8.2550e+01	6.9977	-1.099418	0.000179	1.794227	0.607901	-0.000086
1653	8.2600e+01	6.9688	-1.140559	0.000171	1.709594	0.579226	-0.000082
1654	8.2650e+01	6.9527	-1.179664	0.000162	1.624960	0.550551	-0.000078
1655	8.2700e+01	6.9287	-1.212251	0.000135	1.354134	0.458793	-0.000065
1656	8.2750e+01	6.9110	-1.253393	0.000171	1.709594	0.579226	-0.000082
1657	8.2800e+01	6.8918	-1.292091	0.000161	1.608034	0.544817	-0.000077
1658	8.2850e+01	6.8918	-1.333640	0.000173	1.726520	0.584961	-0.000083
1659	8.2900e+01	6.8950	-1.376410	-0.000178	-1.777300	-0.602166	-0.000086
1660	8.2950e+01	6.8372	-1.408591	0.000134	1.337207	0.453058	-0.000064
1661	8.3000e+01	6.8276	-1.446473	0.000157	1.574180	0.533347	-0.000076
1662	8.3050e+01	6.8068	-1.489244	0.000178	1.777300	0.602166	-0.000086
1663	8.3100e+01	6.7650	-1.523054	0.000140	1.404914	0.475998	-0.000068
1664	8.3150e+01	6.7506	-1.567454	0.000185	1.845007	0.625105	-0.000089
1665	8.3200e+01	6.7426	-1.605744	0.000159	1.591107	0.539082	-0.000077
1666	8.3250e+01	6.7330	-1.645257	0.000164	1.641887	0.556286	-0.000079
1667	8.3300e+01	6.6993	-1.683547	0.000159	1.591107	0.539082	-0.000077
1668	8.3350e+01	6.6897	-1.723466	0.000166	1.658814	0.562021	-0.000080
1669	8.3400e+01	6.6560	-1.762571	0.000162	1.624960	0.550551	-0.000078
1670	8.3450e+01	6.6736	-1.807379	-0.000186	-1.861934	-0.630840	-0.000090
1671	8.3500e+01	6.6271	-1.846484	0.000162	1.624960	0.550551	-0.000078
1672	8.3550e+01	6.5709	-1.889662	0.000179	1.794227	0.607901	-0.000086
1673	8.3600e+01	6.5806	-1.927545	-0.000157	-1.574180	-0.533347	-0.000076
1674	8.3650e+01	6.5549	-1.971538	0.000183	1.828080	0.619370	-0.000088
1675	8.3700e+01	6.5533	-2.013902	0.000176	1.760374	0.596431	-0.000085
1676	8.3750e+01	6.5196	-2.057080	0.000179	1.794227	0.607901	-0.000086
1677	8.3800e+01	6.4955	-2.101480	0.000185	1.845007	0.625105	-0.000089
1678	8.3850e+01	6.4971	-2.146695	-0.000188	-1.878860	-0.636575	-0.000090
1679	8.3900e+01	6.4506	-2.184985	0.000159	1.591107	0.539082	-0.000077
1680	8.3950e+01	6.4570	-2.233867	-0.000203	-2.031200	-0.688189	-0.000098
1681	8.4000e+01	6.4201	-2.268083	0.000142	1.421840	0.481733	-0.000068
1682	8.4050e+01	6.4121	-2.310040	0.000174	1.743447	0.590696	-0.000084
1683	8.4100e+01	6.3688	-2.352403	0.000176	1.760374	0.596431	-0.000085
1684	8.4150e+01	6.3720	-2.398433	-0.000191	-1.912714	-0.648045	-0.000092
1685	8.4200e+01	6.3399	-2.439982	0.000173	1.726520	0.584961	-0.000083
1686	8.4250e+01	6.3143	-2.483160	0.000179	1.794227	0.607901	-0.000086
1687	8.4300e+01	6.2838	-2.525524	0.000176	1.760374	0.596431	-0.000085
1688	8.4350e+01	6.2838	-2.565443	0.000166	1.658814	0.562021	-0.000080
1689	8.4400e+01	6.2629	-2.609844	0.000185	1.845007	0.625105	-0.000089
1690	8.4450e+01	6.2437	-2.653429	0.000181	1.811154	0.613635	-0.000087
1691	8.4500e+01	6.2405	-2.695386	0.000174	1.743447	0.590696	-0.000084
1692	8.4550e+01	6.2036	-2.740193	0.000186	1.861934	0.630840	-0.000090
1693	8.4600e+01	6.1811	-2.783372	0.000179	1.794227	0.607901	-0.000086
1694	8.4650e+01	6.1699	-2.824921	0.000173	1.726520	0.584961	-0.000083
1695	8.4700e+01	6.1538	-2.870543	0.000190	1.895787	0.642310	-0.000091
1696	8.4750e+01	6.1314	-2.910870	0.000168	1.675740	0.567756	-0.000081
1697	8.4800e+01	6.0720	-2.952011	0.000171	1.709594	0.579226	-0.000082
1698	8.4850e+01	6.0752	-2.991524	-0.000164	-1.641887	-0.556286	-0.000079
1699	8.4900e+01	6.0351	-3.037961	0.000193	1.929640	0.653780	-0.000093
1700	8.4950e+01	6.0592	-3.084805	-0.000195	-1.946567	-0.659515	-0.000094
1701	8.5000e+01	6.0239	-3.132464	0.000198	1.980420	0.670985	-0.000095
1702	8.5050e+01	6.0159	-3.172791	0.000168	1.675740	0.567756	-0.000081
1703	8.5100e+01	5.9790	-3.215562	0.000178	1.777300	0.602166	-0.000086
1704	8.5150e+01	5.9437	-3.259962	0.000185	1.845007	0.625105	-0.000089
1705	8.5200e+01	5.9613	-3.301511	-0.000173	-1.726520	-0.584961	-0.000083
1706	8.5250e+01	5.9116	-3.348763	0.000196	1.963494	0.665250	-0.000095
1707	8.5300e+01	5.9068	-3.391941	0.000179	1.794227	0.607901	-0.000086
1708	8.5350e+01	5.8843	-3.435934	0.000183	1.828080	0.619370	-0.000088
1709	8.5400e+01	5.8843	-3.478298	0.000176	1.760374	0.596431	-0.000085
1710	8.5450e+01	5.8571	-3.520254	0.000174	1.743447	0.590696	-0.000084
1711	8.5500e+01	5.8250	-3.563840	0.000181	1.811154	0.613635	-0.000087
1712	8.5550e+01	5.8202	-3.607426	0.000181	1.811154	0.613635	-0.000087
1713	8.5600e+01	5.7608	-3.653863	0.000193	1.929640	0.653780	-0.000093
1714	8.5650e+01	5.7528	-3.690524	0.000152	1.523400	0.516142	-0.000073
1715	8.5700e+01	5.7191	-3.730443	0.000166	1.658814	0.562021	-0.000080
1716	8.5750e+01	5.7239	-3.778917	-0.000201	-2.014274	-0.682454	-0.000097
1717	8.5800e+01	5.7063	-3.826169	0.000196	1.963494	0.665250	-0.000095
1718	8.5850e+01	5.6629	-3.874642	0.000201	2.014274	0.682454	-0.000097
1719	8.5900e+01	5.6501	-3.912933	0.000159	1.591107	0.539082	-0.000077
1720	8.5950e+01	5.6565	-3.956518	-0.000181	-1.811154	-0.613635	-0.000087
1721	8.6000e+01	5.6052	-4.003363	0.000195	1.946567	0.659515	-0.000094
1722	8.6050e+01	5.6020	-4.046134	0.000178	1.777300	0.602166	-0.000086
1723	8.6100e+01	5.6052	-4.093793	-0.000198	-1.980420	-0.670985	-0.000095
1724	8.6150e+01	5.5506	-4.137786	0.000183	1.828080	0.619370	-0.000088
1725	8.6200e+01	5.5555	-4.178520	-0.000169	-1.692667	-0.573491	-0.000081
1726	8.6250e+01	5.5170	-4.223328	0.000186	1.861934	0.630840	-0.000090
1727	8.6300e+01	5.4977	-4.266099	0.000178	1.777300	0.602166	-0.000086
1728	8.6350e+01	5.5105	-4.309684	-0.000181	-1.811154	-0.613635	-0.000087
1729	8.6400e+01	5.4865	-4.349604	0.000166	1.658814	0.562021	-0.000080
1730	8.6450e+01	5.4271	-4.392782	0.000179	1.794227	0.607901	-0.000086
1731	8.6500e+01	5.4335	-4.431887	-0.000162	-1.624960	-0.550551	-0.000078
1732	8.6550e+01	5.3630	-4.476287	0.000185	1.845007	0.625105	-0.000089
1733	8.6600e+01	5.3838	-4.514985	-0.000161	-1.608034	-0.544817	-0.000077
1734	8.6650e+01	5.3293	-4.556941	0.000174	1.743447	0.590696	-0.000084
1735	8.6700e+01	5.3389	-4.602971	-0.000191	-1.912714	-0.648045	-0.000092
1736	8.6750e+01	5.3132	-4.650223	0.000196	1.963494	0.665250	-0.000095
1737	8.6800e+01	5.2908	-4.687291	0.000154	1.540327	0.521877	-0.000074
1738	8.6850e+01	5.2667	-4.726396	0.000162	1.624960	0.550551	-0.000078
1739	8.6900e+01	5.2490	-4.767945	0.000173	1.726520	0.584961	-0.000083
1740	8.6950e+01	5.2474	-4.816011	0.000200	1.997347	0.676720	-0.000096
1741	8.7000e+01	5.2105	-4.858375	0.000176	1.760374	0.596431	-0.000085
1742	8.7050e+01	5.2202	-4.899109	-0.000169	-1.692667	-0.573491	-0.000081
1743	8.7100e+01	5.2105	-4.938621	0.000164	1.641887	0.556286	-0.000079
1744	8.7150e+01	5.1929	-4.983836	0.000188	1.878860	0.636575	-0.000090
1745	8.7200e+01	5.1512	-5.024163	0.000168	1.675740	0.567756	-0.000081
1746	8.7250e+01	5.1111	-5.063268	0.000162	1.624960	0.550551	-0.000078
1747	8.7300e+01	5.0870	-5.103187	0.000166	1.658814	0.562021	-0.000080
1748	8.7350e+01	5.0646	-5.141478	0.000159	1.591107	0.539082	-0.000077
1749	8.7400e+01	5.0646	-5.183841	0.000176	1.760374	0.596431	-0.000085
1750	8.7450e+01	5.0453	-5.228242	0.000185	1.845007	0.625105	-0.000089
1751	8.7500e+01	5.0116	-5.273864	0.000190	1.895787	0.642310	-0.000091
1752	8.7550e+01	5.0100	-5.316635	0.000178	1.777300	0.602166	-0.000086
1753	8.7600e+01	4.9860	-5.361850	0.000188	1.878860	0.636575	-0.000090
1754	8.7650e+01	4.9458	-5.403806	0.000174	1.743447	0.590696	-0.000084
1755	8.7700e+01	4.9362	-5.445763	0.000174	1.743447	0.590696	-0.000084
1756	8.7750e+01	4.9202	-5.485275	0.000164	1.641887	0.556286	-0.000079
1757	8.7800e+01	4.9073	-5.531305	0.000191	1.912714	0.648045	-0.000092
1758	8.7850e+01	4.8881	-5.568780	0.000156	1.557254	0.527612	-0.000075
1759	8.7900e+01	4.8384	-5.611958	0.000179	1.794227	0.607901	-0.000086
1760	8.7950e+01	4.8400	-5.657581	-0.000190	-1.895787	-0.642310	-0.000091
1761	8.8000e+01	4.8384	-5.700759	0.000179	1.794227	0.607901	-0.000086
1762	8.8050e+01	4.8191	-5.744752	0.000183	1.828080	0.619370	-0.000088
1763	8.8100e+01	4.7630	-5.786708	0.000174	1.743447	0.590696	-0.000084
1764	8.8150e+01	4.7549	-5.830294	0.000181	1.811154	0.613635	-0.000087
1765	8.8200e+01	4.7582	-5.880804	-0.000210	-2.098907	-0.711129	-0.000101
1766	8.8250e+01	4.7180	-5.923168	0.000176	1.760374	0.596431	-0.000085
1767	8.8300e+01	4.6747	-5.966754	0.000181	1.811154	0.613635	-0.000087
1768	8.8350e+01	4.6972	-6.014005	-0.000196	-1.963494	-0.665250	-0.000095
1769	8.8400e+01	4.6651	-6.055962	0.000174	1.743447	0.590696	-0.000084
1770	8.8450e+01	4.6667	-6.099140	-0.000179	-1.794227	-0.607901	-0.000086
1771	8.8500e+01	4.6202	-6.143948	0.000186	1.861934	0.630840	-0.000090
1772	8.8550e+01	4.6282	-6.186311	-0.000176	-1.760374	-0.596431	-0.000085
1773	8.8600e+01	4.5801	-6.226638	0.000168	1.675740	0.567756	-0.000081
1774	8.8650e+01	4.5624	-6.268595	0.000174	1.743447	0.590696	-0.000084
1775	8.8700e+01	4.5448	-6.307699	0.000162	1.624960	0.550551	-0.000078
1776	8.8750e+01	4.4999	-6.352914	0.000188	1.878860	0.636575	-0.000090
1777	8.8800e+01	4.4838	-6.394463	0.000173	1.726520	0.584961	-0.000083
1778	8.8850e+01	4.4919	-6.440900	-0.000193	-1.929640	-0.653780	-0.000093
1779	8.8900e+01	4.4710	-6.486115	0.000188	1.878860	0.636575	-0.000090
1780	8.8950e+01	4.4517	-6.532552	0.000193	1.929640	0.653780	-0.000093
1781	8.9000e+01	4.4245	-6.573287	0.000169	1.692667	0.573491	-0.000081
1782	8.9050e+01	4.4165	-6.614021	0.000169	1.692667	0.573491	-0.000081
1783	8.9100e+01	4.4052	-6.653533	0.000164	1.641887	0.556286	-0.000079
1784	8.9150e+01	4.3491	-6.704044	0.000210	2.098907	0.711129	-0.000101
1785	8.9200e+01	4.3282	-6.751295	0.000196	1.963494	0.665250	-0.000095
1786	8.9250e+01	4.3138	-6.809138	0.000240	2.403587	0.814357	-0.000116
1787	8.9300e+01	4.3298	-6.867388	-0.000242	-2.420514	-0.820092	-0.000116
1788	8.9350e+01	4.2833	-6.918306	0.000212	2.115834	0.716864	-0.000102
1789	8.9400e+01	4.2592	-6.967594	0.000205	2.048127	0.693924	-0.000099
1790	8.9450e+01	4.2560	-7.011587	0.000183	1.828080	0.619370	-0.000088
1791	8.9500e+01	4.2255	-7.058432	0.000195	1.946567	0.659515	-0.000094
1792	8.9550e+01	4.1983	-7.097537	0.000162	1.624960	0.550551	-0.000078
1793	8.9600e+01	4.1758	-7.139493	0.000174	1.743447	0.590696	-0.000084
1794	8.9650e+01	4.1421	-7.185115	0.000190	1.895787	0.642310	-0.000091
1795	8.9700e+01	4.1245	-7.246217	0.000254	2.539001	0.860237	-0.000122
1796	8.9750e+01	4.1357	-7.297542	-0.000213	-2.132760	-0.722599	-0.000103
1797	8.9800e+01	4.1245	-7.350089	0.000218	2.183540	0.739804	-0.000105
1798	8.9850e+01	4.0667	-7.395711	0.000190	1.895787	0.642310	-0.000091
1799	8.9900e+01	4.0667	-7.437668	0.000174	1.743447	0.590696	-0.000084
1800	8.9950e+01	4.0250	-7.483290	0.000190	1.895787	0.642310	-0.000091
1801	9.0000e+01	4.0507	-7.525246	-0.000174	-1.743447	-0.590696	-0.000084
1802	9.0050e+01	3.9977	-7.579016	0.000223	2.234320	0.757008	-0.000108
1803	9.0100e+01	3.9641	-7.625453	0.000193	1.929640	0.653780	-0.000093
1804	9.0150e+01	3.9592	-7.669853	0.000185	1.845007	0.625105	-0.000089
1805	9.0200e+01	3.9272	-7.708958	0.000162	1.624960	0.550551	-0.000078
1806	9.0250e+01	3.9079	-7.748877	0.000166	1.658814	0.562021	-0.000080
1807	9.0300e+01	3.9015	-7.800610	0.000215	2.149687	0.728334	-0.000103
1808	9.0350e+01	3.8822	-7.842973	0.000176	1.760374	0.596431	-0.000085
1809	9.0400e+01	3.8309	-7.885744	0.000178	1.777300	0.602166	-0.000086
1810	9.0450e+01	3.8646	-7.937070	-0.000213	-2.132760	-0.722599	-0.000103
1811	9.0500e+01	3.8341	-7.982285	0.000188	1.878860	0.636575	-0.000090
1812	9.0550e+01	3.7796	-8.025463	0.000179	1.794227	0.607901	-0.000086
1813	9.0600e+01	3.7780	-8.070271	0.000186	1.861934	0.630840	-0.000090
1814	9.0650e+01	3.7603	-8.111412	0.000171	1.709594	0.579226	-0.000082
1815	9.0700e+01	3.7491	-8.149702	0.000159	1.591107	0.539082	-0.000077
1816	9.0750e+01	3.7266	-8.192473	0.000178	1.777300	0.602166	-0.000086
1817	9.0800e+01	3.6753	-8.240947	0.000201	2.014274	0.682454	-0.000097
1818	9.0850e+01	3.6769	-8.283311	-0.000176	-1.760374	-0.596431	-0.000085
1819	9.0900e+01	3.6577	-8.328526	0.000188	1.878860	0.636575	-0.000090
1820	9.0950e+01	3.6288	-8.370482	0.000174	1.743447	0.590696	-0.000084
1821	9.1000e+01	3.6127	-8.413660	0.000179	1.794227	0.607901	-0.000086
1822	9.1050e+01	3.6111	-8.455617	0.000174	1.743447	0.590696	-0.000084
1823	9.1100e+01	3.5710	-8.495129	0.000164	1.641887	0.556286	-0.000079
1824	9.1150e+01	3.5389	-8.547676	0.000218	2.183540	0.739804	-0.000105
1825	9.1200e+01	3.5454	-8.591262	-0.000181	-1.811154	-0.613635	-0.000087
1826	9.1250e+01	3.5165	-8.629552	0.000159	1.591107	0.539082	-0.000077
1827	9.1300e+01	3.5069	-8.676804	0.000196	1.963494	0.665250	-0.000095
1828	9.1350e+01	3.4892	-8.719575	0.000178	1.777300	0.602166	-0.000086
1829	9.1400e+01	3.4764	-8.769678	0.000208	2.081980	0.705394	-0.000100
1830	9.1450e+01	3.4443	-8.814893	0.000188	1.878860	0.636575	-0.000090
1831	9.1500e+01	3.3913	-8.859700	0.000186	1.861934	0.630840	-0.000090
1832	9.1550e+01	3.4122	-8.897991	-0.000159	-1.591107	-0.539082	-0.000077
1833	9.1600e+01	3.4218	-8.947279	-0.000205	-2.048127	-0.693924	-0.000099
1834	9.1650e+01	3.3625	-8.992494	0.000188	1.878860	0.636575	-0.000090
1835	9.1700e+01	3.3512	-9.036895	0.000185	1.845007	0.625105	-0.000089
1836	9.1750e+01	3.3127	-9.078036	0.000171	1.709594	0.579226	-0.000082
1837	9.1800e+01	3.2983	-9.126917	0.000203	2.031200	0.688189	-0.000098
1838	9.1850e+01	3.3047	-9.172947	-0.000191	-1.912714	-0.648045	-0.000092
1839	9.1900e+01	3.2614	-9.224679	0.000215	2.149687	0.728334	-0.000103
1840	9.1950e+01	3.2598	-9.272338	0.000198	1.980420	0.670985	-0.000095
1841	9.2000e+01	3.1876	-9.319183	0.000195	1.946567	0.659515	-0.000094
1842	9.2050e+01	3.1988	-9.365620	-0.000193	-1.929640	-0.653780	-0.000093
1843	9.2100e+01	3.1571	-9.416538	0.000212	2.115834	0.716864	-0.000102
1844	9.2150e+01	3.1764	-9.461345	-0.000186	-1.861934	-0.630840	-0.000090
1845	9.2200e+01	3.1218	-9.503709	0.000176	1.760374	0.596431	-0.000085
1846	9.2250e+01	3.1122	-9.556664	0.000220	2.200467	0.745538	-0.000106
1847	9.2300e+01	3.0978	-9.604323	0.000198	1.980420	0.670985	-0.000095
1848	9.2350e+01	3.0432	-9.651167	0.000195	1.946567	0.659515	-0.000094
1849	9.2400e+01	3.0721	-9.699233	-0.000200	-1.997347	-0.676720	-0.000096
1850	9.2450e+01	3.0432	-9.746485	0.000196	1.963494	0.665250	-0.000095
1851	9.2500e+01	3.0111	-9.794959	0.000201	2.014274	0.682454	-0.000097
1852	9.2550e+01	2.9887	-9.845062	0.000208	2.081980	0.705394	-0.000100
1853	9.2600e+01	3.0192	-9.891907	-0.000195	-1.946567	-0.659515	-0.000094
1854	9.2650e+01	2.9710	-9.943639	0.000215	2.149687	0.728334	-0.000103
1855	9.2700e+01	2.9390	-9.990483	0.000195	1.946567	0.659515	-0.000094
1856	9.2750e+01	2.9422	-10.037328	-0.000195	-1.946567	-0.659515	-0.000094
1857	9.2800e+01	2.9037	-10.083358	0.000191	1.912714	0.648045	-0.000092
1858	9.2850e+01	2.8924	-10.119204	0.000149	1.489547	0.504672	-0.000072
1859	9.2900e+01	2.8684	-10.173380	0.000225	2.251247	0.762743	-0.000108
1860	9.2950e+01	2.8299	-10.216151	0.000178	1.777300	0.602166	-0.000086
1861	9.3000e+01	2.8122	-10.265847	0.000207	2.065054	0.699659	-0.000099
1862	9.3050e+01	2.8251	-10.309433	-0.000181	-1.811154	-0.613635	-0.000087
1863	9.3100e+01	2.7930	-10.357499	0.000200	1.997347	0.676720	-0.000096
1864	9.3150e+01	2.7673	-10.403121	0.000190	1.895787	0.642310	-0.000091
1865	9.3200e+01	2.7320	-10.457298	0.000225	2.251247	0.762743	-0.000108
1866	9.3250e+01	2.7144	-10.495181	0.000157	1.574180	0.533347	-0.000076
1867	9.3300e+01	2.6871	-10.547321	0.000217	2.166614	0.734069	-0.000104
1868	9.3350e+01	2.7063	-10.595387	-0.000200	-1.997347	-0.676720	-0.000096
1869	9.3400e+01	2.6662	-10.651193	0.000232	2.318954	0.785683	-0.000112
1870	9.3450e+01	2.6422	-10.697223	0.000191	1.912714	0.648045	-0.000092
1871	9.3500e+01	2.6085	-10.738364	0.000171	1.709594	0.579226	-0.000082
1872	9.3550e+01	2.6037	-10.782765	0.000185	1.845007	0.625105	-0.000089
1873	9.3600e+01	2.5796	-10.833275	0.000210	2.098907	0.711129	-0.000101
1874	9.3650e+01	2.5315	-10.884600	0.000213	2.132760	0.722599	-0.000103
1875	9.3700e+01	2.5299	-10.938370	0.000223	2.234320	0.757008	-0.000108
1876	9.3750e+01	2.5219	-10.985621	0.000196	1.963494	0.665250	-0.000095
1877	9.3800e+01	2.4930	-11.035317	0.000207	2.065054	0.699659	-0.000099
1878	9.3850e+01	2.4850	-11.076459	0.000171	1.709594	0.579226	-0.000082
1879	9.3900e+01	2.4609	-11.119637	0.000179	1.794227	0.607901	-0.000086
1880	9.3950e+01	2.4545	-11.172999	0.000222	2.217394	0.751273	-0.000107
1881	9.4000e+01	2.4192	-11.219029	0.000191	1.912714	0.648045	-0.000092
1882	9.4050e+01	2.3678	-11.270761	0.000215	2.149687	0.728334	-0.000103
1883	9.4100e+01	2.3887	-11.315569	-0.000186	-1.861934	-0.630840	-0.000090
1884	9.4150e+01	2.3422	-11.367301	0.000215	2.149687	0.728334	-0.000103
1885	9.4200e+01	2.3390	-11.412924	0.000190	1.895787	0.642310	-0.000091
1886	9.4250e+01	2.2989	-11.462212	0.000205	2.048127	0.693924	-0.000099
1887	9.4300e+01	2.2828	-11.509871	0.000198	1.980420	0.670985	-0.000095
1888	9.4350e+01	2.2732	-11.570158	0.000251	2.505147	0.848767	-0.000121
1889	9.4400e+01	2.2443	-11.618224	0.000200	1.997347	0.676720	-0.000096
1890	9.4450e+01	2.2379	-11.666291	0.000200	1.997347	0.676720	-0.000096
1891	9.4500e+01	2.1866	-11.721689	0.000230	2.302027	0.779948	-0.000111
1892	9.4550e+01	2.1834	-11.777903	0.000234	2.335880	0.791418	-0.000112
1893	9.4600e+01	2.1850	-11.832486	-0.000227	-2.268174	-0.768478	-0.000109
1894	9.4650e+01	2.1673	-11.880553	0.000200	1.997347	0.676720	-0.000096
1895	9.4700e+01	2.1561	-11.930249	0.000207	2.065054	0.699659	-0.000099
1896	9.4750e+01	2.1256	-11.980759	0.000210	2.098907	0.711129	-0.000101
1897	9.4800e+01	2.0839	-12.036158	0.000230	2.302027	0.779948	-0.000111
1898	9.4850e+01	2.0807	-12.088298	0.000217	2.166614	0.734069	-0.000104
1899	9.4900e+01	2.0791	-12.134735	0.000193	1.929640	0.653780	-0.000093
1900	9.4950e+01	2.0646	-12.189319	0.000227	2.268174	0.768478	-0.000109
1901	9.5000e+01	2.0454	-12.238200	0.000203	2.031200	0.688189	-0.000098
1902	9.5050e+01	2.0037	-12.290747	0.000218	2.183540	0.739804	-0.000105
1903	9.5100e+01	1.9973	-12.341257	0.000210	2.098907	0.711129	-0.000101
1904	9.5150e+01	1.9876	-12.392990	0.000215	2.149687	0.728334	-0.000103
1905	9.5200e+01	1.9427	-12.443500	0.000210	2.098907	0.711129	-0.000101
1906	9.5250e+01	1.8978	-12.487086	0.000181	1.811154	0.613635	-0.000087
1907	9.5300e+01	1.8962	-12.536782	0.000207	2.065054	0.699659	-0.000099
1908	9.5350e+01	1.8834	-12.582404	0.000190	1.895787	0.642310	-0.000091
1909	9.5400e+01	1.8721	-12.632100	0.000207	2.065054	0.699659	-0.000099
1910	9.5450e+01	1.8272	-12.681388	0.000205	2.048127	0.693924	-0.000099
1911	9.5500e+01	1.8112	-12.730269	0.000203	2.031200	0.688189	-0.000098
1912	9.5550e+01	1.7903	-12.775077	0.000186	1.861934	0.630840	-0.000090
1913	9.5600e+01	1.8048	-12.829661	-0.000227	-2.268174	-0.768478	-0.000109
1914	9.5650e+01	1.7663	-12.880579	0.000212	2.115834	0.716864	-0.000102
1915	9.5700e+01	1.7470	-12.936385	0.000232	2.318954	0.785683	-0.000112
1916	9.5750e+01	1.7294	-12.988932	0.000218	2.183540	0.739804	-0.000105
1917	9.5800e+01	1.6796	-13.049219	0.000251	2.505147	0.848767	-0.000121
1918	9.5850e+01	1.7005	-13.103803	-0.000227	-2.268174	-0.768478	-0.000109
1919	9.5900e+01	1.6668	-13.157572	0.000223	2.234320	0.757008	-0.000108
1920	9.5950e+01	1.6604	-13.209304	0.000215	2.149687	0.728334	-0.000103
1921	9.6000e+01	1.6492	-13.259000	0.000207	2.065054	0.699659	-0.000099
1922	9.6050e+01	1.6155	-13.313991	0.000229	2.285100	0.774213	-0.000110
1923	9.6100e+01	1.5866	-13.372241	0.000242	2.420514	0.820092	-0.000116
1924	9.6150e+01	1.5609	-13.419493	0.000196	1.963494	0.665250	-0.000095
1925	9.6200e+01	1.5256	-13.470003	0.000210	2.098907	0.711129	-0.000101
1926	9.6250e+01	1.5449	-13.518477	-0.000201	-2.014274	-0.682454	-0.000097
1927	9.6300e+01	1.5192	-13.568988	0.000210	2.098907	0.711129	-0.000101
1928	9.6350e+01	1.4486	-13.628052	0.000245	2.454367	0.831562	-0.000118
1929	9.6400e+01	1.4550	-13.683451	-0.000230	-2.302027	-0.779948	-0.000111
1930	9.6450e+01	1.4486	-13.744552	0.000254	2.539001	0.860237	-0.000122
1931	9.6500e+01	1.4214	-13.802395	0.000240	2.403587	0.814357	-0.000116
1932	9.6550e+01	1.3957	-13.860645	0.000242	2.420514	0.820092	-0.000116
1933	9.6600e+01	1.3989	-13.911563	-0.000212	-2.115834	-0.716864	-0.000102
1934	9.6650e+01	1.3620	-13.974701	0.000262	2.623634	0.888911	-0.000126
1935	9.6700e+01	1.3283	-14.026433	0.000215	2.149687	0.728334	-0.000103
1936	9.6750e+01	1.3299	-14.087127	-0.000252	-2.522074	-0.854502	-0.000121
1937	9.6800e+01	1.3010	-14.145377	0.000242	2.420514	0.820092	-0.000116
1938	9.6850e+01	1.2561	-14.200776	0.000230	2.302027	0.779948	-0.000111
1939	9.6900e+01	1.2754	-14.254138	-0.000222	-2.217394	-0.751273	-0.000107
1940	9.6950e+01	1.2353	-14.308314	0.000225	2.251247	0.762743	-0.000108
1941	9.7000e+01	1.2224	-14.353529	0.000188	1.878860	0.636575	-0.000090
1942	9.7050e+01	1.1984	-14.410557	0.000237	2.369734	0.802888	-0.000114
1943	9.7100e+01	1.2064	-14.460253	-0.000207	-2.065054	-0.699659	-0.000099
1944	9.7150e+01	1.1631	-14.515652	0.000230	2.302027	0.779948	-0.000111
1945	9.7200e+01	1.1165	-14.568606	0.000220	2.200467	0.745538	-0.000106
1946	9.7250e+01	1.1133	-14.618709	0.000208	2.081980	0.705394	-0.000100
1947	9.7300e+01	1.0909	-14.675330	0.000235	2.352807	0.797153	-0.000113
1948	9.7350e+01	1.1021	-14.725433	-0.000208	-2.081980	-0.705394	-0.000100
1949	9.7400e+01	1.0219	-14.783276	0.000240	2.403587	0.814357	-0.000116
1950	9.7450e+01	1.0267	-14.835008	-0.000215	-2.149687	-0.728334	-0.000103
1951	9.7500e+01	1.0235	-14.890814	0.000232	2.318954	0.785683	-0.000112
1952	9.7550e+01	0.9914	-14.950286	0.000247	2.471294	0.837297	-0.000119
1953	9.7600e+01	0.9722	-15.017498	0.000279	2.792901	0.946260	-0.000134
1954	9.7650e+01	0.9577	-15.086746	0.000288	2.877534	0.974935	-0.000138
1955	9.7700e+01	0.9481	-15.148662	0.000257	2.572854	0.871706	-0.000124
1956	9.7750e+01	0.9272	-15.208134	0.000247	2.471294	0.837297	-0.000119
1957	9.7800e+01	0.8984	-15.265977	0.000240	2.403587	0.814357	-0.000116
1958	9.7850e+01	0.8775	-15.318117	0.000217	2.166614	0.734069	-0.000104
1959	9.7900e+01	0.8711	-15.371479	0.000222	2.217394	0.751273	-0.000107
1960	9.7950e+01	0.8438	-15.426470	0.000229	2.285100	0.774213	-0.000110
1961	9.8000e+01	0.8069	-15.498162	0.000298	2.979094	1.009344	-0.000143
1962	9.8050e+01	0.8021	-15.570262	0.000300	2.996021	1.015079	-0.000144
1963	9.8100e+01	0.7652	-15.631363	0.000254	2.539001	0.860237	-0.000122
1964	9.8150e+01	0.7684	-15.698982	-0.000281	-2.809827	-0.951995	-0.000135
1965	9.8200e+01	0.7315	-15.765379	0.000276	2.759047	0.934791	-0.000133
1966	9.8250e+01	0.7235	-15.829739	0.000267	2.674414	0.906116	-0.000129
1967	9.8300e+01	0.7075	-15.891655	0.000257	2.572854	0.871706	-0.000124
1968	9.8350e+01	0.6818	-15.941758	0.000208	2.081980	0.705394	-0.000100
1969	9.8400e+01	0.6481	-16.007748	0.000274	2.742121	0.929056	-0.000132
1970	9.8450e+01	0.6625	-16.072515	-0.000269	-2.691341	-0.911851	-0.000130
1971	9.8500e+01	0.6128	-16.138505	0.000274	2.742121	0.929056	-0.000132
1972	9.8550e+01	0.5984	-16.186978	0.000201	2.014274	0.682454	-0.000097
1973	9.8600e+01	0.5855	-16.244821	0.000240	2.403587	0.814357	-0.000116
1974	9.8650e+01	0.5342	-16.298590	0.000223	2.234320	0.757008	-0.000108
1975	9.8700e+01	0.5551	-16.358470	-0.000249	-2.488220	-0.843032	-0.000120
1976	9.8750e+01	0.5262	-16.411424	0.000220	2.200467	0.745538	-0.000106
1977	9.8800e+01	0.4877	-16.474969	0.000264	2.640561	0.894646	-0.000127
1978	9.8850e+01	0.4829	-16.539737	0.000269	2.691341	0.911851	-0.000130
1979	9.8900e+01	0.4684	-16.595543	0.000232	2.318954	0.785683	-0.000112
1980	9.8950e+01	0.4444	-16.655422	0.000249	2.488220	0.843032	-0.000120
1981	9.9000e+01	0.4059	-16.712043	0.000235	2.352807	0.797153	-0.000113
1982	9.9050e+01	0.3834	-16.770293	0.000242	2.420514	0.820092	-0.000116
1983	9.9100e+01	0.3626	-16.824062	0.000223	2.234320	0.757008	-0.000108
1984	9.9150e+01	0.3722	-16.878646	-0.000227	-2.268174	-0.768478	-0.000109
1985	9.9200e+01	0.3401	-16.937303	0.000244	2.437440	0.825827	-0.000117
1986	9.9250e+01	0.3241	-16.996368	0.000245	2.454367	0.831562	-0.000118
1987	9.9300e+01	0.3128	-17.053803	0.000239	2.386660	0.808622	-0.000115
1988	9.9350e+01	0.3064	-17.099833	0.000191	1.912714	0.648045	-0.000092
1989	9.9400e+01	0.2503	-17.147085	0.000196	1.963494	0.665250	-0.000095
1990	9.9450e+01	0.2246	-17.198817	0.000215	2.149687	0.728334	-0.000103
1991	9.9500e+01	0.2358	-17.262363	-0.000264	-2.640561	-0.894646	-0.000127
1992	9.9550e+01	0.1877	-17.315317	0.000220	2.200467	0.745538	-0.000106
1993	9.9600e+01	0.1700	-17.371938	0.000235	2.352807	0.797153	-0.000113
1994	9.9650e+01	0.1717	-17.426522	-0.000227	-2.268174	-0.768478	-0.000109
1995	9.9700e+01	0.1283	-17.479476	0.000220	2.200467	0.745538	-0.000106
1996	9.9750e+01	0.1139	-17.538134	0.000244	2.437440	0.825827	-0.000117
1997	9.9800e+01	0.1059	-17.593125	0.000229	2.285100	0.774213	-0.000110
1998	9.9850e+01	0.0995	-17.653819	0.000252	2.522074	0.854502	-0.000121
1999	9.9900e+01	0.0481	-17.710439	0.000235	2.352807	0.797153	-0.000113
2000	9.9950e+01	0.0209	-17.768282	0.000240	2.403587	0.814357	-0.000116
2001	1.0000e+02	-0.0016	-17.818385	0.000240	2.403587	0.814357	-0.000100

PMax (uC/cm2):	4.09e+01
Pr (uC/cm2):	2.66e+00
-Pr (uC/cm2):	0.00e+00
PLoss (uC/cm2):	0.00e+00
C (Max-Eff) (nF):	2.04e-01
K (Eff):	6.92e+02
Vert. (+/-Pr) Shift (uC/cm2):	1.33e+00
Offset (uC/cm2):	2.05e+01

A (Loop Area - uC/cm2·Volts):	-5.38e-02



Hysteresis Version: 5.48.1 - Radiant Technologies, Inc., 1999 - 9/12/24

