»»»»»»»»»»»»»»»»»»»»»»»»»»»»»»»»»»»» Hysteresis ««««««««««««««««««««««««««««««««««««
»»»  Executed Version:	5.48.1
»»»  Vision Version:	5.48.4 (R)
»»»  Vision Compiled:	9/18/24
»»»  Driver Version:	5.47.0
»»»  Windows Version:	Windows 8 or 8.1
»»»  Processor Information:	x86 (AMD or Intel) - 32 Processors
»»»  Tester Name:	PMF21124-494 (100V)
»»»  Tester S/N:	PMF21124-494
»»»  Internal Amp Type:	100V RevK 270k
»»»  Internal Amp S/N:	iAB2-596/K     
»»»  Execution Count:	1
»»»»»»»»»»»»»»»»»»»»»»»»»»»»»»»»»»»»»»»»»»««««««««««««««««««««««««««««««««««««««««««

Stored:	10/8/2025 - 19:31:54
Configured:	10/08/25 04:22:59 PM
Executed:	10/08/25 07:31:34 PM

»»»»»»»»»»»»»»»»»»»»»»»»»»»»»»»»»»» Sample Info ««««««««««««««««««««««««««««««««««««
Sample Name:	Int. Ref. Ferroelectric
Lot Name:	N/A
Wafer Name:	N/A
Die Row/Column:	0/0
Capacitor Number:	0
Sample Area (cm2):	1.00e-04
Sample Thickness (microns):	3.00e-01

Amplifier:	Internal

»»»»»»»»»»»»»»»»»»»»»»»»»»»»»»»»»»» Tester Info «««««««««««««««««««««««««««««««««««
Tester Name:	PMF21124-494 (100V)
Tester Serial Number:	PMF21124-494
Return Signal Amp. Level:	1.9 [Index: 2]

»»»»»»»»»»»»»»»»»»»»»»»»»»»»»»»» Hysteresis Info ««««««««««««««««««««««««««««««««««
Task Name:	Hyste-8
Volts:	20.00
Field:	666.67 (kV/cm)
DCBias:	0.00
DCField:	0.00 (kV/cm)
Hysteresis Period (ms):	1.00e+02
Preset:	Enabled
Preset Delay (ms):	1.00e+03
Profile:	Standard Monopolar

»»»»»»»»»»»»»»»»»»»»»»»»»»»»»»»»»»»»»» Data «««««««««««««««««««««««««««««««««««««««
Points:	2001

Valid Data

Point	Time (ms)	Drive Voltage	Measured Polarization (uC/cm2)	Capacitance (uF)	Normalized Capacitance (uF/cm2)	Dielectric Constant	Instantaneous Current (mA)
   1	0.0000e+00	0.0513	-9.047282	-0.000035	-0.350989	-0.118918	0.000016
   2	5.0000e-02	0.0497	-9.039135	-0.000035	-0.350989	-0.118918	0.000016
   3	1.0000e-01	0.0401	-9.013880	-0.000109	-1.088067	-0.368647	0.000051
   4	1.5000e-01	0.0930	-8.988217	0.000111	1.105616	0.374593	0.000051
   5	2.0000e-01	0.1123	-8.969072	0.000082	0.824825	0.279458	0.000038
   6	2.5000e-01	0.1219	-8.938521	0.000132	1.316210	0.445944	0.000061
   7	3.0000e-01	0.1171	-8.918154	-0.000088	-0.877473	-0.297296	0.000041
   8	3.5000e-01	0.1556	-8.894528	0.000102	1.017869	0.344863	0.000047
   9	4.0000e-01	0.1925	-8.870088	0.000105	1.052968	0.356755	0.000049
  10	4.5000e-01	0.2005	-8.842388	0.000119	1.193363	0.404322	0.000055
  11	5.0000e-01	0.2134	-8.825280	0.000074	0.737077	0.249729	0.000034
  12	5.5000e-01	0.2310	-8.799210	0.000112	1.123165	0.380539	0.000052
  13	6.0000e-01	0.2615	-8.774362	0.000107	1.070517	0.362701	0.000050
  14	6.5000e-01	0.2791	-8.749514	0.000107	1.070517	0.362701	0.000050
  15	7.0000e-01	0.2920	-8.723852	0.000111	1.105616	0.374593	0.000051
  16	7.5000e-01	0.3353	-8.699819	0.000104	1.035418	0.350809	0.000048
  17	8.0000e-01	0.3385	-8.675378	0.000105	1.052968	0.356755	0.000049
  18	8.5000e-01	0.3513	-8.652159	0.000100	1.000319	0.338917	0.000046
  19	9.0000e-01	0.3690	-8.633422	0.000081	0.807275	0.273512	0.000037
  20	9.5000e-01	0.3802	-8.611833	0.000093	0.930121	0.315134	0.000043
  21	1.0000e+00	0.4380	-8.585763	0.000112	1.123165	0.380539	0.000052
  22	1.0500e+00	0.4299	-8.565803	-0.000086	-0.859924	-0.291350	0.000040
  23	1.1000e+00	0.4492	-8.536067	0.000128	1.281111	0.434052	0.000059
  24	1.1500e+00	0.4813	-8.514070	0.000095	0.947671	0.321080	0.000044
  25	1.2000e+00	0.5150	-8.497369	0.000072	0.719528	0.243783	0.000033
  26	1.2500e+00	0.5358	-8.471299	0.000112	1.123165	0.380539	0.000052
  27	1.3000e+00	0.5486	-8.447266	0.000104	1.035418	0.350809	0.000048
  28	1.3500e+00	0.5599	-8.420382	0.000116	1.158264	0.392431	0.000054
  29	1.4000e+00	0.6000	-8.404495	0.000068	0.684429	0.231891	0.000032
  30	1.4500e+00	0.5920	-8.379240	-0.000109	-1.088067	-0.368647	0.000051
  31	1.5000e+00	0.5952	-8.358873	0.000088	0.877473	0.297296	0.000041
  32	1.5500e+00	0.6305	-8.330359	0.000123	1.228462	0.416214	0.000057
  33	1.6000e+00	0.6353	-8.308362	0.000095	0.947671	0.321080	0.000044
  34	1.6500e+00	0.7107	-8.276997	0.000135	1.351308	0.457836	0.000063
  35	1.7000e+00	0.6962	-8.255408	-0.000093	-0.930121	-0.315134	0.000043
  36	1.7500e+00	0.7219	-8.236263	0.000082	0.824825	0.279458	0.000038
  37	1.8000e+00	0.7235	-8.218340	0.000077	0.772176	0.261620	0.000036
  38	1.8500e+00	0.7588	-8.186974	0.000135	1.351308	0.457836	0.000063
  39	1.9000e+00	0.7925	-8.165792	0.000091	0.912572	0.309188	0.000042
  40	1.9500e+00	0.7877	-8.142981	-0.000098	-0.982770	-0.332971	0.000046
  41	2.0000e+00	0.8150	-8.120577	0.000097	0.965220	0.327025	0.000045
  42	2.0500e+00	0.8551	-8.096544	0.000104	1.035418	0.350809	0.000048
  43	2.1000e+00	0.8486	-8.073733	-0.000098	-0.982770	-0.332971	0.000046
  44	2.1500e+00	0.8791	-8.049700	0.000104	1.035418	0.350809	0.000048
  45	2.2000e+00	0.8871	-8.025667	0.000104	1.035418	0.350809	0.000048
  46	2.2500e+00	0.9481	-8.003263	0.000097	0.965220	0.327025	0.000045
  47	2.3000e+00	0.9625	-7.982488	0.000090	0.895022	0.303242	0.000042
  48	2.3500e+00	0.9690	-7.961714	0.000090	0.895022	0.303242	0.000042
  49	2.4000e+00	1.0026	-7.935237	0.000114	1.140715	0.386485	0.000053
  50	2.4500e+00	0.9866	-7.906723	-0.000123	-1.228462	-0.416214	0.000057
  51	2.5000e+00	1.0187	-7.883911	0.000098	0.982770	0.332971	0.000046
  52	2.5500e+00	1.0508	-7.863952	0.000086	0.859924	0.291350	0.000040
  53	2.6000e+00	1.0652	-7.840326	0.000102	1.017869	0.344863	0.000047
  54	2.6500e+00	1.0989	-7.815071	0.000109	1.088067	0.368647	0.000051
  55	2.7000e+00	1.1053	-7.792259	0.000098	0.982770	0.332971	0.000046
  56	2.7500e+00	1.1198	-7.768226	0.000104	1.035418	0.350809	0.000048
  57	2.8000e+00	1.1374	-7.747044	0.000091	0.912572	0.309188	0.000042
  58	2.8500e+00	1.1711	-7.721382	0.000111	1.105616	0.374593	0.000051
  59	2.9000e+00	1.1968	-7.701015	0.000088	0.877473	0.297296	0.000041
  60	2.9500e+00	1.1935	-7.674130	-0.000116	-1.158264	-0.392431	0.000054
  61	3.0000e+00	1.2337	-7.648875	0.000109	1.088067	0.368647	0.000051
  62	3.0500e+00	1.2609	-7.623620	0.000109	1.088067	0.368647	0.000051
  63	3.1000e+00	1.2513	-7.604474	-0.000082	-0.824825	-0.279458	0.000038
  64	3.1500e+00	1.2706	-7.581256	0.000100	1.000319	0.338917	0.000046
  65	3.2000e+00	1.2898	-7.555186	0.000112	1.123165	0.380539	0.000052
  66	3.2500e+00	1.3139	-7.531560	0.000102	1.017869	0.344863	0.000047
  67	3.3000e+00	1.3460	-7.508749	0.000098	0.982770	0.332971	0.000046
  68	3.3500e+00	1.3604	-7.485938	0.000098	0.982770	0.332971	0.000046
  69	3.4000e+00	1.3812	-7.458646	0.000118	1.175814	0.398377	0.000055
  70	3.4500e+00	1.3957	-7.435020	0.000102	1.017869	0.344863	0.000047
  71	3.5000e+00	1.4374	-7.411394	0.000102	1.017869	0.344863	0.000047
  72	3.5500e+00	1.4454	-7.389398	0.000095	0.947671	0.321080	0.000044
  73	3.6000e+00	1.4422	-7.366994	-0.000097	-0.965220	-0.327025	0.000045
  74	3.6500e+00	1.4791	-7.340109	0.000116	1.158264	0.392431	0.000054
  75	3.7000e+00	1.5032	-7.312817	0.000118	1.175814	0.398377	0.000055
  76	3.7500e+00	1.5160	-7.288784	0.000104	1.035418	0.350809	0.000048
  77	3.8000e+00	1.5208	-7.264751	0.000104	1.035418	0.350809	0.000048
  78	3.8500e+00	1.5641	-7.238273	0.000114	1.140715	0.386485	0.000053
  79	3.9000e+00	1.5673	-7.215462	0.000098	0.982770	0.332971	0.000046
  80	3.9500e+00	1.6010	-7.188578	0.000116	1.158264	0.392431	0.000054
  81	4.0000e+00	1.6171	-7.161693	0.000116	1.158264	0.392431	0.000054
  82	4.0500e+00	1.6363	-7.138475	0.000100	1.000319	0.338917	0.000046
  83	4.1000e+00	1.6684	-7.116885	0.000093	0.930121	0.315134	0.000043
  84	4.1500e+00	1.6748	-7.090815	0.000112	1.123165	0.380539	0.000052
  85	4.2000e+00	1.7069	-7.068004	0.000098	0.982770	0.332971	0.000046
  86	4.2500e+00	1.7326	-7.039898	0.000121	1.210913	0.410268	0.000056
  87	4.3000e+00	1.7582	-7.014235	0.000111	1.105616	0.374593	0.000051
  88	4.3500e+00	1.7791	-6.992239	0.000095	0.947671	0.321080	0.000044
  89	4.4000e+00	1.7807	-6.967798	0.000105	1.052968	0.356755	0.000049
  90	4.4500e+00	1.7871	-6.947431	0.000088	0.877473	0.297296	0.000041
  91	4.5000e+00	1.8256	-6.920139	0.000118	1.175814	0.398377	0.000055
  92	4.5500e+00	1.8609	-6.896106	0.000104	1.035418	0.350809	0.000048
  93	4.6000e+00	1.8368	-6.868814	-0.000118	-1.175814	-0.398377	0.000055
  94	4.6500e+00	1.8625	-6.848854	0.000086	0.859924	0.291350	0.000040
  95	4.7000e+00	1.8994	-6.823599	0.000109	1.088067	0.368647	0.000051
  96	4.7500e+00	1.9074	-6.798344	0.000109	1.088067	0.368647	0.000051
  97	4.8000e+00	1.9347	-6.773088	0.000109	1.088067	0.368647	0.000051
  98	4.8500e+00	1.9796	-6.747426	0.000111	1.105616	0.374593	0.000051
  99	4.9000e+00	1.9700	-6.726244	-0.000091	-0.912572	-0.309188	0.000042
 100	4.9500e+00	2.0133	-6.698952	0.000118	1.175814	0.398377	0.000055
 101	5.0000e+00	2.0261	-6.674104	0.000107	1.070517	0.362701	0.000050
 102	5.0500e+00	2.0518	-6.650071	0.000104	1.035418	0.350809	0.000048
 103	5.1000e+00	2.0454	-6.628482	-0.000093	-0.930121	-0.315134	0.000043
 104	5.1500e+00	2.0759	-6.604041	0.000105	1.052968	0.356755	0.000049
 105	5.2000e+00	2.1240	-6.576342	0.000119	1.193363	0.404322	0.000055
 106	5.2500e+00	2.1256	-6.553938	0.000097	0.965220	0.327025	0.000045
 107	5.3000e+00	2.1352	-6.533164	0.000090	0.895022	0.303242	0.000042
 108	5.3500e+00	2.1641	-6.507094	0.000112	1.123165	0.380539	0.000052
 109	5.4000e+00	2.1513	-6.483060	-0.000104	-1.035418	-0.350809	0.000048
 110	5.4500e+00	2.2090	-6.462693	0.000088	0.877473	0.297296	0.000041
 111	5.5000e+00	2.2331	-6.437845	0.000107	1.070517	0.362701	0.000050
 112	5.5500e+00	2.2299	-6.414219	-0.000102	-1.017869	-0.344863	0.000047
 113	5.6000e+00	2.2924	-6.389372	0.000107	1.070517	0.362701	0.000050
 114	5.6500e+00	2.2748	-6.364116	-0.000109	-1.088067	-0.368647	0.000051
 115	5.7000e+00	2.3053	-6.341713	0.000097	0.965220	0.327025	0.000045
 116	5.7500e+00	2.3181	-6.316865	0.000107	1.070517	0.362701	0.000050
 117	5.8000e+00	2.3422	-6.296090	0.000090	0.895022	0.303242	0.000042
 118	5.8500e+00	2.3711	-6.276130	0.000086	0.859924	0.291350	0.000040
 119	5.9000e+00	2.3743	-6.248431	0.000119	1.193363	0.404322	0.000055
 120	5.9500e+00	2.3823	-6.227657	0.000090	0.895022	0.303242	0.000042
 121	6.0000e+00	2.4112	-6.205660	0.000095	0.947671	0.321080	0.000044
 122	6.0500e+00	2.4224	-6.177961	0.000119	1.193363	0.404322	0.000055
 123	6.1000e+00	2.4609	-6.155150	0.000098	0.982770	0.332971	0.000046
 124	6.1500e+00	2.5251	-6.136819	0.000079	0.789726	0.267566	0.000037
 125	6.2000e+00	2.5154	-6.116452	-0.000088	-0.877473	-0.297296	0.000041
 126	6.2500e+00	2.4962	-6.093234	-0.000100	-1.000319	-0.338917	0.000046
 127	6.3000e+00	2.5395	-6.062276	0.000133	1.333759	0.451890	0.000062
 128	6.3500e+00	2.5700	-6.040279	0.000095	0.947671	0.321080	0.000044
 129	6.4000e+00	2.5668	-6.016653	-0.000102	-1.017869	-0.344863	0.000047
 130	6.4500e+00	2.5908	-5.995064	0.000093	0.930121	0.315134	0.000043
 131	6.5000e+00	2.6406	-5.971845	0.000100	1.000319	0.338917	0.000046
 132	6.5500e+00	2.6438	-5.951478	0.000088	0.877473	0.297296	0.000041
 133	6.6000e+00	2.6470	-5.927852	0.000102	1.017869	0.344863	0.000047
 134	6.6500e+00	2.6743	-5.904634	0.000100	1.000319	0.338917	0.000046
 135	6.7000e+00	2.6967	-5.880193	0.000105	1.052968	0.356755	0.000049
 136	6.7500e+00	2.7079	-5.857790	0.000097	0.965220	0.327025	0.000045
 137	6.8000e+00	2.7304	-5.837830	0.000086	0.859924	0.291350	0.000040
 138	6.8500e+00	2.7577	-5.814611	0.000100	1.000319	0.338917	0.000046
 139	6.9000e+00	2.7946	-5.788949	0.000111	1.105616	0.374593	0.000051
 140	6.9500e+00	2.7898	-5.770618	-0.000079	-0.789726	-0.267566	0.000037
 141	7.0000e+00	2.8299	-5.748622	0.000095	0.947671	0.321080	0.000044
 142	7.0500e+00	2.8218	-5.724589	-0.000104	-1.035418	-0.350809	0.000048
 143	7.1000e+00	2.8411	-5.702185	0.000097	0.965220	0.327025	0.000045
 144	7.1500e+00	2.8652	-5.677337	0.000107	1.070517	0.362701	0.000050
 145	7.2000e+00	2.9069	-5.656970	0.000088	0.877473	0.297296	0.000041
 146	7.2500e+00	2.9101	-5.630085	0.000116	1.158264	0.392431	0.000054
 147	7.3000e+00	2.9550	-5.612162	0.000077	0.772176	0.261620	0.000036
 148	7.3500e+00	2.9807	-5.592202	0.000086	0.859924	0.291350	0.000040
 149	7.4000e+00	2.9614	-5.568984	-0.000100	-1.000319	-0.338917	0.000046
 150	7.4500e+00	2.9871	-5.545765	0.000100	1.000319	0.338917	0.000046
 151	7.5000e+00	3.0127	-5.522954	0.000098	0.982770	0.332971	0.000046
 152	7.5500e+00	3.0609	-5.501772	0.000091	0.912572	0.309188	0.000042
 153	7.6000e+00	3.0529	-5.477739	-0.000104	-1.035418	-0.350809	0.000048
 154	7.6500e+00	3.0609	-5.463482	0.000061	0.614231	0.208107	0.000029
 155	7.7000e+00	3.0881	-5.435375	0.000121	1.210913	0.410268	0.000056
 156	7.7500e+00	3.1122	-5.413379	0.000095	0.947671	0.321080	0.000044
 157	7.8000e+00	3.1443	-5.390160	0.000100	1.000319	0.338917	0.000046
 158	7.8500e+00	3.1507	-5.368978	0.000091	0.912572	0.309188	0.000042
 159	7.9000e+00	3.1844	-5.349019	0.000086	0.859924	0.291350	0.000040
 160	7.9500e+00	3.1924	-5.323763	0.000109	1.088067	0.368647	0.000051
 161	8.0000e+00	3.2277	-5.304618	0.000082	0.824825	0.279458	0.000038
 162	8.0500e+00	3.2630	-5.284659	0.000086	0.859924	0.291350	0.000040
 163	8.1000e+00	3.2341	-5.259403	-0.000109	-1.088067	-0.368647	0.000051
 164	8.1500e+00	3.2839	-5.237814	0.000093	0.930121	0.315134	0.000043
 165	8.2000e+00	3.3031	-5.215818	0.000095	0.947671	0.321080	0.000044
 166	8.2500e+00	3.3176	-5.190155	0.000111	1.105616	0.374593	0.000051
 167	8.3000e+00	3.3416	-5.167751	0.000097	0.965220	0.327025	0.000045
 168	8.3500e+00	3.3657	-5.156346	0.000049	0.491385	0.166486	0.000023
 169	8.4000e+00	3.3785	-5.127832	0.000123	1.228462	0.416214	0.000057
 170	8.4500e+00	3.3978	-5.111945	0.000068	0.684429	0.231891	0.000032
 171	8.5000e+00	3.4202	-5.084653	0.000118	1.175814	0.398377	0.000055
 172	8.5500e+00	3.4170	-5.067138	-0.000075	-0.754627	-0.255674	0.000035
 173	8.6000e+00	3.4539	-5.042290	0.000107	1.070517	0.362701	0.000050
 174	8.6500e+00	3.4667	-5.020701	0.000093	0.930121	0.315134	0.000043
 175	8.7000e+00	3.5101	-4.997889	0.000098	0.982770	0.332971	0.000046
 176	8.7500e+00	3.5261	-4.978744	0.000082	0.824825	0.279458	0.000038
 177	8.8000e+00	3.5357	-4.957970	0.000090	0.895022	0.303242	0.000042
 178	8.8500e+00	3.5486	-4.935159	0.000098	0.982770	0.332971	0.000046
 179	8.9000e+00	3.5662	-4.912755	0.000097	0.965220	0.327025	0.000045
 180	8.9500e+00	3.5935	-4.892795	0.000086	0.859924	0.291350	0.000040
 181	9.0000e+00	3.6240	-4.870391	0.000097	0.965220	0.327025	0.000045
 182	9.0500e+00	3.6368	-4.853690	0.000072	0.719528	0.243783	0.000033
 183	9.1000e+00	3.6416	-4.828435	0.000109	1.088067	0.368647	0.000051
 184	9.1500e+00	3.6881	-4.802772	0.000111	1.105616	0.374593	0.000051
 185	9.2000e+00	3.7138	-4.779961	0.000098	0.982770	0.332971	0.000046
 186	9.2500e+00	3.7379	-4.762853	0.000074	0.737077	0.249729	0.000034
 187	9.3000e+00	3.7427	-4.734746	0.000121	1.210913	0.410268	0.000056
 188	9.3500e+00	3.7699	-4.712342	0.000097	0.965220	0.327025	0.000045
 189	9.4000e+00	3.7940	-4.692383	0.000086	0.859924	0.291350	0.000040
 190	9.4500e+00	3.8036	-4.669164	0.000100	1.000319	0.338917	0.000046
 191	9.5000e+00	3.8036	-4.650019	-0.000082	-0.824825	-0.279458	0.000038
 192	9.5500e+00	3.8405	-4.626393	0.000102	1.017869	0.344863	0.000047
 193	9.6000e+00	3.8822	-4.599916	0.000114	1.140715	0.386485	0.000053
 194	9.6500e+00	3.8951	-4.580771	0.000082	0.824825	0.279458	0.000038
 195	9.7000e+00	3.8903	-4.559996	-0.000090	-0.895022	-0.303242	0.000042
 196	9.7500e+00	3.8999	-4.537185	0.000098	0.982770	0.332971	0.000046
 197	9.8000e+00	3.9448	-4.518855	0.000079	0.789726	0.267566	0.000037
 198	9.8500e+00	3.9849	-4.494414	0.000105	1.052968	0.356755	0.000049
 199	9.9000e+00	4.0042	-4.470381	0.000104	1.035418	0.350809	0.000048
 200	9.9500e+00	4.0074	-4.450014	0.000088	0.877473	0.297296	0.000041
 201	1.0000e+01	4.0010	-4.432498	-0.000075	-0.754627	-0.255674	0.000035
 202	1.0050e+01	4.0507	-4.409279	0.000100	1.000319	0.338917	0.000046
 203	1.0100e+01	4.0571	-4.387690	0.000093	0.930121	0.315134	0.000043
 204	1.0150e+01	4.0603	-4.363250	0.000105	1.052968	0.356755	0.000049
 205	1.0200e+01	4.0844	-4.341661	0.000093	0.930121	0.315134	0.000043
 206	1.0250e+01	4.1325	-4.319664	0.000095	0.947671	0.321080	0.000044
 207	1.0300e+01	4.1485	-4.296038	0.000102	1.017869	0.344863	0.000047
 208	1.0350e+01	4.1630	-4.277300	0.000081	0.807275	0.273512	0.000037
 209	1.0400e+01	4.1822	-4.252453	0.000107	1.070517	0.362701	0.000050
 210	1.0450e+01	4.2079	-4.231678	0.000090	0.895022	0.303242	0.000042
 211	1.0500e+01	4.2255	-4.212126	0.000084	0.842374	0.285404	0.000039
 212	1.0550e+01	4.2416	-4.192981	0.000082	0.824825	0.279458	0.000038
 213	1.0600e+01	4.2464	-4.166503	0.000114	1.140715	0.386485	0.000053
 214	1.0650e+01	4.2817	-4.144507	0.000095	0.947671	0.321080	0.000044
 215	1.0700e+01	4.3042	-4.129842	0.000063	0.631781	0.214053	0.000029
 216	1.0750e+01	4.3298	-4.100921	0.000125	1.246012	0.422160	0.000058
 217	1.0800e+01	4.3459	-4.083405	0.000075	0.754627	0.255674	0.000035
 218	1.0850e+01	4.3603	-4.063446	0.000086	0.859924	0.291350	0.000040
 219	1.0900e+01	4.3763	-4.041856	0.000093	0.930121	0.315134	0.000043
 220	1.0950e+01	4.4100	-4.021082	0.000090	0.895022	0.303242	0.000042
 221	1.1000e+01	4.4020	-4.001530	-0.000084	-0.842374	-0.285404	0.000039
 222	1.1050e+01	4.4405	-3.986051	0.000067	0.666879	0.225945	0.000031
 223	1.1100e+01	4.4598	-3.963647	0.000097	0.965220	0.327025	0.000045
 224	1.1150e+01	4.4806	-3.943280	0.000088	0.877473	0.297296	0.000041
 225	1.1200e+01	4.4902	-3.920468	0.000098	0.982770	0.332971	0.000046
 226	1.1250e+01	4.5095	-3.901731	0.000081	0.807275	0.273512	0.000037
 227	1.1300e+01	4.5320	-3.880956	0.000090	0.895022	0.303242	0.000042
 228	1.1350e+01	4.5689	-3.860182	0.000090	0.895022	0.303242	0.000042
 229	1.1400e+01	4.5769	-3.834519	0.000111	1.105616	0.374593	0.000051
 230	1.1450e+01	4.5833	-3.819855	0.000063	0.631781	0.214053	0.000029
 231	1.1500e+01	4.6090	-3.800302	0.000084	0.842374	0.285404	0.000039
 232	1.1550e+01	4.6475	-3.779935	0.000088	0.877473	0.297296	0.000041
 233	1.1600e+01	4.6635	-3.758753	0.000091	0.912572	0.309188	0.000042
 234	1.1650e+01	4.6908	-3.740016	0.000081	0.807275	0.273512	0.000037
 235	1.1700e+01	4.7004	-3.718426	0.000093	0.930121	0.315134	0.000043
 236	1.1750e+01	4.7325	-3.701725	0.000072	0.719528	0.243783	0.000033
 237	1.1800e+01	4.7566	-3.680136	0.000093	0.930121	0.315134	0.000043
 238	1.1850e+01	4.7533	-3.660584	-0.000084	-0.842374	-0.285404	0.000039
 239	1.1900e+01	4.7630	-3.641031	0.000084	0.842374	0.285404	0.000039
 240	1.1950e+01	4.8127	-3.624330	0.000072	0.719528	0.243783	0.000033
 241	1.2000e+01	4.8111	-3.601927	-0.000097	-0.965220	-0.327025	0.000045
 242	1.2050e+01	4.8319	-3.584818	0.000074	0.737077	0.249729	0.000034
 243	1.2100e+01	4.8640	-3.565266	0.000084	0.842374	0.285404	0.000039
 244	1.2150e+01	4.8544	-3.547343	-0.000077	-0.772176	-0.261620	0.000036
 245	1.2200e+01	4.9122	-3.529012	0.000079	0.789726	0.267566	0.000037
 246	1.2250e+01	4.9266	-3.512311	0.000072	0.719528	0.243783	0.000033
 247	1.2300e+01	4.9426	-3.494795	0.000075	0.754627	0.255674	0.000035
 248	1.2350e+01	4.9587	-3.472799	0.000095	0.947671	0.321080	0.000044
 249	1.2400e+01	4.9779	-3.453654	0.000082	0.824825	0.279458	0.000038
 250	1.2450e+01	5.0357	-3.434509	0.000082	0.824825	0.279458	0.000038
 251	1.2500e+01	5.0212	-3.414956	-0.000084	-0.842374	-0.285404	0.000039
 252	1.2550e+01	5.0517	-3.398663	0.000070	0.701978	0.237837	0.000033
 253	1.2600e+01	5.0501	-3.381147	-0.000075	-0.754627	-0.255674	0.000035
 254	1.2650e+01	5.0902	-3.363631	0.000075	0.754627	0.255674	0.000035
 255	1.2700e+01	5.1175	-3.339598	0.000104	1.035418	0.350809	0.000048
 256	1.2750e+01	5.1464	-3.326563	0.000056	0.561583	0.190269	0.000026
 257	1.2800e+01	5.1384	-3.307418	-0.000082	-0.824825	-0.279458	0.000038
 258	1.2850e+01	5.1592	-3.287051	0.000088	0.877473	0.297296	0.000041
 259	1.2900e+01	5.1737	-3.263018	0.000104	1.035418	0.350809	0.000048
 260	1.2950e+01	5.1913	-3.246724	0.000070	0.701978	0.237837	0.000033
 261	1.3000e+01	5.1993	-3.226357	0.000088	0.877473	0.297296	0.000041
 262	1.3050e+01	5.2314	-3.207212	0.000082	0.824825	0.279458	0.000038
 263	1.3100e+01	5.2667	-3.193769	0.000058	0.579132	0.196215	0.000027
 264	1.3150e+01	5.2795	-3.176254	0.000075	0.754627	0.255674	0.000035
 265	1.3200e+01	5.2940	-3.155479	0.000090	0.895022	0.303242	0.000042
 266	1.3250e+01	5.3341	-3.136334	0.000082	0.824825	0.279458	0.000038
 267	1.3300e+01	5.3373	-3.120855	0.000067	0.666879	0.225945	0.000031
 268	1.3350e+01	5.3565	-3.103747	0.000074	0.737077	0.249729	0.000034
 269	1.3400e+01	5.3806	-3.084194	0.000084	0.842374	0.285404	0.000039
 270	1.3450e+01	5.4079	-3.065456	0.000081	0.807275	0.273512	0.000037
 271	1.3500e+01	5.4159	-3.045497	0.000086	0.859924	0.291350	0.000040
 272	1.3550e+01	5.4383	-3.024722	0.000090	0.895022	0.303242	0.000042
 273	1.3600e+01	5.4608	-3.010465	0.000061	0.614231	0.208107	0.000029
 274	1.3650e+01	5.4817	-2.993764	0.000072	0.719528	0.243783	0.000033
 275	1.3700e+01	5.5057	-2.973397	0.000088	0.877473	0.297296	0.000041
 276	1.3750e+01	5.5186	-2.952622	0.000090	0.895022	0.303242	0.000042
 277	1.3800e+01	5.5362	-2.936736	0.000068	0.684429	0.231891	0.000032
 278	1.3850e+01	5.5875	-2.912703	0.000104	1.035418	0.350809	0.000048
 279	1.3900e+01	5.5859	-2.892743	-0.000086	-0.859924	-0.291350	0.000040
 280	1.3950e+01	5.5779	-2.872783	-0.000086	-0.859924	-0.291350	0.000040
 281	1.4000e+01	5.6196	-2.852009	0.000090	0.895022	0.303242	0.000042
 282	1.4050e+01	5.6453	-2.836123	0.000068	0.684429	0.231891	0.000032
 283	1.4100e+01	5.6902	-2.820236	0.000068	0.684429	0.231891	0.000032
 284	1.4150e+01	5.6774	-2.798647	-0.000093	-0.930121	-0.315134	0.000043
 285	1.4200e+01	5.7239	-2.776243	0.000097	0.965220	0.327025	0.000045
 286	1.4250e+01	5.7063	-2.759135	-0.000074	-0.737077	-0.249729	0.000034
 287	1.4300e+01	5.7480	-2.737546	0.000093	0.930121	0.315134	0.000043
 288	1.4350e+01	5.7784	-2.718808	0.000081	0.807275	0.273512	0.000037
 289	1.4400e+01	5.7624	-2.698848	-0.000086	-0.859924	-0.291350	0.000040
 290	1.4450e+01	5.8153	-2.682962	0.000068	0.684429	0.231891	0.000032
 291	1.4500e+01	5.8554	-2.661780	0.000091	0.912572	0.309188	0.000042
 292	1.4550e+01	5.8410	-2.642635	-0.000082	-0.824825	-0.279458	0.000038
 293	1.4600e+01	5.8699	-2.627563	0.000065	0.649330	0.219999	0.000030
 294	1.4650e+01	5.8731	-2.602715	0.000107	1.070517	0.362701	0.000050
 295	1.4700e+01	5.9148	-2.585607	0.000074	0.737077	0.249729	0.000034
 296	1.4750e+01	5.9228	-2.567684	0.000077	0.772176	0.261620	0.000036
 297	1.4800e+01	5.9228	-2.550168	-0.000075	-0.754627	-0.255674	0.000035
 298	1.4850e+01	5.9469	-2.528172	0.000095	0.947671	0.321080	0.000044
 299	1.4900e+01	5.9982	-2.509841	0.000079	0.789726	0.267566	0.000037
 300	1.4950e+01	5.9870	-2.488252	-0.000093	-0.930121	-0.315134	0.000043
 301	1.5000e+01	6.0046	-2.467885	0.000088	0.877473	0.297296	0.000041
 302	1.5050e+01	6.0608	-2.450369	0.000075	0.754627	0.255674	0.000035
 303	1.5100e+01	6.0929	-2.433261	0.000074	0.737077	0.249729	0.000034
 304	1.5150e+01	6.0720	-2.411264	-0.000095	-0.947671	-0.321080	0.000044
 305	1.5200e+01	6.0993	-2.396600	0.000063	0.631781	0.214053	0.000029
 306	1.5250e+01	6.1009	-2.375418	0.000091	0.912572	0.309188	0.000042
 307	1.5300e+01	6.1185	-2.357902	0.000075	0.754627	0.255674	0.000035
 308	1.5350e+01	6.1667	-2.334276	0.000102	1.017869	0.344863	0.000047
 309	1.5400e+01	6.1859	-2.319205	0.000065	0.649330	0.219999	0.000030
 310	1.5450e+01	6.2068	-2.300874	0.000079	0.789726	0.267566	0.000037
 311	1.5500e+01	6.2244	-2.281322	0.000084	0.842374	0.285404	0.000039
 312	1.5550e+01	6.2340	-2.258511	0.000098	0.982770	0.332971	0.000046
 313	1.5600e+01	6.2597	-2.241402	0.000074	0.737077	0.249729	0.000034
 314	1.5650e+01	6.2886	-2.223887	0.000075	0.754627	0.255674	0.000035
 315	1.5700e+01	6.3046	-2.205149	0.000081	0.807275	0.273512	0.000037
 316	1.5750e+01	6.3303	-2.187226	0.000077	0.772176	0.261620	0.000036
 317	1.5800e+01	6.3383	-2.166859	0.000088	0.877473	0.297296	0.000041
 318	1.5850e+01	6.3560	-2.146899	0.000086	0.859924	0.291350	0.000040
 319	1.5900e+01	6.3848	-2.126532	0.000088	0.877473	0.297296	0.000041
 320	1.5950e+01	6.4394	-2.109831	0.000072	0.719528	0.243783	0.000033
 321	1.6000e+01	6.4137	-2.093537	-0.000070	-0.701978	-0.237837	0.000033
 322	1.6050e+01	6.4394	-2.073170	0.000088	0.877473	0.297296	0.000041
 323	1.6100e+01	6.4426	-2.054840	0.000079	0.789726	0.267566	0.000037
 324	1.6150e+01	6.4827	-2.034880	0.000086	0.859924	0.291350	0.000040
 325	1.6200e+01	6.4987	-2.015327	0.000084	0.842374	0.285404	0.000039
 326	1.6250e+01	6.5405	-1.998219	0.000074	0.737077	0.249729	0.000034
 327	1.6300e+01	6.5421	-1.979074	0.000082	0.824825	0.279458	0.000038
 328	1.6350e+01	6.5549	-1.962373	0.000072	0.719528	0.243783	0.000033
 329	1.6400e+01	6.5709	-1.941598	0.000090	0.895022	0.303242	0.000042
 330	1.6450e+01	6.5902	-1.922046	0.000084	0.842374	0.285404	0.000039
 331	1.6500e+01	6.6110	-1.902086	0.000086	0.859924	0.291350	0.000040
 332	1.6550e+01	6.6367	-1.882941	0.000082	0.824825	0.279458	0.000038
 333	1.6600e+01	6.6592	-1.864203	0.000081	0.807275	0.273512	0.000037
 334	1.6650e+01	6.6929	-1.848724	0.000067	0.666879	0.225945	0.000031
 335	1.6700e+01	6.6929	-1.826728	-0.000095	-0.947671	-0.321080	0.000044
 336	1.6750e+01	6.7169	-1.810841	0.000068	0.684429	0.231891	0.000032
 337	1.6800e+01	6.7458	-1.787215	0.000102	1.017869	0.344863	0.000047
 338	1.6850e+01	6.7506	-1.770922	0.000070	0.701978	0.237837	0.000033
 339	1.6900e+01	6.7875	-1.754221	0.000072	0.719528	0.243783	0.000033
 340	1.6950e+01	6.7875	-1.733854	-0.000088	-0.877473	-0.297296	0.000041
 341	1.7000e+01	6.8164	-1.713486	0.000088	0.877473	0.297296	0.000041
 342	1.7050e+01	6.8533	-1.695971	0.000075	0.754627	0.255674	0.000035
 343	1.7100e+01	6.8565	-1.679270	0.000072	0.719528	0.243783	0.000033
 344	1.7150e+01	6.8918	-1.660939	0.000079	0.789726	0.267566	0.000037
 345	1.7200e+01	6.8757	-1.639350	-0.000093	-0.930121	-0.315134	0.000043
 346	1.7250e+01	6.9078	-1.621427	0.000077	0.772176	0.261620	0.000036
 347	1.7300e+01	6.9608	-1.604726	0.000072	0.719528	0.243783	0.000033
 348	1.7350e+01	6.9720	-1.586803	0.000077	0.772176	0.261620	0.000036
 349	1.7400e+01	6.9929	-1.568880	0.000077	0.772176	0.261620	0.000036
 350	1.7450e+01	6.9896	-1.546883	-0.000095	-0.947671	-0.321080	0.000044
 351	1.7500e+01	7.0233	-1.531812	0.000065	0.649330	0.219999	0.000030
 352	1.7550e+01	7.0458	-1.515111	0.000072	0.719528	0.243783	0.000033
 353	1.7600e+01	7.0394	-1.499632	-0.000067	-0.666879	-0.225945	0.000031
 354	1.7650e+01	7.0763	-1.474784	0.000107	1.070517	0.362701	0.000050
 355	1.7700e+01	7.0763	-1.460119	-0.000063	-0.631781	-0.214053	0.000029
 356	1.7750e+01	7.1324	-1.440567	0.000084	0.842374	0.285404	0.000039
 357	1.7800e+01	7.1372	-1.423051	0.000075	0.754627	0.255674	0.000035
 358	1.7850e+01	7.1549	-1.404721	0.000079	0.789726	0.267566	0.000037
 359	1.7900e+01	7.1709	-1.383539	0.000091	0.912572	0.309188	0.000042
 360	1.7950e+01	7.1934	-1.368467	0.000065	0.649330	0.219999	0.000030
 361	1.8000e+01	7.2223	-1.348100	0.000088	0.877473	0.297296	0.000041
 362	1.8050e+01	7.2174	-1.333436	-0.000063	-0.631781	-0.214053	0.000029
 363	1.8100e+01	7.2736	-1.317549	0.000068	0.684429	0.231891	0.000032
 364	1.8150e+01	7.2800	-1.299219	0.000079	0.789726	0.267566	0.000037
 365	1.8200e+01	7.3009	-1.281703	0.000075	0.754627	0.255674	0.000035
 366	1.8250e+01	7.3057	-1.261336	0.000088	0.877473	0.297296	0.000041
 367	1.8300e+01	7.3426	-1.239340	0.000095	0.947671	0.321080	0.000044
 368	1.8350e+01	7.3682	-1.226712	0.000054	0.544033	0.184323	0.000025
 369	1.8400e+01	7.3763	-1.207567	0.000082	0.824825	0.279458	0.000038
 370	1.8450e+01	7.3923	-1.190866	0.000072	0.719528	0.243783	0.000033
 371	1.8500e+01	7.4148	-1.172128	0.000081	0.807275	0.273512	0.000037
 372	1.8550e+01	7.4485	-1.154205	0.000077	0.772176	0.261620	0.000036
 373	1.8600e+01	7.4597	-1.134245	0.000086	0.859924	0.291350	0.000040
 374	1.8650e+01	7.4773	-1.122025	0.000053	0.526484	0.178378	0.000024
 375	1.8700e+01	7.5094	-1.099214	0.000098	0.982770	0.332971	0.000046
 376	1.8750e+01	7.5383	-1.084142	0.000065	0.649330	0.219999	0.000030
 377	1.8800e+01	7.5463	-1.063368	0.000090	0.895022	0.303242	0.000042
 378	1.8850e+01	7.5656	-1.048703	0.000063	0.631781	0.214053	0.000029
 379	1.8900e+01	7.5543	-1.035261	-0.000058	-0.579132	-0.196215	0.000027
 380	1.8950e+01	7.6281	-1.012857	0.000097	0.965220	0.327025	0.000045
 381	1.9000e+01	7.6297	-0.996156	0.000072	0.719528	0.243783	0.000033
 382	1.9050e+01	7.6361	-0.974974	0.000091	0.912572	0.309188	0.000042
 383	1.9100e+01	7.6329	-0.959495	-0.000067	-0.666879	-0.225945	0.000031
 384	1.9150e+01	7.6602	-0.942387	0.000074	0.737077	0.249729	0.000034
 385	1.9200e+01	7.6859	-0.922427	0.000086	0.859924	0.291350	0.000040
 386	1.9250e+01	7.7260	-0.900023	0.000097	0.965220	0.327025	0.000045
 387	1.9300e+01	7.7051	-0.885359	-0.000063	-0.631781	-0.214053	0.000029
 388	1.9350e+01	7.7597	-0.865807	0.000084	0.842374	0.285404	0.000039
 389	1.9400e+01	7.7902	-0.846254	0.000084	0.842374	0.285404	0.000039
 390	1.9450e+01	7.7966	-0.828331	0.000077	0.772176	0.261620	0.000036
 391	1.9500e+01	7.8062	-0.809186	0.000082	0.824825	0.279458	0.000038
 392	1.9550e+01	7.8303	-0.791263	0.000077	0.772176	0.261620	0.000036
 393	1.9600e+01	7.8656	-0.775784	0.000067	0.666879	0.225945	0.000031
 394	1.9650e+01	7.8880	-0.753787	0.000095	0.947671	0.321080	0.000044
 395	1.9700e+01	7.8992	-0.736272	0.000075	0.754627	0.255674	0.000035
 396	1.9750e+01	7.9249	-0.720793	0.000067	0.666879	0.225945	0.000031
 397	1.9800e+01	7.9490	-0.697167	0.000102	1.017869	0.344863	0.000047
 398	1.9850e+01	7.9602	-0.677614	0.000084	0.842374	0.285404	0.000039
 399	1.9900e+01	7.9682	-0.662950	0.000063	0.631781	0.214053	0.000029
 400	1.9950e+01	8.0083	-0.646249	0.000072	0.719528	0.243783	0.000033
 401	2.0000e+01	8.0292	-0.622216	0.000104	1.035418	0.350809	0.000048
 402	2.0050e+01	8.0436	-0.607959	0.000061	0.614231	0.208107	0.000029
 403	2.0100e+01	8.0597	-0.586777	0.000091	0.912572	0.309188	0.000042
 404	2.0150e+01	8.0950	-0.567632	0.000082	0.824825	0.279458	0.000038
 405	2.0200e+01	8.1046	-0.549301	0.000079	0.789726	0.267566	0.000037
 406	2.0250e+01	8.1206	-0.530156	0.000082	0.824825	0.279458	0.000038
 407	2.0300e+01	8.1591	-0.507345	0.000098	0.982770	0.332971	0.000046
 408	2.0350e+01	8.1655	-0.489422	0.000077	0.772176	0.261620	0.000036
 409	2.0400e+01	8.1848	-0.470684	0.000081	0.807275	0.273512	0.000037
 410	2.0450e+01	8.1944	-0.450725	0.000086	0.859924	0.291350	0.000040
 411	2.0500e+01	8.2313	-0.430357	0.000088	0.877473	0.297296	0.000041
 412	2.0550e+01	8.2490	-0.409583	0.000090	0.895022	0.303242	0.000042
 413	2.0600e+01	8.2297	-0.385550	-0.000104	-1.035418	-0.350809	0.000048
 414	2.0650e+01	8.2586	-0.374144	0.000049	0.491385	0.166486	0.000023
 415	2.0700e+01	8.2746	-0.347260	0.000116	1.158264	0.392431	0.000054
 416	2.0750e+01	8.3083	-0.330558	0.000072	0.719528	0.243783	0.000033
 417	2.0800e+01	8.3661	-0.312635	0.000077	0.772176	0.261620	0.000036
 418	2.0850e+01	8.3324	-0.292676	-0.000086	-0.859924	-0.291350	0.000040
 419	2.0900e+01	8.3773	-0.273938	0.000081	0.807275	0.273512	0.000037
 420	2.0950e+01	8.4222	-0.253571	0.000088	0.877473	0.297296	0.000041
 421	2.1000e+01	8.4014	-0.235240	-0.000079	-0.789726	-0.267566	0.000037
 422	2.1050e+01	8.4607	-0.216095	0.000082	0.824825	0.279458	0.000038
 423	2.1100e+01	8.4543	-0.192877	-0.000100	-1.000319	-0.338917	0.000046
 424	2.1150e+01	8.4639	-0.175768	0.000074	0.737077	0.249729	0.000034
 425	2.1200e+01	8.4784	-0.159067	0.000072	0.719528	0.243783	0.000033
 426	2.1250e+01	8.5425	-0.136256	0.000098	0.982770	0.332971	0.000046
 427	2.1300e+01	8.5393	-0.119962	-0.000070	-0.701978	-0.237837	0.000033
 428	2.1350e+01	8.5714	-0.098781	0.000091	0.912572	0.309188	0.000042
 429	2.1400e+01	8.5778	-0.079635	0.000082	0.824825	0.279458	0.000038
 430	2.1450e+01	8.6019	-0.057232	0.000097	0.965220	0.327025	0.000045
 431	2.1500e+01	8.6436	-0.038901	0.000079	0.789726	0.267566	0.000037
 432	2.1550e+01	8.6276	-0.022200	-0.000072	-0.719528	-0.243783	0.000033
 433	2.1600e+01	8.6324	-0.001426	0.000090	0.895022	0.303242	0.000042
 434	2.1650e+01	8.6821	0.020163	0.000093	0.930121	0.315134	0.000043
 435	2.1700e+01	8.6661	0.042160	-0.000095	-0.947671	-0.321080	0.000044
 436	2.1750e+01	8.7126	0.064971	0.000098	0.982770	0.332971	0.000046
 437	2.1800e+01	8.7286	0.082894	0.000077	0.772176	0.261620	0.000036
 438	2.1850e+01	8.7383	0.100817	0.000077	0.772176	0.261620	0.000036
 439	2.1900e+01	8.7816	0.118333	0.000075	0.754627	0.255674	0.000035
 440	2.1950e+01	8.7912	0.135849	0.000075	0.754627	0.255674	0.000035
 441	2.2000e+01	8.8361	0.159067	0.000100	1.000319	0.338917	0.000046
 442	2.2050e+01	8.8329	0.179434	-0.000088	-0.877473	-0.297296	0.000041
 443	2.2100e+01	8.8810	0.194913	0.000067	0.666879	0.225945	0.000031
 444	2.2150e+01	8.8602	0.217317	-0.000097	-0.965220	-0.327025	0.000045
 445	2.2200e+01	8.8826	0.230352	0.000056	0.561583	0.190269	0.000026
 446	2.2250e+01	8.9083	0.252349	0.000095	0.947671	0.321080	0.000044
 447	2.2300e+01	8.9356	0.271086	0.000081	0.807275	0.273512	0.000037
 448	2.2350e+01	8.9677	0.289824	0.000081	0.807275	0.273512	0.000037
 449	2.2400e+01	8.9580	0.309377	-0.000084	-0.842374	-0.285404	0.000039
 450	2.2450e+01	9.0190	0.326078	0.000072	0.719528	0.243783	0.000033
 451	2.2500e+01	9.0254	0.349296	0.000100	1.000319	0.338917	0.000046
 452	2.2550e+01	9.1008	0.370071	0.000090	0.895022	0.303242	0.000042
 453	2.2600e+01	9.0431	0.382698	-0.000054	-0.544033	-0.184323	0.000025
 454	2.2650e+01	9.0735	0.403473	0.000090	0.895022	0.303242	0.000042
 455	2.2700e+01	9.1185	0.418137	0.000063	0.631781	0.214053	0.000029
 456	2.2750e+01	9.1233	0.439319	0.000091	0.912572	0.309188	0.000042
 457	2.2800e+01	9.1570	0.458871	0.000084	0.842374	0.285404	0.000039
 458	2.2850e+01	9.1441	0.474350	-0.000067	-0.666879	-0.225945	0.000031
 459	2.2900e+01	9.1762	0.496754	0.000097	0.965220	0.327025	0.000045
 460	2.2950e+01	9.1906	0.514270	0.000075	0.754627	0.255674	0.000035
 461	2.3000e+01	9.2179	0.533415	0.000082	0.824825	0.279458	0.000038
 462	2.3050e+01	9.2340	0.553782	0.000088	0.877473	0.297296	0.000041
 463	2.3100e+01	9.2853	0.572520	0.000081	0.807275	0.273512	0.000037
 464	2.3150e+01	9.2965	0.585555	0.000056	0.561583	0.190269	0.000026
 465	2.3200e+01	9.3078	0.607551	0.000095	0.947671	0.321080	0.000044
 466	2.3250e+01	9.3126	0.626289	0.000081	0.807275	0.273512	0.000037
 467	2.3300e+01	9.3511	0.644620	0.000079	0.789726	0.267566	0.000037
 468	2.3350e+01	9.3687	0.668653	0.000104	1.035418	0.350809	0.000048
 469	2.3400e+01	9.3944	0.682910	0.000061	0.614231	0.208107	0.000029
 470	2.3450e+01	9.4120	0.697981	0.000065	0.649330	0.219999	0.000030
 471	2.3500e+01	9.3864	0.717941	-0.000086	-0.859924	-0.291350	0.000040
 472	2.3550e+01	9.4345	0.733828	0.000068	0.684429	0.231891	0.000032
 473	2.3600e+01	9.4521	0.757046	0.000100	1.000319	0.338917	0.000046
 474	2.3650e+01	9.4730	0.772932	0.000068	0.684429	0.231891	0.000032
 475	2.3700e+01	9.5131	0.789634	0.000072	0.719528	0.243783	0.000033
 476	2.3750e+01	9.5291	0.808371	0.000081	0.807275	0.273512	0.000037
 477	2.3800e+01	9.5147	0.831182	-0.000098	-0.982770	-0.332971	0.000046
 478	2.3850e+01	9.5404	0.846661	0.000067	0.666879	0.225945	0.000031
 479	2.3900e+01	9.5965	0.862955	0.000070	0.701978	0.237837	0.000033
 480	2.3950e+01	9.5901	0.881286	-0.000079	-0.789726	-0.267566	0.000037
 481	2.4000e+01	9.6302	0.895135	0.000060	0.596682	0.202161	0.000028
 482	2.4050e+01	9.6286	0.918761	-0.000102	-1.017869	-0.344863	0.000047
 483	2.4100e+01	9.6575	0.935870	0.000074	0.737077	0.249729	0.000034
 484	2.4150e+01	9.6928	0.952978	0.000074	0.737077	0.249729	0.000034
 485	2.4200e+01	9.7136	0.972530	0.000084	0.842374	0.285404	0.000039
 486	2.4250e+01	9.7184	0.988824	0.000070	0.701978	0.237837	0.000033
 487	2.4300e+01	9.7152	1.008784	-0.000086	-0.859924	-0.291350	0.000040
 488	2.4350e+01	9.7730	1.026707	0.000077	0.772176	0.261620	0.000036
 489	2.4400e+01	9.7746	1.043815	0.000074	0.737077	0.249729	0.000034
 490	2.4450e+01	9.7938	1.058480	0.000063	0.631781	0.214053	0.000029
 491	2.4500e+01	9.8019	1.081698	0.000100	1.000319	0.338917	0.000046
 492	2.4550e+01	9.8307	1.100029	0.000079	0.789726	0.267566	0.000037
 493	2.4600e+01	9.8628	1.115100	0.000065	0.649330	0.219999	0.000030
 494	2.4650e+01	9.8612	1.134653	-0.000084	-0.842374	-0.285404	0.000039
 495	2.4700e+01	9.8933	1.153390	0.000081	0.807275	0.273512	0.000037
 496	2.4750e+01	9.9366	1.170091	0.000072	0.719528	0.243783	0.000033
 497	2.4800e+01	9.9398	1.186385	0.000070	0.701978	0.237837	0.000033
 498	2.4850e+01	9.9591	1.205123	0.000081	0.807275	0.273512	0.000037
 499	2.4900e+01	9.9880	1.225897	0.000090	0.895022	0.303242	0.000042
 500	2.4950e+01	10.0040	1.243413	0.000075	0.754627	0.255674	0.000035
 501	2.5000e+01	10.0072	1.256448	0.000056	0.561583	0.190269	0.000026
 502	2.5050e+01	10.0297	1.270705	0.000061	0.614231	0.208107	0.000029
 503	2.5100e+01	10.0585	1.293924	0.000100	1.000319	0.338917	0.000046
 504	2.5150e+01	10.0890	1.311847	0.000077	0.772176	0.261620	0.000036
 505	2.5200e+01	10.1051	1.330992	0.000082	0.824825	0.279458	0.000038
 506	2.5250e+01	10.1083	1.346063	0.000065	0.649330	0.219999	0.000030
 507	2.5300e+01	10.1388	1.361135	0.000065	0.649330	0.219999	0.000030
 508	2.5350e+01	10.1468	1.381910	0.000090	0.895022	0.303242	0.000042
 509	2.5400e+01	10.1901	1.397796	0.000068	0.684429	0.231891	0.000032
 510	2.5450e+01	10.2013	1.414904	0.000074	0.737077	0.249729	0.000034
 511	2.5500e+01	10.2045	1.431198	0.000070	0.701978	0.237837	0.000033
 512	2.5550e+01	10.2414	1.449936	0.000081	0.807275	0.273512	0.000037
 513	2.5600e+01	10.2462	1.473154	0.000100	1.000319	0.338917	0.000046
 514	2.5650e+01	10.2863	1.489448	0.000070	0.701978	0.237837	0.000033
 515	2.5700e+01	10.3008	1.507371	0.000077	0.772176	0.261620	0.000036
 516	2.5750e+01	10.3232	1.525294	0.000077	0.772176	0.261620	0.000036
 517	2.5800e+01	10.3698	1.539551	0.000061	0.614231	0.208107	0.000029
 518	2.5850e+01	10.3698	1.559511	-0.000086	-0.859924	-0.291350	0.000040
 519	2.5900e+01	10.3986	1.578249	0.000081	0.807275	0.273512	0.000037
 520	2.5950e+01	10.3954	1.599431	-0.000091	-0.912572	-0.309188	0.000042
 521	2.6000e+01	10.4034	1.618983	0.000084	0.842374	0.285404	0.000039
 522	2.6050e+01	10.4436	1.634869	0.000068	0.684429	0.231891	0.000032
 523	2.6100e+01	10.4468	1.654014	0.000082	0.824825	0.279458	0.000038
 524	2.6150e+01	10.4612	1.670715	0.000072	0.719528	0.243783	0.000033
 525	2.6200e+01	10.5029	1.691490	0.000090	0.895022	0.303242	0.000042
 526	2.6250e+01	10.5029	1.708191	-0.000072	-0.719528	-0.243783	0.000033
 527	2.6300e+01	10.5366	1.728965	0.000090	0.895022	0.303242	0.000042
 528	2.6350e+01	10.5414	1.745259	0.000070	0.701978	0.237837	0.000033
 529	2.6400e+01	10.5591	1.766034	0.000090	0.895022	0.303242	0.000042
 530	2.6450e+01	10.6232	1.786401	0.000088	0.877473	0.297296	0.000041
 531	2.6500e+01	10.6104	1.800250	-0.000060	-0.596682	-0.202161	0.000028
 532	2.6550e+01	10.6489	1.821840	0.000093	0.930121	0.315134	0.000043
 533	2.6600e+01	10.6313	1.836911	-0.000065	-0.649330	-0.219999	0.000030
 534	2.6650e+01	10.6826	1.854834	0.000077	0.772176	0.261620	0.000036
 535	2.6700e+01	10.7066	1.870313	0.000067	0.666879	0.225945	0.000031
 536	2.6750e+01	10.6890	1.885792	-0.000067	-0.666879	-0.225945	0.000031
 537	2.6800e+01	10.7596	1.909418	0.000102	1.017869	0.344863	0.000047
 538	2.6850e+01	10.7660	1.930193	0.000090	0.895022	0.303242	0.000042
 539	2.6900e+01	10.7917	1.947301	0.000074	0.737077	0.249729	0.000034
 540	2.6950e+01	10.8141	1.964409	0.000074	0.737077	0.249729	0.000034
 541	2.7000e+01	10.8109	1.983555	-0.000082	-0.824825	-0.279458	0.000038
 542	2.7050e+01	10.8639	1.996590	0.000056	0.561583	0.190269	0.000026
 543	2.7100e+01	10.8206	2.017364	-0.000090	-0.895022	-0.303242	0.000042
 544	2.7150e+01	10.8976	2.033658	0.000070	0.701978	0.237837	0.000033
 545	2.7200e+01	10.8976	2.054432	-0.000090	-0.895022	-0.303242	0.000042
 546	2.7250e+01	10.9377	2.070726	0.000070	0.701978	0.237837	0.000033
 547	2.7300e+01	10.9441	2.089464	0.000081	0.807275	0.273512	0.000037
 548	2.7350e+01	10.9778	2.107794	0.000079	0.789726	0.267566	0.000037
 549	2.7400e+01	10.9954	2.126124	0.000079	0.789726	0.267566	0.000037
 550	2.7450e+01	10.9810	2.141196	-0.000065	-0.649330	-0.219999	0.000030
 551	2.7500e+01	11.0243	2.159934	0.000081	0.807275	0.273512	0.000037
 552	2.7550e+01	11.0596	2.176635	0.000072	0.719528	0.243783	0.000033
 553	2.7600e+01	11.0500	2.196595	-0.000086	-0.859924	-0.291350	0.000040
 554	2.7650e+01	11.0740	2.208408	0.000051	0.508934	0.172432	0.000024
 555	2.7700e+01	11.1013	2.225923	0.000075	0.754627	0.255674	0.000035
 556	2.7750e+01	11.1302	2.241402	0.000067	0.666879	0.225945	0.000031
 557	2.7800e+01	11.1125	2.256881	-0.000067	-0.666879	-0.225945	0.000031
 558	2.7850e+01	11.1655	2.277249	0.000088	0.877473	0.297296	0.000041
 559	2.7900e+01	11.1735	2.293135	0.000068	0.684429	0.231891	0.000032
 560	2.7950e+01	11.1943	2.311873	0.000081	0.807275	0.273512	0.000037
 561	2.8000e+01	11.2072	2.327352	0.000067	0.666879	0.225945	0.000031
 562	2.8050e+01	11.2441	2.346089	0.000081	0.807275	0.273512	0.000037
 563	2.8100e+01	11.2681	2.362790	0.000072	0.719528	0.243783	0.000033
 564	2.8150e+01	11.2762	2.376233	0.000058	0.579132	0.196215	0.000027
 565	2.8200e+01	11.2890	2.392119	0.000068	0.684429	0.231891	0.000032
 566	2.8250e+01	11.3275	2.409228	0.000074	0.737077	0.249729	0.000034
 567	2.8300e+01	11.3516	2.425929	0.000072	0.719528	0.243783	0.000033
 568	2.8350e+01	11.3467	2.441815	-0.000068	-0.684429	-0.231891	0.000032
 569	2.8400e+01	11.3596	2.455257	0.000058	0.579132	0.196215	0.000027
 570	2.8450e+01	11.4125	2.474402	0.000082	0.824825	0.279458	0.000038
 571	2.8500e+01	11.4205	2.489474	0.000065	0.649330	0.219999	0.000030
 572	2.8550e+01	11.4478	2.505360	0.000068	0.684429	0.231891	0.000032
 573	2.8600e+01	11.4735	2.522061	0.000072	0.719528	0.243783	0.000033
 574	2.8650e+01	11.4879	2.539984	0.000077	0.772176	0.261620	0.000036
 575	2.8700e+01	11.4863	2.552612	-0.000054	-0.544033	-0.184323	0.000025
 576	2.8750e+01	11.4959	2.568091	0.000067	0.666879	0.225945	0.000031
 577	2.8800e+01	11.5441	2.586422	0.000079	0.789726	0.267566	0.000037
 578	2.8850e+01	11.5713	2.598234	0.000051	0.508934	0.172432	0.000024
 579	2.8900e+01	11.5890	2.616972	0.000081	0.807275	0.273512	0.000037
 580	2.8950e+01	11.5938	2.629192	0.000053	0.526484	0.178378	0.000024
 581	2.9000e+01	11.6275	2.643449	0.000061	0.614231	0.208107	0.000029
 582	2.9050e+01	11.6483	2.655670	0.000053	0.526484	0.178378	0.000024
 583	2.9100e+01	11.6403	2.672371	-0.000072	-0.719528	-0.243783	0.000033
 584	2.9150e+01	11.6756	2.687035	0.000063	0.631781	0.214053	0.000029
 585	2.9200e+01	11.7510	2.704551	0.000075	0.754627	0.255674	0.000035
 586	2.9250e+01	11.7302	2.717586	-0.000056	-0.561583	-0.190269	0.000026
 587	2.9300e+01	11.7382	2.737546	0.000086	0.859924	0.291350	0.000040
 588	2.9350e+01	11.7622	2.751803	0.000061	0.614231	0.208107	0.000029
 589	2.9400e+01	11.7991	2.766060	0.000061	0.614231	0.208107	0.000029
 590	2.9450e+01	11.8072	2.782761	0.000072	0.719528	0.243783	0.000033
 591	2.9500e+01	11.8184	2.798240	0.000067	0.666879	0.225945	0.000031
 592	2.9550e+01	11.8088	2.811275	-0.000056	-0.561583	-0.190269	0.000026
 593	2.9600e+01	11.8649	2.830012	0.000081	0.807275	0.273512	0.000037
 594	2.9650e+01	11.8665	2.846306	0.000070	0.701978	0.237837	0.000033
 595	2.9700e+01	11.8858	2.858526	0.000053	0.526484	0.178378	0.000024
 596	2.9750e+01	11.9580	2.878893	0.000088	0.877473	0.297296	0.000041
 597	2.9800e+01	11.9403	2.887855	-0.000039	-0.386088	-0.130810	0.000018
 598	2.9850e+01	11.9371	2.901705	-0.000060	-0.596682	-0.202161	0.000028
 599	2.9900e+01	11.9868	2.920035	0.000079	0.789726	0.267566	0.000037
 600	2.9950e+01	12.0013	2.937551	0.000075	0.754627	0.255674	0.000035
 601	3.0000e+01	12.0285	2.948142	0.000046	0.456286	0.154594	0.000021
 602	3.0050e+01	12.0478	2.962399	0.000061	0.614231	0.208107	0.000029
 603	3.0100e+01	12.0574	2.980322	0.000077	0.772176	0.261620	0.000036
 604	3.0150e+01	12.0911	2.994986	0.000063	0.631781	0.214053	0.000029
 605	3.0200e+01	12.1023	3.013724	0.000081	0.807275	0.273512	0.000037
 606	3.0250e+01	12.1312	3.027166	0.000058	0.579132	0.196215	0.000027
 607	3.0300e+01	12.1104	3.039386	-0.000053	-0.526484	-0.178378	0.000024
 608	3.0350e+01	12.1713	3.055273	0.000068	0.684429	0.231891	0.000032
 609	3.0400e+01	12.1809	3.075233	0.000086	0.859924	0.291350	0.000040
 610	3.0450e+01	12.2066	3.085823	0.000046	0.456286	0.154594	0.000021
 611	3.0500e+01	12.2034	3.104969	-0.000082	-0.824825	-0.279458	0.000038
 612	3.0550e+01	12.2339	3.120855	0.000068	0.684429	0.231891	0.000032
 613	3.0600e+01	12.2644	3.139185	0.000079	0.789726	0.267566	0.000037
 614	3.0650e+01	12.2756	3.153850	0.000063	0.631781	0.214053	0.000029
 615	3.0700e+01	12.2692	3.172995	-0.000082	-0.824825	-0.279458	0.000038
 616	3.0750e+01	12.3269	3.185622	0.000054	0.544033	0.184323	0.000025
 617	3.0800e+01	12.3494	3.199472	0.000060	0.596682	0.202161	0.000028
 618	3.0850e+01	12.3590	3.217395	0.000077	0.772176	0.261620	0.000036
 619	3.0900e+01	12.3590	3.235318	-0.000077	-0.772176	-0.261620	0.000036
 620	3.0950e+01	12.4553	3.249575	0.000061	0.614231	0.208107	0.000029
 621	3.1000e+01	12.4392	3.268720	-0.000082	-0.824825	-0.279458	0.000038
 622	3.1050e+01	12.4617	3.284199	0.000067	0.666879	0.225945	0.000031
 623	3.1100e+01	12.4761	3.300900	0.000072	0.719528	0.243783	0.000033
 624	3.1150e+01	12.4745	3.316787	-0.000068	-0.684429	-0.231891	0.000032
 625	3.1200e+01	12.5066	3.332673	0.000068	0.684429	0.231891	0.000032
 626	3.1250e+01	12.5066	3.346523	-0.000060	-0.596682	-0.202161	0.000028
 627	3.1300e+01	12.5499	3.362409	0.000068	0.684429	0.231891	0.000032
 628	3.1350e+01	12.5644	3.375037	0.000054	0.544033	0.184323	0.000025
 629	3.1400e+01	12.5772	3.393774	0.000081	0.807275	0.273512	0.000037
 630	3.1450e+01	12.5948	3.408846	0.000065	0.649330	0.219999	0.000030
 631	3.1500e+01	12.6093	3.428806	0.000086	0.859924	0.291350	0.000040
 632	3.1550e+01	12.6494	3.441026	0.000053	0.526484	0.178378	0.000024
 633	3.1600e+01	12.6686	3.458542	0.000075	0.754627	0.255674	0.000035
 634	3.1650e+01	12.6847	3.473614	0.000065	0.649330	0.219999	0.000030
 635	3.1700e+01	12.6975	3.489500	0.000068	0.684429	0.231891	0.000032
 636	3.1750e+01	12.7344	3.504979	0.000067	0.666879	0.225945	0.000031
 637	3.1800e+01	12.7376	3.522087	0.000074	0.737077	0.249729	0.000034
 638	3.1850e+01	12.7569	3.536752	0.000063	0.631781	0.214053	0.000029
 639	3.1900e+01	12.7889	3.553045	0.000070	0.701978	0.237837	0.000033
 640	3.1950e+01	12.7809	3.570561	-0.000075	-0.754627	-0.255674	0.000035
 641	3.2000e+01	12.8162	3.580337	0.000042	0.421187	0.142702	0.000020
 642	3.2050e+01	12.8451	3.600704	0.000088	0.877473	0.297296	0.000041
 643	3.2100e+01	12.8948	3.617813	0.000074	0.737077	0.249729	0.000034
 644	3.2150e+01	12.8884	3.632477	-0.000063	-0.631781	-0.214053	0.000029
 645	3.2200e+01	12.8964	3.646327	0.000060	0.596682	0.202161	0.000028
 646	3.2250e+01	12.9365	3.661399	0.000065	0.649330	0.219999	0.000030
 647	3.2300e+01	12.9478	3.679322	0.000077	0.772176	0.261620	0.000036
 648	3.2350e+01	12.9654	3.691949	0.000054	0.544033	0.184323	0.000025
 649	3.2400e+01	12.9815	3.710687	0.000081	0.807275	0.273512	0.000037
 650	3.2450e+01	13.0023	3.727795	0.000074	0.737077	0.249729	0.000034
 651	3.2500e+01	12.9991	3.739608	-0.000051	-0.508934	-0.172432	0.000024
 652	3.2550e+01	13.0360	3.760383	0.000090	0.895022	0.303242	0.000042
 653	3.2600e+01	13.0456	3.772603	0.000053	0.526484	0.178378	0.000024
 654	3.2650e+01	13.0809	3.787267	0.000063	0.631781	0.214053	0.000029
 655	3.2700e+01	13.0857	3.801932	0.000063	0.631781	0.214053	0.000029
 656	3.2750e+01	13.1178	3.819447	0.000075	0.754627	0.255674	0.000035
 657	3.2800e+01	13.1371	3.836556	0.000074	0.737077	0.249729	0.000034
 658	3.2850e+01	13.1579	3.852035	0.000067	0.666879	0.225945	0.000031
 659	3.2900e+01	13.1595	3.866292	0.000061	0.614231	0.208107	0.000029
 660	3.2950e+01	13.1932	3.881364	0.000065	0.649330	0.219999	0.000030
 661	3.3000e+01	13.2381	3.899287	0.000077	0.772176	0.261620	0.000036
 662	3.3050e+01	13.2253	3.915580	-0.000070	-0.701978	-0.237837	0.000033
 663	3.3100e+01	13.2670	3.930652	0.000065	0.649330	0.219999	0.000030
 664	3.3150e+01	13.2782	3.950612	0.000086	0.859924	0.291350	0.000040
 665	3.3200e+01	13.2814	3.960388	0.000042	0.421187	0.142702	0.000020
 666	3.3250e+01	13.3424	3.977089	0.000072	0.719528	0.243783	0.000033
 667	3.3300e+01	13.3376	3.995419	-0.000079	-0.789726	-0.267566	0.000037
 668	3.3350e+01	13.3392	4.010084	0.000063	0.631781	0.214053	0.000029
 669	3.3400e+01	13.3809	4.023526	0.000058	0.579132	0.196215	0.000027
 670	3.3450e+01	13.3841	4.042264	0.000081	0.807275	0.273512	0.000037
 671	3.3500e+01	13.4018	4.055299	0.000056	0.561583	0.190269	0.000026
 672	3.3550e+01	13.4066	4.074444	0.000082	0.824825	0.279458	0.000038
 673	3.3600e+01	13.4483	4.087479	0.000056	0.561583	0.190269	0.000026
 674	3.3650e+01	13.4900	4.100921	0.000058	0.579132	0.196215	0.000027
 675	3.3700e+01	13.5108	4.118844	0.000077	0.772176	0.261620	0.000036
 676	3.3750e+01	13.5301	4.138804	0.000086	0.859924	0.291350	0.000040
 677	3.3800e+01	13.5349	4.149802	0.000047	0.473835	0.160540	0.000022
 678	3.3850e+01	13.5911	4.165281	0.000067	0.666879	0.225945	0.000031
 679	3.3900e+01	13.5702	4.183612	-0.000079	-0.789726	-0.267566	0.000037
 680	3.3950e+01	13.5959	4.197461	0.000060	0.596682	0.202161	0.000028
 681	3.4000e+01	13.6215	4.215792	0.000079	0.789726	0.267566	0.000037
 682	3.4050e+01	13.6360	4.230863	0.000065	0.649330	0.219999	0.000030
 683	3.4100e+01	13.6697	4.247972	0.000074	0.737077	0.249729	0.000034
 684	3.4150e+01	13.6985	4.260599	0.000054	0.544033	0.184323	0.000025
 685	3.4200e+01	13.6905	4.272005	-0.000049	-0.491385	-0.166486	0.000023
 686	3.4250e+01	13.7258	4.289113	0.000074	0.737077	0.249729	0.000034
 687	3.4300e+01	13.7242	4.300926	-0.000051	-0.508934	-0.172432	0.000024
 688	3.4350e+01	13.7563	4.316813	0.000068	0.684429	0.231891	0.000032
 689	3.4400e+01	13.7852	4.334328	0.000075	0.754627	0.255674	0.000035
 690	3.4450e+01	13.7932	4.347771	0.000058	0.579132	0.196215	0.000027
 691	3.4500e+01	13.8381	4.362842	0.000065	0.649330	0.219999	0.000030
 692	3.4550e+01	13.8349	4.377914	-0.000065	-0.649330	-0.219999	0.000030
 693	3.4600e+01	13.8509	4.395022	0.000074	0.737077	0.249729	0.000034
 694	3.4650e+01	13.8766	4.406835	0.000051	0.508934	0.172432	0.000024
 695	3.4700e+01	13.9151	4.423944	0.000074	0.737077	0.249729	0.000034
 696	3.4750e+01	13.9247	4.437386	0.000058	0.579132	0.196215	0.000027
 697	3.4800e+01	13.9552	4.450421	0.000056	0.561583	0.190269	0.000026
 698	3.4850e+01	13.9456	4.467529	-0.000074	-0.737077	-0.249729	0.000034
 699	3.4900e+01	13.9600	4.486267	0.000081	0.807275	0.273512	0.000037
 700	3.4950e+01	13.9777	4.499709	0.000058	0.579132	0.196215	0.000027
 701	3.5000e+01	14.0114	4.513559	0.000060	0.596682	0.202161	0.000028
 702	3.5050e+01	14.0418	4.529446	0.000068	0.684429	0.231891	0.000032
 703	3.5100e+01	14.0499	4.541258	0.000051	0.508934	0.172432	0.000024
 704	3.5150e+01	14.0563	4.560404	0.000082	0.824825	0.279458	0.000038
 705	3.5200e+01	14.0755	4.574253	0.000060	0.596682	0.202161	0.000028
 706	3.5250e+01	14.1397	4.591769	0.000075	0.754627	0.255674	0.000035
 707	3.5300e+01	14.1461	4.603989	0.000053	0.526484	0.178378	0.000024
 708	3.5350e+01	14.1654	4.613358	0.000040	0.403638	0.136756	0.000019
 709	3.5400e+01	14.1926	4.630466	0.000074	0.737077	0.249729	0.000034
 710	3.5450e+01	14.1894	4.647575	-0.000074	-0.737077	-0.249729	0.000034
 711	3.5500e+01	14.2279	4.666720	0.000082	0.824825	0.279458	0.000038
 712	3.5550e+01	14.2328	4.673237	0.000028	0.280791	0.095135	0.000013
 713	3.5600e+01	14.2488	4.689124	0.000068	0.684429	0.231891	0.000032
 714	3.5650e+01	14.2648	4.706232	0.000074	0.737077	0.249729	0.000034
 715	3.5700e+01	14.2905	4.722526	0.000070	0.701978	0.237837	0.000033
 716	3.5750e+01	14.3274	4.738005	0.000067	0.666879	0.225945	0.000031
 717	3.5800e+01	14.3354	4.752262	0.000061	0.614231	0.208107	0.000029
 718	3.5850e+01	14.3563	4.768963	0.000072	0.719528	0.243783	0.000033
 719	3.5900e+01	14.3771	4.784035	0.000065	0.649330	0.219999	0.000030
 720	3.5950e+01	14.3868	4.799514	0.000067	0.666879	0.225945	0.000031
 721	3.6000e+01	14.4269	4.816622	0.000074	0.737077	0.249729	0.000034
 722	3.6050e+01	14.4333	4.831694	0.000065	0.649330	0.219999	0.000030
 723	3.6100e+01	14.4445	4.844321	0.000054	0.544033	0.184323	0.000025
 724	3.6150e+01	14.4622	4.862244	0.000077	0.772176	0.261620	0.000036
 725	3.6200e+01	14.4686	4.876909	0.000063	0.631781	0.214053	0.000029
 726	3.6250e+01	14.5039	4.891573	0.000063	0.631781	0.214053	0.000029
 727	3.6300e+01	14.5520	4.905830	0.000061	0.614231	0.208107	0.000029
 728	3.6350e+01	14.5584	4.923346	0.000075	0.754627	0.255674	0.000035
 729	3.6400e+01	14.5600	4.937603	0.000061	0.614231	0.208107	0.000029
 730	3.6450e+01	14.6081	4.953082	0.000067	0.666879	0.225945	0.000031
 731	3.6500e+01	14.5969	4.969783	-0.000072	-0.719528	-0.243783	0.000033
 732	3.6550e+01	14.6354	4.987706	0.000077	0.772176	0.261620	0.000036
 733	3.6600e+01	14.6547	4.998297	0.000046	0.456286	0.154594	0.000021
 734	3.6650e+01	14.6819	5.016627	0.000079	0.789726	0.267566	0.000037
 735	3.6700e+01	14.6916	5.033328	0.000072	0.719528	0.243783	0.000033
 736	3.6750e+01	14.7044	5.052066	0.000081	0.807275	0.273512	0.000037
 737	3.6800e+01	14.7365	5.068767	0.000072	0.719528	0.243783	0.000033
 738	3.6850e+01	14.7830	5.079765	0.000047	0.473835	0.160540	0.000022
 739	3.6900e+01	14.8103	5.096466	0.000072	0.719528	0.243783	0.000033
 740	3.6950e+01	14.8119	5.115204	0.000081	0.807275	0.273512	0.000037
 741	3.7000e+01	14.8167	5.132720	0.000075	0.754627	0.255674	0.000035
 742	3.7050e+01	14.8392	5.146977	0.000061	0.614231	0.208107	0.000029
 743	3.7100e+01	14.8584	5.167751	0.000090	0.895022	0.303242	0.000042
 744	3.7150e+01	14.8873	5.182823	0.000065	0.649330	0.219999	0.000030
 745	3.7200e+01	14.8889	5.199931	0.000074	0.737077	0.249729	0.000034
 746	3.7250e+01	14.9242	5.219891	0.000086	0.859924	0.291350	0.000040
 747	3.7300e+01	14.9386	5.232519	0.000054	0.544033	0.184323	0.000025
 748	3.7350e+01	14.9370	5.252886	-0.000088	-0.877473	-0.297296	0.000041
 749	3.7400e+01	14.9819	5.267143	0.000061	0.614231	0.208107	0.000029
 750	3.7450e+01	15.0028	5.284251	0.000074	0.737077	0.249729	0.000034
 751	3.7500e+01	15.0509	5.303804	0.000084	0.842374	0.285404	0.000039
 752	3.7550e+01	15.0301	5.320097	-0.000070	-0.701978	-0.237837	0.000033
 753	3.7600e+01	15.0429	5.337613	0.000075	0.754627	0.255674	0.000035
 754	3.7650e+01	15.0830	5.353092	0.000067	0.666879	0.225945	0.000031
 755	3.7700e+01	15.1022	5.371015	0.000077	0.772176	0.261620	0.000036
 756	3.7750e+01	15.1215	5.380791	0.000042	0.421187	0.142702	0.000020
 757	3.7800e+01	15.1520	5.403195	0.000097	0.965220	0.327025	0.000045
 758	3.7850e+01	15.1696	5.419896	0.000072	0.719528	0.243783	0.000033
 759	3.7900e+01	15.1905	5.432524	0.000054	0.544033	0.184323	0.000025
 760	3.7950e+01	15.2001	5.446781	0.000061	0.614231	0.208107	0.000029
 761	3.8000e+01	15.1969	5.469592	-0.000098	-0.982770	-0.332971	0.000046
 762	3.8050e+01	15.2450	5.487923	0.000079	0.789726	0.267566	0.000037
 763	3.8100e+01	15.2675	5.500143	0.000053	0.526484	0.178378	0.000024
 764	3.8150e+01	15.2723	5.516844	0.000072	0.719528	0.243783	0.000033
 765	3.8200e+01	15.3076	5.536804	0.000086	0.859924	0.291350	0.000040
 766	3.8250e+01	15.3012	5.549839	-0.000056	-0.561583	-0.190269	0.000026
 767	3.8300e+01	15.3413	5.569798	0.000086	0.859924	0.291350	0.000040
 768	3.8350e+01	15.3397	5.588129	-0.000079	-0.789726	-0.267566	0.000037
 769	3.8400e+01	15.3830	5.604422	0.000070	0.701978	0.237837	0.000033
 770	3.8450e+01	15.3862	5.622346	0.000077	0.772176	0.261620	0.000036
 771	3.8500e+01	15.4247	5.639454	0.000074	0.737077	0.249729	0.000034
 772	3.8550e+01	15.4295	5.658192	0.000081	0.807275	0.273512	0.000037
 773	3.8600e+01	15.4680	5.671634	0.000058	0.579132	0.196215	0.000027
 774	3.8650e+01	15.4825	5.689150	0.000075	0.754627	0.255674	0.000035
 775	3.8700e+01	15.4985	5.705036	0.000068	0.684429	0.231891	0.000032
 776	3.8750e+01	15.4921	5.720108	-0.000065	-0.649330	-0.219999	0.000030
 777	3.8800e+01	15.5466	5.738031	0.000077	0.772176	0.261620	0.000036
 778	3.8850e+01	15.5627	5.751066	0.000056	0.561583	0.190269	0.000026
 779	3.8900e+01	15.5739	5.771026	0.000086	0.859924	0.291350	0.000040
 780	3.8950e+01	15.5996	5.786505	0.000067	0.666879	0.225945	0.000031
 781	3.9000e+01	15.6108	5.800762	0.000061	0.614231	0.208107	0.000029
 782	3.9050e+01	15.6397	5.812575	0.000051	0.508934	0.172432	0.000024
 783	3.9100e+01	15.6589	5.833349	0.000090	0.895022	0.303242	0.000042
 784	3.9150e+01	15.6878	5.850050	0.000072	0.719528	0.243783	0.000033
 785	3.9200e+01	15.6974	5.865936	0.000068	0.684429	0.231891	0.000032
 786	3.9250e+01	15.7054	5.881823	0.000068	0.684429	0.231891	0.000032
 787	3.9300e+01	15.7471	5.896080	0.000061	0.614231	0.208107	0.000029
 788	3.9350e+01	15.7616	5.915632	0.000084	0.842374	0.285404	0.000039
 789	3.9400e+01	15.7712	5.927852	0.000053	0.526484	0.178378	0.000024
 790	3.9450e+01	15.7921	5.944146	0.000070	0.701978	0.237837	0.000033
 791	3.9500e+01	15.8193	5.963699	0.000084	0.842374	0.285404	0.000039
 792	3.9550e+01	15.8546	5.978770	0.000065	0.649330	0.219999	0.000030
 793	3.9600e+01	15.8627	5.995879	0.000074	0.737077	0.249729	0.000034
 794	3.9650e+01	15.8627	6.007692	-0.000051	-0.508934	-0.172432	0.000024
 795	3.9700e+01	15.8931	6.024800	0.000074	0.737077	0.249729	0.000034
 796	3.9750e+01	15.9332	6.039057	0.000061	0.614231	0.208107	0.000029
 797	3.9800e+01	15.9268	6.057795	-0.000081	-0.807275	-0.273512	0.000037
 798	3.9850e+01	15.9477	6.075718	0.000077	0.772176	0.261620	0.000036
 799	3.9900e+01	15.9798	6.090790	0.000065	0.649330	0.219999	0.000030
 800	3.9950e+01	16.0038	6.105454	0.000063	0.631781	0.214053	0.000029
 801	4.0000e+01	16.0151	6.121748	0.000070	0.701978	0.237837	0.000033
 802	4.0050e+01	16.0279	6.134375	0.000054	0.544033	0.184323	0.000025
 803	4.0100e+01	16.0439	6.150669	0.000070	0.701978	0.237837	0.000033
 804	4.0150e+01	16.0471	6.165741	0.000065	0.649330	0.219999	0.000030
 805	4.0200e+01	16.1065	6.183256	0.000075	0.754627	0.255674	0.000035
 806	4.0250e+01	16.1482	6.197513	0.000061	0.614231	0.208107	0.000029
 807	4.0300e+01	16.1434	6.214622	-0.000074	-0.737077	-0.249729	0.000034
 808	4.0350e+01	16.1659	6.229286	0.000063	0.631781	0.214053	0.000029
 809	4.0400e+01	16.1947	6.242728	0.000058	0.579132	0.196215	0.000027
 810	4.0450e+01	16.2044	6.261873	0.000082	0.824825	0.279458	0.000038
 811	4.0500e+01	16.2284	6.276538	0.000063	0.631781	0.214053	0.000029
 812	4.0550e+01	16.2380	6.288351	0.000051	0.508934	0.172432	0.000024
 813	4.0600e+01	16.2621	6.308310	0.000086	0.859924	0.291350	0.000040
 814	4.0650e+01	16.2846	6.322567	0.000061	0.614231	0.208107	0.000029
 815	4.0700e+01	16.2894	6.339268	0.000072	0.719528	0.243783	0.000033
 816	4.0750e+01	16.3343	6.354340	0.000065	0.649330	0.219999	0.000030
 817	4.0800e+01	16.3407	6.369004	0.000063	0.631781	0.214053	0.000029
 818	4.0850e+01	16.3632	6.385706	0.000072	0.719528	0.243783	0.000033
 819	4.0900e+01	16.3808	6.399962	0.000061	0.614231	0.208107	0.000029
 820	4.0950e+01	16.4113	6.412590	0.000054	0.544033	0.184323	0.000025
 821	4.1000e+01	16.4306	6.431328	0.000081	0.807275	0.273512	0.000037
 822	4.1050e+01	16.4402	6.449251	0.000077	0.772176	0.261620	0.000036
 823	4.1100e+01	16.4626	6.463508	0.000061	0.614231	0.208107	0.000029
 824	4.1150e+01	16.4707	6.476950	0.000058	0.579132	0.196215	0.000027
 825	4.1200e+01	16.4819	6.490393	0.000058	0.579132	0.196215	0.000027
 826	4.1250e+01	16.5236	6.507908	0.000075	0.754627	0.255674	0.000035
 827	4.1300e+01	16.5348	6.521351	0.000058	0.579132	0.196215	0.000027
 828	4.1350e+01	16.5621	6.541310	0.000086	0.859924	0.291350	0.000040
 829	4.1400e+01	16.5846	6.555975	0.000063	0.631781	0.214053	0.000029
 830	4.1450e+01	16.5942	6.570639	0.000063	0.631781	0.214053	0.000029
 831	4.1500e+01	16.6006	6.586118	0.000067	0.666879	0.225945	0.000031
 832	4.1550e+01	16.6375	6.597931	0.000051	0.508934	0.172432	0.000024
 833	4.1600e+01	16.6551	6.611781	0.000060	0.596682	0.202161	0.000028
 834	4.1650e+01	16.6648	6.627667	0.000068	0.684429	0.231891	0.000032
 835	4.1700e+01	16.6969	6.642331	0.000063	0.631781	0.214053	0.000029
 836	4.1750e+01	16.7466	6.658218	0.000068	0.684429	0.231891	0.000032
 837	4.1800e+01	16.7402	6.675733	-0.000075	-0.754627	-0.255674	0.000035
 838	4.1850e+01	16.7514	6.693249	0.000075	0.754627	0.255674	0.000035
 839	4.1900e+01	16.7947	6.703840	0.000046	0.456286	0.154594	0.000021
 840	4.1950e+01	16.8027	6.722170	0.000079	0.789726	0.267566	0.000037
 841	4.2000e+01	16.7963	6.735205	-0.000056	-0.561583	-0.190269	0.000026
 842	4.2050e+01	16.8460	6.752721	0.000075	0.754627	0.255674	0.000035
 843	4.2100e+01	16.8525	6.768200	0.000067	0.666879	0.225945	0.000031
 844	4.2150e+01	16.8765	6.782864	0.000063	0.631781	0.214053	0.000029
 845	4.2200e+01	16.8926	6.797529	0.000063	0.631781	0.214053	0.000029
 846	4.2250e+01	16.9231	6.815859	0.000079	0.789726	0.267566	0.000037
 847	4.2300e+01	16.9439	6.828894	0.000056	0.561583	0.190269	0.000026
 848	4.2350e+01	16.9391	6.842337	-0.000058	-0.579132	-0.196215	0.000027
 849	4.2400e+01	16.9728	6.859445	0.000074	0.737077	0.249729	0.000034
 850	4.2450e+01	17.0081	6.873295	0.000060	0.596682	0.202161	0.000028
 851	4.2500e+01	17.0370	6.891218	0.000077	0.772176	0.261620	0.000036
 852	4.2550e+01	17.0257	6.907104	-0.000068	-0.684429	-0.231891	0.000032
 853	4.2600e+01	17.0578	6.923805	0.000072	0.719528	0.243783	0.000033
 854	4.2650e+01	17.1075	6.938877	0.000065	0.649330	0.219999	0.000030
 855	4.2700e+01	17.0867	6.951504	-0.000054	-0.544033	-0.184323	0.000025
 856	4.2750e+01	17.1107	6.971464	0.000086	0.859924	0.291350	0.000040
 857	4.2800e+01	17.1348	6.991017	0.000084	0.842374	0.285404	0.000039
 858	4.2850e+01	17.1364	7.005274	0.000061	0.614231	0.208107	0.000029
 859	4.2900e+01	17.1749	7.020753	0.000067	0.666879	0.225945	0.000031
 860	4.2950e+01	17.1942	7.035824	0.000065	0.649330	0.219999	0.000030
 861	4.3000e+01	17.2343	7.053340	0.000075	0.754627	0.255674	0.000035
 862	4.3050e+01	17.2375	7.066782	0.000058	0.579132	0.196215	0.000027
 863	4.3100e+01	17.2648	7.079817	0.000056	0.561583	0.190269	0.000026
 864	4.3150e+01	17.2904	7.098555	0.000081	0.807275	0.273512	0.000037
 865	4.3200e+01	17.2984	7.116885	0.000079	0.789726	0.267566	0.000037
 866	4.3250e+01	17.3450	7.128291	0.000049	0.491385	0.166486	0.000023
 867	4.3300e+01	17.3578	7.145399	0.000074	0.737077	0.249729	0.000034
 868	4.3350e+01	17.3803	7.162100	0.000072	0.719528	0.243783	0.000033
 869	4.3400e+01	17.3690	7.173913	-0.000051	-0.508934	-0.172432	0.000024
 870	4.3450e+01	17.4139	7.191022	0.000074	0.737077	0.249729	0.000034
 871	4.3500e+01	17.4364	7.206501	0.000067	0.666879	0.225945	0.000031
 872	4.3550e+01	17.4204	7.224831	-0.000079	-0.789726	-0.267566	0.000037
 873	4.3600e+01	17.4669	7.243162	0.000079	0.789726	0.267566	0.000037
 874	4.3650e+01	17.4701	7.257419	0.000061	0.614231	0.208107	0.000029
 875	4.3700e+01	17.4829	7.270861	0.000058	0.579132	0.196215	0.000027
 876	4.3750e+01	17.5359	7.287562	0.000072	0.719528	0.243783	0.000033
 877	4.3800e+01	17.5262	7.303856	-0.000070	-0.701978	-0.237837	0.000033
 878	4.3850e+01	17.5712	7.320557	0.000072	0.719528	0.243783	0.000033
 879	4.3900e+01	17.5680	7.334814	-0.000061	-0.614231	-0.208107	0.000029
 880	4.3950e+01	17.6000	7.354366	0.000084	0.842374	0.285404	0.000039
 881	4.4000e+01	17.6145	7.364957	0.000046	0.456286	0.154594	0.000021
 882	4.4050e+01	17.6514	7.381251	0.000070	0.701978	0.237837	0.000033
 883	4.4100e+01	17.6482	7.399174	-0.000077	-0.772176	-0.261620	0.000036
 884	4.4150e+01	17.6995	7.411394	0.000053	0.526484	0.178378	0.000024
 885	4.4200e+01	17.6867	7.425651	-0.000061	-0.614231	-0.208107	0.000029
 886	4.4250e+01	17.7252	7.439908	0.000061	0.614231	0.208107	0.000029
 887	4.4300e+01	17.7171	7.454165	-0.000061	-0.614231	-0.208107	0.000029
 888	4.4350e+01	17.7508	7.469237	0.000065	0.649330	0.219999	0.000030
 889	4.4400e+01	17.7781	7.483086	0.000060	0.596682	0.202161	0.000028
 890	4.4450e+01	17.7653	7.498565	-0.000067	-0.666879	-0.225945	0.000031
 891	4.4500e+01	17.8182	7.513230	0.000063	0.631781	0.214053	0.000029
 892	4.4550e+01	17.8310	7.522191	0.000039	0.386088	0.130810	0.000018
 893	4.4600e+01	17.8567	7.538078	0.000068	0.684429	0.231891	0.000032
 894	4.4650e+01	17.8712	7.556001	0.000077	0.772176	0.261620	0.000036
 895	4.4700e+01	17.9161	7.572702	0.000072	0.719528	0.243783	0.000033
 896	4.4750e+01	17.8968	7.588995	-0.000070	-0.701978	-0.237837	0.000033
 897	4.4800e+01	17.9273	7.602438	0.000058	0.579132	0.196215	0.000027
 898	4.4850e+01	17.9931	7.610992	0.000037	0.368539	0.124864	0.000017
 899	4.4900e+01	17.9642	7.626878	-0.000068	-0.684429	-0.231891	0.000032
 900	4.4950e+01	18.0043	7.646838	0.000086	0.859924	0.291350	0.000040
 901	4.5000e+01	18.0220	7.658244	0.000049	0.491385	0.166486	0.000023
 902	4.5050e+01	18.0476	7.670871	0.000054	0.544033	0.184323	0.000025
 903	4.5100e+01	18.0540	7.684314	0.000058	0.579132	0.196215	0.000027
 904	4.5150e+01	18.0813	7.698978	0.000063	0.631781	0.214053	0.000029
 905	4.5200e+01	18.0797	7.712013	-0.000056	-0.561583	-0.190269	0.000026
 906	4.5250e+01	18.1471	7.726677	0.000063	0.631781	0.214053	0.000029
 907	4.5300e+01	18.1407	7.742564	-0.000068	-0.684429	-0.231891	0.000032
 908	4.5350e+01	18.1615	7.751118	0.000037	0.368539	0.124864	0.000017
 909	4.5400e+01	18.1808	7.765782	0.000063	0.631781	0.214053	0.000029
 910	4.5450e+01	18.2096	7.779632	0.000060	0.596682	0.202161	0.000028
 911	4.5500e+01	18.2209	7.791037	0.000049	0.491385	0.166486	0.000023
 912	4.5550e+01	18.2514	7.802036	0.000047	0.473835	0.160540	0.000022
 913	4.5600e+01	18.2514	7.817922	-0.000068	-0.684429	-0.231891	0.000032
 914	4.5650e+01	18.2690	7.831364	0.000058	0.579132	0.196215	0.000027
 915	4.5700e+01	18.3091	7.846843	0.000067	0.666879	0.225945	0.000031
 916	4.5750e+01	18.3171	7.856212	0.000040	0.403638	0.136756	0.000019
 917	4.5800e+01	18.3604	7.872098	0.000068	0.684429	0.231891	0.000032
 918	4.5850e+01	18.3717	7.882282	0.000044	0.438737	0.148648	0.000020
 919	4.5900e+01	18.3556	7.897354	-0.000065	-0.649330	-0.219999	0.000030
 920	4.5950e+01	18.3877	7.913647	0.000070	0.701978	0.237837	0.000033
 921	4.6000e+01	18.4006	7.928312	0.000063	0.631781	0.214053	0.000029
 922	4.6050e+01	18.4054	7.939717	0.000049	0.491385	0.166486	0.000023
 923	4.6100e+01	18.4487	7.953160	0.000058	0.579132	0.196215	0.000027
 924	4.6150e+01	18.4856	7.971083	0.000077	0.772176	0.261620	0.000036
 925	4.6200e+01	18.5128	7.978415	0.000032	0.315890	0.107027	0.000015
 926	4.6250e+01	18.5289	7.991043	0.000054	0.544033	0.184323	0.000025
 927	4.6300e+01	18.5273	8.005299	-0.000061	-0.614231	-0.208107	0.000029
 928	4.6350e+01	18.5401	8.020371	0.000065	0.649330	0.219999	0.000030
 929	4.6400e+01	18.5786	8.033813	0.000058	0.579132	0.196215	0.000027
 930	4.6450e+01	18.6027	8.048885	0.000065	0.649330	0.219999	0.000030
 931	4.6500e+01	18.6107	8.057032	0.000035	0.350989	0.118918	0.000016
 932	4.6550e+01	18.6316	8.065994	0.000039	0.386088	0.130810	0.000018
 933	4.6600e+01	18.6669	8.083917	0.000077	0.772176	0.261620	0.000036
 934	4.6650e+01	18.6893	8.100210	0.000070	0.701978	0.237837	0.000033
 935	4.6700e+01	18.7182	8.111616	0.000049	0.491385	0.166486	0.000023
 936	4.6750e+01	18.7134	8.124651	-0.000056	-0.561583	-0.190269	0.000026
 937	4.6800e+01	18.7278	8.138501	0.000060	0.596682	0.202161	0.000028
 938	4.6850e+01	18.7679	8.151535	0.000056	0.561583	0.190269	0.000026
 939	4.6900e+01	18.7791	8.163756	0.000053	0.526484	0.178378	0.000024
 940	4.6950e+01	18.7936	8.176383	0.000054	0.544033	0.184323	0.000025
 941	4.7000e+01	18.8257	8.190233	0.000060	0.596682	0.202161	0.000028
 942	4.7050e+01	18.8385	8.205305	0.000065	0.649330	0.219999	0.000030
 943	4.7100e+01	18.8353	8.218747	-0.000058	-0.579132	-0.196215	0.000027
 944	4.7150e+01	18.8594	8.233411	0.000063	0.631781	0.214053	0.000029
 945	4.7200e+01	18.9139	8.247668	0.000061	0.614231	0.208107	0.000029
 946	4.7250e+01	18.9508	8.267221	0.000084	0.842374	0.285404	0.000039
 947	4.7300e+01	18.9524	8.277404	0.000044	0.438737	0.148648	0.000020
 948	4.7350e+01	18.9492	8.291254	-0.000060	-0.596682	-0.202161	0.000028
 949	4.7400e+01	18.9989	8.305104	0.000060	0.596682	0.202161	0.000028
 950	4.7450e+01	18.9781	8.320990	-0.000068	-0.684429	-0.231891	0.000032
 951	4.7500e+01	19.0294	8.335654	0.000063	0.631781	0.214053	0.000029
 952	4.7550e+01	19.0406	8.346245	0.000046	0.456286	0.154594	0.000021
 953	4.7600e+01	19.0663	8.364983	0.000081	0.807275	0.273512	0.000037
 954	4.7650e+01	19.0615	8.374759	-0.000042	-0.421187	-0.142702	0.000020
 955	4.7700e+01	19.0920	8.391460	0.000072	0.719528	0.243783	0.000033
 956	4.7750e+01	19.1160	8.407347	0.000068	0.684429	0.231891	0.000032
 957	4.7800e+01	19.1305	8.415901	0.000037	0.368539	0.124864	0.000017
 958	4.7850e+01	19.1385	8.434231	0.000079	0.789726	0.267566	0.000037
 959	4.7900e+01	19.1914	8.448896	0.000063	0.631781	0.214053	0.000029
 960	4.7950e+01	19.1995	8.464782	0.000068	0.684429	0.231891	0.000032
 961	4.8000e+01	19.2331	8.474965	0.000044	0.438737	0.148648	0.000020
 962	4.8050e+01	19.2331	8.490852	-0.000068	-0.684429	-0.231891	0.000032
 963	4.8100e+01	19.2476	8.503479	0.000054	0.544033	0.184323	0.000025
 964	4.8150e+01	19.2813	8.518958	0.000067	0.666879	0.225945	0.000031
 965	4.8200e+01	19.3134	8.534845	0.000068	0.684429	0.231891	0.000032
 966	4.8250e+01	19.3102	8.545436	-0.000046	-0.456286	-0.154594	0.000021
 967	4.8300e+01	19.3310	8.558063	0.000054	0.544033	0.184323	0.000025
 968	4.8350e+01	19.3647	8.571098	0.000056	0.561583	0.190269	0.000026
 969	4.8400e+01	19.3872	8.588207	0.000074	0.737077	0.249729	0.000034
 970	4.8450e+01	19.4032	8.603278	0.000065	0.649330	0.219999	0.000030
 971	4.8500e+01	19.4080	8.619572	0.000070	0.701978	0.237837	0.000033
 972	4.8550e+01	19.4497	8.629348	0.000042	0.421187	0.142702	0.000020
 973	4.8600e+01	19.4561	8.646049	0.000072	0.719528	0.243783	0.000033
 974	4.8650e+01	19.4577	8.656640	0.000046	0.456286	0.154594	0.000021
 975	4.8700e+01	19.4866	8.676193	0.000084	0.842374	0.285404	0.000039
 976	4.8750e+01	19.5315	8.684747	0.000037	0.368539	0.124864	0.000017
 977	4.8800e+01	19.5267	8.703892	-0.000082	-0.824825	-0.279458	0.000038
 978	4.8850e+01	19.5700	8.716927	0.000056	0.561583	0.190269	0.000026
 979	4.8900e+01	19.6037	8.727925	0.000047	0.473835	0.160540	0.000022
 980	4.8950e+01	19.6021	8.742997	-0.000065	-0.649330	-0.219999	0.000030
 981	4.9000e+01	19.6198	8.760513	0.000075	0.754627	0.255674	0.000035
 982	4.9050e+01	19.6358	8.776399	0.000068	0.684429	0.231891	0.000032
 983	4.9100e+01	19.6230	8.784138	-0.000033	-0.333440	-0.112972	0.000015
 984	4.9150e+01	19.6775	8.800839	0.000072	0.719528	0.243783	0.000033
 985	4.9200e+01	19.6887	8.811838	0.000047	0.473835	0.160540	0.000022
 986	4.9250e+01	19.7160	8.831390	0.000084	0.842374	0.285404	0.000039
 987	4.9300e+01	19.7593	8.847684	0.000070	0.701978	0.237837	0.000033
 988	4.9350e+01	19.7706	8.858275	0.000046	0.456286	0.154594	0.000021
 989	4.9400e+01	19.7738	8.871310	0.000056	0.561583	0.190269	0.000026
 990	4.9450e+01	19.8139	8.889640	0.000079	0.789726	0.267566	0.000037
 991	4.9500e+01	19.8187	8.903082	0.000058	0.579132	0.196215	0.000027
 992	4.9550e+01	19.8444	8.913673	0.000046	0.456286	0.154594	0.000021
 993	4.9600e+01	19.8347	8.932411	-0.000081	-0.807275	-0.273512	0.000037
 994	4.9650e+01	19.8716	8.943002	0.000046	0.456286	0.154594	0.000021
 995	4.9700e+01	19.8989	8.962147	0.000082	0.824825	0.279458	0.000038
 996	4.9750e+01	19.9246	8.971109	0.000039	0.386088	0.130810	0.000018
 997	4.9800e+01	19.9326	8.984551	0.000058	0.579132	0.196215	0.000027
 998	4.9850e+01	19.9534	8.999623	0.000065	0.649330	0.219999	0.000030
 999	4.9900e+01	19.9695	9.017138	0.000075	0.754627	0.255674	0.000035
1000	4.9950e+01	19.9952	9.031395	0.000061	0.614231	0.208107	0.000029
1001	5.0000e+01	20.0112	9.047282	0.000068	0.684429	0.231891	0.000032
1002	5.0050e+01	20.0096	9.041986	0.000023	0.228143	0.077297	-0.000011
1003	5.0100e+01	19.9823	9.028951	0.000056	0.561583	0.190269	-0.000026
1004	5.0150e+01	19.9743	9.014694	0.000061	0.614231	0.208107	-0.000029
1005	5.0200e+01	19.9326	9.005325	0.000040	0.403638	0.136756	-0.000019
1006	5.0250e+01	19.9005	8.993513	0.000051	0.508934	0.172432	-0.000024
1007	5.0300e+01	19.9053	8.983329	-0.000044	-0.438737	-0.148648	-0.000020
1008	5.0350e+01	19.8652	8.974775	0.000037	0.368539	0.124864	-0.000017
1009	5.0400e+01	19.8508	8.956037	0.000081	0.807275	0.273512	-0.000037
1010	5.0450e+01	19.8572	8.947075	-0.000039	-0.386088	-0.130810	-0.000018
1011	5.0500e+01	19.8363	8.936892	0.000044	0.438737	0.148648	-0.000020
1012	5.0550e+01	19.7978	8.924264	0.000054	0.544033	0.184323	-0.000025
1013	5.0600e+01	19.7866	8.907971	0.000070	0.701978	0.237837	-0.000033
1014	5.0650e+01	19.7722	8.900638	0.000032	0.315890	0.107027	-0.000015
1015	5.0700e+01	19.7465	8.888825	0.000051	0.508934	0.172432	-0.000024
1016	5.0750e+01	19.7096	8.877420	0.000049	0.491385	0.166486	-0.000023
1017	5.0800e+01	19.6839	8.859904	0.000075	0.754627	0.255674	-0.000035
1018	5.0850e+01	19.6631	8.848091	0.000051	0.508934	0.172432	-0.000024
1019	5.0900e+01	19.6647	8.835056	-0.000056	-0.561583	-0.190269	-0.000026
1020	5.0950e+01	19.6246	8.822836	0.000053	0.526484	0.178378	-0.000024
1021	5.1000e+01	19.6101	8.809801	0.000056	0.561583	0.190269	-0.000026
1022	5.1050e+01	19.6085	8.800025	0.000042	0.421187	0.142702	-0.000020
1023	5.1100e+01	19.5781	8.782102	0.000077	0.772176	0.261620	-0.000036
1024	5.1150e+01	19.5813	8.773955	-0.000035	-0.350989	-0.118918	-0.000016
1025	5.1200e+01	19.5347	8.756847	0.000074	0.737077	0.249729	-0.000034
1026	5.1250e+01	19.5219	8.745848	0.000047	0.473835	0.160540	-0.000022
1027	5.1300e+01	19.4978	8.728740	0.000074	0.737077	0.249729	-0.000034
1028	5.1350e+01	19.4626	8.718556	0.000044	0.438737	0.148648	-0.000020
1029	5.1400e+01	19.4497	8.707965	0.000046	0.456286	0.154594	-0.000021
1030	5.1450e+01	19.4401	8.694116	0.000060	0.596682	0.202161	-0.000028
1031	5.1500e+01	19.4128	8.681081	0.000056	0.561583	0.190269	-0.000026
1032	5.1550e+01	19.3904	8.670083	0.000047	0.473835	0.160540	-0.000022
1033	5.1600e+01	19.3968	8.656233	-0.000060	-0.596682	-0.202161	-0.000028
1034	5.1650e+01	19.3583	8.642383	0.000060	0.596682	0.202161	-0.000028
1035	5.1700e+01	19.3214	8.630570	0.000051	0.508934	0.172432	-0.000024
1036	5.1750e+01	19.3310	8.615906	-0.000063	-0.631781	-0.214053	-0.000029
1037	5.1800e+01	19.2813	8.607352	0.000037	0.368539	0.124864	-0.000017
1038	5.1850e+01	19.2797	8.588207	0.000082	0.824825	0.279458	-0.000038
1039	5.1900e+01	19.2684	8.578023	0.000044	0.438737	0.148648	-0.000020
1040	5.1950e+01	19.2540	8.560507	0.000075	0.754627	0.255674	-0.000035
1041	5.2000e+01	19.2283	8.545436	0.000065	0.649330	0.219999	-0.000030
1042	5.2050e+01	19.2043	8.537696	0.000033	0.333440	0.112972	-0.000015
1043	5.2100e+01	19.1818	8.526698	0.000047	0.473835	0.160540	-0.000022
1044	5.2150e+01	19.1481	8.512441	0.000061	0.614231	0.208107	-0.000029
1045	5.2200e+01	19.1545	8.499813	-0.000054	-0.544033	-0.184323	-0.000025
1046	5.2250e+01	19.1016	8.483112	0.000072	0.719528	0.243783	-0.000033
1047	5.2300e+01	19.1096	8.469263	-0.000060	-0.596682	-0.202161	-0.000028
1048	5.2350e+01	19.0936	8.459079	0.000044	0.438737	0.148648	-0.000020
1049	5.2400e+01	19.0471	8.446451	0.000054	0.544033	0.184323	-0.000025
1050	5.2450e+01	19.0118	8.427306	0.000082	0.824825	0.279458	-0.000038
1051	5.2500e+01	19.0182	8.422011	-0.000023	-0.228143	-0.077297	-0.000011
1052	5.2550e+01	18.9813	8.408161	0.000060	0.596682	0.202161	-0.000028
1053	5.2600e+01	18.9652	8.396756	0.000049	0.491385	0.166486	-0.000023
1054	5.2650e+01	18.9652	8.381684	0.000065	0.649330	0.219999	-0.000030
1055	5.2700e+01	18.9267	8.366612	0.000065	0.649330	0.219999	-0.000030
1056	5.2750e+01	18.9155	8.356021	0.000046	0.456286	0.154594	-0.000021
1057	5.2800e+01	18.9027	8.339728	0.000070	0.701978	0.237837	-0.000033
1058	5.2850e+01	18.8674	8.331988	0.000033	0.333440	0.112972	-0.000015
1059	5.2900e+01	18.8882	8.320583	-0.000049	-0.491385	-0.166486	-0.000023
1060	5.2950e+01	18.8513	8.304696	0.000068	0.684429	0.231891	-0.000032
1061	5.3000e+01	18.8257	8.292069	0.000054	0.544033	0.184323	-0.000025
1062	5.3050e+01	18.7936	8.280256	0.000051	0.508934	0.172432	-0.000024
1063	5.3100e+01	18.7984	8.268035	-0.000053	-0.526484	-0.178378	-0.000024
1064	5.3150e+01	18.7631	8.251742	0.000070	0.701978	0.237837	-0.000033
1065	5.3200e+01	18.7471	8.240743	0.000047	0.473835	0.160540	-0.000022
1066	5.3250e+01	18.7166	8.226079	0.000063	0.631781	0.214053	-0.000029
1067	5.3300e+01	18.6941	8.216303	0.000042	0.421187	0.142702	-0.000020
1068	5.3350e+01	18.6685	8.203268	0.000056	0.561583	0.190269	-0.000026
1069	5.3400e+01	18.6669	8.195121	0.000035	0.350989	0.118918	-0.000016
1070	5.3450e+01	18.6492	8.177605	0.000075	0.754627	0.255674	-0.000035
1071	5.3500e+01	18.6300	8.171088	0.000028	0.280791	0.095135	-0.000013
1072	5.3550e+01	18.6043	8.152350	0.000081	0.807275	0.273512	-0.000037
1073	5.3600e+01	18.5674	8.140537	0.000051	0.508934	0.172432	-0.000024
1074	5.3650e+01	18.5674	8.130761	0.000042	0.421187	0.142702	-0.000020
1075	5.3700e+01	18.5321	8.119355	0.000049	0.491385	0.166486	-0.000023
1076	5.3750e+01	18.5193	8.106728	0.000054	0.544033	0.184323	-0.000025
1077	5.3800e+01	18.4936	8.096952	0.000042	0.421187	0.142702	-0.000020
1078	5.3850e+01	18.4615	8.088805	0.000035	0.350989	0.118918	-0.000016
1079	5.3900e+01	18.4663	8.075770	-0.000056	-0.561583	-0.190269	-0.000026
1080	5.3950e+01	18.4391	8.065586	0.000044	0.438737	0.148648	-0.000020
1081	5.4000e+01	18.4519	8.047663	-0.000077	-0.772176	-0.261620	-0.000036
1082	5.4050e+01	18.3957	8.037480	0.000044	0.438737	0.148648	-0.000020
1083	5.4100e+01	18.3845	8.026889	0.000046	0.456286	0.154594	-0.000021
1084	5.4150e+01	18.3524	8.015483	0.000049	0.491385	0.166486	-0.000023
1085	5.4200e+01	18.3348	8.008151	0.000032	0.315890	0.107027	-0.000015
1086	5.4250e+01	18.3059	7.996338	0.000051	0.508934	0.172432	-0.000024
1087	5.4300e+01	18.3123	7.980044	-0.000070	-0.701978	-0.237837	-0.000033
1088	5.4350e+01	18.2738	7.966195	0.000060	0.596682	0.202161	-0.000028
1089	5.4400e+01	18.2562	7.958455	0.000033	0.333440	0.112972	-0.000015
1090	5.4450e+01	18.2369	7.946235	0.000053	0.526484	0.178378	-0.000024
1091	5.4500e+01	18.2161	7.933607	0.000054	0.544033	0.184323	-0.000025
1092	5.4550e+01	18.2000	7.920165	0.000058	0.579132	0.196215	-0.000027
1093	5.4600e+01	18.1872	7.910796	0.000040	0.403638	0.136756	-0.000019
1094	5.4650e+01	18.1551	7.896132	0.000063	0.631781	0.214053	-0.000029
1095	5.4700e+01	18.1407	7.889207	0.000030	0.298341	0.101081	-0.000014
1096	5.4750e+01	18.1150	7.876987	0.000053	0.526484	0.178378	-0.000024
1097	5.4800e+01	18.0974	7.861100	0.000068	0.684429	0.231891	-0.000032
1098	5.4850e+01	18.0845	7.851324	0.000042	0.421187	0.142702	-0.000020
1099	5.4900e+01	18.0653	7.838696	0.000054	0.544033	0.184323	-0.000025
1100	5.4950e+01	18.0155	7.829735	0.000039	0.386088	0.130810	-0.000018
1101	5.5000e+01	18.0332	7.817107	-0.000054	-0.544033	-0.184323	-0.000025
1102	5.5050e+01	18.0091	7.810590	0.000028	0.280791	0.095135	-0.000013
1103	5.5100e+01	17.9738	7.791852	0.000081	0.807275	0.273512	-0.000037
1104	5.5150e+01	17.9594	7.783298	0.000037	0.368539	0.124864	-0.000017
1105	5.5200e+01	17.9273	7.770263	0.000056	0.561583	0.190269	-0.000026
1106	5.5250e+01	17.9225	7.756413	0.000060	0.596682	0.202161	-0.000028
1107	5.5300e+01	17.8872	7.746230	0.000044	0.438737	0.148648	-0.000020
1108	5.5350e+01	17.8647	7.735231	0.000047	0.473835	0.160540	-0.000022
1109	5.5400e+01	17.8679	7.721382	-0.000060	-0.596682	-0.202161	-0.000028
1110	5.5450e+01	17.8567	7.712828	0.000037	0.368539	0.124864	-0.000017
1111	5.5500e+01	17.8022	7.698978	0.000060	0.596682	0.202161	-0.000028
1112	5.5550e+01	17.7829	7.683499	0.000067	0.666879	0.225945	-0.000031
1113	5.5600e+01	17.7877	7.672093	-0.000049	-0.491385	-0.166486	-0.000023
1114	5.5650e+01	17.7300	7.659058	0.000056	0.561583	0.190269	-0.000026
1115	5.5700e+01	17.7412	7.646023	-0.000056	-0.561583	-0.190269	-0.000026
1116	5.5750e+01	17.7075	7.630544	0.000067	0.666879	0.225945	-0.000031
1117	5.5800e+01	17.6915	7.623212	0.000032	0.315890	0.107027	-0.000015
1118	5.5850e+01	17.6899	7.611399	0.000051	0.508934	0.172432	-0.000024
1119	5.5900e+01	17.6706	7.593069	0.000079	0.789726	0.267566	-0.000037
1120	5.5950e+01	17.6466	7.582885	0.000044	0.438737	0.148648	-0.000020
1121	5.6000e+01	17.6081	7.566999	0.000068	0.684429	0.231891	-0.000032
1122	5.6050e+01	17.5888	7.553149	0.000060	0.596682	0.202161	-0.000028
1123	5.6100e+01	17.5952	7.546224	-0.000030	-0.298341	-0.101081	-0.000014
1124	5.6150e+01	17.5391	7.535226	0.000047	0.473835	0.160540	-0.000022
1125	5.6200e+01	17.5551	7.520155	-0.000065	-0.649330	-0.219999	-0.000030
1126	5.6250e+01	17.5166	7.509971	0.000044	0.438737	0.148648	-0.000020
1127	5.6300e+01	17.5118	7.498973	0.000047	0.473835	0.160540	-0.000022
1128	5.6350e+01	17.4637	7.482272	0.000072	0.719528	0.243783	-0.000033
1129	5.6400e+01	17.4541	7.471273	0.000047	0.473835	0.160540	-0.000022
1130	5.6450e+01	17.4524	7.455387	0.000068	0.684429	0.231891	-0.000032
1131	5.6500e+01	17.4172	7.447648	0.000033	0.333440	0.112972	-0.000015
1132	5.6550e+01	17.3995	7.430539	0.000074	0.737077	0.249729	-0.000034
1133	5.6600e+01	17.3770	7.419948	0.000046	0.456286	0.154594	-0.000021
1134	5.6650e+01	17.3434	7.408543	0.000049	0.491385	0.166486	-0.000023
1135	5.6700e+01	17.3498	7.391842	-0.000072	-0.719528	-0.243783	-0.000033
1136	5.6750e+01	17.3273	7.375141	0.000072	0.719528	0.243783	-0.000033
1137	5.6800e+01	17.2936	7.369030	0.000026	0.263242	0.089189	-0.000012
1138	5.6850e+01	17.2952	7.357625	-0.000049	-0.491385	-0.166486	-0.000023
1139	5.6900e+01	17.2664	7.344590	0.000056	0.561583	0.190269	-0.000026
1140	5.6950e+01	17.2214	7.333999	0.000046	0.456286	0.154594	-0.000021
1141	5.7000e+01	17.2327	7.313224	-0.000090	-0.895022	-0.303242	-0.000042
1142	5.7050e+01	17.1861	7.299782	0.000058	0.579132	0.196215	-0.000027
1143	5.7100e+01	17.1990	7.286747	-0.000056	-0.561583	-0.190269	-0.000026
1144	5.7150e+01	17.1669	7.277378	0.000040	0.403638	0.136756	-0.000019
1145	5.7200e+01	17.0947	7.267195	0.000044	0.438737	0.148648	-0.000020
1146	5.7250e+01	17.1091	7.248864	-0.000079	-0.789726	-0.267566	-0.000037
1147	5.7300e+01	17.1043	7.235015	0.000060	0.596682	0.202161	-0.000028
1148	5.7350e+01	17.0706	7.223609	0.000049	0.491385	0.166486	-0.000023
1149	5.7400e+01	17.0402	7.211389	0.000053	0.526484	0.178378	-0.000024
1150	5.7450e+01	17.0402	7.197132	0.000061	0.614231	0.208107	-0.000029
1151	5.7500e+01	17.0321	7.182468	0.000063	0.631781	0.214053	-0.000029
1152	5.7550e+01	16.9920	7.167803	0.000063	0.631781	0.214053	-0.000029
1153	5.7600e+01	16.9824	7.158027	0.000042	0.421187	0.142702	-0.000020
1154	5.7650e+01	16.9487	7.140919	0.000074	0.737077	0.249729	-0.000034
1155	5.7700e+01	16.9327	7.128291	0.000054	0.544033	0.184323	-0.000025
1156	5.7750e+01	16.9102	7.114034	0.000061	0.614231	0.208107	-0.000029
1157	5.7800e+01	16.8894	7.099370	0.000063	0.631781	0.214053	-0.000029
1158	5.7850e+01	16.8958	7.088779	-0.000046	-0.456286	-0.154594	-0.000021
1159	5.7900e+01	16.8797	7.076966	0.000051	0.508934	0.172432	-0.000024
1160	5.7950e+01	16.8268	7.061079	0.000068	0.684429	0.231891	-0.000032
1161	5.8000e+01	16.8059	7.053340	0.000033	0.333440	0.112972	-0.000015
1162	5.8050e+01	16.7979	7.035417	0.000077	0.772176	0.261620	-0.000036
1163	5.8100e+01	16.7546	7.023604	0.000051	0.508934	0.172432	-0.000024
1164	5.8150e+01	16.7578	7.009754	-0.000060	-0.596682	-0.202161	-0.000028
1165	5.8200e+01	16.7257	6.993461	0.000070	0.701978	0.237837	-0.000033
1166	5.8250e+01	16.7081	6.980426	0.000056	0.561583	0.190269	-0.000026
1167	5.8300e+01	16.6953	6.967391	0.000056	0.561583	0.190269	-0.000026
1168	5.8350e+01	16.6808	6.953541	0.000060	0.596682	0.202161	-0.000028
1169	5.8400e+01	16.6680	6.939284	0.000061	0.614231	0.208107	-0.000029
1170	5.8450e+01	16.6503	6.927064	0.000053	0.526484	0.178378	-0.000024
1171	5.8500e+01	16.6134	6.913214	0.000060	0.596682	0.202161	-0.000028
1172	5.8550e+01	16.6086	6.897328	0.000068	0.684429	0.231891	-0.000032
1173	5.8600e+01	16.5878	6.880627	0.000072	0.719528	0.243783	-0.000033
1174	5.8650e+01	16.5637	6.870443	0.000044	0.438737	0.148648	-0.000020
1175	5.8700e+01	16.5509	6.859852	0.000046	0.456286	0.154594	-0.000021
1176	5.8750e+01	16.5092	6.847632	0.000053	0.526484	0.178378	-0.000024
1177	5.8800e+01	16.4883	6.828080	0.000084	0.842374	0.285404	-0.000039
1178	5.8850e+01	16.4803	6.815452	0.000054	0.544033	0.184323	-0.000025
1179	5.8900e+01	16.4466	6.798751	0.000072	0.719528	0.243783	-0.000033
1180	5.8950e+01	16.4450	6.788160	0.000046	0.456286	0.154594	-0.000021
1181	5.9000e+01	16.4241	6.774718	0.000058	0.579132	0.196215	-0.000027
1182	5.9050e+01	16.3969	6.762090	0.000054	0.544033	0.184323	-0.000025
1183	5.9100e+01	16.3824	6.750277	0.000051	0.508934	0.172432	-0.000024
1184	5.9150e+01	16.3263	6.738872	0.000049	0.491385	0.166486	-0.000023
1185	5.9200e+01	16.3295	6.720541	-0.000079	-0.789726	-0.267566	-0.000037
1186	5.9250e+01	16.3183	6.711172	0.000040	0.403638	0.136756	-0.000019
1187	5.9300e+01	16.2942	6.699767	0.000049	0.491385	0.166486	-0.000023
1188	5.9350e+01	16.2846	6.684288	0.000067	0.666879	0.225945	-0.000031
1189	5.9400e+01	16.2557	6.675733	0.000037	0.368539	0.124864	-0.000017
1190	5.9450e+01	16.2316	6.664328	0.000049	0.491385	0.166486	-0.000023
1191	5.9500e+01	16.2124	6.649663	0.000063	0.631781	0.214053	-0.000029
1192	5.9550e+01	16.2108	6.634592	0.000065	0.649330	0.219999	-0.000030
1193	5.9600e+01	16.2060	6.619113	0.000067	0.666879	0.225945	-0.000031
1194	5.9650e+01	16.1514	6.611373	0.000033	0.333440	0.112972	-0.000015
1195	5.9700e+01	16.1466	6.597931	0.000058	0.579132	0.196215	-0.000027
1196	5.9750e+01	16.1113	6.586525	0.000049	0.491385	0.166486	-0.000023
1197	5.9800e+01	16.1033	6.571046	0.000067	0.666879	0.225945	-0.000031
1198	5.9850e+01	16.0856	6.558011	0.000056	0.561583	0.190269	-0.000026
1199	5.9900e+01	16.0343	6.543347	0.000063	0.631781	0.214053	-0.000029
1200	5.9950e+01	16.0407	6.527461	-0.000068	-0.684429	-0.231891	-0.000032
1201	6.0000e+01	16.0199	6.514018	0.000058	0.579132	0.196215	-0.000027
1202	6.0050e+01	15.9910	6.502205	0.000051	0.508934	0.172432	-0.000024
1203	6.0100e+01	15.9637	6.491207	0.000047	0.473835	0.160540	-0.000022
1204	6.0150e+01	15.9605	6.478987	0.000053	0.526484	0.178378	-0.000024
1205	6.0200e+01	15.9300	6.463915	0.000065	0.649330	0.219999	-0.000030
1206	6.0250e+01	15.9204	6.451288	0.000054	0.544033	0.184323	-0.000025
1207	6.0300e+01	15.9012	6.439067	0.000053	0.526484	0.178378	-0.000024
1208	6.0350e+01	15.8819	6.419515	0.000084	0.842374	0.285404	-0.000039
1209	6.0400e+01	15.8691	6.411368	0.000035	0.350989	0.118918	-0.000016
1210	6.0450e+01	15.8081	6.395889	0.000067	0.666879	0.225945	-0.000031
1211	6.0500e+01	15.8242	6.383261	-0.000054	-0.544033	-0.184323	-0.000025
1212	6.0550e+01	15.7921	6.372263	0.000047	0.473835	0.160540	-0.000022
1213	6.0600e+01	15.7808	6.359228	0.000056	0.561583	0.190269	-0.000026
1214	6.0650e+01	15.7568	6.344971	0.000061	0.614231	0.208107	-0.000029
1215	6.0700e+01	15.7279	6.331936	0.000056	0.561583	0.190269	-0.000026
1216	6.0750e+01	15.7054	6.318087	0.000060	0.596682	0.202161	-0.000028
1217	6.0800e+01	15.6878	6.305866	0.000053	0.526484	0.178378	-0.000024
1218	6.0850e+01	15.6782	6.290795	0.000065	0.649330	0.219999	-0.000030
1219	6.0900e+01	15.6669	6.270428	0.000088	0.877473	0.297296	-0.000041
1220	6.0950e+01	15.6413	6.259429	0.000047	0.473835	0.160540	-0.000022
1221	6.1000e+01	15.5947	6.248024	0.000049	0.491385	0.166486	-0.000023
1222	6.1050e+01	15.5947	6.231730	0.000070	0.701978	0.237837	-0.000033
1223	6.1100e+01	15.5659	6.219102	0.000054	0.544033	0.184323	-0.000025
1224	6.1150e+01	15.5643	6.200365	0.000081	0.807275	0.273512	-0.000037
1225	6.1200e+01	15.5145	6.189366	0.000047	0.473835	0.160540	-0.000022
1226	6.1250e+01	15.5226	6.173887	-0.000067	-0.666879	-0.225945	-0.000031
1227	6.1300e+01	15.4728	6.157594	0.000070	0.701978	0.237837	-0.000033
1228	6.1350e+01	15.4744	6.143744	-0.000060	-0.596682	-0.202161	-0.000028
1229	6.1400e+01	15.4600	6.127858	0.000068	0.684429	0.231891	-0.000032
1230	6.1450e+01	15.4311	6.118489	0.000040	0.403638	0.136756	-0.000019
1231	6.1500e+01	15.4263	6.099344	0.000082	0.824825	0.279458	-0.000038
1232	6.1550e+01	15.3958	6.085087	0.000061	0.614231	0.208107	-0.000029
1233	6.1600e+01	15.3878	6.071644	0.000058	0.579132	0.196215	-0.000027
1234	6.1650e+01	15.3413	6.054536	0.000074	0.737077	0.249729	-0.000034
1235	6.1700e+01	15.3413	6.039872	0.000063	0.631781	0.214053	-0.000029
1236	6.1750e+01	15.3092	6.028059	0.000051	0.508934	0.172432	-0.000024
1237	6.1800e+01	15.3092	6.013394	0.000063	0.631781	0.214053	-0.000029
1238	6.1850e+01	15.2899	5.996693	0.000072	0.719528	0.243783	-0.000033
1239	6.1900e+01	15.2675	5.980807	0.000068	0.684429	0.231891	-0.000032
1240	6.1950e+01	15.2530	5.962069	0.000081	0.807275	0.273512	-0.000037
1241	6.2000e+01	15.2178	5.946998	0.000065	0.649330	0.219999	-0.000030
1242	6.2050e+01	15.1937	5.931926	0.000065	0.649330	0.219999	-0.000030
1243	6.2100e+01	15.1873	5.913595	0.000079	0.789726	0.267566	-0.000037
1244	6.2150e+01	15.1776	5.896487	0.000074	0.737077	0.249729	-0.000034
1245	6.2200e+01	15.1664	5.882230	0.000061	0.614231	0.208107	-0.000029
1246	6.2250e+01	15.1375	5.863085	0.000082	0.824825	0.279458	-0.000038
1247	6.2300e+01	15.1135	5.851272	0.000051	0.508934	0.172432	-0.000024
1248	6.2350e+01	15.0589	5.839052	0.000053	0.526484	0.178378	-0.000024
1249	6.2400e+01	15.0670	5.819907	-0.000082	-0.824825	-0.279458	-0.000038
1250	6.2450e+01	15.0220	5.801169	0.000081	0.807275	0.273512	-0.000037
1251	6.2500e+01	15.0317	5.784468	-0.000072	-0.719528	-0.243783	-0.000033
1252	6.2550e+01	14.9996	5.768582	0.000068	0.684429	0.231891	-0.000032
1253	6.2600e+01	14.9643	5.751066	0.000075	0.754627	0.255674	-0.000035
1254	6.2650e+01	14.9883	5.740882	-0.000044	-0.438737	-0.148648	-0.000020
1255	6.2700e+01	14.9242	5.723774	0.000074	0.737077	0.249729	-0.000034
1256	6.2750e+01	14.9194	5.707073	0.000072	0.719528	0.243783	-0.000033
1257	6.2800e+01	14.8969	5.693223	0.000060	0.596682	0.202161	-0.000028
1258	6.2850e+01	14.8793	5.674485	0.000081	0.807275	0.273512	-0.000037
1259	6.2900e+01	14.8408	5.659414	0.000065	0.649330	0.219999	-0.000030
1260	6.2950e+01	14.8472	5.642713	-0.000072	-0.719528	-0.243783	-0.000033
1261	6.3000e+01	14.8263	5.629270	0.000058	0.579132	0.196215	-0.000027
1262	6.3050e+01	14.7894	5.612162	0.000074	0.737077	0.249729	-0.000034
1263	6.3100e+01	14.7638	5.599534	0.000054	0.544033	0.184323	-0.000025
1264	6.3150e+01	14.7638	5.581204	0.000079	0.789726	0.267566	-0.000037
1265	6.3200e+01	14.7301	5.564096	0.000074	0.737077	0.249729	-0.000034
1266	6.3250e+01	14.7333	5.551061	-0.000056	-0.561583	-0.190269	-0.000026
1267	6.3300e+01	14.7092	5.528249	0.000098	0.982770	0.332971	-0.000046
1268	6.3350e+01	14.7076	5.516029	0.000053	0.526484	0.178378	-0.000024
1269	6.3400e+01	14.6579	5.494847	0.000091	0.912572	0.309188	-0.000042
1270	6.3450e+01	14.6515	5.483034	0.000051	0.508934	0.172432	-0.000024
1271	6.3500e+01	14.6065	5.464704	0.000079	0.789726	0.267566	-0.000037
1272	6.3550e+01	14.5761	5.450854	0.000060	0.596682	0.202161	-0.000028
1273	6.3600e+01	14.5584	5.432117	0.000081	0.807275	0.273512	-0.000037
1274	6.3650e+01	14.5408	5.417860	0.000061	0.614231	0.208107	-0.000029
1275	6.3700e+01	14.5279	5.401973	0.000068	0.684429	0.231891	-0.000032
1276	6.3750e+01	14.5247	5.384458	0.000075	0.754627	0.255674	-0.000035
1277	6.3800e+01	14.5103	5.369386	0.000065	0.649330	0.219999	-0.000030
1278	6.3850e+01	14.4910	5.357980	0.000049	0.491385	0.166486	-0.000023
1279	6.3900e+01	14.4718	5.342909	0.000065	0.649330	0.219999	-0.000030
1280	6.3950e+01	14.4413	5.331503	0.000049	0.491385	0.166486	-0.000023
1281	6.4000e+01	14.4124	5.312765	0.000081	0.807275	0.273512	-0.000037
1282	6.4050e+01	14.3884	5.299323	0.000058	0.579132	0.196215	-0.000027
1283	6.4100e+01	14.3819	5.279770	0.000084	0.842374	0.285404	-0.000039
1284	6.4150e+01	14.3659	5.266328	0.000058	0.579132	0.196215	-0.000027
1285	6.4200e+01	14.3258	5.252479	0.000060	0.596682	0.202161	-0.000028
1286	6.4250e+01	14.3258	5.237814	0.000063	0.631781	0.214053	-0.000029
1287	6.4300e+01	14.3082	5.220298	0.000075	0.754627	0.255674	-0.000035
1288	6.4350e+01	14.2504	5.206449	0.000060	0.596682	0.202161	-0.000028
1289	6.4400e+01	14.2584	5.187711	-0.000081	-0.807275	-0.273512	-0.000037
1290	6.4450e+01	14.2119	5.176305	0.000049	0.491385	0.166486	-0.000023
1291	6.4500e+01	14.2328	5.160012	-0.000070	-0.701978	-0.237837	-0.000033
1292	6.4550e+01	14.2023	5.141274	0.000081	0.807275	0.273512	-0.000037
1293	6.4600e+01	14.1702	5.128646	0.000054	0.544033	0.184323	-0.000025
1294	6.4650e+01	14.1541	5.111945	0.000072	0.719528	0.243783	-0.000033
1295	6.4700e+01	14.1445	5.098503	0.000058	0.579132	0.196215	-0.000027
1296	6.4750e+01	14.1172	5.081802	0.000072	0.719528	0.243783	-0.000033
1297	6.4800e+01	14.1012	5.065101	0.000072	0.719528	0.243783	-0.000033
1298	6.4850e+01	14.0707	5.049622	0.000067	0.666879	0.225945	-0.000031
1299	6.4900e+01	14.0418	5.032514	0.000074	0.737077	0.249729	-0.000034
1300	6.4950e+01	14.0418	5.019479	0.000056	0.561583	0.190269	-0.000026
1301	6.5000e+01	14.0130	5.005222	0.000061	0.614231	0.208107	-0.000029
1302	6.5050e+01	13.9985	4.993001	0.000053	0.526484	0.178378	-0.000024
1303	6.5100e+01	13.9761	4.976708	0.000070	0.701978	0.237837	-0.000033
1304	6.5150e+01	13.9296	4.956748	0.000086	0.859924	0.291350	-0.000040
1305	6.5200e+01	13.9472	4.943306	-0.000058	-0.579132	-0.196215	-0.000027
1306	6.5250e+01	13.9119	4.927012	0.000070	0.701978	0.237837	-0.000033
1307	6.5300e+01	13.8927	4.910718	0.000070	0.701978	0.237837	-0.000033
1308	6.5350e+01	13.8654	4.895646	0.000065	0.649330	0.219999	-0.000030
1309	6.5400e+01	13.8622	4.883426	0.000053	0.526484	0.178378	-0.000024
1310	6.5450e+01	13.8349	4.867947	0.000067	0.666879	0.225945	-0.000031
1311	6.5500e+01	13.8157	4.850024	0.000077	0.772176	0.261620	-0.000036
1312	6.5550e+01	13.8044	4.835767	0.000061	0.614231	0.208107	-0.000029
1313	6.5600e+01	13.7884	4.817844	0.000077	0.772176	0.261620	-0.000036
1314	6.5650e+01	13.7451	4.807660	0.000044	0.438737	0.148648	-0.000020
1315	6.5700e+01	13.7403	4.789330	0.000079	0.789726	0.267566	-0.000037
1316	6.5750e+01	13.7194	4.773444	0.000068	0.684429	0.231891	-0.000032
1317	6.5800e+01	13.6857	4.760001	0.000058	0.579132	0.196215	-0.000027
1318	6.5850e+01	13.6793	4.744115	0.000068	0.684429	0.231891	-0.000032
1319	6.5900e+01	13.6119	4.725785	0.000079	0.789726	0.267566	-0.000037
1320	6.5950e+01	13.6536	4.708676	-0.000074	-0.737077	-0.249729	-0.000034
1321	6.6000e+01	13.6247	4.694827	0.000060	0.596682	0.202161	-0.000028
1322	6.6050e+01	13.5766	4.680570	0.000061	0.614231	0.208107	-0.000029
1323	6.6100e+01	13.5542	4.666313	0.000061	0.614231	0.208107	-0.000029
1324	6.6150e+01	13.5686	4.650426	-0.000068	-0.684429	-0.231891	-0.000032
1325	6.6200e+01	13.5333	4.634133	0.000070	0.701978	0.237837	-0.000033
1326	6.6250e+01	13.5205	4.623542	0.000046	0.456286	0.154594	-0.000021
1327	6.6300e+01	13.5125	4.607655	0.000068	0.684429	0.231891	-0.000032
1328	6.6350e+01	13.4804	4.584437	0.000100	1.000319	0.338917	-0.000046
1329	6.6400e+01	13.4627	4.570994	0.000058	0.579132	0.196215	-0.000027
1330	6.6450e+01	13.4322	4.554701	0.000070	0.701978	0.237837	-0.000033
1331	6.6500e+01	13.4162	4.539222	0.000067	0.666879	0.225945	-0.000031
1332	6.6550e+01	13.4098	4.525779	0.000058	0.579132	0.196215	-0.000027
1333	6.6600e+01	13.3729	4.507856	0.000077	0.772176	0.261620	-0.000036
1334	6.6650e+01	13.3392	4.494007	0.000060	0.596682	0.202161	-0.000028
1335	6.6700e+01	13.3472	4.478935	-0.000065	-0.649330	-0.219999	-0.000030
1336	6.6750e+01	13.3199	4.466307	0.000054	0.544033	0.184323	-0.000025
1337	6.6800e+01	13.2750	4.446348	0.000086	0.859924	0.291350	-0.000040
1338	6.6850e+01	13.2847	4.432498	-0.000060	-0.596682	-0.202161	-0.000028
1339	6.6900e+01	13.2558	4.417426	0.000065	0.649330	0.219999	-0.000030
1340	6.6950e+01	13.2574	4.401133	-0.000070	-0.701978	-0.237837	-0.000033
1341	6.7000e+01	13.2076	4.386061	0.000065	0.649330	0.219999	-0.000030
1342	6.7050e+01	13.1868	4.369767	0.000070	0.701978	0.237837	-0.000033
1343	6.7100e+01	13.1820	4.354288	0.000067	0.666879	0.225945	-0.000031
1344	6.7150e+01	13.1339	4.342475	0.000051	0.508934	0.172432	-0.000024
1345	6.7200e+01	13.1595	4.321701	-0.000090	-0.895022	-0.303242	-0.000042
1346	6.7250e+01	13.1210	4.305814	0.000068	0.684429	0.231891	-0.000032
1347	6.7300e+01	13.1066	4.289113	0.000072	0.719528	0.243783	-0.000033
1348	6.7350e+01	13.0408	4.274449	0.000063	0.631781	0.214053	-0.000029
1349	6.7400e+01	13.0232	4.266302	0.000035	0.350989	0.118918	-0.000016
1350	6.7450e+01	13.0312	4.245935	-0.000088	-0.877473	-0.297296	-0.000041
1351	6.7500e+01	13.0183	4.226790	0.000082	0.824825	0.279458	-0.000038
1352	6.7550e+01	13.0087	4.213348	0.000058	0.579132	0.196215	-0.000027
1353	6.7600e+01	12.9638	4.193388	0.000086	0.859924	0.291350	-0.000040
1354	6.7650e+01	12.9574	4.177502	0.000068	0.684429	0.231891	-0.000032
1355	6.7700e+01	12.9333	4.160393	0.000074	0.737077	0.249729	-0.000034
1356	6.7750e+01	12.9269	4.148173	0.000053	0.526484	0.178378	-0.000024
1357	6.7800e+01	12.8852	4.131064	0.000074	0.737077	0.249729	-0.000034
1358	6.7850e+01	12.8788	4.116807	0.000061	0.614231	0.208107	-0.000029
1359	6.7900e+01	12.8659	4.098884	0.000077	0.772176	0.261620	-0.000036
1360	6.7950e+01	12.8563	4.080147	0.000081	0.807275	0.273512	-0.000037
1361	6.8000e+01	12.8258	4.062631	0.000075	0.754627	0.255674	-0.000035
1362	6.8050e+01	12.8050	4.052040	0.000046	0.456286	0.154594	-0.000021
1363	6.8100e+01	12.8082	4.032895	-0.000082	-0.824825	-0.279458	-0.000038
1364	6.8150e+01	12.7585	4.016194	0.000072	0.719528	0.243783	-0.000033
1365	6.8200e+01	12.7504	4.000715	0.000067	0.666879	0.225945	-0.000031
1366	6.8250e+01	12.7296	3.981977	0.000081	0.807275	0.273512	-0.000037
1367	6.8300e+01	12.6783	3.967313	0.000063	0.631781	0.214053	-0.000029
1368	6.8350e+01	12.6799	3.950612	-0.000072	-0.719528	-0.243783	-0.000033
1369	6.8400e+01	12.6285	3.935133	0.000067	0.666879	0.225945	-0.000031
1370	6.8450e+01	12.6590	3.919654	-0.000067	-0.666879	-0.225945	-0.000031
1371	6.8500e+01	12.6253	3.900916	0.000081	0.807275	0.273512	-0.000037
1372	6.8550e+01	12.5980	3.884215	0.000072	0.719528	0.243783	-0.000033
1373	6.8600e+01	12.5660	3.871995	0.000053	0.526484	0.178378	-0.000024
1374	6.8650e+01	12.5531	3.849591	0.000097	0.965220	0.327025	-0.000045
1375	6.8700e+01	12.5579	3.837371	-0.000053	-0.526484	-0.178378	-0.000024
1376	6.8750e+01	12.5275	3.821077	0.000070	0.701978	0.237837	-0.000033
1377	6.8800e+01	12.5178	3.801524	0.000084	0.842374	0.285404	-0.000039
1378	6.8850e+01	12.4841	3.784416	0.000074	0.737077	0.249729	-0.000034
1379	6.8900e+01	12.4569	3.770974	0.000058	0.579132	0.196215	-0.000027
1380	6.8950e+01	12.4505	3.755902	0.000065	0.649330	0.219999	-0.000030
1381	6.9000e+01	12.4055	3.735942	0.000086	0.859924	0.291350	-0.000040
1382	6.9050e+01	12.4136	3.722093	-0.000060	-0.596682	-0.202161	-0.000028
1383	6.9100e+01	12.3783	3.703355	0.000081	0.807275	0.273512	-0.000037
1384	6.9150e+01	12.3590	3.688283	0.000065	0.649330	0.219999	-0.000030
1385	6.9200e+01	12.3317	3.673211	0.000065	0.649330	0.219999	-0.000030
1386	6.9250e+01	12.3077	3.659769	0.000058	0.579132	0.196215	-0.000027
1387	6.9300e+01	12.3125	3.642253	-0.000075	-0.754627	-0.255674	-0.000035
1388	6.9350e+01	12.2884	3.625145	0.000074	0.737077	0.249729	-0.000034
1389	6.9400e+01	12.2660	3.609666	0.000067	0.666879	0.225945	-0.000031
1390	6.9450e+01	12.1986	3.590521	0.000082	0.824825	0.279458	-0.000038
1391	6.9500e+01	12.2259	3.583596	-0.000030	-0.298341	-0.101081	-0.000014
1392	6.9550e+01	12.2066	3.562414	0.000091	0.912572	0.309188	-0.000042
1393	6.9600e+01	12.1825	3.546528	0.000068	0.684429	0.231891	-0.000032
1394	6.9650e+01	12.1633	3.530642	0.000068	0.684429	0.231891	-0.000032
1395	6.9700e+01	12.1424	3.513941	0.000072	0.719528	0.243783	-0.000033
1396	6.9750e+01	12.1168	3.500498	0.000058	0.579132	0.196215	-0.000027
1397	6.9800e+01	12.1104	3.484205	0.000070	0.701978	0.237837	-0.000033
1398	6.9850e+01	12.0622	3.467503	0.000072	0.719528	0.243783	-0.000033
1399	6.9900e+01	12.0542	3.451210	0.000070	0.701978	0.237837	-0.000033
1400	6.9950e+01	12.0382	3.433694	0.000075	0.754627	0.255674	-0.000035
1401	7.0000e+01	12.0414	3.418622	-0.000065	-0.649330	-0.219999	-0.000030
1402	7.0050e+01	11.9884	3.403143	0.000067	0.666879	0.225945	-0.000031
1403	7.0100e+01	11.9965	3.390923	-0.000053	-0.526484	-0.178378	-0.000024
1404	7.0150e+01	11.9563	3.378295	0.000054	0.544033	0.184323	-0.000025
1405	7.0200e+01	11.9419	3.360372	0.000077	0.772176	0.261620	-0.000036
1406	7.0250e+01	11.9130	3.344893	0.000067	0.666879	0.225945	-0.000031
1407	7.0300e+01	11.9162	3.329007	-0.000068	-0.684429	-0.231891	-0.000032
1408	7.0350e+01	11.8633	3.316379	0.000054	0.544033	0.184323	-0.000025
1409	7.0400e+01	11.8681	3.299678	-0.000072	-0.719528	-0.243783	-0.000033
1410	7.0450e+01	11.8569	3.289495	0.000044	0.438737	0.148648	-0.000020
1411	7.0500e+01	11.8007	3.271164	0.000079	0.789726	0.267566	-0.000037
1412	7.0550e+01	11.8120	3.260981	-0.000044	-0.438737	-0.148648	-0.000020
1413	7.0600e+01	11.7831	3.241836	0.000082	0.824825	0.279458	-0.000038
1414	7.0650e+01	11.7574	3.225949	0.000068	0.684429	0.231891	-0.000032
1415	7.0700e+01	11.7285	3.213729	0.000053	0.526484	0.178378	-0.000024
1416	7.0750e+01	11.7398	3.200694	-0.000056	-0.561583	-0.190269	-0.000026
1417	7.0800e+01	11.6772	3.183993	0.000072	0.719528	0.243783	-0.000033
1418	7.0850e+01	11.6692	3.170551	0.000058	0.579132	0.196215	-0.000027
1419	7.0900e+01	11.6708	3.159145	-0.000049	-0.491385	-0.166486	-0.000023
1420	7.0950e+01	11.6291	3.137963	0.000091	0.912572	0.309188	-0.000042
1421	7.1000e+01	11.6130	3.123706	0.000061	0.614231	0.208107	-0.000029
1422	7.1050e+01	11.5906	3.111486	0.000053	0.526484	0.178378	-0.000024
1423	7.1100e+01	11.5794	3.096007	0.000067	0.666879	0.225945	-0.000031
1424	7.1150e+01	11.5264	3.079713	0.000070	0.701978	0.237837	-0.000033
1425	7.1200e+01	11.5505	3.064642	-0.000065	-0.649330	-0.219999	-0.000030
1426	7.1250e+01	11.5232	3.052421	0.000053	0.526484	0.178378	-0.000024
1427	7.1300e+01	11.4895	3.037350	0.000065	0.649330	0.219999	-0.000030
1428	7.1350e+01	11.4767	3.024315	0.000056	0.561583	0.190269	-0.000026
1429	7.1400e+01	11.4462	3.005577	0.000081	0.807275	0.273512	-0.000037
1430	7.1450e+01	11.4526	2.992135	-0.000058	-0.579132	-0.196215	-0.000027
1431	7.1500e+01	11.4237	2.979507	0.000054	0.544033	0.184323	-0.000025
1432	7.1550e+01	11.3965	2.966879	0.000054	0.544033	0.184323	-0.000025
1433	7.1600e+01	11.3708	2.949364	0.000075	0.754627	0.255674	-0.000035
1434	7.1650e+01	11.3371	2.935514	0.000060	0.596682	0.202161	-0.000028
1435	7.1700e+01	11.3114	2.921664	0.000060	0.596682	0.202161	-0.000028
1436	7.1750e+01	11.3130	2.908629	-0.000056	-0.561583	-0.190269	-0.000026
1437	7.1800e+01	11.3227	2.894780	-0.000060	-0.596682	-0.202161	-0.000028
1438	7.1850e+01	11.2986	2.875227	0.000084	0.842374	0.285404	-0.000039
1439	7.1900e+01	11.2729	2.864229	0.000047	0.473835	0.160540	-0.000022
1440	7.1950e+01	11.2425	2.849157	0.000065	0.649330	0.219999	-0.000030
1441	7.2000e+01	11.1975	2.833678	0.000067	0.666879	0.225945	-0.000031
1442	7.2050e+01	11.1847	2.816570	0.000074	0.737077	0.249729	-0.000034
1443	7.2100e+01	11.1671	2.800684	0.000068	0.684429	0.231891	-0.000032
1444	7.2150e+01	11.1366	2.784797	0.000068	0.684429	0.231891	-0.000032
1445	7.2200e+01	11.1398	2.769318	-0.000067	-0.666879	-0.225945	-0.000031
1446	7.2250e+01	11.1125	2.755469	0.000060	0.596682	0.202161	-0.000028
1447	7.2300e+01	11.1013	2.738768	0.000072	0.719528	0.243783	-0.000033
1448	7.2350e+01	11.0756	2.724918	0.000060	0.596682	0.202161	-0.000028
1449	7.2400e+01	11.0500	2.710254	0.000063	0.631781	0.214053	-0.000029
1450	7.2450e+01	11.0371	2.693960	0.000070	0.701978	0.237837	-0.000033
1451	7.2500e+01	11.0211	2.676444	0.000075	0.754627	0.255674	-0.000035
1452	7.2550e+01	11.0147	2.661780	0.000063	0.631781	0.214053	-0.000029
1453	7.2600e+01	10.9906	2.643042	0.000081	0.807275	0.273512	-0.000037
1454	7.2650e+01	10.9377	2.630415	0.000054	0.544033	0.184323	-0.000025
1455	7.2700e+01	10.9345	2.612084	0.000079	0.789726	0.267566	-0.000037
1456	7.2750e+01	10.9184	2.598234	0.000060	0.596682	0.202161	-0.000028
1457	7.2800e+01	10.9104	2.586014	0.000053	0.526484	0.178378	-0.000024
1458	7.2850e+01	10.8767	2.570128	0.000068	0.684429	0.231891	-0.000032
1459	7.2900e+01	10.8414	2.553834	0.000070	0.701978	0.237837	-0.000033
1460	7.2950e+01	10.8607	2.537948	-0.000068	-0.684429	-0.231891	-0.000032
1461	7.3000e+01	10.7965	2.517988	0.000086	0.859924	0.291350	-0.000040
1462	7.3050e+01	10.7917	2.504138	0.000060	0.596682	0.202161	-0.000028
1463	7.3100e+01	10.7788	2.490696	0.000058	0.579132	0.196215	-0.000027
1464	7.3150e+01	10.7676	2.474810	0.000068	0.684429	0.231891	-0.000032
1465	7.3200e+01	10.7564	2.459738	0.000065	0.649330	0.219999	-0.000030
1466	7.3250e+01	10.7099	2.443852	0.000068	0.684429	0.231891	-0.000032
1467	7.3300e+01	10.6922	2.428373	0.000067	0.666879	0.225945	-0.000031
1468	7.3350e+01	10.6633	2.410450	0.000077	0.772176	0.261620	-0.000036
1469	7.3400e+01	10.7018	2.392526	-0.000077	-0.772176	-0.261620	-0.000036
1470	7.3450e+01	10.6425	2.377455	0.000065	0.649330	0.219999	-0.000030
1471	7.3500e+01	10.6024	2.361976	0.000067	0.666879	0.225945	-0.000031
1472	7.3550e+01	10.6008	2.349348	0.000054	0.544033	0.184323	-0.000025
1473	7.3600e+01	10.5671	2.332240	0.000074	0.737077	0.249729	-0.000034
1474	7.3650e+01	10.5623	2.314724	0.000075	0.754627	0.255674	-0.000035
1475	7.3700e+01	10.5430	2.296801	0.000077	0.772176	0.261620	-0.000036
1476	7.3750e+01	10.5125	2.284581	0.000053	0.526484	0.178378	-0.000024
1477	7.3800e+01	10.5125	2.268694	0.000068	0.684429	0.231891	-0.000032
1478	7.3850e+01	10.4901	2.251179	0.000075	0.754627	0.255674	-0.000035
1479	7.3900e+01	10.4580	2.235292	0.000068	0.684429	0.231891	-0.000032
1480	7.3950e+01	10.4339	2.217369	0.000077	0.772176	0.261620	-0.000036
1481	7.4000e+01	10.4147	2.203112	0.000061	0.614231	0.208107	-0.000029
1482	7.4050e+01	10.3906	2.188448	0.000063	0.631781	0.214053	-0.000029
1483	7.4100e+01	10.4067	2.170117	-0.000079	-0.789726	-0.267566	-0.000037
1484	7.4150e+01	10.3585	2.153824	0.000070	0.701978	0.237837	-0.000033
1485	7.4200e+01	10.3393	2.137530	0.000070	0.701978	0.237837	-0.000033
1486	7.4250e+01	10.3184	2.122458	0.000065	0.649330	0.219999	-0.000030
1487	7.4300e+01	10.3104	2.100462	0.000095	0.947671	0.321080	-0.000044
1488	7.4350e+01	10.2703	2.087020	0.000058	0.579132	0.196215	-0.000027
1489	7.4400e+01	10.2687	2.072763	0.000061	0.614231	0.208107	-0.000029
1490	7.4450e+01	10.2286	2.056876	0.000068	0.684429	0.231891	-0.000032
1491	7.4500e+01	10.2270	2.038546	0.000079	0.789726	0.267566	-0.000037
1492	7.4550e+01	10.2061	2.025918	0.000054	0.544033	0.184323	-0.000025
1493	7.4600e+01	10.2029	2.005551	0.000088	0.877473	0.297296	-0.000041
1494	7.4650e+01	10.1580	1.985184	0.000088	0.877473	0.297296	-0.000041
1495	7.4700e+01	10.1452	1.971742	0.000058	0.579132	0.196215	-0.000027
1496	7.4750e+01	10.1051	1.958299	0.000058	0.579132	0.196215	-0.000027
1497	7.4800e+01	10.1067	1.942006	-0.000070	-0.701978	-0.237837	-0.000033
1498	7.4850e+01	10.0634	1.922453	0.000084	0.842374	0.285404	-0.000039
1499	7.4900e+01	10.0441	1.907789	0.000063	0.631781	0.214053	-0.000029
1500	7.4950e+01	10.0232	1.893532	0.000061	0.614231	0.208107	-0.000029
1501	7.5000e+01	9.9928	1.870721	0.000098	0.982770	0.332971	-0.000046
1502	7.5050e+01	9.9976	1.855649	-0.000065	-0.649330	-0.219999	-0.000030
1503	7.5100e+01	9.9831	1.838541	0.000074	0.737077	0.249729	-0.000034
1504	7.5150e+01	9.9719	1.825098	0.000058	0.579132	0.196215	-0.000027
1505	7.5200e+01	9.8965	1.805139	0.000086	0.859924	0.291350	-0.000040
1506	7.5250e+01	9.9077	1.788845	-0.000070	-0.701978	-0.237837	-0.000033
1507	7.5300e+01	9.8917	1.770922	0.000077	0.772176	0.261620	-0.000036
1508	7.5350e+01	9.8612	1.755035	0.000068	0.684429	0.231891	-0.000032
1509	7.5400e+01	9.8805	1.740371	-0.000063	-0.631781	-0.214053	-0.000029
1510	7.5450e+01	9.8356	1.723670	0.000072	0.719528	0.243783	-0.000033
1511	7.5500e+01	9.8420	1.706969	-0.000072	-0.719528	-0.243783	-0.000033
1512	7.5550e+01	9.8003	1.687417	0.000084	0.842374	0.285404	-0.000039
1513	7.5600e+01	9.7698	1.671938	0.000067	0.666879	0.225945	-0.000031
1514	7.5650e+01	9.7585	1.656866	0.000065	0.649330	0.219999	-0.000030
1515	7.5700e+01	9.7265	1.640165	0.000072	0.719528	0.243783	-0.000033
1516	7.5750e+01	9.7104	1.621427	0.000081	0.807275	0.273512	-0.000037
1517	7.5800e+01	9.7056	1.603504	0.000077	0.772176	0.261620	-0.000036
1518	7.5850e+01	9.6944	1.589247	0.000061	0.614231	0.208107	-0.000029
1519	7.5900e+01	9.6703	1.579878	0.000040	0.403638	0.136756	-0.000019
1520	7.5950e+01	9.6703	1.566436	0.000058	0.579132	0.196215	-0.000027
1521	7.6000e+01	9.6206	1.547291	0.000082	0.824825	0.279458	-0.000038
1522	7.6050e+01	9.6222	1.530997	-0.000070	-0.701978	-0.237837	-0.000033
1523	7.6100e+01	9.5692	1.515518	0.000067	0.666879	0.225945	-0.000031
1524	7.6150e+01	9.5404	1.497188	0.000079	0.789726	0.267566	-0.000037
1525	7.6200e+01	9.5516	1.480079	-0.000074	-0.737077	-0.249729	-0.000034
1526	7.6250e+01	9.5147	1.465822	0.000061	0.614231	0.208107	-0.000029
1527	7.6300e+01	9.4858	1.448714	0.000074	0.737077	0.249729	-0.000034
1528	7.6350e+01	9.4730	1.432013	0.000072	0.719528	0.243783	-0.000033
1529	7.6400e+01	9.4682	1.420200	0.000051	0.508934	0.172432	-0.000024
1530	7.6450e+01	9.4650	1.408387	0.000051	0.508934	0.172432	-0.000024
1531	7.6500e+01	9.4056	1.383132	0.000109	1.088067	0.368647	-0.000051
1532	7.6550e+01	9.4072	1.367653	-0.000067	-0.666879	-0.225945	-0.000031
1533	7.6600e+01	9.3735	1.351766	0.000068	0.684429	0.231891	-0.000032
1534	7.6650e+01	9.3655	1.337917	0.000060	0.596682	0.202161	-0.000028
1535	7.6700e+01	9.3270	1.322438	0.000067	0.666879	0.225945	-0.000031
1536	7.6750e+01	9.2997	1.302070	0.000088	0.877473	0.297296	-0.000041
1537	7.6800e+01	9.2997	1.286591	0.000067	0.666879	0.225945	-0.000031
1538	7.6850e+01	9.2901	1.265002	0.000093	0.930121	0.315134	-0.000043
1539	7.6900e+01	9.2677	1.256448	0.000037	0.368539	0.124864	-0.000017
1540	7.6950e+01	9.2500	1.241376	0.000065	0.649330	0.219999	-0.000030
1541	7.7000e+01	9.2083	1.223861	0.000075	0.754627	0.255674	-0.000035
1542	7.7050e+01	9.1842	1.209196	0.000063	0.631781	0.214053	-0.000029
1543	7.7100e+01	9.1746	1.186793	0.000097	0.965220	0.327025	-0.000045
1544	7.7150e+01	9.1602	1.175387	0.000049	0.491385	0.166486	-0.000023
1545	7.7200e+01	9.1361	1.157464	0.000077	0.772176	0.261620	-0.000036
1546	7.7250e+01	9.1169	1.142392	0.000065	0.649330	0.219999	-0.000030
1547	7.7300e+01	9.1104	1.128950	0.000058	0.579132	0.196215	-0.000027
1548	7.7350e+01	9.0960	1.111841	0.000074	0.737077	0.249729	-0.000034
1549	7.7400e+01	9.0719	1.093918	0.000077	0.772176	0.261620	-0.000036
1550	7.7450e+01	9.0431	1.074773	0.000082	0.824825	0.279458	-0.000038
1551	7.7500e+01	9.0479	1.056850	-0.000077	-0.772176	-0.261620	-0.000036
1552	7.7550e+01	9.0030	1.041371	0.000067	0.666879	0.225945	-0.000031
1553	7.7600e+01	8.9805	1.023041	0.000079	0.789726	0.267566	-0.000037
1554	7.7650e+01	8.9645	1.006340	0.000072	0.719528	0.243783	-0.000033
1555	7.7700e+01	8.9324	0.988824	0.000075	0.754627	0.255674	-0.000035
1556	7.7750e+01	8.9388	0.969679	-0.000082	-0.824825	-0.279458	-0.000038
1557	7.7800e+01	8.9019	0.949719	0.000086	0.859924	0.291350	-0.000040
1558	7.7850e+01	8.8666	0.934647	0.000065	0.649330	0.219999	-0.000030
1559	7.7900e+01	8.8778	0.916724	-0.000077	-0.772176	-0.261620	-0.000036
1560	7.7950e+01	8.8538	0.899209	0.000075	0.754627	0.255674	-0.000035
1561	7.8000e+01	8.8201	0.881693	0.000075	0.754627	0.255674	-0.000035
1562	7.8050e+01	8.7944	0.864585	0.000074	0.737077	0.249729	-0.000034
1563	7.8100e+01	8.7703	0.844625	0.000086	0.859924	0.291350	-0.000040
1564	7.8150e+01	8.7671	0.829553	0.000065	0.649330	0.219999	-0.000030
1565	7.8200e+01	8.7591	0.810815	0.000081	0.807275	0.273512	-0.000037
1566	7.8250e+01	8.7334	0.794929	0.000068	0.684429	0.231891	-0.000032
1567	7.8300e+01	8.7046	0.774155	0.000090	0.895022	0.303242	-0.000042
1568	7.8350e+01	8.6805	0.752973	0.000091	0.912572	0.309188	-0.000042
1569	7.8400e+01	8.6677	0.739123	0.000060	0.596682	0.202161	-0.000028
1570	7.8450e+01	8.6260	0.721200	0.000077	0.772176	0.261620	-0.000036
1571	7.8500e+01	8.6099	0.698796	0.000097	0.965220	0.327025	-0.000045
1572	7.8550e+01	8.5955	0.686169	0.000054	0.544033	0.184323	-0.000025
1573	7.8600e+01	8.5762	0.662950	0.000100	1.000319	0.338917	-0.000046
1574	7.8650e+01	8.5345	0.644620	0.000079	0.789726	0.267566	-0.000037
1575	7.8700e+01	8.5329	0.625474	0.000082	0.824825	0.279458	-0.000038
1576	7.8750e+01	8.5297	0.609995	0.000067	0.666879	0.225945	-0.000031
1577	7.8800e+01	8.4976	0.591258	0.000081	0.807275	0.273512	-0.000037
1578	7.8850e+01	8.4671	0.567632	0.000102	1.017869	0.344863	-0.000047
1579	7.8900e+01	8.4286	0.548487	0.000082	0.824825	0.279458	-0.000038
1580	7.8950e+01	8.4415	0.530156	-0.000079	-0.789726	-0.267566	-0.000037
1581	7.9000e+01	8.4046	0.511011	0.000082	0.824825	0.279458	-0.000038
1582	7.9050e+01	8.3998	0.493496	0.000075	0.754627	0.255674	-0.000035
1583	7.9100e+01	8.4014	0.471499	-0.000095	-0.947671	-0.321080	-0.000044
1584	7.9150e+01	8.3725	0.452354	0.000082	0.824825	0.279458	-0.000038
1585	7.9200e+01	8.3436	0.433616	0.000081	0.807275	0.273512	-0.000037
1586	7.9250e+01	8.3051	0.413249	0.000088	0.877473	0.297296	-0.000041
1587	7.9300e+01	8.2859	0.393289	0.000086	0.859924	0.291350	-0.000040
1588	7.9350e+01	8.2971	0.377810	-0.000067	-0.666879	-0.225945	-0.000031
1589	7.9400e+01	8.2650	0.356628	0.000091	0.912572	0.309188	-0.000042
1590	7.9450e+01	8.2586	0.338705	0.000077	0.772176	0.261620	-0.000036
1591	7.9500e+01	8.2265	0.318746	0.000086	0.859924	0.291350	-0.000040
1592	7.9550e+01	8.2121	0.302859	0.000068	0.684429	0.231891	-0.000032
1593	7.9600e+01	8.2057	0.283714	0.000082	0.824825	0.279458	-0.000038
1594	7.9650e+01	8.1463	0.262532	0.000091	0.912572	0.309188	-0.000042
1595	7.9700e+01	8.1351	0.244609	0.000077	0.772176	0.261620	-0.000036
1596	7.9750e+01	8.1238	0.226686	0.000077	0.772176	0.261620	-0.000036
1597	7.9800e+01	8.1110	0.202653	0.000104	1.035418	0.350809	-0.000048
1598	7.9850e+01	8.0998	0.185952	0.000072	0.719528	0.243783	-0.000033
1599	7.9900e+01	8.0436	0.170066	0.000068	0.684429	0.231891	-0.000032
1600	7.9950e+01	8.0420	0.144810	0.000109	1.088067	0.368647	-0.000051
1601	8.0000e+01	8.0244	0.125258	0.000084	0.842374	0.285404	-0.000039
1602	8.0050e+01	8.0003	0.109371	0.000068	0.684429	0.231891	-0.000032
1603	8.0100e+01	7.9811	0.089412	0.000086	0.859924	0.291350	-0.000040
1604	8.0150e+01	7.9714	0.067823	0.000093	0.930121	0.315134	-0.000043
1605	8.0200e+01	7.9297	0.049899	0.000077	0.772176	0.261620	-0.000036
1606	8.0250e+01	7.9217	0.029532	0.000088	0.877473	0.297296	-0.000041
1607	8.0300e+01	7.9105	0.012017	0.000075	0.754627	0.255674	-0.000035
1608	8.0350e+01	7.8864	-0.005906	0.000077	0.772176	0.261620	-0.000036
1609	8.0400e+01	7.8832	-0.023015	0.000074	0.737077	0.249729	-0.000034
1610	8.0450e+01	7.8383	-0.045011	0.000095	0.947671	0.321080	-0.000044
1611	8.0500e+01	7.8046	-0.064156	0.000082	0.824825	0.279458	-0.000038
1612	8.0550e+01	7.8046	-0.081265	0.000074	0.737077	0.249729	-0.000034
1613	8.0600e+01	7.7934	-0.097559	0.000070	0.701978	0.237837	-0.000033
1614	8.0650e+01	7.7773	-0.117926	0.000088	0.877473	0.297296	-0.000041
1615	8.0700e+01	7.7629	-0.136256	0.000079	0.789726	0.267566	-0.000037
1616	8.0750e+01	7.6891	-0.151328	0.000065	0.649330	0.219999	-0.000030
1617	8.0800e+01	7.6859	-0.166399	0.000065	0.649330	0.219999	-0.000030
1618	8.0850e+01	7.6875	-0.188396	-0.000095	-0.947671	-0.321080	-0.000044
1619	8.0900e+01	7.6634	-0.211614	0.000100	1.000319	0.338917	-0.000046
1620	8.0950e+01	7.6506	-0.227501	0.000068	0.684429	0.231891	-0.000032
1621	8.1000e+01	7.6265	-0.244609	0.000074	0.737077	0.249729	-0.000034
1622	8.1050e+01	7.5816	-0.262532	0.000077	0.772176	0.261620	-0.000036
1623	8.1100e+01	7.5688	-0.282492	0.000086	0.859924	0.291350	-0.000040
1624	8.1150e+01	7.5607	-0.300822	0.000079	0.789726	0.267566	-0.000037
1625	8.1200e+01	7.5351	-0.321190	0.000088	0.877473	0.297296	-0.000041
1626	8.1250e+01	7.5094	-0.338705	0.000075	0.754627	0.255674	-0.000035
1627	8.1300e+01	7.5062	-0.355406	0.000072	0.719528	0.243783	-0.000033
1628	8.1350e+01	7.4741	-0.375774	0.000088	0.877473	0.297296	-0.000041
1629	8.1400e+01	7.4725	-0.391253	0.000067	0.666879	0.225945	-0.000031
1630	8.1450e+01	7.4468	-0.413249	0.000095	0.947671	0.321080	-0.000044
1631	8.1500e+01	7.4148	-0.430765	0.000075	0.754627	0.255674	-0.000035
1632	8.1550e+01	7.4003	-0.453169	0.000097	0.965220	0.327025	-0.000045
1633	8.1600e+01	7.3682	-0.466204	0.000056	0.561583	0.190269	-0.000026
1634	8.1650e+01	7.3666	-0.486163	0.000086	0.859924	0.291350	-0.000040
1635	8.1700e+01	7.3522	-0.501642	0.000067	0.666879	0.225945	-0.000031
1636	8.1750e+01	7.3105	-0.523232	0.000093	0.930121	0.315134	-0.000043
1637	8.1800e+01	7.3105	-0.544821	0.000093	0.930121	0.315134	-0.000043
1638	8.1850e+01	7.2912	-0.564780	0.000086	0.859924	0.291350	-0.000040
1639	8.1900e+01	7.2752	-0.581074	0.000070	0.701978	0.237837	-0.000033
1640	8.1950e+01	7.2239	-0.601441	0.000088	0.877473	0.297296	-0.000041
1641	8.2000e+01	7.2014	-0.618957	0.000075	0.754627	0.255674	-0.000035
1642	8.2050e+01	7.2062	-0.635251	-0.000070	-0.701978	-0.237837	-0.000033
1643	8.2100e+01	7.1789	-0.654396	0.000082	0.824825	0.279458	-0.000038
1644	8.2150e+01	7.1533	-0.672319	0.000077	0.772176	0.261620	-0.000036
1645	8.2200e+01	7.1228	-0.690649	0.000079	0.789726	0.267566	-0.000037
1646	8.2250e+01	7.1100	-0.708980	0.000079	0.789726	0.267566	-0.000037
1647	8.2300e+01	7.1164	-0.734235	-0.000109	-1.088067	-0.368647	-0.000051
1648	8.2350e+01	7.0939	-0.748492	0.000061	0.614231	0.208107	-0.000029
1649	8.2400e+01	7.0586	-0.767230	0.000081	0.807275	0.273512	-0.000037
1650	8.2450e+01	7.0426	-0.786375	0.000082	0.824825	0.279458	-0.000038
1651	8.2500e+01	7.0073	-0.804298	0.000077	0.772176	0.261620	-0.000036
1652	8.2550e+01	7.0073	-0.822628	0.000079	0.789726	0.267566	-0.000037
1653	8.2600e+01	6.9816	-0.845032	0.000097	0.965220	0.327025	-0.000045
1654	8.2650e+01	6.9720	-0.862141	0.000074	0.737077	0.249729	-0.000034
1655	8.2700e+01	6.9495	-0.882100	0.000086	0.859924	0.291350	-0.000040
1656	8.2750e+01	6.8998	-0.898394	0.000070	0.701978	0.237837	-0.000033
1657	8.2800e+01	6.8934	-0.919576	0.000091	0.912572	0.309188	-0.000042
1658	8.2850e+01	6.8581	-0.936277	0.000072	0.719528	0.243783	-0.000033
1659	8.2900e+01	6.8854	-0.956644	-0.000088	-0.877473	-0.297296	-0.000041
1660	8.2950e+01	6.8340	-0.975789	0.000082	0.824825	0.279458	-0.000038
1661	8.3000e+01	6.8437	-0.994527	-0.000081	-0.807275	-0.273512	-0.000037
1662	8.3050e+01	6.8052	-1.010821	0.000070	0.701978	0.237837	-0.000033
1663	8.3100e+01	6.7650	-1.032410	0.000093	0.930121	0.315134	-0.000043
1664	8.3150e+01	6.7715	-1.050333	-0.000077	-0.772176	-0.261620	-0.000036
1665	8.3200e+01	6.7442	-1.069071	0.000081	0.807275	0.273512	-0.000037
1666	8.3250e+01	6.7025	-1.089030	0.000086	0.859924	0.291350	-0.000040
1667	8.3300e+01	6.7009	-1.103695	0.000063	0.631781	0.214053	-0.000029
1668	8.3350e+01	6.6784	-1.122025	0.000079	0.789726	0.267566	-0.000037
1669	8.3400e+01	6.6560	-1.144429	0.000097	0.965220	0.327025	-0.000045
1670	8.3450e+01	6.6367	-1.160723	0.000070	0.701978	0.237837	-0.000033
1671	8.3500e+01	6.6287	-1.180275	0.000084	0.842374	0.285404	-0.000039
1672	8.3550e+01	6.6159	-1.198605	0.000079	0.789726	0.267566	-0.000037
1673	8.3600e+01	6.5774	-1.223046	0.000105	1.052968	0.356755	-0.000049
1674	8.3650e+01	6.5725	-1.237710	0.000063	0.631781	0.214053	-0.000029
1675	8.3700e+01	6.5148	-1.253597	0.000068	0.684429	0.231891	-0.000032
1676	8.3750e+01	6.5340	-1.273964	-0.000088	-0.877473	-0.297296	-0.000041
1677	8.3800e+01	6.4987	-1.294331	0.000088	0.877473	0.297296	-0.000041
1678	8.3850e+01	6.5020	-1.311439	-0.000074	-0.737077	-0.249729	-0.000034
1679	8.3900e+01	6.4490	-1.333436	0.000095	0.947671	0.321080	-0.000044
1680	8.3950e+01	6.4330	-1.351359	0.000077	0.772176	0.261620	-0.000036
1681	8.4000e+01	6.4121	-1.370504	0.000082	0.824825	0.279458	-0.000038
1682	8.4050e+01	6.3945	-1.387205	0.000072	0.719528	0.243783	-0.000033
1683	8.4100e+01	6.3800	-1.410831	0.000102	1.017869	0.344863	-0.000047
1684	8.4150e+01	6.3736	-1.427125	0.000070	0.701978	0.237837	-0.000033
1685	8.4200e+01	6.3431	-1.445048	0.000077	0.772176	0.261620	-0.000036
1686	8.4250e+01	6.3207	-1.471932	0.000116	1.158264	0.392431	-0.000054
1687	8.4300e+01	6.3030	-1.489041	0.000074	0.737077	0.249729	-0.000034
1688	8.4350e+01	6.2790	-1.505334	0.000070	0.701978	0.237837	-0.000033
1689	8.4400e+01	6.2677	-1.525294	0.000086	0.859924	0.291350	-0.000040
1690	8.4450e+01	6.2437	-1.548105	0.000098	0.982770	0.332971	-0.000046
1691	8.4500e+01	6.2340	-1.567658	0.000084	0.842374	0.285404	-0.000039
1692	8.4550e+01	6.2116	-1.588432	0.000090	0.895022	0.303242	-0.000042
1693	8.4600e+01	6.1988	-1.607985	0.000084	0.842374	0.285404	-0.000039
1694	8.4650e+01	6.1859	-1.627537	0.000084	0.842374	0.285404	-0.000039
1695	8.4700e+01	6.1522	-1.647904	0.000088	0.877473	0.297296	-0.000041
1696	8.4750e+01	6.0929	-1.664605	0.000072	0.719528	0.243783	-0.000033
1697	8.4800e+01	6.1073	-1.686602	-0.000095	-0.947671	-0.321080	-0.000044
1698	8.4850e+01	6.0576	-1.703303	0.000072	0.719528	0.243783	-0.000033
1699	8.4900e+01	6.0640	-1.725299	-0.000095	-0.947671	-0.321080	-0.000044
1700	8.4950e+01	6.0431	-1.745259	0.000086	0.859924	0.291350	-0.000040
1701	8.5000e+01	6.0127	-1.764404	0.000082	0.824825	0.279458	-0.000038
1702	8.5050e+01	5.9998	-1.781920	0.000075	0.754627	0.255674	-0.000035
1703	8.5100e+01	5.9677	-1.803102	0.000091	0.912572	0.309188	-0.000042
1704	8.5150e+01	5.9613	-1.826320	0.000100	1.000319	0.338917	-0.000046
1705	8.5200e+01	5.9485	-1.841392	0.000065	0.649330	0.219999	-0.000030
1706	8.5250e+01	5.9100	-1.866240	0.000107	1.070517	0.362701	-0.000050
1707	8.5300e+01	5.9421	-1.884978	-0.000081	-0.807275	-0.273512	-0.000037
1708	8.5350e+01	5.8811	-1.904123	0.000082	0.824825	0.279458	-0.000038
1709	8.5400e+01	5.8715	-1.924083	0.000086	0.859924	0.291350	-0.000040
1710	8.5450e+01	5.8330	-1.944042	0.000086	0.859924	0.291350	-0.000040
1711	8.5500e+01	5.8073	-1.964817	0.000090	0.895022	0.303242	-0.000042
1712	8.5550e+01	5.8025	-1.987221	0.000097	0.965220	0.327025	-0.000045
1713	8.5600e+01	5.7801	-2.004736	0.000075	0.754627	0.255674	-0.000035
1714	8.5650e+01	5.7560	-2.026733	0.000095	0.947671	0.321080	-0.000044
1715	8.5700e+01	5.7383	-2.044249	0.000075	0.754627	0.255674	-0.000035
1716	8.5750e+01	5.7223	-2.065430	0.000091	0.912572	0.309188	-0.000042
1717	8.5800e+01	5.6886	-2.084576	0.000082	0.824825	0.279458	-0.000038
1718	8.5850e+01	5.6822	-2.099647	0.000065	0.649330	0.219999	-0.000030
1719	8.5900e+01	5.6469	-2.121644	0.000095	0.947671	0.321080	-0.000044
1720	8.5950e+01	5.6501	-2.142418	-0.000090	-0.895022	-0.303242	-0.000042
1721	8.6000e+01	5.6148	-2.161563	0.000082	0.824825	0.279458	-0.000038
1722	8.6050e+01	5.6004	-2.175820	0.000061	0.614231	0.208107	-0.000029
1723	8.6100e+01	5.5843	-2.201075	0.000109	1.088067	0.368647	-0.000051
1724	8.6150e+01	5.5699	-2.215332	0.000061	0.614231	0.208107	-0.000029
1725	8.6200e+01	5.5266	-2.238958	0.000102	1.017869	0.344863	-0.000047
1726	8.6250e+01	5.5170	-2.255252	0.000070	0.701978	0.237837	-0.000033
1727	8.6300e+01	5.5105	-2.277656	0.000097	0.965220	0.327025	-0.000045
1728	8.6350e+01	5.4720	-2.293950	0.000070	0.701978	0.237837	-0.000033
1729	8.6400e+01	5.4303	-2.316761	0.000098	0.982770	0.332971	-0.000046
1730	8.6450e+01	5.4544	-2.332647	-0.000068	-0.684429	-0.231891	-0.000032
1731	8.6500e+01	5.4400	-2.351792	0.000082	0.824825	0.279458	-0.000038
1732	8.6550e+01	5.4207	-2.372567	0.000090	0.895022	0.303242	-0.000042
1733	8.6600e+01	5.3870	-2.391712	0.000082	0.824825	0.279458	-0.000038
1734	8.6650e+01	5.3581	-2.416152	0.000105	1.052968	0.356755	-0.000049
1735	8.6700e+01	5.3389	-2.431631	0.000067	0.666879	0.225945	-0.000031
1736	8.6750e+01	5.3277	-2.447110	0.000067	0.666879	0.225945	-0.000031
1737	8.6800e+01	5.2859	-2.469107	0.000095	0.947671	0.321080	-0.000044
1738	8.6850e+01	5.3084	-2.483771	-0.000063	-0.631781	-0.214053	-0.000029
1739	8.6900e+01	5.2763	-2.504546	0.000090	0.895022	0.303242	-0.000042
1740	8.6950e+01	5.2458	-2.524098	0.000084	0.842374	0.285404	-0.000039
1741	8.7000e+01	5.2250	-2.544058	0.000086	0.859924	0.291350	-0.000040
1742	8.7050e+01	5.2009	-2.559944	0.000068	0.684429	0.231891	-0.000032
1743	8.7100e+01	5.1592	-2.579904	0.000086	0.859924	0.291350	-0.000040
1744	8.7150e+01	5.1833	-2.595790	-0.000068	-0.684429	-0.231891	-0.000032
1745	8.7200e+01	5.1351	-2.614121	0.000079	0.789726	0.267566	-0.000037
1746	8.7250e+01	5.1271	-2.633673	0.000084	0.842374	0.285404	-0.000039
1747	8.7300e+01	5.0950	-2.649560	0.000068	0.684429	0.231891	-0.000032
1748	8.7350e+01	5.0950	-2.669519	0.000086	0.859924	0.291350	-0.000040
1749	8.7400e+01	5.0437	-2.686220	0.000072	0.719528	0.243783	-0.000033
1750	8.7450e+01	5.0581	-2.705366	-0.000082	-0.824825	-0.279458	-0.000038
1751	8.7500e+01	5.0180	-2.722067	0.000072	0.719528	0.243783	-0.000033
1752	8.7550e+01	4.9860	-2.742841	0.000090	0.895022	0.303242	-0.000042
1753	8.7600e+01	4.9619	-2.761986	0.000082	0.824825	0.279458	-0.000038
1754	8.7650e+01	4.9747	-2.778687	-0.000072	-0.719528	-0.243783	-0.000033
1755	8.7700e+01	4.9603	-2.793352	0.000063	0.631781	0.214053	-0.000029
1756	8.7750e+01	4.9378	-2.814533	0.000091	0.912572	0.309188	-0.000042
1757	8.7800e+01	4.9154	-2.835715	0.000091	0.912572	0.309188	-0.000042
1758	8.7850e+01	4.8993	-2.850380	0.000063	0.631781	0.214053	-0.000029
1759	8.7900e+01	4.8737	-2.874820	0.000105	1.052968	0.356755	-0.000049
1760	8.7950e+01	4.8368	-2.891521	0.000072	0.719528	0.243783	-0.000033
1761	8.8000e+01	4.8207	-2.907000	0.000067	0.666879	0.225945	-0.000031
1762	8.8050e+01	4.7918	-2.924516	0.000075	0.754627	0.255674	-0.000035
1763	8.8100e+01	4.7646	-2.945698	0.000091	0.912572	0.309188	-0.000042
1764	8.8150e+01	4.7710	-2.962806	-0.000074	-0.737077	-0.249729	-0.000034
1765	8.8200e+01	4.7389	-2.983988	0.000091	0.912572	0.309188	-0.000042
1766	8.8250e+01	4.7100	-2.998652	0.000063	0.631781	0.214053	-0.000029
1767	8.8300e+01	4.6844	-3.016575	0.000077	0.772176	0.261620	-0.000036
1768	8.8350e+01	4.7004	-3.034498	-0.000077	-0.772176	-0.261620	-0.000036
1769	8.8400e+01	4.6908	-3.051607	0.000074	0.737077	0.249729	-0.000034
1770	8.8450e+01	4.6025	-3.070344	0.000081	0.807275	0.273512	-0.000037
1771	8.8500e+01	4.6106	-3.093156	-0.000098	-0.982770	-0.332971	-0.000046
1772	8.8550e+01	4.6041	-3.103747	0.000046	0.456286	0.154594	-0.000021
1773	8.8600e+01	4.5656	-3.128187	0.000105	1.052968	0.356755	-0.000049
1774	8.8650e+01	4.5769	-3.140407	-0.000053	-0.526484	-0.178378	-0.000024
1775	8.8700e+01	4.5416	-3.167292	0.000116	1.158264	0.392431	-0.000054
1776	8.8750e+01	4.5368	-3.182771	0.000067	0.666879	0.225945	-0.000031
1777	8.8800e+01	4.4951	-3.205582	0.000098	0.982770	0.332971	-0.000046
1778	8.8850e+01	4.4983	-3.222691	-0.000074	-0.737077	-0.249729	-0.000034
1779	8.8900e+01	4.4694	-3.242650	0.000086	0.859924	0.291350	-0.000040
1780	8.8950e+01	4.4453	-3.261795	0.000082	0.824825	0.279458	-0.000038
1781	8.9000e+01	4.4132	-3.281755	0.000086	0.859924	0.291350	-0.000040
1782	8.9050e+01	4.3892	-3.299678	0.000077	0.772176	0.261620	-0.000036
1783	8.9100e+01	4.3587	-3.315157	0.000067	0.666879	0.225945	-0.000031
1784	8.9150e+01	4.3619	-3.344893	-0.000128	-1.281111	-0.434052	-0.000059
1785	8.9200e+01	4.3394	-3.360780	0.000068	0.684429	0.231891	-0.000032
1786	8.9250e+01	4.3619	-3.378295	-0.000075	-0.754627	-0.255674	-0.000035
1787	8.9300e+01	4.2865	-3.401514	0.000100	1.000319	0.338917	-0.000046
1788	8.9350e+01	4.2817	-3.415364	0.000060	0.596682	0.202161	-0.000028
1789	8.9400e+01	4.2576	-3.432472	0.000074	0.737077	0.249729	-0.000034
1790	8.9450e+01	4.2496	-3.457320	0.000107	1.070517	0.362701	-0.000050
1791	8.9500e+01	4.2239	-3.478094	0.000090	0.895022	0.303242	-0.000042
1792	8.9550e+01	4.1838	-3.498462	0.000088	0.877473	0.297296	-0.000041
1793	8.9600e+01	4.1774	-3.513126	0.000063	0.631781	0.214053	-0.000029
1794	8.9650e+01	4.1630	-3.531864	0.000081	0.807275	0.273512	-0.000037
1795	8.9700e+01	4.1630	-3.551416	0.000084	0.842374	0.285404	-0.000039
1796	8.9750e+01	4.1325	-3.573413	0.000095	0.947671	0.321080	-0.000044
1797	8.9800e+01	4.0876	-3.592558	0.000082	0.824825	0.279458	-0.000038
1798	8.9850e+01	4.0667	-3.612110	0.000084	0.842374	0.285404	-0.000039
1799	8.9900e+01	4.0731	-3.629626	-0.000075	-0.754627	-0.255674	-0.000035
1800	8.9950e+01	4.0298	-3.653252	0.000102	1.017869	0.344863	-0.000047
1801	9.0000e+01	4.0106	-3.670767	0.000075	0.754627	0.255674	-0.000035
1802	9.0050e+01	3.9817	-3.686246	0.000067	0.666879	0.225945	-0.000031
1803	9.0100e+01	3.9865	-3.711502	-0.000109	-1.088067	-0.368647	-0.000051
1804	9.0150e+01	3.9705	-3.732683	0.000091	0.912572	0.309188	-0.000042
1805	9.0200e+01	3.9448	-3.751829	0.000082	0.824825	0.279458	-0.000038
1806	9.0250e+01	3.9256	-3.770974	0.000082	0.824825	0.279458	-0.000038
1807	9.0300e+01	3.8919	-3.790119	0.000082	0.824825	0.279458	-0.000038
1808	9.0350e+01	3.8967	-3.807635	-0.000075	-0.754627	-0.255674	-0.000035
1809	9.0400e+01	3.8598	-3.831668	0.000104	1.035418	0.350809	-0.000048
1810	9.0450e+01	3.8389	-3.849998	0.000079	0.789726	0.267566	-0.000037
1811	9.0500e+01	3.8197	-3.871587	0.000093	0.930121	0.315134	-0.000043
1812	9.0550e+01	3.8036	-3.892769	0.000091	0.912572	0.309188	-0.000042
1813	9.0600e+01	3.7716	-3.913544	0.000090	0.895022	0.303242	-0.000042
1814	9.0650e+01	3.7395	-3.936762	0.000100	1.000319	0.338917	-0.000046
1815	9.0700e+01	3.7363	-3.953463	0.000072	0.719528	0.243783	-0.000033
1816	9.0750e+01	3.7298	-3.971386	0.000077	0.772176	0.261620	-0.000036
1817	9.0800e+01	3.6994	-3.991753	0.000088	0.877473	0.297296	-0.000041
1818	9.0850e+01	3.6801	-4.012528	0.000090	0.895022	0.303242	-0.000042
1819	9.0900e+01	3.6689	-4.034524	0.000095	0.947671	0.321080	-0.000044
1820	9.0950e+01	3.6416	-4.053262	0.000081	0.807275	0.273512	-0.000037
1821	9.1000e+01	3.6175	-4.072815	0.000084	0.842374	0.285404	-0.000039
1822	9.1050e+01	3.6175	-4.094811	0.000095	0.947671	0.321080	-0.000044
1823	9.1100e+01	3.5823	-4.115993	0.000091	0.912572	0.309188	-0.000042
1824	9.1150e+01	3.5614	-4.140026	0.000104	1.035418	0.350809	-0.000048
1825	9.1200e+01	3.5261	-4.158764	0.000081	0.807275	0.273512	-0.000037
1826	9.1250e+01	3.5341	-4.175057	-0.000070	-0.701978	-0.237837	-0.000033
1827	9.1300e+01	3.5261	-4.196647	0.000093	0.930121	0.315134	-0.000043
1828	9.1350e+01	3.4844	-4.217014	0.000088	0.877473	0.297296	-0.000041
1829	9.1400e+01	3.4523	-4.238603	0.000093	0.930121	0.315134	-0.000043
1830	9.1450e+01	3.4411	-4.258155	0.000084	0.842374	0.285404	-0.000039
1831	9.1500e+01	3.4331	-4.280967	0.000098	0.982770	0.332971	-0.000046
1832	9.1550e+01	3.3657	-4.300112	0.000082	0.824825	0.279458	-0.000038
1833	9.1600e+01	3.3641	-4.323738	0.000102	1.017869	0.344863	-0.000047
1834	9.1650e+01	3.3737	-4.344919	-0.000091	-0.912572	-0.309188	-0.000042
1835	9.1700e+01	3.3593	-4.360398	0.000067	0.666879	0.225945	-0.000031
1836	9.1750e+01	3.3127	-4.385654	0.000109	1.088067	0.368647	-0.000051
1837	9.1800e+01	3.2887	-4.406428	0.000090	0.895022	0.303242	-0.000042
1838	9.1850e+01	3.2646	-4.425980	0.000084	0.842374	0.285404	-0.000039
1839	9.1900e+01	3.2486	-4.447570	0.000093	0.930121	0.315134	-0.000043
1840	9.1950e+01	3.2325	-4.469566	0.000095	0.947671	0.321080	-0.000044
1841	9.2000e+01	3.2181	-4.493599	0.000104	1.035418	0.350809	-0.000048
1842	9.2050e+01	3.1988	-4.510300	0.000072	0.719528	0.243783	-0.000033
1843	9.2100e+01	3.1908	-4.529853	0.000084	0.842374	0.285404	-0.000039
1844	9.2150e+01	3.1507	-4.548998	0.000082	0.824825	0.279458	-0.000038
1845	9.2200e+01	3.1266	-4.571402	0.000097	0.965220	0.327025	-0.000045
1846	9.2250e+01	3.1138	-4.592991	0.000093	0.930121	0.315134	-0.000043
1847	9.2300e+01	3.0737	-4.615802	0.000098	0.982770	0.332971	-0.000046
1848	9.2350e+01	3.1074	-4.638613	-0.000098	-0.982770	-0.332971	-0.000046
1849	9.2400e+01	3.0448	-4.657758	0.000082	0.824825	0.279458	-0.000038
1850	9.2450e+01	3.0496	-4.679755	-0.000095	-0.947671	-0.321080	-0.000044
1851	9.2500e+01	3.0208	-4.696863	0.000074	0.737077	0.249729	-0.000034
1852	9.2550e+01	2.9855	-4.713157	0.000070	0.701978	0.237837	-0.000033
1853	9.2600e+01	2.9807	-4.738005	0.000107	1.070517	0.362701	-0.000050
1854	9.2650e+01	2.9582	-4.756743	0.000081	0.807275	0.273512	-0.000037
1855	9.2700e+01	2.9470	-4.778739	0.000095	0.947671	0.321080	-0.000044
1856	9.2750e+01	2.9245	-4.797477	0.000081	0.807275	0.273512	-0.000037
1857	9.2800e+01	2.9069	-4.819473	0.000095	0.947671	0.321080	-0.000044
1858	9.2850e+01	2.8748	-4.838618	0.000082	0.824825	0.279458	-0.000038
1859	9.2900e+01	2.8716	-4.860208	0.000093	0.930121	0.315134	-0.000043
1860	9.2950e+01	2.8363	-4.879760	0.000084	0.842374	0.285404	-0.000039
1861	9.3000e+01	2.8170	-4.901349	0.000093	0.930121	0.315134	-0.000043
1862	9.3050e+01	2.7882	-4.920494	0.000082	0.824825	0.279458	-0.000038
1863	9.3100e+01	2.7737	-4.942491	0.000095	0.947671	0.321080	-0.000044
1864	9.3150e+01	2.7721	-4.962043	0.000084	0.842374	0.285404	-0.000039
1865	9.3200e+01	2.7400	-4.984040	0.000095	0.947671	0.321080	-0.000044
1866	9.3250e+01	2.7416	-5.003592	-0.000084	-0.842374	-0.285404	-0.000039
1867	9.3300e+01	2.7160	-5.024367	0.000090	0.895022	0.303242	-0.000042
1868	9.3350e+01	2.6743	-5.046771	0.000097	0.965220	0.327025	-0.000045
1869	9.3400e+01	2.6598	-5.066730	0.000086	0.859924	0.291350	-0.000040
1870	9.3450e+01	2.6518	-5.089134	0.000097	0.965220	0.327025	-0.000045
1871	9.3500e+01	2.6181	-5.110316	0.000091	0.912572	0.309188	-0.000042
1872	9.3550e+01	2.5989	-5.129054	0.000081	0.807275	0.273512	-0.000037
1873	9.3600e+01	2.5924	-5.149014	0.000086	0.859924	0.291350	-0.000040
1874	9.3650e+01	2.5620	-5.169788	0.000090	0.895022	0.303242	-0.000042
1875	9.3700e+01	2.5636	-5.191377	-0.000093	-0.930121	-0.315134	-0.000043
1876	9.3750e+01	2.5411	-5.214596	0.000100	1.000319	0.338917	-0.000046
1877	9.3800e+01	2.4850	-5.235370	0.000090	0.895022	0.303242	-0.000042
1878	9.3850e+01	2.5058	-5.254515	-0.000082	-0.824825	-0.279458	-0.000038
1879	9.3900e+01	2.4481	-5.276919	0.000097	0.965220	0.327025	-0.000045
1880	9.3950e+01	2.4481	-5.295249	0.000079	0.789726	0.267566	-0.000037
1881	9.4000e+01	2.4112	-5.315617	0.000088	0.877473	0.297296	-0.000041
1882	9.4050e+01	2.4224	-5.338020	-0.000097	-0.965220	-0.327025	-0.000045
1883	9.4100e+01	2.3759	-5.364498	0.000114	1.140715	0.386485	-0.000053
1884	9.4150e+01	2.3727	-5.386087	0.000093	0.930121	0.315134	-0.000043
1885	9.4200e+01	2.3133	-5.408083	0.000095	0.947671	0.321080	-0.000044
1886	9.4250e+01	2.3229	-5.429673	-0.000093	-0.930121	-0.315134	-0.000043
1887	9.4300e+01	2.3021	-5.452891	0.000100	1.000319	0.338917	-0.000046
1888	9.4350e+01	2.2716	-5.470814	0.000077	0.772176	0.261620	-0.000036
1889	9.4400e+01	2.2668	-5.493218	0.000097	0.965220	0.327025	-0.000045
1890	9.4450e+01	2.2283	-5.519695	0.000114	1.140715	0.386485	-0.000053
1891	9.4500e+01	2.2299	-5.541692	-0.000095	-0.947671	-0.321080	-0.000044
1892	9.4550e+01	2.2170	-5.563281	0.000093	0.930121	0.315134	-0.000043
1893	9.4600e+01	2.1930	-5.585277	0.000095	0.947671	0.321080	-0.000044
1894	9.4650e+01	2.1513	-5.608903	0.000102	1.017869	0.344863	-0.000047
1895	9.4700e+01	2.1400	-5.634566	0.000111	1.105616	0.374593	-0.000051
1896	9.4750e+01	2.1192	-5.653711	0.000082	0.824825	0.279458	-0.000038
1897	9.4800e+01	2.1048	-5.678559	0.000107	1.070517	0.362701	-0.000050
1898	9.4850e+01	2.1112	-5.702185	-0.000102	-1.017869	-0.344863	-0.000047
1899	9.4900e+01	2.0791	-5.723367	0.000091	0.912572	0.309188	-0.000042
1900	9.4950e+01	2.0390	-5.747400	0.000104	1.035418	0.350809	-0.000048
1901	9.5000e+01	1.9941	-5.768989	0.000093	0.930121	0.315134	-0.000043
1902	9.5050e+01	2.0470	-5.790578	-0.000093	-0.930121	-0.315134	-0.000043
1903	9.5100e+01	1.9668	-5.817055	0.000114	1.140715	0.386485	-0.000053
1904	9.5150e+01	1.9604	-5.840681	0.000102	1.017869	0.344863	-0.000047
1905	9.5200e+01	1.9540	-5.862678	0.000095	0.947671	0.321080	-0.000044
1906	9.5250e+01	1.9315	-5.883045	0.000088	0.877473	0.297296	-0.000041
1907	9.5300e+01	1.8834	-5.910337	0.000118	1.175814	0.398377	-0.000055
1908	9.5350e+01	1.8721	-5.937629	0.000118	1.175814	0.398377	-0.000055
1909	9.5400e+01	1.8481	-5.960440	0.000098	0.982770	0.332971	-0.000046
1910	9.5450e+01	1.8433	-5.982436	0.000095	0.947671	0.321080	-0.000044
1911	9.5500e+01	1.8304	-6.008914	0.000114	1.140715	0.386485	-0.000053
1912	9.5550e+01	1.8032	-6.032947	0.000104	1.035418	0.350809	-0.000048
1913	9.5600e+01	1.7839	-6.060646	0.000119	1.193363	0.404322	-0.000055
1914	9.5650e+01	1.7598	-6.079791	0.000082	0.824825	0.279458	-0.000038
1915	9.5700e+01	1.7406	-6.107491	0.000119	1.193363	0.404322	-0.000055
1916	9.5750e+01	1.7149	-6.134375	0.000116	1.158264	0.392431	-0.000054
1917	9.5800e+01	1.6941	-6.155964	0.000093	0.930121	0.315134	-0.000043
1918	9.5850e+01	1.6973	-6.180812	-0.000107	-1.070517	-0.362701	-0.000050
1919	9.5900e+01	1.6588	-6.209326	0.000123	1.228462	0.416214	-0.000057
1920	9.5950e+01	1.6395	-6.228064	0.000081	0.807275	0.273512	-0.000037
1921	9.6000e+01	1.6331	-6.254541	0.000114	1.140715	0.386485	-0.000053
1922	9.6050e+01	1.6010	-6.277352	0.000098	0.982770	0.332971	-0.000046
1923	9.6100e+01	1.5689	-6.302608	0.000109	1.088067	0.368647	-0.000051
1924	9.6150e+01	1.5336	-6.331936	0.000126	1.263561	0.428106	-0.000059
1925	9.6200e+01	1.5513	-6.349452	-0.000075	-0.754627	-0.255674	-0.000035
1926	9.6250e+01	1.5208	-6.374300	0.000107	1.070517	0.362701	-0.000050
1927	9.6300e+01	1.5208	-6.403221	0.000125	1.246012	0.422160	-0.000058
1928	9.6350e+01	1.4839	-6.426847	0.000102	1.017869	0.344863	-0.000047
1929	9.6400e+01	1.4647	-6.449658	0.000098	0.982770	0.332971	-0.000046
1930	9.6450e+01	1.4358	-6.478172	0.000123	1.228462	0.416214	-0.000057
1931	9.6500e+01	1.4262	-6.498539	0.000088	0.877473	0.297296	-0.000041
1932	9.6550e+01	1.3764	-6.523387	0.000107	1.070517	0.362701	-0.000050
1933	9.6600e+01	1.3572	-6.550272	0.000116	1.158264	0.392431	-0.000054
1934	9.6650e+01	1.3427	-6.579601	0.000126	1.263561	0.428106	-0.000059
1935	9.6700e+01	1.3331	-6.602819	0.000100	1.000319	0.338917	-0.000046
1936	9.6750e+01	1.3123	-6.625223	0.000097	0.965220	0.327025	-0.000045
1937	9.6800e+01	1.2978	-6.652515	0.000118	1.175814	0.398377	-0.000055
1938	9.6850e+01	1.2866	-6.673697	0.000091	0.912572	0.309188	-0.000042
1939	9.6900e+01	1.2641	-6.705062	0.000135	1.351308	0.457836	-0.000063
1940	9.6950e+01	1.2272	-6.726244	0.000091	0.912572	0.309188	-0.000042
1941	9.7000e+01	1.2272	-6.748648	0.000097	0.965220	0.327025	-0.000045
1942	9.7050e+01	1.2048	-6.774310	0.000111	1.105616	0.374593	-0.000051
1943	9.7100e+01	1.1711	-6.802010	0.000119	1.193363	0.404322	-0.000055
1944	9.7150e+01	1.1663	-6.826043	0.000104	1.035418	0.350809	-0.000048
1945	9.7200e+01	1.1358	-6.848039	0.000095	0.947671	0.321080	-0.000044
1946	9.7250e+01	1.1165	-6.872887	0.000107	1.070517	0.362701	-0.000050
1947	9.7300e+01	1.0941	-6.900179	0.000118	1.175814	0.398377	-0.000055
1948	9.7350e+01	1.0829	-6.924620	0.000105	1.052968	0.356755	-0.000049
1949	9.7400e+01	1.0780	-6.948246	0.000102	1.017869	0.344863	-0.000047
1950	9.7450e+01	1.0508	-6.973501	0.000109	1.088067	0.368647	-0.000051
1951	9.7500e+01	1.0187	-6.994275	0.000090	0.895022	0.303242	-0.000042
1952	9.7550e+01	1.0042	-7.017086	0.000098	0.982770	0.332971	-0.000046
1953	9.7600e+01	0.9674	-7.041120	0.000104	1.035418	0.350809	-0.000048
1954	9.7650e+01	0.9465	-7.067597	0.000114	1.140715	0.386485	-0.000053
1955	9.7700e+01	0.9529	-7.093667	-0.000112	-1.123165	-0.380539	-0.000052
1956	9.7750e+01	0.9385	-7.119329	0.000111	1.105616	0.374593	-0.000051
1957	9.7800e+01	0.9064	-7.141326	0.000095	0.947671	0.321080	-0.000044
1958	9.7850e+01	0.8791	-7.166989	0.000111	1.105616	0.374593	-0.000051
1959	9.7900e+01	0.8599	-7.188170	0.000091	0.912572	0.309188	-0.000042
1960	9.7950e+01	0.8438	-7.216277	0.000121	1.210913	0.410268	-0.000056
1961	9.8000e+01	0.8150	-7.240718	0.000105	1.052968	0.356755	-0.000049
1962	9.8050e+01	0.7748	-7.266380	0.000111	1.105616	0.374593	-0.000051
1963	9.8100e+01	0.7620	-7.290821	0.000105	1.052968	0.356755	-0.000049
1964	9.8150e+01	0.7604	-7.316483	0.000111	1.105616	0.374593	-0.000051
1965	9.8200e+01	0.7331	-7.341738	0.000109	1.088067	0.368647	-0.000051
1966	9.8250e+01	0.7171	-7.366994	0.000109	1.088067	0.368647	-0.000051
1967	9.8300e+01	0.6802	-7.393471	0.000114	1.140715	0.386485	-0.000053
1968	9.8350e+01	0.6802	-7.420356	0.000116	1.158264	0.392431	-0.000054
1969	9.8400e+01	0.6850	-7.440315	-0.000086	-0.859924	-0.291350	-0.000040
1970	9.8450e+01	0.6401	-7.467607	0.000118	1.175814	0.398377	-0.000055
1971	9.8500e+01	0.6064	-7.492048	0.000105	1.052968	0.356755	-0.000049
1972	9.8550e+01	0.6064	-7.518932	0.000116	1.158264	0.392431	-0.000054
1973	9.8600e+01	0.5647	-7.544188	0.000109	1.088067	0.368647	-0.000051
1974	9.8650e+01	0.5631	-7.568628	0.000105	1.052968	0.356755	-0.000049
1975	9.8700e+01	0.5438	-7.592661	0.000104	1.035418	0.350809	-0.000048
1976	9.8750e+01	0.5150	-7.617102	0.000105	1.052968	0.356755	-0.000049
1977	9.8800e+01	0.4877	-7.643172	0.000112	1.123165	0.380539	-0.000052
1978	9.8850e+01	0.4636	-7.670464	0.000118	1.175814	0.398377	-0.000055
1979	9.8900e+01	0.4797	-7.693275	-0.000098	-0.982770	-0.332971	-0.000046
1980	9.8950e+01	0.4396	-7.720160	0.000116	1.158264	0.392431	-0.000054
1981	9.9000e+01	0.3962	-7.747044	0.000116	1.158264	0.392431	-0.000054
1982	9.9050e+01	0.3818	-7.774744	0.000119	1.193363	0.404322	-0.000055
1983	9.9100e+01	0.3834	-7.797555	-0.000098	-0.982770	-0.332971	-0.000046
1984	9.9150e+01	0.3898	-7.822810	-0.000109	-1.088067	-0.368647	-0.000051
1985	9.9200e+01	0.3497	-7.845214	0.000097	0.965220	0.327025	-0.000045
1986	9.9250e+01	0.3273	-7.870876	0.000111	1.105616	0.374593	-0.000051
1987	9.9300e+01	0.2952	-7.901427	0.000132	1.316210	0.445944	-0.000061
1988	9.9350e+01	0.2615	-7.928719	0.000118	1.175814	0.398377	-0.000055
1989	9.9400e+01	0.2503	-7.951123	0.000097	0.965220	0.327025	-0.000045
1990	9.9450e+01	0.2422	-7.974749	0.000102	1.017869	0.344863	-0.000047
1991	9.9500e+01	0.2005	-8.002041	0.000118	1.175814	0.398377	-0.000055
1992	9.9550e+01	0.2021	-8.030147	-0.000121	-1.210913	-0.410268	-0.000056
1993	9.9600e+01	0.1813	-8.053366	0.000100	1.000319	0.338917	-0.000046
1994	9.9650e+01	0.1652	-8.081473	0.000121	1.210913	0.410268	-0.000056
1995	9.9700e+01	0.1540	-8.105913	0.000105	1.052968	0.356755	-0.000049
1996	9.9750e+01	0.1219	-8.127910	0.000095	0.947671	0.321080	-0.000044
1997	9.9800e+01	0.1219	-8.159275	0.000135	1.351308	0.457836	-0.000063
1998	9.9850e+01	0.0561	-8.186160	0.000116	1.158264	0.392431	-0.000054
1999	9.9900e+01	0.0674	-8.207749	-0.000093	-0.930121	-0.315134	-0.000043
2000	9.9950e+01	0.0497	-8.236670	0.000125	1.246012	0.422160	-0.000058
2001	1.0000e+02	0.0449	-8.250520	0.000125	1.246012	0.422160	-0.000028

PMax (uC/cm2):	1.81e+01
Pr (uC/cm2):	7.90e-01
-Pr (uC/cm2):	0.00e+00
PLoss (uC/cm2):	0.00e+00
C (Max-Eff) (nF):	9.04e-02
K (Eff):	3.06e+02
Vert. (+/-Pr) Shift (uC/cm2):	3.95e-01
Offset (uC/cm2):	9.04e+00

A (Loop Area - uC/cm2·Volts):	-1.41e-02



Hysteresis Version: 5.48.1 - Radiant Technologies, Inc., 1999 - 9/12/24

