»»»»»»»»»»»»»»»»»»»»»»»»»»»»»»»»»»»» Hysteresis ««««««««««««««««««««««««««««««««««««
»»»  Executed Version:	5.48.1
»»»  Vision Version:	5.48.4 (R)
»»»  Vision Compiled:	9/18/24
»»»  Driver Version:	5.47.0
»»»  Windows Version:	Windows 8 or 8.1
»»»  Processor Information:	x86 (AMD or Intel) - 32 Processors
»»»  Tester Name:	PMF21124-494 (100V)
»»»  Tester S/N:	PMF21124-494
»»»  Internal Amp Type:	100V RevK 270k
»»»  Internal Amp S/N:	iAB2-596/K     
»»»  Execution Count:	1
»»»»»»»»»»»»»»»»»»»»»»»»»»»»»»»»»»»»»»»»»»««««««««««««««««««««««««««««««««««««««««««

Stored:	10/8/2025 - 20:16:15
Configured:	10/08/25 04:22:59 PM
Executed:	10/08/25 08:15:54 PM

»»»»»»»»»»»»»»»»»»»»»»»»»»»»»»»»»»» Sample Info ««««««««««««««««««««««««««««««««««««
Sample Name:	Int. Ref. Ferroelectric
Lot Name:	N/A
Wafer Name:	N/A
Die Row/Column:	0/0
Capacitor Number:	0
Sample Area (cm2):	1.00e-04
Sample Thickness (microns):	3.00e-01

Amplifier:	Internal

»»»»»»»»»»»»»»»»»»»»»»»»»»»»»»»»»»» Tester Info «««««««««««««««««««««««««««««««««««
Tester Name:	PMF21124-494 (100V)
Tester Serial Number:	PMF21124-494
Return Signal Amp. Level:	0.02 [Index: 2]

»»»»»»»»»»»»»»»»»»»»»»»»»»»»»»»» Hysteresis Info ««««««««««««««««««««««««««««««««««
Task Name:	Hyste-8
Volts:	20.00
Field:	666.67 (kV/cm)
DCBias:	0.00
DCField:	0.00 (kV/cm)
Hysteresis Period (ms):	5.00e-01
Preset:	Enabled
Preset Delay (ms):	1.00e+03
Profile:	Standard Monopolar

»»»»»»»»»»»»»»»»»»»»»»»»»»»»»»»»»»»»»» Data «««««««««««««««««««««««««««««««««««««««
Points:	1001

Valid Data

Point	Time (ms)	Drive Voltage	Measured Polarization (uC/cm2)	Capacitance (uF)	Normalized Capacitance (uF/cm2)	Dielectric Constant	Instantaneous Current (mA)
   1	0.0000e+00	0.0337	-21.335426	-0.001090	-10.897685	-3.692236	-0.087381
   2	5.0000e-04	0.0529	-21.772329	-0.001090	-10.897685	-3.692236	-0.087381
   3	1.0000e-03	0.0754	-21.080566	0.001725	17.254668	5.846040	0.138353
   4	1.5000e-03	0.1476	-21.116975	-0.000091	-0.908140	-0.307686	-0.007282
   5	2.0000e-03	0.2053	-20.934932	0.000454	4.540702	1.538431	0.036409
   6	2.5000e-03	0.2743	-21.080566	-0.000363	-3.632562	-1.230745	-0.029127
   7	3.0000e-03	0.2920	-20.752889	0.000817	8.173264	2.769177	0.065535
   8	3.5000e-03	0.3273	-20.643663	0.000272	2.724421	0.923059	0.021845
   9	4.0000e-03	0.3754	-20.680072	-0.000091	-0.908140	-0.307686	-0.007282
  10	4.5000e-03	0.3962	-21.044157	-0.000908	-9.081404	-3.076863	-0.072817
  11	5.0000e-03	0.4572	-20.097534	0.002361	23.611650	7.999844	0.189325
  12	5.5000e-03	0.4989	-20.534437	-0.001090	-10.897685	-3.692236	-0.087381
  13	6.0000e-03	0.4941	-20.097534	-0.001090	-10.897685	-3.692236	0.087381
  14	6.5000e-03	0.5535	-20.097534	0.000000	0.000000	0.000000	0.000000
  15	7.0000e-03	0.6192	-20.133943	-0.000091	-0.908140	-0.307686	-0.007282
  16	7.5000e-03	0.6353	-19.769857	0.000908	9.081404	3.076863	0.072817
  17	8.0000e-03	0.7091	-19.369363	0.000999	9.989544	3.384549	0.080099
  18	8.5000e-03	0.7331	-19.587814	-0.000545	-5.448842	-1.846118	-0.043690
  19	9.0000e-03	0.7813	-18.896051	0.001725	17.254668	5.846040	0.138353
  20	9.5000e-03	0.7941	-19.514997	-0.001544	-15.438387	-5.230667	-0.123789
  21	1.0000e-02	0.8214	-18.932460	0.001453	14.530246	4.922981	0.116507
  22	1.0500e-02	0.8839	-18.786826	0.000363	3.632562	1.230745	0.029127
  23	1.1000e-02	0.9176	-19.332954	-0.001362	-13.622106	-4.615294	-0.109226
  24	1.1500e-02	0.9722	-18.677600	0.001635	16.346527	5.538353	0.131071
  25	1.2000e-02	1.0059	-18.459149	0.000545	5.448842	1.846118	0.043690
  26	1.2500e-02	1.0428	-18.386331	0.000182	1.816281	0.615373	0.014563
  27	1.3000e-02	1.0764	-18.277106	0.000272	2.724421	0.923059	0.021845
  28	1.3500e-02	1.0957	-18.568374	-0.000727	-7.265123	-2.461490	-0.058254
  29	1.4000e-02	1.1518	-18.095063	0.001181	11.805825	3.999922	0.094662
  30	1.4500e-02	1.2240	-18.422740	-0.000817	-8.173264	-2.769177	-0.065535
  31	1.5000e-02	1.2641	-17.985837	0.001090	10.897685	3.692236	0.087381
  32	1.5500e-02	1.2738	-18.022246	-0.000091	-0.908140	-0.307686	-0.007282
  33	1.6000e-02	1.2994	-17.548934	0.001181	11.805825	3.999922	0.094662
  34	1.6500e-02	1.3476	-17.694568	-0.000363	-3.632562	-1.230745	-0.029127
  35	1.7000e-02	1.3748	-17.257665	0.001090	10.897685	3.692236	0.087381
  36	1.7500e-02	1.4197	-17.403300	-0.000363	-3.632562	-1.230745	-0.029127
  37	1.8000e-02	1.4486	-17.294074	0.000272	2.724421	0.923059	0.021845
  38	1.8500e-02	1.5016	-17.366891	-0.000182	-1.816281	-0.615373	-0.014563
  39	1.9000e-02	1.5497	-16.929988	0.001090	10.897685	3.692236	0.087381
  40	1.9500e-02	1.6026	-17.184848	-0.000636	-6.356983	-2.153804	-0.050972
  41	2.0000e-02	1.6411	-16.857171	0.000817	8.173264	2.769177	0.065535
  42	2.0500e-02	1.6556	-16.966397	-0.000272	-2.724421	-0.923059	-0.021845
  43	2.1000e-02	1.6780	-16.165408	0.001998	19.979089	6.769099	0.160198
  44	2.1500e-02	1.7695	-16.383860	-0.000545	-5.448842	-1.846118	-0.043690
  45	2.2000e-02	1.7791	-16.238225	0.000363	3.632562	1.230745	0.029127
  46	2.2500e-02	1.8080	-15.801322	0.001090	10.897685	3.692236	0.087381
  47	2.3000e-02	1.8577	-16.347451	-0.001362	-13.622106	-4.615294	-0.109226
  48	2.3500e-02	1.8962	-15.946957	0.000999	9.989544	3.384549	0.080099
  49	2.4000e-02	1.9235	-15.837731	0.000272	2.724421	0.923059	0.021845
  50	2.4500e-02	1.9812	-16.056182	-0.000545	-5.448842	-1.846118	-0.043690
  51	2.5000e-02	2.0342	-15.619280	0.001090	10.897685	3.692236	0.087381
  52	2.5500e-02	2.0823	-15.692097	-0.000182	-1.816281	-0.615373	-0.014563
  53	2.6000e-02	2.1336	-15.036742	0.001635	16.346527	5.538353	0.131071
  54	2.6500e-02	2.1721	-15.473645	-0.001090	-10.897685	-3.692236	-0.087381
  55	2.7000e-02	2.1962	-15.291602	0.000454	4.540702	1.538431	0.036409
  56	2.7500e-02	2.2716	-15.145968	0.000363	3.632562	1.230745	0.029127
  57	2.8000e-02	2.3005	-15.036742	0.000272	2.724421	0.923059	0.021845
  58	2.8500e-02	2.3390	-15.218785	-0.000454	-4.540702	-1.538431	-0.036409
  59	2.9000e-02	2.3711	-14.381388	0.002089	20.887229	7.076785	0.167479
  60	2.9500e-02	2.3983	-14.672657	-0.000727	-7.265123	-2.461490	-0.058254
  61	3.0000e-02	2.4416	-14.344979	0.000817	8.173264	2.769177	0.065535
  62	3.0500e-02	2.4705	-14.272162	0.000182	1.816281	0.615373	0.014563
  63	3.1000e-02	2.5058	-14.344979	-0.000182	-1.816281	-0.615373	-0.014563
  64	3.1500e-02	2.5588	-13.980894	0.000908	9.081404	3.076863	0.072817
  65	3.2000e-02	2.5908	-13.689625	0.000727	7.265123	2.461490	0.058254
  66	3.2500e-02	2.6406	-13.871668	-0.000454	-4.540702	-1.538431	-0.036409
  67	3.3000e-02	2.6791	-14.126528	-0.000636	-6.356983	-2.153804	-0.050972
  68	3.3500e-02	2.7256	-13.726034	0.000999	9.989544	3.384549	0.080099
  69	3.4000e-02	2.7898	-13.580399	0.000363	3.632562	1.230745	0.029127
  70	3.4500e-02	2.7914	-13.507582	0.000182	1.816281	0.615373	0.014563
  71	3.5000e-02	2.8507	-13.580399	-0.000182	-1.816281	-0.615373	-0.014563
  72	3.5500e-02	2.8716	-12.888636	0.001725	17.254668	5.846040	0.138353
  73	3.6000e-02	2.9149	-13.252722	-0.000908	-9.081404	-3.076863	-0.072817
  74	3.6500e-02	2.9742	-13.107088	0.000363	3.632562	1.230745	0.029127
  75	3.7000e-02	3.0111	-13.179905	-0.000182	-1.816281	-0.615373	-0.014563
  76	3.7500e-02	3.0400	-12.633776	0.001362	13.622106	4.615294	0.109226
  77	3.8000e-02	3.0865	-13.252722	-0.001544	-15.438387	-5.230667	-0.123789
  78	3.8500e-02	3.1170	-12.888636	0.000908	9.081404	3.076863	0.072817
  79	3.9000e-02	3.1700	-12.378916	0.001271	12.713966	4.307608	0.101944
  80	3.9500e-02	3.2085	-12.378916	0.000000	0.000000	0.000000	0.000000
  81	4.0000e-02	3.2165	-12.342508	0.000091	0.908140	0.307686	0.007282
  82	4.0500e-02	3.2758	-12.342508	0.000000	0.000000	0.000000	0.000000
  83	4.1000e-02	3.3176	-12.196873	0.000363	3.632562	1.230745	0.029127
  84	4.1500e-02	3.3432	-12.196873	0.000000	0.000000	0.000000	0.000000
  85	4.2000e-02	3.3930	-12.051239	0.000363	3.632562	1.230745	0.029127
  86	4.2500e-02	3.4411	-11.905605	0.000363	3.632562	1.230745	0.029127
  87	4.3000e-02	3.4732	-11.687153	0.000545	5.448842	1.846118	0.043690
  88	4.3500e-02	3.5085	-11.577927	0.000272	2.724421	0.923059	0.021845
  89	4.4000e-02	3.5373	-11.468702	0.000272	2.724421	0.923059	0.021845
  90	4.4500e-02	3.5999	-11.141025	0.000817	8.173264	2.769177	0.065535
  91	4.5000e-02	3.6448	-11.395885	-0.000636	-6.356983	-2.153804	-0.050972
  92	4.5500e-02	3.6769	-11.432293	-0.000091	-0.908140	-0.307686	-0.007282
  93	4.6000e-02	3.7122	-11.068207	0.000908	9.081404	3.076863	0.072817
  94	4.6500e-02	3.7523	-10.667713	0.000999	9.989544	3.384549	0.080099
  95	4.7000e-02	3.7844	-11.323067	-0.001635	-16.346527	-5.538353	-0.131071
  96	4.7500e-02	3.8389	-10.704122	0.001544	15.438387	5.230667	0.123789
  97	4.8000e-02	3.8774	-10.776939	-0.000182	-1.816281	-0.615373	-0.014563
  98	4.8500e-02	3.9223	-10.558487	0.000545	5.448842	1.846118	0.043690
  99	4.9000e-02	3.9512	-10.376444	0.000454	4.540702	1.538431	0.036409
 100	4.9500e-02	4.0010	-10.412853	-0.000091	-0.908140	-0.307686	-0.007282
 101	5.0000e-02	4.0395	-10.121584	0.000727	7.265123	2.461490	0.058254
 102	5.0500e-02	4.0780	-10.194402	-0.000182	-1.816281	-0.615373	-0.014563
 103	5.1000e-02	4.1181	-10.085176	0.000272	2.724421	0.923059	0.021845
 104	5.1500e-02	4.1566	-9.721090	0.000908	9.081404	3.076863	0.072817
 105	5.2000e-02	4.2047	-9.830316	-0.000272	-2.724421	-0.923059	-0.021845
 106	5.2500e-02	4.2255	-9.357004	0.001181	11.805825	3.999922	0.094662
 107	5.3000e-02	4.2400	-9.174961	0.000454	4.540702	1.538431	0.036409
 108	5.3500e-02	4.2977	-9.466230	-0.000727	-7.265123	-2.461490	-0.058254
 109	5.4000e-02	4.3635	-9.575456	-0.000272	-2.724421	-0.923059	-0.021845
 110	5.4500e-02	4.4084	-9.174961	0.000999	9.989544	3.384549	0.080099
 111	5.5000e-02	4.4293	-9.284187	-0.000272	-2.724421	-0.923059	-0.021845
 112	5.5500e-02	4.4967	-9.575456	-0.000727	-7.265123	-2.461490	-0.058254
 113	5.6000e-02	4.5287	-9.029327	0.001362	13.622106	4.615294	0.109226
 114	5.6500e-02	4.5576	-8.592424	0.001090	10.897685	3.692236	0.087381
 115	5.7000e-02	4.5656	-8.701650	-0.000272	-2.724421	-0.923059	-0.021845
 116	5.7500e-02	4.6122	-8.592424	0.000272	2.724421	0.923059	0.021845
 117	5.8000e-02	4.6828	-8.556016	0.000091	0.908140	0.307686	0.007282
 118	5.8500e-02	4.7164	-8.592424	-0.000091	-0.908140	-0.307686	-0.007282
 119	5.9000e-02	4.7549	-8.264747	0.000817	8.173264	2.769177	0.065535
 120	5.9500e-02	4.7758	-8.264747	0.000000	0.000000	0.000000	0.000000
 121	6.0000e-02	4.8175	-8.119113	0.000363	3.632562	1.230745	0.029127
 122	6.0500e-02	4.8881	-8.519607	-0.000999	-9.989544	-3.384549	-0.080099
 123	6.1000e-02	4.9250	-7.645801	0.002180	21.795370	7.384471	0.174761
 124	6.1500e-02	4.9475	-7.973478	-0.000817	-8.173264	-2.769177	-0.065535
 125	6.2000e-02	4.9924	-7.536575	0.001090	10.897685	3.692236	0.087381
 126	6.2500e-02	5.0245	-8.009887	-0.001181	-11.805825	-3.999922	-0.094662
 127	6.3000e-02	5.0614	-7.572984	0.001090	10.897685	3.692236	0.087381
 128	6.3500e-02	5.1111	-7.609393	-0.000091	-0.908140	-0.307686	-0.007282
 129	6.4000e-02	5.1496	-7.245307	0.000908	9.081404	3.076863	0.072817
 130	6.4500e-02	5.1753	-7.099673	0.000363	3.632562	1.230745	0.029127
 131	6.5000e-02	5.2186	-6.881221	0.000545	5.448842	1.846118	0.043690
 132	6.5500e-02	5.2555	-7.136081	-0.000636	-6.356983	-2.153804	-0.050972
 133	6.6000e-02	5.3244	-7.026855	0.000272	2.724421	0.923059	0.021845
 134	6.6500e-02	5.3549	-7.245307	-0.000545	-5.448842	-1.846118	-0.043690
 135	6.7000e-02	5.3950	-6.553544	0.001725	17.254668	5.846040	0.138353
 136	6.7500e-02	5.4432	-6.954038	-0.000999	-9.989544	-3.384549	-0.080099
 137	6.8000e-02	5.4865	-6.808404	0.000363	3.632562	1.230745	0.029127
 138	6.8500e-02	5.5186	-6.917630	-0.000272	-2.724421	-0.923059	-0.021845
 139	6.9000e-02	5.5490	-6.407910	0.001271	12.713966	4.307608	0.101944
 140	6.9500e-02	5.5731	-6.371501	0.000091	0.908140	0.307686	0.007282
 141	7.0000e-02	5.6373	-6.007415	0.000908	9.081404	3.076863	0.072817
 142	7.0500e-02	5.6613	-6.371501	-0.000908	-9.081404	-3.076863	-0.072817
 143	7.1000e-02	5.7303	-6.371501	0.000000	0.000000	0.000000	0.000000
 144	7.1500e-02	5.7801	-6.189458	0.000454	4.540702	1.538431	0.036409
 145	7.2000e-02	5.8009	-5.825372	0.000908	9.081404	3.076863	0.072817
 146	7.2500e-02	5.8234	-5.643329	0.000454	4.540702	1.538431	0.036409
 147	7.3000e-02	5.8603	-5.825372	-0.000454	-4.540702	-1.538431	-0.036409
 148	7.3500e-02	5.9036	-5.679738	0.000363	3.632562	1.230745	0.029127
 149	7.4000e-02	5.9453	-5.461287	0.000545	5.448842	1.846118	0.043690
 150	7.4500e-02	5.9934	-5.424878	0.000091	0.908140	0.307686	0.007282
 151	7.5000e-02	6.0175	-5.497695	-0.000182	-1.816281	-0.615373	-0.014563
 152	7.5500e-02	6.0656	-5.097201	0.000999	9.989544	3.384549	0.080099
 153	7.6000e-02	6.1057	-5.242835	-0.000363	-3.632562	-1.230745	-0.029127
 154	7.6500e-02	6.1538	-4.878749	0.000908	9.081404	3.076863	0.072817
 155	7.7000e-02	6.2004	-5.133609	-0.000636	-6.356983	-2.153804	-0.050972
 156	7.7500e-02	6.2373	-5.024384	0.000272	2.724421	0.923059	0.021845
 157	7.8000e-02	6.2774	-4.405438	0.001544	15.438387	5.230667	0.123789
 158	7.8500e-02	6.3367	-4.878749	-0.001181	-11.805825	-3.999922	-0.094662
 159	7.9000e-02	6.3592	-4.551072	0.000817	8.173264	2.769177	0.065535
 160	7.9500e-02	6.3913	-4.441846	0.000272	2.724421	0.923059	0.021845
 161	8.0000e-02	6.4378	-4.405438	0.000091	0.908140	0.307686	0.007282
 162	8.0500e-02	6.4667	-4.405438	0.000000	0.000000	0.000000	0.000000
 163	8.1000e-02	6.5084	-4.150578	0.000636	6.356983	2.153804	0.050972
 164	8.1500e-02	6.5180	-4.259804	-0.000272	-2.724421	-0.923059	-0.021845
 165	8.2000e-02	6.5758	-3.750083	0.001271	12.713966	4.307608	0.101944
 166	8.2500e-02	6.6287	-3.786492	-0.000091	-0.908140	-0.307686	-0.007282
 167	8.3000e-02	6.6608	-3.240363	0.001362	13.622106	4.615294	0.109226
 168	8.3500e-02	6.7009	-3.859309	-0.001544	-15.438387	-5.230667	-0.123789
 169	8.4000e-02	6.7602	-3.531632	0.000817	8.173264	2.769177	0.065535
 170	8.4500e-02	6.7859	-3.822901	-0.000727	-7.265123	-2.461490	-0.058254
 171	8.5000e-02	6.8324	-3.531632	0.000727	7.265123	2.461490	0.058254
 172	8.5500e-02	6.8629	-2.803460	0.001816	18.162808	6.153726	0.145634
 173	8.6000e-02	6.9094	-3.131138	-0.000817	-8.173264	-2.769177	-0.065535
 174	8.6500e-02	6.9624	-3.167546	-0.000091	-0.908140	-0.307686	-0.007282
 175	8.7000e-02	6.9800	-3.131138	0.000091	0.908140	0.307686	0.007282
 176	8.7500e-02	7.0297	-3.203955	-0.000182	-1.816281	-0.615373	-0.014563
 177	8.8000e-02	7.0731	-2.876278	0.000817	8.173264	2.769177	0.065535
 178	8.8500e-02	7.0955	-2.548600	0.000817	8.173264	2.769177	0.065535
 179	8.9000e-02	7.1420	-2.585009	-0.000091	-0.908140	-0.307686	-0.007282
 180	8.9500e-02	7.1934	-2.621418	-0.000091	-0.908140	-0.307686	-0.007282
 181	9.0000e-02	7.2511	-2.657826	-0.000091	-0.908140	-0.307686	-0.007282
 182	9.0500e-02	7.2608	-2.512192	0.000363	3.632562	1.230745	0.029127
 183	9.1000e-02	7.2832	-2.075289	0.001090	10.897685	3.692236	0.087381
 184	9.1500e-02	7.3554	-2.075289	0.000000	0.000000	0.000000	0.000000
 185	9.2000e-02	7.3795	-2.148106	-0.000182	-1.816281	-0.615373	-0.014563
 186	9.2500e-02	7.4276	-1.820429	0.000817	8.173264	2.769177	0.065535
 187	9.3000e-02	7.4821	-1.747612	0.000182	1.816281	0.615373	0.014563
 188	9.3500e-02	7.5319	-1.893246	-0.000363	-3.632562	-1.230745	-0.029127
 189	9.4000e-02	7.5527	-2.038880	-0.000363	-3.632562	-1.230745	-0.029127
 190	9.4500e-02	7.6073	-1.820429	0.000545	5.448842	1.846118	0.043690
 191	9.5000e-02	7.6313	-1.601977	0.000545	5.448842	1.846118	0.043690
 192	9.5500e-02	7.6634	-1.565569	0.000091	0.908140	0.307686	0.007282
 193	9.6000e-02	7.7067	-1.310709	0.000636	6.356983	2.153804	0.050972
 194	9.6500e-02	7.7565	-1.347117	-0.000091	-0.908140	-0.307686	-0.007282
 195	9.7000e-02	7.7821	-1.092257	0.000636	6.356983	2.153804	0.050972
 196	9.7500e-02	7.8238	-1.383526	-0.000727	-7.265123	-2.461490	-0.058254
 197	9.8000e-02	7.8720	-1.237892	0.000363	3.632562	1.230745	0.029127
 198	9.8500e-02	7.9329	-1.201483	0.000091	0.908140	0.307686	0.007282
 199	9.9000e-02	7.9506	-0.691763	0.001271	12.713966	4.307608	0.101944
 200	9.9500e-02	8.0035	-0.873806	-0.000454	-4.540702	-1.538431	-0.036409
 201	1.0000e-01	8.0388	-0.691763	0.000454	4.540702	1.538431	0.036409
 202	1.0050e-01	8.0901	-0.473312	0.000545	5.448842	1.846118	0.043690
 203	1.0100e-01	8.1206	-0.582537	-0.000272	-2.724421	-0.923059	-0.021845
 204	1.0150e-01	8.1431	-0.327677	0.000636	6.356983	2.153804	0.050972
 205	1.0200e-01	8.1928	-0.655354	-0.000817	-8.173264	-2.769177	-0.065535
 206	1.0250e-01	8.2409	-0.691763	-0.000091	-0.908140	-0.307686	-0.007282
 207	1.0300e-01	8.2714	0.000000	0.001725	17.254668	5.846040	0.138353
 208	1.0350e-01	8.3163	0.473312	0.001181	11.805825	3.999922	0.094662
 209	1.0400e-01	8.3420	0.182043	-0.000727	-7.265123	-2.461490	-0.058254
 210	1.0450e-01	8.4014	-0.109226	-0.000727	-7.265123	-2.461490	-0.058254
 211	1.0500e-01	8.4174	0.072817	0.000454	4.540702	1.538431	0.036409
 212	1.0550e-01	8.4687	-0.036409	-0.000272	-2.724421	-0.923059	-0.021845
 213	1.0600e-01	8.5008	0.291269	0.000817	8.173264	2.769177	0.065535
 214	1.0650e-01	8.5538	0.837397	0.001362	13.622106	4.615294	0.109226
 215	1.0700e-01	8.6019	0.618946	-0.000545	-5.448842	-1.846118	-0.043690
 216	1.0750e-01	8.6051	0.546129	-0.000182	-1.816281	-0.615373	-0.014563
 217	1.0800e-01	8.6548	0.946623	0.000999	9.989544	3.384549	0.080099
 218	1.0850e-01	8.7110	0.800989	-0.000363	-3.632562	-1.230745	-0.029127
 219	1.0900e-01	8.7655	1.019440	0.000545	5.448842	1.846118	0.043690
 220	1.0950e-01	8.7768	0.983032	-0.000091	-0.908140	-0.307686	-0.007282
 221	1.1000e-01	8.8329	1.201483	0.000545	5.448842	1.846118	0.043690
 222	1.1050e-01	8.8698	0.983032	-0.000545	-5.448842	-1.846118	-0.043690
 223	1.1100e-01	8.9067	1.055849	0.000182	1.816281	0.615373	0.014563
 224	1.1150e-01	8.9645	1.383526	0.000817	8.173264	2.769177	0.065535
 225	1.1200e-01	9.0158	1.529160	0.000363	3.632562	1.230745	0.029127
 226	1.1250e-01	9.0206	1.347117	-0.000454	-4.540702	-1.538431	-0.036409
 227	1.1300e-01	9.0784	1.529160	0.000454	4.540702	1.538431	0.036409
 228	1.1350e-01	9.1201	1.711203	0.000454	4.540702	1.538431	0.036409
 229	1.1400e-01	9.1714	1.419935	-0.000727	-7.265123	-2.461490	-0.058254
 230	1.1450e-01	9.1906	1.929655	0.001271	12.713966	4.307608	0.101944
 231	1.1500e-01	9.2404	1.893246	-0.000091	-0.908140	-0.307686	-0.007282
 232	1.1550e-01	9.2773	2.075289	0.000454	4.540702	1.538431	0.036409
 233	1.1600e-01	9.3206	2.038880	-0.000091	-0.908140	-0.307686	-0.007282
 234	1.1650e-01	9.3607	1.856837	-0.000454	-4.540702	-1.538431	-0.036409
 235	1.1700e-01	9.3896	2.184515	0.000817	8.173264	2.769177	0.065535
 236	1.1750e-01	9.4329	2.621418	0.001090	10.897685	3.692236	0.087381
 237	1.1800e-01	9.4730	2.366558	-0.000636	-6.356983	-2.153804	-0.050972
 238	1.1850e-01	9.5035	2.657826	0.000727	7.265123	2.461490	0.058254
 239	1.1900e-01	9.5660	2.402966	-0.000636	-6.356983	-2.153804	-0.050972
 240	1.1950e-01	9.5821	2.548600	0.000363	3.632562	1.230745	0.029127
 241	1.2000e-01	9.6366	2.730643	0.000454	4.540702	1.538431	0.036409
 242	1.2050e-01	9.7024	2.730643	0.000000	0.000000	0.000000	0.000000
 243	1.2100e-01	9.7184	2.985503	0.000636	6.356983	2.153804	0.050972
 244	1.2150e-01	9.7233	2.985503	0.000000	0.000000	0.000000	0.000000
 245	1.2200e-01	9.7762	3.385998	0.000999	9.989544	3.384549	0.080099
 246	1.2250e-01	9.8676	3.422406	0.000091	0.908140	0.307686	0.007282
 247	1.2300e-01	9.8885	3.276772	-0.000363	-3.632562	-1.230745	-0.029127
 248	1.2350e-01	9.9190	3.131138	-0.000363	-3.632562	-1.230745	-0.029127
 249	1.2400e-01	9.9671	3.458815	0.000817	8.173264	2.769177	0.065535
 250	1.2450e-01	9.9847	3.640858	0.000454	4.540702	1.538431	0.036409
 251	1.2500e-01	10.0232	3.895718	0.000636	6.356983	2.153804	0.050972
 252	1.2550e-01	10.0585	3.786492	-0.000272	-2.724421	-0.923059	-0.021845
 253	1.2600e-01	10.1099	3.495223	-0.000727	-7.265123	-2.461490	-0.058254
 254	1.2650e-01	10.1676	4.114169	0.001544	15.438387	5.230667	0.123789
 255	1.2700e-01	10.2077	4.259804	0.000363	3.632562	1.230745	0.029127
 256	1.2750e-01	10.2414	3.859309	-0.000999	-9.989544	-3.384549	-0.080099
 257	1.2800e-01	10.2735	4.077761	0.000545	5.448842	1.846118	0.043690
 258	1.2850e-01	10.3281	4.478255	0.000999	9.989544	3.384549	0.080099
 259	1.2900e-01	10.3505	4.405438	-0.000182	-1.816281	-0.615373	-0.014563
 260	1.2950e-01	10.4051	4.369029	-0.000091	-0.908140	-0.307686	-0.007282
 261	1.3000e-01	10.4420	4.441846	0.000182	1.816281	0.615373	0.014563
 262	1.3050e-01	10.4740	4.259804	-0.000454	-4.540702	-1.538431	-0.036409
 263	1.3100e-01	10.5141	4.842341	0.001453	14.530246	4.922981	0.116507
 264	1.3150e-01	10.5542	4.623889	-0.000545	-5.448842	-1.846118	-0.043690
 265	1.3200e-01	10.5847	4.551072	-0.000182	-1.816281	-0.615373	-0.014563
 266	1.3250e-01	10.6425	4.733115	0.000454	4.540702	1.538431	0.036409
 267	1.3300e-01	10.6826	4.842341	0.000272	2.724421	0.923059	0.021845
 268	1.3350e-01	10.7163	5.534104	0.001725	17.254668	5.846040	0.138353
 269	1.3400e-01	10.7484	4.951566	-0.001453	-14.530246	-4.922981	-0.116507
 270	1.3450e-01	10.7869	4.987975	0.000091	0.908140	0.307686	0.007282
 271	1.3500e-01	10.8382	5.424878	0.001090	10.897685	3.692236	0.087381
 272	1.3550e-01	10.8687	5.097201	-0.000817	-8.173264	-2.769177	-0.065535
 273	1.3600e-01	10.9104	5.461287	0.000908	9.081404	3.076863	0.072817
 274	1.3650e-01	10.9730	5.643329	0.000454	4.540702	1.538431	0.036409
 275	1.3700e-01	10.9954	5.825372	0.000454	4.540702	1.538431	0.036409
 276	1.3750e-01	11.0307	5.898189	0.000182	1.816281	0.615373	0.014563
 277	1.3800e-01	11.0644	5.570512	-0.000817	-8.173264	-2.769177	-0.065535
 278	1.3850e-01	11.1238	6.080232	0.001271	12.713966	4.307608	0.101944
 279	1.3900e-01	11.1254	5.861781	-0.000545	-5.448842	-1.846118	-0.043690
 280	1.3950e-01	11.1943	6.153050	0.000727	7.265123	2.461490	0.058254
 281	1.4000e-01	11.2553	6.153050	0.000000	0.000000	0.000000	0.000000
 282	1.4050e-01	11.2665	6.007415	-0.000363	-3.632562	-1.230745	-0.029127
 283	1.4100e-01	11.2906	6.189458	0.000454	4.540702	1.538431	0.036409
 284	1.4150e-01	11.3564	6.262275	0.000182	1.816281	0.615373	0.014563
 285	1.4200e-01	11.3804	6.662770	0.000999	9.989544	3.384549	0.080099
 286	1.4250e-01	11.4350	6.371501	-0.000727	-7.265123	-2.461490	-0.058254
 287	1.4300e-01	11.4735	6.517135	0.000363	3.632562	1.230745	0.029127
 288	1.4350e-01	11.5056	6.735587	0.000545	5.448842	1.846118	0.043690
 289	1.4400e-01	11.5409	7.245307	0.001271	12.713966	4.307608	0.101944
 290	1.4450e-01	11.5954	6.662770	-0.001453	-14.530246	-4.922981	-0.116507
 291	1.4500e-01	11.6130	6.735587	0.000182	1.816281	0.615373	0.014563
 292	1.4550e-01	11.6804	6.699178	-0.000091	-0.908140	-0.307686	-0.007282
 293	1.4600e-01	11.7141	6.917630	0.000545	5.448842	1.846118	0.043690
 294	1.4650e-01	11.7606	6.626361	-0.000727	-7.265123	-2.461490	-0.058254
 295	1.4700e-01	11.7783	6.990447	0.000908	9.081404	3.076863	0.072817
 296	1.4750e-01	11.8312	7.136081	0.000363	3.632562	1.230745	0.029127
 297	1.4800e-01	11.8649	7.245307	0.000272	2.724421	0.923059	0.021845
 298	1.4850e-01	11.9162	7.645801	0.000999	9.989544	3.384549	0.080099
 299	1.4900e-01	11.9403	7.536575	-0.000272	-2.724421	-0.923059	-0.021845
 300	1.4950e-01	11.9948	7.390941	-0.000363	-3.632562	-1.230745	-0.029127
 301	1.5000e-01	12.0430	7.900661	0.001271	12.713966	4.307608	0.101944
 302	1.5050e-01	12.0943	7.645801	-0.000636	-6.356983	-2.153804	-0.050972
 303	1.5100e-01	12.1296	7.609393	-0.000091	-0.908140	-0.307686	-0.007282
 304	1.5150e-01	12.1649	7.791435	0.000454	4.540702	1.538431	0.036409
 305	1.5200e-01	12.2082	8.410381	0.001544	15.438387	5.230667	0.123789
 306	1.5250e-01	12.2307	8.082704	-0.000817	-8.173264	-2.769177	-0.065535
 307	1.5300e-01	12.2644	8.410381	0.000817	8.173264	2.769177	0.065535
 308	1.5350e-01	12.3205	7.937070	-0.001181	-11.805825	-3.999922	-0.094662
 309	1.5400e-01	12.3494	8.665241	0.001816	18.162808	6.153726	0.145634
 310	1.5450e-01	12.4007	8.483198	-0.000454	-4.540702	-1.538431	-0.036409
 311	1.5500e-01	12.4553	8.665241	0.000454	4.540702	1.538431	0.036409
 312	1.5550e-01	12.4729	8.410381	-0.000636	-6.356983	-2.153804	-0.050972
 313	1.5600e-01	12.5323	8.483198	0.000182	1.816281	0.615373	0.014563
 314	1.5650e-01	12.5355	8.956510	0.001181	11.805825	3.999922	0.094662
 315	1.5700e-01	12.5916	9.211370	0.000636	6.356983	2.153804	0.050972
 316	1.5750e-01	12.6365	8.883693	-0.000817	-8.173264	-2.769177	-0.065535
 317	1.5800e-01	12.6542	8.956510	0.000182	1.816281	0.615373	0.014563
 318	1.5850e-01	12.7087	9.138553	0.000454	4.540702	1.538431	0.036409
 319	1.5900e-01	12.7408	9.138553	0.000000	0.000000	0.000000	0.000000
 320	1.5950e-01	12.7761	8.883693	-0.000636	-6.356983	-2.153804	-0.050972
 321	1.6000e-01	12.8403	9.393413	0.001271	12.713966	4.307608	0.101944
 322	1.6050e-01	12.8531	8.956510	-0.001090	-10.897685	-3.692236	-0.087381
 323	1.6100e-01	12.9221	9.502639	0.001362	13.622106	4.615294	0.109226
 324	1.6150e-01	12.9333	9.065736	-0.001090	-10.897685	-3.692236	-0.087381
 325	1.6200e-01	12.9798	9.466230	0.000999	9.989544	3.384549	0.080099
 326	1.6250e-01	13.0216	9.648273	0.000454	4.540702	1.538431	0.036409
 327	1.6300e-01	13.0472	9.903133	0.000636	6.356983	2.153804	0.050972
 328	1.6350e-01	13.0954	10.230810	0.000817	8.173264	2.769177	0.065535
 329	1.6400e-01	13.1547	9.757499	-0.001181	-11.805825	-3.999922	-0.094662
 330	1.6450e-01	13.1884	10.157993	0.000999	9.989544	3.384549	0.080099
 331	1.6500e-01	13.2413	9.866724	-0.000727	-7.265123	-2.461490	-0.058254
 332	1.6550e-01	13.2718	9.611864	-0.000636	-6.356983	-2.153804	-0.050972
 333	1.6600e-01	13.3183	10.121584	0.001271	12.713966	4.307608	0.101944
 334	1.6650e-01	13.3504	10.085176	-0.000091	-0.908140	-0.307686	-0.007282
 335	1.6700e-01	13.3713	10.048767	-0.000091	-0.908140	-0.307686	-0.007282
 336	1.6750e-01	13.4338	10.485670	0.001090	10.897685	3.692236	0.087381
 337	1.6800e-01	13.4659	10.267219	-0.000545	-5.448842	-1.846118	-0.043690
 338	1.6850e-01	13.5205	10.776939	0.001271	12.713966	4.307608	0.101944
 339	1.6900e-01	13.5494	10.594896	-0.000454	-4.540702	-1.538431	-0.036409
 340	1.6950e-01	13.6007	10.340036	-0.000636	-6.356983	-2.153804	-0.050972
 341	1.7000e-01	13.6231	10.631304	0.000727	7.265123	2.461490	0.058254
 342	1.7050e-01	13.6905	10.594896	-0.000091	-0.908140	-0.307686	-0.007282
 343	1.7100e-01	13.7098	10.995390	0.000999	9.989544	3.384549	0.080099
 344	1.7150e-01	13.7451	11.177433	0.000454	4.540702	1.538431	0.036409
 345	1.7200e-01	13.7836	11.141025	-0.000091	-0.908140	-0.307686	-0.007282
 346	1.7250e-01	13.8509	11.213842	0.000182	1.816281	0.615373	0.014563
 347	1.7300e-01	13.8782	11.286659	0.000182	1.816281	0.615373	0.014563
 348	1.7350e-01	13.8943	10.995390	-0.000727	-7.265123	-2.461490	-0.058254
 349	1.7400e-01	13.9536	11.687153	0.001725	17.254668	5.846040	0.138353
 350	1.7450e-01	14.0066	11.141025	-0.001362	-13.622106	-4.615294	-0.109226
 351	1.7500e-01	14.0290	11.832788	0.001725	17.254668	5.846040	0.138353
 352	1.7550e-01	14.0483	11.723562	-0.000272	-2.724421	-0.923059	-0.021845
 353	1.7600e-01	14.1140	11.614336	-0.000272	-2.724421	-0.923059	-0.021845
 354	1.7650e-01	14.1397	11.541519	-0.000182	-1.816281	-0.615373	-0.014563
 355	1.7700e-01	14.2039	12.087648	0.001362	13.622106	4.615294	0.109226
 356	1.7750e-01	14.2360	11.832788	-0.000636	-6.356983	-2.153804	-0.050972
 357	1.7800e-01	14.2729	11.614336	-0.000545	-5.448842	-1.846118	-0.043690
 358	1.7850e-01	14.3098	12.196873	0.001453	14.530246	4.922981	0.116507
 359	1.7900e-01	14.3531	11.614336	-0.001453	-14.530246	-4.922981	-0.116507
 360	1.7950e-01	14.3996	12.051239	0.001090	10.897685	3.692236	0.087381
 361	1.8000e-01	14.4301	12.087648	0.000091	0.908140	0.307686	0.007282
 362	1.8050e-01	14.4606	12.306099	0.000545	5.448842	1.846118	0.043690
 363	1.8100e-01	14.5263	12.342508	0.000091	0.908140	0.307686	0.007282
 364	1.8150e-01	14.5440	12.233282	-0.000272	-2.724421	-0.923059	-0.021845
 365	1.8200e-01	14.5937	12.488142	0.000636	6.356983	2.153804	0.050972
 366	1.8250e-01	14.6354	12.560959	0.000182	1.816281	0.615373	0.014563
 367	1.8300e-01	14.6675	12.597368	0.000091	0.908140	0.307686	0.007282
 368	1.8350e-01	14.7172	12.925045	0.000817	8.173264	2.769177	0.065535
 369	1.8400e-01	14.7269	12.633776	-0.000727	-7.265123	-2.461490	-0.058254
 370	1.8450e-01	14.7942	12.888636	0.000636	6.356983	2.153804	0.050972
 371	1.8500e-01	14.8440	12.997862	0.000272	2.724421	0.923059	0.021845
 372	1.8550e-01	14.8568	12.670185	-0.000817	-8.173264	-2.769177	-0.065535
 373	1.8600e-01	14.9242	12.888636	0.000545	5.448842	1.846118	0.043690
 374	1.8650e-01	14.9563	12.815819	-0.000182	-1.816281	-0.615373	-0.014563
 375	1.8700e-01	14.9883	13.543991	0.001816	18.162808	6.153726	0.145634
 376	1.8750e-01	15.0365	13.361948	-0.000454	-4.540702	-1.538431	-0.036409
 377	1.8800e-01	15.0782	13.471173	0.000272	2.724421	0.923059	0.021845
 378	1.8850e-01	15.1103	13.361948	-0.000272	-2.724421	-0.923059	-0.021845
 379	1.8900e-01	15.1552	13.398356	0.000091	0.908140	0.307686	0.007282
 380	1.8950e-01	15.1953	13.653216	0.000636	6.356983	2.153804	0.050972
 381	1.9000e-01	15.2194	13.653216	0.000000	0.000000	0.000000	0.000000
 382	1.9050e-01	15.2707	13.908076	0.000636	6.356983	2.153804	0.050972
 383	1.9100e-01	15.3108	13.726034	-0.000454	-4.540702	-1.538431	-0.036409
 384	1.9150e-01	15.3493	13.980894	0.000636	6.356983	2.153804	0.050972
 385	1.9200e-01	15.3846	13.980894	0.000000	0.000000	0.000000	0.000000
 386	1.9250e-01	15.4199	14.162936	0.000454	4.540702	1.538431	0.036409
 387	1.9300e-01	15.4648	13.980894	-0.000454	-4.540702	-1.538431	-0.036409
 388	1.9350e-01	15.5370	14.090119	0.000272	2.724421	0.923059	0.021845
 389	1.9400e-01	15.5386	13.798851	-0.000727	-7.265123	-2.461490	-0.058254
 390	1.9450e-01	15.5803	14.199345	0.000999	9.989544	3.384549	0.080099
 391	1.9500e-01	15.6349	14.308571	0.000272	2.724421	0.923059	0.021845
 392	1.9550e-01	15.6750	14.417796	0.000272	2.724421	0.923059	0.021845
 393	1.9600e-01	15.7022	14.490614	0.000182	1.816281	0.615373	0.014563
 394	1.9650e-01	15.7391	14.527022	0.000091	0.908140	0.307686	0.007282
 395	1.9700e-01	15.7616	14.709065	0.000454	4.540702	1.538431	0.036409
 396	1.9750e-01	15.8418	14.927517	0.000545	5.448842	1.846118	0.043690
 397	1.9800e-01	15.8723	14.818291	-0.000272	-2.724421	-0.923059	-0.021845
 398	1.9850e-01	15.9140	14.891108	0.000182	1.816281	0.615373	0.014563
 399	1.9900e-01	15.9557	15.073151	0.000454	4.540702	1.538431	0.036409
 400	1.9950e-01	15.9878	15.218785	0.000363	3.632562	1.230745	0.029127
 401	2.0000e-01	16.0327	14.636248	-0.001453	-14.530246	-4.922981	-0.116507
 402	2.0050e-01	16.0856	15.218785	0.001453	14.530246	4.922981	0.116507
 403	2.0100e-01	16.1017	15.364419	0.000363	3.632562	1.230745	0.029127
 404	2.0150e-01	16.1466	15.437237	0.000182	1.816281	0.615373	0.014563
 405	2.0200e-01	16.1899	15.145968	-0.000727	-7.265123	-2.461490	-0.058254
 406	2.0250e-01	16.2477	15.328011	0.000454	4.540702	1.538431	0.036409
 407	2.0300e-01	16.2605	15.291602	-0.000091	-0.908140	-0.307686	-0.007282
 408	2.0350e-01	16.3022	15.582871	0.000727	7.265123	2.461490	0.058254
 409	2.0400e-01	16.3471	15.473645	-0.000272	-2.724421	-0.923059	-0.021845
 410	2.0450e-01	16.3808	15.328011	-0.000363	-3.632562	-1.230745	-0.029127
 411	2.0500e-01	16.4386	15.764914	0.001090	10.897685	3.692236	0.087381
 412	2.0550e-01	16.4626	15.801322	0.000091	0.908140	0.307686	0.007282
 413	2.0600e-01	16.5268	15.983365	0.000454	4.540702	1.538431	0.036409
 414	2.0650e-01	16.5669	15.728505	-0.000636	-6.356983	-2.153804	-0.050972
 415	2.0700e-01	16.5926	15.837731	0.000272	2.724421	0.923059	0.021845
 416	2.0750e-01	16.6327	16.129000	0.000727	7.265123	2.461490	0.058254
 417	2.0800e-01	16.6840	16.165408	0.000091	0.908140	0.307686	0.007282
 418	2.0850e-01	16.7241	16.201817	0.000091	0.908140	0.307686	0.007282
 419	2.0900e-01	16.7466	15.983365	-0.000545	-5.448842	-1.846118	-0.043690
 420	2.0950e-01	16.7931	16.565903	0.001453	14.530246	4.922981	0.116507
 421	2.1000e-01	16.8204	16.201817	-0.000908	-9.081404	-3.076863	-0.072817
 422	2.1050e-01	16.8717	16.529494	0.000817	8.173264	2.769177	0.065535
 423	2.1100e-01	16.9022	16.747945	0.000545	5.448842	1.846118	0.043690
 424	2.1150e-01	16.9487	16.602311	-0.000363	-3.632562	-1.230745	-0.029127
 425	2.1200e-01	16.9920	16.529494	-0.000182	-1.816281	-0.615373	-0.014563
 426	2.1250e-01	17.0353	16.638720	0.000272	2.724421	0.923059	0.021845
 427	2.1300e-01	17.0562	16.456677	-0.000454	-4.540702	-1.538431	-0.036409
 428	2.1350e-01	17.1252	16.893580	0.001090	10.897685	3.692236	0.087381
 429	2.1400e-01	17.1621	16.857171	-0.000091	-0.908140	-0.307686	-0.007282
 430	2.1450e-01	17.1878	17.002805	0.000363	3.632562	1.230745	0.029127
 431	2.1500e-01	17.2279	16.966397	-0.000091	-0.908140	-0.307686	-0.007282
 432	2.1550e-01	17.2776	17.039214	0.000182	1.816281	0.615373	0.014563
 433	2.1600e-01	17.3145	17.257665	0.000545	5.448842	1.846118	0.043690
 434	2.1650e-01	17.3562	17.075623	-0.000454	-4.540702	-1.538431	-0.036409
 435	2.1700e-01	17.4075	17.512526	0.001090	10.897685	3.692236	0.087381
 436	2.1750e-01	17.4236	17.221257	-0.000727	-7.265123	-2.461490	-0.058254
 437	2.1800e-01	17.4701	17.257665	0.000091	0.908140	0.307686	0.007282
 438	2.1850e-01	17.5230	17.840203	0.001453	14.530246	4.922981	0.116507
 439	2.1900e-01	17.5375	17.075623	-0.001907	-19.070948	-6.461412	-0.152916
 440	2.1950e-01	17.5872	17.803794	0.001816	18.162808	6.153726	0.145634
 441	2.2000e-01	17.6305	17.512526	-0.000727	-7.265123	-2.461490	-0.058254
 442	2.2050e-01	17.6642	18.058654	0.001362	13.622106	4.615294	0.109226
 443	2.2100e-01	17.7011	18.349923	0.000727	7.265123	2.461490	0.058254
 444	2.2150e-01	17.7573	17.913020	-0.001090	-10.897685	-3.692236	-0.087381
 445	2.2200e-01	17.7813	17.658160	-0.000636	-6.356983	-2.153804	-0.050972
 446	2.2250e-01	17.8391	18.240697	0.001453	14.530246	4.922981	0.116507
 447	2.2300e-01	17.8583	18.131471	-0.000272	-2.724421	-0.923059	-0.021845
 448	2.2350e-01	17.9257	18.277106	0.000363	3.632562	1.230745	0.029127
 449	2.2400e-01	17.9449	18.422740	0.000363	3.632562	1.230745	0.029127
 450	2.2450e-01	17.9963	18.131471	-0.000727	-7.265123	-2.461490	-0.058254
 451	2.2500e-01	18.0380	18.277106	0.000363	3.632562	1.230745	0.029127
 452	2.2550e-01	18.0685	18.422740	0.000363	3.632562	1.230745	0.029127
 453	2.2600e-01	18.1198	18.422740	0.000000	0.000000	0.000000	0.000000
 454	2.2650e-01	18.1679	18.677600	0.000636	6.356983	2.153804	0.050972
 455	2.2700e-01	18.1840	18.714009	0.000091	0.908140	0.307686	0.007282
 456	2.2750e-01	18.2353	18.859643	0.000363	3.632562	1.230745	0.029127
 457	2.2800e-01	18.2786	18.968869	0.000272	2.724421	0.923059	0.021845
 458	2.2850e-01	18.3171	19.187320	0.000545	5.448842	1.846118	0.043690
 459	2.2900e-01	18.3412	18.823234	-0.000908	-9.081404	-3.076863	-0.072817
 460	2.2950e-01	18.3925	19.260137	0.001090	10.897685	3.692236	0.087381
 461	2.3000e-01	18.4439	19.260137	0.000000	0.000000	0.000000	0.000000
 462	2.3050e-01	18.4727	18.714009	-0.001362	-13.622106	-4.615294	-0.109226
 463	2.3100e-01	18.5032	19.551406	0.002089	20.887229	7.076785	0.167479
 464	2.3150e-01	18.5530	19.296546	-0.000636	-6.356983	-2.153804	-0.050972
 465	2.3200e-01	18.5898	19.150911	-0.000363	-3.632562	-1.230745	-0.029127
 466	2.3250e-01	18.6460	19.478589	0.000817	8.173264	2.769177	0.065535
 467	2.3300e-01	18.6797	19.296546	-0.000454	-4.540702	-1.538431	-0.036409
 468	2.3350e-01	18.6941	19.660632	0.000908	9.081404	3.076863	0.072817
 469	2.3400e-01	18.7647	19.296546	-0.000908	-9.081404	-3.076863	-0.072817
 470	2.3450e-01	18.8064	19.660632	0.000908	9.081404	3.076863	0.072817
 471	2.3500e-01	18.8449	19.733449	0.000182	1.816281	0.615373	0.014563
 472	2.3550e-01	18.8834	20.097534	0.000908	9.081404	3.076863	0.072817
 473	2.3600e-01	18.9460	19.733449	-0.000908	-9.081404	-3.076863	-0.072817
 474	2.3650e-01	18.9460	19.879083	-0.000363	-3.632562	-1.230745	0.029127
 475	2.3700e-01	19.0037	20.024717	0.000363	3.632562	1.230745	0.029127
 476	2.3750e-01	19.0182	20.061126	0.000091	0.908140	0.307686	0.007282
 477	2.3800e-01	19.0823	20.133943	0.000182	1.816281	0.615373	0.014563
 478	2.3850e-01	19.1128	19.915492	-0.000545	-5.448842	-1.846118	-0.043690
 479	2.3900e-01	19.1658	20.789297	0.002180	21.795370	7.384471	0.174761
 480	2.3950e-01	19.1995	20.170352	-0.001544	-15.438387	-5.230667	-0.123789
 481	2.4000e-01	19.2267	20.934932	0.001907	19.070948	6.461412	0.152916
 482	2.4050e-01	19.2716	20.315986	-0.001544	-15.438387	-5.230667	-0.123789
 483	2.4100e-01	19.3134	20.607255	0.000727	7.265123	2.461490	0.058254
 484	2.4150e-01	19.3567	20.534437	-0.000182	-1.816281	-0.615373	-0.014563
 485	2.4200e-01	19.3679	20.789297	0.000636	6.356983	2.153804	0.050972
 486	2.4250e-01	19.4160	20.498029	-0.000727	-7.265123	-2.461490	-0.058254
 487	2.4300e-01	19.4834	20.971340	0.001181	11.805825	3.999922	0.094662
 488	2.4350e-01	19.5203	20.971340	0.000000	0.000000	0.000000	0.000000
 489	2.4400e-01	19.5652	21.007749	0.000091	0.908140	0.307686	0.007282
 490	2.4450e-01	19.5989	21.080566	0.000182	1.816281	0.615373	0.014563
 491	2.4500e-01	19.6374	20.825706	-0.000636	-6.356983	-2.153804	-0.050972
 492	2.4550e-01	19.6631	21.080566	0.000636	6.356983	2.153804	0.050972
 493	2.4600e-01	19.7160	21.153383	0.000182	1.816281	0.615373	0.014563
 494	2.4650e-01	19.7625	21.663103	0.001271	12.713966	4.307608	0.101944
 495	2.4700e-01	19.7978	21.371835	-0.000727	-7.265123	-2.461490	-0.058254
 496	2.4750e-01	19.8331	21.335426	-0.000091	-0.908140	-0.307686	-0.007282
 497	2.4800e-01	19.8861	21.590286	0.000636	6.356983	2.153804	0.050972
 498	2.4850e-01	19.9133	21.408243	-0.000454	-4.540702	-1.538431	-0.036409
 499	2.4900e-01	19.9486	21.517469	0.000272	2.724421	0.923059	0.021845
 500	2.4950e-01	19.9855	21.663103	0.000363	3.632562	1.230745	0.029127
 501	2.5000e-01	20.0256	21.626695	-0.000091	-0.908140	-0.307686	-0.007282
 502	2.5050e-01	19.9599	21.116975	0.001271	12.713966	4.307608	-0.101944
 503	2.5100e-01	19.9438	21.772329	-0.001635	-16.346527	-5.538353	0.131071
 504	2.5150e-01	19.8845	21.481060	0.000727	7.265123	2.461490	-0.058254
 505	2.5200e-01	19.8668	20.971340	0.001271	12.713966	4.307608	-0.101944
 506	2.5250e-01	19.8283	21.626695	-0.001635	-16.346527	-5.538353	0.131071
 507	2.5300e-01	19.7706	21.553878	0.000182	1.816281	0.615373	-0.014563
 508	2.5350e-01	19.7561	21.044157	0.001271	12.713966	4.307608	-0.101944
 509	2.5400e-01	19.6807	21.226200	-0.000454	-4.540702	-1.538431	0.036409
 510	2.5450e-01	19.6663	21.044157	0.000454	4.540702	1.538431	-0.036409
 511	2.5500e-01	19.6166	20.934932	0.000272	2.724421	0.923059	-0.021845
 512	2.5550e-01	19.5909	20.971340	-0.000091	-0.908140	-0.307686	0.007282
 513	2.5600e-01	19.5251	21.116975	-0.000363	-3.632562	-1.230745	0.029127
 514	2.5650e-01	19.5171	21.007749	0.000272	2.724421	0.923059	-0.021845
 515	2.5700e-01	19.4626	21.044157	-0.000091	-0.908140	-0.307686	0.007282
 516	2.5750e-01	19.4176	20.898523	0.000363	3.632562	1.230745	-0.029127
 517	2.5800e-01	19.3984	20.934932	-0.000091	-0.908140	-0.307686	0.007282
 518	2.5850e-01	19.3310	20.716480	0.000545	5.448842	1.846118	-0.043690
 519	2.5900e-01	19.3021	21.153383	-0.001090	-10.897685	-3.692236	0.087381
 520	2.5950e-01	19.2636	20.352395	0.001998	19.979089	6.769099	-0.160198
 521	2.6000e-01	19.2283	20.425212	-0.000182	-1.816281	-0.615373	0.014563
 522	2.6050e-01	19.1802	20.206760	0.000545	5.448842	1.846118	-0.043690
 523	2.6100e-01	19.1577	20.607255	-0.000999	-9.989544	-3.384549	0.080099
 524	2.6150e-01	19.0904	20.570846	0.000091	0.908140	0.307686	-0.007282
 525	2.6200e-01	19.0647	20.243169	0.000817	8.173264	2.769177	-0.065535
 526	2.6250e-01	19.0134	20.352395	-0.000272	-2.724421	-0.923059	0.021845
 527	2.6300e-01	18.9733	20.388803	-0.000091	-0.908140	-0.307686	0.007282
 528	2.6350e-01	18.9508	20.425212	-0.000091	-0.908140	-0.307686	0.007282
 529	2.6400e-01	18.8866	19.769857	0.001635	16.346527	5.538353	-0.131071
 530	2.6450e-01	18.8786	20.133943	-0.000908	-9.081404	-3.076863	0.072817
 531	2.6500e-01	18.8064	19.951900	0.000454	4.540702	1.538431	-0.036409
 532	2.6550e-01	18.7679	19.988309	-0.000091	-0.908140	-0.307686	0.007282
 533	2.6600e-01	18.7503	19.879083	0.000272	2.724421	0.923059	-0.021845
 534	2.6650e-01	18.7038	20.352395	-0.001181	-11.805825	-3.999922	0.094662
 535	2.6700e-01	18.6813	19.806266	0.001362	13.622106	4.615294	-0.109226
 536	2.6750e-01	18.6300	20.024717	-0.000545	-5.448842	-1.846118	0.043690
 537	2.6800e-01	18.5626	19.806266	0.000545	5.448842	1.846118	-0.043690
 538	2.6850e-01	18.5658	19.842674	0.000091	0.908140	0.307686	0.007282
 539	2.6900e-01	18.5048	19.769857	0.000182	1.816281	0.615373	-0.014563
 540	2.6950e-01	18.4583	19.879083	-0.000272	-2.724421	-0.923059	0.021845
 541	2.7000e-01	18.4230	19.442180	0.001090	10.897685	3.692236	-0.087381
 542	2.7050e-01	18.3733	19.660632	-0.000545	-5.448842	-1.846118	0.043690
 543	2.7100e-01	18.3348	19.514997	0.000363	3.632562	1.230745	-0.029127
 544	2.7150e-01	18.3059	19.296546	0.000545	5.448842	1.846118	-0.043690
 545	2.7200e-01	18.2658	19.223729	0.000182	1.816281	0.615373	-0.014563
 546	2.7250e-01	18.2048	19.369363	-0.000363	-3.632562	-1.230745	0.029127
 547	2.7300e-01	18.1888	19.332954	0.000091	0.908140	0.307686	-0.007282
 548	2.7350e-01	18.1278	18.896051	0.001090	10.897685	3.692236	-0.087381
 549	2.7400e-01	18.0974	19.296546	-0.000999	-9.989544	-3.384549	0.080099
 550	2.7450e-01	18.0572	18.786826	0.001271	12.713966	4.307608	-0.101944
 551	2.7500e-01	18.0220	19.223729	-0.001090	-10.897685	-3.692236	0.087381
 552	2.7550e-01	18.0011	18.823234	0.000999	9.989544	3.384549	-0.080099
 553	2.7600e-01	17.9385	19.114503	-0.000727	-7.265123	-2.461490	0.058254
 554	2.7650e-01	17.9032	18.641191	0.001181	11.805825	3.999922	-0.094662
 555	2.7700e-01	17.8487	18.714009	-0.000182	-1.816281	-0.615373	0.014563
 556	2.7750e-01	17.8327	18.604783	0.000272	2.724421	0.923059	-0.021845
 557	2.7800e-01	17.7621	18.896051	-0.000727	-7.265123	-2.461490	0.058254
 558	2.7850e-01	17.7444	18.422740	0.001181	11.805825	3.999922	-0.094662
 559	2.7900e-01	17.7059	18.714009	-0.000727	-7.265123	-2.461490	0.058254
 560	2.7950e-01	17.6546	18.459149	0.000636	6.356983	2.153804	-0.050972
 561	2.8000e-01	17.6257	18.459149	-0.000000	-0.000000	-0.000000	0.000000
 562	2.8050e-01	17.5968	18.058654	0.000999	9.989544	3.384549	-0.080099
 563	2.8100e-01	17.5311	18.422740	-0.000908	-9.081404	-3.076863	0.072817
 564	2.8150e-01	17.5070	17.913020	0.001271	12.713966	4.307608	-0.101944
 565	2.8200e-01	17.4589	18.240697	-0.000817	-8.173264	-2.769177	0.065535
 566	2.8250e-01	17.4252	18.349923	-0.000272	-2.724421	-0.923059	0.021845
 567	2.8300e-01	17.3835	18.095063	0.000636	6.356983	2.153804	-0.050972
 568	2.8350e-01	17.3337	18.022246	0.000182	1.816281	0.615373	-0.014563
 569	2.8400e-01	17.3065	17.840203	0.000454	4.540702	1.538431	-0.036409
 570	2.8450e-01	17.2567	17.767386	0.000182	1.816281	0.615373	-0.014563
 571	2.8500e-01	17.2503	18.204288	-0.001090	-10.897685	-3.692236	0.087381
 572	2.8550e-01	17.1685	17.658160	0.001362	13.622106	4.615294	-0.109226
 573	2.8600e-01	17.1573	17.803794	-0.000363	-3.632562	-1.230745	0.029127
 574	2.8650e-01	17.1091	17.621751	0.000454	4.540702	1.538431	-0.036409
 575	2.8700e-01	17.0402	17.985837	-0.000908	-9.081404	-3.076863	0.072817
 576	2.8750e-01	17.0145	17.366891	0.001544	15.438387	5.230667	-0.123789
 577	2.8800e-01	16.9744	17.585343	-0.000545	-5.448842	-1.846118	0.043690
 578	2.8850e-01	16.9359	17.476117	0.000272	2.724421	0.923059	-0.021845
 579	2.8900e-01	16.9102	17.585343	-0.000272	-2.724421	-0.923059	0.021845
 580	2.8950e-01	16.8557	17.330483	0.000636	6.356983	2.153804	-0.050972
 581	2.9000e-01	16.8236	16.893580	0.001090	10.897685	3.692236	-0.087381
 582	2.9050e-01	16.7931	16.966397	-0.000182	-1.816281	-0.615373	0.014563
 583	2.9100e-01	16.7241	17.366891	-0.000999	-9.989544	-3.384549	0.080099
 584	2.9150e-01	16.6953	16.929988	0.001090	10.897685	3.692236	-0.087381
 585	2.9200e-01	16.6680	16.784354	0.000363	3.632562	1.230745	-0.029127
 586	2.9250e-01	16.6359	17.257665	-0.001181	-11.805825	-3.999922	0.094662
 587	2.9300e-01	16.5653	16.929988	0.000817	8.173264	2.769177	-0.065535
 588	2.9350e-01	16.5396	16.711537	0.000545	5.448842	1.846118	-0.043690
 589	2.9400e-01	16.5172	17.075623	-0.000908	-9.081404	-3.076863	0.072817
 590	2.9450e-01	16.4562	16.820763	0.000636	6.356983	2.153804	-0.050972
 591	2.9500e-01	16.4161	16.966397	-0.000363	-3.632562	-1.230745	0.029127
 592	2.9550e-01	16.3776	16.165408	0.001998	19.979089	6.769099	-0.160198
 593	2.9600e-01	16.3423	16.711537	-0.001362	-13.622106	-4.615294	0.109226
 594	2.9650e-01	16.3086	16.165408	0.001362	13.622106	4.615294	-0.109226
 595	2.9700e-01	16.2589	16.420268	-0.000636	-6.356983	-2.153804	0.050972
 596	2.9750e-01	16.2220	16.529494	-0.000272	-2.724421	-0.923059	0.021845
 597	2.9800e-01	16.1883	16.493085	0.000091	0.908140	0.307686	-0.007282
 598	2.9850e-01	16.1129	16.056182	0.001090	10.897685	3.692236	-0.087381
 599	2.9900e-01	16.1161	16.493085	0.001090	10.897685	3.692236	0.087381
 600	2.9950e-01	16.0616	15.764914	0.001816	18.162808	6.153726	-0.145634
 601	3.0000e-01	16.0070	16.019774	-0.000636	-6.356983	-2.153804	0.050972
 602	3.0050e-01	15.9846	16.529494	-0.001271	-12.713966	-4.307608	0.101944
 603	3.0100e-01	15.9509	15.837731	0.001725	17.254668	5.846040	-0.138353
 604	3.0150e-01	15.9124	15.764914	0.000182	1.816281	0.615373	-0.014563
 605	3.0200e-01	15.8578	15.837731	-0.000182	-1.816281	-0.615373	0.014563
 606	3.0250e-01	15.8193	15.692097	0.000363	3.632562	1.230745	-0.029127
 607	3.0300e-01	15.7840	16.019774	-0.000817	-8.173264	-2.769177	0.065535
 608	3.0350e-01	15.7407	15.510054	0.001271	12.713966	4.307608	-0.101944
 609	3.0400e-01	15.7215	15.764914	-0.000636	-6.356983	-2.153804	0.050972
 610	3.0450e-01	15.6653	15.692097	0.000182	1.816281	0.615373	-0.014563
 611	3.0500e-01	15.6349	15.546462	0.000363	3.632562	1.230745	-0.029127
 612	3.0550e-01	15.5883	14.854699	0.001725	17.254668	5.846040	-0.138353
 613	3.0600e-01	15.5434	15.073151	-0.000545	-5.448842	-1.846118	0.043690
 614	3.0650e-01	15.4969	15.218785	-0.000363	-3.632562	-1.230745	0.029127
 615	3.0700e-01	15.4520	15.145968	0.000182	1.816281	0.615373	-0.014563
 616	3.0750e-01	15.4215	15.182377	-0.000091	-0.908140	-0.307686	0.007282
 617	3.0800e-01	15.4054	15.109559	0.000182	1.816281	0.615373	-0.014563
 618	3.0850e-01	15.3300	15.000334	0.000272	2.724421	0.923059	-0.021845
 619	3.0900e-01	15.3028	14.745474	0.000636	6.356983	2.153804	-0.050972
 620	3.0950e-01	15.2787	14.636248	0.000272	2.724421	0.923059	-0.021845
 621	3.1000e-01	15.2386	14.709065	-0.000182	-1.816281	-0.615373	0.014563
 622	3.1050e-01	15.1809	14.854699	-0.000363	-3.632562	-1.230745	0.029127
 623	3.1100e-01	15.1327	14.527022	0.000817	8.173264	2.769177	-0.065535
 624	3.1150e-01	15.0990	14.709065	-0.000454	-4.540702	-1.538431	0.036409
 625	3.1200e-01	15.0397	14.527022	0.000454	4.540702	1.538431	-0.036409
 626	3.1250e-01	15.0445	14.344979	-0.000454	-4.540702	-1.538431	-0.036409
 627	3.1300e-01	14.9723	14.527022	-0.000454	-4.540702	-1.538431	0.036409
 628	3.1350e-01	14.9338	14.417796	0.000272	2.724421	0.923059	-0.021845
 629	3.1400e-01	14.8921	14.235754	0.000454	4.540702	1.538431	-0.036409
 630	3.1450e-01	14.8424	14.599839	-0.000908	-9.081404	-3.076863	0.072817
 631	3.1500e-01	14.8247	14.235754	0.000908	9.081404	3.076863	-0.072817
 632	3.1550e-01	14.7878	14.235754	-0.000000	-0.000000	-0.000000	0.000000
 633	3.1600e-01	14.7397	14.053711	0.000454	4.540702	1.538431	-0.036409
 634	3.1650e-01	14.7124	13.325539	0.001816	18.162808	6.153726	-0.145634
 635	3.1700e-01	14.6723	13.908076	-0.001453	-14.530246	-4.922981	0.116507
 636	3.1750e-01	14.6274	13.871668	0.000091	0.908140	0.307686	-0.007282
 637	3.1800e-01	14.5680	13.726034	0.000363	3.632562	1.230745	-0.029127
 638	3.1850e-01	14.5600	13.726034	-0.000000	-0.000000	-0.000000	0.000000
 639	3.1900e-01	14.4910	13.726034	-0.000000	-0.000000	-0.000000	0.000000
 640	3.1950e-01	14.4493	13.835259	-0.000272	-2.724421	-0.923059	0.021845
 641	3.2000e-01	14.4397	14.017302	-0.000454	-4.540702	-1.538431	0.036409
 642	3.2050e-01	14.3852	13.471173	0.001362	13.622106	4.615294	-0.109226
 643	3.2100e-01	14.3434	13.252722	0.000545	5.448842	1.846118	-0.043690
 644	3.2150e-01	14.2969	13.398356	-0.000363	-3.632562	-1.230745	0.029127
 645	3.2200e-01	14.2616	13.070679	0.000817	8.173264	2.769177	-0.065535
 646	3.2250e-01	14.2456	13.070679	-0.000000	-0.000000	-0.000000	0.000000
 647	3.2300e-01	14.1766	13.325539	-0.000636	-6.356983	-2.153804	0.050972
 648	3.2350e-01	14.1477	13.143496	0.000454	4.540702	1.538431	-0.036409
 649	3.2400e-01	14.0707	13.398356	-0.000636	-6.356983	-2.153804	0.050972
 650	3.2450e-01	14.0547	12.961453	0.001090	10.897685	3.692236	-0.087381
 651	3.2500e-01	14.0210	12.670185	0.000727	7.265123	2.461490	-0.058254
 652	3.2550e-01	13.9889	13.179905	-0.001271	-12.713966	-4.307608	0.101944
 653	3.2600e-01	13.9536	12.560959	0.001544	15.438387	5.230667	-0.123789
 654	3.2650e-01	13.8830	12.378916	0.000454	4.540702	1.538431	-0.036409
 655	3.2700e-01	13.8734	12.961453	-0.001453	-14.530246	-4.922981	0.116507
 656	3.2750e-01	13.8269	12.524550	0.001090	10.897685	3.692236	-0.087381
 657	3.2800e-01	13.7900	12.269690	0.000636	6.356983	2.153804	-0.050972
 658	3.2850e-01	13.7338	12.306099	-0.000091	-0.908140	-0.307686	0.007282
 659	3.2900e-01	13.7226	12.524550	-0.000545	-5.448842	-1.846118	0.043690
 660	3.2950e-01	13.6665	12.451733	0.000182	1.816281	0.615373	-0.014563
 661	3.3000e-01	13.6280	12.087648	0.000908	9.081404	3.076863	-0.072817
 662	3.3050e-01	13.5927	12.378916	-0.000727	-7.265123	-2.461490	0.058254
 663	3.3100e-01	13.5397	12.342508	0.000091	0.908140	0.307686	-0.007282
 664	3.3150e-01	13.5092	12.087648	0.000636	6.356983	2.153804	-0.050972
 665	3.3200e-01	13.4611	11.614336	0.001181	11.805825	3.999922	-0.094662
 666	3.3250e-01	13.4354	11.978422	-0.000908	-9.081404	-3.076863	0.072817
 667	3.3300e-01	13.4018	11.614336	0.000908	9.081404	3.076863	-0.072817
 668	3.3350e-01	13.3264	11.978422	-0.000908	-9.081404	-3.076863	0.072817
 669	3.3400e-01	13.3135	11.687153	0.000727	7.265123	2.461490	-0.058254
 670	3.3450e-01	13.2670	11.468702	0.000545	5.448842	1.846118	-0.043690
 671	3.3500e-01	13.2397	11.432293	0.000091	0.908140	0.307686	-0.007282
 672	3.3550e-01	13.1884	11.577927	-0.000363	-3.632562	-1.230745	0.029127
 673	3.3600e-01	13.1659	11.395885	0.000454	4.540702	1.538431	-0.036409
 674	3.3650e-01	13.1114	11.104616	0.000727	7.265123	2.461490	-0.058254
 675	3.3700e-01	13.0649	10.740530	0.000908	9.081404	3.076863	-0.072817
 676	3.3750e-01	13.0296	11.395885	-0.001635	-16.346527	-5.538353	0.131071
 677	3.3800e-01	12.9718	11.359476	0.000091	0.908140	0.307686	-0.007282
 678	3.3850e-01	12.9333	11.359476	-0.000000	-0.000000	-0.000000	0.000000
 679	3.3900e-01	12.9253	10.958982	0.000999	9.989544	3.384549	-0.080099
 680	3.3950e-01	12.8643	11.213842	-0.000636	-6.356983	-2.153804	0.050972
 681	3.4000e-01	12.8258	10.813347	0.000999	9.989544	3.384549	-0.080099
 682	3.4050e-01	12.8002	10.776939	0.000091	0.908140	0.307686	-0.007282
 683	3.4100e-01	12.7649	11.141025	-0.000908	-9.081404	-3.076863	0.072817
 684	3.4150e-01	12.6975	10.886165	0.000636	6.356983	2.153804	-0.050972
 685	3.4200e-01	12.6718	10.085176	0.001998	19.979089	6.769099	-0.160198
 686	3.4250e-01	12.6285	10.485670	-0.000999	-9.989544	-3.384549	0.080099
 687	3.4300e-01	12.5884	10.412853	0.000182	1.816281	0.615373	-0.014563
 688	3.4350e-01	12.5579	9.903133	0.001271	12.713966	4.307608	-0.101944
 689	3.4400e-01	12.5034	10.740530	-0.002089	-20.887229	-7.076785	0.167479
 690	3.4450e-01	12.4537	10.558487	0.000454	4.540702	1.538431	-0.036409
 691	3.4500e-01	12.4039	10.449262	0.000272	2.724421	0.923059	-0.021845
 692	3.4550e-01	12.3863	10.012359	0.001090	10.897685	3.692236	-0.087381
 693	3.4600e-01	12.3478	9.575456	0.001090	10.897685	3.692236	-0.087381
 694	3.4650e-01	12.3189	9.975950	-0.000999	-9.989544	-3.384549	0.080099
 695	3.4700e-01	12.2724	9.903133	0.000182	1.816281	0.615373	-0.014563
 696	3.4750e-01	12.2515	9.939542	-0.000091	-0.908140	-0.307686	0.007282
 697	3.4800e-01	12.1841	9.539047	0.000999	9.989544	3.384549	-0.080099
 698	3.4850e-01	12.1585	9.684681	-0.000363	-3.632562	-1.230745	0.029127
 699	3.4900e-01	12.1200	9.502639	0.000454	4.540702	1.538431	-0.036409
 700	3.4950e-01	12.0478	9.903133	-0.000999	-9.989544	-3.384549	0.080099
 701	3.5000e-01	12.0125	9.575456	0.000817	8.173264	2.769177	-0.065535
 702	3.5050e-01	11.9884	9.830316	-0.000636	-6.356983	-2.153804	0.050972
 703	3.5100e-01	11.9403	9.357004	0.001181	11.805825	3.999922	-0.094662
 704	3.5150e-01	11.9146	9.502639	-0.000363	-3.632562	-1.230745	0.029127
 705	3.5200e-01	11.8521	9.138553	0.000908	9.081404	3.076863	-0.072817
 706	3.5250e-01	11.8200	9.102144	0.000091	0.908140	0.307686	-0.007282
 707	3.5300e-01	11.7831	9.065736	0.000091	0.908140	0.307686	-0.007282
 708	3.5350e-01	11.7382	9.211370	-0.000363	-3.632562	-1.230745	0.029127
 709	3.5400e-01	11.7189	9.102144	0.000272	2.724421	0.923059	-0.021845
 710	3.5450e-01	11.6548	9.102144	-0.000000	-0.000000	-0.000000	0.000000
 711	3.5500e-01	11.6291	8.774467	0.000817	8.173264	2.769177	-0.065535
 712	3.5550e-01	11.5986	8.774467	-0.000000	-0.000000	-0.000000	0.000000
 713	3.5600e-01	11.5617	8.301156	0.001181	11.805825	3.999922	-0.094662
 714	3.5650e-01	11.5136	8.883693	-0.001453	-14.530246	-4.922981	0.116507
 715	3.5700e-01	11.4879	8.337564	0.001362	13.622106	4.615294	-0.109226
 716	3.5750e-01	11.4414	8.337564	-0.000000	-0.000000	-0.000000	0.000000
 717	3.5800e-01	11.3868	8.738058	-0.000999	-9.989544	-3.384549	0.080099
 718	3.5850e-01	11.3403	8.228338	0.001271	12.713966	4.307608	-0.101944
 719	3.5900e-01	11.3066	7.937070	0.000727	7.265123	2.461490	-0.058254
 720	3.5950e-01	11.2729	8.665241	-0.001816	-18.162808	-6.153726	0.145634
 721	3.6000e-01	11.2120	8.082704	0.001453	14.530246	4.922981	-0.116507
 722	3.6050e-01	11.1687	8.264747	-0.000454	-4.540702	-1.538431	0.036409
 723	3.6100e-01	11.1639	8.264747	-0.000000	-0.000000	-0.000000	0.000000
 724	3.6150e-01	11.1173	7.973478	0.000727	7.265123	2.461490	-0.058254
 725	3.6200e-01	11.0660	7.973478	-0.000000	-0.000000	-0.000000	0.000000
 726	3.6250e-01	11.0050	7.318124	0.001635	16.346527	5.538353	-0.131071
 727	3.6300e-01	10.9874	7.755027	-0.001090	-10.897685	-3.692236	0.087381
 728	3.6350e-01	10.9585	7.536575	0.000545	5.448842	1.846118	-0.043690
 729	3.6400e-01	10.9120	7.500167	0.000091	0.908140	0.307686	-0.007282
 730	3.6450e-01	10.8623	7.645801	-0.000363	-3.632562	-1.230745	0.029127
 731	3.6500e-01	10.8109	7.208898	0.001090	10.897685	3.692236	-0.087381
 732	3.6550e-01	10.7933	7.354533	-0.000363	-3.632562	-1.230745	0.029127
 733	3.6600e-01	10.7580	7.136081	0.000545	5.448842	1.846118	-0.043690
 734	3.6650e-01	10.6986	7.427350	-0.000727	-7.265123	-2.461490	0.058254
 735	3.6700e-01	10.6585	6.990447	0.001090	10.897685	3.692236	-0.087381
 736	3.6750e-01	10.6200	6.990447	-0.000000	-0.000000	-0.000000	0.000000
 737	3.6800e-01	10.5911	7.136081	-0.000363	-3.632562	-1.230745	0.029127
 738	3.6850e-01	10.5414	6.662770	0.001181	11.805825	3.999922	-0.094662
 739	3.6900e-01	10.5141	6.626361	0.000091	0.908140	0.307686	-0.007282
 740	3.6950e-01	10.4532	6.917630	-0.000727	-7.265123	-2.461490	0.058254
 741	3.7000e-01	10.4259	6.517135	0.000999	9.989544	3.384549	-0.080099
 742	3.7050e-01	10.3698	6.589952	-0.000182	-1.816281	-0.615373	0.014563
 743	3.7100e-01	10.3553	6.881221	-0.000727	-7.265123	-2.461490	0.058254
 744	3.7150e-01	10.2976	6.080232	0.001998	19.979089	6.769099	-0.160198
 745	3.7200e-01	10.2446	6.189458	-0.000272	-2.724421	-0.923059	0.021845
 746	3.7250e-01	10.2109	6.371501	-0.000454	-4.540702	-1.538431	0.036409
 747	3.7300e-01	10.1853	5.788964	0.001453	14.530246	4.922981	-0.116507
 748	3.7350e-01	10.1452	6.189458	-0.000999	-9.989544	-3.384549	0.080099
 749	3.7400e-01	10.1115	6.480727	-0.000727	-7.265123	-2.461490	0.058254
 750	3.7450e-01	10.0698	5.861781	0.001544	15.438387	5.230667	-0.123789
 751	3.7500e-01	10.0425	6.189458	-0.000817	-8.173264	-2.769177	0.065535
 752	3.7550e-01	9.9976	5.643329	0.001362	13.622106	4.615294	-0.109226
 753	3.7600e-01	9.9318	5.752555	-0.000272	-2.724421	-0.923059	0.021845
 754	3.7650e-01	9.8885	5.534104	0.000545	5.448842	1.846118	-0.043690
 755	3.7700e-01	9.8596	5.606921	-0.000182	-1.816281	-0.615373	0.014563
 756	3.7750e-01	9.8356	5.170018	0.001090	10.897685	3.692236	-0.087381
 757	3.7800e-01	9.7730	5.242835	-0.000182	-1.816281	-0.615373	0.014563
 758	3.7850e-01	9.7553	5.388469	-0.000363	-3.632562	-1.230745	0.029127
 759	3.7900e-01	9.7345	5.170018	0.000545	5.448842	1.846118	-0.043690
 760	3.7950e-01	9.6992	5.242835	-0.000182	-1.816281	-0.615373	0.014563
 761	3.8000e-01	9.6302	4.769524	0.001181	11.805825	3.999922	-0.094662
 762	3.8050e-01	9.5773	5.352061	-0.001453	-14.530246	-4.922981	0.116507
 763	3.8100e-01	9.5388	5.060792	0.000727	7.265123	2.461490	-0.058254
 764	3.8150e-01	9.5067	5.170018	-0.000272	-2.724421	-0.923059	0.021845
 765	3.8200e-01	9.4698	4.733115	0.001090	10.897685	3.692236	-0.087381
 766	3.8250e-01	9.4201	4.623889	0.000272	2.724421	0.923059	-0.021845
 767	3.8300e-01	9.3848	4.733115	-0.000272	-2.724421	-0.923059	0.021845
 768	3.8350e-01	9.3431	4.405438	0.000817	8.173264	2.769177	-0.065535
 769	3.8400e-01	9.3206	4.332621	0.000182	1.816281	0.615373	-0.014563
 770	3.8450e-01	9.2789	4.441846	-0.000272	-2.724421	-0.923059	0.021845
 771	3.8500e-01	9.2147	4.405438	0.000091	0.908140	0.307686	-0.007282
 772	3.8550e-01	9.1874	4.004943	0.000999	9.989544	3.384549	-0.080099
 773	3.8600e-01	9.1570	4.077761	-0.000182	-1.816281	-0.615373	0.014563
 774	3.8650e-01	9.1056	4.478255	-0.000999	-9.989544	-3.384549	0.080099
 775	3.8700e-01	9.0639	3.640858	0.002089	20.887229	7.076785	-0.167479
 776	3.8750e-01	9.0559	3.895718	-0.000636	-6.356983	-2.153804	0.050972
 777	3.8800e-01	8.9933	3.713675	0.000454	4.540702	1.538431	-0.036409
 778	3.8850e-01	8.9580	3.604449	0.000272	2.724421	0.923059	-0.021845
 779	3.8900e-01	8.9051	4.150578	-0.001362	-13.622106	-4.615294	0.109226
 780	3.8950e-01	8.8602	3.750083	0.000999	9.989544	3.384549	-0.080099
 781	3.9000e-01	8.8377	3.531632	0.000545	5.448842	1.846118	-0.043690
 782	3.9050e-01	8.8008	3.240363	0.000727	7.265123	2.461490	-0.058254
 783	3.9100e-01	8.7559	3.203955	0.000091	0.908140	0.307686	-0.007282
 784	3.9150e-01	8.7078	3.349589	-0.000363	-3.632562	-1.230745	0.029127
 785	3.9200e-01	8.6596	3.568041	-0.000545	-5.448842	-1.846118	0.043690
 786	3.9250e-01	8.6211	2.949095	0.001544	15.438387	5.230667	-0.123789
 787	3.9300e-01	8.5907	3.203955	-0.000636	-6.356983	-2.153804	0.050972
 788	3.9350e-01	8.5425	3.349589	-0.000363	-3.632562	-1.230745	0.029127
 789	3.9400e-01	8.5153	2.985503	0.000908	9.081404	3.076863	-0.072817
 790	3.9450e-01	8.4367	3.021912	-0.000091	-0.908140	-0.307686	0.007282
 791	3.9500e-01	8.4367	2.621418	0.000999	9.989544	3.384549	-0.080099
 792	3.9550e-01	8.3950	2.366558	0.000636	6.356983	2.153804	-0.050972
 793	3.9600e-01	8.3340	2.839869	-0.001181	-11.805825	-3.999922	0.094662
 794	3.9650e-01	8.3196	2.220923	0.001544	15.438387	5.230667	-0.123789
 795	3.9700e-01	8.2827	2.694235	-0.001181	-11.805825	-3.999922	0.094662
 796	3.9750e-01	8.2361	2.002472	0.001725	17.254668	5.846040	-0.138353
 797	3.9800e-01	8.1992	2.439375	-0.001090	-10.897685	-3.692236	0.087381
 798	3.9850e-01	8.1431	1.856837	0.001453	14.530246	4.922981	-0.116507
 799	3.9900e-01	8.1190	1.966063	-0.000272	-2.724421	-0.923059	0.021845
 800	3.9950e-01	8.0837	2.184515	-0.000545	-5.448842	-1.846118	0.043690
 801	4.0000e-01	8.0131	2.002472	0.000454	4.540702	1.538431	-0.036409
 802	4.0050e-01	7.9730	2.148106	-0.000363	-3.632562	-1.230745	0.029127
 803	4.0100e-01	7.9474	1.492752	0.001635	16.346527	5.538353	-0.131071
 804	4.0150e-01	7.9153	1.601977	-0.000272	-2.724421	-0.923059	0.021845
 805	4.0200e-01	7.8720	1.638386	-0.000091	-0.908140	-0.307686	0.007282
 806	4.0250e-01	7.8158	1.419935	0.000545	5.448842	1.846118	-0.043690
 807	4.0300e-01	7.7966	1.638386	-0.000545	-5.448842	-1.846118	0.043690
 808	4.0350e-01	7.7500	1.201483	0.001090	10.897685	3.692236	-0.087381
 809	4.0400e-01	7.7019	1.165074	0.000091	0.908140	0.307686	-0.007282
 810	4.0450e-01	7.6714	1.347117	-0.000454	-4.540702	-1.538431	0.036409
 811	4.0500e-01	7.6185	0.910214	0.001090	10.897685	3.692236	-0.087381
 812	4.0550e-01	7.5912	1.310709	-0.000999	-9.989544	-3.384549	0.080099
 813	4.0600e-01	7.5303	0.946623	0.000908	9.081404	3.076863	-0.072817
 814	4.0650e-01	7.5078	1.055849	-0.000272	-2.724421	-0.923059	0.021845
 815	4.0700e-01	7.4613	0.873806	0.000454	4.540702	1.538431	-0.036409
 816	4.0750e-01	7.4260	0.509720	0.000908	9.081404	3.076863	-0.072817
 817	4.0800e-01	7.3666	0.364086	0.000363	3.632562	1.230745	-0.029127
 818	4.0850e-01	7.3297	0.400494	-0.000091	-0.908140	-0.307686	0.007282
 819	4.0900e-01	7.3041	0.400494	-0.000000	-0.000000	-0.000000	0.000000
 820	4.0950e-01	7.2495	0.218451	0.000454	4.540702	1.538431	-0.036409
 821	4.1000e-01	7.2239	0.364086	-0.000363	-3.632562	-1.230745	0.029127
 822	4.1050e-01	7.1693	0.436903	-0.000182	-1.816281	-0.615373	0.014563
 823	4.1100e-01	7.1372	0.364086	0.000182	1.816281	0.615373	-0.014563
 824	4.1150e-01	7.0971	0.000000	0.000908	9.081404	3.076863	-0.072817
 825	4.1200e-01	7.0522	-0.036409	0.000091	0.908140	0.307686	-0.007282
 826	4.1250e-01	7.0089	0.218451	-0.000636	-6.356983	-2.153804	0.050972
 827	4.1300e-01	6.9736	-0.291269	0.001271	12.713966	4.307608	-0.101944
 828	4.1350e-01	6.9415	-0.182043	-0.000272	-2.724421	-0.923059	0.021845
 829	4.1400e-01	6.8902	0.072817	-0.000636	-6.356983	-2.153804	0.050972
 830	4.1450e-01	6.8629	-0.254860	0.000817	8.173264	2.769177	-0.065535
 831	4.1500e-01	6.8421	-0.728172	0.001181	11.805825	3.999922	-0.094662
 832	4.1550e-01	6.7971	-0.546129	-0.000454	-4.540702	-1.538431	0.036409
 833	4.1600e-01	6.7378	-1.019440	0.001181	11.805825	3.999922	-0.094662
 834	4.1650e-01	6.7249	-0.691763	-0.000817	-8.173264	-2.769177	0.065535
 835	4.1700e-01	6.6977	-1.201483	0.001271	12.713966	4.307608	-0.101944
 836	4.1750e-01	6.6383	-1.274300	0.000182	1.816281	0.615373	-0.014563
 837	4.1800e-01	6.5918	-1.201483	-0.000182	-1.816281	-0.615373	0.014563
 838	4.1850e-01	6.5485	-1.201483	-0.000000	-0.000000	-0.000000	0.000000
 839	4.1900e-01	6.5148	-1.820429	0.001544	15.438387	5.230667	-0.123789
 840	4.1950e-01	6.4763	-1.201483	-0.001544	-15.438387	-5.230667	0.123789
 841	4.2000e-01	6.4474	-1.601977	0.000999	9.989544	3.384549	-0.080099
 842	4.2050e-01	6.3848	-1.565569	-0.000091	-0.908140	-0.307686	0.007282
 843	4.2100e-01	6.3431	-1.165074	-0.000999	-9.989544	-3.384549	0.080099
 844	4.2150e-01	6.2934	-1.784020	0.001544	15.438387	5.230667	-0.123789
 845	4.2200e-01	6.2693	-2.038880	0.000636	6.356983	2.153804	-0.050972
 846	4.2250e-01	6.2132	-1.674795	-0.000908	-9.081404	-3.076863	0.072817
 847	4.2300e-01	6.1779	-1.565569	-0.000272	-2.724421	-0.923059	0.021845
 848	4.2350e-01	6.1458	-2.002472	0.001090	10.897685	3.692236	-0.087381
 849	4.2400e-01	6.0881	-2.111697	0.000272	2.724421	0.923059	-0.021845
 850	4.2450e-01	6.0672	-2.366558	0.000636	6.356983	2.153804	-0.050972
 851	4.2500e-01	6.0239	-2.075289	-0.000727	-7.265123	-2.461490	0.058254
 852	4.2550e-01	5.9629	-2.330149	0.000636	6.356983	2.153804	-0.050972
 853	4.2600e-01	5.9501	-2.621418	0.000727	7.265123	2.461490	-0.058254
 854	4.2650e-01	5.8972	-2.585009	-0.000091	-0.908140	-0.307686	0.007282
 855	4.2700e-01	5.8554	-2.330149	-0.000636	-6.356983	-2.153804	0.050972
 856	4.2750e-01	5.8153	-2.730643	0.000999	9.989544	3.384549	-0.080099
 857	4.2800e-01	5.7736	-3.240363	0.001271	12.713966	4.307608	-0.101944
 858	4.2850e-01	5.7464	-2.949095	-0.000727	-7.265123	-2.461490	0.058254
 859	4.2900e-01	5.7223	-3.203955	0.000636	6.356983	2.153804	-0.050972
 860	4.2950e-01	5.7030	-2.839869	-0.000908	-9.081404	-3.076863	0.072817
 861	4.3000e-01	5.6260	-3.167546	0.000817	8.173264	2.769177	-0.065535
 862	4.3050e-01	5.5843	-3.531632	0.000908	9.081404	3.076863	-0.072817
 863	4.3100e-01	5.5683	-3.131138	-0.000999	-9.989544	-3.384549	0.080099
 864	4.3150e-01	5.4993	-3.458815	0.000817	8.173264	2.769177	-0.065535
 865	4.3200e-01	5.4464	-3.495223	0.000091	0.908140	0.307686	-0.007282
 866	4.3250e-01	5.4255	-3.859309	0.000908	9.081404	3.076863	-0.072817
 867	4.3300e-01	5.4031	-3.968535	0.000272	2.724421	0.923059	-0.021845
 868	4.3350e-01	5.3565	-3.495223	-0.001181	-11.805825	-3.999922	0.094662
 869	4.3400e-01	5.3100	-3.640858	0.000363	3.632562	1.230745	-0.029127
 870	4.3450e-01	5.2474	-4.150578	0.001271	12.713966	4.307608	-0.101944
 871	4.3500e-01	5.2218	-4.004943	-0.000363	-3.632562	-1.230745	0.029127
 872	4.3550e-01	5.1945	-4.223395	0.000545	5.448842	1.846118	-0.043690
 873	4.3600e-01	5.1223	-4.514664	0.000727	7.265123	2.461490	-0.058254
 874	4.3650e-01	5.0918	-3.786492	-0.001816	-18.162808	-6.153726	0.145634
 875	4.3700e-01	5.0774	-4.296212	0.001271	12.713966	4.307608	-0.101944
 876	4.3750e-01	5.0389	-4.805932	0.001271	12.713966	4.307608	-0.101944
 877	4.3800e-01	4.9844	-4.987975	0.000454	4.540702	1.538431	-0.036409
 878	4.3850e-01	4.9362	-4.805932	-0.000454	-4.540702	-1.538431	0.036409
 879	4.3900e-01	4.9073	-4.842341	0.000091	0.908140	0.307686	-0.007282
 880	4.3950e-01	4.8801	-5.060792	0.000545	5.448842	1.846118	-0.043690
 881	4.4000e-01	4.8448	-5.024384	-0.000091	-0.908140	-0.307686	0.007282
 882	4.4050e-01	4.7918	-5.133609	0.000272	2.724421	0.923059	-0.021845
 883	4.4100e-01	4.7453	-5.388469	0.000636	6.356983	2.153804	-0.050972
 884	4.4150e-01	4.6988	-5.206427	-0.000454	-4.540702	-1.538431	0.036409
 885	4.4200e-01	4.6635	-5.315652	0.000272	2.724421	0.923059	-0.021845
 886	4.4250e-01	4.5945	-5.570512	0.000636	6.356983	2.153804	-0.050972
 887	4.4300e-01	4.5689	-5.279244	-0.000727	-7.265123	-2.461490	0.058254
 888	4.4350e-01	4.5512	-5.788964	0.001271	12.713966	4.307608	-0.101944
 889	4.4400e-01	4.5063	-5.934598	0.000363	3.632562	1.230745	-0.029127
 890	4.4450e-01	4.4662	-5.788964	-0.000363	-3.632562	-1.230745	0.029127
 891	4.4500e-01	4.4261	-6.007415	0.000545	5.448842	1.846118	-0.043690
 892	4.4550e-01	4.3972	-6.189458	0.000454	4.540702	1.538431	-0.036409
 893	4.4600e-01	4.3619	-5.898189	-0.000727	-7.265123	-2.461490	0.058254
 894	4.4650e-01	4.3298	-6.553544	0.001635	16.346527	5.538353	-0.131071
 895	4.4700e-01	4.2833	-6.371501	-0.000454	-4.540702	-1.538431	0.036409
 896	4.4750e-01	4.2352	-6.298684	-0.000182	-1.816281	-0.615373	0.014563
 897	4.4800e-01	4.2015	-6.189458	-0.000272	-2.724421	-0.923059	0.021845
 898	4.4850e-01	4.1742	-6.808404	0.001544	15.438387	5.230667	-0.123789
 899	4.4900e-01	4.1133	-6.662770	-0.000363	-3.632562	-1.230745	0.029127
 900	4.4950e-01	4.0667	-6.917630	0.000636	6.356983	2.153804	-0.050972
 901	4.5000e-01	4.0298	-7.208898	0.000727	7.265123	2.461490	-0.058254
 902	4.5050e-01	3.9833	-6.917630	-0.000727	-7.265123	-2.461490	0.058254
 903	4.5100e-01	3.9400	-7.099673	0.000454	4.540702	1.538431	-0.036409
 904	4.5150e-01	3.8903	-6.371501	-0.001816	-18.162808	-6.153726	0.145634
 905	4.5200e-01	3.8646	-7.682210	0.003269	32.693054	11.076707	-0.262142
 906	4.5250e-01	3.8534	-7.172490	-0.001271	-12.713966	-4.307608	0.101944
 907	4.5300e-01	3.7732	-7.390941	0.000545	5.448842	1.846118	-0.043690
 908	4.5350e-01	3.7491	-7.354533	-0.000091	-0.908140	-0.307686	0.007282
 909	4.5400e-01	3.7411	-8.046296	0.001725	17.254668	5.846040	-0.138353
 910	4.5450e-01	3.6913	-7.973478	-0.000182	-1.816281	-0.615373	0.014563
 911	4.5500e-01	3.6240	-7.609393	-0.000908	-9.081404	-3.076863	0.072817
 912	4.5550e-01	3.5839	-7.609393	-0.000000	-0.000000	-0.000000	0.000000
 913	4.5600e-01	3.5470	-8.228338	0.001544	15.438387	5.230667	-0.123789
 914	4.5650e-01	3.4956	-8.228338	-0.000000	-0.000000	-0.000000	0.000000
 915	4.5700e-01	3.4411	-8.483198	0.000636	6.356983	2.153804	-0.050972
 916	4.5750e-01	3.4058	-8.628833	0.000363	3.632562	1.230745	-0.029127
 917	4.5800e-01	3.3785	-8.191930	-0.001090	-10.897685	-3.692236	0.087381
 918	4.5850e-01	3.3448	-8.956510	0.001907	19.070948	6.461412	-0.152916
 919	4.5900e-01	3.3127	-8.628833	-0.000817	-8.173264	-2.769177	0.065535
 920	4.5950e-01	3.2694	-8.665241	0.000091	0.908140	0.307686	-0.007282
 921	4.6000e-01	3.2422	-9.029327	0.000908	9.081404	3.076863	-0.072817
 922	4.6050e-01	3.1924	-9.284187	0.000636	6.356983	2.153804	-0.050972
 923	4.6100e-01	3.1331	-8.810876	-0.001181	-11.805825	-3.999922	0.094662
 924	4.6150e-01	3.1010	-9.211370	0.000999	9.989544	3.384549	-0.080099
 925	4.6200e-01	3.0898	-9.502639	0.000727	7.265123	2.461490	-0.058254
 926	4.6250e-01	3.0176	-9.393413	-0.000272	-2.724421	-0.923059	0.021845
 927	4.6300e-01	2.9919	-9.830316	0.001090	10.897685	3.692236	-0.087381
 928	4.6350e-01	2.9486	-9.466230	-0.000908	-9.081404	-3.076863	0.072817
 929	4.6400e-01	2.8972	-9.393413	-0.000182	-1.816281	-0.615373	0.014563
 930	4.6450e-01	2.8684	-9.757499	0.000908	9.081404	3.076863	-0.072817
 931	4.6500e-01	2.8347	-10.267219	0.001271	12.713966	4.307608	-0.101944
 932	4.6550e-01	2.8058	-10.012359	-0.000636	-6.356983	-2.153804	0.050972
 933	4.6600e-01	2.7497	-9.939542	-0.000182	-1.816281	-0.615373	0.014563
 934	4.6650e-01	2.6967	-10.085176	0.000363	3.632562	1.230745	-0.029127
 935	4.6700e-01	2.6727	-10.594896	0.001271	12.713966	4.307608	-0.101944
 936	4.6750e-01	2.6374	-10.631304	0.000091	0.908140	0.307686	-0.007282
 937	4.6800e-01	2.6005	-10.740530	0.000272	2.724421	0.923059	-0.021845
 938	4.6850e-01	2.5427	-11.104616	0.000908	9.081404	3.076863	-0.072817
 939	4.6900e-01	2.4946	-10.667713	-0.001090	-10.897685	-3.692236	0.087381
 940	4.6950e-01	2.4609	-10.922573	0.000636	6.356983	2.153804	-0.050972
 941	4.7000e-01	2.4176	-11.068207	0.000363	3.632562	1.230745	-0.029127
 942	4.7050e-01	2.3791	-11.250250	0.000454	4.540702	1.538431	-0.036409
 943	4.7100e-01	2.3245	-11.031799	-0.000545	-5.448842	-1.846118	0.043690
 944	4.7150e-01	2.3005	-11.395885	0.000908	9.081404	3.076863	-0.072817
 945	4.7200e-01	2.2876	-11.942013	0.001362	13.622106	4.615294	-0.109226
 946	4.7250e-01	2.2267	-11.323067	-0.001544	-15.438387	-5.230667	0.123789
 947	4.7300e-01	2.1818	-11.759970	0.001090	10.897685	3.692236	-0.087381
 948	4.7350e-01	2.1384	-11.942013	0.000454	4.540702	1.538431	-0.036409
 949	4.7400e-01	2.1015	-11.687153	-0.000636	-6.356983	-2.153804	0.050972
 950	4.7450e-01	2.0695	-11.869196	0.000454	4.540702	1.538431	-0.036409
 951	4.7500e-01	2.0133	-12.196873	0.000817	8.173264	2.769177	-0.065535
 952	4.7550e-01	1.9844	-11.942013	-0.000636	-6.356983	-2.153804	0.050972
 953	4.7600e-01	1.9604	-12.051239	0.000272	2.724421	0.923059	-0.021845
 954	4.7650e-01	1.9122	-12.670185	0.001544	15.438387	5.230667	-0.123789
 955	4.7700e-01	1.8786	-12.342508	-0.000817	-8.173264	-2.769177	0.065535
 956	4.7750e-01	1.8465	-12.706593	0.000908	9.081404	3.076863	-0.072817
 957	4.7800e-01	1.8176	-12.888636	0.000454	4.540702	1.538431	-0.036409
 958	4.7850e-01	1.7550	-12.670185	-0.000545	-5.448842	-1.846118	0.043690
 959	4.7900e-01	1.7310	-12.815819	0.000363	3.632562	1.230745	-0.029127
 960	4.7950e-01	1.6732	-13.325539	0.001271	12.713966	4.307608	-0.101944
 961	4.8000e-01	1.6331	-12.997862	-0.000817	-8.173264	-2.769177	0.065535
 962	4.8050e-01	1.5834	-13.689625	0.001725	17.254668	5.846040	-0.138353
 963	4.8100e-01	1.5449	-13.070679	-0.001544	-15.438387	-5.230667	0.123789
 964	4.8150e-01	1.5064	-13.398356	0.000817	8.173264	2.769177	-0.065535
 965	4.8200e-01	1.4823	-13.471173	0.000182	1.816281	0.615373	-0.014563
 966	4.8250e-01	1.4181	-13.835259	0.000908	9.081404	3.076863	-0.072817
 967	4.8300e-01	1.3877	-13.616808	-0.000545	-5.448842	-1.846118	0.043690
 968	4.8350e-01	1.3604	-13.944485	0.000817	8.173264	2.769177	-0.065535
 969	4.8400e-01	1.3299	-14.272162	0.000817	8.173264	2.769177	-0.065535
 970	4.8450e-01	1.2802	-14.344979	0.000182	1.816281	0.615373	-0.014563
 971	4.8500e-01	1.2112	-14.527022	0.000454	4.540702	1.538431	-0.036409
 972	4.8550e-01	1.1743	-14.563431	0.000091	0.908140	0.307686	-0.007282
 973	4.8600e-01	1.1534	-14.672657	0.000272	2.724421	0.923059	-0.021845
 974	4.8650e-01	1.1326	-14.709065	0.000091	0.908140	0.307686	-0.007282
 975	4.8700e-01	1.0829	-14.563431	-0.000363	-3.632562	-1.230745	0.029127
 976	4.8750e-01	1.0219	-15.036742	0.001181	11.805825	3.999922	-0.094662
 977	4.8800e-01	0.9625	-15.255194	0.000545	5.448842	1.846118	-0.043690
 978	4.8850e-01	0.9690	-15.291602	-0.000091	-0.908140	-0.307686	-0.007282
 979	4.8900e-01	0.9240	-15.400828	0.000272	2.724421	0.923059	-0.021845
 980	4.8950e-01	0.8775	-15.328011	-0.000182	-1.816281	-0.615373	0.014563
 981	4.9000e-01	0.8182	-15.473645	0.000363	3.632562	1.230745	-0.029127
 982	4.9050e-01	0.7829	-15.473645	-0.000000	-0.000000	-0.000000	0.000000
 983	4.9100e-01	0.7540	-15.692097	0.000545	5.448842	1.846118	-0.043690
 984	4.9150e-01	0.7107	-15.692097	-0.000000	-0.000000	-0.000000	0.000000
 985	4.9200e-01	0.6593	-16.056182	0.000908	9.081404	3.076863	-0.072817
 986	4.9250e-01	0.6032	-15.728505	-0.000817	-8.173264	-2.769177	0.065535
 987	4.9300e-01	0.5727	-16.274634	0.001362	13.622106	4.615294	-0.109226
 988	4.9350e-01	0.5374	-16.420268	0.000363	3.632562	1.230745	-0.029127
 989	4.9400e-01	0.4989	-16.565903	0.000363	3.632562	1.230745	-0.029127
 990	4.9450e-01	0.4508	-16.347451	-0.000545	-5.448842	-1.846118	0.043690
 991	4.9500e-01	0.4347	-17.075623	0.001816	18.162808	6.153726	-0.145634
 992	4.9550e-01	0.4091	-17.039214	-0.000091	-0.908140	-0.307686	0.007282
 993	4.9600e-01	0.3353	-17.039214	-0.000000	-0.000000	-0.000000	0.000000
 994	4.9650e-01	0.3048	-16.966397	-0.000182	-1.816281	-0.615373	0.014563
 995	4.9700e-01	0.2791	-17.621751	0.001635	16.346527	5.538353	-0.131071
 996	4.9750e-01	0.2326	-17.002805	-0.001544	-15.438387	-5.230667	0.123789
 997	4.9800e-01	0.2037	-17.366891	0.000908	9.081404	3.076863	-0.072817
 998	4.9850e-01	0.1717	-17.621751	0.000636	6.356983	2.153804	-0.050972
 999	4.9900e-01	0.1203	-17.585343	-0.000091	-0.908140	-0.307686	0.007282
1000	4.9950e-01	0.0754	-17.767386	0.000454	4.540702	1.538431	-0.036409
1001	5.0000e-01	0.0513	-18.131471	0.000454	4.540702	1.538431	-0.072817

PMax (uC/cm2):	4.34e+01
Pr (uC/cm2):	3.60e+00
-Pr (uC/cm2):	0.00e+00
PLoss (uC/cm2):	0.00e+00
C (Max-Eff) (nF):	2.17e-01
K (Eff):	7.34e+02
Vert. (+/-Pr) Shift (uC/cm2):	1.80e+00
Offset (uC/cm2):	2.17e+01

A (Loop Area - uC/cm2·Volts):	3.26e-01



Hysteresis Version: 5.48.1 - Radiant Technologies, Inc., 1999 - 9/12/24

