»»»»»»»»»»»»»»»»»»»»»»»»»»»»»»»»»»»» Hysteresis ««««««««««««««««««««««««««««««««««««
»»»  Executed Version:	5.48.1
»»»  Vision Version:	5.48.4 (R)
»»»  Vision Compiled:	9/18/24
»»»  Driver Version:	5.47.0
»»»  Windows Version:	Windows 8 or 8.1
»»»  Processor Information:	x86 (AMD or Intel) - 32 Processors
»»»  Tester Name:	PMF21124-494 (100V)
»»»  Tester S/N:	PMF21124-494
»»»  Internal Amp Type:	100V RevK 270k
»»»  Internal Amp S/N:	iAB2-596/K     
»»»  Execution Count:	1
»»»»»»»»»»»»»»»»»»»»»»»»»»»»»»»»»»»»»»»»»»««««««««««««««««««««««««««««««««««««««««««

Stored:	10/8/2025 - 20:3:2
Configured:	10/08/25 04:22:59 PM
Executed:	10/08/25 08:02:37 PM

»»»»»»»»»»»»»»»»»»»»»»»»»»»»»»»»»»» Sample Info ««««««««««««««««««««««««««««««««««««
Sample Name:	Int. Ref. Ferroelectric
Lot Name:	N/A
Wafer Name:	N/A
Die Row/Column:	0/0
Capacitor Number:	0
Sample Area (cm2):	1.00e-04
Sample Thickness (microns):	3.00e-01

Amplifier:	Internal

»»»»»»»»»»»»»»»»»»»»»»»»»»»»»»»»»»» Tester Info «««««««««««««««««««««««««««««««««««
Tester Name:	PMF21124-494 (100V)
Tester Serial Number:	PMF21124-494
Return Signal Amp. Level:	0.02 [Index: 2]

»»»»»»»»»»»»»»»»»»»»»»»»»»»»»»»» Hysteresis Info ««««««««««««««««««««««««««««««««««
Task Name:	Hyste-8
Volts:	20.00
Field:	666.67 (kV/cm)
DCBias:	0.00
DCField:	0.00 (kV/cm)
Hysteresis Period (ms):	5.00e-01
Preset:	Enabled
Preset Delay (ms):	1.00e+03
Profile:	Standard Monopolar

»»»»»»»»»»»»»»»»»»»»»»»»»»»»»»»»»»»»»» Data «««««««««««««««««««««««««««««««««««««««
Points:	1001

Valid Data

Point	Time (ms)	Drive Voltage	Measured Polarization (uC/cm2)	Capacitance (uF)	Normalized Capacitance (uF/cm2)	Dielectric Constant	Instantaneous Current (mA)
   1	0.0000e+00	0.0193	-10.795143	0.000271	2.708242	0.917577	0.021845
   2	5.0000e-04	0.0626	-10.685917	0.000271	2.708242	0.917577	0.021845
   3	1.0000e-03	0.1251	-10.649509	0.000090	0.902747	0.305859	0.007282
   4	1.5000e-03	0.1540	-10.722326	-0.000181	-1.805495	-0.611718	-0.014563
   5	2.0000e-03	0.2086	-10.467466	0.000632	6.319231	2.141013	0.050972
   6	2.5000e-03	0.2599	-10.904369	-0.001083	-10.832968	-3.670309	-0.087381
   7	3.0000e-03	0.2920	-10.321832	0.001444	14.443957	4.893745	0.116507
   8	3.5000e-03	0.3257	-10.722326	-0.000993	-9.930220	-3.364450	-0.080099
   9	4.0000e-03	0.3610	-9.884929	0.002076	20.763188	7.034758	0.167479
  10	4.5000e-03	0.3930	-10.103380	-0.000542	-5.416484	-1.835154	-0.043690
  11	5.0000e-03	0.4396	-10.358240	-0.000632	-6.319231	-2.141013	-0.050972
  12	5.5000e-03	0.4781	-10.321832	0.000090	0.902747	0.305859	0.007282
  13	6.0000e-03	0.5182	-10.358240	-0.000090	-0.902747	-0.305859	-0.007282
  14	6.5000e-03	0.5519	-10.103380	0.000632	6.319231	2.141013	0.050972
  15	7.0000e-03	0.5920	-9.739294	0.000903	9.027473	3.058591	0.072817
  16	7.5000e-03	0.6561	-10.176197	-0.001083	-10.832968	-3.670309	-0.087381
  17	8.0000e-03	0.6802	-9.812111	0.000903	9.027473	3.058591	0.072817
  18	8.5000e-03	0.7059	-9.957746	-0.000361	-3.610989	-1.223436	-0.029127
  19	9.0000e-03	0.7716	-9.812111	0.000361	3.610989	1.223436	0.029127
  20	9.5000e-03	0.8085	-9.630069	0.000451	4.513736	1.529295	0.036409
  21	1.0000e-02	0.8358	-9.666477	-0.000090	-0.902747	-0.305859	-0.007282
  22	1.0500e-02	0.8695	-9.375209	0.000722	7.221978	2.446873	0.058254
  23	1.1000e-02	0.9160	-9.702886	-0.000812	-8.124726	-2.752732	-0.065535
  24	1.1500e-02	0.9722	-9.557251	0.000361	3.610989	1.223436	0.029127
  25	1.2000e-02	1.0026	-9.484434	0.000181	1.805495	0.611718	0.014563
  26	1.2500e-02	1.0460	-9.411617	0.000181	1.805495	0.611718	0.014563
  27	1.3000e-02	1.0893	-9.338800	0.000181	1.805495	0.611718	0.014563
  28	1.3500e-02	1.1214	-9.120349	0.000542	5.416484	1.835154	0.043690
  29	1.4000e-02	1.1695	-9.484434	-0.000903	-9.027473	-3.058591	-0.072817
  30	1.4500e-02	1.1968	-9.229574	0.000632	6.319231	2.141013	0.050972
  31	1.5000e-02	1.2561	-9.120349	0.000271	2.708242	0.917577	0.021845
  32	1.5500e-02	1.2657	-9.047531	0.000181	1.805495	0.611718	0.014563
  33	1.6000e-02	1.3379	-8.974714	0.000181	1.805495	0.611718	0.014563
  34	1.6500e-02	1.3556	-8.792671	0.000451	4.513736	1.529295	0.036409
  35	1.7000e-02	1.4214	-8.829080	-0.000090	-0.902747	-0.305859	-0.007282
  36	1.7500e-02	1.4599	-8.647037	0.000451	4.513736	1.529295	0.036409
  37	1.8000e-02	1.4615	-8.901897	-0.000632	-6.319231	-2.141013	-0.050972
  38	1.8500e-02	1.5288	-8.610628	0.000722	7.221978	2.446873	0.058254
  39	1.9000e-02	1.5914	-8.683446	-0.000181	-1.805495	-0.611718	-0.014563
  40	1.9500e-02	1.5914	-8.355768	-0.000812	-8.124726	-2.752732	0.065535
  41	2.0000e-02	1.6427	-8.901897	-0.001354	-13.541209	-4.587886	-0.109226
  42	2.0500e-02	1.6604	-8.610628	0.000722	7.221978	2.446873	0.058254
  43	2.1000e-02	1.7149	-8.355768	0.000632	6.319231	2.141013	0.050972
  44	2.1500e-02	1.7566	-8.464994	-0.000271	-2.708242	-0.917577	-0.021845
  45	2.2000e-02	1.8048	-8.319360	0.000361	3.610989	1.223436	0.029127
  46	2.2500e-02	1.8401	-8.319360	0.000000	0.000000	0.000000	0.000000
  47	2.3000e-02	1.8802	-8.210134	0.000271	2.708242	0.917577	0.021845
  48	2.3500e-02	1.9203	-8.355768	-0.000361	-3.610989	-1.223436	-0.029127
  49	2.4000e-02	1.9620	-8.355768	0.000000	0.000000	0.000000	0.000000
  50	2.4500e-02	2.0149	-8.173726	0.000451	4.513736	1.529295	0.036409
  51	2.5000e-02	2.0598	-8.028091	0.000361	3.610989	1.223436	0.029127
  52	2.5500e-02	2.0743	-7.554780	0.001174	11.735715	3.976168	0.094662
  53	2.6000e-02	2.1288	-7.882457	-0.000812	-8.124726	-2.752732	-0.065535
  54	2.6500e-02	2.1609	-7.955274	-0.000181	-1.805495	-0.611718	-0.014563
  55	2.7000e-02	2.1850	-7.773231	0.000451	4.513736	1.529295	0.036409
  56	2.7500e-02	2.2267	-7.591188	0.000451	4.513736	1.529295	0.036409
  57	2.8000e-02	2.2860	-7.299920	0.000722	7.221978	2.446873	0.058254
  58	2.8500e-02	2.3342	-7.554780	-0.000632	-6.319231	-2.141013	-0.050972
  59	2.9000e-02	2.3470	-7.882457	-0.000812	-8.124726	-2.752732	-0.065535
  60	2.9500e-02	2.4240	-7.809640	0.000181	1.805495	0.611718	0.014563
  61	3.0000e-02	2.4224	-7.664005	-0.000361	-3.610989	-1.223436	0.029127
  62	3.0500e-02	2.4834	-7.591188	0.000181	1.805495	0.611718	0.014563
  63	3.1000e-02	2.5074	-7.481963	0.000271	2.708242	0.917577	0.021845
  64	3.1500e-02	2.5555	-7.409145	0.000181	1.805495	0.611718	0.014563
  65	3.2000e-02	2.5940	-7.081468	0.000812	8.124726	2.752732	0.065535
  66	3.2500e-02	2.6325	-7.481963	-0.000993	-9.930220	-3.364450	-0.080099
  67	3.3000e-02	2.6775	-7.117877	0.000903	9.027473	3.058591	0.072817
  68	3.3500e-02	2.7320	-7.008651	0.000271	2.708242	0.917577	0.021845
  69	3.4000e-02	2.7625	-7.263511	-0.000632	-6.319231	-2.141013	-0.050972
  70	3.4500e-02	2.7882	-6.863017	0.000993	9.930220	3.364450	0.080099
  71	3.5000e-02	2.8315	-7.081468	-0.000542	-5.416484	-1.835154	-0.043690
  72	3.5500e-02	2.8764	-7.045060	0.000090	0.902747	0.305859	0.007282
  73	3.6000e-02	2.9277	-6.608157	0.001083	10.832968	3.670309	0.087381
  74	3.6500e-02	2.9662	-7.117877	-0.001264	-12.638462	-4.282027	-0.101944
  75	3.7000e-02	2.9871	-6.935834	0.000451	4.513736	1.529295	0.036409
  76	3.7500e-02	3.0352	-6.608157	0.000812	8.124726	2.752732	0.065535
  77	3.8000e-02	3.0801	-6.863017	-0.000632	-6.319231	-2.141013	-0.050972
  78	3.8500e-02	3.1042	-6.680974	0.000451	4.513736	1.529295	0.036409
  79	3.9000e-02	3.1732	-6.680974	0.000000	0.000000	0.000000	0.000000
  80	3.9500e-02	3.2004	-6.644565	0.000090	0.902747	0.305859	0.007282
  81	4.0000e-02	3.2277	-6.316888	0.000812	8.124726	2.752732	0.065535
  82	4.0500e-02	3.2774	-6.316888	0.000000	0.000000	0.000000	0.000000
  83	4.1000e-02	3.3336	-6.389705	-0.000181	-1.805495	-0.611718	-0.014563
  84	4.1500e-02	3.3737	-6.389705	0.000000	0.000000	0.000000	0.000000
  85	4.2000e-02	3.4042	-6.389705	0.000000	0.000000	0.000000	0.000000
  86	4.2500e-02	3.4555	-6.207662	0.000451	4.513736	1.529295	0.036409
  87	4.3000e-02	3.4603	-6.353297	-0.000361	-3.610989	-1.223436	-0.029127
  88	4.3500e-02	3.5229	-6.025619	0.000812	8.124726	2.752732	0.065535
  89	4.4000e-02	3.5582	-6.134845	-0.000271	-2.708242	-0.917577	-0.021845
  90	4.4500e-02	3.5855	-5.952802	0.000451	4.513736	1.529295	0.036409
  91	4.5000e-02	3.6432	-5.916394	0.000090	0.902747	0.305859	0.007282
  92	4.5500e-02	3.6496	-6.062028	-0.000361	-3.610989	-1.223436	-0.029127
  93	4.6000e-02	3.7074	-5.879985	0.000451	4.513736	1.529295	0.036409
  94	4.6500e-02	3.7443	-5.734351	0.000361	3.610989	1.223436	0.029127
  95	4.7000e-02	3.7908	-5.807168	-0.000181	-1.805495	-0.611718	-0.014563
  96	4.7500e-02	3.8598	-5.297448	0.001264	12.638462	4.282027	0.101944
  97	4.8000e-02	3.9047	-5.697942	-0.000993	-9.930220	-3.364450	-0.080099
  98	4.8500e-02	3.9127	-5.734351	-0.000090	-0.902747	-0.305859	-0.007282
  99	4.9000e-02	3.9528	-5.588717	0.000361	3.610989	1.223436	0.029127
 100	4.9500e-02	3.9913	-5.406674	0.000451	4.513736	1.529295	0.036409
 101	5.0000e-02	4.0362	-5.552308	-0.000361	-3.610989	-1.223436	-0.029127
 102	5.0500e-02	4.0988	-5.297448	0.000632	6.319231	2.141013	0.050972
 103	5.1000e-02	4.1277	-5.479491	-0.000451	-4.513736	-1.529295	-0.036409
 104	5.1500e-02	4.1710	-5.188222	0.000722	7.221978	2.446873	0.058254
 105	5.2000e-02	4.1870	-5.370265	-0.000451	-4.513736	-1.529295	-0.036409
 106	5.2500e-02	4.2336	-5.151814	0.000542	5.416484	1.835154	0.043690
 107	5.3000e-02	4.2913	-5.661534	-0.001264	-12.638462	-4.282027	-0.101944
 108	5.3500e-02	4.3443	-5.006179	0.001625	16.249451	5.505463	0.131071
 109	5.4000e-02	4.3539	-5.224631	-0.000542	-5.416484	-1.835154	-0.043690
 110	5.4500e-02	4.3924	-5.115405	0.000271	2.708242	0.917577	0.021845
 111	5.5000e-02	4.4517	-4.896954	0.000542	5.416484	1.835154	0.043690
 112	5.5500e-02	4.4838	-5.078996	-0.000451	-4.513736	-1.529295	-0.036409
 113	5.6000e-02	4.5239	-5.042588	0.000090	0.902747	0.305859	0.007282
 114	5.6500e-02	4.5512	-4.678502	0.000903	9.027473	3.058591	0.072817
 115	5.7000e-02	4.6138	-4.896954	-0.000542	-5.416484	-1.835154	-0.043690
 116	5.7500e-02	4.6154	-4.969771	-0.000181	-1.805495	-0.611718	-0.014563
 117	5.8000e-02	4.6972	-4.569276	0.000993	9.930220	3.364450	0.080099
 118	5.8500e-02	4.7229	-4.678502	-0.000271	-2.708242	-0.917577	-0.021845
 119	5.9000e-02	4.7630	-4.569276	0.000271	2.708242	0.917577	0.021845
 120	5.9500e-02	4.7886	-4.678502	-0.000271	-2.708242	-0.917577	-0.021845
 121	6.0000e-02	4.8592	-4.387234	0.000722	7.221978	2.446873	0.058254
 122	6.0500e-02	4.8640	-4.496459	-0.000271	-2.708242	-0.917577	-0.021845
 123	6.1000e-02	4.9073	-4.387234	0.000271	2.708242	0.917577	0.021845
 124	6.1500e-02	4.9715	-4.350825	0.000090	0.902747	0.305859	0.007282
 125	6.2000e-02	4.9956	-4.387234	-0.000090	-0.902747	-0.305859	-0.007282
 126	6.2500e-02	5.0533	-4.314416	0.000181	1.805495	0.611718	0.014563
 127	6.3000e-02	5.0726	-4.423642	-0.000271	-2.708242	-0.917577	-0.021845
 128	6.3500e-02	5.1255	-4.023148	0.000993	9.930220	3.364450	0.080099
 129	6.4000e-02	5.1624	-4.423642	-0.000993	-9.930220	-3.364450	-0.080099
 130	6.4500e-02	5.2105	-4.059556	0.000903	9.027473	3.058591	0.072817
 131	6.5000e-02	5.2539	-3.841105	0.000542	5.416484	1.835154	0.043690
 132	6.5500e-02	5.2779	-4.350825	-0.001264	-12.638462	-4.282027	-0.101944
 133	6.6000e-02	5.2892	-4.205191	0.000361	3.610989	1.223436	0.029127
 134	6.6500e-02	5.3742	-3.695471	0.001264	12.638462	4.282027	0.101944
 135	6.7000e-02	5.3774	-3.913922	-0.000542	-5.416484	-1.835154	-0.043690
 136	6.7500e-02	5.4432	-3.549836	0.000903	9.027473	3.058591	0.072817
 137	6.8000e-02	5.4769	-3.913922	-0.000903	-9.027473	-3.058591	-0.072817
 138	6.8500e-02	5.5186	-3.841105	0.000181	1.805495	0.611718	0.014563
 139	6.9000e-02	5.5635	-3.440611	0.000993	9.930220	3.364450	0.080099
 140	6.9500e-02	5.6036	-3.549836	-0.000271	-2.708242	-0.917577	-0.021845
 141	7.0000e-02	5.6645	-3.804696	-0.000632	-6.319231	-2.141013	-0.050972
 142	7.0500e-02	5.6790	-3.622653	0.000451	4.513736	1.529295	0.036409
 143	7.1000e-02	5.7143	-3.513428	0.000271	2.708242	0.917577	0.021845
 144	7.1500e-02	5.7608	-3.294976	0.000542	5.416484	1.835154	0.043690
 145	7.2000e-02	5.7977	-3.440611	-0.000361	-3.610989	-1.223436	-0.029127
 146	7.2500e-02	5.8442	-3.367793	0.000181	1.805495	0.611718	0.014563
 147	7.3000e-02	5.8843	-3.294976	0.000181	1.805495	0.611718	0.014563
 148	7.3500e-02	5.9148	-2.930890	0.000903	9.027473	3.058591	0.072817
 149	7.4000e-02	5.9485	-3.294976	-0.000903	-9.027473	-3.058591	-0.072817
 150	7.4500e-02	6.0111	-3.294976	0.000000	0.000000	0.000000	0.000000
 151	7.5000e-02	6.0415	-2.676030	0.001535	15.346704	5.199604	0.123789
 152	7.5500e-02	6.0688	-3.149342	-0.001174	-11.735715	-3.976168	-0.094662
 153	7.6000e-02	6.1137	-3.003708	0.000361	3.610989	1.223436	0.029127
 154	7.6500e-02	6.1603	-2.748848	0.000632	6.319231	2.141013	0.050972
 155	7.7000e-02	6.1923	-2.785256	-0.000090	-0.902747	-0.305859	-0.007282
 156	7.7500e-02	6.2212	-2.967299	-0.000451	-4.513736	-1.529295	-0.036409
 157	7.8000e-02	6.2629	-2.821665	0.000361	3.610989	1.223436	0.029127
 158	7.8500e-02	6.3159	-2.858073	-0.000090	-0.902747	-0.305859	-0.007282
 159	7.9000e-02	6.3736	-2.676030	0.000451	4.513736	1.529295	0.036409
 160	7.9500e-02	6.4185	-2.421170	0.000632	6.319231	2.141013	0.050972
 161	8.0000e-02	6.4137	-2.639622	0.000542	5.416484	1.835154	-0.043690
 162	8.0500e-02	6.4859	-2.566805	0.000181	1.805495	0.611718	0.014563
 163	8.1000e-02	6.4699	-2.493988	-0.000181	-1.805495	-0.611718	0.014563
 164	8.1500e-02	6.5613	-2.639622	-0.000361	-3.610989	-1.223436	-0.029127
 165	8.2000e-02	6.6046	-2.457579	0.000451	4.513736	1.529295	0.036409
 166	8.2500e-02	6.6319	-2.166310	0.000722	7.221978	2.446873	0.058254
 167	8.3000e-02	6.6929	-2.457579	-0.000722	-7.221978	-2.446873	-0.058254
 168	8.3500e-02	6.6961	-2.348353	0.000271	2.708242	0.917577	0.021845
 169	8.4000e-02	6.7699	-2.421170	-0.000181	-1.805495	-0.611718	-0.014563
 170	8.4500e-02	6.8196	-2.275536	0.000361	3.610989	1.223436	0.029127
 171	8.5000e-02	6.8068	-2.093493	-0.000451	-4.513736	-1.529295	0.036409
 172	8.5500e-02	6.8902	-2.093493	0.000000	0.000000	0.000000	0.000000
 173	8.6000e-02	6.9094	-1.911450	0.000451	4.513736	1.529295	0.036409
 174	8.6500e-02	6.9495	-2.057085	-0.000361	-3.610989	-1.223436	-0.029127
 175	8.7000e-02	7.0025	-1.875042	0.000451	4.513736	1.529295	0.036409
 176	8.7500e-02	7.0201	-2.057085	-0.000451	-4.513736	-1.529295	-0.036409
 177	8.8000e-02	7.0795	-1.875042	0.000451	4.513736	1.529295	0.036409
 178	8.8500e-02	7.1100	-1.802225	0.000181	1.805495	0.611718	0.014563
 179	8.9000e-02	7.1597	-1.875042	-0.000181	-1.805495	-0.611718	-0.014563
 180	8.9500e-02	7.1725	-1.620182	0.000632	6.319231	2.141013	0.050972
 181	9.0000e-02	7.2463	-1.656590	-0.000090	-0.902747	-0.305859	-0.007282
 182	9.0500e-02	7.2848	-1.656590	0.000000	0.000000	0.000000	0.000000
 183	9.1000e-02	7.3201	-1.875042	-0.000542	-5.416484	-1.835154	-0.043690
 184	9.1500e-02	7.3650	-1.401730	0.001174	11.735715	3.976168	0.094662
 185	9.2000e-02	7.4244	-1.510956	-0.000271	-2.708242	-0.917577	-0.021845
 186	9.2500e-02	7.4228	-1.401730	-0.000271	-2.708242	-0.917577	0.021845
 187	9.3000e-02	7.4805	-1.656590	-0.000632	-6.319231	-2.141013	-0.050972
 188	9.3500e-02	7.5319	-1.365322	0.000722	7.221978	2.446873	0.058254
 189	9.4000e-02	7.5543	-1.292504	0.000181	1.805495	0.611718	0.014563
 190	9.4500e-02	7.5848	-1.365322	-0.000181	-1.805495	-0.611718	-0.014563
 191	9.5000e-02	7.6313	-1.256096	0.000271	2.708242	0.917577	0.021845
 192	9.5500e-02	7.6746	-1.037644	0.000542	5.416484	1.835154	0.043690
 193	9.6000e-02	7.7132	-1.074053	-0.000090	-0.902747	-0.305859	-0.007282
 194	9.6500e-02	7.7741	-1.328913	-0.000632	-6.319231	-2.141013	-0.050972
 195	9.7000e-02	7.7934	-1.183279	0.000361	3.610989	1.223436	0.029127
 196	9.7500e-02	7.8271	-1.001236	0.000451	4.513736	1.529295	0.036409
 197	9.8000e-02	7.8704	-1.146870	-0.000361	-3.610989	-1.223436	-0.029127
 198	9.8500e-02	7.9153	-0.709967	0.001083	10.832968	3.670309	0.087381
 199	9.9000e-02	7.9458	-1.146870	-0.001083	-10.832968	-3.670309	-0.087381
 200	9.9500e-02	8.0067	-0.819193	0.000812	8.124726	2.752732	0.065535
 201	1.0000e-01	8.0356	-0.782784	0.000090	0.902747	0.305859	0.007282
 202	1.0050e-01	8.0934	-0.746376	0.000090	0.902747	0.305859	0.007282
 203	1.0100e-01	8.1270	-1.037644	-0.000722	-7.221978	-2.446873	-0.058254
 204	1.0150e-01	8.1688	-0.637150	0.000993	9.930220	3.364450	0.080099
 205	1.0200e-01	8.2057	-0.491516	0.000361	3.610989	1.223436	0.029127
 206	1.0250e-01	8.2345	-0.855602	-0.000903	-9.027473	-3.058591	-0.072817
 207	1.0300e-01	8.2586	-0.309473	0.001354	13.541209	4.587886	0.109226
 208	1.0350e-01	8.3115	-0.309473	0.000000	0.000000	0.000000	0.000000
 209	1.0400e-01	8.3613	-0.564333	-0.000632	-6.319231	-2.141013	-0.050972
 210	1.0450e-01	8.3869	-0.273064	0.000722	7.221978	2.446873	0.058254
 211	1.0500e-01	8.4351	-0.309473	-0.000090	-0.902747	-0.305859	-0.007282
 212	1.0550e-01	8.4960	-0.382290	-0.000181	-1.805495	-0.611718	-0.014563
 213	1.0600e-01	8.5105	-0.491516	-0.000271	-2.708242	-0.917577	-0.021845
 214	1.0650e-01	8.5425	-0.382290	0.000271	2.708242	0.917577	0.021845
 215	1.0700e-01	8.5826	-0.054613	0.000812	8.124726	2.752732	0.065535
 216	1.0750e-01	8.6356	0.054613	0.000271	2.708242	0.917577	0.021845
 217	1.0800e-01	8.6982	-0.236656	-0.000722	-7.221978	-2.446873	-0.058254
 218	1.0850e-01	8.7206	0.054613	0.000722	7.221978	2.446873	0.058254
 219	1.0900e-01	8.7511	-0.054613	-0.000271	-2.708242	-0.917577	-0.021845
 220	1.0950e-01	8.8137	0.054613	0.000271	2.708242	0.917577	0.021845
 221	1.1000e-01	8.8522	0.018204	-0.000090	-0.902747	-0.305859	-0.007282
 222	1.1050e-01	8.8762	0.345881	0.000812	8.124726	2.752732	0.065535
 223	1.1100e-01	8.9292	0.491516	0.000361	3.610989	1.223436	0.029127
 224	1.1150e-01	8.9468	0.054613	-0.001083	-10.832968	-3.670309	-0.087381
 225	1.1200e-01	9.0014	-0.054613	-0.000271	-2.708242	-0.917577	-0.021845
 226	1.1250e-01	9.0366	0.309473	0.000903	9.027473	3.058591	0.072817
 227	1.1300e-01	9.0703	0.309473	0.000000	0.000000	0.000000	0.000000
 228	1.1350e-01	9.1329	0.163839	-0.000361	-3.610989	-1.223436	-0.029127
 229	1.1400e-01	9.1682	0.600742	0.001083	10.832968	3.670309	0.087381
 230	1.1450e-01	9.1762	0.382290	-0.000542	-5.416484	-1.835154	-0.043690
 231	1.1500e-01	9.2404	0.527924	0.000361	3.610989	1.223436	0.029127
 232	1.1550e-01	9.2725	0.564333	0.000090	0.902747	0.305859	0.007282
 233	1.1600e-01	9.3013	0.382290	-0.000451	-4.513736	-1.529295	-0.036409
 234	1.1650e-01	9.3479	0.491516	0.000271	2.708242	0.917577	0.021845
 235	1.1700e-01	9.3880	0.928419	0.001083	10.832968	3.670309	0.087381
 236	1.1750e-01	9.4361	0.527924	-0.000993	-9.930220	-3.364450	-0.080099
 237	1.1800e-01	9.4890	0.964827	0.001083	10.832968	3.670309	0.087381
 238	1.1850e-01	9.5163	0.418699	-0.001354	-13.541209	-4.587886	-0.109226
 239	1.1900e-01	9.5532	0.964827	0.001354	13.541209	4.587886	0.109226
 240	1.1950e-01	9.5885	0.673559	-0.000722	-7.221978	-2.446873	-0.058254
 241	1.2000e-01	9.6495	1.037644	0.000903	9.027473	3.058591	0.072817
 242	1.2050e-01	9.6671	0.746376	-0.000722	-7.221978	-2.446873	-0.058254
 243	1.2100e-01	9.7072	0.964827	0.000542	5.416484	1.835154	0.043690
 244	1.2150e-01	9.7473	1.146870	0.000451	4.513736	1.529295	0.036409
 245	1.2200e-01	9.8051	1.256096	0.000271	2.708242	0.917577	0.021845
 246	1.2250e-01	9.8612	1.074053	-0.000451	-4.513736	-1.529295	-0.036409
 247	1.2300e-01	9.8757	1.401730	0.000812	8.124726	2.752732	0.065535
 248	1.2350e-01	9.9142	1.401730	0.000000	0.000000	0.000000	0.000000
 249	1.2400e-01	9.9703	1.765816	0.000903	9.027473	3.058591	0.072817
 250	1.2450e-01	9.9719	1.219687	-0.001354	-13.541209	-4.587886	-0.109226
 251	1.2500e-01	10.0232	1.256096	0.000090	0.902747	0.305859	0.007282
 252	1.2550e-01	10.0826	1.292504	0.000090	0.902747	0.305859	0.007282
 253	1.2600e-01	10.1275	1.547365	0.000632	6.319231	2.141013	0.050972
 254	1.2650e-01	10.1596	1.110462	-0.001083	-10.832968	-3.670309	-0.087381
 255	1.2700e-01	10.2109	1.401730	0.000722	7.221978	2.446873	0.058254
 256	1.2750e-01	10.2093	1.583773	-0.000451	-4.513736	-1.529295	0.036409
 257	1.2800e-01	10.2655	1.692999	0.000271	2.708242	0.917577	0.021845
 258	1.2850e-01	10.3345	1.620182	-0.000181	-1.805495	-0.611718	-0.014563
 259	1.2900e-01	10.3409	1.875042	0.000632	6.319231	2.141013	0.050972
 260	1.2950e-01	10.3842	1.620182	-0.000632	-6.319231	-2.141013	-0.050972
 261	1.3000e-01	10.4468	1.838633	0.000542	5.416484	1.835154	0.043690
 262	1.3050e-01	10.4740	1.583773	-0.000632	-6.319231	-2.141013	-0.050972
 263	1.3100e-01	10.5270	1.984267	0.000993	9.930220	3.364450	0.080099
 264	1.3150e-01	10.5334	1.984267	0.000000	0.000000	0.000000	0.000000
 265	1.3200e-01	10.5895	1.911450	-0.000181	-1.805495	-0.611718	-0.014563
 266	1.3250e-01	10.6553	1.947859	0.000090	0.902747	0.305859	0.007282
 267	1.3300e-01	10.6649	1.911450	-0.000090	-0.902747	-0.305859	-0.007282
 268	1.3350e-01	10.7195	2.275536	0.000903	9.027473	3.058591	0.072817
 269	1.3400e-01	10.7676	2.093493	-0.000451	-4.513736	-1.529295	-0.036409
 270	1.3450e-01	10.8045	2.421170	0.000812	8.124726	2.752732	0.065535
 271	1.3500e-01	10.8141	2.348353	-0.000181	-1.805495	-0.611718	-0.014563
 272	1.3550e-01	10.8751	2.093493	-0.000632	-6.319231	-2.141013	-0.050972
 273	1.3600e-01	10.9216	2.166310	0.000181	1.805495	0.611718	0.014563
 274	1.3650e-01	10.9441	2.676030	0.001264	12.638462	4.282027	0.101944
 275	1.3700e-01	11.0275	2.712439	0.000090	0.902747	0.305859	0.007282
 276	1.3750e-01	11.0339	2.239127	-0.001174	-11.735715	-3.976168	-0.094662
 277	1.3800e-01	11.0836	2.311945	0.000181	1.805495	0.611718	0.014563
 278	1.3850e-01	11.1029	2.603213	0.000722	7.221978	2.446873	0.058254
 279	1.3900e-01	11.1639	2.785256	0.000451	4.513736	1.529295	0.036409
 280	1.3950e-01	11.2008	2.421170	-0.000903	-9.027473	-3.058591	-0.072817
 281	1.4000e-01	11.2296	2.785256	0.000903	9.027473	3.058591	0.072817
 282	1.4050e-01	11.2890	2.639622	-0.000361	-3.610989	-1.223436	-0.029127
 283	1.4100e-01	11.3195	2.821665	0.000451	4.513736	1.529295	0.036409
 284	1.4150e-01	11.3548	2.712439	-0.000271	-2.708242	-0.917577	-0.021845
 285	1.4200e-01	11.3868	2.785256	0.000181	1.805495	0.611718	0.014563
 286	1.4250e-01	11.4109	2.967299	0.000451	4.513736	1.529295	0.036409
 287	1.4300e-01	11.4606	2.748848	-0.000542	-5.416484	-1.835154	-0.043690
 288	1.4350e-01	11.5152	2.894482	0.000361	3.610989	1.223436	0.029127
 289	1.4400e-01	11.5585	3.076525	0.000451	4.513736	1.529295	0.036409
 290	1.4450e-01	11.6002	2.785256	-0.000722	-7.221978	-2.446873	-0.058254
 291	1.4500e-01	11.6515	2.894482	0.000271	2.708242	0.917577	0.021845
 292	1.4550e-01	11.6772	3.149342	0.000632	6.319231	2.141013	0.050972
 293	1.4600e-01	11.7013	2.894482	-0.000632	-6.319231	-2.141013	-0.050972
 294	1.4650e-01	11.7638	3.513428	0.001535	15.346704	5.199604	0.123789
 295	1.4700e-01	11.7943	3.258568	-0.000632	-6.319231	-2.141013	-0.050972
 296	1.4750e-01	11.8408	3.149342	-0.000271	-2.708242	-0.917577	-0.021845
 297	1.4800e-01	11.8745	3.440611	0.000722	7.221978	2.446873	0.058254
 298	1.4850e-01	11.9066	3.331385	-0.000271	-2.708242	-0.917577	-0.021845
 299	1.4900e-01	11.9692	3.149342	-0.000451	-4.513736	-1.529295	-0.036409
 300	1.4950e-01	11.9916	3.622653	0.001174	11.735715	3.976168	0.094662
 301	1.5000e-01	12.0350	3.513428	-0.000271	-2.708242	-0.917577	-0.021845
 302	1.5050e-01	12.0895	3.367793	-0.000361	-3.610989	-1.223436	-0.029127
 303	1.5100e-01	12.1023	3.367793	0.000000	0.000000	0.000000	0.000000
 304	1.5150e-01	12.1505	3.477019	0.000271	2.708242	0.917577	0.021845
 305	1.5200e-01	12.1906	3.804696	0.000812	8.124726	2.752732	0.065535
 306	1.5250e-01	12.2387	3.112933	-0.001715	-17.152199	-5.811322	-0.138353
 307	1.5300e-01	12.2628	3.659062	0.001354	13.541209	4.587886	0.109226
 308	1.5350e-01	12.3221	3.877513	0.000542	5.416484	1.835154	0.043690
 309	1.5400e-01	12.3734	3.877513	0.000000	0.000000	0.000000	0.000000
 310	1.5450e-01	12.4023	3.841105	-0.000090	-0.902747	-0.305859	-0.007282
 311	1.5500e-01	12.4168	3.695471	-0.000361	-3.610989	-1.223436	-0.029127
 312	1.5550e-01	12.4873	3.804696	0.000271	2.708242	0.917577	0.021845
 313	1.5600e-01	12.4938	4.095965	0.000722	7.221978	2.446873	0.058254
 314	1.5650e-01	12.5788	3.768288	-0.000812	-8.124726	-2.752732	-0.065535
 315	1.5700e-01	12.5964	4.132373	0.000903	9.027473	3.058591	0.072817
 316	1.5750e-01	12.6462	3.950331	-0.000451	-4.513736	-1.529295	-0.036409
 317	1.5800e-01	12.6895	4.241599	0.000722	7.221978	2.446873	0.058254
 318	1.5850e-01	12.7151	4.205191	-0.000090	-0.902747	-0.305859	-0.007282
 319	1.5900e-01	12.7761	3.950331	-0.000632	-6.319231	-2.141013	-0.050972
 320	1.5950e-01	12.7873	4.278008	0.000812	8.124726	2.752732	0.065535
 321	1.6000e-01	12.8515	4.241599	-0.000090	-0.902747	-0.305859	-0.007282
 322	1.6050e-01	12.8788	4.241599	0.000000	0.000000	0.000000	0.000000
 323	1.6100e-01	12.9317	4.059556	-0.000451	-4.513736	-1.529295	-0.036409
 324	1.6150e-01	12.9028	4.350825	-0.000722	-7.221978	-2.446873	0.058254
 325	1.6200e-01	12.9766	4.278008	-0.000181	-1.805495	-0.611718	-0.014563
 326	1.6250e-01	13.0488	4.605685	0.000812	8.124726	2.752732	0.065535
 327	1.6300e-01	13.0921	4.642094	0.000090	0.902747	0.305859	0.007282
 328	1.6350e-01	13.1146	4.569276	-0.000181	-1.805495	-0.611718	-0.014563
 329	1.6400e-01	13.1868	4.824136	0.000632	6.319231	2.141013	0.050972
 330	1.6450e-01	13.1756	4.751319	0.000181	1.805495	0.611718	-0.014563
 331	1.6500e-01	13.2429	4.678502	-0.000181	-1.805495	-0.611718	-0.014563
 332	1.6550e-01	13.2879	4.496459	-0.000451	-4.513736	-1.529295	-0.036409
 333	1.6600e-01	13.3023	4.896954	0.000993	9.930220	3.364450	0.080099
 334	1.6650e-01	13.3584	4.714911	-0.000451	-4.513736	-1.529295	-0.036409
 335	1.6700e-01	13.3969	4.824136	0.000271	2.708242	0.917577	0.021845
 336	1.6750e-01	13.4563	4.787728	-0.000090	-0.902747	-0.305859	-0.007282
 337	1.6800e-01	13.4836	5.078996	0.000722	7.221978	2.446873	0.058254
 338	1.6850e-01	13.5510	5.261039	0.000451	4.513736	1.529295	0.036409
 339	1.6900e-01	13.5365	5.042588	0.000542	5.416484	1.835154	-0.043690
 340	1.6950e-01	13.5927	5.224631	0.000451	4.513736	1.529295	0.036409
 341	1.7000e-01	13.6584	4.896954	-0.000812	-8.124726	-2.752732	-0.065535
 342	1.7050e-01	13.6873	5.224631	0.000812	8.124726	2.752732	0.065535
 343	1.7100e-01	13.7290	5.115405	-0.000271	-2.708242	-0.917577	-0.021845
 344	1.7150e-01	13.7386	4.969771	-0.000361	-3.610989	-1.223436	-0.029127
 345	1.7200e-01	13.7755	5.224631	0.000632	6.319231	2.141013	0.050972
 346	1.7250e-01	13.8205	5.115405	-0.000271	-2.708242	-0.917577	-0.021845
 347	1.7300e-01	13.8878	5.333857	0.000542	5.416484	1.835154	0.043690
 348	1.7350e-01	13.9007	5.006179	-0.000812	-8.124726	-2.752732	-0.065535
 349	1.7400e-01	13.9376	5.224631	0.000542	5.416484	1.835154	0.043690
 350	1.7450e-01	13.9873	5.625125	0.000993	9.930220	3.364450	0.080099
 351	1.7500e-01	14.0322	5.297448	-0.000812	-8.124726	-2.752732	-0.065535
 352	1.7550e-01	14.0643	5.406674	0.000271	2.708242	0.917577	0.021845
 353	1.7600e-01	14.1092	5.370265	-0.000090	-0.902747	-0.305859	-0.007282
 354	1.7650e-01	14.1477	6.025619	0.001625	16.249451	5.505463	0.131071
 355	1.7700e-01	14.1975	5.843577	-0.000451	-4.513736	-1.529295	-0.036409
 356	1.7750e-01	14.2199	5.879985	0.000090	0.902747	0.305859	0.007282
 357	1.7800e-01	14.2632	5.625125	-0.000632	-6.319231	-2.141013	-0.050972
 358	1.7850e-01	14.3162	5.261039	-0.000903	-9.027473	-3.058591	-0.072817
 359	1.7900e-01	14.3450	5.843577	0.001444	14.443957	4.893745	0.116507
 360	1.7950e-01	14.3932	5.879985	0.000090	0.902747	0.305859	0.007282
 361	1.8000e-01	14.4253	5.879985	0.000000	0.000000	0.000000	0.000000
 362	1.8050e-01	14.4878	6.025619	0.000361	3.610989	1.223436	0.029127
 363	1.8100e-01	14.5295	5.734351	-0.000722	-7.221978	-2.446873	-0.058254
 364	1.8150e-01	14.5488	5.879985	0.000361	3.610989	1.223436	0.029127
 365	1.8200e-01	14.5632	5.879985	0.000000	0.000000	0.000000	0.000000
 366	1.8250e-01	14.6242	5.843577	-0.000090	-0.902747	-0.305859	-0.007282
 367	1.8300e-01	14.6643	5.952802	0.000271	2.708242	0.917577	0.021845
 368	1.8350e-01	14.7108	6.389705	0.001083	10.832968	3.670309	0.087381
 369	1.8400e-01	14.7622	6.207662	-0.000451	-4.513736	-1.529295	-0.036409
 370	1.8450e-01	14.7670	6.244071	0.000090	0.902747	0.305859	0.007282
 371	1.8500e-01	14.8247	6.389705	0.000361	3.610989	1.223436	0.029127
 372	1.8550e-01	14.8809	6.171254	-0.000542	-5.416484	-1.835154	-0.043690
 373	1.8600e-01	14.9097	6.426114	0.000632	6.319231	2.141013	0.050972
 374	1.8650e-01	14.9563	6.207662	-0.000542	-5.416484	-1.835154	-0.043690
 375	1.8700e-01	14.9900	6.062028	-0.000361	-3.610989	-1.223436	-0.029127
 376	1.8750e-01	15.0172	6.426114	0.000903	9.027473	3.058591	0.072817
 377	1.8800e-01	15.0718	6.426114	0.000000	0.000000	0.000000	0.000000
 378	1.8850e-01	15.1055	6.316888	-0.000271	-2.708242	-0.917577	-0.021845
 379	1.8900e-01	15.1536	6.426114	0.000271	2.708242	0.917577	0.021845
 380	1.8950e-01	15.1809	6.462522	0.000090	0.902747	0.305859	0.007282
 381	1.9000e-01	15.2498	6.316888	-0.000361	-3.610989	-1.223436	-0.029127
 382	1.9050e-01	15.2867	6.863017	0.001354	13.541209	4.587886	0.109226
 383	1.9100e-01	15.3525	6.571748	-0.000722	-7.221978	-2.446873	-0.058254
 384	1.9150e-01	15.3621	6.753791	0.000451	4.513736	1.529295	0.036409
 385	1.9200e-01	15.4006	6.790200	0.000090	0.902747	0.305859	0.007282
 386	1.9250e-01	15.4391	6.608157	-0.000451	-4.513736	-1.529295	-0.036409
 387	1.9300e-01	15.4857	6.899425	0.000722	7.221978	2.446873	0.058254
 388	1.9350e-01	15.5290	6.790200	-0.000271	-2.708242	-0.917577	-0.021845
 389	1.9400e-01	15.5482	6.863017	0.000181	1.805495	0.611718	0.014563
 390	1.9450e-01	15.6124	6.717382	-0.000361	-3.610989	-1.223436	-0.029127
 391	1.9500e-01	15.6525	7.299920	0.001444	14.443957	4.893745	0.116507
 392	1.9550e-01	15.6685	6.498931	-0.001986	-19.860441	-6.728899	-0.160198
 393	1.9600e-01	15.7119	7.008651	0.001264	12.638462	4.282027	0.101944
 394	1.9650e-01	15.7568	7.081468	0.000181	1.805495	0.611718	0.014563
 395	1.9700e-01	15.7921	6.935834	-0.000361	-3.610989	-1.223436	-0.029127
 396	1.9750e-01	15.8225	6.863017	-0.000181	-1.805495	-0.611718	-0.014563
 397	1.9800e-01	15.8867	7.045060	0.000451	4.513736	1.529295	0.036409
 398	1.9850e-01	15.9092	7.591188	0.001354	13.541209	4.587886	0.109226
 399	1.9900e-01	15.9445	7.154285	-0.001083	-10.832968	-3.670309	-0.087381
 400	1.9950e-01	15.9926	7.554780	0.000993	9.930220	3.364450	0.080099
 401	2.0000e-01	16.0359	7.154285	-0.000993	-9.930220	-3.364450	-0.080099
 402	2.0050e-01	16.0953	7.481963	0.000812	8.124726	2.752732	0.065535
 403	2.0100e-01	16.1434	7.227103	-0.000632	-6.319231	-2.141013	-0.050972
 404	2.0150e-01	16.1610	7.409145	0.000451	4.513736	1.529295	0.036409
 405	2.0200e-01	16.1979	7.736823	0.000812	8.124726	2.752732	0.065535
 406	2.0250e-01	16.2445	7.445554	-0.000722	-7.221978	-2.446873	-0.058254
 407	2.0300e-01	16.2749	7.664005	0.000542	5.416484	1.835154	0.043690
 408	2.0350e-01	16.3391	7.700414	0.000090	0.902747	0.305859	0.007282
 409	2.0400e-01	16.3359	7.445554	0.000632	6.319231	2.141013	-0.050972
 410	2.0450e-01	16.3953	7.481963	0.000090	0.902747	0.305859	0.007282
 411	2.0500e-01	16.4097	7.809640	0.000812	8.124726	2.752732	0.065535
 412	2.0550e-01	16.4915	7.773231	-0.000090	-0.902747	-0.305859	-0.007282
 413	2.0600e-01	16.5124	7.664005	-0.000271	-2.708242	-0.917577	-0.021845
 414	2.0650e-01	16.5621	7.700414	0.000090	0.902747	0.305859	0.007282
 415	2.0700e-01	16.5781	7.773231	0.000181	1.805495	0.611718	0.014563
 416	2.0750e-01	16.6231	7.700414	-0.000181	-1.805495	-0.611718	-0.014563
 417	2.0800e-01	16.6744	7.882457	0.000451	4.513736	1.529295	0.036409
 418	2.0850e-01	16.6969	7.955274	0.000181	1.805495	0.611718	0.014563
 419	2.0900e-01	16.7739	8.355768	0.000993	9.930220	3.364450	0.080099
 420	2.0950e-01	16.8011	8.028091	-0.000812	-8.124726	-2.752732	-0.065535
 421	2.1000e-01	16.8493	7.918865	-0.000271	-2.708242	-0.917577	-0.021845
 422	2.1050e-01	16.8942	7.481963	-0.001083	-10.832968	-3.670309	-0.087381
 423	2.1100e-01	16.9070	8.064500	0.001444	14.443957	4.893745	0.116507
 424	2.1150e-01	16.9648	8.392177	0.000812	8.124726	2.752732	0.065535
 425	2.1200e-01	16.9872	7.955274	-0.001083	-10.832968	-3.670309	-0.087381
 426	2.1250e-01	17.0257	8.319360	0.000903	9.027473	3.058591	0.072817
 427	2.1300e-01	17.0883	8.210134	-0.000271	-2.708242	-0.917577	-0.021845
 428	2.1350e-01	17.0899	8.246543	0.000090	0.902747	0.305859	0.007282
 429	2.1400e-01	17.1861	8.282951	0.000090	0.902747	0.305859	0.007282
 430	2.1450e-01	17.1845	8.137317	0.000361	3.610989	1.223436	-0.029127
 431	2.1500e-01	17.2263	8.829080	0.001715	17.152199	5.811322	0.138353
 432	2.1550e-01	17.2631	8.428586	-0.000993	-9.930220	-3.364450	-0.080099
 433	2.1600e-01	17.3418	8.501403	0.000181	1.805495	0.611718	0.014563
 434	2.1650e-01	17.3706	8.428586	-0.000181	-1.805495	-0.611718	-0.014563
 435	2.1700e-01	17.3754	8.355768	-0.000181	-1.805495	-0.611718	-0.014563
 436	2.1750e-01	17.4188	8.173726	-0.000451	-4.513736	-1.529295	-0.036409
 437	2.1800e-01	17.4829	8.574220	0.000993	9.930220	3.364450	0.080099
 438	2.1850e-01	17.5102	8.647037	0.000181	1.805495	0.611718	0.014563
 439	2.1900e-01	17.5519	8.610628	-0.000090	-0.902747	-0.305859	-0.007282
 440	2.1950e-01	17.5904	8.647037	0.000090	0.902747	0.305859	0.007282
 441	2.2000e-01	17.6369	8.719854	0.000181	1.805495	0.611718	0.014563
 442	2.2050e-01	17.6786	8.683446	-0.000090	-0.902747	-0.305859	-0.007282
 443	2.2100e-01	17.7091	8.647037	-0.000090	-0.902747	-0.305859	-0.007282
 444	2.2150e-01	17.7573	8.537811	-0.000271	-2.708242	-0.917577	-0.021845
 445	2.2200e-01	17.7813	8.974714	0.001083	10.832968	3.670309	0.087381
 446	2.2250e-01	17.8471	9.011123	0.000090	0.902747	0.305859	0.007282
 447	2.2300e-01	17.8583	8.865488	-0.000361	-3.610989	-1.223436	-0.029127
 448	2.2350e-01	17.9113	9.011123	0.000361	3.610989	1.223436	0.029127
 449	2.2400e-01	17.9642	8.901897	-0.000271	-2.708242	-0.917577	-0.021845
 450	2.2450e-01	18.0027	8.974714	0.000181	1.805495	0.611718	0.014563
 451	2.2500e-01	18.0412	9.302391	0.000812	8.124726	2.752732	0.065535
 452	2.2550e-01	18.0621	8.938306	-0.000903	-9.027473	-3.058591	-0.072817
 453	2.2600e-01	18.1102	8.974714	0.000090	0.902747	0.305859	0.007282
 454	2.2650e-01	18.1439	9.557251	0.001444	14.443957	4.893745	0.116507
 455	2.2700e-01	18.2096	9.265983	-0.000722	-7.221978	-2.446873	-0.058254
 456	2.2750e-01	18.2273	9.156757	-0.000271	-2.708242	-0.917577	-0.021845
 457	2.2800e-01	18.2802	9.302391	0.000361	3.610989	1.223436	0.029127
 458	2.2850e-01	18.3348	9.557251	0.000632	6.319231	2.141013	0.050972
 459	2.2900e-01	18.3476	9.338800	-0.000542	-5.416484	-1.835154	-0.043690
 460	2.2950e-01	18.4006	9.047531	-0.000722	-7.221978	-2.446873	-0.058254
 461	2.3000e-01	18.4407	9.666477	0.001535	15.346704	5.199604	0.123789
 462	2.3050e-01	18.4711	9.739294	0.000181	1.805495	0.611718	0.014563
 463	2.3100e-01	18.5497	9.921337	0.000451	4.513736	1.529295	0.036409
 464	2.3150e-01	18.5481	9.229574	0.001715	17.152199	5.811322	-0.138353
 465	2.3200e-01	18.5915	9.411617	0.000451	4.513736	1.529295	0.036409
 466	2.3250e-01	18.6492	9.957746	0.001354	13.541209	4.587886	0.109226
 467	2.3300e-01	18.6669	9.484434	-0.001174	-11.735715	-3.976168	-0.094662
 468	2.3350e-01	18.7054	9.630069	0.000361	3.610989	1.223436	0.029127
 469	2.3400e-01	18.7631	9.666477	0.000090	0.902747	0.305859	0.007282
 470	2.3450e-01	18.7679	9.593660	-0.000181	-1.805495	-0.611718	-0.014563
 471	2.3500e-01	18.8465	9.520843	-0.000181	-1.805495	-0.611718	-0.014563
 472	2.3550e-01	18.8658	10.066972	0.001354	13.541209	4.587886	0.109226
 473	2.3600e-01	18.9107	10.103380	0.000090	0.902747	0.305859	0.007282
 474	2.3650e-01	18.9492	9.812111	-0.000722	-7.221978	-2.446873	-0.058254
 475	2.3700e-01	18.9957	9.702886	-0.000271	-2.708242	-0.917577	-0.021845
 476	2.3750e-01	19.0278	9.812111	0.000271	2.708242	0.917577	0.021845
 477	2.3800e-01	19.0904	10.176197	0.000903	9.027473	3.058591	0.072817
 478	2.3850e-01	19.1257	9.739294	-0.001083	-10.832968	-3.670309	-0.087381
 479	2.3900e-01	19.1513	9.739294	0.000000	0.000000	0.000000	0.000000
 480	2.3950e-01	19.2091	10.066972	0.000812	8.124726	2.752732	0.065535
 481	2.4000e-01	19.2187	10.212606	0.000361	3.610989	1.223436	0.029127
 482	2.4050e-01	19.2700	9.957746	-0.000632	-6.319231	-2.141013	-0.050972
 483	2.4100e-01	19.2973	10.176197	0.000542	5.416484	1.835154	0.043690
 484	2.4150e-01	19.3519	10.467466	0.000722	7.221978	2.446873	0.058254
 485	2.4200e-01	19.3839	10.030563	-0.001083	-10.832968	-3.670309	-0.087381
 486	2.4250e-01	19.4016	10.394649	0.000903	9.027473	3.058591	0.072817
 487	2.4300e-01	19.4674	10.030563	-0.000903	-9.027473	-3.058591	-0.072817
 488	2.4350e-01	19.4834	10.503874	0.001174	11.735715	3.976168	0.094662
 489	2.4400e-01	19.5396	10.431057	-0.000181	-1.805495	-0.611718	-0.014563
 490	2.4450e-01	19.6182	10.176197	-0.000632	-6.319231	-2.141013	-0.050972
 491	2.4500e-01	19.6117	10.249014	-0.000181	-1.805495	-0.611718	0.014563
 492	2.4550e-01	19.6743	10.576692	0.000812	8.124726	2.752732	0.065535
 493	2.4600e-01	19.7144	10.576692	0.000000	0.000000	0.000000	0.000000
 494	2.4650e-01	19.7641	10.576692	0.000000	0.000000	0.000000	0.000000
 495	2.4700e-01	19.8059	10.576692	0.000000	0.000000	0.000000	0.000000
 496	2.4750e-01	19.8171	10.685917	0.000271	2.708242	0.917577	0.021845
 497	2.4800e-01	19.8829	10.722326	0.000090	0.902747	0.305859	0.007282
 498	2.4850e-01	19.9230	10.649509	-0.000181	-1.805495	-0.611718	-0.014563
 499	2.4900e-01	19.9422	10.649509	0.000000	0.000000	0.000000	0.000000
 500	2.4950e-01	19.9936	10.613100	-0.000090	-0.902747	-0.305859	-0.007282
 501	2.5000e-01	20.0305	10.904369	0.000722	7.221978	2.446873	0.058254
 502	2.5050e-01	19.9903	10.758734	0.000361	3.610989	1.223436	-0.029127
 503	2.5100e-01	19.9262	10.685917	0.000181	1.805495	0.611718	-0.014563
 504	2.5150e-01	19.8989	10.758734	-0.000181	-1.805495	-0.611718	0.014563
 505	2.5200e-01	19.8460	10.394649	0.000903	9.027473	3.058591	-0.072817
 506	2.5250e-01	19.8155	10.540283	-0.000361	-3.610989	-1.223436	0.029127
 507	2.5300e-01	19.7786	10.831552	-0.000722	-7.221978	-2.446873	0.058254
 508	2.5350e-01	19.7273	10.394649	0.001083	10.832968	3.670309	-0.087381
 509	2.5400e-01	19.7112	10.431057	-0.000090	-0.902747	-0.305859	0.007282
 510	2.5450e-01	19.6551	10.103380	0.000812	8.124726	2.752732	-0.065535
 511	2.5500e-01	19.6278	10.722326	-0.001535	-15.346704	-5.199604	0.123789
 512	2.5550e-01	19.5524	10.431057	0.000722	7.221978	2.446873	-0.058254
 513	2.5600e-01	19.5219	10.249014	0.000451	4.513736	1.529295	-0.036409
 514	2.5650e-01	19.4850	9.994154	0.000632	6.319231	2.141013	-0.050972
 515	2.5700e-01	19.4401	10.066972	-0.000181	-1.805495	-0.611718	0.014563
 516	2.5750e-01	19.4241	10.285423	-0.000542	-5.416484	-1.835154	0.043690
 517	2.5800e-01	19.4064	10.176197	0.000271	2.708242	0.917577	-0.021845
 518	2.5850e-01	19.3102	10.285423	-0.000271	-2.708242	-0.917577	0.021845
 519	2.5900e-01	19.2861	10.030563	0.000632	6.319231	2.141013	-0.050972
 520	2.5950e-01	19.2733	10.139789	-0.000271	-2.708242	-0.917577	0.021845
 521	2.6000e-01	19.2219	10.285423	-0.000361	-3.610989	-1.223436	0.029127
 522	2.6050e-01	19.1642	9.921337	0.000903	9.027473	3.058591	-0.072817
 523	2.6100e-01	19.1513	10.103380	-0.000451	-4.513736	-1.529295	0.036409
 524	2.6150e-01	19.0888	10.139789	-0.000090	-0.902747	-0.305859	0.007282
 525	2.6200e-01	19.0647	9.775703	0.000903	9.027473	3.058591	-0.072817
 526	2.6250e-01	19.0278	10.066972	-0.000722	-7.221978	-2.446873	0.058254
 527	2.6300e-01	18.9909	9.884929	0.000451	4.513736	1.529295	-0.036409
 528	2.6350e-01	18.9332	9.848520	0.000090	0.902747	0.305859	-0.007282
 529	2.6400e-01	18.8834	9.957746	-0.000271	-2.708242	-0.917577	0.021845
 530	2.6450e-01	18.8417	9.520843	0.001083	10.832968	3.670309	-0.087381
 531	2.6500e-01	18.7936	10.139789	-0.001535	-15.346704	-5.199604	0.123789
 532	2.6550e-01	18.8016	9.884929	-0.000632	-6.319231	-2.141013	-0.050972
 533	2.6600e-01	18.7326	9.484434	0.000993	9.930220	3.364450	-0.080099
 534	2.6650e-01	18.7038	9.775703	-0.000722	-7.221978	-2.446873	0.058254
 535	2.6700e-01	18.6508	9.702886	0.000181	1.805495	0.611718	-0.014563
 536	2.6750e-01	18.6011	9.484434	0.000542	5.416484	1.835154	-0.043690
 537	2.6800e-01	18.5995	9.666477	-0.000451	-4.513736	-1.529295	0.036409
 538	2.6850e-01	18.5369	9.557251	0.000271	2.708242	0.917577	-0.021845
 539	2.6900e-01	18.4599	9.557251	-0.000000	-0.000000	-0.000000	0.000000
 540	2.6950e-01	18.4647	9.448026	-0.000271	-2.708242	-0.917577	-0.021845
 541	2.7000e-01	18.4166	9.411617	0.000090	0.902747	0.305859	-0.007282
 542	2.7050e-01	18.3653	9.375209	0.000090	0.902747	0.305859	-0.007282
 543	2.7100e-01	18.3235	9.739294	-0.000903	-9.027473	-3.058591	0.072817
 544	2.7150e-01	18.2883	9.047531	0.001715	17.152199	5.811322	-0.138353
 545	2.7200e-01	18.2465	9.557251	-0.001264	-12.638462	-4.282027	0.101944
 546	2.7250e-01	18.2161	9.083940	0.001174	11.735715	3.976168	-0.094662
 547	2.7300e-01	18.1792	9.411617	-0.000812	-8.124726	-2.752732	0.065535
 548	2.7350e-01	18.1503	9.630069	-0.000542	-5.416484	-1.835154	0.043690
 549	2.7400e-01	18.1054	9.265983	0.000903	9.027473	3.058591	-0.072817
 550	2.7450e-01	18.0508	9.047531	0.000542	5.416484	1.835154	-0.043690
 551	2.7500e-01	18.0268	9.338800	-0.000722	-7.221978	-2.446873	0.058254
 552	2.7550e-01	17.9642	8.901897	0.001083	10.832968	3.670309	-0.087381
 553	2.7600e-01	17.9449	9.193166	-0.000722	-7.221978	-2.446873	0.058254
 554	2.7650e-01	17.8920	9.120349	0.000181	1.805495	0.611718	-0.014563
 555	2.7700e-01	17.8471	9.083940	0.000090	0.902747	0.305859	-0.007282
 556	2.7750e-01	17.8343	8.938306	0.000361	3.610989	1.223436	-0.029127
 557	2.7800e-01	17.7621	9.011123	-0.000181	-1.805495	-0.611718	0.014563
 558	2.7850e-01	17.7428	9.120349	-0.000271	-2.708242	-0.917577	0.021845
 559	2.7900e-01	17.7043	8.683446	0.001083	10.832968	3.670309	-0.087381
 560	2.7950e-01	17.6209	9.047531	-0.000903	-9.027473	-3.058591	0.072817
 561	2.8000e-01	17.6129	8.683446	0.000903	9.027473	3.058591	-0.072817
 562	2.8050e-01	17.5888	8.901897	-0.000542	-5.416484	-1.835154	0.043690
 563	2.8100e-01	17.5519	9.083940	-0.000451	-4.513736	-1.529295	0.036409
 564	2.8150e-01	17.4861	8.647037	0.001083	10.832968	3.670309	-0.087381
 565	2.8200e-01	17.4573	8.829080	-0.000451	-4.513736	-1.529295	0.036409
 566	2.8250e-01	17.4348	8.610628	0.000542	5.416484	1.835154	-0.043690
 567	2.8300e-01	17.3770	8.574220	0.000090	0.902747	0.305859	-0.007282
 568	2.8350e-01	17.3385	8.610628	-0.000090	-0.902747	-0.305859	0.007282
 569	2.8400e-01	17.2936	8.355768	0.000632	6.319231	2.141013	-0.050972
 570	2.8450e-01	17.2423	8.610628	-0.000632	-6.319231	-2.141013	0.050972
 571	2.8500e-01	17.2246	8.319360	0.000722	7.221978	2.446873	-0.058254
 572	2.8550e-01	17.1765	8.574220	-0.000632	-6.319231	-2.141013	0.050972
 573	2.8600e-01	17.1364	8.537811	0.000090	0.902747	0.305859	-0.007282
 574	2.8650e-01	17.0947	8.392177	0.000361	3.610989	1.223436	-0.029127
 575	2.8700e-01	17.0386	8.282951	0.000271	2.708242	0.917577	-0.021845
 576	2.8750e-01	17.0273	8.173726	0.000271	2.708242	0.917577	-0.021845
 577	2.8800e-01	16.9680	8.355768	-0.000451	-4.513736	-1.529295	0.036409
 578	2.8850e-01	16.9471	8.537811	-0.000451	-4.513736	-1.529295	0.036409
 579	2.8900e-01	16.9102	8.137317	0.000993	9.930220	3.364450	-0.080099
 580	2.8950e-01	16.8396	8.392177	-0.000632	-6.319231	-2.141013	0.050972
 581	2.9000e-01	16.8348	8.537811	-0.000361	-3.610989	-1.223436	0.029127
 582	2.9050e-01	16.8092	7.882457	0.001625	16.249451	5.505463	-0.131071
 583	2.9100e-01	16.7482	8.246543	-0.000903	-9.027473	-3.058591	0.072817
 584	2.9150e-01	16.6920	8.028091	0.000542	5.416484	1.835154	-0.043690
 585	2.9200e-01	16.6311	8.173726	-0.000361	-3.610989	-1.223436	0.029127
 586	2.9250e-01	16.6070	7.846048	0.000812	8.124726	2.752732	-0.065535
 587	2.9300e-01	16.6006	8.246543	-0.000993	-9.930220	-3.364450	0.080099
 588	2.9350e-01	16.5364	8.173726	0.000181	1.805495	0.611718	-0.014563
 589	2.9400e-01	16.4867	8.028091	0.000361	3.610989	1.223436	-0.029127
 590	2.9450e-01	16.4707	7.700414	0.000812	8.124726	2.752732	-0.065535
 591	2.9500e-01	16.4145	7.918865	-0.000542	-5.416484	-1.835154	0.043690
 592	2.9550e-01	16.3776	7.372737	0.001354	13.541209	4.587886	-0.109226
 593	2.9600e-01	16.3471	7.846048	-0.001174	-11.735715	-3.976168	0.094662
 594	2.9650e-01	16.3006	7.736823	0.000271	2.708242	0.917577	-0.021845
 595	2.9700e-01	16.2477	7.627597	0.000271	2.708242	0.917577	-0.021845
 596	2.9750e-01	16.2316	7.955274	-0.000812	-8.124726	-2.752732	0.065535
 597	2.9800e-01	16.1755	7.591188	0.000903	9.027473	3.058591	-0.072817
 598	2.9850e-01	16.1514	7.481963	0.000271	2.708242	0.917577	-0.021845
 599	2.9900e-01	16.1081	7.445554	0.000090	0.902747	0.305859	-0.007282
 600	2.9950e-01	16.0600	7.445554	-0.000000	-0.000000	-0.000000	0.000000
 601	3.0000e-01	16.0118	7.736823	-0.000722	-7.221978	-2.446873	0.058254
 602	3.0050e-01	15.9878	7.409145	0.000812	8.124726	2.752732	-0.065535
 603	3.0100e-01	15.9316	7.591188	-0.000451	-4.513736	-1.529295	0.036409
 604	3.0150e-01	15.8979	7.627597	-0.000090	-0.902747	-0.305859	0.007282
 605	3.0200e-01	15.8434	7.409145	0.000542	5.416484	1.835154	-0.043690
 606	3.0250e-01	15.8129	7.409145	-0.000000	-0.000000	-0.000000	0.000000
 607	3.0300e-01	15.7840	7.518371	-0.000271	-2.708242	-0.917577	0.021845
 608	3.0350e-01	15.7295	7.117877	0.000993	9.930220	3.364450	-0.080099
 609	3.0400e-01	15.6990	7.263511	-0.000361	-3.610989	-1.223436	0.029127
 610	3.0450e-01	15.6461	7.263511	-0.000000	-0.000000	-0.000000	0.000000
 611	3.0500e-01	15.5996	7.227103	0.000090	0.902747	0.305859	-0.007282
 612	3.0550e-01	15.5980	6.826608	0.000993	9.930220	3.364450	-0.080099
 613	3.0600e-01	15.5498	7.481963	-0.001625	-16.249451	-5.505463	0.131071
 614	3.0650e-01	15.5017	6.935834	0.001354	13.541209	4.587886	-0.109226
 615	3.0700e-01	15.4632	6.753791	0.000451	4.513736	1.529295	-0.036409
 616	3.0750e-01	15.4247	7.154285	-0.000993	-9.930220	-3.364450	0.080099
 617	3.0800e-01	15.3862	7.045060	0.000271	2.708242	0.917577	-0.021845
 618	3.0850e-01	15.3413	7.008651	0.000090	0.902747	0.305859	-0.007282
 619	3.0900e-01	15.2835	7.117877	-0.000271	-2.708242	-0.917577	0.021845
 620	3.0950e-01	15.2290	6.863017	0.000632	6.319231	2.141013	-0.050972
 621	3.1000e-01	15.2418	7.045060	0.000451	4.513736	1.529295	0.036409
 622	3.1050e-01	15.1712	6.753791	0.000722	7.221978	2.446873	-0.058254
 623	3.1100e-01	15.1247	6.644565	0.000271	2.708242	0.917577	-0.021845
 624	3.1150e-01	15.1119	6.608157	0.000090	0.902747	0.305859	-0.007282
 625	3.1200e-01	15.0637	6.826608	-0.000542	-5.416484	-1.835154	0.043690
 626	3.1250e-01	15.0188	6.717382	0.000271	2.708242	0.917577	-0.021845
 627	3.1300e-01	14.9867	6.935834	-0.000542	-5.416484	-1.835154	0.043690
 628	3.1350e-01	14.9531	6.389705	0.001354	13.541209	4.587886	-0.109226
 629	3.1400e-01	14.8985	6.644565	-0.000632	-6.319231	-2.141013	0.050972
 630	3.1450e-01	14.8873	6.644565	-0.000000	-0.000000	-0.000000	0.000000
 631	3.1500e-01	14.8087	6.717382	-0.000181	-1.805495	-0.611718	0.014563
 632	3.1550e-01	14.7798	6.171254	0.001354	13.541209	4.587886	-0.109226
 633	3.1600e-01	14.7445	6.316888	-0.000361	-3.610989	-1.223436	0.029127
 634	3.1650e-01	14.6964	6.498931	-0.000451	-4.513736	-1.529295	0.036409
 635	3.1700e-01	14.6434	6.426114	0.000181	1.805495	0.611718	-0.014563
 636	3.1750e-01	14.6097	6.608157	-0.000451	-4.513736	-1.529295	0.036409
 637	3.1800e-01	14.5873	6.316888	0.000722	7.221978	2.446873	-0.058254
 638	3.1850e-01	14.5376	6.171254	0.000361	3.610989	1.223436	-0.029127
 639	3.1900e-01	14.4894	5.807168	0.000903	9.027473	3.058591	-0.072817
 640	3.1950e-01	14.4445	6.207662	-0.000993	-9.930220	-3.364450	0.080099
 641	3.2000e-01	14.4076	6.134845	0.000181	1.805495	0.611718	-0.014563
 642	3.2050e-01	14.3659	6.280480	-0.000361	-3.610989	-1.223436	0.029127
 643	3.2100e-01	14.3194	5.843577	0.001083	10.832968	3.670309	-0.087381
 644	3.2150e-01	14.2905	6.134845	-0.000722	-7.221978	-2.446873	0.058254
 645	3.2200e-01	14.2664	6.098437	0.000090	0.902747	0.305859	-0.007282
 646	3.2250e-01	14.2311	5.952802	0.000361	3.610989	1.223436	-0.029127
 647	3.2300e-01	14.1606	5.989211	-0.000090	-0.902747	-0.305859	0.007282
 648	3.2350e-01	14.1237	5.661534	0.000812	8.124726	2.752732	-0.065535
 649	3.2400e-01	14.0868	5.843577	-0.000451	-4.513736	-1.529295	0.036409
 650	3.2450e-01	14.0467	5.588717	0.000632	6.319231	2.141013	-0.050972
 651	3.2500e-01	14.0017	5.843577	-0.000632	-6.319231	-2.141013	0.050972
 652	3.2550e-01	13.9825	5.625125	0.000542	5.416484	1.835154	-0.043690
 653	3.2600e-01	13.9103	5.952802	-0.000812	-8.124726	-2.752732	0.065535
 654	3.2650e-01	13.8943	5.151814	0.001986	19.860441	6.728899	-0.160198
 655	3.2700e-01	13.8878	5.989211	-0.002076	-20.763188	-7.034758	0.167479
 656	3.2750e-01	13.8381	5.406674	0.001444	14.443957	4.893745	-0.116507
 657	3.2800e-01	13.7547	5.697942	-0.000722	-7.221978	-2.446873	0.058254
 658	3.2850e-01	13.7354	5.515899	0.000451	4.513736	1.529295	-0.036409
 659	3.2900e-01	13.7001	5.734351	-0.000542	-5.416484	-1.835154	0.043690
 660	3.2950e-01	13.6504	5.224631	0.001264	12.638462	4.282027	-0.101944
 661	3.3000e-01	13.6007	5.588717	-0.000903	-9.027473	-3.058591	0.072817
 662	3.3050e-01	13.5862	5.515899	0.000181	1.805495	0.611718	-0.014563
 663	3.3100e-01	13.5269	5.625125	-0.000271	-2.708242	-0.917577	0.021845
 664	3.3150e-01	13.4723	5.370265	0.000632	6.319231	2.141013	-0.050972
 665	3.3200e-01	13.4579	5.333857	0.000090	0.902747	0.305859	-0.007282
 666	3.3250e-01	13.4226	4.933362	0.000993	9.930220	3.364450	-0.080099
 667	3.3300e-01	13.3841	5.078996	-0.000361	-3.610989	-1.223436	0.029127
 668	3.3350e-01	13.3344	5.042588	0.000090	0.902747	0.305859	-0.007282
 669	3.3400e-01	13.2782	5.297448	-0.000632	-6.319231	-2.141013	0.050972
 670	3.3450e-01	13.2638	4.969771	0.000812	8.124726	2.752732	-0.065535
 671	3.3500e-01	13.2221	5.042588	-0.000181	-1.805495	-0.611718	0.014563
 672	3.3550e-01	13.1804	5.042588	-0.000000	-0.000000	-0.000000	0.000000
 673	3.3600e-01	13.1419	5.370265	-0.000812	-8.124726	-2.752732	0.065535
 674	3.3650e-01	13.0841	4.714911	0.001625	16.249451	5.505463	-0.131071
 675	3.3700e-01	13.0536	4.896954	-0.000451	-4.513736	-1.529295	0.036409
 676	3.3750e-01	13.0119	5.078996	-0.000451	-4.513736	-1.529295	0.036409
 677	3.3800e-01	12.9702	4.678502	0.000993	9.930220	3.364450	-0.080099
 678	3.3850e-01	12.9237	4.933362	-0.000632	-6.319231	-2.141013	0.050972
 679	3.3900e-01	12.9125	4.714911	0.000542	5.416484	1.835154	-0.043690
 680	3.3950e-01	12.8740	4.896954	-0.000451	-4.513736	-1.529295	0.036409
 681	3.4000e-01	12.8098	4.714911	0.000451	4.513736	1.529295	-0.036409
 682	3.4050e-01	12.7825	4.569276	0.000361	3.610989	1.223436	-0.029127
 683	3.4100e-01	12.7392	4.605685	-0.000090	-0.902747	-0.305859	0.007282
 684	3.4150e-01	12.7007	4.714911	-0.000271	-2.708242	-0.917577	0.021845
 685	3.4200e-01	12.6542	4.678502	0.000090	0.902747	0.305859	-0.007282
 686	3.4250e-01	12.6269	4.569276	0.000271	2.708242	0.917577	-0.021845
 687	3.4300e-01	12.5756	4.241599	0.000812	8.124726	2.752732	-0.065535
 688	3.4350e-01	12.5483	4.569276	-0.000812	-8.124726	-2.752732	0.065535
 689	3.4400e-01	12.5050	4.678502	-0.000271	-2.708242	-0.917577	0.021845
 690	3.4450e-01	12.4537	4.569276	0.000271	2.708242	0.917577	-0.021845
 691	3.4500e-01	12.4184	4.387234	0.000451	4.513736	1.529295	-0.036409
 692	3.4550e-01	12.3751	4.168782	0.000542	5.416484	1.835154	-0.043690
 693	3.4600e-01	12.3430	4.423642	-0.000632	-6.319231	-2.141013	0.050972
 694	3.4650e-01	12.2964	4.132373	0.000722	7.221978	2.446873	-0.058254
 695	3.4700e-01	12.2708	4.314416	-0.000451	-4.513736	-1.529295	0.036409
 696	3.4750e-01	12.2259	4.423642	-0.000271	-2.708242	-0.917577	0.021845
 697	3.4800e-01	12.1729	3.986739	0.001083	10.832968	3.670309	-0.087381
 698	3.4850e-01	12.1585	4.241599	-0.000632	-6.319231	-2.141013	0.050972
 699	3.4900e-01	12.1071	4.095965	0.000361	3.610989	1.223436	-0.029127
 700	3.4950e-01	12.0590	3.950331	0.000361	3.610989	1.223436	-0.029127
 701	3.5000e-01	12.0237	4.095965	-0.000361	-3.610989	-1.223436	0.029127
 702	3.5050e-01	11.9724	3.986739	0.000271	2.708242	0.917577	-0.021845
 703	3.5100e-01	11.9403	4.168782	-0.000451	-4.513736	-1.529295	0.036409
 704	3.5150e-01	11.9066	3.586245	0.001444	14.443957	4.893745	-0.116507
 705	3.5200e-01	11.8585	3.913922	-0.000812	-8.124726	-2.752732	0.065535
 706	3.5250e-01	11.8136	3.695471	0.000542	5.416484	1.835154	-0.043690
 707	3.5300e-01	11.7959	3.768288	-0.000181	-1.805495	-0.611718	0.014563
 708	3.5350e-01	11.7687	3.731879	0.000090	0.902747	0.305859	-0.007282
 709	3.5400e-01	11.6981	3.549836	0.000451	4.513736	1.529295	-0.036409
 710	3.5450e-01	11.6548	3.586245	-0.000090	-0.902747	-0.305859	0.007282
 711	3.5500e-01	11.6146	3.622653	-0.000090	-0.902747	-0.305859	0.007282
 712	3.5550e-01	11.5842	3.549836	0.000181	1.805495	0.611718	-0.014563
 713	3.5600e-01	11.5328	3.258568	0.000722	7.221978	2.446873	-0.058254
 714	3.5650e-01	11.5072	3.659062	-0.000993	-9.930220	-3.364450	0.080099
 715	3.5700e-01	11.4687	3.367793	0.000722	7.221978	2.446873	-0.058254
 716	3.5750e-01	11.4029	2.748848	0.001535	15.346704	5.199604	-0.123789
 717	3.5800e-01	11.3740	3.331385	-0.001444	-14.443957	-4.893745	0.116507
 718	3.5850e-01	11.3307	3.149342	0.000451	4.513736	1.529295	-0.036409
 719	3.5900e-01	11.2906	3.040116	0.000271	2.708242	0.917577	-0.021845
 720	3.5950e-01	11.2649	3.149342	-0.000271	-2.708242	-0.917577	0.021845
 721	3.6000e-01	11.2168	3.549836	-0.000993	-9.930220	-3.364450	0.080099
 722	3.6050e-01	11.1606	3.222159	0.000812	8.124726	2.752732	-0.065535
 723	3.6100e-01	11.1398	2.967299	0.000632	6.319231	2.141013	-0.050972
 724	3.6150e-01	11.1093	2.967299	-0.000000	-0.000000	-0.000000	0.000000
 725	3.6200e-01	11.0756	2.821665	0.000361	3.610989	1.223436	-0.029127
 726	3.6250e-01	11.0082	2.712439	0.000271	2.708242	0.917577	-0.021845
 727	3.6300e-01	10.9778	3.112933	-0.000993	-9.930220	-3.364450	0.080099
 728	3.6350e-01	10.9248	3.003708	0.000271	2.708242	0.917577	-0.021845
 729	3.6400e-01	10.8976	2.821665	0.000451	4.513736	1.529295	-0.036409
 730	3.6450e-01	10.8494	2.603213	0.000542	5.416484	1.835154	-0.043690
 731	3.6500e-01	10.8222	2.639622	-0.000090	-0.902747	-0.305859	0.007282
 732	3.6550e-01	10.7644	2.785256	-0.000361	-3.610989	-1.223436	0.029127
 733	3.6600e-01	10.7275	2.821665	-0.000090	-0.902747	-0.305859	0.007282
 734	3.6650e-01	10.7002	2.530396	0.000722	7.221978	2.446873	-0.058254
 735	3.6700e-01	10.6681	2.493988	0.000090	0.902747	0.305859	-0.007282
 736	3.6750e-01	10.6168	2.676030	-0.000451	-4.513736	-1.529295	0.036409
 737	3.6800e-01	10.5831	2.530396	0.000361	3.610989	1.223436	-0.029127
 738	3.6850e-01	10.5286	2.493988	0.000090	0.902747	0.305859	-0.007282
 739	3.6900e-01	10.4740	2.311945	0.000451	4.513736	1.529295	-0.036409
 740	3.6950e-01	10.4756	2.603213	0.000722	7.221978	2.446873	0.058254
 741	3.7000e-01	10.3954	2.348353	0.000632	6.319231	2.141013	-0.050972
 742	3.7050e-01	10.3698	2.384762	-0.000090	-0.902747	-0.305859	0.007282
 743	3.7100e-01	10.3441	2.239127	0.000361	3.610989	1.223436	-0.029127
 744	3.7150e-01	10.3136	2.384762	-0.000361	-3.610989	-1.223436	0.029127
 745	3.7200e-01	10.2398	2.493988	-0.000271	-2.708242	-0.917577	0.021845
 746	3.7250e-01	10.2222	2.020676	0.001174	11.735715	3.976168	-0.094662
 747	3.7300e-01	10.1965	2.239127	-0.000542	-5.416484	-1.835154	0.043690
 748	3.7350e-01	10.1083	1.875042	0.000903	9.027473	3.058591	-0.072817
 749	3.7400e-01	10.0922	2.020676	-0.000361	-3.610989	-1.223436	0.029127
 750	3.7450e-01	10.0441	2.020676	-0.000000	-0.000000	-0.000000	0.000000
 751	3.7500e-01	10.0232	2.129902	-0.000271	-2.708242	-0.917577	0.021845
 752	3.7550e-01	9.9912	1.875042	0.000632	6.319231	2.141013	-0.050972
 753	3.7600e-01	9.9366	1.875042	-0.000000	-0.000000	-0.000000	0.000000
 754	3.7650e-01	9.8901	1.802225	0.000181	1.805495	0.611718	-0.014563
 755	3.7700e-01	9.8612	1.692999	0.000271	2.708242	0.917577	-0.021845
 756	3.7750e-01	9.8243	1.875042	-0.000451	-4.513736	-1.529295	0.036409
 757	3.7800e-01	9.7762	1.256096	0.001535	15.346704	5.199604	-0.123789
 758	3.7850e-01	9.7489	1.765816	-0.001264	-12.638462	-4.282027	0.101944
 759	3.7900e-01	9.7008	1.365322	0.000993	9.930220	3.364450	-0.080099
 760	3.7950e-01	9.6495	1.729407	-0.000903	-9.027473	-3.058591	0.072817
 761	3.8000e-01	9.6190	1.547365	0.000451	4.513736	1.529295	-0.036409
 762	3.8050e-01	9.5660	1.802225	-0.000632	-6.319231	-2.141013	0.050972
 763	3.8100e-01	9.5452	1.438139	0.000903	9.027473	3.058591	-0.072817
 764	3.8150e-01	9.4955	1.583773	-0.000361	-3.610989	-1.223436	0.029127
 765	3.8200e-01	9.4730	1.219687	0.000903	9.027473	3.058591	-0.072817
 766	3.8250e-01	9.4425	1.438139	-0.000542	-5.416484	-1.835154	0.043690
 767	3.8300e-01	9.3960	1.037644	0.000993	9.930220	3.364450	-0.080099
 768	3.8350e-01	9.3174	1.328913	-0.000722	-7.221978	-2.446873	0.058254
 769	3.8400e-01	9.2981	1.183279	0.000361	3.610989	1.223436	-0.029127
 770	3.8450e-01	9.2757	1.401730	-0.000542	-5.416484	-1.835154	0.043690
 771	3.8500e-01	9.2163	1.146870	0.000632	6.319231	2.141013	-0.050972
 772	3.8550e-01	9.1698	1.219687	-0.000181	-1.805495	-0.611718	0.014563
 773	3.8600e-01	9.1538	1.037644	0.000451	4.513736	1.529295	-0.036409
 774	3.8650e-01	9.0976	1.110462	-0.000181	-1.805495	-0.611718	0.014563
 775	3.8700e-01	9.0431	0.964827	0.000361	3.610989	1.223436	-0.029127
 776	3.8750e-01	9.0078	1.074053	-0.000271	-2.708242	-0.917577	0.021845
 777	3.8800e-01	8.9693	0.600742	0.001174	11.735715	3.976168	-0.094662
 778	3.8850e-01	8.9420	1.219687	-0.001535	-15.346704	-5.199604	0.123789
 779	3.8900e-01	8.8971	0.892010	0.000812	8.124726	2.752732	-0.065535
 780	3.8950e-01	8.8650	0.637150	0.000632	6.319231	2.141013	-0.050972
 781	3.9000e-01	8.7992	0.892010	-0.000632	-6.319231	-2.141013	0.050972
 782	3.9050e-01	8.7848	0.491516	0.000993	9.930220	3.364450	-0.080099
 783	3.9100e-01	8.7495	0.709967	-0.000542	-5.416484	-1.835154	0.043690
 784	3.9150e-01	8.6885	0.928419	-0.000542	-5.416484	-1.835154	0.043690
 785	3.9200e-01	8.6629	0.418699	0.001264	12.638462	4.282027	-0.101944
 786	3.9250e-01	8.6195	0.564333	-0.000361	-3.610989	-1.223436	0.029127
 787	3.9300e-01	8.5842	0.163839	0.000993	9.930220	3.364450	-0.080099
 788	3.9350e-01	8.5393	0.418699	-0.000632	-6.319231	-2.141013	0.050972
 789	3.9400e-01	8.4880	0.746376	-0.000812	-8.124726	-2.752732	0.065535
 790	3.9450e-01	8.4623	0.418699	0.000812	8.124726	2.752732	-0.065535
 791	3.9500e-01	8.4078	0.491516	-0.000181	-1.805495	-0.611718	0.014563
 792	3.9550e-01	8.3789	0.345881	0.000361	3.610989	1.223436	-0.029127
 793	3.9600e-01	8.3324	0.345881	-0.000000	-0.000000	-0.000000	0.000000
 794	3.9650e-01	8.2891	0.309473	0.000090	0.902747	0.305859	-0.007282
 795	3.9700e-01	8.2602	0.345881	-0.000090	-0.902747	-0.305859	0.007282
 796	3.9750e-01	8.2185	0.091021	0.000632	6.319231	2.141013	-0.050972
 797	3.9800e-01	8.1607	-0.091021	0.000451	4.513736	1.529295	-0.036409
 798	3.9850e-01	8.1447	0.018204	-0.000271	-2.708242	-0.917577	0.021845
 799	3.9900e-01	8.1046	0.127430	-0.000271	-2.708242	-0.917577	0.021845
 800	3.9950e-01	8.0549	0.200247	-0.000181	-1.805495	-0.611718	0.014563
 801	4.0000e-01	8.0260	-0.345881	0.001354	13.541209	4.587886	-0.109226
 802	4.0050e-01	7.9827	-0.091021	-0.000632	-6.319231	-2.141013	0.050972
 803	4.0100e-01	7.9217	-0.200247	0.000271	2.708242	0.917577	-0.021845
 804	4.0150e-01	7.8960	-0.127430	-0.000181	-1.805495	-0.611718	0.014563
 805	4.0200e-01	7.8784	-0.345881	0.000542	5.416484	1.835154	-0.043690
 806	4.0250e-01	7.8126	-0.054613	-0.000722	-7.221978	-2.446873	0.058254
 807	4.0300e-01	7.7773	-0.273064	0.000542	5.416484	1.835154	-0.043690
 808	4.0350e-01	7.7484	-0.564333	0.000722	7.221978	2.446873	-0.058254
 809	4.0400e-01	7.6859	-0.746376	0.000451	4.513736	1.529295	-0.036409
 810	4.0450e-01	7.6602	-0.345881	-0.000993	-9.930220	-3.364450	0.080099
 811	4.0500e-01	7.6153	-0.527924	0.000451	4.513736	1.529295	-0.036409
 812	4.0550e-01	7.5736	-0.600742	0.000181	1.805495	0.611718	-0.014563
 813	4.0600e-01	7.5447	-0.746376	0.000361	3.610989	1.223436	-0.029127
 814	4.0650e-01	7.4918	-0.928419	0.000451	4.513736	1.529295	-0.036409
 815	4.0700e-01	7.4565	-0.746376	-0.000451	-4.513736	-1.529295	0.036409
 816	4.0750e-01	7.4116	-0.600742	-0.000361	-3.610989	-1.223436	0.029127
 817	4.0800e-01	7.3891	-0.892010	0.000722	7.221978	2.446873	-0.058254
 818	4.0850e-01	7.3442	-1.146870	0.000632	6.319231	2.141013	-0.050972
 819	4.0900e-01	7.2928	-0.928419	-0.000542	-5.416484	-1.835154	0.043690
 820	4.0950e-01	7.2768	-0.855602	-0.000181	-1.805495	-0.611718	0.014563
 821	4.1000e-01	7.2223	-0.928419	0.000181	1.805495	0.611718	-0.014563
 822	4.1050e-01	7.1757	-1.037644	0.000271	2.708242	0.917577	-0.021845
 823	4.1100e-01	7.1244	-1.001236	-0.000090	-0.902747	-0.305859	0.007282
 824	4.1150e-01	7.0987	-0.928419	-0.000181	-1.805495	-0.611718	0.014563
 825	4.1200e-01	7.0586	-1.328913	0.000993	9.930220	3.364450	-0.080099
 826	4.1250e-01	7.0153	-1.110462	-0.000542	-5.416484	-1.835154	0.043690
 827	4.1300e-01	6.9688	-1.438139	0.000812	8.124726	2.752732	-0.065535
 828	4.1350e-01	6.9319	-1.219687	-0.000542	-5.416484	-1.835154	0.043690
 829	4.1400e-01	6.8950	-1.365322	0.000361	3.610989	1.223436	-0.029127
 830	4.1450e-01	6.8517	-1.474547	0.000271	2.708242	0.917577	-0.021845
 831	4.1500e-01	6.8132	-1.547365	0.000181	1.805495	0.611718	-0.014563
 832	4.1550e-01	6.7667	-1.510956	-0.000090	-0.902747	-0.305859	0.007282
 833	4.1600e-01	6.7442	-1.183279	-0.000812	-8.124726	-2.752732	0.065535
 834	4.1650e-01	6.6993	-1.474547	0.000722	7.221978	2.446873	-0.058254
 835	4.1700e-01	6.6399	-1.583773	0.000271	2.708242	0.917577	-0.021845
 836	4.1750e-01	6.6367	-1.620182	0.000090	0.902747	0.305859	-0.007282
 837	4.1800e-01	6.5870	-1.547365	-0.000181	-1.805495	-0.611718	0.014563
 838	4.1850e-01	6.5276	-1.692999	0.000361	3.610989	1.223436	-0.029127
 839	4.1900e-01	6.5020	-2.093493	0.000993	9.930220	3.364450	-0.080099
 840	4.1950e-01	6.4715	-1.911450	-0.000451	-4.513736	-1.529295	0.036409
 841	4.2000e-01	6.3929	-1.765816	-0.000361	-3.610989	-1.223436	0.029127
 842	4.2050e-01	6.3784	-2.166310	0.000993	9.930220	3.364450	-0.080099
 843	4.2100e-01	6.3335	-1.692999	-0.001174	-11.735715	-3.976168	0.094662
 844	4.2150e-01	6.3046	-2.202719	0.001264	12.638462	4.282027	-0.101944
 845	4.2200e-01	6.2902	-1.765816	-0.001083	-10.832968	-3.670309	0.087381
 846	4.2250e-01	6.2276	-1.911450	0.000361	3.610989	1.223436	-0.029127
 847	4.2300e-01	6.1811	-2.384762	0.001174	11.735715	3.976168	-0.094662
 848	4.2350e-01	6.1586	-2.166310	-0.000542	-5.416484	-1.835154	0.043690
 849	4.2400e-01	6.0993	-2.384762	0.000542	5.416484	1.835154	-0.043690
 850	4.2450e-01	6.0576	-2.348353	-0.000090	-0.902747	-0.305859	0.007282
 851	4.2500e-01	6.0287	-2.166310	-0.000451	-4.513736	-1.529295	0.036409
 852	4.2550e-01	5.9966	-2.530396	0.000903	9.027473	3.058591	-0.072817
 853	4.2600e-01	5.9036	-2.530396	-0.000000	-0.000000	-0.000000	0.000000
 854	4.2650e-01	5.8940	-2.311945	-0.000542	-5.416484	-1.835154	0.043690
 855	4.2700e-01	5.8554	-2.603213	0.000722	7.221978	2.446873	-0.058254
 856	4.2750e-01	5.8089	-2.384762	-0.000542	-5.416484	-1.835154	0.043690
 857	4.2800e-01	5.7817	-2.676030	0.000722	7.221978	2.446873	-0.058254
 858	4.2850e-01	5.7175	-2.421170	-0.000632	-6.319231	-2.141013	0.050972
 859	4.2900e-01	5.7079	-2.821665	0.000993	9.930220	3.364450	-0.080099
 860	4.2950e-01	5.6549	-2.493988	-0.000812	-8.124726	-2.752732	0.065535
 861	4.3000e-01	5.6212	-2.639622	0.000361	3.610989	1.223436	-0.029127
 862	4.3050e-01	5.5811	-2.639622	-0.000000	-0.000000	-0.000000	0.000000
 863	4.3100e-01	5.5346	-2.676030	0.000090	0.902747	0.305859	-0.007282
 864	4.3150e-01	5.5041	-2.785256	0.000271	2.708242	0.917577	-0.021845
 865	4.3200e-01	5.4656	-2.821665	0.000090	0.902747	0.305859	-0.007282
 866	4.3250e-01	5.4319	-2.894482	0.000181	1.805495	0.611718	-0.014563
 867	4.3300e-01	5.3726	-3.185750	0.000722	7.221978	2.446873	-0.058254
 868	4.3350e-01	5.3597	-3.003708	-0.000451	-4.513736	-1.529295	0.036409
 869	4.3400e-01	5.3084	-2.858073	-0.000361	-3.610989	-1.223436	0.029127
 870	4.3450e-01	5.2410	-3.331385	0.001174	11.735715	3.976168	-0.094662
 871	4.3500e-01	5.2202	-3.003708	-0.000812	-8.124726	-2.752732	0.065535
 872	4.3550e-01	5.1945	-2.930890	-0.000181	-1.805495	-0.611718	0.014563
 873	4.3600e-01	5.1335	-3.112933	0.000451	4.513736	1.529295	-0.036409
 874	4.3650e-01	5.1095	-3.112933	-0.000000	-0.000000	-0.000000	0.000000
 875	4.3700e-01	5.0870	-3.513428	0.000993	9.930220	3.364450	-0.080099
 876	4.3750e-01	5.0100	-3.294976	-0.000542	-5.416484	-1.835154	0.043690
 877	4.3800e-01	4.9715	-3.294976	-0.000000	-0.000000	-0.000000	0.000000
 878	4.3850e-01	4.9378	-3.731879	0.001083	10.832968	3.670309	-0.087381
 879	4.3900e-01	4.8817	-3.294976	-0.001083	-10.832968	-3.670309	0.087381
 880	4.3950e-01	4.8512	-4.095965	0.001986	19.860441	6.728899	-0.160198
 881	4.4000e-01	4.8223	-3.367793	-0.001805	-18.054946	-6.117181	0.145634
 882	4.4050e-01	4.7710	-3.877513	0.001264	12.638462	4.282027	-0.101944
 883	4.4100e-01	4.7341	-3.695471	-0.000451	-4.513736	-1.529295	0.036409
 884	4.4150e-01	4.6988	-3.986739	0.000722	7.221978	2.446873	-0.058254
 885	4.4200e-01	4.6635	-3.986739	-0.000000	-0.000000	-0.000000	0.000000
 886	4.4250e-01	4.6282	-3.804696	-0.000451	-4.513736	-1.529295	0.036409
 887	4.4300e-01	4.5769	-3.841105	0.000090	0.902747	0.305859	-0.007282
 888	4.4350e-01	4.5448	-3.877513	0.000090	0.902747	0.305859	-0.007282
 889	4.4400e-01	4.4935	-4.023148	0.000361	3.610989	1.223436	-0.029127
 890	4.4450e-01	4.4501	-3.841105	-0.000451	-4.513736	-1.529295	0.036409
 891	4.4500e-01	4.4229	-4.241599	0.000993	9.930220	3.364450	-0.080099
 892	4.4550e-01	4.3651	-4.314416	0.000181	1.805495	0.611718	-0.014563
 893	4.4600e-01	4.3587	-3.986739	-0.000812	-8.124726	-2.752732	0.065535
 894	4.4650e-01	4.3106	-4.460051	0.001174	11.735715	3.976168	-0.094662
 895	4.4700e-01	4.2592	-4.605685	0.000361	3.610989	1.223436	-0.029127
 896	4.4750e-01	4.2368	-4.168782	-0.001083	-10.832968	-3.670309	0.087381
 897	4.4800e-01	4.1758	-4.387234	0.000542	5.416484	1.835154	-0.043690
 898	4.4850e-01	4.1453	-4.642094	0.000632	6.319231	2.141013	-0.050972
 899	4.4900e-01	4.0844	-4.350825	-0.000722	-7.221978	-2.446873	0.058254
 900	4.4950e-01	4.0683	-4.642094	0.000722	7.221978	2.446873	-0.058254
 901	4.5000e-01	4.0122	-4.787728	0.000361	3.610989	1.223436	-0.029127
 902	4.5050e-01	4.0106	-4.678502	-0.000271	-2.708242	-0.917577	0.021845
 903	4.5100e-01	3.9544	-4.714911	0.000090	0.902747	0.305859	-0.007282
 904	4.5150e-01	3.9047	-4.860545	0.000361	3.610989	1.223436	-0.029127
 905	4.5200e-01	3.8518	-4.532868	-0.000812	-8.124726	-2.752732	0.065535
 906	4.5250e-01	3.7956	-4.824136	0.000722	7.221978	2.446873	-0.058254
 907	4.5300e-01	3.7716	-4.933362	0.000271	2.708242	0.917577	-0.021845
 908	4.5350e-01	3.7411	-4.824136	-0.000271	-2.708242	-0.917577	0.021845
 909	4.5400e-01	3.6833	-4.496459	-0.000812	-8.124726	-2.752732	0.065535
 910	4.5450e-01	3.6544	-5.443082	0.002347	23.471430	7.952336	-0.189325
 911	4.5500e-01	3.6191	-5.078996	-0.000903	-9.027473	-3.058591	0.072817
 912	4.5550e-01	3.5823	-5.078996	-0.000000	-0.000000	-0.000000	0.000000
 913	4.5600e-01	3.5582	-5.224631	0.000361	3.610989	1.223436	-0.029127
 914	4.5650e-01	3.5069	-5.042588	-0.000451	-4.513736	-1.529295	0.036409
 915	4.5700e-01	3.4571	-5.333857	0.000722	7.221978	2.446873	-0.058254
 916	4.5750e-01	3.4218	-5.224631	-0.000271	-2.708242	-0.917577	0.021845
 917	4.5800e-01	3.4026	-5.188222	-0.000090	-0.902747	-0.305859	0.007282
 918	4.5850e-01	3.3272	-5.770759	0.001444	14.443957	4.893745	-0.116507
 919	4.5900e-01	3.2807	-5.297448	-0.001174	-11.735715	-3.976168	0.094662
 920	4.5950e-01	3.2550	-5.843577	0.001354	13.541209	4.587886	-0.109226
 921	4.6000e-01	3.2389	-5.734351	-0.000271	-2.708242	-0.917577	0.021845
 922	4.6050e-01	3.1571	-5.552308	-0.000451	-4.513736	-1.529295	0.036409
 923	4.6100e-01	3.1491	-5.588717	0.000090	0.902747	0.305859	-0.007282
 924	4.6150e-01	3.1026	-5.661534	0.000181	1.805495	0.611718	-0.014563
 925	4.6200e-01	3.0737	-5.697942	0.000090	0.902747	0.305859	-0.007282
 926	4.6250e-01	3.0288	-5.989211	0.000722	7.221978	2.446873	-0.058254
 927	4.6300e-01	2.9967	-5.697942	-0.000722	-7.221978	-2.446873	0.058254
 928	4.6350e-01	2.9374	-5.879985	0.000451	4.513736	1.529295	-0.036409
 929	4.6400e-01	2.8924	-6.025619	0.000361	3.610989	1.223436	-0.029127
 930	4.6450e-01	2.8491	-6.134845	0.000271	2.708242	0.917577	-0.021845
 931	4.6500e-01	2.7882	-5.807168	-0.000812	-8.124726	-2.752732	0.065535
 932	4.6550e-01	2.7882	-6.244071	0.001083	10.832968	3.670309	-0.087381
 933	4.6600e-01	2.7561	-5.989211	-0.000632	-6.319231	-2.141013	0.050972
 934	4.6650e-01	2.6823	-6.571748	0.001444	14.443957	4.893745	-0.116507
 935	4.6700e-01	2.6470	-6.062028	-0.001264	-12.638462	-4.282027	0.101944
 936	4.6750e-01	2.6422	-6.571748	0.001264	12.638462	4.282027	-0.101944
 937	4.6800e-01	2.5796	-6.280480	-0.000722	-7.221978	-2.446873	0.058254
 938	4.6850e-01	2.5379	-6.571748	0.000722	7.221978	2.446873	-0.058254
 939	4.6900e-01	2.5090	-6.426114	-0.000361	-3.610989	-1.223436	0.029127
 940	4.6950e-01	2.4336	-6.316888	-0.000271	-2.708242	-0.917577	0.021845
 941	4.7000e-01	2.4352	-7.008651	-0.001715	-17.152199	-5.811322	-0.138353
 942	4.7050e-01	2.3678	-6.608157	-0.000993	-9.930220	-3.364450	0.080099
 943	4.7100e-01	2.3502	-6.571748	-0.000090	-0.902747	-0.305859	0.007282
 944	4.7150e-01	2.2876	-7.117877	0.001354	13.541209	4.587886	-0.109226
 945	4.7200e-01	2.2764	-6.571748	-0.001354	-13.541209	-4.587886	0.109226
 946	4.7250e-01	2.1978	-7.081468	0.001264	12.638462	4.282027	-0.101944
 947	4.7300e-01	2.1737	-6.680974	-0.000993	-9.930220	-3.364450	0.080099
 948	4.7350e-01	2.1400	-7.227103	0.001354	13.541209	4.587886	-0.109226
 949	4.7400e-01	2.0967	-7.008651	-0.000542	-5.416484	-1.835154	0.043690
 950	4.7450e-01	2.0727	-7.336328	0.000812	8.124726	2.752732	-0.065535
 951	4.7500e-01	2.0069	-7.263511	-0.000181	-1.805495	-0.611718	0.014563
 952	4.7550e-01	1.9941	-7.481963	0.000542	5.416484	1.835154	-0.043690
 953	4.7600e-01	1.9171	-7.372737	-0.000271	-2.708242	-0.917577	0.021845
 954	4.7650e-01	1.9122	-7.081468	-0.000722	-7.221978	-2.446873	0.058254
 955	4.7700e-01	1.8625	-7.227103	0.000361	3.610989	1.223436	-0.029127
 956	4.7750e-01	1.8112	-7.518371	0.000722	7.221978	2.446873	-0.058254
 957	4.7800e-01	1.7631	-7.518371	-0.000000	-0.000000	-0.000000	0.000000
 958	4.7850e-01	1.7342	-7.409145	-0.000271	-2.708242	-0.917577	0.021845
 959	4.7900e-01	1.6844	-7.372737	-0.000090	-0.902747	-0.305859	0.007282
 960	4.7950e-01	1.6700	-7.445554	0.000181	1.805495	0.611718	-0.014563
 961	4.8000e-01	1.6155	-7.627597	0.000451	4.513736	1.529295	-0.036409
 962	4.8050e-01	1.5882	-7.882457	0.000632	6.319231	2.141013	-0.050972
 963	4.8100e-01	1.5529	-7.591188	-0.000722	-7.221978	-2.446873	0.058254
 964	4.8150e-01	1.5160	-7.518371	-0.000181	-1.805495	-0.611718	0.014563
 965	4.8200e-01	1.4502	-7.773231	0.000632	6.319231	2.141013	-0.050972
 966	4.8250e-01	1.4246	-7.627597	-0.000361	-3.610989	-1.223436	0.029127
 967	4.8300e-01	1.3636	-8.173726	0.001354	13.541209	4.587886	-0.109226
 968	4.8350e-01	1.3187	-7.809640	-0.000903	-9.027473	-3.058591	0.072817
 969	4.8400e-01	1.2978	-8.100908	0.000722	7.221978	2.446873	-0.058254
 970	4.8450e-01	1.2722	-8.319360	0.000542	5.416484	1.835154	-0.043690
 971	4.8500e-01	1.2224	-8.028091	-0.000722	-7.221978	-2.446873	0.058254
 972	4.8550e-01	1.1663	-8.574220	0.001354	13.541209	4.587886	-0.109226
 973	4.8600e-01	1.1390	-8.173726	-0.000993	-9.930220	-3.364450	0.080099
 974	4.8650e-01	1.1101	-8.210134	0.000090	0.902747	0.305859	-0.007282
 975	4.8700e-01	1.0524	-8.137317	-0.000181	-1.805495	-0.611718	0.014563
 976	4.8750e-01	1.0251	-8.355768	0.000542	5.416484	1.835154	-0.043690
 977	4.8800e-01	0.9641	-8.901897	0.001354	13.541209	4.587886	-0.109226
 978	4.8850e-01	0.9449	-8.464994	-0.001083	-10.832968	-3.670309	0.087381
 979	4.8900e-01	0.8887	-8.719854	0.000632	6.319231	2.141013	-0.050972
 980	4.8950e-01	0.8502	-8.610628	-0.000271	-2.708242	-0.917577	0.021845
 981	4.9000e-01	0.7973	-8.865488	0.000632	6.319231	2.141013	-0.050972
 982	4.9050e-01	0.7861	-8.719854	-0.000361	-3.610989	-1.223436	0.029127
 983	4.9100e-01	0.7235	-8.756263	0.000090	0.902747	0.305859	-0.007282
 984	4.9150e-01	0.6914	-9.047531	0.000722	7.221978	2.446873	-0.058254
 985	4.9200e-01	0.6465	-9.120349	0.000181	1.805495	0.611718	-0.014563
 986	4.9250e-01	0.6128	-9.120349	-0.000000	-0.000000	-0.000000	0.000000
 987	4.9300e-01	0.5807	-9.375209	0.000632	6.319231	2.141013	-0.050972
 988	4.9350e-01	0.5599	-8.792671	-0.001444	-14.443957	-4.893745	0.116507
 989	4.9400e-01	0.4636	-9.411617	0.001535	15.346704	5.199604	-0.123789
 990	4.9450e-01	0.4524	-9.120349	-0.000722	-7.221978	-2.446873	0.058254
 991	4.9500e-01	0.4299	-9.338800	0.000542	5.416484	1.835154	-0.043690
 992	4.9550e-01	0.3642	-9.338800	-0.000000	-0.000000	-0.000000	0.000000
 993	4.9600e-01	0.3465	-9.484434	0.000361	3.610989	1.223436	-0.029127
 994	4.9650e-01	0.3064	-9.630069	0.000361	3.610989	1.223436	-0.029127
 995	4.9700e-01	0.2631	-9.775703	0.000361	3.610989	1.223436	-0.029127
 996	4.9750e-01	0.2134	-9.630069	-0.000361	-3.610989	-1.223436	0.029127
 997	4.9800e-01	0.1733	-9.812111	0.000451	4.513736	1.529295	-0.036409
 998	4.9850e-01	0.1364	-9.957746	0.000361	3.610989	1.223436	-0.029127
 999	4.9900e-01	0.0818	-9.812111	-0.000361	-3.610989	-1.223436	0.029127
1000	4.9950e-01	0.0738	-9.848520	0.000090	0.902747	0.305859	-0.007282
1001	5.0000e-01	0.0610	-10.212606	0.000090	0.902747	0.305859	-0.072817

PMax (uC/cm2):	2.17e+01
Pr (uC/cm2):	5.83e-01
-Pr (uC/cm2):	0.00e+00
PLoss (uC/cm2):	0.00e+00
C (Max-Eff) (nF):	1.08e-01
K (Eff):	3.67e+02
Vert. (+/-Pr) Shift (uC/cm2):	2.91e-01
Offset (uC/cm2):	1.08e+01

A (Loop Area - uC/cm2·Volts):	4.30e-01



Hysteresis Version: 5.48.1 - Radiant Technologies, Inc., 1999 - 9/12/24

