»»»»»»»»»»»»»»»»»»»»»»»»»»»»»»»»»»»» Hysteresis ««««««««««««««««««««««««««««««««««««
»»»  Executed Version:	5.48.1
»»»  Vision Version:	5.48.4 (R)
»»»  Vision Compiled:	9/18/24
»»»  Driver Version:	5.47.0
»»»  Windows Version:	Windows 8 or 8.1
»»»  Processor Information:	x86 (AMD or Intel) - 32 Processors
»»»  Tester Name:	PMF21124-494 (100V)
»»»  Tester S/N:	PMF21124-494
»»»  Internal Amp Type:	100V RevK 270k
»»»  Internal Amp S/N:	iAB2-596/K     
»»»  Execution Count:	1
»»»»»»»»»»»»»»»»»»»»»»»»»»»»»»»»»»»»»»»»»»««««««««««««««««««««««««««««««««««««««««««

Stored:	10/8/2025 - 20:9:54
Configured:	10/08/25 04:22:59 PM
Executed:	10/08/25 08:09:29 PM

»»»»»»»»»»»»»»»»»»»»»»»»»»»»»»»»»»» Sample Info ««««««««««««««««««««««««««««««««««««
Sample Name:	Int. Ref. Ferroelectric
Lot Name:	N/A
Wafer Name:	N/A
Die Row/Column:	0/0
Capacitor Number:	0
Sample Area (cm2):	1.00e-04
Sample Thickness (microns):	3.00e-01

Amplifier:	Internal

»»»»»»»»»»»»»»»»»»»»»»»»»»»»»»»»»»» Tester Info «««««««««««««««««««««««««««««««««««
Tester Name:	PMF21124-494 (100V)
Tester Serial Number:	PMF21124-494
Return Signal Amp. Level:	0.02 [Index: 2]

»»»»»»»»»»»»»»»»»»»»»»»»»»»»»»»» Hysteresis Info ««««««««««««««««««««««««««««««««««
Task Name:	Hyste-8
Volts:	20.00
Field:	666.67 (kV/cm)
DCBias:	0.00
DCField:	0.00 (kV/cm)
Hysteresis Period (ms):	5.00e-01
Preset:	Enabled
Preset Delay (ms):	1.00e+03
Profile:	Standard Monopolar

»»»»»»»»»»»»»»»»»»»»»»»»»»»»»»»»»»»»»» Data «««««««««««««««««««««««««««««««««««««««
Points:	1001

Valid Data

Point	Time (ms)	Drive Voltage	Measured Polarization (uC/cm2)	Capacitance (uF)	Normalized Capacitance (uF/cm2)	Dielectric Constant	Instantaneous Current (mA)
   1	0.0000e+00	0.0465	-25.303961	-0.000180	-1.795864	-0.608455	-0.014563
   2	5.0000e-04	0.0626	-25.376778	-0.000180	-1.795864	-0.608455	-0.014563
   3	1.0000e-03	0.1219	-25.085510	0.000718	7.183456	2.433821	0.058254
   4	1.5000e-03	0.1749	-25.231144	-0.000359	-3.591728	-1.216910	-0.029127
   5	2.0000e-03	0.1861	-25.267552	-0.000090	-0.897932	-0.304228	-0.007282
   6	2.5000e-03	0.2278	-24.867058	0.000988	9.877251	3.346503	0.080099
   7	3.0000e-03	0.2856	-24.939875	-0.000180	-1.795864	-0.608455	-0.014563
   8	3.5000e-03	0.3192	-24.867058	0.000180	1.795864	0.608455	0.014563
   9	4.0000e-03	0.3674	-24.575789	0.000718	7.183456	2.433821	0.058254
  10	4.5000e-03	0.3834	-24.320929	0.000629	6.285524	2.129593	0.050972
  11	5.0000e-03	0.4556	-24.138887	0.000449	4.489660	1.521138	0.036409
  12	5.5000e-03	0.5101	-24.066069	0.000180	1.795864	0.608455	0.014563
  13	6.0000e-03	0.5294	-24.138887	-0.000180	-1.795864	-0.608455	-0.014563
  14	6.5000e-03	0.5968	-23.920435	0.000539	5.387592	1.825365	0.043690
  15	7.0000e-03	0.6016	-23.447124	0.001167	11.673115	3.954959	0.094662
  16	7.5000e-03	0.6353	-23.701984	-0.000629	-6.285524	-2.129593	-0.050972
  17	8.0000e-03	0.6658	-23.155855	0.001347	13.468979	4.563414	0.109226
  18	8.5000e-03	0.7379	-23.665575	-0.001257	-12.571047	-4.259186	-0.101944
  19	9.0000e-03	0.7444	-23.155855	0.001257	12.571047	4.259186	0.101944
  20	9.5000e-03	0.8486	-23.119446	0.000090	0.897932	0.304228	0.007282
  21	1.0000e-02	0.8406	-22.828178	-0.000718	-7.183456	-2.433821	0.058254
  22	1.0500e-02	0.8984	-23.046629	-0.000539	-5.387592	-1.825365	-0.043690
  23	1.1000e-02	0.9433	-22.609726	0.001078	10.775183	3.650731	0.087381
  24	1.1500e-02	0.9609	-22.718952	-0.000269	-2.693796	-0.912683	-0.021845
  25	1.2000e-02	0.9930	-22.500501	0.000539	5.387592	1.825365	0.043690
  26	1.2500e-02	1.0540	-22.136415	0.000898	8.979320	3.042276	0.072817
  27	1.3000e-02	1.0973	-22.354866	-0.000539	-5.387592	-1.825365	-0.043690
  28	1.3500e-02	1.1230	-21.990780	0.000898	8.979320	3.042276	0.072817
  29	1.4000e-02	1.1486	-21.808738	0.000449	4.489660	1.521138	0.036409
  30	1.4500e-02	1.1984	-21.735920	0.000180	1.795864	0.608455	0.014563
  31	1.5000e-02	1.2577	-21.808738	-0.000180	-1.795864	-0.608455	-0.014563
  32	1.5500e-02	1.2962	-21.663103	0.000359	3.591728	1.216910	0.029127
  33	1.6000e-02	1.3267	-21.299018	0.000898	8.979320	3.042276	0.072817
  34	1.6500e-02	1.3780	-21.553878	-0.000629	-6.285524	-2.129593	-0.050972
  35	1.7000e-02	1.4101	-21.080566	0.001167	11.673115	3.954959	0.094662
  36	1.7500e-02	1.4149	-21.116975	-0.000090	-0.897932	-0.304228	-0.007282
  37	1.8000e-02	1.4871	-20.752889	0.000898	8.979320	3.042276	0.072817
  38	1.8500e-02	1.5417	-21.116975	-0.000898	-8.979320	-3.042276	-0.072817
  39	1.9000e-02	1.5770	-20.607255	0.001257	12.571047	4.259186	0.101944
  40	1.9500e-02	1.5689	-20.862115	0.000629	6.285524	2.129593	-0.050972
  41	2.0000e-02	1.6395	-20.097534	0.001886	18.856571	6.388779	0.152916
  42	2.0500e-02	1.6844	-20.352395	-0.000629	-6.285524	-2.129593	-0.050972
  43	2.1000e-02	1.7406	-19.842674	0.001257	12.571047	4.259186	0.101944
  44	2.1500e-02	1.7759	-20.243169	-0.000988	-9.877251	-3.346503	-0.080099
  45	2.2000e-02	1.8080	-20.170352	0.000180	1.795864	0.608455	0.014563
  46	2.2500e-02	1.8689	-19.988309	0.000449	4.489660	1.521138	0.036409
  47	2.3000e-02	1.9058	-19.624223	0.000898	8.979320	3.042276	0.072817
  48	2.3500e-02	1.9203	-19.187320	0.001078	10.775183	3.650731	0.087381
  49	2.4000e-02	1.9652	-19.369363	-0.000449	-4.489660	-1.521138	-0.036409
  50	2.4500e-02	2.0502	-19.041686	0.000808	8.081388	2.738048	0.065535
  51	2.5000e-02	2.0390	-19.369363	0.000808	8.081388	2.738048	-0.065535
  52	2.5500e-02	2.0727	-19.078094	0.000718	7.183456	2.433821	0.058254
  53	2.6000e-02	2.1304	-18.568374	0.001257	12.571047	4.259186	0.101944
  54	2.6500e-02	2.1721	-18.968869	-0.000988	-9.877251	-3.346503	-0.080099
  55	2.7000e-02	2.1994	-18.677600	0.000718	7.183456	2.433821	0.058254
  56	2.7500e-02	2.2539	-18.386331	0.000718	7.183456	2.433821	0.058254
  57	2.8000e-02	2.2860	-18.604783	-0.000539	-5.387592	-1.825365	-0.043690
  58	2.8500e-02	2.3021	-18.058654	0.001347	13.468979	4.563414	0.109226
  59	2.9000e-02	2.3534	-18.313514	-0.000629	-6.285524	-2.129593	-0.050972
  60	2.9500e-02	2.3871	-17.985837	0.000808	8.081388	2.738048	0.065535
  61	3.0000e-02	2.4368	-17.694568	0.000718	7.183456	2.433821	0.058254
  62	3.0500e-02	2.5010	-17.985837	-0.000718	-7.183456	-2.433821	-0.058254
  63	3.1000e-02	2.5491	-17.621751	0.000898	8.979320	3.042276	0.072817
  64	3.1500e-02	2.5636	-17.294074	0.000808	8.081388	2.738048	0.065535
  65	3.2000e-02	2.6037	-17.548934	-0.000629	-6.285524	-2.129593	-0.050972
  66	3.2500e-02	2.6438	-17.294074	0.000629	6.285524	2.129593	0.050972
  67	3.3000e-02	2.6983	-17.366891	-0.000180	-1.795864	-0.608455	-0.014563
  68	3.3500e-02	2.7160	-16.711537	0.001616	16.162775	5.476096	0.131071
  69	3.4000e-02	2.7641	-17.257665	-0.001347	-13.468979	-4.563414	-0.109226
  70	3.4500e-02	2.8154	-16.675128	0.001437	14.366911	4.867641	0.116507
  71	3.5000e-02	2.8315	-16.747945	-0.000180	-1.795864	-0.608455	-0.014563
  72	3.5500e-02	2.8828	-16.165408	0.001437	14.366911	4.867641	0.116507
  73	3.6000e-02	2.9149	-16.602311	-0.001078	-10.775183	-3.650731	-0.087381
  74	3.6500e-02	2.9662	-16.383860	0.000539	5.387592	1.825365	0.043690
  75	3.7000e-02	2.9967	-16.165408	0.000539	5.387592	1.825365	0.043690
  76	3.7500e-02	3.0384	-16.274634	-0.000269	-2.693796	-0.912683	-0.021845
  77	3.8000e-02	3.1106	-15.619280	0.001616	16.162775	5.476096	0.131071
  78	3.8500e-02	3.1266	-15.728505	-0.000269	-2.693796	-0.912683	-0.021845
  79	3.9000e-02	3.1523	-15.582871	0.000359	3.591728	1.216910	0.029127
  80	3.9500e-02	3.2261	-15.437237	0.000359	3.591728	1.216910	0.029127
  81	4.0000e-02	3.2422	-15.510054	-0.000180	-1.795864	-0.608455	-0.014563
  82	4.0500e-02	3.2614	-15.182377	0.000808	8.081388	2.738048	0.065535
  83	4.1000e-02	3.3224	-14.818291	0.000898	8.979320	3.042276	0.072817
  84	4.1500e-02	3.3593	-15.182377	-0.000898	-8.979320	-3.042276	-0.072817
  85	4.2000e-02	3.3801	-14.818291	0.000898	8.979320	3.042276	0.072817
  86	4.2500e-02	3.4491	-14.636248	0.000449	4.489660	1.521138	0.036409
  87	4.3000e-02	3.4892	-14.818291	-0.000449	-4.489660	-1.521138	-0.036409
  88	4.3500e-02	3.5373	-14.454205	0.000898	8.979320	3.042276	0.072817
  89	4.4000e-02	3.5630	-14.454205	0.000000	0.000000	0.000000	0.000000
  90	4.4500e-02	3.6143	-14.563431	-0.000269	-2.693796	-0.912683	-0.021845
  91	4.5000e-02	3.6464	-14.126528	0.001078	10.775183	3.650731	0.087381
  92	4.5500e-02	3.6994	-14.308571	-0.000449	-4.489660	-1.521138	-0.036409
  93	4.6000e-02	3.7202	-13.980894	0.000808	8.081388	2.738048	0.065535
  94	4.6500e-02	3.7507	-13.980894	0.000000	0.000000	0.000000	0.000000
  95	4.7000e-02	3.7924	-13.543991	0.001078	10.775183	3.650731	0.087381
  96	4.7500e-02	3.8646	-13.762442	-0.000539	-5.387592	-1.825365	-0.043690
  97	4.8000e-02	3.9031	-13.398356	0.000898	8.979320	3.042276	0.072817
  98	4.8500e-02	3.9143	-13.653216	-0.000629	-6.285524	-2.129593	-0.050972
  99	4.9000e-02	3.9560	-13.434765	0.000539	5.387592	1.825365	0.043690
 100	4.9500e-02	4.0106	-13.325539	0.000269	2.693796	0.912683	0.021845
 101	5.0000e-02	4.0411	-12.888636	0.001078	10.775183	3.650731	0.087381
 102	5.0500e-02	4.1084	-13.289131	-0.000988	-9.877251	-3.346503	-0.080099
 103	5.1000e-02	4.1133	-12.451733	0.002065	20.652435	6.997234	0.167479
 104	5.1500e-02	4.1614	-12.633776	-0.000449	-4.489660	-1.521138	-0.036409
 105	5.2000e-02	4.1951	-12.597368	0.000090	0.897932	0.304228	0.007282
 106	5.2500e-02	4.2143	-12.633776	-0.000090	-0.897932	-0.304228	-0.007282
 107	5.3000e-02	4.2785	-12.124056	0.001257	12.571047	4.259186	0.101944
 108	5.3500e-02	4.3234	-12.269690	-0.000359	-3.591728	-1.216910	-0.029127
 109	5.4000e-02	4.3699	-12.014830	0.000629	6.285524	2.129593	0.050972
 110	5.4500e-02	4.4245	-11.905605	0.000269	2.693796	0.912683	0.021845
 111	5.5000e-02	4.4662	-11.759970	0.000359	3.591728	1.216910	0.029127
 112	5.5500e-02	4.5015	-11.796379	-0.000090	-0.897932	-0.304228	-0.007282
 113	5.6000e-02	4.5352	-11.432293	0.000898	8.979320	3.042276	0.072817
 114	5.6500e-02	4.5384	-11.577927	-0.000359	-3.591728	-1.216910	-0.029127
 115	5.7000e-02	4.6090	-11.359476	0.000539	5.387592	1.825365	0.043690
 116	5.7500e-02	4.6491	-11.505110	-0.000359	-3.591728	-1.216910	-0.029127
 117	5.8000e-02	4.6956	-11.177433	0.000808	8.081388	2.738048	0.065535
 118	5.8500e-02	4.7421	-11.031799	0.000359	3.591728	1.216910	0.029127
 119	5.9000e-02	4.7614	-11.104616	-0.000180	-1.795864	-0.608455	-0.014563
 120	5.9500e-02	4.8303	-10.995390	0.000269	2.693796	0.912683	0.021845
 121	6.0000e-02	4.8368	-10.704122	0.000718	7.183456	2.433821	0.058254
 122	6.0500e-02	4.8785	-11.031799	-0.000808	-8.081388	-2.738048	-0.065535
 123	6.1000e-02	4.9234	-10.340036	0.001706	17.060707	5.780324	0.138353
 124	6.1500e-02	4.9908	-10.449262	-0.000269	-2.693796	-0.912683	-0.021845
 125	6.2000e-02	4.9876	-9.903133	-0.001347	-13.468979	-4.563414	0.109226
 126	6.2500e-02	5.0453	-10.267219	-0.000898	-8.979320	-3.042276	-0.072817
 127	6.3000e-02	5.0822	-10.194402	0.000180	1.795864	0.608455	0.014563
 128	6.3500e-02	5.1223	-9.721090	0.001167	11.673115	3.954959	0.094662
 129	6.4000e-02	5.1560	-9.975950	-0.000629	-6.285524	-2.129593	-0.050972
 130	6.4500e-02	5.2298	-9.575456	0.000988	9.877251	3.346503	0.080099
 131	6.5000e-02	5.2330	-9.611864	-0.000090	-0.897932	-0.304228	-0.007282
 132	6.5500e-02	5.2892	-9.320596	0.000718	7.183456	2.433821	0.058254
 133	6.6000e-02	5.3036	-9.284187	0.000090	0.897932	0.304228	0.007282
 134	6.6500e-02	5.3613	-9.284187	0.000000	0.000000	0.000000	0.000000
 135	6.7000e-02	5.4079	-8.992919	0.000718	7.183456	2.433821	0.058254
 136	6.7500e-02	5.4127	-9.247779	-0.000629	-6.285524	-2.129593	-0.050972
 137	6.8000e-02	5.4720	-8.883693	0.000898	8.979320	3.042276	0.072817
 138	6.8500e-02	5.5346	-9.065736	-0.000449	-4.489660	-1.521138	-0.036409
 139	6.9000e-02	5.5715	-8.883693	0.000449	4.489660	1.521138	0.036409
 140	6.9500e-02	5.6228	-8.556016	0.000808	8.081388	2.738048	0.065535
 141	7.0000e-02	5.6373	-8.446790	0.000269	2.693796	0.912683	0.021845
 142	7.0500e-02	5.6822	-8.155521	0.000718	7.183456	2.433821	0.058254
 143	7.1000e-02	5.7191	-8.046296	0.000269	2.693796	0.912683	0.021845
 144	7.1500e-02	5.7704	-7.973478	0.000180	1.795864	0.608455	0.014563
 145	7.2000e-02	5.7849	-7.609393	0.000898	8.979320	3.042276	0.072817
 146	7.2500e-02	5.8587	-7.718618	-0.000269	-2.693796	-0.912683	-0.021845
 147	7.3000e-02	5.8875	-7.682210	0.000090	0.897932	0.304228	0.007282
 148	7.3500e-02	5.9437	-8.009887	-0.000808	-8.081388	-2.738048	-0.065535
 149	7.4000e-02	5.9405	-7.281715	-0.001796	-17.958639	-6.084552	0.145634
 150	7.4500e-02	5.9838	-7.318124	-0.000090	-0.897932	-0.304228	-0.007282
 151	7.5000e-02	6.0367	-6.954038	0.000898	8.979320	3.042276	0.072817
 152	7.5500e-02	6.0929	-7.136081	-0.000449	-4.489660	-1.521138	-0.036409
 153	7.6000e-02	6.1715	-6.917630	0.000539	5.387592	1.825365	0.043690
 154	7.6500e-02	6.1731	-6.662770	0.000629	6.285524	2.129593	0.050972
 155	7.7000e-02	6.2036	-6.844812	-0.000449	-4.489660	-1.521138	-0.036409
 156	7.7500e-02	6.2597	-6.844812	0.000000	0.000000	0.000000	0.000000
 157	7.8000e-02	6.2886	-6.626361	0.000539	5.387592	1.825365	0.043690
 158	7.8500e-02	6.3175	-6.444318	0.000449	4.489660	1.521138	0.036409
 159	7.9000e-02	6.3768	-6.589952	-0.000359	-3.591728	-1.216910	-0.029127
 160	7.9500e-02	6.3929	-6.298684	0.000718	7.183456	2.433821	0.058254
 161	8.0000e-02	6.4217	-5.825372	0.001167	11.673115	3.954959	0.094662
 162	8.0500e-02	6.5052	-6.189458	-0.000898	-8.979320	-3.042276	-0.072817
 163	8.1000e-02	6.4955	-5.934598	-0.000629	-6.285524	-2.129593	0.050972
 164	8.1500e-02	6.5533	-5.934598	0.000000	0.000000	0.000000	0.000000
 165	8.2000e-02	6.6287	-5.861781	0.000180	1.795864	0.608455	0.014563
 166	8.2500e-02	6.6624	-5.060792	0.001975	19.754503	6.693007	0.160198
 167	8.3000e-02	6.6672	-5.716147	-0.001616	-16.162775	-5.476096	-0.131071
 168	8.3500e-02	6.7073	-5.352061	0.000898	8.979320	3.042276	0.072817
 169	8.4000e-02	6.7602	-5.206427	0.000359	3.591728	1.216910	0.029127
 170	8.4500e-02	6.7699	-5.388469	-0.000449	-4.489660	-1.521138	-0.036409
 171	8.5000e-02	6.8517	-4.733115	0.001616	16.162775	5.476096	0.131071
 172	8.5500e-02	6.8886	-5.206427	-0.001167	-11.673115	-3.954959	-0.094662
 173	8.6000e-02	6.9255	-4.623889	0.001437	14.366911	4.867641	0.116507
 174	8.6500e-02	6.9560	-4.551072	0.000180	1.795864	0.608455	0.014563
 175	8.7000e-02	7.0217	-4.660298	-0.000269	-2.693796	-0.912683	-0.021845
 176	8.7500e-02	7.0346	-4.478255	0.000449	4.489660	1.521138	0.036409
 177	8.8000e-02	7.0699	-4.296212	0.000449	4.489660	1.521138	0.036409
 178	8.8500e-02	7.1244	-4.478255	-0.000449	-4.489660	-1.521138	-0.036409
 179	8.9000e-02	7.1645	-4.114169	0.000898	8.979320	3.042276	0.072817
 180	8.9500e-02	7.2030	-3.932126	0.000449	4.489660	1.521138	0.036409
 181	9.0000e-02	7.2527	-3.677266	0.000629	6.285524	2.129593	0.050972
 182	9.0500e-02	7.2880	-4.441846	-0.001886	-18.856571	-6.388779	-0.152916
 183	9.1000e-02	7.3233	-3.604449	0.002065	20.652435	6.997234	0.167479
 184	9.1500e-02	7.3731	-3.531632	0.000180	1.795864	0.608455	0.014563
 185	9.2000e-02	7.3971	-3.203955	0.000808	8.081388	2.738048	0.065535
 186	9.2500e-02	7.4404	-3.531632	-0.000808	-8.081388	-2.738048	-0.065535
 187	9.3000e-02	7.4645	-3.240363	0.000718	7.183456	2.433821	0.058254
 188	9.3500e-02	7.5190	-3.313181	-0.000180	-1.795864	-0.608455	-0.014563
 189	9.4000e-02	7.5784	-3.094729	0.000539	5.387592	1.825365	0.043690
 190	9.4500e-02	7.5944	-3.349589	-0.000629	-6.285524	-2.129593	-0.050972
 191	9.5000e-02	7.6458	-2.767052	0.001437	14.366911	4.867641	0.116507
 192	9.5500e-02	7.7003	-2.694235	0.000180	1.795864	0.608455	0.014563
 193	9.6000e-02	7.7292	-2.730643	-0.000090	-0.897932	-0.304228	-0.007282
 194	9.6500e-02	7.7324	-2.621418	0.000269	2.693796	0.912683	0.021845
 195	9.7000e-02	7.7902	-2.657826	-0.000090	-0.897932	-0.304228	-0.007282
 196	9.7500e-02	7.8383	-2.402966	0.000629	6.285524	2.129593	0.050972
 197	9.8000e-02	7.8816	-2.548600	-0.000359	-3.591728	-1.216910	-0.029127
 198	9.8500e-02	7.9105	-2.184515	0.000898	8.979320	3.042276	0.072817
 199	9.9000e-02	7.9682	-2.184515	0.000000	0.000000	0.000000	0.000000
 200	9.9500e-02	8.0019	-1.856837	0.000808	8.081388	2.738048	0.065535
 201	1.0000e-01	8.0549	-2.002472	-0.000359	-3.591728	-1.216910	-0.029127
 202	1.0050e-01	8.0901	-1.929655	0.000180	1.795864	0.608455	0.014563
 203	1.0100e-01	8.1046	-1.492752	0.001078	10.775183	3.650731	0.087381
 204	1.0150e-01	8.1639	-1.529160	-0.000090	-0.897932	-0.304228	-0.007282
 205	1.0200e-01	8.2185	-1.310709	0.000539	5.387592	1.825365	0.043690
 206	1.0250e-01	8.2201	-1.128666	0.000449	4.489660	1.521138	0.036409
 207	1.0300e-01	8.2987	-1.201483	-0.000180	-1.795864	-0.608455	-0.014563
 208	1.0350e-01	8.3420	-1.165074	0.000090	0.897932	0.304228	0.007282
 209	1.0400e-01	8.3709	-0.764580	0.000988	9.877251	3.346503	0.080099
 210	1.0450e-01	8.4046	-0.946623	-0.000449	-4.489660	-1.521138	-0.036409
 211	1.0500e-01	8.4495	-0.728172	0.000539	5.387592	1.825365	0.043690
 212	1.0550e-01	8.5137	-0.873806	-0.000359	-3.591728	-1.216910	-0.029127
 213	1.0600e-01	8.5377	-0.546129	0.000808	8.081388	2.738048	0.065535
 214	1.0650e-01	8.5810	-0.254860	0.000718	7.183456	2.433821	0.058254
 215	1.0700e-01	8.5923	-0.364086	-0.000269	-2.693796	-0.912683	-0.021845
 216	1.0750e-01	8.6613	-0.327677	0.000090	0.897932	0.304228	0.007282
 217	1.0800e-01	8.6645	-0.254860	0.000180	1.795864	0.608455	0.014563
 218	1.0850e-01	8.7367	-0.291269	-0.000090	-0.897932	-0.304228	-0.007282
 219	1.0900e-01	8.7559	0.182043	0.001167	11.673115	3.954959	0.094662
 220	1.0950e-01	8.8040	0.182043	0.000000	0.000000	0.000000	0.000000
 221	1.1000e-01	8.8538	0.364086	0.000449	4.489660	1.521138	0.036409
 222	1.1050e-01	8.8698	0.546129	0.000449	4.489660	1.521138	0.036409
 223	1.1100e-01	8.9163	0.473312	-0.000180	-1.795864	-0.608455	-0.014563
 224	1.1150e-01	8.9661	0.546129	0.000180	1.795864	0.608455	0.014563
 225	1.1200e-01	8.9997	0.728172	0.000449	4.489660	1.521138	0.036409
 226	1.1250e-01	9.0334	0.837397	0.000269	2.693796	0.912683	0.021845
 227	1.1300e-01	9.0944	0.837397	0.000000	0.000000	0.000000	0.000000
 228	1.1350e-01	9.1409	0.910214	0.000180	1.795864	0.608455	0.014563
 229	1.1400e-01	9.1602	1.310709	0.000988	9.877251	3.346503	0.080099
 230	1.1450e-01	9.1955	1.092257	-0.000539	-5.387592	-1.825365	-0.043690
 231	1.1500e-01	9.2564	1.383526	0.000718	7.183456	2.433821	0.058254
 232	1.1550e-01	9.2612	1.310709	-0.000180	-1.795864	-0.608455	-0.014563
 233	1.1600e-01	9.3366	1.529160	0.000539	5.387592	1.825365	0.043690
 234	1.1650e-01	9.3655	1.492752	-0.000090	-0.897932	-0.304228	-0.007282
 235	1.1700e-01	9.3880	1.601977	0.000269	2.693796	0.912683	0.021845
 236	1.1750e-01	9.4409	1.784020	0.000449	4.489660	1.521138	0.036409
 237	1.1800e-01	9.5147	1.820429	0.000090	0.897932	0.304228	0.007282
 238	1.1850e-01	9.5243	2.148106	0.000808	8.081388	2.738048	0.065535
 239	1.1900e-01	9.5516	2.184515	0.000090	0.897932	0.304228	0.007282
 240	1.1950e-01	9.6126	2.148106	-0.000090	-0.897932	-0.304228	-0.007282
 241	1.2000e-01	9.6398	2.293740	0.000359	3.591728	1.216910	0.029127
 242	1.2050e-01	9.6928	2.257332	-0.000090	-0.897932	-0.304228	-0.007282
 243	1.2100e-01	9.7361	2.548600	0.000718	7.183456	2.433821	0.058254
 244	1.2150e-01	9.7569	2.657826	0.000269	2.693796	0.912683	0.021845
 245	1.2200e-01	9.8051	2.512192	-0.000359	-3.591728	-1.216910	-0.029127
 246	1.2250e-01	9.8323	2.949095	0.001078	10.775183	3.650731	0.087381
 247	1.2300e-01	9.8789	3.058320	0.000269	2.693796	0.912683	0.021845
 248	1.2350e-01	9.9174	3.240363	0.000449	4.489660	1.521138	0.036409
 249	1.2400e-01	9.9847	3.167546	-0.000180	-1.795864	-0.608455	-0.014563
 250	1.2450e-01	9.9815	3.276772	-0.000269	-2.693796	-0.912683	0.021845
 251	1.2500e-01	10.0393	3.240363	-0.000090	-0.897932	-0.304228	-0.007282
 252	1.2550e-01	10.0698	3.349589	0.000269	2.693796	0.912683	0.021845
 253	1.2600e-01	10.1179	3.604449	0.000629	6.285524	2.129593	0.050972
 254	1.2650e-01	10.1676	3.604449	0.000000	0.000000	0.000000	0.000000
 255	1.2700e-01	10.1933	3.495223	-0.000269	-2.693796	-0.912683	-0.021845
 256	1.2750e-01	10.2527	3.859309	0.000898	8.979320	3.042276	0.072817
 257	1.2800e-01	10.2767	3.568041	-0.000718	-7.183456	-2.433821	-0.058254
 258	1.2850e-01	10.3120	4.041352	0.001167	11.673115	3.954959	0.094662
 259	1.2900e-01	10.3810	4.259804	0.000539	5.387592	1.825365	0.043690
 260	1.2950e-01	10.4099	3.822901	-0.001078	-10.775183	-3.650731	-0.087381
 261	1.3000e-01	10.4067	4.369029	-0.001347	-13.468979	-4.563414	0.109226
 262	1.3050e-01	10.4788	4.186986	-0.000449	-4.489660	-1.521138	-0.036409
 263	1.3100e-01	10.5575	4.623889	0.001078	10.775183	3.650731	0.087381
 264	1.3150e-01	10.5799	4.915158	0.000718	7.183456	2.433821	0.058254
 265	1.3200e-01	10.6168	4.369029	-0.001347	-13.468979	-4.563414	-0.109226
 266	1.3250e-01	10.6473	4.915158	0.001347	13.468979	4.563414	0.109226
 267	1.3300e-01	10.6810	4.769524	-0.000359	-3.591728	-1.216910	-0.029127
 268	1.3350e-01	10.7323	5.060792	0.000718	7.183456	2.433821	0.058254
 269	1.3400e-01	10.7580	5.060792	0.000000	0.000000	0.000000	0.000000
 270	1.3450e-01	10.7981	5.388469	0.000808	8.081388	2.738048	0.065535
 271	1.3500e-01	10.8286	5.315652	-0.000180	-1.795864	-0.608455	-0.014563
 272	1.3550e-01	10.8976	5.388469	0.000180	1.795864	0.608455	0.014563
 273	1.3600e-01	10.9312	5.570512	0.000449	4.489660	1.521138	0.036409
 274	1.3650e-01	10.9425	5.643329	0.000180	1.795864	0.608455	0.014563
 275	1.3700e-01	11.0082	5.679738	0.000090	0.897932	0.304228	0.007282
 276	1.3750e-01	11.0387	5.825372	0.000359	3.591728	1.216910	0.029127
 277	1.3800e-01	11.0917	5.825372	0.000000	0.000000	0.000000	0.000000
 278	1.3850e-01	11.1141	6.116641	0.000718	7.183456	2.433821	0.058254
 279	1.3900e-01	11.1671	5.934598	-0.000449	-4.489660	-1.521138	-0.036409
 280	1.3950e-01	11.2232	6.116641	0.000449	4.489660	1.521138	0.036409
 281	1.4000e-01	11.2505	6.225867	0.000269	2.693796	0.912683	0.021845
 282	1.4050e-01	11.2858	6.407910	0.000449	4.489660	1.521138	0.036409
 283	1.4100e-01	11.3243	6.225867	-0.000449	-4.489660	-1.521138	-0.036409
 284	1.4150e-01	11.3483	6.444318	0.000539	5.387592	1.825365	0.043690
 285	1.4200e-01	11.3901	6.881221	0.001078	10.775183	3.650731	0.087381
 286	1.4250e-01	11.4366	6.735587	-0.000359	-3.591728	-1.216910	-0.029127
 287	1.4300e-01	11.4783	6.662770	-0.000180	-1.795864	-0.608455	-0.014563
 288	1.4350e-01	11.5569	7.063264	0.000988	9.877251	3.346503	0.080099
 289	1.4400e-01	11.5697	7.136081	0.000180	1.795864	0.608455	0.014563
 290	1.4450e-01	11.6275	7.427350	0.000718	7.183456	2.433821	0.058254
 291	1.4500e-01	11.6387	7.136081	-0.000718	-7.183456	-2.433821	-0.058254
 292	1.4550e-01	11.6820	7.390941	0.000629	6.285524	2.129593	0.050972
 293	1.4600e-01	11.7061	7.281715	-0.000269	-2.693796	-0.912683	-0.021845
 294	1.4650e-01	11.7334	7.682210	0.000988	9.877251	3.346503	0.080099
 295	1.4700e-01	11.8152	7.609393	-0.000180	-1.795864	-0.608455	-0.014563
 296	1.4750e-01	11.8264	7.718618	0.000269	2.693796	0.912683	0.021845
 297	1.4800e-01	11.8842	7.682210	-0.000090	-0.897932	-0.304228	-0.007282
 298	1.4850e-01	11.9419	8.009887	0.000808	8.081388	2.738048	0.065535
 299	1.4900e-01	11.9451	8.264747	0.000629	6.285524	2.129593	0.050972
 300	1.4950e-01	11.9868	8.082704	-0.000449	-4.489660	-1.521138	-0.036409
 301	1.5000e-01	12.0398	8.373973	0.000718	7.183456	2.433821	0.058254
 302	1.5050e-01	12.0831	8.082704	-0.000718	-7.183456	-2.433821	-0.058254
 303	1.5100e-01	12.1136	8.519607	0.001078	10.775183	3.650731	0.087381
 304	1.5150e-01	12.1601	8.301156	-0.000539	-5.387592	-1.825365	-0.043690
 305	1.5200e-01	12.1986	8.665241	0.000898	8.979320	3.042276	0.072817
 306	1.5250e-01	12.2419	8.920101	0.000629	6.285524	2.129593	0.050972
 307	1.5300e-01	12.2708	8.446790	-0.001167	-11.673115	-3.954959	-0.094662
 308	1.5350e-01	12.3061	9.174961	0.001796	17.958639	6.084552	0.145634
 309	1.5400e-01	12.3349	8.810876	-0.000898	-8.979320	-3.042276	-0.072817
 310	1.5450e-01	12.3975	9.211370	0.000988	9.877251	3.346503	0.080099
 311	1.5500e-01	12.4633	9.320596	0.000269	2.693796	0.912683	0.021845
 312	1.5550e-01	12.5018	9.102144	-0.000539	-5.387592	-1.825365	-0.043690
 313	1.5600e-01	12.5339	9.539047	0.001078	10.775183	3.650731	0.087381
 314	1.5650e-01	12.5547	9.393413	-0.000359	-3.591728	-1.216910	-0.029127
 315	1.5700e-01	12.5980	9.721090	0.000808	8.081388	2.738048	0.065535
 316	1.5750e-01	12.6398	9.429821	-0.000718	-7.183456	-2.433821	-0.058254
 317	1.5800e-01	12.6815	9.575456	0.000359	3.591728	1.216910	0.029127
 318	1.5850e-01	12.7168	9.975950	0.000988	9.877251	3.346503	0.080099
 319	1.5900e-01	12.7745	9.793907	-0.000449	-4.489660	-1.521138	-0.036409
 320	1.5950e-01	12.7970	10.048767	0.000629	6.285524	2.129593	0.050972
 321	1.6000e-01	12.8467	10.376444	0.000808	8.081388	2.738048	0.065535
 322	1.6050e-01	12.8676	10.157993	-0.000539	-5.387592	-1.825365	-0.043690
 323	1.6100e-01	12.9044	10.121584	-0.000090	-0.897932	-0.304228	-0.007282
 324	1.6150e-01	12.9349	10.449262	0.000808	8.081388	2.738048	0.065535
 325	1.6200e-01	13.0087	10.594896	0.000359	3.591728	1.216910	0.029127
 326	1.6250e-01	13.0232	10.558487	-0.000090	-0.897932	-0.304228	-0.007282
 327	1.6300e-01	13.0970	10.813347	0.000629	6.285524	2.129593	0.050972
 328	1.6350e-01	13.1050	10.667713	-0.000359	-3.591728	-1.216910	-0.029127
 329	1.6400e-01	13.1387	11.213842	0.001347	13.468979	4.563414	0.109226
 330	1.6450e-01	13.1884	10.776939	-0.001078	-10.775183	-3.650731	-0.087381
 331	1.6500e-01	13.2285	11.250250	0.001167	11.673115	3.954959	0.094662
 332	1.6550e-01	13.2766	11.141025	-0.000269	-2.693796	-0.912683	-0.021845
 333	1.6600e-01	13.3151	11.359476	0.000539	5.387592	1.825365	0.043690
 334	1.6650e-01	13.3745	11.104616	-0.000629	-6.285524	-2.129593	-0.050972
 335	1.6700e-01	13.4082	11.577927	0.001167	11.673115	3.954959	0.094662
 336	1.6750e-01	13.4114	11.614336	0.000090	0.897932	0.304228	0.007282
 337	1.6800e-01	13.4627	11.723562	0.000269	2.693796	0.912683	0.021845
 338	1.6850e-01	13.5108	11.323067	-0.000988	-9.877251	-3.346503	-0.080099
 339	1.6900e-01	13.5590	11.832788	0.001257	12.571047	4.259186	0.101944
 340	1.6950e-01	13.6071	12.051239	0.000539	5.387592	1.825365	0.043690
 341	1.7000e-01	13.6264	11.942013	-0.000269	-2.693796	-0.912683	-0.021845
 342	1.7050e-01	13.6905	11.723562	-0.000539	-5.387592	-1.825365	-0.043690
 343	1.7100e-01	13.7066	12.233282	0.001257	12.571047	4.259186	0.101944
 344	1.7150e-01	13.7691	12.051239	-0.000449	-4.489660	-1.521138	-0.036409
 345	1.7200e-01	13.7884	12.269690	0.000539	5.387592	1.825365	0.043690
 346	1.7250e-01	13.8349	12.124056	-0.000359	-3.591728	-1.216910	-0.029127
 347	1.7300e-01	13.8686	12.524550	0.000988	9.877251	3.346503	0.080099
 348	1.7350e-01	13.9328	12.524550	0.000000	0.000000	0.000000	0.000000
 349	1.7400e-01	13.9584	12.670185	0.000359	3.591728	1.216910	0.029127
 350	1.7450e-01	13.9857	12.779411	0.000269	2.693796	0.912683	0.021845
 351	1.7500e-01	14.0402	13.034271	0.000629	6.285524	2.129593	0.050972
 352	1.7550e-01	14.0980	12.670185	-0.000898	-8.979320	-3.042276	-0.072817
 353	1.7600e-01	14.1269	13.034271	0.000898	8.979320	3.042276	0.072817
 354	1.7650e-01	14.1493	13.179905	0.000359	3.591728	1.216910	0.029127
 355	1.7700e-01	14.1734	13.325539	0.000359	3.591728	1.216910	0.029127
 356	1.7750e-01	14.2408	13.325539	0.000000	0.000000	0.000000	0.000000
 357	1.7800e-01	14.2793	13.216313	-0.000269	-2.693796	-0.912683	-0.021845
 358	1.7850e-01	14.3033	13.434765	0.000539	5.387592	1.825365	0.043690
 359	1.7900e-01	14.3467	13.434765	0.000000	0.000000	0.000000	0.000000
 360	1.7950e-01	14.3948	13.507582	0.000180	1.795864	0.608455	0.014563
 361	1.8000e-01	14.4381	13.944485	0.001078	10.775183	3.650731	0.087381
 362	1.8050e-01	14.4830	13.798851	-0.000359	-3.591728	-1.216910	-0.029127
 363	1.8100e-01	14.5231	13.980894	0.000449	4.489660	1.521138	0.036409
 364	1.8150e-01	14.5889	13.762442	-0.000539	-5.387592	-1.825365	-0.043690
 365	1.8200e-01	14.6065	14.090119	0.000808	8.081388	2.738048	0.065535
 366	1.8250e-01	14.6370	14.017302	-0.000180	-1.795864	-0.608455	-0.014563
 367	1.8300e-01	14.6787	14.381388	0.000898	8.979320	3.042276	0.072817
 368	1.8350e-01	14.7108	14.053711	-0.000808	-8.081388	-2.738048	-0.065535
 369	1.8400e-01	14.7557	14.563431	0.001257	12.571047	4.259186	0.101944
 370	1.8450e-01	14.7958	14.381388	-0.000449	-4.489660	-1.521138	-0.036409
 371	1.8500e-01	14.8359	14.709065	0.000808	8.081388	2.738048	0.065535
 372	1.8550e-01	14.8777	14.672657	-0.000090	-0.897932	-0.304228	-0.007282
 373	1.8600e-01	14.9210	14.781882	0.000269	2.693796	0.912683	0.021845
 374	1.8650e-01	14.9707	14.963925	0.000449	4.489660	1.521138	0.036409
 375	1.8700e-01	14.9867	15.255194	0.000718	7.183456	2.433821	0.058254
 376	1.8750e-01	15.0204	14.709065	-0.001347	-13.468979	-4.563414	-0.109226
 377	1.8800e-01	15.0846	14.927517	0.000539	5.387592	1.825365	0.043690
 378	1.8850e-01	15.1071	15.218785	0.000718	7.183456	2.433821	0.058254
 379	1.8900e-01	15.1728	15.437237	0.000539	5.387592	1.825365	0.043690
 380	1.8950e-01	15.2081	15.546462	0.000269	2.693796	0.912683	0.021845
 381	1.9000e-01	15.2434	15.473645	-0.000180	-1.795864	-0.608455	-0.014563
 382	1.9050e-01	15.2675	15.582871	0.000269	2.693796	0.912683	0.021845
 383	1.9100e-01	15.3076	15.692097	0.000269	2.693796	0.912683	0.021845
 384	1.9150e-01	15.3734	15.582871	-0.000269	-2.693796	-0.912683	-0.021845
 385	1.9200e-01	15.4119	15.546462	-0.000090	-0.897932	-0.304228	-0.007282
 386	1.9250e-01	15.4135	16.092591	0.001347	13.468979	4.563414	0.109226
 387	1.9300e-01	15.4439	16.238225	0.000359	3.591728	1.216910	0.029127
 388	1.9350e-01	15.5210	16.019774	-0.000539	-5.387592	-1.825365	-0.043690
 389	1.9400e-01	15.5498	16.238225	0.000539	5.387592	1.825365	0.043690
 390	1.9450e-01	15.6140	16.383860	0.000359	3.591728	1.216910	0.029127
 391	1.9500e-01	15.6365	16.675128	0.000718	7.183456	2.433821	0.058254
 392	1.9550e-01	15.6734	16.201817	-0.001167	-11.673115	-3.954959	-0.094662
 393	1.9600e-01	15.7070	16.638720	0.001078	10.775183	3.650731	0.087381
 394	1.9650e-01	15.7760	16.420268	-0.000539	-5.387592	-1.825365	-0.043690
 395	1.9700e-01	15.7969	16.711537	0.000718	7.183456	2.433821	0.058254
 396	1.9750e-01	15.8466	16.456677	-0.000629	-6.285524	-2.129593	-0.050972
 397	1.9800e-01	15.8996	17.148440	0.001706	17.060707	5.780324	0.138353
 398	1.9850e-01	15.9381	16.857171	-0.000718	-7.183456	-2.433821	-0.058254
 399	1.9900e-01	15.9300	17.075623	-0.000539	-5.387592	-1.825365	0.043690
 400	1.9950e-01	15.9701	17.403300	0.000808	8.081388	2.738048	0.065535
 401	2.0000e-01	16.0423	16.929988	-0.001167	-11.673115	-3.954959	-0.094662
 402	2.0050e-01	16.0824	17.039214	0.000269	2.693796	0.912683	0.021845
 403	2.0100e-01	16.1049	17.548934	0.001257	12.571047	4.259186	0.101944
 404	2.0150e-01	16.1306	17.294074	-0.000629	-6.285524	-2.129593	-0.050972
 405	2.0200e-01	16.1851	17.585343	0.000718	7.183456	2.433821	0.058254
 406	2.0250e-01	16.2477	17.803794	0.000539	5.387592	1.825365	0.043690
 407	2.0300e-01	16.2749	17.913020	0.000269	2.693796	0.912683	0.021845
 408	2.0350e-01	16.3311	17.512526	-0.000988	-9.877251	-3.346503	-0.080099
 409	2.0400e-01	16.3552	17.876611	0.000898	8.979320	3.042276	0.072817
 410	2.0450e-01	16.4001	17.985837	0.000269	2.693796	0.912683	0.021845
 411	2.0500e-01	16.4610	18.131471	0.000359	3.591728	1.216910	0.029127
 412	2.0550e-01	16.4723	18.204288	0.000180	1.795864	0.608455	0.014563
 413	2.0600e-01	16.5204	18.349923	0.000359	3.591728	1.216910	0.029127
 414	2.0650e-01	16.5894	18.167880	-0.000449	-4.489660	-1.521138	-0.036409
 415	2.0700e-01	16.6359	18.277106	0.000269	2.693796	0.912683	0.021845
 416	2.0750e-01	16.6487	18.531966	0.000629	6.285524	2.129593	0.050972
 417	2.0800e-01	16.7049	18.604783	0.000180	1.795864	0.608455	0.014563
 418	2.0850e-01	16.7241	18.568374	-0.000090	-0.897932	-0.304228	-0.007282
 419	2.0900e-01	16.7546	18.896051	0.000808	8.081388	2.738048	0.065535
 420	2.0950e-01	16.7787	18.677600	-0.000539	-5.387592	-1.825365	-0.043690
 421	2.1000e-01	16.8268	18.677600	0.000000	0.000000	0.000000	0.000000
 422	2.1050e-01	16.8974	18.932460	0.000629	6.285524	2.129593	0.050972
 423	2.1100e-01	16.9118	19.150911	0.000539	5.387592	1.825365	0.043690
 424	2.1150e-01	16.9616	18.896051	-0.000629	-6.285524	-2.129593	-0.050972
 425	2.1200e-01	16.9968	19.296546	0.000988	9.877251	3.346503	0.080099
 426	2.1250e-01	17.0610	19.478589	0.000449	4.489660	1.521138	0.036409
 427	2.1300e-01	17.0771	19.660632	0.000449	4.489660	1.521138	0.036409
 428	2.1350e-01	17.1316	19.332954	-0.000808	-8.081388	-2.738048	-0.065535
 429	2.1400e-01	17.1557	19.478589	0.000359	3.591728	1.216910	0.029127
 430	2.1450e-01	17.1829	19.769857	0.000718	7.183456	2.433821	0.058254
 431	2.1500e-01	17.2311	19.551406	-0.000539	-5.387592	-1.825365	-0.043690
 432	2.1550e-01	17.3113	19.915492	0.000898	8.979320	3.042276	0.072817
 433	2.1600e-01	17.3321	19.951900	0.000090	0.897932	0.304228	0.007282
 434	2.1650e-01	17.3899	20.097534	0.000359	3.591728	1.216910	0.029127
 435	2.1700e-01	17.3915	19.915492	-0.000449	-4.489660	-1.521138	-0.036409
 436	2.1750e-01	17.4653	20.097534	0.000449	4.489660	1.521138	0.036409
 437	2.1800e-01	17.4653	20.133943	-0.000090	-0.897932	-0.304228	0.007282
 438	2.1850e-01	17.4974	20.352395	0.000539	5.387592	1.825365	0.043690
 439	2.1900e-01	17.5583	20.498029	0.000359	3.591728	1.216910	0.029127
 440	2.1950e-01	17.5968	20.425212	-0.000180	-1.795864	-0.608455	-0.014563
 441	2.2000e-01	17.6321	20.680072	0.000629	6.285524	2.129593	0.050972
 442	2.2050e-01	17.6851	20.498029	-0.000449	-4.489660	-1.521138	-0.036409
 443	2.2100e-01	17.7348	20.680072	0.000449	4.489660	1.521138	0.036409
 444	2.2150e-01	17.7653	20.607255	-0.000180	-1.795864	-0.608455	-0.014563
 445	2.2200e-01	17.7829	20.825706	0.000539	5.387592	1.825365	0.043690
 446	2.2250e-01	17.8503	20.752889	-0.000180	-1.795864	-0.608455	-0.014563
 447	2.2300e-01	17.8679	20.971340	0.000539	5.387592	1.825365	0.043690
 448	2.2350e-01	17.9097	21.408243	0.001078	10.775183	3.650731	0.087381
 449	2.2400e-01	17.9562	21.007749	-0.000988	-9.877251	-3.346503	-0.080099
 450	2.2450e-01	17.9915	21.517469	0.001257	12.571047	4.259186	0.101944
 451	2.2500e-01	18.0508	21.153383	-0.000898	-8.979320	-3.042276	-0.072817
 452	2.2550e-01	18.0797	21.335426	0.000449	4.489660	1.521138	0.036409
 453	2.2600e-01	18.1326	21.663103	0.000808	8.081388	2.738048	0.065535
 454	2.2650e-01	18.1792	21.444652	-0.000539	-5.387592	-1.825365	-0.043690
 455	2.2700e-01	18.1904	21.917963	0.001167	11.673115	3.954959	0.094662
 456	2.2750e-01	18.2449	21.772329	-0.000359	-3.591728	-1.216910	-0.029127
 457	2.2800e-01	18.2818	21.517469	-0.000629	-6.285524	-2.129593	-0.050972
 458	2.2850e-01	18.2979	21.845146	0.000808	8.081388	2.738048	0.065535
 459	2.2900e-01	18.3620	21.917963	0.000180	1.795864	0.608455	0.014563
 460	2.2950e-01	18.4086	21.881555	-0.000090	-0.897932	-0.304228	-0.007282
 461	2.3000e-01	18.4391	22.172823	0.000718	7.183456	2.433821	0.058254
 462	2.3050e-01	18.4888	22.100006	-0.000180	-1.795864	-0.608455	-0.014563
 463	2.3100e-01	18.5209	22.136415	0.000090	0.897932	0.304228	0.007282
 464	2.3150e-01	18.5706	22.245641	0.000269	2.693796	0.912683	0.021845
 465	2.3200e-01	18.6155	22.464092	0.000539	5.387592	1.825365	0.043690
 466	2.3250e-01	18.6107	22.536909	-0.000180	-1.795864	-0.608455	0.014563
 467	2.3300e-01	18.6540	22.464092	-0.000180	-1.795864	-0.608455	-0.014563
 468	2.3350e-01	18.7214	22.864586	0.000988	9.877251	3.346503	0.080099
 469	2.3400e-01	18.7647	22.937403	0.000180	1.795864	0.608455	0.014563
 470	2.3450e-01	18.7759	23.083038	0.000359	3.591728	1.216910	0.029127
 471	2.3500e-01	18.8289	23.046629	-0.000090	-0.897932	-0.304228	-0.007282
 472	2.3550e-01	18.8642	22.828178	-0.000539	-5.387592	-1.825365	-0.043690
 473	2.3600e-01	18.9251	23.010221	0.000449	4.489660	1.521138	0.036409
 474	2.3650e-01	18.9476	23.483532	0.001167	11.673115	3.954959	0.094662
 475	2.3700e-01	18.9957	23.374306	-0.000269	-2.693796	-0.912683	-0.021845
 476	2.3750e-01	19.0535	23.119446	-0.000629	-6.285524	-2.129593	-0.050972
 477	2.3800e-01	19.0936	23.592758	0.001167	11.673115	3.954959	0.094662
 478	2.3850e-01	19.1209	23.374306	-0.000539	-5.387592	-1.825365	-0.043690
 479	2.3900e-01	19.1529	23.556349	0.000449	4.489660	1.521138	0.036409
 480	2.3950e-01	19.1995	23.629166	0.000180	1.795864	0.608455	0.014563
 481	2.4000e-01	19.2588	23.665575	0.000090	0.897932	0.304228	0.007282
 482	2.4050e-01	19.2877	23.265081	-0.000988	-9.877251	-3.346503	-0.080099
 483	2.4100e-01	19.3406	23.884026	0.001526	15.264843	5.171869	0.123789
 484	2.4150e-01	19.3567	24.393747	0.001257	12.571047	4.259186	0.101944
 485	2.4200e-01	19.4080	24.066069	-0.000808	-8.081388	-2.738048	-0.065535
 486	2.4250e-01	19.4176	24.430155	0.000898	8.979320	3.042276	0.072817
 487	2.4300e-01	19.4898	23.920435	-0.001257	-12.571047	-4.259186	-0.101944
 488	2.4350e-01	19.5187	24.357338	0.001078	10.775183	3.650731	0.087381
 489	2.4400e-01	19.5620	24.466564	0.000269	2.693796	0.912683	0.021845
 490	2.4450e-01	19.5845	24.539381	0.000180	1.795864	0.608455	0.014563
 491	2.4500e-01	19.6470	24.502972	-0.000090	-0.897932	-0.304228	-0.007282
 492	2.4550e-01	19.7000	24.430155	-0.000180	-1.795864	-0.608455	-0.014563
 493	2.4600e-01	19.7369	24.903467	0.001167	11.673115	3.954959	0.094662
 494	2.4650e-01	19.7722	24.976284	0.000180	1.795864	0.608455	0.014563
 495	2.4700e-01	19.7962	24.976284	0.000000	0.000000	0.000000	0.000000
 496	2.4750e-01	19.8139	24.830649	-0.000359	-3.591728	-1.216910	-0.029127
 497	2.4800e-01	19.8780	25.012692	0.000449	4.489660	1.521138	0.036409
 498	2.4850e-01	19.9117	25.158327	0.000359	3.591728	1.216910	0.029127
 499	2.4900e-01	19.9551	25.121918	-0.000090	-0.897932	-0.304228	-0.007282
 500	2.4950e-01	20.0016	25.376778	0.000629	6.285524	2.129593	0.050972
 501	2.5000e-01	20.0369	25.376778	0.000000	0.000000	0.000000	0.000000
 502	2.5050e-01	19.9647	25.303961	0.000180	1.795864	0.608455	-0.014563
 503	2.5100e-01	19.9262	25.267552	0.000090	0.897932	0.304228	-0.007282
 504	2.5150e-01	19.8957	25.121918	0.000359	3.591728	1.216910	-0.029127
 505	2.5200e-01	19.8668	25.231144	-0.000269	-2.693796	-0.912683	0.021845
 506	2.5250e-01	19.8123	25.194735	0.000090	0.897932	0.304228	-0.007282
 507	2.5300e-01	19.7802	24.939875	0.000629	6.285524	2.129593	-0.050972
 508	2.5350e-01	19.7192	24.976284	-0.000090	-0.897932	-0.304228	0.007282
 509	2.5400e-01	19.7048	25.267552	-0.000718	-7.183456	-2.433821	0.058254
 510	2.5450e-01	19.6743	24.539381	0.001796	17.958639	6.084552	-0.145634
 511	2.5500e-01	19.6134	25.121918	-0.001437	-14.366911	-4.867641	0.116507
 512	2.5550e-01	19.5668	24.721424	0.000988	9.877251	3.346503	-0.080099
 513	2.5600e-01	19.5347	25.158327	-0.001078	-10.775183	-3.650731	0.087381
 514	2.5650e-01	19.4722	24.539381	0.001526	15.264843	5.171869	-0.123789
 515	2.5700e-01	19.4529	24.575789	-0.000090	-0.897932	-0.304228	0.007282
 516	2.5750e-01	19.4289	24.211704	0.000898	8.979320	3.042276	-0.072817
 517	2.5800e-01	19.3920	24.284521	-0.000180	-1.795864	-0.608455	0.014563
 518	2.5850e-01	19.3503	24.648607	-0.000898	-8.979320	-3.042276	0.072817
 519	2.5900e-01	19.3053	24.575789	0.000180	1.795864	0.608455	-0.014563
 520	2.5950e-01	19.2604	24.430155	0.000359	3.591728	1.216910	-0.029127
 521	2.6000e-01	19.2171	24.248112	0.000449	4.489660	1.521138	-0.036409
 522	2.6050e-01	19.1674	24.029661	0.000539	5.387592	1.825365	-0.043690
 523	2.6100e-01	19.1465	24.029661	-0.000000	-0.000000	-0.000000	0.000000
 524	2.6150e-01	19.0888	24.102478	-0.000180	-1.795864	-0.608455	0.014563
 525	2.6200e-01	19.0535	23.993252	0.000269	2.693796	0.912683	-0.021845
 526	2.6250e-01	19.0021	23.811209	0.000449	4.489660	1.521138	-0.036409
 527	2.6300e-01	18.9684	23.847618	-0.000090	-0.897932	-0.304228	0.007282
 528	2.6350e-01	18.9428	23.811209	0.000090	0.897932	0.304228	-0.007282
 529	2.6400e-01	18.8995	24.102478	-0.000718	-7.183456	-2.433821	0.058254
 530	2.6450e-01	18.8529	23.629166	0.001167	11.673115	3.954959	-0.094662
 531	2.6500e-01	18.8177	23.738392	-0.000269	-2.693796	-0.912683	0.021845
 532	2.6550e-01	18.8000	23.519941	0.000539	5.387592	1.825365	-0.043690
 533	2.6600e-01	18.7326	23.265081	0.000629	6.285524	2.129593	-0.050972
 534	2.6650e-01	18.6925	23.592758	-0.000808	-8.081388	-2.738048	0.065535
 535	2.6700e-01	18.6508	23.483532	0.000269	2.693796	0.912683	-0.021845
 536	2.6750e-01	18.6540	23.374306	-0.000269	-2.693796	-0.912683	-0.021845
 537	2.6800e-01	18.5642	23.337898	0.000090	0.897932	0.304228	-0.007282
 538	2.6850e-01	18.5594	23.265081	0.000180	1.795864	0.608455	-0.014563
 539	2.6900e-01	18.4984	22.937403	0.000808	8.081388	2.738048	-0.065535
 540	2.6950e-01	18.4615	23.301489	-0.000898	-8.979320	-3.042276	0.072817
 541	2.7000e-01	18.4022	22.791769	0.001257	12.571047	4.259186	-0.101944
 542	2.7050e-01	18.3685	22.864586	-0.000180	-1.795864	-0.608455	0.014563
 543	2.7100e-01	18.3268	22.609726	0.000629	6.285524	2.129593	-0.050972
 544	2.7150e-01	18.2979	23.046629	-0.001078	-10.775183	-3.650731	0.087381
 545	2.7200e-01	18.2449	22.718952	0.000808	8.081388	2.738048	-0.065535
 546	2.7250e-01	18.2209	22.646135	0.000180	1.795864	0.608455	-0.014563
 547	2.7300e-01	18.1647	22.791769	-0.000359	-3.591728	-1.216910	0.029127
 548	2.7350e-01	18.1359	22.500501	0.000718	7.183456	2.433821	-0.058254
 549	2.7400e-01	18.0974	22.718952	-0.000539	-5.387592	-1.825365	0.043690
 550	2.7450e-01	18.0653	22.172823	0.001347	13.468979	4.563414	-0.109226
 551	2.7500e-01	18.0348	21.990780	0.000449	4.489660	1.521138	-0.036409
 552	2.7550e-01	17.9498	22.427683	-0.001078	-10.775183	-3.650731	0.087381
 553	2.7600e-01	17.9433	22.245641	0.000449	4.489660	1.521138	-0.036409
 554	2.7650e-01	17.9048	22.027189	0.000539	5.387592	1.825365	-0.043690
 555	2.7700e-01	17.8343	22.063598	-0.000090	-0.897932	-0.304228	0.007282
 556	2.7750e-01	17.8038	21.735920	0.000808	8.081388	2.738048	-0.065535
 557	2.7800e-01	17.7556	21.772329	-0.000090	-0.897932	-0.304228	0.007282
 558	2.7850e-01	17.7348	22.063598	-0.000718	-7.183456	-2.433821	0.058254
 559	2.7900e-01	17.6963	21.699512	0.000898	8.979320	3.042276	-0.072817
 560	2.7950e-01	17.6466	21.845146	-0.000359	-3.591728	-1.216910	0.029127
 561	2.8000e-01	17.6225	21.626695	0.000539	5.387592	1.825365	-0.043690
 562	2.8050e-01	17.5808	21.553878	0.000180	1.795864	0.608455	-0.014563
 563	2.8100e-01	17.5423	21.590286	-0.000090	-0.897932	-0.304228	0.007282
 564	2.8150e-01	17.5038	21.262609	0.000808	8.081388	2.738048	-0.065535
 565	2.8200e-01	17.4444	21.590286	-0.000808	-8.081388	-2.738048	0.065535
 566	2.8250e-01	17.4011	21.153383	0.001078	10.775183	3.650731	-0.087381
 567	2.8300e-01	17.3770	21.335426	-0.000449	-4.489660	-1.521138	0.036409
 568	2.8350e-01	17.3289	21.262609	0.000180	1.795864	0.608455	-0.014563
 569	2.8400e-01	17.3017	20.789297	0.001167	11.673115	3.954959	-0.094662
 570	2.8450e-01	17.2503	20.971340	-0.000449	-4.489660	-1.521138	0.036409
 571	2.8500e-01	17.2182	20.862115	0.000269	2.693796	0.912683	-0.021845
 572	2.8550e-01	17.1685	20.862115	-0.000000	-0.000000	-0.000000	0.000000
 573	2.8600e-01	17.1557	21.007749	-0.000359	-3.591728	-1.216910	0.029127
 574	2.8650e-01	17.0803	20.607255	0.000988	9.877251	3.346503	-0.080099
 575	2.8700e-01	17.0305	20.898523	-0.000718	-7.183456	-2.433821	0.058254
 576	2.8750e-01	16.9936	20.534437	0.000898	8.979320	3.042276	-0.072817
 577	2.8800e-01	16.9664	20.243169	0.000718	7.183456	2.433821	-0.058254
 578	2.8850e-01	16.9503	20.315986	-0.000180	-1.795864	-0.608455	0.014563
 579	2.8900e-01	16.8910	20.352395	-0.000090	-0.897932	-0.304228	0.007282
 580	2.8950e-01	16.8541	20.352395	-0.000000	-0.000000	-0.000000	0.000000
 581	2.9000e-01	16.8075	20.279577	0.000180	1.795864	0.608455	-0.014563
 582	2.9050e-01	16.7530	19.951900	0.000808	8.081388	2.738048	-0.065535
 583	2.9100e-01	16.7450	19.660632	0.000718	7.183456	2.433821	-0.058254
 584	2.9150e-01	16.6888	20.024717	-0.000898	-8.979320	-3.042276	0.072817
 585	2.9200e-01	16.6375	20.061126	-0.000090	-0.897932	-0.304228	0.007282
 586	2.9250e-01	16.6343	19.879083	0.000449	4.489660	1.521138	-0.036409
 587	2.9300e-01	16.5653	19.842674	0.000090	0.897932	0.304228	-0.007282
 588	2.9350e-01	16.5284	19.514997	0.000808	8.081388	2.738048	-0.065535
 589	2.9400e-01	16.4899	19.587814	-0.000180	-1.795864	-0.608455	0.014563
 590	2.9450e-01	16.4642	19.478589	0.000269	2.693796	0.912683	-0.021845
 591	2.9500e-01	16.4081	19.660632	-0.000449	-4.489660	-1.521138	0.036409
 592	2.9550e-01	16.3584	19.260137	0.000988	9.877251	3.346503	-0.080099
 593	2.9600e-01	16.3327	19.587814	-0.000808	-8.081388	-2.738048	0.065535
 594	2.9650e-01	16.3086	19.442180	0.000359	3.591728	1.216910	-0.029127
 595	2.9700e-01	16.2493	19.150911	0.000718	7.183456	2.433821	-0.058254
 596	2.9750e-01	16.2364	19.114503	0.000090	0.897932	0.304228	-0.007282
 597	2.9800e-01	16.1739	19.005277	0.000269	2.693796	0.912683	-0.021845
 598	2.9850e-01	16.1386	18.823234	0.000449	4.489660	1.521138	-0.036409
 599	2.9900e-01	16.0921	18.968869	-0.000359	-3.591728	-1.216910	0.029127
 600	2.9950e-01	16.0680	18.968869	-0.000000	-0.000000	-0.000000	0.000000
 601	3.0000e-01	16.0022	18.859643	0.000269	2.693796	0.912683	-0.021845
 602	3.0050e-01	15.9910	18.167880	0.001706	17.060707	5.780324	-0.138353
 603	3.0100e-01	15.9429	18.714009	-0.001347	-13.468979	-4.563414	0.109226
 604	3.0150e-01	15.8963	18.750417	-0.000090	-0.897932	-0.304228	0.007282
 605	3.0200e-01	15.8498	18.277106	0.001167	11.673115	3.954959	-0.094662
 606	3.0250e-01	15.8033	18.459149	-0.000449	-4.489660	-1.521138	0.036409
 607	3.0300e-01	15.7776	18.095063	0.000898	8.979320	3.042276	-0.072817
 608	3.0350e-01	15.7279	18.277106	-0.000449	-4.489660	-1.521138	0.036409
 609	3.0400e-01	15.7022	17.949428	0.000808	8.081388	2.738048	-0.065535
 610	3.0450e-01	15.6621	18.422740	-0.001167	-11.673115	-3.954959	0.094662
 611	3.0500e-01	15.6012	17.876611	0.001347	13.468979	4.563414	-0.109226
 612	3.0550e-01	15.5964	17.585343	0.000718	7.183456	2.433821	-0.058254
 613	3.0600e-01	15.5049	17.621751	-0.000090	-0.897932	-0.304228	0.007282
 614	3.0650e-01	15.4889	17.985837	-0.000898	-8.979320	-3.042276	0.072817
 615	3.0700e-01	15.4921	17.439708	-0.001347	-13.468979	-4.563414	-0.109226
 616	3.0750e-01	15.4071	17.803794	-0.000898	-8.979320	-3.042276	0.072817
 617	3.0800e-01	15.3621	17.694568	0.000269	2.693796	0.912683	-0.021845
 618	3.0850e-01	15.3493	17.585343	0.000269	2.693796	0.912683	-0.021845
 619	3.0900e-01	15.2579	17.694568	-0.000269	-2.693796	-0.912683	0.021845
 620	3.0950e-01	15.2643	17.257665	-0.001078	-10.775183	-3.650731	-0.087381
 621	3.1000e-01	15.2210	17.439708	-0.000449	-4.489660	-1.521138	0.036409
 622	3.1050e-01	15.1809	17.403300	0.000090	0.897932	0.304228	-0.007282
 623	3.1100e-01	15.1327	17.112031	0.000718	7.183456	2.433821	-0.058254
 624	3.1150e-01	15.0990	17.148440	-0.000090	-0.897932	-0.304228	0.007282
 625	3.1200e-01	15.0381	17.184848	-0.000090	-0.897932	-0.304228	0.007282
 626	3.1250e-01	15.0172	16.747945	0.001078	10.775183	3.650731	-0.087381
 627	3.1300e-01	14.9851	17.039214	-0.000718	-7.183456	-2.433821	0.058254
 628	3.1350e-01	14.9434	16.893580	0.000359	3.591728	1.216910	-0.029127
 629	3.1400e-01	14.8905	16.638720	0.000629	6.285524	2.129593	-0.050972
 630	3.1450e-01	14.8632	16.857171	-0.000539	-5.387592	-1.825365	0.043690
 631	3.1500e-01	14.8359	16.347451	0.001257	12.571047	4.259186	-0.101944
 632	3.1550e-01	14.7589	16.165408	0.000449	4.489660	1.521138	-0.036409
 633	3.1600e-01	14.7220	16.347451	-0.000449	-4.489660	-1.521138	0.036409
 634	3.1650e-01	14.6916	16.092591	0.000629	6.285524	2.129593	-0.050972
 635	3.1700e-01	14.6819	16.129000	-0.000090	-0.897932	-0.304228	0.007282
 636	3.1750e-01	14.6114	16.311042	-0.000449	-4.489660	-1.521138	0.036409
 637	3.1800e-01	14.5536	16.092591	0.000539	5.387592	1.825365	-0.043690
 638	3.1850e-01	14.5376	16.056182	0.000090	0.897932	0.304228	-0.007282
 639	3.1900e-01	14.5376	15.946957	0.000269	2.693796	0.912683	-0.021845
 640	3.1950e-01	14.4381	15.837731	0.000269	2.693796	0.912683	-0.021845
 641	3.2000e-01	14.4301	15.619280	0.000539	5.387592	1.825365	-0.043690
 642	3.2050e-01	14.4076	15.437237	0.000449	4.489660	1.521138	-0.036409
 643	3.2100e-01	14.3531	15.619280	-0.000449	-4.489660	-1.521138	0.036409
 644	3.2150e-01	14.2857	15.400828	0.000539	5.387592	1.825365	-0.043690
 645	3.2200e-01	14.2664	15.400828	-0.000000	-0.000000	-0.000000	0.000000
 646	3.2250e-01	14.2055	15.400828	-0.000000	-0.000000	-0.000000	0.000000
 647	3.2300e-01	14.1509	15.109559	0.000718	7.183456	2.433821	-0.058254
 648	3.2350e-01	14.1638	15.255194	0.000359	3.591728	1.216910	0.029127
 649	3.2400e-01	14.0916	15.145968	0.000269	2.693796	0.912683	-0.021845
 650	3.2450e-01	14.0451	15.218785	-0.000180	-1.795864	-0.608455	0.014563
 651	3.2500e-01	14.0386	14.745474	0.001167	11.673115	3.954959	-0.094662
 652	3.2550e-01	13.9937	14.636248	0.000269	2.693796	0.912683	-0.021845
 653	3.2600e-01	13.9279	14.818291	-0.000449	-4.489660	-1.521138	0.036409
 654	3.2650e-01	13.9135	14.599839	0.000539	5.387592	1.825365	-0.043690
 655	3.2700e-01	13.8461	14.490614	0.000269	2.693796	0.912683	-0.021845
 656	3.2750e-01	13.7916	14.417796	0.000180	1.795864	0.608455	-0.014563
 657	3.2800e-01	13.7643	14.563431	-0.000359	-3.591728	-1.216910	0.029127
 658	3.2850e-01	13.7242	14.308571	0.000629	6.285524	2.129593	-0.050972
 659	3.2900e-01	13.7034	14.053711	0.000629	6.285524	2.129593	-0.050972
 660	3.2950e-01	13.6713	14.235754	-0.000449	-4.489660	-1.521138	0.036409
 661	3.3000e-01	13.6071	14.235754	-0.000000	-0.000000	-0.000000	0.000000
 662	3.3050e-01	13.5574	13.944485	0.000718	7.183456	2.433821	-0.058254
 663	3.3100e-01	13.5237	14.272162	-0.000808	-8.081388	-2.738048	0.065535
 664	3.3150e-01	13.5012	13.653216	0.001526	15.264843	5.171869	-0.123789
 665	3.3200e-01	13.4707	13.944485	-0.000718	-7.183456	-2.433821	0.058254
 666	3.3250e-01	13.4114	13.798851	0.000359	3.591728	1.216910	-0.029127
 667	3.3300e-01	13.3649	13.689625	0.000269	2.693796	0.912683	-0.021845
 668	3.3350e-01	13.3376	13.762442	-0.000180	-1.795864	-0.608455	0.014563
 669	3.3400e-01	13.3023	13.471173	0.000718	7.183456	2.433821	-0.058254
 670	3.3450e-01	13.2766	13.252722	0.000539	5.387592	1.825365	-0.043690
 671	3.3500e-01	13.1980	13.289131	-0.000090	-0.897932	-0.304228	0.007282
 672	3.3550e-01	13.1627	13.507582	-0.000539	-5.387592	-1.825365	0.043690
 673	3.3600e-01	13.1499	13.179905	0.000808	8.081388	2.738048	-0.065535
 674	3.3650e-01	13.0857	13.216313	-0.000090	-0.897932	-0.304228	0.007282
 675	3.3700e-01	13.0569	12.633776	0.001437	14.366911	4.867641	-0.116507
 676	3.3750e-01	12.9959	12.743002	-0.000269	-2.693796	-0.912683	0.021845
 677	3.3800e-01	12.9638	12.597368	0.000359	3.591728	1.216910	-0.029127
 678	3.3850e-01	12.9446	12.633776	-0.000090	-0.897932	-0.304228	0.007282
 679	3.3900e-01	12.9365	12.597368	0.000090	0.897932	0.304228	-0.007282
 680	3.3950e-01	12.8467	12.633776	-0.000090	-0.897932	-0.304228	0.007282
 681	3.4000e-01	12.7954	12.160465	0.001167	11.673115	3.954959	-0.094662
 682	3.4050e-01	12.8146	12.779411	0.001526	15.264843	5.171869	0.123789
 683	3.4100e-01	12.7440	12.087648	0.001706	17.060707	5.780324	-0.138353
 684	3.4150e-01	12.6895	12.670185	-0.001437	-14.366911	-4.867641	0.116507
 685	3.4200e-01	12.6365	12.087648	0.001437	14.366911	4.867641	-0.116507
 686	3.4250e-01	12.6446	12.378916	0.000718	7.183456	2.433821	0.058254
 687	3.4300e-01	12.5724	11.723562	0.001616	16.162775	5.476096	-0.131071
 688	3.4350e-01	12.5692	11.905605	-0.000449	-4.489660	-1.521138	0.036409
 689	3.4400e-01	12.5114	11.978422	-0.000180	-1.795864	-0.608455	0.014563
 690	3.4450e-01	12.4537	11.759970	0.000539	5.387592	1.825365	-0.043690
 691	3.4500e-01	12.4248	11.614336	0.000359	3.591728	1.216910	-0.029127
 692	3.4550e-01	12.3702	11.687153	-0.000180	-1.795864	-0.608455	0.014563
 693	3.4600e-01	12.3446	11.832788	-0.000359	-3.591728	-1.216910	0.029127
 694	3.4650e-01	12.2788	11.468702	0.000898	8.979320	3.042276	-0.072817
 695	3.4700e-01	12.2499	10.958982	0.001257	12.571047	4.259186	-0.101944
 696	3.4750e-01	12.2082	11.359476	-0.000988	-9.877251	-3.346503	0.080099
 697	3.4800e-01	12.1858	11.177433	0.000449	4.489660	1.521138	-0.036409
 698	3.4850e-01	12.1216	11.031799	0.000359	3.591728	1.216910	-0.029127
 699	3.4900e-01	12.0975	11.359476	-0.000808	-8.081388	-2.738048	0.065535
 700	3.4950e-01	12.0590	10.704122	0.001616	16.162775	5.476096	-0.131071
 701	3.5000e-01	11.9852	10.667713	0.000090	0.897932	0.304228	-0.007282
 702	3.5050e-01	11.9612	10.995390	-0.000808	-8.081388	-2.738048	0.065535
 703	3.5100e-01	11.9211	10.594896	0.000988	9.877251	3.346503	-0.080099
 704	3.5150e-01	11.8890	10.412853	0.000449	4.489660	1.521138	-0.036409
 705	3.5200e-01	11.8601	10.376444	0.000090	0.897932	0.304228	-0.007282
 706	3.5250e-01	11.8360	10.522079	-0.000359	-3.591728	-1.216910	0.029127
 707	3.5300e-01	11.7654	10.340036	0.000449	4.489660	1.521138	-0.036409
 708	3.5350e-01	11.7382	10.157993	0.000449	4.489660	1.521138	-0.036409
 709	3.5400e-01	11.6900	10.121584	0.000090	0.897932	0.304228	-0.007282
 710	3.5450e-01	11.6788	10.085176	0.000090	0.897932	0.304228	-0.007282
 711	3.5500e-01	11.6227	10.157993	-0.000180	-1.795864	-0.608455	0.014563
 712	3.5550e-01	11.5617	9.721090	0.001078	10.775183	3.650731	-0.087381
 713	3.5600e-01	11.5425	9.866724	-0.000359	-3.591728	-1.216910	0.029127
 714	3.5650e-01	11.4895	9.721090	0.000359	3.591728	1.216910	-0.029127
 715	3.5700e-01	11.4655	9.393413	0.000808	8.081388	2.738048	-0.065535
 716	3.5750e-01	11.3868	9.466230	-0.000180	-1.795864	-0.608455	0.014563
 717	3.5800e-01	11.3724	9.575456	-0.000269	-2.693796	-0.912683	0.021845
 718	3.5850e-01	11.3548	9.611864	-0.000090	-0.897932	-0.304228	0.007282
 719	3.5900e-01	11.3259	9.721090	-0.000269	-2.693796	-0.912683	0.021845
 720	3.5950e-01	11.2232	9.320596	0.000988	9.877251	3.346503	-0.080099
 721	3.6000e-01	11.2344	9.174961	-0.000359	-3.591728	-1.216910	-0.029127
 722	3.6050e-01	11.1895	9.138553	0.000090	0.897932	0.304228	-0.007282
 723	3.6100e-01	11.1205	8.810876	0.000808	8.081388	2.738048	-0.065535
 724	3.6150e-01	11.1141	9.211370	-0.000988	-9.877251	-3.346503	0.080099
 725	3.6200e-01	11.0708	8.847284	0.000898	8.979320	3.042276	-0.072817
 726	3.6250e-01	11.0115	8.483198	0.000898	8.979320	3.042276	-0.072817
 727	3.6300e-01	10.9681	8.810876	-0.000808	-8.081388	-2.738048	0.065535
 728	3.6350e-01	10.9441	8.301156	0.001257	12.571047	4.259186	-0.101944
 729	3.6400e-01	10.8815	8.592424	-0.000718	-7.183456	-2.433821	0.058254
 730	3.6450e-01	10.8350	8.483198	0.000269	2.693796	0.912683	-0.021845
 731	3.6500e-01	10.8109	8.337564	0.000359	3.591728	1.216910	-0.029127
 732	3.6550e-01	10.7997	8.191930	0.000359	3.591728	1.216910	-0.029127
 733	3.6600e-01	10.7596	7.864253	0.000808	8.081388	2.738048	-0.065535
 734	3.6650e-01	10.7050	7.755027	0.000269	2.693796	0.912683	-0.021845
 735	3.6700e-01	10.6553	8.446790	-0.001706	-17.060707	-5.780324	0.138353
 736	3.6750e-01	10.6024	7.900661	0.001347	13.468979	4.563414	-0.109226
 737	3.6800e-01	10.5751	7.390941	0.001257	12.571047	4.259186	-0.101944
 738	3.6850e-01	10.5254	7.609393	-0.000539	-5.387592	-1.825365	0.043690
 739	3.6900e-01	10.4756	7.572984	0.000090	0.897932	0.304228	-0.007282
 740	3.6950e-01	10.4307	7.500167	0.000180	1.795864	0.608455	-0.014563
 741	3.7000e-01	10.4179	7.536575	-0.000090	-0.897932	-0.304228	0.007282
 742	3.7050e-01	10.3682	7.500167	0.000090	0.897932	0.304228	-0.007282
 743	3.7100e-01	10.3457	7.063264	0.001078	10.775183	3.650731	-0.087381
 744	3.7150e-01	10.3152	7.026855	0.000090	0.897932	0.304228	-0.007282
 745	3.7200e-01	10.2735	7.026855	-0.000000	-0.000000	-0.000000	0.000000
 746	3.7250e-01	10.2254	6.808404	0.000539	5.387592	1.825365	-0.043690
 747	3.7300e-01	10.1837	6.553544	0.000629	6.285524	2.129593	-0.050972
 748	3.7350e-01	10.1484	6.735587	-0.000449	-4.489660	-1.521138	0.036409
 749	3.7400e-01	10.1227	6.699178	0.000090	0.897932	0.304228	-0.007282
 750	3.7450e-01	10.0409	6.553544	0.000359	3.591728	1.216910	-0.029127
 751	3.7500e-01	10.0040	6.444318	0.000269	2.693796	0.912683	-0.021845
 752	3.7550e-01	9.9414	6.262275	0.000449	4.489660	1.521138	-0.036409
 753	3.7600e-01	9.9495	6.553544	0.000718	7.183456	2.433821	0.058254
 754	3.7650e-01	9.8965	6.444318	0.000269	2.693796	0.912683	-0.021845
 755	3.7700e-01	9.8628	5.971007	0.001167	11.673115	3.954959	-0.094662
 756	3.7750e-01	9.7938	6.080232	-0.000269	-2.693796	-0.912683	0.021845
 757	3.7800e-01	9.7489	5.461287	0.001526	15.264843	5.171869	-0.123789
 758	3.7850e-01	9.7152	5.934598	-0.001167	-11.673115	-3.954959	0.094662
 759	3.7900e-01	9.7024	6.043824	-0.000269	-2.693796	-0.912683	0.021845
 760	3.7950e-01	9.6350	5.898189	0.000359	3.591728	1.216910	-0.029127
 761	3.8000e-01	9.6013	5.206427	0.001706	17.060707	5.780324	-0.138353
 762	3.8050e-01	9.5741	5.242835	-0.000090	-0.897932	-0.304228	0.007282
 763	3.8100e-01	9.5548	5.497695	-0.000629	-6.285524	-2.129593	0.050972
 764	3.8150e-01	9.4874	5.206427	0.000718	7.183456	2.433821	-0.058254
 765	3.8200e-01	9.4746	5.097201	0.000269	2.693796	0.912683	-0.021845
 766	3.8250e-01	9.4072	5.133609	-0.000090	-0.897932	-0.304228	0.007282
 767	3.8300e-01	9.3639	4.878749	0.000629	6.285524	2.129593	-0.050972
 768	3.8350e-01	9.3190	4.987975	-0.000269	-2.693796	-0.912683	0.021845
 769	3.8400e-01	9.3174	4.769524	0.000539	5.387592	1.825365	-0.043690
 770	3.8450e-01	9.2388	4.551072	0.000539	5.387592	1.825365	-0.043690
 771	3.8500e-01	9.1987	4.623889	-0.000180	-1.795864	-0.608455	0.014563
 772	3.8550e-01	9.1714	4.514664	0.000269	2.693796	0.912683	-0.021845
 773	3.8600e-01	9.1233	4.296212	0.000539	5.387592	1.825365	-0.043690
 774	3.8650e-01	9.0784	4.223395	0.000180	1.795864	0.608455	-0.014563
 775	3.8700e-01	9.0735	4.259804	-0.000090	-0.897932	-0.304228	0.007282
 776	3.8750e-01	9.0270	4.114169	0.000359	3.591728	1.216910	-0.029127
 777	3.8800e-01	8.9628	4.077761	0.000090	0.897932	0.304228	-0.007282
 778	3.8850e-01	8.9404	4.004943	0.000180	1.795864	0.608455	-0.014563
 779	3.8900e-01	8.8955	3.895718	0.000269	2.693796	0.912683	-0.021845
 780	3.8950e-01	8.8666	3.895718	-0.000000	-0.000000	-0.000000	0.000000
 781	3.9000e-01	8.8297	3.240363	0.001616	16.162775	5.476096	-0.131071
 782	3.9050e-01	8.7735	3.822901	-0.001437	-14.366911	-4.867641	0.116507
 783	3.9100e-01	8.7607	3.458815	0.000898	8.979320	3.042276	-0.072817
 784	3.9150e-01	8.6998	3.604449	-0.000359	-3.591728	-1.216910	0.029127
 785	3.9200e-01	8.6276	3.313181	0.000718	7.183456	2.433821	-0.058254
 786	3.9250e-01	8.6244	3.895718	-0.001437	-14.366911	-4.867641	0.116507
 787	3.9300e-01	8.5698	3.422406	0.001167	11.673115	3.954959	-0.094662
 788	3.9350e-01	8.5682	2.402966	0.002514	25.142095	8.518372	-0.203888
 789	3.9400e-01	8.5040	2.985503	-0.001437	-14.366911	-4.867641	0.116507
 790	3.9450e-01	8.4383	2.767052	0.000539	5.387592	1.825365	-0.043690
 791	3.9500e-01	8.4318	2.767052	-0.000000	-0.000000	-0.000000	0.000000
 792	3.9550e-01	8.3581	2.985503	-0.000539	-5.387592	-1.825365	0.043690
 793	3.9600e-01	8.3147	2.512192	0.001167	11.673115	3.954959	-0.094662
 794	3.9650e-01	8.3131	2.220923	0.000718	7.183456	2.433821	-0.058254
 795	3.9700e-01	8.2570	2.657826	-0.001078	-10.775183	-3.650731	0.087381
 796	3.9750e-01	8.2073	2.548600	0.000269	2.693796	0.912683	-0.021845
 797	3.9800e-01	8.1639	2.220923	0.000808	8.081388	2.738048	-0.065535
 798	3.9850e-01	8.1190	2.220923	-0.000000	-0.000000	-0.000000	0.000000
 799	3.9900e-01	8.0950	1.820429	0.000988	9.877251	3.346503	-0.080099
 800	3.9950e-01	8.0918	1.856837	-0.000090	-0.897932	-0.304228	0.007282
 801	4.0000e-01	8.0164	1.966063	-0.000269	-2.693796	-0.912683	0.021845
 802	4.0050e-01	7.9843	1.711203	0.000629	6.285524	2.129593	-0.050972
 803	4.0100e-01	7.9634	1.711203	-0.000000	-0.000000	-0.000000	0.000000
 804	4.0150e-01	7.8960	1.674795	0.000090	0.897932	0.304228	-0.007282
 805	4.0200e-01	7.8688	1.274300	0.000988	9.877251	3.346503	-0.080099
 806	4.0250e-01	7.8271	1.383526	-0.000269	-2.693796	-0.912683	0.021845
 807	4.0300e-01	7.7902	1.165074	0.000539	5.387592	1.825365	-0.043690
 808	4.0350e-01	7.7244	0.983032	0.000449	4.489660	1.521138	-0.036409
 809	4.0400e-01	7.6698	1.055849	-0.000180	-1.795864	-0.608455	0.014563
 810	4.0450e-01	7.6394	1.092257	-0.000090	-0.897932	-0.304228	0.007282
 811	4.0500e-01	7.6249	0.983032	0.000269	2.693796	0.912683	-0.021845
 812	4.0550e-01	7.5543	0.910214	0.000180	1.795864	0.608455	-0.014563
 813	4.0600e-01	7.5816	0.728172	-0.000449	-4.489660	-1.521138	-0.036409
 814	4.0650e-01	7.5078	0.254860	0.001167	11.673115	3.954959	-0.094662
 815	4.0700e-01	7.4436	0.618946	-0.000898	-8.979320	-3.042276	0.072817
 816	4.0750e-01	7.4276	0.764580	-0.000359	-3.591728	-1.216910	0.029127
 817	4.0800e-01	7.3779	0.182043	0.001437	14.366911	4.867641	-0.116507
 818	4.0850e-01	7.3394	-0.145634	0.000808	8.081388	2.738048	-0.065535
 819	4.0900e-01	7.2961	0.109226	-0.000629	-6.285524	-2.129593	0.050972
 820	4.0950e-01	7.2928	0.254860	-0.000359	-3.591728	-1.216910	0.029127
 821	4.1000e-01	7.2190	-0.254860	0.001257	12.571047	4.259186	-0.101944
 822	4.1050e-01	7.1805	-0.182043	-0.000180	-1.795864	-0.608455	0.014563
 823	4.1100e-01	7.1308	-0.473312	0.000718	7.183456	2.433821	-0.058254
 824	4.1150e-01	7.0955	-0.582537	0.000269	2.693796	0.912683	-0.021845
 825	4.1200e-01	7.0458	-0.400494	-0.000449	-4.489660	-1.521138	0.036409
 826	4.1250e-01	7.0281	-0.473312	0.000180	1.795864	0.608455	-0.014563
 827	4.1300e-01	6.9816	-0.983032	0.001257	12.571047	4.259186	-0.101944
 828	4.1350e-01	6.9415	-0.618946	-0.000898	-8.979320	-3.042276	0.072817
 829	4.1400e-01	6.9158	-1.019440	0.000988	9.877251	3.346503	-0.080099
 830	4.1450e-01	6.8549	-0.983032	-0.000090	-0.897932	-0.304228	0.007282
 831	4.1500e-01	6.8100	-1.128666	0.000359	3.591728	1.216910	-0.029127
 832	4.1550e-01	6.7715	-1.383526	0.000629	6.285524	2.129593	-0.050972
 833	4.1600e-01	6.7282	-1.128666	-0.000629	-6.285524	-2.129593	0.050972
 834	4.1650e-01	6.6913	-1.419935	0.000718	7.183456	2.433821	-0.058254
 835	4.1700e-01	6.6704	-1.638386	0.000539	5.387592	1.825365	-0.043690
 836	4.1750e-01	6.5950	-2.038880	0.000988	9.877251	3.346503	-0.080099
 837	4.1800e-01	6.5725	-1.529160	-0.001257	-12.571047	-4.259186	0.101944
 838	4.1850e-01	6.5068	-1.747612	0.000539	5.387592	1.825365	-0.043690
 839	4.1900e-01	6.4971	-2.293740	0.001347	13.468979	4.563414	-0.109226
 840	4.1950e-01	6.5148	-1.820429	0.001167	11.673115	3.954959	0.094662
 841	4.2000e-01	6.4009	-1.966063	0.000359	3.591728	1.216910	-0.029127
 842	4.2050e-01	6.3640	-2.184515	0.000539	5.387592	1.825365	-0.043690
 843	4.2100e-01	6.3367	-2.330149	0.000359	3.591728	1.216910	-0.029127
 844	4.2150e-01	6.3255	-2.548600	0.000539	5.387592	1.825365	-0.043690
 845	4.2200e-01	6.2661	-2.585009	0.000090	0.897932	0.304228	-0.007282
 846	4.2250e-01	6.2260	-2.475783	-0.000269	-2.693796	-0.912683	0.021845
 847	4.2300e-01	6.1779	-2.730643	0.000629	6.285524	2.129593	-0.050972
 848	4.2350e-01	6.1442	-2.912686	0.000449	4.489660	1.521138	-0.036409
 849	4.2400e-01	6.0720	-3.094729	0.000449	4.489660	1.521138	-0.036409
 850	4.2450e-01	6.0480	-3.240363	0.000359	3.591728	1.216910	-0.029127
 851	4.2500e-01	6.0111	-3.021912	-0.000539	-5.387592	-1.825365	0.043690
 852	4.2550e-01	5.9613	-3.313181	0.000718	7.183456	2.433821	-0.058254
 853	4.2600e-01	5.9469	-3.276772	-0.000090	-0.897932	-0.304228	0.007282
 854	4.2650e-01	5.9116	-3.895718	0.001526	15.264843	5.171869	-0.123789
 855	4.2700e-01	5.8554	-3.276772	-0.001526	-15.264843	-5.171869	0.123789
 856	4.2750e-01	5.8073	-3.604449	0.000808	8.081388	2.738048	-0.065535
 857	4.2800e-01	5.7688	-3.895718	0.000718	7.183456	2.433821	-0.058254
 858	4.2850e-01	5.7383	-3.822901	-0.000180	-1.795864	-0.608455	0.014563
 859	4.2900e-01	5.7271	-4.114169	0.000718	7.183456	2.433821	-0.058254
 860	4.2950e-01	5.6613	-4.150578	0.000090	0.897932	0.304228	-0.007282
 861	4.3000e-01	5.6036	-4.259804	0.000269	2.693796	0.912683	-0.021845
 862	4.3050e-01	5.5811	-4.004943	-0.000629	-6.285524	-2.129593	0.050972
 863	4.3100e-01	5.5555	-4.441846	0.001078	10.775183	3.650731	-0.087381
 864	4.3150e-01	5.5186	-4.587481	0.000359	3.591728	1.216910	-0.029127
 865	4.3200e-01	5.4464	-4.660298	0.000180	1.795864	0.608455	-0.014563
 866	4.3250e-01	5.4303	-4.696706	0.000090	0.897932	0.304228	-0.007282
 867	4.3300e-01	5.3597	-4.987975	0.000718	7.183456	2.433821	-0.058254
 868	4.3350e-01	5.3357	-5.060792	0.000180	1.795864	0.608455	-0.014563
 869	4.3400e-01	5.2972	-5.206427	0.000359	3.591728	1.216910	-0.029127
 870	4.3450e-01	5.2699	-4.987975	-0.000539	-5.387592	-1.825365	0.043690
 871	4.3500e-01	5.2346	-5.424878	0.001078	10.775183	3.650731	-0.087381
 872	4.3550e-01	5.1945	-5.570512	0.000359	3.591728	1.216910	-0.029127
 873	4.3600e-01	5.1624	-5.388469	-0.000449	-4.489660	-1.521138	0.036409
 874	4.3650e-01	5.0886	-5.497695	0.000269	2.693796	0.912683	-0.021845
 875	4.3700e-01	5.0646	-5.788964	0.000718	7.183456	2.433821	-0.058254
 876	4.3750e-01	5.0164	-5.679738	-0.000269	-2.693796	-0.912683	0.021845
 877	4.3800e-01	4.9635	-5.679738	-0.000000	-0.000000	-0.000000	0.000000
 878	4.3850e-01	4.9330	-5.752555	0.000180	1.795864	0.608455	-0.014563
 879	4.3900e-01	4.8897	-6.080232	0.000808	8.081388	2.738048	-0.065535
 880	4.3950e-01	4.8624	-6.189458	0.000269	2.693796	0.912683	-0.021845
 881	4.4000e-01	4.8432	-6.262275	0.000180	1.795864	0.608455	-0.014563
 882	4.4050e-01	4.7838	-6.662770	0.000988	9.877251	3.346503	-0.080099
 883	4.4100e-01	4.7341	-6.626361	-0.000090	-0.897932	-0.304228	0.007282
 884	4.4150e-01	4.7052	-6.771995	0.000359	3.591728	1.216910	-0.029127
 885	4.4200e-01	4.6555	-6.735587	-0.000090	-0.897932	-0.304228	0.007282
 886	4.4250e-01	4.5897	-6.735587	-0.000000	-0.000000	-0.000000	0.000000
 887	4.4300e-01	4.5640	-7.208898	0.001167	11.673115	3.954959	-0.094662
 888	4.4350e-01	4.5271	-7.500167	0.000718	7.183456	2.433821	-0.058254
 889	4.4400e-01	4.4919	-7.099673	-0.000988	-9.877251	-3.346503	0.080099
 890	4.4450e-01	4.4822	-7.682210	0.001437	14.366911	4.867641	-0.116507
 891	4.4500e-01	4.4036	-7.099673	-0.001437	-14.366911	-4.867641	0.116507
 892	4.4550e-01	4.3523	-7.682210	0.001437	14.366911	4.867641	-0.116507
 893	4.4600e-01	4.3459	-7.354533	-0.000808	-8.081388	-2.738048	0.065535
 894	4.4650e-01	4.3138	-7.536575	0.000449	4.489660	1.521138	-0.036409
 895	4.4700e-01	4.2400	-7.827844	0.000718	7.183456	2.433821	-0.058254
 896	4.4750e-01	4.2175	-8.009887	0.000449	4.489660	1.521138	-0.036409
 897	4.4800e-01	4.1614	-7.682210	-0.000808	-8.081388	-2.738048	0.065535
 898	4.4850e-01	4.1277	-8.228338	0.001347	13.468979	4.563414	-0.109226
 899	4.4900e-01	4.0892	-8.556016	0.000808	8.081388	2.738048	-0.065535
 900	4.4950e-01	4.0651	-8.264747	-0.000718	-7.183456	-2.433821	0.058254
 901	4.5000e-01	4.0154	-8.337564	0.000180	1.795864	0.608455	-0.014563
 902	4.5050e-01	4.0122	-8.556016	0.000539	5.387592	1.825365	-0.043690
 903	4.5100e-01	3.9191	-8.628833	0.000180	1.795864	0.608455	-0.014563
 904	4.5150e-01	3.8758	-8.847284	0.000539	5.387592	1.825365	-0.043690
 905	4.5200e-01	3.8550	-9.102144	0.000629	6.285524	2.129593	-0.050972
 906	4.5250e-01	3.8101	-9.138553	0.000090	0.897932	0.304228	-0.007282
 907	4.5300e-01	3.7780	-9.174961	0.000090	0.897932	0.304228	-0.007282
 908	4.5350e-01	3.7347	-9.102144	-0.000180	-1.795864	-0.608455	0.014563
 909	4.5400e-01	3.7186	-9.357004	0.000629	6.285524	2.129593	-0.050972
 910	4.5450e-01	3.6689	-9.830316	0.001167	11.673115	3.954959	-0.094662
 911	4.5500e-01	3.6095	-9.830316	-0.000000	-0.000000	-0.000000	0.000000
 912	4.5550e-01	3.5694	-9.393413	-0.001078	-10.775183	-3.650731	0.087381
 913	4.5600e-01	3.5421	-9.830316	0.001078	10.775183	3.650731	-0.087381
 914	4.5650e-01	3.5020	-9.866724	0.000090	0.897932	0.304228	-0.007282
 915	4.5700e-01	3.4491	-10.048767	0.000449	4.489660	1.521138	-0.036409
 916	4.5750e-01	3.3817	-10.412853	0.000898	8.979320	3.042276	-0.072817
 917	4.5800e-01	3.3978	-10.449262	-0.000090	-0.897932	-0.304228	-0.007282
 918	4.5850e-01	3.3288	-10.631304	0.000449	4.489660	1.521138	-0.036409
 919	4.5900e-01	3.2710	-10.485670	-0.000359	-3.591728	-1.216910	0.029127
 920	4.5950e-01	3.2710	-10.886165	0.000988	9.877251	3.346503	-0.080099
 921	4.6000e-01	3.2181	-10.958982	0.000180	1.795864	0.608455	-0.014563
 922	4.6050e-01	3.1828	-10.740530	-0.000539	-5.387592	-1.825365	0.043690
 923	4.6100e-01	3.1154	-10.922573	0.000449	4.489660	1.521138	-0.036409
 924	4.6150e-01	3.0930	-11.323067	0.000988	9.877251	3.346503	-0.080099
 925	4.6200e-01	3.0593	-11.031799	-0.000718	-7.183456	-2.433821	0.058254
 926	4.6250e-01	2.9935	-11.541519	0.001257	12.571047	4.259186	-0.101944
 927	4.6300e-01	2.9775	-10.995390	-0.001347	-13.468979	-4.563414	0.109226
 928	4.6350e-01	2.9325	-11.323067	0.000808	8.081388	2.738048	-0.065535
 929	4.6400e-01	2.8860	-11.796379	0.001167	11.673115	3.954959	-0.094662
 930	4.6450e-01	2.8796	-11.905605	0.000269	2.693796	0.912683	-0.021845
 931	4.6500e-01	2.8411	-12.014830	0.000269	2.693796	0.912683	-0.021845
 932	4.6550e-01	2.7817	-12.269690	0.000629	6.285524	2.129593	-0.050972
 933	4.6600e-01	2.7208	-12.087648	-0.000449	-4.489660	-1.521138	0.036409
 934	4.6650e-01	2.6967	-12.451733	0.000898	8.979320	3.042276	-0.072817
 935	4.6700e-01	2.6518	-12.597368	0.000359	3.591728	1.216910	-0.029127
 936	4.6750e-01	2.6502	-12.451733	-0.000359	-3.591728	-1.216910	0.029127
 937	4.6800e-01	2.5732	-12.670185	0.000539	5.387592	1.825365	-0.043690
 938	4.6850e-01	2.5636	-12.779411	0.000269	2.693796	0.912683	-0.021845
 939	4.6900e-01	2.5042	-12.997862	0.000539	5.387592	1.825365	-0.043690
 940	4.6950e-01	2.4432	-12.961453	-0.000090	-0.897932	-0.304228	0.007282
 941	4.7000e-01	2.3967	-13.289131	0.000808	8.081388	2.738048	-0.065535
 942	4.7050e-01	2.3662	-12.997862	-0.000718	-7.183456	-2.433821	0.058254
 943	4.7100e-01	2.3518	-13.507582	0.001257	12.571047	4.259186	-0.101944
 944	4.7150e-01	2.2973	-13.507582	-0.000000	-0.000000	-0.000000	0.000000
 945	4.7200e-01	2.2812	-13.762442	0.000629	6.285524	2.129593	-0.050972
 946	4.7250e-01	2.2187	-13.835259	0.000180	1.795864	0.608455	-0.014563
 947	4.7300e-01	2.1625	-13.835259	-0.000000	-0.000000	-0.000000	0.000000
 948	4.7350e-01	2.1433	-13.726034	-0.000269	-2.693796	-0.912683	0.021845
 949	4.7400e-01	2.1048	-14.344979	0.001526	15.264843	5.171869	-0.123789
 950	4.7450e-01	2.0614	-13.908076	-0.001078	-10.775183	-3.650731	0.087381
 951	4.7500e-01	2.0021	-14.490614	0.001437	14.366911	4.867641	-0.116507
 952	4.7550e-01	1.9876	-14.454205	-0.000090	-0.897932	-0.304228	0.007282
 953	4.7600e-01	1.8930	-14.818291	0.000898	8.979320	3.042276	-0.072817
 954	4.7650e-01	1.8978	-14.709065	0.000269	2.693796	0.912683	0.021845
 955	4.7700e-01	1.8994	-14.709065	0.000000	0.000000	0.000000	0.000000
 956	4.7750e-01	1.8288	-14.709065	-0.000000	-0.000000	-0.000000	0.000000
 957	4.7800e-01	1.7695	-15.000334	0.000718	7.183456	2.433821	-0.058254
 958	4.7850e-01	1.7486	-15.291602	0.000718	7.183456	2.433821	-0.058254
 959	4.7900e-01	1.7069	-15.109559	-0.000449	-4.489660	-1.521138	0.036409
 960	4.7950e-01	1.6492	-15.692097	0.001437	14.366911	4.867641	-0.116507
 961	4.8000e-01	1.6251	-15.400828	-0.000718	-7.183456	-2.433821	0.058254
 962	4.8050e-01	1.5962	-16.092591	0.001706	17.060707	5.780324	-0.138353
 963	4.8100e-01	1.5256	-15.910548	-0.000449	-4.489660	-1.521138	0.036409
 964	4.8150e-01	1.5096	-15.801322	-0.000269	-2.693796	-0.912683	0.021845
 965	4.8200e-01	1.4566	-16.274634	0.001167	11.673115	3.954959	-0.094662
 966	4.8250e-01	1.4326	-16.201817	-0.000180	-1.795864	-0.608455	0.014563
 967	4.8300e-01	1.3989	-16.311042	0.000269	2.693796	0.912683	-0.021845
 968	4.8350e-01	1.3443	-16.493085	0.000449	4.489660	1.521138	-0.036409
 969	4.8400e-01	1.3074	-16.565903	0.000180	1.795864	0.608455	-0.014563
 970	4.8450e-01	1.2369	-16.966397	0.000988	9.877251	3.346503	-0.080099
 971	4.8500e-01	1.2048	-17.257665	0.000718	7.183456	2.433821	-0.058254
 972	4.8550e-01	1.1839	-17.330483	0.000180	1.795864	0.608455	-0.014563
 973	4.8600e-01	1.1599	-16.893580	-0.001078	-10.775183	-3.650731	0.087381
 974	4.8650e-01	1.0973	-17.366891	0.001167	11.673115	3.954959	-0.094662
 975	4.8700e-01	1.0315	-17.439708	0.000180	1.795864	0.608455	-0.014563
 976	4.8750e-01	0.9946	-17.439708	-0.000000	-0.000000	-0.000000	0.000000
 977	4.8800e-01	0.9738	-18.095063	0.001616	16.162775	5.476096	-0.131071
 978	4.8850e-01	0.9289	-18.022246	-0.000180	-1.795864	-0.608455	0.014563
 979	4.8900e-01	0.8984	-18.022246	-0.000000	-0.000000	-0.000000	0.000000
 980	4.8950e-01	0.8518	-17.985837	-0.000090	-0.897932	-0.304228	0.007282
 981	4.9000e-01	0.7941	-18.459149	0.001167	11.673115	3.954959	-0.094662
 982	4.9050e-01	0.7636	-18.677600	0.000539	5.387592	1.825365	-0.043690
 983	4.9100e-01	0.7091	-18.277106	-0.000988	-9.877251	-3.346503	0.080099
 984	4.9150e-01	0.6786	-18.823234	0.001347	13.468979	4.563414	-0.109226
 985	4.9200e-01	0.6802	-18.714009	0.000269	2.693796	0.912683	0.021845
 986	4.9250e-01	0.6016	-18.750417	0.000090	0.897932	0.304228	-0.007282
 987	4.9300e-01	0.5631	-19.369363	0.001526	15.264843	5.171869	-0.123789
 988	4.9350e-01	0.5310	-19.332954	-0.000090	-0.897932	-0.304228	0.007282
 989	4.9400e-01	0.4941	-19.369363	0.000090	0.897932	0.304228	-0.007282
 990	4.9450e-01	0.4684	-19.514997	0.000359	3.591728	1.216910	-0.029127
 991	4.9500e-01	0.4139	-19.587814	0.000180	1.795864	0.608455	-0.014563
 992	4.9550e-01	0.4139	-19.915492	0.000808	8.081388	2.738048	-0.065535
 993	4.9600e-01	0.3192	-19.842674	-0.000180	-1.795864	-0.608455	0.014563
 994	4.9650e-01	0.3112	-20.133943	0.000718	7.183456	2.433821	-0.058254
 995	4.9700e-01	0.2230	-19.879083	-0.000629	-6.285524	-2.129593	0.050972
 996	4.9750e-01	0.1829	-20.461620	0.001437	14.366911	4.867641	-0.116507
 997	4.9800e-01	0.1684	-20.570846	0.000269	2.693796	0.912683	-0.021845
 998	4.9850e-01	0.1139	-20.425212	-0.000359	-3.591728	-1.216910	0.029127
 999	4.9900e-01	0.1043	-20.898523	0.001167	11.673115	3.954959	-0.094662
1000	4.9950e-01	0.0578	-20.825706	-0.000180	-1.795864	-0.608455	0.014563
1001	5.0000e-01	0.0658	-21.116975	-0.000180	-1.795864	-0.608455	-0.058254

PMax (uC/cm2):	5.06e+01
Pr (uC/cm2):	4.15e+00
-Pr (uC/cm2):	0.00e+00
PLoss (uC/cm2):	0.00e+00
C (Max-Eff) (nF):	2.53e-01
K (Eff):	8.56e+02
Vert. (+/-Pr) Shift (uC/cm2):	2.08e+00
Offset (uC/cm2):	2.53e+01

A (Loop Area - uC/cm2·Volts):	-1.07e-01



Hysteresis Version: 5.48.1 - Radiant Technologies, Inc., 1999 - 9/12/24

