»»»»»»»»»»»»»»»»»»»»»»»»»»»»»»»»»»»» Hysteresis ««««««««««««««««««««««««««««««««««««
»»»  Executed Version:	5.48.1
»»»  Vision Version:	5.48.4 (R)
»»»  Vision Compiled:	9/18/24
»»»  Driver Version:	5.47.0
»»»  Windows Version:	Windows 8 or 8.1
»»»  Processor Information:	x86 (AMD or Intel) - 32 Processors
»»»  Tester Name:	PMF21124-494 (100V)
»»»  Tester S/N:	PMF21124-494
»»»  Internal Amp Type:	100V RevK 270k
»»»  Internal Amp S/N:	iAB2-596/K     
»»»  Execution Count:	1
»»»»»»»»»»»»»»»»»»»»»»»»»»»»»»»»»»»»»»»»»»««««««««««««««««««««««««««««««««««««««««««

Stored:	6/12/2025 - 10:21:48
Configured:	06/12/25 10:06:17 AM
Executed:	06/12/25 10:21:23 AM

»»»»»»»»»»»»»»»»»»»»»»»»»»»»»»»»»»» Sample Info ««««««««««««««««««««««««««««««««««««
Sample Name:	
Lot Name:	
Wafer Name:	
Die Row/Column:	0/0
Capacitor Number:	0
Sample Area (cm2):	1.00e-04
Sample Thickness (microns):	3.00e-01

Amplifier:	Internal

»»»»»»»»»»»»»»»»»»»»»»»»»»»»»»»»»»» Tester Info «««««««««««««««««««««««««««««««««««
Tester Name:	PMF21124-494 (100V)
Tester Serial Number:	PMF21124-494
Return Signal Amp. Level:	1.79 [Index: 2]

»»»»»»»»»»»»»»»»»»»»»»»»»»»»»»»» Hysteresis Info ««««««««««««««««««««««««««««««««««
Task Name:	Hyst-1390
Volts:	20.00
Field:	666.67 (kV/cm)
DCBias:	0.00
DCField:	0.00 (kV/cm)
Hysteresis Period (ms):	1.00e+00
Preset:	Enabled
Preset Delay (ms):	1.00e+03
Profile:	Standard Bipolar

»»»»»»»»»»»»»»»»»»»»»»»»»»»»»»»»»»»»»» Data «««««««««««««««««««««««««««««««««««««««
Points:	2001

Valid Data

Point	Time (ms)	Drive Voltage	Measured Polarization (uC/cm2)	Capacitance (uF)	Normalized Capacitance (uF/cm2)	Dielectric Constant	Instantaneous Current (mA)
   1	0.0000e+00	0.0353	-1.113536	-0.000388	-3.883461	-1.315752	0.031559
   2	5.0000e-04	0.0257	-0.955742	-0.000388	-3.883461	-1.315752	0.031559
   3	1.0000e-03	0.1139	-0.973275	-0.000043	-0.431496	-0.146195	-0.003507
   4	1.5000e-03	0.1668	-0.871928	0.000249	2.494255	0.845077	0.020269
   5	2.0000e-03	0.1765	-0.771864	0.000246	2.462682	0.834379	0.020013
   6	2.5000e-03	0.2406	-0.663247	0.000267	2.673168	0.905694	0.021723
   7	3.0000e-03	0.2791	-0.591406	0.000177	1.768080	0.599042	0.014368
   8	3.5000e-03	0.3064	-0.467822	0.000304	3.041518	1.030494	0.024717
   9	4.0000e-03	0.3658	-0.425487	0.000104	1.041904	0.353007	0.008467
  10	4.5000e-03	0.3978	-0.297627	0.000315	3.146761	1.066151	0.025572
  11	5.0000e-03	0.4508	-0.225359	0.000178	1.778604	0.602607	0.014454
  12	5.5000e-03	0.4797	-0.153517	0.000177	1.768080	0.599042	0.014368
  13	6.0000e-03	0.5406	-0.025658	0.000315	3.146761	1.066151	0.025572
  14	6.5000e-03	0.5470	0.082959	0.000267	2.673168	0.905694	0.021723
  15	7.0000e-03	0.6096	0.165491	0.000203	2.031187	0.688185	0.016506
  16	7.5000e-03	0.6321	0.275391	0.000270	2.704741	0.916391	0.021980
  17	8.0000e-03	0.6609	0.381869	0.000262	2.620547	0.887865	0.021296
  18	8.5000e-03	0.7171	0.471243	0.000220	2.199575	0.745236	0.017875
  19	9.0000e-03	0.7732	0.537953	0.000164	1.641788	0.556253	0.013342
  20	9.5000e-03	0.8053	0.627326	0.000220	2.199575	0.745236	0.017875
  21	1.0000e-02	0.8166	0.761601	0.000330	3.304625	1.119637	0.026855
  22	1.0500e-02	0.8535	0.883901	0.000301	3.009945	1.019797	0.024460
  23	1.1000e-02	0.8968	0.977124	0.000229	2.294294	0.777328	0.018644
  24	1.1500e-02	0.9577	1.015182	0.000094	0.936661	0.317349	0.007612
  25	1.2000e-02	0.9962	1.113536	0.000242	2.420585	0.820116	0.019671
  26	1.2500e-02	1.0363	1.228995	0.000284	2.841557	0.962745	0.023092
  27	1.3000e-02	1.0395	1.353862	0.000307	3.073091	1.041191	0.024973
  28	1.3500e-02	1.1165	1.411591	0.000142	1.420778	0.481373	0.011546
  29	1.4000e-02	1.1326	1.502675	0.000224	2.241672	0.759499	0.018217
  30	1.4500e-02	1.1968	1.608299	0.000260	2.599498	0.880734	0.021125
  31	1.5000e-02	1.2160	1.701093	0.000228	2.283769	0.773762	0.018559
  32	1.5500e-02	1.2561	1.833230	0.000325	3.252004	1.101809	0.026427
  33	1.6000e-02	1.3395	1.848624	0.000038	0.378874	0.128366	0.003079
  34	1.6500e-02	1.3411	1.994444	0.000359	3.588781	1.215912	0.029164
  35	1.7000e-02	1.3989	2.037207	0.000105	1.052428	0.356572	0.008553
  36	1.7500e-02	1.4262	2.176613	0.000343	3.430916	1.162426	0.027881
  37	1.8000e-02	1.4791	2.244177	0.000166	1.662837	0.563384	0.013513
  38	1.8500e-02	1.5272	2.372037	0.000315	3.146761	1.066151	0.025572
  39	1.9000e-02	1.5609	2.437464	0.000161	1.610215	0.545556	0.013085
  40	1.9500e-02	1.5625	2.567035	0.000319	3.188858	1.080414	0.025914
  41	2.0000e-02	1.6508	2.635027	0.000167	1.673361	0.566950	0.013598
  42	2.0500e-02	1.6556	2.730815	0.000236	2.357439	0.798722	0.019158
  43	2.1000e-02	1.7310	2.815057	0.000207	2.073284	0.702448	0.016848
  44	2.1500e-02	1.7727	2.898444	0.000205	2.052235	0.695316	0.016677
  45	2.2000e-02	1.7967	3.025449	0.000313	3.125712	1.059020	0.025401
  46	2.2500e-02	1.8208	3.036995	0.000028	0.284156	0.096275	0.002309
  47	2.3000e-02	1.8529	3.182387	0.000358	3.578256	1.212346	0.029079
  48	2.3500e-02	1.9171	3.285445	0.000254	2.536352	0.859339	0.020612
  49	2.4000e-02	1.9347	3.414588	0.000318	3.178334	1.076849	0.025829
  50	2.4500e-02	1.9844	3.432976	0.000045	0.452544	0.153326	0.003678
  51	2.5000e-02	2.0358	3.608730	0.000433	4.325480	1.465512	0.035151
  52	2.5500e-02	2.0807	3.674584	0.000162	1.620740	0.549121	0.013171
  53	2.6000e-02	2.1015	3.775931	0.000249	2.494255	0.845077	0.020269
  54	2.6500e-02	2.1449	3.852904	0.000189	1.894371	0.641830	0.015395
  55	2.7000e-02	2.1818	3.905074	0.000128	1.283963	0.435018	0.010434
  56	2.7500e-02	2.2170	4.021816	0.000287	2.873129	0.973443	0.023348
  57	2.8000e-02	2.2572	4.117604	0.000236	2.357439	0.798722	0.019158
  58	2.8500e-02	2.3101	4.195004	0.000190	1.904895	0.645396	0.015480
  59	2.9000e-02	2.3438	4.342962	0.000364	3.641402	1.233740	0.029592
  60	2.9500e-02	2.4063	4.375462	0.000080	0.799846	0.270995	0.006500
  61	3.0000e-02	2.4384	4.474671	0.000244	2.441634	0.827248	0.019842
  62	3.0500e-02	2.4801	4.565327	0.000223	2.231148	0.755933	0.018131
  63	3.1000e-02	2.5042	4.663254	0.000241	2.410061	0.816551	0.019585
  64	3.1500e-02	2.5459	4.779568	0.000286	2.862605	0.969877	0.023263
  65	3.2000e-02	2.6133	4.819337	0.000098	0.978758	0.331612	0.007954
  66	3.2500e-02	2.6213	4.954894	0.000334	3.336198	1.130334	0.027111
  67	3.3000e-02	2.6903	5.068642	0.000280	2.799459	0.948483	0.022750
  68	3.3500e-02	2.7160	5.146470	0.000192	1.915420	0.648962	0.015566
  69	3.4000e-02	2.7609	5.192226	0.000113	1.126098	0.381532	0.009151
  70	3.4500e-02	2.7994	5.274330	0.000202	2.020662	0.684619	0.016421
  71	3.5000e-02	2.8090	5.382092	0.000265	2.652119	0.898562	0.021552
  72	3.5500e-02	2.8571	5.451795	0.000172	1.715458	0.581213	0.013941
  73	3.6000e-02	2.9133	5.551859	0.000246	2.462682	0.834379	0.020013
  74	3.6500e-02	2.9694	5.635673	0.000206	2.062760	0.698882	0.016763
  75	3.7000e-02	2.9710	5.751560	0.000285	2.852081	0.966311	0.023177
  76	3.7500e-02	3.0529	5.796461	0.000111	1.105050	0.374401	0.008980
  77	3.8000e-02	3.0769	5.943136	0.000361	3.609829	1.223043	0.029335
  78	3.8500e-02	3.0962	5.989747	0.000115	1.147147	0.388664	0.009322
  79	3.9000e-02	3.1652	6.097081	0.000264	2.641595	0.894997	0.021467
  80	3.9500e-02	3.1828	6.171916	0.000184	1.841750	0.624002	0.014967
  81	4.0000e-02	3.2550	6.206553	0.000085	0.852467	0.288824	0.006928
  82	4.0500e-02	3.2630	6.363492	0.000386	3.862412	1.308621	0.031388
  83	4.1000e-02	3.3176	6.450300	0.000214	2.136430	0.723842	0.017362
  84	4.1500e-02	3.3577	6.494345	0.000108	1.084001	0.367270	0.008809
  85	4.2000e-02	3.3913	6.619212	0.000307	3.073091	1.041191	0.024973
  86	4.2500e-02	3.4363	6.677796	0.000144	1.441827	0.488504	0.011717
  87	4.3000e-02	3.4780	6.764604	0.000214	2.136430	0.723842	0.017362
  88	4.3500e-02	3.5101	6.868517	0.000256	2.557401	0.866471	0.020783
  89	4.4000e-02	3.5582	6.948055	0.000196	1.957517	0.663225	0.015908
  90	4.4500e-02	3.6015	6.992101	0.000108	1.084001	0.367270	0.008809
  91	4.5000e-02	3.6175	7.137066	0.000357	3.567732	1.208780	0.028993
  92	4.5500e-02	3.6657	7.227295	0.000222	2.220624	0.752368	0.018046
  93	4.6000e-02	3.7218	7.270485	0.000106	1.062953	0.360138	0.008638
  94	4.6500e-02	3.7635	7.314958	0.000109	1.094525	0.370835	0.008895
  95	4.7000e-02	3.7828	7.456074	0.000347	3.473014	1.176689	0.028223
  96	4.7500e-02	3.8357	7.529198	0.000180	1.799652	0.609739	0.014625
  97	4.8000e-02	3.8871	7.594197	0.000160	1.599691	0.541990	0.013000
  98	4.8500e-02	3.8710	7.721630	-0.000314	-3.136236	-1.062586	0.025486
  99	4.9000e-02	3.9737	7.774227	0.000129	1.294487	0.438584	0.010520
 100	4.9500e-02	3.9961	7.857614	0.000205	2.052235	0.695316	0.016677
 101	5.0000e-02	4.0218	7.957679	0.000246	2.462682	0.834379	0.020013
 102	5.0500e-02	4.0876	8.058171	0.000247	2.473207	0.837945	0.020098
 103	5.1000e-02	4.0988	8.110341	0.000128	1.283963	0.435018	0.010434
 104	5.1500e-02	4.1485	8.155669	0.000112	1.115574	0.377967	0.009066
 105	5.2000e-02	4.2031	8.234352	0.000194	1.936468	0.656093	0.015737
 106	5.2500e-02	4.2191	8.363067	0.000317	3.167809	1.073283	0.025743
 107	5.3000e-02	4.2737	8.475961	0.000278	2.778411	0.941351	0.022579
 108	5.3500e-02	4.3122	8.532835	0.000140	1.399730	0.474241	0.011375
 109	5.4000e-02	4.3314	8.625629	0.000228	2.283769	0.773762	0.018559
 110	5.4500e-02	4.3828	8.714575	0.000219	2.189051	0.741671	0.017789
 111	5.5000e-02	4.4213	8.765035	0.000124	1.241865	0.420755	0.010092
 112	5.5500e-02	4.4726	8.842008	0.000189	1.894371	0.641830	0.015395
 113	5.6000e-02	4.5111	8.933092	0.000224	2.241672	0.759499	0.018217
 114	5.6500e-02	4.5400	9.031446	0.000242	2.420585	0.820116	0.019671
 115	5.7000e-02	4.6186	9.053255	0.000054	0.536738	0.181852	0.004362
 116	5.7500e-02	4.6298	9.157595	0.000257	2.567925	0.870037	0.020868
 117	5.8000e-02	4.6651	9.277758	0.000296	2.957324	1.001968	0.024033
 118	5.8500e-02	4.7068	9.353875	0.000187	1.873322	0.634699	0.015223
 119	5.9000e-02	4.7566	9.431275	0.000190	1.904895	0.645396	0.015480
 120	5.9500e-02	4.8143	9.508248	0.000189	1.894371	0.641830	0.015395
 121	6.0000e-02	4.8175	9.586503	0.000193	1.925944	0.652527	0.015651
 122	6.0500e-02	4.8576	9.684430	0.000241	2.410061	0.816551	0.019585
 123	6.1000e-02	4.9025	9.799033	0.000282	2.820508	0.955614	0.022921
 124	6.1500e-02	4.9555	9.805020	0.000015	0.147340	0.049920	0.001197
 125	6.2000e-02	4.9908	9.904229	0.000244	2.441634	0.827248	0.019842
 126	6.2500e-02	5.0437	10.018405	0.000281	2.809984	0.952048	0.022835
 127	6.3000e-02	5.0710	10.079128	0.000149	1.494448	0.506333	0.012145
 128	6.3500e-02	5.1143	10.106496	0.000067	0.673554	0.228206	0.005474
 129	6.4000e-02	5.1496	10.221099	0.000282	2.820508	0.955614	0.022921
 130	6.4500e-02	5.1977	10.303631	0.000203	2.031187	0.688185	0.016506
 131	6.5000e-02	5.2266	10.406689	0.000254	2.536352	0.859339	0.020612
 132	6.5500e-02	5.2603	10.508463	0.000250	2.504779	0.848642	0.020355
 133	6.6000e-02	5.3212	10.562772	0.000134	1.336584	0.452847	0.010862
 134	6.6500e-02	5.3437	10.673527	0.000273	2.725789	0.923522	0.022151
 135	6.7000e-02	5.3950	10.671389	-0.000005	-0.052621	-0.017829	-0.000428
 136	6.7500e-02	5.4400	10.774446	0.000254	2.536352	0.859339	0.020612
 137	6.8000e-02	5.4736	10.849281	0.000184	1.841750	0.624002	0.014967
 138	6.8500e-02	5.5089	10.980134	0.000322	3.220431	1.091111	0.026171
 139	6.9000e-02	5.5362	11.037864	0.000142	1.420778	0.481373	0.011546
 140	6.9500e-02	5.5779	11.075495	0.000093	0.926137	0.313784	0.007526
 141	7.0000e-02	5.6389	11.161020	0.000210	2.104857	0.713145	0.017105
 142	7.0500e-02	5.6517	11.270064	0.000268	2.683692	0.909260	0.021809
 143	7.1000e-02	5.7079	11.367135	0.000239	2.389012	0.809419	0.019414
 144	7.1500e-02	5.7640	11.379536	0.000031	0.305204	0.103406	0.002480
 145	7.2000e-02	5.7881	11.489436	0.000270	2.704741	0.916391	0.021980
 146	7.2500e-02	5.8234	11.554007	0.000159	1.589167	0.538424	0.012914
 147	7.3000e-02	5.8731	11.642953	0.000219	2.189051	0.741671	0.017789
 148	7.3500e-02	5.9100	11.735748	0.000228	2.283769	0.773762	0.018559
 149	7.4000e-02	5.9437	11.814431	0.000194	1.936468	0.656093	0.015737
 150	7.4500e-02	5.9934	11.881141	0.000164	1.641788	0.556253	0.013342
 151	7.5000e-02	6.0239	11.958113	0.000189	1.894371	0.641830	0.015395
 152	7.5500e-02	6.0592	12.031237	0.000180	1.799652	0.609739	0.014625
 153	7.6000e-02	6.1041	12.113341	0.000202	2.020662	0.684619	0.016421
 154	7.6500e-02	6.1426	12.207846	0.000233	2.325867	0.788025	0.018901
 155	7.7000e-02	6.1811	12.251464	0.000107	1.073477	0.363704	0.008724
 156	7.7500e-02	6.2389	12.347680	0.000237	2.367964	0.802288	0.019243
 157	7.8000e-02	6.2661	12.433205	0.000210	2.104857	0.713145	0.017105
 158	7.8500e-02	6.3223	12.548236	0.000283	2.831032	0.959180	0.023006
 159	7.9000e-02	6.3415	12.571328	0.000057	0.568311	0.192549	0.004618
 160	7.9500e-02	6.3592	12.695767	0.000306	3.062566	1.037626	0.024888
 161	8.0000e-02	6.4346	12.685504	-0.000025	-0.252583	-0.085577	-0.002053
 162	8.0500e-02	6.4506	12.810798	0.000308	3.083615	1.044757	0.025059
 163	8.1000e-02	6.4859	12.976289	0.000407	4.072898	1.379935	0.033098
 164	8.1500e-02	6.5581	12.883067	-0.000229	-2.294294	-0.777328	-0.018644
 165	8.2000e-02	6.5597	13.034018	0.000372	3.715072	1.258700	0.030190
 166	8.2500e-02	6.6319	13.118688	0.000208	2.083808	0.706013	0.016934
 167	8.3000e-02	6.6720	13.154609	0.000088	0.884040	0.299521	0.007184
 168	8.3500e-02	6.7378	13.243982	0.000220	2.199575	0.745236	0.017875
 169	8.4000e-02	6.7699	13.284607	0.000100	0.999807	0.338744	0.008125
 170	8.4500e-02	6.7891	13.360724	0.000187	1.873322	0.634699	0.015223
 171	8.5000e-02	6.8324	13.534340	0.000427	4.272859	1.447684	0.034723
 172	8.5500e-02	6.8982	13.508255	-0.000064	-0.641981	-0.217509	-0.005217
 173	8.6000e-02	6.8870	13.585655	-0.000190	-1.904895	-0.645396	0.015480
 174	8.6500e-02	6.9543	13.748580	0.000401	4.009752	1.358541	0.032585
 175	8.7000e-02	6.9961	13.714370	-0.000084	-0.841943	-0.285258	-0.006842
 176	8.7500e-02	7.0057	13.838382	0.000305	3.052042	1.034060	0.024802
 177	8.8000e-02	7.0907	13.932031	0.000230	2.304818	0.780893	0.018730
 178	8.8500e-02	7.0971	13.985912	0.000133	1.326060	0.449281	0.010776
 179	8.9000e-02	7.1453	14.085549	0.000245	2.452158	0.830814	0.019927
 180	8.9500e-02	7.1870	14.130450	0.000111	1.105050	0.374401	0.008980
 181	9.0000e-02	7.2527	14.162949	0.000080	0.799846	0.270995	0.006500
 182	9.0500e-02	7.2592	14.280118	0.000288	2.883654	0.977008	0.023434
 183	9.1000e-02	7.2977	14.384031	0.000256	2.557401	0.866471	0.020783
 184	9.1500e-02	7.3490	14.426794	0.000105	1.052428	0.356572	0.008553
 185	9.2000e-02	7.3971	14.578601	0.000374	3.736121	1.265832	0.030361
 186	9.2500e-02	7.4420	14.546957	-0.000078	-0.778797	-0.263864	-0.006329
 187	9.3000e-02	7.4597	14.681659	0.000332	3.315149	1.123203	0.026940
 188	9.3500e-02	7.5255	14.733829	0.000128	1.283963	0.435018	0.010434
 189	9.4000e-02	7.5591	14.812084	0.000193	1.925944	0.652527	0.015651
 190	9.4500e-02	7.5993	14.868958	0.000140	1.399730	0.474241	0.011375
 191	9.5000e-02	7.6265	15.000239	0.000323	3.230955	1.094677	0.026256
 192	9.5500e-02	7.6763	15.037443	0.000092	0.915613	0.310218	0.007441
 193	9.6000e-02	7.7180	15.144349	0.000263	2.631071	0.891431	0.021381
 194	9.6500e-02	7.7613	15.155467	0.000027	0.273631	0.092709	0.002224
 195	9.7000e-02	7.7934	15.287176	0.000324	3.241479	1.098243	0.026342
 196	9.7500e-02	7.8254	15.319248	0.000079	0.789321	0.267429	0.006414
 197	9.8000e-02	7.8864	15.396220	0.000189	1.894371	0.641830	0.015395
 198	9.8500e-02	7.9249	15.412470	0.000040	0.399923	0.135498	0.003250
 199	9.9000e-02	7.9538	15.502271	0.000221	2.210100	0.748802	0.017960
 200	9.9500e-02	7.9923	15.624145	0.000300	2.999421	1.016231	0.024375
 201	1.0000e-01	8.0164	15.680591	0.000139	1.389205	0.470676	0.011289
 202	1.0050e-01	8.0645	15.779373	0.000243	2.431109	0.823682	0.019756
 203	1.0100e-01	8.0901	15.848220	0.000169	1.694410	0.574082	0.013770
 204	1.0150e-01	8.1575	15.873878	0.000063	0.631457	0.213943	0.005132
 205	1.0200e-01	8.1736	15.990620	0.000287	2.873129	0.973443	0.023348
 206	1.0250e-01	8.2313	16.056901	0.000163	1.631264	0.552687	0.013256
 207	1.0300e-01	8.2810	16.084697	0.000068	0.684078	0.231772	0.005559
 208	1.0350e-01	8.3003	16.231373	0.000361	3.609829	1.223043	0.029335
 209	1.0400e-01	8.3677	16.216833	-0.000036	-0.357826	-0.121235	-0.002908
 210	1.0450e-01	8.3805	16.322884	0.000261	2.610022	0.884299	0.021210
 211	1.0500e-01	8.4190	16.384890	0.000153	1.526021	0.517030	0.012401
 212	1.0550e-01	8.4639	16.527717	0.000352	3.515111	1.190952	0.028565
 213	1.0600e-01	8.5217	16.558506	0.000076	0.757748	0.256732	0.006158
 214	1.0650e-01	8.5329	16.676530	0.000290	2.904702	0.984140	0.023605
 215	1.0700e-01	8.5939	16.696629	0.000049	0.494641	0.167589	0.004020
 216	1.0750e-01	8.6260	16.736826	0.000099	0.989283	0.335178	0.008039
 217	1.0800e-01	8.6629	16.826199	0.000220	2.199575	0.745236	0.017875
 218	1.0850e-01	8.7078	16.908303	0.000202	2.020662	0.684619	0.016421
 219	1.0900e-01	8.7559	16.970309	0.000153	1.526021	0.517030	0.012401
 220	1.0950e-01	8.7960	17.059683	0.000220	2.199575	0.745236	0.017875
 221	1.1000e-01	8.8457	17.138366	0.000194	1.936468	0.656093	0.015737
 222	1.1050e-01	8.8634	17.171293	0.000081	0.810370	0.274561	0.006585
 223	1.1100e-01	8.9243	17.232871	0.000152	1.515497	0.513464	0.012316
 224	1.1150e-01	8.9404	17.301291	0.000168	1.683885	0.570516	0.013684
 225	1.1200e-01	8.9757	17.421454	0.000296	2.957324	1.001968	0.024033
 226	1.1250e-01	9.0431	17.461223	0.000098	0.978758	0.331612	0.007954
 227	1.1300e-01	9.0655	17.512110	0.000125	1.252390	0.424321	0.010177
 228	1.1350e-01	9.0960	17.601056	0.000219	2.189051	0.741671	0.017789
 229	1.1400e-01	9.1441	17.708818	0.000265	2.652119	0.898562	0.021552
 230	1.1450e-01	9.1810	17.775955	0.000165	1.652312	0.559819	0.013427
 231	1.1500e-01	9.2500	17.798192	0.000055	0.547263	0.185418	0.004447
 232	1.1550e-01	9.2644	17.898683	0.000247	2.473207	0.837945	0.020098
 233	1.1600e-01	9.3046	17.967531	0.000169	1.694410	0.574082	0.013770
 234	1.1650e-01	9.3302	18.048780	0.000200	1.999614	0.677488	0.016250
 235	1.1700e-01	9.3832	18.105227	0.000139	1.389205	0.470676	0.011289
 236	1.1750e-01	9.4201	18.185620	0.000198	1.978565	0.670356	0.016079
 237	1.1800e-01	9.4682	18.248053	0.000154	1.536545	0.520596	0.012487
 238	1.1850e-01	9.5051	18.332296	0.000207	2.073284	0.702448	0.016848
 239	1.1900e-01	9.5596	18.359236	0.000066	0.663030	0.224641	0.005388
 240	1.1950e-01	9.5933	18.430222	0.000175	1.747031	0.591910	0.014197
 241	1.2000e-01	9.6430	18.534562	0.000257	2.567925	0.870037	0.020868
 242	1.2050e-01	9.6767	18.587160	0.000129	1.294487	0.438584	0.010520
 243	1.2100e-01	9.7040	18.657718	0.000174	1.736507	0.588344	0.014112
 244	1.2150e-01	9.7184	18.760348	0.000253	2.525828	0.855774	0.020526
 245	1.2200e-01	9.7778	18.848867	0.000218	2.178527	0.738105	0.017704
 246	1.2250e-01	9.8243	18.851005	0.000005	0.052621	0.017829	0.000428
 247	1.2300e-01	9.8580	18.934820	0.000206	2.062760	0.698882	0.016763
 248	1.2350e-01	9.9270	18.987845	0.000131	1.305011	0.442150	0.010605
 249	1.2400e-01	9.9575	19.079785	0.000226	2.262721	0.766631	0.018388
 250	1.2450e-01	9.9703	19.122119	0.000104	1.041904	0.353007	0.008467
 251	1.2500e-01	10.0088	19.196954	0.000184	1.841750	0.624002	0.014967
 252	1.2550e-01	10.0698	19.277347	0.000198	1.978565	0.670356	0.016079
 253	1.2600e-01	10.1131	19.288038	0.000026	0.263107	0.089143	0.002138
 254	1.2650e-01	10.1404	19.416753	0.000317	3.167809	1.073283	0.025743
 255	1.2700e-01	10.1981	19.445404	0.000071	0.705127	0.238903	0.005730
 256	1.2750e-01	10.2334	19.533067	0.000216	2.157478	0.730973	0.017533
 257	1.2800e-01	10.2815	19.618165	0.000209	2.094332	0.709579	0.017019
 258	1.2850e-01	10.3184	19.630993	0.000032	0.315729	0.106972	0.002566
 259	1.2900e-01	10.3521	19.743031	0.000276	2.757362	0.934220	0.022408
 260	1.2950e-01	10.3922	19.804182	0.000150	1.504973	0.509898	0.012230
 261	1.3000e-01	10.4387	19.897404	0.000229	2.294294	0.777328	0.018644
 262	1.3050e-01	10.4901	19.885431	-0.000029	-0.294680	-0.099840	-0.002395
 263	1.3100e-01	10.4917	20.005593	0.000296	2.957324	1.001968	0.024033
 264	1.3150e-01	10.5510	20.089835	0.000207	2.073284	0.702448	0.016848
 265	1.3200e-01	10.5927	20.131743	0.000103	1.031380	0.349441	0.008381
 266	1.3250e-01	10.6216	20.215130	0.000205	2.052235	0.695316	0.016677
 267	1.3300e-01	10.6842	20.274142	0.000145	1.452351	0.492070	0.011802
 268	1.3350e-01	10.7147	20.340851	0.000164	1.641788	0.556253	0.013342
 269	1.3400e-01	10.7419	20.441343	0.000247	2.473207	0.837945	0.020098
 270	1.3450e-01	10.8013	20.425949	-0.000038	-0.378874	-0.128366	-0.003079
 271	1.3500e-01	10.8542	20.562361	0.000336	3.357246	1.137466	0.027282
 272	1.3550e-01	10.8783	20.586308	0.000059	0.589360	0.199681	0.004789
 273	1.3600e-01	10.9152	20.664136	0.000192	1.915420	0.648962	0.015566
 274	1.3650e-01	10.9473	20.742392	0.000193	1.925944	0.652527	0.015651
 275	1.3700e-01	10.9746	20.806963	0.000159	1.589167	0.538424	0.012914
 276	1.3750e-01	11.0211	20.896764	0.000221	2.210100	0.748802	0.017960
 277	1.3800e-01	11.0852	20.991697	0.000234	2.336391	0.791591	0.018987
 278	1.3850e-01	11.1141	21.063111	0.000176	1.757555	0.595476	0.014283
 279	1.3900e-01	11.1526	21.070380	0.000018	0.178913	0.060617	0.001454
 280	1.3950e-01	11.1927	21.161892	0.000225	2.252197	0.763065	0.018302
 281	1.4000e-01	11.2264	21.209786	0.000118	1.178720	0.399361	0.009579
 282	1.4050e-01	11.2745	21.252549	0.000105	1.052428	0.356572	0.008553
 283	1.4100e-01	11.3227	21.335508	0.000204	2.041711	0.691750	0.016592
 284	1.4150e-01	11.3435	21.396231	0.000149	1.494448	0.506333	0.012145
 285	1.4200e-01	11.3836	21.510407	0.000281	2.809984	0.952048	0.022835
 286	1.4250e-01	11.4173	21.584386	0.000182	1.820701	0.616870	0.014796
 287	1.4300e-01	11.4719	21.624583	0.000099	0.989283	0.335178	0.008039
 288	1.4350e-01	11.5136	21.637839	0.000033	0.326253	0.110537	0.002651
 289	1.4400e-01	11.5248	21.760140	0.000301	3.009945	1.019797	0.024460
 290	1.4450e-01	11.5954	21.840106	0.000197	1.968041	0.666790	0.015993
 291	1.4500e-01	11.6146	21.850369	0.000025	0.252583	0.085577	0.002053
 292	1.4550e-01	11.6564	21.958558	0.000266	2.662644	0.902128	0.021638
 293	1.4600e-01	11.7157	21.998327	0.000098	0.978758	0.331612	0.007954
 294	1.4650e-01	11.7687	22.052635	0.000134	1.336584	0.452847	0.010862
 295	1.4700e-01	11.8023	22.107799	0.000136	1.357633	0.459978	0.011033
 296	1.4750e-01	11.8055	22.209574	0.000250	2.504779	0.848642	0.020355
 297	1.4800e-01	11.8681	22.321612	0.000276	2.757362	0.934220	0.022408
 298	1.4850e-01	11.9034	22.346842	0.000062	0.620933	0.210378	0.005046
 299	1.4900e-01	11.9708	22.428518	0.000201	2.010138	0.681053	0.016335
 300	1.4950e-01	11.9772	22.446051	0.000043	0.431496	0.146195	0.003507
 301	1.5000e-01	12.0366	22.544404	0.000242	2.420585	0.820116	0.019671
 302	1.5050e-01	12.0719	22.605983	0.000152	1.515497	0.513464	0.012316
 303	1.5100e-01	12.1039	22.692363	0.000213	2.125905	0.720276	0.017276
 304	1.5150e-01	12.1376	22.714172	0.000054	0.536738	0.181852	0.004362
 305	1.5200e-01	12.2082	22.765487	0.000126	1.262914	0.427887	0.010263
 306	1.5250e-01	12.2162	22.832196	0.000164	1.641788	0.556253	0.013342
 307	1.5300e-01	12.2644	22.907886	0.000186	1.862798	0.631133	0.015138
 308	1.5350e-01	12.3109	22.939530	0.000078	0.778797	0.263864	0.006329
 309	1.5400e-01	12.3542	22.996832	0.000141	1.410254	0.477807	0.011460
 310	1.5450e-01	12.3831	23.069101	0.000178	1.778604	0.602607	0.014454
 311	1.5500e-01	12.4521	23.195678	0.000312	3.115188	1.055454	0.025315
 312	1.5550e-01	12.4713	23.201237	0.000014	0.136816	0.046354	0.001112
 313	1.5600e-01	12.4986	23.308571	0.000264	2.641595	0.894997	0.021467
 314	1.5650e-01	12.5515	23.361596	0.000131	1.305011	0.442150	0.010605
 315	1.5700e-01	12.5948	23.398372	0.000091	0.905088	0.306652	0.007355
 316	1.5750e-01	12.6430	23.505278	0.000263	2.631071	0.891431	0.021381
 317	1.5800e-01	12.6734	23.565574	0.000148	1.483924	0.502767	0.012059
 318	1.5850e-01	12.7087	23.628007	0.000154	1.536545	0.520596	0.012487
 319	1.5900e-01	12.7729	23.680605	0.000129	1.294487	0.438584	0.010520
 320	1.5950e-01	12.7825	23.716525	0.000088	0.884040	0.299521	0.007184
 321	1.6000e-01	12.8018	23.809320	0.000228	2.283769	0.773762	0.018559
 322	1.6050e-01	12.8756	23.890996	0.000201	2.010138	0.681053	0.016335
 323	1.6100e-01	12.9173	23.893562	0.000006	0.063146	0.021394	0.000513
 324	1.6150e-01	12.9044	24.083000	-0.000466	-4.662258	-1.579616	0.037888
 325	1.6200e-01	12.9863	24.041521	-0.000102	-1.020855	-0.345875	-0.008296
 326	1.6250e-01	13.0296	24.102243	0.000149	1.494448	0.506333	0.012145
 327	1.6300e-01	13.0681	24.133888	0.000078	0.778797	0.263864	0.006329
 328	1.6350e-01	13.0986	24.273721	0.000344	3.441441	1.165992	0.027967
 329	1.6400e-01	13.1547	24.291254	0.000043	0.431496	0.146195	0.003507
 330	1.6450e-01	13.1916	24.356680	0.000161	1.610215	0.545556	0.013085
 331	1.6500e-01	13.2141	24.421679	0.000160	1.599691	0.541990	0.013000
 332	1.6550e-01	13.2670	24.489244	0.000166	1.662837	0.563384	0.013513
 333	1.6600e-01	13.2879	24.557237	0.000167	1.673361	0.566950	0.013598
 334	1.6650e-01	13.3392	24.613256	0.000138	1.378681	0.467110	0.011204
 335	1.6700e-01	13.3905	24.723155	0.000270	2.704741	0.916391	0.021980
 336	1.6750e-01	13.4194	24.706050	-0.000042	-0.420971	-0.142629	-0.003421
 337	1.6800e-01	13.4820	24.784733	0.000194	1.936468	0.656093	0.015737
 338	1.6850e-01	13.5076	24.837759	0.000131	1.305011	0.442150	0.010605
 339	1.6900e-01	13.5686	24.883515	0.000113	1.126098	0.381532	0.009151
 340	1.6950e-01	13.5862	25.009664	0.000310	3.104664	1.051889	0.025230
 341	1.7000e-01	13.6280	25.066111	0.000139	1.389205	0.470676	0.011289
 342	1.7050e-01	13.6616	25.121702	0.000137	1.368157	0.463544	0.011118
 343	1.7100e-01	13.7034	25.190977	0.000170	1.704934	0.577647	0.013855
 344	1.7150e-01	13.7451	25.237161	0.000114	1.136623	0.385098	0.009237
 345	1.7200e-01	13.7804	25.303015	0.000162	1.620740	0.549121	0.013171
 346	1.7250e-01	13.8205	25.368014	0.000160	1.599691	0.541990	0.013000
 347	1.7300e-01	13.8782	25.436862	0.000169	1.694410	0.574082	0.013770
 348	1.7350e-01	13.9087	25.495019	0.000143	1.431303	0.484938	0.011631
 349	1.7400e-01	13.9745	25.531795	0.000091	0.905088	0.306652	0.007355
 350	1.7450e-01	13.9969	25.572419	0.000100	0.999807	0.338744	0.008125
 351	1.7500e-01	14.0402	25.685312	0.000278	2.778411	0.941351	0.022579
 352	1.7550e-01	14.0643	25.780673	0.000235	2.346915	0.795156	0.019072
 353	1.7600e-01	14.0916	25.822580	0.000103	1.031380	0.349441	0.008381
 354	1.7650e-01	14.1381	25.851658	0.000072	0.715651	0.242469	0.005816
 355	1.7700e-01	14.1766	25.920934	0.000170	1.704934	0.577647	0.013855
 356	1.7750e-01	14.2215	26.007742	0.000214	2.136430	0.723842	0.017362
 357	1.7800e-01	14.2809	26.029978	0.000055	0.547263	0.185418	0.004447
 358	1.7850e-01	14.3065	26.109089	0.000195	1.946992	0.659659	0.015822
 359	1.7900e-01	14.3755	26.139878	0.000076	0.757748	0.256732	0.006158
 360	1.7950e-01	14.4028	26.191620	0.000127	1.273438	0.431453	0.010349
 361	1.8000e-01	14.4156	26.269876	0.000193	1.925944	0.652527	0.015651
 362	1.8050e-01	14.4766	26.321191	0.000126	1.262914	0.427887	0.010263
 363	1.8100e-01	14.5007	26.396881	0.000186	1.862798	0.631133	0.015138
 364	1.8150e-01	14.5327	26.513622	0.000287	2.873129	0.973443	0.023348
 365	1.8200e-01	14.5985	26.527306	0.000034	0.336777	0.114103	0.002737
 366	1.8250e-01	14.6418	26.578621	0.000126	1.262914	0.427887	0.010263
 367	1.8300e-01	14.6579	26.624805	0.000114	1.136623	0.385098	0.009237
 368	1.8350e-01	14.7381	26.710330	0.000210	2.104857	0.713145	0.017105
 369	1.8400e-01	14.7734	26.788158	0.000192	1.915420	0.648962	0.015566
 370	1.8450e-01	14.7958	26.812532	0.000060	0.599884	0.203246	0.004875
 371	1.8500e-01	14.8167	26.937827	0.000308	3.083615	1.044757	0.025059
 372	1.8550e-01	14.8937	26.949800	0.000029	0.294680	0.099840	0.002395
 373	1.8600e-01	14.9065	27.026773	0.000189	1.894371	0.641830	0.015395
 374	1.8650e-01	14.9611	27.084930	0.000143	1.431303	0.484938	0.011631
 375	1.8700e-01	14.9867	27.132824	0.000118	1.178720	0.399361	0.009579
 376	1.8750e-01	15.0285	27.204237	0.000176	1.757555	0.595476	0.014283
 377	1.8800e-01	15.0782	27.274368	0.000173	1.725982	0.584779	0.014026
 378	1.8850e-01	15.1006	27.296604	0.000055	0.547263	0.185418	0.004447
 379	1.8900e-01	15.1552	27.374004	0.000190	1.904895	0.645396	0.015480
 380	1.8950e-01	15.1793	27.406504	0.000080	0.799846	0.270995	0.006500
 381	1.9000e-01	15.2242	27.459529	0.000131	1.305011	0.442150	0.010605
 382	1.9050e-01	15.2883	27.541206	0.000201	2.010138	0.681053	0.016335
 383	1.9100e-01	15.2915	27.571567	0.000075	0.747224	0.253166	0.006072
 384	1.9150e-01	15.3333	27.678474	0.000263	2.631071	0.891431	0.021381
 385	1.9200e-01	15.3589	27.768702	0.000222	2.220624	0.752368	0.018046
 386	1.9250e-01	15.4488	27.751597	-0.000042	-0.420971	-0.142629	-0.003421
 387	1.9300e-01	15.4760	27.886299	0.000332	3.315149	1.123203	0.026940
 388	1.9350e-01	15.4889	27.912385	0.000064	0.641981	0.217509	0.005217
 389	1.9400e-01	15.5611	27.970114	0.000142	1.420778	0.481373	0.011546
 390	1.9450e-01	15.5915	28.042383	0.000178	1.778604	0.602607	0.014454
 391	1.9500e-01	15.6300	28.085145	0.000105	1.052428	0.356572	0.008553
 392	1.9550e-01	15.6525	28.189058	0.000256	2.557401	0.866471	0.020783
 393	1.9600e-01	15.7183	28.222413	0.000082	0.820894	0.278126	0.006671
 394	1.9650e-01	15.7520	28.259616	0.000092	0.915613	0.310218	0.007441
 395	1.9700e-01	15.7808	28.339582	0.000197	1.968041	0.666790	0.015993
 396	1.9750e-01	15.8258	28.341720	0.000005	0.052621	0.017829	0.000428
 397	1.9800e-01	15.8755	28.422542	0.000199	1.989090	0.673922	0.016164
 398	1.9850e-01	15.9108	28.475995	0.000132	1.315535	0.445715	0.010691
 399	1.9900e-01	15.9653	28.516191	0.000099	0.989283	0.335178	0.008039
 400	1.9950e-01	15.9750	28.622670	0.000262	2.620547	0.887865	0.021296
 401	2.0000e-01	16.0183	28.708623	0.000212	2.115381	0.716710	0.017191
 402	2.0050e-01	16.0905	28.692373	-0.000040	-0.399923	-0.135498	-0.003250
 403	2.0100e-01	16.1322	28.723590	0.000077	0.768273	0.260298	0.006243
 404	2.0150e-01	16.1514	28.837338	0.000280	2.799459	0.948483	0.022750
 405	2.0200e-01	16.1546	28.932698	0.000235	2.346915	0.795156	0.019072
 406	2.0250e-01	16.2380	28.968619	0.000088	0.884040	0.299521	0.007184
 407	2.0300e-01	16.2846	28.994276	0.000063	0.631457	0.213943	0.005132
 408	2.0350e-01	16.3118	29.081940	0.000216	2.157478	0.730973	0.017533
 409	2.0400e-01	16.3327	29.141380	0.000146	1.462875	0.495636	0.011888
 410	2.0450e-01	16.3824	29.206379	0.000160	1.599691	0.541990	0.013000
 411	2.0500e-01	16.4209	29.265819	0.000146	1.462875	0.495636	0.011888
 412	2.0550e-01	16.4819	29.330818	0.000160	1.599691	0.541990	0.013000
 413	2.0600e-01	16.4899	29.356903	0.000064	0.641981	0.217509	0.005217
 414	2.0650e-01	16.5589	29.426606	0.000172	1.715458	0.581213	0.013941
 415	2.0700e-01	16.5717	29.516835	0.000222	2.220624	0.752368	0.018046
 416	2.0750e-01	16.6407	29.573281	0.000139	1.389205	0.470676	0.011289
 417	2.0800e-01	16.6792	29.582261	0.000022	0.221010	0.074880	0.001796
 418	2.0850e-01	16.6953	29.675056	0.000228	2.283769	0.773762	0.018559
 419	2.0900e-01	16.7482	29.686602	0.000028	0.284156	0.096275	0.002309
 420	2.0950e-01	16.7963	29.744759	0.000143	1.431303	0.484938	0.011631
 421	2.1000e-01	16.8541	29.823870	0.000195	1.946992	0.659659	0.015822
 422	2.1050e-01	16.8749	29.893572	0.000172	1.715458	0.581213	0.013941
 423	2.1100e-01	16.8926	29.925217	0.000078	0.778797	0.263864	0.006329
 424	2.1150e-01	16.9551	29.997485	0.000178	1.778604	0.602607	0.014454
 425	2.1200e-01	16.9936	30.015873	0.000045	0.452544	0.153326	0.003678
 426	2.1250e-01	17.0337	30.091135	0.000185	1.852274	0.627567	0.015052
 427	2.1300e-01	17.0321	30.186496	-0.000235	-2.346915	-0.795156	0.019072
 428	2.1350e-01	17.1284	30.264751	0.000193	1.925944	0.652527	0.015651
 429	2.1400e-01	17.1685	30.308797	0.000108	1.084001	0.367270	0.008809
 430	2.1450e-01	17.1894	30.342151	0.000082	0.820894	0.278126	0.006671
 431	2.1500e-01	17.2230	30.399453	0.000141	1.410254	0.477807	0.011460
 432	2.1550e-01	17.2824	30.434946	0.000087	0.873516	0.295955	0.007099
 433	2.1600e-01	17.3049	30.494386	0.000146	1.462875	0.495636	0.011888
 434	2.1650e-01	17.3225	30.579056	0.000208	2.083808	0.706013	0.016934
 435	2.1700e-01	17.3642	30.639351	0.000148	1.483924	0.502767	0.012059
 436	2.1750e-01	17.4252	30.682969	0.000107	1.073477	0.363704	0.008724
 437	2.1800e-01	17.4717	30.683824	0.000002	0.021049	0.007131	0.000171
 438	2.1850e-01	17.5102	30.771060	0.000215	2.146954	0.727408	0.017447
 439	2.1900e-01	17.5471	30.839480	0.000168	1.683885	0.570516	0.013684
 440	2.1950e-01	17.5776	30.957932	0.000292	2.915226	0.987705	0.023690
 441	2.2000e-01	17.6193	30.930991	-0.000066	-0.663030	-0.224641	-0.005388
 442	2.2050e-01	17.6417	31.060134	0.000318	3.178334	1.076849	0.025829
 443	2.2100e-01	17.6819	31.102897	0.000105	1.052428	0.356572	0.008553
 444	2.2150e-01	17.7220	31.150363	0.000117	1.168195	0.395795	0.009493
 445	2.2200e-01	17.7444	31.245724	0.000235	2.346915	0.795156	0.019072
 446	2.2250e-01	17.8262	31.235461	-0.000025	-0.252583	-0.085577	-0.002053
 447	2.2300e-01	17.8728	31.309867	0.000183	1.831225	0.620436	0.014881
 448	2.2350e-01	17.9113	31.309440	-0.000001	-0.010524	-0.003566	-0.000086
 449	2.2400e-01	17.9482	31.400524	0.000224	2.241672	0.759499	0.018217
 450	2.2450e-01	17.9883	31.445425	0.000111	1.105050	0.374401	0.008980
 451	2.2500e-01	18.0139	31.533515	0.000217	2.168002	0.734539	0.017618
 452	2.2550e-01	18.0941	31.564732	0.000077	0.768273	0.260298	0.006243
 453	2.2600e-01	18.1150	31.615192	0.000124	1.241865	0.420755	0.010092
 454	2.2650e-01	18.1423	31.686605	0.000176	1.757555	0.595476	0.014283
 455	2.2700e-01	18.1936	31.770847	0.000207	2.073284	0.702448	0.016848
 456	2.2750e-01	18.2433	31.786670	0.000039	0.389398	0.131932	0.003164
 457	2.2800e-01	18.2770	31.823873	0.000092	0.915613	0.310218	0.007441
 458	2.2850e-01	18.3348	31.911108	0.000215	2.146954	0.727408	0.017447
 459	2.2900e-01	18.3556	31.923082	0.000029	0.294680	0.099840	0.002395
 460	2.2950e-01	18.3829	32.016732	0.000230	2.304818	0.780893	0.018730
 461	2.3000e-01	18.4310	32.025284	0.000021	0.210486	0.071314	0.001711
 462	2.3050e-01	18.4776	32.116369	0.000224	2.241672	0.759499	0.018217
 463	2.3100e-01	18.4968	32.226268	0.000270	2.704741	0.916391	0.021980
 464	2.3150e-01	18.5546	32.264755	0.000095	0.947186	0.320915	0.007697
 465	2.3200e-01	18.5770	32.299820	0.000086	0.862991	0.292389	0.007013
 466	2.3250e-01	18.6348	32.367812	0.000167	1.673361	0.566950	0.013598
 467	2.3300e-01	18.6765	32.419127	0.000126	1.262914	0.427887	0.010263
 468	2.3350e-01	18.6957	32.481133	0.000153	1.526021	0.517030	0.012401
 469	2.3400e-01	18.7647	32.491396	0.000025	0.252583	0.085577	0.002053
 470	2.3450e-01	18.8016	32.550408	0.000145	1.452351	0.492070	0.011802
 471	2.3500e-01	18.8369	32.650900	0.000247	2.473207	0.837945	0.020098
 472	2.3550e-01	18.8610	32.688104	0.000092	0.915613	0.310218	0.007441
 473	2.3600e-01	18.8834	32.753958	0.000162	1.620740	0.549121	0.013171
 474	2.3650e-01	18.9652	32.770635	0.000041	0.410447	0.139063	0.003335
 475	2.3700e-01	19.0230	32.818529	0.000118	1.178720	0.399361	0.009579
 476	2.3750e-01	19.0294	32.874976	0.000139	1.389205	0.470676	0.011289
 477	2.3800e-01	19.0936	32.916883	0.000103	1.031380	0.349441	0.008381
 478	2.3850e-01	19.1192	33.001981	0.000209	2.094332	0.709579	0.017019
 479	2.3900e-01	19.1594	33.082374	0.000198	1.978565	0.670356	0.016079
 480	2.3950e-01	19.1979	33.097769	0.000038	0.378874	0.128366	0.003079
 481	2.4000e-01	19.2556	33.173031	0.000185	1.852274	0.627567	0.015052
 482	2.4050e-01	19.2604	33.234181	0.000150	1.504973	0.509898	0.012230
 483	2.4100e-01	19.3069	33.269246	0.000086	0.862991	0.292389	0.007013
 484	2.4150e-01	19.3358	33.363752	0.000233	2.325867	0.788025	0.018901
 485	2.4200e-01	19.3807	33.381712	0.000044	0.442020	0.149760	0.003592
 486	2.4250e-01	19.3695	33.504440	-0.000302	-3.020469	-1.023363	0.024546
 487	2.4300e-01	19.4561	33.522828	0.000045	0.452544	0.153326	0.003678
 488	2.4350e-01	19.5267	33.539933	0.000042	0.420971	0.142629	0.003421
 489	2.4400e-01	19.5347	33.580985	0.000101	1.010331	0.342309	0.008210
 490	2.4450e-01	19.5989	33.677201	0.000237	2.367964	0.802288	0.019243
 491	2.4500e-01	19.6182	33.689174	0.000029	0.294680	0.099840	0.002395
 492	2.4550e-01	19.6663	33.764864	0.000186	1.862798	0.631133	0.015138
 493	2.4600e-01	19.7096	33.818317	0.000132	1.315535	0.445715	0.010691
 494	2.4650e-01	19.7433	33.871770	0.000132	1.315535	0.445715	0.010691
 495	2.4700e-01	19.7994	33.927789	0.000138	1.378681	0.467110	0.011204
 496	2.4750e-01	19.8363	34.024433	0.000238	2.378488	0.805854	0.019329
 497	2.4800e-01	19.8652	34.032985	0.000021	0.210486	0.071314	0.001711
 498	2.4850e-01	19.8925	34.113806	0.000199	1.989090	0.673922	0.016164
 499	2.4900e-01	19.9454	34.156569	0.000105	1.052428	0.356572	0.008553
 500	2.4950e-01	20.0064	34.147161	-0.000023	-0.231534	-0.078446	-0.001882
 501	2.5000e-01	20.0160	34.266896	0.000295	2.946799	0.998403	0.023947
 502	2.5050e-01	19.9663	34.207456	0.000146	1.462875	0.495636	-0.011888
 503	2.5100e-01	19.9294	34.155714	0.000127	1.273438	0.431453	-0.010349
 504	2.5150e-01	19.8861	34.110813	0.000111	1.105050	0.374401	-0.008980
 505	2.5200e-01	19.8395	34.100978	0.000024	0.242059	0.082012	-0.001967
 506	2.5250e-01	19.7946	34.032130	0.000169	1.694410	0.574082	-0.013770
 507	2.5300e-01	19.7770	33.986374	0.000113	1.126098	0.381532	-0.009151
 508	2.5350e-01	19.7385	33.907263	0.000195	1.946992	0.659659	-0.015822
 509	2.5400e-01	19.7112	33.873481	0.000083	0.831418	0.281692	-0.006756
 510	2.5450e-01	19.6454	33.818745	0.000135	1.347108	0.456413	-0.010947
 511	2.5500e-01	19.6037	33.804633	0.000035	0.347301	0.117669	-0.002822
 512	2.5550e-01	19.6037	33.699010	0.000260	2.599498	0.880734	-0.021125
 513	2.5600e-01	19.5428	33.657958	0.000101	1.010331	0.342309	-0.008210
 514	2.5650e-01	19.4626	33.661806	-0.000009	-0.094719	-0.032092	0.000770
 515	2.5700e-01	19.4642	33.623320	-0.000095	-0.947186	-0.320915	-0.007697
 516	2.5750e-01	19.4016	33.568156	0.000136	1.357633	0.459978	-0.011033
 517	2.5800e-01	19.4289	33.457401	-0.000273	-2.725789	-0.923522	-0.022151
 518	2.5850e-01	19.3487	33.393258	0.000158	1.578643	0.534859	-0.012829
 519	2.5900e-01	19.2781	33.362896	0.000075	0.747224	0.253166	-0.006072
 520	2.5950e-01	19.2348	33.358620	0.000011	0.105243	0.035657	-0.000855
 521	2.6000e-01	19.2171	33.259411	0.000244	2.441634	0.827248	-0.019842
 522	2.6050e-01	19.1674	33.220069	0.000097	0.968234	0.328047	-0.007868
 523	2.6100e-01	19.1225	33.176452	0.000107	1.073477	0.363704	-0.008724
 524	2.6150e-01	19.0856	33.147373	0.000072	0.715651	0.242469	-0.005816
 525	2.6200e-01	19.0519	33.095203	0.000128	1.283963	0.435018	-0.010434
 526	2.6250e-01	19.0198	33.044743	0.000124	1.241865	0.420755	-0.010092
 527	2.6300e-01	18.9668	32.975468	0.000170	1.704934	0.577647	-0.013855
 528	2.6350e-01	18.9396	32.950666	0.000061	0.610408	0.206812	-0.004960
 529	2.6400e-01	18.9332	32.876259	0.000183	1.831225	0.620436	-0.014881
 530	2.6450e-01	18.8562	32.834351	0.000103	1.031380	0.349441	-0.008381
 531	2.6500e-01	18.8160	32.756524	0.000192	1.915420	0.648962	-0.015566
 532	2.6550e-01	18.7727	32.763366	-0.000017	-0.168389	-0.057052	0.001368
 533	2.6600e-01	18.7487	32.703926	0.000146	1.462875	0.495636	-0.011888
 534	2.6650e-01	18.7054	32.635506	0.000168	1.683885	0.570516	-0.013684
 535	2.6700e-01	18.6652	32.562382	0.000180	1.799652	0.609739	-0.014625
 536	2.6750e-01	18.6075	32.518336	0.000108	1.084001	0.367270	-0.008809
 537	2.6800e-01	18.5626	32.488403	0.000074	0.736700	0.249601	-0.005987
 538	2.6850e-01	18.5385	32.434949	0.000132	1.315535	0.445715	-0.010691
 539	2.6900e-01	18.4904	32.387911	0.000116	1.157671	0.392230	-0.009408
 540	2.6950e-01	18.4631	32.321629	0.000163	1.631264	0.552687	-0.013256
 541	2.7000e-01	18.4006	32.321629	-0.000000	-0.000000	-0.000000	0.000000
 542	2.7050e-01	18.3717	32.245511	0.000187	1.873322	0.634699	-0.015223
 543	2.7100e-01	18.3556	32.120645	0.000307	3.073091	1.041191	-0.024973
 544	2.7150e-01	18.2738	32.166828	-0.000114	-1.136623	-0.385098	0.009237
 545	2.7200e-01	18.2449	32.086435	0.000198	1.978565	0.670356	-0.016079
 546	2.7250e-01	18.2161	32.056073	0.000075	0.747224	0.253166	-0.006072
 547	2.7300e-01	18.1744	31.988936	0.000165	1.652312	0.559819	-0.013427
 548	2.7350e-01	18.1294	31.910681	0.000193	1.925944	0.652527	-0.015651
 549	2.7400e-01	18.0974	31.833281	0.000190	1.904895	0.645396	-0.015480
 550	2.7450e-01	18.0637	31.782821	0.000124	1.241865	0.420755	-0.010092
 551	2.7500e-01	17.9931	31.814465	-0.000078	-0.778797	-0.263864	0.006329
 552	2.7550e-01	17.9482	31.760584	0.000133	1.326060	0.449281	-0.010776
 553	2.7600e-01	17.9225	31.708414	0.000128	1.283963	0.435018	-0.010434
 554	2.7650e-01	17.8856	31.636145	0.000178	1.778604	0.602607	-0.014454
 555	2.7700e-01	17.8471	31.524535	0.000275	2.746838	0.930654	-0.022322
 556	2.7750e-01	17.8310	31.500588	0.000059	0.589360	0.199681	-0.004789
 557	2.7800e-01	17.7653	31.476214	0.000060	0.599884	0.203246	-0.004875
 558	2.7850e-01	17.7508	31.340229	0.000335	3.346722	1.133900	-0.027197
 559	2.7900e-01	17.6899	31.372301	-0.000079	-0.789321	-0.267429	0.006414
 560	2.7950e-01	17.6401	31.345360	0.000066	0.663030	0.224641	-0.005388
 561	2.8000e-01	17.6193	31.279506	0.000162	1.620740	0.549121	-0.013171
 562	2.8050e-01	17.5936	31.188849	0.000223	2.231148	0.755933	-0.018131
 563	2.8100e-01	17.5471	31.143521	0.000112	1.115574	0.377967	-0.009066
 564	2.8150e-01	17.5006	31.104607	0.000096	0.957710	0.324481	-0.007783
 565	2.8200e-01	17.4573	31.062272	0.000104	1.041904	0.353007	-0.008467
 566	2.8250e-01	17.4139	30.962208	0.000246	2.462682	0.834379	-0.020013
 567	2.8300e-01	17.3530	30.936978	0.000062	0.620933	0.210378	-0.005046
 568	2.8350e-01	17.3466	30.852736	0.000207	2.073284	0.702448	-0.016848
 569	2.8400e-01	17.2840	30.845466	0.000018	0.178913	0.060617	-0.001454
 570	2.8450e-01	17.2455	30.784316	0.000150	1.504973	0.509898	-0.012230
 571	2.8500e-01	17.1894	30.747968	0.000089	0.894564	0.303087	-0.007270
 572	2.8550e-01	17.1669	30.711620	0.000089	0.894564	0.303087	-0.007270
 573	2.8600e-01	17.1332	30.591457	0.000296	2.957324	1.001968	-0.024033
 574	2.8650e-01	17.0947	30.556819	0.000085	0.852467	0.288824	-0.006928
 575	2.8700e-01	17.0562	30.514912	0.000103	1.031380	0.349441	-0.008381
 576	2.8750e-01	16.9888	30.464452	0.000124	1.241865	0.420755	-0.010092
 577	2.8800e-01	16.9904	30.391328	-0.000180	-1.799652	-0.609739	-0.014625
 578	2.8850e-01	16.9295	30.328040	0.000156	1.557594	0.527727	-0.012658
 579	2.8900e-01	16.8846	30.292974	0.000086	0.862991	0.292389	-0.007013
 580	2.8950e-01	16.8364	30.264324	0.000071	0.705127	0.238903	-0.005730
 581	2.9000e-01	16.8140	30.181792	0.000203	2.031187	0.688185	-0.016506
 582	2.9050e-01	16.7610	30.126628	0.000136	1.357633	0.459978	-0.011033
 583	2.9100e-01	16.7434	30.111234	0.000038	0.378874	0.128366	-0.003079
 584	2.9150e-01	16.7033	30.038537	0.000179	1.789128	0.606173	-0.014539
 585	2.9200e-01	16.6487	29.965841	0.000179	1.789128	0.606173	-0.014539
 586	2.9250e-01	16.5862	29.948736	0.000042	0.420971	0.142629	-0.003421
 587	2.9300e-01	16.5605	29.858507	0.000222	2.220624	0.752368	-0.018046
 588	2.9350e-01	16.5380	29.815317	0.000106	1.062953	0.360138	-0.008638
 589	2.9400e-01	16.4674	29.768278	0.000116	1.157671	0.392230	-0.009408
 590	2.9450e-01	16.4450	29.730220	0.000094	0.936661	0.317349	-0.007612
 591	2.9500e-01	16.3872	29.639135	0.000224	2.241672	0.759499	-0.018217
 592	2.9550e-01	16.3872	29.623741	0.000038	0.378874	0.128366	-0.003079
 593	2.9600e-01	16.3231	29.525387	0.000242	2.420585	0.820116	-0.019671
 594	2.9650e-01	16.2814	29.514269	0.000027	0.273631	0.092709	-0.002224
 595	2.9700e-01	16.2653	29.448842	0.000161	1.610215	0.545556	-0.013085
 596	2.9750e-01	16.2156	29.362034	0.000214	2.136430	0.723842	-0.017362
 597	2.9800e-01	16.1867	29.319272	0.000105	1.052428	0.356572	-0.008553
 598	2.9850e-01	16.1707	29.229043	0.000222	2.220624	0.752368	-0.018046
 599	2.9900e-01	16.0921	29.218352	0.000026	0.263107	0.089143	-0.002138
 600	2.9950e-01	16.0455	29.178583	0.000098	0.978758	0.331612	-0.007954
 601	3.0000e-01	16.0054	29.112301	0.000163	1.631264	0.552687	-0.013256
 602	3.0050e-01	15.9782	29.105887	0.000016	0.157864	0.053486	-0.001283
 603	3.0100e-01	15.9509	28.953652	0.000375	3.746645	1.269398	-0.030447
 604	3.0150e-01	15.8963	28.935264	0.000045	0.452544	0.153326	-0.003678
 605	3.0200e-01	15.8434	28.866417	0.000169	1.694410	0.574082	-0.013770
 606	3.0250e-01	15.7969	28.875824	-0.000023	-0.231534	-0.078446	0.001882
 607	3.0300e-01	15.7760	28.810398	0.000161	1.610215	0.545556	-0.013085
 608	3.0350e-01	15.7471	28.738984	0.000176	1.757555	0.595476	-0.014283
 609	3.0400e-01	15.7119	28.676979	0.000153	1.526021	0.517030	-0.012401
 610	3.0450e-01	15.6381	28.613690	0.000156	1.557594	0.527727	-0.012658
 611	3.0500e-01	15.6060	28.593164	0.000051	0.505166	0.171155	-0.004105
 612	3.0550e-01	15.5611	28.517474	0.000186	1.862798	0.631133	-0.015138
 613	3.0600e-01	15.5290	28.472574	0.000111	1.105050	0.374401	-0.008980
 614	3.0650e-01	15.5113	28.372937	0.000245	2.452158	0.830814	-0.019927
 615	3.0700e-01	15.4632	28.381062	-0.000020	-0.199961	-0.067749	0.001625
 616	3.0750e-01	15.4071	28.321622	0.000146	1.462875	0.495636	-0.011888
 617	3.0800e-01	15.3782	28.210439	0.000274	2.736314	0.927088	-0.022237
 618	3.0850e-01	15.3381	28.137743	0.000179	1.789128	0.606173	-0.014539
 619	3.0900e-01	15.2851	28.109092	0.000071	0.705127	0.238903	-0.005730
 620	3.0950e-01	15.2627	28.038534	0.000174	1.736507	0.588344	-0.014112
 621	3.1000e-01	15.2129	27.998765	0.000098	0.978758	0.331612	-0.007954
 622	3.1050e-01	15.1584	27.930345	0.000168	1.683885	0.570516	-0.013684
 623	3.1100e-01	15.1391	27.884589	0.000113	1.126098	0.381532	-0.009151
 624	3.1150e-01	15.1151	27.790939	0.000230	2.304818	0.780893	-0.018730
 625	3.1200e-01	15.0589	27.774262	0.000041	0.410447	0.139063	-0.003335
 626	3.1250e-01	15.0140	27.731927	0.000104	1.041904	0.353007	-0.008467
 627	3.1300e-01	14.9707	27.682750	0.000121	1.210293	0.410058	-0.009835
 628	3.1350e-01	14.9258	27.614330	0.000168	1.683885	0.570516	-0.013684
 629	3.1400e-01	14.8825	27.552752	0.000152	1.515497	0.513464	-0.012316
 630	3.1450e-01	14.8472	27.454826	0.000241	2.410061	0.816551	-0.019585
 631	3.1500e-01	14.8151	27.450977	0.000009	0.094719	0.032092	-0.000770
 632	3.1550e-01	14.7654	27.404366	0.000115	1.147147	0.388664	-0.009322
 633	3.1600e-01	14.7702	27.295321	-0.000268	-2.683692	-0.909260	-0.021809
 634	3.1650e-01	14.7092	27.288479	0.000017	0.168389	0.057052	-0.001368
 635	3.1700e-01	14.6547	27.229467	0.000145	1.452351	0.492070	-0.011802
 636	3.1750e-01	14.6130	27.111870	0.000289	2.894178	0.980574	-0.023519
 637	3.1800e-01	14.5648	27.094765	0.000042	0.420971	0.142629	-0.003421
 638	3.1850e-01	14.5311	27.029338	0.000161	1.610215	0.545556	-0.013085
 639	3.1900e-01	14.5023	26.958353	0.000175	1.747031	0.591910	-0.014197
 640	3.1950e-01	14.4638	26.902334	0.000138	1.378681	0.467110	-0.011204
 641	3.2000e-01	14.4076	26.881380	0.000052	0.515690	0.174720	-0.004191
 642	3.2050e-01	14.3916	26.746678	0.000332	3.315149	1.123203	-0.026940
 643	3.2100e-01	14.3274	26.771053	-0.000060	-0.599884	-0.203246	0.004875
 644	3.2150e-01	14.2873	26.697074	0.000182	1.820701	0.616870	-0.014796
 645	3.2200e-01	14.2488	26.635923	0.000150	1.504973	0.509898	-0.012230
 646	3.2250e-01	14.2215	26.635068	0.000002	0.021049	0.007131	-0.000171
 647	3.2300e-01	14.1862	26.537997	0.000239	2.389012	0.809419	-0.019414
 648	3.2350e-01	14.1092	26.448196	0.000221	2.210100	0.748802	-0.017960
 649	3.2400e-01	14.1028	26.442209	0.000015	0.147340	0.049920	-0.001197
 650	3.2450e-01	14.0354	26.373789	0.000168	1.683885	0.570516	-0.013684
 651	3.2500e-01	14.0130	26.255764	0.000290	2.904702	0.984140	-0.023605
 652	3.2550e-01	13.9440	26.244218	0.000028	0.284156	0.096275	-0.002309
 653	3.2600e-01	13.9328	26.190338	0.000133	1.326060	0.449281	-0.010776
 654	3.2650e-01	13.8782	26.133463	0.000140	1.399730	0.474241	-0.011375
 655	3.2700e-01	13.8526	26.048794	0.000208	2.083808	0.706013	-0.016934
 656	3.2750e-01	13.7948	25.991492	0.000141	1.410254	0.477807	-0.011460
 657	3.2800e-01	13.7595	25.917085	0.000183	1.831225	0.620436	-0.014881
 658	3.2850e-01	13.7226	25.895704	0.000053	0.526214	0.178286	-0.004276
 659	3.2900e-01	13.6729	25.856790	0.000096	0.957710	0.324481	-0.007783
 660	3.2950e-01	13.6504	25.763568	0.000229	2.294294	0.777328	-0.018644
 661	3.3000e-01	13.6215	25.677187	0.000213	2.125905	0.720276	-0.017276
 662	3.3050e-01	13.5830	25.642550	0.000085	0.852467	0.288824	-0.006928
 663	3.3100e-01	13.5237	25.608340	0.000084	0.841943	0.285258	-0.006842
 664	3.3150e-01	13.4932	25.556169	0.000128	1.283963	0.435018	-0.010434
 665	3.3200e-01	13.4547	25.454394	0.000250	2.504779	0.848642	-0.020355
 666	3.3250e-01	13.4130	25.394099	0.000148	1.483924	0.502767	-0.012059
 667	3.3300e-01	13.3841	25.392816	0.000003	0.031573	0.010697	-0.000257
 668	3.3350e-01	13.3199	25.333804	0.000145	1.452351	0.492070	-0.011802
 669	3.3400e-01	13.3023	25.230746	0.000254	2.536352	0.859339	-0.020612
 670	3.3450e-01	13.2205	25.185846	0.000111	1.105050	0.374401	-0.008980
 671	3.3500e-01	13.2349	25.127689	-0.000143	-1.431303	-0.484938	-0.011631
 672	3.3550e-01	13.1740	25.034466	0.000229	2.294294	0.777328	-0.018644
 673	3.3600e-01	13.1339	25.011802	0.000056	0.557787	0.188983	-0.004533
 674	3.3650e-01	13.0825	24.928843	0.000204	2.041711	0.691750	-0.016592
 675	3.3700e-01	13.0697	24.839897	0.000219	2.189051	0.741671	-0.017789
 676	3.3750e-01	13.0023	24.751806	0.000217	2.168002	0.734539	-0.017618
 677	3.3800e-01	12.9558	24.735556	0.000040	0.399923	0.135498	-0.003250
 678	3.3850e-01	12.9269	24.714175	0.000053	0.526214	0.178286	-0.004276
 679	3.3900e-01	12.9349	24.621808	-0.000227	-2.273245	-0.770196	-0.018473
 680	3.3950e-01	12.8130	24.602993	0.000046	0.463068	0.156892	-0.003763
 681	3.4000e-01	12.8178	24.568783	-0.000084	-0.841943	-0.285258	-0.006842
 682	3.4050e-01	12.7520	24.476415	0.000227	2.273245	0.770196	-0.018473
 683	3.4100e-01	12.7344	24.405857	0.000174	1.736507	0.588344	-0.014112
 684	3.4150e-01	12.6927	24.379345	0.000065	0.652506	0.221075	-0.005303
 685	3.4200e-01	12.6494	24.293392	0.000212	2.115381	0.716710	-0.017191
 686	3.4250e-01	12.6173	24.260465	0.000081	0.810370	0.274561	-0.006585
 687	3.4300e-01	12.5644	24.171946	0.000218	2.178527	0.738105	-0.017704
 688	3.4350e-01	12.5275	24.094118	0.000192	1.915420	0.648962	-0.015566
 689	3.4400e-01	12.4922	24.042376	0.000127	1.273438	0.431453	-0.010349
 690	3.4450e-01	12.4408	23.975239	0.000165	1.652312	0.559819	-0.013427
 691	3.4500e-01	12.4312	23.873891	0.000249	2.494255	0.845077	-0.020269
 692	3.4550e-01	12.3847	23.864911	0.000022	0.221010	0.074880	-0.001796
 693	3.4600e-01	12.3414	23.795208	0.000172	1.715458	0.581213	-0.013941
 694	3.4650e-01	12.3077	23.757150	0.000094	0.936661	0.317349	-0.007612
 695	3.4700e-01	12.2579	23.682743	0.000183	1.831225	0.620436	-0.014881
 696	3.4750e-01	12.2178	23.619454	0.000156	1.557594	0.527727	-0.012658
 697	3.4800e-01	12.1890	23.574126	0.000112	1.115574	0.377967	-0.009066
 698	3.4850e-01	12.1440	23.495015	0.000195	1.946992	0.659659	-0.015822
 699	3.4900e-01	12.0863	23.474917	0.000049	0.494641	0.167589	-0.004020
 700	3.4950e-01	12.0366	23.397945	0.000189	1.894371	0.641830	-0.015395
 701	3.5000e-01	11.9948	23.345774	0.000128	1.283963	0.435018	-0.010434
 702	3.5050e-01	11.9740	23.268374	0.000190	1.904895	0.645396	-0.015480
 703	3.5100e-01	11.9323	23.208079	0.000148	1.483924	0.502767	-0.012059
 704	3.5150e-01	11.9002	23.117422	0.000223	2.231148	0.755933	-0.018131
 705	3.5200e-01	11.8617	23.075087	0.000104	1.041904	0.353007	-0.008467
 706	3.5250e-01	11.8184	22.969892	0.000259	2.588974	0.877168	-0.021039
 707	3.5300e-01	11.7879	22.908314	0.000152	1.515497	0.513464	-0.012316
 708	3.5350e-01	11.7205	22.898478	0.000024	0.242059	0.082012	-0.001967
 709	3.5400e-01	11.6836	22.803118	0.000235	2.346915	0.795156	-0.019072
 710	3.5450e-01	11.6403	22.733415	0.000172	1.715458	0.581213	-0.013941
 711	3.5500e-01	11.6243	22.681245	0.000128	1.283963	0.435018	-0.010434
 712	3.5550e-01	11.5489	22.663712	0.000043	0.431496	0.146195	-0.003507
 713	3.5600e-01	11.5296	22.534141	0.000319	3.188858	1.080414	-0.025914
 714	3.5650e-01	11.4847	22.494372	0.000098	0.978758	0.331612	-0.007954
 715	3.5700e-01	11.4574	22.413124	0.000200	1.999614	0.677488	-0.016250
 716	3.5750e-01	11.4189	22.375065	0.000094	0.936661	0.317349	-0.007612
 717	3.5800e-01	11.3772	22.345131	0.000074	0.736700	0.249601	-0.005987
 718	3.5850e-01	11.3147	22.292533	0.000129	1.294487	0.438584	-0.010520
 719	3.5900e-01	11.2826	22.178357	0.000281	2.809984	0.952048	-0.022835
 720	3.5950e-01	11.2457	22.151417	0.000066	0.663030	0.224641	-0.005388
 721	3.6000e-01	11.2072	22.060333	0.000224	2.241672	0.759499	-0.018217
 722	3.6050e-01	11.1590	22.074017	-0.000034	-0.336777	-0.114103	0.002737
 723	3.6100e-01	11.1366	21.948722	0.000308	3.083615	1.044757	-0.025059
 724	3.6150e-01	11.1029	21.878164	0.000174	1.736507	0.588344	-0.014112
 725	3.6200e-01	11.0355	21.856355	0.000054	0.536738	0.181852	-0.004362
 726	3.6250e-01	11.0082	21.800337	0.000138	1.378681	0.467110	-0.011204
 727	3.6300e-01	10.9778	21.706687	0.000230	2.304818	0.780893	-0.018730
 728	3.6350e-01	10.9377	21.591655	0.000283	2.831032	0.959180	-0.023006
 729	3.6400e-01	10.8927	21.589517	0.000005	0.052621	0.017829	-0.000428
 730	3.6450e-01	10.8494	21.482183	0.000264	2.641595	0.894997	-0.021467
 731	3.6500e-01	10.8125	21.444552	0.000093	0.926137	0.313784	-0.007526
 732	3.6550e-01	10.7740	21.393665	0.000125	1.252390	0.424321	-0.010177
 733	3.6600e-01	10.7179	21.325672	0.000167	1.673361	0.566950	-0.013598
 734	3.6650e-01	10.6681	21.298304	0.000067	0.673554	0.228206	-0.005474
 735	3.6700e-01	10.6489	21.206365	0.000226	2.262721	0.766631	-0.018388
 736	3.6750e-01	10.6040	21.111432	0.000234	2.336391	0.791591	-0.018987
 737	3.6800e-01	10.5526	21.060972	0.000124	1.241865	0.420755	-0.010092
 738	3.6850e-01	10.5302	21.007947	0.000131	1.305011	0.442150	-0.010605
 739	3.6900e-01	10.5061	20.911731	0.000237	2.367964	0.802288	-0.019243
 740	3.6950e-01	10.4387	20.892916	0.000046	0.463068	0.156892	-0.003763
 741	3.7000e-01	10.4018	20.821930	0.000175	1.747031	0.591910	-0.014197
 742	3.7050e-01	10.4195	20.673116	-0.000366	-3.662451	-1.240872	-0.029763
 743	3.7100e-01	10.3281	20.659860	0.000033	0.326253	0.110537	-0.002651
 744	3.7150e-01	10.2960	20.578611	0.000200	1.999614	0.677488	-0.016250
 745	3.7200e-01	10.2398	20.522165	0.000139	1.389205	0.470676	-0.011289
 746	3.7250e-01	10.1949	20.485816	0.000089	0.894564	0.303087	-0.007270
 747	3.7300e-01	10.1708	20.408844	0.000189	1.894371	0.641830	-0.015395
 748	3.7350e-01	10.1580	20.302365	0.000262	2.620547	0.887865	-0.021296
 749	3.7400e-01	10.0890	20.292102	0.000025	0.252583	0.085577	-0.002053
 750	3.7450e-01	10.0537	20.192038	0.000246	2.462682	0.834379	-0.020013
 751	3.7500e-01	10.0136	20.176643	0.000038	0.378874	0.128366	-0.003079
 752	3.7550e-01	9.9767	20.084704	0.000226	2.262721	0.766631	-0.018388
 753	3.7600e-01	9.9126	19.997041	0.000216	2.157478	0.730973	-0.017533
 754	3.7650e-01	9.8676	19.947864	0.000121	1.210293	0.410058	-0.009835
 755	3.7700e-01	9.8500	19.904674	0.000106	1.062953	0.360138	-0.008638
 756	3.7750e-01	9.7778	19.882437	0.000055	0.547263	0.185418	-0.004447
 757	3.7800e-01	9.7778	19.777669	0.000258	2.578449	0.873602	-0.020954
 758	3.7850e-01	9.7265	19.696420	0.000200	1.999614	0.677488	-0.016250
 759	3.7900e-01	9.7136	19.641256	0.000136	1.357633	0.459978	-0.011033
 760	3.7950e-01	9.6511	19.586093	0.000136	1.357633	0.459978	-0.011033
 761	3.8000e-01	9.6190	19.472772	0.000279	2.788935	0.944917	-0.022664
 762	3.8050e-01	9.5837	19.472345	0.000001	0.010524	0.003566	-0.000086
 763	3.8100e-01	9.5452	19.334222	0.000340	3.399344	1.151729	-0.027625
 764	3.8150e-01	9.4874	19.284189	0.000123	1.231341	0.417190	-0.010006
 765	3.8200e-01	9.4650	19.231164	0.000131	1.305011	0.442150	-0.010605
 766	3.8250e-01	9.4329	19.173007	0.000143	1.431303	0.484938	-0.011631
 767	3.8300e-01	9.3511	19.088765	0.000207	2.073284	0.702448	-0.016848
 768	3.8350e-01	9.3318	19.027187	0.000152	1.515497	0.513464	-0.012316
 769	3.8400e-01	9.2885	18.996398	0.000076	0.757748	0.256732	-0.006158
 770	3.8450e-01	9.2340	18.933109	0.000156	1.557594	0.527727	-0.012658
 771	3.8500e-01	9.1955	18.875380	0.000142	1.420778	0.481373	-0.011546
 772	3.8550e-01	9.1361	18.820644	0.000135	1.347108	0.456413	-0.010947
 773	3.8600e-01	9.1441	18.699198	-0.000299	-2.988896	-1.012666	-0.024289
 774	3.8650e-01	9.0623	18.636765	0.000154	1.536545	0.520596	-0.012487
 775	3.8700e-01	9.0431	18.596568	0.000099	0.989283	0.335178	-0.008039
 776	3.8750e-01	8.9949	18.488806	0.000265	2.652119	0.898562	-0.021552
 777	3.8800e-01	8.9789	18.428511	0.000148	1.483924	0.502767	-0.012059
 778	3.8850e-01	8.9195	18.387459	0.000101	1.010331	0.342309	-0.008210
 779	3.8900e-01	8.9147	18.269435	0.000290	2.904702	0.984140	-0.023605
 780	3.8950e-01	8.8634	18.222396	0.000116	1.157671	0.392230	-0.009408
 781	3.9000e-01	8.8153	18.153548	0.000169	1.694410	0.574082	-0.013770
 782	3.9050e-01	8.7864	18.114634	0.000096	0.957710	0.324481	-0.007783
 783	3.9100e-01	8.7270	18.047069	0.000166	1.662837	0.563384	-0.013513
 784	3.9150e-01	8.6965	17.964965	0.000202	2.020662	0.684619	-0.016421
 785	3.9200e-01	8.6661	17.896118	0.000169	1.694410	0.574082	-0.013770
 786	3.9250e-01	8.6003	17.798619	0.000240	2.399537	0.812985	-0.019500
 787	3.9300e-01	8.5891	17.740462	0.000143	1.431303	0.484938	-0.011631
 788	3.9350e-01	8.5169	17.692568	0.000118	1.178720	0.399361	-0.009579
 789	3.9400e-01	8.4752	17.634839	0.000142	1.420778	0.481373	-0.011546
 790	3.9450e-01	8.4286	17.578820	0.000138	1.378681	0.467110	-0.011204
 791	3.9500e-01	8.3933	17.485597	0.000229	2.294294	0.777328	-0.018644
 792	3.9550e-01	8.3693	17.410763	0.000184	1.841750	0.624002	-0.014967
 793	3.9600e-01	8.3356	17.329942	0.000199	1.989090	0.673922	-0.016164
 794	3.9650e-01	8.2778	17.307278	0.000056	0.557787	0.188983	-0.004533
 795	3.9700e-01	8.2506	17.180273	0.000313	3.125712	1.059020	-0.025401
 796	3.9750e-01	8.1992	17.150767	0.000073	0.726176	0.246035	-0.005901
 797	3.9800e-01	8.1720	17.084057	0.000164	1.641788	0.556253	-0.013342
 798	3.9850e-01	8.1431	16.993401	0.000223	2.231148	0.755933	-0.018131
 799	3.9900e-01	8.0725	16.915573	0.000192	1.915420	0.648962	-0.015566
 800	3.9950e-01	8.0597	16.862547	0.000131	1.305011	0.442150	-0.010605
 801	4.0000e-01	8.0260	16.812515	0.000123	1.231341	0.417190	-0.010006
 802	4.0050e-01	7.9714	16.759062	0.000132	1.315535	0.445715	-0.010691
 803	4.0100e-01	7.9602	16.644459	0.000282	2.820508	0.955614	-0.022921
 804	4.0150e-01	7.8992	16.599986	0.000109	1.094525	0.370835	-0.008895
 805	4.0200e-01	7.8367	16.558934	0.000101	1.010331	0.342309	-0.008210
 806	4.0250e-01	7.7902	16.470415	0.000218	2.178527	0.738105	-0.017704
 807	4.0300e-01	7.7661	16.391732	0.000194	1.936468	0.656093	-0.015737
 808	4.0350e-01	7.7308	16.330582	0.000150	1.504973	0.509898	-0.012230
 809	4.0400e-01	7.6971	16.247195	0.000205	2.052235	0.695316	-0.016677
 810	4.0450e-01	7.6490	16.177919	0.000170	1.704934	0.577647	-0.013855
 811	4.0500e-01	7.6041	16.108644	0.000170	1.704934	0.577647	-0.013855
 812	4.0550e-01	7.5607	16.056046	0.000129	1.294487	0.438584	-0.010520
 813	4.0600e-01	7.5126	15.968383	0.000216	2.157478	0.730973	-0.017533
 814	4.0650e-01	7.5126	15.883286	0.000209	2.094332	0.709579	-0.017019
 815	4.0700e-01	7.4276	15.814438	0.000169	1.694410	0.574082	-0.013770
 816	4.0750e-01	7.4067	15.792629	0.000054	0.536738	0.181852	-0.004362
 817	4.0800e-01	7.3618	15.701972	0.000223	2.231148	0.755933	-0.018131
 818	4.0850e-01	7.3394	15.600625	0.000249	2.494255	0.845077	-0.020269
 819	4.0900e-01	7.2720	15.540330	0.000148	1.483924	0.502767	-0.012059
 820	4.0950e-01	7.2575	15.433424	0.000263	2.631071	0.891431	-0.021381
 821	4.1000e-01	7.2126	15.391089	0.000104	1.041904	0.353007	-0.008467
 822	4.1050e-01	7.1613	15.337208	0.000133	1.326060	0.449281	-0.010776
 823	4.1100e-01	7.1340	15.233295	0.000256	2.557401	0.866471	-0.020783
 824	4.1150e-01	7.0795	15.180697	0.000129	1.294487	0.438584	-0.010520
 825	4.1200e-01	7.0586	15.107146	0.000181	1.810177	0.613304	-0.014710
 826	4.1250e-01	7.0121	15.051127	0.000138	1.378681	0.467110	-0.011204
 827	4.1300e-01	6.9640	14.963891	0.000215	2.146954	0.727408	-0.017447
 828	4.1350e-01	6.9287	14.907445	0.000139	1.389205	0.470676	-0.011289
 829	4.1400e-01	6.8822	14.858268	0.000121	1.210293	0.410058	-0.009835
 830	4.1450e-01	6.8501	14.760342	0.000241	2.410061	0.816551	-0.019585
 831	4.1500e-01	6.7843	14.702612	0.000142	1.420778	0.481373	-0.011546
 832	4.1550e-01	6.7570	14.614949	0.000216	2.157478	0.730973	-0.017533
 833	4.1600e-01	6.7265	14.550805	0.000158	1.578643	0.534859	-0.012829
 834	4.1650e-01	6.6961	14.420380	0.000321	3.209906	1.087546	-0.026085
 835	4.1700e-01	6.6544	14.406696	0.000034	0.336777	0.114103	-0.002737
 836	4.1750e-01	6.6287	14.308342	0.000242	2.420585	0.820116	-0.019671
 837	4.1800e-01	6.5501	14.253178	0.000136	1.357633	0.459978	-0.011033
 838	4.1850e-01	6.5164	14.186468	0.000164	1.641788	0.556253	-0.013342
 839	4.1900e-01	6.4715	14.104364	0.000202	2.020662	0.684619	-0.016421
 840	4.1950e-01	6.4923	13.968380	-0.000335	-3.346722	-1.133900	-0.027197
 841	4.2000e-01	6.3977	13.985485	-0.000042	-0.420971	-0.142629	0.003421
 842	4.2050e-01	6.3736	13.875585	0.000270	2.704741	0.916391	-0.021980
 843	4.2100e-01	6.3030	13.840092	0.000087	0.873516	0.295955	-0.007099
 844	4.2150e-01	6.2950	13.802461	0.000093	0.926137	0.313784	-0.007526
 845	4.2200e-01	6.2549	13.636970	0.000407	4.072898	1.379935	-0.033098
 846	4.2250e-01	6.2132	13.605753	0.000077	0.768273	0.260298	-0.006243
 847	4.2300e-01	6.1811	13.530491	0.000185	1.852274	0.627567	-0.015052
 848	4.2350e-01	6.1394	13.455229	0.000185	1.852274	0.627567	-0.015052
 849	4.2400e-01	6.0752	13.422302	0.000081	0.810370	0.274561	-0.006585
 850	4.2450e-01	6.0496	13.311547	0.000273	2.725789	0.923522	-0.022151
 851	4.2500e-01	6.0239	13.210628	0.000248	2.483731	0.841511	-0.020184
 852	4.2550e-01	5.9613	13.164872	0.000113	1.126098	0.381532	-0.009151
 853	4.2600e-01	5.9325	13.069511	0.000235	2.346915	0.795156	-0.019072
 854	4.2650e-01	5.9036	12.982703	0.000214	2.136430	0.723842	-0.017362
 855	4.2700e-01	5.8506	12.957046	0.000063	0.631457	0.213943	-0.005132
 856	4.2750e-01	5.7688	12.877935	0.000195	1.946992	0.659659	-0.015822
 857	4.2800e-01	5.7528	12.821489	0.000139	1.389205	0.470676	-0.011289
 858	4.2850e-01	5.7544	12.721852	-0.000245	-2.452158	-0.830814	-0.019927
 859	4.2900e-01	5.6806	12.635044	0.000214	2.136430	0.723842	-0.017362
 860	4.2950e-01	5.6501	12.543532	0.000225	2.252197	0.763065	-0.018302
 861	4.3000e-01	5.5875	12.513598	0.000074	0.736700	0.249601	-0.005987
 862	4.3050e-01	5.5458	12.455014	0.000144	1.441827	0.488504	-0.011717
 863	4.3100e-01	5.5202	12.301924	0.000377	3.767693	1.276529	-0.030618
 864	4.3150e-01	5.5041	12.242912	0.000145	1.452351	0.492070	-0.011802
 865	4.3200e-01	5.4512	12.164656	0.000193	1.925944	0.652527	-0.015651
 866	4.3250e-01	5.3998	12.077421	0.000215	2.146954	0.727408	-0.017447
 867	4.3300e-01	5.3453	12.023112	0.000134	1.336584	0.452847	-0.010862
 868	4.3350e-01	5.3212	11.957258	0.000162	1.620740	0.549121	-0.013171
 869	4.3400e-01	5.2924	11.870022	0.000215	2.146954	0.727408	-0.017447
 870	4.3450e-01	5.2458	11.766109	0.000256	2.557401	0.866471	-0.020783
 871	4.3500e-01	5.2234	11.695124	0.000175	1.747031	0.591910	-0.014197
 872	4.3550e-01	5.1849	11.615585	0.000196	1.957517	0.663225	-0.015908
 873	4.3600e-01	5.1127	11.582658	0.000081	0.810370	0.274561	-0.006585
 874	4.3650e-01	5.0886	11.477462	0.000259	2.588974	0.877168	-0.021039
 875	4.3700e-01	5.0485	11.417167	0.000148	1.483924	0.502767	-0.012059
 876	4.3750e-01	5.0036	11.335063	0.000202	2.020662	0.684619	-0.016421
 877	4.3800e-01	4.9860	11.243979	0.000224	2.241672	0.759499	-0.018217
 878	4.3850e-01	4.9410	11.130658	0.000279	2.788935	0.944917	-0.022664
 879	4.3900e-01	4.8961	11.143915	-0.000033	-0.326253	-0.110537	0.002651
 880	4.3950e-01	4.8705	10.987404	0.000385	3.851888	1.305055	-0.031302
 881	4.4000e-01	4.8063	10.944641	0.000105	1.052428	0.356572	-0.008553
 882	4.4050e-01	4.7549	10.851847	0.000228	2.283769	0.773762	-0.018559
 883	4.4100e-01	4.7164	10.782999	0.000169	1.694410	0.574082	-0.013770
 884	4.4150e-01	4.6876	10.735105	0.000118	1.178720	0.399361	-0.009579
 885	4.4200e-01	4.6314	10.647442	0.000216	2.157478	0.730973	-0.017533
 886	4.4250e-01	4.5833	10.598692	0.000120	1.199768	0.406493	-0.009750
 887	4.4300e-01	4.5608	10.500766	0.000241	2.410061	0.816551	-0.019585
 888	4.4350e-01	4.5047	10.390011	0.000273	2.725789	0.923522	-0.022151
 889	4.4400e-01	4.4678	10.325868	0.000158	1.578643	0.534859	-0.012829
 890	4.4450e-01	4.4774	10.201429	-0.000306	-3.062566	-1.037626	-0.024888
 891	4.4500e-01	4.4004	10.178764	0.000056	0.557787	0.188983	-0.004533
 892	4.4550e-01	4.3571	10.110344	0.000168	1.683885	0.570516	-0.013684
 893	4.4600e-01	4.3394	9.958537	0.000374	3.736121	1.265832	-0.030361
 894	4.4650e-01	4.2913	9.923044	0.000087	0.873516	0.295955	-0.007099
 895	4.4700e-01	4.2512	9.828539	0.000233	2.325867	0.788025	-0.018901
 896	4.4750e-01	4.2207	9.745580	0.000204	2.041711	0.691750	-0.016592
 897	4.4800e-01	4.1774	9.691699	0.000133	1.326060	0.449281	-0.010776
 898	4.4850e-01	4.1437	9.549728	0.000349	3.494062	1.183820	-0.028394
 899	4.4900e-01	4.0956	9.543741	0.000015	0.147340	0.049920	-0.001197
 900	4.4950e-01	4.0523	9.440256	0.000255	2.546877	0.862905	-0.020697
 901	4.5000e-01	4.0106	9.340191	0.000246	2.462682	0.834379	-0.020013
 902	4.5050e-01	3.9641	9.276903	0.000156	1.557594	0.527727	-0.012658
 903	4.5100e-01	3.9416	9.161444	0.000284	2.841557	0.962745	-0.023092
 904	4.5150e-01	3.9111	9.103287	0.000143	1.431303	0.484938	-0.011631
 905	4.5200e-01	3.8566	9.005788	0.000240	2.399537	0.812985	-0.019500
 906	4.5250e-01	3.8341	8.913421	0.000227	2.273245	0.770196	-0.018473
 907	4.5300e-01	3.7651	8.880922	0.000080	0.799846	0.270995	-0.006500
 908	4.5350e-01	3.7330	8.759476	0.000299	2.988896	1.012666	-0.024289
 909	4.5400e-01	3.6881	8.714575	0.000111	1.105050	0.374401	-0.008980
 910	4.5450e-01	3.6785	8.577735	0.000337	3.367771	1.141032	-0.027368
 911	4.5500e-01	3.5871	8.556782	0.000052	0.515690	0.174720	-0.004191
 912	4.5550e-01	3.5470	8.487934	0.000169	1.694410	0.574082	-0.013770
 913	4.5600e-01	3.5373	8.360502	0.000314	3.136236	1.062586	-0.025486
 914	4.5650e-01	3.4956	8.290371	0.000173	1.725982	0.584779	-0.014026
 915	4.5700e-01	3.4427	8.177906	0.000277	2.767887	0.937785	-0.022493
 916	4.5750e-01	3.4170	8.073138	0.000258	2.578449	0.873602	-0.020954
 917	4.5800e-01	3.3705	8.034224	0.000096	0.957710	0.324481	-0.007783
 918	4.5850e-01	3.3336	7.905508	0.000317	3.167809	1.073283	-0.025743
 919	4.5900e-01	3.2502	7.875575	0.000074	0.736700	0.249601	-0.005987
 920	4.5950e-01	3.2566	7.789622	-0.000212	-2.115381	-0.716710	-0.017191
 921	4.6000e-01	3.2181	7.653637	0.000335	3.346722	1.133900	-0.027197
 922	4.6050e-01	3.1668	7.597618	0.000138	1.378681	0.467110	-0.011204
 923	4.6100e-01	3.1186	7.536895	0.000149	1.494448	0.506333	-0.012145
 924	4.6150e-01	3.0593	7.458640	0.000193	1.925944	0.652527	-0.015651
 925	4.6200e-01	3.0288	7.367983	0.000223	2.231148	0.755933	-0.018131
 926	4.6250e-01	2.9871	7.334201	0.000083	0.831418	0.281692	-0.006756
 927	4.6300e-01	2.9759	7.161013	0.000426	4.262335	1.444118	-0.034638
 928	4.6350e-01	2.9309	7.096869	0.000158	1.578643	0.534859	-0.012829
 929	4.6400e-01	2.9149	6.980127	0.000287	2.873129	0.973443	-0.023348
 930	4.6450e-01	2.8491	6.995522	-0.000038	-0.378874	-0.128366	0.003079
 931	4.6500e-01	2.8170	6.803090	0.000474	4.735928	1.604576	-0.038486
 932	4.6550e-01	2.7801	6.743651	0.000146	1.462875	0.495636	-0.011888
 933	4.6600e-01	2.7272	6.677796	0.000162	1.620740	0.549121	-0.013171
 934	4.6650e-01	2.6662	6.619639	0.000143	1.431303	0.484938	-0.011631
 935	4.6700e-01	2.6438	6.479806	0.000344	3.441441	1.165992	-0.027967
 936	4.6750e-01	2.6293	6.404544	0.000185	1.852274	0.627567	-0.015052
 937	4.6800e-01	2.5973	6.306190	0.000242	2.420585	0.820116	-0.019671
 938	4.6850e-01	2.5042	6.240763	0.000161	1.610215	0.545556	-0.013085
 939	4.6900e-01	2.4978	6.136850	0.000256	2.557401	0.866471	-0.020783
 940	4.6950e-01	2.4352	6.047477	0.000220	2.199575	0.745236	-0.017875
 941	4.7000e-01	2.4015	5.994023	0.000132	1.315535	0.445715	-0.010691
 942	4.7050e-01	2.3791	5.879848	0.000281	2.809984	0.952048	-0.022835
 943	4.7100e-01	2.3293	5.809289	0.000174	1.736507	0.588344	-0.014112
 944	4.7150e-01	2.2941	5.673732	0.000334	3.336198	1.130334	-0.027111
 945	4.7200e-01	2.2379	5.637812	0.000088	0.884040	0.299521	-0.007184
 946	4.7250e-01	2.2058	5.489426	0.000365	3.651926	1.237306	-0.029677
 947	4.7300e-01	2.1721	5.440676	0.000120	1.199768	0.406493	-0.009750
 948	4.7350e-01	2.1272	5.314527	0.000310	3.104664	1.051889	-0.025230
 949	4.7400e-01	2.0887	5.214890	0.000245	2.452158	0.830814	-0.019927
 950	4.7450e-01	2.0261	5.183674	0.000077	0.768273	0.260298	-0.006243
 951	4.7500e-01	1.9989	5.060090	0.000304	3.041518	1.030494	-0.024717
 952	4.7550e-01	1.9716	4.997229	0.000155	1.547070	0.524161	-0.012572
 953	4.7600e-01	1.9219	4.889467	0.000265	2.652119	0.898562	-0.021552
 954	4.7650e-01	1.8850	4.826179	0.000156	1.557594	0.527727	-0.012658
 955	4.7700e-01	1.8449	4.729963	0.000237	2.367964	0.802288	-0.019243
 956	4.7750e-01	1.7791	4.582860	0.000362	3.620353	1.226609	-0.029421
 957	4.7800e-01	1.7711	4.522993	0.000147	1.473400	0.499201	-0.011974
 958	4.7850e-01	1.7262	4.450296	0.000179	1.789128	0.606173	-0.014539
 959	4.7900e-01	1.6732	4.308752	0.000348	3.483538	1.180255	-0.028309
 960	4.7950e-01	1.6588	4.280101	0.000071	0.705127	0.238903	-0.005730
 961	4.8000e-01	1.6010	4.118887	0.000397	3.967655	1.344278	-0.032243
 962	4.8050e-01	1.5770	3.999579	0.000294	2.936275	0.994837	-0.023861
 963	4.8100e-01	1.5320	3.916620	0.000204	2.041711	0.691750	-0.016592
 964	4.8150e-01	1.4871	3.845634	0.000175	1.747031	0.591910	-0.014197
 965	4.8200e-01	1.4470	3.761392	0.000207	2.073284	0.702448	-0.016848
 966	4.8250e-01	1.4197	3.668597	0.000228	2.283769	0.773762	-0.018559
 967	4.8300e-01	1.3716	3.546296	0.000301	3.009945	1.019797	-0.024460
 968	4.8350e-01	1.3363	3.489422	0.000140	1.399730	0.474241	-0.011375
 969	4.8400e-01	1.3074	3.367121	0.000301	3.009945	1.019797	-0.024460
 970	4.8450e-01	1.2417	3.258932	0.000266	2.662644	0.902128	-0.021638
 971	4.8500e-01	1.2256	3.111401	0.000363	3.630878	1.230175	-0.029506
 972	4.8550e-01	1.1775	3.106698	0.000012	0.115767	0.039223	-0.000941
 973	4.8600e-01	1.1374	2.997226	0.000269	2.694217	0.912825	-0.021894
 974	4.8650e-01	1.1021	2.874925	0.000301	3.009945	1.019797	-0.024460
 975	4.8700e-01	1.0668	2.791965	0.000204	2.041711	0.691750	-0.016592
 976	4.8750e-01	1.0123	2.696177	0.000236	2.357439	0.798722	-0.019158
 977	4.8800e-01	0.9802	2.610652	0.000210	2.104857	0.713145	-0.017105
 978	4.8850e-01	0.9208	2.517002	0.000230	2.304818	0.780893	-0.018730
 979	4.8900e-01	0.8743	2.424208	0.000228	2.283769	0.773762	-0.018559
 980	4.8950e-01	0.8583	2.320295	0.000256	2.557401	0.866471	-0.020783
 981	4.9000e-01	0.7957	2.234770	0.000210	2.104857	0.713145	-0.017105
 982	4.9050e-01	0.7556	2.141975	0.000228	2.283769	0.773762	-0.018559
 983	4.9100e-01	0.7540	1.965366	0.000435	4.346529	1.472644	-0.035322
 984	4.9150e-01	0.6962	1.893525	0.000177	1.768080	0.599042	-0.014368
 985	4.9200e-01	0.6481	1.816125	0.000190	1.904895	0.645396	-0.015480
 986	4.9250e-01	0.5823	1.743856	0.000178	1.778604	0.602607	-0.014454
 987	4.9300e-01	0.5743	1.610437	0.000328	3.283576	1.112506	-0.026684
 988	4.9350e-01	0.5278	1.463334	0.000362	3.620353	1.226609	-0.029421
 989	4.9400e-01	0.4957	1.403466	0.000147	1.473400	0.499201	-0.011974
 990	4.9450e-01	0.4749	1.293994	0.000269	2.694217	0.912825	-0.021894
 991	4.9500e-01	0.3898	1.236692	0.000141	1.410254	0.477807	-0.011460
 992	4.9550e-01	0.3385	1.137483	0.000244	2.441634	0.827248	-0.019842
 993	4.9600e-01	0.3289	0.986959	0.000370	3.704548	1.255135	-0.030105
 994	4.9650e-01	0.2647	0.902289	0.000208	2.083808	0.706013	-0.016934
 995	4.9700e-01	0.2326	0.803080	0.000244	2.441634	0.827248	-0.019842
 996	4.9750e-01	0.2438	0.658543	-0.000356	-3.557208	-1.205215	-0.028907
 997	4.9800e-01	0.1684	0.614925	0.000107	1.073477	0.363704	-0.008724
 998	4.9850e-01	0.1332	0.491341	0.000304	3.041518	1.030494	-0.024717
 999	4.9900e-01	0.0882	0.379731	0.000275	2.746838	0.930654	-0.022322
1000	4.9950e-01	0.0401	0.285226	0.000233	2.325867	0.788025	-0.018901
1001	5.0000e-01	0.0481	0.161215	-0.000305	-3.052042	-1.034060	-0.024802
1002	5.0050e-01	-0.0160	0.073979	0.000215	2.146954	0.727408	-0.017447
1003	5.0100e-01	-0.1027	0.035493	0.000095	0.947186	0.320915	-0.007697
1004	5.0150e-01	-0.0914	-0.091939	-0.000314	-3.136236	-1.062586	-0.025486
1005	5.0200e-01	-0.1476	-0.198418	0.000262	2.620547	0.887865	-0.021296
1006	5.0250e-01	-0.1636	-0.332265	0.000329	3.294101	1.116072	-0.026769
1007	5.0300e-01	-0.2342	-0.390850	0.000144	1.441827	0.488504	-0.011717
1008	5.0350e-01	-0.2727	-0.473381	0.000203	2.031187	0.688185	-0.016506
1009	5.0400e-01	-0.3032	-0.620484	0.000362	3.620353	1.226609	-0.029421
1010	5.0450e-01	-0.3642	-0.687194	0.000164	1.641788	0.556253	-0.013342
1011	5.0500e-01	-0.3962	-0.806074	0.000293	2.925751	0.991271	-0.023776
1012	5.0550e-01	-0.4283	-0.908704	0.000253	2.525828	0.855774	-0.020526
1013	5.0600e-01	-0.4652	-1.034853	0.000310	3.104664	1.051889	-0.025230
1014	5.0650e-01	-0.5150	-1.114819	0.000197	1.968041	0.666790	-0.015993
1015	5.0700e-01	-0.5246	-1.250804	0.000335	3.346722	1.133900	-0.027197
1016	5.0750e-01	-0.5984	-1.325638	0.000184	1.841750	0.624002	-0.014967
1017	5.0800e-01	-0.6144	-1.478301	0.000376	3.757169	1.272963	-0.030532
1018	5.0850e-01	-0.7010	-1.526622	0.000119	1.189244	0.402927	-0.009664
1019	5.0900e-01	-0.6898	-1.657048	-0.000321	-3.209906	-1.087546	-0.026085
1020	5.0950e-01	-0.7444	-1.745139	0.000217	2.168002	0.734539	-0.017618
1021	5.1000e-01	-0.7845	-1.875564	0.000321	3.209906	1.087546	-0.026085
1022	5.1050e-01	-0.8246	-1.949116	0.000181	1.810177	0.613304	-0.014710
1023	5.1100e-01	-0.8518	-2.079969	0.000322	3.220431	1.091111	-0.026171
1024	5.1150e-01	-0.9144	-2.111186	0.000077	0.768273	0.260298	-0.006243
1025	5.1200e-01	-0.9657	-2.235625	0.000306	3.062566	1.037626	-0.024888
1026	5.1250e-01	-0.9946	-2.338683	0.000254	2.536352	0.859339	-0.020612
1027	5.1300e-01	-1.0379	-2.479799	0.000347	3.473014	1.176689	-0.028223
1028	5.1350e-01	-1.0588	-2.579008	0.000244	2.441634	0.827248	-0.019842
1029	5.1400e-01	-1.0861	-2.710289	0.000323	3.230955	1.094677	-0.026256
1030	5.1450e-01	-1.1743	-2.799663	0.000220	2.199575	0.745236	-0.017875
1031	5.1500e-01	-1.1935	-2.864234	0.000159	1.589167	0.538424	-0.012914
1032	5.1550e-01	-1.2000	-3.010054	0.000359	3.588781	1.215912	-0.029164
1033	5.1600e-01	-1.2529	-3.055383	0.000112	1.115574	0.377967	-0.009066
1034	5.1650e-01	-1.3219	-3.168276	0.000278	2.778411	0.941351	-0.022579
1035	5.1700e-01	-1.3652	-3.214032	0.000113	1.126098	0.381532	-0.009151
1036	5.1750e-01	-1.3652	-3.371825	0.000388	3.883461	1.315752	-0.031559
1037	5.1800e-01	-1.4149	-3.450081	0.000193	1.925944	0.652527	-0.015651
1038	5.1850e-01	-1.4326	-3.610868	0.000396	3.957131	1.340712	-0.032157
1039	5.1900e-01	-1.5048	-3.673301	0.000154	1.536545	0.520596	-0.012487
1040	5.1950e-01	-1.5401	-3.771655	0.000242	2.420585	0.820116	-0.019671
1041	5.2000e-01	-1.5930	-3.892673	0.000298	2.978372	1.009100	-0.024204
1042	5.2050e-01	-1.6283	-3.960665	0.000167	1.673361	0.566950	-0.013598
1043	5.2100e-01	-1.6604	-4.071420	0.000273	2.725789	0.923522	-0.022151
1044	5.2150e-01	-1.7181	-4.120597	0.000121	1.210293	0.410058	-0.009835
1045	5.2200e-01	-1.7486	-4.245464	0.000307	3.073091	1.041191	-0.024973
1046	5.2250e-01	-1.7855	-4.375462	0.000320	3.199382	1.083980	-0.026000
1047	5.2300e-01	-1.8385	-4.430625	0.000136	1.357633	0.459978	-0.011033
1048	5.2350e-01	-1.8770	-4.530262	0.000245	2.452158	0.830814	-0.019927
1049	5.2400e-01	-1.8930	-4.697891	0.000413	4.125519	1.397764	-0.033526
1050	5.2450e-01	-1.9540	-4.751344	0.000132	1.315535	0.445715	-0.010691
1051	5.2500e-01	-1.9925	-4.880915	0.000319	3.188858	1.080414	-0.025914
1052	5.2550e-01	-2.0374	-4.911704	0.000076	0.757748	0.256732	-0.006158
1053	5.2600e-01	-2.0791	-5.066504	0.000381	3.809791	1.290792	-0.030960
1054	5.2650e-01	-2.1144	-5.100287	0.000083	0.831418	0.281692	-0.006756
1055	5.2700e-01	-2.1449	-5.221305	0.000298	2.978372	1.009100	-0.024204
1056	5.2750e-01	-2.2187	-5.305974	0.000208	2.083808	0.706013	-0.016934
1057	5.2800e-01	-2.2379	-5.386368	0.000198	1.978565	0.670356	-0.016079
1058	5.2850e-01	-2.2700	-5.465479	0.000195	1.946992	0.659659	-0.015822
1059	5.2900e-01	-2.2924	-5.567681	0.000252	2.515304	0.852208	-0.020440
1060	5.2950e-01	-2.3358	-5.680147	0.000277	2.767887	0.937785	-0.022493
1061	5.3000e-01	-2.3887	-5.767382	0.000215	2.146954	0.727408	-0.017447
1062	5.3050e-01	-2.4449	-5.822973	0.000137	1.368157	0.463544	-0.011118
1063	5.3100e-01	-2.4866	-5.981195	0.000389	3.893985	1.319318	-0.031644
1064	5.3150e-01	-2.4994	-6.118462	0.000338	3.378295	1.144597	-0.027454
1065	5.3200e-01	-2.5170	-6.196718	0.000193	1.925944	0.652527	-0.015651
1066	5.3250e-01	-2.5860	-6.208264	0.000028	0.284156	0.096275	-0.002309
1067	5.3300e-01	-2.6133	-6.345104	0.000337	3.367771	1.141032	-0.027368
1068	5.3350e-01	-2.6502	-6.435760	0.000223	2.231148	0.755933	-0.018131
1069	5.3400e-01	-2.7128	-6.515726	0.000197	1.968041	0.666790	-0.015993
1070	5.3450e-01	-2.7352	-6.629902	0.000281	2.809984	0.952048	-0.022835
1071	5.3500e-01	-2.7930	-6.668389	0.000095	0.947186	0.320915	-0.007697
1072	5.3550e-01	-2.8315	-6.775295	0.000263	2.631071	0.891431	-0.021381
1073	5.3600e-01	-2.8620	-6.912563	0.000338	3.378295	1.144597	-0.027454
1074	5.3650e-01	-2.9133	-6.969864	0.000141	1.410254	0.477807	-0.011460
1075	5.3700e-01	-2.9454	-7.066508	0.000238	2.378488	0.805854	-0.019329
1076	5.3750e-01	-2.9775	-7.137493	0.000175	1.747031	0.591910	-0.014197
1077	5.3800e-01	-3.0160	-7.222591	0.000209	2.094332	0.709579	-0.017019
1078	5.3850e-01	-3.0593	-7.361569	0.000342	3.420392	1.158860	-0.027796
1079	5.3900e-01	-3.1138	-7.387654	0.000064	0.641981	0.217509	-0.005217
1080	5.3950e-01	-3.1684	-7.508672	0.000298	2.978372	1.009100	-0.024204
1081	5.4000e-01	-3.1860	-7.553573	0.000111	1.105050	0.374401	-0.008980
1082	5.4050e-01	-3.2117	-7.652782	0.000244	2.441634	0.827248	-0.019842
1083	5.4100e-01	-3.2518	-7.740873	0.000217	2.168002	0.734539	-0.017618
1084	5.4150e-01	-3.2983	-7.879851	0.000342	3.420392	1.158860	-0.027796
1085	5.4200e-01	-3.3416	-7.950409	0.000174	1.736507	0.588344	-0.014112
1086	5.4250e-01	-3.4010	-8.027809	0.000190	1.904895	0.645396	-0.015480
1087	5.4300e-01	-3.4170	-8.108203	0.000198	1.978565	0.670356	-0.016079
1088	5.4350e-01	-3.4796	-8.196721	0.000218	2.178527	0.738105	-0.017704
1089	5.4400e-01	-3.5101	-8.230504	0.000083	0.831418	0.281692	-0.006756
1090	5.4450e-01	-3.5309	-8.351094	0.000297	2.967848	1.005534	-0.024118
1091	5.4500e-01	-3.5694	-8.423363	0.000178	1.778604	0.602607	-0.014454
1092	5.4550e-01	-3.6304	-8.520861	0.000240	2.399537	0.812985	-0.019500
1093	5.4600e-01	-3.6721	-8.582439	0.000152	1.515497	0.513464	-0.012316
1094	5.4650e-01	-3.7122	-8.670958	0.000218	2.178527	0.738105	-0.017704
1095	5.4700e-01	-3.7427	-8.769312	0.000242	2.420585	0.820116	-0.019671
1096	5.4750e-01	-3.8101	-8.833455	0.000158	1.578643	0.534859	-0.012829
1097	5.4800e-01	-3.8341	-8.928816	0.000235	2.346915	0.795156	-0.019072
1098	5.4850e-01	-3.8534	-9.052399	0.000304	3.041518	1.030494	-0.024717
1099	5.4900e-01	-3.9223	-9.096445	0.000108	1.084001	0.367270	-0.008809
1100	5.4950e-01	-3.9737	-9.125951	0.000073	0.726176	0.246035	-0.005901
1101	5.5000e-01	-3.9833	-9.261508	0.000334	3.336198	1.130334	-0.027111
1102	5.5050e-01	-3.9961	-9.407756	0.000360	3.599305	1.219478	-0.029250
1103	5.5100e-01	-4.0715	-9.468906	0.000150	1.504973	0.509898	-0.012230
1104	5.5150e-01	-4.1036	-9.501834	0.000081	0.810370	0.274561	-0.006585
1105	5.5200e-01	-4.1453	-9.617292	0.000284	2.841557	0.962745	-0.023092
1106	5.5250e-01	-4.1758	-9.694693	0.000190	1.904895	0.645396	-0.015480
1107	5.5300e-01	-4.2304	-9.763540	0.000169	1.694410	0.574082	-0.013770
1108	5.5350e-01	-4.2608	-9.840513	0.000189	1.894371	0.641830	-0.015395
1109	5.5400e-01	-4.3122	-9.888834	0.000119	1.189244	0.402927	-0.009664
1110	5.5450e-01	-4.3427	-9.995741	0.000263	2.631071	0.891431	-0.021381
1111	5.5500e-01	-4.3924	-10.103930	0.000266	2.662644	0.902128	-0.021638
1112	5.5550e-01	-4.4341	-10.158238	0.000134	1.336584	0.452847	-0.010862
1113	5.5600e-01	-4.4582	-10.247184	0.000219	2.189051	0.741671	-0.017789
1114	5.5650e-01	-4.5368	-10.272414	0.000062	0.620933	0.210378	-0.005046
1115	5.5700e-01	-4.5624	-10.395998	0.000304	3.041518	1.030494	-0.024717
1116	5.5750e-01	-4.5881	-10.440043	0.000108	1.084001	0.367270	-0.008809
1117	5.5800e-01	-4.6507	-10.547805	0.000265	2.652119	0.898562	-0.021552
1118	5.5850e-01	-4.6956	-10.619218	0.000176	1.757555	0.595476	-0.014283
1119	5.5900e-01	-4.7164	-10.709875	0.000223	2.231148	0.755933	-0.018131
1120	5.5950e-01	-4.7437	-10.785992	0.000187	1.873322	0.634699	-0.015223
1121	5.6000e-01	-4.8159	-10.854840	0.000169	1.694410	0.574082	-0.013770
1122	5.6050e-01	-4.8223	-10.966450	0.000275	2.746838	0.930654	-0.022322
1123	5.6100e-01	-4.8785	-11.022041	0.000137	1.368157	0.463544	-0.011118
1124	5.6150e-01	-4.9218	-11.061811	0.000098	0.978758	0.331612	-0.007954
1125	5.6200e-01	-4.9426	-11.178125	0.000286	2.862605	0.969877	-0.023263
1126	5.6250e-01	-4.9779	-11.286314	0.000266	2.662644	0.902128	-0.021638
1127	5.6300e-01	-5.0421	-11.307695	0.000053	0.526214	0.178286	-0.004276
1128	5.6350e-01	-5.0581	-11.438548	0.000322	3.220431	1.091111	-0.026171
1129	5.6400e-01	-5.1159	-11.506541	0.000167	1.673361	0.566950	-0.013598
1130	5.6450e-01	-5.1351	-11.567691	0.000150	1.504973	0.509898	-0.012230
1131	5.6500e-01	-5.2266	-11.633546	0.000162	1.620740	0.549121	-0.013171
1132	5.6550e-01	-5.2282	-11.715650	0.000202	2.020662	0.684619	-0.016421
1133	5.6600e-01	-5.2731	-11.785353	0.000172	1.715458	0.581213	-0.013941
1134	5.6650e-01	-5.3052	-11.898246	0.000278	2.778411	0.941351	-0.022579
1135	5.6700e-01	-5.3261	-11.973935	0.000186	1.862798	0.631133	-0.015138
1136	5.6750e-01	-5.3966	-12.027388	0.000132	1.315535	0.445715	-0.010691
1137	5.6800e-01	-5.4207	-12.092815	0.000161	1.610215	0.545556	-0.013085
1138	5.6850e-01	-5.4624	-12.193735	0.000248	2.483731	0.841511	-0.020184
1139	5.6900e-01	-5.4993	-12.280115	0.000213	2.125905	0.720276	-0.017276
1140	5.6950e-01	-5.5426	-12.313897	0.000083	0.831418	0.281692	-0.006756
1141	5.7000e-01	-5.6036	-12.377186	0.000156	1.557594	0.527727	-0.012658
1142	5.7050e-01	-5.6180	-12.476395	0.000244	2.441634	0.827248	-0.019842
1143	5.7100e-01	-5.6613	-12.592709	0.000286	2.862605	0.969877	-0.023263
1144	5.7150e-01	-5.7191	-12.626919	0.000084	0.841943	0.285258	-0.006842
1145	5.7200e-01	-5.7656	-12.689352	0.000154	1.536545	0.520596	-0.012487
1146	5.7250e-01	-5.7929	-12.790700	0.000249	2.494255	0.845077	-0.020269
1147	5.7300e-01	-5.8218	-12.847574	0.000140	1.399730	0.474241	-0.011375
1148	5.7350e-01	-5.8619	-12.939941	0.000227	2.273245	0.770196	-0.018473
1149	5.7400e-01	-5.9180	-12.971585	0.000078	0.778797	0.263864	-0.006329
1150	5.7450e-01	-5.9517	-13.084478	0.000278	2.778411	0.941351	-0.022579
1151	5.7500e-01	-5.9806	-13.152471	0.000167	1.673361	0.566950	-0.013598
1152	5.7550e-01	-6.0351	-13.217470	0.000160	1.599691	0.541990	-0.013000
1153	5.7600e-01	-6.0544	-13.313685	0.000237	2.367964	0.802288	-0.019243
1154	5.7650e-01	-6.1266	-13.373553	0.000147	1.473400	0.499201	-0.011974
1155	5.7700e-01	-6.1105	-13.466775	-0.000229	-2.294294	-0.777328	-0.018644
1156	5.7750e-01	-6.1907	-13.536906	0.000173	1.725982	0.584779	-0.014026
1157	5.7800e-01	-6.2164	-13.598911	0.000153	1.526021	0.517030	-0.012401
1158	5.7850e-01	-6.2677	-13.656213	0.000141	1.410254	0.477807	-0.011460
1159	5.7900e-01	-6.3030	-13.693417	0.000092	0.915613	0.310218	-0.007441
1160	5.7950e-01	-6.3816	-13.792198	0.000243	2.431109	0.823682	-0.019756
1161	5.8000e-01	-6.3512	-13.881999	-0.000221	-2.210100	-0.748802	-0.017960
1162	5.8050e-01	-6.4073	-13.961965	0.000197	1.968041	0.666790	-0.015993
1163	5.8100e-01	-6.4185	-14.139002	0.000436	4.357053	1.476210	-0.035407
1164	5.8150e-01	-6.5084	-14.096667	-0.000104	-1.041904	-0.353007	0.008467
1165	5.8200e-01	-6.5613	-14.133015	0.000089	0.894564	0.303087	-0.007270
1166	5.8250e-01	-6.6143	-14.218968	0.000212	2.115381	0.716710	-0.017191
1167	5.8300e-01	-6.6415	-14.279691	0.000149	1.494448	0.506333	-0.012145
1168	5.8350e-01	-6.6656	-14.401564	0.000300	2.999421	1.016231	-0.024375
1169	5.8400e-01	-6.7105	-14.414820	0.000033	0.326253	0.110537	-0.002651
1170	5.8450e-01	-6.7554	-14.506332	0.000225	2.252197	0.763065	-0.018302
1171	5.8500e-01	-6.7987	-14.590574	0.000207	2.073284	0.702448	-0.016848
1172	5.8550e-01	-6.8036	-14.724849	0.000330	3.304625	1.119637	-0.026855
1173	5.8600e-01	-6.8693	-14.692777	-0.000079	-0.789321	-0.267429	0.006414
1174	5.8650e-01	-6.9158	-14.784289	0.000225	2.252197	0.763065	-0.018302
1175	5.8700e-01	-6.9527	-14.857840	0.000181	1.810177	0.613304	-0.014710
1176	5.8750e-01	-6.9688	-14.978003	0.000296	2.957324	1.001968	-0.024033
1177	5.8800e-01	-7.0538	-15.007081	0.000072	0.715651	0.242469	-0.005816
1178	5.8850e-01	-7.0602	-15.094745	0.000216	2.157478	0.730973	-0.017533
1179	5.8900e-01	-7.1324	-15.149908	0.000136	1.357633	0.459978	-0.011033
1180	5.8950e-01	-7.1693	-15.218756	0.000169	1.694410	0.574082	-0.013770
1181	5.9000e-01	-7.1789	-15.325662	0.000263	2.631071	0.891431	-0.021381
1182	5.9050e-01	-7.2190	-15.391517	0.000162	1.620740	0.549121	-0.013171
1183	5.9100e-01	-7.2239	-15.474048	0.000203	2.031187	0.688185	-0.016506
1184	5.9150e-01	-7.3073	-15.560001	0.000212	2.115381	0.716710	-0.017191
1185	5.9200e-01	-7.3394	-15.609605	0.000122	1.220817	0.413624	-0.009921
1186	5.9250e-01	-7.3859	-15.629704	0.000049	0.494641	0.167589	-0.004020
1187	5.9300e-01	-7.4132	-15.744307	0.000282	2.820508	0.955614	-0.022921
1188	5.9350e-01	-7.4581	-15.826411	0.000202	2.020662	0.684619	-0.016421
1189	5.9400e-01	-7.5142	-15.870457	0.000108	1.084001	0.367270	-0.008809
1190	5.9450e-01	-7.5399	-15.932462	0.000153	1.526021	0.517030	-0.012401
1191	5.9500e-01	-7.5993	-15.989337	0.000140	1.399730	0.474241	-0.011375
1192	5.9550e-01	-7.6297	-16.058612	0.000170	1.704934	0.577647	-0.013855
1193	5.9600e-01	-7.6506	-16.148413	0.000221	2.210100	0.748802	-0.017960
1194	5.9650e-01	-7.7228	-16.199728	0.000126	1.262914	0.427887	-0.010263
1195	5.9700e-01	-7.7709	-16.250188	0.000124	1.241865	0.420755	-0.010092
1196	5.9750e-01	-7.8062	-16.316898	0.000164	1.641788	0.556253	-0.013342
1197	5.9800e-01	-7.8623	-16.407554	0.000223	2.231148	0.755933	-0.018131
1198	5.9850e-01	-7.8607	-16.457586	-0.000123	-1.231341	-0.417190	-0.010006
1199	5.9900e-01	-7.9073	-16.555940	0.000242	2.420585	0.820116	-0.019671
1200	5.9950e-01	-7.9698	-16.619229	0.000156	1.557594	0.527727	-0.012658
1201	6.0000e-01	-8.0003	-16.644886	0.000063	0.631457	0.213943	-0.005132
1202	6.0050e-01	-8.0532	-16.766332	0.000299	2.988896	1.012666	-0.024289
1203	6.0100e-01	-8.0581	-16.854850	0.000218	2.178527	0.738105	-0.017704
1204	6.0150e-01	-8.1030	-16.856561	0.000004	0.042097	0.014263	-0.000342
1205	6.0200e-01	-8.1479	-16.954915	0.000242	2.420585	0.820116	-0.019671
1206	6.0250e-01	-8.2024	-17.003236	0.000119	1.189244	0.402927	-0.009664
1207	6.0300e-01	-8.2249	-17.113136	0.000270	2.704741	0.916391	-0.021980
1208	6.0350e-01	-8.2843	-17.137938	0.000061	0.610408	0.206812	-0.004960
1209	6.0400e-01	-8.3067	-17.229878	0.000226	2.262721	0.766631	-0.018388
1210	6.0450e-01	-8.3661	-17.263660	0.000083	0.831418	0.281692	-0.006756
1211	6.0500e-01	-8.3966	-17.337212	0.000181	1.810177	0.613304	-0.014710
1212	6.0550e-01	-8.4367	-17.387244	0.000123	1.231341	0.417190	-0.010006
1213	6.0600e-01	-8.4479	-17.497999	0.000273	2.725789	0.923522	-0.022151
1214	6.0650e-01	-8.4848	-17.579247	0.000200	1.999614	0.677488	-0.016250
1215	6.0700e-01	-8.5377	-17.642536	0.000156	1.557594	0.527727	-0.012658
1216	6.0750e-01	-8.5698	-17.689147	0.000115	1.147147	0.388664	-0.009322
1217	6.0800e-01	-8.6404	-17.749015	0.000147	1.473400	0.499201	-0.011974
1218	6.0850e-01	-8.6580	-17.794343	0.000112	1.115574	0.377967	-0.009066
1219	6.0900e-01	-8.7062	-17.915361	0.000298	2.978372	1.009100	-0.024204
1220	6.0950e-01	-8.7623	-17.967531	0.000128	1.283963	0.435018	-0.010434
1221	6.1000e-01	-8.7687	-18.056050	0.000218	2.178527	0.738105	-0.017704
1222	6.1050e-01	-8.8441	-18.089832	0.000083	0.831418	0.281692	-0.006756
1223	6.1100e-01	-8.8602	-18.202725	0.000278	2.778411	0.941351	-0.022579
1224	6.1150e-01	-8.9067	-18.241639	0.000096	0.957710	0.324481	-0.007783
1225	6.1200e-01	-8.9243	-18.305355	0.000157	1.568118	0.531293	-0.012743
1226	6.1250e-01	-9.0062	-18.321177	0.000039	0.389398	0.131932	-0.003164
1227	6.1300e-01	-9.0751	-18.383611	0.000154	1.536545	0.520596	-0.012487
1228	6.1350e-01	-9.0735	-18.504201	-0.000297	-2.967848	-1.005534	-0.024118
1229	6.1400e-01	-9.1024	-18.550384	0.000114	1.136623	0.385098	-0.009237
1230	6.1450e-01	-9.1361	-18.620515	0.000173	1.725982	0.584779	-0.014026
1231	6.1500e-01	-9.1939	-18.701336	0.000199	1.989090	0.673922	-0.016164
1232	6.1550e-01	-9.2324	-18.718869	0.000043	0.431496	0.146195	-0.003507
1233	6.1600e-01	-9.2773	-18.797552	0.000194	1.936468	0.656093	-0.015737
1234	6.1650e-01	-9.3318	-18.835610	0.000094	0.936661	0.317349	-0.007612
1235	6.1700e-01	-9.3511	-18.966891	0.000323	3.230955	1.094677	-0.026256
1236	6.1750e-01	-9.4008	-18.964753	-0.000005	-0.052621	-0.017829	0.000428
1237	6.1800e-01	-9.4152	-19.076791	0.000276	2.757362	0.934220	-0.022408
1238	6.1850e-01	-9.4586	-19.152481	0.000186	1.862798	0.631133	-0.015138
1239	6.1900e-01	-9.5147	-19.202941	0.000124	1.241865	0.420755	-0.010092
1240	6.1950e-01	-9.4874	-19.311557	-0.000267	-2.673168	-0.905694	-0.021723
1241	6.2000e-01	-9.6190	-19.327380	0.000039	0.389398	0.131932	-0.003164
1242	6.2050e-01	-9.6671	-19.341064	0.000034	0.336777	0.114103	-0.002737
1243	6.2100e-01	-9.6543	-19.508693	-0.000413	-4.125519	-1.397764	-0.033526
1244	6.2150e-01	-9.7104	-19.514252	0.000014	0.136816	0.046354	-0.001112
1245	6.2200e-01	-9.7281	-19.586948	0.000179	1.789128	0.606173	-0.014539
1246	6.2250e-01	-9.8083	-19.687868	0.000248	2.483731	0.841511	-0.020184
1247	6.2300e-01	-9.8436	-19.653230	-0.000085	-0.852467	-0.288824	0.006928
1248	6.2350e-01	-9.8548	-19.777241	0.000305	3.052042	1.034060	-0.024802
1249	6.2400e-01	-9.8773	-19.867898	0.000223	2.231148	0.755933	-0.018131
1250	6.2450e-01	-9.9735	-19.889279	0.000053	0.526214	0.178286	-0.004276
1251	6.2500e-01	-9.9815	-19.976515	0.000215	2.146954	0.727408	-0.017447
1252	6.2550e-01	-10.0489	-20.059902	0.000205	2.052235	0.695316	-0.016677
1253	6.2600e-01	-10.0986	-20.083849	0.000059	0.589360	0.199681	-0.004789
1254	6.2650e-01	-10.0810	-20.147992	-0.000158	-1.578643	-0.534859	-0.012829
1255	6.2700e-01	-10.1564	-20.251905	0.000256	2.557401	0.866471	-0.020783
1256	6.2750e-01	-10.1773	-20.361805	0.000270	2.704741	0.916391	-0.021980
1257	6.2800e-01	-10.2446	-20.325885	-0.000088	-0.884040	-0.299521	0.007184
1258	6.2850e-01	-10.2575	-20.455455	0.000319	3.188858	1.080414	-0.025914
1259	6.2900e-01	-10.2960	-20.456310	0.000002	0.021049	0.007131	-0.000171
1260	6.2950e-01	-10.3585	-20.542263	0.000212	2.115381	0.716710	-0.017191
1261	6.3000e-01	-10.4067	-20.599565	0.000141	1.410254	0.477807	-0.011460
1262	6.3050e-01	-10.4211	-20.675682	0.000187	1.873322	0.634699	-0.015223
1263	6.3100e-01	-10.4708	-20.715879	0.000099	0.989283	0.335178	-0.008039
1264	6.3150e-01	-10.5286	-20.803114	0.000215	2.146954	0.727408	-0.017447
1265	6.3200e-01	-10.5462	-20.842028	0.000096	0.957710	0.324481	-0.007783
1266	6.3250e-01	-10.6296	-20.890350	0.000119	1.189244	0.402927	-0.009664
1267	6.3300e-01	-10.6232	-20.976303	-0.000212	-2.115381	-0.716710	-0.017191
1268	6.3350e-01	-10.6874	-21.034887	0.000144	1.441827	0.488504	-0.011717
1269	6.3400e-01	-10.7018	-21.081498	0.000115	1.147147	0.388664	-0.009322
1270	6.3450e-01	-10.7468	-21.178142	0.000238	2.378488	0.805854	-0.019329
1271	6.3500e-01	-10.7917	-21.226036	0.000118	1.178720	0.399361	-0.009579
1272	6.3550e-01	-10.7997	-21.329949	0.000256	2.557401	0.866471	-0.020783
1273	6.3600e-01	-10.8783	-21.388961	0.000145	1.452351	0.492070	-0.011802
1274	6.3650e-01	-10.9008	-21.428730	0.000098	0.978758	0.331612	-0.007954
1275	6.3700e-01	-10.9473	-21.523235	0.000233	2.325867	0.788025	-0.018901
1276	6.3750e-01	-11.0018	-21.565143	0.000103	1.031380	0.349441	-0.008381
1277	6.3800e-01	-10.9954	-21.634846	-0.000172	-1.715458	-0.581213	-0.013941
1278	6.3850e-01	-11.0772	-21.647247	0.000031	0.305204	0.103406	-0.002480
1279	6.3900e-01	-11.1173	-21.725502	0.000193	1.925944	0.652527	-0.015651
1280	6.3950e-01	-11.1606	-21.797343	0.000177	1.768080	0.599042	-0.014368
1281	6.4000e-01	-11.1623	-21.912374	0.000283	2.831032	0.959180	-0.023006
1282	6.4050e-01	-11.2232	-21.952999	0.000100	0.999807	0.338744	-0.008125
1283	6.4100e-01	-11.2649	-22.010728	0.000142	1.420778	0.481373	-0.011546
1284	6.4150e-01	-11.2778	-22.081286	0.000174	1.736507	0.588344	-0.014112
1285	6.4200e-01	-11.3548	-22.114641	0.000082	0.820894	0.278126	-0.006671
1286	6.4250e-01	-11.3981	-22.133884	0.000047	0.473593	0.160458	-0.003849
1287	6.4300e-01	-11.4510	-22.200166	0.000163	1.631264	0.552687	-0.013256
1288	6.4350e-01	-11.4622	-22.242073	0.000103	1.031380	0.349441	-0.008381
1289	6.4400e-01	-11.5040	-22.367795	0.000309	3.094139	1.048323	-0.025144
1290	6.4450e-01	-11.5489	-22.416117	0.000119	1.189244	0.402927	-0.009664
1291	6.4500e-01	-11.6082	-22.450755	0.000085	0.852467	0.288824	-0.006928
1292	6.4550e-01	-11.6146	-22.496510	0.000113	1.126098	0.381532	-0.009151
1293	6.4600e-01	-11.6788	-22.590160	0.000230	2.304818	0.780893	-0.018730
1294	6.4650e-01	-11.7109	-22.608976	0.000046	0.463068	0.156892	-0.003763
1295	6.4700e-01	-11.7398	-22.698777	0.000221	2.210100	0.748802	-0.017960
1296	6.4750e-01	-11.8023	-22.749665	0.000125	1.252390	0.424321	-0.010177
1297	6.4800e-01	-11.8473	-22.830058	0.000198	1.978565	0.670356	-0.016079
1298	6.4850e-01	-11.8777	-22.900616	0.000174	1.736507	0.588344	-0.014112
1299	6.4900e-01	-11.9130	-22.971175	0.000174	1.736507	0.588344	-0.014112
1300	6.4950e-01	-11.9451	-23.004957	0.000083	0.831418	0.281692	-0.006756
1301	6.5000e-01	-11.9836	-23.111863	0.000263	2.631071	0.891431	-0.021381
1302	6.5050e-01	-12.0157	-23.158902	0.000116	1.157671	0.392230	-0.009408
1303	6.5100e-01	-12.0863	-23.184560	0.000063	0.631457	0.213943	-0.005132
1304	6.5150e-01	-12.1184	-23.247848	0.000156	1.557594	0.527727	-0.012658
1305	6.5200e-01	-12.1569	-23.304295	0.000139	1.389205	0.470676	-0.011289
1306	6.5250e-01	-12.1697	-23.403076	0.000243	2.431109	0.823682	-0.019756
1307	6.5300e-01	-12.2130	-23.414194	0.000027	0.273631	0.092709	-0.002224
1308	6.5350e-01	-12.2531	-23.516824	0.000253	2.525828	0.855774	-0.020526
1309	6.5400e-01	-12.3061	-23.571560	0.000135	1.347108	0.456413	-0.010947
1310	6.5450e-01	-12.3654	-23.581396	0.000024	0.242059	0.082012	-0.001967
1311	6.5500e-01	-12.3670	-23.703697	0.000301	3.009945	1.019797	-0.024460
1312	6.5550e-01	-12.4280	-23.769979	0.000163	1.631264	0.552687	-0.013256
1313	6.5600e-01	-12.4761	-23.754156	-0.000039	-0.389398	-0.131932	0.003164
1314	6.5650e-01	-12.5114	-23.814452	0.000148	1.483924	0.502767	-0.012059
1315	6.5700e-01	-12.5467	-23.914943	0.000247	2.473207	0.837945	-0.020098
1316	6.5750e-01	-12.6205	-23.949581	0.000085	0.852467	0.288824	-0.006928
1317	6.5800e-01	-12.6558	-24.012014	0.000154	1.536545	0.520596	-0.012487
1318	6.5850e-01	-12.6638	-24.117210	0.000259	2.588974	0.877168	-0.021039
1319	6.5900e-01	-12.7135	-24.192472	0.000185	1.852274	0.627567	-0.015052
1320	6.5950e-01	-12.7520	-24.243360	0.000125	1.252390	0.424321	-0.010177
1321	6.6000e-01	-12.7761	-24.275432	0.000079	0.789321	0.267429	-0.006414
1322	6.6050e-01	-12.8339	-24.307076	0.000078	0.778797	0.263864	-0.006329
1323	6.6100e-01	-12.8643	-24.399443	0.000227	2.273245	0.770196	-0.018473
1324	6.6150e-01	-12.8676	-24.510198	0.000273	2.725789	0.923522	-0.022151
1325	6.6200e-01	-12.9365	-24.540987	0.000076	0.757748	0.256732	-0.006158
1326	6.6250e-01	-13.0071	-24.594012	0.000131	1.305011	0.442150	-0.010605
1327	6.6300e-01	-13.0071	-24.614111	0.000049	0.494641	0.167589	-0.004020
1328	6.6350e-01	-13.0986	-24.638058	0.000059	0.589360	0.199681	-0.004789
1329	6.6400e-01	-13.1258	-24.729142	0.000224	2.241672	0.759499	-0.018217
1330	6.6450e-01	-13.1419	-24.829634	0.000247	2.473207	0.837945	-0.020098
1331	6.6500e-01	-13.1820	-24.862133	0.000080	0.799846	0.270995	-0.006500
1332	6.6550e-01	-13.2478	-24.920718	0.000144	1.441827	0.488504	-0.011717
1333	6.6600e-01	-13.2686	-24.973316	0.000129	1.294487	0.438584	-0.010520
1334	6.6650e-01	-13.3215	-25.030618	0.000141	1.410254	0.477807	-0.011460
1335	6.6700e-01	-13.3488	-25.074663	0.000108	1.084001	0.367270	-0.008809
1336	6.6750e-01	-13.4066	-25.137524	0.000155	1.547070	0.524161	-0.012572
1337	6.6800e-01	-13.4387	-25.190550	0.000131	1.305011	0.442150	-0.010605
1338	6.6850e-01	-13.4675	-25.280779	0.000222	2.220624	0.752368	-0.018046
1339	6.6900e-01	-13.5028	-25.323114	0.000104	1.041904	0.353007	-0.008467
1340	6.6950e-01	-13.5734	-25.385119	0.000153	1.526021	0.517030	-0.012401
1341	6.7000e-01	-13.5766	-25.465085	0.000197	1.968041	0.666790	-0.015993
1342	6.7050e-01	-13.6408	-25.506137	0.000101	1.010331	0.342309	-0.008210
1343	6.7100e-01	-13.6616	-25.508703	0.000006	0.063146	0.021394	-0.000513
1344	6.7150e-01	-13.7018	-25.636135	0.000314	3.136236	1.062586	-0.025486
1345	6.7200e-01	-13.7483	-25.659655	0.000058	0.578836	0.196115	-0.004704
1346	6.7250e-01	-13.7948	-25.745180	0.000210	2.104857	0.713145	-0.017105
1347	6.7300e-01	-13.8092	-25.784094	0.000096	0.957710	0.324481	-0.007783
1348	6.7350e-01	-13.8798	-25.842678	0.000144	1.441827	0.488504	-0.011717
1349	6.7400e-01	-13.9360	-25.879026	0.000089	0.894564	0.303087	-0.007270
1350	6.7450e-01	-13.9552	-25.966690	0.000216	2.157478	0.730973	-0.017533
1351	6.7500e-01	-13.9841	-26.017577	0.000125	1.252390	0.424321	-0.010177
1352	6.7550e-01	-14.0354	-26.073168	0.000137	1.368157	0.463544	-0.011118
1353	6.7600e-01	-14.0483	-26.126194	0.000131	1.305011	0.442150	-0.010605
1354	6.7650e-01	-14.0868	-26.239942	0.000280	2.799459	0.948483	-0.022750
1355	6.7700e-01	-14.1333	-26.247212	0.000018	0.178913	0.060617	-0.001454
1356	6.7750e-01	-14.1926	-26.302375	0.000136	1.357633	0.459978	-0.011033
1357	6.7800e-01	-14.2007	-26.345566	0.000106	1.062953	0.360138	-0.008638
1358	6.7850e-01	-14.2616	-26.378920	0.000082	0.820894	0.278126	-0.006671
1359	6.7900e-01	-14.2985	-26.486254	0.000264	2.641595	0.894997	-0.021467
1360	6.7950e-01	-14.3178	-26.565793	0.000196	1.957517	0.663225	-0.015908
1361	6.8000e-01	-14.3659	-26.608127	0.000104	1.041904	0.353007	-0.008467
1362	6.8050e-01	-14.3900	-26.657732	0.000122	1.220817	0.413624	-0.009921
1363	6.8100e-01	-14.4670	-26.714606	0.000140	1.399730	0.474241	-0.011375
1364	6.8150e-01	-14.4910	-26.796710	0.000202	2.020662	0.684619	-0.016421
1365	6.8200e-01	-14.5231	-26.855295	0.000144	1.441827	0.488504	-0.011717
1366	6.8250e-01	-14.5712	-26.860426	0.000013	0.126291	0.042789	-0.001026
1367	6.8300e-01	-14.6354	-26.893781	0.000082	0.820894	0.278126	-0.006671
1368	6.8350e-01	-14.6771	-26.985293	0.000225	2.252197	0.763065	-0.018302
1369	6.8400e-01	-14.7253	-27.020786	0.000087	0.873516	0.295955	-0.007099
1370	6.8450e-01	-14.7702	-27.109304	0.000218	2.178527	0.738105	-0.017704
1371	6.8500e-01	-14.8183	-27.143514	0.000084	0.841943	0.285258	-0.006842
1372	6.8550e-01	-14.8456	-27.197823	0.000134	1.336584	0.452847	-0.010862
1373	6.8600e-01	-14.8680	-27.290190	0.000227	2.273245	0.770196	-0.018473
1374	6.8650e-01	-14.9049	-27.336801	0.000115	1.147147	0.388664	-0.009322
1375	6.8700e-01	-14.9547	-27.369300	0.000080	0.799846	0.270995	-0.006500
1376	6.8750e-01	-15.0060	-27.436865	0.000166	1.662837	0.563384	-0.013513
1377	6.8800e-01	-15.0461	-27.458247	0.000053	0.526214	0.178286	-0.004276
1378	6.8850e-01	-15.0686	-27.524956	0.000164	1.641788	0.556253	-0.013342
1379	6.8900e-01	-15.1247	-27.622027	0.000239	2.389012	0.809419	-0.019414
1380	6.8950e-01	-15.1648	-27.673342	0.000126	1.262914	0.427887	-0.010263
1381	6.9000e-01	-15.1680	-27.726795	0.000132	1.315535	0.445715	-0.010691
1382	6.9050e-01	-15.2226	-27.782386	0.000137	1.368157	0.463544	-0.011118
1383	6.9100e-01	-15.2739	-27.823011	0.000100	0.999807	0.338744	-0.008125
1384	6.9150e-01	-15.3060	-27.910246	0.000215	2.146954	0.727408	-0.017447
1385	6.9200e-01	-15.3573	-27.914523	0.000011	0.105243	0.035657	-0.000855
1386	6.9250e-01	-15.4119	-27.978666	0.000158	1.578643	0.534859	-0.012829
1387	6.9300e-01	-15.4151	-28.031692	0.000131	1.305011	0.442150	-0.010605
1388	6.9350e-01	-15.4568	-28.139881	0.000266	2.662644	0.902128	-0.021638
1389	6.9400e-01	-15.5274	-28.148434	0.000021	0.210486	0.071314	-0.001711
1390	6.9450e-01	-15.5450	-28.213433	0.000160	1.599691	0.541990	-0.013000
1391	6.9500e-01	-15.5883	-28.230110	0.000041	0.410447	0.139063	-0.003335
1392	6.9550e-01	-15.6381	-28.306655	0.000188	1.883847	0.638265	-0.015309
1393	6.9600e-01	-15.6718	-28.348135	0.000102	1.020855	0.345875	-0.008296
1394	6.9650e-01	-15.7343	-28.401588	0.000132	1.315535	0.445715	-0.010691
1395	6.9700e-01	-15.7552	-28.518330	0.000287	2.873129	0.973443	-0.023348
1396	6.9750e-01	-15.8001	-28.547408	0.000072	0.715651	0.242469	-0.005816
1397	6.9800e-01	-15.8209	-28.616683	0.000170	1.704934	0.577647	-0.013855
1398	6.9850e-01	-15.8915	-28.619677	0.000007	0.073670	0.024960	-0.000599
1399	6.9900e-01	-15.9284	-28.718886	0.000244	2.441634	0.827248	-0.019842
1400	6.9950e-01	-15.9509	-28.716320	-0.000006	-0.063146	-0.021394	0.000513
1401	7.0000e-01	-16.0118	-28.816812	0.000247	2.473207	0.837945	-0.020098
1402	7.0050e-01	-16.0632	-28.881811	0.000160	1.599691	0.541990	-0.013000
1403	7.0100e-01	-16.0760	-28.928850	0.000116	1.157671	0.392230	-0.009408
1404	7.0150e-01	-16.1033	-28.985296	0.000139	1.389205	0.470676	-0.011289
1405	7.0200e-01	-16.1482	-29.067828	0.000203	2.031187	0.688185	-0.016506
1406	7.0250e-01	-16.1787	-29.141380	0.000181	1.810177	0.613304	-0.014710
1407	7.0300e-01	-16.2011	-29.187135	0.000113	1.126098	0.381532	-0.009151
1408	7.0350e-01	-16.2701	-29.192267	0.000013	0.126291	0.042789	-0.001026
1409	7.0400e-01	-16.2846	-29.280358	0.000217	2.168002	0.734539	-0.017618
1410	7.0450e-01	-16.3439	-29.312430	0.000079	0.789321	0.267429	-0.006414
1411	7.0500e-01	-16.3600	-29.368876	0.000139	1.389205	0.470676	-0.011289
1412	7.0550e-01	-16.4306	-29.451408	0.000203	2.031187	0.688185	-0.016506
1413	7.0600e-01	-16.4530	-29.508282	0.000140	1.399730	0.474241	-0.011375
1414	7.0650e-01	-16.5188	-29.538643	0.000075	0.747224	0.253166	-0.006072
1415	7.0700e-01	-16.5236	-29.590814	0.000128	1.283963	0.435018	-0.010434
1416	7.0750e-01	-16.5541	-29.669924	0.000195	1.946992	0.659659	-0.015822
1417	7.0800e-01	-16.6551	-29.705845	0.000088	0.884040	0.299521	-0.007184
1418	7.0850e-01	-16.6776	-29.716108	0.000025	0.252583	0.085577	-0.002053
1419	7.0900e-01	-16.7257	-29.807620	0.000225	2.252197	0.763065	-0.018302
1420	7.0950e-01	-16.7514	-29.859790	0.000128	1.283963	0.435018	-0.010434
1421	7.1000e-01	-16.7883	-29.935907	0.000187	1.873322	0.634699	-0.015223
1422	7.1050e-01	-16.8396	-29.930776	-0.000013	-0.126291	-0.042789	0.001026
1423	7.1100e-01	-16.8573	-30.024853	0.000232	2.315342	0.784459	-0.018816
1424	7.1150e-01	-16.9247	-30.062057	0.000092	0.915613	0.310218	-0.007441
1425	7.1200e-01	-16.9359	-30.147154	0.000209	2.094332	0.709579	-0.017019
1426	7.1250e-01	-16.9888	-30.165970	0.000046	0.463068	0.156892	-0.003763
1427	7.1300e-01	-17.0370	-30.255343	0.000220	2.199575	0.745236	-0.017875
1428	7.1350e-01	-17.0771	-30.267745	0.000031	0.305204	0.103406	-0.002480
1429	7.1400e-01	-17.1107	-30.341724	0.000182	1.820701	0.616870	-0.014796
1430	7.1450e-01	-17.1541	-30.396032	0.000134	1.336584	0.452847	-0.010862
1431	7.1500e-01	-17.1861	-30.458465	0.000154	1.536545	0.520596	-0.012487
1432	7.1550e-01	-17.2214	-30.541425	0.000204	2.041711	0.691750	-0.016592
1433	7.1600e-01	-17.2648	-30.609845	0.000168	1.683885	0.570516	-0.013684
1434	7.1650e-01	-17.3017	-30.626095	0.000040	0.399923	0.135498	-0.003250
1435	7.1700e-01	-17.3610	-30.647476	0.000053	0.526214	0.178286	-0.004276
1436	7.1750e-01	-17.3947	-30.724021	0.000188	1.883847	0.638265	-0.015309
1437	7.1800e-01	-17.4412	-30.800566	0.000188	1.883847	0.638265	-0.015309
1438	7.1850e-01	-17.5086	-30.795434	-0.000013	-0.126291	-0.042789	0.001026
1439	7.1900e-01	-17.5166	-30.887801	0.000227	2.273245	0.770196	-0.018473
1440	7.1950e-01	-17.5375	-30.929281	0.000102	1.020855	0.345875	-0.008296
1441	7.2000e-01	-17.6000	-30.997273	0.000167	1.673361	0.566950	-0.013598
1442	7.2050e-01	-17.6289	-31.060562	0.000156	1.557594	0.527727	-0.012658
1443	7.2100e-01	-17.6690	-31.091351	0.000076	0.757748	0.256732	-0.006158
1444	7.2150e-01	-17.7171	-31.155495	0.000158	1.578643	0.534859	-0.012829
1445	7.2200e-01	-17.7412	-31.194836	0.000097	0.968234	0.328047	-0.007868
1446	7.2250e-01	-17.7653	-31.319703	0.000307	3.073091	1.041191	-0.024973
1447	7.2300e-01	-17.8086	-31.353485	0.000083	0.831418	0.281692	-0.006756
1448	7.2350e-01	-17.8824	-31.405228	0.000127	1.273438	0.431453	-0.010349
1449	7.2400e-01	-17.9466	-31.433879	0.000071	0.705127	0.238903	-0.005730
1450	7.2450e-01	-17.9658	-31.465523	0.000078	0.778797	0.263864	-0.006329
1451	7.2500e-01	-17.9931	-31.530950	0.000161	1.610215	0.545556	-0.013085
1452	7.2550e-01	-18.0300	-31.578844	0.000118	1.178720	0.399361	-0.009579
1453	7.2600e-01	-18.0749	-31.628448	0.000122	1.220817	0.413624	-0.009921
1454	7.2650e-01	-18.1166	-31.707559	0.000195	1.946992	0.659659	-0.015822
1455	7.2700e-01	-18.1439	-31.760157	0.000129	1.294487	0.438584	-0.010520
1456	7.2750e-01	-18.1936	-31.844827	0.000208	2.083808	0.706013	-0.016934
1457	7.2800e-01	-18.2353	-31.865353	0.000051	0.505166	0.171155	-0.004105
1458	7.2850e-01	-18.2834	-31.932062	0.000164	1.641788	0.556253	-0.013342
1459	7.2900e-01	-18.2931	-31.971831	0.000098	0.978758	0.331612	-0.007954
1460	7.2950e-01	-18.3396	-32.044528	0.000179	1.789128	0.606173	-0.014539
1461	7.3000e-01	-18.4134	-32.075744	0.000077	0.768273	0.260298	-0.006243
1462	7.3050e-01	-18.4326	-32.158276	0.000203	2.031187	0.688185	-0.016506
1463	7.3100e-01	-18.4567	-32.192486	0.000084	0.841943	0.285258	-0.006842
1464	7.3150e-01	-18.4920	-32.287419	0.000234	2.336391	0.791591	-0.018987
1465	7.3200e-01	-18.5546	-32.328471	0.000101	1.010331	0.342309	-0.008210
1466	7.3250e-01	-18.5786	-32.345148	0.000041	0.410447	0.139063	-0.003335
1467	7.3300e-01	-18.6203	-32.434949	0.000221	2.210100	0.748802	-0.017960
1468	7.3350e-01	-18.6556	-32.503370	0.000168	1.683885	0.570516	-0.013684
1469	7.3400e-01	-18.7326	-32.543139	0.000098	0.978758	0.331612	-0.007954
1470	7.3450e-01	-18.7487	-32.566230	0.000057	0.568311	0.192549	-0.004618
1471	7.3500e-01	-18.7968	-32.638927	0.000179	1.789128	0.606173	-0.014539
1472	7.3550e-01	-18.8433	-32.673564	0.000085	0.852467	0.288824	-0.006928
1473	7.3600e-01	-18.8995	-32.743695	0.000173	1.725982	0.584779	-0.014026
1474	7.3650e-01	-18.8979	-32.831358	-0.000216	-2.157478	-0.730973	-0.017533
1475	7.3700e-01	-18.9476	-32.857871	0.000065	0.652506	0.221075	-0.005303
1476	7.3750e-01	-18.9909	-32.888660	0.000076	0.757748	0.256732	-0.006158
1477	7.3800e-01	-19.0599	-32.961356	0.000179	1.789128	0.606173	-0.014539
1478	7.3850e-01	-19.0438	-33.024645	-0.000156	-1.557594	-0.527727	-0.012658
1479	7.3900e-01	-19.1128	-33.069118	0.000109	1.094525	0.370835	-0.008895
1480	7.3950e-01	-19.1594	-33.126847	0.000142	1.420778	0.481373	-0.011546
1481	7.4000e-01	-19.1658	-33.176024	0.000121	1.210293	0.410058	-0.009835
1482	7.4050e-01	-19.2251	-33.255990	0.000197	1.968041	0.666790	-0.015993
1483	7.4100e-01	-19.2749	-33.332107	0.000187	1.873322	0.634699	-0.015223
1484	7.4150e-01	-19.3037	-33.357765	0.000063	0.631457	0.213943	-0.005132
1485	7.4200e-01	-19.3150	-33.471085	0.000279	2.788935	0.944917	-0.022664
1486	7.4250e-01	-19.3454	-33.477500	0.000016	0.157864	0.053486	-0.001283
1487	7.4300e-01	-19.4224	-33.527960	0.000124	1.241865	0.420755	-0.010092
1488	7.4350e-01	-19.4609	-33.600656	0.000179	1.789128	0.606173	-0.014539
1489	7.4400e-01	-19.5123	-33.615623	0.000037	0.368350	0.124800	-0.002993
1490	7.4450e-01	-19.5524	-33.687892	0.000178	1.778604	0.602607	-0.014454
1491	7.4500e-01	-19.5925	-33.729799	0.000103	1.031380	0.349441	-0.008381
1492	7.4550e-01	-19.6117	-33.773844	0.000108	1.084001	0.367270	-0.008809
1493	7.4600e-01	-19.6647	-33.842264	0.000168	1.683885	0.570516	-0.013684
1494	7.4650e-01	-19.6920	-33.915816	0.000181	1.810177	0.613304	-0.014710
1495	7.4700e-01	-19.7433	-33.958151	0.000104	1.041904	0.353007	-0.008467
1496	7.4750e-01	-19.7850	-33.991505	0.000082	0.820894	0.278126	-0.006671
1497	7.4800e-01	-19.8059	-34.084728	0.000229	2.294294	0.777328	-0.018644
1498	7.4850e-01	-19.8444	-34.107820	0.000057	0.568311	0.192549	-0.004618
1499	7.4900e-01	-19.9198	-34.168542	0.000149	1.494448	0.506333	-0.012145
1500	7.4950e-01	-19.9599	-34.199331	0.000076	0.757748	0.256732	-0.006158
1501	7.5000e-01	-19.9952	-34.266896	0.000166	1.662837	0.563384	-0.013513
1502	7.5050e-01	-19.9599	-34.231403	0.000087	0.873516	0.295955	0.007099
1503	7.5100e-01	-19.8973	-34.155714	0.000186	1.862798	0.631133	0.015138
1504	7.5150e-01	-19.8347	-34.179661	-0.000059	-0.589360	-0.199681	-0.004789
1505	7.5200e-01	-19.8059	-34.136898	0.000105	1.052428	0.356572	0.008553
1506	7.5250e-01	-19.7882	-34.080452	0.000139	1.389205	0.470676	0.011289
1507	7.5300e-01	-19.7160	-34.041538	0.000096	0.957710	0.324481	0.007783
1508	7.5350e-01	-19.6823	-34.006472	0.000086	0.862991	0.292389	0.007013
1509	7.5400e-01	-19.6695	-33.950026	0.000139	1.389205	0.470676	0.011289
1510	7.5450e-01	-19.6374	-33.920092	0.000074	0.736700	0.249601	0.005987
1511	7.5500e-01	-19.5845	-33.880323	0.000098	0.978758	0.331612	0.007954
1512	7.5550e-01	-19.5444	-33.831574	0.000120	1.199768	0.406493	0.009750
1513	7.5600e-01	-19.4609	-33.843547	-0.000029	-0.294680	-0.099840	-0.002395
1514	7.5650e-01	-19.4449	-33.736641	0.000263	2.631071	0.891431	0.021381
1515	7.5700e-01	-19.4192	-33.701576	0.000086	0.862991	0.292389	0.007013
1516	7.5750e-01	-19.3583	-33.673352	0.000069	0.694603	0.235338	0.005645
1517	7.5800e-01	-19.3198	-33.629307	0.000108	1.084001	0.367270	0.008809
1518	7.5850e-01	-19.3406	-33.537795	-0.000225	-2.252197	-0.763065	0.018302
1519	7.5900e-01	-19.2556	-33.534802	0.000007	0.073670	0.024960	0.000599
1520	7.5950e-01	-19.2123	-33.473224	0.000152	1.515497	0.513464	0.012316
1521	7.6000e-01	-19.1706	-33.438586	0.000085	0.852467	0.288824	0.006928
1522	7.6050e-01	-19.1465	-33.366317	0.000178	1.778604	0.602607	0.014454
1523	7.6100e-01	-19.1016	-33.351350	0.000037	0.368350	0.124800	0.002993
1524	7.6150e-01	-19.0471	-33.359475	-0.000020	-0.199961	-0.067749	-0.001625
1525	7.6200e-01	-19.0214	-33.281220	0.000193	1.925944	0.652527	0.015651
1526	7.6250e-01	-18.9717	-33.222208	0.000145	1.452351	0.492070	0.011802
1527	7.6300e-01	-18.9203	-33.161912	0.000148	1.483924	0.502767	0.012059
1528	7.6350e-01	-18.8770	-33.122571	0.000097	0.968234	0.328047	0.007868
1529	7.6400e-01	-18.8513	-33.103328	0.000047	0.473593	0.160458	0.003849
1530	7.6450e-01	-18.8177	-33.012244	0.000224	2.241672	0.759499	0.018217
1531	7.6500e-01	-18.7759	-32.977606	0.000085	0.852467	0.288824	0.006928
1532	7.6550e-01	-18.7102	-32.938692	0.000096	0.957710	0.324481	0.007783
1533	7.6600e-01	-18.6909	-32.891653	0.000116	1.157671	0.392230	0.009408
1534	7.6650e-01	-18.6428	-32.880535	0.000027	0.273631	0.092709	0.002224
1535	7.6700e-01	-18.5963	-32.790734	0.000221	2.210100	0.748802	0.017960
1536	7.6750e-01	-18.5786	-32.758234	0.000080	0.799846	0.270995	0.006500
1537	7.6800e-01	-18.5401	-32.751820	0.000016	0.157864	0.053486	0.001283
1538	7.6850e-01	-18.4968	-32.681262	0.000174	1.736507	0.588344	0.014112
1539	7.6900e-01	-18.4391	-32.617118	0.000158	1.578643	0.534859	0.012829
1540	7.6950e-01	-18.4230	-32.564520	0.000129	1.294487	0.438584	0.010520
1541	7.7000e-01	-18.3540	-32.573500	-0.000022	-0.221010	-0.074880	-0.001796
1542	7.7050e-01	-18.3235	-32.503370	0.000173	1.725982	0.584779	0.014026
1543	7.7100e-01	-18.3091	-32.393897	0.000269	2.694217	0.912825	0.021894
1544	7.7150e-01	-18.2321	-32.385773	0.000020	0.199961	0.067749	0.001625
1545	7.7200e-01	-18.2145	-32.315642	0.000173	1.725982	0.584779	0.014026
1546	7.7250e-01	-18.1631	-32.267320	0.000119	1.189244	0.402927	0.009664
1547	7.7300e-01	-18.1086	-32.233966	0.000082	0.820894	0.278126	0.006671
1548	7.7350e-01	-18.0861	-32.214722	0.000047	0.473593	0.160458	0.003849
1549	7.7400e-01	-18.0444	-32.106961	0.000265	2.652119	0.898562	0.021552
1550	7.7450e-01	-17.9851	-32.110382	-0.000008	-0.084194	-0.028526	-0.000684
1551	7.7500e-01	-17.9738	-32.046238	0.000158	1.578643	0.534859	0.012829
1552	7.7550e-01	-17.9385	-31.990219	0.000138	1.378681	0.467110	0.011204
1553	7.7600e-01	-17.8792	-31.968410	0.000054	0.536738	0.181852	0.004362
1554	7.7650e-01	-17.8294	-31.909826	0.000144	1.441827	0.488504	0.011717
1555	7.7700e-01	-17.8006	-31.849530	0.000148	1.483924	0.502767	0.012059
1556	7.7750e-01	-17.7845	-31.802919	0.000115	1.147147	0.388664	0.009322
1557	7.7800e-01	-17.7188	-31.803347	-0.000001	-0.010524	-0.003566	-0.000086
1558	7.7850e-01	-17.7123	-31.692164	0.000274	2.736314	0.927088	0.022237
1559	7.7900e-01	-17.6369	-31.632724	0.000146	1.462875	0.495636	0.011888
1560	7.7950e-01	-17.5968	-31.614337	0.000045	0.452544	0.153326	0.003678
1561	7.8000e-01	-17.5647	-31.541640	0.000179	1.789128	0.606173	0.014539
1562	7.8050e-01	-17.5086	-31.572429	-0.000076	-0.757748	-0.256732	-0.006158
1563	7.8100e-01	-17.4829	-31.442859	0.000319	3.188858	1.080414	0.025914
1564	7.8150e-01	-17.4332	-31.422333	0.000051	0.505166	0.171155	0.004105
1565	7.8200e-01	-17.4107	-31.366742	0.000137	1.368157	0.463544	0.011118
1566	7.8250e-01	-17.3594	-31.288486	0.000193	1.925944	0.652527	0.015651
1567	7.8300e-01	-17.3353	-31.294900	-0.000016	-0.157864	-0.053486	-0.001283
1568	7.8350e-01	-17.3065	-31.210231	0.000208	2.083808	0.706013	0.016934
1569	7.8400e-01	-17.2631	-31.141383	0.000169	1.694410	0.574082	0.013770
1570	7.8450e-01	-17.2198	-31.105035	0.000089	0.894564	0.303087	0.007270
1571	7.8500e-01	-17.1589	-31.067404	0.000093	0.926137	0.313784	0.007526
1572	7.8550e-01	-17.1059	-31.022931	0.000109	1.094525	0.370835	0.008895
1573	7.8600e-01	-17.0979	-30.963491	0.000146	1.462875	0.495636	0.011888
1574	7.8650e-01	-17.0353	-30.919018	0.000109	1.094525	0.370835	0.008895
1575	7.8700e-01	-16.9840	-30.868986	0.000123	1.231341	0.417190	0.010006
1576	7.8750e-01	-16.9808	-30.798000	0.000175	1.747031	0.591910	0.014197
1577	7.8800e-01	-16.9247	-30.786882	0.000027	0.273631	0.092709	0.002224
1578	7.8850e-01	-16.9006	-30.665008	0.000300	2.999421	1.016231	0.024375
1579	7.8900e-01	-16.8380	-30.668002	-0.000007	-0.073670	-0.024960	-0.000599
1580	7.8950e-01	-16.8204	-30.620535	0.000117	1.168195	0.395795	0.009493
1581	7.9000e-01	-16.7803	-30.540142	0.000198	1.978565	0.670356	0.016079
1582	7.9050e-01	-16.7386	-30.521754	0.000045	0.452544	0.153326	0.003678
1583	7.9100e-01	-16.6728	-30.467873	0.000133	1.326060	0.449281	0.010776
1584	7.9150e-01	-16.6471	-30.424683	0.000106	1.062953	0.360138	0.008638
1585	7.9200e-01	-16.6038	-30.363533	0.000150	1.504973	0.509898	0.012230
1586	7.9250e-01	-16.5830	-30.304948	0.000144	1.441827	0.488504	0.011717
1587	7.9300e-01	-16.5332	-30.231396	0.000181	1.810177	0.613304	0.014710
1588	7.9350e-01	-16.5220	-30.207449	0.000059	0.589360	0.199681	0.004789
1589	7.9400e-01	-16.4482	-30.151003	0.000139	1.389205	0.470676	0.011289
1590	7.9450e-01	-16.4033	-30.086004	0.000160	1.599691	0.541990	0.013000
1591	7.9500e-01	-16.3664	-30.057781	0.000069	0.694603	0.235338	0.005645
1592	7.9550e-01	-16.3407	-29.969262	0.000218	2.178527	0.738105	0.017704
1593	7.9600e-01	-16.2830	-29.934624	0.000085	0.852467	0.288824	0.006928
1594	7.9650e-01	-16.2252	-29.914526	0.000049	0.494641	0.167589	0.004020
1595	7.9700e-01	-16.2108	-29.862783	0.000127	1.273438	0.431453	0.010349
1596	7.9750e-01	-16.1787	-29.816600	0.000114	1.136623	0.385098	0.009237
1597	7.9800e-01	-16.1225	-29.751601	0.000160	1.599691	0.541990	0.013000
1598	7.9850e-01	-16.1209	-29.693444	0.000143	1.431303	0.484938	0.011631
1599	7.9900e-01	-16.0279	-29.673345	0.000049	0.494641	0.167589	0.004020
1600	7.9950e-01	-16.0279	-29.563873	-0.000269	-2.694217	-0.912825	0.021894
1601	8.0000e-01	-15.9381	-29.593380	-0.000073	-0.726176	-0.246035	-0.005901
1602	8.0050e-01	-15.9348	-29.481769	0.000275	2.746838	0.930654	0.022322
1603	8.0100e-01	-15.8867	-29.480486	0.000003	0.031573	0.010697	0.000257
1604	8.0150e-01	-15.8530	-29.371442	0.000268	2.683692	0.909260	0.021809
1605	8.0200e-01	-15.8322	-29.346640	0.000061	0.610408	0.206812	0.004960
1606	8.0250e-01	-15.7680	-29.312430	0.000084	0.841943	0.285258	0.006842
1607	8.0300e-01	-15.7359	-29.229898	0.000203	2.031187	0.688185	0.016506
1608	8.0350e-01	-15.6942	-29.150360	0.000196	1.957517	0.663225	0.015908
1609	8.0400e-01	-15.6525	-29.157202	-0.000017	-0.168389	-0.057052	-0.001368
1610	8.0450e-01	-15.6044	-29.073387	0.000206	2.062760	0.698882	0.016763
1611	8.0500e-01	-15.5659	-29.028914	0.000109	1.094525	0.370835	0.008895
1612	8.0550e-01	-15.5290	-29.036184	-0.000018	-0.178913	-0.060617	-0.001454
1613	8.0600e-01	-15.4808	-28.942106	0.000232	2.315342	0.784459	0.018816
1614	8.0650e-01	-15.4472	-28.890364	0.000127	1.273438	0.431453	0.010349
1615	8.0700e-01	-15.4071	-28.800990	0.000220	2.199575	0.745236	0.017875
1616	8.0750e-01	-15.3637	-28.788161	0.000032	0.315729	0.106972	0.002566
1617	8.0800e-01	-15.3268	-28.740695	0.000117	1.168195	0.395795	0.009493
1618	8.0850e-01	-15.2932	-28.715465	0.000062	0.620933	0.210378	0.005046
1619	8.0900e-01	-15.2643	-28.625664	0.000221	2.210100	0.748802	0.017960
1620	8.0950e-01	-15.1825	-28.594874	0.000076	0.757748	0.256732	0.006158
1621	8.1000e-01	-15.1456	-28.528593	0.000163	1.631264	0.552687	0.013256
1622	8.1050e-01	-15.1263	-28.435370	0.000229	2.294294	0.777328	0.018644
1623	8.1100e-01	-15.0686	-28.413561	0.000054	0.536738	0.181852	0.004362
1624	8.1150e-01	-14.9996	-28.368233	0.000112	1.115574	0.377967	0.009066
1625	8.1200e-01	-15.0028	-28.299385	-0.000169	-1.694410	-0.574082	0.013770
1626	8.1250e-01	-14.9867	-28.230110	0.000170	1.704934	0.577647	0.013855
1627	8.1300e-01	-14.9194	-28.206591	0.000058	0.578836	0.196115	0.004704
1628	8.1350e-01	-14.9210	-28.127908	-0.000194	-1.936468	-0.656093	0.015737
1629	8.1400e-01	-14.8536	-28.101823	0.000064	0.641981	0.217509	0.005217
1630	8.1450e-01	-14.8039	-28.031264	0.000174	1.736507	0.588344	0.014112
1631	8.1500e-01	-14.7654	-27.982943	0.000119	1.189244	0.402927	0.009664
1632	8.1550e-01	-14.7124	-27.930345	0.000129	1.294487	0.438584	0.010520
1633	8.1600e-01	-14.6835	-27.881596	0.000120	1.199768	0.406493	0.009750
1634	8.1650e-01	-14.6354	-27.813603	0.000167	1.673361	0.566950	0.013598
1635	8.1700e-01	-14.6081	-27.758867	0.000135	1.347108	0.456413	0.010947
1636	8.1750e-01	-14.5761	-27.745611	0.000033	0.326253	0.110537	0.002651
1637	8.1800e-01	-14.5295	-27.675053	0.000174	1.736507	0.588344	0.014112
1638	8.1850e-01	-14.4782	-27.664790	0.000025	0.252583	0.085577	0.002053
1639	8.1900e-01	-14.4557	-27.544627	0.000296	2.957324	1.001968	0.024033
1640	8.1950e-01	-14.4012	-27.521107	0.000058	0.578836	0.196115	0.004704
1641	8.2000e-01	-14.3771	-27.427030	0.000232	2.315342	0.784459	0.018816
1642	8.2050e-01	-14.3434	-27.393675	0.000082	0.820894	0.278126	0.006671
1643	8.2100e-01	-14.3178	-27.314992	0.000194	1.936468	0.656093	0.015737
1644	8.2150e-01	-14.2520	-27.322689	-0.000019	-0.189437	-0.064183	-0.001539
1645	8.2200e-01	-14.2183	-27.290617	0.000079	0.789321	0.267429	0.006414
1646	8.2250e-01	-14.1541	-27.180290	0.000272	2.715265	0.919957	0.022065
1647	8.2300e-01	-14.1012	-27.152067	0.000069	0.694603	0.235338	0.005645
1648	8.2350e-01	-14.0787	-27.044733	0.000264	2.641595	0.894997	0.021467
1649	8.2400e-01	-14.0771	-27.029338	0.000038	0.378874	0.128366	0.003079
1650	8.2450e-01	-14.0178	-26.972464	0.000140	1.399730	0.474241	0.011375
1651	8.2500e-01	-13.9793	-26.886084	0.000213	2.125905	0.720276	0.017276
1652	8.2550e-01	-13.9344	-26.851874	0.000084	0.841943	0.285258	0.006842
1653	8.2600e-01	-13.8670	-26.830493	0.000053	0.526214	0.178286	0.004276
1654	8.2650e-01	-13.8542	-26.715034	0.000284	2.841557	0.962745	0.023092
1655	8.2700e-01	-13.8124	-26.679113	0.000088	0.884040	0.299521	0.007184
1656	8.2750e-01	-13.7900	-26.635923	0.000106	1.062953	0.360138	0.008638
1657	8.2800e-01	-13.7515	-26.549970	0.000212	2.115381	0.716710	0.017191
1658	8.2850e-01	-13.6761	-26.523885	0.000064	0.641981	0.217509	0.005217
1659	8.2900e-01	-13.6328	-26.512767	0.000027	0.273631	0.092709	0.002224
1660	8.2950e-01	-13.5959	-26.442209	0.000174	1.736507	0.588344	0.014112
1661	8.3000e-01	-13.5429	-26.403295	0.000096	0.957710	0.324481	0.007783
1662	8.3050e-01	-13.5349	-26.318625	0.000208	2.083808	0.706013	0.016934
1663	8.3100e-01	-13.4980	-26.218561	0.000246	2.462682	0.834379	0.020013
1664	8.3150e-01	-13.4387	-26.191620	0.000066	0.663030	0.224641	0.005388
1665	8.3200e-01	-13.3969	-26.172805	0.000046	0.463068	0.156892	0.003763
1666	8.3250e-01	-13.3649	-26.071030	0.000250	2.504779	0.848642	0.020355
1667	8.3300e-01	-13.3424	-26.003465	0.000166	1.662837	0.563384	0.013513
1668	8.3350e-01	-13.2686	-25.956427	0.000116	1.157671	0.392230	0.009408
1669	8.3400e-01	-13.2349	-25.937611	0.000046	0.463068	0.156892	0.003763
1670	8.3450e-01	-13.1996	-25.886296	0.000126	1.262914	0.427887	0.010263
1671	8.3500e-01	-13.1724	-25.842678	0.000107	1.073477	0.363704	0.008724
1672	8.3550e-01	-13.1290	-25.760147	0.000203	2.031187	0.688185	0.016506
1673	8.3600e-01	-13.0857	-25.693437	0.000164	1.641788	0.556253	0.013342
1674	8.3650e-01	-13.0488	-25.648536	0.000111	1.105050	0.374401	0.008980
1675	8.3700e-01	-12.9991	-25.586958	0.000152	1.515497	0.513464	0.012316
1676	8.3750e-01	-12.9590	-25.557025	0.000074	0.736700	0.249601	0.005987
1677	8.3800e-01	-12.9301	-25.462519	0.000233	2.325867	0.788025	0.018901
1678	8.3850e-01	-12.8756	-25.437289	0.000062	0.620933	0.210378	0.005046
1679	8.3900e-01	-12.8611	-25.306009	0.000323	3.230955	1.094677	0.026256
1680	8.3950e-01	-12.8034	-25.353475	-0.000117	-1.168195	-0.395795	-0.009493
1681	8.4000e-01	-12.7665	-25.260680	0.000228	2.283769	0.773762	0.018559
1682	8.4050e-01	-12.7071	-25.204661	0.000138	1.378681	0.467110	0.011204
1683	8.4100e-01	-12.6943	-25.132393	0.000178	1.778604	0.602607	0.014454
1684	8.4150e-01	-12.6221	-25.080650	0.000127	1.273438	0.431453	0.010349
1685	8.4200e-01	-12.6301	-25.024203	-0.000139	-1.389205	-0.470676	0.011289
1686	8.4250e-01	-12.5916	-24.995980	0.000069	0.694603	0.235338	0.005645
1687	8.4300e-01	-12.5242	-24.957066	0.000096	0.957710	0.324481	0.007783
1688	8.4350e-01	-12.5018	-24.892495	0.000159	1.589167	0.538424	0.012914
1689	8.4400e-01	-12.4633	-24.819371	0.000180	1.799652	0.609739	0.014625
1690	8.4450e-01	-12.3911	-24.762924	0.000139	1.389205	0.470676	0.011289
1691	8.4500e-01	-12.3799	-24.693649	0.000170	1.704934	0.577647	0.013855
1692	8.4550e-01	-12.3269	-24.630788	0.000155	1.547070	0.524161	0.012572
1693	8.4600e-01	-12.3157	-24.580756	0.000123	1.231341	0.417190	0.010006
1694	8.4650e-01	-12.2579	-24.528586	0.000128	1.283963	0.435018	0.010434
1695	8.4700e-01	-12.1922	-24.492238	0.000089	0.894564	0.303087	0.007270
1696	8.4750e-01	-12.1440	-24.464014	0.000069	0.694603	0.235338	0.005645
1697	8.4800e-01	-12.1296	-24.369082	0.000234	2.336391	0.791591	0.018987
1698	8.4850e-01	-12.0478	-24.307503	0.000152	1.515497	0.513464	0.012316
1699	8.4900e-01	-12.0462	-24.258327	0.000121	1.210293	0.410058	0.009835
1700	8.4950e-01	-11.9740	-24.212571	0.000113	1.126098	0.381532	0.009151
1701	8.5000e-01	-11.9275	-24.142868	0.000172	1.715458	0.581213	0.013941
1702	8.5050e-01	-11.9114	-24.074020	0.000169	1.694410	0.574082	0.013770
1703	8.5100e-01	-11.8681	-23.970535	0.000255	2.546877	0.862905	0.020697
1704	8.5150e-01	-11.8376	-23.958561	0.000029	0.294680	0.099840	0.002395
1705	8.5200e-01	-11.8120	-23.930338	0.000069	0.694603	0.235338	0.005645
1706	8.5250e-01	-11.7510	-23.859780	0.000174	1.736507	0.588344	0.014112
1707	8.5300e-01	-11.7141	-23.754156	0.000260	2.599498	0.880734	0.021125
1708	8.5350e-01	-11.6852	-23.728071	0.000064	0.641981	0.217509	0.005217
1709	8.5400e-01	-11.6580	-23.656658	0.000176	1.757555	0.595476	0.014283
1710	8.5450e-01	-11.6275	-23.616889	0.000098	0.978758	0.331612	0.007954
1711	8.5500e-01	-11.5521	-23.530936	0.000212	2.115381	0.716710	0.017191
1712	8.5550e-01	-11.5328	-23.490312	0.000100	0.999807	0.338744	0.008125
1713	8.5600e-01	-11.4671	-23.454391	0.000088	0.884040	0.299521	0.007184
1714	8.5650e-01	-11.4398	-23.374853	0.000196	1.957517	0.663225	0.015908
1715	8.5700e-01	-11.4029	-23.302156	0.000179	1.789128	0.606173	0.014539
1716	8.5750e-01	-11.3868	-23.216631	0.000210	2.104857	0.713145	0.017105
1717	8.5800e-01	-11.3114	-23.256401	-0.000098	-0.978758	-0.331612	-0.007954
1718	8.5850e-01	-11.3307	-23.102455	-0.000379	-3.788742	-1.283661	0.030789
1719	8.5900e-01	-11.2280	-23.125120	-0.000056	-0.557787	-0.188983	-0.004533
1720	8.5950e-01	-11.2120	-23.053706	0.000176	1.757555	0.595476	0.014283
1721	8.6000e-01	-11.1767	-22.965615	0.000217	2.168002	0.734539	0.017618
1722	8.6050e-01	-11.1542	-22.881373	0.000207	2.073284	0.702448	0.016848
1723	8.6100e-01	-11.0724	-22.857854	0.000058	0.578836	0.196115	0.004704
1724	8.6150e-01	-11.0612	-22.772329	0.000210	2.104857	0.713145	0.017105
1725	8.6200e-01	-11.0227	-22.721869	0.000124	1.241865	0.420755	0.010092
1726	8.6250e-01	-10.9810	-22.662857	0.000145	1.452351	0.492070	0.011802
1727	8.6300e-01	-10.8943	-22.653449	0.000023	0.231534	0.078446	0.001882
1728	8.6350e-01	-10.8959	-22.570917	-0.000203	-2.031187	-0.688185	0.016506
1729	8.6400e-01	-10.8526	-22.479833	0.000224	2.241672	0.759499	0.018217
1730	8.6450e-01	-10.7949	-22.477267	0.000006	0.063146	0.021394	0.000513
1731	8.6500e-01	-10.7901	-22.359243	0.000290	2.904702	0.984140	0.023605
1732	8.6550e-01	-10.7275	-22.324605	0.000085	0.852467	0.288824	0.006928
1733	8.6600e-01	-10.6938	-22.218126	0.000262	2.620547	0.887865	0.021296
1734	8.6650e-01	-10.6569	-22.131318	0.000214	2.136430	0.723842	0.017362
1735	8.6700e-01	-10.6104	-22.090694	0.000100	0.999807	0.338744	0.008125
1736	8.6750e-01	-10.5478	-22.118917	-0.000069	-0.694603	-0.235338	-0.005645
1737	8.6800e-01	-10.5174	-22.054774	0.000158	1.578643	0.534859	0.012829
1738	8.6850e-01	-10.4821	-21.929479	0.000308	3.083615	1.044757	0.025059
1739	8.6900e-01	-10.4436	-21.902539	0.000066	0.663030	0.224641	0.005388
1740	8.6950e-01	-10.4099	-21.834547	0.000167	1.673361	0.566950	0.013598
1741	8.7000e-01	-10.3553	-21.800764	0.000083	0.831418	0.281692	0.006756
1742	8.7050e-01	-10.3216	-21.770830	0.000074	0.736700	0.249601	0.005987
1743	8.7100e-01	-10.3072	-21.673759	0.000239	2.389012	0.809419	0.019414
1744	8.7150e-01	-10.2607	-21.571985	0.000250	2.504779	0.848642	0.020355
1745	8.7200e-01	-10.1981	-21.550603	0.000053	0.526214	0.178286	0.004276
1746	8.7250e-01	-10.1676	-21.483466	0.000165	1.652312	0.559819	0.013427
1747	8.7300e-01	-10.1115	-21.459947	0.000058	0.578836	0.196115	0.004704
1748	8.7350e-01	-10.0810	-21.344488	0.000284	2.841557	0.962745	0.023092
1749	8.7400e-01	-10.0714	-21.285048	0.000146	1.462875	0.495636	0.011888
1750	8.7450e-01	-9.9815	-21.249983	0.000086	0.862991	0.292389	0.007013
1751	8.7500e-01	-9.9687	-21.195247	0.000135	1.347108	0.456413	0.010947
1752	8.7550e-01	-9.9045	-21.182846	0.000031	0.305204	0.103406	0.002480
1753	8.7600e-01	-9.8821	-21.057124	0.000309	3.094139	1.048323	0.025144
1754	8.7650e-01	-9.8500	-21.001105	0.000138	1.378681	0.467110	0.011204
1755	8.7700e-01	-9.7682	-20.921567	0.000196	1.957517	0.663225	0.015908
1756	8.7750e-01	-9.7553	-20.856568	0.000160	1.599691	0.541990	0.013000
1757	8.7800e-01	-9.7136	-20.828772	0.000068	0.684078	0.231772	0.005559
1758	8.7850e-01	-9.6607	-20.766766	0.000153	1.526021	0.517030	0.012401
1759	8.7900e-01	-9.6446	-20.685517	0.000200	1.999614	0.677488	0.016250
1760	8.7950e-01	-9.5997	-20.617097	0.000168	1.683885	0.570516	0.013684
1761	8.8000e-01	-9.5452	-20.584170	0.000081	0.810370	0.274561	0.006585
1762	8.8050e-01	-9.5564	-20.494369	-0.000221	-2.210100	-0.748802	0.017960
1763	8.8100e-01	-9.4730	-20.461442	0.000081	0.810370	0.274561	0.006585
1764	8.8150e-01	-9.4473	-20.409699	0.000127	1.273438	0.431453	0.010349
1765	8.8200e-01	-9.4024	-20.294668	0.000283	2.831032	0.959180	0.023006
1766	8.8250e-01	-9.3623	-20.244208	0.000124	1.241865	0.420755	0.010092
1767	8.8300e-01	-9.3559	-20.189900	0.000134	1.336584	0.452847	0.010862
1768	8.8350e-01	-9.2677	-20.158683	0.000077	0.768273	0.260298	0.006243
1769	8.8400e-01	-9.2308	-20.077862	0.000199	1.989090	0.673922	0.016164
1770	8.8450e-01	-9.1906	-20.041941	0.000088	0.884040	0.299521	0.007184
1771	8.8500e-01	-9.1586	-19.935890	0.000261	2.610022	0.884299	0.021210
1772	8.8550e-01	-9.1040	-19.905529	0.000075	0.747224	0.253166	0.006072
1773	8.8600e-01	-9.0976	-19.791781	0.000280	2.799459	0.948483	0.022750
1774	8.8650e-01	-9.0559	-19.747308	0.000109	1.094525	0.370835	0.008895
1775	8.8700e-01	-8.9821	-19.733624	0.000034	0.336777	0.114103	0.002737
1776	8.8750e-01	-8.9500	-19.683591	0.000123	1.231341	0.417190	0.010006
1777	8.8800e-01	-8.9195	-19.581389	0.000252	2.515304	0.852208	0.020440
1778	8.8850e-01	-8.9019	-19.517245	0.000158	1.578643	0.534859	0.012829
1779	8.8900e-01	-8.8522	-19.412049	0.000259	2.588974	0.877168	0.021039
1780	8.8950e-01	-8.7944	-19.382543	0.000073	0.726176	0.246035	0.005901
1781	8.9000e-01	-8.7832	-19.299156	0.000205	2.052235	0.695316	0.016677
1782	8.9050e-01	-8.6917	-19.292742	0.000016	0.157864	0.053486	0.001283
1783	8.9100e-01	-8.6869	-19.193533	0.000244	2.441634	0.827248	0.019842
1784	8.9150e-01	-8.6276	-19.121264	0.000178	1.778604	0.602607	0.014454
1785	8.9200e-01	-8.6147	-19.081923	0.000097	0.968234	0.328047	0.007868
1786	8.9250e-01	-8.5393	-19.005805	0.000187	1.873322	0.634699	0.015223
1787	8.9300e-01	-8.5217	-18.920280	0.000210	2.104857	0.713145	0.017105
1788	8.9350e-01	-8.4687	-18.892057	0.000069	0.694603	0.235338	0.005645
1789	8.9400e-01	-8.4318	-18.836038	0.000138	1.378681	0.467110	0.011204
1790	8.9450e-01	-8.3837	-18.780874	0.000136	1.357633	0.459978	0.011033
1791	8.9500e-01	-8.3597	-18.708178	0.000179	1.789128	0.606173	0.014539
1792	8.9550e-01	-8.3308	-18.610252	0.000241	2.410061	0.816551	0.019585
1793	8.9600e-01	-8.2891	-18.567062	0.000106	1.062953	0.360138	0.008638
1794	8.9650e-01	-8.2409	-18.501635	0.000161	1.610215	0.545556	0.013085
1795	8.9700e-01	-8.2073	-18.406275	0.000235	2.346915	0.795156	0.019072
1796	8.9750e-01	-8.1896	-18.344697	0.000152	1.515497	0.513464	0.012316
1797	8.9800e-01	-8.1190	-18.309204	0.000087	0.873516	0.295955	0.007099
1798	8.9850e-01	-8.0950	-18.213416	0.000236	2.357439	0.798722	0.019158
1799	8.9900e-01	-8.0677	-18.170226	0.000106	1.062953	0.360138	0.008638
1800	8.9950e-01	-8.0067	-18.068451	0.000250	2.504779	0.848642	0.020355
1801	9.0000e-01	-7.9746	-17.990195	0.000193	1.925944	0.652527	0.015651
1802	9.0050e-01	-7.9361	-17.946578	0.000107	1.073477	0.363704	0.008724
1803	9.0100e-01	-7.8992	-17.882861	0.000157	1.568118	0.531293	0.012743
1804	9.0150e-01	-7.8575	-17.868322	0.000036	0.357826	0.121235	0.002908
1805	9.0200e-01	-7.7998	-17.772106	0.000237	2.367964	0.802288	0.019243
1806	9.0250e-01	-7.7565	-17.698982	0.000180	1.799652	0.609739	0.014625
1807	9.0300e-01	-7.7099	-17.673753	0.000062	0.620933	0.210378	0.005046
1808	9.0350e-01	-7.6714	-17.583951	0.000221	2.210100	0.748802	0.017960
1809	9.0400e-01	-7.6394	-17.526222	0.000142	1.420778	0.481373	0.011546
1810	9.0450e-01	-7.6265	-17.442835	0.000205	2.052235	0.695316	0.016677
1811	9.0500e-01	-7.5736	-17.367145	0.000186	1.862798	0.631133	0.015138
1812	9.0550e-01	-7.5190	-17.340205	0.000066	0.663030	0.224641	0.005388
1813	9.0600e-01	-7.4821	-17.258956	0.000200	1.999614	0.677488	0.016250
1814	9.0650e-01	-7.4468	-17.172148	0.000214	2.136430	0.723842	0.017362
1815	9.0700e-01	-7.4100	-17.157181	0.000037	0.368350	0.124800	0.002993
1816	9.0750e-01	-7.3618	-17.050275	0.000263	2.631071	0.891431	0.021381
1817	9.0800e-01	-7.3474	-16.970737	0.000196	1.957517	0.663225	0.015908
1818	9.0850e-01	-7.2624	-16.935671	0.000086	0.862991	0.292389	0.007013
1819	9.0900e-01	-7.2190	-16.884784	0.000125	1.252390	0.424321	0.010177
1820	9.0950e-01	-7.2014	-16.811660	0.000180	1.799652	0.609739	0.014625
1821	9.1000e-01	-7.1613	-16.700905	0.000273	2.725789	0.923522	0.022151
1822	9.1050e-01	-7.1019	-16.686793	0.000035	0.347301	0.117669	0.002822
1823	9.1100e-01	-7.1100	-16.559361	-0.000314	-3.136236	-1.062586	0.025486
1824	9.1150e-01	-7.0346	-16.513605	0.000113	1.126098	0.381532	0.009151
1825	9.1200e-01	-7.0009	-16.429791	0.000206	2.062760	0.698882	0.016763
1826	9.1250e-01	-6.9832	-16.380614	0.000121	1.210293	0.410058	0.009835
1827	9.1300e-01	-6.9062	-16.342555	0.000094	0.936661	0.317349	0.007612
1828	9.1350e-01	-6.9030	-16.244629	0.000241	2.410061	0.816551	0.019585
1829	9.1400e-01	-6.8421	-16.182196	0.000154	1.536545	0.520596	0.012487
1830	9.1450e-01	-6.8116	-16.107361	0.000184	1.841750	0.624002	0.014967
1831	9.1500e-01	-6.7859	-16.025685	0.000201	2.010138	0.681053	0.016335
1832	9.1550e-01	-6.7073	-15.964107	0.000152	1.515497	0.513464	0.012316
1833	9.1600e-01	-6.7025	-15.886707	0.000190	1.904895	0.645396	0.015480
1834	9.1650e-01	-6.6159	-15.874733	0.000029	0.294680	0.099840	0.002395
1835	9.1700e-01	-6.5934	-15.810162	0.000159	1.589167	0.538424	0.012914
1836	9.1750e-01	-6.5790	-15.685295	0.000307	3.073091	1.041191	0.024973
1837	9.1800e-01	-6.5372	-15.619013	0.000163	1.631264	0.552687	0.013256
1838	9.1850e-01	-6.4715	-15.559146	0.000147	1.473400	0.499201	0.011974
1839	9.1900e-01	-6.4506	-15.507403	0.000127	1.273438	0.431453	0.010349
1840	9.1950e-01	-6.4442	-15.366287	0.000347	3.473014	1.176689	0.028223
1841	9.2000e-01	-6.3463	-15.384675	-0.000045	-0.452544	-0.153326	-0.003678
1842	9.2050e-01	-6.3319	-15.282900	0.000250	2.504779	0.848642	0.020355
1843	9.2100e-01	-6.2838	-15.230302	0.000129	1.294487	0.438584	0.010520
1844	9.2150e-01	-6.2629	-15.183691	0.000115	1.147147	0.388664	0.009322
1845	9.2200e-01	-6.1763	-15.143921	0.000098	0.978758	0.331612	0.007954
1846	9.2250e-01	-6.1747	-15.036588	0.000264	2.641595	0.894997	0.021467
1847	9.2300e-01	-6.1218	-14.994680	0.000103	1.031380	0.349441	0.008381
1848	9.2350e-01	-6.0608	-14.865537	0.000318	3.178334	1.076849	0.025829
1849	9.2400e-01	-6.0111	-14.859551	0.000015	0.147340	0.049920	0.001197
1850	9.2450e-01	-5.9774	-14.741526	0.000290	2.904702	0.984140	0.023605
1851	9.2500e-01	-5.9806	-14.662843	-0.000194	-1.936468	-0.656093	0.015737
1852	9.2550e-01	-5.9292	-14.629916	0.000081	0.810370	0.274561	0.006585
1853	9.2600e-01	-5.8859	-14.484096	0.000359	3.588781	1.215912	0.029164
1854	9.2650e-01	-5.8282	-14.462714	0.000053	0.526214	0.178286	0.004276
1855	9.2700e-01	-5.8346	-14.369492	-0.000229	-2.294294	-0.777328	0.018644
1856	9.2750e-01	-5.7865	-14.276697	0.000228	2.283769	0.773762	0.018559
1857	9.2800e-01	-5.7095	-14.248474	0.000069	0.694603	0.235338	0.005645
1858	9.2850e-01	-5.6902	-14.220251	0.000069	0.694603	0.235338	0.005645
1859	9.2900e-01	-5.6132	-14.123180	0.000239	2.389012	0.809419	0.019414
1860	9.2950e-01	-5.6228	-14.041931	-0.000200	-1.999614	-0.677488	0.016250
1861	9.3000e-01	-5.5506	-13.969235	0.000179	1.789128	0.606173	0.014539
1862	9.3050e-01	-5.5218	-13.916637	0.000129	1.294487	0.438584	0.010520
1863	9.3100e-01	-5.4881	-13.818711	0.000241	2.410061	0.816551	0.019585
1864	9.3150e-01	-5.4239	-13.782790	0.000088	0.884040	0.299521	0.007184
1865	9.3200e-01	-5.4095	-13.666904	0.000285	2.852081	0.966311	0.023177
1866	9.3250e-01	-5.3357	-13.614733	0.000128	1.283963	0.435018	0.010434
1867	9.3300e-01	-5.3148	-13.534340	0.000198	1.978565	0.670356	0.016079
1868	9.3350e-01	-5.2892	-13.431282	0.000254	2.536352	0.859339	0.020612
1869	9.3400e-01	-5.2667	-13.385099	0.000114	1.136623	0.385098	0.009237
1870	9.3450e-01	-5.2105	-13.324376	0.000149	1.494448	0.506333	0.012145
1871	9.3500e-01	-5.1817	-13.232864	0.000225	2.252197	0.763065	0.018302
1872	9.3550e-01	-5.1271	-13.153326	0.000196	1.957517	0.663225	0.015908
1873	9.3600e-01	-5.0742	-13.110563	0.000105	1.052428	0.356572	0.008553
1874	9.3650e-01	-5.0405	-13.013492	0.000239	2.389012	0.809419	0.019414
1875	9.3700e-01	-5.0180	-12.986124	0.000067	0.673554	0.228206	0.005474
1876	9.3750e-01	-4.9811	-12.909152	0.000189	1.894371	0.641830	0.015395
1877	9.3800e-01	-4.9442	-12.773167	0.000335	3.346722	1.133900	0.027197
1878	9.3850e-01	-4.8640	-12.729549	0.000107	1.073477	0.363704	0.008724
1879	9.3900e-01	-4.8432	-12.658136	0.000176	1.757555	0.595476	0.014283
1880	9.3950e-01	-4.8079	-12.602117	0.000138	1.378681	0.467110	0.011204
1881	9.4000e-01	-4.7790	-12.543105	0.000145	1.452351	0.492070	0.011802
1882	9.4050e-01	-4.7405	-12.441757	0.000249	2.494255	0.845077	0.020269
1883	9.4100e-01	-4.7197	-12.337844	0.000256	2.557401	0.866471	0.020783
1884	9.4150e-01	-4.6587	-12.292944	0.000111	1.105050	0.374401	0.008980
1885	9.4200e-01	-4.5993	-12.205281	0.000216	2.157478	0.730973	0.017533
1886	9.4250e-01	-4.5624	-12.165939	0.000097	0.968234	0.328047	0.007868
1887	9.4300e-01	-4.5127	-12.058177	0.000265	2.652119	0.898562	0.021552
1888	9.4350e-01	-4.4870	-11.965810	0.000227	2.273245	0.770196	0.018473
1889	9.4400e-01	-4.4325	-11.896963	0.000169	1.694410	0.574082	0.013770
1890	9.4450e-01	-4.3844	-11.854200	0.000105	1.052428	0.356572	0.008553
1891	9.4500e-01	-4.3571	-11.761406	0.000228	2.283769	0.773762	0.018559
1892	9.4550e-01	-4.3234	-11.652789	0.000267	2.673168	0.905694	0.021723
1893	9.4600e-01	-4.2785	-11.598908	0.000133	1.326060	0.449281	0.010776
1894	9.4650e-01	-4.2560	-11.497133	0.000250	2.504779	0.848642	0.020355
1895	9.4700e-01	-4.2063	-11.453943	0.000106	1.062953	0.360138	0.008638
1896	9.4750e-01	-4.1389	-11.414601	0.000097	0.968234	0.328047	0.007868
1897	9.4800e-01	-4.1261	-11.308550	0.000261	2.610022	0.884299	0.021210
1898	9.4850e-01	-4.0731	-11.249966	0.000144	1.441827	0.488504	0.011717
1899	9.4900e-01	-4.0539	-11.166151	0.000206	2.062760	0.698882	0.016763
1900	9.4950e-01	-4.0042	-11.045561	0.000297	2.967848	1.005534	0.024118
1901	9.5000e-01	-3.9480	-11.029739	0.000039	0.389398	0.131932	0.003164
1902	9.5050e-01	-3.9352	-10.895037	0.000332	3.315149	1.123203	0.026940
1903	9.5100e-01	-3.8806	-10.830038	0.000160	1.599691	0.541990	0.013000
1904	9.5150e-01	-3.8309	-10.750927	0.000195	1.946992	0.659659	0.015822
1905	9.5200e-01	-3.8117	-10.728691	0.000055	0.547263	0.185418	0.004447
1906	9.5250e-01	-3.7619	-10.603396	0.000308	3.083615	1.044757	0.025059
1907	9.5300e-01	-3.7186	-10.553364	0.000123	1.231341	0.417190	0.010006
1908	9.5350e-01	-3.6785	-10.476392	0.000189	1.894371	0.641830	0.015395
1909	9.5400e-01	-3.6368	-10.363071	0.000279	2.788935	0.944917	0.022664
1910	9.5450e-01	-3.6111	-10.291657	0.000176	1.757555	0.595476	0.014283
1911	9.5500e-01	-3.5598	-10.205277	0.000213	2.125905	0.720276	0.017276
1912	9.5550e-01	-3.5069	-10.182185	0.000057	0.568311	0.192549	0.004618
1913	9.5600e-01	-3.4892	-10.053043	0.000318	3.178334	1.076849	0.025829
1914	9.5650e-01	-3.4684	-9.946564	0.000262	2.620547	0.887865	0.021296
1915	9.5700e-01	-3.4074	-9.891828	0.000135	1.347108	0.456413	0.010947
1916	9.5750e-01	-3.3625	-9.778935	0.000278	2.778411	0.941351	0.022579
1917	9.5800e-01	-3.2807	-9.754133	0.000061	0.610408	0.206812	0.004960
1918	9.5850e-01	-3.2534	-9.719067	0.000086	0.862991	0.292389	0.007013
1919	9.5900e-01	-3.2277	-9.591207	0.000315	3.146761	1.066151	0.025572
1920	9.5950e-01	-3.2197	-9.506965	0.000207	2.073284	0.702448	0.016848
1921	9.6000e-01	-3.1828	-9.343612	0.000402	4.020276	1.362106	0.032671
1922	9.6050e-01	-3.1186	-9.343185	0.000001	0.010524	0.003566	0.000086
1923	9.6100e-01	-3.0898	-9.231147	0.000276	2.757362	0.934220	0.022408
1924	9.6150e-01	-3.0448	-9.137924	0.000229	2.294294	0.777328	0.018644
1925	9.6200e-01	-2.9855	-9.069504	0.000168	1.683885	0.570516	0.013684
1926	9.6250e-01	-2.9614	-9.010492	0.000145	1.452351	0.492070	0.011802
1927	9.6300e-01	-2.9181	-8.917697	0.000228	2.283769	0.773762	0.018559
1928	9.6350e-01	-2.8748	-8.867665	0.000123	1.231341	0.417190	0.010006
1929	9.6400e-01	-2.8331	-8.766318	0.000249	2.494255	0.845077	0.020269
1930	9.6450e-01	-2.8026	-8.681648	0.000208	2.083808	0.706013	0.016934
1931	9.6500e-01	-2.7801	-8.553788	0.000315	3.146761	1.066151	0.025572
1932	9.6550e-01	-2.7384	-8.439612	0.000281	2.809984	0.952048	0.022835
1933	9.6600e-01	-2.6662	-8.466125	-0.000065	-0.652506	-0.221075	-0.005303
1934	9.6650e-01	-2.6550	-8.344252	0.000300	2.999421	1.016231	0.024375
1935	9.6700e-01	-2.6101	-8.217675	0.000312	3.115188	1.055454	0.025315
1936	9.6750e-01	-2.5636	-8.156524	0.000150	1.504973	0.509898	0.012230
1937	9.6800e-01	-2.5026	-8.100078	0.000139	1.389205	0.470676	0.011289
1938	9.6850e-01	-2.4882	-7.976922	0.000303	3.030994	1.026928	0.024631
1939	9.6900e-01	-2.4256	-7.908502	0.000168	1.683885	0.570516	0.013684
1940	9.6950e-01	-2.4304	-7.773372	-0.000333	-3.325674	-1.126769	0.027026
1941	9.7000e-01	-2.3727	-7.676301	0.000239	2.389012	0.809419	0.019414
1942	9.7050e-01	-2.3053	-7.674591	0.000004	0.042097	0.014263	0.000342
1943	9.7100e-01	-2.2684	-7.561698	0.000278	2.778411	0.941351	0.022579
1944	9.7150e-01	-2.2539	-7.420154	0.000348	3.483538	1.180255	0.028309
1945	9.7200e-01	-2.2106	-7.359431	0.000149	1.494448	0.506333	0.012145
1946	9.7250e-01	-2.1320	-7.281603	0.000192	1.915420	0.648962	0.015566
1947	9.7300e-01	-2.1433	-7.196506	-0.000209	-2.094332	-0.709579	0.017019
1948	9.7350e-01	-2.0839	-7.090027	0.000262	2.620547	0.887865	0.021296
1949	9.7400e-01	-2.0486	-6.986114	0.000256	2.557401	0.866471	0.020783
1950	9.7450e-01	-2.0326	-6.870228	0.000285	2.852081	0.966311	0.023177
1951	9.7500e-01	-1.9668	-6.839439	0.000076	0.757748	0.256732	0.006158
1952	9.7550e-01	-1.9331	-6.715000	0.000306	3.062566	1.037626	0.024888
1953	9.7600e-01	-1.8962	-6.656415	0.000144	1.441827	0.488504	0.011717
1954	9.7650e-01	-1.8449	-6.563193	0.000229	2.294294	0.777328	0.018644
1955	9.7700e-01	-1.7935	-6.491779	0.000176	1.757555	0.595476	0.014283
1956	9.7750e-01	-1.7791	-6.403688	0.000217	2.168002	0.734539	0.017618
1957	9.7800e-01	-1.6957	-6.287374	0.000286	2.862605	0.969877	0.023263
1958	9.7850e-01	-1.6700	-6.255730	0.000078	0.778797	0.263864	0.006329
1959	9.7900e-01	-1.6556	-6.106061	0.000368	3.683499	1.248003	0.029934
1960	9.7950e-01	-1.6074	-5.977774	0.000316	3.157285	1.069717	0.025658
1961	9.8000e-01	-1.5834	-5.897808	0.000197	1.968041	0.666790	0.015993
1962	9.8050e-01	-1.5288	-5.834519	0.000156	1.557594	0.527727	0.012658
1963	9.8100e-01	-1.5064	-5.752843	0.000201	2.010138	0.681053	0.016335
1964	9.8150e-01	-1.4647	-5.656200	0.000238	2.378488	0.805854	0.019329
1965	9.8200e-01	-1.4197	-5.545445	0.000273	2.725789	0.923522	0.022151
1966	9.8250e-01	-1.3845	-5.423144	0.000301	3.009945	1.019797	0.024460
1967	9.8300e-01	-1.3363	-5.338474	0.000208	2.083808	0.706013	0.016934
1968	9.8350e-01	-1.3042	-5.265778	0.000179	1.789128	0.606173	0.014539
1969	9.8400e-01	-1.2513	-5.137490	0.000316	3.157285	1.069717	0.025658
1970	9.8450e-01	-1.1839	-5.127655	0.000024	0.242059	0.082012	0.001967
1971	9.8500e-01	-1.1550	-4.975420	0.000375	3.746645	1.269398	0.030447
1972	9.8550e-01	-1.1438	-4.889040	0.000213	2.125905	0.720276	0.017276
1973	9.8600e-01	-1.0764	-4.785982	0.000254	2.536352	0.859339	0.020612
1974	9.8650e-01	-1.0347	-4.648287	0.000339	3.388819	1.148163	0.027539
1975	9.8700e-01	-1.0026	-4.565755	0.000203	2.031187	0.688185	0.016506
1976	9.8750e-01	-0.9641	-4.508453	0.000141	1.410254	0.477807	0.011460
1977	9.8800e-01	-0.9353	-4.398981	0.000269	2.694217	0.912825	0.021894
1978	9.8850e-01	-0.8903	-4.289509	0.000269	2.694217	0.912825	0.021894
1979	9.8900e-01	-0.8422	-4.210826	0.000194	1.936468	0.656093	0.015737
1980	9.8950e-01	-0.7893	-4.135992	0.000184	1.841750	0.624002	0.014967
1981	9.9000e-01	-0.7845	-3.935863	0.000493	4.925365	1.668759	0.040026
1982	9.9050e-01	-0.7059	-3.900798	0.000086	0.862991	0.292389	0.007013
1983	9.9100e-01	-0.6706	-3.794747	0.000261	2.610022	0.884299	0.021210
1984	9.9150e-01	-0.6353	-3.686557	0.000266	2.662644	0.902128	0.021638
1985	9.9200e-01	-0.5920	-3.571954	0.000282	2.820508	0.955614	0.022921
1986	9.9250e-01	-0.5551	-3.489850	0.000202	2.020662	0.684619	0.016421
1987	9.9300e-01	-0.5150	-3.437680	0.000128	1.283963	0.435018	0.010434
1988	9.9350e-01	-0.4620	-3.348306	0.000220	2.199575	0.745236	0.017875
1989	9.9400e-01	-0.4508	-3.238406	0.000270	2.704741	0.916391	0.021980
1990	9.9450e-01	-0.4187	-3.101566	0.000337	3.367771	1.141032	0.027368
1991	9.9500e-01	-0.3529	-3.043409	0.000143	1.431303	0.484938	0.011631
1992	9.9550e-01	-0.3353	-2.901865	0.000348	3.483538	1.180255	0.028309
1993	9.9600e-01	-0.2647	-2.827031	0.000184	1.841750	0.624002	0.014967
1994	9.9650e-01	-0.2390	-2.762459	0.000159	1.589167	0.538424	0.012914
1995	9.9700e-01	-0.1668	-2.632889	0.000319	3.188858	1.080414	0.025914
1996	9.9750e-01	-0.1476	-2.520423	0.000277	2.767887	0.937785	0.022493
1997	9.9800e-01	-0.0979	-2.446444	0.000182	1.820701	0.616870	0.014796
1998	9.9850e-01	-0.0963	-2.286512	0.000394	3.936082	1.333581	0.031986
1999	9.9900e-01	-0.0545	-2.179178	0.000264	2.641595	0.894997	0.021467
2000	9.9950e-01	0.0000	-2.088949	0.000222	2.220624	0.752368	0.018046
2001	1.0000e+00	0.0369	-2.009411	0.000222	2.220624	0.752368	0.015908

Center data before PMax,+/-Pr and +/-Vc Calc.

PMax (uC/cm2):	3.43e+01
Pr (uC/cm2):	9.58e-02
-Pr (uC/cm2):	-2.01e+00
PLoss (uC/cm2):	-8.96e-01
Vc:	5.42e-01
-Vc:	-9.95e-02
C (Max-Eff) (nF):	1.71e-01
K (Eff):	5.80e+02
Vert. (+/-Pr) Shift (uC/cm2):	-9.57e-01
Horiz. Shift (+/-Vc):	2.21e-01
Offset (uC/cm2):	1.07e+00

A (Loop Area - uC/cm2·Volts):	1.73e-02



Hysteresis Version: 5.48.1 - Radiant Technologies, Inc., 1999 - 9/12/24

