»»»»»»»»»»»»»»»»»»»»»»»»»»»»»»»»»»»» Hysteresis ««««««««««««««««««««««««««««««««««««
»»»  Executed Version:	5.48.1
»»»  Vision Version:	5.48.4 (R)
»»»  Vision Compiled:	9/18/24
»»»  Driver Version:	5.47.0
»»»  Windows Version:	Windows 8 or 8.1
»»»  Processor Information:	x86 (AMD or Intel) - 32 Processors
»»»  Tester Name:	PMF21124-494 (100V)
»»»  Tester S/N:	PMF21124-494
»»»  Internal Amp Type:	100V RevK 270k
»»»  Internal Amp S/N:	iAB2-596/K     
»»»  Execution Count:	1
»»»»»»»»»»»»»»»»»»»»»»»»»»»»»»»»»»»»»»»»»»««««««««««««««««««««««««««««««««««««««««««

Stored:	6/12/2025 - 10:8:33
Configured:	06/12/25 10:06:17 AM
Executed:	06/12/25 10:08:02 AM

»»»»»»»»»»»»»»»»»»»»»»»»»»»»»»»»»»» Sample Info ««««««««««««««««««««««««««««««««««««
Sample Name:	
Lot Name:	
Wafer Name:	
Die Row/Column:	0/0
Capacitor Number:	0
Sample Area (cm2):	1.00e-04
Sample Thickness (microns):	3.00e-01

Amplifier:	Internal

»»»»»»»»»»»»»»»»»»»»»»»»»»»»»»»»»»» Tester Info «««««««««««««««««««««««««««««««««««
Tester Name:	PMF21124-494 (100V)
Tester Serial Number:	PMF21124-494
Return Signal Amp. Level:	1.9 [Index: 2]

»»»»»»»»»»»»»»»»»»»»»»»»»»»»»»»» Hysteresis Info ««««««««««««««««««««««««««««««««««
Task Name:	Hyst-1390
Volts:	20.00
Field:	666.67 (kV/cm)
DCBias:	0.00
DCField:	0.00 (kV/cm)
Hysteresis Period (ms):	2.00e+02
Preset:	Enabled
Preset Delay (ms):	1.00e+03
Profile:	Standard Bipolar

»»»»»»»»»»»»»»»»»»»»»»»»»»»»»»»»»»»»»» Data «««««««««««««««««««««««««««««««««««««««
Points:	2009

Valid Data

Point	Time (ms)	Drive Voltage	Measured Polarization (uC/cm2)	Capacitance (uF)	Normalized Capacitance (uF/cm2)	Dielectric Constant	Instantaneous Current (mA)
   1	0.0000e+00	-0.0080	-1.702692	0.000158	1.575169	0.533682	0.000063
   2	9.9500e-02	0.0257	-1.639554	0.000158	1.575169	0.533682	0.000063
   3	1.9900e-01	0.0561	-1.545865	0.000234	2.337348	0.791915	0.000094
   4	2.9850e-01	0.1107	-1.452991	0.000232	2.317023	0.785029	0.000093
   5	3.9800e-01	0.1380	-1.357673	0.000238	2.377997	0.805687	0.000096
   6	4.9750e-01	0.2037	-1.260318	0.000243	2.428809	0.822903	0.000098
   7	5.9700e-01	0.2374	-1.168666	0.000229	2.286536	0.774699	0.000092
   8	6.9650e-01	0.2679	-1.068460	0.000250	2.499946	0.847005	0.000101
   9	7.9600e-01	0.3048	-0.981288	0.000217	2.174750	0.736825	0.000088
  10	8.9550e-01	0.3401	-0.883933	0.000243	2.428809	0.822903	0.000098
  11	9.9500e-01	0.3545	-0.783727	0.000250	2.499946	0.847005	0.000101
  12	1.0945e+00	0.4139	-0.686372	0.000243	2.428809	0.822903	0.000098
  13	1.1940e+00	0.4524	-0.598386	0.000220	2.195075	0.743711	0.000088
  14	1.2935e+00	0.4829	-0.492477	0.000264	2.642219	0.895208	0.000106
  15	1.3930e+00	0.5486	-0.405713	0.000216	2.164587	0.733382	0.000087
  16	1.4925e+00	0.5711	-0.313654	0.000230	2.296698	0.778142	0.000093
  17	1.5920e+00	0.6289	-0.215077	0.000246	2.459297	0.833232	0.000099
  18	1.6915e+00	0.6497	-0.114871	0.000250	2.499946	0.847005	0.000101
  19	1.7910e+00	0.6754	-0.024033	0.000227	2.266211	0.767813	0.000091
  20	1.8905e+00	0.7203	0.074951	0.000247	2.469459	0.836675	0.000099
  21	1.9900e+00	0.7781	0.164159	0.000223	2.225562	0.754041	0.000090
  22	2.0895e+00	0.8374	0.263551	0.000248	2.479621	0.840118	0.000100
  23	2.1890e+00	0.8502	0.355203	0.000229	2.286536	0.774699	0.000092
  24	2.2885e+00	0.9048	0.448891	0.000234	2.337348	0.791915	0.000094
  25	2.3880e+00	0.9369	0.544617	0.000239	2.388160	0.809130	0.000096
  26	2.4875e+00	0.9930	0.639528	0.000237	2.367835	0.802244	0.000095
  27	2.5870e+00	1.0155	0.740141	0.000251	2.510108	0.850448	0.000101
  28	2.6865e+00	1.0476	0.837496	0.000243	2.428809	0.822903	0.000098
  29	2.7860e+00	1.0925	0.930778	0.000233	2.327186	0.788472	0.000094
  30	2.8855e+00	1.1310	1.031391	0.000251	2.510108	0.850448	0.000101
  31	2.9850e+00	1.1968	1.133634	0.000255	2.550758	0.864220	0.000103
  32	3.0845e+00	1.2128	1.223250	0.000224	2.235724	0.757484	0.000090
  33	3.1840e+00	1.2545	1.325493	0.000255	2.550758	0.864220	0.000103
  34	3.2835e+00	1.3155	1.424884	0.000248	2.479621	0.840118	0.000100
  35	3.3830e+00	1.3492	1.521832	0.000242	2.418647	0.819460	0.000097
  36	3.4825e+00	1.3460	1.618779	-0.000242	-2.418647	-0.819460	0.000097
  37	3.5820e+00	1.4278	1.720615	0.000254	2.540596	0.860777	0.000102
  38	3.6815e+00	1.4647	1.816748	0.000240	2.398322	0.812574	0.000097
  39	3.7810e+00	1.4984	1.924286	0.000268	2.682869	0.908981	0.000108
  40	3.8805e+00	1.5481	2.017975	0.000234	2.337348	0.791915	0.000094
  41	3.9800e+00	1.5834	2.117367	0.000248	2.479621	0.840118	0.000100
  42	4.0795e+00	1.6106	2.214314	0.000242	2.418647	0.819460	0.000097
  43	4.1790e+00	1.6812	2.317372	0.000257	2.571083	0.871106	0.000104
  44	4.2785e+00	1.7133	2.419207	0.000254	2.540596	0.860777	0.000102
  45	4.3780e+00	1.7294	2.523894	0.000261	2.611732	0.884879	0.000105
  46	4.4775e+00	1.7807	2.620435	0.000241	2.408485	0.816017	0.000097
  47	4.5770e+00	1.8128	2.724714	0.000260	2.601570	0.881436	0.000105
  48	4.6765e+00	1.8513	2.819625	0.000237	2.367835	0.802244	0.000095
  49	4.7760e+00	1.8834	2.925127	0.000263	2.632057	0.891765	0.000106
  50	4.8755e+00	1.9459	3.020445	0.000238	2.377997	0.805687	0.000096
  51	4.9750e+00	1.9780	3.125132	0.000261	2.611732	0.884879	0.000105
  52	5.0745e+00	2.0133	3.225338	0.000250	2.499946	0.847005	0.000101
  53	5.1740e+00	2.0711	3.326767	0.000253	2.530433	0.857334	0.000102
  54	5.2735e+00	2.0759	3.422492	0.000239	2.388160	0.809130	0.000096
  55	5.3730e+00	2.1128	3.522291	0.000249	2.489784	0.843562	0.000100
  56	5.4725e+00	2.1721	3.631459	0.000272	2.723518	0.922753	0.000110
  57	5.5720e+00	2.1978	3.736146	0.000261	2.611732	0.884879	0.000105
  58	5.6715e+00	2.2443	3.835537	0.000248	2.479621	0.840118	0.000100
  59	5.7710e+00	2.2716	3.930856	0.000238	2.377997	0.805687	0.000096
  60	5.8705e+00	2.3646	4.034728	0.000259	2.591408	0.877993	0.000104
  61	5.9700e+00	2.3855	4.134120	0.000248	2.479621	0.840118	0.000100
  62	6.0695e+00	2.4272	4.242473	0.000270	2.703194	0.915867	0.000109
  63	6.1690e+00	2.4657	4.340235	0.000244	2.438972	0.826346	0.000098
  64	6.2685e+00	2.5154	4.444515	0.000260	2.601570	0.881436	0.000105
  65	6.3680e+00	2.5475	4.542684	0.000245	2.449134	0.829789	0.000099
  66	6.4675e+00	2.5523	4.646556	0.000259	2.591408	0.877993	0.000104
  67	6.5670e+00	2.6101	4.748799	0.000255	2.550758	0.864220	0.000103
  68	6.6665e+00	2.6454	4.849006	0.000250	2.499946	0.847005	0.000101
  69	6.7660e+00	2.6823	4.950434	0.000253	2.530433	0.857334	0.000102
  70	6.8655e+00	2.7384	5.052677	0.000255	2.550758	0.864220	0.000103
  71	6.9650e+00	2.7689	5.153698	0.000252	2.520271	0.853891	0.000102
  72	7.0645e+00	2.8186	5.249831	0.000240	2.398322	0.812574	0.000097
  73	7.1640e+00	2.8587	5.351666	0.000254	2.540596	0.860777	0.000102
  74	7.2635e+00	2.8892	5.455539	0.000259	2.591408	0.877993	0.000104
  75	7.3630e+00	2.9406	5.559411	0.000259	2.591408	0.877993	0.000104
  76	7.4625e+00	2.9646	5.658803	0.000248	2.479621	0.840118	0.000100
  77	7.5620e+00	3.0160	5.758602	0.000249	2.489784	0.843562	0.000100
  78	7.6615e+00	3.0609	5.860030	0.000253	2.530433	0.857334	0.000102
  79	7.7610e+00	3.0673	5.962680	0.000256	2.560920	0.867663	0.000103
  80	7.8605e+00	3.1202	6.066553	0.000259	2.591408	0.877993	0.000104
  81	7.9600e+00	3.1684	6.161463	0.000237	2.367835	0.802244	0.000095
  82	8.0595e+00	3.2261	6.265336	0.000259	2.591408	0.877993	0.000104
  83	8.1590e+00	3.2534	6.367171	0.000254	2.540596	0.860777	0.000102
  84	8.2585e+00	3.2999	6.466156	0.000247	2.469459	0.836675	0.000099
  85	8.3580e+00	3.3047	6.562289	0.000240	2.398322	0.812574	0.000097
  86	8.4575e+00	3.3673	6.666568	0.000260	2.601570	0.881436	0.000105
  87	8.5570e+00	3.4026	6.767996	0.000253	2.530433	0.857334	0.000102
  88	8.6565e+00	3.4491	6.869832	0.000254	2.540596	0.860777	0.000102
  89	8.7560e+00	3.4732	6.970038	0.000250	2.499946	0.847005	0.000101
  90	8.8555e+00	3.5325	7.066986	0.000242	2.418647	0.819460	0.000097
  91	8.9550e+00	3.5694	7.168414	0.000253	2.530433	0.857334	0.000102
  92	9.0545e+00	3.6047	7.270250	0.000254	2.540596	0.860777	0.000102
  93	9.1540e+00	3.6400	7.370863	0.000251	2.510108	0.850448	0.000101
  94	9.2535e+00	3.7026	7.464552	0.000234	2.337348	0.791915	0.000094
  95	9.3530e+00	3.7170	7.575349	0.000276	2.764168	0.936525	0.000111
  96	9.4525e+00	3.7764	7.672704	0.000243	2.428809	0.822903	0.000098
  97	9.5520e+00	3.8566	7.777799	0.000262	2.621895	0.888322	0.000106
  98	9.6515e+00	3.8421	7.876783	-0.000247	-2.469459	-0.836675	0.000099
  99	9.7510e+00	3.8694	7.980655	0.000259	2.591408	0.877993	0.000104
 100	9.8505e+00	3.9175	8.077603	0.000242	2.418647	0.819460	0.000097
 101	9.9500e+00	3.9592	8.181882	0.000260	2.601570	0.881436	0.000105
 102	1.0050e+01	4.0010	8.281274	0.000248	2.479621	0.840118	0.000100
 103	1.0149e+01	4.0282	8.386776	0.000263	2.632057	0.891765	0.000106
 104	1.0248e+01	4.0812	8.484945	0.000245	2.449134	0.829789	0.000099
 105	1.0348e+01	4.1245	8.592891	0.000269	2.693031	0.912424	0.000108
 106	1.0447e+01	4.1662	8.694319	0.000253	2.530433	0.857334	0.000102
 107	1.0547e+01	4.2239	8.794933	0.000251	2.510108	0.850448	0.000101
 108	1.0646e+01	4.2608	8.897583	0.000256	2.560920	0.867663	0.000103
 109	1.0746e+01	4.2881	9.003492	0.000264	2.642219	0.895208	0.000106
 110	1.0845e+01	4.3298	9.102069	0.000246	2.459297	0.833232	0.000099
 111	1.0945e+01	4.3635	9.205534	0.000258	2.581245	0.874550	0.000104
 112	1.1044e+01	4.3988	9.304111	0.000246	2.459297	0.833232	0.000099
 113	1.1144e+01	4.4373	9.402281	0.000245	2.449134	0.829789	0.000099
 114	1.1243e+01	4.4902	9.505746	0.000258	2.581245	0.874550	0.000104
 115	1.1343e+01	4.5287	9.602693	0.000242	2.418647	0.819460	0.000097
 116	1.1443e+01	4.5560	9.702900	0.000250	2.499946	0.847005	0.000101
 117	1.1542e+01	4.6154	9.801476	0.000246	2.459297	0.833232	0.000099
 118	1.1642e+01	4.6571	9.904127	0.000256	2.560920	0.867663	0.000103
 119	1.1741e+01	4.6828	10.000667	0.000241	2.408485	0.816017	0.000097
 120	1.1841e+01	4.7405	10.095578	0.000237	2.367835	0.802244	0.000095
 121	1.1940e+01	4.7630	10.191711	0.000240	2.398322	0.812574	0.000097
 122	1.2040e+01	4.8191	10.290695	0.000247	2.469459	0.836675	0.000099
 123	1.2139e+01	4.8576	10.386420	0.000239	2.388160	0.809130	0.000096
 124	1.2239e+01	4.8993	10.485812	0.000248	2.479621	0.840118	0.000100
 125	1.2338e+01	4.9475	10.575020	0.000223	2.225562	0.754041	0.000090
 126	1.2438e+01	4.9683	10.679300	0.000260	2.601570	0.881436	0.000105
 127	1.2537e+01	5.0148	10.771766	0.000231	2.306861	0.781586	0.000093
 128	1.2636e+01	5.0598	10.867899	0.000240	2.398322	0.812574	0.000097
 129	1.2736e+01	5.0790	10.957515	0.000224	2.235724	0.757484	0.000090
 130	1.2835e+01	5.1239	11.052018	0.000236	2.357673	0.798801	0.000095
 131	1.2935e+01	5.1640	11.154668	0.000256	2.560920	0.867663	0.000103
 132	1.3034e+01	5.2170	11.251616	0.000242	2.418647	0.819460	0.000097
 133	1.3134e+01	5.2250	11.349786	0.000245	2.449134	0.829789	0.000099
 134	1.3233e+01	5.2587	11.438179	0.000221	2.205237	0.747155	0.000089
 135	1.3333e+01	5.3373	11.535534	0.000243	2.428809	0.822903	0.000098
 136	1.3432e+01	5.3902	11.628000	0.000231	2.306861	0.781586	0.000093
 137	1.3532e+01	5.3966	11.725355	0.000243	2.428809	0.822903	0.000098
 138	1.3632e+01	5.4351	11.810897	0.000213	2.134100	0.723053	0.000086
 139	1.3731e+01	5.4833	11.907845	0.000242	2.418647	0.819460	0.000097
 140	1.3831e+01	5.5202	12.007644	0.000249	2.489784	0.843562	0.000100
 141	1.3930e+01	5.5667	12.098074	0.000226	2.256049	0.764370	0.000091
 142	1.4030e+01	5.5940	12.190948	0.000232	2.317023	0.785029	0.000093
 143	1.4129e+01	5.6421	12.285859	0.000237	2.367835	0.802244	0.000095
 144	1.4229e+01	5.6694	12.375474	0.000224	2.235724	0.757484	0.000090
 145	1.4328e+01	5.7287	12.470792	0.000238	2.377997	0.805687	0.000096
 146	1.4428e+01	5.7656	12.563259	0.000231	2.306861	0.781586	0.000093
 147	1.4527e+01	5.7945	12.659392	0.000240	2.398322	0.812574	0.000097
 148	1.4627e+01	5.8554	12.744526	0.000212	2.123938	0.719610	0.000086
 149	1.4726e+01	5.8859	12.841881	0.000243	2.428809	0.822903	0.000098
 150	1.4825e+01	5.9228	12.936385	0.000236	2.357673	0.798801	0.000095
 151	1.4925e+01	5.9661	13.024371	0.000220	2.195075	0.743711	0.000088
 152	1.5024e+01	6.0062	13.116838	0.000231	2.306861	0.781586	0.000093
 153	1.5124e+01	6.0255	13.207268	0.000226	2.256049	0.764370	0.000091
 154	1.5223e+01	6.1041	13.300142	0.000232	2.317023	0.785029	0.000093
 155	1.5323e+01	6.1153	13.393016	0.000232	2.317023	0.785029	0.000093
 156	1.5422e+01	6.1506	13.482224	0.000223	2.225562	0.754041	0.000090
 157	1.5522e+01	6.2004	13.569395	0.000217	2.174750	0.736825	0.000088
 158	1.5621e+01	6.2613	13.665528	0.000240	2.398322	0.812574	0.000097
 159	1.5721e+01	6.2934	13.759217	0.000234	2.337348	0.791915	0.000094
 160	1.5820e+01	6.3239	13.844759	0.000213	2.134100	0.723053	0.000086
 161	1.5920e+01	6.3752	13.939669	0.000237	2.367835	0.802244	0.000095
 162	1.6020e+01	6.4073	14.032136	0.000231	2.306861	0.781586	0.000093
 163	1.6119e+01	6.4298	14.118493	0.000215	2.154425	0.729939	0.000087
 164	1.6218e+01	6.4554	14.203220	0.000211	2.113776	0.716167	0.000085
 165	1.6318e+01	6.5308	14.293243	0.000225	2.245887	0.760927	0.000090
 166	1.6418e+01	6.5693	14.384080	0.000227	2.266211	0.767813	0.000091
 167	1.6517e+01	6.6143	14.476140	0.000230	2.296698	0.778142	0.000093
 168	1.6616e+01	6.6383	14.566162	0.000225	2.245887	0.760927	0.000090
 169	1.6716e+01	6.6592	14.652112	0.000214	2.144263	0.726496	0.000086
 170	1.6816e+01	6.7265	14.745800	0.000234	2.337348	0.791915	0.000094
 171	1.6915e+01	6.7410	14.830528	0.000211	2.113776	0.716167	0.000085
 172	1.7015e+01	6.7907	14.924216	0.000234	2.337348	0.791915	0.000094
 173	1.7114e+01	6.8340	15.011388	0.000217	2.174750	0.736825	0.000088
 174	1.7213e+01	6.8806	15.098966	0.000218	2.184912	0.740268	0.000088
 175	1.7313e+01	6.9255	15.188989	0.000225	2.245887	0.760927	0.000090
 176	1.7413e+01	6.9752	15.283900	0.000237	2.367835	0.802244	0.000095
 177	1.7512e+01	7.0185	15.368220	0.000210	2.103613	0.712723	0.000085
 178	1.7611e+01	7.0330	15.456613	0.000221	2.205237	0.747155	0.000089
 179	1.7711e+01	7.0682	15.541748	0.000212	2.123938	0.719610	0.000086
 180	1.7811e+01	7.1276	15.629734	0.000220	2.195075	0.743711	0.000088
 181	1.7910e+01	7.1789	15.720571	0.000227	2.266211	0.767813	0.000091
 182	1.8009e+01	7.1757	15.807335	-0.000216	-2.164587	-0.733382	0.000087
 183	1.8109e+01	7.2495	15.892470	0.000212	2.123938	0.719610	0.000086
 184	1.8209e+01	7.2704	15.979641	0.000217	2.174750	0.736825	0.000088
 185	1.8308e+01	7.3121	16.066812	0.000217	2.174750	0.736825	0.000088
 186	1.8407e+01	7.3265	16.148281	0.000203	2.032476	0.688622	0.000082
 187	1.8507e+01	7.4019	16.236267	0.000220	2.195075	0.743711	0.000088
 188	1.8607e+01	7.4308	16.321809	0.000213	2.134100	0.723053	0.000086
 189	1.8706e+01	7.4597	16.407351	0.000213	2.134100	0.723053	0.000086
 190	1.8805e+01	7.5479	16.489226	0.000204	2.042639	0.692065	0.000082
 191	1.8905e+01	7.5688	16.569473	0.000200	2.001989	0.678292	0.000081
 192	1.9005e+01	7.5848	16.655015	0.000213	2.134100	0.723053	0.000086
 193	1.9104e+01	7.6185	16.744223	0.000223	2.225562	0.754041	0.000090
 194	1.9203e+01	7.6586	16.823655	0.000198	1.981665	0.671406	0.000080
 195	1.9303e+01	7.7308	16.912048	0.000221	2.205237	0.747155	0.000089
 196	1.9402e+01	7.7388	16.996775	0.000211	2.113776	0.716167	0.000085
 197	1.9502e+01	7.7982	17.084354	0.000218	2.184912	0.740268	0.000088
 198	1.9602e+01	7.8287	17.169081	0.000211	2.113776	0.716167	0.000085
 199	1.9701e+01	7.8688	17.257475	0.000221	2.205237	0.747155	0.000089
 200	1.9800e+01	7.9201	17.341387	0.000209	2.093451	0.709280	0.000084
 201	1.9900e+01	7.9602	17.428558	0.000217	2.174750	0.736825	0.000088
 202	2.0000e+01	7.9891	17.511249	0.000206	2.062964	0.698951	0.000083
 203	2.0099e+01	8.0549	17.598828	0.000218	2.184912	0.740268	0.000088
 204	2.0198e+01	8.0853	17.679889	0.000202	2.022314	0.685179	0.000081
 205	2.0298e+01	8.1254	17.771541	0.000229	2.286536	0.774699	0.000092
 206	2.0398e+01	8.1479	17.859119	0.000218	2.184912	0.740268	0.000088
 207	2.0497e+01	8.1832	17.950364	0.000228	2.276374	0.771256	0.000092
 208	2.0596e+01	8.1992	18.028574	0.000195	1.951177	0.661077	0.000079
 209	2.0696e+01	8.2762	18.122263	0.000234	2.337348	0.791915	0.000094
 210	2.0796e+01	8.3083	18.207397	0.000212	2.123938	0.719610	0.000086
 211	2.0895e+01	8.3613	18.298642	0.000228	2.276374	0.771256	0.000092
 212	2.0994e+01	8.3805	18.384999	0.000215	2.154425	0.729939	0.000087
 213	2.1094e+01	8.4238	18.469319	0.000210	2.103613	0.712723	0.000085
 214	2.1194e+01	8.4607	18.559341	0.000225	2.245887	0.760927	0.000090
 215	2.1293e+01	8.5265	18.644069	0.000211	2.113776	0.716167	0.000085
 216	2.1392e+01	8.5457	18.733277	0.000223	2.225562	0.754041	0.000090
 217	2.1492e+01	8.6067	18.815152	0.000204	2.042639	0.692065	0.000082
 218	2.1591e+01	8.6211	18.905990	0.000227	2.266211	0.767813	0.000091
 219	2.1691e+01	8.6789	18.991124	0.000212	2.123938	0.719610	0.000086
 220	2.1791e+01	8.7078	19.080332	0.000223	2.225562	0.754041	0.000090
 221	2.1890e+01	8.7623	19.165467	0.000212	2.123938	0.719610	0.000086
 222	2.1989e+01	8.7896	19.251824	0.000215	2.154425	0.729939	0.000087
 223	2.2089e+01	8.8217	19.338588	0.000216	2.164587	0.733382	0.000087
 224	2.2189e+01	8.8891	19.422908	0.000210	2.103613	0.712723	0.000085
 225	2.2288e+01	8.9179	19.514152	0.000228	2.276374	0.771256	0.000092
 226	2.2387e+01	8.9709	19.600102	0.000214	2.144263	0.726496	0.000086
 227	2.2487e+01	8.9949	19.685236	0.000212	2.123938	0.719610	0.000086
 228	2.2587e+01	9.0174	19.774444	0.000223	2.225562	0.754041	0.000090
 229	2.2686e+01	9.0848	19.862023	0.000218	2.184912	0.740268	0.000088
 230	2.2785e+01	9.0832	19.949194	-0.000217	-2.174750	-0.736825	0.000088
 231	2.2885e+01	9.1505	20.030663	0.000203	2.032476	0.688622	0.000082
 232	2.2985e+01	9.1890	20.121093	0.000226	2.256049	0.764370	0.000091
 233	2.3084e+01	9.2404	20.207042	0.000214	2.144263	0.726496	0.000086
 234	2.3183e+01	9.2660	20.296250	0.000223	2.225562	0.754041	0.000090
 235	2.3283e+01	9.3013	20.383014	0.000216	2.164587	0.733382	0.000087
 236	2.3383e+01	9.3832	20.466926	0.000209	2.093451	0.709280	0.000084
 237	2.3482e+01	9.3944	20.556542	0.000224	2.235724	0.757484	0.000090
 238	2.3581e+01	9.4233	20.646157	0.000224	2.235724	0.757484	0.000090
 239	2.3681e+01	9.4586	20.724367	0.000195	1.951177	0.661077	0.000079
 240	2.3780e+01	9.5275	20.813168	0.000222	2.215399	0.750598	0.000089
 241	2.3880e+01	9.5500	20.903598	0.000226	2.256049	0.764370	0.000091
 242	2.3980e+01	9.5805	20.986288	0.000206	2.062964	0.698951	0.000083
 243	2.4079e+01	9.6334	21.076718	0.000226	2.256049	0.764370	0.000091
 244	2.4178e+01	9.6655	21.159816	0.000207	2.073126	0.702394	0.000084
 245	2.4278e+01	9.7040	21.247802	0.000220	2.195075	0.743711	0.000088
 246	2.4378e+01	9.7409	21.330493	0.000206	2.062964	0.698951	0.000083
 247	2.4477e+01	9.7874	21.419701	0.000223	2.225562	0.754041	0.000090
 248	2.4576e+01	9.8275	21.501577	0.000204	2.042639	0.692065	0.000082
 249	2.4676e+01	9.8564	21.590377	0.000222	2.215399	0.750598	0.000089
 250	2.4776e+01	9.9029	21.675105	0.000211	2.113776	0.716167	0.000085
 251	2.4875e+01	9.9366	21.763905	0.000222	2.215399	0.750598	0.000089
 252	2.4974e+01	9.9928	21.844152	0.000200	2.001989	0.678292	0.000081
 253	2.5074e+01	10.0361	21.932138	0.000220	2.195075	0.743711	0.000088
 254	2.5174e+01	10.0746	22.015643	0.000208	2.083288	0.705837	0.000084
 255	2.5273e+01	10.1067	22.103629	0.000220	2.195075	0.743711	0.000088
 256	2.5372e+01	10.1484	22.185912	0.000205	2.052801	0.695508	0.000083
 257	2.5472e+01	10.1724	22.271861	0.000214	2.144263	0.726496	0.000086
 258	2.5572e+01	10.2302	22.354552	0.000206	2.062964	0.698951	0.000083
 259	2.5671e+01	10.2607	22.445797	0.000228	2.276374	0.771256	0.000092
 260	2.5770e+01	10.2992	22.532153	0.000215	2.154425	0.729939	0.000087
 261	2.5870e+01	10.3313	22.615251	0.000207	2.073126	0.702394	0.000084
 262	2.5970e+01	10.3682	22.704052	0.000222	2.215399	0.750598	0.000089
 263	2.6069e+01	10.4403	22.788372	0.000210	2.103613	0.712723	0.000085
 264	2.6169e+01	10.4580	22.882060	0.000234	2.337348	0.791915	0.000094
 265	2.6268e+01	10.5061	22.963529	0.000203	2.032476	0.688622	0.000082
 266	2.6367e+01	10.5478	23.050293	0.000216	2.164587	0.733382	0.000087
 267	2.6467e+01	10.5960	23.137872	0.000218	2.184912	0.740268	0.000088
 268	2.6567e+01	10.6264	23.222599	0.000211	2.113776	0.716167	0.000085
 269	2.6666e+01	10.6714	23.310992	0.000221	2.205237	0.747155	0.000089
 270	2.6765e+01	10.7050	23.394905	0.000209	2.093451	0.709280	0.000084
 271	2.6865e+01	10.7371	23.480854	0.000214	2.144263	0.726496	0.000086
 272	2.6965e+01	10.7740	23.571284	0.000226	2.256049	0.764370	0.000091
 273	2.7064e+01	10.8109	23.660085	0.000222	2.215399	0.750598	0.000089
 274	2.7163e+01	10.8558	23.747663	0.000218	2.184912	0.740268	0.000088
 275	2.7263e+01	10.8895	23.834020	0.000215	2.154425	0.729939	0.000087
 276	2.7363e+01	10.9489	23.921599	0.000218	2.184912	0.740268	0.000088
 277	2.7462e+01	11.0147	24.005511	0.000209	2.093451	0.709280	0.000084
 278	2.7561e+01	11.0211	24.093905	0.000221	2.205237	0.747155	0.000089
 279	2.7661e+01	11.0596	24.172522	0.000196	1.961340	0.664520	0.000079
 280	2.7761e+01	11.0965	24.265396	0.000232	2.317023	0.785029	0.000093
 281	2.7860e+01	11.1414	24.351752	0.000215	2.154425	0.729939	0.000087
 282	2.7959e+01	11.1671	24.433221	0.000203	2.032476	0.688622	0.000082
 283	2.8059e+01	11.2232	24.517133	0.000209	2.093451	0.709280	0.000084
 284	2.8159e+01	11.2425	24.601046	0.000209	2.093451	0.709280	0.000084
 285	2.8258e+01	11.2970	24.686588	0.000213	2.134100	0.723053	0.000086
 286	2.8358e+01	11.3580	24.772537	0.000214	2.144263	0.726496	0.000086
 287	2.8457e+01	11.3788	24.860116	0.000218	2.184912	0.740268	0.000088
 288	2.8556e+01	11.4221	24.937511	0.000193	1.930853	0.654191	0.000078
 289	2.8656e+01	11.4703	25.019794	0.000205	2.052801	0.695508	0.000083
 290	2.8756e+01	11.4927	25.104114	0.000210	2.103613	0.712723	0.000085
 291	2.8855e+01	11.5392	25.190063	0.000214	2.144263	0.726496	0.000086
 292	2.8954e+01	11.5842	25.262978	0.000182	1.819066	0.616316	0.000073
 293	2.9054e+01	11.6146	25.348112	0.000212	2.123938	0.719610	0.000086
 294	2.9154e+01	11.6435	25.431618	0.000208	2.083288	0.705837	0.000084
 295	2.9253e+01	11.6997	25.512271	0.000201	2.012152	0.681735	0.000081
 296	2.9352e+01	11.7446	25.588037	0.000189	1.890203	0.640418	0.000076
 297	2.9452e+01	11.7687	25.671542	0.000208	2.083288	0.705837	0.000084
 298	2.9552e+01	11.8216	25.750567	0.000197	1.971502	0.667963	0.000079
 299	2.9651e+01	11.8569	25.834072	0.000208	2.083288	0.705837	0.000084
 300	2.9750e+01	11.8826	25.915133	0.000202	2.022314	0.685179	0.000081
 301	2.9850e+01	11.9307	25.994972	0.000199	1.991827	0.674849	0.000080
 302	2.9950e+01	11.9676	26.070738	0.000189	1.890203	0.640418	0.000076
 303	3.0049e+01	12.0045	26.157502	0.000216	2.164587	0.733382	0.000087
 304	3.0148e+01	12.0638	26.232453	0.000187	1.869878	0.633532	0.000075
 305	3.0248e+01	12.0927	26.313921	0.000203	2.032476	0.688622	0.000082
 306	3.0348e+01	12.1408	26.394168	0.000200	2.001989	0.678292	0.000081
 307	3.0447e+01	12.1729	26.477673	0.000208	2.083288	0.705837	0.000084
 308	3.0547e+01	12.2403	26.554661	0.000192	1.920690	0.650747	0.000077
 309	3.0646e+01	12.2419	26.631241	0.000191	1.910528	0.647304	0.000077
 310	3.0745e+01	12.3077	26.711488	0.000200	2.001989	0.678292	0.000081
 311	3.0845e+01	12.3253	26.790920	0.000198	1.981665	0.671406	0.000080
 312	3.0945e+01	12.3446	26.873203	0.000205	2.052801	0.695508	0.000083
 313	3.1044e+01	12.4312	26.951820	0.000196	1.961340	0.664520	0.000079
 314	3.1143e+01	12.4585	27.027178	0.000188	1.880041	0.636975	0.000076
 315	3.1243e+01	12.5066	27.107832	0.000201	2.012152	0.681735	0.000081
 316	3.1343e+01	12.5403	27.186449	0.000196	1.961340	0.664520	0.000079
 317	3.1442e+01	12.5708	27.258142	0.000179	1.788579	0.605987	0.000072
 318	3.1541e+01	12.5932	27.337981	0.000199	1.991827	0.674849	0.000080
 319	3.1641e+01	12.6574	27.416598	0.000196	1.961340	0.664520	0.000079
 320	3.1741e+01	12.7200	27.493586	0.000192	1.920690	0.650747	0.000077
 321	3.1840e+01	12.7472	27.574239	0.000201	2.012152	0.681735	0.000081
 322	3.1939e+01	12.7617	27.655708	0.000203	2.032476	0.688622	0.000082
 323	3.2039e+01	12.8210	27.727807	0.000180	1.798742	0.609430	0.000072
 324	3.2139e+01	12.8483	27.806425	0.000196	1.961340	0.664520	0.000079
 325	3.2238e+01	12.9061	27.884634	0.000195	1.951177	0.661077	0.000079
 326	3.2337e+01	12.9253	27.957549	0.000182	1.819066	0.616316	0.000073
 327	3.2437e+01	12.9702	28.030056	0.000181	1.808904	0.612873	0.000073
 328	3.2536e+01	13.0023	28.107043	0.000192	1.920690	0.650747	0.000077
 329	3.2636e+01	13.0552	28.184438	0.000193	1.930853	0.654191	0.000078
 330	3.2736e+01	13.0937	28.262648	0.000195	1.951177	0.661077	0.000079
 331	3.2835e+01	13.1371	28.339229	0.000191	1.910528	0.647304	0.000077
 332	3.2934e+01	13.1675	28.416216	0.000192	1.920690	0.650747	0.000077
 333	3.3034e+01	13.2028	28.494426	0.000195	1.951177	0.661077	0.000079
 334	3.3133e+01	13.2558	28.573043	0.000196	1.961340	0.664520	0.000079
 335	3.3233e+01	13.2847	28.647180	0.000185	1.849554	0.626646	0.000075
 336	3.3333e+01	13.3312	28.722131	0.000187	1.869878	0.633532	0.000075
 337	3.3432e+01	13.3633	28.801562	0.000198	1.981665	0.671406	0.000080
 338	3.3532e+01	13.3809	28.876513	0.000187	1.869878	0.633532	0.000075
 339	3.3631e+01	13.4451	28.955131	0.000196	1.961340	0.664520	0.000079
 340	3.3730e+01	13.4964	29.027638	0.000181	1.808904	0.612873	0.000073
 341	3.3830e+01	13.5157	29.109513	0.000204	2.042639	0.692065	0.000082
 342	3.3929e+01	13.5814	29.178354	0.000172	1.717443	0.581885	0.000069
 343	3.4029e+01	13.6135	29.254935	0.000191	1.910528	0.647304	0.000077
 344	3.4129e+01	13.6681	29.332737	0.000194	1.941015	0.657634	0.000078
 345	3.4228e+01	13.6857	29.408096	0.000188	1.880041	0.636975	0.000076
 346	3.4328e+01	13.7338	29.478566	0.000176	1.758092	0.595658	0.000071
 347	3.4427e+01	13.7836	29.556776	0.000195	1.951177	0.661077	0.000079
 348	3.4526e+01	13.7932	29.631319	0.000186	1.859716	0.630089	0.000075
 349	3.4626e+01	13.8349	29.701789	0.000176	1.758092	0.595658	0.000071
 350	3.4725e+01	13.8830	29.777555	0.000189	1.890203	0.640418	0.000076
 351	3.4825e+01	13.9376	29.852914	0.000188	1.880041	0.636975	0.000076
 352	3.4925e+01	13.9665	29.922162	0.000173	1.727605	0.585328	0.000070
 353	3.5024e+01	14.0114	29.998335	0.000190	1.900366	0.643861	0.000077
 354	3.5123e+01	14.0515	30.067583	0.000173	1.727605	0.585328	0.000070
 355	3.5223e+01	14.0852	30.143349	0.000189	1.890203	0.640418	0.000076
 356	3.5322e+01	14.1172	30.211782	0.000171	1.707280	0.578442	0.000069
 357	3.5422e+01	14.1558	30.282660	0.000177	1.768255	0.599101	0.000071
 358	3.5522e+01	14.2295	30.349871	0.000168	1.676793	0.568113	0.000068
 359	3.5621e+01	14.2600	30.426859	0.000192	1.920690	0.650747	0.000077
 360	3.5721e+01	14.2857	30.496922	0.000175	1.747930	0.592215	0.000070
 361	3.5820e+01	14.3290	30.571058	0.000185	1.849554	0.626646	0.000075
 362	3.5919e+01	14.3547	30.643565	0.000181	1.808904	0.612873	0.000073
 363	3.6019e+01	14.4301	30.720553	0.000192	1.920690	0.650747	0.000077
 364	3.6118e+01	14.4509	30.792653	0.000180	1.798742	0.609430	0.000072
 365	3.6218e+01	14.4878	30.863938	0.000178	1.778417	0.602544	0.000072
 366	3.6318e+01	14.5215	30.934815	0.000177	1.768255	0.599101	0.000071
 367	3.6417e+01	14.5600	31.004064	0.000173	1.727605	0.585328	0.000070
 368	3.6517e+01	14.6162	31.079829	0.000189	1.890203	0.640418	0.000076
 369	3.6616e+01	14.6547	31.153151	0.000183	1.829229	0.619760	0.000074
 370	3.6715e+01	14.7060	31.225658	0.000181	1.808904	0.612873	0.000073
 371	3.6815e+01	14.7301	31.301016	0.000188	1.880041	0.636975	0.000076
 372	3.6914e+01	14.7718	31.375967	0.000187	1.869878	0.633532	0.000075
 373	3.7014e+01	14.8007	31.447252	0.000178	1.778417	0.602544	0.000072
 374	3.7114e+01	14.8536	31.530350	0.000207	2.073126	0.702394	0.000084
 375	3.7213e+01	14.8616	31.599598	0.000173	1.727605	0.585328	0.000070
 376	3.7313e+01	14.9226	31.676179	0.000191	1.910528	0.647304	0.000077
 377	3.7412e+01	14.9659	31.749908	0.000184	1.839391	0.623203	0.000074
 378	3.7511e+01	15.0108	31.824859	0.000187	1.869878	0.633532	0.000075
 379	3.7611e+01	15.0429	31.900625	0.000189	1.890203	0.640418	0.000076
 380	3.7711e+01	15.0894	31.972724	0.000180	1.798742	0.609430	0.000072
 381	3.7810e+01	15.1247	32.049305	0.000191	1.910528	0.647304	0.000077
 382	3.7910e+01	15.1696	32.121404	0.000180	1.798742	0.609430	0.000072
 383	3.8009e+01	15.2226	32.198799	0.000193	1.930853	0.654191	0.000078
 384	3.8108e+01	15.2418	32.272121	0.000183	1.829229	0.619760	0.000074
 385	3.8208e+01	15.2899	32.347479	0.000188	1.880041	0.636975	0.000076
 386	3.8307e+01	15.3124	32.425282	0.000194	1.941015	0.657634	0.000078
 387	3.8407e+01	15.3637	32.498603	0.000183	1.829229	0.619760	0.000074
 388	3.8507e+01	15.4054	32.574777	0.000190	1.900366	0.643861	0.000077
 389	3.8606e+01	15.4423	32.647691	0.000182	1.819066	0.616316	0.000073
 390	3.8706e+01	15.4712	32.722642	0.000187	1.869878	0.633532	0.000075
 391	3.8805e+01	15.5611	32.796778	0.000185	1.849554	0.626646	0.000075
 392	3.8904e+01	15.5611	32.873766	-0.000192	-1.920690	-0.650747	0.000077
 393	3.9004e+01	15.6188	32.947902	0.000185	1.849554	0.626646	0.000075
 394	3.9103e+01	15.6349	33.020002	0.000180	1.798742	0.609430	0.000072
 395	3.9203e+01	15.6782	33.096990	0.000192	1.920690	0.650747	0.000077
 396	3.9303e+01	15.7167	33.171126	0.000185	1.849554	0.626646	0.000075
 397	3.9402e+01	15.7584	33.245670	0.000186	1.859716	0.630089	0.000075
 398	3.9502e+01	15.8081	33.316955	0.000178	1.778417	0.602544	0.000072
 399	3.9601e+01	15.8498	33.395572	0.000196	1.961340	0.664520	0.000079
 400	3.9700e+01	15.8819	33.465635	0.000175	1.747930	0.592215	0.000070
 401	3.9800e+01	15.9300	33.545881	0.000200	2.001989	0.678292	0.000081
 402	3.9900e+01	15.9605	33.613907	0.000170	1.697118	0.574999	0.000068
 403	3.9999e+01	16.0038	33.692117	0.000195	1.951177	0.661077	0.000079
 404	4.0099e+01	16.0359	33.771142	0.000197	1.971502	0.667963	0.000079
 405	4.0198e+01	16.0905	33.842834	0.000179	1.788579	0.605987	0.000072
 406	4.0297e+01	16.1354	33.917785	0.000187	1.869878	0.633532	0.000075
 407	4.0397e+01	16.1771	33.991514	0.000184	1.839391	0.623203	0.000074
 408	4.0496e+01	16.2028	34.062391	0.000177	1.768255	0.599101	0.000071
 409	4.0596e+01	16.2380	34.142638	0.000200	2.001989	0.678292	0.000081
 410	4.0696e+01	16.2637	34.218404	0.000189	1.890203	0.640418	0.000076
 411	4.0795e+01	16.3247	34.290503	0.000180	1.798742	0.609430	0.000072
 412	4.0895e+01	16.3584	34.362603	0.000180	1.798742	0.609430	0.000072
 413	4.0994e+01	16.3953	34.442035	0.000198	1.981665	0.671406	0.000080
 414	4.1093e+01	16.4434	34.519022	0.000192	1.920690	0.650747	0.000077
 415	4.1193e+01	16.4995	34.590307	0.000178	1.778417	0.602544	0.000072
 416	4.1292e+01	16.5220	34.666073	0.000189	1.890203	0.640418	0.000076
 417	4.1392e+01	16.5380	34.736136	0.000175	1.747930	0.592215	0.000070
 418	4.1492e+01	16.5926	34.813531	0.000193	1.930853	0.654191	0.000078
 419	4.1591e+01	16.6471	34.887260	0.000184	1.839391	0.623203	0.000074
 420	4.1691e+01	16.6904	34.965063	0.000194	1.941015	0.657634	0.000078
 421	4.1790e+01	16.7145	35.033496	0.000171	1.707280	0.578442	0.000069
 422	4.1889e+01	16.7546	35.107632	0.000185	1.849554	0.626646	0.000075
 423	4.1989e+01	16.8043	35.180139	0.000181	1.808904	0.612873	0.000073
 424	4.2089e+01	16.8493	35.253868	0.000184	1.839391	0.623203	0.000074
 425	4.2188e+01	16.8765	35.325968	0.000180	1.798742	0.609430	0.000072
 426	4.2288e+01	16.9182	35.401734	0.000189	1.890203	0.640418	0.000076
 427	4.2387e+01	16.9599	35.486868	0.000212	2.123938	0.719610	0.000086
 428	4.2486e+01	16.9808	35.547155	0.000150	1.504033	0.509580	0.000061
 429	4.2586e+01	17.0466	35.623735	0.000191	1.910528	0.647304	0.000077
 430	4.2685e+01	17.0899	35.698279	0.000186	1.859716	0.630089	0.000075
 431	4.2785e+01	17.1011	35.776082	0.000194	1.941015	0.657634	0.000078
 432	4.2885e+01	17.1541	35.854291	0.000195	1.951177	0.661077	0.000079
 433	4.2984e+01	17.1797	35.928835	0.000186	1.859716	0.630089	0.000075
 434	4.3084e+01	17.2343	36.004601	0.000189	1.890203	0.640418	0.000076
 435	4.3183e+01	17.2712	36.076700	0.000180	1.798742	0.609430	0.000072
 436	4.3282e+01	17.3225	36.153688	0.000192	1.920690	0.650747	0.000077
 437	4.3382e+01	17.3289	36.224973	0.000178	1.778417	0.602544	0.000072
 438	4.3481e+01	17.3979	36.302368	0.000193	1.930853	0.654191	0.000078
 439	4.3581e+01	17.4541	36.384244	0.000204	2.042639	0.692065	0.000082
 440	4.3681e+01	17.4813	36.456751	0.000181	1.808904	0.612873	0.000073
 441	4.3780e+01	17.5118	36.538220	0.000203	2.032476	0.688622	0.000082
 442	4.3880e+01	17.5311	36.610727	0.000181	1.808904	0.612873	0.000073
 443	4.3979e+01	17.5744	36.691380	0.000201	2.012152	0.681735	0.000081
 444	4.4078e+01	17.6193	36.763073	0.000179	1.788579	0.605987	0.000072
 445	4.4178e+01	17.6819	36.837616	0.000186	1.859716	0.630089	0.000075
 446	4.4278e+01	17.7236	36.907679	0.000175	1.747930	0.592215	0.000070
 447	4.4377e+01	17.7781	36.986296	0.000196	1.961340	0.664520	0.000079
 448	4.4477e+01	17.7974	37.060840	0.000186	1.859716	0.630089	0.000075
 449	4.4576e+01	17.8407	37.137013	0.000190	1.900366	0.643861	0.000077
 450	4.4675e+01	17.8631	37.205854	0.000172	1.717443	0.581885	0.000069
 451	4.4775e+01	17.9257	37.284878	0.000197	1.971502	0.667963	0.000079
 452	4.4874e+01	17.9385	37.357385	0.000181	1.808904	0.612873	0.000073
 453	4.4974e+01	17.9947	37.434780	0.000193	1.930853	0.654191	0.000078
 454	4.5074e+01	18.0220	37.501992	0.000168	1.676793	0.568113	0.000068
 455	4.5173e+01	18.0637	37.572462	0.000176	1.758092	0.595658	0.000071
 456	4.5273e+01	18.1006	37.639674	0.000168	1.676793	0.568113	0.000068
 457	4.5372e+01	18.1439	37.714217	0.000186	1.859716	0.630089	0.000075
 458	4.5471e+01	18.1920	37.786317	0.000180	1.798742	0.609430	0.000072
 459	4.5571e+01	18.2498	37.853936	0.000169	1.686955	0.571556	0.000068
 460	4.5670e+01	18.2722	37.927665	0.000184	1.839391	0.623203	0.000074
 461	4.5770e+01	18.3203	37.998543	0.000177	1.768255	0.599101	0.000071
 462	4.5870e+01	18.3620	38.069828	0.000178	1.778417	0.602544	0.000072
 463	4.5969e+01	18.3941	38.143964	0.000185	1.849554	0.626646	0.000075
 464	4.6069e+01	18.4342	38.212805	0.000172	1.717443	0.581885	0.000069
 465	4.6168e+01	18.4487	38.278794	0.000165	1.646306	0.557784	0.000066
 466	4.6267e+01	18.5241	38.351709	0.000182	1.819066	0.616316	0.000073
 467	4.6367e+01	18.5562	38.425845	0.000185	1.849554	0.626646	0.000075
 468	4.6467e+01	18.5722	38.488983	0.000158	1.575169	0.533682	0.000063
 469	4.6566e+01	18.6508	38.558231	0.000173	1.727605	0.585328	0.000070
 470	4.6666e+01	18.6669	38.627072	0.000172	1.717443	0.581885	0.000069
 471	4.6765e+01	18.7326	38.702023	0.000187	1.869878	0.633532	0.000075
 472	4.6864e+01	18.7567	38.771271	0.000173	1.727605	0.585328	0.000070
 473	4.6964e+01	18.7872	38.836854	0.000164	1.636144	0.554340	0.000066
 474	4.7063e+01	18.8257	38.912619	0.000189	1.890203	0.640418	0.000076
 475	4.7163e+01	18.8610	38.978201	0.000164	1.636144	0.554340	0.000066
 476	4.7263e+01	18.9171	39.047857	0.000174	1.737767	0.588772	0.000070
 477	4.7362e+01	18.9588	39.115069	0.000168	1.676793	0.568113	0.000068
 478	4.7462e+01	18.9845	39.178614	0.000159	1.585332	0.537125	0.000064
 479	4.7561e+01	19.0262	39.253158	0.000186	1.859716	0.630089	0.000075
 480	4.7660e+01	19.0679	39.321184	0.000170	1.697118	0.574999	0.000068
 481	4.7760e+01	19.0968	39.388395	0.000168	1.676793	0.568113	0.000068
 482	4.7859e+01	19.1401	39.452755	0.000161	1.605656	0.544011	0.000065
 483	4.7959e+01	19.1930	39.521189	0.000171	1.707280	0.578442	0.000069
 484	4.8059e+01	19.2187	39.589623	0.000171	1.707280	0.578442	0.000069
 485	4.8158e+01	19.2620	39.656019	0.000166	1.656468	0.561227	0.000067
 486	4.8258e+01	19.3021	39.721194	0.000163	1.625981	0.550897	0.000066
 487	4.8357e+01	19.3390	39.791664	0.000176	1.758092	0.595658	0.000071
 488	4.8456e+01	19.3855	39.856432	0.000162	1.615819	0.547454	0.000065
 489	4.8556e+01	19.3984	39.928939	0.000181	1.808904	0.612873	0.000073
 490	4.8656e+01	19.4561	39.991262	0.000155	1.554845	0.526796	0.000063
 491	4.8755e+01	19.5043	40.061325	0.000175	1.747930	0.592215	0.000070
 492	4.8855e+01	19.5396	40.124871	0.000159	1.585332	0.537125	0.000064
 493	4.8954e+01	19.5845	40.196970	0.000180	1.798742	0.609430	0.000072
 494	4.9053e+01	19.6390	40.261738	0.000162	1.615819	0.547454	0.000065
 495	4.9153e+01	19.6679	40.333023	0.000178	1.778417	0.602544	0.000072
 496	4.9252e+01	19.7192	40.389643	0.000141	1.412571	0.478592	0.000057
 497	4.9352e+01	19.7401	40.459299	0.000174	1.737767	0.588772	0.000070
 498	4.9452e+01	19.7722	40.526510	0.000168	1.676793	0.568113	0.000068
 499	4.9551e+01	19.8219	40.596981	0.000176	1.758092	0.595658	0.000071
 500	4.9651e+01	19.8700	40.658489	0.000153	1.534520	0.519909	0.000062
 501	4.9750e+01	19.9053	40.727330	0.000172	1.717443	0.581885	0.000069
 502	4.9849e+01	19.9470	40.794949	0.000169	1.686955	0.571556	0.000068
 503	4.9949e+01	19.9791	40.860531	0.000164	1.636144	0.554340	0.000066
 504	5.0048e+01	19.9438	40.808799	0.000129	1.290623	0.437275	-0.000052
 505	5.0148e+01	19.9214	40.756252	0.000131	1.310947	0.444161	-0.000053
 506	5.0248e+01	19.8604	40.702075	0.000135	1.351597	0.457933	-0.000054
 507	5.0347e+01	19.8059	40.646677	0.000138	1.382084	0.468263	-0.000056
 508	5.0447e+01	19.7834	40.588427	0.000145	1.453221	0.492364	-0.000059
 509	5.0546e+01	19.7465	40.532213	0.000140	1.402409	0.475149	-0.000056
 510	5.0645e+01	19.7144	40.471519	0.000151	1.514195	0.513023	-0.000061
 511	5.0745e+01	19.6631	40.417343	0.000135	1.351597	0.457933	-0.000054
 512	5.0844e+01	19.6486	40.357056	0.000150	1.504033	0.509580	-0.000061
 513	5.0944e+01	19.5957	40.298806	0.000145	1.453221	0.492364	-0.000059
 514	5.1044e+01	19.5363	40.235261	0.000159	1.585332	0.537125	-0.000064
 515	5.1143e+01	19.5235	40.174566	0.000151	1.514195	0.513023	-0.000061
 516	5.1242e+01	19.4642	40.112243	0.000155	1.554845	0.526796	-0.000063
 517	5.1342e+01	19.4385	40.052364	0.000149	1.493870	0.506137	-0.000060
 518	5.1441e+01	19.3743	39.990448	0.000154	1.544682	0.523352	-0.000062
 519	5.1541e+01	19.3262	39.928124	0.000155	1.554845	0.526796	-0.000063
 520	5.1641e+01	19.3069	39.869874	0.000145	1.453221	0.492364	-0.000059
 521	5.1740e+01	19.2733	39.807144	0.000157	1.565007	0.530239	-0.000063
 522	5.1840e+01	19.2267	39.744005	0.000158	1.575169	0.533682	-0.000063
 523	5.1939e+01	19.1898	39.679238	0.000162	1.615819	0.547454	-0.000065
 524	5.2038e+01	19.1561	39.614470	0.000162	1.615819	0.547454	-0.000065
 525	5.2138e+01	19.1176	39.549703	0.000162	1.615819	0.547454	-0.000065
 526	5.2237e+01	19.0775	39.485343	0.000161	1.605656	0.544011	-0.000065
 527	5.2337e+01	19.0166	39.421390	0.000160	1.595494	0.540568	-0.000064
 528	5.2437e+01	18.9781	39.357030	0.000161	1.605656	0.544011	-0.000065
 529	5.2536e+01	18.9636	39.295114	0.000154	1.544682	0.523352	-0.000062
 530	5.2636e+01	18.9043	39.234420	0.000151	1.514195	0.513023	-0.000061
 531	5.2735e+01	18.8706	39.167208	0.000168	1.676793	0.568113	-0.000068
 532	5.2834e+01	18.8241	39.104885	0.000155	1.554845	0.526796	-0.000063
 533	5.2934e+01	18.7888	39.036044	0.000172	1.717443	0.581885	-0.000069
 534	5.3033e+01	18.7471	38.974943	0.000152	1.524357	0.516466	-0.000061
 535	5.3133e+01	18.6925	38.910175	0.000162	1.615819	0.547454	-0.000065
 536	5.3233e+01	18.6941	38.845815	-0.000161	-1.605656	-0.544011	-0.000065
 537	5.3332e+01	18.6300	38.780640	0.000163	1.625981	0.550897	-0.000066
 538	5.3431e+01	18.5834	38.719132	0.000153	1.534520	0.519909	-0.000062
 539	5.3531e+01	18.5546	38.659252	0.000149	1.493870	0.506137	-0.000060
 540	5.3630e+01	18.5048	38.596929	0.000155	1.554845	0.526796	-0.000063
 541	5.3730e+01	18.4936	38.535013	0.000154	1.544682	0.523352	-0.000062
 542	5.3830e+01	18.4503	38.470245	0.000162	1.615819	0.547454	-0.000065
 543	5.3929e+01	18.3829	38.409551	0.000151	1.514195	0.513023	-0.000061
 544	5.4029e+01	18.3476	38.346820	0.000157	1.565007	0.530239	-0.000063
 545	5.4128e+01	18.2995	38.286126	0.000151	1.514195	0.513023	-0.000061
 546	5.4227e+01	18.2883	38.221359	0.000162	1.615819	0.547454	-0.000065
 547	5.4327e+01	18.2257	38.159443	0.000154	1.544682	0.523352	-0.000062
 548	5.4426e+01	18.1904	38.097934	0.000153	1.534520	0.519909	-0.000062
 549	5.4526e+01	18.1455	38.039277	0.000146	1.463383	0.495808	-0.000059
 550	5.4626e+01	18.1118	37.970843	0.000171	1.707280	0.578442	-0.000069
 551	5.4725e+01	18.0829	37.914223	0.000141	1.412571	0.478592	-0.000057
 552	5.4825e+01	18.0348	37.849455	0.000162	1.615819	0.547454	-0.000065
 553	5.4924e+01	17.9851	37.789169	0.000150	1.504033	0.509580	-0.000061
 554	5.5023e+01	17.9498	37.722772	0.000166	1.656468	0.561227	-0.000067
 555	5.5123e+01	17.9161	37.662078	0.000151	1.514195	0.513023	-0.000061
 556	5.5222e+01	17.8760	37.600569	0.000153	1.534520	0.519909	-0.000062
 557	5.5322e+01	17.8086	37.538653	0.000154	1.544682	0.523352	-0.000062
 558	5.5422e+01	17.7925	37.472256	0.000166	1.656468	0.561227	-0.000067
 559	5.5521e+01	17.7476	37.412377	0.000149	1.493870	0.506137	-0.000060
 560	5.5620e+01	17.7043	37.346387	0.000165	1.646306	0.557784	-0.000066
 561	5.5720e+01	17.6690	37.283249	0.000158	1.575169	0.533682	-0.000063
 562	5.5819e+01	17.6401	37.222962	0.000150	1.504033	0.509580	-0.000061
 563	5.5919e+01	17.5920	37.160232	0.000157	1.565007	0.530239	-0.000063
 564	5.6019e+01	17.5567	37.097094	0.000158	1.575169	0.533682	-0.000063
 565	5.6118e+01	17.5134	37.032733	0.000161	1.605656	0.544011	-0.000065
 566	5.6218e+01	17.4749	36.971632	0.000152	1.524357	0.516466	-0.000061
 567	5.6317e+01	17.4252	36.911345	0.000150	1.504033	0.509580	-0.000061
 568	5.6416e+01	17.4156	36.847393	0.000160	1.595494	0.540568	-0.000064
 569	5.6516e+01	17.3402	36.781810	0.000164	1.636144	0.554340	-0.000066
 570	5.6615e+01	17.3241	36.725597	0.000140	1.402409	0.475149	-0.000056
 571	5.6715e+01	17.2792	36.660015	0.000164	1.636144	0.554340	-0.000066
 572	5.6815e+01	17.2391	36.596470	0.000159	1.585332	0.537125	-0.000064
 573	5.6914e+01	17.1894	36.532517	0.000160	1.595494	0.540568	-0.000064
 574	5.7014e+01	17.1541	36.473045	0.000148	1.483708	0.502694	-0.000060
 575	5.7113e+01	17.1172	36.408685	0.000161	1.605656	0.544011	-0.000065
 576	5.7212e+01	17.0851	36.345954	0.000157	1.565007	0.530239	-0.000063
 577	5.7312e+01	17.0626	36.281594	0.000161	1.605656	0.544011	-0.000065
 578	5.7411e+01	16.9888	36.217234	0.000161	1.605656	0.544011	-0.000065
 579	5.7511e+01	16.9471	36.155318	0.000154	1.544682	0.523352	-0.000062
 580	5.7611e+01	16.9231	36.094623	0.000151	1.514195	0.513023	-0.000061
 581	5.7710e+01	16.8733	36.028227	0.000166	1.656468	0.561227	-0.000067
 582	5.7809e+01	16.8300	35.964274	0.000160	1.595494	0.540568	-0.000064
 583	5.7909e+01	16.7899	35.900321	0.000160	1.595494	0.540568	-0.000064
 584	5.8008e+01	16.7562	35.837998	0.000155	1.554845	0.526796	-0.000063
 585	5.8108e+01	16.6936	35.772416	0.000164	1.636144	0.554340	-0.000066
 586	5.8208e+01	16.6969	35.709685	-0.000157	-1.565007	-0.530239	-0.000063
 587	5.8307e+01	16.6247	35.647769	0.000154	1.544682	0.523352	-0.000062
 588	5.8407e+01	16.6070	35.586667	0.000152	1.524357	0.516466	-0.000061
 589	5.8506e+01	16.5509	35.519863	0.000167	1.666631	0.564670	-0.000067
 590	5.8605e+01	16.5108	35.454688	0.000163	1.625981	0.550897	-0.000066
 591	5.8705e+01	16.4787	35.387884	0.000167	1.666631	0.564670	-0.000067
 592	5.8804e+01	16.4658	35.324746	0.000158	1.575169	0.533682	-0.000063
 593	5.8904e+01	16.4001	35.261201	0.000159	1.585332	0.537125	-0.000064
 594	5.9004e+01	16.3888	35.195618	0.000164	1.636144	0.554340	-0.000066
 595	5.9103e+01	16.3070	35.137368	0.000145	1.453221	0.492364	-0.000059
 596	5.9203e+01	16.2878	35.066084	0.000178	1.778417	0.602544	-0.000072
 597	5.9302e+01	16.2300	35.002538	0.000159	1.585332	0.537125	-0.000064
 598	5.9401e+01	16.1659	34.943473	0.000147	1.473545	0.499251	-0.000059
 599	5.9501e+01	16.1642	34.879113	0.000161	1.605656	0.544011	-0.000065
 600	5.9600e+01	16.1225	34.817197	0.000154	1.544682	0.523352	-0.000062
 601	5.9700e+01	16.0921	34.756911	0.000150	1.504033	0.509580	-0.000061
 602	5.9800e+01	16.0423	34.697439	0.000148	1.483708	0.502694	-0.000060
 603	5.9899e+01	16.0006	34.631449	0.000165	1.646306	0.557784	-0.000066
 604	5.9998e+01	15.9717	34.567089	0.000161	1.605656	0.544011	-0.000065
 605	6.0098e+01	15.9397	34.504358	0.000157	1.565007	0.530239	-0.000063
 606	6.0197e+01	15.8803	34.442442	0.000154	1.544682	0.523352	-0.000062
 607	6.0297e+01	15.8482	34.380933	0.000153	1.534520	0.519909	-0.000062
 608	6.0397e+01	15.8065	34.321054	0.000149	1.493870	0.506137	-0.000060
 609	6.0496e+01	15.7680	34.261582	0.000148	1.483708	0.502694	-0.000060
 610	6.0596e+01	15.7311	34.198444	0.000158	1.575169	0.533682	-0.000063
 611	6.0695e+01	15.6766	34.134491	0.000160	1.595494	0.540568	-0.000064
 612	6.0794e+01	15.6429	34.068909	0.000164	1.636144	0.554340	-0.000066
 613	6.0894e+01	15.6044	34.008622	0.000150	1.504033	0.509580	-0.000061
 614	6.0993e+01	15.5675	33.942633	0.000165	1.646306	0.557784	-0.000066
 615	6.1093e+01	15.5338	33.881939	0.000151	1.514195	0.513023	-0.000061
 616	6.1193e+01	15.4873	33.816357	0.000164	1.636144	0.554340	-0.000066
 617	6.1292e+01	15.4151	33.755255	0.000152	1.524357	0.516466	-0.000061
 618	6.1392e+01	15.3958	33.689266	0.000165	1.646306	0.557784	-0.000066
 619	6.1491e+01	15.3686	33.628164	0.000152	1.524357	0.516466	-0.000061
 620	6.1590e+01	15.3204	33.558916	0.000173	1.727605	0.585328	-0.000070
 621	6.1690e+01	15.2803	33.491297	0.000169	1.686955	0.571556	-0.000068
 622	6.1789e+01	15.2354	33.424086	0.000168	1.676793	0.568113	-0.000068
 623	6.1889e+01	15.2001	33.360540	0.000159	1.585332	0.537125	-0.000064
 624	6.1989e+01	15.1616	33.293736	0.000167	1.666631	0.564670	-0.000067
 625	6.2088e+01	15.1279	33.225303	0.000171	1.707280	0.578442	-0.000069
 626	6.2188e+01	15.0734	33.159720	0.000164	1.636144	0.554340	-0.000066
 627	6.2287e+01	15.0541	33.091694	0.000170	1.697118	0.574999	-0.000068
 628	6.2386e+01	14.9996	33.024075	0.000169	1.686955	0.571556	-0.000068
 629	6.2486e+01	14.9659	32.956456	0.000169	1.686955	0.571556	-0.000068
 630	6.2586e+01	14.9162	32.886394	0.000175	1.747930	0.592215	-0.000070
 631	6.2685e+01	14.8728	32.821626	0.000162	1.615819	0.547454	-0.000065
 632	6.2785e+01	14.8472	32.751563	0.000175	1.747930	0.592215	-0.000070
 633	6.2884e+01	14.7974	32.679871	0.000179	1.788579	0.605987	-0.000072
 634	6.2983e+01	14.7573	32.613474	0.000166	1.656468	0.561227	-0.000067
 635	6.3083e+01	14.7220	32.544226	0.000173	1.727605	0.585328	-0.000070
 636	6.3182e+01	14.6819	32.476200	0.000170	1.697118	0.574999	-0.000068
 637	6.3282e+01	14.6210	32.405729	0.000176	1.758092	0.595658	-0.000071
 638	6.3382e+01	14.6049	32.337296	0.000171	1.707280	0.578442	-0.000069
 639	6.3481e+01	14.5729	32.266011	0.000178	1.778417	0.602544	-0.000072
 640	6.3581e+01	14.5295	32.200836	0.000163	1.625981	0.550897	-0.000066
 641	6.3680e+01	14.4654	32.129958	0.000177	1.768255	0.599101	-0.000071
 642	6.3779e+01	14.4253	32.059081	0.000177	1.768255	0.599101	-0.000071
 643	6.3879e+01	14.4012	31.986981	0.000180	1.798742	0.609430	-0.000072
 644	6.3978e+01	14.3483	31.918140	0.000172	1.717443	0.581885	-0.000069
 645	6.4078e+01	14.3290	31.848892	0.000173	1.727605	0.585328	-0.000070
 646	6.4177e+01	14.2937	31.780459	0.000171	1.707280	0.578442	-0.000069
 647	6.4277e+01	14.2552	31.708359	0.000180	1.798742	0.609430	-0.000072
 648	6.4376e+01	14.1878	31.635037	0.000183	1.829229	0.619760	-0.000074
 649	6.4476e+01	14.1574	31.567418	0.000169	1.686955	0.571556	-0.000068
 650	6.4576e+01	14.1172	31.493689	0.000184	1.839391	0.623203	-0.000074
 651	6.4675e+01	14.0852	31.425663	0.000170	1.697118	0.574999	-0.000068
 652	6.4775e+01	14.0402	31.354786	0.000177	1.768255	0.599101	-0.000071
 653	6.4874e+01	14.0050	31.283908	0.000177	1.768255	0.599101	-0.000071
 654	6.4974e+01	13.9729	31.208142	0.000189	1.890203	0.640418	-0.000076
 655	6.5073e+01	13.9376	31.139301	0.000172	1.717443	0.581885	-0.000069
 656	6.5172e+01	13.8911	31.068016	0.000178	1.778417	0.602544	-0.000072
 657	6.5272e+01	13.8429	30.997139	0.000177	1.768255	0.599101	-0.000071
 658	6.5371e+01	13.8060	30.925447	0.000179	1.788579	0.605987	-0.000072
 659	6.5471e+01	13.7820	30.854162	0.000178	1.778417	0.602544	-0.000072
 660	6.5570e+01	13.7274	30.775544	0.000196	1.961340	0.664520	-0.000079
 661	6.5670e+01	13.6905	30.703445	0.000180	1.798742	0.609430	-0.000072
 662	6.5769e+01	13.6552	30.632975	0.000176	1.758092	0.595658	-0.000071
 663	6.5869e+01	13.5991	30.562097	0.000177	1.768255	0.599101	-0.000071
 664	6.5969e+01	13.5670	30.483887	0.000195	1.951177	0.661077	-0.000079
 665	6.6068e+01	13.5365	30.419120	0.000162	1.615819	0.547454	-0.000065
 666	6.6168e+01	13.4900	30.341725	0.000193	1.930853	0.654191	-0.000078
 667	6.6267e+01	13.4563	30.269218	0.000181	1.808904	0.612873	-0.000073
 668	6.6367e+01	13.4178	30.197933	0.000178	1.778417	0.602544	-0.000072
 669	6.6466e+01	13.3697	30.124204	0.000184	1.839391	0.623203	-0.000074
 670	6.6566e+01	13.3472	30.046401	0.000194	1.941015	0.657634	-0.000078
 671	6.6665e+01	13.2943	29.977968	0.000171	1.707280	0.578442	-0.000069
 672	6.6764e+01	13.2558	29.907905	0.000175	1.747930	0.592215	-0.000070
 673	6.6864e+01	13.1996	29.831732	0.000190	1.900366	0.643861	-0.000077
 674	6.6963e+01	13.1788	29.760039	0.000179	1.788579	0.605987	-0.000072
 675	6.7063e+01	13.1210	29.687532	0.000181	1.808904	0.612873	-0.000073
 676	6.7162e+01	13.1066	29.611767	0.000189	1.890203	0.640418	-0.000076
 677	6.7262e+01	13.0424	29.536408	0.000188	1.880041	0.636975	-0.000076
 678	6.7362e+01	13.0023	29.461050	0.000188	1.880041	0.636975	-0.000076
 679	6.7461e+01	12.9654	29.386506	0.000186	1.859716	0.630089	-0.000075
 680	6.7561e+01	12.9430	29.314407	0.000180	1.798742	0.609430	-0.000072
 681	6.7660e+01	12.8964	29.243936	0.000176	1.758092	0.595658	-0.000071
 682	6.7760e+01	12.8692	29.170207	0.000184	1.839391	0.623203	-0.000074
 683	6.7859e+01	12.8114	29.091998	0.000195	1.951177	0.661077	-0.000079
 684	6.7959e+01	12.7841	29.020713	0.000178	1.778417	0.602544	-0.000072
 685	6.8058e+01	12.7360	28.940874	0.000199	1.991827	0.674849	-0.000080
 686	6.8157e+01	12.7151	28.865108	0.000189	1.890203	0.640418	-0.000076
 687	6.8257e+01	12.6606	28.789750	0.000188	1.880041	0.636975	-0.000076
 688	6.8356e+01	12.6157	28.715613	0.000185	1.849554	0.626646	-0.000075
 689	6.8456e+01	12.5676	28.636181	0.000198	1.981665	0.671406	-0.000080
 690	6.8555e+01	12.5451	28.557972	0.000195	1.951177	0.661077	-0.000079
 691	6.8655e+01	12.4938	28.480577	0.000193	1.930853	0.654191	-0.000078
 692	6.8754e+01	12.4440	28.399515	0.000202	2.022314	0.685179	-0.000081
 693	6.8854e+01	12.4184	28.322935	0.000191	1.910528	0.647304	-0.000077
 694	6.8954e+01	12.3847	28.245947	0.000192	1.920690	0.650747	-0.000077
 695	6.9053e+01	12.3189	28.163664	0.000205	2.052801	0.695508	-0.000083
 696	6.9153e+01	12.3141	28.084232	0.000198	1.981665	0.671406	-0.000080
 697	6.9252e+01	12.2595	28.015391	0.000172	1.717443	0.581885	-0.000069
 698	6.9352e+01	12.2210	27.933108	0.000205	2.052801	0.695508	-0.000083
 699	6.9451e+01	12.1761	27.858564	0.000186	1.859716	0.630089	-0.000075
 700	6.9550e+01	12.1489	27.780355	0.000195	1.951177	0.661077	-0.000079
 701	6.9650e+01	12.1023	27.699701	0.000201	2.012152	0.681735	-0.000081
 702	6.9749e+01	12.0574	27.622306	0.000193	1.930853	0.654191	-0.000078
 703	6.9849e+01	12.0189	27.547762	0.000186	1.859716	0.630089	-0.000075
 704	6.9948e+01	12.0013	27.468330	0.000198	1.981665	0.671406	-0.000080
 705	7.0048e+01	11.9162	27.395823	0.000181	1.808904	0.612873	-0.000073
 706	7.0147e+01	11.9034	27.320465	0.000188	1.880041	0.636975	-0.000076
 707	7.0247e+01	11.8601	27.238589	0.000204	2.042639	0.692065	-0.000082
 708	7.0347e+01	11.8328	27.166082	0.000181	1.808904	0.612873	-0.000073
 709	7.0446e+01	11.7670	27.087872	0.000195	1.951177	0.661077	-0.000079
 710	7.0546e+01	11.7719	27.013329	-0.000186	-1.859716	-0.630089	-0.000075
 711	7.0645e+01	11.6949	26.943673	0.000174	1.737767	0.588772	-0.000070
 712	7.0745e+01	11.6227	26.859761	0.000209	2.093451	0.709280	-0.000084
 713	7.0844e+01	11.6307	26.786032	-0.000184	-1.839391	-0.623203	-0.000074
 714	7.0944e+01	11.5906	26.712302	0.000184	1.839391	0.623203	-0.000074
 715	7.1043e+01	11.5425	26.642647	0.000174	1.737767	0.588772	-0.000070
 716	7.1142e+01	11.4927	26.563622	0.000197	1.971502	0.667963	-0.000079
 717	7.1242e+01	11.4462	26.492745	0.000177	1.768255	0.599101	-0.000071
 718	7.1341e+01	11.4221	26.416572	0.000190	1.900366	0.643861	-0.000077
 719	7.1441e+01	11.3836	26.343657	0.000182	1.819066	0.616316	-0.000073
 720	7.1540e+01	11.3451	26.263004	0.000201	2.012152	0.681735	-0.000081
 721	7.1640e+01	11.3018	26.184387	0.000196	1.961340	0.664520	-0.000079
 722	7.1740e+01	11.2553	26.110658	0.000184	1.839391	0.623203	-0.000074
 723	7.1839e+01	11.2136	26.030818	0.000199	1.991827	0.674849	-0.000080
 724	7.1939e+01	11.1719	25.957904	0.000182	1.819066	0.616316	-0.000073
 725	7.2038e+01	11.1510	25.881731	0.000190	1.900366	0.643861	-0.000077
 726	7.2138e+01	11.1157	25.809631	0.000180	1.798742	0.609430	-0.000072
 727	7.2237e+01	11.0628	25.730200	0.000198	1.981665	0.671406	-0.000080
 728	7.2337e+01	10.9826	25.655656	0.000186	1.859716	0.630089	-0.000075
 729	7.2436e+01	10.9826	25.577446	0.000195	1.951177	0.661077	-0.000079
 730	7.2535e+01	10.9553	25.507383	0.000175	1.747930	0.592215	-0.000070
 731	7.2635e+01	10.8927	25.427951	0.000198	1.981665	0.671406	-0.000080
 732	7.2734e+01	10.8687	25.353815	0.000185	1.849554	0.626646	-0.000075
 733	7.2834e+01	10.8189	25.276420	0.000193	1.930853	0.654191	-0.000078
 734	7.2933e+01	10.7949	25.201062	0.000188	1.880041	0.636975	-0.000076
 735	7.3033e+01	10.7435	25.125703	0.000188	1.880041	0.636975	-0.000076
 736	7.3132e+01	10.6922	25.050345	0.000188	1.880041	0.636975	-0.000076
 737	7.3232e+01	10.6633	24.977023	0.000183	1.829229	0.619760	-0.000074
 738	7.3332e+01	10.6248	24.901258	0.000189	1.890203	0.640418	-0.000076
 739	7.3431e+01	10.5767	24.824270	0.000192	1.920690	0.650747	-0.000077
 740	7.3531e+01	10.5462	24.746060	0.000195	1.951177	0.661077	-0.000079
 741	7.3630e+01	10.5109	24.677626	0.000171	1.707280	0.578442	-0.000069
 742	7.3730e+01	10.4901	24.597380	0.000200	2.001989	0.678292	-0.000081
 743	7.3829e+01	10.4083	24.521614	0.000189	1.890203	0.640418	-0.000076
 744	7.3928e+01	10.4002	24.444627	0.000192	1.920690	0.650747	-0.000077
 745	7.4028e+01	10.3329	24.366417	0.000195	1.951177	0.661077	-0.000079
 746	7.4127e+01	10.2928	24.291873	0.000186	1.859716	0.630089	-0.000075
 747	7.4227e+01	10.2655	24.213663	0.000195	1.951177	0.661077	-0.000079
 748	7.4326e+01	10.2318	24.136676	0.000192	1.920690	0.650747	-0.000077
 749	7.4426e+01	10.1949	24.058873	0.000194	1.941015	0.657634	-0.000078
 750	7.4525e+01	10.1532	23.985144	0.000184	1.839391	0.623203	-0.000074
 751	7.4625e+01	10.1019	23.910193	0.000187	1.869878	0.633532	-0.000075
 752	7.4725e+01	10.0778	23.829947	0.000200	2.001989	0.678292	-0.000081
 753	7.4824e+01	10.0152	23.754588	0.000188	1.880041	0.636975	-0.000076
 754	7.4924e+01	9.9847	23.675156	0.000198	1.981665	0.671406	-0.000080
 755	7.5023e+01	9.9462	23.602649	0.000181	1.808904	0.612873	-0.000073
 756	7.5123e+01	9.9045	23.521996	0.000201	2.012152	0.681735	-0.000081
 757	7.5222e+01	9.8628	23.443379	0.000196	1.961340	0.664520	-0.000079
 758	7.5322e+01	9.8339	23.363947	0.000198	1.981665	0.671406	-0.000080
 759	7.5421e+01	9.7906	23.289810	0.000185	1.849554	0.626646	-0.000075
 760	7.5520e+01	9.7200	23.213637	0.000190	1.900366	0.643861	-0.000077
 761	7.5620e+01	9.7056	23.137057	0.000191	1.910528	0.647304	-0.000077
 762	7.5719e+01	9.6623	23.058847	0.000195	1.951177	0.661077	-0.000079
 763	7.5819e+01	9.6094	22.980230	0.000196	1.961340	0.664520	-0.000079
 764	7.5918e+01	9.5981	22.908538	0.000179	1.788579	0.605987	-0.000072
 765	7.6018e+01	9.5532	22.829921	0.000196	1.961340	0.664520	-0.000079
 766	7.6118e+01	9.5147	22.750082	0.000199	1.991827	0.674849	-0.000080
 767	7.6217e+01	9.4618	22.679204	0.000177	1.768255	0.599101	-0.000071
 768	7.6317e+01	9.4425	22.601401	0.000194	1.941015	0.657634	-0.000078
 769	7.6416e+01	9.3511	22.525636	0.000189	1.890203	0.640418	-0.000076
 770	7.6516e+01	9.3607	22.447426	-0.000195	-1.951177	-0.661077	-0.000079
 771	7.6615e+01	9.2981	22.365550	0.000204	2.042639	0.692065	-0.000082
 772	7.6715e+01	9.2837	22.293451	0.000180	1.798742	0.609430	-0.000072
 773	7.6814e+01	9.2404	22.217685	0.000189	1.890203	0.640418	-0.000076
 774	7.6913e+01	9.1955	22.144363	0.000183	1.829229	0.619760	-0.000074
 775	7.7013e+01	9.1489	22.064524	0.000199	1.991827	0.674849	-0.000080
 776	7.7112e+01	9.1040	21.990795	0.000184	1.839391	0.623203	-0.000074
 777	7.7212e+01	9.0655	21.921139	0.000174	1.737767	0.588772	-0.000070
 778	7.7311e+01	9.0399	21.845781	0.000188	1.880041	0.636975	-0.000076
 779	7.7411e+01	9.0046	21.767164	0.000196	1.961340	0.664520	-0.000079
 780	7.7510e+01	8.9420	21.690584	0.000191	1.910528	0.647304	-0.000077
 781	7.7610e+01	8.9147	21.613188	0.000193	1.930853	0.654191	-0.000078
 782	7.7710e+01	8.8522	21.534571	0.000196	1.961340	0.664520	-0.000079
 783	7.7809e+01	8.8201	21.455547	0.000197	1.971502	0.667963	-0.000079
 784	7.7909e+01	8.7976	21.378966	0.000191	1.910528	0.647304	-0.000077
 785	7.8008e+01	8.7431	21.299535	0.000198	1.981665	0.671406	-0.000080
 786	7.8108e+01	8.7062	21.224991	0.000186	1.859716	0.630089	-0.000075
 787	7.8207e+01	8.6661	21.143930	0.000202	2.022314	0.685179	-0.000081
 788	7.8306e+01	8.6356	21.068164	0.000189	1.890203	0.640418	-0.000076
 789	7.8406e+01	8.5923	20.983437	0.000211	2.113776	0.716167	-0.000085
 790	7.8505e+01	8.5233	20.908486	0.000187	1.869878	0.633532	-0.000075
 791	7.8605e+01	8.5072	20.831498	0.000192	1.920690	0.650747	-0.000077
 792	7.8704e+01	8.4479	20.745141	0.000215	2.154425	0.729939	-0.000087
 793	7.8804e+01	8.4447	20.661636	0.000208	2.083288	0.705837	-0.000084
 794	7.8903e+01	8.4078	20.583426	0.000195	1.951177	0.661077	-0.000079
 795	7.9003e+01	8.3629	20.500329	0.000207	2.073126	0.702394	-0.000084
 796	7.9103e+01	8.3115	20.422526	0.000194	1.941015	0.657634	-0.000078
 797	7.9202e+01	8.2554	20.337799	0.000211	2.113776	0.716167	-0.000085
 798	7.9302e+01	8.2313	20.253886	0.000209	2.093451	0.709280	-0.000084
 799	7.9401e+01	8.1864	20.175677	0.000195	1.951177	0.661077	-0.000079
 800	7.9501e+01	8.1511	20.090542	0.000212	2.123938	0.719610	-0.000086
 801	7.9600e+01	8.1190	20.006629	0.000209	2.093451	0.709280	-0.000084
 802	7.9700e+01	8.0837	19.924754	0.000204	2.042639	0.692065	-0.000082
 803	7.9799e+01	8.0372	19.839619	0.000212	2.123938	0.719610	-0.000086
 804	7.9898e+01	7.9891	19.758558	0.000202	2.022314	0.685179	-0.000081
 805	7.9998e+01	7.9361	19.672201	0.000215	2.154425	0.729939	-0.000087
 806	8.0097e+01	7.8960	19.586659	0.000213	2.134100	0.723053	-0.000086
 807	8.0197e+01	7.8768	19.505191	0.000203	2.032476	0.688622	-0.000082
 808	8.0296e+01	7.8575	19.422908	0.000205	2.052801	0.695508	-0.000083
 809	8.0396e+01	7.8046	19.338180	0.000211	2.113776	0.716167	-0.000085
 810	8.0496e+01	7.7597	19.254268	0.000209	2.093451	0.709280	-0.000084
 811	8.0595e+01	7.7244	19.173207	0.000202	2.022314	0.685179	-0.000081
 812	8.0695e+01	7.6763	19.086035	0.000217	2.174750	0.736825	-0.000088
 813	8.0794e+01	7.6297	19.004567	0.000203	2.032476	0.688622	-0.000082
 814	8.0894e+01	7.5976	18.916581	0.000220	2.195075	0.743711	-0.000088
 815	8.0993e+01	7.5704	18.832261	0.000210	2.103613	0.712723	-0.000085
 816	8.1093e+01	7.5174	18.750792	0.000203	2.032476	0.688622	-0.000082
 817	8.1192e+01	7.4661	18.664843	0.000214	2.144263	0.726496	-0.000086
 818	8.1291e+01	7.4228	18.575228	0.000224	2.235724	0.757484	-0.000090
 819	8.1391e+01	7.3939	18.492130	0.000207	2.073126	0.702394	-0.000084
 820	8.1490e+01	7.3618	18.403736	0.000221	2.205237	0.747155	-0.000089
 821	8.1590e+01	7.3089	18.319824	0.000209	2.093451	0.709280	-0.000084
 822	8.1689e+01	7.2800	18.233060	0.000216	2.164587	0.733382	-0.000087
 823	8.1789e+01	7.2319	18.144667	0.000221	2.205237	0.747155	-0.000089
 824	8.1888e+01	7.1902	18.058717	0.000214	2.144263	0.726496	-0.000086
 825	8.1988e+01	7.1677	17.971139	0.000218	2.184912	0.740268	-0.000088
 826	8.2088e+01	7.1324	17.892114	0.000197	1.971502	0.667963	-0.000079
 827	8.2187e+01	7.0506	17.799647	0.000231	2.306861	0.781586	-0.000093
 828	8.2287e+01	7.0281	17.710439	0.000223	2.225562	0.754041	-0.000090
 829	8.2386e+01	7.0089	17.625712	0.000211	2.113776	0.716167	-0.000085
 830	8.2486e+01	6.9511	17.542614	0.000207	2.073126	0.702394	-0.000084
 831	8.2585e+01	6.9014	17.452592	0.000225	2.245887	0.760927	-0.000090
 832	8.2684e+01	6.8485	17.363791	0.000222	2.215399	0.750598	-0.000089
 833	8.2784e+01	6.8469	17.271732	0.000230	2.296698	0.778142	-0.000093
 834	8.2883e+01	6.8100	17.189041	0.000206	2.062964	0.698951	-0.000083
 835	8.2983e+01	6.7506	17.102684	0.000215	2.154425	0.729939	-0.000087
 836	8.3082e+01	6.7185	17.012662	0.000225	2.245887	0.760927	-0.000090
 837	8.3182e+01	6.6832	16.922639	0.000225	2.245887	0.760927	-0.000090
 838	8.3281e+01	6.6447	16.841170	0.000203	2.032476	0.688622	-0.000082
 839	8.3381e+01	6.6030	16.751148	0.000225	2.245887	0.760927	-0.000090
 840	8.3481e+01	6.5693	16.663162	0.000220	2.195075	0.743711	-0.000088
 841	8.3580e+01	6.5180	16.578027	0.000212	2.123938	0.719610	-0.000086
 842	8.3680e+01	6.4731	16.486782	0.000228	2.276374	0.771256	-0.000092
 843	8.3779e+01	6.4073	16.407351	0.000198	1.981665	0.671406	-0.000080
 844	8.3879e+01	6.3929	16.316513	0.000227	2.266211	0.767813	-0.000091
 845	8.3978e+01	6.3608	16.227713	0.000222	2.215399	0.750598	-0.000089
 846	8.4078e+01	6.3271	16.136060	0.000229	2.286536	0.774699	-0.000092
 847	8.4177e+01	6.2838	16.047667	0.000221	2.205237	0.747155	-0.000089
 848	8.4276e+01	6.2501	15.963755	0.000209	2.093451	0.709280	-0.000084
 849	8.4376e+01	6.2020	15.869251	0.000236	2.357673	0.798801	-0.000095
 850	8.4475e+01	6.1619	15.772304	0.000242	2.418647	0.819460	-0.000097
 851	8.4575e+01	6.1057	15.685540	0.000216	2.164587	0.733382	-0.000087
 852	8.4674e+01	6.0945	15.590221	0.000238	2.377997	0.805687	-0.000096
 853	8.4774e+01	6.0351	15.497755	0.000231	2.306861	0.781586	-0.000093
 854	8.4874e+01	6.0079	15.408139	0.000224	2.235724	0.757484	-0.000090
 855	8.4973e+01	5.9469	15.316895	0.000228	2.276374	0.771256	-0.000092
 856	8.5073e+01	5.9292	15.226465	0.000226	2.256049	0.764370	-0.000091
 857	8.5172e+01	5.8715	15.133998	0.000231	2.306861	0.781586	-0.000093
 858	8.5272e+01	5.8442	15.038680	0.000238	2.377997	0.805687	-0.000096
 859	8.5371e+01	5.8073	14.943362	0.000238	2.377997	0.805687	-0.000096
 860	8.5471e+01	5.7512	14.849673	0.000234	2.337348	0.791915	-0.000094
 861	8.5570e+01	5.7303	14.756799	0.000232	2.317023	0.785029	-0.000093
 862	8.5669e+01	5.6838	14.662702	0.000235	2.347510	0.795358	-0.000095
 863	8.5769e+01	5.6629	14.571865	0.000227	2.266211	0.767813	-0.000091
 864	8.5868e+01	5.5779	14.476140	0.000239	2.388160	0.809130	-0.000096
 865	8.5968e+01	5.5779	14.387746	0.000221	2.205237	0.747155	-0.000089
 866	8.6067e+01	5.5378	14.288355	0.000248	2.479621	0.840118	-0.000100
 867	8.6167e+01	5.4849	14.197517	0.000227	2.266211	0.767813	-0.000091
 868	8.6266e+01	5.4271	14.108309	0.000223	2.225562	0.754041	-0.000090
 869	8.6366e+01	5.4271	14.015435	0.000232	2.317023	0.785029	-0.000093
 870	8.6466e+01	5.3694	13.917266	0.000245	2.449134	0.829789	-0.000099
 871	8.6565e+01	5.3373	13.828058	0.000223	2.225562	0.754041	-0.000090
 872	8.6665e+01	5.2763	13.734369	0.000234	2.337348	0.791915	-0.000094
 873	8.6764e+01	5.2282	13.642717	0.000229	2.286536	0.774699	-0.000092
 874	8.6864e+01	5.2122	13.549435	0.000233	2.327186	0.788472	-0.000094
 875	8.6963e+01	5.1753	13.456561	0.000232	2.317023	0.785029	-0.000093
 876	8.7063e+01	5.1351	13.366946	0.000224	2.235724	0.757484	-0.000090
 877	8.7162e+01	5.0934	13.272035	0.000237	2.367835	0.802244	-0.000095
 878	8.7261e+01	5.0614	13.186086	0.000214	2.144263	0.726496	-0.000086
 879	8.7361e+01	4.9940	13.089546	0.000241	2.408485	0.816017	-0.000097
 880	8.7460e+01	4.9699	13.003189	0.000215	2.154425	0.729939	-0.000087
 881	8.7560e+01	4.9298	12.907463	0.000239	2.388160	0.809130	-0.000096
 882	8.7659e+01	4.8993	12.820699	0.000216	2.164587	0.733382	-0.000087
 883	8.7759e+01	4.8496	12.728640	0.000230	2.296698	0.778142	-0.000093
 884	8.7859e+01	4.8352	12.636581	0.000230	2.296698	0.778142	-0.000093
 885	8.7958e+01	4.7662	12.544114	0.000231	2.306861	0.781586	-0.000093
 886	8.8058e+01	4.7437	12.453684	0.000226	2.256049	0.764370	-0.000091
 887	8.8157e+01	4.6795	12.359995	0.000234	2.337348	0.791915	-0.000094
 888	8.8257e+01	4.6410	12.272009	0.000220	2.195075	0.743711	-0.000088
 889	8.8356e+01	4.6009	12.177098	0.000237	2.367835	0.802244	-0.000095
 890	8.8456e+01	4.5656	12.086261	0.000227	2.266211	0.767813	-0.000091
 891	8.8555e+01	4.5384	11.991350	0.000237	2.367835	0.802244	-0.000095
 892	8.8654e+01	4.4806	11.904586	0.000216	2.164587	0.733382	-0.000087
 893	8.8754e+01	4.4501	11.809675	0.000237	2.367835	0.802244	-0.000095
 894	8.8853e+01	4.4020	11.720467	0.000223	2.225562	0.754041	-0.000090
 895	8.8953e+01	4.3731	11.624334	0.000240	2.398322	0.812574	-0.000097
 896	8.9052e+01	4.3346	11.538792	0.000213	2.134100	0.723053	-0.000086
 897	8.9152e+01	4.2801	11.443067	0.000239	2.388160	0.809130	-0.000096
 898	8.9251e+01	4.2480	11.346119	0.000242	2.418647	0.819460	-0.000097
 899	8.9351e+01	4.1935	11.253245	0.000232	2.317023	0.785029	-0.000093
 900	8.9451e+01	4.1806	11.157927	0.000238	2.377997	0.805687	-0.000096
 901	8.9550e+01	4.1453	11.071978	0.000214	2.144263	0.726496	-0.000086
 902	8.9650e+01	4.0780	10.975845	0.000240	2.398322	0.812574	-0.000097
 903	8.9749e+01	4.0603	10.881342	0.000236	2.357673	0.798801	-0.000095
 904	8.9849e+01	4.0234	10.787653	0.000234	2.337348	0.791915	-0.000094
 905	8.9948e+01	3.9512	10.701704	0.000214	2.144263	0.726496	-0.000086
 906	9.0047e+01	3.9304	10.602719	0.000247	2.469459	0.836675	-0.000099
 907	9.0147e+01	3.8871	10.511882	0.000227	2.266211	0.767813	-0.000091
 908	9.0246e+01	3.8550	10.418193	0.000234	2.337348	0.791915	-0.000094
 909	9.0346e+01	3.8020	10.328985	0.000223	2.225562	0.754041	-0.000090
 910	9.0445e+01	3.7764	10.234482	0.000236	2.357673	0.798801	-0.000095
 911	9.0545e+01	3.7330	10.143644	0.000227	2.266211	0.767813	-0.000091
 912	9.0644e+01	3.6801	10.043438	0.000250	2.499946	0.847005	-0.000101
 913	9.0744e+01	3.6416	9.959118	0.000210	2.103613	0.712723	-0.000085
 914	9.0844e+01	3.6015	9.859726	0.000248	2.479621	0.840118	-0.000100
 915	9.0943e+01	3.5710	9.765223	0.000236	2.357673	0.798801	-0.000095
 916	9.1043e+01	3.5309	9.673571	0.000229	2.286536	0.774699	-0.000092
 917	9.1142e+01	3.5052	9.584363	0.000223	2.225562	0.754041	-0.000090
 918	9.1242e+01	3.4363	9.491081	0.000233	2.327186	0.788472	-0.000094
 919	9.1341e+01	3.4170	9.393319	0.000244	2.438972	0.826346	-0.000098
 920	9.1441e+01	3.3528	9.295557	0.000244	2.438972	0.826346	-0.000098
 921	9.1540e+01	3.3159	9.201461	0.000235	2.347510	0.795358	-0.000095
 922	9.1639e+01	3.2839	9.106957	0.000236	2.357673	0.798801	-0.000095
 923	9.1739e+01	3.2422	9.012861	0.000235	2.347510	0.795358	-0.000095
 924	9.1838e+01	3.2117	8.922024	0.000227	2.266211	0.767813	-0.000091
 925	9.1938e+01	3.1764	8.827113	0.000237	2.367835	0.802244	-0.000095
 926	9.2037e+01	3.1459	8.730166	0.000242	2.418647	0.819460	-0.000097
 927	9.2137e+01	3.0849	8.633218	0.000242	2.418647	0.819460	-0.000097
 928	9.2237e+01	3.0593	8.535048	0.000245	2.449134	0.829789	-0.000099
 929	9.2336e+01	3.0272	8.444211	0.000227	2.266211	0.767813	-0.000091
 930	9.2436e+01	2.9807	8.348486	0.000239	2.388160	0.809130	-0.000096
 931	9.2535e+01	2.9293	8.247465	0.000252	2.520271	0.853891	-0.000102
 932	9.2635e+01	2.9005	8.157442	0.000225	2.245887	0.760927	-0.000090
 933	9.2734e+01	2.8491	8.062938	0.000236	2.357673	0.798801	-0.000095
 934	9.2834e+01	2.8106	7.969657	0.000233	2.327186	0.788472	-0.000094
 935	9.2933e+01	2.7689	7.880042	0.000224	2.235724	0.757484	-0.000090
 936	9.3032e+01	2.7095	7.782687	0.000243	2.428809	0.822903	-0.000098
 937	9.3132e+01	2.7160	7.686554	-0.000240	-2.398322	-0.812574	-0.000097
 938	9.3231e+01	2.6390	7.596124	0.000226	2.256049	0.764370	-0.000091
 939	9.3331e+01	2.6069	7.497954	0.000245	2.449134	0.829789	-0.000099
 940	9.3430e+01	2.5780	7.407932	0.000225	2.245887	0.760927	-0.000090
 941	9.3530e+01	2.5475	7.308947	0.000247	2.469459	0.836675	-0.000099
 942	9.3629e+01	2.5026	7.216481	0.000231	2.306861	0.781586	-0.000093
 943	9.3729e+01	2.4384	7.122792	0.000234	2.337348	0.791915	-0.000094
 944	9.3829e+01	2.4112	7.034399	0.000221	2.205237	0.747155	-0.000089
 945	9.3928e+01	2.3759	6.935822	0.000246	2.459297	0.833232	-0.000099
 946	9.4028e+01	2.3342	6.841318	0.000236	2.357673	0.798801	-0.000095
 947	9.4127e+01	2.2828	6.743963	0.000243	2.428809	0.822903	-0.000098
 948	9.4227e+01	2.2780	6.653533	0.000226	2.256049	0.764370	-0.000091
 949	9.4326e+01	2.2187	6.555364	0.000245	2.449134	0.829789	-0.000099
 950	9.4425e+01	2.1994	6.460453	0.000237	2.367835	0.802244	-0.000095
 951	9.4525e+01	2.1561	6.361061	0.000248	2.479621	0.840118	-0.000100
 952	9.4624e+01	2.0887	6.260448	0.000251	2.510108	0.850448	-0.000101
 953	9.4724e+01	2.0614	6.171647	0.000222	2.215399	0.750598	-0.000089
 954	9.4823e+01	2.0181	6.069811	0.000254	2.540596	0.860777	-0.000102
 955	9.4923e+01	1.9588	5.972864	0.000242	2.418647	0.819460	-0.000097
 956	9.5022e+01	1.9042	5.869399	0.000258	2.581245	0.874550	-0.000104
 957	9.5122e+01	1.9122	5.779376	-0.000225	-2.245887	-0.760927	-0.000090
 958	9.5222e+01	1.8465	5.676318	0.000257	2.571083	0.871106	-0.000104
 959	9.5321e+01	1.8176	5.580593	0.000239	2.388160	0.809130	-0.000096
 960	9.5421e+01	1.7823	5.478350	0.000255	2.550758	0.864220	-0.000103
 961	9.5520e+01	1.7326	5.379366	0.000247	2.469459	0.836675	-0.000099
 962	9.5620e+01	1.6893	5.281196	0.000245	2.449134	0.829789	-0.000099
 963	9.5719e+01	1.6556	5.181805	0.000248	2.479621	0.840118	-0.000100
 964	9.5819e+01	1.6219	5.073859	0.000269	2.693031	0.912424	-0.000108
 965	9.5918e+01	1.5738	4.974060	0.000249	2.489784	0.843562	-0.000100
 966	9.6017e+01	1.5353	4.877927	0.000240	2.398322	0.812574	-0.000097
 967	9.6117e+01	1.5128	4.773647	0.000260	2.601570	0.881436	-0.000105
 968	9.6216e+01	1.4711	4.667738	0.000264	2.642219	0.895208	-0.000106
 969	9.6316e+01	1.4230	4.566717	0.000252	2.520271	0.853891	-0.000102
 970	9.6415e+01	1.3684	4.467733	0.000247	2.469459	0.836675	-0.000099
 971	9.6515e+01	1.3283	4.366305	0.000253	2.530433	0.857334	-0.000102
 972	9.6615e+01	1.2850	4.262432	0.000259	2.591408	0.877993	-0.000104
 973	9.6714e+01	1.2738	4.157338	0.000262	2.621895	0.888322	-0.000106
 974	9.6814e+01	1.2321	4.053058	0.000260	2.601570	0.881436	-0.000105
 975	9.6913e+01	1.1727	3.956518	0.000241	2.408485	0.816017	-0.000097
 976	9.7013e+01	1.1438	3.845721	0.000276	2.764168	0.936525	-0.000111
 977	9.7112e+01	1.0845	3.743478	0.000255	2.550758	0.864220	-0.000103
 978	9.7212e+01	1.0492	3.641235	0.000255	2.550758	0.864220	-0.000103
 979	9.7311e+01	1.0251	3.536141	0.000262	2.621895	0.888322	-0.000106
 980	9.7410e+01	0.9561	3.432268	0.000259	2.591408	0.877993	-0.000104
 981	9.7510e+01	0.9401	3.328396	0.000259	2.591408	0.877993	-0.000104
 982	9.7609e+01	0.8984	3.225746	0.000256	2.560920	0.867663	-0.000103
 983	9.7709e+01	0.8486	3.121873	0.000259	2.591408	0.877993	-0.000104
 984	9.7808e+01	0.8069	3.019630	0.000255	2.550758	0.864220	-0.000103
 985	9.7908e+01	0.8021	2.912907	0.000266	2.662544	0.902094	-0.000107
 986	9.8007e+01	0.7428	2.799665	0.000283	2.825142	0.957184	-0.000114
 987	9.8107e+01	0.6914	2.700274	0.000248	2.479621	0.840118	-0.000100
 988	9.8207e+01	0.6706	2.599660	0.000251	2.510108	0.850448	-0.000101
 989	9.8306e+01	0.6048	2.490085	0.000273	2.733681	0.926196	-0.000110
 990	9.8406e+01	0.6112	2.384583	-0.000263	-2.632057	-0.891765	-0.000106
 991	9.8505e+01	0.5454	2.278267	0.000265	2.652382	0.898651	-0.000107
 992	9.8605e+01	0.4893	2.177653	0.000251	2.510108	0.850448	-0.000101
 993	9.8704e+01	0.4636	2.066041	0.000278	2.784493	0.943412	-0.000112
 994	9.8803e+01	0.4251	1.959318	0.000266	2.662544	0.902094	-0.000107
 995	9.8903e+01	0.3738	1.857889	0.000253	2.530433	0.857334	-0.000102
 996	9.9002e+01	0.3385	1.743833	0.000285	2.845467	0.964070	-0.000115
 997	9.9102e+01	0.2775	1.644442	0.000248	2.479621	0.840118	-0.000100
 998	9.9201e+01	0.2374	1.538940	0.000263	2.632057	0.891765	-0.000106
 999	9.9301e+01	0.2230	1.430180	0.000271	2.713356	0.919310	-0.000109
1000	9.9400e+01	0.1717	1.319790	0.000275	2.754006	0.933082	-0.000111
1001	9.9500e+01	0.1412	1.221620	0.000245	2.449134	0.829789	-0.000099
1002	9.9600e+01	0.0930	1.106342	0.000288	2.875954	0.974400	-0.000116
1003	9.9699e+01	0.0786	1.004507	0.000254	2.540596	0.860777	-0.000102
1004	9.9799e+01	0.0096	0.892895	0.000278	2.784493	0.943412	-0.000112
1005	9.9898e+01	-0.0225	0.811834	0.000202	2.022314	0.685179	-0.000081
1006	9.9998e+01	-0.0449	0.705517	0.000265	2.652382	0.898651	-0.000107
1007	1.0010e+02	-0.0930	0.603274	0.000255	2.550758	0.864220	-0.000103
1008	1.0020e+02	-0.1283	0.492477	0.000276	2.764168	0.936525	-0.000111
1009	1.0030e+02	-0.1684	0.388605	0.000259	2.591408	0.877993	-0.000104
1010	1.0040e+02	-0.2214	0.280252	0.000270	2.703194	0.915867	-0.000109
1011	1.0050e+02	-0.2519	0.175972	0.000260	2.601570	0.881436	-0.000105
1012	1.0059e+02	-0.2968	0.063545	0.000280	2.804818	0.950298	-0.000113
1013	1.0069e+02	-0.3225	-0.039512	0.000257	2.571083	0.871106	-0.000104
1014	1.0079e+02	-0.3722	-0.149087	0.000273	2.733681	0.926196	-0.000110
1015	1.0089e+02	-0.4315	-0.251330	0.000255	2.550758	0.864220	-0.000103
1016	1.0099e+02	-0.4380	-0.361720	0.000275	2.754006	0.933082	-0.000111
1017	1.0109e+02	-0.4845	-0.472110	0.000275	2.754006	0.933082	-0.000111
1018	1.0119e+02	-0.5503	-0.583315	0.000277	2.774330	0.939969	-0.000112
1019	1.0129e+02	-0.5679	-0.688816	0.000263	2.632057	0.891765	-0.000106
1020	1.0139e+02	-0.5968	-0.799613	0.000276	2.764168	0.936525	-0.000111
1021	1.0149e+02	-0.6481	-0.910003	0.000275	2.754006	0.933082	-0.000111
1022	1.0159e+02	-0.6722	-1.019171	0.000272	2.723518	0.922753	-0.000110
1023	1.0169e+02	-0.7219	-1.118155	0.000247	2.469459	0.836675	-0.000099
1024	1.0179e+02	-0.7797	-1.230582	0.000280	2.804818	0.950298	-0.000113
1025	1.0189e+02	-0.7973	-1.339342	0.000271	2.713356	0.919310	-0.000109
1026	1.0199e+02	-0.8647	-1.453398	0.000285	2.845467	0.964070	-0.000115
1027	1.0209e+02	-0.8743	-1.560529	0.000267	2.672707	0.905538	-0.000108
1028	1.0219e+02	-0.9321	-1.676215	0.000289	2.886117	0.977843	-0.000116
1029	1.0229e+02	-0.9802	-1.789048	0.000281	2.814980	0.953741	-0.000113
1030	1.0239e+02	-1.0010	-1.899846	0.000276	2.764168	0.936525	-0.000111
1031	1.0248e+02	-1.0267	-2.010235	0.000275	2.754006	0.933082	-0.000111
1032	1.0258e+02	-1.0668	-2.112071	0.000254	2.540596	0.860777	-0.000102
1033	1.0268e+02	-1.1534	-2.222461	0.000275	2.754006	0.933082	-0.000111
1034	1.0278e+02	-1.1759	-2.327148	0.000261	2.611732	0.884879	-0.000105
1035	1.0288e+02	-1.1839	-2.442019	0.000287	2.865792	0.970957	-0.000115
1036	1.0298e+02	-1.2561	-2.541003	0.000247	2.469459	0.836675	-0.000099
1037	1.0308e+02	-1.2609	-2.653022	0.000279	2.794655	0.946855	-0.000113
1038	1.0318e+02	-1.3251	-2.759746	0.000266	2.662544	0.902094	-0.000107
1039	1.0328e+02	-1.3845	-2.867284	0.000268	2.682869	0.908981	-0.000108
1040	1.0338e+02	-1.4085	-2.976045	0.000271	2.713356	0.919310	-0.000109
1041	1.0348e+02	-1.4406	-3.080324	0.000260	2.601570	0.881436	-0.000105
1042	1.0358e+02	-1.4759	-3.184197	0.000259	2.591408	0.877993	-0.000104
1043	1.0368e+02	-1.5336	-3.287254	0.000257	2.571083	0.871106	-0.000104
1044	1.0378e+02	-1.5641	-3.392349	0.000262	2.621895	0.888322	-0.000106
1045	1.0388e+02	-1.5962	-3.496221	0.000259	2.591408	0.877993	-0.000104
1046	1.0398e+02	-1.6411	-3.604982	0.000271	2.713356	0.919310	-0.000109
1047	1.0408e+02	-1.6764	-3.706817	0.000254	2.540596	0.860777	-0.000102
1048	1.0418e+02	-1.7438	-3.809468	0.000256	2.560920	0.867663	-0.000103
1049	1.0428e+02	-1.7566	-3.908044	0.000246	2.459297	0.833232	-0.000099
1050	1.0438e+02	-1.7967	-4.015176	0.000267	2.672707	0.905538	-0.000108
1051	1.0447e+02	-1.8224	-4.120270	0.000262	2.621895	0.888322	-0.000106
1052	1.0457e+02	-1.8946	-4.218847	0.000246	2.459297	0.833232	-0.000099
1053	1.0467e+02	-1.9042	-4.326793	0.000269	2.693031	0.912424	-0.000108
1054	1.0477e+02	-1.9443	-4.423740	0.000242	2.418647	0.819460	-0.000097
1055	1.0487e+02	-2.0069	-4.523132	0.000248	2.479621	0.840118	-0.000100
1056	1.0497e+02	-2.0326	-4.634336	0.000277	2.774330	0.939969	-0.000112
1057	1.0507e+02	-2.0935	-4.733728	0.000248	2.479621	0.840118	-0.000100
1058	1.0517e+02	-2.1096	-4.836378	0.000256	2.560920	0.867663	-0.000103
1059	1.0527e+02	-2.1561	-4.937806	0.000253	2.530433	0.857334	-0.000102
1060	1.0537e+02	-2.2042	-5.037198	0.000248	2.479621	0.840118	-0.000100
1061	1.0547e+02	-2.2507	-5.135368	0.000245	2.449134	0.829789	-0.000099
1062	1.0557e+02	-2.2908	-5.239647	0.000260	2.601570	0.881436	-0.000105
1063	1.0567e+02	-2.3261	-5.337002	0.000243	2.428809	0.822903	-0.000098
1064	1.0577e+02	-2.3630	-5.442096	0.000262	2.621895	0.888322	-0.000106
1065	1.0587e+02	-2.4176	-5.543525	0.000253	2.530433	0.857334	-0.000102
1066	1.0597e+02	-2.4352	-5.645360	0.000254	2.540596	0.860777	-0.000102
1067	1.0607e+02	-2.4625	-5.731717	0.000215	2.154425	0.729939	-0.000087
1068	1.0617e+02	-2.5202	-5.842107	0.000275	2.754006	0.933082	-0.000111
1069	1.0627e+02	-2.5443	-5.934981	0.000232	2.317023	0.785029	-0.000093
1070	1.0637e+02	-2.5908	-6.038039	0.000257	2.571083	0.871106	-0.000104
1071	1.0647e+02	-2.6117	-6.132135	0.000235	2.347510	0.795358	-0.000095
1072	1.0656e+02	-2.6582	-6.233970	0.000254	2.540596	0.860777	-0.000102
1073	1.0666e+02	-2.7256	-6.330103	0.000240	2.398322	0.812574	-0.000097
1074	1.0676e+02	-2.7785	-6.431124	0.000252	2.520271	0.853891	-0.000102
1075	1.0686e+02	-2.7914	-6.527257	0.000240	2.398322	0.812574	-0.000097
1076	1.0696e+02	-2.8315	-6.625427	0.000245	2.449134	0.829789	-0.000099
1077	1.0706e+02	-2.8732	-6.715857	0.000226	2.256049	0.764370	-0.000091
1078	1.0716e+02	-2.9085	-6.816063	0.000250	2.499946	0.847005	-0.000101
1079	1.0726e+02	-2.9662	-6.924009	0.000269	2.693031	0.912424	-0.000108
1080	1.0736e+02	-3.0031	-7.012402	0.000221	2.205237	0.747155	-0.000089
1081	1.0746e+02	-3.0400	-7.113830	0.000253	2.530433	0.857334	-0.000102
1082	1.0756e+02	-3.0561	-7.209556	0.000239	2.388160	0.809130	-0.000096
1083	1.0766e+02	-3.1202	-7.303245	0.000234	2.337348	0.791915	-0.000094
1084	1.0776e+02	-3.1571	-7.401007	0.000244	2.438972	0.826346	-0.000098
1085	1.0786e+02	-3.1828	-7.494696	0.000234	2.337348	0.791915	-0.000094
1086	1.0796e+02	-3.2518	-7.592865	0.000245	2.449134	0.829789	-0.000099
1087	1.0806e+02	-3.2903	-7.691035	0.000245	2.449134	0.829789	-0.000099
1088	1.0816e+02	-3.3288	-7.781057	0.000225	2.245887	0.760927	-0.000090
1089	1.0826e+02	-3.3817	-7.880449	0.000248	2.479621	0.840118	-0.000100
1090	1.0836e+02	-3.3946	-7.970472	0.000225	2.245887	0.760927	-0.000090
1091	1.0845e+02	-3.4379	-8.073122	0.000256	2.560920	0.867663	-0.000103
1092	1.0855e+02	-3.4908	-8.163552	0.000226	2.256049	0.764370	-0.000091
1093	1.0865e+02	-3.5261	-8.258870	0.000238	2.377997	0.805687	-0.000096
1094	1.0875e+02	-3.5389	-8.349300	0.000226	2.256049	0.764370	-0.000091
1095	1.0885e+02	-3.5887	-8.451136	0.000254	2.540596	0.860777	-0.000102
1096	1.0895e+02	-3.6400	-8.541566	0.000226	2.256049	0.764370	-0.000091
1097	1.0905e+02	-3.6994	-8.636477	0.000237	2.367835	0.802244	-0.000095
1098	1.0915e+02	-3.7234	-8.728536	0.000230	2.296698	0.778142	-0.000093
1099	1.0925e+02	-3.7443	-8.823040	0.000236	2.357673	0.798801	-0.000095
1100	1.0935e+02	-3.7812	-8.913062	0.000225	2.245887	0.760927	-0.000090
1101	1.0945e+02	-3.8566	-9.001456	0.000221	2.205237	0.747155	-0.000089
1102	1.0955e+02	-3.8710	-9.094737	0.000233	2.327186	0.788472	-0.000094
1103	1.0965e+02	-3.9336	-9.188426	0.000234	2.337348	0.791915	-0.000094
1104	1.0975e+02	-3.9705	-9.279671	0.000228	2.276374	0.771256	-0.000092
1105	1.0985e+02	-3.9961	-9.367249	0.000218	2.184912	0.740268	-0.000088
1106	1.0995e+02	-4.0362	-9.462975	0.000239	2.388160	0.809130	-0.000096
1107	1.1005e+02	-4.0780	-9.550961	0.000220	2.195075	0.743711	-0.000088
1108	1.1015e+02	-4.1245	-9.642613	0.000229	2.286536	0.774699	-0.000092
1109	1.1025e+02	-4.1710	-9.732636	0.000225	2.245887	0.760927	-0.000090
1110	1.1035e+02	-4.1983	-9.824695	0.000230	2.296698	0.778142	-0.000093
1111	1.1044e+02	-4.2416	-9.905349	0.000201	2.012152	0.681735	-0.000081
1112	1.1054e+02	-4.2641	-9.993742	0.000221	2.205237	0.747155	-0.000089
1113	1.1064e+02	-4.3058	-10.082543	0.000222	2.215399	0.750598	-0.000089
1114	1.1074e+02	-4.3651	-10.171751	0.000223	2.225562	0.754041	-0.000090
1115	1.1084e+02	-4.3940	-10.257700	0.000214	2.144263	0.726496	-0.000086
1116	1.1094e+02	-4.4181	-10.354240	0.000241	2.408485	0.816017	-0.000097
1117	1.1104e+02	-4.4662	-10.441819	0.000218	2.184912	0.740268	-0.000088
1118	1.1114e+02	-4.5191	-10.531842	0.000225	2.245887	0.760927	-0.000090
1119	1.1124e+02	-4.5464	-10.614940	0.000207	2.073126	0.702394	-0.000084
1120	1.1134e+02	-4.5833	-10.706592	0.000229	2.286536	0.774699	-0.000092
1121	1.1144e+02	-4.6298	-10.799466	0.000232	2.317023	0.785029	-0.000093
1122	1.1154e+02	-4.6651	-10.886637	0.000217	2.174750	0.736825	-0.000088
1123	1.1164e+02	-4.7229	-10.974623	0.000220	2.195075	0.743711	-0.000088
1124	1.1174e+02	-4.7469	-11.063016	0.000221	2.205237	0.747155	-0.000089
1125	1.1184e+02	-4.7790	-11.155890	0.000232	2.317023	0.785029	-0.000093
1126	1.1194e+02	-4.8368	-11.246321	0.000226	2.256049	0.764370	-0.000091
1127	1.1204e+02	-4.8881	-11.331455	0.000212	2.123938	0.719610	-0.000086
1128	1.1214e+02	-4.9186	-11.430847	0.000248	2.479621	0.840118	-0.000100
1129	1.1224e+02	-4.9539	-11.509871	0.000197	1.971502	0.667963	-0.000079
1130	1.1234e+02	-5.0052	-11.606819	0.000242	2.418647	0.819460	-0.000097
1131	1.1244e+02	-5.0277	-11.700100	0.000233	2.327186	0.788472	-0.000094
1132	1.1253e+02	-5.0790	-11.790530	0.000226	2.256049	0.764370	-0.000091
1133	1.1263e+02	-5.1255	-11.875257	0.000211	2.113776	0.716167	-0.000085
1134	1.1273e+02	-5.1528	-11.970576	0.000238	2.377997	0.805687	-0.000096
1135	1.1283e+02	-5.1801	-12.059784	0.000223	2.225562	0.754041	-0.000090
1136	1.1293e+02	-5.2170	-12.143696	0.000209	2.093451	0.709280	-0.000084
1137	1.1303e+02	-5.2763	-12.233719	0.000225	2.245887	0.760927	-0.000090
1138	1.1313e+02	-5.3036	-12.329852	0.000240	2.398322	0.812574	-0.000097
1139	1.1323e+02	-5.3469	-12.422318	0.000231	2.306861	0.781586	-0.000093
1140	1.1333e+02	-5.3822	-12.507453	0.000212	2.123938	0.719610	-0.000086
1141	1.1343e+02	-5.4367	-12.601549	0.000235	2.347510	0.795358	-0.000095
1142	1.1353e+02	-5.4624	-12.687498	0.000214	2.144263	0.726496	-0.000086
1143	1.1363e+02	-5.5137	-12.779151	0.000229	2.286536	0.774699	-0.000092
1144	1.1373e+02	-5.5442	-12.867951	0.000222	2.215399	0.750598	-0.000089
1145	1.1383e+02	-5.6068	-12.962862	0.000237	2.367835	0.802244	-0.000095
1146	1.1393e+02	-5.6212	-13.048404	0.000213	2.134100	0.723053	-0.000086
1147	1.1403e+02	-5.6790	-13.138427	0.000225	2.245887	0.760927	-0.000090
1148	1.1413e+02	-5.7030	-13.223154	0.000211	2.113776	0.716167	-0.000085
1149	1.1423e+02	-5.7544	-13.320101	0.000242	2.418647	0.819460	-0.000097
1150	1.1433e+02	-5.8153	-13.406865	0.000216	2.164587	0.733382	-0.000087
1151	1.1442e+02	-5.8330	-13.494444	0.000218	2.184912	0.740268	-0.000088
1152	1.1452e+02	-5.8538	-13.584059	0.000224	2.235724	0.757484	-0.000090
1153	1.1462e+02	-5.8715	-13.672860	0.000222	2.215399	0.750598	-0.000089
1154	1.1472e+02	-5.9694	-13.764512	0.000229	2.286536	0.774699	-0.000092
1155	1.1482e+02	-6.0207	-13.849239	0.000211	2.113776	0.716167	-0.000085
1156	1.1492e+02	-6.0223	-13.942521	0.000233	2.327186	0.788472	-0.000094
1157	1.1502e+02	-6.0865	-14.031729	0.000223	2.225562	0.754041	-0.000090
1158	1.1512e+02	-6.1073	-14.122566	0.000227	2.266211	0.767813	-0.000091
1159	1.1522e+02	-6.1362	-14.208108	0.000213	2.134100	0.723053	-0.000086
1160	1.1532e+02	-6.1907	-14.296502	0.000221	2.205237	0.747155	-0.000089
1161	1.1542e+02	-6.2132	-14.386524	0.000225	2.245887	0.760927	-0.000090
1162	1.1552e+02	-6.2822	-14.477362	0.000227	2.266211	0.767813	-0.000091
1163	1.1562e+02	-6.2934	-14.565348	0.000220	2.195075	0.743711	-0.000088
1164	1.1572e+02	-6.3528	-14.654148	0.000222	2.215399	0.750598	-0.000089
1165	1.1582e+02	-6.4057	-14.740912	0.000216	2.164587	0.733382	-0.000087
1166	1.1592e+02	-6.4314	-14.835823	0.000237	2.367835	0.802244	-0.000095
1167	1.1602e+02	-6.5020	-14.911589	0.000189	1.890203	0.640418	-0.000076
1168	1.1612e+02	-6.5036	-14.999982	0.000221	2.205237	0.747155	-0.000089
1169	1.1622e+02	-6.5260	-15.085931	0.000214	2.144263	0.726496	-0.000086
1170	1.1632e+02	-6.5902	-15.173917	0.000220	2.195075	0.743711	-0.000088
1171	1.1642e+02	-6.6319	-15.263125	0.000223	2.225562	0.754041	-0.000090
1172	1.1651e+02	-6.6688	-15.353555	0.000226	2.256049	0.764370	-0.000091
1173	1.1661e+02	-6.7185	-15.433802	0.000200	2.001989	0.678292	-0.000081
1174	1.1671e+02	-6.7442	-15.524232	0.000226	2.256049	0.764370	-0.000091
1175	1.1681e+02	-6.7827	-15.611403	0.000217	2.174750	0.736825	-0.000088
1176	1.1691e+02	-6.8356	-15.698167	0.000216	2.164587	0.733382	-0.000087
1177	1.1701e+02	-6.8549	-15.785339	0.000217	2.174750	0.736825	-0.000088
1178	1.1711e+02	-6.8934	-15.875769	0.000226	2.256049	0.764370	-0.000091
1179	1.1721e+02	-6.9303	-15.962125	0.000215	2.154425	0.729939	-0.000087
1180	1.1731e+02	-6.9736	-16.048889	0.000216	2.164587	0.733382	-0.000087
1181	1.1741e+02	-7.0137	-16.135246	0.000215	2.154425	0.729939	-0.000087
1182	1.1751e+02	-7.0378	-16.223639	0.000221	2.205237	0.747155	-0.000089
1183	1.1761e+02	-7.0843	-16.316106	0.000231	2.306861	0.781586	-0.000093
1184	1.1771e+02	-7.1324	-16.401648	0.000213	2.134100	0.723053	-0.000086
1185	1.1781e+02	-7.1950	-16.494522	0.000232	2.317023	0.785029	-0.000093
1186	1.1791e+02	-7.2223	-16.577212	0.000206	2.062964	0.698951	-0.000083
1187	1.1801e+02	-7.2624	-16.668865	0.000229	2.286536	0.774699	-0.000092
1188	1.1811e+02	-7.3089	-16.753592	0.000211	2.113776	0.716167	-0.000085
1189	1.1821e+02	-7.3506	-16.847688	0.000235	2.347510	0.795358	-0.000095
1190	1.1831e+02	-7.3779	-16.927527	0.000199	1.991827	0.674849	-0.000080
1191	1.1841e+02	-7.4148	-17.021623	0.000235	2.347510	0.795358	-0.000095
1192	1.1850e+02	-7.4677	-17.105943	0.000210	2.103613	0.712723	-0.000085
1193	1.1860e+02	-7.4677	-17.203298	0.000243	2.428809	0.822903	-0.000098
1194	1.1870e+02	-7.5303	-17.290469	0.000217	2.174750	0.736825	-0.000088
1195	1.1880e+02	-7.5960	-17.373567	0.000207	2.073126	0.702394	-0.000084
1196	1.1890e+02	-7.6073	-17.464405	0.000227	2.266211	0.767813	-0.000091
1197	1.1900e+02	-7.6394	-17.555242	0.000227	2.266211	0.767813	-0.000091
1198	1.1910e+02	-7.6923	-17.642413	0.000217	2.174750	0.736825	-0.000088
1199	1.1920e+02	-7.7196	-17.727548	0.000212	2.123938	0.719610	-0.000086
1200	1.1930e+02	-7.7853	-17.811868	0.000210	2.103613	0.712723	-0.000085
1201	1.1940e+02	-7.8014	-17.904742	0.000232	2.317023	0.785029	-0.000093
1202	1.1950e+02	-7.8495	-17.991098	0.000215	2.154425	0.729939	-0.000087
1203	1.1960e+02	-7.8864	-18.080306	0.000223	2.225562	0.754041	-0.000090
1204	1.1970e+02	-7.9377	-18.164626	0.000210	2.103613	0.712723	-0.000085
1205	1.1980e+02	-7.9907	-18.253834	0.000223	2.225562	0.754041	-0.000090
1206	1.1990e+02	-8.0196	-18.338969	0.000212	2.123938	0.719610	-0.000086
1207	1.2000e+02	-8.0468	-18.422474	0.000208	2.083288	0.705837	-0.000084
1208	1.2010e+02	-8.0901	-18.505165	0.000206	2.062964	0.698951	-0.000083
1209	1.2020e+02	-8.1543	-18.589485	0.000210	2.103613	0.712723	-0.000085
1210	1.2030e+02	-8.1720	-18.675434	0.000214	2.144263	0.726496	-0.000086
1211	1.2039e+02	-8.2024	-18.760976	0.000213	2.134100	0.723053	-0.000086
1212	1.2049e+02	-8.2714	-18.842444	0.000203	2.032476	0.688622	-0.000082
1213	1.2059e+02	-8.3179	-18.922691	0.000200	2.001989	0.678292	-0.000081
1214	1.2069e+02	-8.3292	-19.008640	0.000214	2.144263	0.726496	-0.000086
1215	1.2079e+02	-8.4126	-19.092553	0.000209	2.093451	0.709280	-0.000084
1216	1.2089e+02	-8.3950	-19.173207	-0.000201	-2.012152	-0.681735	-0.000081
1217	1.2099e+02	-8.4383	-19.253046	0.000199	1.991827	0.674849	-0.000080
1218	1.2109e+02	-8.4944	-19.336958	0.000209	2.093451	0.709280	-0.000084
1219	1.2119e+02	-8.5169	-19.421278	0.000210	2.103613	0.712723	-0.000085
1220	1.2129e+02	-8.5554	-19.503969	0.000206	2.062964	0.698951	-0.000083
1221	1.2139e+02	-8.5971	-19.580956	0.000192	1.920690	0.650747	-0.000077
1222	1.2149e+02	-8.6645	-19.665684	0.000211	2.113776	0.716167	-0.000085
1223	1.2159e+02	-8.6917	-19.746745	0.000202	2.022314	0.685179	-0.000081
1224	1.2169e+02	-8.7222	-19.836360	0.000224	2.235724	0.757484	-0.000090
1225	1.2179e+02	-8.7511	-19.909682	0.000183	1.829229	0.619760	-0.000074
1226	1.2189e+02	-8.8056	-19.994002	0.000210	2.103613	0.712723	-0.000085
1227	1.2199e+02	-8.8586	-20.070175	0.000190	1.900366	0.643861	-0.000077
1228	1.2209e+02	-8.8778	-20.156939	0.000216	2.164587	0.733382	-0.000087
1229	1.2219e+02	-8.9292	-20.235556	0.000196	1.961340	0.664520	-0.000079
1230	1.2229e+02	-8.9933	-20.316617	0.000202	2.022314	0.685179	-0.000081
1231	1.2239e+02	-9.0046	-20.396864	0.000200	2.001989	0.678292	-0.000081
1232	1.2248e+02	-9.0511	-20.475073	0.000195	1.951177	0.661077	-0.000079
1233	1.2258e+02	-9.0928	-20.558986	0.000209	2.093451	0.709280	-0.000084
1234	1.2268e+02	-9.1457	-20.636381	0.000193	1.930853	0.654191	-0.000078
1235	1.2278e+02	-9.1746	-20.721108	0.000211	2.113776	0.716167	-0.000085
1236	1.2288e+02	-9.1955	-20.800947	0.000199	1.991827	0.674849	-0.000080
1237	1.2298e+02	-9.2420	-20.881601	0.000201	2.012152	0.681735	-0.000081
1238	1.2308e+02	-9.2917	-20.956552	0.000187	1.869878	0.633532	-0.000075
1239	1.2318e+02	-9.3463	-21.038428	0.000204	2.042639	0.692065	-0.000082
1240	1.2328e+02	-9.3735	-21.113379	0.000187	1.869878	0.633532	-0.000075
1241	1.2338e+02	-9.4104	-21.198514	0.000212	2.123938	0.719610	-0.000086
1242	1.2348e+02	-9.4361	-21.273872	0.000188	1.880041	0.636975	-0.000076
1243	1.2358e+02	-9.4858	-21.350452	0.000191	1.910528	0.647304	-0.000077
1244	1.2368e+02	-9.5275	-21.426218	0.000189	1.890203	0.640418	-0.000076
1245	1.2378e+02	-9.5933	-21.512167	0.000214	2.144263	0.726496	-0.000086
1246	1.2388e+02	-9.6238	-21.591599	0.000198	1.981665	0.671406	-0.000080
1247	1.2398e+02	-9.6527	-21.665328	0.000184	1.839391	0.623203	-0.000074
1248	1.2408e+02	-9.6799	-21.743945	0.000196	1.961340	0.664520	-0.000079
1249	1.2418e+02	-9.7217	-21.823785	0.000199	1.991827	0.674849	-0.000080
1250	1.2428e+02	-9.7618	-21.898736	0.000187	1.869878	0.633532	-0.000075
1251	1.2438e+02	-9.8163	-21.979797	0.000202	2.022314	0.685179	-0.000081
1252	1.2447e+02	-9.8628	-22.051489	0.000179	1.788579	0.605987	-0.000072
1253	1.2457e+02	-9.8949	-22.135809	0.000210	2.103613	0.712723	-0.000085
1254	1.2467e+02	-9.9302	-22.212797	0.000192	1.920690	0.650747	-0.000077
1255	1.2477e+02	-9.9655	-22.290192	0.000193	1.930853	0.654191	-0.000078
1256	1.2487e+02	-10.0008	-22.365550	0.000188	1.880041	0.636975	-0.000076
1257	1.2497e+02	-10.0537	-22.446611	0.000202	2.022314	0.685179	-0.000081
1258	1.2507e+02	-10.0906	-22.525228	0.000196	1.961340	0.664520	-0.000079
1259	1.2517e+02	-10.1147	-22.601809	0.000191	1.910528	0.647304	-0.000077
1260	1.2527e+02	-10.1548	-22.682055	0.000200	2.001989	0.678292	-0.000081
1261	1.2537e+02	-10.2270	-22.757006	0.000187	1.869878	0.633532	-0.000075
1262	1.2547e+02	-10.2334	-22.834401	0.000193	1.930853	0.654191	-0.000078
1263	1.2557e+02	-10.3024	-22.910982	0.000191	1.910528	0.647304	-0.000077
1264	1.2567e+02	-10.3409	-22.991228	0.000200	2.001989	0.678292	-0.000081
1265	1.2577e+02	-10.3714	-23.060884	0.000174	1.737767	0.588772	-0.000070
1266	1.2587e+02	-10.3826	-23.140723	0.000199	1.991827	0.674849	-0.000080
1267	1.2597e+02	-10.4500	-23.216489	0.000189	1.890203	0.640418	-0.000076
1268	1.2607e+02	-10.5061	-23.295106	0.000196	1.961340	0.664520	-0.000079
1269	1.2617e+02	-10.5254	-23.361910	0.000167	1.666631	0.564670	-0.000067
1270	1.2627e+02	-10.5607	-23.440527	0.000196	1.961340	0.664520	-0.000079
1271	1.2636e+02	-10.5944	-23.516700	0.000190	1.900366	0.643861	-0.000077
1272	1.2646e+02	-10.6441	-23.589614	0.000182	1.819066	0.616316	-0.000073
1273	1.2656e+02	-10.6954	-23.664973	0.000188	1.880041	0.636975	-0.000076
1274	1.2666e+02	-10.7083	-23.735036	0.000175	1.747930	0.592215	-0.000070
1275	1.2676e+02	-10.7596	-23.812024	0.000192	1.920690	0.650747	-0.000077
1276	1.2686e+02	-10.8045	-23.893492	0.000203	2.032476	0.688622	-0.000082
1277	1.2696e+02	-10.8334	-23.959074	0.000164	1.636144	0.554340	-0.000066
1278	1.2706e+02	-10.8799	-24.032396	0.000183	1.829229	0.619760	-0.000074
1279	1.2716e+02	-10.9345	-24.103273	0.000177	1.768255	0.599101	-0.000071
1280	1.2726e+02	-10.9778	-24.173336	0.000175	1.747930	0.592215	-0.000070
1281	1.2736e+02	-11.0066	-24.247473	0.000185	1.849554	0.626646	-0.000075
1282	1.2746e+02	-11.0275	-24.323238	0.000189	1.890203	0.640418	-0.000076
1283	1.2756e+02	-11.0901	-24.394931	0.000179	1.788579	0.605987	-0.000072
1284	1.2766e+02	-11.1334	-24.465401	0.000176	1.758092	0.595658	-0.000071
1285	1.2776e+02	-11.1639	-24.544018	0.000196	1.961340	0.664520	-0.000079
1286	1.2786e+02	-11.2168	-24.616932	0.000182	1.819066	0.616316	-0.000073
1287	1.2796e+02	-11.2216	-24.689032	0.000180	1.798742	0.609430	-0.000072
1288	1.2806e+02	-11.2810	-24.763576	0.000186	1.859716	0.630089	-0.000075
1289	1.2816e+02	-11.3259	-24.837712	0.000185	1.849554	0.626646	-0.000075
1290	1.2826e+02	-11.3740	-24.911848	0.000185	1.849554	0.626646	-0.000075
1291	1.2835e+02	-11.3981	-24.984763	0.000182	1.819066	0.616316	-0.000073
1292	1.2845e+02	-11.4446	-25.062565	0.000194	1.941015	0.657634	-0.000078
1293	1.2855e+02	-11.4831	-25.138331	0.000189	1.890203	0.640418	-0.000076
1294	1.2865e+02	-11.5312	-25.210431	0.000180	1.798742	0.609430	-0.000072
1295	1.2875e+02	-11.5745	-25.291899	0.000203	2.032476	0.688622	-0.000082
1296	1.2885e+02	-11.6098	-25.360740	0.000172	1.717443	0.581885	-0.000069
1297	1.2895e+02	-11.6548	-25.440986	0.000200	2.001989	0.678292	-0.000081
1298	1.2905e+02	-11.6724	-25.516345	0.000188	1.880041	0.636975	-0.000076
1299	1.2915e+02	-11.7189	-25.591703	0.000188	1.880041	0.636975	-0.000076
1300	1.2925e+02	-11.7638	-25.664617	0.000182	1.819066	0.616316	-0.000073
1301	1.2935e+02	-11.8039	-25.746086	0.000203	2.032476	0.688622	-0.000082
1302	1.2945e+02	-11.8328	-25.819408	0.000183	1.829229	0.619760	-0.000074
1303	1.2955e+02	-11.8681	-25.893544	0.000185	1.849554	0.626646	-0.000075
1304	1.2965e+02	-11.9371	-25.974605	0.000202	2.022314	0.685179	-0.000081
1305	1.2975e+02	-11.9628	-26.044261	0.000174	1.737767	0.588772	-0.000070
1306	1.2985e+02	-12.0109	-26.122063	0.000194	1.941015	0.657634	-0.000078
1307	1.2995e+02	-12.0301	-26.199866	0.000194	1.941015	0.657634	-0.000078
1308	1.3005e+02	-12.0799	-26.276853	0.000192	1.920690	0.650747	-0.000077
1309	1.3015e+02	-12.1104	-26.347324	0.000176	1.758092	0.595658	-0.000071
1310	1.3025e+02	-12.1649	-26.433680	0.000215	2.154425	0.729939	-0.000087
1311	1.3034e+02	-12.1825	-26.502928	0.000173	1.727605	0.585328	-0.000070
1312	1.3044e+02	-12.2403	-26.581546	0.000196	1.961340	0.664520	-0.000079
1313	1.3054e+02	-12.2836	-26.656904	0.000188	1.880041	0.636975	-0.000076
1314	1.3064e+02	-12.3173	-26.735521	0.000196	1.961340	0.664520	-0.000079
1315	1.3074e+02	-12.3606	-26.807621	0.000180	1.798742	0.609430	-0.000072
1316	1.3084e+02	-12.4119	-26.885423	0.000194	1.941015	0.657634	-0.000078
1317	1.3094e+02	-12.4601	-26.962003	0.000191	1.910528	0.647304	-0.000077
1318	1.3104e+02	-12.4793	-27.032474	0.000176	1.758092	0.595658	-0.000071
1319	1.3114e+02	-12.5130	-27.111906	0.000198	1.981665	0.671406	-0.000080
1320	1.3124e+02	-12.5531	-27.187264	0.000188	1.880041	0.636975	-0.000076
1321	1.3134e+02	-12.5964	-27.265066	0.000194	1.941015	0.657634	-0.000078
1322	1.3144e+02	-12.6414	-27.337573	0.000181	1.808904	0.612873	-0.000073
1323	1.3154e+02	-12.6686	-27.412524	0.000187	1.869878	0.633532	-0.000075
1324	1.3164e+02	-12.7376	-27.492363	0.000199	1.991827	0.674849	-0.000080
1325	1.3174e+02	-12.7665	-27.571388	0.000197	1.971502	0.667963	-0.000079
1326	1.3184e+02	-12.7873	-27.644710	0.000183	1.829229	0.619760	-0.000074
1327	1.3194e+02	-12.8162	-27.716809	0.000180	1.798742	0.609430	-0.000072
1328	1.3204e+02	-12.8900	-27.795019	0.000195	1.951177	0.661077	-0.000079
1329	1.3214e+02	-12.9333	-27.868341	0.000183	1.829229	0.619760	-0.000074
1330	1.3224e+02	-12.9863	-27.946958	0.000196	1.961340	0.664520	-0.000079
1331	1.3234e+02	-12.9991	-28.017021	0.000175	1.747930	0.592215	-0.000070
1332	1.3243e+02	-13.0360	-28.095638	0.000196	1.961340	0.664520	-0.000079
1333	1.3253e+02	-13.0681	-28.169774	0.000185	1.849554	0.626646	-0.000075
1334	1.3263e+02	-13.1066	-28.250428	0.000201	2.012152	0.681735	-0.000081
1335	1.3273e+02	-13.1659	-28.325379	0.000187	1.869878	0.633532	-0.000075
1336	1.3283e+02	-13.1691	-28.397886	0.000181	1.808904	0.612873	-0.000073
1337	1.3293e+02	-13.2285	-28.477725	0.000199	1.991827	0.674849	-0.000080
1338	1.3303e+02	-13.2718	-28.551047	0.000183	1.829229	0.619760	-0.000074
1339	1.3313e+02	-13.2911	-28.627627	0.000191	1.910528	0.647304	-0.000077
1340	1.3323e+02	-13.3697	-28.700949	0.000183	1.829229	0.619760	-0.000074
1341	1.3333e+02	-13.3873	-28.776307	0.000188	1.880041	0.636975	-0.000076
1342	1.3343e+02	-13.4579	-28.850444	0.000185	1.849554	0.626646	-0.000075
1343	1.3353e+02	-13.4836	-28.925802	0.000188	1.880041	0.636975	-0.000076
1344	1.3363e+02	-13.5221	-28.997494	0.000179	1.788579	0.605987	-0.000072
1345	1.3373e+02	-13.5590	-29.076519	0.000197	1.971502	0.667963	-0.000079
1346	1.3383e+02	-13.5814	-29.153099	0.000191	1.910528	0.647304	-0.000077
1347	1.3393e+02	-13.6424	-29.226013	0.000182	1.819066	0.616316	-0.000073
1348	1.3403e+02	-13.6616	-29.300964	0.000187	1.869878	0.633532	-0.000075
1349	1.3413e+02	-13.7018	-29.378359	0.000193	1.930853	0.654191	-0.000078
1350	1.3423e+02	-13.7499	-29.452089	0.000184	1.839391	0.623203	-0.000074
1351	1.3432e+02	-13.8092	-29.526632	0.000186	1.859716	0.630089	-0.000075
1352	1.3442e+02	-13.8445	-29.606879	0.000200	2.001989	0.678292	-0.000081
1353	1.3452e+02	-13.8766	-29.683866	0.000192	1.920690	0.650747	-0.000077
1354	1.3462e+02	-13.9183	-29.760854	0.000192	1.920690	0.650747	-0.000077
1355	1.3472e+02	-13.9456	-29.834990	0.000185	1.849554	0.626646	-0.000075
1356	1.3482e+02	-14.0033	-29.912793	0.000194	1.941015	0.657634	-0.000078
1357	1.3492e+02	-14.0194	-29.989781	0.000192	1.920690	0.650747	-0.000077
1358	1.3502e+02	-14.0755	-30.064324	0.000186	1.859716	0.630089	-0.000075
1359	1.3512e+02	-14.1156	-30.142534	0.000195	1.951177	0.661077	-0.000079
1360	1.3522e+02	-14.1445	-30.218300	0.000189	1.890203	0.640418	-0.000076
1361	1.3532e+02	-14.2199	-30.298954	0.000201	2.012152	0.681735	-0.000081
1362	1.3542e+02	-14.2311	-30.378385	0.000198	1.981665	0.671406	-0.000080
1363	1.3552e+02	-14.2777	-30.455373	0.000192	1.920690	0.650747	-0.000077
1364	1.3562e+02	-14.3033	-30.535212	0.000199	1.991827	0.674849	-0.000080
1365	1.3572e+02	-14.3338	-30.614237	0.000197	1.971502	0.667963	-0.000079
1366	1.3582e+02	-14.3787	-30.688373	0.000185	1.849554	0.626646	-0.000075
1367	1.3592e+02	-14.4124	-30.765768	0.000193	1.930853	0.654191	-0.000078
1368	1.3602e+02	-14.5007	-30.839497	0.000184	1.839391	0.623203	-0.000074
1369	1.3612e+02	-14.5071	-30.914448	0.000187	1.869878	0.633532	-0.000075
1370	1.3622e+02	-14.5552	-30.994695	0.000200	2.001989	0.678292	-0.000081
1371	1.3631e+02	-14.6033	-31.068831	0.000185	1.849554	0.626646	-0.000075
1372	1.3641e+02	-14.6370	-31.144189	0.000188	1.880041	0.636975	-0.000076
1373	1.3651e+02	-14.6803	-31.215882	0.000179	1.788579	0.605987	-0.000072
1374	1.3661e+02	-14.6803	-31.289611	0.000184	1.839391	0.623203	-0.000074
1375	1.3671e+02	-14.7573	-31.362932	0.000183	1.829229	0.619760	-0.000074
1376	1.3681e+02	-14.7990	-31.439920	0.000192	1.920690	0.650747	-0.000077
1377	1.3691e+02	-14.8039	-31.515686	0.000189	1.890203	0.640418	-0.000076
1378	1.3701e+02	-14.8664	-31.586971	0.000178	1.778417	0.602544	-0.000072
1379	1.3711e+02	-14.9065	-31.652553	0.000164	1.636144	0.554340	-0.000066
1380	1.3721e+02	-14.9466	-31.733614	0.000202	2.022314	0.685179	-0.000081
1381	1.3731e+02	-14.9803	-31.801233	0.000169	1.686955	0.571556	-0.000068
1382	1.3741e+02	-15.0381	-31.879035	0.000194	1.941015	0.657634	-0.000078
1383	1.3751e+02	-15.0509	-31.948284	0.000173	1.727605	0.585328	-0.000070
1384	1.3761e+02	-15.1135	-32.018347	0.000175	1.747930	0.592215	-0.000070
1385	1.3771e+02	-15.1391	-32.094927	0.000191	1.910528	0.647304	-0.000077
1386	1.3781e+02	-15.1937	-32.166212	0.000178	1.778417	0.602544	-0.000072
1387	1.3791e+02	-15.2386	-32.239126	0.000182	1.819066	0.616316	-0.000073
1388	1.3801e+02	-15.2723	-32.309596	0.000176	1.758092	0.595658	-0.000071
1389	1.3811e+02	-15.2964	-32.379659	0.000175	1.747930	0.592215	-0.000070
1390	1.3821e+02	-15.3686	-32.448908	0.000173	1.727605	0.585328	-0.000070
1391	1.3831e+02	-15.3750	-32.523451	0.000186	1.859716	0.630089	-0.000075
1392	1.3840e+02	-15.4279	-32.594736	0.000178	1.778417	0.602544	-0.000072
1393	1.3850e+02	-15.4728	-32.663577	0.000172	1.717443	0.581885	-0.000069
1394	1.3860e+02	-15.4969	-32.730789	0.000168	1.676793	0.568113	-0.000068
1395	1.3870e+02	-15.5707	-32.804518	0.000184	1.839391	0.623203	-0.000074
1396	1.3880e+02	-15.5947	-32.876210	0.000179	1.788579	0.605987	-0.000072
1397	1.3890e+02	-15.6413	-32.945866	0.000174	1.737767	0.588772	-0.000070
1398	1.3900e+02	-15.6493	-33.020409	0.000186	1.859716	0.630089	-0.000075
1399	1.3910e+02	-15.7054	-33.094138	0.000184	1.839391	0.623203	-0.000074
1400	1.3920e+02	-15.7552	-33.162979	0.000172	1.717443	0.581885	-0.000069
1401	1.3930e+02	-15.7792	-33.233042	0.000175	1.747930	0.592215	-0.000070
1402	1.3940e+02	-15.8113	-33.304734	0.000179	1.788579	0.605987	-0.000072
1403	1.3950e+02	-15.8771	-33.371131	0.000166	1.656468	0.561227	-0.000067
1404	1.3960e+02	-15.8979	-33.439565	0.000171	1.707280	0.578442	-0.000069
1405	1.3970e+02	-15.9364	-33.510850	0.000178	1.778417	0.602544	-0.000072
1406	1.3980e+02	-15.9782	-33.579283	0.000171	1.707280	0.578442	-0.000069
1407	1.3990e+02	-16.0215	-33.651383	0.000180	1.798742	0.609430	-0.000072
1408	1.4000e+02	-16.0471	-33.718594	0.000168	1.676793	0.568113	-0.000068
1409	1.4010e+02	-16.1113	-33.791509	0.000182	1.819066	0.616316	-0.000073
1410	1.4020e+02	-16.1434	-33.857091	0.000164	1.636144	0.554340	-0.000066
1411	1.4029e+02	-16.1979	-33.927154	0.000175	1.747930	0.592215	-0.000070
1412	1.4039e+02	-16.2172	-33.996809	0.000174	1.737767	0.588772	-0.000070
1413	1.4049e+02	-16.2380	-34.069724	0.000182	1.819066	0.616316	-0.000073
1414	1.4059e+02	-16.2926	-34.139379	0.000174	1.737767	0.588772	-0.000070
1415	1.4069e+02	-16.3487	-34.203332	0.000160	1.595494	0.540568	-0.000064
1416	1.4079e+02	-16.3904	-34.273395	0.000175	1.747930	0.592215	-0.000070
1417	1.4089e+02	-16.4289	-34.344680	0.000178	1.778417	0.602544	-0.000072
1418	1.4099e+02	-16.4803	-34.414743	0.000175	1.747930	0.592215	-0.000070
1419	1.4109e+02	-16.5011	-34.480732	0.000165	1.646306	0.557784	-0.000066
1420	1.4119e+02	-16.5412	-34.550795	0.000175	1.747930	0.592215	-0.000070
1421	1.4129e+02	-16.6022	-34.625339	0.000186	1.859716	0.630089	-0.000075
1422	1.4139e+02	-16.6423	-34.693772	0.000171	1.707280	0.578442	-0.000069
1423	1.4149e+02	-16.6471	-34.759762	0.000165	1.646306	0.557784	-0.000066
1424	1.4159e+02	-16.7033	-34.827788	0.000170	1.697118	0.574999	-0.000068
1425	1.4169e+02	-16.7434	-34.902739	0.000187	1.869878	0.633532	-0.000075
1426	1.4179e+02	-16.7771	-34.971173	0.000171	1.707280	0.578442	-0.000069
1427	1.4189e+02	-16.8332	-35.038792	0.000169	1.686955	0.571556	-0.000068
1428	1.4199e+02	-16.8348	-35.106410	0.000169	1.686955	0.571556	-0.000068
1429	1.4209e+02	-16.8926	-35.174437	0.000170	1.697118	0.574999	-0.000068
1430	1.4219e+02	-16.9247	-35.252646	0.000195	1.951177	0.661077	-0.000079
1431	1.4228e+02	-16.9760	-35.316192	0.000159	1.585332	0.537125	-0.000064
1432	1.4238e+02	-17.0257	-35.380552	0.000161	1.605656	0.544011	-0.000065
1433	1.4248e+02	-17.0706	-35.456318	0.000189	1.890203	0.640418	-0.000076
1434	1.4258e+02	-17.0931	-35.522307	0.000165	1.646306	0.557784	-0.000066
1435	1.4268e+02	-17.1525	-35.592370	0.000175	1.747930	0.592215	-0.000070
1436	1.4278e+02	-17.1733	-35.654694	0.000155	1.554845	0.526796	-0.000063
1437	1.4288e+02	-17.2070	-35.726386	0.000179	1.788579	0.605987	-0.000072
1438	1.4298e+02	-17.2840	-35.788302	0.000154	1.544682	0.523352	-0.000062
1439	1.4308e+02	-17.2888	-35.860809	0.000181	1.808904	0.612873	-0.000073
1440	1.4318e+02	-17.3546	-35.932908	0.000180	1.798742	0.609430	-0.000072
1441	1.4328e+02	-17.3610	-35.991566	0.000146	1.463383	0.495808	-0.000059
1442	1.4338e+02	-17.4316	-36.061629	0.000175	1.747930	0.592215	-0.000070
1443	1.4348e+02	-17.4284	-36.130062	-0.000171	-1.707280	-0.578442	-0.000069
1444	1.4358e+02	-17.4942	-36.197274	0.000168	1.676793	0.568113	-0.000068
1445	1.4368e+02	-17.5455	-36.260412	0.000158	1.575169	0.533682	-0.000063
1446	1.4378e+02	-17.5680	-36.325994	0.000164	1.636144	0.554340	-0.000066
1447	1.4388e+02	-17.6305	-36.394020	0.000170	1.697118	0.574999	-0.000068
1448	1.4398e+02	-17.6546	-36.457973	0.000160	1.595494	0.540568	-0.000064
1449	1.4408e+02	-17.7123	-36.531702	0.000184	1.839391	0.623203	-0.000074
1450	1.4418e+02	-17.7220	-36.597284	0.000164	1.636144	0.554340	-0.000066
1451	1.4428e+02	-17.7845	-36.663274	0.000165	1.646306	0.557784	-0.000066
1452	1.4437e+02	-17.8246	-36.729671	0.000166	1.656468	0.561227	-0.000067
1453	1.4447e+02	-17.8519	-36.805436	0.000189	1.890203	0.640418	-0.000076
1454	1.4457e+02	-17.8984	-36.867352	0.000154	1.544682	0.523352	-0.000062
1455	1.4467e+02	-17.9257	-36.938230	0.000177	1.768255	0.599101	-0.000071
1456	1.4477e+02	-17.9867	-37.005849	0.000169	1.686955	0.571556	-0.000068
1457	1.4487e+02	-18.0027	-37.075097	0.000173	1.727605	0.585328	-0.000070
1458	1.4497e+02	-18.0637	-37.145975	0.000177	1.768255	0.599101	-0.000071
1459	1.4507e+02	-18.0957	-37.213593	0.000169	1.686955	0.571556	-0.000068
1460	1.4517e+02	-18.1342	-37.279583	0.000165	1.646306	0.557784	-0.000066
1461	1.4527e+02	-18.1920	-37.356978	0.000193	1.930853	0.654191	-0.000078
1462	1.4537e+02	-18.2161	-37.431114	0.000185	1.849554	0.626646	-0.000075
1463	1.4547e+02	-18.2401	-37.500770	0.000174	1.737767	0.588772	-0.000070
1464	1.4557e+02	-18.2770	-37.572870	0.000180	1.798742	0.609430	-0.000072
1465	1.4567e+02	-18.3171	-37.646191	0.000183	1.829229	0.619760	-0.000074
1466	1.4577e+02	-18.3797	-37.719513	0.000183	1.829229	0.619760	-0.000074
1467	1.4587e+02	-18.4166	-37.786724	0.000168	1.676793	0.568113	-0.000068
1468	1.4597e+02	-18.4743	-37.858417	0.000179	1.788579	0.605987	-0.000072
1469	1.4607e+02	-18.5048	-37.934182	0.000189	1.890203	0.640418	-0.000076
1470	1.4617e+02	-18.5273	-38.009948	0.000189	1.890203	0.640418	-0.000076
1471	1.4626e+02	-18.5738	-38.080826	0.000177	1.768255	0.599101	-0.000071
1472	1.4636e+02	-18.6284	-38.157814	0.000192	1.920690	0.650747	-0.000077
1473	1.4646e+02	-18.6604	-38.227876	0.000175	1.747930	0.592215	-0.000070
1474	1.4656e+02	-18.7070	-38.304864	0.000192	1.920690	0.650747	-0.000077
1475	1.4666e+02	-18.7358	-38.376964	0.000180	1.798742	0.609430	-0.000072
1476	1.4676e+02	-18.7824	-38.453544	0.000191	1.910528	0.647304	-0.000077
1477	1.4686e+02	-18.7904	-38.528088	0.000186	1.859716	0.630089	-0.000075
1478	1.4696e+02	-18.8529	-38.601817	0.000184	1.839391	0.623203	-0.000074
1479	1.4706e+02	-18.8979	-38.677175	0.000188	1.880041	0.636975	-0.000076
1480	1.4716e+02	-18.9396	-38.755385	0.000195	1.951177	0.661077	-0.000079
1481	1.4726e+02	-18.9668	-38.825448	0.000175	1.747930	0.592215	-0.000070
1482	1.4736e+02	-19.0214	-38.907324	0.000204	2.042639	0.692065	-0.000082
1483	1.4746e+02	-19.0567	-38.975350	0.000170	1.697118	0.574999	-0.000068
1484	1.4756e+02	-19.0920	-39.054782	0.000198	1.981665	0.671406	-0.000080
1485	1.4766e+02	-19.1353	-39.127289	0.000181	1.808904	0.612873	-0.000073
1486	1.4776e+02	-19.1834	-39.206721	0.000198	1.981665	0.671406	-0.000080
1487	1.4786e+02	-19.2348	-39.290633	0.000209	2.093451	0.709280	-0.000084
1488	1.4796e+02	-19.2684	-39.364769	0.000185	1.849554	0.626646	-0.000075
1489	1.4806e+02	-19.3005	-39.442165	0.000193	1.930853	0.654191	-0.000078
1490	1.4816e+02	-19.3150	-39.514672	0.000181	1.808904	0.612873	-0.000073
1491	1.4825e+02	-19.3663	-39.588808	0.000185	1.849554	0.626646	-0.000075
1492	1.4835e+02	-19.4064	-39.668647	0.000199	1.991827	0.674849	-0.000080
1493	1.4845e+02	-19.4642	-39.748079	0.000198	1.981665	0.671406	-0.000080
1494	1.4855e+02	-19.4994	-39.821400	0.000183	1.829229	0.619760	-0.000074
1495	1.4865e+02	-19.5155	-39.900425	0.000197	1.971502	0.667963	-0.000079
1496	1.4875e+02	-19.5604	-39.981486	0.000202	2.022314	0.685179	-0.000081
1497	1.4885e+02	-19.6037	-40.063769	0.000205	2.052801	0.695508	-0.000083
1498	1.4895e+02	-19.6535	-40.134647	0.000177	1.768255	0.599101	-0.000071
1499	1.4905e+02	-19.6823	-40.221411	0.000216	2.164587	0.733382	-0.000087
1500	1.4915e+02	-19.7128	-40.295547	0.000185	1.849554	0.626646	-0.000075
1501	1.4925e+02	-19.7834	-40.383533	0.000220	2.195075	0.743711	-0.000088
1502	1.4935e+02	-19.8283	-40.461336	0.000194	1.941015	0.657634	-0.000078
1503	1.4945e+02	-19.8412	-40.542804	0.000203	2.032476	0.688622	-0.000082
1504	1.4955e+02	-19.8909	-40.618570	0.000189	1.890203	0.640418	-0.000076
1505	1.4965e+02	-19.9101	-40.701668	0.000207	2.073126	0.702394	-0.000084
1506	1.4975e+02	-19.9567	-40.779878	0.000195	1.951177	0.661077	-0.000079
1507	1.4985e+02	-20.0112	-40.860531	0.000201	2.012152	0.681735	-0.000081
1508	1.4995e+02	-19.9599	-40.829573	0.000077	0.772341	0.261676	0.000031
1509	1.5005e+02	-19.9182	-40.794542	0.000087	0.873965	0.296107	0.000035
1510	1.5015e+02	-19.8829	-40.755437	0.000098	0.975589	0.330538	0.000039
1511	1.5025e+02	-19.8508	-40.720813	0.000086	0.863803	0.292664	0.000035
1512	1.5034e+02	-19.7738	-40.682115	0.000097	0.965426	0.327095	0.000039
1513	1.5044e+02	-19.7658	-40.639752	0.000106	1.056888	0.358083	0.000043
1514	1.5054e+02	-19.7305	-40.595351	0.000111	1.107700	0.375299	0.000045
1515	1.5064e+02	-19.6823	-40.553802	0.000104	1.036563	0.351197	0.000042
1516	1.5074e+02	-19.6422	-40.511031	0.000107	1.067050	0.361526	0.000043
1517	1.5084e+02	-19.6214	-40.466224	0.000112	1.117862	0.378742	0.000045
1518	1.5094e+02	-19.5508	-40.419787	0.000116	1.158512	0.392514	0.000047
1519	1.5104e+02	-19.5315	-40.381496	0.000096	0.955264	0.323652	0.000038
1520	1.5114e+02	-19.4577	-40.335467	0.000115	1.148349	0.389071	0.000046
1521	1.5124e+02	-19.4481	-40.293103	0.000106	1.056888	0.358083	0.000043
1522	1.5134e+02	-19.3952	-40.248703	0.000111	1.107700	0.375299	0.000045
1523	1.5144e+02	-19.3679	-40.203080	0.000114	1.138187	0.385628	0.000046
1524	1.5154e+02	-19.3358	-40.157458	0.000114	1.138187	0.385628	0.000046
1525	1.5164e+02	-19.2973	-40.113058	0.000111	1.107700	0.375299	0.000045
1526	1.5174e+02	-19.2556	-40.069879	0.000108	1.077213	0.364969	0.000043
1527	1.5184e+02	-19.2091	-40.020591	0.000123	1.229648	0.416616	0.000050
1528	1.5194e+02	-19.1786	-39.972117	0.000121	1.209324	0.409730	0.000049
1529	1.5204e+02	-19.1513	-39.924458	0.000119	1.188999	0.402844	0.000048
1530	1.5214e+02	-19.0840	-39.883317	0.000103	1.026401	0.347754	0.000041
1531	1.5224e+02	-19.0631	-39.833621	0.000124	1.239811	0.420059	0.000050
1532	1.5233e+02	-19.0182	-39.788813	0.000112	1.117862	0.378742	0.000045
1533	1.5243e+02	-18.9749	-39.742376	0.000116	1.158512	0.392514	0.000047
1534	1.5253e+02	-18.9412	-39.691866	0.000126	1.260135	0.426945	0.000051
1535	1.5263e+02	-18.8786	-39.643392	0.000121	1.209324	0.409730	0.000049
1536	1.5273e+02	-18.8481	-39.588808	0.000136	1.361759	0.461377	0.000055
1537	1.5283e+02	-18.8225	-39.539927	0.000122	1.219486	0.413173	0.000049
1538	1.5293e+02	-18.7567	-39.489824	0.000125	1.249973	0.423502	0.000050
1539	1.5303e+02	-18.7358	-39.438091	0.000129	1.290623	0.437275	0.000052
1540	1.5313e+02	-18.6877	-39.390839	0.000118	1.178836	0.399401	0.000047
1541	1.5323e+02	-18.6428	-39.344402	0.000116	1.158512	0.392514	0.000047
1542	1.5333e+02	-18.6235	-39.284930	0.000148	1.483708	0.502694	0.000060
1543	1.5343e+02	-18.5818	-39.236457	0.000121	1.209324	0.409730	0.000049
1544	1.5353e+02	-18.5353	-39.182280	0.000135	1.351597	0.457933	0.000054
1545	1.5363e+02	-18.4888	-39.128103	0.000135	1.351597	0.457933	0.000054
1546	1.5373e+02	-18.4503	-39.073520	0.000136	1.361759	0.461377	0.000055
1547	1.5383e+02	-18.4214	-39.017306	0.000140	1.402409	0.475149	0.000056
1548	1.5393e+02	-18.3877	-38.967203	0.000125	1.249973	0.423502	0.000050
1549	1.5403e+02	-18.3460	-38.908953	0.000145	1.453221	0.492364	0.000059
1550	1.5413e+02	-18.2995	-38.854777	0.000135	1.351597	0.457933	0.000054
1551	1.5422e+02	-18.2546	-38.797749	0.000142	1.422734	0.482035	0.000057
1552	1.5432e+02	-18.2305	-38.742757	0.000137	1.371922	0.464820	0.000055
1553	1.5442e+02	-18.1679	-38.681249	0.000153	1.534520	0.519909	0.000062
1554	1.5452e+02	-18.1359	-38.628702	0.000131	1.310947	0.444161	0.000053
1555	1.5462e+02	-18.1038	-38.570859	0.000144	1.443058	0.488921	0.000058
1556	1.5472e+02	-18.0605	-38.513831	0.000142	1.422734	0.482035	0.000057
1557	1.5482e+02	-18.0043	-38.462506	0.000128	1.280460	0.433832	0.000052
1558	1.5492e+02	-17.9818	-38.400997	0.000153	1.534520	0.519909	0.000062
1559	1.5502e+02	-17.9273	-38.341525	0.000148	1.483708	0.502694	0.000060
1560	1.5512e+02	-17.9145	-38.287348	0.000135	1.351597	0.457933	0.000054
1561	1.5522e+02	-17.8663	-38.229913	0.000143	1.432896	0.485478	0.000058
1562	1.5532e+02	-17.8102	-38.170441	0.000148	1.483708	0.502694	0.000060
1563	1.5542e+02	-17.7909	-38.113006	0.000143	1.432896	0.485478	0.000058
1564	1.5552e+02	-17.7380	-38.053534	0.000148	1.483708	0.502694	0.000060
1565	1.5562e+02	-17.7059	-38.000987	0.000131	1.310947	0.444161	0.000053
1566	1.5572e+02	-17.6498	-37.938663	0.000155	1.554845	0.526796	0.000063
1567	1.5582e+02	-17.6177	-37.880413	0.000145	1.453221	0.492364	0.000059
1568	1.5592e+02	-17.5615	-37.818497	0.000154	1.544682	0.523352	0.000062
1569	1.5602e+02	-17.5439	-37.761062	0.000143	1.432896	0.485478	0.000058
1570	1.5612e+02	-17.5230	-37.700368	0.000151	1.514195	0.513023	0.000061
1571	1.5622e+02	-17.4460	-37.641710	0.000146	1.463383	0.495808	0.000059
1572	1.5631e+02	-17.4172	-37.581831	0.000149	1.493870	0.506137	0.000060
1573	1.5641e+02	-17.3722	-37.529691	0.000130	1.300785	0.440718	0.000052
1574	1.5651e+02	-17.3466	-37.468590	0.000152	1.524357	0.516466	0.000061
1575	1.5661e+02	-17.2952	-37.404637	0.000160	1.595494	0.540568	0.000064
1576	1.5671e+02	-17.2744	-37.346794	0.000144	1.443058	0.488921	0.000058
1577	1.5681e+02	-17.2006	-37.280805	0.000165	1.646306	0.557784	0.000066
1578	1.5691e+02	-17.1878	-37.221740	0.000147	1.473545	0.499251	0.000059
1579	1.5701e+02	-17.1573	-37.163083	0.000146	1.463383	0.495808	0.000059
1580	1.5711e+02	-17.1027	-37.099945	0.000158	1.575169	0.533682	0.000063
1581	1.5721e+02	-17.0626	-37.040880	0.000147	1.473545	0.499251	0.000059
1582	1.5731e+02	-17.0225	-36.978964	0.000154	1.544682	0.523352	0.000062
1583	1.5741e+02	-16.9824	-36.919899	0.000147	1.473545	0.499251	0.000059
1584	1.5751e+02	-16.9407	-36.858798	0.000152	1.524357	0.516466	0.000061
1585	1.5761e+02	-16.9038	-36.792809	0.000165	1.646306	0.557784	0.000066
1586	1.5771e+02	-16.8621	-36.736188	0.000141	1.412571	0.478592	0.000057
1587	1.5781e+02	-16.8252	-36.675901	0.000150	1.504033	0.509580	0.000061
1588	1.5791e+02	-16.7610	-36.613985	0.000154	1.544682	0.523352	0.000062
1589	1.5801e+02	-16.7273	-36.545959	0.000170	1.697118	0.574999	0.000068
1590	1.5811e+02	-16.6808	-36.485672	0.000150	1.504033	0.509580	0.000061
1591	1.5821e+02	-16.6744	-36.424571	0.000152	1.524357	0.516466	0.000061
1592	1.5830e+02	-16.6134	-36.367136	0.000143	1.432896	0.485478	0.000058
1593	1.5840e+02	-16.5942	-36.304405	0.000157	1.565007	0.530239	0.000063
1594	1.5850e+02	-16.5268	-36.240045	0.000161	1.605656	0.544011	0.000065
1595	1.5860e+02	-16.5011	-36.174055	0.000165	1.646306	0.557784	0.000066
1596	1.5870e+02	-16.4739	-36.116620	0.000143	1.432896	0.485478	0.000058
1597	1.5880e+02	-16.4322	-36.055519	0.000152	1.524357	0.516466	0.000061
1598	1.5890e+02	-16.3840	-35.988714	0.000167	1.666631	0.564670	0.000067
1599	1.5900e+02	-16.3391	-35.927613	0.000152	1.524357	0.516466	0.000061
1600	1.5910e+02	-16.3038	-35.866104	0.000153	1.534520	0.519909	0.000062
1601	1.5920e+02	-16.2765	-35.801337	0.000162	1.615819	0.547454	0.000065
1602	1.5930e+02	-16.2140	-35.737384	0.000160	1.595494	0.540568	0.000064
1603	1.5940e+02	-16.1739	-35.673024	0.000161	1.605656	0.544011	0.000065
1604	1.5950e+02	-16.1546	-35.607849	0.000163	1.625981	0.550897	0.000066
1605	1.5960e+02	-16.1065	-35.543082	0.000162	1.615819	0.547454	0.000065
1606	1.5970e+02	-16.0792	-35.479536	0.000159	1.585332	0.537125	0.000064
1607	1.5980e+02	-16.0455	-35.413954	0.000164	1.636144	0.554340	0.000066
1608	1.5990e+02	-15.9926	-35.350816	0.000158	1.575169	0.533682	0.000063
1609	1.6000e+02	-15.9493	-35.287271	0.000159	1.585332	0.537125	0.000064
1610	1.6010e+02	-15.9044	-35.220059	0.000168	1.676793	0.568113	0.000068
1611	1.6019e+02	-15.8498	-35.158958	0.000152	1.524357	0.516466	0.000061
1612	1.6029e+02	-15.8274	-35.084007	0.000187	1.869878	0.633532	0.000075
1613	1.6039e+02	-15.7840	-35.014351	0.000174	1.737767	0.588772	0.000070
1614	1.6049e+02	-15.7359	-34.949584	0.000162	1.615819	0.547454	0.000065
1615	1.6059e+02	-15.7119	-34.882372	0.000168	1.676793	0.568113	0.000068
1616	1.6069e+02	-15.6718	-34.811087	0.000178	1.778417	0.602544	0.000072
1617	1.6079e+02	-15.6381	-34.750800	0.000150	1.504033	0.509580	0.000061
1618	1.6089e+02	-15.5691	-34.680330	0.000176	1.758092	0.595658	0.000071
1619	1.6099e+02	-15.5498	-34.616785	0.000159	1.585332	0.537125	0.000064
1620	1.6109e+02	-15.5386	-34.548351	0.000171	1.707280	0.578442	0.000069
1621	1.6119e+02	-15.4664	-34.481547	0.000167	1.666631	0.564670	0.000067
1622	1.6129e+02	-15.4231	-34.415965	0.000164	1.636144	0.554340	0.000066
1623	1.6139e+02	-15.3782	-34.352419	0.000159	1.585332	0.537125	0.000064
1624	1.6149e+02	-15.3493	-34.281949	0.000176	1.758092	0.595658	0.000071
1625	1.6159e+02	-15.2964	-34.216367	0.000164	1.636144	0.554340	0.000066
1626	1.6169e+02	-15.2659	-34.153636	0.000157	1.565007	0.530239	0.000063
1627	1.6179e+02	-15.2402	-34.090905	0.000157	1.565007	0.530239	0.000063
1628	1.6189e+02	-15.1889	-34.024916	0.000165	1.646306	0.557784	0.000066
1629	1.6199e+02	-15.1600	-33.961371	0.000159	1.585332	0.537125	0.000064
1630	1.6209e+02	-15.1071	-33.890900	0.000176	1.758092	0.595658	0.000071
1631	1.6219e+02	-15.0621	-33.830614	0.000150	1.504033	0.509580	0.000061
1632	1.6228e+02	-15.0236	-33.762180	0.000171	1.707280	0.578442	0.000069
1633	1.6238e+02	-14.9867	-33.701079	0.000152	1.524357	0.516466	0.000061
1634	1.6248e+02	-14.9434	-33.637533	0.000159	1.585332	0.537125	0.000064
1635	1.6258e+02	-14.9258	-33.567470	0.000175	1.747930	0.592215	0.000070
1636	1.6268e+02	-14.8568	-33.506776	0.000151	1.514195	0.513023	0.000061
1637	1.6278e+02	-14.8311	-33.440787	0.000165	1.646306	0.557784	0.000066
1638	1.6288e+02	-14.8039	-33.378463	0.000155	1.554845	0.526796	0.000063
1639	1.6298e+02	-14.7429	-33.314918	0.000159	1.585332	0.537125	0.000064
1640	1.6308e+02	-14.7285	-33.249743	0.000163	1.625981	0.550897	0.000066
1641	1.6318e+02	-14.6803	-33.189864	0.000149	1.493870	0.506137	0.000060
1642	1.6328e+02	-14.6210	-33.125504	0.000161	1.605656	0.544011	0.000065
1643	1.6338e+02	-14.5841	-33.057885	0.000169	1.686955	0.571556	0.000068
1644	1.6348e+02	-14.5552	-32.994747	0.000158	1.575169	0.533682	0.000063
1645	1.6358e+02	-14.5039	-32.931201	0.000159	1.585332	0.537125	0.000064
1646	1.6368e+02	-14.4830	-32.865212	0.000165	1.646306	0.557784	0.000066
1647	1.6378e+02	-14.4317	-32.798815	0.000166	1.656468	0.561227	0.000067
1648	1.6388e+02	-14.3900	-32.737714	0.000152	1.524357	0.516466	0.000061
1649	1.6398e+02	-14.3643	-32.673761	0.000160	1.595494	0.540568	0.000064
1650	1.6408e+02	-14.3162	-32.608179	0.000164	1.636144	0.554340	0.000066
1651	1.6418e+02	-14.2680	-32.539745	0.000171	1.707280	0.578442	0.000069
1652	1.6427e+02	-14.2247	-32.473756	0.000165	1.646306	0.557784	0.000066
1653	1.6437e+02	-14.2023	-32.415098	0.000146	1.463383	0.495808	0.000059
1654	1.6447e+02	-14.1381	-32.349516	0.000164	1.636144	0.554340	0.000066
1655	1.6457e+02	-14.1060	-32.284341	0.000163	1.625981	0.550897	0.000066
1656	1.6467e+02	-14.0659	-32.221611	0.000157	1.565007	0.530239	0.000063
1657	1.6477e+02	-14.0531	-32.158472	0.000158	1.575169	0.533682	0.000063
1658	1.6487e+02	-13.9825	-32.095742	0.000157	1.565007	0.530239	0.000063
1659	1.6497e+02	-13.9440	-32.031382	0.000161	1.605656	0.544011	0.000065
1660	1.6507e+02	-13.9055	-31.958060	0.000183	1.829229	0.619760	0.000074
1661	1.6517e+02	-13.8686	-31.897366	0.000151	1.514195	0.513023	0.000061
1662	1.6527e+02	-13.8477	-31.836672	0.000151	1.514195	0.513023	0.000061
1663	1.6537e+02	-13.7996	-31.769460	0.000168	1.676793	0.568113	0.000068
1664	1.6547e+02	-13.7547	-31.701027	0.000171	1.707280	0.578442	0.000069
1665	1.6557e+02	-13.7001	-31.636667	0.000161	1.605656	0.544011	0.000065
1666	1.6567e+02	-13.6729	-31.577195	0.000148	1.483708	0.502694	0.000060
1667	1.6577e+02	-13.6456	-31.507946	0.000173	1.727605	0.585328	0.000070
1668	1.6587e+02	-13.5943	-31.447660	0.000150	1.504033	0.509580	0.000061
1669	1.6597e+02	-13.5574	-31.381670	0.000165	1.646306	0.557784	0.000066
1670	1.6607e+02	-13.5028	-31.315273	0.000166	1.656468	0.561227	0.000067
1671	1.6616e+02	-13.4723	-31.249284	0.000165	1.646306	0.557784	0.000066
1672	1.6626e+02	-13.4258	-31.185331	0.000160	1.595494	0.540568	0.000064
1673	1.6636e+02	-13.4242	-31.121786	0.000159	1.585332	0.537125	0.000064
1674	1.6646e+02	-13.3376	-31.052537	0.000173	1.727605	0.585328	0.000070
1675	1.6656e+02	-13.3167	-30.993065	0.000148	1.483708	0.502694	0.000060
1676	1.6666e+02	-13.3007	-30.923817	0.000173	1.727605	0.585328	0.000070
1677	1.6676e+02	-13.2445	-30.857828	0.000165	1.646306	0.557784	0.000066
1678	1.6686e+02	-13.1820	-30.789801	0.000170	1.697118	0.574999	0.000068
1679	1.6696e+02	-13.1339	-30.727478	0.000155	1.554845	0.526796	0.000063
1680	1.6706e+02	-13.1114	-30.661081	0.000166	1.656468	0.561227	0.000067
1681	1.6716e+02	-13.0681	-30.591426	0.000174	1.737767	0.588772	0.000070
1682	1.6726e+02	-13.0328	-30.529917	0.000153	1.534520	0.519909	0.000062
1683	1.6736e+02	-12.9879	-30.462298	0.000169	1.686955	0.571556	0.000068
1684	1.6746e+02	-12.9446	-30.401604	0.000151	1.514195	0.513023	0.000061
1685	1.6756e+02	-12.9365	-30.329097	0.000181	1.808904	0.612873	0.000073
1686	1.6766e+02	-12.8643	-30.272069	0.000142	1.422734	0.482035	0.000057
1687	1.6776e+02	-12.8242	-30.203636	0.000171	1.707280	0.578442	0.000069
1688	1.6786e+02	-12.8002	-30.144571	0.000147	1.473545	0.499251	0.000059
1689	1.6796e+02	-12.7617	-30.076545	0.000170	1.697118	0.574999	0.000068
1690	1.6806e+02	-12.7087	-30.014221	0.000155	1.554845	0.526796	0.000063
1691	1.6816e+02	-12.6911	-29.944973	0.000173	1.727605	0.585328	0.000070
1692	1.6825e+02	-12.6542	-29.885908	0.000147	1.473545	0.499251	0.000059
1693	1.6835e+02	-12.5996	-29.823585	0.000155	1.554845	0.526796	0.000063
1694	1.6845e+02	-12.5820	-29.753929	0.000174	1.737767	0.588772	0.000070
1695	1.6855e+02	-12.5130	-29.689162	0.000162	1.615819	0.547454	0.000065
1696	1.6865e+02	-12.4601	-29.627246	0.000154	1.544682	0.523352	0.000062
1697	1.6875e+02	-12.4296	-29.564922	0.000155	1.554845	0.526796	0.000063
1698	1.6885e+02	-12.3959	-29.501784	0.000158	1.575169	0.533682	0.000063
1699	1.6895e+02	-12.3462	-29.440683	0.000152	1.524357	0.516466	0.000061
1700	1.6905e+02	-12.3077	-29.376730	0.000160	1.595494	0.540568	0.000064
1701	1.6915e+02	-12.2852	-29.307075	0.000174	1.737767	0.588772	0.000070
1702	1.6925e+02	-12.2483	-29.246381	0.000151	1.514195	0.513023	0.000061
1703	1.6935e+02	-12.1986	-29.182428	0.000160	1.595494	0.540568	0.000064
1704	1.6945e+02	-12.1761	-29.113587	0.000172	1.717443	0.581885	0.000069
1705	1.6955e+02	-12.1200	-29.048412	0.000163	1.625981	0.550897	0.000066
1706	1.6965e+02	-12.0911	-28.984459	0.000160	1.595494	0.540568	0.000064
1707	1.6975e+02	-12.0494	-28.918470	0.000165	1.646306	0.557784	0.000066
1708	1.6985e+02	-11.9997	-28.845148	0.000183	1.829229	0.619760	0.000074
1709	1.6995e+02	-11.9628	-28.784454	0.000151	1.514195	0.513023	0.000061
1710	1.7005e+02	-11.9114	-28.715206	0.000173	1.727605	0.585328	0.000070
1711	1.7015e+02	-11.8922	-28.647180	0.000170	1.697118	0.574999	0.000068
1712	1.7024e+02	-11.8344	-28.576709	0.000176	1.758092	0.595658	0.000071
1713	1.7034e+02	-11.7975	-28.517237	0.000148	1.483708	0.502694	0.000060
1714	1.7044e+02	-11.7638	-28.443101	0.000185	1.849554	0.626646	0.000075
1715	1.7054e+02	-11.7205	-28.375482	0.000169	1.686955	0.571556	0.000068
1716	1.7064e+02	-11.6836	-28.308271	0.000168	1.676793	0.568113	0.000068
1717	1.7074e+02	-11.6451	-28.237393	0.000177	1.768255	0.599101	0.000071
1718	1.7084e+02	-11.5970	-28.158776	0.000196	1.961340	0.664520	0.000079
1719	1.7094e+02	-11.5505	-28.096452	0.000155	1.554845	0.526796	0.000063
1720	1.7104e+02	-11.5136	-28.023131	0.000183	1.829229	0.619760	0.000074
1721	1.7114e+02	-11.4815	-27.953475	0.000174	1.737767	0.588772	0.000070
1722	1.7124e+02	-11.4141	-27.880968	0.000181	1.808904	0.612873	0.000073
1723	1.7134e+02	-11.3949	-27.811720	0.000173	1.727605	0.585328	0.000070
1724	1.7144e+02	-11.3804	-27.741250	0.000176	1.758092	0.595658	0.000071
1725	1.7154e+02	-11.3259	-27.669557	0.000179	1.788579	0.605987	0.000072
1726	1.7164e+02	-11.2778	-27.598273	0.000178	1.778417	0.602544	0.000072
1727	1.7174e+02	-11.2457	-27.529839	0.000171	1.707280	0.578442	0.000069
1728	1.7184e+02	-11.2088	-27.456517	0.000183	1.829229	0.619760	0.000074
1729	1.7194e+02	-11.1703	-27.381974	0.000186	1.859716	0.630089	0.000075
1730	1.7204e+02	-11.1189	-27.314355	0.000169	1.686955	0.571556	0.000068
1731	1.7213e+02	-11.0917	-27.245921	0.000171	1.707280	0.578442	0.000069
1732	1.7223e+02	-11.0740	-27.173007	0.000182	1.819066	0.616316	0.000073
1733	1.7233e+02	-11.0115	-27.102944	0.000175	1.747930	0.592215	0.000070
1734	1.7243e+02	-10.9617	-27.029622	0.000183	1.829229	0.619760	0.000074
1735	1.7253e+02	-10.9345	-26.955486	0.000185	1.849554	0.626646	0.000075
1736	1.7263e+02	-10.8879	-26.883794	0.000179	1.788579	0.605987	0.000072
1737	1.7273e+02	-10.8366	-26.810472	0.000183	1.829229	0.619760	0.000074
1738	1.7283e+02	-10.7949	-26.738372	0.000180	1.798742	0.609430	0.000072
1739	1.7293e+02	-10.7628	-26.668717	0.000174	1.737767	0.588772	0.000070
1740	1.7303e+02	-10.7179	-26.589692	0.000197	1.971502	0.667963	0.000079
1741	1.7313e+02	-10.6778	-26.518407	0.000178	1.778417	0.602544	0.000072
1742	1.7323e+02	-10.6425	-26.447937	0.000176	1.758092	0.595658	0.000071
1743	1.7333e+02	-10.5992	-26.368913	0.000197	1.971502	0.667963	0.000079
1744	1.7343e+02	-10.5639	-26.297220	0.000179	1.788579	0.605987	0.000072
1745	1.7353e+02	-10.5494	-26.219418	0.000194	1.941015	0.657634	0.000078
1746	1.7363e+02	-10.4772	-26.153021	0.000166	1.656468	0.561227	0.000067
1747	1.7373e+02	-10.4596	-26.074404	0.000196	1.961340	0.664520	0.000079
1748	1.7383e+02	-10.4099	-26.001490	0.000182	1.819066	0.616316	0.000073
1749	1.7393e+02	-10.3553	-25.923280	0.000195	1.951177	0.661077	0.000079
1750	1.7403e+02	-10.3297	-25.854439	0.000172	1.717443	0.581885	0.000069
1751	1.7413e+02	-10.2783	-25.777044	0.000193	1.930853	0.654191	0.000078
1752	1.7422e+02	-10.2382	-25.706574	0.000176	1.758092	0.595658	0.000071
1753	1.7432e+02	-10.2045	-25.629993	0.000191	1.910528	0.647304	0.000077
1754	1.7442e+02	-10.1837	-25.554635	0.000188	1.880041	0.636975	0.000076
1755	1.7452e+02	-10.1420	-25.476833	0.000194	1.941015	0.657634	0.000078
1756	1.7462e+02	-10.0890	-25.406770	0.000175	1.747930	0.592215	0.000070
1757	1.7472e+02	-10.0601	-25.327745	0.000197	1.971502	0.667963	0.000079
1758	1.7482e+02	-10.0249	-25.248721	0.000197	1.971502	0.667963	0.000079
1759	1.7492e+02	-9.9912	-25.179065	0.000174	1.737767	0.588772	0.000070
1760	1.7502e+02	-9.9206	-25.106966	0.000180	1.798742	0.609430	0.000072
1761	1.7512e+02	-9.8997	-25.036903	0.000175	1.747930	0.592215	0.000070
1762	1.7522e+02	-9.8548	-24.953805	0.000207	2.073126	0.702394	0.000084
1763	1.7532e+02	-9.8179	-24.882520	0.000178	1.778417	0.602544	0.000072
1764	1.7542e+02	-9.7746	-24.801051	0.000203	2.032476	0.688622	0.000082
1765	1.7552e+02	-9.7409	-24.731396	0.000174	1.737767	0.588772	0.000070
1766	1.7562e+02	-9.6976	-24.650742	0.000201	2.012152	0.681735	0.000081
1767	1.7572e+02	-9.6479	-24.576198	0.000186	1.859716	0.630089	0.000075
1768	1.7582e+02	-9.6222	-24.500025	0.000190	1.900366	0.643861	0.000077
1769	1.7592e+02	-9.5628	-24.424259	0.000189	1.890203	0.640418	0.000076
1770	1.7602e+02	-9.5131	-24.347679	0.000191	1.910528	0.647304	0.000077
1771	1.7612e+02	-9.4938	-24.265396	0.000205	2.052801	0.695508	0.000083
1772	1.7621e+02	-9.4473	-24.192889	0.000181	1.808904	0.612873	0.000073
1773	1.7631e+02	-9.4185	-24.115901	0.000192	1.920690	0.650747	0.000077
1774	1.7641e+02	-9.3607	-24.029137	0.000216	2.164587	0.733382	0.000087
1775	1.7651e+02	-9.3190	-23.957037	0.000180	1.798742	0.609430	0.000072
1776	1.7661e+02	-9.2757	-23.875162	0.000204	2.042639	0.692065	0.000082
1777	1.7671e+02	-9.2532	-23.800211	0.000187	1.869878	0.633532	0.000075
1778	1.7681e+02	-9.2243	-23.720371	0.000199	1.991827	0.674849	0.000080
1779	1.7691e+02	-9.1746	-23.638496	0.000204	2.042639	0.692065	0.000082
1780	1.7701e+02	-9.1153	-23.557842	0.000201	2.012152	0.681735	0.000081
1781	1.7711e+02	-9.0944	-23.478817	0.000197	1.971502	0.667963	0.000079
1782	1.7721e+02	-9.0399	-23.396534	0.000205	2.052801	0.695508	0.000083
1783	1.7731e+02	-8.9901	-23.311807	0.000211	2.113776	0.716167	0.000085
1784	1.7741e+02	-8.9757	-23.231153	0.000201	2.012152	0.681735	0.000081
1785	1.7751e+02	-8.9340	-23.152129	0.000197	1.971502	0.667963	0.000079
1786	1.7761e+02	-8.8923	-23.075141	0.000192	1.920690	0.650747	0.000077
1787	1.7771e+02	-8.8489	-22.994080	0.000202	2.022314	0.685179	0.000081
1788	1.7781e+02	-8.7912	-22.921165	0.000182	1.819066	0.616316	0.000073
1789	1.7791e+02	-8.7784	-22.832365	0.000222	2.215399	0.750598	0.000089
1790	1.7801e+02	-8.7463	-22.754970	0.000193	1.930853	0.654191	0.000078
1791	1.7810e+02	-8.7190	-22.676760	0.000195	1.951177	0.661077	0.000079
1792	1.7820e+02	-8.6484	-22.596106	0.000201	2.012152	0.681735	0.000081
1793	1.7830e+02	-8.6292	-22.519933	0.000190	1.900366	0.643861	0.000077
1794	1.7840e+02	-8.5666	-22.442131	0.000194	1.941015	0.657634	0.000078
1795	1.7850e+02	-8.5393	-22.367587	0.000186	1.859716	0.630089	0.000075
1796	1.7860e+02	-8.4912	-22.283267	0.000210	2.103613	0.712723	0.000085
1797	1.7870e+02	-8.4752	-22.201798	0.000203	2.032476	0.688622	0.000082
1798	1.7880e+02	-8.4206	-22.132958	0.000172	1.717443	0.581885	0.000069
1799	1.7890e+02	-8.3709	-22.049860	0.000207	2.073126	0.702394	0.000084
1800	1.7900e+02	-8.3292	-21.972057	0.000194	1.941015	0.657634	0.000078
1801	1.7910e+02	-8.2971	-21.893440	0.000196	1.961340	0.664520	0.000079
1802	1.7920e+02	-8.2522	-21.816860	0.000191	1.910528	0.647304	0.000077
1803	1.7930e+02	-8.2345	-21.741094	0.000189	1.890203	0.640418	0.000076
1804	1.7940e+02	-8.1671	-21.658403	0.000206	2.062964	0.698951	0.000083
1805	1.7950e+02	-8.1495	-21.583452	0.000187	1.869878	0.633532	0.000075
1806	1.7960e+02	-8.1126	-21.507279	0.000190	1.900366	0.643861	0.000077
1807	1.7970e+02	-8.0484	-21.428255	0.000197	1.971502	0.667963	0.000079
1808	1.7980e+02	-8.0099	-21.346379	0.000204	2.042639	0.692065	0.000082
1809	1.7990e+02	-7.9875	-21.268577	0.000194	1.941015	0.657634	0.000078
1810	1.8000e+02	-7.9249	-21.194440	0.000185	1.849554	0.626646	0.000075
1811	1.8009e+02	-7.8944	-21.113379	0.000202	2.022314	0.685179	0.000081
1812	1.8019e+02	-7.8559	-21.033947	0.000198	1.981665	0.671406	0.000080
1813	1.8029e+02	-7.8222	-20.957774	0.000190	1.900366	0.643861	0.000077
1814	1.8039e+02	-7.7709	-20.878750	0.000197	1.971502	0.667963	0.000079
1815	1.8049e+02	-7.7356	-20.802984	0.000189	1.890203	0.640418	0.000076
1816	1.8059e+02	-7.7132	-20.723552	0.000198	1.981665	0.671406	0.000080
1817	1.8069e+02	-7.6763	-20.644528	0.000197	1.971502	0.667963	0.000079
1818	1.8079e+02	-7.6153	-20.571614	0.000182	1.819066	0.616316	0.000073
1819	1.8089e+02	-7.5832	-20.490145	0.000203	2.032476	0.688622	0.000082
1820	1.8099e+02	-7.5527	-20.409084	0.000202	2.022314	0.685179	0.000081
1821	1.8109e+02	-7.4918	-20.333318	0.000189	1.890203	0.640418	0.000076
1822	1.8119e+02	-7.4677	-20.250628	0.000206	2.062964	0.698951	0.000083
1823	1.8129e+02	-7.4051	-20.175269	0.000188	1.880041	0.636975	0.000076
1824	1.8139e+02	-7.3843	-20.093801	0.000203	2.032476	0.688622	0.000082
1825	1.8149e+02	-7.3618	-20.021701	0.000180	1.798742	0.609430	0.000072
1826	1.8159e+02	-7.2928	-19.937789	0.000209	2.093451	0.709280	0.000084
1827	1.8169e+02	-7.2720	-19.862023	0.000189	1.890203	0.640418	0.000076
1828	1.8179e+02	-7.2207	-19.777296	0.000211	2.113776	0.716167	0.000085
1829	1.8189e+02	-7.1838	-19.702345	0.000187	1.869878	0.633532	0.000075
1830	1.8199e+02	-7.1372	-19.623320	0.000197	1.971502	0.667963	0.000079
1831	1.8209e+02	-7.0891	-19.546740	0.000191	1.910528	0.647304	0.000077
1832	1.8218e+02	-7.0362	-19.466493	0.000200	2.001989	0.678292	0.000081
1833	1.8228e+02	-7.0410	-19.389913	-0.000191	-1.910528	-0.647304	0.000077
1834	1.8238e+02	-6.9752	-19.307630	0.000205	2.052801	0.695508	0.000083
1835	1.8248e+02	-6.9527	-19.232271	0.000188	1.880041	0.636975	0.000076
1836	1.8258e+02	-6.8934	-19.147544	0.000211	2.113776	0.716167	0.000085
1837	1.8268e+02	-6.8725	-19.069742	0.000194	1.941015	0.657634	0.000078
1838	1.8278e+02	-6.8212	-18.989495	0.000200	2.001989	0.678292	0.000081
1839	1.8288e+02	-6.7971	-18.911285	0.000195	1.951177	0.661077	0.000079
1840	1.8298e+02	-6.7506	-18.833076	0.000195	1.951177	0.661077	0.000079
1841	1.8308e+02	-6.6897	-18.753236	0.000199	1.991827	0.674849	0.000080
1842	1.8318e+02	-6.6560	-18.677878	0.000188	1.880041	0.636975	0.000076
1843	1.8328e+02	-6.6463	-18.592743	0.000212	2.123938	0.719610	0.000086
1844	1.8338e+02	-6.5774	-18.512497	0.000200	2.001989	0.678292	0.000081
1845	1.8348e+02	-6.5244	-18.428584	0.000209	2.093451	0.709280	0.000084
1846	1.8358e+02	-6.5020	-18.352819	0.000189	1.890203	0.640418	0.000076
1847	1.8368e+02	-6.4923	-18.272572	0.000200	2.001989	0.678292	0.000081
1848	1.8378e+02	-6.4121	-18.200473	0.000180	1.798742	0.609430	0.000072
1849	1.8388e+02	-6.4057	-18.117375	0.000207	2.073126	0.702394	0.000084
1850	1.8398e+02	-6.3544	-18.038350	0.000197	1.971502	0.667963	0.000079
1851	1.8407e+02	-6.2854	-17.962992	0.000188	1.880041	0.636975	0.000076
1852	1.8417e+02	-6.2758	-17.883967	0.000197	1.971502	0.667963	0.000079
1853	1.8427e+02	-6.2068	-17.797611	0.000215	2.154425	0.729939	0.000087
1854	1.8437e+02	-6.1923	-17.720623	0.000192	1.920690	0.650747	0.000077
1855	1.8447e+02	-6.1330	-17.642821	0.000194	1.941015	0.657634	0.000078
1856	1.8457e+02	-6.0881	-17.566648	0.000190	1.900366	0.643861	0.000077
1857	1.8467e+02	-6.0752	-17.481920	0.000211	2.113776	0.716167	0.000085
1858	1.8477e+02	-6.0447	-17.404118	0.000194	1.941015	0.657634	0.000078
1859	1.8487e+02	-6.0046	-17.317761	0.000215	2.154425	0.729939	0.000087
1860	1.8497e+02	-5.9421	-17.242403	0.000188	1.880041	0.636975	0.000076
1861	1.8507e+02	-5.9228	-17.163378	0.000197	1.971502	0.667963	0.000079
1862	1.8517e+02	-5.8522	-17.080281	0.000207	2.073126	0.702394	0.000084
1863	1.8527e+02	-5.8410	-17.002478	0.000194	1.941015	0.657634	0.000078
1864	1.8537e+02	-5.7833	-16.925083	0.000193	1.930853	0.654191	0.000078
1865	1.8547e+02	-5.7480	-16.850539	0.000186	1.859716	0.630089	0.000075
1866	1.8557e+02	-5.7239	-16.767034	0.000208	2.083288	0.705837	0.000084
1867	1.8567e+02	-5.6726	-16.694934	0.000180	1.798742	0.609430	0.000072
1868	1.8577e+02	-5.6325	-16.605726	0.000223	2.225562	0.754041	0.000090
1869	1.8587e+02	-5.5875	-16.532812	0.000182	1.819066	0.616316	0.000073
1870	1.8597e+02	-5.5378	-16.449307	0.000208	2.083288	0.705837	0.000084
1871	1.8606e+02	-5.5009	-16.366209	0.000207	2.073126	0.702394	0.000084
1872	1.8616e+02	-5.4897	-16.281889	0.000210	2.103613	0.712723	0.000085
1873	1.8626e+02	-5.4287	-16.205716	0.000190	1.900366	0.643861	0.000077
1874	1.8636e+02	-5.3886	-16.123840	0.000204	2.042639	0.692065	0.000082
1875	1.8646e+02	-5.3597	-16.043186	0.000201	2.012152	0.681735	0.000081
1876	1.8656e+02	-5.3180	-15.964162	0.000197	1.971502	0.667963	0.000079
1877	1.8666e+02	-5.2779	-15.880657	0.000208	2.083288	0.705837	0.000084
1878	1.8676e+02	-5.2186	-15.791041	0.000224	2.235724	0.757484	0.000090
1879	1.8686e+02	-5.2025	-15.712832	0.000195	1.951177	0.661077	0.000079
1880	1.8696e+02	-5.1464	-15.626882	0.000214	2.144263	0.726496	0.000086
1881	1.8706e+02	-5.0999	-15.546228	0.000201	2.012152	0.681735	0.000081
1882	1.8716e+02	-5.0822	-15.460279	0.000214	2.144263	0.726496	0.000086
1883	1.8726e+02	-5.0325	-15.371479	0.000222	2.215399	0.750598	0.000089
1884	1.8736e+02	-4.9811	-15.289195	0.000205	2.052801	0.695508	0.000083
1885	1.8746e+02	-4.9507	-15.202839	0.000215	2.154425	0.729939	0.000087
1886	1.8756e+02	-4.9073	-15.116482	0.000215	2.154425	0.729939	0.000087
1887	1.8766e+02	-4.8881	-15.022793	0.000234	2.337348	0.791915	0.000094
1888	1.8776e+02	-4.8319	-14.941732	0.000202	2.022314	0.685179	0.000081
1889	1.8786e+02	-4.7758	-14.855376	0.000215	2.154425	0.729939	0.000087
1890	1.8796e+02	-4.7517	-14.769426	0.000214	2.144263	0.726496	0.000086
1891	1.8806e+02	-4.7164	-14.683477	0.000214	2.144263	0.726496	0.000086
1892	1.8815e+02	-4.6731	-14.596713	0.000216	2.164587	0.733382	0.000087
1893	1.8825e+02	-4.6154	-14.503024	0.000234	2.337348	0.791915	0.000094
1894	1.8835e+02	-4.6154	-14.422370	-0.000201	-2.012152	-0.681735	0.000081
1895	1.8845e+02	-4.5576	-14.325016	0.000243	2.428809	0.822903	0.000098
1896	1.8855e+02	-4.5095	-14.242325	0.000206	2.062964	0.698951	0.000083
1897	1.8865e+02	-4.4598	-14.152302	0.000225	2.245887	0.760927	0.000090
1898	1.8875e+02	-4.4213	-14.067982	0.000210	2.103613	0.712723	0.000085
1899	1.8885e+02	-4.3892	-13.974294	0.000234	2.337348	0.791915	0.000094
1900	1.8895e+02	-4.3507	-13.891196	0.000207	2.073126	0.702394	0.000084
1901	1.8905e+02	-4.3266	-13.805654	0.000213	2.134100	0.723053	0.000086
1902	1.8915e+02	-4.2673	-13.716853	0.000222	2.215399	0.750598	0.000089
1903	1.8925e+02	-4.2528	-13.622757	0.000235	2.347510	0.795358	0.000095
1904	1.8935e+02	-4.2079	-13.536400	0.000215	2.154425	0.729939	0.000087
1905	1.8945e+02	-4.1662	-13.446378	0.000225	2.245887	0.760927	0.000090
1906	1.8955e+02	-4.1149	-13.355540	0.000227	2.266211	0.767813	0.000091
1907	1.8965e+02	-4.0892	-13.263888	0.000229	2.286536	0.774699	0.000092
1908	1.8975e+02	-4.0427	-13.176310	0.000218	2.184912	0.740268	0.000088
1909	1.8985e+02	-3.9833	-13.081806	0.000236	2.357673	0.798801	0.000095
1910	1.8995e+02	-3.9544	-12.990154	0.000229	2.286536	0.774699	0.000092
1911	1.9004e+02	-3.9175	-12.900539	0.000224	2.235724	0.757484	0.000090
1912	1.9014e+02	-3.8582	-12.810109	0.000226	2.256049	0.764370	0.000091
1913	1.9024e+02	-3.8486	-12.719679	0.000226	2.256049	0.764370	0.000091
1914	1.9034e+02	-3.8068	-12.629248	0.000226	2.256049	0.764370	0.000091
1915	1.9044e+02	-3.7844	-12.536782	0.000231	2.306861	0.781586	0.000093
1916	1.9054e+02	-3.7186	-12.442686	0.000235	2.347510	0.795358	0.000095
1917	1.9064e+02	-3.6769	-12.357958	0.000211	2.113776	0.716167	0.000085
1918	1.9074e+02	-3.6496	-12.258974	0.000247	2.469459	0.836675	0.000099
1919	1.9084e+02	-3.5871	-12.168544	0.000226	2.256049	0.764370	0.000091
1920	1.9094e+02	-3.5341	-12.074448	0.000235	2.347510	0.795358	0.000095
1921	1.9104e+02	-3.5117	-11.979944	0.000236	2.357673	0.798801	0.000095
1922	1.9114e+02	-3.4812	-11.887070	0.000232	2.317023	0.785029	0.000093
1923	1.9124e+02	-3.4475	-11.798677	0.000221	2.205237	0.747155	0.000089
1924	1.9134e+02	-3.4315	-11.699693	0.000247	2.469459	0.836675	0.000099
1925	1.9144e+02	-3.3384	-11.614558	0.000212	2.123938	0.719610	0.000086
1926	1.9154e+02	-3.2903	-11.521277	0.000233	2.327186	0.788472	0.000094
1927	1.9164e+02	-3.2807	-11.427181	0.000235	2.347510	0.795358	0.000095
1928	1.9174e+02	-3.2325	-11.332677	0.000236	2.357673	0.798801	0.000095
1929	1.9184e+02	-3.1619	-11.241432	0.000228	2.276374	0.771256	0.000092
1930	1.9194e+02	-3.1555	-11.147336	0.000235	2.347510	0.795358	0.000095
1931	1.9203e+02	-3.1234	-11.056906	0.000226	2.256049	0.764370	0.000091
1932	1.9213e+02	-3.0545	-10.953849	0.000257	2.571083	0.871106	0.000104
1933	1.9223e+02	-3.0352	-10.862196	0.000229	2.286536	0.774699	0.000092
1934	1.9233e+02	-2.9983	-10.766064	0.000240	2.398322	0.812574	0.000097
1935	1.9243e+02	-2.9277	-10.671968	0.000235	2.347510	0.795358	0.000095
1936	1.9253e+02	-2.9309	-10.571761	-0.000250	-2.499946	-0.847005	0.000101
1937	1.9263e+02	-2.8780	-10.476443	0.000238	2.377997	0.805687	0.000096
1938	1.9273e+02	-2.8331	-10.382347	0.000235	2.347510	0.795358	0.000095
1939	1.9283e+02	-2.8042	-10.287843	0.000236	2.357673	0.798801	0.000095
1940	1.9293e+02	-2.7625	-10.186823	0.000252	2.520271	0.853891	0.000102
1941	1.9303e+02	-2.7047	-10.087838	0.000247	2.469459	0.836675	0.000099
1942	1.9313e+02	-2.6903	-9.994150	0.000234	2.337348	0.791915	0.000094
1943	1.9323e+02	-2.6374	-9.894758	0.000248	2.479621	0.840118	0.000100
1944	1.9333e+02	-2.6133	-9.795366	0.000248	2.479621	0.840118	0.000100
1945	1.9343e+02	-2.5523	-9.700456	0.000237	2.367835	0.802244	0.000095
1946	1.9353e+02	-2.5186	-9.597805	0.000256	2.560920	0.867663	0.000103
1947	1.9363e+02	-2.4785	-9.499636	0.000245	2.449134	0.829789	0.000099
1948	1.9373e+02	-2.4384	-9.399837	0.000249	2.489784	0.843562	0.000100
1949	1.9383e+02	-2.4320	-9.293113	0.000266	2.662544	0.902094	0.000107
1950	1.9393e+02	-2.3791	-9.198202	0.000237	2.367835	0.802244	0.000095
1951	1.9403e+02	-2.2973	-9.091071	0.000267	2.672707	0.905538	0.000108
1952	1.9412e+02	-2.2860	-9.001048	0.000225	2.245887	0.760927	0.000090
1953	1.9422e+02	-2.2427	-8.897176	0.000259	2.591408	0.877993	0.000104
1954	1.9432e+02	-2.1994	-8.792082	0.000262	2.621895	0.888322	0.000106
1955	1.9442e+02	-2.1545	-8.693097	0.000247	2.469459	0.836675	0.000099
1956	1.9452e+02	-2.1208	-8.594113	0.000247	2.469459	0.836675	0.000099
1957	1.9462e+02	-2.0999	-8.495536	0.000246	2.459297	0.833232	0.000099
1958	1.9472e+02	-2.0310	-8.396552	0.000247	2.469459	0.836675	0.000099
1959	1.9482e+02	-1.9941	-8.290643	0.000264	2.642219	0.895208	0.000106
1960	1.9492e+02	-1.9604	-8.192881	0.000244	2.438972	0.826346	0.000098
1961	1.9502e+02	-1.9331	-8.098785	0.000235	2.347510	0.795358	0.000095
1962	1.9512e+02	-1.8850	-7.991654	0.000267	2.672707	0.905538	0.000108
1963	1.9522e+02	-1.8401	-7.893484	0.000245	2.449134	0.829789	0.000099
1964	1.9532e+02	-1.8032	-7.785946	0.000268	2.682869	0.908981	0.000108
1965	1.9542e+02	-1.7374	-7.692257	0.000234	2.337348	0.791915	0.000094
1966	1.9552e+02	-1.7454	-7.594087	-0.000245	-2.449134	-0.829789	0.000099
1967	1.9562e+02	-1.6860	-7.495918	0.000245	2.449134	0.829789	0.000099
1968	1.9572e+02	-1.6315	-7.395304	0.000251	2.510108	0.850448	0.000101
1969	1.9582e+02	-1.5850	-7.293876	0.000253	2.530433	0.857334	0.000102
1970	1.9592e+02	-1.5705	-7.192855	0.000252	2.520271	0.853891	0.000102
1971	1.9601e+02	-1.4967	-7.101203	0.000229	2.286536	0.774699	0.000092
1972	1.9611e+02	-1.4839	-6.996516	0.000261	2.611732	0.884879	0.000105
1973	1.9621e+02	-1.4422	-6.896717	0.000249	2.489784	0.843562	0.000100
1974	1.9631e+02	-1.4037	-6.800991	0.000239	2.388160	0.809130	0.000096
1975	1.9641e+02	-1.3748	-6.697526	0.000258	2.581245	0.874550	0.000104
1976	1.9651e+02	-1.3107	-6.595283	0.000255	2.550758	0.864220	0.000103
1977	1.9661e+02	-1.3042	-6.500372	0.000237	2.367835	0.802244	0.000095
1978	1.9671e+02	-1.2449	-6.393241	0.000267	2.672707	0.905538	0.000108
1979	1.9681e+02	-1.2112	-6.298331	0.000237	2.367835	0.802244	0.000095
1980	1.9691e+02	-1.1663	-6.194458	0.000259	2.591408	0.877993	0.000104
1981	1.9701e+02	-1.1326	-6.092623	0.000254	2.540596	0.860777	0.000102
1982	1.9711e+02	-1.0861	-5.992009	0.000251	2.510108	0.850448	0.000101
1983	1.9721e+02	-1.0379	-5.893839	0.000245	2.449134	0.829789	0.000099
1984	1.9731e+02	-1.0010	-5.789560	0.000260	2.601570	0.881436	0.000105
1985	1.9741e+02	-0.9722	-5.691390	0.000245	2.449134	0.829789	0.000099
1986	1.9751e+02	-0.9112	-5.587518	0.000259	2.591408	0.877993	0.000104
1987	1.9761e+02	-0.8920	-5.481201	0.000265	2.652382	0.898651	0.000107
1988	1.9771e+02	-0.8535	-5.385883	0.000238	2.377997	0.805687	0.000096
1989	1.9781e+02	-0.8021	-5.278345	0.000268	2.682869	0.908981	0.000108
1990	1.9791e+02	-0.7781	-5.176102	0.000255	2.550758	0.864220	0.000103
1991	1.9800e+02	-0.7075	-5.073859	0.000255	2.550758	0.864220	0.000103
1992	1.9810e+02	-0.6866	-4.977319	0.000241	2.408485	0.816017	0.000097
1993	1.9820e+02	-0.6224	-4.870188	0.000267	2.672707	0.905538	0.000108
1994	1.9830e+02	-0.6128	-4.775277	0.000237	2.367835	0.802244	0.000095
1995	1.9840e+02	-0.5695	-4.673034	0.000255	2.550758	0.864220	0.000103
1996	1.9850e+02	-0.5262	-4.568347	0.000261	2.611732	0.884879	0.000105
1997	1.9860e+02	-0.4781	-4.460808	0.000268	2.682869	0.908981	0.000108
1998	1.9870e+02	-0.4412	-4.361417	0.000248	2.479621	0.840118	0.000100
1999	1.9880e+02	-0.4123	-4.257952	0.000258	2.581245	0.874550	0.000104
2000	1.9890e+02	-0.3593	-4.155709	0.000255	2.550758	0.864220	0.000103
2001	1.9900e+02	-0.3321	-4.053058	0.000256	2.560920	0.867663	0.000103
2002	1.9910e+02	-0.2856	-3.955704	0.000243	2.428809	0.822903	0.000098
2003	1.9920e+02	-0.2679	-3.851016	0.000261	2.611732	0.884879	0.000105
2004	1.9930e+02	-0.2053	-3.746737	0.000260	2.601570	0.881436	0.000105
2005	1.9940e+02	-0.1604	-3.641642	0.000262	2.621895	0.888322	0.000106
2006	1.9950e+02	-0.1476	-3.544288	0.000243	2.428809	0.822903	0.000098
2007	1.9960e+02	-0.0898	-3.433083	0.000277	2.774330	0.939969	0.000112
2008	1.9970e+02	-0.0529	-3.333284	0.000249	2.489784	0.843562	0.000100
2009	1.9980e+02	0.0032	-3.224524	0.000249	2.489784	0.843562	0.000109

Center data before PMax,+/-Pr and +/-Vc Calc.

PMax (uC/cm2):	4.09e+01
Pr (uC/cm2):	8.69e-01
-Pr (uC/cm2):	-3.22e+00
PLoss (uC/cm2):	-1.52e+00
Vc:	6.86e-01
-Vc:	-3.13e-01
C (Max-Eff) (nF):	2.05e-01
K (Eff):	6.93e+02
Vert. (+/-Pr) Shift (uC/cm2):	-1.18e+00
Horiz. Shift (+/-Vc):	1.87e-01
Offset (uC/cm2):	1.69e+00

A (Loop Area - uC/cm2·Volts):	2.74e-02



Hysteresis Version: 5.48.1 - Radiant Technologies, Inc., 1999 - 9/12/24

