»»»»»»»»»»»»»»»»»»»»»»»»»»»»»»»»»»»» Hysteresis ««««««««««««««««««««««««««««««««««««
»»»  Executed Version:	5.48.1
»»»  Vision Version:	5.48.4 (R)
»»»  Vision Compiled:	9/18/24
»»»  Driver Version:	5.47.0
»»»  Windows Version:	Windows 8 or 8.1
»»»  Processor Information:	x86 (AMD or Intel) - 32 Processors
»»»  Tester Name:	PMF21124-494 (100V)
»»»  Tester S/N:	PMF21124-494
»»»  Internal Amp Type:	100V RevK 270k
»»»  Internal Amp S/N:	iAB2-596/K     
»»»  Execution Count:	1
»»»»»»»»»»»»»»»»»»»»»»»»»»»»»»»»»»»»»»»»»»««««««««««««««««««««««««««««««««««««««««««

Stored:	6/27/2025 - 10:58:16
Configured:	06/27/25 10:20:27 AM
Executed:	06/27/25 10:57:51 AM

»»»»»»»»»»»»»»»»»»»»»»»»»»»»»»»»»»» Sample Info ««««««««««««««««««««««««««««««««««««
Sample Name:	
Lot Name:	
Wafer Name:	
Die Row/Column:	0/0
Capacitor Number:	0
Sample Area (cm2):	1.00e-04
Sample Thickness (microns):	1.50e-01

Amplifier:	Internal

»»»»»»»»»»»»»»»»»»»»»»»»»»»»»»»»»»» Tester Info «««««««««««««««««««««««««««««««««««
Tester Name:	PMF21124-494 (100V)
Tester Serial Number:	PMF21124-494
Return Signal Amp. Level:	1.79 [Index: 2]

»»»»»»»»»»»»»»»»»»»»»»»»»»»»»»»» Hysteresis Info ««««««««««««««««««««««««««««««««««
Task Name:	Hyst-1242
Volts:	10.00
Field:	666.67 (kV/cm)
DCBias:	0.00
DCField:	0.00 (kV/cm)
Hysteresis Period (ms):	1.00e+00
Preset:	Enabled
Preset Delay (ms):	1.00e+03
Profile:	Standard Monopolar

»»»»»»»»»»»»»»»»»»»»»»»»»»»»»»»»»»»»»» Data «««««««««««««««««««««««««««««««««««««««
Points:	2001

Valid Data

Point	Time (ms)	Drive Voltage	Measured Polarization (uC/cm2)	Capacitance (uF)	Normalized Capacitance (uF/cm2)	Dielectric Constant	Instantaneous Current (mA)
   1	0.0000e+00	-0.0060	-15.921344	0.000718	7.179668	1.216269	0.014368
   2	5.0000e-04	0.0060	-15.849503	0.000718	7.179668	1.216269	0.014368
   3	1.0000e-03	0.0152	-15.804175	0.000453	4.530028	0.767408	0.009066
   4	1.5000e-03	0.0268	-15.738321	0.000658	6.581362	1.114913	0.013171
   5	2.0000e-03	0.0356	-15.724637	0.000137	1.367556	0.231670	0.002737
   6	2.5000e-03	0.0454	-15.665197	0.000594	5.940320	1.006318	0.011888
   7	3.0000e-03	0.0552	-15.619868	0.000453	4.530028	0.767408	0.009066
   8	3.5000e-03	0.0636	-15.588224	0.000316	3.162473	0.535737	0.006329
   9	4.0000e-03	0.0772	-15.548883	0.000393	3.931723	0.666052	0.007868
  10	4.5000e-03	0.0853	-15.510396	0.000385	3.846251	0.651572	0.007697
  11	5.0000e-03	0.0969	-15.462930	0.000474	4.743709	0.803606	0.009493
  12	5.5000e-03	0.1073	-15.420167	0.000427	4.273612	0.723969	0.008553
  13	6.0000e-03	0.1150	-15.393227	0.000269	2.692375	0.456101	0.005388
  14	6.5000e-03	0.1254	-15.341484	0.000517	5.171070	0.876003	0.010349
  15	7.0000e-03	0.1385	-15.294446	0.000470	4.700973	0.796366	0.009408
  16	7.5000e-03	0.1456	-15.260663	0.000338	3.376153	0.571936	0.006756
  17	8.0000e-03	0.1564	-15.209348	0.000513	5.128334	0.868763	0.010263
  18	8.5000e-03	0.1681	-15.176421	0.000329	3.290681	0.557456	0.006585
  19	9.0000e-03	0.1768	-15.133658	0.000427	4.273612	0.723969	0.008553
  20	9.5000e-03	0.1872	-15.081061	0.000526	5.256542	0.890482	0.010520
  21	1.0000e-02	0.1991	-15.034877	0.000462	4.615501	0.781887	0.009237
  22	1.0500e-02	0.2099	-14.984845	0.000500	5.000126	0.847044	0.010006
  23	1.1000e-02	0.2183	-14.955339	0.000295	2.948792	0.499539	0.005901
  24	1.1500e-02	0.2258	-14.887346	0.000680	6.795043	1.151111	0.013598
  25	1.2000e-02	0.2353	-14.862544	0.000248	2.478695	0.419902	0.004960
  26	1.2500e-02	0.2454	-14.811657	0.000509	5.085598	0.861524	0.010177
  27	1.3000e-02	0.2570	-14.772743	0.000389	3.888987	0.658812	0.007783
  28	1.3500e-02	0.2673	-14.714158	0.000585	5.854848	0.991838	0.011717
  29	1.4000e-02	0.2757	-14.689783	0.000244	2.435959	0.412663	0.004875
  30	1.4500e-02	0.2878	-14.652152	0.000376	3.760778	0.637093	0.007526
  31	1.5000e-02	0.2952	-14.604258	0.000479	4.786445	0.810846	0.009579
  32	1.5500e-02	0.3077	-14.567483	0.000368	3.675306	0.622614	0.007355
  33	1.6000e-02	0.3170	-14.505905	0.000615	6.154001	1.042516	0.012316
  34	1.6500e-02	0.3259	-14.457583	0.000483	4.829181	0.818085	0.009664
  35	1.7000e-02	0.3348	-14.423373	0.000342	3.418889	0.579176	0.006842
  36	1.7500e-02	0.3465	-14.374196	0.000491	4.914653	0.832565	0.009835
  37	1.8000e-02	0.3544	-14.331433	0.000427	4.273612	0.723969	0.008553
  38	1.8500e-02	0.3667	-14.303210	0.000282	2.820584	0.477820	0.005645
  39	1.9000e-02	0.3745	-14.242915	0.000603	6.025793	1.020797	0.012059
  40	1.9500e-02	0.3859	-14.220251	0.000227	2.265014	0.383704	0.004533
  41	2.0000e-02	0.3960	-14.162949	0.000573	5.726640	0.970119	0.011460
  42	2.0500e-02	0.4056	-14.131305	0.000316	3.162473	0.535737	0.006329
  43	2.1000e-02	0.4169	-14.082556	0.000487	4.871917	0.825325	0.009750
  44	2.1500e-02	0.4263	-14.041504	0.000410	4.102667	0.695011	0.008210
  45	2.2000e-02	0.4379	-14.006011	0.000355	3.547098	0.600895	0.007099
  46	2.2500e-02	0.4457	-13.943150	0.000628	6.282209	1.064235	0.012572
  47	2.3000e-02	0.4588	-13.908940	0.000342	3.418889	0.579176	0.006842
  48	2.3500e-02	0.4662	-13.864894	0.000440	4.401820	0.745689	0.008809
  49	2.4000e-02	0.4749	-13.829829	0.000350	3.504362	0.593655	0.007013
  50	2.4500e-02	0.4887	-13.772527	0.000573	5.726640	0.970119	0.011460
  51	2.5000e-02	0.4968	-13.725488	0.000470	4.700973	0.796366	0.009408
  52	2.5500e-02	0.5058	-13.699403	0.000261	2.606903	0.441621	0.005217
  53	2.6000e-02	0.5164	-13.657068	0.000423	4.230876	0.716730	0.008467
  54	2.6500e-02	0.5286	-13.607464	0.000496	4.957390	0.839805	0.009921
  55	2.7000e-02	0.5398	-13.563846	0.000436	4.359084	0.738449	0.008724
  56	2.7500e-02	0.5477	-13.513814	0.000500	5.000126	0.847044	0.010006
  57	2.8000e-02	0.5580	-13.493288	0.000205	2.051334	0.347505	0.004105
  58	2.8500e-02	0.5659	-13.437269	0.000560	5.598431	0.948400	0.011204
  59	2.9000e-02	0.5778	-13.400066	0.000372	3.718042	0.629853	0.007441
  60	2.9500e-02	0.5833	-13.350461	0.000496	4.957390	0.839805	0.009921
  61	3.0000e-02	0.5991	-13.314541	0.000359	3.589834	0.608134	0.007184
  62	3.0500e-02	0.6094	-13.272206	0.000423	4.230876	0.716730	0.008467
  63	3.1000e-02	0.6184	-13.219608	0.000526	5.256542	0.890482	0.010520
  64	3.1500e-02	0.6271	-13.175562	0.000440	4.401820	0.745689	0.008809
  65	3.2000e-02	0.6360	-13.138787	0.000368	3.675306	0.622614	0.007355
  66	3.2500e-02	0.6447	-13.110136	0.000286	2.863320	0.485060	0.005730
  67	3.3000e-02	0.6575	-13.056683	0.000534	5.342015	0.904962	0.010691
  68	3.3500e-02	0.6651	-13.017769	0.000389	3.888987	0.658812	0.007783
  69	3.4000e-02	0.6766	-12.982703	0.000350	3.504362	0.593655	0.007013
  70	3.4500e-02	0.6867	-12.910435	0.000722	7.222404	1.223508	0.014454
  71	3.5000e-02	0.6944	-12.868527	0.000419	4.188140	0.709490	0.008381
  72	3.5500e-02	0.7072	-12.844580	0.000239	2.393223	0.405423	0.004789
  73	3.6000e-02	0.7175	-12.803101	0.000415	4.145403	0.702250	0.008296
  74	3.6500e-02	0.7261	-12.762476	0.000406	4.059931	0.687771	0.008125
  75	3.7000e-02	0.7368	-12.726556	0.000359	3.589834	0.608134	0.007184
  76	3.7500e-02	0.7481	-12.669682	0.000568	5.683904	0.962879	0.011375
  77	3.8000e-02	0.7574	-12.638893	0.000308	3.077000	0.521258	0.006158
  78	3.8500e-02	0.7663	-12.584157	0.000547	5.470223	0.926681	0.010947
  79	3.9000e-02	0.7777	-12.546098	0.000380	3.803514	0.644333	0.007612
  80	3.9500e-02	0.7868	-12.487941	0.000581	5.812112	0.984598	0.011631
  81	4.0000e-02	0.7981	-12.487086	0.000009	0.085472	0.014479	0.000171
  82	4.0500e-02	0.8078	-12.421659	0.000654	6.538626	1.107673	0.013085
  83	4.1000e-02	0.8177	-12.378896	0.000427	4.273612	0.723969	0.008553
  84	4.1500e-02	0.8260	-12.336989	0.000419	4.188140	0.709490	0.008381
  85	4.2000e-02	0.8344	-12.301496	0.000355	3.547098	0.600895	0.007099
  86	4.2500e-02	0.8464	-12.254030	0.000474	4.743709	0.803606	0.009493
  87	4.3000e-02	0.8593	-12.208274	0.000457	4.572765	0.774647	0.009151
  88	4.3500e-02	0.8660	-12.179195	0.000291	2.906056	0.492299	0.005816
  89	4.4000e-02	0.8784	-12.130874	0.000483	4.829181	0.818085	0.009664
  90	4.4500e-02	0.8875	-12.085546	0.000453	4.530028	0.767408	0.009066
  91	4.5000e-02	0.8985	-12.069296	0.000162	1.623972	0.275108	0.003250
  92	4.5500e-02	0.9063	-12.010283	0.000590	5.897584	0.999078	0.011802
  93	4.6000e-02	0.9169	-11.965810	0.000444	4.444556	0.752928	0.008895
  94	4.6500e-02	0.9290	-11.923903	0.000419	4.188140	0.709490	0.008381
  95	4.7000e-02	0.9376	-11.881568	0.000423	4.230876	0.716730	0.008467
  96	4.7500e-02	0.9515	-11.842227	0.000393	3.931723	0.666052	0.007868
  97	4.8000e-02	0.9578	-11.795616	0.000466	4.658237	0.789127	0.009322
  98	4.8500e-02	0.9682	-11.765254	0.000303	3.034264	0.514018	0.006072
  99	4.9000e-02	0.9790	-11.733610	0.000316	3.162473	0.535737	0.006329
 100	4.9500e-02	0.9866	-11.678874	0.000547	5.470223	0.926681	0.010947
 101	5.0000e-02	0.9975	-11.642526	0.000363	3.632570	0.615374	0.007270
 102	5.0500e-02	1.0101	-11.619862	0.000227	2.265014	0.383704	0.004533
 103	5.1000e-02	1.0193	-11.545882	0.000739	7.393348	1.252467	0.014796
 104	5.1500e-02	1.0245	-11.513383	0.000325	3.247945	0.550217	0.006500
 105	5.2000e-02	1.0355	-11.481311	0.000321	3.205209	0.542977	0.006414
 106	5.2500e-02	1.0469	-11.438976	0.000423	4.230876	0.716730	0.008467
 107	5.3000e-02	1.0541	-11.376543	0.000624	6.239473	1.056995	0.012487
 108	5.3500e-02	1.0680	-11.359010	0.000175	1.752181	0.296827	0.003507
 109	5.4000e-02	1.0748	-11.320524	0.000385	3.846251	0.651572	0.007697
 110	5.4500e-02	1.0850	-11.259373	0.000611	6.111265	1.035276	0.012230
 111	5.5000e-02	1.0988	-11.232433	0.000269	2.692375	0.456101	0.005388
 112	5.5500e-02	1.1090	-11.181546	0.000509	5.085598	0.861524	0.010177
 113	5.6000e-02	1.1163	-11.148191	0.000333	3.333417	0.564696	0.006671
 114	5.6500e-02	1.1262	-11.111843	0.000363	3.632570	0.615374	0.007270
 115	5.7000e-02	1.1373	-11.075067	0.000368	3.675306	0.622614	0.007355
 116	5.7500e-02	1.1526	-11.015199	0.000598	5.983056	1.013557	0.011974
 117	5.8000e-02	1.1555	-10.988259	0.000269	2.692375	0.456101	0.005388
 118	5.8500e-02	1.1646	-10.943786	0.000444	4.444556	0.752928	0.008895
 119	5.9000e-02	1.1774	-10.909148	0.000346	3.461626	0.586415	0.006928
 120	5.9500e-02	1.1875	-10.883491	0.000256	2.564167	0.434382	0.005132
 121	6.0000e-02	1.1996	-10.832176	0.000513	5.128334	0.868763	0.010263
 122	6.0500e-02	1.2083	-10.795400	0.000368	3.675306	0.622614	0.007355
 123	6.1000e-02	1.2170	-10.762045	0.000333	3.333417	0.564696	0.006671
 124	6.1500e-02	1.2274	-10.723987	0.000380	3.803514	0.644333	0.007612
 125	6.2000e-02	1.2361	-10.676093	0.000479	4.786445	0.810846	0.009579
 126	6.2500e-02	1.2508	-10.641883	0.000342	3.418889	0.579176	0.006842
 127	6.3000e-02	1.2574	-10.595271	0.000466	4.658237	0.789127	0.009322
 128	6.3500e-02	1.2678	-10.540108	0.000551	5.512959	0.933921	0.011033
 129	6.4000e-02	1.2764	-10.516588	0.000235	2.350486	0.398183	0.004704
 130	6.4500e-02	1.2872	-10.473398	0.000432	4.316348	0.731209	0.008638
 131	6.5000e-02	1.2995	-10.422938	0.000504	5.042862	0.854284	0.010092
 132	6.5500e-02	1.3086	-10.385735	0.000372	3.718042	0.629853	0.007441
 133	6.6000e-02	1.3154	-10.357084	0.000286	2.863320	0.485060	0.005730
 134	6.6500e-02	1.3296	-10.315177	0.000419	4.188140	0.709490	0.008381
 135	6.7000e-02	1.3371	-10.275835	0.000393	3.931723	0.666052	0.007868
 136	6.7500e-02	1.3503	-10.250178	0.000256	2.564167	0.434382	0.005132
 137	6.8000e-02	1.3550	-10.206132	0.000440	4.401820	0.745689	0.008809
 138	6.8500e-02	1.3657	-10.163798	0.000423	4.230876	0.716730	0.008467
 139	6.9000e-02	1.3786	-10.120180	0.000436	4.359084	0.738449	0.008724
 140	6.9500e-02	1.3860	-10.071858	0.000483	4.829181	0.818085	0.009664
 141	7.0000e-02	1.3965	-10.042780	0.000291	2.906056	0.492299	0.005816
 142	7.0500e-02	1.4081	-10.010708	0.000321	3.205209	0.542977	0.006414
 143	7.1000e-02	1.4183	-9.965379	0.000453	4.530028	0.767408	0.009066
 144	7.1500e-02	1.4296	-9.937584	0.000278	2.777848	0.470580	0.005559
 145	7.2000e-02	1.4355	-9.877716	0.000598	5.983056	1.013557	0.011974
 146	7.2500e-02	1.4465	-9.867453	0.000103	1.025667	0.173753	0.002053
 147	7.3000e-02	1.4582	-9.813145	0.000543	5.427487	0.919441	0.010862
 148	7.3500e-02	1.4645	-9.760547	0.000526	5.256542	0.890482	0.010520
 149	7.4000e-02	1.4751	-9.733179	0.000274	2.735112	0.463340	0.005474
 150	7.4500e-02	1.4863	-9.705811	0.000274	2.735112	0.463340	0.005474
 151	7.5000e-02	1.4935	-9.651930	0.000538	5.384751	0.912201	0.010776
 152	7.5500e-02	1.5057	-9.643378	0.000085	0.854722	0.144794	0.001711
 153	7.6000e-02	1.5192	-9.580089	0.000632	6.324945	1.071475	0.012658
 154	7.6500e-02	1.5260	-9.539892	0.000402	4.017195	0.680531	0.008039
 155	7.7000e-02	1.5356	-9.481308	0.000585	5.854848	0.991838	0.011717
 156	7.7500e-02	1.5480	-9.483446	-0.000021	-0.213681	-0.036198	-0.000428
 157	7.8000e-02	1.5542	-9.422295	0.000611	6.111265	1.035276	0.012230
 158	7.8500e-02	1.5675	-9.389368	0.000329	3.290681	0.557456	0.006585
 159	7.9000e-02	1.5736	-9.356441	0.000329	3.290681	0.557456	0.006585
 160	7.9500e-02	1.5857	-9.306836	0.000496	4.957390	0.839805	0.009921
 161	8.0000e-02	1.5976	-9.272626	0.000342	3.418889	0.579176	0.006842
 162	8.0500e-02	1.6058	-9.248252	0.000244	2.435959	0.412663	0.004875
 163	8.1000e-02	1.6142	-9.207200	0.000410	4.102667	0.695011	0.008210
 164	8.1500e-02	1.6251	-9.145622	0.000615	6.154001	1.042516	0.012316
 165	8.2000e-02	1.6354	-9.123385	0.000222	2.222278	0.376464	0.004447
 166	8.2500e-02	1.6467	-9.089175	0.000342	3.418889	0.579176	0.006842
 167	8.3000e-02	1.6563	-9.050689	0.000385	3.846251	0.651572	0.007697
 168	8.3500e-02	1.6691	-9.022038	0.000286	2.863320	0.485060	0.005730
 169	8.4000e-02	1.6767	-8.994242	0.000278	2.777848	0.470580	0.005559
 170	8.4500e-02	1.6895	-8.956611	0.000376	3.760778	0.637093	0.007526
 171	8.5000e-02	1.6974	-8.901875	0.000547	5.470223	0.926681	0.010947
 172	8.5500e-02	1.7117	-8.862106	0.000397	3.974459	0.673292	0.007954
 173	8.6000e-02	1.7163	-8.825330	0.000368	3.675306	0.622614	0.007355
 174	8.6500e-02	1.7267	-8.785561	0.000397	3.974459	0.673292	0.007954
 175	8.7000e-02	1.7351	-8.751779	0.000338	3.376153	0.571936	0.006756
 176	8.7500e-02	1.7444	-8.716714	0.000350	3.504362	0.593655	0.007013
 177	8.8000e-02	1.7572	-8.659839	0.000568	5.683904	0.962879	0.011375
 178	8.8500e-02	1.7671	-8.620926	0.000389	3.888987	0.658812	0.007783
 179	8.9000e-02	1.7772	-8.603393	0.000175	1.752181	0.296827	0.003507
 180	8.9500e-02	1.7877	-8.564907	0.000385	3.846251	0.651572	0.007697
 181	9.0000e-02	1.7959	-8.521289	0.000436	4.359084	0.738449	0.008724
 182	9.0500e-02	1.8053	-8.485368	0.000359	3.589834	0.608134	0.007184
 183	9.1000e-02	1.8150	-8.452441	0.000329	3.290681	0.557456	0.006585
 184	9.1500e-02	1.8268	-8.421652	0.000308	3.077000	0.521258	0.006158
 185	9.2000e-02	1.8365	-8.400699	0.000209	2.094070	0.354745	0.004191
 186	9.2500e-02	1.8469	-8.328002	0.000727	7.265140	1.230748	0.014539
 187	9.3000e-02	1.8576	-8.315601	0.000124	1.239347	0.209951	0.002480
 188	9.3500e-02	1.8666	-8.245471	0.000701	7.008723	1.187310	0.014026
 189	9.4000e-02	1.8774	-8.216392	0.000291	2.906056	0.492299	0.005816
 190	9.4500e-02	1.8872	-8.186031	0.000303	3.034264	0.514018	0.006072
 191	9.5000e-02	1.8988	-8.152676	0.000333	3.333417	0.564696	0.006671
 192	9.5500e-02	1.9069	-8.119321	0.000333	3.333417	0.564696	0.006671
 193	9.6000e-02	1.9171	-8.079552	0.000397	3.974459	0.673292	0.007954
 194	9.6500e-02	1.9286	-8.041066	0.000385	3.846251	0.651572	0.007697
 195	9.7000e-02	1.9378	-8.021823	0.000192	1.923125	0.325786	0.003849
 196	9.7500e-02	1.9467	-7.952120	0.000697	6.965987	1.180070	0.013941
 197	9.8000e-02	1.9557	-7.933304	0.000188	1.880389	0.318547	0.003763
 198	9.8500e-02	1.9672	-7.890969	0.000423	4.230876	0.716730	0.008467
 199	9.9000e-02	1.9772	-7.854621	0.000363	3.632570	0.615374	0.007270
 200	9.9500e-02	1.9863	-7.822977	0.000316	3.162473	0.535737	0.006329
 201	1.0000e-01	1.9969	-7.777221	0.000457	4.572765	0.774647	0.009151
 202	1.0050e-01	2.0087	-7.736596	0.000406	4.059931	0.687771	0.008125
 203	1.0100e-01	2.0172	-7.710511	0.000261	2.606903	0.441621	0.005217
 204	1.0150e-01	2.0289	-7.680578	0.000299	2.991528	0.506779	0.005987
 205	1.0200e-01	2.0370	-7.633539	0.000470	4.700973	0.796366	0.009408
 206	1.0250e-01	2.0494	-7.608737	0.000248	2.478695	0.419902	0.004960
 207	1.0300e-01	2.0596	-7.566402	0.000423	4.230876	0.716730	0.008467
 208	1.0350e-01	2.0674	-7.527488	0.000389	3.888987	0.658812	0.007783
 209	1.0400e-01	2.0772	-7.492422	0.000350	3.504362	0.593655	0.007013
 210	1.0450e-01	2.0878	-7.458212	0.000342	3.418889	0.579176	0.006842
 211	1.0500e-01	2.0981	-7.406897	0.000513	5.128334	0.868763	0.010263
 212	1.0550e-01	2.1065	-7.378246	0.000286	2.863320	0.485060	0.005730
 213	1.0600e-01	2.1170	-7.364990	0.000132	1.324820	0.224431	0.002651
 214	1.0650e-01	2.1277	-7.294432	0.000705	7.051459	1.194550	0.014112
 215	1.0700e-01	2.1356	-7.270057	0.000244	2.435959	0.412663	0.004875
 216	1.0750e-01	2.1499	-7.237558	0.000325	3.247945	0.550217	0.006500
 217	1.0800e-01	2.1579	-7.181539	0.000560	5.598431	0.948400	0.011204
 218	1.0850e-01	2.1674	-7.158019	0.000235	2.350486	0.398183	0.004704
 219	1.0900e-01	2.1796	-7.118250	0.000397	3.974459	0.673292	0.007954
 220	1.0950e-01	2.1875	-7.090455	0.000278	2.777848	0.470580	0.005559
 221	1.1000e-01	2.1974	-7.040423	0.000500	5.000126	0.847044	0.010006
 222	1.1050e-01	2.2058	-7.014337	0.000261	2.606903	0.441621	0.005217
 223	1.1100e-01	2.2168	-6.971147	0.000432	4.316348	0.731209	0.008638
 224	1.1150e-01	2.2285	-6.939931	0.000312	3.119737	0.528498	0.006243
 225	1.1200e-01	2.2366	-6.901872	0.000380	3.803514	0.644333	0.007612
 226	1.1250e-01	2.2488	-6.874076	0.000278	2.777848	0.470580	0.005559
 227	1.1300e-01	2.2569	-6.826182	0.000479	4.786445	0.810846	0.009579
 228	1.1350e-01	2.2667	-6.786841	0.000393	3.931723	0.666052	0.007868
 229	1.1400e-01	2.2781	-6.774012	0.000128	1.282084	0.217191	0.002566
 230	1.1450e-01	2.2885	-6.723980	0.000500	5.000126	0.847044	0.010006
 231	1.1500e-01	2.2984	-6.704737	0.000192	1.923125	0.325786	0.003849
 232	1.1550e-01	2.3059	-6.655560	0.000491	4.914653	0.832565	0.009835
 233	1.1600e-01	2.3163	-6.613652	0.000419	4.188140	0.709490	0.008381
 234	1.1650e-01	2.3263	-6.596547	0.000171	1.709445	0.289588	0.003421
 235	1.1700e-01	2.3374	-6.562337	0.000342	3.418889	0.579176	0.006842
 236	1.1750e-01	2.3471	-6.495200	0.000671	6.709570	1.136632	0.013427
 237	1.1800e-01	2.3584	-6.459280	0.000359	3.589834	0.608134	0.007184
 238	1.1850e-01	2.3677	-6.436616	0.000227	2.265014	0.383704	0.004533
 239	1.1900e-01	2.3787	-6.402833	0.000338	3.376153	0.571936	0.006756
 240	1.1950e-01	2.3888	-6.366485	0.000363	3.632570	0.615374	0.007270
 241	1.2000e-01	2.3979	-6.342110	0.000244	2.435959	0.412663	0.004875
 242	1.2050e-01	2.4115	-6.298493	0.000436	4.359084	0.738449	0.008724
 243	1.2100e-01	2.4176	-6.263000	0.000355	3.547098	0.600895	0.007099
 244	1.2150e-01	2.4296	-6.223658	0.000393	3.931723	0.666052	0.007868
 245	1.2200e-01	2.4374	-6.198428	0.000252	2.521431	0.427142	0.005046
 246	1.2250e-01	2.4490	-6.157804	0.000406	4.059931	0.687771	0.008125
 247	1.2300e-01	2.4580	-6.116752	0.000410	4.102667	0.695011	0.008210
 248	1.2350e-01	2.4703	-6.093233	0.000235	2.350486	0.398183	0.004704
 249	1.2400e-01	2.4774	-6.044911	0.000483	4.829181	0.818085	0.009664
 250	1.2450e-01	2.4881	-6.008990	0.000359	3.589834	0.608134	0.007184
 251	1.2500e-01	2.4997	-5.970076	0.000389	3.888987	0.658812	0.007783
 252	1.2550e-01	2.5089	-5.943136	0.000269	2.692375	0.456101	0.005388
 253	1.2600e-01	2.5189	-5.915340	0.000278	2.777848	0.470580	0.005559
 254	1.2650e-01	2.5299	-5.886690	0.000286	2.863320	0.485060	0.005730
 255	1.2700e-01	2.5369	-5.845638	0.000410	4.102667	0.695011	0.008210
 256	1.2750e-01	2.5477	-5.794750	0.000509	5.085598	0.861524	0.010177
 257	1.2800e-01	2.5590	-5.761395	0.000333	3.333417	0.564696	0.006671
 258	1.2850e-01	2.5684	-5.726758	0.000346	3.461626	0.586415	0.006928
 259	1.2900e-01	2.5754	-5.698534	0.000282	2.820584	0.477820	0.005645
 260	1.2950e-01	2.5856	-5.681429	0.000171	1.709445	0.289588	0.003421
 261	1.3000e-01	2.5961	-5.640377	0.000410	4.102667	0.695011	0.008210
 262	1.3050e-01	2.6086	-5.588635	0.000517	5.171070	0.876003	0.010349
 263	1.3100e-01	2.6178	-5.563405	0.000252	2.521431	0.427142	0.005046
 264	1.3150e-01	2.6277	-5.516794	0.000466	4.658237	0.789127	0.009322
 265	1.3200e-01	2.6372	-5.473176	0.000436	4.359084	0.738449	0.008724
 266	1.3250e-01	2.6466	-5.443242	0.000299	2.991528	0.506779	0.005987
 267	1.3300e-01	2.6581	-5.432979	0.000103	1.025667	0.173753	0.002053
 268	1.3350e-01	2.6654	-5.370118	0.000628	6.282209	1.064235	0.012572
 269	1.3400e-01	2.6791	-5.375250	-0.000051	-0.512833	-0.086876	-0.001026
 270	1.3450e-01	2.6893	-5.311534	0.000637	6.367681	1.078714	0.012743
 271	1.3500e-01	2.6969	-5.272192	0.000393	3.931723	0.666052	0.007868
 272	1.3550e-01	2.7054	-5.261501	0.000107	1.068403	0.180992	0.002138
 273	1.3600e-01	2.7176	-5.228147	0.000333	3.333417	0.564696	0.006671
 274	1.3650e-01	2.7275	-5.164003	0.000641	6.410418	1.085954	0.012829
 275	1.3700e-01	2.7393	-5.128082	0.000359	3.589834	0.608134	0.007184
 276	1.3750e-01	2.7472	-5.126372	0.000017	0.170944	0.028959	0.000342
 277	1.3800e-01	2.7577	-5.080616	0.000457	4.572765	0.774647	0.009151
 278	1.3850e-01	2.7686	-5.018183	0.000624	6.239473	1.056995	0.012487
 279	1.3900e-01	2.7783	-4.989532	0.000286	2.863320	0.485060	0.005730
 280	1.3950e-01	2.7856	-4.958743	0.000308	3.077000	0.521258	0.006158
 281	1.4000e-01	2.7973	-4.935651	0.000231	2.307750	0.390943	0.004618
 282	1.4050e-01	2.8085	-4.897165	0.000385	3.846251	0.651572	0.007697
 283	1.4100e-01	2.8198	-4.856968	0.000402	4.017195	0.680531	0.008039
 284	1.4150e-01	2.8266	-4.829600	0.000274	2.735112	0.463340	0.005474
 285	1.4200e-01	2.8369	-4.786837	0.000427	4.273612	0.723969	0.008553
 286	1.4250e-01	2.8452	-4.755621	0.000312	3.119737	0.528498	0.006243
 287	1.4300e-01	2.8568	-4.705161	0.000504	5.042862	0.854284	0.010092
 288	1.4350e-01	2.8674	-4.680359	0.000248	2.478695	0.419902	0.004960
 289	1.4400e-01	2.8787	-4.662398	0.000179	1.794917	0.304067	0.003592
 290	1.4450e-01	2.8866	-4.623912	0.000385	3.846251	0.651572	0.007697
 291	1.4500e-01	2.8989	-4.583715	0.000402	4.017195	0.680531	0.008039
 292	1.4550e-01	2.9044	-4.546084	0.000376	3.760778	0.637093	0.007526
 293	1.4600e-01	2.9198	-4.508881	0.000372	3.718042	0.629853	0.007441
 294	1.4650e-01	2.9282	-4.488783	0.000201	2.008598	0.340266	0.004020
 295	1.4700e-01	2.9352	-4.446448	0.000423	4.230876	0.716730	0.008467
 296	1.4750e-01	2.9456	-4.415231	0.000312	3.119737	0.528498	0.006243
 297	1.4800e-01	2.9578	-4.382304	0.000329	3.290681	0.557456	0.006585
 298	1.4850e-01	2.9671	-4.351087	0.000312	3.119737	0.528498	0.006243
 299	1.4900e-01	2.9761	-4.301055	0.000500	5.000126	0.847044	0.010006
 300	1.4950e-01	2.9861	-4.271976	0.000291	2.906056	0.492299	0.005816
 301	1.5000e-01	2.9955	-4.243753	0.000282	2.820584	0.477820	0.005645
 302	1.5050e-01	3.0080	-4.193721	0.000500	5.000126	0.847044	0.010006
 303	1.5100e-01	3.0182	-4.179182	0.000145	1.453028	0.246150	0.002908
 304	1.5150e-01	3.0298	-4.136419	0.000427	4.273612	0.723969	0.008553
 305	1.5200e-01	3.0365	-4.107341	0.000291	2.906056	0.492299	0.005816
 306	1.5250e-01	3.0484	-4.077835	0.000295	2.948792	0.499539	0.005901
 307	1.5300e-01	3.0588	-4.041059	0.000368	3.675306	0.622614	0.007355
 308	1.5350e-01	3.0655	-3.997869	0.000432	4.316348	0.731209	0.008638
 309	1.5400e-01	3.0800	-3.964086	0.000338	3.376153	0.571936	0.006756
 310	1.5450e-01	3.0870	-3.940567	0.000235	2.350486	0.398183	0.004704
 311	1.5500e-01	3.0960	-3.897804	0.000427	4.273612	0.723969	0.008553
 312	1.5550e-01	3.1085	-3.891818	0.000060	0.598306	0.101356	0.001197
 313	1.5600e-01	3.1180	-3.826819	0.000650	6.495890	1.100434	0.013000
 314	1.5650e-01	3.1264	-3.811852	0.000150	1.495764	0.253389	0.002993
 315	1.5700e-01	3.1372	-3.767806	0.000440	4.401820	0.745689	0.008809
 316	1.5750e-01	3.1467	-3.734879	0.000329	3.290681	0.557456	0.006585
 317	1.5800e-01	3.1595	-3.698959	0.000359	3.589834	0.608134	0.007184
 318	1.5850e-01	3.1650	-3.652347	0.000466	4.658237	0.789127	0.009322
 319	1.5900e-01	3.1784	-3.645933	0.000064	0.641042	0.108595	0.001283
 320	1.5950e-01	3.1866	-3.599750	0.000462	4.615501	0.781887	0.009237
 321	1.6000e-01	3.2016	-3.570243	0.000295	2.948792	0.499539	0.005901
 322	1.6050e-01	3.2066	-3.545869	0.000244	2.435959	0.412663	0.004875
 323	1.6100e-01	3.2197	-3.502679	0.000432	4.316348	0.731209	0.008638
 324	1.6150e-01	3.2278	-3.472745	0.000299	2.991528	0.506779	0.005987
 325	1.6200e-01	3.2361	-3.424851	0.000479	4.786445	0.810846	0.009579
 326	1.6250e-01	3.2473	-3.391924	0.000329	3.290681	0.557456	0.006585
 327	1.6300e-01	3.2559	-3.361135	0.000308	3.077000	0.521258	0.006158
 328	1.6350e-01	3.2675	-3.344457	0.000167	1.666709	0.282348	0.003335
 329	1.6400e-01	3.2788	-3.302550	0.000419	4.188140	0.709490	0.008381
 330	1.6450e-01	3.2886	-3.247386	0.000551	5.512959	0.933921	0.011033
 331	1.6500e-01	3.2977	-3.251663	-0.000043	-0.427361	-0.072397	-0.000855
 332	1.6550e-01	3.3069	-3.202058	0.000496	4.957390	0.839805	0.009921
 333	1.6600e-01	3.3203	-3.161861	0.000402	4.017195	0.680531	0.008039
 334	1.6650e-01	3.3273	-3.134493	0.000274	2.735112	0.463340	0.005474
 335	1.6700e-01	3.3389	-3.073770	0.000607	6.068529	1.028037	0.012145
 336	1.6750e-01	3.3499	-3.067784	0.000060	0.598306	0.101356	0.001197
 337	1.6800e-01	3.3591	-3.034857	0.000329	3.290681	0.557456	0.006585
 338	1.6850e-01	3.3650	-2.995515	0.000393	3.931723	0.666052	0.007868
 339	1.6900e-01	3.3774	-2.954891	0.000406	4.059931	0.687771	0.008125
 340	1.6950e-01	3.3881	-2.932654	0.000222	2.222278	0.376464	0.004447
 341	1.7000e-01	3.3992	-2.896734	0.000359	3.589834	0.608134	0.007184
 342	1.7050e-01	3.4041	-2.850122	0.000466	4.658237	0.789127	0.009322
 343	1.7100e-01	3.4192	-2.830879	0.000192	1.923125	0.325786	0.003849
 344	1.7150e-01	3.4262	-2.787689	0.000432	4.316348	0.731209	0.008638
 345	1.7200e-01	3.4360	-2.759038	0.000286	2.863320	0.485060	0.005730
 346	1.7250e-01	3.4497	-2.725684	0.000333	3.333417	0.564696	0.006671
 347	1.7300e-01	3.4571	-2.702164	0.000235	2.350486	0.398183	0.004704
 348	1.7350e-01	3.4677	-2.659402	0.000427	4.273612	0.723969	0.008553
 349	1.7400e-01	3.4793	-2.610225	0.000491	4.914653	0.832565	0.009835
 350	1.7450e-01	3.4891	-2.596968	0.000132	1.324820	0.224431	0.002651
 351	1.7500e-01	3.4979	-2.555916	0.000410	4.102667	0.695011	0.008210
 352	1.7550e-01	3.5071	-2.532825	0.000231	2.307750	0.390943	0.004618
 353	1.7600e-01	3.5176	-2.495193	0.000376	3.760778	0.637093	0.007526
 354	1.7650e-01	3.5266	-2.472102	0.000231	2.307750	0.390943	0.004618
 355	1.7700e-01	3.5390	-2.422070	0.000500	5.000126	0.847044	0.010006
 356	1.7750e-01	3.5480	-2.418649	0.000034	0.341889	0.057918	0.000684
 357	1.7800e-01	3.5572	-2.365195	0.000534	5.342015	0.904962	0.010691
 358	1.7850e-01	3.5669	-2.337827	0.000274	2.735112	0.463340	0.005474
 359	1.7900e-01	3.5809	-2.291644	0.000462	4.615501	0.781887	0.009237
 360	1.7950e-01	3.5889	-2.265131	0.000265	2.649639	0.448861	0.005303
 361	1.8000e-01	3.5999	-2.230921	0.000342	3.418889	0.579176	0.006842
 362	1.8050e-01	3.6087	-2.201415	0.000295	2.948792	0.499539	0.005901
 363	1.8100e-01	3.6215	-2.156087	0.000453	4.530028	0.767408	0.009066
 364	1.8150e-01	3.6292	-2.129146	0.000269	2.692375	0.456101	0.005388
 365	1.8200e-01	3.6366	-2.103916	0.000252	2.521431	0.427142	0.005046
 366	1.8250e-01	3.6481	-2.055595	0.000483	4.829181	0.818085	0.009664
 367	1.8300e-01	3.6585	-2.027799	0.000278	2.777848	0.470580	0.005559
 368	1.8350e-01	3.6702	-2.006418	0.000214	2.136806	0.361985	0.004276
 369	1.8400e-01	3.6804	-1.958951	0.000474	4.743709	0.803606	0.009493
 370	1.8450e-01	3.6882	-1.937570	0.000214	2.136806	0.361985	0.004276
 371	1.8500e-01	3.7020	-1.897373	0.000402	4.017195	0.680531	0.008039
 372	1.8550e-01	3.7080	-1.875564	0.000218	2.179542	0.369224	0.004362
 373	1.8600e-01	3.7201	-1.841354	0.000342	3.418889	0.579176	0.006842
 374	1.8650e-01	3.7286	-1.809283	0.000321	3.205209	0.542977	0.006414
 375	1.8700e-01	3.7372	-1.787474	0.000218	2.179542	0.369224	0.004362
 376	1.8750e-01	3.7463	-1.731455	0.000560	5.598431	0.948400	0.011204
 377	1.8800e-01	3.7592	-1.695107	0.000363	3.632570	0.615374	0.007270
 378	1.8850e-01	3.7674	-1.676291	0.000188	1.880389	0.318547	0.003763
 379	1.8900e-01	3.7778	-1.651061	0.000252	2.521431	0.427142	0.005046
 380	1.8950e-01	3.7839	-1.622410	0.000286	2.863320	0.485060	0.005730
 381	1.9000e-01	3.7985	-1.584779	0.000376	3.760778	0.637093	0.007526
 382	1.9050e-01	3.8055	-1.545010	0.000397	3.974459	0.673292	0.007954
 383	1.9100e-01	3.8165	-1.530471	0.000145	1.453028	0.246150	0.002908
 384	1.9150e-01	3.8254	-1.476162	0.000543	5.427487	0.919441	0.010862
 385	1.9200e-01	3.8387	-1.451360	0.000248	2.478695	0.419902	0.004960
 386	1.9250e-01	3.8470	-1.410736	0.000406	4.059931	0.687771	0.008125
 387	1.9300e-01	3.8577	-1.380374	0.000303	3.034264	0.514018	0.006072
 388	1.9350e-01	3.8684	-1.341033	0.000393	3.931723	0.666052	0.007868
 389	1.9400e-01	3.8766	-1.299981	0.000410	4.102667	0.695011	0.008210
 390	1.9450e-01	3.8876	-1.277744	0.000222	2.222278	0.376464	0.004447
 391	1.9500e-01	3.8974	-1.264060	0.000137	1.367556	0.231670	0.002737
 392	1.9550e-01	3.9050	-1.228995	0.000350	3.504362	0.593655	0.007013
 393	1.9600e-01	3.9187	-1.205903	0.000231	2.307750	0.390943	0.004618
 394	1.9650e-01	3.9283	-1.154588	0.000513	5.128334	0.868763	0.010263
 395	1.9700e-01	3.9357	-1.140049	0.000145	1.453028	0.246150	0.002908
 396	1.9750e-01	3.9499	-1.083175	0.000568	5.683904	0.962879	0.011375
 397	1.9800e-01	3.9557	-1.056234	0.000269	2.692375	0.456101	0.005388
 398	1.9850e-01	3.9697	-1.042978	0.000132	1.324820	0.224431	0.002651
 399	1.9900e-01	3.9752	-0.992091	0.000509	5.085598	0.861524	0.010177
 400	1.9950e-01	3.9886	-0.980117	0.000120	1.196611	0.202711	0.002395
 401	2.0000e-01	4.0021	-0.936927	0.000432	4.316348	0.731209	0.008638
 402	2.0050e-01	4.0057	-0.887750	0.000491	4.914653	0.832565	0.009835
 403	2.0100e-01	4.0152	-0.871073	0.000167	1.666709	0.282348	0.003335
 404	2.0150e-01	4.0268	-0.825317	0.000457	4.572765	0.774647	0.009151
 405	2.0200e-01	4.0356	-0.785548	0.000397	3.974459	0.673292	0.007954
 406	2.0250e-01	4.0488	-0.773574	0.000120	1.196611	0.202711	0.002395
 407	2.0300e-01	4.0565	-0.732094	0.000415	4.145403	0.702250	0.008296
 408	2.0350e-01	4.0689	-0.706865	0.000252	2.521431	0.427142	0.005046
 409	2.0400e-01	4.0775	-0.670089	0.000368	3.675306	0.622614	0.007355
 410	2.0450e-01	4.0863	-0.641010	0.000291	2.906056	0.492299	0.005816
 411	2.0500e-01	4.0977	-0.629464	0.000115	1.153875	0.195472	0.002309
 412	2.0550e-01	4.1107	-0.572163	0.000573	5.726640	0.970119	0.011460
 413	2.0600e-01	4.1193	-0.552492	0.000197	1.965861	0.333026	0.003934
 414	2.0650e-01	4.1278	-0.498183	0.000543	5.427487	0.919441	0.010862
 415	2.0700e-01	4.1388	-0.472954	0.000252	2.521431	0.427142	0.005046
 416	2.0750e-01	4.1479	-0.446441	0.000265	2.649639	0.448861	0.005303
 417	2.0800e-01	4.1577	-0.395553	0.000509	5.085598	0.861524	0.010177
 418	2.0850e-01	4.1663	-0.381869	0.000137	1.367556	0.231670	0.002737
 419	2.0900e-01	4.1772	-0.345949	0.000359	3.589834	0.608134	0.007184
 420	2.0950e-01	4.1895	-0.323712	0.000222	2.222278	0.376464	0.004447
 421	2.1000e-01	4.1980	-0.293351	0.000303	3.034264	0.514018	0.006072
 422	2.1050e-01	4.2070	-0.278384	0.000150	1.495764	0.253389	0.002993
 423	2.1100e-01	4.2160	-0.229635	0.000487	4.871917	0.825325	0.009750
 424	2.1150e-01	4.2293	-0.209964	0.000197	1.965861	0.333026	0.003934
 425	2.1200e-01	4.2368	-0.174471	0.000355	3.547098	0.600895	0.007099
 426	2.1250e-01	4.2468	-0.140261	0.000342	3.418889	0.579176	0.006842
 427	2.1300e-01	4.2569	-0.112038	0.000282	2.820584	0.477820	0.005645
 428	2.1350e-01	4.2676	-0.064999	0.000470	4.700973	0.796366	0.009408
 429	2.1400e-01	4.2776	-0.038486	0.000265	2.649639	0.448861	0.005303
 430	2.1450e-01	4.2877	-0.011974	0.000265	2.649639	0.448861	0.005303
 431	2.1500e-01	4.2975	0.032072	0.000440	4.401820	0.745689	0.008809
 432	2.1550e-01	4.3085	0.053026	0.000209	2.094070	0.354745	0.004191
 433	2.1600e-01	4.3176	0.086808	0.000338	3.376153	0.571936	0.006756
 434	2.1650e-01	4.3271	0.108617	0.000218	2.179542	0.369224	0.004362
 435	2.1700e-01	4.3369	0.145820	0.000372	3.718042	0.629853	0.007441
 436	2.1750e-01	4.3486	0.186872	0.000410	4.102667	0.695011	0.008210
 437	2.1800e-01	4.3555	0.212530	0.000256	2.564167	0.434382	0.005132
 438	2.1850e-01	4.3658	0.239043	0.000265	2.649639	0.448861	0.005303
 439	2.1900e-01	4.3796	0.269404	0.000303	3.034264	0.514018	0.006072
 440	2.1950e-01	4.3854	0.310456	0.000410	4.102667	0.695011	0.008210
 441	2.2000e-01	4.3988	0.318153	0.000077	0.769250	0.130314	0.001539
 442	2.2050e-01	4.4080	0.359205	0.000410	4.102667	0.695011	0.008210
 443	2.2100e-01	4.4189	0.382297	0.000231	2.307750	0.390943	0.004618
 444	2.2150e-01	4.4269	0.440882	0.000585	5.854848	0.991838	0.011717
 445	2.2200e-01	4.4405	0.463118	0.000222	2.222278	0.376464	0.004447
 446	2.2250e-01	4.4470	0.507164	0.000440	4.401820	0.745689	0.008809
 447	2.2300e-01	4.4580	0.525551	0.000184	1.837653	0.311307	0.003678
 448	2.2350e-01	4.4669	0.568314	0.000427	4.273612	0.723969	0.008553
 449	2.2400e-01	4.4783	0.588412	0.000201	2.008598	0.340266	0.004020
 450	2.2450e-01	4.4873	0.618346	0.000299	2.991528	0.506779	0.005987
 451	2.2500e-01	4.5001	0.644431	0.000261	2.606903	0.441621	0.005217
 452	2.2550e-01	4.5065	0.680352	0.000359	3.589834	0.608134	0.007184
 453	2.2600e-01	4.5154	0.717128	0.000368	3.675306	0.622614	0.007355
 454	2.2650e-01	4.5285	0.739792	0.000227	2.265014	0.383704	0.004533
 455	2.2700e-01	4.5358	0.793673	0.000538	5.384751	0.912201	0.010776
 456	2.2750e-01	4.5453	0.816337	0.000227	2.265014	0.383704	0.004533
 457	2.2800e-01	4.5593	0.841567	0.000252	2.521431	0.427142	0.005046
 458	2.2850e-01	4.5676	0.883901	0.000423	4.230876	0.716730	0.008467
 459	2.2900e-01	4.5779	0.905710	0.000218	2.179542	0.369224	0.004362
 460	2.2950e-01	4.5874	0.935644	0.000299	2.991528	0.506779	0.005987
 461	2.3000e-01	4.5972	0.969854	0.000342	3.418889	0.579176	0.006842
 462	2.3050e-01	4.6085	0.992091	0.000222	2.222278	0.376464	0.004447
 463	2.3100e-01	4.6187	1.025873	0.000338	3.376153	0.571936	0.006756
 464	2.3150e-01	4.6291	1.053241	0.000274	2.735112	0.463340	0.005474
 465	2.3200e-01	4.6378	1.098997	0.000457	4.572765	0.774647	0.009151
 466	2.3250e-01	4.6497	1.133635	0.000346	3.461626	0.586415	0.006928
 467	2.3300e-01	4.6588	1.159720	0.000261	2.606903	0.441621	0.005217
 468	2.3350e-01	4.6655	1.185805	0.000261	2.606903	0.441621	0.005217
 469	2.3400e-01	4.6783	1.206331	0.000205	2.051334	0.347505	0.004105
 470	2.3450e-01	4.6878	1.227712	0.000214	2.136806	0.361985	0.004276
 471	2.3500e-01	4.6985	1.273040	0.000453	4.530028	0.767408	0.009066
 472	2.3550e-01	4.7072	1.314092	0.000410	4.102667	0.695011	0.008210
 473	2.3600e-01	4.7156	1.357283	0.000432	4.316348	0.731209	0.008638
 474	2.3650e-01	4.7290	1.370967	0.000137	1.367556	0.231670	0.002737
 475	2.3700e-01	4.7394	1.386789	0.000158	1.581236	0.267869	0.003164
 476	2.3750e-01	4.7473	1.418433	0.000316	3.162473	0.535737	0.006329
 477	2.3800e-01	4.7556	1.480866	0.000624	6.239473	1.056995	0.012487
 478	2.3850e-01	4.7678	1.480866	0.000000	0.000000	0.000000	0.000000
 479	2.3900e-01	4.7778	1.508234	0.000274	2.735112	0.463340	0.005474
 480	2.3950e-01	4.7870	1.550142	0.000419	4.188140	0.709490	0.008381
 481	2.4000e-01	4.7952	1.571951	0.000218	2.179542	0.369224	0.004362
 482	2.4050e-01	4.8108	1.589056	0.000171	1.709445	0.289588	0.003421
 483	2.4100e-01	4.8166	1.637805	0.000487	4.871917	0.825325	0.009750
 484	2.4150e-01	4.8273	1.664745	0.000269	2.692375	0.456101	0.005388
 485	2.4200e-01	4.8383	1.706225	0.000415	4.145403	0.702250	0.008296
 486	2.4250e-01	4.8468	1.745566	0.000393	3.931723	0.666052	0.007868
 487	2.4300e-01	4.8581	1.755829	0.000103	1.025667	0.173753	0.002053
 488	2.4350e-01	4.8679	1.790895	0.000350	3.504362	0.593655	0.007013
 489	2.4400e-01	4.8773	1.832802	0.000419	4.188140	0.709490	0.008381
 490	2.4450e-01	4.8877	1.870433	0.000376	3.760778	0.637093	0.007526
 491	2.4500e-01	4.8987	1.880696	0.000103	1.025667	0.173753	0.002053
 492	2.4550e-01	4.9091	1.915334	0.000346	3.461626	0.586415	0.006928
 493	2.4600e-01	4.9185	1.948261	0.000329	3.290681	0.557456	0.006585
 494	2.4650e-01	4.9280	1.985892	0.000376	3.760778	0.637093	0.007526
 495	2.4700e-01	4.9385	2.017964	0.000321	3.205209	0.542977	0.006414
 496	2.4750e-01	4.9487	2.013260	-0.000047	-0.470097	-0.079637	-0.000941
 497	2.4800e-01	4.9588	2.079969	0.000667	6.666834	1.129392	0.013342
 498	2.4850e-01	4.9696	2.097930	0.000179	1.794917	0.304067	0.003592
 499	2.4900e-01	4.9777	2.123159	0.000252	2.521431	0.427142	0.005046
 500	2.4950e-01	4.9896	2.146251	0.000231	2.307750	0.390943	0.004618
 501	2.5000e-01	4.9982	2.176185	0.000299	2.991528	0.506779	0.005987
 502	2.5050e-01	5.0092	2.227072	0.000509	5.085598	0.861524	0.010177
 503	2.5100e-01	5.0188	2.246316	0.000192	1.923125	0.325786	0.003849
 504	2.5150e-01	5.0269	2.286512	0.000402	4.017195	0.680531	0.008039
 505	2.5200e-01	5.0391	2.321578	0.000350	3.504362	0.593655	0.007013
 506	2.5250e-01	5.0475	2.313453	-0.000081	-0.811986	-0.137554	-0.001625
 507	2.5300e-01	5.0562	2.363485	0.000500	5.000126	0.847044	0.010006
 508	2.5350e-01	5.0665	2.387432	0.000239	2.393223	0.405423	0.004789
 509	2.5400e-01	5.0781	2.431905	0.000444	4.444556	0.752928	0.008895
 510	2.5450e-01	5.0879	2.466543	0.000346	3.461626	0.586415	0.006928
 511	2.5500e-01	5.1022	2.493911	0.000274	2.735112	0.463340	0.005474
 512	2.5550e-01	5.1105	2.502463	0.000085	0.854722	0.144794	0.001711
 513	2.5600e-01	5.1178	2.552068	0.000496	4.957390	0.839805	0.009921
 514	2.5650e-01	5.1282	2.562758	0.000107	1.068403	0.180992	0.002138
 515	2.5700e-01	5.1355	2.611935	0.000491	4.914653	0.832565	0.009835
 516	2.5750e-01	5.1477	2.631178	0.000192	1.923125	0.325786	0.003849
 517	2.5800e-01	5.1610	2.669237	0.000380	3.803514	0.644333	0.007612
 518	2.5850e-01	5.1682	2.696605	0.000274	2.735112	0.463340	0.005474
 519	2.5900e-01	5.1770	2.746637	0.000500	5.000126	0.847044	0.010006
 520	2.5950e-01	5.1875	2.775716	0.000291	2.906056	0.492299	0.005816
 521	2.6000e-01	5.1959	2.791538	0.000158	1.581236	0.267869	0.003164
 522	2.6050e-01	5.2069	2.829169	0.000376	3.760778	0.637093	0.007526
 523	2.6100e-01	5.2179	2.856964	0.000278	2.777848	0.470580	0.005559
 524	2.6150e-01	5.2289	2.890319	0.000333	3.333417	0.564696	0.006671
 525	2.6200e-01	5.2376	2.920681	0.000303	3.034264	0.514018	0.006072
 526	2.6250e-01	5.2475	2.962588	0.000419	4.188140	0.709490	0.008381
 527	2.6300e-01	5.2567	2.979265	0.000167	1.666709	0.282348	0.003335
 528	2.6350e-01	5.2679	3.011337	0.000321	3.205209	0.542977	0.006414
 529	2.6400e-01	5.2789	3.018179	0.000068	0.683778	0.115835	0.001368
 530	2.6450e-01	5.2866	3.042554	0.000244	2.435959	0.412663	0.004875
 531	2.6500e-01	5.2988	3.078902	0.000363	3.632570	0.615374	0.007270
 532	2.6550e-01	5.3088	3.126796	0.000479	4.786445	0.810846	0.009579
 533	2.6600e-01	5.3186	3.150743	0.000239	2.393223	0.405423	0.004789
 534	2.6650e-01	5.3281	3.187519	0.000368	3.675306	0.622614	0.007355
 535	2.6700e-01	5.3395	3.215314	0.000278	2.777848	0.470580	0.005559
 536	2.6750e-01	5.3479	3.255939	0.000406	4.059931	0.687771	0.008125
 537	2.6800e-01	5.3583	3.267912	0.000120	1.196611	0.202711	0.002395
 538	2.6850e-01	5.3668	3.298274	0.000303	3.034264	0.514018	0.006072
 539	2.6900e-01	5.3754	3.330346	0.000321	3.205209	0.542977	0.006414
 540	2.6950e-01	5.3876	3.348306	0.000179	1.794917	0.304067	0.003592
 541	2.7000e-01	5.3967	3.388930	0.000406	4.059931	0.687771	0.008125
 542	2.7050e-01	5.4092	3.426989	0.000380	3.803514	0.644333	0.007612
 543	2.7100e-01	5.4169	3.466330	0.000393	3.931723	0.666052	0.007868
 544	2.7150e-01	5.4266	3.477876	0.000115	1.153875	0.195472	0.002309
 545	2.7200e-01	5.4395	3.521494	0.000436	4.359084	0.738449	0.008724
 546	2.7250e-01	5.4492	3.537316	0.000158	1.581236	0.267869	0.003164
 547	2.7300e-01	5.4565	3.573664	0.000363	3.632570	0.615374	0.007270
 548	2.7350e-01	5.4694	3.593335	0.000197	1.965861	0.333026	0.003934
 549	2.7400e-01	5.4779	3.636098	0.000427	4.273612	0.723969	0.008553
 550	2.7450e-01	5.4858	3.659189	0.000231	2.307750	0.390943	0.004618
 551	2.7500e-01	5.4980	3.691261	0.000321	3.205209	0.542977	0.006414
 552	2.7550e-01	5.5072	3.718202	0.000269	2.692375	0.456101	0.005388
 553	2.7600e-01	5.5179	3.762247	0.000440	4.401820	0.745689	0.008809
 554	2.7650e-01	5.5286	3.772083	0.000098	0.982931	0.166513	0.001967
 555	2.7700e-01	5.5371	3.805010	0.000329	3.290681	0.557456	0.006585
 556	2.7750e-01	5.5515	3.843496	0.000385	3.846251	0.651572	0.007697
 557	2.7800e-01	5.5566	3.871719	0.000282	2.820584	0.477820	0.005645
 558	2.7850e-01	5.5695	3.883693	0.000120	1.196611	0.202711	0.002395
 559	2.7900e-01	5.5789	3.930732	0.000470	4.700973	0.796366	0.009408
 560	2.7950e-01	5.5878	3.968790	0.000380	3.803514	0.644333	0.007612
 561	2.8000e-01	5.5981	3.998724	0.000299	2.991528	0.506779	0.005987
 562	2.8050e-01	5.6081	4.015829	0.000171	1.709445	0.289588	0.003421
 563	2.8100e-01	5.6165	4.052177	0.000363	3.632570	0.615374	0.007270
 564	2.8150e-01	5.6247	4.080400	0.000282	2.820584	0.477820	0.005645
 565	2.8200e-01	5.6380	4.106058	0.000256	2.564167	0.434382	0.005132
 566	2.8250e-01	5.6491	4.141551	0.000355	3.547098	0.600895	0.007099
 567	2.8300e-01	5.6580	4.152669	0.000111	1.111139	0.188232	0.002224
 568	2.8350e-01	5.6667	4.186879	0.000342	3.418889	0.579176	0.006842
 569	2.8400e-01	5.6787	4.197570	0.000107	1.068403	0.180992	0.002138
 570	2.8450e-01	5.6860	4.257010	0.000594	5.940320	1.006318	0.011888
 571	2.8500e-01	5.6982	4.268983	0.000120	1.196611	0.202711	0.002395
 572	2.8550e-01	5.7086	4.310463	0.000415	4.145403	0.702250	0.008296
 573	2.8600e-01	5.7178	4.349804	0.000393	3.931723	0.666052	0.007868
 574	2.8650e-01	5.7288	4.372896	0.000231	2.307750	0.390943	0.004618
 575	2.8700e-01	5.7397	4.385297	0.000124	1.239347	0.209951	0.002480
 576	2.8750e-01	5.7458	4.429343	0.000440	4.401820	0.745689	0.008809
 577	2.8800e-01	5.7587	4.448586	0.000192	1.923125	0.325786	0.003849
 578	2.8850e-01	5.7681	4.468256	0.000197	1.965861	0.333026	0.003934
 579	2.8900e-01	5.7770	4.510164	0.000419	4.188140	0.709490	0.008381
 580	2.8950e-01	5.7904	4.543091	0.000329	3.290681	0.557456	0.006585
 581	2.9000e-01	5.7965	4.555492	0.000124	1.239347	0.209951	0.002480
 582	2.9050e-01	5.8087	4.607662	0.000521	5.213806	0.883243	0.010434
 583	2.9100e-01	5.8191	4.612794	0.000051	0.512833	0.086876	0.001026
 584	2.9150e-01	5.8258	4.672234	0.000594	5.940320	1.006318	0.011888
 585	2.9200e-01	5.8371	4.680786	0.000085	0.854722	0.144794	0.001711
 586	2.9250e-01	5.8490	4.690194	0.000094	0.940195	0.159273	0.001882
 587	2.9300e-01	5.8582	4.741937	0.000517	5.171070	0.876003	0.010349
 588	2.9350e-01	5.8704	4.784699	0.000427	4.273612	0.723969	0.008553
 589	2.9400e-01	5.8826	4.803942	0.000192	1.923125	0.325786	0.003849
 590	2.9450e-01	5.8884	4.830455	0.000265	2.649639	0.448861	0.005303
 591	2.9500e-01	5.8954	4.842001	0.000115	1.153875	0.195472	0.002309
 592	2.9550e-01	5.9064	4.889467	0.000474	4.743709	0.803606	0.009493
 593	2.9600e-01	5.9180	4.929237	0.000397	3.974459	0.673292	0.007954
 594	2.9650e-01	5.9290	4.950618	0.000214	2.136806	0.361985	0.004276
 595	2.9700e-01	5.9369	4.981407	0.000308	3.077000	0.521258	0.006158
 596	2.9750e-01	5.9491	4.998512	0.000171	1.709445	0.289588	0.003421
 597	2.9800e-01	5.9564	5.027163	0.000286	2.863320	0.485060	0.005730
 598	2.9850e-01	5.9702	5.052393	0.000252	2.521431	0.427142	0.005046
 599	2.9900e-01	5.9805	5.094728	0.000423	4.230876	0.716730	0.008467
 600	2.9950e-01	5.9912	5.146043	0.000513	5.128334	0.868763	0.010263
 601	3.0000e-01	5.9964	5.135780	-0.000103	-1.025667	-0.173753	-0.002053
 602	3.0050e-01	6.0077	5.170417	0.000346	3.461626	0.586415	0.006928
 603	3.0100e-01	6.0193	5.182818	0.000124	1.239347	0.209951	0.002480
 604	3.0150e-01	6.0294	5.231140	0.000483	4.829181	0.818085	0.009664
 605	3.0200e-01	6.0394	5.261074	0.000299	2.991528	0.506779	0.005987
 606	3.0250e-01	6.0471	5.285876	0.000248	2.478695	0.419902	0.004960
 607	3.0300e-01	6.0559	5.326928	0.000410	4.102667	0.695011	0.008210
 608	3.0350e-01	6.0675	5.339757	0.000128	1.282084	0.217191	0.002566
 609	3.0400e-01	6.0791	5.375677	0.000359	3.589834	0.608134	0.007184
 610	3.0450e-01	6.0889	5.415019	0.000393	3.931723	0.666052	0.007868
 611	3.0500e-01	6.0974	5.432551	0.000175	1.752181	0.296827	0.003507
 612	3.0550e-01	6.1092	5.457354	0.000248	2.478695	0.419902	0.004960
 613	3.0600e-01	6.1169	5.499261	0.000419	4.188140	0.709490	0.008381
 614	3.0650e-01	6.1264	5.527912	0.000286	2.863320	0.485060	0.005730
 615	3.0700e-01	6.1353	5.565543	0.000376	3.760778	0.637093	0.007526
 616	3.0750e-01	6.1481	5.566826	0.000013	0.128208	0.021719	0.000257
 617	3.0800e-01	6.1578	5.602319	0.000355	3.547098	0.600895	0.007099
 618	3.0850e-01	6.1685	5.629687	0.000274	2.735112	0.463340	0.005474
 619	3.0900e-01	6.1792	5.675443	0.000457	4.572765	0.774647	0.009151
 620	3.0950e-01	6.1884	5.698962	0.000235	2.350486	0.398183	0.004704
 621	3.1000e-01	6.1981	5.729323	0.000303	3.034264	0.514018	0.006072
 622	3.1050e-01	6.2073	5.739586	0.000103	1.025667	0.173753	0.002053
 623	3.1100e-01	6.2160	5.775079	0.000355	3.547098	0.600895	0.007099
 624	3.1150e-01	6.2286	5.795605	0.000205	2.051334	0.347505	0.004105
 625	3.1200e-01	6.2387	5.840506	0.000449	4.487292	0.760168	0.008980
 626	3.1250e-01	6.2466	5.883269	0.000427	4.273612	0.723969	0.008553
 627	3.1300e-01	6.2610	5.905933	0.000227	2.265014	0.383704	0.004533
 628	3.1350e-01	6.2677	5.923465	0.000175	1.752181	0.296827	0.003507
 629	3.1400e-01	6.2772	5.959813	0.000363	3.632570	0.615374	0.007270
 630	3.1450e-01	6.2897	5.973925	0.000141	1.410292	0.238910	0.002822
 631	3.1500e-01	6.2994	6.015405	0.000415	4.145403	0.702250	0.008296
 632	3.1550e-01	6.3104	6.013267	-0.000021	-0.213681	-0.036198	-0.000428
 633	3.1600e-01	6.3190	6.073989	0.000607	6.068529	1.028037	0.012145
 634	3.1650e-01	6.3287	6.102213	0.000282	2.820584	0.477820	0.005645
 635	3.1700e-01	6.3367	6.106061	0.000038	0.384625	0.065157	0.000770
 636	3.1750e-01	6.3492	6.152672	0.000466	4.658237	0.789127	0.009322
 637	3.1800e-01	6.3586	6.184744	0.000321	3.205209	0.542977	0.006414
 638	3.1850e-01	6.3672	6.205698	0.000209	2.094070	0.354745	0.004191
 639	3.1900e-01	6.3763	6.236915	0.000312	3.119737	0.528498	0.006243
 640	3.1950e-01	6.3885	6.276684	0.000397	3.974459	0.673292	0.007954
 641	3.2000e-01	6.3979	6.292506	0.000158	1.581236	0.267869	0.003164
 642	3.2050e-01	6.4081	6.319874	0.000274	2.735112	0.463340	0.005474
 643	3.2100e-01	6.4175	6.358788	0.000389	3.888987	0.658812	0.007783
 644	3.2150e-01	6.4291	6.381024	0.000222	2.222278	0.376464	0.004447
 645	3.2200e-01	6.4362	6.404544	0.000235	2.350486	0.398183	0.004704
 646	3.2250e-01	6.4459	6.452438	0.000479	4.786445	0.810846	0.009579
 647	3.2300e-01	6.4581	6.463556	0.000111	1.111139	0.188232	0.002224
 648	3.2350e-01	6.4692	6.499049	0.000355	3.547098	0.600895	0.007099
 649	3.2400e-01	6.4789	6.537963	0.000389	3.888987	0.658812	0.007783
 650	3.2450e-01	6.4899	6.539673	0.000017	0.170944	0.028959	0.000342
 651	3.2500e-01	6.4987	6.579870	0.000402	4.017195	0.680531	0.008039
 652	3.2550e-01	6.5070	6.608949	0.000291	2.906056	0.492299	0.005816
 653	3.2600e-01	6.5146	6.649145	0.000402	4.017195	0.680531	0.008039
 654	3.2650e-01	6.5277	6.667533	0.000184	1.837653	0.311307	0.003678
 655	3.2700e-01	6.5375	6.694046	0.000265	2.649639	0.448861	0.005303
 656	3.2750e-01	6.5485	6.718421	0.000244	2.435959	0.412663	0.004875
 657	3.2800e-01	6.5576	6.732105	0.000137	1.367556	0.231670	0.002737
 658	3.2850e-01	6.5659	6.788979	0.000568	5.683904	0.962879	0.011375
 659	3.2900e-01	6.5781	6.792400	0.000034	0.341889	0.057918	0.000684
 660	3.2950e-01	6.5845	6.835590	0.000432	4.316348	0.731209	0.008638
 661	3.3000e-01	6.5985	6.868945	0.000333	3.333417	0.564696	0.006671
 662	3.3050e-01	6.6071	6.883056	0.000141	1.410292	0.238910	0.002822
 663	3.3100e-01	6.6153	6.911707	0.000286	2.863320	0.485060	0.005730
 664	3.3150e-01	6.6278	6.930523	0.000188	1.880389	0.318547	0.003763
 665	3.3200e-01	6.6382	6.965160	0.000346	3.461626	0.586415	0.006928
 666	3.3250e-01	6.6492	7.002364	0.000372	3.718042	0.629853	0.007441
 667	3.3300e-01	6.6589	7.011344	0.000090	0.897458	0.152034	0.001796
 668	3.3350e-01	6.6681	7.064370	0.000530	5.299279	0.897722	0.010605
 669	3.3400e-01	6.6779	7.080192	0.000158	1.581236	0.267869	0.003164
 670	3.3450e-01	6.6852	7.108843	0.000286	2.863320	0.485060	0.005730
 671	3.3500e-01	6.6965	7.134928	0.000261	2.606903	0.441621	0.005217
 672	3.3550e-01	6.7085	7.160158	0.000252	2.521431	0.427142	0.005046
 673	3.3600e-01	6.7154	7.196933	0.000368	3.675306	0.622614	0.007355
 674	3.3650e-01	6.7294	7.190091	-0.000068	-0.683778	-0.115835	-0.001368
 675	3.3700e-01	6.7371	7.240551	0.000504	5.042862	0.854284	0.010092
 676	3.3750e-01	6.7494	7.267492	0.000269	2.692375	0.456101	0.005388
 677	3.3800e-01	6.7563	7.323510	0.000560	5.598431	0.948400	0.011204
 678	3.3850e-01	6.7679	7.322655	-0.000009	-0.085472	-0.014479	-0.000171
 679	3.3900e-01	6.7755	7.338477	0.000158	1.581236	0.267869	0.003164
 680	3.3950e-01	6.7883	7.370549	0.000321	3.205209	0.542977	0.006414
 681	3.4000e-01	6.7993	7.423575	0.000530	5.299279	0.897722	0.010605
 682	3.4050e-01	6.8082	7.457357	0.000338	3.376153	0.571936	0.006756
 683	3.4100e-01	6.8161	7.478738	0.000214	2.136806	0.361985	0.004276
 684	3.4150e-01	6.8298	7.484298	0.000056	0.555570	0.094116	0.001112
 685	3.4200e-01	6.8405	7.531336	0.000470	4.700973	0.796366	0.009408
 686	3.4250e-01	6.8475	7.558704	0.000274	2.735112	0.463340	0.005474
 687	3.4300e-01	6.8587	7.572388	0.000137	1.367556	0.231670	0.002737
 688	3.4350e-01	6.8713	7.614723	0.000423	4.230876	0.716730	0.008467
 689	3.4400e-01	6.8781	7.633966	0.000192	1.923125	0.325786	0.003849
 690	3.4450e-01	6.8872	7.671597	0.000376	3.760778	0.637093	0.007526
 691	3.4500e-01	6.8973	7.689558	0.000179	1.794917	0.304067	0.003592
 692	3.4550e-01	6.9107	7.717353	0.000278	2.777848	0.470580	0.005559
 693	3.4600e-01	6.9186	7.738735	0.000214	2.136806	0.361985	0.004276
 694	3.4650e-01	6.9293	7.778076	0.000393	3.931723	0.666052	0.007868
 695	3.4700e-01	6.9391	7.794754	0.000167	1.666709	0.282348	0.003335
 696	3.4750e-01	6.9507	7.835806	0.000410	4.102667	0.695011	0.008210
 697	3.4800e-01	6.9568	7.864029	0.000282	2.820584	0.477820	0.005645
 698	3.4850e-01	6.9678	7.867022	0.000030	0.299153	0.050678	0.000599
 699	3.4900e-01	6.9757	7.893107	0.000261	2.606903	0.441621	0.005217
 700	3.4950e-01	6.9870	7.940146	0.000470	4.700973	0.796366	0.009408
 701	3.5000e-01	6.9940	7.955541	0.000154	1.538500	0.260629	0.003079
 702	3.5050e-01	7.0099	8.004290	0.000487	4.871917	0.825325	0.009750
 703	3.5100e-01	7.0203	8.014553	0.000103	1.025667	0.173753	0.002053
 704	3.5150e-01	7.0291	8.047480	0.000329	3.290681	0.557456	0.006585
 705	3.5200e-01	7.0367	8.084683	0.000372	3.718042	0.629853	0.007441
 706	3.5250e-01	7.0471	8.115900	0.000312	3.119737	0.528498	0.006243
 707	3.5300e-01	7.0618	8.127018	0.000111	1.111139	0.188232	0.002224
 708	3.5350e-01	7.0709	8.159090	0.000321	3.205209	0.542977	0.006414
 709	3.5400e-01	7.0779	8.203136	0.000440	4.401820	0.745689	0.008809
 710	3.5450e-01	7.0874	8.202708	-0.000004	-0.042736	-0.007240	-0.000086
 711	3.5500e-01	7.0972	8.238629	0.000359	3.589834	0.608134	0.007184
 712	3.5550e-01	7.1106	8.287805	0.000491	4.914653	0.832565	0.009835
 713	3.5600e-01	7.1179	8.280963	-0.000068	-0.683778	-0.115835	-0.001368
 714	3.5650e-01	7.1268	8.326292	0.000453	4.530028	0.767408	0.009066
 715	3.5700e-01	7.1375	8.377607	0.000513	5.128334	0.868763	0.010263
 716	3.5750e-01	7.1490	8.356225	-0.000214	-2.136806	-0.361985	-0.004276
 717	3.5800e-01	7.1600	8.405830	0.000496	4.957390	0.839805	0.009921
 718	3.5850e-01	7.1674	8.411817	0.000060	0.598306	0.101356	0.001197
 719	3.5900e-01	7.1814	8.466125	0.000543	5.427487	0.919441	0.010862
 720	3.5950e-01	7.1866	8.470401	0.000043	0.427361	0.072397	0.000855
 721	3.6000e-01	7.1970	8.514447	0.000440	4.401820	0.745689	0.008809
 722	3.6050e-01	7.2052	8.525565	0.000111	1.111139	0.188232	0.002224
 723	3.6100e-01	7.2177	8.551223	0.000256	2.564167	0.434382	0.005132
 724	3.6150e-01	7.2278	8.592702	0.000415	4.145403	0.702250	0.008296
 725	3.6200e-01	7.2388	8.620926	0.000282	2.820584	0.477820	0.005645
 726	3.6250e-01	7.2479	8.657274	0.000363	3.632570	0.615374	0.007270
 727	3.6300e-01	7.2586	8.691056	0.000338	3.376153	0.571936	0.006756
 728	3.6350e-01	7.2708	8.707306	0.000162	1.623972	0.275108	0.003250
 729	3.6400e-01	7.2791	8.721417	0.000141	1.410292	0.238910	0.002822
 730	3.6450e-01	7.2888	8.760331	0.000389	3.888987	0.658812	0.007783
 731	3.6500e-01	7.2993	8.768884	0.000085	0.854722	0.144794	0.001711
 732	3.6550e-01	7.3102	8.810791	0.000419	4.188140	0.709490	0.008381
 733	3.6600e-01	7.3184	8.828324	0.000175	1.752181	0.296827	0.003507
 734	3.6650e-01	7.3276	8.855692	0.000274	2.735112	0.463340	0.005474
 735	3.6700e-01	7.3376	8.893750	0.000380	3.803514	0.644333	0.007612
 736	3.6750e-01	7.3495	8.934802	0.000410	4.102667	0.695011	0.008210
 737	3.6800e-01	7.3578	8.946776	0.000120	1.196611	0.202711	0.002395
 738	3.6850e-01	7.3652	8.972434	0.000256	2.564167	0.434382	0.005132
 739	3.6900e-01	7.3798	9.008354	0.000359	3.589834	0.608134	0.007184
 740	3.6950e-01	7.3883	9.041709	0.000333	3.333417	0.564696	0.006671
 741	3.7000e-01	7.4005	9.064801	0.000231	2.307750	0.390943	0.004618
 742	3.7050e-01	7.4072	9.098583	0.000338	3.376153	0.571936	0.006756
 743	3.7100e-01	7.4190	9.110984	0.000124	1.239347	0.209951	0.002480
 744	3.7150e-01	7.4286	9.128517	0.000175	1.752181	0.296827	0.003507
 745	3.7200e-01	7.4390	9.171279	0.000427	4.273612	0.723969	0.008553
 746	3.7250e-01	7.4481	9.194799	0.000235	2.350486	0.398183	0.004704
 747	3.7300e-01	7.4600	9.214897	0.000201	2.008598	0.340266	0.004020
 748	3.7350e-01	7.4677	9.260653	0.000457	4.572765	0.774647	0.009151
 749	3.7400e-01	7.4792	9.264929	0.000043	0.427361	0.072397	0.000855
 750	3.7450e-01	7.4908	9.303843	0.000389	3.888987	0.658812	0.007783
 751	3.7500e-01	7.4951	9.335487	0.000316	3.162473	0.535737	0.006329
 752	3.7550e-01	7.5079	9.362000	0.000265	2.649639	0.448861	0.005303
 753	3.7600e-01	7.5177	9.394072	0.000321	3.205209	0.542977	0.006414
 754	3.7650e-01	7.5287	9.419302	0.000252	2.521431	0.427142	0.005046
 755	3.7700e-01	7.5378	9.435124	0.000158	1.581236	0.267869	0.003164
 756	3.7750e-01	7.5507	9.462492	0.000274	2.735112	0.463340	0.005474
 757	3.7800e-01	7.5586	9.506965	0.000444	4.444556	0.752928	0.008895
 758	3.7850e-01	7.5684	9.490288	-0.000167	-1.666709	-0.282348	-0.003335
 759	3.7900e-01	7.5793	9.542030	0.000517	5.171070	0.876003	0.010349
 760	3.7950e-01	7.5891	9.586503	0.000444	4.444556	0.752928	0.008895
 761	3.8000e-01	7.5974	9.587359	0.000009	0.085472	0.014479	0.000171
 762	3.8050e-01	7.6099	9.621569	0.000342	3.418889	0.579176	0.006842
 763	3.8100e-01	7.6184	9.654068	0.000325	3.247945	0.550217	0.006500
 764	3.8150e-01	7.6288	9.666469	0.000124	1.239347	0.209951	0.002480
 765	3.8200e-01	7.6367	9.721205	0.000547	5.470223	0.926681	0.010947
 766	3.8250e-01	7.6474	9.739166	0.000179	1.794917	0.304067	0.003592
 767	3.8300e-01	7.6593	9.760119	0.000209	2.094070	0.354745	0.004191
 768	3.8350e-01	7.6675	9.811434	0.000513	5.128334	0.868763	0.010263
 769	3.8400e-01	7.6782	9.811434	0.000000	0.000000	0.000000	0.000000
 770	3.8450e-01	7.6855	9.846072	0.000346	3.461626	0.586415	0.006928
 771	3.8500e-01	7.6965	9.856335	0.000103	1.025667	0.173753	0.002053
 772	3.8550e-01	7.7094	9.877716	0.000214	2.136806	0.361985	0.004276
 773	3.8600e-01	7.7173	9.919623	0.000419	4.188140	0.709490	0.008381
 774	3.8650e-01	7.7283	9.957255	0.000376	3.760778	0.637093	0.007526
 775	3.8700e-01	7.7399	9.969656	0.000124	1.239347	0.209951	0.002480
 776	3.8750e-01	7.7484	10.002583	0.000329	3.290681	0.557456	0.006585
 777	3.8800e-01	7.7565	10.032089	0.000295	2.948792	0.499539	0.005901
 778	3.8850e-01	7.7673	10.057319	0.000252	2.521431	0.427142	0.005046
 779	3.8900e-01	7.7747	10.090674	0.000333	3.333417	0.564696	0.006671
 780	3.8950e-01	7.7875	10.098371	0.000077	0.769250	0.130314	0.001539
 781	3.9000e-01	7.7985	10.130870	0.000325	3.247945	0.550217	0.006500
 782	3.9050e-01	7.8088	10.157811	0.000269	2.692375	0.456101	0.005388
 783	3.9100e-01	7.8162	10.193731	0.000359	3.589834	0.608134	0.007184
 784	3.9150e-01	7.8271	10.227514	0.000338	3.376153	0.571936	0.006756
 785	3.9200e-01	7.8397	10.251888	0.000244	2.435959	0.412663	0.004875
 786	3.9250e-01	7.8485	10.270276	0.000184	1.837653	0.311307	0.003678
 787	3.9300e-01	7.8577	10.305769	0.000355	3.547098	0.600895	0.007099
 788	3.9350e-01	7.8705	10.313894	0.000081	0.811986	0.137554	0.001625
 789	3.9400e-01	7.8772	10.357512	0.000436	4.359084	0.738449	0.008724
 790	3.9450e-01	7.8906	10.380604	0.000231	2.307750	0.390943	0.004618
 791	3.9500e-01	7.8998	10.392577	0.000120	1.196611	0.202711	0.002395
 792	3.9550e-01	7.9047	10.438333	0.000457	4.572765	0.774647	0.009151
 793	3.9600e-01	7.9175	10.454583	0.000162	1.623972	0.275108	0.003250
 794	3.9650e-01	7.9272	10.484516	0.000299	2.991528	0.506779	0.005987
 795	3.9700e-01	7.9364	10.510602	0.000261	2.606903	0.441621	0.005217
 796	3.9750e-01	7.9468	10.543529	0.000329	3.290681	0.557456	0.006585
 797	3.9800e-01	7.9559	10.560634	0.000171	1.709445	0.289588	0.003421
 798	3.9850e-01	7.9663	10.607245	0.000466	4.658237	0.789127	0.009322
 799	3.9900e-01	7.9785	10.617936	0.000107	1.068403	0.180992	0.002138
 800	3.9950e-01	7.9883	10.631620	0.000137	1.367556	0.231670	0.002737
 801	4.0000e-01	7.9987	10.670533	0.000389	3.888987	0.658812	0.007783
 802	4.0050e-01	8.0090	10.698757	0.000282	2.820584	0.477820	0.005645
 803	4.0100e-01	8.0177	10.715862	0.000171	1.709445	0.289588	0.003421
 804	4.0150e-01	8.0310	10.744940	0.000291	2.906056	0.492299	0.005816
 805	4.0200e-01	8.0396	10.787275	0.000423	4.230876	0.716730	0.008467
 806	4.0250e-01	8.0484	10.810795	0.000235	2.350486	0.398183	0.004704
 807	4.0300e-01	8.0576	10.842011	0.000312	3.119737	0.528498	0.006243
 808	4.0350e-01	8.0688	10.856550	0.000145	1.453028	0.246150	0.002908
 809	4.0400e-01	8.0774	10.892043	0.000355	3.547098	0.600895	0.007099
 810	4.0450e-01	8.0884	10.903589	0.000115	1.153875	0.195472	0.002309
 811	4.0500e-01	8.0981	10.928392	0.000248	2.478695	0.419902	0.004960
 812	4.0550e-01	8.1061	10.980989	0.000526	5.256542	0.890482	0.010520
 813	4.0600e-01	8.1183	10.983128	0.000021	0.213681	0.036198	0.000428
 814	4.0650e-01	8.1256	11.011351	0.000282	2.820584	0.477820	0.005645
 815	4.0700e-01	8.1384	11.041712	0.000303	3.034264	0.514018	0.006072
 816	4.0750e-01	8.1506	11.059245	0.000175	1.752181	0.296827	0.003507
 817	4.0800e-01	8.1598	11.105001	0.000457	4.572765	0.774647	0.009151
 818	4.0850e-01	8.1677	11.111415	0.000064	0.641042	0.108595	0.001283
 819	4.0900e-01	8.1796	11.139638	0.000282	2.820584	0.477820	0.005645
 820	4.0950e-01	8.1873	11.169572	0.000299	2.991528	0.506779	0.005987
 821	4.1000e-01	8.1976	11.187105	0.000175	1.752181	0.296827	0.003507
 822	4.1050e-01	8.2074	11.251676	0.000645	6.453154	1.093194	0.012914
 823	4.1100e-01	8.2178	11.257235	0.000056	0.555570	0.094116	0.001112
 824	4.1150e-01	8.2239	11.293156	0.000359	3.589834	0.608134	0.007184
 825	4.1200e-01	8.2379	11.288452	-0.000047	-0.470097	-0.079637	-0.000941
 826	4.1250e-01	8.2465	11.350885	0.000624	6.239473	1.056995	0.012487
 827	4.1300e-01	8.2568	11.334636	-0.000162	-1.623972	-0.275108	-0.003250
 828	4.1350e-01	8.2661	11.385095	0.000504	5.042862	0.854284	0.010092
 829	4.1400e-01	8.2776	11.409042	0.000239	2.393223	0.405423	0.004789
 830	4.1450e-01	8.2880	11.435555	0.000265	2.649639	0.448861	0.005303
 831	4.1500e-01	8.2971	11.468055	0.000325	3.247945	0.550217	0.006500
 832	4.1550e-01	8.3081	11.479173	0.000111	1.111139	0.188232	0.002224
 833	4.1600e-01	8.3160	11.534764	0.000556	5.555695	0.941160	0.011118
 834	4.1650e-01	8.3270	11.538613	0.000038	0.384625	0.065157	0.000770
 835	4.1700e-01	8.3374	11.571968	0.000333	3.333417	0.564696	0.006671
 836	4.1750e-01	8.3466	11.597197	0.000252	2.521431	0.427142	0.005046
 837	4.1800e-01	8.3600	11.610026	0.000128	1.282084	0.217191	0.002566
 838	4.1850e-01	8.3698	11.650223	0.000402	4.017195	0.680531	0.008039
 839	4.1900e-01	8.3789	11.663907	0.000137	1.367556	0.231670	0.002737
 840	4.1950e-01	8.3887	11.702821	0.000389	3.888987	0.658812	0.007783
 841	4.2000e-01	8.3990	11.728906	0.000261	2.606903	0.441621	0.005217
 842	4.2050e-01	8.4076	11.741307	0.000124	1.239347	0.209951	0.002480
 843	4.2100e-01	8.4164	11.800319	0.000590	5.897584	0.999078	0.011802
 844	4.2150e-01	8.4296	11.808444	0.000081	0.811986	0.137554	0.001625
 845	4.2200e-01	8.4381	11.834957	0.000265	2.649639	0.448861	0.005303
 846	4.2250e-01	8.4503	11.856338	0.000214	2.136806	0.361985	0.004276
 847	4.2300e-01	8.4576	11.881141	0.000248	2.478695	0.419902	0.004960
 848	4.2350e-01	8.4680	11.914923	0.000338	3.376153	0.571936	0.006756
 849	4.2400e-01	8.4781	11.947423	0.000325	3.247945	0.550217	0.006500
 850	4.2450e-01	8.4918	11.968376	0.000209	2.094070	0.354745	0.004191
 851	4.2500e-01	8.4991	11.993178	0.000248	2.478695	0.419902	0.004960
 852	4.2550e-01	8.5101	12.015843	0.000227	2.265014	0.383704	0.004533
 853	4.2600e-01	8.5181	12.053046	0.000372	3.718042	0.629853	0.007441
 854	4.2650e-01	8.5263	12.045776	-0.000073	-0.726514	-0.123075	-0.001454
 855	4.2700e-01	8.5388	12.101368	0.000556	5.555695	0.941160	0.011118
 856	4.2750e-01	8.5480	12.122749	0.000214	2.136806	0.361985	0.004276
 857	4.2800e-01	8.5602	12.142847	0.000201	2.008598	0.340266	0.004020
 858	4.2850e-01	8.5699	12.163801	0.000209	2.094070	0.354745	0.004191
 859	4.2900e-01	8.5797	12.186465	0.000227	2.265014	0.383704	0.004533
 860	4.2950e-01	8.5876	12.215544	0.000291	2.906056	0.492299	0.005816
 861	4.3000e-01	8.5980	12.241629	0.000261	2.606903	0.441621	0.005217
 862	4.3050e-01	8.6066	12.266859	0.000252	2.521431	0.427142	0.005046
 863	4.3100e-01	8.6194	12.299358	0.000325	3.247945	0.550217	0.006500
 864	4.3150e-01	8.6273	12.342548	0.000432	4.316348	0.731209	0.008638
 865	4.3200e-01	8.6371	12.372482	0.000299	2.991528	0.506779	0.005987
 866	4.3250e-01	8.6469	12.399850	0.000274	2.735112	0.463340	0.005474
 867	4.3300e-01	8.6578	12.412251	0.000124	1.239347	0.209951	0.002480
 868	4.3350e-01	8.6670	12.453303	0.000410	4.102667	0.695011	0.008210
 869	4.3400e-01	8.6810	12.452448	-0.000009	-0.085472	-0.014479	-0.000171
 870	4.3450e-01	8.6865	12.499914	0.000474	4.743709	0.803606	0.009493
 871	4.3500e-01	8.6969	12.518302	0.000184	1.837653	0.311307	0.003678
 872	4.3550e-01	8.7067	12.549091	0.000308	3.077000	0.521258	0.006158
 873	4.3600e-01	8.7172	12.571328	0.000222	2.222278	0.376464	0.004447
 874	4.3650e-01	8.7256	12.596130	0.000248	2.478695	0.419902	0.004960
 875	4.3700e-01	8.7381	12.616228	0.000201	2.008598	0.340266	0.004020
 876	4.3750e-01	8.7500	12.653004	0.000368	3.675306	0.622614	0.007355
 877	4.3800e-01	8.7598	12.674813	0.000218	2.179542	0.369224	0.004362
 878	4.3850e-01	8.7686	12.688497	0.000137	1.367556	0.231670	0.002737
 879	4.3900e-01	8.7787	12.734253	0.000457	4.572765	0.774647	0.009151
 880	4.3950e-01	8.7866	12.752641	0.000184	1.837653	0.311307	0.003678
 881	4.4000e-01	8.7994	12.778726	0.000261	2.606903	0.441621	0.005217
 882	4.4050e-01	8.8104	12.791555	0.000128	1.282084	0.217191	0.002566
 883	4.4100e-01	8.8190	12.829186	0.000376	3.760778	0.637093	0.007526
 884	4.4150e-01	8.8263	12.832607	0.000034	0.341889	0.057918	0.000684
 885	4.4200e-01	8.8379	12.869810	0.000372	3.718042	0.629853	0.007441
 886	4.4250e-01	8.8483	12.904020	0.000342	3.418889	0.579176	0.006842
 887	4.4300e-01	8.8586	12.930105	0.000261	2.606903	0.441621	0.005217
 888	4.4350e-01	8.8696	12.953625	0.000235	2.350486	0.398183	0.004704
 889	4.4400e-01	8.8782	12.977572	0.000239	2.393223	0.405423	0.004789
 890	4.4450e-01	8.8910	13.012209	0.000346	3.461626	0.586415	0.006928
 891	4.4500e-01	8.8977	13.025893	0.000137	1.367556	0.231670	0.002737
 892	4.4550e-01	8.9087	13.063952	0.000380	3.803514	0.644333	0.007612
 893	4.4600e-01	8.9172	13.081912	0.000179	1.794917	0.304067	0.003592
 894	4.4650e-01	8.9270	13.103721	0.000218	2.179542	0.369224	0.004362
 895	4.4700e-01	8.9359	13.146484	0.000427	4.273612	0.723969	0.008553
 896	4.4750e-01	8.9465	13.154609	0.000081	0.811986	0.137554	0.001625
 897	4.4800e-01	8.9575	13.194378	0.000397	3.974459	0.673292	0.007954
 898	4.4850e-01	8.9679	13.207634	0.000132	1.324820	0.224431	0.002651
 899	4.4900e-01	8.9752	13.246548	0.000389	3.888987	0.658812	0.007783
 900	4.4950e-01	8.9850	13.256811	0.000103	1.025667	0.173753	0.002053
 901	4.5000e-01	8.9963	13.291021	0.000342	3.418889	0.579176	0.006842
 902	4.5050e-01	9.0070	13.336777	0.000457	4.572765	0.774647	0.009151
 903	4.5100e-01	9.0179	13.345757	0.000090	0.897458	0.152034	0.001796
 904	4.5150e-01	9.0277	13.374836	0.000291	2.906056	0.492299	0.005816
 905	4.5200e-01	9.0375	13.418881	0.000440	4.401820	0.745689	0.008809
 906	4.5250e-01	9.0479	13.429144	0.000103	1.025667	0.173753	0.002053
 907	4.5300e-01	9.0582	13.447104	0.000179	1.794917	0.304067	0.003592
 908	4.5350e-01	9.0662	13.492860	0.000457	4.572765	0.774647	0.009151
 909	4.5400e-01	9.0747	13.534340	0.000415	4.145403	0.702250	0.008296
 910	4.5450e-01	9.0894	13.541182	0.000068	0.683778	0.115835	0.001368
 911	4.5500e-01	9.1003	13.563846	0.000227	2.265014	0.383704	0.004533
 912	4.5550e-01	9.1077	13.577530	0.000137	1.367556	0.231670	0.002737
 913	4.5600e-01	9.1174	13.616016	0.000385	3.846251	0.651572	0.007697
 914	4.5650e-01	9.1275	13.646805	0.000308	3.077000	0.521258	0.006158
 915	4.5700e-01	9.1370	13.667331	0.000205	2.051334	0.347505	0.004105
 916	4.5750e-01	9.1492	13.664766	-0.000026	-0.256417	-0.043438	-0.000513
 917	4.5800e-01	9.1577	13.725916	0.000611	6.111265	1.035276	0.012230
 918	4.5850e-01	9.1669	13.736179	0.000103	1.025667	0.173753	0.002053
 919	4.5900e-01	9.1809	13.756705	0.000205	2.051334	0.347505	0.004105
 920	4.5950e-01	9.1895	13.781507	0.000248	2.478695	0.419902	0.004960
 921	4.6000e-01	9.2004	13.816145	0.000346	3.461626	0.586415	0.006928
 922	4.6050e-01	9.2084	13.845224	0.000291	2.906056	0.492299	0.005816
 923	4.6100e-01	9.2175	13.861473	0.000162	1.623972	0.275108	0.003250
 924	4.6150e-01	9.2291	13.893545	0.000321	3.205209	0.542977	0.006414
 925	4.6200e-01	9.2371	13.925189	0.000316	3.162473	0.535737	0.006329
 926	4.6250e-01	9.2494	13.957261	0.000321	3.205209	0.542977	0.006414
 927	4.6300e-01	9.2578	13.975649	0.000184	1.837653	0.311307	0.003678
 928	4.6350e-01	9.2688	13.997886	0.000222	2.222278	0.376464	0.004447
 929	4.6400e-01	9.2764	14.026964	0.000291	2.906056	0.492299	0.005816
 930	4.6450e-01	9.2896	14.057326	0.000303	3.034264	0.514018	0.006072
 931	4.6500e-01	9.2975	14.076141	0.000188	1.880389	0.318547	0.003763
 932	4.6550e-01	9.3091	14.103082	0.000269	2.692375	0.456101	0.005388
 933	4.6600e-01	9.3201	14.119331	0.000162	1.623972	0.275108	0.003250
 934	4.6650e-01	9.3262	14.168081	0.000487	4.871917	0.825325	0.009750
 935	4.6700e-01	9.3372	14.193310	0.000252	2.521431	0.427142	0.005046
 936	4.6750e-01	9.3469	14.213409	0.000201	2.008598	0.340266	0.004020
 937	4.6800e-01	9.3549	14.245908	0.000325	3.247945	0.550217	0.006500
 938	4.6850e-01	9.3701	14.268145	0.000222	2.222278	0.376464	0.004447
 939	4.6900e-01	9.3768	14.284822	0.000167	1.666709	0.282348	0.003335
 940	4.6950e-01	9.3909	14.304493	0.000197	1.965861	0.333026	0.003934
 941	4.7000e-01	9.3982	14.324591	0.000201	2.008598	0.340266	0.004020
 942	4.7050e-01	9.4067	14.380183	0.000556	5.555695	0.941160	0.011118
 943	4.7100e-01	9.4171	14.389163	0.000090	0.897458	0.152034	0.001796
 944	4.7150e-01	9.4263	14.422090	0.000329	3.290681	0.557456	0.006585
 945	4.7200e-01	9.4373	14.441333	0.000192	1.923125	0.325786	0.003849
 946	4.7250e-01	9.4458	14.477254	0.000359	3.589834	0.608134	0.007184
 947	4.7300e-01	9.4550	14.495214	0.000179	1.794917	0.304067	0.003592
 948	4.7350e-01	9.4690	14.495214	0.000000	0.000000	0.000000	0.000000
 949	4.7400e-01	9.4788	14.549095	0.000538	5.384751	0.912201	0.010776
 950	4.7450e-01	9.4870	14.577318	0.000282	2.820584	0.477820	0.005645
 951	4.7500e-01	9.4977	14.612383	0.000350	3.504362	0.593655	0.007013
 952	4.7550e-01	9.5074	14.626067	0.000137	1.367556	0.231670	0.002737
 953	4.7600e-01	9.5178	14.653008	0.000269	2.692375	0.456101	0.005388
 954	4.7650e-01	9.5270	14.686790	0.000338	3.376153	0.571936	0.006756
 955	4.7700e-01	9.5367	14.703467	0.000167	1.666709	0.282348	0.003335
 956	4.7750e-01	9.5453	14.715869	0.000124	1.239347	0.209951	0.002480
 957	4.7800e-01	9.5563	14.762480	0.000466	4.658237	0.789127	0.009322
 958	4.7850e-01	9.5648	14.798400	0.000359	3.589834	0.608134	0.007184
 959	4.7900e-01	9.5770	14.824913	0.000265	2.649639	0.448861	0.005303
 960	4.7950e-01	9.5917	14.835176	0.000103	1.025667	0.173753	0.002053
 961	4.8000e-01	9.5972	14.852709	0.000175	1.752181	0.296827	0.003507
 962	4.8050e-01	9.6063	14.906162	0.000534	5.342015	0.904962	0.010691
 963	4.8100e-01	9.6201	14.895471	-0.000107	-1.068403	-0.180992	-0.002138
 964	4.8150e-01	9.6283	14.937378	0.000419	4.188140	0.709490	0.008381
 965	4.8200e-01	9.6356	14.980996	0.000436	4.359084	0.738449	0.008724
 966	4.8250e-01	9.6472	14.984417	0.000034	0.341889	0.057918	0.000684
 967	4.8300e-01	9.6582	15.032739	0.000483	4.829181	0.818085	0.009664
 968	4.8350e-01	9.6674	15.055831	0.000231	2.307750	0.390943	0.004618
 969	4.8400e-01	9.6826	15.079778	0.000239	2.393223	0.405423	0.004789
 970	4.8450e-01	9.6881	15.093034	0.000132	1.324820	0.224431	0.002651
 971	4.8500e-01	9.6997	15.126816	0.000338	3.376153	0.571936	0.006756
 972	4.8550e-01	9.7070	15.149481	0.000227	2.265014	0.383704	0.004533
 973	4.8600e-01	9.7174	15.202934	0.000534	5.342015	0.904962	0.010691
 974	4.8650e-01	9.7278	15.223460	0.000205	2.051334	0.347505	0.004105
 975	4.8700e-01	9.7375	15.232868	0.000094	0.940195	0.159273	0.001882
 976	4.8750e-01	9.7449	15.262801	0.000299	2.991528	0.506779	0.005987
 977	4.8800e-01	9.7583	15.290597	0.000278	2.777848	0.470580	0.005559
 978	4.8850e-01	9.7668	15.316254	0.000256	2.564167	0.434382	0.005132
 979	4.8900e-01	9.7772	15.330366	0.000141	1.410292	0.238910	0.002822
 980	4.8950e-01	9.7876	15.358162	0.000278	2.777848	0.470580	0.005559
 981	4.9000e-01	9.7992	15.393227	0.000350	3.504362	0.593655	0.007013
 982	4.9050e-01	9.8093	15.428720	0.000355	3.547098	0.600895	0.007099
 983	4.9100e-01	9.8151	15.475331	0.000466	4.658237	0.789127	0.009322
 984	4.9150e-01	9.8267	15.473193	-0.000021	-0.213681	-0.036198	-0.000428
 985	4.9200e-01	9.8370	15.509113	0.000359	3.589834	0.608134	0.007184
 986	4.9250e-01	9.8462	15.531778	0.000227	2.265014	0.383704	0.004533
 987	4.9300e-01	9.8590	15.544179	0.000124	1.239347	0.209951	0.002480
 988	4.9350e-01	9.8685	15.577534	0.000333	3.333417	0.564696	0.006671
 989	4.9400e-01	9.8767	15.599342	0.000218	2.179542	0.369224	0.004362
 990	4.9450e-01	9.8871	15.633980	0.000346	3.461626	0.586415	0.006928
 991	4.9500e-01	9.8981	15.658782	0.000248	2.478695	0.419902	0.004960
 992	4.9550e-01	9.9103	15.681446	0.000227	2.265014	0.383704	0.004533
 993	4.9600e-01	9.9179	15.721643	0.000402	4.017195	0.680531	0.008039
 994	4.9650e-01	9.9286	15.751149	0.000295	2.948792	0.499539	0.005901
 995	4.9700e-01	9.9377	15.771675	0.000205	2.051334	0.347505	0.004105
 996	4.9750e-01	9.9493	15.789636	0.000179	1.794917	0.304067	0.003592
 997	4.9800e-01	9.9677	15.839240	0.000496	4.957390	0.839805	0.009921
 998	4.9850e-01	9.9698	15.850786	0.000115	1.153875	0.195472	0.002309
 999	4.9900e-01	9.9786	15.873450	0.000227	2.265014	0.383704	0.004533
1000	4.9950e-01	9.9881	15.901246	0.000278	2.777848	0.470580	0.005559
1001	5.0000e-01	9.9999	15.921344	0.000201	2.008598	0.340266	0.004020
1002	5.0050e-01	9.9902	15.900391	0.000209	2.094070	0.354745	-0.004191
1003	5.0100e-01	9.9768	15.875588	0.000248	2.478695	0.419902	-0.004960
1004	5.0150e-01	9.9677	15.862760	0.000128	1.282084	0.217191	-0.002566
1005	5.0200e-01	9.9573	15.858911	0.000038	0.384625	0.065157	-0.000770
1006	5.0250e-01	9.9463	15.840095	0.000188	1.880389	0.318547	-0.003763
1007	5.0300e-01	9.9377	15.831115	0.000090	0.897458	0.152034	-0.001796
1008	5.0350e-01	9.9286	15.819142	0.000120	1.196611	0.202711	-0.002395
1009	5.0400e-01	9.9170	15.775952	0.000432	4.316348	0.731209	-0.008638
1010	5.0450e-01	9.9066	15.766972	0.000090	0.897458	0.152034	-0.001796
1011	5.0500e-01	9.8981	15.763550	0.000034	0.341889	0.057918	-0.000684
1012	5.0550e-01	9.8883	15.756281	0.000073	0.726514	0.123075	-0.001454
1013	5.0600e-01	9.8773	15.741314	0.000150	1.495764	0.253389	-0.002993
1014	5.0650e-01	9.8663	15.722498	0.000188	1.880389	0.318547	-0.003763
1015	5.0700e-01	9.8572	15.709670	0.000128	1.282084	0.217191	-0.002566
1016	5.0750e-01	9.8456	15.692565	0.000171	1.709445	0.289588	-0.003421
1017	5.0800e-01	9.8346	15.674604	0.000179	1.794917	0.304067	-0.003592
1018	5.0850e-01	9.8285	15.672039	0.000026	0.256417	0.043438	-0.000513
1019	5.0900e-01	9.8181	15.651940	0.000201	2.008598	0.340266	-0.004020
1020	5.0950e-01	9.8108	15.629704	0.000222	2.222278	0.376464	-0.004447
1021	5.1000e-01	9.7961	15.613882	0.000158	1.581236	0.267869	-0.003164
1022	5.1050e-01	9.7864	15.601053	0.000128	1.282084	0.217191	-0.002566
1023	5.1100e-01	9.7766	15.576678	0.000244	2.435959	0.412663	-0.004875
1024	5.1150e-01	9.7675	15.557863	0.000188	1.880389	0.318547	-0.003763
1025	5.1200e-01	9.7577	15.542041	0.000158	1.581236	0.267869	-0.003164
1026	5.1250e-01	9.7473	15.521942	0.000201	2.008598	0.340266	-0.004020
1027	5.1300e-01	9.7369	15.515955	0.000060	0.598306	0.101356	-0.001197
1028	5.1350e-01	9.7260	15.482173	0.000338	3.376153	0.571936	-0.006756
1029	5.1400e-01	9.7174	15.471055	0.000111	1.111139	0.188232	-0.002224
1030	5.1450e-01	9.7060	15.460792	0.000103	1.025667	0.173753	-0.002053
1031	5.1500e-01	9.6960	15.446253	0.000145	1.453028	0.246150	-0.002908
1032	5.1550e-01	9.6893	15.432996	0.000132	1.324820	0.224431	-0.002651
1033	5.1600e-01	9.6741	15.427437	0.000056	0.555570	0.094116	-0.001112
1034	5.1650e-01	9.6664	15.400924	0.000265	2.649639	0.448861	-0.005303
1035	5.1700e-01	9.6564	15.360727	0.000402	4.017195	0.680531	-0.008039
1036	5.1750e-01	9.6454	15.369708	-0.000090	-0.897458	-0.152034	0.001796
1037	5.1800e-01	9.6375	15.340629	0.000291	2.906056	0.492299	-0.005816
1038	5.1850e-01	9.6283	15.328656	0.000120	1.196611	0.202711	-0.002395
1039	5.1900e-01	9.6173	15.322241	0.000064	0.641042	0.108595	-0.001283
1040	5.1950e-01	9.6027	15.310695	0.000115	1.153875	0.195472	-0.002309
1041	5.2000e-01	9.5959	15.280334	0.000303	3.034264	0.514018	-0.006072
1042	5.2050e-01	9.5886	15.256815	0.000235	2.350486	0.398183	-0.004704
1043	5.2100e-01	9.5782	15.249117	0.000077	0.769250	0.130314	-0.001539
1044	5.2150e-01	9.5660	15.233295	0.000158	1.581236	0.267869	-0.003164
1045	5.2200e-01	9.5551	15.223032	0.000103	1.025667	0.173753	-0.002053
1046	5.2250e-01	9.5477	15.204644	0.000184	1.837653	0.311307	-0.003678
1047	5.2300e-01	9.5367	15.175993	0.000286	2.863320	0.485060	-0.005730
1048	5.2350e-01	9.5251	15.170862	0.000051	0.512833	0.086876	-0.001026
1049	5.2400e-01	9.5166	15.155467	0.000154	1.538500	0.260629	-0.003079
1050	5.2450e-01	9.5052	15.136652	0.000188	1.880389	0.318547	-0.003763
1051	5.2500e-01	9.4965	15.098593	0.000380	3.803514	0.644333	-0.007612
1052	5.2550e-01	9.4885	15.089185	0.000094	0.940195	0.159273	-0.001882
1053	5.2600e-01	9.4745	15.091324	-0.000021	-0.213681	-0.036198	0.000428
1054	5.2650e-01	9.4659	15.066094	0.000252	2.521431	0.427142	-0.005046
1055	5.2700e-01	9.4562	15.051554	0.000145	1.453028	0.246150	-0.002908
1056	5.2750e-01	9.4470	15.023331	0.000282	2.820584	0.477820	-0.005645
1057	5.2800e-01	9.4360	15.022476	0.000009	0.085472	0.014479	-0.000171
1058	5.2850e-01	9.4299	14.996818	0.000256	2.564167	0.434382	-0.005132
1059	5.2900e-01	9.4165	14.995108	0.000017	0.170944	0.028959	-0.000342
1060	5.2950e-01	9.4080	14.963036	0.000321	3.205209	0.542977	-0.006414
1061	5.3000e-01	9.3964	14.934385	0.000286	2.863320	0.485060	-0.005730
1062	5.3050e-01	9.3851	14.913004	0.000214	2.136806	0.361985	-0.004276
1063	5.3100e-01	9.3774	14.906162	0.000068	0.683778	0.115835	-0.001368
1064	5.3150e-01	9.3671	14.881360	0.000248	2.478695	0.419902	-0.004960
1065	5.3200e-01	9.3585	14.862972	0.000184	1.837653	0.311307	-0.003678
1066	5.3250e-01	9.3488	14.842018	0.000209	2.094070	0.354745	-0.004191
1067	5.3300e-01	9.3372	14.844584	-0.000026	-0.256417	-0.043438	0.000513
1068	5.3350e-01	9.3268	14.814222	0.000303	3.034264	0.514018	-0.006072
1069	5.3400e-01	9.3158	14.783433	0.000308	3.077000	0.521258	-0.006158
1070	5.3450e-01	9.3066	14.782150	0.000013	0.128208	0.021719	-0.000257
1071	5.3500e-01	9.2963	14.753500	0.000286	2.863320	0.485060	-0.005730
1072	5.3550e-01	9.2871	14.738105	0.000154	1.538500	0.260629	-0.003079
1073	5.3600e-01	9.2780	14.716296	0.000218	2.179542	0.369224	-0.004362
1074	5.3650e-01	9.2645	14.698336	0.000179	1.794917	0.304067	-0.003592
1075	5.3700e-01	9.2535	14.663271	0.000350	3.504362	0.593655	-0.007013
1076	5.3750e-01	9.2474	14.670968	-0.000077	-0.769250	-0.130314	0.001539
1077	5.3800e-01	9.2371	14.656856	0.000141	1.410292	0.238910	-0.002822
1078	5.3850e-01	9.2288	14.627350	0.000295	2.948792	0.499539	-0.005901
1079	5.3900e-01	9.2157	14.611100	0.000162	1.623972	0.275108	-0.003250
1080	5.3950e-01	9.2078	14.595278	0.000158	1.581236	0.267869	-0.003164
1081	5.4000e-01	9.1992	14.566200	0.000291	2.906056	0.492299	-0.005816
1082	5.4050e-01	9.1858	14.561496	0.000047	0.470097	0.079637	-0.000941
1083	5.4100e-01	9.1754	14.542680	0.000188	1.880389	0.318547	-0.003763
1084	5.4150e-01	9.1669	14.523437	0.000192	1.923125	0.325786	-0.003849
1085	5.4200e-01	9.1553	14.505477	0.000179	1.794917	0.304067	-0.003592
1086	5.4250e-01	9.1467	14.470412	0.000350	3.504362	0.593655	-0.007013
1087	5.4300e-01	9.1345	14.458438	0.000120	1.196611	0.202711	-0.002395
1088	5.4350e-01	9.1251	14.452451	0.000060	0.598306	0.101356	-0.001197
1089	5.4400e-01	9.1144	14.422945	0.000295	2.948792	0.499539	-0.005901
1090	5.4450e-01	9.1071	14.423801	-0.000009	-0.085472	-0.014479	0.000171
1091	5.4500e-01	9.0967	14.404130	0.000197	1.965861	0.333026	-0.003934
1092	5.4550e-01	9.0845	14.387452	0.000167	1.666709	0.282348	-0.003335
1093	5.4600e-01	9.0759	14.357519	0.000299	2.991528	0.506779	-0.005987
1094	5.4650e-01	9.0656	14.309197	0.000483	4.829181	0.818085	-0.009664
1095	5.4700e-01	9.0570	14.317322	-0.000081	-0.811986	-0.137554	0.001625
1096	5.4750e-01	9.0466	14.294230	0.000231	2.307750	0.390943	-0.004618
1097	5.4800e-01	9.0363	14.270283	0.000239	2.393223	0.405423	-0.004789
1098	5.4850e-01	9.0240	14.272421	-0.000021	-0.213681	-0.036198	0.000428
1099	5.4900e-01	9.0173	14.229659	0.000427	4.273612	0.723969	-0.008553
1100	5.4950e-01	9.0063	14.212126	0.000175	1.752181	0.296827	-0.003507
1101	5.5000e-01	8.9966	14.207422	0.000047	0.470097	0.079637	-0.000941
1102	5.5050e-01	8.9856	14.182620	0.000248	2.478695	0.419902	-0.004960
1103	5.5100e-01	8.9764	14.155679	0.000269	2.692375	0.456101	-0.005388
1104	5.5150e-01	8.9685	14.132588	0.000231	2.307750	0.390943	-0.004618
1105	5.5200e-01	8.9594	14.134726	-0.000021	-0.213681	-0.036198	0.000428
1106	5.5250e-01	8.9453	14.080845	0.000538	5.384751	0.912201	-0.010776
1107	5.5300e-01	8.9374	14.078707	0.000021	0.213681	0.036198	-0.000428
1108	5.5350e-01	8.9282	14.070154	0.000085	0.854722	0.144794	-0.001711
1109	5.5400e-01	8.9172	14.026964	0.000432	4.316348	0.731209	-0.008638
1110	5.5450e-01	8.9069	14.007293	0.000197	1.965861	0.333026	-0.003934
1111	5.5500e-01	8.8965	14.009432	-0.000021	-0.213681	-0.036198	0.000428
1112	5.5550e-01	8.8861	13.986767	0.000227	2.265014	0.383704	-0.004533
1113	5.5600e-01	8.8776	13.964531	0.000222	2.222278	0.376464	-0.004447
1114	5.5650e-01	8.8666	13.950419	0.000141	1.410292	0.238910	-0.002822
1115	5.5700e-01	8.8564	13.932459	0.000179	1.794917	0.304067	-0.003592
1116	5.5750e-01	8.8483	13.905519	0.000269	2.692375	0.456101	-0.005388
1117	5.5800e-01	8.8391	13.896539	0.000090	0.897458	0.152034	-0.001796
1118	5.5850e-01	8.8269	13.867032	0.000295	2.948792	0.499539	-0.005901
1119	5.5900e-01	8.8159	13.856769	0.000103	1.025667	0.173753	-0.002053
1120	5.5950e-01	8.8074	13.831967	0.000248	2.478695	0.419902	-0.004960
1121	5.6000e-01	8.7976	13.812296	0.000197	1.965861	0.333026	-0.003934
1122	5.6050e-01	8.7860	13.808875	0.000034	0.341889	0.057918	-0.000684
1123	5.6100e-01	8.7781	13.764830	0.000440	4.401820	0.745689	-0.008809
1124	5.6150e-01	8.7689	13.727627	0.000372	3.718042	0.629853	-0.007441
1125	5.6200e-01	8.7561	13.726344	0.000013	0.128208	0.021719	-0.000257
1126	5.6250e-01	8.7476	13.718646	0.000077	0.769250	0.130314	-0.001539
1127	5.6300e-01	8.7372	13.689568	0.000291	2.906056	0.492299	-0.005816
1128	5.6350e-01	8.7292	13.657924	0.000316	3.162473	0.535737	-0.006329
1129	5.6400e-01	8.7186	13.663055	-0.000051	-0.512833	-0.086876	0.001026
1130	5.6450e-01	8.7097	13.633121	0.000299	2.991528	0.506779	-0.005987
1131	5.6500e-01	8.6951	13.632266	0.000009	0.085472	0.014479	-0.000171
1132	5.6550e-01	8.6868	13.601905	0.000303	3.034264	0.514018	-0.006072
1133	5.6600e-01	8.6804	13.568550	0.000333	3.333417	0.564696	-0.006671
1134	5.6650e-01	8.6688	13.574109	-0.000056	-0.555570	-0.094116	0.001112
1135	5.6700e-01	8.6578	13.541182	0.000329	3.290681	0.557456	-0.006585
1136	5.6750e-01	8.6487	13.512103	0.000291	2.906056	0.492299	-0.005816
1137	5.6800e-01	8.6392	13.474900	0.000372	3.718042	0.629853	-0.007441
1138	5.6850e-01	8.6255	13.479604	-0.000047	-0.470097	-0.079637	0.000941
1139	5.6900e-01	8.6163	13.445822	0.000338	3.376153	0.571936	-0.006756
1140	5.6950e-01	8.6053	13.436841	0.000090	0.897458	0.152034	-0.001796
1141	5.7000e-01	8.5992	13.418881	0.000179	1.794917	0.304067	-0.003592
1142	5.7050e-01	8.5876	13.398355	0.000205	2.051334	0.347505	-0.004105
1143	5.7100e-01	8.5776	13.384671	0.000137	1.367556	0.231670	-0.002737
1144	5.7150e-01	8.5681	13.338488	0.000462	4.615501	0.781887	-0.009237
1145	5.7200e-01	8.5597	13.325659	0.000128	1.282084	0.217191	-0.002566
1146	5.7250e-01	8.5480	13.282896	0.000427	4.273612	0.723969	-0.008553
1147	5.7300e-01	8.5370	13.268785	0.000141	1.410292	0.238910	-0.002822
1148	5.7350e-01	8.5284	13.261515	0.000073	0.726514	0.123075	-0.001454
1149	5.7400e-01	8.5193	13.246121	0.000154	1.538500	0.260629	-0.003079
1150	5.7450e-01	8.5083	13.229871	0.000162	1.623972	0.275108	-0.003250
1151	5.7500e-01	8.4985	13.213193	0.000167	1.666709	0.282348	-0.003335
1152	5.7550e-01	8.4875	13.182832	0.000303	3.034264	0.514018	-0.006072
1153	5.7600e-01	8.4772	13.146484	0.000363	3.632570	0.615374	-0.007270
1154	5.7650e-01	8.4662	13.146911	-0.000004	-0.042736	-0.007240	0.000086
1155	5.7700e-01	8.4595	13.128524	0.000184	1.837653	0.311307	-0.003678
1156	5.7750e-01	8.4473	13.116978	0.000115	1.153875	0.195472	-0.002309
1157	5.7800e-01	8.4363	13.081485	0.000355	3.547098	0.600895	-0.007099
1158	5.7850e-01	8.4265	13.068228	0.000132	1.324820	0.224431	-0.002651
1159	5.7900e-01	8.4167	13.048985	0.000192	1.923125	0.325786	-0.003849
1160	5.7950e-01	8.4106	13.013492	0.000355	3.547098	0.600895	-0.007099
1161	5.8000e-01	8.3966	12.993822	0.000197	1.965861	0.333026	-0.003934
1162	5.8050e-01	8.3838	13.003657	-0.000098	-0.982931	-0.166513	0.001967
1163	5.8100e-01	8.3765	12.948921	0.000547	5.470223	0.926681	-0.010947
1164	5.8150e-01	8.3685	12.939513	0.000094	0.940195	0.159273	-0.001882
1165	5.8200e-01	8.3594	12.898889	0.000406	4.059931	0.687771	-0.008125
1166	5.8250e-01	8.3496	12.892902	0.000060	0.598306	0.101356	-0.001197
1167	5.8300e-01	8.3362	12.868955	0.000239	2.393223	0.405423	-0.004789
1168	5.8350e-01	8.3289	12.856126	0.000128	1.282084	0.217191	-0.002566
1169	5.8400e-01	8.3185	12.827048	0.000291	2.906056	0.492299	-0.005816
1170	5.8450e-01	8.3069	12.820206	0.000068	0.683778	0.115835	-0.001368
1171	5.8500e-01	8.2971	12.803956	0.000162	1.623972	0.275108	-0.003250
1172	5.8550e-01	8.2874	12.764614	0.000393	3.931723	0.666052	-0.007868
1173	5.8600e-01	8.2755	12.744944	0.000197	1.965861	0.333026	-0.003934
1174	5.8650e-01	8.2697	12.738957	0.000060	0.598306	0.101356	-0.001197
1175	5.8700e-01	8.2574	12.718431	0.000205	2.051334	0.347505	-0.004105
1176	5.8750e-01	8.2495	12.698760	0.000197	1.965861	0.333026	-0.003934
1177	5.8800e-01	8.2379	12.695767	0.000030	0.299153	0.050678	-0.000599
1178	5.8850e-01	8.2269	12.638893	0.000568	5.683904	0.962879	-0.011375
1179	5.8900e-01	8.2159	12.632478	0.000064	0.641042	0.108595	-0.001283
1180	5.8950e-01	8.2080	12.609386	0.000231	2.307750	0.390943	-0.004618
1181	5.9000e-01	8.1964	12.594420	0.000150	1.495764	0.253389	-0.002993
1182	5.9050e-01	8.1873	12.561492	0.000329	3.290681	0.557456	-0.006585
1183	5.9100e-01	8.1747	12.541822	0.000197	1.965861	0.333026	-0.003934
1184	5.9150e-01	8.1714	12.516164	0.000256	2.564167	0.434382	-0.005132
1185	5.9200e-01	8.1580	12.494783	0.000214	2.136806	0.361985	-0.004276
1186	5.9250e-01	8.1482	12.463994	0.000308	3.077000	0.521258	-0.006158
1187	5.9300e-01	8.1378	12.455869	0.000081	0.811986	0.137554	-0.001625
1188	5.9350e-01	8.1262	12.445606	0.000103	1.025667	0.173753	-0.002053
1189	5.9400e-01	8.1207	12.418666	0.000269	2.692375	0.456101	-0.005388
1190	5.9450e-01	8.1067	12.379752	0.000389	3.888987	0.658812	-0.007783
1191	5.9500e-01	8.0951	12.354949	0.000248	2.478695	0.419902	-0.004960
1192	5.9550e-01	8.0902	12.336134	0.000188	1.880389	0.318547	-0.003763
1193	5.9600e-01	8.0786	12.306628	0.000295	2.948792	0.499539	-0.005901
1194	5.9650e-01	8.0670	12.307483	-0.000009	-0.085472	-0.014479	0.000171
1195	5.9700e-01	8.0566	12.290806	0.000167	1.666709	0.282348	-0.003335
1196	5.9750e-01	8.0457	12.257878	0.000329	3.290681	0.557456	-0.006585
1197	5.9800e-01	8.0365	12.236925	0.000209	2.094070	0.354745	-0.004191
1198	5.9850e-01	8.0258	12.222813	0.000141	1.410292	0.238910	-0.002822
1199	5.9900e-01	8.0176	12.194162	0.000286	2.863320	0.485060	-0.005730
1200	5.9950e-01	8.0084	12.173636	0.000205	2.051334	0.347505	-0.004105
1201	6.0000e-01	7.9974	12.152683	0.000209	2.094070	0.354745	-0.004191
1202	6.0050e-01	7.9895	12.129163	0.000235	2.350486	0.398183	-0.004704
1203	6.0100e-01	7.9767	12.106072	0.000231	2.307750	0.390943	-0.004618
1204	6.0150e-01	7.9633	12.106499	-0.000004	-0.042736	-0.007240	0.000086
1205	6.0200e-01	7.9559	12.068013	0.000385	3.846251	0.651572	-0.007697
1206	6.0250e-01	7.9468	12.030809	0.000372	3.718042	0.629853	-0.007441
1207	6.0300e-01	7.9370	12.039362	-0.000085	-0.854722	-0.144794	0.001711
1208	6.0350e-01	7.9254	12.000020	0.000393	3.931723	0.666052	-0.007868
1209	6.0400e-01	7.9178	11.983771	0.000162	1.623972	0.275108	-0.003250
1210	6.0450e-01	7.9077	11.950844	0.000329	3.290681	0.557456	-0.006585
1211	6.0500e-01	7.8967	11.921765	0.000291	2.906056	0.492299	-0.005816
1212	6.0550e-01	7.8882	11.917489	0.000043	0.427361	0.072397	-0.000855
1213	6.0600e-01	7.8772	11.889266	0.000282	2.820584	0.477820	-0.005645
1214	6.0650e-01	7.8662	11.865746	0.000235	2.350486	0.398183	-0.004704
1215	6.0700e-01	7.8561	11.857621	0.000081	0.811986	0.137554	-0.001625
1216	6.0750e-01	7.8485	11.822556	0.000350	3.504362	0.593655	-0.007013
1217	6.0800e-01	7.8369	11.802030	0.000205	2.051334	0.347505	-0.004105
1218	6.0850e-01	7.8250	11.770386	0.000316	3.162473	0.535737	-0.006329
1219	6.0900e-01	7.8168	11.747722	0.000227	2.265014	0.383704	-0.004533
1220	6.0950e-01	7.8046	11.731044	0.000167	1.666709	0.282348	-0.003335
1221	6.1000e-01	7.7954	11.710946	0.000201	2.008598	0.340266	-0.004020
1222	6.1050e-01	7.7881	11.701966	0.000090	0.897458	0.152034	-0.001796
1223	6.1100e-01	7.7777	11.669038	0.000329	3.290681	0.557456	-0.006585
1224	6.1150e-01	7.7650	11.653644	0.000154	1.538500	0.260629	-0.003079
1225	6.1200e-01	7.7557	11.615158	0.000385	3.846251	0.651572	-0.007697
1226	6.1250e-01	7.7460	11.602329	0.000128	1.282084	0.217191	-0.002566
1227	6.1300e-01	7.7374	11.593776	0.000085	0.854722	0.144794	-0.001711
1228	6.1350e-01	7.7283	11.547593	0.000462	4.615501	0.781887	-0.009237
1229	6.1400e-01	7.7161	11.537330	0.000103	1.025667	0.173753	-0.002053
1230	6.1450e-01	7.7075	11.505258	0.000321	3.205209	0.542977	-0.006414
1231	6.1500e-01	7.6965	11.485160	0.000201	2.008598	0.340266	-0.004020
1232	6.1550e-01	7.6880	11.471476	0.000137	1.367556	0.231670	-0.002737
1233	6.1600e-01	7.6776	11.435983	0.000355	3.547098	0.600895	-0.007099
1234	6.1650e-01	7.6691	11.429996	0.000060	0.598306	0.101356	-0.001197
1235	6.1700e-01	7.6550	11.388089	0.000419	4.188140	0.709490	-0.008381
1236	6.1750e-01	7.6465	11.370128	0.000179	1.794917	0.304067	-0.003592
1237	6.1800e-01	7.6392	11.362859	0.000073	0.726514	0.123075	-0.001454
1238	6.1850e-01	7.6257	11.345754	0.000171	1.709445	0.289588	-0.003421
1239	6.1900e-01	7.6184	11.297432	0.000483	4.829181	0.818085	-0.009664
1240	6.1950e-01	7.6089	11.284603	0.000128	1.282084	0.217191	-0.002566
1241	6.2000e-01	7.5980	11.267071	0.000175	1.752181	0.296827	-0.003507
1242	6.2050e-01	7.5868	11.237992	0.000291	2.906056	0.492299	-0.005816
1243	6.2100e-01	7.5775	11.237137	0.000009	0.085472	0.014479	-0.000171
1244	6.2150e-01	7.5687	11.202072	0.000350	3.504362	0.593655	-0.007013
1245	6.2200e-01	7.5537	11.195230	0.000068	0.683778	0.115835	-0.001368
1246	6.2250e-01	7.5464	11.158026	0.000372	3.718042	0.629853	-0.007441
1247	6.2300e-01	7.5397	11.129375	0.000286	2.863320	0.485060	-0.005730
1248	6.2350e-01	7.5256	11.108422	0.000209	2.094070	0.354745	-0.004191
1249	6.2400e-01	7.5177	11.096021	0.000124	1.239347	0.209951	-0.002480
1250	6.2450e-01	7.5079	11.072074	0.000239	2.393223	0.405423	-0.004789
1251	6.2500e-01	7.4963	11.043850	0.000282	2.820584	0.477820	-0.005645
1252	6.2550e-01	7.4854	11.007930	0.000359	3.589834	0.608134	-0.007184
1253	6.2600e-01	7.4792	10.999377	0.000085	0.854722	0.144794	-0.001711
1254	6.2650e-01	7.4646	10.977568	0.000218	2.179542	0.369224	-0.004362
1255	6.2700e-01	7.4573	10.942931	0.000346	3.461626	0.586415	-0.006928
1256	6.2750e-01	7.4481	10.945069	-0.000021	-0.213681	-0.036198	0.000428
1257	6.2800e-01	7.4393	10.908293	0.000368	3.675306	0.622614	-0.007355
1258	6.2850e-01	7.4274	10.875794	0.000325	3.247945	0.550217	-0.006500
1259	6.2900e-01	7.4164	10.898030	-0.000222	-2.222278	-0.376464	0.004447
1260	6.2950e-01	7.4045	10.850564	0.000474	4.743709	0.803606	-0.009493
1261	6.3000e-01	7.3975	10.833459	0.000171	1.709445	0.289588	-0.003421
1262	6.3050e-01	7.3846	10.791979	0.000415	4.145403	0.702250	-0.008296
1263	6.3100e-01	7.3773	10.759052	0.000329	3.290681	0.557456	-0.006585
1264	6.3150e-01	7.3676	10.738098	0.000209	2.094070	0.354745	-0.004191
1265	6.3200e-01	7.3553	10.713724	0.000244	2.435959	0.412663	-0.004875
1266	6.3250e-01	7.3450	10.689349	0.000244	2.435959	0.412663	-0.004875
1267	6.3300e-01	7.3353	10.690204	-0.000009	-0.085472	-0.014479	0.000171
1268	6.3350e-01	7.3248	10.649152	0.000410	4.102667	0.695011	-0.008210
1269	6.3400e-01	7.3169	10.621784	0.000274	2.735112	0.463340	-0.005474
1270	6.3450e-01	7.3071	10.612376	0.000094	0.940195	0.159273	-0.001882
1271	6.3500e-01	7.2957	10.600403	0.000120	1.196611	0.202711	-0.002395
1272	6.3550e-01	7.2864	10.558923	0.000415	4.145403	0.702250	-0.008296
1273	6.3600e-01	7.2772	10.541391	0.000175	1.752181	0.296827	-0.003507
1274	6.3650e-01	7.2650	10.500339	0.000410	4.102667	0.695011	-0.008210
1275	6.3700e-01	7.2546	10.494779	0.000056	0.555570	0.094116	-0.001112
1276	6.3750e-01	7.2473	10.489648	0.000051	0.512833	0.086876	-0.001026
1277	6.3800e-01	7.2351	10.437050	0.000526	5.256542	0.890482	-0.010520
1278	6.3850e-01	7.2253	10.421656	0.000154	1.538500	0.260629	-0.003079
1279	6.3900e-01	7.2150	10.400274	0.000214	2.136806	0.361985	-0.004276
1280	6.3950e-01	7.2070	10.378465	0.000218	2.179542	0.369224	-0.004362
1281	6.4000e-01	7.2009	10.345538	0.000329	3.290681	0.557456	-0.006585
1282	6.4050e-01	7.1875	10.330571	0.000150	1.495764	0.253389	-0.002993
1283	6.4100e-01	7.1777	10.304914	0.000256	2.564167	0.434382	-0.005132
1284	6.4150e-01	7.1674	10.280112	0.000248	2.478695	0.419902	-0.004960
1285	6.4200e-01	7.1564	10.254882	0.000252	2.521431	0.427142	-0.005046
1286	6.4250e-01	7.1460	10.245902	0.000090	0.897458	0.152034	-0.001796
1287	6.4300e-01	7.1390	10.228797	0.000171	1.709445	0.289588	-0.003421
1288	6.4350e-01	7.1255	10.207843	0.000209	2.094070	0.354745	-0.004191
1289	6.4400e-01	7.1173	10.181330	0.000265	2.649639	0.448861	-0.005303
1290	6.4450e-01	7.1063	10.145837	0.000355	3.547098	0.600895	-0.007099
1291	6.4500e-01	7.0990	10.130015	0.000158	1.581236	0.267869	-0.003164
1292	6.4550e-01	7.0886	10.094095	0.000359	3.589834	0.608134	-0.007184
1293	6.4600e-01	7.0753	10.074851	0.000192	1.923125	0.325786	-0.003849
1294	6.4650e-01	7.0667	10.018833	0.000560	5.598431	0.948400	-0.011204
1295	6.4700e-01	7.0575	10.022681	-0.000038	-0.384625	-0.065157	0.000770
1296	6.4750e-01	7.0477	9.998307	0.000244	2.435959	0.412663	-0.004875
1297	6.4800e-01	7.0367	9.985905	0.000124	1.239347	0.209951	-0.002480
1298	6.4850e-01	7.0258	9.956399	0.000295	2.948792	0.499539	-0.005901
1299	6.4900e-01	7.0154	9.930314	0.000261	2.606903	0.441621	-0.005217
1300	6.4950e-01	7.0068	9.912354	0.000179	1.794917	0.304067	-0.003592
1301	6.5000e-01	6.9980	9.864887	0.000474	4.743709	0.803606	-0.009493
1302	6.5050e-01	6.9867	9.852486	0.000124	1.239347	0.209951	-0.002480
1303	6.5100e-01	6.9763	9.833671	0.000188	1.880389	0.318547	-0.003763
1304	6.5150e-01	6.9684	9.813572	0.000201	2.008598	0.340266	-0.004020
1305	6.5200e-01	6.9562	9.783639	0.000299	2.991528	0.506779	-0.005987
1306	6.5250e-01	6.9434	9.766534	0.000171	1.709445	0.289588	-0.003421
1307	6.5300e-01	6.9360	9.754560	0.000120	1.196611	0.202711	-0.002395
1308	6.5350e-01	6.9263	9.725909	0.000286	2.863320	0.485060	-0.005730
1309	6.5400e-01	6.9177	9.684857	0.000410	4.102667	0.695011	-0.008210
1310	6.5450e-01	6.9061	9.659200	0.000256	2.564167	0.434382	-0.005132
1311	6.5500e-01	6.8964	9.622852	0.000363	3.632570	0.615374	-0.007270
1312	6.5550e-01	6.8866	9.622424	0.000004	0.042736	0.007240	-0.000086
1313	6.5600e-01	6.8787	9.592063	0.000303	3.034264	0.514018	-0.006072
1314	6.5650e-01	6.8675	9.578806	0.000132	1.324820	0.224431	-0.002651
1315	6.5700e-01	6.8564	9.545879	0.000329	3.290681	0.557456	-0.006585
1316	6.5750e-01	6.8466	9.542030	0.000038	0.384625	0.065157	-0.000770
1317	6.5800e-01	6.8372	9.499268	0.000427	4.273612	0.723969	-0.008553
1318	6.5850e-01	6.8231	9.491571	0.000077	0.769250	0.130314	-0.001539
1319	6.5900e-01	6.8164	9.453512	0.000380	3.803514	0.644333	-0.007612
1320	6.5950e-01	6.8091	9.407756	0.000457	4.572765	0.774647	-0.009151
1321	6.6000e-01	6.7975	9.394927	0.000128	1.282084	0.217191	-0.002566
1322	6.6050e-01	6.7862	9.385092	0.000098	0.982931	0.166513	-0.001967
1323	6.6100e-01	6.7755	9.357724	0.000274	2.735112	0.463340	-0.005474
1324	6.6150e-01	6.7670	9.331639	0.000261	2.606903	0.441621	-0.005217
1325	6.6200e-01	6.7551	9.313251	0.000184	1.837653	0.311307	-0.003678
1326	6.6250e-01	6.7450	9.266212	0.000470	4.700973	0.796366	-0.009408
1327	6.6300e-01	6.7413	9.243548	0.000227	2.265014	0.383704	-0.004533
1328	6.6350e-01	6.7255	9.220884	0.000227	2.265014	0.383704	-0.004533
1329	6.6400e-01	6.7169	9.205917	0.000150	1.495764	0.253389	-0.002993
1330	6.6450e-01	6.7061	9.179832	0.000261	2.606903	0.441621	-0.005217
1331	6.6500e-01	6.6943	9.153747	0.000261	2.606903	0.441621	-0.005217
1332	6.6550e-01	6.6888	9.136214	0.000175	1.752181	0.296827	-0.003507
1333	6.6600e-01	6.6769	9.112267	0.000239	2.393223	0.405423	-0.004789
1334	6.6650e-01	6.6663	9.080623	0.000316	3.162473	0.535737	-0.006329
1335	6.6700e-01	6.6528	9.068222	0.000124	1.239347	0.209951	-0.002480
1336	6.6750e-01	6.6486	9.026742	0.000415	4.145403	0.702250	-0.008296
1337	6.6800e-01	6.6400	9.005788	0.000209	2.094070	0.354745	-0.004191
1338	6.6850e-01	6.6278	9.000229	0.000056	0.555570	0.094116	-0.001112
1339	6.6900e-01	6.6156	8.980986	0.000192	1.923125	0.325786	-0.003849
1340	6.6950e-01	6.6058	8.934375	0.000466	4.658237	0.789127	-0.009322
1341	6.7000e-01	6.5979	8.922401	0.000120	1.196611	0.202711	-0.002395
1342	6.7050e-01	6.5875	8.885626	0.000368	3.675306	0.622614	-0.007355
1343	6.7100e-01	6.5767	8.868521	0.000171	1.709445	0.289588	-0.003421
1344	6.7150e-01	6.5643	8.860396	0.000081	0.811986	0.137554	-0.001625
1345	6.7200e-01	6.5585	8.838587	0.000218	2.179542	0.369224	-0.004362
1346	6.7250e-01	6.5460	8.788982	0.000496	4.957390	0.839805	-0.009921
1347	6.7300e-01	6.5359	8.763752	0.000252	2.521431	0.427142	-0.005046
1348	6.7350e-01	6.5247	8.747930	0.000158	1.581236	0.267869	-0.003164
1349	6.7400e-01	6.5106	8.712865	0.000350	3.504362	0.593655	-0.007013
1350	6.7450e-01	6.5070	8.703030	0.000098	0.982931	0.166513	-0.001967
1351	6.7500e-01	6.5002	8.663688	0.000393	3.931723	0.666052	-0.007868
1352	6.7550e-01	6.4880	8.648721	0.000150	1.495764	0.253389	-0.002993
1353	6.7600e-01	6.4783	8.640169	0.000085	0.854722	0.144794	-0.001711
1354	6.7650e-01	6.4673	8.600827	0.000393	3.931723	0.666052	-0.007868
1355	6.7700e-01	6.4594	8.570893	0.000299	2.991528	0.506779	-0.005987
1356	6.7750e-01	6.4484	8.548229	0.000227	2.265014	0.383704	-0.004533
1357	6.7800e-01	6.4374	8.534118	0.000141	1.410292	0.238910	-0.002822
1358	6.7850e-01	6.4246	8.486224	0.000479	4.786445	0.810846	-0.009579
1359	6.7900e-01	6.4157	8.464842	0.000214	2.136806	0.361985	-0.004276
1360	6.7950e-01	6.4050	8.438330	0.000265	2.649639	0.448861	-0.005303
1361	6.8000e-01	6.3956	8.412672	0.000256	2.564167	0.434382	-0.005132
1362	6.8050e-01	6.3869	8.389153	0.000235	2.350486	0.398183	-0.004704
1363	6.8100e-01	6.3766	8.378034	0.000111	1.111139	0.188232	-0.002224
1364	6.8150e-01	6.3684	8.346818	0.000312	3.119737	0.528498	-0.006243
1365	6.8200e-01	6.3568	8.322015	0.000248	2.478695	0.419902	-0.004960
1366	6.8250e-01	6.3454	8.311325	0.000107	1.068403	0.180992	-0.002138
1367	6.8300e-01	6.3367	8.272839	0.000385	3.846251	0.651572	-0.007697
1368	6.8350e-01	6.3278	8.248036	0.000248	2.478695	0.419902	-0.004960
1369	6.8400e-01	6.3165	8.227938	0.000201	2.008598	0.340266	-0.004020
1370	6.8450e-01	6.3080	8.185603	0.000423	4.230876	0.716730	-0.008467
1371	6.8500e-01	6.2946	8.202708	-0.000171	-1.709445	-0.289588	0.003421
1372	6.8550e-01	6.2888	8.137709	0.000650	6.495890	1.100434	-0.013000
1373	6.8600e-01	6.2793	8.123170	0.000145	1.453028	0.246150	-0.002908
1374	6.8650e-01	6.2665	8.096657	0.000265	2.649639	0.448861	-0.005303
1375	6.8700e-01	6.2595	8.090243	0.000064	0.641042	0.108595	-0.001283
1376	6.8750e-01	6.2463	8.053039	0.000372	3.718042	0.629853	-0.007441
1377	6.8800e-01	6.2372	8.019257	0.000338	3.376153	0.571936	-0.006756
1378	6.8850e-01	6.2286	7.981626	0.000376	3.760778	0.637093	-0.007526
1379	6.8900e-01	6.2183	7.959389	0.000222	2.222278	0.376464	-0.004447
1380	6.8950e-01	6.2109	7.937580	0.000218	2.179542	0.369224	-0.004362
1381	6.9000e-01	6.1951	7.932449	0.000051	0.512833	0.086876	-0.001026
1382	6.9050e-01	6.1859	7.871298	0.000611	6.111265	1.035276	-0.012230
1383	6.9100e-01	6.1792	7.890114	-0.000188	-1.880389	-0.318547	0.003763
1384	6.9150e-01	6.1676	7.839654	0.000504	5.042862	0.854284	-0.010092
1385	6.9200e-01	6.1572	7.812286	0.000274	2.735112	0.463340	-0.005474
1386	6.9250e-01	6.1475	7.798175	0.000141	1.410292	0.238910	-0.002822
1387	6.9300e-01	6.1374	7.771234	0.000269	2.692375	0.456101	-0.005388
1388	6.9350e-01	6.1279	7.743438	0.000278	2.777848	0.470580	-0.005559
1389	6.9400e-01	6.1194	7.717353	0.000261	2.606903	0.441621	-0.005217
1390	6.9450e-01	6.1072	7.691696	0.000256	2.564167	0.434382	-0.005132
1391	6.9500e-01	6.0959	7.665611	0.000261	2.606903	0.441621	-0.005217
1392	6.9550e-01	6.0873	7.631828	0.000338	3.376153	0.571936	-0.006756
1393	6.9600e-01	6.0796	7.623276	0.000085	0.854722	0.144794	-0.001711
1394	6.9650e-01	6.0684	7.575382	0.000479	4.786445	0.810846	-0.009579
1395	6.9700e-01	6.0571	7.559132	0.000162	1.623972	0.275108	-0.003250
1396	6.9750e-01	6.0541	7.549724	0.000094	0.940195	0.159273	-0.001882
1397	6.9800e-01	6.0388	7.515087	0.000346	3.461626	0.586415	-0.006928
1398	6.9850e-01	6.0269	7.491567	0.000235	2.350486	0.398183	-0.004704
1399	6.9900e-01	6.0159	7.438969	0.000526	5.256542	0.890482	-0.010520
1400	6.9950e-01	6.0089	7.451370	-0.000124	-1.239347	-0.209951	0.002480
1401	7.0000e-01	5.9961	7.429562	0.000218	2.179542	0.369224	-0.004362
1402	7.0050e-01	5.9859	7.397917	0.000316	3.162473	0.535737	-0.006329
1403	7.0100e-01	5.9798	7.359431	0.000385	3.846251	0.651572	-0.007697
1404	7.0150e-01	5.9686	7.326076	0.000333	3.333417	0.564696	-0.006671
1405	7.0200e-01	5.9564	7.311537	0.000145	1.453028	0.246150	-0.002908
1406	7.0250e-01	5.9489	7.279893	0.000316	3.162473	0.535737	-0.006329
1407	7.0300e-01	5.9381	7.250387	0.000295	2.948792	0.499539	-0.005901
1408	7.0350e-01	5.9266	7.237558	0.000128	1.282084	0.217191	-0.002566
1409	7.0400e-01	5.9186	7.208052	0.000295	2.948792	0.499539	-0.005901
1410	7.0450e-01	5.9070	7.187098	0.000209	2.094070	0.354745	-0.004191
1411	7.0500e-01	5.8966	7.149467	0.000376	3.760778	0.637093	-0.007526
1412	7.0550e-01	5.8868	7.140914	0.000085	0.854722	0.144794	-0.001711
1413	7.0600e-01	5.8798	7.110125	0.000308	3.077000	0.521258	-0.006158
1414	7.0650e-01	5.8687	7.066935	0.000432	4.316348	0.731209	-0.008638
1415	7.0700e-01	5.8548	7.060949	0.000060	0.598306	0.101356	-0.001197
1416	7.0750e-01	5.8472	7.036574	0.000244	2.435959	0.412663	-0.004875
1417	7.0800e-01	5.8398	6.997232	0.000393	3.931723	0.666052	-0.007868
1418	7.0850e-01	5.8264	6.953187	0.000440	4.401820	0.745689	-0.008809
1419	7.0900e-01	5.8160	6.966871	-0.000137	-1.367556	-0.231670	0.002737
1420	7.0950e-01	5.8076	6.922826	0.000440	4.401820	0.745689	-0.008809
1421	7.1000e-01	5.7977	6.920687	0.000021	0.213681	0.036198	-0.000428
1422	7.1050e-01	5.7843	6.867234	0.000534	5.342015	0.904962	-0.010691
1423	7.1100e-01	5.7770	6.839866	0.000274	2.735112	0.463340	-0.005474
1424	7.1150e-01	5.7678	6.819768	0.000201	2.008598	0.340266	-0.004020
1425	7.1200e-01	5.7574	6.777861	0.000419	4.188140	0.709490	-0.008381
1426	7.1250e-01	5.7469	6.764177	0.000137	1.367556	0.231670	-0.002737
1427	7.1300e-01	5.7349	6.736809	0.000274	2.735112	0.463340	-0.005474
1428	7.1350e-01	5.7251	6.707302	0.000295	2.948792	0.499539	-0.005901
1429	7.1400e-01	5.7167	6.680362	0.000269	2.692375	0.456101	-0.005388
1430	7.1450e-01	5.7080	6.656843	0.000235	2.350486	0.398183	-0.004704
1431	7.1500e-01	5.6982	6.632896	0.000239	2.393223	0.405423	-0.004789
1432	7.1550e-01	5.6877	6.598686	0.000342	3.418889	0.579176	-0.006842
1433	7.1600e-01	5.6772	6.588423	0.000103	1.025667	0.173753	-0.002053
1434	7.1650e-01	5.6671	6.565331	0.000231	2.307750	0.390943	-0.004618
1435	7.1700e-01	5.6583	6.517437	0.000479	4.786445	0.810846	-0.009579
1436	7.1750e-01	5.6471	6.504180	0.000132	1.324820	0.224431	-0.002651
1437	7.1800e-01	5.6360	6.491779	0.000124	1.239347	0.209951	-0.002480
1438	7.1850e-01	5.6274	6.433622	0.000581	5.812112	0.984598	-0.011631
1439	7.1900e-01	5.6140	6.428063	0.000056	0.555570	0.094116	-0.001112
1440	7.1950e-01	5.6064	6.404116	0.000239	2.393223	0.405423	-0.004789
1441	7.2000e-01	5.6000	6.366913	0.000372	3.718042	0.629853	-0.007441
1442	7.2050e-01	5.5872	6.341683	0.000252	2.521431	0.427142	-0.005046
1443	7.2100e-01	5.5786	6.321157	0.000205	2.051334	0.347505	-0.004105
1444	7.2150e-01	5.5658	6.291223	0.000299	2.991528	0.506779	-0.005987
1445	7.2200e-01	5.5548	6.253592	0.000376	3.760778	0.637093	-0.007526
1446	7.2250e-01	5.5493	6.241191	0.000124	1.239347	0.209951	-0.002480
1447	7.2300e-01	5.5367	6.222803	0.000184	1.837653	0.311307	-0.003678
1448	7.2350e-01	5.5276	6.192442	0.000303	3.034264	0.514018	-0.006072
1449	7.2400e-01	5.5200	6.159514	0.000329	3.290681	0.557456	-0.006585
1450	7.2450e-01	5.5057	6.127870	0.000316	3.162473	0.535737	-0.006329
1451	7.2500e-01	5.4962	6.112048	0.000158	1.581236	0.267869	-0.003164
1452	7.2550e-01	5.4889	6.063726	0.000483	4.829181	0.818085	-0.009664
1453	7.2600e-01	5.4767	6.050898	0.000128	1.282084	0.217191	-0.002566
1454	7.2650e-01	5.4678	6.044483	0.000064	0.641042	0.108595	-0.001283
1455	7.2700e-01	5.4553	5.985471	0.000590	5.897584	0.999078	-0.011802
1456	7.2750e-01	5.4456	5.966655	0.000188	1.880389	0.318547	-0.003763
1457	7.2800e-01	5.4352	5.936722	0.000299	2.991528	0.506779	-0.005987
1458	7.2850e-01	5.4257	5.914485	0.000222	2.222278	0.376464	-0.004447
1459	7.2900e-01	5.4163	5.891393	0.000231	2.307750	0.390943	-0.004618
1460	7.2950e-01	5.4079	5.873006	0.000184	1.837653	0.311307	-0.003678
1461	7.3000e-01	5.3967	5.856756	0.000162	1.623972	0.275108	-0.003250
1462	7.3050e-01	5.3853	5.798599	0.000581	5.812112	0.984598	-0.011631
1463	7.3100e-01	5.3766	5.766099	0.000325	3.247945	0.550217	-0.006500
1464	7.3150e-01	5.3688	5.754553	0.000115	1.153875	0.195472	-0.002309
1465	7.3200e-01	5.3561	5.727185	0.000274	2.735112	0.463340	-0.005474
1466	7.3250e-01	5.3473	5.704521	0.000227	2.265014	0.383704	-0.004533
1467	7.3300e-01	5.3369	5.690837	0.000137	1.367556	0.231670	-0.002737
1468	7.3350e-01	5.3278	5.651923	0.000389	3.888987	0.658812	-0.007783
1469	7.3400e-01	5.3152	5.624983	0.000269	2.692375	0.456101	-0.005388
1470	7.3450e-01	5.3059	5.620707	0.000043	0.427361	0.072397	-0.000855
1471	7.3500e-01	5.2998	5.580937	0.000397	3.974459	0.673292	-0.007954
1472	7.3550e-01	5.2869	5.543734	0.000372	3.718042	0.629853	-0.007441
1473	7.3600e-01	5.2779	5.500116	0.000436	4.359084	0.738449	-0.008724
1474	7.3650e-01	5.2678	5.474886	0.000252	2.521431	0.427142	-0.005046
1475	7.3700e-01	5.2547	5.471038	0.000038	0.384625	0.065157	-0.000770
1476	7.3750e-01	5.2460	5.426565	0.000444	4.444556	0.752928	-0.008895
1477	7.3800e-01	5.2362	5.416729	0.000098	0.982931	0.166513	-0.001967
1478	7.3850e-01	5.2271	5.383802	0.000329	3.290681	0.557456	-0.006585
1479	7.3900e-01	5.2179	5.358572	0.000252	2.521431	0.427142	-0.005046
1480	7.3950e-01	5.2051	5.303836	0.000547	5.470223	0.926681	-0.010947
1481	7.4000e-01	5.1971	5.303836	-0.000000	-0.000000	-0.000000	0.000000
1482	7.4050e-01	5.1871	5.257653	0.000462	4.615501	0.781887	-0.009237
1483	7.4100e-01	5.1770	5.235844	0.000218	2.179542	0.369224	-0.004362
1484	7.4150e-01	5.1668	5.193509	0.000423	4.230876	0.716730	-0.008467
1485	7.4200e-01	5.1587	5.183246	0.000103	1.025667	0.173753	-0.002053
1486	7.4250e-01	5.1450	5.156306	0.000269	2.692375	0.456101	-0.005388
1487	7.4300e-01	5.1364	5.115254	0.000410	4.102667	0.695011	-0.008210
1488	7.4350e-01	5.1239	5.101142	0.000141	1.410292	0.238910	-0.002822
1489	7.4400e-01	5.1175	5.071208	0.000299	2.991528	0.506779	-0.005987
1490	7.4450e-01	5.1080	5.048116	0.000231	2.307750	0.390943	-0.004618
1491	7.4500e-01	5.0949	5.025452	0.000227	2.265014	0.383704	-0.004533
1492	7.4550e-01	5.0864	4.999367	0.000261	2.606903	0.441621	-0.005217
1493	7.4600e-01	5.0745	4.957887	0.000415	4.145403	0.702250	-0.008296
1494	7.4650e-01	5.0667	4.933940	0.000239	2.393223	0.405423	-0.004789
1495	7.4700e-01	5.0552	4.904862	0.000291	2.906056	0.492299	-0.005816
1496	7.4750e-01	5.0476	4.874928	0.000299	2.991528	0.506779	-0.005987
1497	7.4800e-01	5.0342	4.872362	0.000026	0.256417	0.043438	-0.000513
1498	7.4850e-01	5.0250	4.806936	0.000654	6.538626	1.107673	-0.013085
1499	7.4900e-01	5.0142	4.808646	-0.000017	-0.170944	-0.028959	0.000342
1500	7.4950e-01	5.0055	4.768022	0.000406	4.059931	0.687771	-0.008125
1501	7.5000e-01	4.9957	4.741081	0.000269	2.692375	0.456101	-0.005388
1502	7.5050e-01	4.9863	4.715424	0.000256	2.564167	0.434382	-0.005132
1503	7.5100e-01	4.9765	4.685490	0.000299	2.991528	0.506779	-0.005987
1504	7.5150e-01	4.9677	4.675655	0.000098	0.982931	0.166513	-0.001967
1505	7.5200e-01	4.9561	4.632892	0.000427	4.273612	0.723969	-0.008553
1506	7.5250e-01	4.9477	4.617925	0.000150	1.495764	0.253389	-0.002993
1507	7.5300e-01	4.9365	4.576873	0.000410	4.102667	0.695011	-0.008210
1508	7.5350e-01	4.9265	4.538815	0.000380	3.803514	0.644333	-0.007612
1509	7.5400e-01	4.9170	4.523848	0.000150	1.495764	0.253389	-0.002993
1510	7.5450e-01	4.9054	4.483223	0.000406	4.059931	0.687771	-0.008125
1511	7.5500e-01	4.8981	4.467401	0.000158	1.581236	0.267869	-0.003164
1512	7.5550e-01	4.8898	4.455428	0.000120	1.196611	0.202711	-0.002395
1513	7.5600e-01	4.8779	4.423356	0.000321	3.205209	0.542977	-0.006414
1514	7.5650e-01	4.8669	4.379738	0.000436	4.359084	0.738449	-0.008724
1515	7.5700e-01	4.8572	4.349377	0.000303	3.034264	0.514018	-0.006072
1516	7.5750e-01	4.8477	4.329706	0.000197	1.965861	0.333026	-0.003934
1517	7.5800e-01	4.8367	4.303193	0.000265	2.649639	0.448861	-0.005303
1518	7.5850e-01	4.8260	4.265134	0.000380	3.803514	0.644333	-0.007612
1519	7.5900e-01	4.8163	4.262569	0.000026	0.256417	0.043438	-0.000513
1520	7.5950e-01	4.8065	4.231780	0.000308	3.077000	0.521258	-0.006158
1521	7.6000e-01	4.7974	4.159939	0.000718	7.179668	1.216269	-0.014368
1522	7.6050e-01	4.7871	4.165070	-0.000051	-0.512833	-0.086876	0.001026
1523	7.6100e-01	4.7772	4.132998	0.000321	3.205209	0.542977	-0.006414
1524	7.6150e-01	4.7647	4.109051	0.000239	2.393223	0.405423	-0.004789
1525	7.6200e-01	4.7577	4.088525	0.000205	2.051334	0.347505	-0.004105
1526	7.6250e-01	4.7479	4.035072	0.000534	5.342015	0.904962	-0.010691
1527	7.6300e-01	4.7375	4.016684	0.000184	1.837653	0.311307	-0.003678
1528	7.6350e-01	4.7260	3.989744	0.000269	2.692375	0.456101	-0.005388
1529	7.6400e-01	4.7180	3.962803	0.000269	2.692375	0.456101	-0.005388
1530	7.6450e-01	4.7058	3.943560	0.000192	1.923125	0.325786	-0.003849
1531	7.6500e-01	4.6985	3.902508	0.000410	4.102667	0.695011	-0.008210
1532	7.6550e-01	4.6857	3.869153	0.000333	3.333417	0.564696	-0.006671
1533	7.6600e-01	4.6759	3.838792	0.000303	3.034264	0.514018	-0.006072
1534	7.6650e-01	4.6655	3.826819	0.000120	1.196611	0.202711	-0.002395
1535	7.6700e-01	4.6582	3.791753	0.000350	3.504362	0.593655	-0.007013
1536	7.6750e-01	4.6472	3.757116	0.000346	3.461626	0.586415	-0.006928
1537	7.6800e-01	4.6375	3.722478	0.000346	3.461626	0.586415	-0.006928
1538	7.6850e-01	4.6265	3.707511	0.000150	1.495764	0.253389	-0.002993
1539	7.6900e-01	4.6150	3.670735	0.000368	3.675306	0.622614	-0.007355
1540	7.6950e-01	4.6082	3.642084	0.000286	2.863320	0.485060	-0.005730
1541	7.7000e-01	4.5959	3.632249	0.000098	0.982931	0.166513	-0.001967
1542	7.7050e-01	4.5892	3.604026	0.000282	2.820584	0.477820	-0.005645
1543	7.7100e-01	4.5734	3.569388	0.000346	3.461626	0.586415	-0.006928
1544	7.7150e-01	4.5663	3.543731	0.000256	2.564167	0.434382	-0.005132
1545	7.7200e-01	4.5575	3.505244	0.000385	3.846251	0.651572	-0.007697
1546	7.7250e-01	4.5474	3.465475	0.000397	3.974459	0.673292	-0.007954
1547	7.7300e-01	4.5357	3.422285	0.000432	4.316348	0.731209	-0.008638
1548	7.7350e-01	4.5258	3.414588	0.000077	0.769250	0.130314	-0.001539
1549	7.7400e-01	4.5163	3.390213	0.000244	2.435959	0.412663	-0.004875
1550	7.7450e-01	4.5074	3.347451	0.000427	4.273612	0.723969	-0.008553
1551	7.7500e-01	4.4934	3.332911	0.000145	1.453028	0.246150	-0.002908
1552	7.7550e-01	4.4839	3.310675	0.000222	2.222278	0.376464	-0.004447
1553	7.7600e-01	4.4775	3.269195	0.000415	4.145403	0.702250	-0.008296
1554	7.7650e-01	4.4661	3.247814	0.000214	2.136806	0.361985	-0.004276
1555	7.7700e-01	4.4543	3.214887	0.000329	3.290681	0.557456	-0.006585
1556	7.7750e-01	4.4492	3.184525	0.000303	3.034264	0.514018	-0.006072
1557	7.7800e-01	4.4350	3.177256	0.000073	0.726514	0.123075	-0.001454
1558	7.7850e-01	4.4250	3.122947	0.000543	5.427487	0.919441	-0.010862
1559	7.7900e-01	4.4162	3.097290	0.000256	2.564167	0.434382	-0.005132
1560	7.7950e-01	4.4044	3.075481	0.000218	2.179542	0.369224	-0.004362
1561	7.8000e-01	4.4003	3.057521	0.000179	1.794917	0.304067	-0.003592
1562	7.8050e-01	4.3843	3.021173	0.000363	3.632570	0.615374	-0.007270
1563	7.8100e-01	4.3768	2.968147	0.000530	5.299279	0.897722	-0.010605
1564	7.8150e-01	4.3652	2.964298	0.000038	0.384625	0.065157	-0.000770
1565	7.8200e-01	4.3570	2.927950	0.000363	3.632570	0.615374	-0.007270
1566	7.8250e-01	4.3457	2.916404	0.000115	1.153875	0.195472	-0.002309
1567	7.8300e-01	4.3361	2.870648	0.000457	4.572765	0.774647	-0.009151
1568	7.8350e-01	4.3274	2.833445	0.000372	3.718042	0.629853	-0.007441
1569	7.8400e-01	4.3146	2.801373	0.000321	3.205209	0.542977	-0.006414
1570	7.8450e-01	4.3066	2.782558	0.000188	1.880389	0.318547	-0.003763
1571	7.8500e-01	4.2966	2.759894	0.000227	2.265014	0.383704	-0.004533
1572	7.8550e-01	4.2883	2.707723	0.000521	5.213806	0.883243	-0.010434
1573	7.8600e-01	4.2761	2.697460	0.000103	1.025667	0.173753	-0.002053
1574	7.8650e-01	4.2699	2.663678	0.000338	3.376153	0.571936	-0.006756
1575	7.8700e-01	4.2576	2.641869	0.000218	2.179542	0.369224	-0.004362
1576	7.8750e-01	4.2462	2.606376	0.000355	3.547098	0.600895	-0.007099
1577	7.8800e-01	4.2340	2.570028	0.000363	3.632570	0.615374	-0.007270
1578	7.8850e-01	4.2294	2.544370	0.000256	2.564167	0.434382	-0.005132
1579	7.8900e-01	4.2169	2.519140	0.000252	2.521431	0.427142	-0.005046
1580	7.8950e-01	4.2075	2.496904	0.000222	2.222278	0.376464	-0.004447
1581	7.9000e-01	4.1956	2.462694	0.000342	3.418889	0.579176	-0.006842
1582	7.9050e-01	4.1864	2.429767	0.000329	3.290681	0.557456	-0.006585
1583	7.9100e-01	4.1745	2.406675	0.000231	2.307750	0.390943	-0.004618
1584	7.9150e-01	4.1675	2.359636	0.000470	4.700973	0.796366	-0.009408
1585	7.9200e-01	4.1562	2.338255	0.000214	2.136806	0.361985	-0.004276
1586	7.9250e-01	4.1455	2.312597	0.000256	2.564167	0.434382	-0.005132
1587	7.9300e-01	4.1327	2.274111	0.000385	3.846251	0.651572	-0.007697
1588	7.9350e-01	4.1278	2.257861	0.000162	1.623972	0.275108	-0.003250
1589	7.9400e-01	4.1174	2.220230	0.000376	3.760778	0.637093	-0.007526
1590	7.9450e-01	4.1074	2.208685	0.000115	1.153875	0.195472	-0.002309
1591	7.9500e-01	4.0950	2.171909	0.000368	3.675306	0.622614	-0.007355
1592	7.9550e-01	4.0887	2.134705	0.000372	3.718042	0.629853	-0.007441
1593	7.9600e-01	4.0753	2.105199	0.000295	2.948792	0.499539	-0.005901
1594	7.9650e-01	4.0668	2.072272	0.000329	3.290681	0.557456	-0.006585
1595	7.9700e-01	4.0591	2.028227	0.000440	4.401820	0.745689	-0.008809
1596	7.9750e-01	4.0454	2.014115	0.000141	1.410292	0.238910	-0.002822
1597	7.9800e-01	4.0369	1.981188	0.000329	3.290681	0.557456	-0.006585
1598	7.9850e-01	4.0253	1.945267	0.000359	3.589834	0.608134	-0.007184
1599	7.9900e-01	4.0149	1.916616	0.000286	2.863320	0.485060	-0.005730
1600	7.9950e-01	4.0067	1.906781	0.000098	0.982931	0.166513	-0.001967
1601	8.0000e-01	3.9975	1.864874	0.000419	4.188140	0.709490	-0.008381
1602	8.0050e-01	3.9870	1.832374	0.000325	3.247945	0.550217	-0.006500
1603	8.0100e-01	3.9749	1.803723	0.000286	2.863320	0.485060	-0.005730
1604	8.0150e-01	3.9676	1.779776	0.000239	2.393223	0.405423	-0.004789
1605	8.0200e-01	3.9568	1.767803	0.000120	1.196611	0.202711	-0.002395
1606	8.0250e-01	3.9490	1.714777	0.000530	5.299279	0.897722	-0.010605
1607	8.0300e-01	3.9349	1.689975	0.000248	2.478695	0.419902	-0.004960
1608	8.0350e-01	3.9265	1.651489	0.000385	3.846251	0.651572	-0.007697
1609	8.0400e-01	3.9175	1.627542	0.000239	2.393223	0.405423	-0.004789
1610	8.0450e-01	3.9050	1.590766	0.000368	3.675306	0.622614	-0.007355
1611	8.0500e-01	3.8956	1.559977	0.000308	3.077000	0.521258	-0.006158
1612	8.0550e-01	3.8901	1.533892	0.000261	2.606903	0.441621	-0.005217
1613	8.0600e-01	3.8770	1.511228	0.000227	2.265014	0.383704	-0.004533
1614	8.0650e-01	3.8666	1.494123	0.000171	1.709445	0.289588	-0.003421
1615	8.0700e-01	3.8599	1.442380	0.000517	5.171070	0.876003	-0.010349
1616	8.0750e-01	3.8483	1.423565	0.000188	1.880389	0.318547	-0.003763
1617	8.0800e-01	3.8339	1.383795	0.000397	3.974459	0.673292	-0.007954
1618	8.0850e-01	3.8261	1.344454	0.000393	3.931723	0.666052	-0.007868
1619	8.0900e-01	3.8151	1.319652	0.000248	2.478695	0.419902	-0.004960
1620	8.0950e-01	3.8045	1.292711	0.000269	2.692375	0.456101	-0.005388
1621	8.1000e-01	3.7970	1.264488	0.000282	2.820584	0.477820	-0.005645
1622	8.1050e-01	3.7872	1.246100	0.000184	1.837653	0.311307	-0.003678
1623	8.1100e-01	3.7753	1.212745	0.000333	3.333417	0.564696	-0.006671
1624	8.1150e-01	3.7678	1.175542	0.000372	3.718042	0.629853	-0.007441
1625	8.1200e-01	3.7573	1.135773	0.000397	3.974459	0.673292	-0.007954
1626	8.1250e-01	3.7482	1.104984	0.000308	3.077000	0.521258	-0.006158
1627	8.1300e-01	3.7372	1.065642	0.000393	3.931723	0.666052	-0.007868
1628	8.1350e-01	3.7274	1.034426	0.000312	3.119737	0.528498	-0.006243
1629	8.1400e-01	3.7161	1.015610	0.000188	1.880389	0.318547	-0.003763
1630	8.1450e-01	3.7041	0.986959	0.000286	2.863320	0.485060	-0.005730
1631	8.1500e-01	3.6963	0.951894	0.000350	3.504362	0.593655	-0.007013
1632	8.1550e-01	3.6884	0.931368	0.000205	2.051334	0.347505	-0.004105
1633	8.1600e-01	3.6768	0.900151	0.000312	3.119737	0.528498	-0.006243
1634	8.1650e-01	3.6670	0.857816	0.000423	4.230876	0.716730	-0.008467
1635	8.1700e-01	3.6580	0.831304	0.000265	2.649639	0.448861	-0.005303
1636	8.1750e-01	3.6481	0.800087	0.000312	3.119737	0.528498	-0.006243
1637	8.1800e-01	3.6353	0.771008	0.000291	2.906056	0.492299	-0.005816
1638	8.1850e-01	3.6279	0.746206	0.000248	2.478695	0.419902	-0.004960
1639	8.1900e-01	3.6177	0.697457	0.000487	4.871917	0.825325	-0.009750
1640	8.1950e-01	3.6056	0.678641	0.000188	1.880389	0.318547	-0.003763
1641	8.2000e-01	3.5953	0.640583	0.000380	3.803514	0.644333	-0.007612
1642	8.2050e-01	3.5880	0.605945	0.000346	3.461626	0.586415	-0.006928
1643	8.2100e-01	3.5765	0.574301	0.000316	3.162473	0.535737	-0.006329
1644	8.2150e-01	3.5657	0.556340	0.000179	1.794917	0.304067	-0.003592
1645	8.2200e-01	3.5565	0.540518	0.000158	1.581236	0.267869	-0.003164
1646	8.2250e-01	3.5474	0.497328	0.000432	4.316348	0.731209	-0.008638
1647	8.2300e-01	3.5362	0.456276	0.000410	4.102667	0.695011	-0.008210
1648	8.2350e-01	3.5243	0.440882	0.000154	1.538500	0.260629	-0.003079
1649	8.2400e-01	3.5160	0.404534	0.000363	3.632570	0.615374	-0.007270
1650	8.2450e-01	3.5065	0.376738	0.000278	2.777848	0.470580	-0.005559
1651	8.2500e-01	3.4958	0.358778	0.000179	1.794917	0.304067	-0.003592
1652	8.2550e-01	3.4870	0.299765	0.000590	5.897584	0.999078	-0.011802
1653	8.2600e-01	3.4744	0.278812	0.000209	2.094070	0.354745	-0.004191
1654	8.2650e-01	3.4641	0.225359	0.000534	5.342015	0.904962	-0.010691
1655	8.2700e-01	3.4555	0.213385	0.000120	1.196611	0.202711	-0.002395
1656	8.2750e-01	3.4451	0.191148	0.000222	2.222278	0.376464	-0.004447
1657	8.2800e-01	3.4391	0.152235	0.000389	3.888987	0.658812	-0.007783
1658	8.2850e-01	3.4244	0.129998	0.000222	2.222278	0.376464	-0.004447
1659	8.2900e-01	3.4180	0.088091	0.000419	4.188140	0.709490	-0.008381
1660	8.2950e-01	3.4044	0.061578	0.000265	2.649639	0.448861	-0.005303
1661	8.3000e-01	3.3969	0.027796	0.000338	3.376153	0.571936	-0.006756
1662	8.3050e-01	3.3859	-0.013684	0.000415	4.145403	0.702250	-0.008296
1663	8.3100e-01	3.3752	-0.031217	0.000175	1.752181	0.296827	-0.003507
1664	8.3150e-01	3.3664	-0.070131	0.000389	3.888987	0.658812	-0.007783
1665	8.3200e-01	3.3585	-0.112465	0.000423	4.230876	0.716730	-0.008467
1666	8.3250e-01	3.3466	-0.133419	0.000209	2.094070	0.354745	-0.004191
1667	8.3300e-01	3.3360	-0.155656	0.000222	2.222278	0.376464	-0.004447
1668	8.3350e-01	3.3262	-0.197563	0.000419	4.188140	0.709490	-0.008381
1669	8.3400e-01	3.3160	-0.228352	0.000308	3.077000	0.521258	-0.006158
1670	8.3450e-01	3.3060	-0.268121	0.000397	3.974459	0.673292	-0.007954
1671	8.3500e-01	3.2968	-0.289930	0.000218	2.179542	0.369224	-0.004362
1672	8.3550e-01	3.2864	-0.336969	0.000470	4.700973	0.796366	-0.009408
1673	8.3600e-01	3.2771	-0.342100	0.000051	0.512833	0.086876	-0.001026
1674	8.3650e-01	3.2648	-0.389567	0.000474	4.743709	0.803606	-0.009493
1675	8.3700e-01	3.2565	-0.420783	0.000312	3.119737	0.528498	-0.006243
1676	8.3750e-01	3.2478	-0.452855	0.000321	3.205209	0.542977	-0.006414
1677	8.3800e-01	3.2349	-0.478513	0.000256	2.564167	0.434382	-0.005132
1678	8.3850e-01	3.2233	-0.525979	0.000474	4.743709	0.803606	-0.009493
1679	8.3900e-01	3.2153	-0.561044	0.000350	3.504362	0.593655	-0.007013
1680	8.3950e-01	3.2053	-0.576866	0.000158	1.581236	0.267869	-0.003164
1681	8.4000e-01	3.1970	-0.599103	0.000222	2.222278	0.376464	-0.004447
1682	8.4050e-01	3.1831	-0.636306	0.000372	3.718042	0.629853	-0.007441
1683	8.4100e-01	3.1763	-0.670516	0.000342	3.418889	0.579176	-0.006842
1684	8.4150e-01	3.1663	-0.694891	0.000244	2.435959	0.412663	-0.004875
1685	8.4200e-01	3.1543	-0.724825	0.000299	2.991528	0.506779	-0.005987
1686	8.4250e-01	3.1435	-0.762883	0.000380	3.803514	0.644333	-0.007612
1687	8.4300e-01	3.1366	-0.804791	0.000419	4.188140	0.709490	-0.008381
1688	8.4350e-01	3.1262	-0.842849	0.000380	3.803514	0.644333	-0.007612
1689	8.4400e-01	3.1158	-0.862093	0.000192	1.923125	0.325786	-0.003849
1690	8.4450e-01	3.1043	-0.878342	0.000162	1.623972	0.275108	-0.003250
1691	8.4500e-01	3.0948	-0.949328	0.000709	7.094195	1.201789	-0.014197
1692	8.4550e-01	3.0859	-0.972847	0.000235	2.350486	0.398183	-0.004704
1693	8.4600e-01	3.0777	-0.982255	0.000094	0.940195	0.159273	-0.001882
1694	8.4650e-01	3.0652	-1.043406	0.000611	6.111265	1.035276	-0.012230
1695	8.4700e-01	3.0603	-1.059228	0.000158	1.581236	0.267869	-0.003164
1696	8.4750e-01	3.0463	-1.091300	0.000321	3.205209	0.542977	-0.006414
1697	8.4800e-01	3.0359	-1.114819	0.000235	2.350486	0.398183	-0.004704
1698	8.4850e-01	3.0246	-1.158437	0.000436	4.359084	0.738449	-0.008724
1699	8.4900e-01	3.0157	-1.182812	0.000244	2.435959	0.412663	-0.004875
1700	8.4950e-01	3.0083	-1.225146	0.000423	4.230876	0.716730	-0.008467
1701	8.5000e-01	2.9951	-1.243107	0.000179	1.794917	0.304067	-0.003592
1702	8.5050e-01	2.9840	-1.251659	0.000085	0.854722	0.144794	-0.001711
1703	8.5100e-01	2.9756	-1.309816	0.000581	5.812112	0.984598	-0.011631
1704	8.5150e-01	2.9663	-1.357283	0.000474	4.743709	0.803606	-0.009493
1705	8.5200e-01	2.9560	-1.377381	0.000201	2.008598	0.340266	-0.004020
1706	8.5250e-01	2.9465	-1.425275	0.000479	4.786445	0.810846	-0.009579
1707	8.5300e-01	2.9330	-1.441525	0.000162	1.623972	0.275108	-0.003250
1708	8.5350e-01	2.9258	-1.480011	0.000385	3.846251	0.651572	-0.007697
1709	8.5400e-01	2.9179	-1.506096	0.000261	2.606903	0.441621	-0.005217
1710	8.5450e-01	2.9086	-1.553563	0.000474	4.743709	0.803606	-0.009493
1711	8.5500e-01	2.8964	-1.577082	0.000235	2.350486	0.398183	-0.004704
1712	8.5550e-01	2.8851	-1.595042	0.000179	1.794917	0.304067	-0.003592
1713	8.5600e-01	2.8747	-1.635667	0.000406	4.059931	0.687771	-0.008125
1714	8.5650e-01	2.8621	-1.665173	0.000295	2.948792	0.499539	-0.005901
1715	8.5700e-01	2.8532	-1.701521	0.000363	3.632570	0.615374	-0.007270
1716	8.5750e-01	2.8455	-1.744711	0.000432	4.316348	0.731209	-0.008638
1717	8.5800e-01	2.8333	-1.747704	0.000030	0.299153	0.050678	-0.000599
1718	8.5850e-01	2.8271	-1.813986	0.000662	6.624098	1.122153	-0.013256
1719	8.5900e-01	2.8160	-1.833657	0.000197	1.965861	0.333026	-0.003934
1720	8.5950e-01	2.8067	-1.868295	0.000346	3.461626	0.586415	-0.006928
1721	8.6000e-01	2.7966	-1.902932	0.000346	3.461626	0.586415	-0.006928
1722	8.6050e-01	2.7881	-1.940991	0.000380	3.803514	0.644333	-0.007612
1723	8.6100e-01	2.7777	-1.974346	0.000333	3.333417	0.564696	-0.006671
1724	8.6150e-01	2.7655	-1.993161	0.000188	1.880389	0.318547	-0.003763
1725	8.6200e-01	2.7573	-2.051746	0.000585	5.854848	0.991838	-0.011717
1726	8.6250e-01	2.7436	-2.071417	0.000197	1.965861	0.333026	-0.003934
1727	8.6300e-01	2.7386	-2.105627	0.000342	3.418889	0.579176	-0.006842
1728	8.6350e-01	2.7244	-2.143258	0.000376	3.760778	0.637093	-0.007526
1729	8.6400e-01	2.7150	-2.155659	0.000124	1.239347	0.209951	-0.002480
1730	8.6450e-01	2.7064	-2.204836	0.000491	4.914653	0.832565	-0.009835
1731	8.6500e-01	2.6951	-2.249737	0.000449	4.487292	0.760168	-0.008980
1732	8.6550e-01	2.6858	-2.261710	0.000120	1.196611	0.202711	-0.002395
1733	8.6600e-01	2.6733	-2.307894	0.000462	4.615501	0.781887	-0.009237
1734	8.6650e-01	2.6645	-2.339538	0.000316	3.162473	0.535737	-0.006329
1735	8.6700e-01	2.6556	-2.365195	0.000256	2.564167	0.434382	-0.005132
1736	8.6750e-01	2.6440	-2.401544	0.000363	3.632570	0.615374	-0.007270
1737	8.6800e-01	2.6337	-2.449865	0.000483	4.829181	0.818085	-0.009664
1738	8.6850e-01	2.6258	-2.478088	0.000282	2.820584	0.477820	-0.005645
1739	8.6900e-01	2.6164	-2.496476	0.000184	1.837653	0.311307	-0.003678
1740	8.6950e-01	2.6078	-2.543515	0.000470	4.700973	0.796366	-0.009408
1741	8.7000e-01	2.5987	-2.569600	0.000261	2.606903	0.441621	-0.005217
1742	8.7050e-01	2.5858	-2.608087	0.000385	3.846251	0.651572	-0.007697
1743	8.7100e-01	2.5763	-2.641014	0.000329	3.290681	0.557456	-0.006585
1744	8.7150e-01	2.5636	-2.679500	0.000385	3.846251	0.651572	-0.007697
1745	8.7200e-01	2.5560	-2.717131	0.000376	3.760778	0.637093	-0.007526
1746	8.7250e-01	2.5452	-2.744071	0.000269	2.692375	0.456101	-0.005388
1747	8.7300e-01	2.5351	-2.763742	0.000197	1.965861	0.333026	-0.003934
1748	8.7350e-01	2.5240	-2.800518	0.000368	3.675306	0.622614	-0.007355
1749	8.7400e-01	2.5131	-2.827031	0.000265	2.649639	0.448861	-0.005303
1750	8.7450e-01	2.5092	-2.874497	0.000474	4.743709	0.803606	-0.009493
1751	8.7500e-01	2.4951	-2.918970	0.000444	4.444556	0.752928	-0.008895
1752	8.7550e-01	2.4881	-2.955318	0.000363	3.632570	0.615374	-0.007270
1753	8.7600e-01	2.4777	-2.983542	0.000282	2.820584	0.477820	-0.005645
1754	8.7650e-01	2.4670	-3.024166	0.000406	4.059931	0.687771	-0.008125
1755	8.7700e-01	2.4549	-3.036995	0.000128	1.282084	0.217191	-0.002566
1756	8.7750e-01	2.4457	-3.081895	0.000449	4.487292	0.760168	-0.008980
1757	8.7800e-01	2.4379	-3.109691	0.000278	2.777848	0.470580	-0.005559
1758	8.7850e-01	2.4252	-3.151171	0.000415	4.145403	0.702250	-0.008296
1759	8.7900e-01	2.4152	-3.185808	0.000346	3.461626	0.586415	-0.006928
1760	8.7950e-01	2.4031	-3.221729	0.000359	3.589834	0.608134	-0.007184
1761	8.8000e-01	2.3950	-3.237979	0.000162	1.623972	0.275108	-0.003250
1762	8.8050e-01	2.3853	-3.276892	0.000389	3.888987	0.658812	-0.007783
1763	8.8100e-01	2.3740	-3.318372	0.000415	4.145403	0.702250	-0.008296
1764	8.8150e-01	2.3697	-3.339753	0.000214	2.136806	0.361985	-0.004276
1765	8.8200e-01	2.3560	-3.383371	0.000436	4.359084	0.738449	-0.008724
1766	8.8250e-01	2.3456	-3.432548	0.000491	4.914653	0.832565	-0.009835
1767	8.8300e-01	2.3341	-3.450936	0.000184	1.837653	0.311307	-0.003678
1768	8.8350e-01	2.3283	-3.490705	0.000397	3.974459	0.673292	-0.007954
1769	8.8400e-01	2.3172	-3.527909	0.000372	3.718042	0.629853	-0.007441
1770	8.8450e-01	2.3050	-3.545014	0.000171	1.709445	0.289588	-0.003421
1771	8.8500e-01	2.2977	-3.586493	0.000415	4.145403	0.702250	-0.008296
1772	8.8550e-01	2.2864	-3.642084	0.000556	5.555695	0.941160	-0.011118
1773	8.8600e-01	2.2752	-3.654058	0.000120	1.196611	0.202711	-0.002395
1774	8.8650e-01	2.2672	-3.702380	0.000483	4.829181	0.818085	-0.009664
1775	8.8700e-01	2.2568	-3.747708	0.000453	4.530028	0.767408	-0.009066
1776	8.8750e-01	2.2458	-3.768662	0.000209	2.094070	0.354745	-0.004191
1777	8.8800e-01	2.2366	-3.803299	0.000346	3.461626	0.586415	-0.006928
1778	8.8850e-01	2.2273	-3.834943	0.000316	3.162473	0.535737	-0.006329
1779	8.8900e-01	2.2173	-3.875140	0.000402	4.017195	0.680531	-0.008039
1780	8.8950e-01	2.2066	-3.908495	0.000333	3.333417	0.564696	-0.006671
1781	8.9000e-01	2.1940	-3.932442	0.000239	2.393223	0.405423	-0.004789
1782	8.9050e-01	2.1863	-3.976487	0.000440	4.401820	0.745689	-0.008809
1783	8.9100e-01	2.1753	-4.016257	0.000397	3.974459	0.673292	-0.007954
1784	8.9150e-01	2.1634	-4.041486	0.000252	2.521431	0.427142	-0.005046
1785	8.9200e-01	2.1574	-4.087670	0.000462	4.615501	0.781887	-0.009237
1786	8.9250e-01	2.1469	-4.107341	0.000197	1.965861	0.333026	-0.003934
1787	8.9300e-01	2.1363	-4.128294	0.000209	2.094070	0.354745	-0.004191
1788	8.9350e-01	2.1259	-4.191155	0.000628	6.282209	1.064235	-0.012572
1789	8.9400e-01	2.1138	-4.221944	0.000308	3.077000	0.521258	-0.006158
1790	8.9450e-01	2.1060	-4.249312	0.000274	2.735112	0.463340	-0.005474
1791	8.9500e-01	2.0963	-4.308325	0.000590	5.897584	0.999078	-0.011802
1792	8.9550e-01	2.0862	-4.323292	0.000150	1.495764	0.253389	-0.002993
1793	8.9600e-01	2.0749	-4.354508	0.000312	3.119737	0.528498	-0.006243
1794	8.9650e-01	2.0667	-4.382731	0.000282	2.820584	0.477820	-0.005645
1795	8.9700e-01	2.0571	-4.418224	0.000355	3.547098	0.600895	-0.007099
1796	8.9750e-01	2.0454	-4.480658	0.000624	6.239473	1.056995	-0.012487
1797	8.9800e-01	2.0349	-4.506315	0.000256	2.564167	0.434382	-0.005132
1798	8.9850e-01	2.0277	-4.537104	0.000308	3.077000	0.521258	-0.006158
1799	8.9900e-01	2.0160	-4.556775	0.000197	1.965861	0.333026	-0.003934
1800	8.9950e-01	2.0076	-4.597399	0.000406	4.059931	0.687771	-0.008125
1801	9.0000e-01	1.9952	-4.642300	0.000449	4.487292	0.760168	-0.008980
1802	9.0050e-01	1.9867	-4.672234	0.000299	2.991528	0.506779	-0.005987
1803	9.0100e-01	1.9756	-4.710292	0.000380	3.803514	0.644333	-0.007612
1804	9.0150e-01	1.9676	-4.740654	0.000303	3.034264	0.514018	-0.006072
1805	9.0200e-01	1.9553	-4.774436	0.000338	3.376153	0.571936	-0.006756
1806	9.0250e-01	1.9466	-4.824041	0.000496	4.957390	0.839805	-0.009921
1807	9.0300e-01	1.9356	-4.854830	0.000308	3.077000	0.521258	-0.006158
1808	9.0350e-01	1.9267	-4.891606	0.000368	3.675306	0.622614	-0.007355
1809	9.0400e-01	1.9174	-4.919829	0.000282	2.820584	0.477820	-0.005645
1810	9.0450e-01	1.9037	-4.958315	0.000385	3.846251	0.651572	-0.007697
1811	9.0500e-01	1.9006	-4.997657	0.000393	3.931723	0.666052	-0.007868
1812	9.0550e-01	1.8863	-5.025025	0.000274	2.735112	0.463340	-0.005474
1813	9.0600e-01	1.8747	-5.078050	0.000530	5.299279	0.897722	-0.010605
1814	9.0650e-01	1.8643	-5.107129	0.000291	2.906056	0.492299	-0.005816
1815	9.0700e-01	1.8546	-5.135780	0.000286	2.863320	0.485060	-0.005730
1816	9.0750e-01	1.8477	-5.168707	0.000329	3.290681	0.557456	-0.006585
1817	9.0800e-01	1.8359	-5.210186	0.000415	4.145403	0.702250	-0.008296
1818	9.0850e-01	1.8280	-5.247817	0.000376	3.760778	0.637093	-0.007526
1819	9.0900e-01	1.8137	-5.275185	0.000274	2.735112	0.463340	-0.005474
1820	9.0950e-01	1.8085	-5.332060	0.000568	5.683904	0.962879	-0.011375
1821	9.1000e-01	1.7939	-5.341895	0.000098	0.982931	0.166513	-0.001967
1822	9.1050e-01	1.7850	-5.383802	0.000419	4.188140	0.709490	-0.008381
1823	9.1100e-01	1.7760	-5.427420	0.000436	4.359084	0.738449	-0.008724
1824	9.1150e-01	1.7651	-5.460775	0.000333	3.333417	0.564696	-0.006671
1825	9.1200e-01	1.7567	-5.509096	0.000483	4.829181	0.818085	-0.009664
1826	9.1250e-01	1.7468	-5.525774	0.000167	1.666709	0.282348	-0.003335
1827	9.1300e-01	1.7375	-5.589918	0.000641	6.410418	1.085954	-0.012829
1828	9.1350e-01	1.7262	-5.610871	0.000209	2.094070	0.354745	-0.004191
1829	9.1400e-01	1.7168	-5.654489	0.000436	4.359084	0.738449	-0.008724
1830	9.1450e-01	1.7067	-5.681857	0.000274	2.735112	0.463340	-0.005474
1831	9.1500e-01	1.6935	-5.706659	0.000248	2.478695	0.419902	-0.004960
1832	9.1550e-01	1.6837	-5.761823	0.000551	5.512959	0.933921	-0.011033
1833	9.1600e-01	1.6745	-5.796888	0.000350	3.504362	0.593655	-0.007013
1834	9.1650e-01	1.6645	-5.818697	0.000218	2.179542	0.369224	-0.004362
1835	9.1700e-01	1.6544	-5.855473	0.000368	3.675306	0.622614	-0.007355
1836	9.1750e-01	1.6475	-5.894387	0.000389	3.888987	0.658812	-0.007783
1837	9.1800e-01	1.6368	-5.937149	0.000427	4.273612	0.723969	-0.008553
1838	9.1850e-01	1.6257	-5.982478	0.000453	4.530028	0.767408	-0.009066
1839	9.1900e-01	1.6155	-6.002148	0.000197	1.965861	0.333026	-0.003934
1840	9.1950e-01	1.6058	-6.033793	0.000316	3.162473	0.535737	-0.006329
1841	9.2000e-01	1.5967	-6.094515	0.000607	6.068529	1.028037	-0.012145
1842	9.2050e-01	1.5824	-6.102640	0.000081	0.811986	0.137554	-0.001625
1843	9.2100e-01	1.5718	-6.144120	0.000415	4.145403	0.702250	-0.008296
1844	9.2150e-01	1.5630	-6.194152	0.000500	5.000126	0.847044	-0.010006
1845	9.2200e-01	1.5528	-6.212112	0.000179	1.794917	0.304067	-0.003592
1846	9.2250e-01	1.5437	-6.257441	0.000453	4.530028	0.767408	-0.009066
1847	9.2300e-01	1.5347	-6.309611	0.000521	5.213806	0.883243	-0.010434
1848	9.2350e-01	1.5268	-6.346814	0.000372	3.718042	0.629853	-0.007441
1849	9.2400e-01	1.5160	-6.395991	0.000491	4.914653	0.832565	-0.009835
1850	9.2450e-01	1.5045	-6.414807	0.000188	1.880389	0.318547	-0.003763
1851	9.2500e-01	1.4946	-6.443458	0.000286	2.863320	0.485060	-0.005730
1852	9.2550e-01	1.4847	-6.470398	0.000269	2.692375	0.456101	-0.005388
1853	9.2600e-01	1.4746	-6.525134	0.000547	5.470223	0.926681	-0.010947
1854	9.2650e-01	1.4654	-6.560199	0.000350	3.504362	0.593655	-0.007013
1855	9.2700e-01	1.4532	-6.573883	0.000137	1.367556	0.231670	-0.002737
1856	9.2750e-01	1.4456	-6.633751	0.000598	5.983056	1.013557	-0.011974
1857	9.2800e-01	1.4364	-6.680362	0.000466	4.658237	0.789127	-0.009322
1858	9.2850e-01	1.4261	-6.702599	0.000222	2.222278	0.376464	-0.004447
1859	9.2900e-01	1.4165	-6.738947	0.000363	3.632570	0.615374	-0.007270
1860	9.2950e-01	1.4027	-6.788979	0.000500	5.000126	0.847044	-0.010006
1861	9.3000e-01	1.3937	-6.821051	0.000321	3.205209	0.542977	-0.006414
1862	9.3050e-01	1.3879	-6.855688	0.000346	3.461626	0.586415	-0.006928
1863	9.3100e-01	1.3765	-6.915556	0.000598	5.983056	1.013557	-0.011974
1864	9.3150e-01	1.3651	-6.950621	0.000350	3.504362	0.593655	-0.007013
1865	9.3200e-01	1.3536	-6.974996	0.000244	2.435959	0.412663	-0.004875
1866	9.3250e-01	1.3449	-6.995522	0.000205	2.051334	0.347505	-0.004105
1867	9.3300e-01	1.3366	-7.061804	0.000662	6.624098	1.122153	-0.013256
1868	9.3350e-01	1.3249	-7.075488	0.000137	1.367556	0.231670	-0.002737
1869	9.3400e-01	1.3148	-7.119533	0.000440	4.401820	0.745689	-0.008809
1870	9.3450e-01	1.3066	-7.161440	0.000419	4.188140	0.709490	-0.008381
1871	9.3500e-01	1.2948	-7.193512	0.000321	3.205209	0.542977	-0.006414
1872	9.3550e-01	1.2854	-7.248676	0.000551	5.512959	0.933921	-0.011033
1873	9.3600e-01	1.2735	-7.277327	0.000286	2.863320	0.485060	-0.005730
1874	9.3650e-01	1.2630	-7.311109	0.000338	3.376153	0.571936	-0.006756
1875	9.3700e-01	1.2527	-7.354299	0.000432	4.316348	0.731209	-0.008638
1876	9.3750e-01	1.2459	-7.392358	0.000380	3.803514	0.644333	-0.007612
1877	9.3800e-01	1.2346	-7.423147	0.000308	3.077000	0.521258	-0.006158
1878	9.3850e-01	1.2273	-7.467620	0.000444	4.444556	0.752928	-0.008895
1879	9.3900e-01	1.2158	-7.516369	0.000487	4.871917	0.825325	-0.009750
1880	9.3950e-01	1.2077	-7.542027	0.000256	2.564167	0.434382	-0.005132
1881	9.4000e-01	1.1977	-7.583507	0.000415	4.145403	0.702250	-0.008296
1882	9.4050e-01	1.1861	-7.600184	0.000167	1.666709	0.282348	-0.003335
1883	9.4100e-01	1.1762	-7.644657	0.000444	4.444556	0.752928	-0.008895
1884	9.4150e-01	1.1670	-7.699821	0.000551	5.512959	0.933921	-0.011033
1885	9.4200e-01	1.1560	-7.727189	0.000274	2.735112	0.463340	-0.005474
1886	9.4250e-01	1.1450	-7.779359	0.000521	5.213806	0.883243	-0.010434
1887	9.4300e-01	1.1357	-7.802878	0.000235	2.350486	0.398183	-0.004704
1888	9.4350e-01	1.1284	-7.844358	0.000415	4.145403	0.702250	-0.008296
1889	9.4400e-01	1.1168	-7.878568	0.000342	3.418889	0.579176	-0.006842
1890	9.4450e-01	1.1047	-7.913633	0.000350	3.504362	0.593655	-0.007013
1891	9.4500e-01	1.0968	-7.988040	0.000744	7.436084	1.259707	-0.014881
1892	9.4550e-01	1.0860	-8.007283	0.000192	1.923125	0.325786	-0.003849
1893	9.4600e-01	1.0736	-8.035934	0.000286	2.863320	0.485060	-0.005730
1894	9.4650e-01	1.0645	-8.076131	0.000402	4.017195	0.680531	-0.008039
1895	9.4700e-01	1.0590	-8.113334	0.000372	3.718042	0.629853	-0.007441
1896	9.4750e-01	1.0445	-8.175340	0.000620	6.196737	1.049756	-0.012401
1897	9.4800e-01	1.0357	-8.187741	0.000124	1.239347	0.209951	-0.002480
1898	9.4850e-01	1.0265	-8.244188	0.000564	5.641167	0.955640	-0.011289
1899	9.4900e-01	1.0150	-8.268562	0.000244	2.435959	0.412663	-0.004875
1900	9.4950e-01	1.0046	-8.321160	0.000526	5.256542	0.890482	-0.010520
1901	9.5000e-01	0.9959	-8.353660	0.000325	3.247945	0.550217	-0.006500
1902	9.5050e-01	0.9876	-8.394712	0.000410	4.102667	0.695011	-0.008210
1903	9.5100e-01	0.9760	-8.435764	0.000410	4.102667	0.695011	-0.008210
1904	9.5150e-01	0.9657	-8.468691	0.000329	3.290681	0.557456	-0.006585
1905	9.5200e-01	0.9557	-8.494348	0.000256	2.564167	0.434382	-0.005132
1906	9.5250e-01	0.9459	-8.546091	0.000517	5.171070	0.876003	-0.010349
1907	9.5300e-01	0.9349	-8.579018	0.000329	3.290681	0.557456	-0.006585
1908	9.5350e-01	0.9254	-8.628623	0.000496	4.957390	0.839805	-0.009921
1909	9.5400e-01	0.9164	-8.652997	0.000244	2.435959	0.412663	-0.004875
1910	9.5450e-01	0.9045	-8.706023	0.000530	5.299279	0.897722	-0.010605
1911	9.5500e-01	0.8958	-8.732963	0.000269	2.692375	0.456101	-0.005388
1912	9.5550e-01	0.8819	-8.786417	0.000534	5.342015	0.904962	-0.010691
1913	9.5600e-01	0.8782	-8.801383	0.000150	1.495764	0.253389	-0.002993
1914	9.5650e-01	0.8680	-8.847995	0.000466	4.658237	0.789127	-0.009322
1915	9.5700e-01	0.8575	-8.907007	0.000590	5.897584	0.999078	-0.011802
1916	9.5750e-01	0.8457	-8.947204	0.000402	4.017195	0.680531	-0.008039
1917	9.5800e-01	0.8348	-8.974999	0.000278	2.777848	0.470580	-0.005559
1918	9.5850e-01	0.8268	-9.032729	0.000577	5.769376	0.977359	-0.011546
1919	9.5900e-01	0.8162	-9.065656	0.000329	3.290681	0.557456	-0.006585
1920	9.5950e-01	0.8081	-9.111839	0.000462	4.615501	0.781887	-0.009237
1921	9.6000e-01	0.7968	-9.136642	0.000248	2.478695	0.419902	-0.004960
1922	9.6050e-01	0.7880	-9.193943	0.000573	5.726640	0.970119	-0.011460
1923	9.6100e-01	0.7755	-9.217890	0.000239	2.393223	0.405423	-0.004789
1924	9.6150e-01	0.7657	-9.256377	0.000385	3.846251	0.651572	-0.007697
1925	9.6200e-01	0.7551	-9.270916	0.000145	1.453028	0.246150	-0.002908
1926	9.6250e-01	0.7461	-9.340191	0.000692	6.923251	1.172830	-0.013855
1927	9.6300e-01	0.7370	-9.367987	0.000278	2.777848	0.470580	-0.005559
1928	9.6350e-01	0.7262	-9.424433	0.000564	5.641167	0.955640	-0.011289
1929	9.6400e-01	0.7160	-9.441966	0.000175	1.752181	0.296827	-0.003507
1930	9.6450e-01	0.7075	-9.489432	0.000474	4.743709	0.803606	-0.009493
1931	9.6500e-01	0.6969	-9.557425	0.000680	6.795043	1.151111	-0.013598
1932	9.6550e-01	0.6832	-9.563412	0.000060	0.598306	0.101356	-0.001197
1933	9.6600e-01	0.6763	-9.646799	0.000833	8.333543	1.411740	-0.016677
1934	9.6650e-01	0.6651	-9.667325	0.000205	2.051334	0.347505	-0.004105
1935	9.6700e-01	0.6515	-9.696403	0.000291	2.906056	0.492299	-0.005816
1936	9.6750e-01	0.6468	-9.746008	0.000496	4.957390	0.839805	-0.009921
1937	9.6800e-01	0.6354	-9.791764	0.000457	4.572765	0.774647	-0.009151
1938	9.6850e-01	0.6242	-9.813572	0.000218	2.179542	0.369224	-0.004362
1939	9.6900e-01	0.6133	-9.862749	0.000491	4.914653	0.832565	-0.009835
1940	9.6950e-01	0.6071	-9.901236	0.000385	3.846251	0.651572	-0.007697
1941	9.7000e-01	0.5954	-9.946136	0.000449	4.487292	0.760168	-0.008980
1942	9.7050e-01	0.5849	-9.998734	0.000526	5.256542	0.890482	-0.010520
1943	9.7100e-01	0.5750	-10.031661	0.000329	3.290681	0.557456	-0.006585
1944	9.7150e-01	0.5650	-10.079555	0.000479	4.786445	0.810846	-0.009579
1945	9.7200e-01	0.5555	-10.118469	0.000389	3.888987	0.658812	-0.007783
1946	9.7250e-01	0.5444	-10.155245	0.000368	3.675306	0.622614	-0.007355
1947	9.7300e-01	0.5349	-10.200573	0.000453	4.530028	0.767408	-0.009066
1948	9.7350e-01	0.5280	-10.251033	0.000504	5.042862	0.854284	-0.010092
1949	9.7400e-01	0.5165	-10.283533	0.000325	3.247945	0.550217	-0.006500
1950	9.7450e-01	0.5062	-10.327578	0.000440	4.401820	0.745689	-0.008809
1951	9.7500e-01	0.4959	-10.347676	0.000201	2.008598	0.340266	-0.004020
1952	9.7550e-01	0.4857	-10.401557	0.000538	5.384751	0.912201	-0.010776
1953	9.7600e-01	0.4736	-10.438761	0.000372	3.718042	0.629853	-0.007441
1954	9.7650e-01	0.4654	-10.480668	0.000419	4.188140	0.709490	-0.008381
1955	9.7700e-01	0.4536	-10.507608	0.000269	2.692375	0.456101	-0.005388
1956	9.7750e-01	0.4465	-10.581587	0.000739	7.393348	1.252467	-0.014796
1957	9.7800e-01	0.4348	-10.610238	0.000286	2.863320	0.485060	-0.005730
1958	9.7850e-01	0.4288	-10.641027	0.000308	3.077000	0.521258	-0.006158
1959	9.7900e-01	0.4170	-10.673099	0.000321	3.205209	0.542977	-0.006414
1960	9.7950e-01	0.4049	-10.726125	0.000530	5.299279	0.897722	-0.010605
1961	9.8000e-01	0.3948	-10.755203	0.000291	2.906056	0.492299	-0.005816
1962	9.8050e-01	0.3848	-10.806518	0.000513	5.128334	0.868763	-0.010263
1963	9.8100e-01	0.3735	-10.877932	0.000714	7.136932	1.209029	-0.014283
1964	9.8150e-01	0.3638	-10.883918	0.000060	0.598306	0.101356	-0.001197
1965	9.8200e-01	0.3532	-10.948062	0.000641	6.410418	1.085954	-0.012829
1966	9.8250e-01	0.3463	-10.990397	0.000423	4.230876	0.716730	-0.008467
1967	9.8300e-01	0.3342	-11.036581	0.000462	4.615501	0.781887	-0.009237
1968	9.8350e-01	0.3243	-11.059672	0.000231	2.307750	0.390943	-0.004618
1969	9.8400e-01	0.3147	-11.107567	0.000479	4.786445	0.810846	-0.009579
1970	9.8450e-01	0.3072	-11.143487	0.000359	3.589834	0.608134	-0.007184
1971	9.8500e-01	0.2966	-11.200789	0.000573	5.726640	0.970119	-0.011460
1972	9.8550e-01	0.2846	-11.220032	0.000192	1.923125	0.325786	-0.003849
1973	9.8600e-01	0.2740	-11.291445	0.000714	7.136932	1.209029	-0.014283
1974	9.8650e-01	0.2664	-11.328649	0.000372	3.718042	0.629853	-0.007441
1975	9.8700e-01	0.2542	-11.353451	0.000248	2.478695	0.419902	-0.004960
1976	9.8750e-01	0.2448	-11.399207	0.000457	4.572765	0.774647	-0.009151
1977	9.8800e-01	0.2352	-11.453088	0.000538	5.384751	0.912201	-0.010776
1978	9.8850e-01	0.2258	-11.485587	0.000325	3.247945	0.550217	-0.006500
1979	9.8900e-01	0.2161	-11.530060	0.000444	4.444556	0.752928	-0.008895
1980	9.8950e-01	0.2052	-11.571540	0.000415	4.145403	0.702250	-0.008296
1981	9.9000e-01	0.1989	-11.626704	0.000551	5.512959	0.933921	-0.011033
1982	9.9050e-01	0.1852	-11.668611	0.000419	4.188140	0.709490	-0.008381
1983	9.9100e-01	0.1760	-11.709235	0.000406	4.059931	0.687771	-0.008125
1984	9.9150e-01	0.1660	-11.756274	0.000470	4.700973	0.796366	-0.009408
1985	9.9200e-01	0.1569	-11.807161	0.000509	5.085598	0.861524	-0.010177
1986	9.9250e-01	0.1447	-11.852490	0.000453	4.530028	0.767408	-0.009066
1987	9.9300e-01	0.1360	-11.900384	0.000479	4.786445	0.810846	-0.009579
1988	9.9350e-01	0.1273	-11.926469	0.000261	2.606903	0.441621	-0.005217
1989	9.9400e-01	0.1187	-11.980350	0.000538	5.384751	0.912201	-0.010776
1990	9.9450e-01	0.1028	-12.022685	0.000423	4.230876	0.716730	-0.008467
1991	9.9500e-01	0.0965	-12.072717	0.000500	5.000126	0.847044	-0.010006
1992	9.9550e-01	0.0857	-12.081269	0.000085	0.854722	0.144794	-0.001711
1993	9.9600e-01	0.0752	-12.155248	0.000739	7.393348	1.252467	-0.014796
1994	9.9650e-01	0.0658	-12.224524	0.000692	6.923251	1.172830	-0.013855
1995	9.9700e-01	0.0548	-12.230938	0.000064	0.641042	0.108595	-0.001283
1996	9.9750e-01	0.0449	-12.286957	0.000560	5.598431	0.948400	-0.011204
1997	9.9800e-01	0.0342	-12.317746	0.000308	3.077000	0.521258	-0.006158
1998	9.9850e-01	0.0268	-12.364785	0.000470	4.700973	0.796366	-0.009408
1999	9.9900e-01	0.0149	-12.417383	0.000526	5.256542	0.890482	-0.010520
2000	9.9950e-01	0.0034	-12.467843	0.000504	5.042862	0.854284	-0.010092
2001	1.0000e+00	-0.0066	-12.492217	0.000504	5.042862	0.854284	-0.004875

PMax (uC/cm2):	3.18e+01
Pr (uC/cm2):	3.42e+00
-Pr (uC/cm2):	0.00e+00
PLoss (uC/cm2):	0.00e+00
C (Max-Eff) (nF):	3.18e-01
K (Eff):	5.39e+02
Vert. (+/-Pr) Shift (uC/cm2):	1.71e+00
Offset (uC/cm2):	1.59e+01

A (Loop Area - uC/cm2·Volts):	-3.31e-02



Hysteresis Version: 5.48.1 - Radiant Technologies, Inc., 1999 - 9/12/24

