»»»»»»»»»»»»»»»»»»»»»»»»»»»»»»»»»»»» Hysteresis ««««««««««««««««««««««««««««««««««««
»»»  Executed Version:	5.48.1
»»»  Vision Version:	5.48.4 (R)
»»»  Vision Compiled:	9/18/24
»»»  Driver Version:	5.47.0
»»»  Windows Version:	Windows 8 or 8.1
»»»  Processor Information:	x86 (AMD or Intel) - 32 Processors
»»»  Tester Name:	PMF21124-494 (100V)
»»»  Tester S/N:	PMF21124-494
»»»  Internal Amp Type:	100V RevK 270k
»»»  Internal Amp S/N:	iAB2-596/K     
»»»  Execution Count:	1
»»»»»»»»»»»»»»»»»»»»»»»»»»»»»»»»»»»»»»»»»»««««««««««««««««««««««««««««««««««««««««««

Stored:	6/27/2025 - 12:28:53
Configured:	06/27/25 11:23:28 AM
Executed:	06/27/25 12:28:28 PM

»»»»»»»»»»»»»»»»»»»»»»»»»»»»»»»»»»» Sample Info ««««««««««««««««««««««««««««««««««««
Sample Name:	
Lot Name:	
Wafer Name:	
Die Row/Column:	0/0
Capacitor Number:	0
Sample Area (cm2):	1.00e-04
Sample Thickness (microns):	1.50e-01

Amplifier:	Internal

»»»»»»»»»»»»»»»»»»»»»»»»»»»»»»»»»»» Tester Info «««««««««««««««««««««««««««««««««««
Tester Name:	PMF21124-494 (100V)
Tester Serial Number:	PMF21124-494
Return Signal Amp. Level:	1.79 [Index: 2]

»»»»»»»»»»»»»»»»»»»»»»»»»»»»»»»» Hysteresis Info ««««««««««««««««««««««««««««««««««
Task Name:	Hyst-1276
Volts:	10.00
Field:	666.67 (kV/cm)
DCBias:	0.00
DCField:	0.00 (kV/cm)
Hysteresis Period (ms):	1.00e+00
Preset:	Enabled
Preset Delay (ms):	1.00e+03
Profile:	Standard Monopolar

»»»»»»»»»»»»»»»»»»»»»»»»»»»»»»»»»»»»»» Data «««««««««««««««««««««««««««««««««««««««
Points:	2001

Valid Data

Point	Time (ms)	Drive Voltage	Measured Polarization (uC/cm2)	Capacitance (uF)	Normalized Capacitance (uF/cm2)	Dielectric Constant	Instantaneous Current (mA)
   1	0.0000e+00	-0.0058	-13.961965	0.000333	3.334841	0.564937	0.006671
   2	5.0000e-04	0.0039	-13.928610	0.000333	3.334841	0.564937	0.006671
   3	1.0000e-03	0.0137	-13.877723	0.000509	5.087770	0.861892	0.010177
   4	1.5000e-03	0.0278	-13.829401	0.000483	4.831244	0.818435	0.009664
   5	2.0000e-03	0.0363	-13.796902	0.000325	3.249332	0.550452	0.006500
   6	2.5000e-03	0.0484	-13.759698	0.000372	3.719630	0.630122	0.007441
   7	3.0000e-03	0.0574	-13.709239	0.000505	5.045016	0.854649	0.010092
   8	3.5000e-03	0.0678	-13.700686	0.000086	0.855087	0.144856	0.001711
   9	4.0000e-03	0.0787	-13.650226	0.000505	5.045016	0.854649	0.010092
  10	4.5000e-03	0.0859	-13.629273	0.000209	2.094964	0.354897	0.004191
  11	5.0000e-03	0.0967	-13.576247	0.000530	5.301542	0.898106	0.010605
  12	5.5000e-03	0.1038	-13.541182	0.000351	3.505859	0.593909	0.007013
  13	6.0000e-03	0.1163	-13.494571	0.000466	4.660227	0.789464	0.009322
  14	6.5000e-03	0.1266	-13.475755	0.000188	1.881192	0.318683	0.003763
  15	7.0000e-03	0.1372	-13.433848	0.000419	4.189929	0.709793	0.008381
  16	7.5000e-03	0.1466	-13.409901	0.000239	2.394245	0.405596	0.004789
  17	8.0000e-03	0.1560	-13.354737	0.000552	5.515314	0.934319	0.011033
  18	8.5000e-03	0.1662	-13.308981	0.000457	4.574718	0.774978	0.009151
  19	9.0000e-03	0.1780	-13.269212	0.000398	3.976157	0.673579	0.007954
  20	9.5000e-03	0.1871	-13.254245	0.000150	1.496403	0.253498	0.002993
  21	1.0000e-02	0.1966	-13.200792	0.000534	5.344297	0.905348	0.010691
  22	1.0500e-02	0.2083	-13.179411	0.000214	2.137719	0.362139	0.004276
  23	1.1000e-02	0.2164	-13.148194	0.000312	3.121069	0.528723	0.006243
  24	1.1500e-02	0.2261	-13.106715	0.000415	4.147174	0.702550	0.008296
  25	1.2000e-02	0.2368	-13.065235	0.000415	4.147174	0.702550	0.008296
  26	1.2500e-02	0.2448	-13.026749	0.000385	3.847894	0.651851	0.007697
  27	1.3000e-02	0.2537	-12.983986	0.000428	4.275437	0.724279	0.008553
  28	1.3500e-02	0.2689	-12.949349	0.000346	3.463104	0.586666	0.006928
  29	1.4000e-02	0.2776	-12.911718	0.000376	3.762385	0.637365	0.007526
  30	1.4500e-02	0.2863	-12.866389	0.000453	4.531964	0.767735	0.009066
  31	1.5000e-02	0.2968	-12.839876	0.000265	2.650771	0.449053	0.005303
  32	1.5500e-02	0.3049	-12.807805	0.000321	3.206578	0.543209	0.006414
  33	1.6000e-02	0.3160	-12.765897	0.000419	4.189929	0.709793	0.008381
  34	1.6500e-02	0.3267	-12.765897	0.000000	0.000000	0.000000	0.000000
  35	1.7000e-02	0.3350	-12.698333	0.000676	6.755191	1.144360	0.013513
  36	1.7500e-02	0.3465	-12.647873	0.000505	5.045016	0.854649	0.010092
  37	1.8000e-02	0.3581	-12.608104	0.000398	3.976157	0.673579	0.007954
  38	1.8500e-02	0.3658	-12.582874	0.000252	2.522508	0.427324	0.005046
  39	1.9000e-02	0.3767	-12.543105	0.000398	3.976157	0.673579	0.007954
  40	1.9500e-02	0.3876	-12.509750	0.000333	3.334841	0.564937	0.006671
  41	2.0000e-02	0.3962	-12.479816	0.000299	2.992806	0.506995	0.005987
  42	2.0500e-02	0.4051	-12.440047	0.000398	3.976157	0.673579	0.007954
  43	2.1000e-02	0.4153	-12.395574	0.000445	4.446455	0.753250	0.008895
  44	2.1500e-02	0.4242	-12.368633	0.000269	2.693525	0.456296	0.005388
  45	2.2000e-02	0.4379	-12.320739	0.000479	4.788490	0.811192	0.009579
  46	2.2500e-02	0.4429	-12.292516	0.000282	2.821789	0.478024	0.005645
  47	2.3000e-02	0.4555	-12.248043	0.000445	4.446455	0.753250	0.008895
  48	2.3500e-02	0.4662	-12.223668	0.000244	2.436999	0.412839	0.004875
  49	2.4000e-02	0.4785	-12.172353	0.000513	5.130525	0.869134	0.010263
  50	2.4500e-02	0.4855	-12.127453	0.000449	4.489209	0.760493	0.008980
  51	2.5000e-02	0.4968	-12.124459	0.000030	0.299281	0.050700	0.000599
  52	2.5500e-02	0.5064	-12.066302	0.000581	5.814595	0.985019	0.011631
  53	2.6000e-02	0.5172	-12.024823	0.000415	4.147174	0.702550	0.008296
  54	2.6500e-02	0.5254	-12.012422	0.000124	1.239877	0.210041	0.002480
  55	2.7000e-02	0.5365	-11.978212	0.000342	3.420350	0.579423	0.006842
  56	2.7500e-02	0.5463	-11.936732	0.000415	4.147174	0.702550	0.008296
  57	2.8000e-02	0.5558	-11.899101	0.000376	3.762385	0.637365	0.007526
  58	2.8500e-02	0.5658	-11.857621	0.000415	4.147174	0.702550	0.008296
  59	2.9000e-02	0.5762	-11.814859	0.000428	4.275437	0.724279	0.008553
  60	2.9500e-02	0.5863	-11.793477	0.000214	2.137719	0.362139	0.004276
  61	3.0000e-02	0.5966	-11.747294	0.000462	4.617472	0.782221	0.009237
  62	3.0500e-02	0.6058	-11.712656	0.000346	3.463104	0.586666	0.006928
  63	3.1000e-02	0.6170	-11.669466	0.000432	4.318192	0.731521	0.008638
  64	3.1500e-02	0.6256	-11.640815	0.000286	2.864543	0.485267	0.005730
  65	3.2000e-02	0.6383	-11.617723	0.000231	2.308736	0.391110	0.004618
  66	3.2500e-02	0.6485	-11.559566	0.000581	5.814595	0.985019	0.011631
  67	3.3000e-02	0.6555	-11.528350	0.000312	3.121069	0.528723	0.006243
  68	3.3500e-02	0.6644	-11.471903	0.000564	5.643577	0.956048	0.011289
  69	3.4000e-02	0.6769	-11.457364	0.000145	1.453649	0.246255	0.002908
  70	3.4500e-02	0.6855	-11.429141	0.000282	2.821789	0.478024	0.005645
  71	3.5000e-02	0.6940	-11.389372	0.000398	3.976157	0.673579	0.007954
  72	3.5500e-02	0.7043	-11.346609	0.000428	4.275437	0.724279	0.008553
  73	3.6000e-02	0.7159	-11.322662	0.000239	2.394245	0.405596	0.004789
  74	3.6500e-02	0.7278	-11.291445	0.000312	3.121069	0.528723	0.006243
  75	3.7000e-02	0.7350	-11.232861	0.000586	5.857349	0.992262	0.011717
  76	3.7500e-02	0.7454	-11.186677	0.000462	4.617472	0.782221	0.009237
  77	3.8000e-02	0.7566	-11.180690	0.000060	0.598561	0.101399	0.001197
  78	3.8500e-02	0.7678	-11.141349	0.000393	3.933402	0.666336	0.007868
  79	3.9000e-02	0.7761	-11.091744	0.000496	4.959507	0.840163	0.009921
  80	3.9500e-02	0.7849	-11.075495	0.000162	1.624666	0.275226	0.003250
  81	4.0000e-02	0.7983	-11.020331	0.000552	5.515314	0.934319	0.011033
  82	4.0500e-02	0.8037	-10.991252	0.000291	2.907297	0.492510	0.005816
  83	4.1000e-02	0.8179	-10.960036	0.000312	3.121069	0.528723	0.006243
  84	4.1500e-02	0.8274	-10.924971	0.000351	3.505859	0.593909	0.007013
  85	4.2000e-02	0.8346	-10.871090	0.000539	5.387051	0.912591	0.010776
  86	4.2500e-02	0.8453	-10.844577	0.000265	2.650771	0.449053	0.005303
  87	4.3000e-02	0.8549	-10.819775	0.000248	2.479754	0.420082	0.004960
  88	4.3500e-02	0.8652	-10.794117	0.000257	2.565262	0.434567	0.005132
  89	4.4000e-02	0.8768	-10.749217	0.000449	4.489209	0.760493	0.008980
  90	4.4500e-02	0.8857	-10.715862	0.000333	3.334841	0.564937	0.006671
  91	4.5000e-02	0.8954	-10.680369	0.000355	3.548613	0.601151	0.007099
  92	4.5500e-02	0.9059	-10.636751	0.000436	4.360946	0.738764	0.008724
  93	4.6000e-02	0.9161	-10.622212	0.000145	1.453649	0.246255	0.002908
  94	4.6500e-02	0.9277	-10.579877	0.000423	4.232683	0.717036	0.008467
  95	4.7000e-02	0.9362	-10.531555	0.000483	4.831244	0.818435	0.009664
  96	4.7500e-02	0.9473	-10.511885	0.000197	1.966701	0.333168	0.003934
  97	4.8000e-02	0.9580	-10.467411	0.000445	4.446455	0.753250	0.008895
  98	4.8500e-02	0.9657	-10.435767	0.000316	3.163824	0.535966	0.006329
  99	4.9000e-02	0.9761	-10.398991	0.000368	3.676876	0.622880	0.007355
 100	4.9500e-02	0.9895	-10.357939	0.000410	4.104420	0.695308	0.008210
 101	5.0000e-02	0.9956	-10.320736	0.000372	3.719630	0.630122	0.007441
 102	5.0500e-02	1.0076	-10.301920	0.000188	1.881192	0.318683	0.003763
 103	5.1000e-02	1.0171	-10.270704	0.000312	3.121069	0.528723	0.006243
 104	5.1500e-02	1.0257	-10.216395	0.000543	5.429805	0.919834	0.010862
 105	5.2000e-02	1.0387	-10.206132	0.000103	1.026105	0.173827	0.002053
 106	5.2500e-02	1.0476	-10.148403	0.000577	5.771840	0.977776	0.011546
 107	5.3000e-02	1.0556	-10.128732	0.000197	1.966701	0.333168	0.003934
 108	5.3500e-02	1.0651	-10.093667	0.000351	3.505859	0.593909	0.007013
 109	5.4000e-02	1.0791	-10.026530	0.000671	6.712437	1.137118	0.013427
 110	5.4500e-02	1.0854	-10.016694	0.000098	0.983351	0.166584	0.001967
 111	5.5000e-02	1.0966	-9.997024	0.000197	1.966701	0.333168	0.003934
 112	5.5500e-02	1.1054	-9.941860	0.000552	5.515314	0.934319	0.011033
 113	5.6000e-02	1.1154	-9.904657	0.000372	3.719630	0.630122	0.007441
 114	5.6500e-02	1.1283	-9.880710	0.000239	2.394245	0.405596	0.004789
 115	5.7000e-02	1.1378	-9.865743	0.000150	1.496403	0.253498	0.002993
 116	5.7500e-02	1.1443	-9.813572	0.000522	5.216033	0.883620	0.010434
 117	5.8000e-02	1.1542	-9.784494	0.000291	2.907297	0.492510	0.005816
 118	5.8500e-02	1.1639	-9.763540	0.000209	2.094964	0.354897	0.004191
 119	5.9000e-02	1.1784	-9.716929	0.000466	4.660227	0.789464	0.009322
 120	5.9500e-02	1.1852	-9.662621	0.000543	5.429805	0.919834	0.010862
 121	6.0000e-02	1.1987	-9.624134	0.000385	3.847894	0.651851	0.007697
 122	6.0500e-02	1.2072	-9.599760	0.000244	2.436999	0.412839	0.004875
 123	6.1000e-02	1.2204	-9.583510	0.000162	1.624666	0.275226	0.003250
 124	6.1500e-02	1.2268	-9.553576	0.000299	2.992806	0.506995	0.005987
 125	6.2000e-02	1.2357	-9.492853	0.000607	6.071121	1.028476	0.012145
 126	6.2500e-02	1.2465	-9.486867	0.000060	0.598561	0.101399	0.001197
 127	6.3000e-02	1.2561	-9.436407	0.000505	5.045016	0.854649	0.010092
 128	6.3500e-02	1.2651	-9.418447	0.000180	1.795684	0.304197	0.003592
 129	6.4000e-02	1.2753	-9.373118	0.000453	4.531964	0.767735	0.009066
 130	6.4500e-02	1.2866	-9.347461	0.000257	2.565262	0.434567	0.005132
 131	6.5000e-02	1.2970	-9.302133	0.000453	4.531964	0.767735	0.009066
 132	6.5500e-02	1.3088	-9.266640	0.000355	3.548613	0.601151	0.007099
 133	6.6000e-02	1.3142	-9.235851	0.000308	3.078315	0.521481	0.006158
 134	6.6500e-02	1.3255	-9.209338	0.000265	2.650771	0.449053	0.005303
 135	6.7000e-02	1.3379	-9.163582	0.000457	4.574718	0.774978	0.009151
 136	6.7500e-02	1.3469	-9.137924	0.000257	2.565262	0.434567	0.005132
 137	6.8000e-02	1.3559	-9.111412	0.000265	2.650771	0.449053	0.005303
 138	6.8500e-02	1.3646	-9.069932	0.000415	4.147174	0.702550	0.008296
 139	6.9000e-02	1.3782	-9.034867	0.000351	3.505859	0.593909	0.007013
 140	6.9500e-02	1.3840	-9.005788	0.000291	2.907297	0.492510	0.005816
 141	7.0000e-02	1.3966	-8.972006	0.000338	3.377595	0.572180	0.006756
 142	7.0500e-02	1.4047	-8.930099	0.000419	4.189929	0.709793	0.008381
 143	7.1000e-02	1.4166	-8.917270	0.000128	1.282631	0.217284	0.002566
 144	7.1500e-02	1.4243	-8.839014	0.000782	7.824050	1.325430	0.015651
 145	7.2000e-02	1.4376	-8.829179	0.000098	0.983351	0.166584	0.001967
 146	7.2500e-02	1.4461	-8.817633	0.000115	1.154368	0.195555	0.002309
 147	7.3000e-02	1.4557	-8.750924	0.000667	6.669682	1.129875	0.013342
 148	7.3500e-02	1.4639	-8.736812	0.000141	1.410894	0.239012	0.002822
 149	7.4000e-02	1.4738	-8.720135	0.000167	1.667421	0.282469	0.003335
 150	7.4500e-02	1.4883	-8.676944	0.000432	4.318192	0.731521	0.008638
 151	7.5000e-02	1.4964	-8.644017	0.000329	3.292087	0.557695	0.006585
 152	7.5500e-02	1.5057	-8.607669	0.000363	3.634122	0.615637	0.007270
 153	7.6000e-02	1.5176	-8.561058	0.000466	4.660227	0.789464	0.009322
 154	7.6500e-02	1.5235	-8.528131	0.000329	3.292087	0.557695	0.006585
 155	7.7000e-02	1.5353	-8.487506	0.000406	4.061665	0.688065	0.008125
 156	7.7500e-02	1.5469	-8.452014	0.000355	3.548613	0.601151	0.007099
 157	7.8000e-02	1.5560	-8.443461	0.000086	0.855087	0.144856	0.001711
 158	7.8500e-02	1.5658	-8.395567	0.000479	4.788490	0.811192	0.009579
 159	7.9000e-02	1.5756	-8.372475	0.000231	2.308736	0.391110	0.004618
 160	7.9500e-02	1.5875	-8.333561	0.000389	3.890648	0.659094	0.007783
 161	8.0000e-02	1.5947	-8.315173	0.000184	1.838438	0.311440	0.003678
 162	8.0500e-02	1.6047	-8.264714	0.000505	5.045016	0.854649	0.010092
 163	8.1000e-02	1.6151	-8.234780	0.000299	2.992806	0.506995	0.005987
 164	8.1500e-02	1.6277	-8.204846	0.000299	2.992806	0.506995	0.005987
 165	8.2000e-02	1.6370	-8.162084	0.000428	4.275437	0.724279	0.008553
 166	8.2500e-02	1.6473	-8.146689	0.000154	1.539157	0.260740	0.003079
 167	8.3000e-02	1.6574	-8.099650	0.000470	4.702981	0.796707	0.009408
 168	8.3500e-02	1.6665	-8.067151	0.000325	3.249332	0.550452	0.006500
 169	8.4000e-02	1.6749	-8.046625	0.000205	2.052210	0.347654	0.004105
 170	8.4500e-02	1.6847	-7.988040	0.000586	5.857349	0.992262	0.011717
 171	8.5000e-02	1.6959	-7.958106	0.000299	2.992806	0.506995	0.005987
 172	8.5500e-02	1.7063	-7.912778	0.000453	4.531964	0.767735	0.009066
 173	8.6000e-02	1.7172	-7.896101	0.000167	1.667421	0.282469	0.003335
 174	8.6500e-02	1.7249	-7.888831	0.000073	0.726824	0.123127	0.001454
 175	8.7000e-02	1.7357	-7.845213	0.000436	4.360946	0.738764	0.008724
 176	8.7500e-02	1.7458	-7.810576	0.000346	3.463104	0.586666	0.006928
 177	8.8000e-02	1.7575	-7.779787	0.000308	3.078315	0.521481	0.006158
 178	8.8500e-02	1.7668	-7.731037	0.000487	4.873998	0.825678	0.009750
 179	8.9000e-02	1.7760	-7.704952	0.000261	2.608017	0.441810	0.005217
 180	8.9500e-02	1.7874	-7.686137	0.000188	1.881192	0.318683	0.003763
 181	9.0000e-02	1.7982	-7.646795	0.000393	3.933402	0.666336	0.007868
 182	9.0500e-02	1.8046	-7.584362	0.000624	6.242138	1.057447	0.012487
 183	9.1000e-02	1.8177	-7.588210	-0.000038	-0.384789	-0.065185	-0.000770
 184	9.1500e-02	1.8243	-7.565119	0.000231	2.308736	0.391110	0.004618
 185	9.2000e-02	1.8362	-7.509955	0.000552	5.515314	0.934319	0.011033
 186	9.2500e-02	1.8458	-7.490284	0.000197	1.966701	0.333168	0.003934
 187	9.3000e-02	1.8540	-7.435976	0.000543	5.429805	0.919834	0.010862
 188	9.3500e-02	1.8671	-7.421437	0.000145	1.453649	0.246255	0.002908
 189	9.4000e-02	1.8765	-7.369694	0.000517	5.173279	0.876377	0.010349
 190	9.4500e-02	1.8882	-7.343609	0.000261	2.608017	0.441810	0.005217
 191	9.5000e-02	1.8958	-7.299991	0.000436	4.360946	0.738764	0.008724
 192	9.5500e-02	1.9057	-7.282886	0.000171	1.710175	0.289711	0.003421
 193	9.6000e-02	1.9179	-7.248676	0.000342	3.420350	0.579423	0.006842
 194	9.6500e-02	1.9270	-7.211473	0.000372	3.719630	0.630122	0.007441
 195	9.7000e-02	1.9376	-7.191374	0.000201	2.009456	0.340411	0.004020
 196	9.7500e-02	1.9460	-7.162296	0.000291	2.907297	0.492510	0.005816
 197	9.8000e-02	1.9545	-7.140914	0.000214	2.137719	0.362139	0.004276
 198	9.8500e-02	1.9653	-7.083613	0.000573	5.729086	0.970533	0.011460
 199	9.9000e-02	1.9763	-7.059666	0.000239	2.394245	0.405596	0.004789
 200	9.9500e-02	1.9859	-7.019041	0.000406	4.061665	0.688065	0.008125
 201	1.0000e-01	1.9975	-7.001509	0.000175	1.752929	0.296954	0.003507
 202	1.0050e-01	2.0052	-6.965160	0.000363	3.634122	0.615637	0.007270
 203	1.0100e-01	2.0163	-6.944634	0.000205	2.052210	0.347654	0.004105
 204	1.0150e-01	2.0270	-6.886905	0.000577	5.771840	0.977776	0.011546
 205	1.0200e-01	2.0364	-6.856116	0.000308	3.078315	0.521481	0.006158
 206	1.0250e-01	2.0462	-6.826610	0.000295	2.950052	0.499752	0.005901
 207	1.0300e-01	2.0560	-6.806084	0.000205	2.052210	0.347654	0.004105
 208	1.0350e-01	2.0692	-6.774440	0.000316	3.163824	0.535966	0.006329
 209	1.0400e-01	2.0795	-6.723552	0.000509	5.087770	0.861892	0.010177
 210	1.0450e-01	2.0862	-6.706875	0.000167	1.667421	0.282469	0.003335
 211	1.0500e-01	2.0956	-6.664540	0.000423	4.232683	0.717036	0.008467
 212	1.0550e-01	2.1053	-6.603817	0.000607	6.071121	1.028476	0.012145
 213	1.0600e-01	2.1169	-6.609804	-0.000060	-0.598561	-0.101399	-0.001197
 214	1.0650e-01	2.1271	-6.573456	0.000363	3.634122	0.615637	0.007270
 215	1.0700e-01	2.1396	-6.557206	0.000162	1.624666	0.275226	0.003250
 216	1.0750e-01	2.1455	-6.518720	0.000385	3.847894	0.651851	0.007697
 217	1.0800e-01	2.1561	-6.486220	0.000325	3.249332	0.550452	0.006500
 218	1.0850e-01	2.1667	-6.445596	0.000406	4.061665	0.688065	0.008125
 219	1.0900e-01	2.1752	-6.398557	0.000470	4.702981	0.796707	0.009408
 220	1.0950e-01	2.1887	-6.387866	0.000107	1.068859	0.181070	0.002138
 221	1.1000e-01	2.1969	-6.349380	0.000385	3.847894	0.651851	0.007697
 222	1.1050e-01	2.2070	-6.312604	0.000368	3.676876	0.622880	0.007355
 223	1.1100e-01	2.2156	-6.291651	0.000209	2.094964	0.354897	0.004191
 224	1.1150e-01	2.2249	-6.249316	0.000423	4.232683	0.717036	0.008467
 225	1.1200e-01	2.2375	-6.230500	0.000188	1.881192	0.318683	0.003763
 226	1.1250e-01	2.2475	-6.195007	0.000355	3.548613	0.601151	0.007099
 227	1.1300e-01	2.2585	-6.160370	0.000346	3.463104	0.586666	0.006928
 228	1.1350e-01	2.2706	-6.120173	0.000402	4.018911	0.680822	0.008039
 229	1.1400e-01	2.2775	-6.111620	0.000086	0.855087	0.144856	0.001711
 230	1.1450e-01	2.2858	-6.063299	0.000483	4.831244	0.818435	0.009664
 231	1.1500e-01	2.2952	-6.035503	0.000278	2.779034	0.470781	0.005559
 232	1.1550e-01	2.3090	-6.000865	0.000346	3.463104	0.586666	0.006928
 233	1.1600e-01	2.3166	-5.955537	0.000453	4.531964	0.767735	0.009066
 234	1.1650e-01	2.3273	-5.941853	0.000137	1.368140	0.231769	0.002737
 235	1.1700e-01	2.3363	-5.888828	0.000530	5.301542	0.898106	0.010605
 236	1.1750e-01	2.3468	-5.876854	0.000120	1.197122	0.202798	0.002395
 237	1.1800e-01	2.3547	-5.837085	0.000398	3.976157	0.673579	0.007954
 238	1.1850e-01	2.3651	-5.809717	0.000274	2.736280	0.463538	0.005474
 239	1.1900e-01	2.3755	-5.779783	0.000299	2.992806	0.506995	0.005987
 240	1.1950e-01	2.3843	-5.758830	0.000209	2.094964	0.354897	0.004191
 241	1.2000e-01	2.3975	-5.717778	0.000410	4.104420	0.695308	0.008210
 242	1.2050e-01	2.4065	-5.689127	0.000286	2.864543	0.485267	0.005730
 243	1.2100e-01	2.4170	-5.654489	0.000346	3.463104	0.586666	0.006928
 244	1.2150e-01	2.4242	-5.621989	0.000325	3.249332	0.550452	0.006500
 245	1.2200e-01	2.4344	-5.616858	0.000051	0.513052	0.086913	0.001026
 246	1.2250e-01	2.4468	-5.581365	0.000355	3.548613	0.601151	0.007099
 247	1.2300e-01	2.4573	-5.524919	0.000564	5.643577	0.956048	0.011289
 248	1.2350e-01	2.4651	-5.505675	0.000192	1.923947	0.325925	0.003849
 249	1.2400e-01	2.4785	-5.482156	0.000235	2.351490	0.398353	0.004704
 250	1.2450e-01	2.4883	-5.440249	0.000419	4.189929	0.709793	0.008381
 251	1.2500e-01	2.4966	-5.413308	0.000269	2.693525	0.456296	0.005388
 252	1.2550e-01	2.5083	-5.362849	0.000505	5.045016	0.854649	0.010092
 253	1.2600e-01	2.5171	-5.351730	0.000111	1.111614	0.188312	0.002224
 254	1.2650e-01	2.5287	-5.332060	0.000197	1.966701	0.333168	0.003934
 255	1.2700e-01	2.5362	-5.282455	0.000496	4.959507	0.840163	0.009921
 256	1.2750e-01	2.5476	-5.242258	0.000402	4.018911	0.680822	0.008039
 257	1.2800e-01	2.5552	-5.198640	0.000436	4.360946	0.738764	0.008724
 258	1.2850e-01	2.5658	-5.197358	0.000013	0.128263	0.021728	0.000257
 259	1.2900e-01	2.5769	-5.173838	0.000235	2.351490	0.398353	0.004704
 260	1.2950e-01	2.5883	-5.124234	0.000496	4.959507	0.840163	0.009921
 261	1.3000e-01	2.5943	-5.093445	0.000308	3.078315	0.521481	0.006158
 262	1.3050e-01	2.6053	-5.051965	0.000415	4.147174	0.702550	0.008296
 263	1.3100e-01	2.6160	-5.036570	0.000154	1.539157	0.260740	0.003079
 264	1.3150e-01	2.6257	-4.998512	0.000381	3.805139	0.644608	0.007612
 265	1.3200e-01	2.6379	-4.971144	0.000274	2.736280	0.463538	0.005474
 266	1.3250e-01	2.6460	-4.921967	0.000492	4.916753	0.832920	0.009835
 267	1.3300e-01	2.6573	-4.889895	0.000321	3.206578	0.543209	0.006414
 268	1.3350e-01	2.6683	-4.881343	0.000086	0.855087	0.144856	0.001711
 269	1.3400e-01	2.6759	-4.840718	0.000406	4.061665	0.688065	0.008125
 270	1.3450e-01	2.6878	-4.809074	0.000316	3.163824	0.535966	0.006329
 271	1.3500e-01	2.6971	-4.802659	0.000064	0.641316	0.108642	0.001283
 272	1.3550e-01	2.7054	-4.744502	0.000581	5.814595	0.985019	0.011631
 273	1.3600e-01	2.7139	-4.706871	0.000376	3.762385	0.637365	0.007526
 274	1.3650e-01	2.7271	-4.708154	-0.000013	-0.128263	-0.021728	-0.000257
 275	1.3700e-01	2.7377	-4.657694	0.000505	5.045016	0.854649	0.010092
 276	1.3750e-01	2.7451	-4.623484	0.000342	3.420350	0.579423	0.006842
 277	1.3800e-01	2.7577	-4.614504	0.000090	0.897842	0.152099	0.001796
 278	1.3850e-01	2.7670	-4.548650	0.000658	6.584173	1.115389	0.013171
 279	1.3900e-01	2.7788	-4.517433	0.000312	3.121069	0.528723	0.006243
 280	1.3950e-01	2.7870	-4.503749	0.000137	1.368140	0.231769	0.002737
 281	1.4000e-01	2.7942	-4.457993	0.000457	4.574718	0.774978	0.009151
 282	1.4050e-01	2.8061	-4.452862	0.000051	0.513052	0.086913	0.001026
 283	1.4100e-01	2.8156	-4.412665	0.000402	4.018911	0.680822	0.008039
 284	1.4150e-01	2.8265	-4.392994	0.000197	1.966701	0.333168	0.003934
 285	1.4200e-01	2.8358	-4.354508	0.000385	3.847894	0.651851	0.007697
 286	1.4250e-01	2.8479	-4.336976	0.000175	1.752929	0.296954	0.003507
 287	1.4300e-01	2.8583	-4.291220	0.000457	4.574718	0.774978	0.009151
 288	1.4350e-01	2.8667	-4.258720	0.000325	3.249332	0.550452	0.006500
 289	1.4400e-01	2.8772	-4.229642	0.000291	2.907297	0.492510	0.005816
 290	1.4450e-01	2.8859	-4.192866	0.000368	3.676876	0.622880	0.007355
 291	1.4500e-01	2.8959	-4.155662	0.000372	3.719630	0.630122	0.007441
 292	1.4550e-01	2.9065	-4.139840	0.000158	1.581912	0.267983	0.003164
 293	1.4600e-01	2.9163	-4.111617	0.000282	2.821789	0.478024	0.005645
 294	1.4650e-01	2.9311	-4.068427	0.000432	4.318192	0.731521	0.008638
 295	1.4700e-01	2.9373	-4.047473	0.000209	2.094964	0.354897	0.004191
 296	1.4750e-01	2.9448	-4.020533	0.000269	2.693525	0.456296	0.005388
 297	1.4800e-01	2.9556	-3.979481	0.000410	4.104420	0.695308	0.008210
 298	1.4850e-01	2.9689	-3.953396	0.000261	2.608017	0.441810	0.005217
 299	1.4900e-01	2.9777	-3.915765	0.000376	3.762385	0.637365	0.007526
 300	1.4950e-01	2.9872	-3.884976	0.000308	3.078315	0.521481	0.006158
 301	1.5000e-01	2.9971	-3.870009	0.000150	1.496403	0.253498	0.002993
 302	1.5050e-01	3.0051	-3.831950	0.000381	3.805139	0.644608	0.007612
 303	1.5100e-01	3.0188	-3.812279	0.000197	1.966701	0.333168	0.003934
 304	1.5150e-01	3.0276	-3.754978	0.000573	5.729086	0.970533	0.011460
 305	1.5200e-01	3.0367	-3.731458	0.000235	2.351490	0.398353	0.004704
 306	1.5250e-01	3.0460	-3.722906	0.000086	0.855087	0.144856	0.001711
 307	1.5300e-01	3.0515	-3.663038	0.000599	5.985612	1.013990	0.011974
 308	1.5350e-01	3.0676	-3.658334	0.000047	0.470298	0.079671	0.000941
 309	1.5400e-01	3.0760	-3.615999	0.000423	4.232683	0.717036	0.008467
 310	1.5450e-01	3.0859	-3.601888	0.000141	1.410894	0.239012	0.002822
 311	1.5500e-01	3.0967	-3.580506	0.000214	2.137719	0.362139	0.004276
 312	1.5550e-01	3.1068	-3.555277	0.000252	2.522508	0.427324	0.005046
 313	1.5600e-01	3.1186	-3.491560	0.000637	6.370402	1.079175	0.012743
 314	1.5650e-01	3.1290	-3.468469	0.000231	2.308736	0.391110	0.004618
 315	1.5700e-01	3.1342	-3.445377	0.000231	2.308736	0.391110	0.004618
 316	1.5750e-01	3.1466	-3.424851	0.000205	2.052210	0.347654	0.004105
 317	1.5800e-01	3.1573	-3.374391	0.000505	5.045016	0.854649	0.010092
 318	1.5850e-01	3.1677	-3.346595	0.000278	2.779034	0.470781	0.005559
 319	1.5900e-01	3.1778	-3.326497	0.000201	2.009456	0.340411	0.004020
 320	1.5950e-01	3.1873	-3.305971	0.000205	2.052210	0.347654	0.004105
 321	1.6000e-01	3.1946	-3.270050	0.000359	3.591367	0.608394	0.007184
 322	1.6050e-01	3.2059	-3.231992	0.000381	3.805139	0.644608	0.007612
 323	1.6100e-01	3.2172	-3.206762	0.000252	2.522508	0.427324	0.005046
 324	1.6150e-01	3.2257	-3.180677	0.000261	2.608017	0.441810	0.005217
 325	1.6200e-01	3.2382	-3.150743	0.000299	2.992806	0.506995	0.005987
 326	1.6250e-01	3.2471	-3.119954	0.000308	3.078315	0.521481	0.006158
 327	1.6300e-01	3.2538	-3.085316	0.000346	3.463104	0.586666	0.006928
 328	1.6350e-01	3.2684	-3.044264	0.000410	4.104420	0.695308	0.008210
 329	1.6400e-01	3.2773	-3.001929	0.000423	4.232683	0.717036	0.008467
 330	1.6450e-01	3.2886	-2.992949	0.000090	0.897842	0.152099	0.001796
 331	1.6500e-01	3.2959	-2.976272	0.000167	1.667421	0.282469	0.003335
 332	1.6550e-01	3.3069	-2.935648	0.000406	4.061665	0.688065	0.008125
 333	1.6600e-01	3.3154	-2.921964	0.000137	1.368140	0.231769	0.002737
 334	1.6650e-01	3.3270	-2.889892	0.000321	3.206578	0.543209	0.006414
 335	1.6700e-01	3.3374	-2.863806	0.000261	2.608017	0.441810	0.005217
 336	1.6750e-01	3.3459	-2.820189	0.000436	4.360946	0.738764	0.008724
 337	1.6800e-01	3.3557	-2.795814	0.000244	2.436999	0.412839	0.004875
 338	1.6850e-01	3.3675	-2.767163	0.000286	2.864543	0.485267	0.005730
 339	1.6900e-01	3.3746	-2.741506	0.000257	2.565262	0.434567	0.005132
 340	1.6950e-01	3.3875	-2.711572	0.000299	2.992806	0.506995	0.005987
 341	1.7000e-01	3.3951	-2.656408	0.000552	5.515314	0.934319	0.011033
 342	1.7050e-01	3.4064	-2.620915	0.000355	3.548613	0.601151	0.007099
 343	1.7100e-01	3.4164	-2.609369	0.000115	1.154368	0.195555	0.002309
 344	1.7150e-01	3.4280	-2.582429	0.000269	2.693525	0.456296	0.005388
 345	1.7200e-01	3.4360	-2.557199	0.000252	2.522508	0.427324	0.005046
 346	1.7250e-01	3.4480	-2.521279	0.000359	3.591367	0.608394	0.007184
 347	1.7300e-01	3.4589	-2.491345	0.000299	2.992806	0.506995	0.005987
 348	1.7350e-01	3.4662	-2.475095	0.000162	1.624666	0.275226	0.003250
 349	1.7400e-01	3.4779	-2.435754	0.000393	3.933402	0.666336	0.007868
 350	1.7450e-01	3.4871	-2.408813	0.000269	2.693525	0.456296	0.005388
 351	1.7500e-01	3.4970	-2.369472	0.000393	3.933402	0.666336	0.007868
 352	1.7550e-01	3.5052	-2.340821	0.000286	2.864543	0.485267	0.005730
 353	1.7600e-01	3.5152	-2.324999	0.000158	1.581912	0.267983	0.003164
 354	1.7650e-01	3.5257	-2.302334	0.000227	2.265982	0.383868	0.004533
 355	1.7700e-01	3.5370	-2.269407	0.000329	3.292087	0.557695	0.006585
 356	1.7750e-01	3.5474	-2.241184	0.000282	2.821789	0.478024	0.005645
 357	1.7800e-01	3.5565	-2.184310	0.000569	5.686332	0.963291	0.011375
 358	1.7850e-01	3.5706	-2.171054	0.000133	1.325386	0.224526	0.002651
 359	1.7900e-01	3.5780	-2.154376	0.000167	1.667421	0.282469	0.003335
 360	1.7950e-01	3.5855	-2.117173	0.000372	3.719630	0.630122	0.007441
 361	1.8000e-01	3.5944	-2.093226	0.000239	2.394245	0.405596	0.004789
 362	1.8050e-01	3.6066	-2.049608	0.000436	4.360946	0.738764	0.008724
 363	1.8100e-01	3.6166	-2.039773	0.000098	0.983351	0.166584	0.001967
 364	1.8150e-01	3.6279	-2.000859	0.000389	3.890648	0.659094	0.007783
 365	1.8200e-01	3.6362	-1.974774	0.000261	2.608017	0.441810	0.005217
 366	1.8250e-01	3.6438	-1.935860	0.000389	3.890648	0.659094	0.007783
 367	1.8300e-01	3.6589	-1.912768	0.000231	2.308736	0.391110	0.004618
 368	1.8350e-01	3.6653	-1.882834	0.000299	2.992806	0.506995	0.005987
 369	1.8400e-01	3.6774	-1.840927	0.000419	4.189929	0.709793	0.008381
 370	1.8450e-01	3.6854	-1.811848	0.000291	2.907297	0.492510	0.005816
 371	1.8500e-01	3.6974	-1.799447	0.000124	1.239877	0.210041	0.002480
 372	1.8550e-01	3.7079	-1.753691	0.000457	4.574718	0.774978	0.009151
 373	1.8600e-01	3.7164	-1.731882	0.000218	2.180473	0.369382	0.004362
 374	1.8650e-01	3.7268	-1.732310	-0.000004	-0.042754	-0.007243	-0.000086
 375	1.8700e-01	3.7350	-1.677574	0.000547	5.472560	0.927077	0.010947
 376	1.8750e-01	3.7494	-1.653627	0.000239	2.394245	0.405596	0.004789
 377	1.8800e-01	3.7582	-1.610437	0.000432	4.318192	0.731521	0.008638
 378	1.8850e-01	3.7672	-1.593332	0.000171	1.710175	0.289711	0.003421
 379	1.8900e-01	3.7744	-1.562543	0.000308	3.078315	0.521481	0.006158
 380	1.8950e-01	3.7888	-1.550142	0.000124	1.239877	0.210041	0.002480
 381	1.9000e-01	3.8000	-1.504813	0.000453	4.531964	0.767735	0.009066
 382	1.9050e-01	3.8058	-1.481722	0.000231	2.308736	0.391110	0.004618
 383	1.9100e-01	3.8177	-1.442380	0.000393	3.933402	0.666336	0.007868
 384	1.9150e-01	3.8254	-1.412874	0.000295	2.950052	0.499752	0.005901
 385	1.9200e-01	3.8386	-1.388927	0.000239	2.394245	0.405596	0.004789
 386	1.9250e-01	3.8474	-1.363269	0.000257	2.565262	0.434567	0.005132
 387	1.9300e-01	3.8566	-1.335474	0.000278	2.779034	0.470781	0.005559
 388	1.9350e-01	3.8663	-1.307678	0.000278	2.779034	0.470781	0.005559
 389	1.9400e-01	3.8770	-1.267054	0.000406	4.061665	0.688065	0.008125
 390	1.9450e-01	3.8882	-1.247811	0.000192	1.923947	0.325925	0.003849
 391	1.9500e-01	3.8966	-1.212745	0.000351	3.505859	0.593909	0.007013
 392	1.9550e-01	3.9073	-1.195213	0.000175	1.752929	0.296954	0.003507
 393	1.9600e-01	3.9162	-1.153733	0.000415	4.147174	0.702550	0.008296
 394	1.9650e-01	3.9279	-1.137911	0.000158	1.581912	0.267983	0.003164
 395	1.9700e-01	3.9365	-1.100707	0.000372	3.719630	0.630122	0.007441
 396	1.9750e-01	3.9459	-1.083175	0.000175	1.752929	0.296954	0.003507
 397	1.9800e-01	3.9590	-1.020742	0.000624	6.242138	1.057447	0.012487
 398	1.9850e-01	3.9658	-1.021597	-0.000009	-0.085509	-0.014486	-0.000171
 399	1.9900e-01	3.9752	-0.974130	0.000475	4.745735	0.803949	0.009493
 400	1.9950e-01	3.9874	-0.963440	0.000107	1.068859	0.181070	0.002138
 401	2.0000e-01	3.9989	-0.936072	0.000274	2.736280	0.463538	0.005474
 402	2.0050e-01	4.0073	-0.906566	0.000295	2.950052	0.499752	0.005901
 403	2.0100e-01	4.0170	-0.880480	0.000261	2.608017	0.441810	0.005217
 404	2.0150e-01	4.0265	-0.849264	0.000312	3.121069	0.528723	0.006243
 405	2.0200e-01	4.0369	-0.824889	0.000244	2.436999	0.412839	0.004875
 406	2.0250e-01	4.0463	-0.775712	0.000492	4.916753	0.832920	0.009835
 407	2.0300e-01	4.0588	-0.757752	0.000180	1.795684	0.304197	0.003592
 408	2.0350e-01	4.0677	-0.733377	0.000244	2.436999	0.412839	0.004875
 409	2.0400e-01	4.0784	-0.686339	0.000470	4.702981	0.796707	0.009408
 410	2.0450e-01	4.0881	-0.673510	0.000128	1.282631	0.217284	0.002566
 411	2.0500e-01	4.0973	-0.645714	0.000278	2.779034	0.470781	0.005559
 412	2.0550e-01	4.1044	-0.629037	0.000167	1.667421	0.282469	0.003335
 413	2.0600e-01	4.1183	-0.583281	0.000457	4.574718	0.774978	0.009151
 414	2.0650e-01	4.1272	-0.551209	0.000321	3.206578	0.543209	0.006414
 415	2.0700e-01	4.1394	-0.525551	0.000257	2.565262	0.434567	0.005132
 416	2.0750e-01	4.1478	-0.506736	0.000188	1.881192	0.318683	0.003763
 417	2.0800e-01	4.1579	-0.469105	0.000376	3.762385	0.637365	0.007526
 418	2.0850e-01	4.1644	-0.439599	0.000295	2.950052	0.499752	0.005901
 419	2.0900e-01	4.1766	-0.421639	0.000180	1.795684	0.304197	0.003592
 420	2.0950e-01	4.1848	-0.390850	0.000308	3.078315	0.521481	0.006158
 421	2.1000e-01	4.1974	-0.351936	0.000389	3.890648	0.659094	0.007783
 422	2.1050e-01	4.2041	-0.321147	0.000308	3.078315	0.521481	0.006158
 423	2.1100e-01	4.2154	-0.309173	0.000120	1.197122	0.202798	0.002395
 424	2.1150e-01	4.2279	-0.273680	0.000355	3.548613	0.601151	0.007099
 425	2.1200e-01	4.2386	-0.249733	0.000239	2.394245	0.405596	0.004789
 426	2.1250e-01	4.2484	-0.221510	0.000282	2.821789	0.478024	0.005645
 427	2.1300e-01	4.2548	-0.189866	0.000316	3.163824	0.535966	0.006329
 428	2.1350e-01	4.2667	-0.156083	0.000338	3.377595	0.572180	0.006756
 429	2.1400e-01	4.2757	-0.145820	0.000103	1.026105	0.173827	0.002053
 430	2.1450e-01	4.2886	-0.107334	0.000385	3.847894	0.651851	0.007697
 431	2.1500e-01	4.2963	-0.063289	0.000440	4.403700	0.746007	0.008809
 432	2.1550e-01	4.3069	-0.041907	0.000214	2.137719	0.362139	0.004276
 433	2.1600e-01	4.3166	-0.024802	0.000171	1.710175	0.289711	0.003421
 434	2.1650e-01	4.3253	0.019243	0.000440	4.403700	0.746007	0.008809
 435	2.1700e-01	4.3378	0.046184	0.000269	2.693525	0.456296	0.005388
 436	2.1750e-01	4.3459	0.054736	0.000086	0.855087	0.144856	0.001711
 437	2.1800e-01	4.3616	0.097926	0.000432	4.318192	0.731521	0.008638
 438	2.1850e-01	4.3655	0.109472	0.000115	1.154368	0.195555	0.002309
 439	2.1900e-01	4.3771	0.146248	0.000368	3.676876	0.622880	0.007355
 440	2.1950e-01	4.3884	0.168057	0.000218	2.180473	0.369382	0.004362
 441	2.2000e-01	4.3988	0.208681	0.000406	4.061665	0.688065	0.008125
 442	2.2050e-01	4.4086	0.234339	0.000257	2.565262	0.434567	0.005132
 443	2.2100e-01	4.4185	0.248450	0.000141	1.410894	0.239012	0.002822
 444	2.2150e-01	4.4270	0.289075	0.000406	4.061665	0.688065	0.008125
 445	2.2200e-01	4.4373	0.298910	0.000098	0.983351	0.166584	0.001967
 446	2.2250e-01	4.4464	0.338679	0.000398	3.976157	0.673579	0.007954
 447	2.2300e-01	4.4557	0.366047	0.000274	2.736280	0.463538	0.005474
 448	2.2350e-01	4.4666	0.413941	0.000479	4.788490	0.811192	0.009579
 449	2.2400e-01	4.4775	0.432757	0.000188	1.881192	0.318683	0.003763
 450	2.2450e-01	4.4867	0.446013	0.000133	1.325386	0.224526	0.002651
 451	2.2500e-01	4.4940	0.484072	0.000381	3.805139	0.644608	0.007612
 452	2.2550e-01	4.5081	0.533676	0.000496	4.959507	0.840163	0.009921
 453	2.2600e-01	4.5197	0.545222	0.000115	1.154368	0.195555	0.002309
 454	2.2650e-01	4.5270	0.549926	0.000047	0.470298	0.079671	0.000941
 455	2.2700e-01	4.5364	0.585419	0.000355	3.548613	0.601151	0.007099
 456	2.2750e-01	4.5465	0.628182	0.000428	4.275437	0.724279	0.008553
 457	2.2800e-01	4.5566	0.658971	0.000308	3.078315	0.521481	0.006158
 458	2.2850e-01	4.5673	0.667523	0.000086	0.855087	0.144856	0.001711
 459	2.2900e-01	4.5760	0.700023	0.000325	3.249332	0.550452	0.006500
 460	2.2950e-01	4.5889	0.741502	0.000415	4.147174	0.702550	0.008296
 461	2.3000e-01	4.5966	0.740219	-0.000013	-0.128263	-0.021728	-0.000257
 462	2.3050e-01	4.6051	0.786831	0.000466	4.660227	0.789464	0.009322
 463	2.3100e-01	4.6152	0.822323	0.000355	3.548613	0.601151	0.007099
 464	2.3150e-01	4.6265	0.847126	0.000248	2.479754	0.420082	0.004960
 465	2.3200e-01	4.6371	0.889033	0.000419	4.189929	0.709793	0.008381
 466	2.3250e-01	4.6469	0.893737	0.000047	0.470298	0.079671	0.000941
 467	2.3300e-01	4.6594	0.932223	0.000385	3.847894	0.651851	0.007697
 468	2.3350e-01	4.6661	0.954032	0.000218	2.180473	0.369382	0.004362
 469	2.3400e-01	4.6765	0.961729	0.000077	0.769579	0.130370	0.001539
 470	2.3450e-01	4.6872	0.997222	0.000355	3.548613	0.601151	0.007099
 471	2.3500e-01	4.6982	1.025873	0.000286	2.864543	0.485267	0.005730
 472	2.3550e-01	4.7052	1.079754	0.000539	5.387051	0.912591	0.010776
 473	2.3600e-01	4.7168	1.099425	0.000197	1.966701	0.333168	0.003934
 474	2.3650e-01	4.7250	1.116102	0.000167	1.667421	0.282469	0.003335
 475	2.3700e-01	4.7360	1.131496	0.000154	1.539157	0.260740	0.003079
 476	2.3750e-01	4.7476	1.175114	0.000436	4.360946	0.738764	0.008724
 477	2.3800e-01	4.7577	1.211035	0.000359	3.591367	0.608394	0.007184
 478	2.3850e-01	4.7668	1.228140	0.000171	1.710175	0.289711	0.003421
 479	2.3900e-01	4.7760	1.268337	0.000402	4.018911	0.680822	0.008039
 480	2.3950e-01	4.7858	1.275179	0.000068	0.684070	0.115885	0.001368
 481	2.4000e-01	4.7974	1.316231	0.000410	4.104420	0.695308	0.008210
 482	2.4050e-01	4.8102	1.332908	0.000167	1.667421	0.282469	0.003335
 483	2.4100e-01	4.8157	1.365408	0.000325	3.249332	0.550452	0.006500
 484	2.4150e-01	4.8280	1.403894	0.000385	3.847894	0.651851	0.007697
 485	2.4200e-01	4.8364	1.424847	0.000209	2.094964	0.354897	0.004191
 486	2.4250e-01	4.8462	1.459057	0.000342	3.420350	0.579423	0.006842
 487	2.4300e-01	4.8566	1.468038	0.000090	0.897842	0.152099	0.001796
 488	2.4350e-01	4.8665	1.499682	0.000316	3.163824	0.535966	0.006329
 489	2.4400e-01	4.8779	1.495406	-0.000043	-0.427544	-0.072428	-0.000855
 490	2.4450e-01	4.8892	1.548431	0.000530	5.301542	0.898106	0.010605
 491	2.4500e-01	4.8987	1.598463	0.000500	5.002262	0.847406	0.010006
 492	2.4550e-01	4.9078	1.629252	0.000308	3.078315	0.521481	0.006158
 493	2.4600e-01	4.9146	1.645930	0.000167	1.667421	0.282469	0.003335
 494	2.4650e-01	4.9258	1.667739	0.000218	2.180473	0.369382	0.004362
 495	2.4700e-01	4.9396	1.680140	0.000124	1.239877	0.210041	0.002480
 496	2.4750e-01	4.9509	1.718626	0.000385	3.847894	0.651851	0.007697
 497	2.4800e-01	4.9588	1.758823	0.000402	4.018911	0.680822	0.008039
 498	2.4850e-01	4.9695	1.769086	0.000103	1.026105	0.173827	0.002053
 499	2.4900e-01	4.9768	1.809283	0.000402	4.018911	0.680822	0.008039
 500	2.4950e-01	4.9890	1.842210	0.000329	3.292087	0.557695	0.006585
 501	2.5000e-01	4.9963	1.868295	0.000261	2.608017	0.441810	0.005217
 502	2.5050e-01	5.0067	1.904215	0.000359	3.591367	0.608394	0.007184
 503	2.5100e-01	5.0153	1.922603	0.000184	1.838438	0.311440	0.003678
 504	2.5150e-01	5.0275	1.947833	0.000252	2.522508	0.427324	0.005046
 505	2.5200e-01	5.0373	1.947406	-0.000004	-0.042754	-0.007243	-0.000086
 506	2.5250e-01	5.0476	1.975629	0.000282	2.821789	0.478024	0.005645
 507	2.5300e-01	5.0598	2.031648	0.000560	5.600823	0.948805	0.011204
 508	2.5350e-01	5.0662	2.054739	0.000231	2.308736	0.391110	0.004618
 509	2.5400e-01	5.0784	2.063720	0.000090	0.897842	0.152099	0.001796
 510	2.5450e-01	5.0856	2.094509	0.000308	3.078315	0.521481	0.006158
 511	2.5500e-01	5.0964	2.118883	0.000244	2.436999	0.412839	0.004875
 512	2.5550e-01	5.1044	2.169771	0.000509	5.087770	0.861892	0.010177
 513	2.5600e-01	5.1190	2.190724	0.000209	2.094964	0.354897	0.004191
 514	2.5650e-01	5.1278	2.202698	0.000120	1.197122	0.202798	0.002395
 515	2.5700e-01	5.1382	2.229211	0.000265	2.650771	0.449053	0.005303
 516	2.5750e-01	5.1483	2.261710	0.000325	3.249332	0.550452	0.006500
 517	2.5800e-01	5.1566	2.277532	0.000158	1.581912	0.267983	0.003164
 518	2.5850e-01	5.1654	2.322433	0.000449	4.489209	0.760493	0.008980
 519	2.5900e-01	5.1752	2.342531	0.000201	2.009456	0.340411	0.004020
 520	2.5950e-01	5.1874	2.373748	0.000312	3.121069	0.528723	0.006243
 521	2.6000e-01	5.1978	2.392991	0.000192	1.923947	0.325925	0.003849
 522	2.6050e-01	5.2087	2.408386	0.000154	1.539157	0.260740	0.003079
 523	2.6100e-01	5.2179	2.455852	0.000475	4.745735	0.803949	0.009493
 524	2.6150e-01	5.2241	2.481509	0.000257	2.565262	0.434567	0.005132
 525	2.6200e-01	5.2374	2.499897	0.000184	1.838438	0.311440	0.003678
 526	2.6250e-01	5.2475	2.521706	0.000218	2.180473	0.369382	0.004362
 527	2.6300e-01	5.2554	2.564469	0.000428	4.275437	0.724279	0.008553
 528	2.6350e-01	5.2643	2.588843	0.000244	2.436999	0.412839	0.004875
 529	2.6400e-01	5.2756	2.599106	0.000103	1.026105	0.173827	0.002053
 530	2.6450e-01	5.2869	2.629468	0.000304	3.035560	0.514238	0.006072
 531	2.6500e-01	5.2948	2.664105	0.000346	3.463104	0.586666	0.006928
 532	2.6550e-01	5.3055	2.686342	0.000222	2.223227	0.376625	0.004447
 533	2.6600e-01	5.3143	2.701736	0.000154	1.539157	0.260740	0.003079
 534	2.6650e-01	5.3271	2.719269	0.000175	1.752929	0.296954	0.003507
 535	2.6700e-01	5.3395	2.788972	0.000697	6.968963	1.180574	0.013941
 536	2.6750e-01	5.3476	2.796242	0.000073	0.726824	0.123127	0.001454
 537	2.6800e-01	5.3595	2.820189	0.000239	2.394245	0.405596	0.004789
 538	2.6850e-01	5.3662	2.841570	0.000214	2.137719	0.362139	0.004276
 539	2.6900e-01	5.3766	2.849695	0.000081	0.812333	0.137613	0.001625
 540	2.6950e-01	5.3870	2.889464	0.000398	3.976157	0.673579	0.007954
 541	2.7000e-01	5.3961	2.948904	0.000594	5.942858	1.006747	0.011888
 542	2.7050e-01	5.4077	2.941207	-0.000077	-0.769579	-0.130370	-0.001539
 543	2.7100e-01	5.4163	2.971140	0.000299	2.992806	0.506995	0.005987
 544	2.7150e-01	5.4272	3.005778	0.000346	3.463104	0.586666	0.006928
 545	2.7200e-01	5.4367	3.040843	0.000351	3.505859	0.593909	0.007013
 546	2.7250e-01	5.4468	3.060086	0.000192	1.923947	0.325925	0.003849
 547	2.7300e-01	5.4565	3.098145	0.000381	3.805139	0.644608	0.007612
 548	2.7350e-01	5.4660	3.119099	0.000209	2.094964	0.354897	0.004191
 549	2.7400e-01	5.4774	3.123803	0.000047	0.470298	0.079671	0.000941
 550	2.7450e-01	5.4858	3.167420	0.000436	4.360946	0.738764	0.008724
 551	2.7500e-01	5.4974	3.184525	0.000171	1.710175	0.289711	0.003421
 552	2.7550e-01	5.5060	3.211038	0.000265	2.650771	0.449053	0.005303
 553	2.7600e-01	5.5194	3.223867	0.000128	1.282631	0.217284	0.002566
 554	2.7650e-01	5.5269	3.264919	0.000410	4.104420	0.695308	0.008210
 555	2.7700e-01	5.5367	3.295708	0.000308	3.078315	0.521481	0.006158
 556	2.7750e-01	5.5463	3.327352	0.000316	3.163824	0.535966	0.006329
 557	2.7800e-01	5.5537	3.348734	0.000214	2.137719	0.362139	0.004276
 558	2.7850e-01	5.5664	3.380378	0.000316	3.163824	0.535966	0.006329
 559	2.7900e-01	5.5743	3.408173	0.000278	2.779034	0.470781	0.005559
 560	2.7950e-01	5.5872	3.441956	0.000338	3.377595	0.572180	0.006756
 561	2.8000e-01	5.5963	3.447087	0.000051	0.513052	0.086913	0.001026
 562	2.8050e-01	5.6079	3.485574	0.000385	3.847894	0.651851	0.007697
 563	2.8100e-01	5.6174	3.507383	0.000218	2.180473	0.369382	0.004362
 564	2.8150e-01	5.6268	3.545014	0.000376	3.762385	0.637365	0.007526
 565	2.8200e-01	5.6384	3.547152	0.000021	0.213772	0.036214	0.000428
 566	2.8250e-01	5.6470	3.578368	0.000312	3.121069	0.528723	0.006243
 567	2.8300e-01	5.6570	3.609157	0.000308	3.078315	0.521481	0.006158
 568	2.8350e-01	5.6668	3.647216	0.000381	3.805139	0.644608	0.007612
 569	2.8400e-01	5.6804	3.639946	-0.000073	-0.726824	-0.123127	-0.001454
 570	2.8450e-01	5.6860	3.672873	0.000329	3.292087	0.557695	0.006585
 571	2.8500e-01	5.6952	3.716064	0.000432	4.318192	0.731521	0.008638
 572	2.8550e-01	5.7062	3.749418	0.000333	3.334841	0.564937	0.006671
 573	2.8600e-01	5.7196	3.756260	0.000068	0.684070	0.115885	0.001368
 574	2.8650e-01	5.7254	3.812707	0.000564	5.643577	0.956048	0.011289
 575	2.8700e-01	5.7346	3.822542	0.000098	0.983351	0.166584	0.001967
 576	2.8750e-01	5.7471	3.833233	0.000107	1.068859	0.181070	0.002138
 577	2.8800e-01	5.7573	3.857608	0.000244	2.436999	0.412839	0.004875
 578	2.8850e-01	5.7678	3.902936	0.000453	4.531964	0.767735	0.009066
 579	2.8900e-01	5.7764	3.915765	0.000128	1.282631	0.217284	0.002566
 580	2.8950e-01	5.7867	3.956817	0.000410	4.104420	0.695308	0.008210
 581	2.9000e-01	5.7965	3.967507	0.000107	1.068859	0.181070	0.002138
 582	2.9050e-01	5.8093	4.024381	0.000569	5.686332	0.963291	0.011375
 583	2.9100e-01	5.8177	4.029513	0.000051	0.513052	0.086913	0.001026
 584	2.9150e-01	5.8295	4.026520	-0.000030	-0.299281	-0.050700	-0.000599
 585	2.9200e-01	5.8374	4.090663	0.000641	6.413156	1.086418	0.012829
 586	2.9250e-01	5.8453	4.109479	0.000188	1.881192	0.318683	0.003763
 587	2.9300e-01	5.8571	4.134709	0.000252	2.522508	0.427324	0.005046
 588	2.9350e-01	5.8691	4.165498	0.000308	3.078315	0.521481	0.006158
 589	2.9400e-01	5.8752	4.182175	0.000167	1.667421	0.282469	0.003335
 590	2.9450e-01	5.8881	4.209543	0.000274	2.736280	0.463538	0.005474
 591	2.9500e-01	5.8948	4.232207	0.000227	2.265982	0.383868	0.004533
 592	2.9550e-01	5.9047	4.249312	0.000171	1.710175	0.289711	0.003421
 593	2.9600e-01	5.9181	4.272404	0.000231	2.308736	0.391110	0.004618
 594	2.9650e-01	5.9253	4.301483	0.000291	2.907297	0.492510	0.005816
 595	2.9700e-01	5.9375	4.333982	0.000325	3.249332	0.550452	0.006500
 596	2.9750e-01	5.9473	4.363061	0.000291	2.907297	0.492510	0.005816
 597	2.9800e-01	5.9576	4.381449	0.000184	1.838438	0.311440	0.003678
 598	2.9850e-01	5.9671	4.397271	0.000158	1.581912	0.267983	0.003164
 599	2.9900e-01	5.9772	4.445165	0.000479	4.788490	0.811192	0.009579
 600	2.9950e-01	5.9882	4.457138	0.000120	1.197122	0.202798	0.002395
 601	3.0000e-01	5.9979	4.494769	0.000376	3.762385	0.637365	0.007526
 602	3.0050e-01	6.0065	4.498618	0.000038	0.384789	0.065185	0.000770
 603	3.0100e-01	6.0175	4.542236	0.000436	4.360946	0.738764	0.008724
 604	3.0150e-01	6.0249	4.573452	0.000312	3.121069	0.528723	0.006243
 605	3.0200e-01	6.0373	4.580722	0.000073	0.726824	0.123127	0.001454
 606	3.0250e-01	6.0474	4.621774	0.000410	4.104420	0.695308	0.008210
 607	3.0300e-01	6.0565	4.640589	0.000188	1.881192	0.318683	0.003763
 608	3.0350e-01	6.0669	4.675655	0.000351	3.505859	0.593909	0.007013
 609	3.0400e-01	6.0785	4.726542	0.000509	5.087770	0.861892	0.010177
 610	3.0450e-01	6.0867	4.711575	-0.000150	-1.496403	-0.253498	-0.002993
 611	3.0500e-01	6.0962	4.751344	0.000398	3.976157	0.673579	0.007954
 612	3.0550e-01	6.1053	4.776574	0.000252	2.522508	0.427324	0.005046
 613	3.0600e-01	6.1176	4.822758	0.000462	4.617472	0.782221	0.009237
 614	3.0650e-01	6.1264	4.824041	0.000013	0.128263	0.021728	0.000257
 615	3.0700e-01	6.1365	4.855685	0.000316	3.163824	0.535966	0.006329
 616	3.0750e-01	6.1499	4.880060	0.000244	2.436999	0.412839	0.004875
 617	3.0800e-01	6.1572	4.897165	0.000171	1.710175	0.289711	0.003421
 618	3.0850e-01	6.1665	4.935651	0.000385	3.847894	0.651851	0.007697
 619	3.0900e-01	6.1755	4.950190	0.000145	1.453649	0.246255	0.002908
 620	3.0950e-01	6.1871	4.973710	0.000235	2.351490	0.398353	0.004704
 621	3.1000e-01	6.1957	4.999367	0.000257	2.565262	0.434567	0.005132
 622	3.1050e-01	6.2082	5.031867	0.000325	3.249332	0.550452	0.006500
 623	3.1100e-01	6.2177	5.046833	0.000150	1.496403	0.253498	0.002993
 624	3.1150e-01	6.2274	5.084465	0.000376	3.762385	0.637365	0.007526
 625	3.1200e-01	6.2392	5.096438	0.000120	1.197122	0.202798	0.002395
 626	3.1250e-01	6.2476	5.122951	0.000265	2.650771	0.449053	0.005303
 627	3.1300e-01	6.2579	5.163575	0.000406	4.061665	0.688065	0.008125
 628	3.1350e-01	6.2695	5.185384	0.000218	2.180473	0.369382	0.004362
 629	3.1400e-01	6.2769	5.224726	0.000393	3.933402	0.666336	0.007868
 630	3.1450e-01	6.2897	5.243541	0.000188	1.881192	0.318683	0.003763
 631	3.1500e-01	6.2997	5.262357	0.000188	1.881192	0.318683	0.003763
 632	3.1550e-01	6.3071	5.245252	-0.000171	-1.710175	-0.289711	-0.003421
 633	3.1600e-01	6.3153	5.272192	0.000269	2.693525	0.456296	0.005388
 634	3.1650e-01	6.3287	5.337619	0.000654	6.541419	1.108146	0.013085
 635	3.1700e-01	6.3379	5.359855	0.000222	2.223227	0.376625	0.004447
 636	3.1750e-01	6.3477	5.376533	0.000167	1.667421	0.282469	0.003335
 637	3.1800e-01	6.3571	5.418012	0.000415	4.147174	0.702550	0.008296
 638	3.1850e-01	6.3684	5.464623	0.000466	4.660227	0.789464	0.009322
 639	3.1900e-01	6.3763	5.461630	-0.000030	-0.299281	-0.050700	-0.000599
 640	3.1950e-01	6.3873	5.496695	0.000351	3.505859	0.593909	0.007013
 641	3.2000e-01	6.3940	5.524063	0.000274	2.736280	0.463538	0.005474
 642	3.2050e-01	6.4056	5.547583	0.000235	2.351490	0.398353	0.004704
 643	3.2100e-01	6.4163	5.551431	0.000038	0.384789	0.065185	0.000770
 644	3.2150e-01	6.4304	5.571957	0.000205	2.052210	0.347654	0.004105
 645	3.2200e-01	6.4368	5.619851	0.000479	4.788490	0.811192	0.009579
 646	3.2250e-01	6.4459	5.625410	0.000056	0.555807	0.094156	0.001112
 647	3.2300e-01	6.4575	5.665607	0.000402	4.018911	0.680822	0.008039
 648	3.2350e-01	6.4691	5.690837	0.000252	2.522508	0.427324	0.005046
 649	3.2400e-01	6.4764	5.709653	0.000188	1.881192	0.318683	0.003763
 650	3.2450e-01	6.4844	5.726330	0.000167	1.667421	0.282469	0.003335
 651	3.2500e-01	6.4966	5.745146	0.000188	1.881192	0.318683	0.003763
 652	3.2550e-01	6.5076	5.769948	0.000248	2.479754	0.420082	0.004960
 653	3.2600e-01	6.5167	5.807151	0.000372	3.719630	0.630122	0.007441
 654	3.2650e-01	6.5271	5.834947	0.000278	2.779034	0.470781	0.005559
 655	3.2700e-01	6.5375	5.850341	0.000154	1.539157	0.260740	0.003079
 656	3.2750e-01	6.5485	5.887545	0.000372	3.719630	0.630122	0.007441
 657	3.2800e-01	6.5570	5.908926	0.000214	2.137719	0.362139	0.004276
 658	3.2850e-01	6.5662	5.932445	0.000235	2.351490	0.398353	0.004704
 659	3.2900e-01	6.5771	5.976918	0.000445	4.446455	0.753250	0.008895
 660	3.2950e-01	6.5857	5.992741	0.000158	1.581912	0.267983	0.003164
 661	3.3000e-01	6.5970	5.995734	0.000030	0.299281	0.050700	0.000599
 662	3.3050e-01	6.6077	6.037641	0.000419	4.189929	0.709793	0.008381
 663	3.3100e-01	6.6180	6.065865	0.000282	2.821789	0.478024	0.005645
 664	3.3150e-01	6.6286	6.091950	0.000261	2.608017	0.441810	0.005217
 665	3.3200e-01	6.6388	6.098364	0.000064	0.641316	0.108642	0.001283
 666	3.3250e-01	6.6443	6.149251	0.000509	5.087770	0.861892	0.010177
 667	3.3300e-01	6.6571	6.151817	0.000026	0.256526	0.043457	0.000513
 668	3.3350e-01	6.6669	6.185172	0.000333	3.334841	0.564937	0.006671
 669	3.3400e-01	6.6779	6.206981	0.000218	2.180473	0.369382	0.004362
 670	3.3450e-01	6.6870	6.232638	0.000257	2.565262	0.434567	0.005132
 671	3.3500e-01	6.6974	6.255303	0.000227	2.265982	0.383868	0.004533
 672	3.3550e-01	6.7078	6.280960	0.000257	2.565262	0.434567	0.005132
 673	3.3600e-01	6.7172	6.323723	0.000428	4.275437	0.724279	0.008553
 674	3.3650e-01	6.7291	6.320729	-0.000030	-0.299281	-0.050700	-0.000599
 675	3.3700e-01	6.7365	6.360071	0.000393	3.933402	0.666336	0.007868
 676	3.3750e-01	6.7480	6.366913	0.000068	0.684070	0.115885	0.001368
 677	3.3800e-01	6.7578	6.402833	0.000359	3.591367	0.608394	0.007184
 678	3.3850e-01	6.7676	6.424642	0.000218	2.180473	0.369382	0.004362
 679	3.3900e-01	6.7773	6.442602	0.000180	1.795684	0.304197	0.003592
 680	3.3950e-01	6.7892	6.483654	0.000410	4.104420	0.695308	0.008210
 681	3.4000e-01	6.7981	6.523424	0.000398	3.976157	0.673579	0.007954
 682	3.4050e-01	6.8091	6.532404	0.000090	0.897842	0.152099	0.001796
 683	3.4100e-01	6.8173	6.534114	0.000017	0.171017	0.028971	0.000342
 684	3.4150e-01	6.8271	6.569179	0.000351	3.505859	0.593909	0.007013
 685	3.4200e-01	6.8375	6.602107	0.000329	3.292087	0.557695	0.006585
 686	3.4250e-01	6.8460	6.640165	0.000381	3.805139	0.644608	0.007612
 687	3.4300e-01	6.8585	6.662829	0.000227	2.265982	0.383868	0.004533
 688	3.4350e-01	6.8677	6.674375	0.000115	1.154368	0.195555	0.002309
 689	3.4400e-01	6.8774	6.677796	0.000034	0.342035	0.057942	0.000684
 690	3.4450e-01	6.8884	6.729539	0.000517	5.173279	0.876377	0.010349
 691	3.4500e-01	6.8973	6.756052	0.000265	2.650771	0.449053	0.005303
 692	3.4550e-01	6.9070	6.768880	0.000128	1.282631	0.217284	0.002566
 693	3.4600e-01	6.9171	6.791117	0.000222	2.223227	0.376625	0.004447
 694	3.4650e-01	6.9283	6.823189	0.000321	3.206578	0.543209	0.006414
 695	3.4700e-01	6.9373	6.839439	0.000162	1.624666	0.275226	0.003250
 696	3.4750e-01	6.9476	6.872366	0.000329	3.292087	0.557695	0.006585
 697	3.4800e-01	6.9568	6.903155	0.000308	3.078315	0.521481	0.006158
 698	3.4850e-01	6.9672	6.931806	0.000286	2.864543	0.485267	0.005730
 699	3.4900e-01	6.9775	6.955753	0.000239	2.394245	0.405596	0.004789
 700	3.4950e-01	6.9879	6.965160	0.000094	0.940596	0.159341	0.001882
 701	3.5000e-01	6.9965	6.988680	0.000235	2.351490	0.398353	0.004704
 702	3.5050e-01	7.0050	7.019469	0.000308	3.078315	0.521481	0.006158
 703	3.5100e-01	7.0163	7.038712	0.000192	1.923947	0.325925	0.003849
 704	3.5150e-01	7.0258	7.073350	0.000346	3.463104	0.586666	0.006928
 705	3.5200e-01	7.0386	7.093448	0.000201	2.009456	0.340411	0.004020
 706	3.5250e-01	7.0465	7.121244	0.000278	2.779034	0.470781	0.005559
 707	3.5300e-01	7.0572	7.143908	0.000227	2.265982	0.383868	0.004533
 708	3.5350e-01	7.0674	7.162723	0.000188	1.881192	0.318683	0.003763
 709	3.5400e-01	7.0764	7.186670	0.000239	2.394245	0.405596	0.004789
 710	3.5450e-01	7.0868	7.227722	0.000410	4.104420	0.695308	0.008210
 711	3.5500e-01	7.0978	7.245683	0.000180	1.795684	0.304197	0.003592
 712	3.5550e-01	7.1069	7.261077	0.000154	1.539157	0.260740	0.003079
 713	3.5600e-01	7.1194	7.292721	0.000316	3.163824	0.535966	0.006329
 714	3.5650e-01	7.1259	7.333346	0.000406	4.061665	0.688065	0.008125
 715	3.5700e-01	7.1375	7.345747	0.000124	1.239877	0.210041	0.002480
 716	3.5750e-01	7.1478	7.366273	0.000205	2.052210	0.347654	0.004105
 717	3.5800e-01	7.1564	7.403049	0.000368	3.676876	0.622880	0.007355
 718	3.5850e-01	7.1671	7.401766	-0.000013	-0.128263	-0.021728	-0.000257
 719	3.5900e-01	7.1756	7.434265	0.000325	3.249332	0.550452	0.006500
 720	3.5950e-01	7.1875	7.451798	0.000175	1.752929	0.296954	0.003507
 721	3.6000e-01	7.1979	7.484298	0.000325	3.249332	0.550452	0.006500
 722	3.6050e-01	7.2079	7.491140	0.000068	0.684070	0.115885	0.001368
 723	3.6100e-01	7.2192	7.523639	0.000325	3.249332	0.550452	0.006500
 724	3.6150e-01	7.2260	7.530481	0.000068	0.684070	0.115885	0.001368
 725	3.6200e-01	7.2379	7.580086	0.000496	4.959507	0.840163	0.009921
 726	3.6250e-01	7.2455	7.624986	0.000449	4.489209	0.760493	0.008980
 727	3.6300e-01	7.2577	7.624131	-0.000009	-0.085509	-0.014486	-0.000171
 728	3.6350e-01	7.2687	7.645512	0.000214	2.137719	0.362139	0.004276
 729	3.6400e-01	7.2787	7.667321	0.000218	2.180473	0.369382	0.004362
 730	3.6450e-01	7.2870	7.709656	0.000423	4.232683	0.717036	0.008467
 731	3.6500e-01	7.2968	7.708801	-0.000009	-0.085509	-0.014486	-0.000171
 732	3.6550e-01	7.3093	7.751136	0.000423	4.232683	0.717036	0.008467
 733	3.6600e-01	7.3187	7.781497	0.000304	3.035560	0.514238	0.006072
 734	3.6650e-01	7.3267	7.813997	0.000325	3.249332	0.550452	0.006500
 735	3.6700e-01	7.3376	7.823832	0.000098	0.983351	0.166584	0.001967
 736	3.6750e-01	7.3471	7.838799	0.000150	1.496403	0.253498	0.002993
 737	3.6800e-01	7.3563	7.874719	0.000359	3.591367	0.608394	0.007184
 738	3.6850e-01	7.3669	7.888831	0.000141	1.410894	0.239012	0.002822
 739	3.6900e-01	7.3799	7.910212	0.000214	2.137719	0.362139	0.004276
 740	3.6950e-01	7.3865	7.934159	0.000239	2.394245	0.405596	0.004789
 741	3.7000e-01	7.3981	7.956823	0.000227	2.265982	0.383868	0.004533
 742	3.7050e-01	7.4072	7.987613	0.000308	3.078315	0.521481	0.006158
 743	3.7100e-01	7.4164	8.000014	0.000124	1.239877	0.210041	0.002480
 744	3.7150e-01	7.4316	8.038928	0.000389	3.890648	0.659094	0.007783
 745	3.7200e-01	7.4356	8.056888	0.000180	1.795684	0.304197	0.003592
 746	3.7250e-01	7.4472	8.087249	0.000304	3.035560	0.514238	0.006072
 747	3.7300e-01	7.4573	8.100506	0.000133	1.325386	0.224526	0.002651
 748	3.7350e-01	7.4658	8.157807	0.000573	5.729086	0.970533	0.011460
 749	3.7400e-01	7.4774	8.151821	-0.000060	-0.598561	-0.101399	-0.001197
 750	3.7450e-01	7.4893	8.192017	0.000402	4.018911	0.680822	0.008039
 751	3.7500e-01	7.4988	8.200570	0.000086	0.855087	0.144856	0.001711
 752	3.7550e-01	7.5079	8.237773	0.000372	3.719630	0.630122	0.007441
 753	3.7600e-01	7.5177	8.248464	0.000107	1.068859	0.181070	0.002138
 754	3.7650e-01	7.5282	8.273694	0.000252	2.522508	0.427324	0.005046
 755	3.7700e-01	7.5366	8.295075	0.000214	2.137719	0.362139	0.004276
 756	3.7750e-01	7.5479	8.342114	0.000470	4.702981	0.796707	0.009408
 757	3.7800e-01	7.5568	8.357936	0.000158	1.581912	0.267983	0.003164
 758	3.7850e-01	7.5696	8.329285	-0.000286	-2.864543	-0.485267	-0.005730
 759	3.7900e-01	7.5818	8.390863	0.000616	6.156630	1.042961	0.012316
 760	3.7950e-01	7.5891	8.427211	0.000363	3.634122	0.615637	0.007270
 761	3.8000e-01	7.5958	8.458000	0.000308	3.078315	0.521481	0.006158
 762	3.8050e-01	7.6062	8.452014	-0.000060	-0.598561	-0.101399	-0.001197
 763	3.8100e-01	7.6166	8.485796	0.000338	3.377595	0.572180	0.006756
 764	3.8150e-01	7.6251	8.515730	0.000299	2.992806	0.506995	0.005987
 765	3.8200e-01	7.6367	8.538394	0.000227	2.265982	0.383868	0.004533
 766	3.8250e-01	7.6456	8.539249	0.000009	0.085509	0.014486	0.000171
 767	3.8300e-01	7.6550	8.569183	0.000299	2.992806	0.506995	0.005987
 768	3.8350e-01	7.6660	8.615366	0.000462	4.617472	0.782221	0.009237
 769	3.8400e-01	7.6776	8.635465	0.000201	2.009456	0.340411	0.004020
 770	3.8450e-01	7.6868	8.645728	0.000103	1.026105	0.173827	0.002053
 771	3.8500e-01	7.6978	8.675662	0.000299	2.992806	0.506995	0.005987
 772	3.8550e-01	7.7075	8.713293	0.000376	3.762385	0.637365	0.007526
 773	3.8600e-01	7.7158	8.718852	0.000056	0.555807	0.094156	0.001112
 774	3.8650e-01	7.7246	8.750496	0.000316	3.163824	0.535966	0.006329
 775	3.8700e-01	7.7359	8.777436	0.000269	2.693525	0.456296	0.005388
 776	3.8750e-01	7.7463	8.801383	0.000239	2.394245	0.405596	0.004789
 777	3.8800e-01	7.7563	8.809081	0.000077	0.769579	0.130370	0.001539
 778	3.8850e-01	7.7679	8.849705	0.000406	4.061665	0.688065	0.008125
 779	3.8900e-01	7.7783	8.859113	0.000094	0.940596	0.159341	0.001882
 780	3.8950e-01	7.7869	8.905296	0.000462	4.617472	0.782221	0.009237
 781	3.9000e-01	7.7954	8.921546	0.000162	1.624666	0.275226	0.003250
 782	3.9050e-01	7.8046	8.951907	0.000304	3.035560	0.514238	0.006072
 783	3.9100e-01	7.8180	8.968157	0.000162	1.624666	0.275226	0.003250
 784	3.9150e-01	7.8278	8.987828	0.000197	1.966701	0.333168	0.003934
 785	3.9200e-01	7.8366	9.001940	0.000141	1.410894	0.239012	0.002822
 786	3.9250e-01	7.8448	9.026742	0.000248	2.479754	0.420082	0.004960
 787	3.9300e-01	7.8574	9.072925	0.000462	4.617472	0.782221	0.009237
 788	3.9350e-01	7.8668	9.087892	0.000150	1.496403	0.253498	0.002993
 789	3.9400e-01	7.8748	9.086182	-0.000017	-0.171017	-0.028971	-0.000342
 790	3.9450e-01	7.8876	9.116543	0.000304	3.035560	0.514238	0.006072
 791	3.9500e-01	7.8979	9.150326	0.000338	3.377595	0.572180	0.006756
 792	3.9550e-01	7.9062	9.196082	0.000457	4.574718	0.774978	0.009151
 793	3.9600e-01	7.9169	9.211476	0.000154	1.539157	0.260740	0.003079
 794	3.9650e-01	7.9272	9.223450	0.000120	1.197122	0.202798	0.002395
 795	3.9700e-01	7.9364	9.237989	0.000145	1.453649	0.246255	0.002908
 796	3.9750e-01	7.9453	9.279896	0.000419	4.189929	0.709793	0.008381
 797	3.9800e-01	7.9614	9.300850	0.000209	2.094964	0.354897	0.004191
 798	3.9850e-01	7.9663	9.317955	0.000171	1.710175	0.289711	0.003421
 799	3.9900e-01	7.9810	9.328218	0.000103	1.026105	0.173827	0.002053
 800	3.9950e-01	7.9865	9.368842	0.000406	4.061665	0.688065	0.008125
 801	4.0000e-01	7.9950	9.383809	0.000150	1.496403	0.253498	0.002993
 802	4.0050e-01	8.0078	9.396638	0.000128	1.282631	0.217284	0.002566
 803	4.0100e-01	8.0164	9.429565	0.000329	3.292087	0.557695	0.006585
 804	4.0150e-01	8.0273	9.463347	0.000338	3.377595	0.572180	0.006756
 805	4.0200e-01	8.0389	9.473610	0.000103	1.026105	0.173827	0.002053
 806	4.0250e-01	8.0463	9.512097	0.000385	3.847894	0.651851	0.007697
 807	4.0300e-01	8.0579	9.531340	0.000192	1.923947	0.325925	0.003849
 808	4.0350e-01	8.0682	9.543741	0.000124	1.239877	0.210041	0.002480
 809	4.0400e-01	8.0780	9.583510	0.000398	3.976157	0.673579	0.007954
 810	4.0450e-01	8.0884	9.585221	0.000017	0.171017	0.028971	0.000342
 811	4.0500e-01	8.0957	9.631404	0.000462	4.617472	0.782221	0.009237
 812	4.0550e-01	8.1067	9.643378	0.000120	1.197122	0.202798	0.002395
 813	4.0600e-01	8.1177	9.670318	0.000269	2.693525	0.456296	0.005388
 814	4.0650e-01	8.1305	9.708377	0.000381	3.805139	0.644608	0.007612
 815	4.0700e-01	8.1372	9.726764	0.000184	1.838438	0.311440	0.003678
 816	4.0750e-01	8.1448	9.735745	0.000090	0.897842	0.152099	0.001796
 817	4.0800e-01	8.1567	9.758836	0.000231	2.308736	0.391110	0.004618
 818	4.0850e-01	8.1677	9.785349	0.000265	2.650771	0.449053	0.005303
 819	4.0900e-01	8.1781	9.809296	0.000239	2.394245	0.405596	0.004789
 820	4.0950e-01	8.1860	9.830677	0.000214	2.137719	0.362139	0.004276
 821	4.1000e-01	8.1970	9.848210	0.000175	1.752929	0.296954	0.003507
 822	4.1050e-01	8.2068	9.890545	0.000423	4.232683	0.717036	0.008467
 823	4.1100e-01	8.2172	9.899097	0.000086	0.855087	0.144856	0.001711
 824	4.1150e-01	8.2269	9.928176	0.000291	2.907297	0.492510	0.005816
 825	4.1200e-01	8.2422	9.956399	0.000282	2.821789	0.478024	0.005645
 826	4.1250e-01	8.2468	9.969656	0.000133	1.325386	0.224526	0.002651
 827	4.1300e-01	8.2539	9.991892	0.000222	2.223227	0.376625	0.004447
 828	4.1350e-01	8.2642	10.019260	0.000274	2.736280	0.463538	0.005474
 829	4.1400e-01	8.2764	10.044490	0.000252	2.522508	0.427324	0.005046
 830	4.1450e-01	8.2867	10.085970	0.000415	4.147174	0.702550	0.008296
 831	4.1500e-01	8.2971	10.098798	0.000128	1.282631	0.217284	0.002566
 832	4.1550e-01	8.3063	10.109489	0.000107	1.068859	0.181070	0.002138
 833	4.1600e-01	8.3167	10.128305	0.000188	1.881192	0.318683	0.003763
 834	4.1650e-01	8.3261	10.160804	0.000325	3.249332	0.550452	0.006500
 835	4.1700e-01	8.3392	10.168501	0.000077	0.769579	0.130370	0.001539
 836	4.1750e-01	8.3447	10.201001	0.000325	3.249332	0.550452	0.006500
 837	4.1800e-01	8.3539	10.231362	0.000304	3.035560	0.514238	0.006072
 838	4.1850e-01	8.3679	10.250605	0.000192	1.923947	0.325925	0.003849
 839	4.1900e-01	8.3777	10.273697	0.000231	2.308736	0.391110	0.004618
 840	4.1950e-01	8.3887	10.298499	0.000248	2.479754	0.420082	0.004960
 841	4.2000e-01	8.3954	10.326723	0.000282	2.821789	0.478024	0.005645
 842	4.2050e-01	8.4082	10.340834	0.000141	1.410894	0.239012	0.002822
 843	4.2100e-01	8.4180	10.360505	0.000197	1.966701	0.333168	0.003934
 844	4.2150e-01	8.4268	10.398564	0.000381	3.805139	0.644608	0.007612
 845	4.2200e-01	8.4366	10.393860	-0.000047	-0.470298	-0.079671	-0.000941
 846	4.2250e-01	8.4460	10.427642	0.000338	3.377595	0.572180	0.006756
 847	4.2300e-01	8.4601	10.454583	0.000269	2.693525	0.456296	0.005388
 848	4.2350e-01	8.4674	10.478530	0.000239	2.394245	0.405596	0.004789
 849	4.2400e-01	8.4784	10.495207	0.000167	1.667421	0.282469	0.003335
 850	4.2450e-01	8.4882	10.544384	0.000492	4.916753	0.832920	0.009835
 851	4.2500e-01	8.4961	10.566193	0.000218	2.180473	0.369382	0.004362
 852	4.2550e-01	8.5056	10.568331	0.000021	0.213772	0.036214	0.000428
 853	4.2600e-01	8.5175	10.588429	0.000201	2.009456	0.340411	0.004020
 854	4.2650e-01	8.5272	10.639744	0.000513	5.130525	0.869134	0.010263
 855	4.2700e-01	8.5382	10.638034	-0.000017	-0.171017	-0.028971	-0.000342
 856	4.2750e-01	8.5474	10.684217	0.000462	4.617472	0.782221	0.009237
 857	4.2800e-01	8.5577	10.700040	0.000158	1.581912	0.267983	0.003164
 858	4.2850e-01	8.5684	10.721849	0.000218	2.180473	0.369382	0.004362
 859	4.2900e-01	8.5800	10.720566	-0.000013	-0.128263	-0.021728	-0.000257
 860	4.2950e-01	8.5834	10.771025	0.000505	5.045016	0.854649	0.010092
 861	4.3000e-01	8.5974	10.775302	0.000043	0.427544	0.072428	0.000855
 862	4.3050e-01	8.6072	10.784709	0.000094	0.940596	0.159341	0.001882
 863	4.3100e-01	8.6182	10.827900	0.000432	4.318192	0.731521	0.008638
 864	4.3150e-01	8.6267	10.838590	0.000107	1.068859	0.181070	0.002138
 865	4.3200e-01	8.6383	10.854840	0.000162	1.624666	0.275226	0.003250
 866	4.3250e-01	8.6487	10.905727	0.000509	5.087770	0.861892	0.010177
 867	4.3300e-01	8.6597	10.902734	-0.000030	-0.299281	-0.050700	-0.000599
 868	4.3350e-01	8.6682	10.930530	0.000278	2.779034	0.470781	0.005559
 869	4.3400e-01	8.6775	10.970726	0.000402	4.018911	0.680822	0.008039
 870	4.3450e-01	8.6865	10.998522	0.000278	2.779034	0.470781	0.005559
 871	4.3500e-01	8.6975	11.014344	0.000158	1.581912	0.267983	0.003164
 872	4.3550e-01	8.7054	11.044706	0.000304	3.035560	0.514238	0.006072
 873	4.3600e-01	8.7149	11.057962	0.000133	1.325386	0.224526	0.002651
 874	4.3650e-01	8.7265	11.090034	0.000321	3.206578	0.543209	0.006414
 875	4.3700e-01	8.7387	11.117402	0.000274	2.736280	0.463538	0.005474
 876	4.3750e-01	8.7469	11.114836	-0.000026	-0.256526	-0.043457	-0.000513
 877	4.3800e-01	8.7585	11.158026	0.000432	4.318192	0.731521	0.008638
 878	4.3850e-01	8.7677	11.183256	0.000252	2.522508	0.427324	0.005046
 879	4.3900e-01	8.7784	11.217039	0.000338	3.377595	0.572180	0.006756
 880	4.3950e-01	8.7891	11.220460	0.000034	0.342035	0.057942	0.000684
 881	4.4000e-01	8.7979	11.251249	0.000308	3.078315	0.521481	0.006158
 882	4.4050e-01	8.8092	11.255525	0.000043	0.427544	0.072428	0.000855
 883	4.4100e-01	8.8177	11.259801	0.000043	0.427544	0.072428	0.000855
 884	4.4150e-01	8.8269	11.313254	0.000534	5.344297	0.905348	0.010691
 885	4.4200e-01	8.8367	11.349175	0.000359	3.591367	0.608394	0.007184
 886	4.4250e-01	8.8464	11.361148	0.000120	1.197122	0.202798	0.002395
 887	4.4300e-01	8.8562	11.370556	0.000094	0.940596	0.159341	0.001882
 888	4.4350e-01	8.8654	11.390654	0.000201	2.009456	0.340411	0.004020
 889	4.4400e-01	8.8770	11.433417	0.000428	4.275437	0.724279	0.008553
 890	4.4450e-01	8.8864	11.442397	0.000090	0.897842	0.152099	0.001796
 891	4.4500e-01	8.8971	11.461640	0.000192	1.923947	0.325925	0.003849
 892	4.4550e-01	8.9093	11.490291	0.000286	2.864543	0.485267	0.005730
 893	4.4600e-01	8.9178	11.506113	0.000158	1.581912	0.267983	0.003164
 894	4.4650e-01	8.9265	11.540751	0.000346	3.463104	0.586666	0.006928
 895	4.4700e-01	8.9392	11.558711	0.000180	1.795684	0.304197	0.003592
 896	4.4750e-01	8.9484	11.569402	0.000107	1.068859	0.181070	0.002138
 897	4.4800e-01	8.9575	11.601474	0.000321	3.206578	0.543209	0.006414
 898	4.4850e-01	8.9648	11.622427	0.000209	2.094964	0.354897	0.004191
 899	4.4900e-01	8.9749	11.634401	0.000120	1.197122	0.202798	0.002395
 900	4.4950e-01	8.9874	11.663479	0.000291	2.907297	0.492510	0.005816
 901	4.5000e-01	8.9941	11.707952	0.000445	4.446455	0.753250	0.008895
 902	4.5050e-01	9.0082	11.700683	-0.000073	-0.726824	-0.123127	-0.001454
 903	4.5100e-01	9.0204	11.743018	0.000423	4.232683	0.717036	0.008467
 904	4.5150e-01	9.0253	11.766537	0.000235	2.351490	0.398353	0.004704
 905	4.5200e-01	9.0366	11.796471	0.000299	2.992806	0.506995	0.005987
 906	4.5250e-01	9.0472	11.800747	0.000043	0.427544	0.072428	0.000855
 907	4.5300e-01	9.0572	11.823839	0.000231	2.308736	0.391110	0.004618
 908	4.5350e-01	9.0634	11.856338	0.000325	3.249332	0.550452	0.006500
 909	4.5400e-01	9.0753	11.892259	0.000359	3.591367	0.608394	0.007184
 910	4.5450e-01	9.0851	11.902522	0.000103	1.026105	0.173827	0.002053
 911	4.5500e-01	9.0955	11.924758	0.000222	2.223227	0.376625	0.004447
 912	4.5550e-01	9.1064	11.946140	0.000214	2.137719	0.362139	0.004276
 913	4.5600e-01	9.1174	11.970087	0.000239	2.394245	0.405596	0.004789
 914	4.5650e-01	9.1315	12.009001	0.000389	3.890648	0.659094	0.007783
 915	4.5700e-01	9.1376	12.015843	0.000068	0.684070	0.115885	0.001368
 916	4.5750e-01	9.1486	12.037224	0.000214	2.137719	0.362139	0.004276
 917	4.5800e-01	9.1544	12.058605	0.000214	2.137719	0.362139	0.004276
 918	4.5850e-01	9.1675	12.087256	0.000286	2.864543	0.485267	0.005730
 919	4.5900e-01	9.1785	12.106499	0.000192	1.923947	0.325925	0.003849
 920	4.5950e-01	9.1882	12.118045	0.000115	1.154368	0.195555	0.002309
 921	4.6000e-01	9.1959	12.142847	0.000248	2.479754	0.420082	0.004960
 922	4.6050e-01	9.2078	12.177057	0.000342	3.420350	0.579423	0.006842
 923	4.6100e-01	9.2169	12.204425	0.000274	2.736280	0.463538	0.005474
 924	4.6150e-01	9.2261	12.214688	0.000103	1.026105	0.173827	0.002053
 925	4.6200e-01	9.2371	12.235642	0.000209	2.094964	0.354897	0.004191
 926	4.6250e-01	9.2450	12.274984	0.000393	3.933402	0.666336	0.007868
 927	4.6300e-01	9.2569	12.296365	0.000214	2.137719	0.362139	0.004276
 928	4.6350e-01	9.2651	12.316891	0.000205	2.052210	0.347654	0.004105
 929	4.6400e-01	9.2767	12.341265	0.000244	2.436999	0.412839	0.004875
 930	4.6450e-01	9.2865	12.352384	0.000111	1.111614	0.188312	0.002224
 931	4.6500e-01	9.2944	12.393863	0.000415	4.147174	0.702550	0.008296
 932	4.6550e-01	9.3079	12.403271	0.000094	0.940596	0.159341	0.001882
 933	4.6600e-01	9.3167	12.414389	0.000111	1.111614	0.188312	0.002224
 934	4.6650e-01	9.3298	12.446034	0.000316	3.163824	0.535966	0.006329
 935	4.6700e-01	9.3390	12.470836	0.000248	2.479754	0.420082	0.004960
 936	4.6750e-01	9.3463	12.493072	0.000222	2.223227	0.376625	0.004447
 937	4.6800e-01	9.3585	12.524717	0.000316	3.163824	0.535966	0.006329
 938	4.6850e-01	9.3683	12.543960	0.000192	1.923947	0.325925	0.003849
 939	4.6900e-01	9.3768	12.559782	0.000158	1.581912	0.267983	0.003164
 940	4.6950e-01	9.3884	12.588005	0.000282	2.821789	0.478024	0.005645
 941	4.7000e-01	9.3994	12.596130	0.000081	0.812333	0.137613	0.001625
 942	4.7050e-01	9.4073	12.620932	0.000248	2.479754	0.420082	0.004960
 943	4.7100e-01	9.4159	12.661129	0.000402	4.018911	0.680822	0.008039
 944	4.7150e-01	9.4281	12.679945	0.000188	1.881192	0.318683	0.003763
 945	4.7200e-01	9.4366	12.685504	0.000056	0.555807	0.094156	0.001112
 946	4.7250e-01	9.4485	12.723562	0.000381	3.805139	0.644608	0.007612
 947	4.7300e-01	9.4580	12.744516	0.000209	2.094964	0.354897	0.004191
 948	4.7350e-01	9.4666	12.745371	0.000009	0.085509	0.014486	0.000171
 949	4.7400e-01	9.4775	12.784713	0.000393	3.933402	0.666336	0.007868
 950	4.7450e-01	9.4867	12.804384	0.000197	1.966701	0.333168	0.003934
 951	4.7500e-01	9.4965	12.834317	0.000299	2.992806	0.506995	0.005987
 952	4.7550e-01	9.5074	12.836883	0.000026	0.256526	0.043457	0.000513
 953	4.7600e-01	9.5184	12.883067	0.000462	4.617472	0.782221	0.009237
 954	4.7650e-01	9.5276	12.896751	0.000137	1.368140	0.231769	0.002737
 955	4.7700e-01	9.5367	12.924974	0.000282	2.821789	0.478024	0.005645
 956	4.7750e-01	9.5483	12.942934	0.000180	1.795684	0.304197	0.003592
 957	4.7800e-01	9.5602	12.973723	0.000308	3.078315	0.521481	0.006158
 958	4.7850e-01	9.5667	12.994249	0.000205	2.052210	0.347654	0.004105
 959	4.7900e-01	9.5752	12.992966	-0.000013	-0.128263	-0.021728	-0.000257
 960	4.7950e-01	9.5844	13.037867	0.000449	4.489209	0.760493	0.008980
 961	4.8000e-01	9.5972	13.054117	0.000162	1.624666	0.275226	0.003250
 962	4.8050e-01	9.6042	13.093031	0.000389	3.890648	0.659094	0.007783
 963	4.8100e-01	9.6173	13.102438	0.000094	0.940596	0.159341	0.001882
 964	4.8150e-01	9.6277	13.121682	0.000192	1.923947	0.325925	0.003849
 965	4.8200e-01	9.6356	13.144346	0.000227	2.265982	0.383868	0.004533
 966	4.8250e-01	9.6454	13.162306	0.000180	1.795684	0.304197	0.003592
 967	4.8300e-01	9.6558	13.205496	0.000432	4.318192	0.731521	0.008638
 968	4.8350e-01	9.6649	13.225594	0.000201	2.009456	0.340411	0.004020
 969	4.8400e-01	9.6765	13.238851	0.000133	1.325386	0.224526	0.002651
 970	4.8450e-01	9.6844	13.247403	0.000086	0.855087	0.144856	0.001711
 971	4.8500e-01	9.6973	13.285034	0.000376	3.762385	0.637365	0.007526
 972	4.8550e-01	9.7061	13.302995	0.000180	1.795684	0.304197	0.003592
 973	4.8600e-01	9.7186	13.336777	0.000338	3.377595	0.572180	0.006756
 974	4.8650e-01	9.7278	13.369277	0.000325	3.249332	0.550452	0.006500
 975	4.8700e-01	9.7369	13.365856	-0.000034	-0.342035	-0.057942	-0.000684
 976	4.8750e-01	9.7437	13.397927	0.000321	3.206578	0.543209	0.006414
 977	4.8800e-01	9.7559	13.427861	0.000299	2.992806	0.506995	0.005987
 978	4.8850e-01	9.7668	13.447104	0.000192	1.923947	0.325925	0.003849
 979	4.8900e-01	9.7778	13.471051	0.000239	2.394245	0.405596	0.004789
 980	4.8950e-01	9.7876	13.500130	0.000291	2.907297	0.492510	0.005816
 981	4.9000e-01	9.7949	13.522366	0.000222	2.223227	0.376625	0.004447
 982	4.9050e-01	9.8065	13.559570	0.000372	3.719630	0.630122	0.007441
 983	4.9100e-01	9.8157	13.556576	-0.000030	-0.299281	-0.050700	-0.000599
 984	4.9150e-01	9.8267	13.589931	0.000333	3.334841	0.564937	0.006671
 985	4.9200e-01	9.8346	13.614306	0.000244	2.436999	0.412839	0.004875
 986	4.9250e-01	9.8471	13.630128	0.000158	1.581912	0.267983	0.003164
 987	4.9300e-01	9.8579	13.657496	0.000274	2.736280	0.463538	0.005474
 988	4.9350e-01	9.8688	13.681443	0.000239	2.394245	0.405596	0.004789
 989	4.9400e-01	9.8798	13.695982	0.000145	1.453649	0.246255	0.002908
 990	4.9450e-01	9.8846	13.719502	0.000235	2.351490	0.398353	0.004704
 991	4.9500e-01	9.8965	13.739600	0.000201	2.009456	0.340411	0.004020
 992	4.9550e-01	9.9054	13.751574	0.000120	1.197122	0.202798	0.002395
 993	4.9600e-01	9.9176	13.775093	0.000235	2.351490	0.398353	0.004704
 994	4.9650e-01	9.9255	13.811013	0.000359	3.591367	0.608394	0.007184
 995	4.9700e-01	9.9408	13.805882	-0.000051	-0.513052	-0.086913	-0.001026
 996	4.9750e-01	9.9471	13.837526	0.000316	3.163824	0.535966	0.006329
 997	4.9800e-01	9.9567	13.881999	0.000445	4.446455	0.753250	0.008895
 998	4.9850e-01	9.9677	13.894400	0.000124	1.239877	0.210041	0.002480
 999	4.9900e-01	9.9786	13.912361	0.000180	1.795684	0.304197	0.003592
1000	4.9950e-01	9.9866	13.943577	0.000312	3.121069	0.528723	0.006243
1001	5.0000e-01	9.9963	13.961965	0.000184	1.838438	0.311440	0.003678
1002	5.0050e-01	9.9841	13.933314	0.000286	2.864543	0.485267	-0.005730
1003	5.0100e-01	9.9750	13.914071	0.000192	1.923947	0.325925	-0.003849
1004	5.0150e-01	9.9658	13.884565	0.000295	2.950052	0.499752	-0.005901
1005	5.0200e-01	9.9561	13.865750	0.000188	1.881192	0.318683	-0.003763
1006	5.0250e-01	9.9451	13.864467	0.000013	0.128263	0.021728	-0.000257
1007	5.0300e-01	9.9341	13.841803	0.000227	2.265982	0.383868	-0.004533
1008	5.0350e-01	9.9261	13.823415	0.000184	1.838438	0.311440	-0.003678
1009	5.0400e-01	9.9139	13.805027	0.000184	1.838438	0.311440	-0.003678
1010	5.0450e-01	9.9066	13.800323	0.000047	0.470298	0.079671	-0.000941
1011	5.0500e-01	9.8975	13.770389	0.000299	2.992806	0.506995	-0.005987
1012	5.0550e-01	9.8865	13.750291	0.000201	2.009456	0.340411	-0.004020
1013	5.0600e-01	9.8767	13.725488	0.000248	2.479754	0.420082	-0.004960
1014	5.0650e-01	9.8682	13.708383	0.000171	1.710175	0.289711	-0.003421
1015	5.0700e-01	9.8560	13.682298	0.000261	2.608017	0.441810	-0.005217
1016	5.0750e-01	9.8444	13.673746	0.000086	0.855087	0.144856	-0.001711
1017	5.0800e-01	9.8364	13.646378	0.000274	2.736280	0.463538	-0.005474
1018	5.0850e-01	9.8260	13.638681	0.000077	0.769579	0.130370	-0.001539
1019	5.0900e-01	9.8187	13.622003	0.000167	1.667421	0.282469	-0.003335
1020	5.0950e-01	9.8035	13.595918	0.000261	2.608017	0.441810	-0.005217
1021	5.1000e-01	9.7937	13.561280	0.000346	3.463104	0.586666	-0.006928
1022	5.1050e-01	9.7864	13.553155	0.000081	0.812333	0.137613	-0.001625
1023	5.1100e-01	9.7748	13.550162	0.000030	0.299281	0.050700	-0.000599
1024	5.1150e-01	9.7656	13.531774	0.000184	1.838438	0.311440	-0.003678
1025	5.1200e-01	9.7540	13.509965	0.000218	2.180473	0.369382	-0.004362
1026	5.1250e-01	9.7467	13.479176	0.000308	3.078315	0.521481	-0.006158
1027	5.1300e-01	9.7345	13.459506	0.000197	1.966701	0.333168	-0.003934
1028	5.1350e-01	9.7247	13.454374	0.000051	0.513052	0.086913	-0.001026
1029	5.1400e-01	9.7156	13.439835	0.000145	1.453649	0.246255	-0.002908
1030	5.1450e-01	9.7049	13.405625	0.000342	3.420350	0.579423	-0.006842
1031	5.1500e-01	9.6942	13.396217	0.000094	0.940596	0.159341	-0.001882
1032	5.1550e-01	9.6851	13.362435	0.000338	3.377595	0.572180	-0.006756
1033	5.1600e-01	9.6759	13.373125	-0.000107	-1.068859	-0.181070	0.002138
1034	5.1650e-01	9.6652	13.316679	0.000564	5.643577	0.956048	-0.011289
1035	5.1700e-01	9.6552	13.309837	0.000068	0.684070	0.115885	-0.001368
1036	5.1750e-01	9.6466	13.288028	0.000218	2.180473	0.369382	-0.004362
1037	5.1800e-01	9.6399	13.267502	0.000205	2.052210	0.347654	-0.004105
1038	5.1850e-01	9.6265	13.242700	0.000248	2.479754	0.420082	-0.004960
1039	5.1900e-01	9.6179	13.219608	0.000231	2.308736	0.391110	-0.004618
1040	5.1950e-01	9.6033	13.223456	-0.000038	-0.384789	-0.065185	0.000770
1041	5.2000e-01	9.5978	13.196944	0.000265	2.650771	0.449053	-0.005303
1042	5.2050e-01	9.5856	13.167865	0.000291	2.907297	0.492510	-0.005816
1043	5.2100e-01	9.5740	13.160595	0.000073	0.726824	0.123127	-0.001454
1044	5.2150e-01	9.5670	13.130662	0.000299	2.992806	0.506995	-0.005987
1045	5.2200e-01	9.5563	13.125958	0.000047	0.470298	0.079671	-0.000941
1046	5.2250e-01	9.5453	13.099873	0.000261	2.608017	0.441810	-0.005217
1047	5.2300e-01	9.5349	13.060531	0.000393	3.933402	0.666336	-0.007868
1048	5.2350e-01	9.5245	13.062669	-0.000021	-0.213772	-0.036214	0.000428
1049	5.2400e-01	9.5169	13.025893	0.000368	3.676876	0.622880	-0.007355
1050	5.2450e-01	9.5050	13.010071	0.000158	1.581912	0.267983	-0.003164
1051	5.2500e-01	9.4962	13.006650	0.000034	0.342035	0.057942	-0.000684
1052	5.2550e-01	9.4861	12.972868	0.000338	3.377595	0.572180	-0.006756
1053	5.2600e-01	9.4763	12.966454	0.000064	0.641316	0.108642	-0.001283
1054	5.2650e-01	9.4653	12.946355	0.000201	2.009456	0.340411	-0.004020
1055	5.2700e-01	9.4562	12.916421	0.000299	2.992806	0.506995	-0.005987
1056	5.2750e-01	9.4446	12.890336	0.000261	2.608017	0.441810	-0.005217
1057	5.2800e-01	9.4373	12.886060	0.000043	0.427544	0.072428	-0.000855
1058	5.2850e-01	9.4257	12.855271	0.000308	3.078315	0.521481	-0.006158
1059	5.2900e-01	9.4159	12.844580	0.000107	1.068859	0.181070	-0.002138
1060	5.2950e-01	9.4052	12.815074	0.000295	2.950052	0.499752	-0.005901
1061	5.3000e-01	9.3970	12.811653	0.000034	0.342035	0.057942	-0.000684
1062	5.3050e-01	9.3835	12.785140	0.000265	2.650771	0.449053	-0.005303
1063	5.3100e-01	9.3750	12.762049	0.000231	2.308736	0.391110	-0.004618
1064	5.3150e-01	9.3649	12.719286	0.000428	4.275437	0.724279	-0.008553
1065	5.3200e-01	9.3555	12.727411	-0.000081	-0.812333	-0.137613	0.001625
1066	5.3250e-01	9.3512	12.684649	0.000428	4.275437	0.724279	-0.008553
1067	5.3300e-01	9.3356	12.682083	0.000026	0.256526	0.043457	-0.000513
1068	5.3350e-01	9.3256	12.658563	0.000235	2.351490	0.398353	-0.004704
1069	5.3400e-01	9.3158	12.651294	0.000073	0.726824	0.123127	-0.001454
1070	5.3450e-01	9.3054	12.632906	0.000184	1.838438	0.311440	-0.003678
1071	5.3500e-01	9.2952	12.590999	0.000419	4.189929	0.709793	-0.008381
1072	5.3550e-01	9.2902	12.573894	0.000171	1.710175	0.289711	-0.003421
1073	5.3600e-01	9.2752	12.554223	0.000197	1.966701	0.333168	-0.003934
1074	5.3650e-01	9.2694	12.530703	0.000235	2.351490	0.398353	-0.004704
1075	5.3700e-01	9.2554	12.522151	0.000086	0.855087	0.144856	-0.001711
1076	5.3750e-01	9.2468	12.488369	0.000338	3.377595	0.572180	-0.006756
1077	5.3800e-01	9.2358	12.463994	0.000244	2.436999	0.412839	-0.004875
1078	5.3850e-01	9.2242	12.459290	0.000047	0.470298	0.079671	-0.000941
1079	5.3900e-01	9.2151	12.461001	-0.000017	-0.171017	-0.028971	0.000342
1080	5.3950e-01	9.2105	12.416955	0.000440	4.403700	0.746007	-0.008809
1081	5.4000e-01	9.1962	12.378041	0.000389	3.890648	0.659094	-0.007783
1082	5.4050e-01	9.1876	12.368633	0.000094	0.940596	0.159341	-0.001882
1083	5.4100e-01	9.1785	12.366068	0.000026	0.256526	0.043457	-0.000513
1084	5.4150e-01	9.1638	12.325443	0.000406	4.061665	0.688065	-0.008125
1085	5.4200e-01	9.1553	12.307055	0.000184	1.838438	0.311440	-0.003678
1086	5.4250e-01	9.1400	12.297220	0.000098	0.983351	0.166584	-0.001967
1087	5.4300e-01	9.1376	12.260872	0.000363	3.634122	0.615637	-0.007270
1088	5.4350e-01	9.1278	12.254885	0.000060	0.598561	0.101399	-0.001197
1089	5.4400e-01	9.1171	12.239918	0.000150	1.496403	0.253498	-0.002993
1090	5.4450e-01	9.1046	12.227945	0.000120	1.197122	0.202798	-0.002395
1091	5.4500e-01	9.0955	12.214261	0.000137	1.368140	0.231769	-0.002737
1092	5.4550e-01	9.0863	12.187320	0.000269	2.693525	0.456296	-0.005388
1093	5.4600e-01	9.0759	12.148406	0.000389	3.890648	0.659094	-0.007783
1094	5.4650e-01	9.0674	12.132584	0.000158	1.581912	0.267983	-0.003164
1095	5.4700e-01	9.0558	12.107354	0.000252	2.522508	0.427324	-0.005046
1096	5.4750e-01	9.0479	12.079559	0.000278	2.779034	0.470781	-0.005559
1097	5.4800e-01	9.0350	12.072717	0.000068	0.684070	0.115885	-0.001368
1098	5.4850e-01	9.0253	12.048342	0.000244	2.436999	0.412839	-0.004875
1099	5.4900e-01	9.0167	12.027388	0.000209	2.094964	0.354897	-0.004191
1100	5.4950e-01	9.0082	11.996172	0.000312	3.121069	0.528723	-0.006243
1101	5.5000e-01	8.9954	11.974363	0.000218	2.180473	0.369382	-0.004362
1102	5.5050e-01	8.9856	11.973080	0.000013	0.128263	0.021728	-0.000257
1103	5.5100e-01	8.9771	11.932456	0.000406	4.061665	0.688065	-0.008125
1104	5.5150e-01	8.9661	11.926897	0.000056	0.555807	0.094156	-0.001112
1105	5.5200e-01	8.9557	11.912357	0.000145	1.453649	0.246255	-0.002908
1106	5.5250e-01	8.9478	11.877292	0.000351	3.505859	0.593909	-0.007013
1107	5.5300e-01	8.9368	11.869167	0.000081	0.812333	0.137613	-0.001625
1108	5.5350e-01	8.9258	11.830681	0.000385	3.847894	0.651851	-0.007697
1109	5.5400e-01	8.9160	11.821273	0.000094	0.940596	0.159341	-0.001882
1110	5.5450e-01	8.9063	11.788774	0.000325	3.249332	0.550452	-0.006500
1111	5.5500e-01	8.8940	11.778511	0.000103	1.026105	0.173827	-0.002053
1112	5.5550e-01	8.8867	11.755846	0.000227	2.265982	0.383868	-0.004533
1113	5.5600e-01	8.8739	11.743018	0.000128	1.282631	0.217284	-0.002566
1114	5.5650e-01	8.8663	11.726340	0.000167	1.667421	0.282469	-0.003335
1115	5.5700e-01	8.8583	11.687426	0.000389	3.890648	0.659094	-0.007783
1116	5.5750e-01	8.8452	11.675880	0.000115	1.154368	0.195555	-0.002309
1117	5.5800e-01	8.8361	11.643809	0.000321	3.206578	0.543209	-0.006414
1118	5.5850e-01	8.8248	11.629697	0.000141	1.410894	0.239012	-0.002822
1119	5.5900e-01	8.8165	11.653644	-0.000239	-2.394245	-0.405596	0.004789
1120	5.5950e-01	8.8068	11.578382	0.000752	7.524770	1.274730	-0.015052
1121	5.6000e-01	8.7941	11.579237	-0.000009	-0.085509	-0.014486	0.000171
1122	5.6050e-01	8.7848	11.551869	0.000274	2.736280	0.463538	-0.005474
1123	5.6100e-01	8.7769	11.521080	0.000308	3.078315	0.521481	-0.006158
1124	5.6150e-01	8.7671	11.502265	0.000188	1.881192	0.318683	-0.003763
1125	5.6200e-01	8.7585	11.480883	0.000214	2.137719	0.362139	-0.004276
1126	5.6250e-01	8.7463	11.461213	0.000197	1.966701	0.333168	-0.003934
1127	5.6300e-01	8.7366	11.417167	0.000440	4.403700	0.746007	-0.008809
1128	5.6350e-01	8.7263	11.424009	-0.000068	-0.684070	-0.115885	0.001368
1129	5.6400e-01	8.7170	11.381247	0.000428	4.275437	0.724279	-0.008553
1130	5.6450e-01	8.7054	11.391082	-0.000098	-0.983351	-0.166584	0.001967
1131	5.6500e-01	8.6957	11.345326	0.000457	4.574718	0.774978	-0.009151
1132	5.6550e-01	8.6884	11.343188	0.000021	0.213772	0.036214	-0.000428
1133	5.6600e-01	8.6758	11.311544	0.000316	3.163824	0.535966	-0.006329
1134	5.6650e-01	8.6670	11.280327	0.000312	3.121069	0.528723	-0.006243
1135	5.6700e-01	8.6566	11.275196	0.000051	0.513052	0.086913	-0.001026
1136	5.6750e-01	8.6481	11.267498	0.000077	0.769579	0.130370	-0.001539
1137	5.6800e-01	8.6353	11.226874	0.000406	4.061665	0.688065	-0.008125
1138	5.6850e-01	8.6255	11.190526	0.000363	3.634122	0.615637	-0.007270
1139	5.6900e-01	8.6169	11.192236	-0.000017	-0.171017	-0.028971	0.000342
1140	5.6950e-01	8.6060	11.175131	0.000171	1.710175	0.289711	-0.003421
1141	5.7000e-01	8.5963	11.141777	0.000333	3.334841	0.564937	-0.006671
1142	5.7050e-01	8.5870	11.117830	0.000239	2.394245	0.405596	-0.004789
1143	5.7100e-01	8.5773	11.098586	0.000192	1.923947	0.325925	-0.003849
1144	5.7150e-01	8.5648	11.068225	0.000304	3.035560	0.514238	-0.006072
1145	5.7200e-01	8.5553	11.052830	0.000154	1.539157	0.260740	-0.003079
1146	5.7250e-01	8.5461	11.030594	0.000222	2.223227	0.376625	-0.004447
1147	5.7300e-01	8.5345	11.013489	0.000171	1.710175	0.289711	-0.003421
1148	5.7350e-01	8.5257	10.990825	0.000227	2.265982	0.383868	-0.004533
1149	5.7400e-01	8.5168	10.967305	0.000235	2.351490	0.398353	-0.004704
1150	5.7450e-01	8.5052	10.965167	0.000021	0.213772	0.036214	-0.000428
1151	5.7500e-01	8.4924	10.937372	0.000278	2.779034	0.470781	-0.005559
1152	5.7550e-01	8.4845	10.901451	0.000359	3.591367	0.608394	-0.007184
1153	5.7600e-01	8.4753	10.875794	0.000257	2.565262	0.434567	-0.005132
1154	5.7650e-01	8.4698	10.860399	0.000154	1.539157	0.260740	-0.003079
1155	5.7700e-01	8.4555	10.842866	0.000175	1.752929	0.296954	-0.003507
1156	5.7750e-01	8.4467	10.813788	0.000291	2.907297	0.492510	-0.005816
1157	5.7800e-01	8.4381	10.803525	0.000103	1.026105	0.173827	-0.002053
1158	5.7850e-01	8.4259	10.769743	0.000338	3.377595	0.572180	-0.006756
1159	5.7900e-01	8.4167	10.768032	0.000017	0.171017	0.028971	-0.000342
1160	5.7950e-01	8.4052	10.732967	0.000351	3.505859	0.593909	-0.007013
1161	5.8000e-01	8.3978	10.704744	0.000282	2.821789	0.478024	-0.005645
1162	5.8050e-01	8.3862	10.691487	0.000133	1.325386	0.224526	-0.002651
1163	5.8100e-01	8.3771	10.684217	0.000073	0.726824	0.123127	-0.001454
1164	5.8150e-01	8.3664	10.641883	0.000423	4.232683	0.717036	-0.008467
1165	5.8200e-01	8.3582	10.632475	0.000094	0.940596	0.159341	-0.001882
1166	5.8250e-01	8.3484	10.597410	0.000351	3.505859	0.593909	-0.007013
1167	5.8300e-01	8.3392	10.572607	0.000248	2.479754	0.420082	-0.004960
1168	5.8350e-01	8.3267	10.553792	0.000188	1.881192	0.318683	-0.003763
1169	5.8400e-01	8.3142	10.538397	0.000154	1.539157	0.260740	-0.003079
1170	5.8450e-01	8.3093	10.504615	0.000338	3.377595	0.572180	-0.006756
1171	5.8500e-01	8.2965	10.493924	0.000107	1.068859	0.181070	-0.002138
1172	5.8550e-01	8.2864	10.477247	0.000167	1.667421	0.282469	-0.003335
1173	5.8600e-01	8.2755	10.449024	0.000282	2.821789	0.478024	-0.005645
1174	5.8650e-01	8.2666	10.422938	0.000261	2.608017	0.441810	-0.005217
1175	5.8700e-01	8.2556	10.395570	0.000274	2.736280	0.463538	-0.005474
1176	5.8750e-01	8.2465	10.363926	0.000316	3.163824	0.535966	-0.006329
1177	5.8800e-01	8.2385	10.367347	-0.000034	-0.342035	-0.057942	0.000684
1178	5.8850e-01	8.2275	10.339552	0.000278	2.779034	0.470781	-0.005559
1179	5.8900e-01	8.2153	10.315605	0.000239	2.394245	0.405596	-0.004789
1180	5.8950e-01	8.2043	10.286954	0.000286	2.864543	0.485267	-0.005730
1181	5.9000e-01	8.1958	10.266855	0.000201	2.009456	0.340411	-0.004020
1182	5.9050e-01	8.1860	10.261724	0.000051	0.513052	0.086913	-0.001026
1183	5.9100e-01	8.1781	10.241198	0.000205	2.052210	0.347654	-0.004105
1184	5.9150e-01	8.1659	10.221955	0.000192	1.923947	0.325925	-0.003849
1185	5.9200e-01	8.1561	10.212547	0.000094	0.940596	0.159341	-0.001882
1186	5.9250e-01	8.1464	10.160804	0.000517	5.173279	0.876377	-0.010349
1187	5.9300e-01	8.1360	10.129160	0.000316	3.163824	0.535966	-0.006329
1188	5.9350e-01	8.1268	10.113338	0.000158	1.581912	0.267983	-0.003164
1189	5.9400e-01	8.1142	10.105640	0.000077	0.769579	0.130370	-0.001539
1190	5.9450e-01	8.1042	10.069720	0.000359	3.591367	0.608394	-0.007184
1191	5.9500e-01	8.0975	10.056464	0.000133	1.325386	0.224526	-0.002651
1192	5.9550e-01	8.0853	10.026102	0.000304	3.035560	0.514238	-0.006072
1193	5.9600e-01	8.0762	10.003866	0.000222	2.223227	0.376625	-0.004447
1194	5.9650e-01	8.0659	10.007287	-0.000034	-0.342035	-0.057942	0.000684
1195	5.9700e-01	8.0548	9.960676	0.000466	4.660227	0.789464	-0.009322
1196	5.9750e-01	8.0469	9.955544	0.000051	0.513052	0.086913	-0.001026
1197	5.9800e-01	8.0374	9.936301	0.000192	1.923947	0.325925	-0.003849
1198	5.9850e-01	8.0292	9.906795	0.000295	2.950052	0.499752	-0.005901
1199	5.9900e-01	8.0170	9.878571	0.000282	2.821789	0.478024	-0.005645
1200	5.9950e-01	8.0048	9.846927	0.000316	3.163824	0.535966	-0.006329
1201	6.0000e-01	7.9962	9.838375	0.000086	0.855087	0.144856	-0.001711
1202	6.0050e-01	7.9868	9.804592	0.000338	3.377595	0.572180	-0.006756
1203	6.0100e-01	7.9779	9.773376	0.000312	3.121069	0.528723	-0.006243
1204	6.0150e-01	7.9659	9.790053	-0.000167	-1.667421	-0.282469	0.003335
1205	6.0200e-01	7.9578	9.745580	0.000445	4.446455	0.753250	-0.008895
1206	6.0250e-01	7.9462	9.726764	0.000188	1.881192	0.318683	-0.003763
1207	6.0300e-01	7.9373	9.693837	0.000329	3.292087	0.557695	-0.006585
1208	6.0350e-01	7.9254	9.662193	0.000316	3.163824	0.535966	-0.006329
1209	6.0400e-01	7.9163	9.654496	0.000077	0.769579	0.130370	-0.001539
1210	6.0450e-01	7.9053	9.639957	0.000145	1.453649	0.246255	-0.002908
1211	6.0500e-01	7.8967	9.614727	0.000252	2.522508	0.427324	-0.005046
1212	6.0550e-01	7.8864	9.589497	0.000252	2.522508	0.427324	-0.005046
1213	6.0600e-01	7.8766	9.574102	0.000154	1.539157	0.260740	-0.003079
1214	6.0650e-01	7.8668	9.539892	0.000342	3.420350	0.579423	-0.006842
1215	6.0700e-01	7.8616	9.520221	0.000197	1.966701	0.333168	-0.003934
1216	6.0750e-01	7.8479	9.513379	0.000068	0.684070	0.115885	-0.001368
1217	6.0800e-01	7.8365	9.489005	0.000244	2.436999	0.412839	-0.004875
1218	6.0850e-01	7.8273	9.442821	0.000462	4.617472	0.782221	-0.009237
1219	6.0900e-01	7.8162	9.443677	-0.000009	-0.085509	-0.014486	0.000171
1220	6.0950e-01	7.8040	9.420157	0.000235	2.351490	0.398353	-0.004704
1221	6.1000e-01	7.7960	9.396210	0.000239	2.394245	0.405596	-0.004789
1222	6.1050e-01	7.7866	9.354303	0.000419	4.189929	0.709793	-0.008381
1223	6.1100e-01	7.7783	9.345323	0.000090	0.897842	0.152099	-0.001796
1224	6.1150e-01	7.7664	9.326080	0.000192	1.923947	0.325925	-0.003849
1225	6.1200e-01	7.7591	9.295291	0.000308	3.078315	0.521481	-0.006158
1226	6.1250e-01	7.7481	9.279041	0.000162	1.624666	0.275226	-0.003250
1227	6.1300e-01	7.7386	9.239699	0.000393	3.933402	0.666336	-0.007868
1228	6.1350e-01	7.7252	9.220884	0.000188	1.881192	0.318683	-0.003763
1229	6.1400e-01	7.7142	9.192233	0.000286	2.864543	0.485267	-0.005730
1230	6.1450e-01	7.7069	9.173417	0.000188	1.881192	0.318683	-0.003763
1231	6.1500e-01	7.6953	9.153319	0.000201	2.009456	0.340411	-0.004020
1232	6.1550e-01	7.6849	9.143056	0.000103	1.026105	0.173827	-0.002053
1233	6.1600e-01	7.6770	9.112695	0.000304	3.035560	0.514238	-0.006072
1234	6.1650e-01	7.6678	9.090886	0.000218	2.180473	0.369382	-0.004362
1235	6.1700e-01	7.6569	9.053255	0.000376	3.762385	0.637365	-0.007526
1236	6.1750e-01	7.6471	9.050261	0.000030	0.299281	0.050700	-0.000599
1237	6.1800e-01	7.6373	9.021183	0.000291	2.907297	0.492510	-0.005816
1238	6.1850e-01	7.6239	9.006216	0.000150	1.496403	0.253498	-0.002993
1239	6.1900e-01	7.6154	8.964309	0.000419	4.189929	0.709793	-0.008381
1240	6.1950e-01	7.6062	8.972006	-0.000077	-0.769579	-0.130370	0.001539
1241	6.2000e-01	7.5980	8.937368	0.000346	3.463104	0.586666	-0.006928
1242	6.2050e-01	7.5864	8.905724	0.000316	3.163824	0.535966	-0.006329
1243	6.2100e-01	7.5769	8.880494	0.000252	2.522508	0.427324	-0.005046
1244	6.2150e-01	7.5653	8.868521	0.000120	1.197122	0.202798	-0.002395
1245	6.2200e-01	7.5531	8.876645	-0.000081	-0.812333	-0.137613	0.001625
1246	6.2250e-01	7.5452	8.803094	0.000735	7.353752	1.245759	-0.014710
1247	6.2300e-01	7.5381	8.790265	0.000128	1.282631	0.217284	-0.002566
1248	6.2350e-01	7.5275	8.776154	0.000141	1.410894	0.239012	-0.002822
1249	6.2400e-01	7.5165	8.756483	0.000197	1.966701	0.333168	-0.003934
1250	6.2450e-01	7.5043	8.739805	0.000167	1.667421	0.282469	-0.003335
1251	6.2500e-01	7.4957	8.741516	-0.000017	-0.171017	-0.028971	0.000342
1252	6.2550e-01	7.4869	8.691911	0.000496	4.959507	0.840163	-0.009921
1253	6.2600e-01	7.4753	8.683359	0.000086	0.855087	0.144856	-0.001711
1254	6.2650e-01	7.4658	8.626057	0.000573	5.729086	0.970533	-0.011460
1255	6.2700e-01	7.4554	8.604248	0.000218	2.180473	0.369382	-0.004362
1256	6.2750e-01	7.4454	8.576453	0.000278	2.779034	0.470781	-0.005559
1257	6.2800e-01	7.4362	8.574742	0.000017	0.171017	0.028971	-0.000342
1258	6.2850e-01	7.4274	8.533262	0.000415	4.147174	0.702550	-0.008296
1259	6.2900e-01	7.4152	8.517868	0.000154	1.539157	0.260740	-0.003079
1260	6.2950e-01	7.4048	8.516157	0.000017	0.171017	0.028971	-0.000342
1261	6.3000e-01	7.3962	8.484085	0.000321	3.206578	0.543209	-0.006414
1262	6.3050e-01	7.3883	8.466980	0.000171	1.710175	0.289711	-0.003421
1263	6.3100e-01	7.3761	8.441751	0.000252	2.522508	0.427324	-0.005046
1264	6.3150e-01	7.3663	8.408823	0.000329	3.292087	0.557695	-0.006585
1265	6.3200e-01	7.3578	8.381883	0.000269	2.693525	0.456296	-0.005388
1266	6.3250e-01	7.3431	8.369910	0.000120	1.197122	0.202798	-0.002395
1267	6.3300e-01	7.3419	8.325009	0.000449	4.489209	0.760493	-0.008980
1268	6.3350e-01	7.3267	8.331851	-0.000068	-0.684070	-0.115885	0.001368
1269	6.3400e-01	7.3178	8.292082	0.000398	3.976157	0.673579	-0.007954
1270	6.3450e-01	7.3062	8.269845	0.000222	2.223227	0.376625	-0.004447
1271	6.3500e-01	7.2943	8.244615	0.000252	2.522508	0.427324	-0.005046
1272	6.3550e-01	7.2858	8.222806	0.000218	2.180473	0.369382	-0.004362
1273	6.3600e-01	7.2749	8.204846	0.000180	1.795684	0.304197	-0.003592
1274	6.3650e-01	7.2662	8.188169	0.000167	1.667421	0.282469	-0.003335
1275	6.3700e-01	7.2565	8.158663	0.000295	2.950052	0.499752	-0.005901
1276	6.3750e-01	7.2440	8.136426	0.000222	2.223227	0.376625	-0.004447
1277	6.3800e-01	7.2357	8.114617	0.000218	2.180473	0.369382	-0.004362
1278	6.3850e-01	7.2260	8.094946	0.000197	1.966701	0.333168	-0.003934
1279	6.3900e-01	7.2180	8.062019	0.000329	3.292087	0.557695	-0.006585
1280	6.3950e-01	7.2046	8.032941	0.000291	2.907297	0.492510	-0.005816
1281	6.4000e-01	7.1979	8.021395	0.000115	1.154368	0.195555	-0.002309
1282	6.4050e-01	7.1878	8.000014	0.000214	2.137719	0.362139	-0.004276
1283	6.4100e-01	7.1805	7.967514	0.000325	3.249332	0.550452	-0.006500
1284	6.4150e-01	7.1667	7.966231	0.000013	0.128263	0.021728	-0.000257
1285	6.4200e-01	7.1576	7.919620	0.000466	4.660227	0.789464	-0.009322
1286	6.4250e-01	7.1454	7.910640	0.000090	0.897842	0.152099	-0.001796
1287	6.4300e-01	7.1347	7.891397	0.000192	1.923947	0.325925	-0.003849
1288	6.4350e-01	7.1277	7.860608	0.000308	3.078315	0.521481	-0.006158
1289	6.4400e-01	7.1167	7.837944	0.000227	2.265982	0.383868	-0.004533
1290	6.4450e-01	7.1063	7.812714	0.000252	2.522508	0.427324	-0.005046
1291	6.4500e-01	7.0963	7.793471	0.000192	1.923947	0.325925	-0.003849
1292	6.4550e-01	7.0862	7.747715	0.000457	4.574718	0.774978	-0.009151
1293	6.4600e-01	7.0771	7.730610	0.000171	1.710175	0.289711	-0.003421
1294	6.4650e-01	7.0660	7.716926	0.000137	1.368140	0.231769	-0.002737
1295	6.4700e-01	7.0558	7.689558	0.000274	2.736280	0.463538	-0.005474
1296	6.4750e-01	7.0462	7.663045	0.000265	2.650771	0.449053	-0.005303
1297	6.4800e-01	7.0343	7.649789	0.000133	1.325386	0.224526	-0.002651
1298	6.4850e-01	7.0261	7.618144	0.000316	3.163824	0.535966	-0.006329
1299	6.4900e-01	7.0148	7.598474	0.000197	1.966701	0.333168	-0.003934
1300	6.4950e-01	7.0068	7.576665	0.000218	2.180473	0.369382	-0.004362
1301	6.5000e-01	6.9952	7.545448	0.000312	3.121069	0.528723	-0.006243
1302	6.5050e-01	6.9870	7.546731	-0.000013	-0.128263	-0.021728	0.000257
1303	6.5100e-01	6.9751	7.485153	0.000616	6.156630	1.042961	-0.012316
1304	6.5150e-01	6.9662	7.472324	0.000128	1.282631	0.217284	-0.002566
1305	6.5200e-01	6.9562	7.441107	0.000312	3.121069	0.528723	-0.006243
1306	6.5250e-01	6.9458	7.441963	-0.000009	-0.085509	-0.014486	0.000171
1307	6.5300e-01	6.9379	7.413312	0.000286	2.864543	0.485267	-0.005730
1308	6.5350e-01	6.9235	7.391075	0.000222	2.223227	0.376625	-0.004447
1309	6.5400e-01	6.9131	7.349596	0.000415	4.147174	0.702550	-0.008296
1310	6.5450e-01	6.9055	7.340188	0.000094	0.940596	0.159341	-0.001882
1311	6.5500e-01	6.8945	7.308971	0.000312	3.121069	0.528723	-0.006243
1312	6.5550e-01	6.8851	7.291011	0.000180	1.795684	0.304197	-0.003592
1313	6.5600e-01	6.8753	7.276899	0.000141	1.410894	0.239012	-0.002822
1314	6.5650e-01	6.8648	7.246966	0.000299	2.992806	0.506995	-0.005987
1315	6.5700e-01	6.8579	7.211473	0.000355	3.548613	0.601151	-0.007099
1316	6.5750e-01	6.8454	7.211900	-0.000004	-0.042754	-0.007243	0.000086
1317	6.5800e-01	6.8372	7.181111	0.000308	3.078315	0.521481	-0.006158
1318	6.5850e-01	6.8256	7.162723	0.000184	1.838438	0.311440	-0.003678
1319	6.5900e-01	6.8158	7.143480	0.000192	1.923947	0.325925	-0.003849
1320	6.5950e-01	6.8069	7.103711	0.000398	3.976157	0.673579	-0.007954
1321	6.6000e-01	6.7987	7.086606	0.000171	1.710175	0.289711	-0.003421
1322	6.6050e-01	6.7889	7.047265	0.000393	3.933402	0.666336	-0.007868
1323	6.6100e-01	6.7755	7.026311	0.000209	2.094964	0.354897	-0.004191
1324	6.6150e-01	6.7636	7.012627	0.000137	1.368140	0.231769	-0.002737
1325	6.6200e-01	6.7578	6.983121	0.000295	2.950052	0.499752	-0.005901
1326	6.6250e-01	6.7487	6.964733	0.000184	1.838438	0.311440	-0.003678
1327	6.6300e-01	6.7346	6.928812	0.000359	3.591367	0.608394	-0.007184
1328	6.6350e-01	6.7267	6.912135	0.000167	1.667421	0.282469	-0.003335
1329	6.6400e-01	6.7175	6.886905	0.000252	2.522508	0.427324	-0.005046
1330	6.6450e-01	6.7084	6.874504	0.000124	1.239877	0.210041	-0.002480
1331	6.6500e-01	6.6992	6.831741	0.000428	4.275437	0.724279	-0.008553
1332	6.6550e-01	6.6876	6.805229	0.000265	2.650771	0.449053	-0.005303
1333	6.6600e-01	6.6763	6.778288	0.000269	2.693525	0.456296	-0.005388
1334	6.6650e-01	6.6650	6.777861	0.000004	0.042754	0.007243	-0.000086
1335	6.6700e-01	6.6541	6.750920	0.000269	2.693525	0.456296	-0.005388
1336	6.6750e-01	6.6443	6.712862	0.000381	3.805139	0.644608	-0.007612
1337	6.6800e-01	6.6370	6.691480	0.000214	2.137719	0.362139	-0.004276
1338	6.6850e-01	6.6260	6.682073	0.000094	0.940596	0.159341	-0.001882
1339	6.6900e-01	6.6150	6.640593	0.000415	4.147174	0.702550	-0.008296
1340	6.6950e-01	6.6046	6.624343	0.000162	1.624666	0.275226	-0.003250
1341	6.7000e-01	6.5973	6.607238	0.000171	1.710175	0.289711	-0.003421
1342	6.7050e-01	6.5869	6.580725	0.000265	2.650771	0.449053	-0.005303
1343	6.7100e-01	6.5723	6.539673	0.000410	4.104420	0.695308	-0.008210
1344	6.7150e-01	6.5646	6.536680	0.000030	0.299281	0.050700	-0.000599
1345	6.7200e-01	6.5546	6.498194	0.000385	3.847894	0.651851	-0.007697
1346	6.7250e-01	6.5454	6.477240	0.000209	2.094964	0.354897	-0.004191
1347	6.7300e-01	6.5359	6.454576	0.000227	2.265982	0.383868	-0.004533
1348	6.7350e-01	6.5247	6.410530	0.000440	4.403700	0.746007	-0.008809
1349	6.7400e-01	6.5167	6.407537	0.000030	0.299281	0.050700	-0.000599
1350	6.7450e-01	6.5091	6.392570	0.000150	1.496403	0.253498	-0.002993
1351	6.7500e-01	6.4957	6.349380	0.000432	4.318192	0.731521	-0.008638
1352	6.7550e-01	6.4856	6.340400	0.000090	0.897842	0.152099	-0.001796
1353	6.7600e-01	6.4743	6.319874	0.000205	2.052210	0.347654	-0.004105
1354	6.7650e-01	6.4651	6.283953	0.000359	3.591367	0.608394	-0.007184
1355	6.7700e-01	6.4569	6.276256	0.000077	0.769579	0.130370	-0.001539
1356	6.7750e-01	6.4435	6.246750	0.000295	2.950052	0.499752	-0.005901
1357	6.7800e-01	6.4398	6.212112	0.000346	3.463104	0.586666	-0.006928
1358	6.7850e-01	6.4291	6.186882	0.000252	2.522508	0.427324	-0.005046
1359	6.7900e-01	6.4166	6.172771	0.000141	1.410894	0.239012	-0.002822
1360	6.7950e-01	6.4064	6.148824	0.000239	2.394245	0.405596	-0.004789
1361	6.8000e-01	6.3956	6.117180	0.000316	3.163824	0.535966	-0.006329
1362	6.8050e-01	6.3855	6.108627	0.000086	0.855087	0.144856	-0.001711
1363	6.8100e-01	6.3739	6.060733	0.000479	4.788490	0.811192	-0.009579
1364	6.8150e-01	6.3629	6.034220	0.000265	2.650771	0.449053	-0.005303
1365	6.8200e-01	6.3528	6.021391	0.000128	1.282631	0.217284	-0.002566
1366	6.8250e-01	6.3466	5.992313	0.000291	2.907297	0.492510	-0.005816
1367	6.8300e-01	6.3351	5.960669	0.000316	3.163824	0.535966	-0.006329
1368	6.8350e-01	6.3263	5.943136	0.000175	1.752929	0.296954	-0.003507
1369	6.8400e-01	6.3174	5.930307	0.000128	1.282631	0.217284	-0.002566
1370	6.8450e-01	6.3043	5.913202	0.000171	1.710175	0.289711	-0.003421
1371	6.8500e-01	6.2946	5.893532	0.000197	1.966701	0.333168	-0.003934
1372	6.8550e-01	6.2862	5.867874	0.000257	2.565262	0.434567	-0.005132
1373	6.8600e-01	6.2750	5.826394	0.000415	4.147174	0.702550	-0.008296
1374	6.8650e-01	6.2653	5.790046	0.000363	3.634122	0.615637	-0.007270
1375	6.8700e-01	6.2561	5.773796	0.000162	1.624666	0.275226	-0.003250
1376	6.8750e-01	6.2464	5.752415	0.000214	2.137719	0.362139	-0.004276
1377	6.8800e-01	6.2341	5.741297	0.000111	1.111614	0.188312	-0.002224
1378	6.8850e-01	6.2244	5.701100	0.000402	4.018911	0.680822	-0.008039
1379	6.8900e-01	6.2151	5.684850	0.000162	1.624666	0.275226	-0.003250
1380	6.8950e-01	6.2061	5.660048	0.000248	2.479754	0.420082	-0.004960
1381	6.9000e-01	6.1987	5.625838	0.000342	3.420350	0.579423	-0.006842
1382	6.9050e-01	6.1896	5.573668	0.000522	5.216033	0.883620	-0.010434
1383	6.9100e-01	6.1758	5.570247	0.000034	0.342035	0.057942	-0.000684
1384	6.9150e-01	6.1658	5.547583	0.000227	2.265982	0.383868	-0.004533
1385	6.9200e-01	6.1557	5.520642	0.000269	2.693525	0.456296	-0.005388
1386	6.9250e-01	6.1469	5.512090	0.000086	0.855087	0.144856	-0.001711
1387	6.9300e-01	6.1342	5.487288	0.000248	2.479754	0.420082	-0.004960
1388	6.9350e-01	6.1267	5.451367	0.000359	3.591367	0.608394	-0.007184
1389	6.9400e-01	6.1159	5.414164	0.000372	3.719630	0.630122	-0.007441
1390	6.9450e-01	6.1049	5.404328	0.000098	0.983351	0.166584	-0.001967
1391	6.9500e-01	6.0962	5.391927	0.000124	1.239877	0.210041	-0.002480
1392	6.9550e-01	6.0852	5.346599	0.000453	4.531964	0.767735	-0.009066
1393	6.9600e-01	6.0773	5.341040	0.000056	0.555807	0.094156	-0.001112
1394	6.9650e-01	6.0657	5.308540	0.000325	3.249332	0.550452	-0.006500
1395	6.9700e-01	6.0577	5.279889	0.000286	2.864543	0.485267	-0.005730
1396	6.9750e-01	6.0461	5.243113	0.000368	3.676876	0.622880	-0.007355
1397	6.9800e-01	6.0361	5.227719	0.000154	1.539157	0.260740	-0.003079
1398	6.9850e-01	6.0260	5.204200	0.000235	2.351490	0.398353	-0.004704
1399	6.9900e-01	6.0164	5.172983	0.000312	3.121069	0.528723	-0.006243
1400	6.9950e-01	6.0059	5.157161	0.000158	1.581912	0.267983	-0.003164
1401	7.0000e-01	5.9967	5.134924	0.000222	2.223227	0.376625	-0.004447
1402	7.0050e-01	5.9889	5.125517	0.000094	0.940596	0.159341	-0.001882
1403	7.0100e-01	5.9753	5.071208	0.000543	5.429805	0.919834	-0.010862
1404	7.0150e-01	5.9619	5.049399	0.000218	2.180473	0.369382	-0.004362
1405	7.0200e-01	5.9552	5.025880	0.000235	2.351490	0.398353	-0.004704
1406	7.0250e-01	5.9451	5.009630	0.000162	1.624666	0.275226	-0.003250
1407	7.0300e-01	5.9376	4.994663	0.000150	1.496403	0.253498	-0.002993
1408	7.0350e-01	5.9277	4.949335	0.000453	4.531964	0.767735	-0.009066
1409	7.0400e-01	5.9174	4.938644	0.000107	1.068859	0.181070	-0.002138
1410	7.0450e-01	5.9088	4.916835	0.000218	2.180473	0.369382	-0.004362
1411	7.0500e-01	5.8972	4.884764	0.000321	3.206578	0.543209	-0.006414
1412	7.0550e-01	5.8844	4.880915	0.000038	0.384789	0.065185	-0.000770
1413	7.0600e-01	5.8765	4.827462	0.000534	5.344297	0.905348	-0.010691
1414	7.0650e-01	5.8682	4.799666	0.000278	2.779034	0.470781	-0.005559
1415	7.0700e-01	5.8585	4.774436	0.000252	2.522508	0.427324	-0.005046
1416	7.0750e-01	5.8478	4.742364	0.000321	3.206578	0.543209	-0.006414
1417	7.0800e-01	5.8344	4.723549	0.000188	1.881192	0.318683	-0.003763
1418	7.0850e-01	5.8246	4.696608	0.000269	2.693525	0.456296	-0.005388
1419	7.0900e-01	5.8154	4.689766	0.000068	0.684070	0.115885	-0.001368
1420	7.0950e-01	5.8063	4.649997	0.000398	3.976157	0.673579	-0.007954
1421	7.1000e-01	5.7944	4.611939	0.000381	3.805139	0.644608	-0.007612
1422	7.1050e-01	5.7846	4.601248	0.000107	1.068859	0.181070	-0.002138
1423	7.1100e-01	5.7761	4.580294	0.000209	2.094964	0.354897	-0.004191
1424	7.1150e-01	5.7660	4.547367	0.000329	3.292087	0.557695	-0.006585
1425	7.1200e-01	5.7581	4.520854	0.000265	2.650771	0.449053	-0.005303
1426	7.1250e-01	5.7446	4.497763	0.000231	2.308736	0.391110	-0.004618
1427	7.1300e-01	5.7333	4.466974	0.000308	3.078315	0.521481	-0.006158
1428	7.1350e-01	5.7275	4.457138	0.000098	0.983351	0.166584	-0.001967
1429	7.1400e-01	5.7143	4.445165	0.000120	1.197122	0.202798	-0.002395
1430	7.1450e-01	5.7050	4.401547	0.000436	4.360946	0.738764	-0.008724
1431	7.1500e-01	5.6958	4.386580	0.000150	1.496403	0.253498	-0.002993
1432	7.1550e-01	5.6866	4.366054	0.000205	2.052210	0.347654	-0.004105
1433	7.1600e-01	5.6744	4.338258	0.000278	2.779034	0.470781	-0.005559
1434	7.1650e-01	5.6641	4.303193	0.000351	3.505859	0.593909	-0.007013
1435	7.1700e-01	5.6561	4.273687	0.000295	2.950052	0.499752	-0.005901
1436	7.1750e-01	5.6433	4.263852	0.000098	0.983351	0.166584	-0.001967
1437	7.1800e-01	5.6363	4.221089	0.000428	4.275437	0.724279	-0.008553
1438	7.1850e-01	5.6244	4.205695	0.000154	1.539157	0.260740	-0.003079
1439	7.1900e-01	5.6165	4.184313	0.000214	2.137719	0.362139	-0.004276
1440	7.1950e-01	5.6068	4.136419	0.000479	4.788490	0.811192	-0.009579
1441	7.2000e-01	5.5951	4.119314	0.000171	1.710175	0.289711	-0.003421
1442	7.2050e-01	5.5862	4.074841	0.000445	4.446455	0.753250	-0.008895
1443	7.2100e-01	5.5757	4.071420	0.000034	0.342035	0.057942	-0.000684
1444	7.2150e-01	5.5664	4.051322	0.000201	2.009456	0.340411	-0.004020
1445	7.2200e-01	5.5554	4.032934	0.000184	1.838438	0.311440	-0.003678
1446	7.2250e-01	5.5446	3.980764	0.000522	5.216033	0.883620	-0.010434
1447	7.2300e-01	5.5371	3.973494	0.000073	0.726824	0.123127	-0.001454
1448	7.2350e-01	5.5255	3.925172	0.000483	4.831244	0.818435	-0.009664
1449	7.2400e-01	5.5139	3.926455	-0.000013	-0.128263	-0.021728	0.000257
1450	7.2450e-01	5.5072	3.894811	0.000316	3.163824	0.535966	-0.006329
1451	7.2500e-01	5.4980	3.860173	0.000346	3.463104	0.586666	-0.006928
1452	7.2550e-01	5.4853	3.837082	0.000231	2.308736	0.391110	-0.004618
1453	7.2600e-01	5.4764	3.842641	-0.000056	-0.555807	-0.094156	0.001112
1454	7.2650e-01	5.4645	3.787905	0.000547	5.472560	0.927077	-0.010947
1455	7.2700e-01	5.4562	3.780635	0.000073	0.726824	0.123127	-0.001454
1456	7.2750e-01	5.4443	3.743432	0.000372	3.719630	0.630122	-0.007441
1457	7.2800e-01	5.4358	3.700669	0.000428	4.275437	0.724279	-0.008553
1458	7.2850e-01	5.4260	3.698959	0.000017	0.171017	0.028971	-0.000342
1459	7.2900e-01	5.4158	3.661328	0.000376	3.762385	0.637365	-0.007526
1460	7.2950e-01	5.4074	3.633960	0.000274	2.736280	0.463538	-0.005474
1461	7.3000e-01	5.3964	3.607447	0.000265	2.650771	0.449053	-0.005303
1462	7.3050e-01	5.3851	3.584783	0.000227	2.265982	0.383868	-0.004533
1463	7.3100e-01	5.3741	3.568533	0.000162	1.624666	0.275226	-0.003250
1464	7.3150e-01	5.3676	3.536461	0.000321	3.206578	0.543209	-0.006414
1465	7.3200e-01	5.3577	3.510376	0.000261	2.608017	0.441810	-0.005217
1466	7.3250e-01	5.3455	3.486001	0.000244	2.436999	0.412839	-0.004875
1467	7.3300e-01	5.3366	3.442811	0.000432	4.318192	0.731521	-0.008638
1468	7.3350e-01	5.3265	3.444094	-0.000013	-0.128263	-0.021728	0.000257
1469	7.3400e-01	5.3154	3.408173	0.000359	3.591367	0.608394	-0.007184
1470	7.3450e-01	5.3040	3.386365	0.000218	2.180473	0.369382	-0.004362
1471	7.3500e-01	5.2951	3.332911	0.000534	5.344297	0.905348	-0.010691
1472	7.3550e-01	5.2863	3.333767	-0.000009	-0.085509	-0.014486	0.000171
1473	7.3600e-01	5.2753	3.302122	0.000316	3.163824	0.535966	-0.006329
1474	7.3650e-01	5.2673	3.272616	0.000295	2.950052	0.499752	-0.005901
1475	7.3700e-01	5.2582	3.239689	0.000329	3.292087	0.557695	-0.006585
1476	7.3750e-01	5.2492	3.221729	0.000180	1.795684	0.304197	-0.003592
1477	7.3800e-01	5.2362	3.207190	0.000145	1.453649	0.246255	-0.002908
1478	7.3850e-01	5.2264	3.167848	0.000393	3.933402	0.666336	-0.007868
1479	7.3900e-01	5.2164	3.141763	0.000261	2.608017	0.441810	-0.005217
1480	7.3950e-01	5.2039	3.141763	-0.000000	-0.000000	-0.000000	0.000000
1481	7.4000e-01	5.1990	3.093441	0.000483	4.831244	0.818435	-0.009664
1482	7.4050e-01	5.1874	3.079757	0.000137	1.368140	0.231769	-0.002737
1483	7.4100e-01	5.1752	3.022883	0.000569	5.686332	0.963291	-0.011375
1484	7.4150e-01	5.1657	3.019462	0.000034	0.342035	0.057942	-0.000684
1485	7.4200e-01	5.1566	3.001074	0.000184	1.838438	0.311440	-0.003678
1486	7.4250e-01	5.1474	2.970713	0.000304	3.035560	0.514238	-0.006072
1487	7.4300e-01	5.1367	2.953608	0.000171	1.710175	0.289711	-0.003421
1488	7.4350e-01	5.1297	2.895451	0.000581	5.814595	0.985019	-0.011631
1489	7.4400e-01	5.1147	2.886471	0.000090	0.897842	0.152099	-0.001796
1490	7.4450e-01	5.1059	2.867655	0.000188	1.881192	0.318683	-0.003763
1491	7.4500e-01	5.0967	2.840715	0.000269	2.693525	0.456296	-0.005388
1492	7.4550e-01	5.0873	2.807360	0.000333	3.334841	0.564937	-0.006671
1493	7.4600e-01	5.0793	2.782130	0.000252	2.522508	0.427324	-0.005046
1494	7.4650e-01	5.0659	2.753479	0.000286	2.864543	0.485267	-0.005730
1495	7.4700e-01	5.0543	2.743216	0.000103	1.026105	0.173827	-0.002053
1496	7.4750e-01	5.0439	2.689763	0.000534	5.344297	0.905348	-0.010691
1497	7.4800e-01	5.0339	2.692756	-0.000030	-0.299281	-0.050700	0.000599
1498	7.4850e-01	5.0269	2.649139	0.000436	4.360946	0.738764	-0.008724
1499	7.4900e-01	5.0171	2.614501	0.000346	3.463104	0.586666	-0.006928
1500	7.4950e-01	5.0061	2.596541	0.000180	1.795684	0.304197	-0.003592
1501	7.5000e-01	4.9963	2.583284	0.000133	1.325386	0.224526	-0.002651
1502	7.5050e-01	4.9878	2.527693	0.000556	5.558068	0.941562	-0.011118
1503	7.5100e-01	4.9771	2.550785	-0.000231	-2.308736	-0.391110	0.004618
1504	7.5150e-01	4.9683	2.506739	0.000440	4.403700	0.746007	-0.008809
1505	7.5200e-01	4.9557	2.475950	0.000308	3.078315	0.521481	-0.006158
1506	7.5250e-01	4.9483	2.449010	0.000269	2.693525	0.456296	-0.005388
1507	7.5300e-01	4.9371	2.413517	0.000355	3.548613	0.601151	-0.007099
1508	7.5350e-01	4.9261	2.397695	0.000158	1.581912	0.267983	-0.003164
1509	7.5400e-01	4.9176	2.347235	0.000505	5.045016	0.854649	-0.010092
1510	7.5450e-01	4.9063	2.338255	0.000090	0.897842	0.152099	-0.001796
1511	7.5500e-01	4.8944	2.308749	0.000295	2.950052	0.499752	-0.005901
1512	7.5550e-01	4.8883	2.270263	0.000385	3.847894	0.651851	-0.007697
1513	7.5600e-01	4.8743	2.243322	0.000269	2.693525	0.456296	-0.005388
1514	7.5650e-01	4.8636	2.233914	0.000094	0.940596	0.159341	-0.001882
1515	7.5700e-01	4.8581	2.197994	0.000359	3.591367	0.608394	-0.007184
1516	7.5750e-01	4.8444	2.184310	0.000137	1.368140	0.231769	-0.002737
1517	7.5800e-01	4.8364	2.133422	0.000509	5.087770	0.861892	-0.010177
1518	7.5850e-01	4.8285	2.115035	0.000184	1.838438	0.311440	-0.003678
1519	7.5900e-01	4.8169	2.096647	0.000184	1.838438	0.311440	-0.003678
1520	7.5950e-01	4.8055	2.083818	0.000128	1.282631	0.217284	-0.002566
1521	7.6000e-01	4.7963	2.031220	0.000526	5.258788	0.890863	-0.010520
1522	7.6050e-01	4.7833	2.013260	0.000180	1.795684	0.304197	-0.003592
1523	7.6100e-01	4.7748	1.980760	0.000325	3.249332	0.550452	-0.006500
1524	7.6150e-01	4.7662	1.958096	0.000227	2.265982	0.383868	-0.004533
1525	7.6200e-01	4.7546	1.908492	0.000496	4.959507	0.840163	-0.009921
1526	7.6250e-01	4.7455	1.909774	-0.000013	-0.128263	-0.021728	0.000257
1527	7.6300e-01	4.7365	1.875137	0.000346	3.463104	0.586666	-0.006928
1528	7.6350e-01	4.7253	1.864446	0.000107	1.068859	0.181070	-0.002138
1529	7.6400e-01	4.7156	1.824677	0.000398	3.976157	0.673579	-0.007954
1530	7.6450e-01	4.7073	1.789184	0.000355	3.548613	0.601151	-0.007099
1531	7.6500e-01	4.6948	1.754974	0.000342	3.420350	0.579423	-0.006842
1532	7.6550e-01	4.6869	1.752836	0.000021	0.213772	0.036214	-0.000428
1533	7.6600e-01	4.6753	1.721192	0.000316	3.163824	0.535966	-0.006329
1534	7.6650e-01	4.6661	1.695962	0.000252	2.522508	0.427324	-0.005046
1535	7.6700e-01	4.6552	1.663035	0.000329	3.292087	0.557695	-0.006585
1536	7.6750e-01	4.6466	1.642936	0.000201	2.009456	0.340411	-0.004020
1537	7.6800e-01	4.6399	1.604022	0.000389	3.890648	0.659094	-0.007783
1538	7.6850e-01	4.6260	1.564681	0.000393	3.933402	0.666336	-0.007868
1539	7.6900e-01	4.6167	1.553990	0.000107	1.068859	0.181070	-0.002138
1540	7.6950e-01	4.6063	1.521918	0.000321	3.206578	0.543209	-0.006414
1541	7.7000e-01	4.5969	1.494123	0.000278	2.779034	0.470781	-0.005559
1542	7.7050e-01	4.5865	1.491129	0.000030	0.299281	0.050700	-0.000599
1543	7.7100e-01	4.5776	1.445373	0.000457	4.574718	0.774978	-0.009151
1544	7.7150e-01	4.5667	1.418433	0.000269	2.693525	0.456296	-0.005388
1545	7.7200e-01	4.5564	1.388499	0.000299	2.992806	0.506995	-0.005987
1546	7.7250e-01	4.5483	1.359848	0.000286	2.864543	0.485267	-0.005730
1547	7.7300e-01	4.5367	1.328632	0.000312	3.121069	0.528723	-0.006243
1548	7.7350e-01	4.5233	1.313665	0.000150	1.496403	0.253498	-0.002993
1549	7.7400e-01	4.5172	1.270475	0.000432	4.318192	0.731521	-0.008638
1550	7.7450e-01	4.5029	1.270475	-0.000000	-0.000000	-0.000000	0.000000
1551	7.7500e-01	4.4955	1.224719	0.000457	4.574718	0.774978	-0.009151
1552	7.7550e-01	4.4858	1.178535	0.000462	4.617472	0.782221	-0.009237
1553	7.7600e-01	4.4778	1.170410	0.000081	0.812333	0.137613	-0.001625
1554	7.7650e-01	4.4659	1.131069	0.000393	3.933402	0.666336	-0.007868
1555	7.7700e-01	4.4586	1.116102	0.000150	1.496403	0.253498	-0.002993
1556	7.7750e-01	4.4470	1.088306	0.000278	2.779034	0.470781	-0.005559
1557	7.7800e-01	4.4379	1.070346	0.000180	1.795684	0.304197	-0.003592
1558	7.7850e-01	4.4229	1.025445	0.000449	4.489209	0.760493	-0.008980
1559	7.7900e-01	4.4154	1.004064	0.000214	2.137719	0.362139	-0.004276
1560	7.7950e-01	4.4055	0.996795	0.000073	0.726824	0.123127	-0.001454
1561	7.8000e-01	4.3945	0.965578	0.000312	3.121069	0.528723	-0.006243
1562	7.8050e-01	4.3878	0.930513	0.000351	3.505859	0.593909	-0.007013
1563	7.8100e-01	4.3793	0.890743	0.000398	3.976157	0.673579	-0.007954
1564	7.8150e-01	4.3661	0.862520	0.000282	2.821789	0.478024	-0.005645
1565	7.8200e-01	4.3564	0.834297	0.000282	2.821789	0.478024	-0.005645
1566	7.8250e-01	4.3470	0.811205	0.000231	2.308736	0.391110	-0.004618
1567	7.8300e-01	4.3338	0.796666	0.000145	1.453649	0.246255	-0.002908
1568	7.8350e-01	4.3225	0.762028	0.000346	3.463104	0.586666	-0.006928
1569	7.8400e-01	4.3158	0.727391	0.000346	3.463104	0.586666	-0.006928
1570	7.8450e-01	4.3044	0.698312	0.000291	2.907297	0.492510	-0.005816
1571	7.8500e-01	4.2999	0.673510	0.000248	2.479754	0.420082	-0.004960
1572	7.8550e-01	4.2839	0.641438	0.000321	3.206578	0.543209	-0.006414
1573	7.8600e-01	4.2758	0.622195	0.000192	1.923947	0.325925	-0.003849
1574	7.8650e-01	4.2645	0.581570	0.000406	4.061665	0.688065	-0.008125
1575	7.8700e-01	4.2542	0.568742	0.000128	1.282631	0.217284	-0.002566
1576	7.8750e-01	4.2465	0.548643	0.000201	2.009456	0.340411	-0.004020
1577	7.8800e-01	4.2325	0.511012	0.000376	3.762385	0.637365	-0.007526
1578	7.8850e-01	4.2291	0.494335	0.000167	1.667421	0.282469	-0.003335
1579	7.8900e-01	4.2157	0.464829	0.000295	2.950052	0.499752	-0.005901
1580	7.8950e-01	4.2065	0.436605	0.000282	2.821789	0.478024	-0.005645
1581	7.9000e-01	4.1965	0.390422	0.000462	4.617472	0.782221	-0.009237
1582	7.9050e-01	4.1833	0.385290	0.000051	0.513052	0.086913	-0.001026
1583	7.9100e-01	4.1760	0.348942	0.000363	3.634122	0.615637	-0.007270
1584	7.9150e-01	4.1647	0.327133	0.000218	2.180473	0.369382	-0.004362
1585	7.9200e-01	4.1547	0.298055	0.000291	2.907297	0.492510	-0.005816
1586	7.9250e-01	4.1431	0.259141	0.000389	3.890648	0.659094	-0.007783
1587	7.9300e-01	4.1356	0.241181	0.000180	1.795684	0.304197	-0.003592
1588	7.9350e-01	4.1251	0.198418	0.000428	4.275437	0.724279	-0.008553
1589	7.9400e-01	4.1158	0.162498	0.000359	3.591367	0.608394	-0.007184
1590	7.9450e-01	4.1060	0.159504	0.000030	0.299281	0.050700	-0.000599
1591	7.9500e-01	4.0970	0.135985	0.000235	2.351490	0.398353	-0.004704
1592	7.9550e-01	4.0865	0.092795	0.000432	4.318192	0.731521	-0.008638
1593	7.9600e-01	4.0753	0.068420	0.000244	2.436999	0.412839	-0.004875
1594	7.9650e-01	4.0680	0.060723	0.000077	0.769579	0.130370	-0.001539
1595	7.9700e-01	4.0561	0.008553	0.000522	5.216033	0.883620	-0.010434
1596	7.9750e-01	4.0472	-0.013256	0.000218	2.180473	0.369382	-0.004362
1597	7.9800e-01	4.0361	-0.035065	0.000218	2.180473	0.369382	-0.004362
1598	7.9850e-01	4.0253	-0.077828	0.000428	4.275437	0.724279	-0.008553
1599	7.9900e-01	4.0137	-0.105623	0.000278	2.779034	0.470781	-0.005559
1600	7.9950e-01	4.0051	-0.121446	0.000158	1.581912	0.267983	-0.003164
1601	8.0000e-01	3.9954	-0.168912	0.000475	4.745735	0.803949	-0.009493
1602	8.0050e-01	3.9856	-0.189438	0.000205	2.052210	0.347654	-0.004105
1603	8.0100e-01	3.9792	-0.209536	0.000201	2.009456	0.340411	-0.004020
1604	8.0150e-01	3.9649	-0.231345	0.000218	2.180473	0.369382	-0.004362
1605	8.0200e-01	3.9557	-0.265555	0.000342	3.420350	0.579423	-0.006842
1606	8.0250e-01	3.9450	-0.316870	0.000513	5.130525	0.869134	-0.010263
1607	8.0300e-01	3.9340	-0.330554	0.000137	1.368140	0.231769	-0.002737
1608	8.0350e-01	3.9276	-0.384863	0.000543	5.429805	0.919834	-0.010862
1609	8.0400e-01	3.9140	-0.366475	-0.000184	-1.838438	-0.311440	0.003678
1610	8.0450e-01	3.9064	-0.413941	0.000475	4.745735	0.803949	-0.009493
1611	8.0500e-01	3.8959	-0.441309	0.000274	2.736280	0.463538	-0.005474
1612	8.0550e-01	3.8831	-0.440454	-0.000009	-0.085509	-0.014486	0.000171
1613	8.0600e-01	3.8751	-0.489631	0.000492	4.916753	0.832920	-0.009835
1614	8.0650e-01	3.8669	-0.532393	0.000428	4.275437	0.724279	-0.008553
1615	8.0700e-01	3.8568	-0.561900	0.000295	2.950052	0.499752	-0.005901
1616	8.0750e-01	3.8452	-0.595254	0.000333	3.334841	0.564937	-0.006671
1617	8.0800e-01	3.8367	-0.602096	0.000068	0.684070	0.115885	-0.001368
1618	8.0850e-01	3.8272	-0.645287	0.000432	4.318192	0.731521	-0.008638
1619	8.0900e-01	3.8147	-0.661964	0.000167	1.667421	0.282469	-0.003335
1620	8.0950e-01	3.8052	-0.699167	0.000372	3.719630	0.630122	-0.007441
1621	8.1000e-01	3.7924	-0.730812	0.000316	3.163824	0.535966	-0.006329
1622	8.1050e-01	3.7854	-0.771864	0.000410	4.104420	0.695308	-0.008210
1623	8.1100e-01	3.7762	-0.768443	-0.000034	-0.342035	-0.057942	0.000684
1624	8.1150e-01	3.7649	-0.803080	0.000346	3.463104	0.586666	-0.006928
1625	8.1200e-01	3.7540	-0.833442	0.000304	3.035560	0.514238	-0.006072
1626	8.1250e-01	3.7466	-0.844132	0.000107	1.068859	0.181070	-0.002138
1627	8.1300e-01	3.7369	-0.895447	0.000513	5.130525	0.869134	-0.010263
1628	8.1350e-01	3.7270	-0.932651	0.000372	3.719630	0.630122	-0.007441
1629	8.1400e-01	3.7183	-0.946335	0.000137	1.368140	0.231769	-0.002737
1630	8.1450e-01	3.7073	-0.998077	0.000517	5.173279	0.876377	-0.010349
1631	8.1500e-01	3.6945	-1.028011	0.000299	2.992806	0.506995	-0.005987
1632	8.1550e-01	3.6856	-1.035281	0.000073	0.726824	0.123127	-0.001454
1633	8.1600e-01	3.6757	-1.059655	0.000244	2.436999	0.412839	-0.004875
1634	8.1650e-01	3.6647	-1.093865	0.000342	3.420350	0.579423	-0.006842
1635	8.1700e-01	3.6551	-1.137483	0.000436	4.360946	0.738764	-0.008724
1636	8.1750e-01	3.6464	-1.131496	-0.000060	-0.598561	-0.101399	0.001197
1637	8.1800e-01	3.6383	-1.171266	0.000398	3.976157	0.673579	-0.007954
1638	8.1850e-01	3.6261	-1.199917	0.000286	2.864543	0.485267	-0.005730
1639	8.1900e-01	3.6145	-1.247383	0.000475	4.745735	0.803949	-0.009493
1640	8.1950e-01	3.6060	-1.264060	0.000167	1.667421	0.282469	-0.003335
1641	8.2000e-01	3.5956	-1.290145	0.000261	2.608017	0.441810	-0.005217
1642	8.2050e-01	3.5864	-1.330342	0.000402	4.018911	0.680822	-0.008039
1643	8.2100e-01	3.5756	-1.343171	0.000128	1.282631	0.217284	-0.002566
1644	8.2150e-01	3.5657	-1.373105	0.000299	2.992806	0.506995	-0.005987
1645	8.2200e-01	3.5553	-1.423565	0.000505	5.045016	0.854649	-0.010092
1646	8.2250e-01	3.5455	-1.443235	0.000197	1.966701	0.333168	-0.003934
1647	8.2300e-01	3.5364	-1.471031	0.000278	2.779034	0.470781	-0.005559
1648	8.2350e-01	3.5248	-1.499682	0.000286	2.864543	0.485267	-0.005730
1649	8.2400e-01	3.5138	-1.541589	0.000419	4.189929	0.709793	-0.008381
1650	8.2450e-01	3.5083	-1.556128	0.000145	1.453649	0.246255	-0.002908
1651	8.2500e-01	3.4943	-1.586062	0.000299	2.992806	0.506995	-0.005987
1652	8.2550e-01	3.4839	-1.610009	0.000239	2.394245	0.405596	-0.004789
1653	8.2600e-01	3.4787	-1.647640	0.000376	3.762385	0.637365	-0.007526
1654	8.2650e-01	3.4656	-1.686126	0.000385	3.847894	0.651851	-0.007697
1655	8.2700e-01	3.4584	-1.700666	0.000145	1.453649	0.246255	-0.002908
1656	8.2750e-01	3.4451	-1.714777	0.000141	1.410894	0.239012	-0.002822
1657	8.2800e-01	3.4351	-1.770369	0.000556	5.558068	0.941562	-0.011118
1658	8.2850e-01	3.4250	-1.793033	0.000227	2.265982	0.383868	-0.004533
1659	8.2900e-01	3.4152	-1.826815	0.000338	3.377595	0.572180	-0.006756
1660	8.2950e-01	3.4067	-1.844348	0.000175	1.752929	0.296954	-0.003507
1661	8.3000e-01	3.3957	-1.882406	0.000381	3.805139	0.644608	-0.007612
1662	8.3050e-01	3.3884	-1.910202	0.000278	2.779034	0.470781	-0.005559
1663	8.3100e-01	3.3754	-1.928590	0.000184	1.838438	0.311440	-0.003678
1664	8.3150e-01	3.3661	-1.966221	0.000376	3.762385	0.637365	-0.007526
1665	8.3200e-01	3.3568	-2.002997	0.000368	3.676876	0.622880	-0.007355
1666	8.3250e-01	3.3456	-2.035924	0.000329	3.292087	0.557695	-0.006585
1667	8.3300e-01	3.3377	-2.051318	0.000154	1.539157	0.260740	-0.003079
1668	8.3350e-01	3.3272	-2.085528	0.000342	3.420350	0.579423	-0.006842
1669	8.3400e-01	3.3148	-2.106910	0.000214	2.137719	0.362139	-0.004276
1670	8.3450e-01	3.3057	-2.124015	0.000171	1.710175	0.289711	-0.003421
1671	8.3500e-01	3.2979	-2.182172	0.000581	5.814595	0.985019	-0.011631
1672	8.3550e-01	3.2861	-2.196283	0.000141	1.410894	0.239012	-0.002822
1673	8.3600e-01	3.2759	-2.211678	0.000154	1.539157	0.260740	-0.003079
1674	8.3650e-01	3.2645	-2.272401	0.000607	6.071121	1.028476	-0.012145
1675	8.3700e-01	3.2547	-2.275822	0.000034	0.342035	0.057942	-0.000684
1676	8.3750e-01	3.2448	-2.302334	0.000265	2.650771	0.449053	-0.005303
1677	8.3800e-01	3.2368	-2.350229	0.000479	4.788490	0.811192	-0.009579
1678	8.3850e-01	3.2242	-2.385294	0.000351	3.505859	0.593909	-0.007013
1679	8.3900e-01	3.2144	-2.414372	0.000291	2.907297	0.492510	-0.005816
1680	8.3950e-01	3.2022	-2.431905	0.000175	1.752929	0.296954	-0.003507
1681	8.4000e-01	3.1958	-2.473812	0.000419	4.189929	0.709793	-0.008381
1682	8.4050e-01	3.1857	-2.514009	0.000402	4.018911	0.680822	-0.008039
1683	8.4100e-01	3.1738	-2.523844	0.000098	0.983351	0.166584	-0.001967
1684	8.4150e-01	3.1665	-2.570028	0.000462	4.617472	0.782221	-0.009237
1685	8.4200e-01	3.1573	-2.594403	0.000244	2.436999	0.412839	-0.004875
1686	8.4250e-01	3.1447	-2.619632	0.000252	2.522508	0.427324	-0.005046
1687	8.4300e-01	3.1358	-2.655125	0.000355	3.548613	0.601151	-0.007099
1688	8.4350e-01	3.1256	-2.669237	0.000141	1.410894	0.239012	-0.002822
1689	8.4400e-01	3.1154	-2.698315	0.000291	2.907297	0.492510	-0.005816
1690	8.4450e-01	3.1061	-2.747920	0.000496	4.959507	0.840163	-0.009921
1691	8.4500e-01	3.0963	-2.754334	0.000064	0.641316	0.108642	-0.001283
1692	8.4550e-01	3.0835	-2.777426	0.000231	2.308736	0.391110	-0.004618
1693	8.4600e-01	3.0777	-2.824893	0.000475	4.745735	0.803949	-0.009493
1694	8.4650e-01	3.0670	-2.846701	0.000218	2.180473	0.369382	-0.004362
1695	8.4700e-01	3.0568	-2.885188	0.000385	3.847894	0.651851	-0.007697
1696	8.4750e-01	3.0469	-2.935220	0.000500	5.002262	0.847406	-0.010006
1697	8.4800e-01	3.0371	-2.936503	0.000013	0.128263	0.021728	-0.000257
1698	8.4850e-01	3.0275	-2.982259	0.000457	4.574718	0.774978	-0.009151
1699	8.4900e-01	3.0136	-3.012192	0.000299	2.992806	0.506995	-0.005987
1700	8.4950e-01	3.0066	-3.033574	0.000214	2.137719	0.362139	-0.004276
1701	8.5000e-01	2.9956	-3.050251	0.000167	1.667421	0.282469	-0.003335
1702	8.5050e-01	2.9868	-3.080185	0.000299	2.992806	0.506995	-0.005987
1703	8.5100e-01	2.9758	-3.120382	0.000402	4.018911	0.680822	-0.008039
1704	8.5150e-01	2.9672	-3.149033	0.000286	2.864543	0.485267	-0.005730
1705	8.5200e-01	2.9550	-3.185381	0.000363	3.634122	0.615637	-0.007270
1706	8.5250e-01	2.9477	-3.211038	0.000257	2.565262	0.434567	-0.005132
1707	8.5300e-01	2.9364	-3.230281	0.000192	1.923947	0.325925	-0.003849
1708	8.5350e-01	2.9279	-3.282452	0.000522	5.216033	0.883620	-0.010434
1709	8.5400e-01	2.9169	-3.305543	0.000231	2.308736	0.391110	-0.004618
1710	8.5450e-01	2.9073	-3.328635	0.000231	2.308736	0.391110	-0.004618
1711	8.5500e-01	2.8961	-3.362418	0.000338	3.377595	0.572180	-0.006756
1712	8.5550e-01	2.8845	-3.400904	0.000385	3.847894	0.651851	-0.007697
1713	8.5600e-01	2.8748	-3.435114	0.000342	3.420350	0.579423	-0.006842
1714	8.5650e-01	2.8650	-3.454357	0.000192	1.923947	0.325925	-0.003849
1715	8.5700e-01	2.8558	-3.514652	0.000603	6.028367	1.021233	-0.012059
1716	8.5750e-01	2.8448	-3.533895	0.000192	1.923947	0.325925	-0.003849
1717	8.5800e-01	2.8366	-3.562546	0.000286	2.864543	0.485267	-0.005730
1718	8.5850e-01	2.8250	-3.568533	0.000060	0.598561	0.101399	-0.001197
1719	8.5900e-01	2.8138	-3.601888	0.000333	3.334841	0.564937	-0.006671
1720	8.5950e-01	2.8058	-3.643367	0.000415	4.147174	0.702550	-0.008296
1721	8.6000e-01	2.7943	-3.670308	0.000269	2.693525	0.456296	-0.005388
1722	8.6050e-01	2.7857	-3.687413	0.000171	1.710175	0.289711	-0.003421
1723	8.6100e-01	2.7762	-3.724189	0.000368	3.676876	0.622880	-0.007355
1724	8.6150e-01	2.7658	-3.751557	0.000274	2.736280	0.463538	-0.005474
1725	8.6200e-01	2.7547	-3.796030	0.000445	4.446455	0.753250	-0.008895
1726	8.6250e-01	2.7451	-3.823825	0.000278	2.779034	0.470781	-0.005559
1727	8.6300e-01	2.7364	-3.850338	0.000265	2.650771	0.449053	-0.005303
1728	8.6350e-01	2.7244	-3.889252	0.000389	3.890648	0.659094	-0.007783
1729	8.6400e-01	2.7142	-3.932442	0.000432	4.318192	0.731521	-0.008638
1730	8.6450e-01	2.7045	-3.932014	-0.000004	-0.042754	-0.007243	0.000086
1731	8.6500e-01	2.6942	-3.967507	0.000355	3.548613	0.601151	-0.007099
1732	8.6550e-01	2.6862	-3.997869	0.000304	3.035560	0.514238	-0.006072
1733	8.6600e-01	2.6768	-4.030368	0.000325	3.249332	0.550452	-0.006500
1734	8.6650e-01	2.6649	-4.055598	0.000252	2.522508	0.427324	-0.005046
1735	8.6700e-01	2.6575	-4.094084	0.000385	3.847894	0.651851	-0.007697
1736	8.6750e-01	2.6443	-4.119314	0.000252	2.522508	0.427324	-0.005046
1737	8.6800e-01	2.6364	-4.139413	0.000201	2.009456	0.340411	-0.004020
1738	8.6850e-01	2.6236	-4.199708	0.000603	6.028367	1.021233	-0.012059
1739	8.6900e-01	2.6160	-4.221517	0.000218	2.180473	0.369382	-0.004362
1740	8.6950e-01	2.6044	-4.264707	0.000432	4.318192	0.731521	-0.008638
1741	8.7000e-01	2.5957	-4.292930	0.000282	2.821789	0.478024	-0.005645
1742	8.7050e-01	2.5887	-4.313456	0.000205	2.052210	0.347654	-0.004105
1743	8.7100e-01	2.5754	-4.332699	0.000192	1.923947	0.325925	-0.003849
1744	8.7150e-01	2.5653	-4.367337	0.000346	3.463104	0.586666	-0.006928
1745	8.7200e-01	2.5552	-4.398981	0.000316	3.163824	0.535966	-0.006329
1746	8.7250e-01	2.5462	-4.450724	0.000517	5.173279	0.876377	-0.010349
1747	8.7300e-01	2.5348	-4.476381	0.000257	2.565262	0.434567	-0.005132
1748	8.7350e-01	2.5258	-4.481941	0.000056	0.555807	0.094156	-0.001112
1749	8.7400e-01	2.5124	-4.517433	0.000355	3.548613	0.601151	-0.007099
1750	8.7450e-01	2.5055	-4.546940	0.000295	2.950052	0.499752	-0.005901
1751	8.7500e-01	2.4945	-4.581150	0.000342	3.420350	0.579423	-0.006842
1752	8.7550e-01	2.4854	-4.634175	0.000530	5.301542	0.898106	-0.010605
1753	8.7600e-01	2.4785	-4.670096	0.000359	3.591367	0.608394	-0.007184
1754	8.7650e-01	2.4669	-4.679503	0.000094	0.940596	0.159341	-0.001882
1755	8.7700e-01	2.4551	-4.708582	0.000291	2.907297	0.492510	-0.005816
1756	8.7750e-01	2.4445	-4.753910	0.000453	4.531964	0.767735	-0.009066
1757	8.7800e-01	2.4380	-4.777002	0.000231	2.308736	0.391110	-0.004618
1758	8.7850e-01	2.4255	-4.812067	0.000351	3.505859	0.593909	-0.007013
1759	8.7900e-01	2.4130	-4.843711	0.000316	3.163824	0.535966	-0.006329
1760	8.7950e-01	2.4054	-4.869369	0.000257	2.565262	0.434567	-0.005132
1761	8.8000e-01	2.3985	-4.912132	0.000428	4.275437	0.724279	-0.008553
1762	8.8050e-01	2.3853	-4.943776	0.000316	3.163824	0.535966	-0.006329
1763	8.8100e-01	2.3743	-4.970289	0.000265	2.650771	0.449053	-0.005303
1764	8.8150e-01	2.3657	-5.001933	0.000316	3.163824	0.535966	-0.006329
1765	8.8200e-01	2.3573	-5.030156	0.000282	2.821789	0.478024	-0.005645
1766	8.8250e-01	2.3476	-5.046833	0.000167	1.667421	0.282469	-0.003335
1767	8.8300e-01	2.3370	-5.116964	0.000701	7.011717	1.187817	-0.014026
1768	8.8350e-01	2.3248	-5.129793	0.000128	1.282631	0.217284	-0.002566
1769	8.8400e-01	2.3120	-5.160582	0.000308	3.078315	0.521481	-0.006158
1770	8.8450e-01	2.3091	-5.183246	0.000227	2.265982	0.383868	-0.004533
1771	8.8500e-01	2.2958	-5.217456	0.000342	3.420350	0.579423	-0.006842
1772	8.8550e-01	2.2869	-5.240975	0.000235	2.351490	0.398353	-0.004704
1773	8.8600e-01	2.2737	-5.275613	0.000346	3.463104	0.586666	-0.006928
1774	8.8650e-01	2.2666	-5.304692	0.000291	2.907297	0.492510	-0.005816
1775	8.8700e-01	2.2568	-5.340184	0.000355	3.548613	0.601151	-0.007099
1776	8.8750e-01	2.2449	-5.368835	0.000286	2.864543	0.485267	-0.005730
1777	8.8800e-01	2.2360	-5.403045	0.000342	3.420350	0.579423	-0.006842
1778	8.8850e-01	2.2272	-5.449657	0.000466	4.660227	0.789464	-0.009322
1779	8.8900e-01	2.2166	-5.475742	0.000261	2.608017	0.441810	-0.005217
1780	8.8950e-01	2.2050	-5.517221	0.000415	4.147174	0.702550	-0.008296
1781	8.9000e-01	2.1944	-5.546727	0.000295	2.950052	0.499752	-0.005901
1782	8.9050e-01	2.1840	-5.578372	0.000316	3.163824	0.535966	-0.006329
1783	8.9100e-01	2.1758	-5.597187	0.000188	1.881192	0.318683	-0.003763
1784	8.9150e-01	2.1637	-5.614720	0.000175	1.752929	0.296954	-0.003507
1785	8.9200e-01	2.1552	-5.669456	0.000547	5.472560	0.927077	-0.010947
1786	8.9250e-01	2.1463	-5.698534	0.000291	2.907297	0.492510	-0.005816
1787	8.9300e-01	2.1322	-5.723337	0.000248	2.479754	0.420082	-0.004960
1788	8.9350e-01	2.1240	-5.761823	0.000385	3.847894	0.651851	-0.007697
1789	8.9400e-01	2.1157	-5.786198	0.000244	2.436999	0.412839	-0.004875
1790	8.9450e-01	2.1014	-5.821690	0.000355	3.548613	0.601151	-0.007099
1791	8.9500e-01	2.0947	-5.846065	0.000244	2.436999	0.412839	-0.004875
1792	8.9550e-01	2.0856	-5.879420	0.000333	3.334841	0.564937	-0.006671
1793	8.9600e-01	2.0728	-5.891821	0.000124	1.239877	0.210041	-0.002480
1794	8.9650e-01	2.0653	-5.948695	0.000569	5.686332	0.963291	-0.011375
1795	8.9700e-01	2.0505	-5.964517	0.000158	1.581912	0.267983	-0.003164
1796	8.9750e-01	2.0463	-6.020109	0.000556	5.558068	0.941562	-0.011118
1797	8.9800e-01	2.0343	-6.044911	0.000248	2.479754	0.420082	-0.004960
1798	8.9850e-01	2.0251	-6.079976	0.000351	3.505859	0.593909	-0.007013
1799	8.9900e-01	2.0134	-6.089812	0.000098	0.983351	0.166584	-0.001967
1800	8.9950e-01	2.0059	-6.136423	0.000466	4.660227	0.789464	-0.009322
1801	9.0000e-01	1.9968	-6.174909	0.000385	3.847894	0.651851	-0.007697
1802	9.0050e-01	1.9836	-6.210402	0.000355	3.548613	0.601151	-0.007099
1803	9.0100e-01	1.9734	-6.237342	0.000269	2.693525	0.456296	-0.005388
1804	9.0150e-01	1.9644	-6.261717	0.000244	2.436999	0.412839	-0.004875
1805	9.0200e-01	1.9571	-6.304052	0.000423	4.232683	0.717036	-0.008467
1806	9.0250e-01	1.9440	-6.336979	0.000329	3.292087	0.557695	-0.006585
1807	9.0300e-01	1.9362	-6.358788	0.000218	2.180473	0.369382	-0.004362
1808	9.0350e-01	1.9223	-6.405399	0.000466	4.660227	0.789464	-0.009322
1809	9.0400e-01	1.9136	-6.431484	0.000261	2.608017	0.441810	-0.005217
1810	9.0450e-01	1.9067	-6.452865	0.000214	2.137719	0.362139	-0.004276
1811	9.0500e-01	1.8961	-6.506319	0.000534	5.344297	0.905348	-0.010691
1812	9.0550e-01	1.8823	-6.530266	0.000239	2.394245	0.405596	-0.004789
1813	9.0600e-01	1.8751	-6.550364	0.000201	2.009456	0.340411	-0.004020
1814	9.0650e-01	1.8656	-6.598258	0.000479	4.788490	0.811192	-0.009579
1815	9.0700e-01	1.8564	-6.625198	0.000269	2.693525	0.456296	-0.005388
1816	9.0750e-01	1.8452	-6.644442	0.000192	1.923947	0.325925	-0.003849
1817	9.0800e-01	1.8347	-6.715000	0.000705	7.054471	1.195060	-0.014112
1818	9.0850e-01	1.8244	-6.726118	0.000111	1.111614	0.188312	-0.002224
1819	9.0900e-01	1.8179	-6.748782	0.000227	2.265982	0.383868	-0.004533
1820	9.0950e-01	1.8027	-6.774012	0.000252	2.522508	0.427324	-0.005046
1821	9.1000e-01	1.7910	-6.802235	0.000282	2.821789	0.478024	-0.005645
1822	9.1050e-01	1.7836	-6.868517	0.000663	6.626928	1.122632	-0.013256
1823	9.1100e-01	1.7768	-6.893319	0.000248	2.479754	0.420082	-0.004960
1824	9.1150e-01	1.7649	-6.921115	0.000278	2.779034	0.470781	-0.005559
1825	9.1200e-01	1.7542	-6.951904	0.000308	3.078315	0.521481	-0.006158
1826	9.1250e-01	1.7470	-6.979700	0.000278	2.779034	0.470781	-0.005559
1827	9.1300e-01	1.7346	-7.013055	0.000333	3.334841	0.564937	-0.006671
1828	9.1350e-01	1.7278	-7.054962	0.000419	4.189929	0.709793	-0.008381
1829	9.1400e-01	1.7144	-7.104994	0.000500	5.002262	0.847406	-0.010006
1830	9.1450e-01	1.7049	-7.131934	0.000269	2.693525	0.456296	-0.005388
1831	9.1500e-01	1.6956	-7.136211	0.000043	0.427544	0.072428	-0.000855
1832	9.1550e-01	1.6812	-7.181111	0.000449	4.489209	0.760493	-0.008980
1833	9.1600e-01	1.6749	-7.239696	0.000586	5.857349	0.992262	-0.011717
1834	9.1650e-01	1.6623	-7.236275	-0.000034	-0.342035	-0.057942	0.000684
1835	9.1700e-01	1.6530	-7.285024	0.000487	4.873998	0.825678	-0.009750
1836	9.1750e-01	1.6426	-7.323510	0.000385	3.847894	0.651851	-0.007697
1837	9.1800e-01	1.6345	-7.359003	0.000355	3.548613	0.601151	-0.007099
1838	9.1850e-01	1.6253	-7.373970	0.000150	1.496403	0.253498	-0.002993
1839	9.1900e-01	1.6141	-7.421437	0.000475	4.745735	0.803949	-0.009493
1840	9.1950e-01	1.6055	-7.441535	0.000201	2.009456	0.340411	-0.004020
1841	9.2000e-01	1.5955	-7.492850	0.000513	5.130525	0.869134	-0.010263
1842	9.2050e-01	1.5851	-7.513376	0.000205	2.052210	0.347654	-0.004105
1843	9.2100e-01	1.5743	-7.543737	0.000304	3.035560	0.514238	-0.006072
1844	9.2150e-01	1.5631	-7.571105	0.000274	2.736280	0.463538	-0.005474
1845	9.2200e-01	1.5553	-7.615151	0.000440	4.403700	0.746007	-0.008809
1846	9.2250e-01	1.5440	-7.653210	0.000381	3.805139	0.644608	-0.007612
1847	9.2300e-01	1.5353	-7.688702	0.000355	3.548613	0.601151	-0.007099
1848	9.2350e-01	1.5277	-7.719491	0.000308	3.078315	0.521481	-0.006158
1849	9.2400e-01	1.5137	-7.755412	0.000359	3.591367	0.608394	-0.007184
1850	9.2450e-01	1.5059	-7.784490	0.000291	2.907297	0.492510	-0.005816
1851	9.2500e-01	1.4938	-7.795181	0.000107	1.068859	0.181070	-0.002138
1852	9.2550e-01	1.4841	-7.861035	0.000658	6.584173	1.115389	-0.013171
1853	9.2600e-01	1.4742	-7.885838	0.000248	2.479754	0.420082	-0.004960
1854	9.2650e-01	1.4662	-7.909785	0.000239	2.394245	0.405596	-0.004789
1855	9.2700e-01	1.4529	-7.928173	0.000184	1.838438	0.311440	-0.003678
1856	9.2750e-01	1.4435	-7.989751	0.000616	6.156630	1.042961	-0.012316
1857	9.2800e-01	1.4346	-8.008994	0.000192	1.923947	0.325925	-0.003849
1858	9.2850e-01	1.4261	-8.050046	0.000410	4.104420	0.695308	-0.008210
1859	9.2900e-01	1.4164	-8.078697	0.000286	2.864543	0.485267	-0.005730
1860	9.2950e-01	1.4038	-8.117611	0.000389	3.890648	0.659094	-0.007783
1861	9.3000e-01	1.3937	-8.144979	0.000274	2.736280	0.463538	-0.005474
1862	9.3050e-01	1.3839	-8.169353	0.000244	2.436999	0.412839	-0.004875
1863	9.3100e-01	1.3742	-8.216820	0.000475	4.745735	0.803949	-0.009493
1864	9.3150e-01	1.3627	-8.252313	0.000355	3.548613	0.601151	-0.007099
1865	9.3200e-01	1.3538	-8.283102	0.000308	3.078315	0.521481	-0.006158
1866	9.3250e-01	1.3434	-8.322015	0.000389	3.890648	0.659094	-0.007783
1867	9.3300e-01	1.3354	-8.358364	0.000363	3.634122	0.615637	-0.007270
1868	9.3350e-01	1.3247	-8.388297	0.000299	2.992806	0.506995	-0.005987
1869	9.3400e-01	1.3161	-8.420369	0.000321	3.206578	0.543209	-0.006414
1870	9.3450e-01	1.3049	-8.453296	0.000329	3.292087	0.557695	-0.006585
1871	9.3500e-01	1.2981	-8.489217	0.000359	3.591367	0.608394	-0.007184
1872	9.3550e-01	1.2847	-8.528986	0.000398	3.976157	0.673579	-0.007954
1873	9.3600e-01	1.2743	-8.562768	0.000338	3.377595	0.572180	-0.006756
1874	9.3650e-01	1.2661	-8.585433	0.000227	2.265982	0.383868	-0.004533
1875	9.3700e-01	1.2525	-8.602110	0.000167	1.667421	0.282469	-0.003335
1876	9.3750e-01	1.2485	-8.662405	0.000603	6.028367	1.021233	-0.012059
1877	9.3800e-01	1.2350	-8.685925	0.000235	2.351490	0.398353	-0.004704
1878	9.3850e-01	1.2263	-8.739805	0.000539	5.387051	0.912591	-0.010776
1879	9.3900e-01	1.2162	-8.750924	0.000111	1.111614	0.188312	-0.002224
1880	9.3950e-01	1.2054	-8.807798	0.000569	5.686332	0.963291	-0.011375
1881	9.4000e-01	1.1938	-8.849705	0.000419	4.189929	0.709793	-0.008381
1882	9.4050e-01	1.1842	-8.874080	0.000244	2.436999	0.412839	-0.004875
1883	9.4100e-01	1.1775	-8.896744	0.000227	2.265982	0.383868	-0.004533
1884	9.4150e-01	1.1668	-8.914276	0.000175	1.752929	0.296954	-0.003507
1885	9.4200e-01	1.1577	-8.963453	0.000492	4.916753	0.832920	-0.009835
1886	9.4250e-01	1.1428	-8.996381	0.000329	3.292087	0.557695	-0.006585
1887	9.4300e-01	1.1371	-9.052827	0.000564	5.643577	0.956048	-0.011289
1888	9.4350e-01	1.1262	-9.066083	0.000133	1.325386	0.224526	-0.002651
1889	9.4400e-01	1.1131	-9.107563	0.000415	4.147174	0.702550	-0.008296
1890	9.4450e-01	1.1044	-9.147760	0.000402	4.018911	0.680822	-0.008039
1891	9.4500e-01	1.0968	-9.170424	0.000227	2.265982	0.383868	-0.004533
1892	9.4550e-01	1.0844	-9.188812	0.000184	1.838438	0.311440	-0.003678
1893	9.4600e-01	1.0754	-9.235423	0.000466	4.660227	0.789464	-0.009322
1894	9.4650e-01	1.0640	-9.272199	0.000368	3.676876	0.622880	-0.007355
1895	9.4700e-01	1.0538	-9.305981	0.000338	3.377595	0.572180	-0.006756
1896	9.4750e-01	1.0449	-9.339764	0.000338	3.377595	0.572180	-0.006756
1897	9.4800e-01	1.0369	-9.394500	0.000547	5.472560	0.927077	-0.010947
1898	9.4850e-01	1.0250	-9.403052	0.000086	0.855087	0.144856	-0.001711
1899	9.4900e-01	1.0165	-9.438545	0.000355	3.548613	0.601151	-0.007099
1900	9.4950e-01	1.0046	-9.474038	0.000355	3.548613	0.601151	-0.007099
1901	9.5000e-01	0.9948	-9.505255	0.000312	3.121069	0.528723	-0.006243
1902	9.5050e-01	0.9868	-9.552721	0.000475	4.745735	0.803949	-0.009493
1903	9.5100e-01	0.9752	-9.577096	0.000244	2.436999	0.412839	-0.004875
1904	9.5150e-01	0.9653	-9.612161	0.000351	3.505859	0.593909	-0.007013
1905	9.5200e-01	0.9576	-9.658772	0.000466	4.660227	0.789464	-0.009322
1906	9.5250e-01	0.9455	-9.674167	0.000154	1.539157	0.260740	-0.003079
1907	9.5300e-01	0.9373	-9.705383	0.000312	3.121069	0.528723	-0.006243
1908	9.5350e-01	0.9272	-9.773803	0.000684	6.840700	1.158846	-0.013684
1909	9.5400e-01	0.9155	-9.809724	0.000359	3.591367	0.608394	-0.007184
1910	9.5450e-01	0.9059	-9.829822	0.000201	2.009456	0.340411	-0.004020
1911	9.5500e-01	0.8939	-9.861466	0.000316	3.163824	0.535966	-0.006329
1912	9.5550e-01	0.8878	-9.911071	0.000496	4.959507	0.840163	-0.009921
1913	9.5600e-01	0.8773	-9.945709	0.000346	3.463104	0.586666	-0.006928
1914	9.5650e-01	0.8637	-9.963241	0.000175	1.752929	0.296954	-0.003507
1915	9.5700e-01	0.8568	-10.020115	0.000569	5.686332	0.963291	-0.011375
1916	9.5750e-01	0.8462	-10.064161	0.000440	4.403700	0.746007	-0.008809
1917	9.5800e-01	0.8366	-10.057319	-0.000068	-0.684070	-0.115885	0.001368
1918	9.5850e-01	0.8248	-10.108634	0.000513	5.130525	0.869134	-0.010263
1919	9.5900e-01	0.8178	-10.171922	0.000633	6.327647	1.071932	-0.012658
1920	9.5950e-01	0.8048	-10.185606	0.000137	1.368140	0.231769	-0.002737
1921	9.6000e-01	0.7963	-10.230079	0.000445	4.446455	0.753250	-0.008895
1922	9.6050e-01	0.7856	-10.243336	0.000133	1.325386	0.224526	-0.002651
1923	9.6100e-01	0.7774	-10.292940	0.000496	4.959507	0.840163	-0.009921
1924	9.6150e-01	0.7670	-10.327578	0.000346	3.463104	0.586666	-0.006928
1925	9.6200e-01	0.7564	-10.360933	0.000333	3.334841	0.564937	-0.006671
1926	9.6250e-01	0.7442	-10.388301	0.000274	2.736280	0.463538	-0.005474
1927	9.6300e-01	0.7342	-10.440043	0.000517	5.173279	0.876377	-0.010349
1928	9.6350e-01	0.7223	-10.453300	0.000133	1.325386	0.224526	-0.002651
1929	9.6400e-01	0.7157	-10.511029	0.000577	5.771840	0.977776	-0.011546
1930	9.6450e-01	0.7090	-10.554647	0.000436	4.360946	0.738764	-0.008724
1931	9.6500e-01	0.6918	-10.560634	0.000060	0.598561	0.101399	-0.001197
1932	9.6550e-01	0.6833	-10.619218	0.000586	5.857349	0.992262	-0.011717
1933	9.6600e-01	0.6747	-10.642738	0.000235	2.351490	0.398353	-0.004704
1934	9.6650e-01	0.6660	-10.676520	0.000338	3.377595	0.572180	-0.006756
1935	9.6700e-01	0.6561	-10.715007	0.000385	3.847894	0.651851	-0.007697
1936	9.6750e-01	0.6463	-10.749644	0.000346	3.463104	0.586666	-0.006928
1937	9.6800e-01	0.6365	-10.791124	0.000415	4.147174	0.702550	-0.008296
1938	9.6850e-01	0.6248	-10.817209	0.000261	2.608017	0.441810	-0.005217
1939	9.6900e-01	0.6168	-10.860399	0.000432	4.318192	0.731521	-0.008638
1940	9.6950e-01	0.6078	-10.920694	0.000603	6.028367	1.021233	-0.012059
1941	9.7000e-01	0.5963	-10.945069	0.000244	2.436999	0.412839	-0.004875
1942	9.7050e-01	0.5854	-10.964312	0.000192	1.923947	0.325925	-0.003849
1943	9.7100e-01	0.5762	-11.001088	0.000368	3.676876	0.622880	-0.007355
1944	9.7150e-01	0.5648	-11.045133	0.000440	4.403700	0.746007	-0.008809
1945	9.7200e-01	0.5578	-11.064376	0.000192	1.923947	0.325925	-0.003849
1946	9.7250e-01	0.5426	-11.105001	0.000406	4.061665	0.688065	-0.008125
1947	9.7300e-01	0.5361	-11.156316	0.000513	5.130525	0.869134	-0.010263
1948	9.7350e-01	0.5268	-11.187532	0.000312	3.121069	0.528723	-0.006243
1949	9.7400e-01	0.5170	-11.220032	0.000325	3.249332	0.550452	-0.006500
1950	9.7450e-01	0.5056	-11.243551	0.000235	2.351490	0.398353	-0.004704
1951	9.7500e-01	0.4943	-11.293156	0.000496	4.959507	0.840163	-0.009921
1952	9.7550e-01	0.4835	-11.334636	0.000415	4.147174	0.702550	-0.008296
1953	9.7600e-01	0.4777	-11.361148	0.000265	2.650771	0.449053	-0.005303
1954	9.7650e-01	0.4643	-11.412891	0.000517	5.173279	0.876377	-0.010349
1955	9.7700e-01	0.4538	-11.447101	0.000342	3.420350	0.579423	-0.006842
1956	9.7750e-01	0.4456	-11.478745	0.000316	3.163824	0.535966	-0.006329
1957	9.7800e-01	0.4350	-11.507824	0.000291	2.907297	0.492510	-0.005816
1958	9.7850e-01	0.4246	-11.559566	0.000517	5.173279	0.876377	-0.010349
1959	9.7900e-01	0.4166	-11.601901	0.000423	4.232683	0.717036	-0.008467
1960	9.7950e-01	0.4047	-11.613875	0.000120	1.197122	0.202798	-0.002395
1961	9.8000e-01	0.3941	-11.670749	0.000569	5.686332	0.963291	-0.011375
1962	9.8050e-01	0.3836	-11.697262	0.000265	2.650771	0.449053	-0.005303
1963	9.8100e-01	0.3771	-11.728906	0.000316	3.163824	0.535966	-0.006329
1964	9.8150e-01	0.3643	-11.778938	0.000500	5.002262	0.847406	-0.010006
1965	9.8200e-01	0.3546	-11.825122	0.000462	4.617472	0.782221	-0.009237
1966	9.8250e-01	0.3473	-11.835812	0.000107	1.068859	0.181070	-0.002138
1967	9.8300e-01	0.3330	-11.869595	0.000338	3.377595	0.572180	-0.006756
1968	9.8350e-01	0.3218	-11.929035	0.000594	5.942858	1.006747	-0.011888
1969	9.8400e-01	0.3164	-11.974363	0.000453	4.531964	0.767735	-0.009066
1970	9.8450e-01	0.3050	-11.988902	0.000145	1.453649	0.246255	-0.002908
1971	9.8500e-01	0.2937	-12.055612	0.000667	6.669682	1.129875	-0.013342
1972	9.8550e-01	0.2856	-12.075283	0.000197	1.966701	0.333168	-0.003934
1973	9.8600e-01	0.2747	-12.113341	0.000381	3.805139	0.644608	-0.007612
1974	9.8650e-01	0.2628	-12.165511	0.000522	5.216033	0.883620	-0.010434
1975	9.8700e-01	0.2518	-12.190741	0.000252	2.522508	0.427324	-0.005046
1976	9.8750e-01	0.2473	-12.200577	0.000098	0.983351	0.166584	-0.001967
1977	9.8800e-01	0.2365	-12.238635	0.000381	3.805139	0.644608	-0.007612
1978	9.8850e-01	0.2257	-12.289523	0.000509	5.087770	0.861892	-0.010177
1979	9.8900e-01	0.2151	-12.325871	0.000363	3.634122	0.615637	-0.007270
1980	9.8950e-01	0.2062	-12.386166	0.000603	6.028367	1.021233	-0.012059
1981	9.9000e-01	0.1935	-12.406264	0.000201	2.009456	0.340411	-0.004020
1982	9.9050e-01	0.1837	-12.437481	0.000312	3.121069	0.528723	-0.006243
1983	9.9100e-01	0.1733	-12.492645	0.000552	5.515314	0.934319	-0.011033
1984	9.9150e-01	0.1633	-12.499487	0.000068	0.684070	0.115885	-0.001368
1985	9.9200e-01	0.1537	-12.553795	0.000543	5.429805	0.919834	-0.010862
1986	9.9250e-01	0.1431	-12.601689	0.000479	4.788490	0.811192	-0.009579
1987	9.9300e-01	0.1341	-12.629485	0.000278	2.779034	0.470781	-0.005559
1988	9.9350e-01	0.1244	-12.671820	0.000423	4.232683	0.717036	-0.008467
1989	9.9400e-01	0.1157	-12.679945	0.000081	0.812333	0.137613	-0.001625
1990	9.9450e-01	0.1054	-12.734681	0.000547	5.472560	0.927077	-0.010947
1991	9.9500e-01	0.0930	-12.780864	0.000462	4.617472	0.782221	-0.009237
1992	9.9550e-01	0.0838	-12.832607	0.000517	5.173279	0.876377	-0.010349
1993	9.9600e-01	0.0777	-12.852278	0.000197	1.966701	0.333168	-0.003934
1994	9.9650e-01	0.0673	-12.908724	0.000564	5.643577	0.956048	-0.011289
1995	9.9700e-01	0.0544	-12.940796	0.000321	3.206578	0.543209	-0.006414
1996	9.9750e-01	0.0430	-12.973296	0.000325	3.249332	0.550452	-0.006500
1997	9.9800e-01	0.0355	-13.025893	0.000526	5.258788	0.890863	-0.010520
1998	9.9850e-01	0.0254	-13.056255	0.000304	3.035560	0.514238	-0.006072
1999	9.9900e-01	0.0134	-13.067373	0.000111	1.111614	0.188312	-0.002224
2000	9.9950e-01	0.0033	-13.120826	0.000534	5.344297	0.905348	-0.010691
2001	1.0000e+00	-0.0053	-13.164444	0.000534	5.344297	0.905348	-0.008724

PMax (uC/cm2):	2.79e+01
Pr (uC/cm2):	7.98e-01
-Pr (uC/cm2):	0.00e+00
PLoss (uC/cm2):	0.00e+00
C (Max-Eff) (nF):	2.79e-01
K (Eff):	4.73e+02
Vert. (+/-Pr) Shift (uC/cm2):	3.99e-01
Offset (uC/cm2):	1.40e+01

A (Loop Area - uC/cm2·Volts):	-9.09e-03



Hysteresis Version: 5.48.1 - Radiant Technologies, Inc., 1999 - 9/12/24

