»»»»»»»»»»»»»»»»»»»»»»»»»»»»»»»»»»»» Hysteresis ««««««««««««««««««««««««««««««««««««
»»»  Executed Version:	5.48.1
»»»  Vision Version:	5.48.4 (R)
»»»  Vision Compiled:	9/18/24
»»»  Driver Version:	5.47.0
»»»  Windows Version:	Windows 8 or 8.1
»»»  Processor Information:	x86 (AMD or Intel) - 32 Processors
»»»  Tester Name:	PMF21124-494 (100V)
»»»  Tester S/N:	PMF21124-494
»»»  Internal Amp Type:	100V RevK 270k
»»»  Internal Amp S/N:	iAB2-596/K     
»»»  Execution Count:	1
»»»»»»»»»»»»»»»»»»»»»»»»»»»»»»»»»»»»»»»»»»««««««««««««««««««««««««««««««««««««««««««

Stored:	6/27/2025 - 15:41:47
Configured:	06/27/25 11:23:28 AM
Executed:	06/27/25 03:41:24 PM

»»»»»»»»»»»»»»»»»»»»»»»»»»»»»»»»»»» Sample Info ««««««««««««««««««««««««««««««««««««
Sample Name:	
Lot Name:	
Wafer Name:	
Die Row/Column:	0/0
Capacitor Number:	0
Sample Area (cm2):	1.00e-04
Sample Thickness (microns):	1.50e-01

Amplifier:	Internal

»»»»»»»»»»»»»»»»»»»»»»»»»»»»»»»»»»» Tester Info «««««««««««««««««««««««««««««««««««
Tester Name:	PMF21124-494 (100V)
Tester Serial Number:	PMF21124-494
Return Signal Amp. Level:	1.79 [Index: 2]

»»»»»»»»»»»»»»»»»»»»»»»»»»»»»»»» Hysteresis Info ««««««««««««««««««««««««««««««««««
Task Name:	Hyst-1276
Volts:	10.00
Field:	666.67 (kV/cm)
DCBias:	0.00
DCField:	0.00 (kV/cm)
Hysteresis Period (ms):	1.00e+00
Preset:	Enabled
Preset Delay (ms):	1.00e+03
Profile:	Standard Monopolar

»»»»»»»»»»»»»»»»»»»»»»»»»»»»»»»»»»»»»» Data «««««««««««««««««««««««««««««««««««««««
Points:	2001

Valid Data

Point	Time (ms)	Drive Voltage	Measured Polarization (uC/cm2)	Capacitance (uF)	Normalized Capacitance (uF/cm2)	Dielectric Constant	Instantaneous Current (mA)
   1	0.0000e+00	-0.0040	-12.781506	0.000543	5.431255	0.920080	0.010862
   2	5.0000e-04	0.0047	-12.727197	0.000543	5.431255	0.920080	0.010862
   3	1.0000e-03	0.0167	-12.707954	0.000192	1.924461	0.326012	0.003849
   4	1.5000e-03	0.0245	-12.671178	0.000368	3.677858	0.623046	0.007355
   5	2.0000e-03	0.0349	-12.630554	0.000406	4.062750	0.688248	0.008125
   6	2.5000e-03	0.0431	-12.593351	0.000372	3.720624	0.630291	0.007441
   7	3.0000e-03	0.0560	-12.557002	0.000364	3.635092	0.615801	0.007270
   8	3.5000e-03	0.0661	-12.525786	0.000312	3.121903	0.528865	0.006243
   9	4.0000e-03	0.0788	-12.479175	0.000466	4.661471	0.789675	0.009322
  10	4.5000e-03	0.0848	-12.457793	0.000214	2.138290	0.362236	0.004276
  11	5.0000e-03	0.0923	-12.417597	0.000402	4.019984	0.681004	0.008039
  12	5.5000e-03	0.1046	-12.392367	0.000252	2.523182	0.427439	0.005046
  13	6.0000e-03	0.1173	-12.350887	0.000415	4.148282	0.702738	0.008296
  14	6.5000e-03	0.1286	-12.316677	0.000342	3.421263	0.579578	0.006842
  15	7.0000e-03	0.1369	-12.297006	0.000197	1.967226	0.333257	0.003934
  16	7.5000e-03	0.1478	-12.239277	0.000577	5.773382	0.978037	0.011546
  17	8.0000e-03	0.1570	-12.229441	0.000098	0.983613	0.166629	0.001967
  18	8.5000e-03	0.1668	-12.194804	0.000346	3.464029	0.586822	0.006928
  19	9.0000e-03	0.1787	-12.135791	0.000590	5.901679	0.999771	0.011802
  20	9.5000e-03	0.1875	-12.112700	0.000231	2.309353	0.391215	0.004618
  21	1.0000e-02	0.1984	-12.078490	0.000342	3.421263	0.579578	0.006842
  22	1.0500e-02	0.2087	-12.030596	0.000479	4.789769	0.811409	0.009579
  23	1.1000e-02	0.2166	-12.001517	0.000291	2.908074	0.492641	0.005816
  24	1.1500e-02	0.2251	-11.948492	0.000530	5.302958	0.898345	0.010605
  25	1.2000e-02	0.2348	-11.939939	0.000086	0.855316	0.144894	0.001711
  26	1.2500e-02	0.2456	-11.899315	0.000406	4.062750	0.688248	0.008125
  27	1.3000e-02	0.2582	-11.856125	0.000432	4.319345	0.731717	0.008638
  28	1.3500e-02	0.2682	-11.821915	0.000342	3.421263	0.579578	0.006842
  29	1.4000e-02	0.2753	-11.799678	0.000222	2.223821	0.376725	0.004447
  30	1.4500e-02	0.2882	-11.753494	0.000462	4.618705	0.782430	0.009237
  31	1.5000e-02	0.2973	-11.729975	0.000235	2.352118	0.398460	0.004704
  32	1.5500e-02	0.3039	-11.706028	0.000239	2.394884	0.405704	0.004789
  33	1.6000e-02	0.3181	-11.651292	0.000547	5.474021	0.927324	0.010947
  34	1.6500e-02	0.3245	-11.593990	0.000573	5.730616	0.970793	0.011460
  35	1.7000e-02	0.3363	-11.590142	0.000038	0.384892	0.065202	0.000770
  36	1.7500e-02	0.3453	-11.558070	0.000321	3.207434	0.543354	0.006414
  37	1.8000e-02	0.3553	-11.528991	0.000291	2.908074	0.492641	0.005816
  38	1.8500e-02	0.3671	-11.486229	0.000428	4.276579	0.724472	0.008553
  39	1.9000e-02	0.3739	-11.450308	0.000359	3.592326	0.608557	0.007184
  40	1.9500e-02	0.3837	-11.418664	0.000316	3.164668	0.536109	0.006329
  41	2.0000e-02	0.3953	-11.371625	0.000470	4.704237	0.796919	0.009408
  42	2.0500e-02	0.4065	-11.347250	0.000244	2.437650	0.412949	0.004875
  43	2.1000e-02	0.4183	-11.305771	0.000415	4.148282	0.702738	0.008296
  44	2.1500e-02	0.4266	-11.273271	0.000325	3.250200	0.550599	0.006500
  45	2.2000e-02	0.4374	-11.236923	0.000364	3.635092	0.615801	0.007270
  46	2.2500e-02	0.4480	-11.201858	0.000351	3.506795	0.594067	0.007013
  47	2.3000e-02	0.4557	-11.181759	0.000201	2.009992	0.340502	0.004020
  48	2.3500e-02	0.4646	-11.140280	0.000415	4.148282	0.702738	0.008296
  49	2.4000e-02	0.4765	-11.123175	0.000171	1.710632	0.289789	0.003421
  50	2.4500e-02	0.4873	-11.071005	0.000522	5.217426	0.883856	0.010434
  51	2.5000e-02	0.4995	-11.038933	0.000321	3.207434	0.543354	0.006414
  52	2.5500e-02	0.5048	-11.003867	0.000351	3.506795	0.594067	0.007013
  53	2.6000e-02	0.5148	-10.986335	0.000175	1.753397	0.297034	0.003507
  54	2.6500e-02	0.5284	-10.932026	0.000543	5.431255	0.920080	0.010862
  55	2.7000e-02	0.5376	-10.931171	0.000009	0.085532	0.014489	0.000171
  56	2.7500e-02	0.5472	-10.872159	0.000590	5.901679	0.999771	0.011802
  57	2.8000e-02	0.5553	-10.840087	0.000321	3.207434	0.543354	0.006414
  58	2.8500e-02	0.5669	-10.805877	0.000342	3.421263	0.579578	0.006842
  59	2.9000e-02	0.5750	-10.760121	0.000458	4.575940	0.775185	0.009151
  60	2.9500e-02	0.5871	-10.718214	0.000419	4.191047	0.709983	0.008381
  61	3.0000e-02	0.5945	-10.684004	0.000342	3.421263	0.579578	0.006842
  62	3.0500e-02	0.6074	-10.670747	0.000133	1.325739	0.224586	0.002651
  63	3.1000e-02	0.6145	-10.633972	0.000368	3.677858	0.623046	0.007355
  64	3.1500e-02	0.6252	-10.602327	0.000316	3.164668	0.536109	0.006329
  65	3.2000e-02	0.6370	-10.564269	0.000381	3.806155	0.644780	0.007612
  66	3.2500e-02	0.6480	-10.531769	0.000325	3.250200	0.550599	0.006500
  67	3.3000e-02	0.6555	-10.503546	0.000282	2.822542	0.478152	0.005645
  68	3.3500e-02	0.6656	-10.460783	0.000428	4.276579	0.724472	0.008553
  69	3.4000e-02	0.6765	-10.418021	0.000428	4.276579	0.724472	0.008553
  70	3.4500e-02	0.6831	-10.409468	0.000086	0.855316	0.144894	0.001711
  71	3.5000e-02	0.6959	-10.401343	0.000081	0.812550	0.137650	0.001625
  72	3.5500e-02	0.7040	-10.320095	0.000813	8.125500	1.376497	0.016250
  73	3.6000e-02	0.7163	-10.302990	0.000171	1.710632	0.289789	0.003421
  74	3.6500e-02	0.7208	-10.247826	0.000552	5.516787	0.934569	0.011033
  75	3.7000e-02	0.7371	-10.255096	-0.000073	-0.727018	-0.123160	-0.001454
  76	3.7500e-02	0.7463	-10.213188	0.000419	4.191047	0.709983	0.008381
  77	3.8000e-02	0.7531	-10.181116	0.000321	3.207434	0.543354	0.006414
  78	3.8500e-02	0.7671	-10.144768	0.000364	3.635092	0.615801	0.007270
  79	3.9000e-02	0.7764	-10.101150	0.000436	4.362111	0.738962	0.008724
  80	3.9500e-02	0.7863	-10.073355	0.000278	2.779776	0.470907	0.005559
  81	4.0000e-02	0.7952	-10.021184	0.000522	5.217426	0.883856	0.010434
  82	4.0500e-02	0.8073	-9.996382	0.000248	2.480416	0.420194	0.004960
  83	4.1000e-02	0.8182	-9.965166	0.000312	3.121903	0.528865	0.006243
  84	4.1500e-02	0.8244	-9.964738	0.000004	0.042766	0.007245	0.000086
  85	4.2000e-02	0.8390	-9.904870	0.000599	5.987211	1.014261	0.011974
  86	4.2500e-02	0.8472	-9.860397	0.000445	4.447642	0.753451	0.008895
  87	4.3000e-02	0.8582	-9.850134	0.000103	1.026379	0.173873	0.002053
  88	4.3500e-02	0.8658	-9.803951	0.000462	4.618705	0.782430	0.009237
  89	4.4000e-02	0.8766	-9.788556	0.000154	1.539568	0.260810	0.003079
  90	4.4500e-02	0.8868	-9.744083	0.000445	4.447642	0.753451	0.008895
  91	4.5000e-02	0.8954	-9.700893	0.000432	4.319345	0.731717	0.008638
  92	4.5500e-02	0.9061	-9.673525	0.000274	2.737011	0.463662	0.005474
  93	4.6000e-02	0.9165	-9.644019	0.000295	2.950840	0.499886	0.005901
  94	4.6500e-02	0.9253	-9.605960	0.000381	3.806155	0.644780	0.007612
  95	4.7000e-02	0.9356	-9.561915	0.000440	4.404876	0.746206	0.008809
  96	4.7500e-02	0.9447	-9.551652	0.000103	1.026379	0.173873	0.002053
  97	4.8000e-02	0.9549	-9.510172	0.000415	4.148282	0.702738	0.008296
  98	4.8500e-02	0.9685	-9.482804	0.000274	2.737011	0.463662	0.005474
  99	4.9000e-02	0.9782	-9.471258	0.000115	1.154676	0.195607	0.002309
 100	4.9500e-02	0.9885	-9.415667	0.000556	5.559553	0.941814	0.011118
 101	5.0000e-02	0.9939	-9.369484	0.000462	4.618705	0.782430	0.009237
 102	5.0500e-02	1.0061	-9.344681	0.000248	2.480416	0.420194	0.004960
 103	5.1000e-02	1.0158	-9.309616	0.000351	3.506795	0.594067	0.007013
 104	5.1500e-02	1.0246	-9.287807	0.000218	2.181055	0.369481	0.004362
 105	5.2000e-02	1.0342	-9.248893	0.000389	3.891687	0.659270	0.007783
 106	5.2500e-02	1.0471	-9.229222	0.000197	1.967226	0.333257	0.003934
 107	5.3000e-02	1.0585	-9.192019	0.000372	3.720624	0.630291	0.007441
 108	5.3500e-02	1.0669	-9.163368	0.000287	2.865308	0.485396	0.005730
 109	5.4000e-02	1.0745	-9.120606	0.000428	4.276579	0.724472	0.008553
 110	5.4500e-02	1.0844	-9.115902	0.000047	0.470424	0.079692	0.000941
 111	5.5000e-02	1.0944	-9.042778	0.000731	7.312950	1.238847	0.014625
 112	5.5500e-02	1.1057	-9.021397	0.000214	2.138290	0.362236	0.004276
 113	5.6000e-02	1.1201	-9.003864	0.000175	1.753397	0.297034	0.003507
 114	5.6500e-02	1.1272	-8.960674	0.000432	4.319345	0.731717	0.008638
 115	5.7000e-02	1.1359	-8.938437	0.000222	2.223821	0.376725	0.004447
 116	5.7500e-02	1.1440	-8.892681	0.000458	4.575940	0.775185	0.009151
 117	5.8000e-02	1.1553	-8.864031	0.000287	2.865308	0.485396	0.005730
 118	5.8500e-02	1.1662	-8.833669	0.000304	3.036371	0.514375	0.006072
 119	5.9000e-02	1.1771	-8.798604	0.000351	3.506795	0.594067	0.007013
 120	5.9500e-02	1.1874	-8.776795	0.000218	2.181055	0.369481	0.004362
 121	6.0000e-02	1.1982	-8.761828	0.000150	1.496803	0.253565	0.002993
 122	6.0500e-02	1.2073	-8.707947	0.000539	5.388490	0.912835	0.010776
 123	6.1000e-02	1.2173	-8.665612	0.000423	4.233813	0.717227	0.008467
 124	6.1500e-02	1.2278	-8.647652	0.000180	1.796163	0.304278	0.003592
 125	6.2000e-02	1.2373	-8.621139	0.000265	2.651479	0.449173	0.005303
 126	6.2500e-02	1.2476	-8.602751	0.000184	1.838929	0.311523	0.003678
 127	6.3000e-02	1.2605	-8.562127	0.000406	4.062750	0.688248	0.008125
 128	6.3500e-02	1.2668	-8.534759	0.000274	2.737011	0.463662	0.005474
 129	6.4000e-02	1.2771	-8.483872	0.000509	5.089129	0.862122	0.010177
 130	6.4500e-02	1.2848	-8.467622	0.000163	1.625100	0.275299	0.003250
 131	6.5000e-02	1.2984	-8.430418	0.000372	3.720624	0.630291	0.007441
 132	6.5500e-02	1.3069	-8.380386	0.000500	5.003597	0.847632	0.010006
 133	6.6000e-02	1.3165	-8.359860	0.000205	2.052758	0.347747	0.004105
 134	6.6500e-02	1.3253	-8.316243	0.000436	4.362111	0.738962	0.008724
 135	6.7000e-02	1.3340	-8.282033	0.000342	3.421263	0.579578	0.006842
 136	6.7500e-02	1.3452	-8.269631	0.000124	1.240208	0.210097	0.002480
 137	6.8000e-02	1.3571	-8.238842	0.000308	3.079137	0.521620	0.006158
 138	6.8500e-02	1.3657	-8.204632	0.000342	3.421263	0.579578	0.006842
 139	6.9000e-02	1.3750	-8.179830	0.000248	2.480416	0.420194	0.004960
 140	6.9500e-02	1.3855	-8.135357	0.000445	4.447642	0.753451	0.008895
 141	7.0000e-02	1.3958	-8.105423	0.000299	2.993605	0.507130	0.005987
 142	7.0500e-02	1.4054	-8.090029	0.000154	1.539568	0.260810	0.003079
 143	7.1000e-02	1.4160	-8.041707	0.000483	4.832534	0.818653	0.009664
 144	7.1500e-02	1.4246	-8.010063	0.000316	3.164668	0.536109	0.006329
 145	7.2000e-02	1.4362	-8.001938	0.000081	0.812550	0.137650	0.001625
 146	7.2500e-02	1.4452	-7.960886	0.000411	4.105516	0.695493	0.008210
 147	7.3000e-02	1.4575	-7.910854	0.000500	5.003597	0.847632	0.010006
 148	7.3500e-02	1.4650	-7.892038	0.000188	1.881695	0.318768	0.003763
 149	7.4000e-02	1.4761	-7.878354	0.000137	1.368505	0.231831	0.002737
 150	7.4500e-02	1.4887	-7.838585	0.000398	3.977218	0.673759	0.007954
 151	7.5000e-02	1.4920	-7.789408	0.000492	4.918066	0.833143	0.009835
 152	7.5500e-02	1.5082	-7.768455	0.000210	2.095524	0.354991	0.004191
 153	7.6000e-02	1.5149	-7.747073	0.000214	2.138290	0.362236	0.004276
 154	7.6500e-02	1.5261	-7.707732	0.000393	3.934453	0.666514	0.007868
 155	7.7000e-02	1.5387	-7.681647	0.000261	2.608713	0.441928	0.005217
 156	7.7500e-02	1.5434	-7.647437	0.000342	3.421263	0.579578	0.006842
 157	7.8000e-02	1.5564	-7.613654	0.000338	3.378497	0.572333	0.006756
 158	7.8500e-02	1.5687	-7.596977	0.000167	1.667866	0.282544	0.003335
 159	7.9000e-02	1.5784	-7.543524	0.000535	5.345724	0.905590	0.010691
 160	7.9500e-02	1.5866	-7.531123	0.000124	1.240208	0.210097	0.002480
 161	8.0000e-02	1.5936	-7.487932	0.000432	4.319345	0.731717	0.008638
 162	8.0500e-02	1.6077	-7.476386	0.000115	1.154676	0.195607	0.002309
 163	8.1000e-02	1.6154	-7.425071	0.000513	5.131895	0.869367	0.010263
 164	8.1500e-02	1.6290	-7.393000	0.000321	3.207434	0.543354	0.006414
 165	8.2000e-02	1.6385	-7.366914	0.000261	2.608713	0.441928	0.005217
 166	8.2500e-02	1.6455	-7.335698	0.000312	3.121903	0.528865	0.006243
 167	8.3000e-02	1.6557	-7.308757	0.000269	2.694245	0.456417	0.005388
 168	8.3500e-02	1.6674	-7.282245	0.000265	2.651479	0.449173	0.005303
 169	8.4000e-02	1.6776	-7.248035	0.000342	3.421263	0.579578	0.006842
 170	8.4500e-02	1.6848	-7.232640	0.000154	1.539568	0.260810	0.003079
 171	8.5000e-02	1.6969	-7.194154	0.000385	3.848921	0.652025	0.007697
 172	8.5500e-02	1.7091	-7.149681	0.000445	4.447642	0.753451	0.008895
 173	8.6000e-02	1.7162	-7.124023	0.000257	2.565947	0.434683	0.005132
 174	8.6500e-02	1.7255	-7.088103	0.000359	3.592326	0.608557	0.007184
 175	8.7000e-02	1.7359	-7.062018	0.000261	2.608713	0.441928	0.005217
 176	8.7500e-02	1.7459	-7.032939	0.000291	2.908074	0.492641	0.005816
 177	8.8000e-02	1.7579	-7.015834	0.000171	1.710632	0.289789	0.003421
 178	8.8500e-02	1.7674	-6.966657	0.000492	4.918066	0.833143	0.009835
 179	8.9000e-02	1.7773	-6.943993	0.000227	2.266587	0.383970	0.004533
 180	8.9500e-02	1.7842	-6.894816	0.000492	4.918066	0.833143	0.009835
 181	9.0000e-02	1.7957	-6.876428	0.000184	1.838929	0.311523	0.003678
 182	9.0500e-02	1.8080	-6.877711	-0.000013	-0.128297	-0.021734	-0.000257
 183	9.1000e-02	1.8176	-6.823830	0.000539	5.388490	0.912835	0.010776
 184	9.1500e-02	1.8250	-6.795179	0.000287	2.865308	0.485396	0.005730
 185	9.2000e-02	1.8353	-6.748141	0.000470	4.704237	0.796919	0.009408
 186	9.2500e-02	1.8462	-6.728898	0.000192	1.924461	0.326012	0.003849
 187	9.3000e-02	1.8561	-6.690411	0.000385	3.848921	0.652025	0.007697
 188	9.3500e-02	1.8652	-6.686135	0.000043	0.427658	0.072447	0.000855
 189	9.4000e-02	1.8761	-6.634392	0.000517	5.174661	0.876611	0.010349
 190	9.4500e-02	1.8845	-6.600182	0.000342	3.421263	0.579578	0.006842
 191	9.5000e-02	1.8976	-6.596761	0.000034	0.342126	0.057958	0.000684
 192	9.5500e-02	1.9038	-6.527058	0.000697	6.970824	1.180890	0.013941
 193	9.6000e-02	1.9178	-6.540315	-0.000133	-1.325739	-0.224586	-0.002651
 194	9.6500e-02	1.9255	-6.475743	0.000646	6.457634	1.093953	0.012914
 195	9.7000e-02	1.9350	-6.468046	0.000077	0.769784	0.130405	0.001539
 196	9.7500e-02	1.9455	-6.417586	0.000505	5.046363	0.854877	0.010092
 197	9.8000e-02	1.9553	-6.401337	0.000163	1.625100	0.275299	0.003250
 198	9.8500e-02	1.9641	-6.369692	0.000316	3.164668	0.536109	0.006329
 199	9.9000e-02	1.9769	-6.359002	0.000107	1.069145	0.181118	0.002138
 200	9.9500e-02	1.9848	-6.330778	0.000282	2.822542	0.478152	0.005645
 201	1.0000e-01	1.9981	-6.285022	0.000458	4.575940	0.775185	0.009151
 202	1.0050e-01	2.0059	-6.262786	0.000222	2.223821	0.376725	0.004447
 203	1.0100e-01	2.0161	-6.230286	0.000325	3.250200	0.550599	0.006500
 204	1.0150e-01	2.0279	-6.191800	0.000385	3.848921	0.652025	0.007697
 205	1.0200e-01	2.0367	-6.173412	0.000184	1.838929	0.311523	0.003678
 206	1.0250e-01	2.0459	-6.142623	0.000308	3.079137	0.521620	0.006158
 207	1.0300e-01	2.0560	-6.084894	0.000577	5.773382	0.978037	0.011546
 208	1.0350e-01	2.0667	-6.084894	0.000000	0.000000	0.000000	0.000000
 209	1.0400e-01	2.0745	-6.028447	0.000565	5.645084	0.956303	0.011289
 210	1.0450e-01	2.0870	-6.004928	0.000235	2.352118	0.398460	0.004704
 211	1.0500e-01	2.0966	-5.966869	0.000381	3.806155	0.644780	0.007612
 212	1.0550e-01	2.1045	-5.936936	0.000299	2.993605	0.507130	0.005987
 213	1.0600e-01	2.1161	-5.920258	0.000167	1.667866	0.282544	0.003335
 214	1.0650e-01	2.1249	-5.877496	0.000428	4.276579	0.724472	0.008553
 215	1.0700e-01	2.1366	-5.862956	0.000145	1.454037	0.246321	0.002908
 216	1.0750e-01	2.1487	-5.842858	0.000201	2.009992	0.340502	0.004020
 217	1.0800e-01	2.1570	-5.796247	0.000466	4.661471	0.789675	0.009322
 218	1.0850e-01	2.1651	-5.765885	0.000304	3.036371	0.514375	0.006072
 219	1.0900e-01	2.1777	-5.738945	0.000269	2.694245	0.456417	0.005388
 220	1.0950e-01	2.1873	-5.712005	0.000269	2.694245	0.456417	0.005388
 221	1.1000e-01	2.1976	-5.682498	0.000295	2.950840	0.499886	0.005901
 222	1.1050e-01	2.2037	-5.663255	0.000192	1.924461	0.326012	0.003849
 223	1.1100e-01	2.2149	-5.638453	0.000248	2.480416	0.420194	0.004960
 224	1.1150e-01	2.2266	-5.588421	0.000500	5.003597	0.847632	0.010006
 225	1.1200e-01	2.2328	-5.567467	0.000210	2.095524	0.354991	0.004191
 226	1.1250e-01	2.2459	-5.520001	0.000475	4.747003	0.804164	0.009493
 227	1.1300e-01	2.2526	-5.513586	0.000064	0.641487	0.108671	0.001283
 228	1.1350e-01	2.2681	-5.489639	0.000239	2.394884	0.405704	0.004789
 229	1.1400e-01	2.2751	-5.453291	0.000364	3.635092	0.615801	0.007270
 230	1.1450e-01	2.2855	-5.414377	0.000389	3.891687	0.659270	0.007783
 231	1.1500e-01	2.2981	-5.382306	0.000321	3.207434	0.543354	0.006414
 232	1.1550e-01	2.3071	-5.369049	0.000133	1.325739	0.224586	0.002651
 233	1.1600e-01	2.3177	-5.331418	0.000376	3.763390	0.637535	0.007526
 234	1.1650e-01	2.3258	-5.310464	0.000210	2.095524	0.354991	0.004191
 235	1.1700e-01	2.3365	-5.288656	0.000218	2.181055	0.369481	0.004362
 236	1.1750e-01	2.3483	-5.248886	0.000398	3.977218	0.673759	0.007954
 237	1.1800e-01	2.3544	-5.227078	0.000218	2.181055	0.369481	0.004362
 238	1.1850e-01	2.3640	-5.196716	0.000304	3.036371	0.514375	0.006072
 239	1.1900e-01	2.3770	-5.145401	0.000513	5.131895	0.869367	0.010263
 240	1.1950e-01	2.3875	-5.141552	0.000038	0.384892	0.065202	0.000770
 241	1.2000e-01	2.3966	-5.115467	0.000261	2.608713	0.441928	0.005217
 242	1.2050e-01	2.4079	-5.072277	0.000432	4.319345	0.731717	0.008638
 243	1.2100e-01	2.4165	-5.050896	0.000214	2.138290	0.362236	0.004276
 244	1.2150e-01	2.4272	-5.005995	0.000449	4.490408	0.760696	0.008980
 245	1.2200e-01	2.4353	-4.975206	0.000308	3.079137	0.521620	0.006158
 246	1.2250e-01	2.4466	-4.959384	0.000158	1.582334	0.268055	0.003164
 247	1.2300e-01	2.4568	-4.931161	0.000282	2.822542	0.478152	0.005645
 248	1.2350e-01	2.4657	-4.907214	0.000239	2.394884	0.405704	0.004789
 249	1.2400e-01	2.4780	-4.867872	0.000393	3.934453	0.666514	0.007868
 250	1.2450e-01	2.4878	-4.842642	0.000252	2.523182	0.427439	0.005046
 251	1.2500e-01	2.4972	-4.808860	0.000338	3.378497	0.572333	0.006756
 252	1.2550e-01	2.5054	-4.788334	0.000205	2.052758	0.347747	0.004105
 253	1.2600e-01	2.5192	-4.742150	0.000462	4.618705	0.782430	0.009237
 254	1.2650e-01	2.5288	-4.736591	0.000056	0.555955	0.094181	0.001112
 255	1.2700e-01	2.5363	-4.693829	0.000428	4.276579	0.724472	0.008553
 256	1.2750e-01	2.5491	-4.671592	0.000222	2.223821	0.376725	0.004447
 257	1.2800e-01	2.5576	-4.642514	0.000291	2.908074	0.492641	0.005816
 258	1.2850e-01	2.5650	-4.601034	0.000415	4.148282	0.702738	0.008296
 259	1.2900e-01	2.5761	-4.586923	0.000141	1.411271	0.239076	0.002822
 260	1.2950e-01	2.5870	-4.535607	0.000513	5.131895	0.869367	0.010263
 261	1.3000e-01	2.5970	-4.506529	0.000291	2.908074	0.492641	0.005816
 262	1.3050e-01	2.6074	-4.494555	0.000120	1.197442	0.202852	0.002395
 263	1.3100e-01	2.6155	-4.468898	0.000257	2.565947	0.434683	0.005132
 264	1.3150e-01	2.6257	-4.449655	0.000192	1.924461	0.326012	0.003849
 265	1.3200e-01	2.6363	-4.428701	0.000210	2.095524	0.354991	0.004191
 266	1.3250e-01	2.6474	-4.384228	0.000445	4.447642	0.753451	0.008895
 267	1.3300e-01	2.6556	-4.345742	0.000385	3.848921	0.652025	0.007697
 268	1.3350e-01	2.6688	-4.324788	0.000210	2.095524	0.354991	0.004191
 269	1.3400e-01	2.6773	-4.296137	0.000287	2.865308	0.485396	0.005730
 270	1.3450e-01	2.6868	-4.255941	0.000402	4.019984	0.681004	0.008039
 271	1.3500e-01	2.6953	-4.244395	0.000115	1.154676	0.195607	0.002309
 272	1.3550e-01	2.7075	-4.208047	0.000364	3.635092	0.615801	0.007270
 273	1.3600e-01	2.7151	-4.179823	0.000282	2.822542	0.478152	0.005645
 274	1.3650e-01	2.7252	-4.152028	0.000278	2.779776	0.470907	0.005559
 275	1.3700e-01	2.7377	-4.101568	0.000505	5.046363	0.854877	0.010092
 276	1.3750e-01	2.7481	-4.085746	0.000158	1.582334	0.268055	0.003164
 277	1.3800e-01	2.7567	-4.051536	0.000342	3.421263	0.579578	0.006842
 278	1.3850e-01	2.7669	-4.041273	0.000103	1.026379	0.173873	0.002053
 279	1.3900e-01	2.7771	-4.001931	0.000393	3.934453	0.666514	0.007868
 280	1.3950e-01	2.7869	-3.970714	0.000312	3.121903	0.528865	0.006243
 281	1.4000e-01	2.7956	-3.948478	0.000222	2.223821	0.376725	0.004447
 282	1.4050e-01	2.8069	-3.939925	0.000086	0.855316	0.144894	0.001711
 283	1.4100e-01	2.8175	-3.901012	0.000389	3.891687	0.659270	0.007783
 284	1.4150e-01	2.8226	-3.845848	0.000552	5.516787	0.934569	0.011033
 285	1.4200e-01	2.8375	-3.841144	0.000047	0.470424	0.079692	0.000941
 286	1.4250e-01	2.8469	-3.818908	0.000222	2.223821	0.376725	0.004447
 287	1.4300e-01	2.8583	-3.794105	0.000248	2.480416	0.420194	0.004960
 288	1.4350e-01	2.8647	-3.762889	0.000312	3.121903	0.528865	0.006243
 289	1.4400e-01	2.8760	-3.739369	0.000235	2.352118	0.398460	0.004704
 290	1.4450e-01	2.8873	-3.703876	0.000355	3.549561	0.601312	0.007099
 291	1.4500e-01	2.8974	-3.670522	0.000334	3.335732	0.565088	0.006671
 292	1.4550e-01	2.9053	-3.632035	0.000385	3.848921	0.652025	0.007697
 293	1.4600e-01	2.9179	-3.635029	-0.000030	-0.299361	-0.050713	-0.000599
 294	1.4650e-01	2.9279	-3.602102	0.000329	3.292966	0.557844	0.006585
 295	1.4700e-01	2.9407	-3.554207	0.000479	4.789769	0.811409	0.009579
 296	1.4750e-01	2.9462	-3.520853	0.000334	3.335732	0.565088	0.006671
 297	1.4800e-01	2.9565	-3.508024	0.000128	1.282974	0.217342	0.002566
 298	1.4850e-01	2.9672	-3.463979	0.000440	4.404876	0.746206	0.008809
 299	1.4900e-01	2.9752	-3.454571	0.000094	0.940847	0.159384	0.001882
 300	1.4950e-01	2.9865	-3.418223	0.000364	3.635092	0.615801	0.007270
 301	1.5000e-01	2.9968	-3.389999	0.000282	2.822542	0.478152	0.005645
 302	1.5050e-01	3.0072	-3.374605	0.000154	1.539568	0.260810	0.003079
 303	1.5100e-01	3.0145	-3.330987	0.000436	4.362111	0.738962	0.008724
 304	1.5150e-01	3.0264	-3.318586	0.000124	1.240208	0.210097	0.002480
 305	1.5200e-01	3.0385	-3.277106	0.000415	4.148282	0.702738	0.008296
 306	1.5250e-01	3.0457	-3.223226	0.000539	5.388490	0.912835	0.010776
 307	1.5300e-01	3.0564	-3.221515	0.000017	0.171063	0.028979	0.000342
 308	1.5350e-01	3.0653	-3.192436	0.000291	2.908074	0.492641	0.005816
 309	1.5400e-01	3.0780	-3.171910	0.000205	2.052758	0.347747	0.004105
 310	1.5450e-01	3.0881	-3.130858	0.000411	4.105516	0.695493	0.008210
 311	1.5500e-01	3.0969	-3.100069	0.000308	3.079137	0.521620	0.006158
 312	1.5550e-01	3.1087	-3.078688	0.000214	2.138290	0.362236	0.004276
 313	1.5600e-01	3.1165	-3.062438	0.000163	1.625100	0.275299	0.003250
 314	1.5650e-01	3.1253	-3.015827	0.000466	4.661471	0.789675	0.009322
 315	1.5700e-01	3.1369	-3.009840	0.000060	0.598721	0.101426	0.001197
 316	1.5750e-01	3.1476	-2.960236	0.000496	4.960832	0.840388	0.009921
 317	1.5800e-01	3.1561	-2.945269	0.000150	1.496803	0.253565	0.002993
 318	1.5850e-01	3.1671	-2.905928	0.000393	3.934453	0.666514	0.007868
 319	1.5900e-01	3.1766	-2.877277	0.000287	2.865308	0.485396	0.005730
 320	1.5950e-01	3.1857	-2.851619	0.000257	2.565947	0.434683	0.005132
 321	1.6000e-01	3.1955	-2.840929	0.000107	1.069145	0.181118	0.002138
 322	1.6050e-01	3.2077	-2.812705	0.000282	2.822542	0.478152	0.005645
 323	1.6100e-01	3.2172	-2.757542	0.000552	5.516787	0.934569	0.011033
 324	1.6150e-01	3.2266	-2.748134	0.000094	0.940847	0.159384	0.001882
 325	1.6200e-01	3.2336	-2.725897	0.000222	2.223821	0.376725	0.004447
 326	1.6250e-01	3.2471	-2.694253	0.000316	3.164668	0.536109	0.006329
 327	1.6300e-01	3.2544	-2.652346	0.000419	4.191047	0.709983	0.008381
 328	1.6350e-01	3.2677	-2.640372	0.000120	1.197442	0.202852	0.002395
 329	1.6400e-01	3.2764	-2.601458	0.000389	3.891687	0.659270	0.007783
 330	1.6450e-01	3.2864	-2.577511	0.000239	2.394884	0.405704	0.004789
 331	1.6500e-01	3.2959	-2.544157	0.000334	3.335732	0.565088	0.006671
 332	1.6550e-01	3.3054	-2.539880	0.000043	0.427658	0.072447	0.000855
 333	1.6600e-01	3.3130	-2.505670	0.000342	3.421263	0.579578	0.006842
 334	1.6650e-01	3.3270	-2.471033	0.000346	3.464029	0.586822	0.006928
 335	1.6700e-01	3.3376	-2.440671	0.000304	3.036371	0.514375	0.006072
 336	1.6750e-01	3.3436	-2.412876	0.000278	2.779776	0.470907	0.005559
 337	1.6800e-01	3.3545	-2.409027	0.000038	0.384892	0.065202	0.000770
 338	1.6850e-01	3.3659	-2.376955	0.000321	3.207434	0.543354	0.006414
 339	1.6900e-01	3.3768	-2.339324	0.000376	3.763390	0.637535	0.007526
 340	1.6950e-01	3.3883	-2.315805	0.000235	2.352118	0.398460	0.004704
 341	1.7000e-01	3.3952	-2.279029	0.000368	3.677858	0.623046	0.007355
 342	1.7050e-01	3.4061	-2.266628	0.000124	1.240208	0.210097	0.002480
 343	1.7100e-01	3.4158	-2.234983	0.000316	3.164668	0.536109	0.006329
 344	1.7150e-01	3.4283	-2.190510	0.000445	4.447642	0.753451	0.008895
 345	1.7200e-01	3.4366	-2.182386	0.000081	0.812550	0.137650	0.001625
 346	1.7250e-01	3.4497	-2.142616	0.000398	3.977218	0.673759	0.007954
 347	1.7300e-01	3.4558	-2.126794	0.000158	1.582334	0.268055	0.003164
 348	1.7350e-01	3.4674	-2.092584	0.000342	3.421263	0.579578	0.006842
 349	1.7400e-01	3.4772	-2.062651	0.000299	2.993605	0.507130	0.005987
 350	1.7450e-01	3.4859	-2.040842	0.000218	2.181055	0.369481	0.004362
 351	1.7500e-01	3.4982	-2.006632	0.000342	3.421263	0.579578	0.006842
 352	1.7550e-01	3.5085	-1.973704	0.000329	3.292966	0.557844	0.006585
 353	1.7600e-01	3.5161	-1.968573	0.000051	0.513189	0.086937	0.001026
 354	1.7650e-01	3.5254	-1.936929	0.000316	3.164668	0.536109	0.006329
 355	1.7700e-01	3.5321	-1.899298	0.000376	3.763390	0.637535	0.007526
 356	1.7750e-01	3.5480	-1.914265	-0.000150	-1.496803	-0.253565	-0.002993
 357	1.7800e-01	3.5571	-1.838575	0.000757	7.569545	1.282316	0.015138
 358	1.7850e-01	3.5666	-1.830022	0.000086	0.855316	0.144894	0.001711
 359	1.7900e-01	3.5779	-1.833871	-0.000038	-0.384892	-0.065202	-0.000770
 360	1.7950e-01	3.5870	-1.762030	0.000718	7.184653	1.217113	0.014368
 361	1.8000e-01	3.5962	-1.748346	0.000137	1.368505	0.231831	0.002737
 362	1.8050e-01	3.6069	-1.714564	0.000338	3.378497	0.572333	0.006756
 363	1.8100e-01	3.6165	-1.680354	0.000342	3.421263	0.579578	0.006842
 364	1.8150e-01	3.6285	-1.652558	0.000278	2.779776	0.470907	0.005559
 365	1.8200e-01	3.6353	-1.641867	0.000107	1.069145	0.181118	0.002138
 366	1.8250e-01	3.6475	-1.600388	0.000415	4.148282	0.702738	0.008296
 367	1.8300e-01	3.6580	-1.585421	0.000150	1.496803	0.253565	0.002993
 368	1.8350e-01	3.6657	-1.551638	0.000338	3.378497	0.572333	0.006756
 369	1.8400e-01	3.6774	-1.517856	0.000338	3.378497	0.572333	0.006756
 370	1.8450e-01	3.6877	-1.495619	0.000222	2.223821	0.376725	0.004447
 371	1.8500e-01	3.6995	-1.477232	0.000184	1.838929	0.311523	0.003678
 372	1.8550e-01	3.7065	-1.460554	0.000167	1.667866	0.282544	0.003335
 373	1.8600e-01	3.7189	-1.431476	0.000291	2.908074	0.492641	0.005816
 374	1.8650e-01	3.7274	-1.380588	0.000509	5.089129	0.862122	0.010177
 375	1.8700e-01	3.7384	-1.376312	0.000043	0.427658	0.072447	0.000855
 376	1.8750e-01	3.7476	-1.351510	0.000248	2.480416	0.420194	0.004960
 377	1.8800e-01	3.7561	-1.318155	0.000334	3.335732	0.565088	0.006671
 378	1.8850e-01	3.7656	-1.295918	0.000222	2.223821	0.376725	0.004447
 379	1.8900e-01	3.7769	-1.253156	0.000428	4.276579	0.724472	0.008553
 380	1.8950e-01	3.7892	-1.268123	-0.000150	-1.496803	-0.253565	-0.002993
 381	1.9000e-01	3.7972	-1.207828	0.000603	6.029976	1.021506	0.012059
 382	1.9050e-01	3.8066	-1.181315	0.000265	2.651479	0.449173	0.005303
 383	1.9100e-01	3.8165	-1.156085	0.000252	2.523182	0.427439	0.005046
 384	1.9150e-01	3.8297	-1.125296	0.000308	3.079137	0.521620	0.006158
 385	1.9200e-01	3.8351	-1.093652	0.000316	3.164668	0.536109	0.006329
 386	1.9250e-01	3.8492	-1.073126	0.000205	2.052758	0.347747	0.004105
 387	1.9300e-01	3.8568	-1.057303	0.000158	1.582334	0.268055	0.003164
 388	1.9350e-01	3.8675	-1.039343	0.000180	1.796163	0.304278	0.003592
 389	1.9400e-01	3.8773	-0.996153	0.000432	4.319345	0.731717	0.008638
 390	1.9450e-01	3.8867	-0.963654	0.000325	3.250200	0.550599	0.006500
 391	1.9500e-01	3.8974	-0.931582	0.000321	3.207434	0.543354	0.006414
 392	1.9550e-01	3.9050	-0.912339	0.000192	1.924461	0.326012	0.003849
 393	1.9600e-01	3.9160	-0.891813	0.000205	2.052758	0.347747	0.004105
 394	1.9650e-01	3.9258	-0.855037	0.000368	3.677858	0.623046	0.007355
 395	1.9700e-01	3.9352	-0.818261	0.000368	3.677858	0.623046	0.007355
 396	1.9750e-01	3.9453	-0.802439	0.000158	1.582334	0.268055	0.003164
 397	1.9800e-01	3.9565	-0.763953	0.000385	3.848921	0.652025	0.007697
 398	1.9850e-01	3.9658	-0.754545	0.000094	0.940847	0.159384	0.001882
 399	1.9900e-01	3.9777	-0.744282	0.000103	1.026379	0.173873	0.002053
 400	1.9950e-01	3.9883	-0.731025	0.000133	1.325739	0.224586	0.002651
 401	2.0000e-01	3.9986	-0.687408	0.000436	4.362111	0.738962	0.008724
 402	2.0050e-01	4.0076	-0.643362	0.000440	4.404876	0.746206	0.008809
 403	2.0100e-01	4.0164	-0.632672	0.000107	1.069145	0.181118	0.002138
 404	2.0150e-01	4.0256	-0.594613	0.000381	3.806155	0.644780	0.007612
 405	2.0200e-01	4.0350	-0.562113	0.000325	3.250200	0.550599	0.006500
 406	2.0250e-01	4.0442	-0.548002	0.000141	1.411271	0.239076	0.002822
 407	2.0300e-01	4.0543	-0.524910	0.000231	2.309353	0.391215	0.004618
 408	2.0350e-01	4.0698	-0.512081	0.000128	1.282974	0.217342	0.002566
 409	2.0400e-01	4.0753	-0.471457	0.000406	4.062750	0.688248	0.008125
 410	2.0450e-01	4.0875	-0.457345	0.000141	1.411271	0.239076	0.002822
 411	2.0500e-01	4.0944	-0.431688	0.000257	2.565947	0.434683	0.005132
 412	2.0550e-01	4.1040	-0.397050	0.000346	3.464029	0.586822	0.006928
 413	2.0600e-01	4.1147	-0.366261	0.000308	3.079137	0.521620	0.006158
 414	2.0650e-01	4.1266	-0.341031	0.000252	2.523182	0.427439	0.005046
 415	2.0700e-01	4.1371	-0.311525	0.000295	2.950840	0.499886	0.005901
 416	2.0750e-01	4.1467	-0.293992	0.000175	1.753397	0.297034	0.003507
 417	2.0800e-01	4.1556	-0.253368	0.000406	4.062750	0.688248	0.008125
 418	2.0850e-01	4.1675	-0.235835	0.000175	1.753397	0.297034	0.003507
 419	2.0900e-01	4.1785	-0.211033	0.000248	2.480416	0.420194	0.004960
 420	2.0950e-01	4.1877	-0.188797	0.000222	2.223821	0.376725	0.004447
 421	2.1000e-01	4.1962	-0.155442	0.000334	3.335732	0.565088	0.006671
 422	2.1050e-01	4.2073	-0.145606	0.000098	0.983613	0.166629	0.001967
 423	2.1100e-01	4.2163	-0.108831	0.000368	3.677858	0.623046	0.007355
 424	2.1150e-01	4.2236	-0.065640	0.000432	4.319345	0.731717	0.008638
 425	2.1200e-01	4.2365	-0.069489	-0.000038	-0.384892	-0.065202	-0.000770
 426	2.1250e-01	4.2480	-0.020740	0.000488	4.875300	0.825898	0.009750
 427	2.1300e-01	4.2572	-0.002780	0.000180	1.796163	0.304278	0.003592
 428	2.1350e-01	4.2686	0.023733	0.000265	2.651479	0.449173	0.005303
 429	2.1400e-01	4.2749	0.045970	0.000222	2.223821	0.376725	0.004447
 430	2.1450e-01	4.2847	0.090443	0.000445	4.447642	0.753451	0.008895
 431	2.1500e-01	4.3011	0.101989	0.000115	1.154676	0.195607	0.002309
 432	2.1550e-01	4.3066	0.145606	0.000436	4.362111	0.738962	0.008724
 433	2.1600e-01	4.3164	0.150310	0.000047	0.470424	0.079692	0.000941
 434	2.1650e-01	4.3274	0.193928	0.000436	4.362111	0.738962	0.008724
 435	2.1700e-01	4.3369	0.205902	0.000120	1.197442	0.202852	0.002395
 436	2.1750e-01	4.3478	0.226000	0.000201	2.009992	0.340502	0.004020
 437	2.1800e-01	4.3570	0.231131	0.000051	0.513189	0.086937	0.001026
 438	2.1850e-01	4.3661	0.271756	0.000406	4.062750	0.688248	0.008125
 439	2.1900e-01	4.3776	0.311525	0.000398	3.977218	0.673759	0.007954
 440	2.1950e-01	4.3869	0.318795	0.000073	0.727018	0.123160	0.001454
 441	2.2000e-01	4.3988	0.372675	0.000539	5.388490	0.912835	0.010776
 442	2.2050e-01	4.4098	0.366261	-0.000064	-0.641487	-0.108671	-0.001283
 443	2.2100e-01	4.4174	0.418859	0.000526	5.260192	0.891101	0.010520
 444	2.2150e-01	4.4269	0.436392	0.000175	1.753397	0.297034	0.003507
 445	2.2200e-01	4.4382	0.472312	0.000359	3.592326	0.608557	0.007184
 446	2.2250e-01	4.4504	0.493266	0.000210	2.095524	0.354991	0.004191
 447	2.2300e-01	4.4580	0.520634	0.000274	2.737011	0.463662	0.005474
 448	2.2350e-01	4.4638	0.546291	0.000257	2.565947	0.434683	0.005132
 449	2.2400e-01	4.4778	0.556982	0.000107	1.069145	0.181118	0.002138
 450	2.2450e-01	4.4867	0.588626	0.000316	3.164668	0.536109	0.006329
 451	2.2500e-01	4.4960	0.627540	0.000389	3.891687	0.659270	0.007783
 452	2.2550e-01	4.5041	0.643362	0.000158	1.582334	0.268055	0.003164
 453	2.2600e-01	4.5161	0.653198	0.000098	0.983613	0.166629	0.001967
 454	2.2650e-01	4.5279	0.691684	0.000385	3.848921	0.652025	0.007697
 455	2.2700e-01	4.5364	0.734019	0.000423	4.233813	0.717227	0.008467
 456	2.2750e-01	4.5505	0.731025	-0.000030	-0.299361	-0.050713	-0.000599
 457	2.2800e-01	4.5575	0.775071	0.000440	4.404876	0.746206	0.008809
 458	2.2850e-01	4.5680	0.775071	0.000000	0.000000	0.000000	0.000000
 459	2.2900e-01	4.5782	0.814840	0.000398	3.977218	0.673759	0.007954
 460	2.2950e-01	4.5879	0.844346	0.000295	2.950840	0.499886	0.005901
 461	2.3000e-01	4.5972	0.869576	0.000252	2.523182	0.427439	0.005046
 462	2.3050e-01	4.6060	0.917898	0.000483	4.832534	0.818653	0.009664
 463	2.3100e-01	4.6176	0.912339	-0.000056	-0.555955	-0.094181	-0.001112
 464	2.3150e-01	4.6240	0.936713	0.000244	2.437650	0.412949	0.004875
 465	2.3200e-01	4.6368	0.992304	0.000556	5.559553	0.941814	0.011118
 466	2.3250e-01	4.6474	0.983752	-0.000086	-0.855316	-0.144894	-0.001711
 467	2.3300e-01	4.6573	1.018817	0.000351	3.506795	0.594067	0.007013
 468	2.3350e-01	4.6652	1.045330	0.000265	2.651479	0.449173	0.005303
 469	2.3400e-01	4.6771	1.087237	0.000419	4.191047	0.709983	0.008381
 470	2.3450e-01	4.6869	1.106908	0.000197	1.967226	0.333257	0.003934
 471	2.3500e-01	4.6970	1.115888	0.000090	0.898082	0.152139	0.001796
 472	2.3550e-01	4.7058	1.166348	0.000505	5.046363	0.854877	0.010092
 473	2.3600e-01	4.7162	1.190723	0.000244	2.437650	0.412949	0.004875
 474	2.3650e-01	4.7272	1.188584	-0.000021	-0.213829	-0.036224	-0.000428
 475	2.3700e-01	4.7369	1.217235	0.000287	2.865308	0.485396	0.005730
 476	2.3750e-01	4.7481	1.226643	0.000094	0.940847	0.159384	0.001882
 477	2.3800e-01	4.7583	1.287366	0.000607	6.072742	1.028750	0.012145
 478	2.3850e-01	4.7656	1.308320	0.000210	2.095524	0.354991	0.004191
 479	2.3900e-01	4.7760	1.316872	0.000086	0.855316	0.144894	0.001711
 480	2.3950e-01	4.7891	1.354931	0.000381	3.806155	0.644780	0.007612
 481	2.4000e-01	4.7955	1.387003	0.000321	3.207434	0.543354	0.006414
 482	2.4050e-01	4.8097	1.399404	0.000124	1.240208	0.210097	0.002480
 483	2.4100e-01	4.8166	1.430620	0.000312	3.121903	0.528865	0.006243
 484	2.4150e-01	4.8260	1.455850	0.000252	2.523182	0.427439	0.005046
 485	2.4200e-01	4.8367	1.460554	0.000047	0.470424	0.079692	0.000941
 486	2.4250e-01	4.8488	1.505027	0.000445	4.447642	0.753451	0.008895
 487	2.4300e-01	4.8584	1.537099	0.000321	3.207434	0.543354	0.006414
 488	2.4350e-01	4.8651	1.544796	0.000077	0.769784	0.130405	0.001539
 489	2.4400e-01	4.8761	1.582000	0.000372	3.720624	0.630291	0.007441
 490	2.4450e-01	4.8883	1.604236	0.000222	2.223821	0.376725	0.004447
 491	2.4500e-01	4.8984	1.626045	0.000218	2.181055	0.369481	0.004362
 492	2.4550e-01	4.9054	1.646999	0.000210	2.095524	0.354991	0.004191
 493	2.4600e-01	4.9170	1.661966	0.000150	1.496803	0.253565	0.002993
 494	2.4650e-01	4.9255	1.672229	0.000103	1.026379	0.173873	0.002053
 495	2.4700e-01	4.9384	1.727392	0.000552	5.516787	0.934569	0.011033
 496	2.4750e-01	4.9463	1.731241	0.000038	0.384892	0.065202	0.000770
 497	2.4800e-01	4.9548	1.773148	0.000419	4.191047	0.709983	0.008381
 498	2.4850e-01	4.9677	1.810352	0.000372	3.720624	0.630291	0.007441
 499	2.4900e-01	4.9768	1.813345	0.000030	0.299361	0.050713	0.000599
 500	2.4950e-01	4.9878	1.841141	0.000278	2.779776	0.470907	0.005559
 501	2.5000e-01	4.9969	1.877916	0.000368	3.677858	0.623046	0.007355
 502	2.5050e-01	5.0067	1.901008	0.000231	2.309353	0.391215	0.004618
 503	2.5100e-01	5.0180	1.925810	0.000248	2.480416	0.420194	0.004960
 504	2.5150e-01	5.0276	1.940350	0.000145	1.454037	0.246321	0.002908
 505	2.5200e-01	5.0381	1.973277	0.000329	3.292966	0.557844	0.006585
 506	2.5250e-01	5.0476	1.961303	-0.000120	-1.197442	-0.202852	-0.002395
 507	2.5300e-01	5.0546	2.016895	0.000556	5.559553	0.941814	0.011118
 508	2.5350e-01	5.0668	2.036565	0.000197	1.967226	0.333257	0.003934
 509	2.5400e-01	5.0781	2.090019	0.000535	5.345724	0.905590	0.010691
 510	2.5450e-01	5.0836	2.096861	0.000068	0.684253	0.115916	0.001368
 511	2.5500e-01	5.0961	2.123373	0.000265	2.651479	0.449173	0.005303
 512	2.5550e-01	5.1065	2.133636	0.000103	1.026379	0.173873	0.002053
 513	2.5600e-01	5.1172	2.160577	0.000269	2.694245	0.456417	0.005388
 514	2.5650e-01	5.1288	2.195642	0.000351	3.506795	0.594067	0.007013
 515	2.5700e-01	5.1331	2.222155	0.000265	2.651479	0.449173	0.005303
 516	2.5750e-01	5.1440	2.242253	0.000201	2.009992	0.340502	0.004020
 517	2.5800e-01	5.1575	2.277746	0.000355	3.549561	0.601312	0.007099
 518	2.5850e-01	5.1692	2.299983	0.000222	2.223821	0.376725	0.004447
 519	2.5900e-01	5.1764	2.294423	-0.000056	-0.555955	-0.094181	-0.001112
 520	2.5950e-01	5.1855	2.358995	0.000646	6.457634	1.093953	0.012914
 521	2.6000e-01	5.2003	2.379948	0.000210	2.095524	0.354991	0.004191
 522	2.6050e-01	5.2063	2.373534	-0.000064	-0.641487	-0.108671	-0.001283
 523	2.6100e-01	5.2199	2.398336	0.000248	2.480416	0.420194	0.004960
 524	2.6150e-01	5.2264	2.426987	0.000287	2.865308	0.485396	0.005730
 525	2.6200e-01	5.2350	2.454355	0.000274	2.737011	0.463662	0.005474
 526	2.6250e-01	5.2460	2.480013	0.000257	2.565947	0.434683	0.005132
 527	2.6300e-01	5.2557	2.487282	0.000073	0.727018	0.123160	0.001454
 528	2.6350e-01	5.2643	2.533894	0.000466	4.661471	0.789675	0.009322
 529	2.6400e-01	5.2756	2.571097	0.000372	3.720624	0.630291	0.007441
 530	2.6450e-01	5.2863	2.587347	0.000163	1.625100	0.275299	0.003250
 531	2.6500e-01	5.2979	2.595044	0.000077	0.769784	0.130405	0.001539
 532	2.6550e-01	5.3076	2.627971	0.000329	3.292966	0.557844	0.006585
 533	2.6600e-01	5.3198	2.660471	0.000325	3.250200	0.550599	0.006500
 534	2.6650e-01	5.3265	2.683990	0.000235	2.352118	0.398460	0.004704
 535	2.6700e-01	5.3375	2.709648	0.000257	2.565947	0.434683	0.005132
 536	2.6750e-01	5.3461	2.721621	0.000120	1.197442	0.202852	0.002395
 537	2.6800e-01	5.3552	2.767377	0.000458	4.575940	0.775185	0.009151
 538	2.6850e-01	5.3656	2.772508	0.000051	0.513189	0.086937	0.001026
 539	2.6900e-01	5.3768	2.803725	0.000312	3.121903	0.528865	0.006243
 540	2.6950e-01	5.3885	2.825534	0.000218	2.181055	0.369481	0.004362
 541	2.7000e-01	5.3961	2.838363	0.000128	1.282974	0.217342	0.002566
 542	2.7050e-01	5.4065	2.845205	0.000068	0.684253	0.115916	0.001368
 543	2.7100e-01	5.4150	2.888395	0.000432	4.319345	0.731717	0.008638
 544	2.7150e-01	5.4260	2.920467	0.000321	3.207434	0.543354	0.006414
 545	2.7200e-01	5.4398	2.949973	0.000295	2.950840	0.499886	0.005901
 546	2.7250e-01	5.4471	2.960664	0.000107	1.069145	0.181118	0.002138
 547	2.7300e-01	5.4585	3.002998	0.000423	4.233813	0.717227	0.008467
 548	2.7350e-01	5.4691	3.019248	0.000163	1.625100	0.275299	0.003250
 549	2.7400e-01	5.4749	3.025235	0.000060	0.598721	0.101426	0.001197
 550	2.7450e-01	5.4871	3.065859	0.000406	4.062750	0.688248	0.008125
 551	2.7500e-01	5.4977	3.084675	0.000188	1.881695	0.318768	0.003763
 552	2.7550e-01	5.5099	3.101780	0.000171	1.710632	0.289789	0.003421
 553	2.7600e-01	5.5179	3.123589	0.000218	2.181055	0.369481	0.004362
 554	2.7650e-01	5.5258	3.171055	0.000475	4.747003	0.804164	0.009493
 555	2.7700e-01	5.5371	3.169772	-0.000013	-0.128297	-0.021734	-0.000257
 556	2.7750e-01	5.5469	3.194575	0.000248	2.480416	0.420194	0.004960
 557	2.7800e-01	5.5573	3.222370	0.000278	2.779776	0.470907	0.005559
 558	2.7850e-01	5.5676	3.248028	0.000257	2.565947	0.434683	0.005132
 559	2.7900e-01	5.5750	3.272402	0.000244	2.437650	0.412949	0.004875
 560	2.7950e-01	5.5865	3.304902	0.000325	3.250200	0.550599	0.006500
 561	2.8000e-01	5.5957	3.331415	0.000265	2.651479	0.449173	0.005303
 562	2.8050e-01	5.6061	3.359638	0.000282	2.822542	0.478152	0.005645
 563	2.8100e-01	5.6140	3.369046	0.000094	0.940847	0.159384	0.001882
 564	2.8150e-01	5.6258	3.391710	0.000227	2.266587	0.383970	0.004533
 565	2.8200e-01	5.6392	3.420361	0.000287	2.865308	0.485396	0.005730
 566	2.8250e-01	5.6467	3.439604	0.000192	1.924461	0.326012	0.003849
 567	2.8300e-01	5.6549	3.478090	0.000385	3.848921	0.652025	0.007697
 568	2.8350e-01	5.6654	3.503320	0.000252	2.523182	0.427439	0.005046
 569	2.8400e-01	5.6775	3.511017	0.000077	0.769784	0.130405	0.001539
 570	2.8450e-01	5.6854	3.577727	0.000667	6.671463	1.130176	0.013342
 571	2.8500e-01	5.6958	3.568747	-0.000090	-0.898082	-0.152139	-0.001796
 572	2.8550e-01	5.7060	3.592694	0.000239	2.394884	0.405704	0.004789
 573	2.8600e-01	5.7166	3.599108	0.000064	0.641487	0.108671	0.001283
 574	2.8650e-01	5.7257	3.640160	0.000411	4.105516	0.695493	0.008210
 575	2.8700e-01	5.7394	3.667956	0.000278	2.779776	0.470907	0.005559
 576	2.8750e-01	5.7458	3.667101	-0.000009	-0.085532	-0.014489	-0.000171
 577	2.8800e-01	5.7544	3.718416	0.000513	5.131895	0.869367	0.010263
 578	2.8850e-01	5.7675	3.719698	0.000013	0.128297	0.021734	0.000257
 579	2.8900e-01	5.7769	3.761178	0.000415	4.148282	0.702738	0.008296
 580	2.8950e-01	5.7887	3.779138	0.000180	1.796163	0.304278	0.003592
 581	2.9000e-01	5.7980	3.787691	0.000086	0.855316	0.144894	0.001711
 582	2.9050e-01	5.8093	3.810355	0.000227	2.266587	0.383970	0.004533
 583	2.9100e-01	5.8170	3.848414	0.000381	3.806155	0.644780	0.007612
 584	2.9150e-01	5.8301	3.855683	0.000073	0.727018	0.123160	0.001454
 585	2.9200e-01	5.8380	3.885617	0.000299	2.993605	0.507130	0.005987
 586	2.9250e-01	5.8478	3.938215	0.000526	5.260192	0.891101	0.010520
 587	2.9300e-01	5.8566	3.959169	0.000210	2.095524	0.354991	0.004191
 588	2.9350e-01	5.8673	3.971997	0.000128	1.282974	0.217342	0.002566
 589	2.9400e-01	5.8783	4.014760	0.000428	4.276579	0.724472	0.008553
 590	2.9450e-01	5.8838	3.997227	-0.000175	-1.753397	-0.297034	-0.003507
 591	2.9500e-01	5.8936	4.029727	0.000325	3.250200	0.550599	0.006500
 592	2.9550e-01	5.9058	4.055812	0.000261	2.608713	0.441928	0.005217
 593	2.9600e-01	5.9183	4.063509	0.000077	0.769784	0.130405	0.001539
 594	2.9650e-01	5.9248	4.087456	0.000239	2.394884	0.405704	0.004789
 595	2.9700e-01	5.9375	4.114824	0.000274	2.737011	0.463662	0.005474
 596	2.9750e-01	5.9485	4.149889	0.000351	3.506795	0.594067	0.007013
 597	2.9800e-01	5.9563	4.174264	0.000244	2.437650	0.412949	0.004875
 598	2.9850e-01	5.9668	4.197356	0.000231	2.309353	0.391215	0.004618
 599	2.9900e-01	5.9784	4.229000	0.000316	3.164668	0.536109	0.006329
 600	2.9950e-01	5.9875	4.236270	0.000073	0.727018	0.123160	0.001454
 601	3.0000e-01	5.9961	4.271335	0.000351	3.506795	0.594067	0.007013
 602	3.0050e-01	6.0052	4.279460	0.000081	0.812550	0.137650	0.001625
 603	3.0100e-01	6.0162	4.317519	0.000381	3.806155	0.644780	0.007612
 604	3.0150e-01	6.0263	4.359853	0.000423	4.233813	0.717227	0.008467
 605	3.0200e-01	6.0364	4.343176	-0.000167	-1.667866	-0.282544	-0.003335
 606	3.0250e-01	6.0471	4.378241	0.000351	3.506795	0.594067	0.007013
 607	3.0300e-01	6.0559	4.412024	0.000338	3.378497	0.572333	0.006756
 608	3.0350e-01	6.0663	4.449227	0.000372	3.720624	0.630291	0.007441
 609	3.0400e-01	6.0754	4.462056	0.000128	1.282974	0.217342	0.002566
 610	3.0450e-01	6.0867	4.490279	0.000282	2.822542	0.478152	0.005645
 611	3.0500e-01	6.1011	4.498404	0.000081	0.812550	0.137650	0.001625
 612	3.0550e-01	6.1072	4.529621	0.000312	3.121903	0.528865	0.006243
 613	3.0600e-01	6.1169	4.564258	0.000346	3.464029	0.586822	0.006928
 614	3.0650e-01	6.1282	4.561265	-0.000030	-0.299361	-0.050713	-0.000599
 615	3.0700e-01	6.1359	4.610014	0.000488	4.875300	0.825898	0.009750
 616	3.0750e-01	6.1507	4.614718	0.000047	0.470424	0.079692	0.000941
 617	3.0800e-01	6.1578	4.631396	0.000167	1.667866	0.282544	0.003335
 618	3.0850e-01	6.1664	4.650211	0.000188	1.881695	0.318768	0.003763
 619	3.0900e-01	6.1781	4.676724	0.000265	2.651479	0.449173	0.005303
 620	3.0950e-01	6.1871	4.707513	0.000308	3.079137	0.521620	0.006158
 621	3.1000e-01	6.1978	4.721197	0.000137	1.368505	0.231831	0.002737
 622	3.1050e-01	6.2067	4.763532	0.000423	4.233813	0.717227	0.008467
 623	3.1100e-01	6.2195	4.786196	0.000227	2.266587	0.383970	0.004533
 624	3.1150e-01	6.2268	4.796459	0.000103	1.026379	0.173873	0.002053
 625	3.1200e-01	6.2396	4.808432	0.000120	1.197442	0.202852	0.002395
 626	3.1250e-01	6.2476	4.846063	0.000376	3.763390	0.637535	0.007526
 627	3.1300e-01	6.2561	4.871721	0.000257	2.565947	0.434683	0.005132
 628	3.1350e-01	6.2653	4.904648	0.000329	3.292966	0.557844	0.006585
 629	3.1400e-01	6.2787	4.924746	0.000201	2.009992	0.340502	0.004020
 630	3.1450e-01	6.2866	4.921753	-0.000030	-0.299361	-0.050713	-0.000599
 631	3.1500e-01	6.2970	4.954680	0.000329	3.292966	0.557844	0.006585
 632	3.1550e-01	6.3098	4.970930	0.000163	1.625100	0.275299	0.003250
 633	3.1600e-01	6.3165	5.018824	0.000479	4.789769	0.811409	0.009579
 634	3.1650e-01	6.3263	5.023100	0.000043	0.427658	0.072447	0.000855
 635	3.1700e-01	6.3367	5.054317	0.000312	3.121903	0.528865	0.006243
 636	3.1750e-01	6.3446	5.053889	-0.000004	-0.042766	-0.007245	-0.000086
 637	3.1800e-01	6.3553	5.087672	0.000338	3.378497	0.572333	0.006756
 638	3.1850e-01	6.3660	5.132572	0.000449	4.490408	0.760696	0.008980
 639	3.1900e-01	6.3751	5.158658	0.000261	2.608713	0.441928	0.005217
 640	3.1950e-01	6.3873	5.173624	0.000150	1.496803	0.253565	0.002993
 641	3.2000e-01	6.3977	5.201848	0.000282	2.822542	0.478152	0.005645
 642	3.2050e-01	6.4059	5.221518	0.000197	1.967226	0.333257	0.003934
 643	3.2100e-01	6.4162	5.262998	0.000415	4.148282	0.702738	0.008296
 644	3.2150e-01	6.4264	5.251880	-0.000111	-1.111911	-0.188363	-0.002224
 645	3.2200e-01	6.4374	5.295925	0.000440	4.404876	0.746206	0.008809
 646	3.2250e-01	6.4471	5.292504	-0.000034	-0.342126	-0.057958	-0.000684
 647	3.2300e-01	6.4575	5.315596	0.000231	2.309353	0.391215	0.004618
 648	3.2350e-01	6.4697	5.366911	0.000513	5.131895	0.869367	0.010263
 649	3.2400e-01	6.4764	5.374181	0.000073	0.727018	0.123160	0.001454
 650	3.2450e-01	6.4856	5.385727	0.000115	1.154676	0.195607	0.002309
 651	3.2500e-01	6.4972	5.425923	0.000402	4.019984	0.681004	0.008039
 652	3.2550e-01	6.5054	5.437042	0.000111	1.111911	0.188363	0.002224
 653	3.2600e-01	6.5161	5.468258	0.000312	3.121903	0.528865	0.006243
 654	3.2650e-01	6.5289	5.496054	0.000278	2.779776	0.470907	0.005559
 655	3.2700e-01	6.5381	5.505889	0.000098	0.983613	0.166629	0.001967
 656	3.2750e-01	6.5485	5.520428	0.000145	1.454037	0.246321	0.002908
 657	3.2800e-01	6.5576	5.540954	0.000205	2.052758	0.347747	0.004105
 658	3.2850e-01	6.5668	5.591414	0.000505	5.046363	0.854877	0.010092
 659	3.2900e-01	6.5768	5.609375	0.000180	1.796163	0.304278	0.003592
 660	3.2950e-01	6.5863	5.635887	0.000265	2.651479	0.449173	0.005303
 661	3.3000e-01	6.5979	5.640164	0.000043	0.427658	0.072447	0.000855
 662	3.3050e-01	6.6071	5.644012	0.000038	0.384892	0.065202	0.000770
 663	3.3100e-01	6.6174	5.698748	0.000547	5.474021	0.927324	0.010947
 664	3.3150e-01	6.6269	5.711577	0.000128	1.282974	0.217342	0.002566
 665	3.3200e-01	6.6388	5.749208	0.000376	3.763390	0.637535	0.007526
 666	3.3250e-01	6.6455	5.765030	0.000158	1.582334	0.268055	0.003164
 667	3.3300e-01	6.6565	5.771445	0.000064	0.641487	0.108671	0.001283
 668	3.3350e-01	6.6681	5.804799	0.000334	3.335732	0.565088	0.006671
 669	3.3400e-01	6.6772	5.824042	0.000192	1.924461	0.326012	0.003849
 670	3.3450e-01	6.6833	5.852266	0.000282	2.822542	0.478152	0.005645
 671	3.3500e-01	6.6977	5.870654	0.000184	1.838929	0.311523	0.003678
 672	3.3550e-01	6.7078	5.886903	0.000163	1.625100	0.275299	0.003250
 673	3.3600e-01	6.7175	5.928383	0.000415	4.148282	0.702738	0.008296
 674	3.3650e-01	6.7267	5.937791	0.000094	0.940847	0.159384	0.001882
 675	3.3700e-01	6.7365	5.978843	0.000411	4.105516	0.695493	0.008210
 676	3.3750e-01	6.7456	5.964731	-0.000141	-1.411271	-0.239076	-0.002822
 677	3.3800e-01	6.7566	6.023743	0.000590	5.901679	0.999771	0.011802
 678	3.3850e-01	6.7670	6.025454	0.000017	0.171063	0.028979	0.000342
 679	3.3900e-01	6.7767	6.029303	0.000038	0.384892	0.065202	0.000770
 680	3.3950e-01	6.7831	6.075058	0.000458	4.575940	0.775185	0.009151
 681	3.4000e-01	6.7957	6.084466	0.000094	0.940847	0.159384	0.001882
 682	3.4050e-01	6.8073	6.087032	0.000026	0.256595	0.043468	0.000513
 683	3.4100e-01	6.8170	6.141340	0.000543	5.431255	0.920080	0.010862
 684	3.4150e-01	6.8268	6.164432	0.000231	2.309353	0.391215	0.004618
 685	3.4200e-01	6.8375	6.195221	0.000308	3.079137	0.521620	0.006158
 686	3.4250e-01	6.8494	6.205484	0.000103	1.026379	0.173873	0.002053
 687	3.4300e-01	6.8561	6.200780	-0.000047	-0.470424	-0.079692	-0.000941
 688	3.4350e-01	6.8683	6.258937	0.000582	5.816147	0.985282	0.011631
 689	3.4400e-01	6.8805	6.282029	0.000231	2.309353	0.391215	0.004618
 690	3.4450e-01	6.8854	6.299562	0.000175	1.753397	0.297034	0.003507
 691	3.4500e-01	6.8970	6.303410	0.000038	0.384892	0.065202	0.000770
 692	3.4550e-01	6.9061	6.327785	0.000244	2.437650	0.412949	0.004875
 693	3.4600e-01	6.9186	6.354298	0.000265	2.651479	0.449173	0.005303
 694	3.4650e-01	6.9254	6.376962	0.000227	2.266587	0.383970	0.004533
 695	3.4700e-01	6.9379	6.397488	0.000205	2.052758	0.347747	0.004105
 696	3.4750e-01	6.9482	6.418442	0.000210	2.095524	0.354991	0.004191
 697	3.4800e-01	6.9577	6.454362	0.000359	3.592326	0.608557	0.007184
 698	3.4850e-01	6.9696	6.478737	0.000244	2.437650	0.412949	0.004875
 699	3.4900e-01	6.9769	6.479164	0.000004	0.042766	0.007245	0.000086
 700	3.4950e-01	6.9867	6.528769	0.000496	4.960832	0.840388	0.009921
 701	3.5000e-01	6.9977	6.505249	-0.000235	-2.352118	-0.398460	-0.004704
 702	3.5050e-01	7.0059	6.560841	0.000556	5.559553	0.941814	0.011118
 703	3.5100e-01	7.0192	6.578801	0.000180	1.796163	0.304278	0.003592
 704	3.5150e-01	7.0251	6.604031	0.000252	2.523182	0.427439	0.005046
 705	3.5200e-01	7.0386	6.624985	0.000210	2.095524	0.354991	0.004191
 706	3.5250e-01	7.0462	6.664326	0.000393	3.934453	0.666514	0.007868
 707	3.5300e-01	7.0572	6.677155	0.000128	1.282974	0.217342	0.002566
 708	3.5350e-01	7.0673	6.693405	0.000163	1.625100	0.275299	0.003250
 709	3.5400e-01	7.0755	6.712648	0.000192	1.924461	0.326012	0.003849
 710	3.5450e-01	7.0874	6.736167	0.000235	2.352118	0.398460	0.004704
 711	3.5500e-01	7.0979	6.742582	0.000064	0.641487	0.108671	0.001283
 712	3.5550e-01	7.1063	6.763108	0.000205	2.052758	0.347747	0.004105
 713	3.5600e-01	7.1155	6.808863	0.000458	4.575940	0.775185	0.009151
 714	3.5650e-01	7.1254	6.833666	0.000248	2.480416	0.420194	0.004960
 715	3.5700e-01	7.1384	6.834521	0.000009	0.085532	0.014489	0.000171
 716	3.5750e-01	7.1472	6.876428	0.000419	4.191047	0.709983	0.008381
 717	3.5800e-01	7.1567	6.906362	0.000299	2.993605	0.507130	0.005987
 718	3.5850e-01	7.1683	6.905934	-0.000004	-0.042766	-0.007245	-0.000086
 719	3.5900e-01	7.1759	6.917480	0.000115	1.154676	0.195607	0.002309
 720	3.5950e-01	7.1869	6.956822	0.000393	3.934453	0.666514	0.007868
 721	3.6000e-01	7.1954	6.957677	0.000009	0.085532	0.014489	0.000171
 722	3.6050e-01	7.2070	6.996163	0.000385	3.848921	0.652025	0.007697
 723	3.6100e-01	7.2168	7.032939	0.000368	3.677858	0.623046	0.007355
 724	3.6150e-01	7.2290	7.041492	0.000086	0.855316	0.144894	0.001711
 725	3.6200e-01	7.2363	7.056031	0.000145	1.454037	0.246321	0.002908
 726	3.6250e-01	7.2443	7.091096	0.000351	3.506795	0.594067	0.007013
 727	3.6300e-01	7.2610	7.093234	0.000021	0.213829	0.036224	0.000428
 728	3.6350e-01	7.2664	7.115043	0.000218	2.181055	0.369481	0.004362
 729	3.6400e-01	7.2763	7.159516	0.000445	4.447642	0.753451	0.008895
 730	3.6450e-01	7.2865	7.183891	0.000244	2.437650	0.412949	0.004875
 731	3.6500e-01	7.2974	7.168924	-0.000150	-1.496803	-0.253565	-0.002993
 732	3.6550e-01	7.3053	7.218956	0.000500	5.003597	0.847632	0.010006
 733	3.6600e-01	7.3169	7.255304	0.000364	3.635092	0.615801	0.007270
 734	3.6650e-01	7.3270	7.250173	-0.000051	-0.513189	-0.086937	-0.001026
 735	3.6700e-01	7.3383	7.262146	0.000120	1.197442	0.202852	0.002395
 736	3.6750e-01	7.3470	7.293363	0.000312	3.121903	0.528865	0.006243
 737	3.6800e-01	7.3567	7.319876	0.000265	2.651479	0.449173	0.005303
 738	3.6850e-01	7.3662	7.348527	0.000287	2.865308	0.485396	0.005730
 739	3.6900e-01	7.3773	7.365204	0.000167	1.667866	0.282544	0.003335
 740	3.6950e-01	7.3871	7.408822	0.000436	4.362111	0.738962	0.008724
 741	3.7000e-01	7.3975	7.404118	-0.000047	-0.470424	-0.079692	-0.000941
 742	3.7050e-01	7.4072	7.414381	0.000103	1.026379	0.173873	0.002053
 743	3.7100e-01	7.4188	7.462275	0.000479	4.789769	0.811409	0.009579
 744	3.7150e-01	7.4268	7.475531	0.000133	1.325739	0.224586	0.002651
 745	3.7200e-01	7.4359	7.501616	0.000261	2.608713	0.441928	0.005217
 746	3.7250e-01	7.4475	7.505893	0.000043	0.427658	0.072447	0.000855
 747	3.7300e-01	7.4570	7.549938	0.000440	4.404876	0.746206	0.008809
 748	3.7350e-01	7.4658	7.549938	0.000000	0.000000	0.000000	0.000000
 749	3.7400e-01	7.4750	7.563622	0.000137	1.368505	0.231831	0.002737
 750	3.7450e-01	7.4890	7.607240	0.000436	4.362111	0.738962	0.008724
 751	3.7500e-01	7.4985	7.619641	0.000124	1.240208	0.210097	0.002480
 752	3.7550e-01	7.5073	7.640595	0.000210	2.095524	0.354991	0.004191
 753	3.7600e-01	7.5146	7.659410	0.000188	1.881695	0.318768	0.003763
 754	3.7650e-01	7.5275	7.686778	0.000274	2.737011	0.463662	0.005474
 755	3.7700e-01	7.5378	7.725264	0.000385	3.848921	0.652025	0.007697
 756	3.7750e-01	7.5464	7.726547	0.000013	0.128297	0.021734	0.000257
 757	3.7800e-01	7.5586	7.766744	0.000402	4.019984	0.681004	0.008039
 758	3.7850e-01	7.5690	7.741942	-0.000248	-2.480416	-0.420194	-0.004960
 759	3.7900e-01	7.5778	7.789836	0.000479	4.789769	0.811409	0.009579
 760	3.7950e-01	7.5848	7.819342	0.000295	2.950840	0.499886	0.005901
 761	3.8000e-01	7.6001	7.853124	0.000338	3.378497	0.572333	0.006756
 762	3.8050e-01	7.6071	7.859539	0.000064	0.641487	0.108671	0.001283
 763	3.8100e-01	7.6147	7.893749	0.000342	3.421263	0.579578	0.006842
 764	3.8150e-01	7.6270	7.906150	0.000124	1.240208	0.210097	0.002480
 765	3.8200e-01	7.6367	7.948912	0.000428	4.276579	0.724472	0.008553
 766	3.8250e-01	7.6459	7.940360	-0.000086	-0.855316	-0.144894	-0.001711
 767	3.8300e-01	7.6556	7.976708	0.000364	3.635092	0.615801	0.007270
 768	3.8350e-01	7.6636	7.989109	0.000124	1.240208	0.210097	0.002480
 769	3.8400e-01	7.6752	8.009208	0.000201	2.009992	0.340502	0.004020
 770	3.8450e-01	7.6880	8.038286	0.000291	2.908074	0.492641	0.005816
 771	3.8500e-01	7.6968	8.046411	0.000081	0.812550	0.137650	0.001625
 772	3.8550e-01	7.7075	8.079766	0.000334	3.335732	0.565088	0.006671
 773	3.8600e-01	7.7155	8.103713	0.000239	2.394884	0.405704	0.004789
 774	3.8650e-01	7.7295	8.128087	0.000244	2.437650	0.412949	0.004875
 775	3.8700e-01	7.7368	8.136640	0.000086	0.855316	0.144894	0.001711
 776	3.8750e-01	7.7472	8.163580	0.000269	2.694245	0.456417	0.005388
 777	3.8800e-01	7.7547	8.173416	0.000098	0.983613	0.166629	0.001967
 778	3.8850e-01	7.7667	8.188810	0.000154	1.539568	0.260810	0.003079
 779	3.8900e-01	7.7771	8.241836	0.000530	5.302958	0.898345	0.010605
 780	3.8950e-01	7.7869	8.231145	-0.000107	-1.069145	-0.181118	-0.002138
 781	3.9000e-01	7.7991	8.265783	0.000346	3.464029	0.586822	0.006928
 782	3.9050e-01	7.8064	8.286736	0.000210	2.095524	0.354991	0.004191
 783	3.9100e-01	7.8174	8.292296	0.000056	0.555955	0.094181	0.001112
 784	3.9150e-01	7.8259	8.334630	0.000423	4.233813	0.717227	0.008467
 785	3.9200e-01	7.8369	8.356012	0.000214	2.138290	0.362236	0.004276
 786	3.9250e-01	7.8473	8.371406	0.000154	1.539568	0.260810	0.003079
 787	3.9300e-01	7.8566	8.405189	0.000338	3.378497	0.572333	0.006756
 788	3.9350e-01	7.8699	8.409465	0.000043	0.427658	0.072447	0.000855
 789	3.9400e-01	7.8760	8.421866	0.000124	1.240208	0.210097	0.002480
 790	3.9450e-01	7.8839	8.445813	0.000239	2.394884	0.405704	0.004789
 791	3.9500e-01	7.8979	8.475747	0.000299	2.993605	0.507130	0.005987
 792	3.9550e-01	7.9089	8.495845	0.000201	2.009992	0.340502	0.004020
 793	3.9600e-01	7.9181	8.523213	0.000274	2.737011	0.463662	0.005474
 794	3.9650e-01	7.9260	8.532621	0.000094	0.940847	0.159384	0.001882
 795	3.9700e-01	7.9370	8.555713	0.000231	2.309353	0.391215	0.004618
 796	3.9750e-01	7.9475	8.582653	0.000269	2.694245	0.456417	0.005388
 797	3.9800e-01	7.9590	8.596765	0.000141	1.411271	0.239076	0.002822
 798	3.9850e-01	7.9675	8.610449	0.000137	1.368505	0.231831	0.002737
 799	3.9900e-01	7.9767	8.657487	0.000470	4.704237	0.796919	0.009408
 800	3.9950e-01	7.9865	8.657915	0.000004	0.042766	0.007245	0.000086
 801	4.0000e-01	7.9965	8.686994	0.000291	2.908074	0.492641	0.005816
 802	4.0050e-01	8.0054	8.713506	0.000265	2.651479	0.449173	0.005303
 803	4.0100e-01	8.0200	8.720348	0.000068	0.684253	0.115916	0.001368
 804	4.0150e-01	8.0267	8.757552	0.000372	3.720624	0.630291	0.007441
 805	4.0200e-01	8.0365	8.779361	0.000218	2.181055	0.369481	0.004362
 806	4.0250e-01	8.0475	8.782782	0.000034	0.342126	0.057958	0.000684
 807	4.0300e-01	8.0579	8.827255	0.000445	4.447642	0.753451	0.008895
 808	4.0350e-01	8.0688	8.828538	0.000013	0.128297	0.021734	0.000257
 809	4.0400e-01	8.0798	8.850774	0.000222	2.223821	0.376725	0.004447
 810	4.0450e-01	8.0859	8.868307	0.000175	1.753397	0.297034	0.003507
 811	4.0500e-01	8.0975	8.899523	0.000312	3.121903	0.528865	0.006243
 812	4.0550e-01	8.1091	8.918767	0.000192	1.924461	0.326012	0.003849
 813	4.0600e-01	8.1177	8.935016	0.000163	1.625100	0.275299	0.003250
 814	4.0650e-01	8.1256	8.947845	0.000128	1.282974	0.217342	0.002566
 815	4.0700e-01	8.1360	8.988897	0.000411	4.105516	0.695493	0.008210
 816	4.0750e-01	8.1464	9.020114	0.000312	3.121903	0.528865	0.006243
 817	4.0800e-01	8.1561	9.000871	-0.000192	-1.924461	-0.326012	-0.003849
 818	4.0850e-01	8.1628	9.059455	0.000586	5.858913	0.992527	0.011717
 819	4.0900e-01	8.1766	9.061166	0.000017	0.171063	0.028979	0.000342
 820	4.0950e-01	8.1879	9.079554	0.000184	1.838929	0.311523	0.003678
 821	4.1000e-01	8.1976	9.091100	0.000115	1.154676	0.195607	0.002309
 822	4.1050e-01	8.2111	9.124027	0.000329	3.292966	0.557844	0.006585
 823	4.1100e-01	8.2159	9.150112	0.000261	2.608713	0.441928	0.005217
 824	4.1150e-01	8.2266	9.161230	0.000111	1.111911	0.188363	0.002224
 825	4.1200e-01	8.2385	9.193302	0.000321	3.207434	0.543354	0.006414
 826	4.1250e-01	8.2489	9.214256	0.000210	2.095524	0.354991	0.004191
 827	4.1300e-01	8.2574	9.246328	0.000321	3.207434	0.543354	0.006414
 828	4.1350e-01	8.2672	9.263005	0.000167	1.667866	0.282544	0.003335
 829	4.1400e-01	8.2764	9.266854	0.000038	0.384892	0.065202	0.000770
 830	4.1450e-01	8.2852	9.287380	0.000205	2.052758	0.347747	0.004105
 831	4.1500e-01	8.2959	9.311754	0.000244	2.437650	0.412949	0.004875
 832	4.1550e-01	8.3081	9.330570	0.000188	1.881695	0.318768	0.003763
 833	4.1600e-01	8.3200	9.337412	0.000068	0.684253	0.115916	0.001368
 834	4.1650e-01	8.3258	9.356227	0.000188	1.881695	0.318768	0.003763
 835	4.1700e-01	8.3357	9.389154	0.000329	3.292966	0.557844	0.006585
 836	4.1750e-01	8.3447	9.435338	0.000462	4.618705	0.782430	0.009237
 837	4.1800e-01	8.3557	9.428068	-0.000073	-0.727018	-0.123160	-0.001454
 838	4.1850e-01	8.3679	9.456719	0.000287	2.865308	0.485396	0.005730
 839	4.1900e-01	8.3771	9.478956	0.000222	2.223821	0.376725	0.004447
 840	4.1950e-01	8.3856	9.499482	0.000205	2.052758	0.347747	0.004105
 841	4.2000e-01	8.3948	9.534119	0.000346	3.464029	0.586822	0.006928
 842	4.2050e-01	8.4076	9.535402	0.000013	0.128297	0.021734	0.000257
 843	4.2100e-01	8.4161	9.542672	0.000073	0.727018	0.123160	0.001454
 844	4.2150e-01	8.4265	9.587572	0.000449	4.490408	0.760696	0.008980
 845	4.2200e-01	8.4366	9.608954	0.000214	2.138290	0.362236	0.004276
 846	4.2250e-01	8.4467	9.626059	0.000171	1.710632	0.289789	0.003421
 847	4.2300e-01	8.4572	9.638460	0.000124	1.240208	0.210097	0.002480
 848	4.2350e-01	8.4662	9.681650	0.000432	4.319345	0.731717	0.008638
 849	4.2400e-01	8.4784	9.673953	-0.000077	-0.769784	-0.130405	-0.001539
 850	4.2450e-01	8.4882	9.698327	0.000244	2.437650	0.412949	0.004875
 851	4.2500e-01	8.5010	9.726123	0.000278	2.779776	0.470907	0.005559
 852	4.2550e-01	8.5059	9.749215	0.000231	2.309353	0.391215	0.004618
 853	4.2600e-01	8.5175	9.751353	0.000021	0.213829	0.036224	0.000428
 854	4.2650e-01	8.5284	9.777866	0.000265	2.651479	0.449173	0.005303
 855	4.2700e-01	8.5382	9.810365	0.000325	3.250200	0.550599	0.006500
 856	4.2750e-01	8.5461	9.823194	0.000128	1.282974	0.217342	0.002566
 857	4.2800e-01	8.5591	9.834312	0.000111	1.111911	0.188363	0.002224
 858	4.2850e-01	8.5657	9.862536	0.000282	2.822542	0.478152	0.005645
 859	4.2900e-01	8.5754	9.894180	0.000316	3.164668	0.536109	0.006329
 860	4.2950e-01	8.5870	9.919410	0.000252	2.523182	0.427439	0.005046
 861	4.3000e-01	8.5974	9.918127	-0.000013	-0.128297	-0.021734	-0.000257
 862	4.3050e-01	8.6053	9.948488	0.000304	3.036371	0.514375	0.006072
 863	4.3100e-01	8.6182	9.961317	0.000128	1.282974	0.217342	0.002566
 864	4.3150e-01	8.6285	9.991678	0.000304	3.036371	0.514375	0.006072
 865	4.3200e-01	8.6365	10.003224	0.000115	1.154676	0.195607	0.002309
 866	4.3250e-01	8.6475	10.031020	0.000278	2.779776	0.470907	0.005559
 867	4.3300e-01	8.6578	10.054967	0.000239	2.394884	0.405704	0.004789
 868	4.3350e-01	8.6652	10.080197	0.000252	2.523182	0.427439	0.005046
 869	4.3400e-01	8.6768	10.101578	0.000214	2.138290	0.362236	0.004276
 870	4.3450e-01	8.6847	10.126808	0.000252	2.523182	0.427439	0.005046
 871	4.3500e-01	8.6963	10.122104	-0.000047	-0.470424	-0.079692	-0.000941
 872	4.3550e-01	8.7064	10.172991	0.000509	5.089129	0.862122	0.010177
 873	4.3600e-01	8.7177	10.173419	0.000004	0.042766	0.007245	0.000086
 874	4.3650e-01	8.7265	10.191379	0.000180	1.796163	0.304278	0.003592
 875	4.3700e-01	8.7378	10.207629	0.000163	1.625100	0.275299	0.003250
 876	4.3750e-01	8.7488	10.245688	0.000381	3.806155	0.644780	0.007612
 877	4.3800e-01	8.7585	10.265786	0.000201	2.009992	0.340502	0.004020
 878	4.3850e-01	8.7653	10.270490	0.000047	0.470424	0.079692	0.000941
 879	4.3900e-01	8.7781	10.305555	0.000351	3.506795	0.594067	0.007013
 880	4.3950e-01	8.7872	10.310687	0.000051	0.513189	0.086937	0.001026
 881	4.4000e-01	8.7970	10.341476	0.000308	3.079137	0.521620	0.006158
 882	4.4050e-01	8.8089	10.358153	0.000167	1.667866	0.282544	0.003335
 883	4.4100e-01	8.8202	10.374831	0.000167	1.667866	0.282544	0.003335
 884	4.4150e-01	8.8281	10.368844	-0.000060	-0.598721	-0.101426	-0.001197
 885	4.4200e-01	8.8379	10.402199	0.000334	3.335732	0.565088	0.006671
 886	4.4250e-01	8.8464	10.451376	0.000492	4.918066	0.833143	0.009835
 887	4.4300e-01	8.8544	10.469336	0.000180	1.796163	0.304278	0.003592
 888	4.4350e-01	8.8678	10.469763	0.000004	0.042766	0.007245	0.000086
 889	4.4400e-01	8.8776	10.493283	0.000235	2.352118	0.398460	0.004704
 890	4.4450e-01	8.8867	10.514664	0.000214	2.138290	0.362236	0.004276
 891	4.4500e-01	8.9008	10.543315	0.000287	2.865308	0.485396	0.005730
 892	4.4550e-01	8.9078	10.557854	0.000145	1.454037	0.246321	0.002908
 893	4.4600e-01	8.9182	10.593347	0.000355	3.549561	0.601312	0.007099
 894	4.4650e-01	8.9270	10.600189	0.000068	0.684253	0.115916	0.001368
 895	4.4700e-01	8.9355	10.615584	0.000154	1.539568	0.260810	0.003079
 896	4.4750e-01	8.9471	10.633972	0.000184	1.838929	0.311523	0.003678
 897	4.4800e-01	8.9572	10.651504	0.000175	1.753397	0.297034	0.003507
 898	4.4850e-01	8.9648	10.692129	0.000406	4.062750	0.688248	0.008125
 899	4.4900e-01	8.9771	10.711372	0.000192	1.924461	0.326012	0.003849
 900	4.4950e-01	8.9868	10.721207	0.000098	0.983613	0.166629	0.001967
 901	4.5000e-01	8.9941	10.738312	0.000171	1.710632	0.289789	0.003421
 902	4.5050e-01	9.0076	10.774233	0.000359	3.592326	0.608557	0.007184
 903	4.5100e-01	9.0143	10.782785	0.000086	0.855316	0.144894	0.001711
 904	4.5150e-01	9.0253	10.803311	0.000205	2.052758	0.347747	0.004105
 905	4.5200e-01	9.0359	10.837094	0.000338	3.378497	0.572333	0.006756
 906	4.5250e-01	9.0442	10.852488	0.000154	1.539568	0.260810	0.003079
 907	4.5300e-01	9.0558	10.875580	0.000231	2.309353	0.391215	0.004618
 908	4.5350e-01	9.0662	10.888836	0.000133	1.325739	0.224586	0.002651
 909	4.5400e-01	9.0759	10.917487	0.000287	2.865308	0.485396	0.005730
 910	4.5450e-01	9.0881	10.920908	0.000034	0.342126	0.057958	0.000684
 911	4.5500e-01	9.0955	10.950842	0.000299	2.993605	0.507130	0.005987
 912	4.5550e-01	9.1052	10.979493	0.000287	2.865308	0.485396	0.005730
 913	4.5600e-01	9.1159	11.001302	0.000218	2.181055	0.369481	0.004362
 914	4.5650e-01	9.1248	11.020545	0.000192	1.924461	0.326012	0.003849
 915	4.5700e-01	9.1394	11.025249	0.000047	0.470424	0.079692	0.000941
 916	4.5750e-01	9.1461	11.046630	0.000214	2.138290	0.362236	0.004276
 917	4.5800e-01	9.1553	11.060314	0.000137	1.368505	0.231831	0.002737
 918	4.5850e-01	9.1675	11.082978	0.000227	2.266587	0.383970	0.004533
 919	4.5900e-01	9.1760	11.111201	0.000282	2.822542	0.478152	0.005645
 920	4.5950e-01	9.1852	11.145839	0.000346	3.464029	0.586822	0.006928
 921	4.6000e-01	9.1959	11.147122	0.000013	0.128297	0.021734	0.000257
 922	4.6050e-01	9.2075	11.174490	0.000274	2.737011	0.463662	0.005474
 923	4.6100e-01	9.2188	11.181759	0.000073	0.727018	0.123160	0.001454
 924	4.6150e-01	9.2252	11.201430	0.000197	1.967226	0.333257	0.003934
 925	4.6200e-01	9.2371	11.219391	0.000180	1.796163	0.304278	0.003592
 926	4.6250e-01	9.2456	11.260870	0.000415	4.148282	0.702738	0.008296
 927	4.6300e-01	9.2535	11.297646	0.000368	3.677858	0.623046	0.007355
 928	4.6350e-01	9.2664	11.291659	-0.000060	-0.598721	-0.101426	-0.001197
 929	4.6400e-01	9.2770	11.310902	0.000192	1.924461	0.326012	0.003849
 930	4.6450e-01	9.2877	11.348106	0.000372	3.720624	0.630291	0.007441
 931	4.6500e-01	9.2963	11.353237	0.000051	0.513189	0.086937	0.001026
 932	4.6550e-01	9.3091	11.385737	0.000325	3.250200	0.550599	0.006500
 933	4.6600e-01	9.3164	11.404980	0.000192	1.924461	0.326012	0.003849
 934	4.6650e-01	9.3274	11.410967	0.000060	0.598721	0.101426	0.001197
 935	4.6700e-01	9.3381	11.430210	0.000192	1.924461	0.326012	0.003849
 936	4.6750e-01	9.3451	11.455867	0.000257	2.565947	0.434683	0.005132
 937	4.6800e-01	9.3555	11.474255	0.000184	1.838929	0.311523	0.003678
 938	4.6850e-01	9.3637	11.503334	0.000291	2.908074	0.492641	0.005816
 939	4.6900e-01	9.3750	11.528136	0.000248	2.480416	0.420194	0.004960
 940	4.6950e-01	9.3842	11.525143	-0.000030	-0.299361	-0.050713	-0.000599
 941	4.7000e-01	9.3970	11.544813	0.000197	1.967226	0.333257	0.003934
 942	4.7050e-01	9.4049	11.566195	0.000214	2.138290	0.362236	0.004276
 943	4.7100e-01	9.4153	11.589714	0.000235	2.352118	0.398460	0.004704
 944	4.7150e-01	9.4263	11.620075	0.000304	3.036371	0.514375	0.006072
 945	4.7200e-01	9.4366	11.621786	0.000017	0.171063	0.028979	0.000342
 946	4.7250e-01	9.4458	11.675667	0.000539	5.388490	0.912835	0.010776
 947	4.7300e-01	9.4568	11.681226	0.000056	0.555955	0.094181	0.001112
 948	4.7350e-01	9.4684	11.690206	0.000090	0.898082	0.152139	0.001796
 949	4.7400e-01	9.4751	11.707311	0.000171	1.710632	0.289789	0.003421
 950	4.7450e-01	9.4849	11.724844	0.000175	1.753397	0.297034	0.003507
 951	4.7500e-01	9.4965	11.770172	0.000453	4.533174	0.767940	0.009066
 952	4.7550e-01	9.5074	11.781290	0.000111	1.111911	0.188363	0.002224
 953	4.7600e-01	9.5154	11.794547	0.000133	1.325739	0.224586	0.002651
 954	4.7650e-01	9.5258	11.808231	0.000137	1.368505	0.231831	0.002737
 955	4.7700e-01	9.5367	11.826618	0.000184	1.838929	0.311523	0.003678
 956	4.7750e-01	9.5459	11.866815	0.000402	4.019984	0.681004	0.008039
 957	4.7800e-01	9.5557	11.887341	0.000205	2.052758	0.347747	0.004105
 958	4.7850e-01	9.5648	11.891617	0.000043	0.427658	0.072447	0.000855
 959	4.7900e-01	9.5764	11.907012	0.000154	1.539568	0.260810	0.003079
 960	4.7950e-01	9.5880	11.933525	0.000265	2.651479	0.449173	0.005303
 961	4.8000e-01	9.5959	11.964741	0.000312	3.121903	0.528865	0.006243
 962	4.8050e-01	9.6075	11.978853	0.000141	1.411271	0.239076	0.002822
 963	4.8100e-01	9.6158	11.983557	0.000047	0.470424	0.079692	0.000941
 964	4.8150e-01	9.6246	12.019477	0.000359	3.592326	0.608557	0.007184
 965	4.8200e-01	9.6368	12.031023	0.000115	1.154676	0.195607	0.002309
 966	4.8250e-01	9.6463	12.060529	0.000295	2.950840	0.499886	0.005901
 967	4.8300e-01	9.6576	12.075496	0.000150	1.496803	0.253565	0.002993
 968	4.8350e-01	9.6667	12.089608	0.000141	1.411271	0.239076	0.002822
 969	4.8400e-01	9.6759	12.136647	0.000470	4.704237	0.796919	0.009408
 970	4.8450e-01	9.6875	12.131088	-0.000056	-0.555955	-0.094181	-0.001112
 971	4.8500e-01	9.6967	12.163587	0.000325	3.250200	0.550599	0.006500
 972	4.8550e-01	9.7070	12.192666	0.000291	2.908074	0.492641	0.005816
 973	4.8600e-01	9.7162	12.192666	0.000000	0.000000	0.000000	0.000000
 974	4.8650e-01	9.7253	12.227731	0.000351	3.506795	0.594067	0.007013
 975	4.8700e-01	9.7369	12.234145	0.000064	0.641487	0.108671	0.001283
 976	4.8750e-01	9.7479	12.259803	0.000257	2.565947	0.434683	0.005132
 977	4.8800e-01	9.7559	12.279046	0.000192	1.924461	0.326012	0.003849
 978	4.8850e-01	9.7656	12.304276	0.000252	2.523182	0.427439	0.005046
 979	4.8900e-01	9.7766	12.312401	0.000081	0.812550	0.137650	0.001625
 980	4.8950e-01	9.7868	12.341479	0.000291	2.908074	0.492641	0.005816
 981	4.9000e-01	9.7974	12.361150	0.000197	1.967226	0.333257	0.003934
 982	4.9050e-01	9.8053	12.390229	0.000291	2.908074	0.492641	0.005816
 983	4.9100e-01	9.8151	12.407334	0.000171	1.710632	0.289789	0.003421
 984	4.9150e-01	9.8273	12.413320	0.000060	0.598721	0.101426	0.001197
 985	4.9200e-01	9.8367	12.447103	0.000338	3.378497	0.572333	0.006756
 986	4.9250e-01	9.8444	12.470194	0.000231	2.309353	0.391215	0.004618
 987	4.9300e-01	9.8566	12.491148	0.000210	2.095524	0.354991	0.004191
 988	4.9350e-01	9.8645	12.505687	0.000145	1.454037	0.246321	0.002908
 989	4.9400e-01	9.8782	12.536476	0.000308	3.079137	0.521620	0.006158
 990	4.9450e-01	9.8859	12.537759	0.000013	0.128297	0.021734	0.000257
 991	4.9500e-01	9.8959	12.556575	0.000188	1.881695	0.318768	0.003763
 992	4.9550e-01	9.9066	12.556575	0.000000	0.000000	0.000000	0.000000
 993	4.9600e-01	9.9170	12.607462	0.000509	5.089129	0.862122	0.010177
 994	4.9650e-01	9.9249	12.614732	0.000073	0.727018	0.123160	0.001454
 995	4.9700e-01	9.9359	12.625850	0.000111	1.111911	0.188363	0.002224
 996	4.9750e-01	9.9451	12.644238	0.000184	1.838929	0.311523	0.003678
 997	4.9800e-01	9.9603	12.669468	0.000252	2.523182	0.427439	0.005046
 998	4.9850e-01	9.9677	12.681869	0.000124	1.240208	0.210097	0.002480
 999	4.9900e-01	9.9768	12.716079	0.000342	3.421263	0.579578	0.006842
1000	4.9950e-01	9.9866	12.741309	0.000252	2.523182	0.427439	0.005046
1001	5.0000e-01	9.9945	12.781506	0.000402	4.019984	0.681004	0.008039
1002	5.0050e-01	9.9872	12.754138	0.000274	2.737011	0.463662	-0.005474
1003	5.0100e-01	9.9762	12.718645	0.000355	3.549561	0.601312	-0.007099
1004	5.0150e-01	9.9689	12.685290	0.000334	3.335732	0.565088	-0.006671
1005	5.0200e-01	9.9567	12.678876	0.000064	0.641487	0.108671	-0.001283
1006	5.0250e-01	9.9438	12.680586	-0.000017	-0.171063	-0.028979	0.000342
1007	5.0300e-01	9.9390	12.660915	0.000197	1.967226	0.333257	-0.003934
1008	5.0350e-01	9.9261	12.635258	0.000257	2.565947	0.434683	-0.005132
1009	5.0400e-01	9.9164	12.627561	0.000077	0.769784	0.130405	-0.001539
1010	5.0450e-01	9.9048	12.600620	0.000269	2.694245	0.456417	-0.005388
1011	5.0500e-01	9.8950	12.596772	0.000038	0.384892	0.065202	-0.000770
1012	5.0550e-01	9.8859	12.570259	0.000265	2.651479	0.449173	-0.005303
1013	5.0600e-01	9.8773	12.573680	-0.000034	-0.342126	-0.057958	0.000684
1014	5.0650e-01	9.8682	12.543746	0.000299	2.993605	0.507130	-0.005987
1015	5.0700e-01	9.8563	12.521509	0.000222	2.223821	0.376725	-0.004447
1016	5.0750e-01	9.8462	12.494141	0.000274	2.737011	0.463662	-0.005474
1017	5.0800e-01	9.8364	12.498418	-0.000043	-0.427658	-0.072447	0.000855
1018	5.0850e-01	9.8254	12.481740	0.000167	1.667866	0.282544	-0.003335
1019	5.0900e-01	9.8151	12.465063	0.000167	1.667866	0.282544	-0.003335
1020	5.0950e-01	9.8062	12.451807	0.000133	1.325739	0.224586	-0.002651
1021	5.1000e-01	9.7931	12.438978	0.000128	1.282974	0.217342	-0.002566
1022	5.1050e-01	9.7858	12.428715	0.000103	1.026379	0.173873	-0.002053
1023	5.1100e-01	9.7772	12.402202	0.000265	2.651479	0.449173	-0.005303
1024	5.1150e-01	9.7632	12.395360	0.000068	0.684253	0.115916	-0.001368
1025	5.1200e-01	9.7554	12.372696	0.000227	2.266587	0.383970	-0.004533
1026	5.1250e-01	9.7455	12.353453	0.000192	1.924461	0.326012	-0.003849
1027	5.1300e-01	9.7382	12.335065	0.000184	1.838929	0.311523	-0.003678
1028	5.1350e-01	9.7290	12.321381	0.000137	1.368505	0.231831	-0.002737
1029	5.1400e-01	9.7168	12.289737	0.000316	3.164668	0.536109	-0.006329
1030	5.1450e-01	9.7046	12.279901	0.000098	0.983613	0.166629	-0.001967
1031	5.1500e-01	9.6973	12.260230	0.000197	1.967226	0.333257	-0.003934
1032	5.1550e-01	9.6851	12.257665	0.000026	0.256595	0.043468	-0.000513
1033	5.1600e-01	9.6771	12.223882	0.000338	3.378497	0.572333	-0.006756
1034	5.1650e-01	9.6655	12.193949	0.000299	2.993605	0.507130	-0.005987
1035	5.1700e-01	9.6570	12.184113	0.000098	0.983613	0.166629	-0.001967
1036	5.1750e-01	9.6442	12.169146	0.000150	1.496803	0.253565	-0.002993
1037	5.1800e-01	9.6326	12.159311	0.000098	0.983613	0.166629	-0.001967
1038	5.1850e-01	9.6265	12.149903	0.000094	0.940847	0.159384	-0.001882
1039	5.1900e-01	9.6149	12.130660	0.000192	1.924461	0.326012	-0.003849
1040	5.1950e-01	9.6088	12.110562	0.000201	2.009992	0.340502	-0.004020
1041	5.2000e-01	9.5938	12.100299	0.000103	1.026379	0.173873	-0.002053
1042	5.2050e-01	9.5862	12.071648	0.000287	2.865308	0.485396	-0.005730
1043	5.2100e-01	9.5776	12.053687	0.000180	1.796163	0.304278	-0.003592
1044	5.2150e-01	9.5648	12.039576	0.000141	1.411271	0.239076	-0.002822
1045	5.2200e-01	9.5551	12.010925	0.000287	2.865308	0.485396	-0.005730
1046	5.2250e-01	9.5453	12.017339	-0.000064	-0.641487	-0.108671	0.001283
1047	5.2300e-01	9.5337	11.998524	0.000188	1.881695	0.318768	-0.003763
1048	5.2350e-01	9.5313	11.985695	0.000128	1.282974	0.217342	-0.002566
1049	5.2400e-01	9.5172	11.942505	0.000432	4.319345	0.731717	-0.008638
1050	5.2450e-01	9.5074	11.942505	-0.000000	-0.000000	-0.000000	0.000000
1051	5.2500e-01	9.4949	11.905301	0.000372	3.720624	0.630291	-0.007441
1052	5.2550e-01	9.4843	11.894611	0.000107	1.069145	0.181118	-0.002138
1053	5.2600e-01	9.4763	11.881354	0.000133	1.325739	0.224586	-0.002651
1054	5.2650e-01	9.4653	11.885631	-0.000043	-0.427658	-0.072447	0.000855
1055	5.2700e-01	9.4568	11.859973	0.000257	2.565947	0.434683	-0.005132
1056	5.2750e-01	9.4464	11.842868	0.000171	1.710632	0.289789	-0.003421
1057	5.2800e-01	9.4379	11.825763	0.000171	1.710632	0.289789	-0.003421
1058	5.2850e-01	9.4263	11.793691	0.000321	3.207434	0.543354	-0.006414
1059	5.2900e-01	9.4153	11.779152	0.000145	1.454037	0.246321	-0.002908
1060	5.2950e-01	9.4086	11.778297	0.000009	0.085532	0.014489	-0.000171
1061	5.3000e-01	9.3964	11.771027	0.000073	0.727018	0.123160	-0.001454
1062	5.3050e-01	9.3872	11.721850	0.000492	4.918066	0.833143	-0.009835
1063	5.3100e-01	9.3762	11.717146	0.000047	0.470424	0.079692	-0.000941
1064	5.3150e-01	9.3652	11.685502	0.000316	3.164668	0.536109	-0.006329
1065	5.3200e-01	9.3573	11.686357	-0.000009	-0.085532	-0.014489	0.000171
1066	5.3250e-01	9.3463	11.660272	0.000261	2.608713	0.441928	-0.005217
1067	5.3300e-01	9.3396	11.657279	0.000030	0.299361	0.050713	-0.000599
1068	5.3350e-01	9.3274	11.605109	0.000522	5.217426	0.883856	-0.010434
1069	5.3400e-01	9.3176	11.594846	0.000103	1.026379	0.173873	-0.002053
1070	5.3450e-01	9.3054	11.585010	0.000098	0.983613	0.166629	-0.001967
1071	5.3500e-01	9.2963	11.564484	0.000205	2.052758	0.347747	-0.004105
1072	5.3550e-01	9.2865	11.550372	0.000141	1.411271	0.239076	-0.002822
1073	5.3600e-01	9.2773	11.540537	0.000098	0.983613	0.166629	-0.001967
1074	5.3650e-01	9.2664	11.523860	0.000167	1.667866	0.282544	-0.003335
1075	5.3700e-01	9.2554	11.502906	0.000210	2.095524	0.354991	-0.004191
1076	5.3750e-01	9.2456	11.490505	0.000124	1.240208	0.210097	-0.002480
1077	5.3800e-01	9.2352	11.456723	0.000338	3.378497	0.572333	-0.006756
1078	5.3850e-01	9.2242	11.449025	0.000077	0.769784	0.130405	-0.001539
1079	5.3900e-01	9.2145	11.456295	-0.000073	-0.727018	-0.123160	0.001454
1080	5.3950e-01	9.2065	11.419947	0.000364	3.635092	0.615801	-0.007270
1081	5.4000e-01	9.1988	11.388303	0.000316	3.164668	0.536109	-0.006329
1082	5.4050e-01	9.1888	11.385309	0.000030	0.299361	0.050713	-0.000599
1083	5.4100e-01	9.1779	11.362645	0.000227	2.266587	0.383970	-0.004533
1084	5.4150e-01	9.1675	11.323303	0.000393	3.934453	0.666514	-0.007868
1085	5.4200e-01	9.1541	11.333566	-0.000103	-1.026379	-0.173873	0.002053
1086	5.4250e-01	9.1479	11.295935	0.000376	3.763390	0.637535	-0.007526
1087	5.4300e-01	9.1339	11.259160	0.000368	3.677858	0.623046	-0.007355
1088	5.4350e-01	9.1241	11.268995	-0.000098	-0.983613	-0.166629	0.001967
1089	5.4400e-01	9.1168	11.253601	0.000154	1.539568	0.260810	-0.003079
1090	5.4450e-01	9.1058	11.246331	0.000073	0.727018	0.123160	-0.001454
1091	5.4500e-01	9.0967	11.200147	0.000462	4.618705	0.782430	-0.009237
1092	5.4550e-01	9.0857	11.209128	-0.000090	-0.898082	-0.152139	0.001796
1093	5.4600e-01	9.0784	11.168931	0.000402	4.019984	0.681004	-0.008039
1094	5.4650e-01	9.0663	11.157385	0.000115	1.154676	0.195607	-0.002309
1095	5.4700e-01	9.0540	11.132155	0.000252	2.523182	0.427439	-0.005046
1096	5.4750e-01	9.0460	11.118471	0.000137	1.368505	0.231831	-0.002737
1097	5.4800e-01	9.0359	11.099228	0.000192	1.924461	0.326012	-0.003849
1098	5.4850e-01	9.0237	11.082123	0.000171	1.710632	0.289789	-0.003421
1099	5.4900e-01	9.0161	11.062880	0.000192	1.924461	0.326012	-0.003849
1100	5.4950e-01	9.0057	11.040643	0.000222	2.223821	0.376725	-0.004447
1101	5.5000e-01	8.9941	11.039360	0.000013	0.128297	0.021734	-0.000257
1102	5.5050e-01	8.9844	11.028670	0.000107	1.069145	0.181118	-0.002138
1103	5.5100e-01	8.9740	10.995315	0.000334	3.335732	0.565088	-0.006671
1104	5.5150e-01	8.9658	10.974361	0.000210	2.095524	0.354991	-0.004191
1105	5.5200e-01	8.9554	10.958539	0.000158	1.582334	0.268055	-0.003164
1106	5.5250e-01	8.9423	10.963243	-0.000047	-0.470424	-0.079692	0.000941
1107	5.5300e-01	8.9355	10.917059	0.000462	4.618705	0.782430	-0.009237
1108	5.5350e-01	8.9288	10.894395	0.000227	2.266587	0.383970	-0.004533
1109	5.5400e-01	8.9166	10.870021	0.000244	2.437650	0.412949	-0.004875
1110	5.5450e-01	8.9069	10.857620	0.000124	1.240208	0.210097	-0.002480
1111	5.5500e-01	8.8934	10.836666	0.000210	2.095524	0.354991	-0.004191
1112	5.5550e-01	8.8873	10.827258	0.000094	0.940847	0.159384	-0.001882
1113	5.5600e-01	8.8765	10.804594	0.000227	2.266587	0.383970	-0.004533
1114	5.5650e-01	8.8647	10.798180	0.000064	0.641487	0.108671	-0.001283
1115	5.5700e-01	8.8562	10.769529	0.000287	2.865308	0.485396	-0.005730
1116	5.5750e-01	8.8428	10.746865	0.000227	2.266587	0.383970	-0.004533
1117	5.5800e-01	8.8361	10.746437	0.000004	0.042766	0.007245	-0.000086
1118	5.5850e-01	8.8257	10.721635	0.000248	2.480416	0.420194	-0.004960
1119	5.5900e-01	8.8162	10.722062	-0.000004	-0.042766	-0.007245	0.000086
1120	5.5950e-01	8.8055	10.673313	0.000488	4.875300	0.825898	-0.009750
1121	5.6000e-01	8.7952	10.672885	0.000004	0.042766	0.007245	-0.000086
1122	5.6050e-01	8.7854	10.655353	0.000175	1.753397	0.297034	-0.003507
1123	5.6100e-01	8.7762	10.608742	0.000466	4.661471	0.789675	-0.009322
1124	5.6150e-01	8.7650	10.603610	0.000051	0.513189	0.086937	-0.001026
1125	5.6200e-01	8.7555	10.594202	0.000094	0.940847	0.159384	-0.001882
1126	5.6250e-01	8.7463	10.542887	0.000513	5.131895	0.869367	-0.010263
1127	5.6300e-01	8.7329	10.541604	0.000013	0.128297	0.021734	-0.000257
1128	5.6350e-01	8.7253	10.537756	0.000038	0.384892	0.065202	-0.000770
1129	5.6400e-01	8.7149	10.509533	0.000282	2.822542	0.478152	-0.005645
1130	5.6450e-01	8.7042	10.505256	0.000043	0.427658	0.072447	-0.000855
1131	5.6500e-01	8.6981	10.478316	0.000269	2.694245	0.456417	-0.005388
1132	5.6550e-01	8.6859	10.465487	0.000128	1.282974	0.217342	-0.002566
1133	5.6600e-01	8.6765	10.432988	0.000325	3.250200	0.550599	-0.006500
1134	5.6650e-01	8.6694	10.410751	0.000222	2.223821	0.376725	-0.004447
1135	5.6700e-01	8.6566	10.400488	0.000103	1.026379	0.173873	-0.002053
1136	5.6750e-01	8.6456	10.371410	0.000291	2.908074	0.492641	-0.005816
1137	5.6800e-01	8.6365	10.378679	-0.000073	-0.727018	-0.123160	0.001454
1138	5.6850e-01	8.6261	10.346607	0.000321	3.207434	0.543354	-0.006414
1139	5.6900e-01	8.6157	10.323943	0.000227	2.266587	0.383970	-0.004533
1140	5.6950e-01	8.6035	10.302562	0.000214	2.138290	0.362236	-0.004276
1141	5.7000e-01	8.5956	10.287595	0.000150	1.496803	0.253565	-0.002993
1142	5.7050e-01	8.5864	10.270918	0.000167	1.667866	0.282544	-0.003335
1143	5.7100e-01	8.5760	10.235852	0.000351	3.506795	0.594067	-0.007013
1144	5.7150e-01	8.5663	10.217037	0.000188	1.881695	0.318768	-0.003763
1145	5.7200e-01	8.5559	10.193945	0.000231	2.309353	0.391215	-0.004618
1146	5.7250e-01	8.5468	10.199077	-0.000051	-0.513189	-0.086937	0.001026
1147	5.7300e-01	8.5364	10.176840	0.000222	2.223821	0.376725	-0.004447
1148	5.7350e-01	8.5254	10.148189	0.000287	2.865308	0.485396	-0.005730
1149	5.7400e-01	8.5162	10.140920	0.000073	0.727018	0.123160	-0.001454
1150	5.7450e-01	8.5040	10.135788	0.000051	0.513189	0.086937	-0.001026
1151	5.7500e-01	8.4955	10.102433	0.000334	3.335732	0.565088	-0.006671
1152	5.7550e-01	8.4863	10.091315	0.000111	1.111911	0.188363	-0.002224
1153	5.7600e-01	8.4778	10.067368	0.000239	2.394884	0.405704	-0.004789
1154	5.7650e-01	8.4656	10.040428	0.000269	2.694245	0.456417	-0.005388
1155	5.7700e-01	8.4570	10.037434	0.000030	0.299361	0.050713	-0.000599
1156	5.7750e-01	8.4470	10.011777	0.000257	2.565947	0.434683	-0.005132
1157	5.7800e-01	8.4328	9.967731	0.000440	4.404876	0.746206	-0.008809
1158	5.7850e-01	8.4247	9.972863	-0.000051	-0.513189	-0.086937	0.001026
1159	5.7900e-01	8.4167	9.952337	0.000205	2.052758	0.347747	-0.004105
1160	5.7950e-01	8.4033	9.920265	0.000321	3.207434	0.543354	-0.006414
1161	5.8000e-01	8.3966	9.906581	0.000137	1.368505	0.231831	-0.002737
1162	5.8050e-01	8.3844	9.882634	0.000239	2.394884	0.405704	-0.004789
1163	5.8100e-01	8.3743	9.850134	0.000325	3.250200	0.550599	-0.006500
1164	5.8150e-01	8.3673	9.838589	0.000115	1.154676	0.195607	-0.002309
1165	5.8200e-01	8.3566	9.834740	0.000038	0.384892	0.065202	-0.000770
1166	5.8250e-01	8.3466	9.814214	0.000205	2.052758	0.347747	-0.004105
1167	5.8300e-01	8.3350	9.786418	0.000278	2.779776	0.470907	-0.005559
1168	5.8350e-01	8.3264	9.760333	0.000261	2.608713	0.441928	-0.005217
1169	5.8400e-01	8.3167	9.754774	0.000056	0.555955	0.094181	-0.001112
1170	5.8450e-01	8.3063	9.732110	0.000227	2.266587	0.383970	-0.004533
1171	5.8500e-01	8.2965	9.699183	0.000329	3.292966	0.557844	-0.006585
1172	5.8550e-01	8.2869	9.700038	-0.000009	-0.085532	-0.014489	0.000171
1173	5.8600e-01	8.2761	9.693196	0.000068	0.684253	0.115916	-0.001368
1174	5.8650e-01	8.2661	9.667538	0.000257	2.565947	0.434683	-0.005132
1175	5.8700e-01	8.2562	9.639315	0.000282	2.822542	0.478152	-0.005645
1176	5.8750e-01	8.2458	9.616651	0.000227	2.266587	0.383970	-0.004533
1177	5.8800e-01	8.2361	9.599118	0.000175	1.753397	0.297034	-0.003507
1178	5.8850e-01	8.2251	9.570467	0.000287	2.865308	0.485396	-0.005730
1179	5.8900e-01	8.2159	9.553790	0.000167	1.667866	0.282544	-0.003335
1180	5.8950e-01	8.2080	9.555073	-0.000013	-0.128297	-0.021734	0.000257
1181	5.9000e-01	8.1970	9.524712	0.000304	3.036371	0.514375	-0.006072
1182	5.9050e-01	8.1866	9.517014	0.000077	0.769784	0.130405	-0.001539
1183	5.9100e-01	8.1775	9.479811	0.000372	3.720624	0.630291	-0.007441
1184	5.9150e-01	8.1677	9.450732	0.000291	2.908074	0.492641	-0.005816
1185	5.9200e-01	8.1561	9.451160	-0.000004	-0.042766	-0.007245	0.000086
1186	5.9250e-01	8.1470	9.442608	0.000086	0.855316	0.144894	-0.001711
1187	5.9300e-01	8.1384	9.395569	0.000470	4.704237	0.796919	-0.009408
1188	5.9350e-01	8.1250	9.370766	0.000248	2.480416	0.420194	-0.004960
1189	5.9400e-01	8.1158	9.365207	0.000056	0.555955	0.094181	-0.001112
1190	5.9450e-01	8.1030	9.348530	0.000167	1.667866	0.282544	-0.003335
1191	5.9500e-01	8.0963	9.308333	0.000402	4.019984	0.681004	-0.008039
1192	5.9550e-01	8.0853	9.305767	0.000026	0.256595	0.043468	-0.000513
1193	5.9600e-01	8.0768	9.283959	0.000218	2.181055	0.369481	-0.004362
1194	5.9650e-01	8.0640	9.286952	-0.000030	-0.299361	-0.050713	0.000599
1195	5.9700e-01	8.0542	9.253597	0.000334	3.335732	0.565088	-0.006671
1196	5.9750e-01	8.0457	9.241624	0.000120	1.197442	0.202852	-0.002395
1197	5.9800e-01	8.0362	9.212545	0.000291	2.908074	0.492641	-0.005816
1198	5.9850e-01	8.0237	9.200144	0.000124	1.240208	0.210097	-0.002480
1199	5.9900e-01	8.0164	9.174486	0.000257	2.565947	0.434683	-0.005132
1200	5.9950e-01	8.0066	9.159092	0.000154	1.539568	0.260810	-0.003079
1201	6.0000e-01	7.9980	9.136428	0.000227	2.266587	0.383970	-0.004533
1202	6.0050e-01	7.9846	9.122744	0.000137	1.368505	0.231831	-0.002737
1203	6.0100e-01	7.9773	9.106922	0.000158	1.582334	0.268055	-0.003164
1204	6.0150e-01	7.9671	9.076560	0.000304	3.036371	0.514375	-0.006072
1205	6.0200e-01	7.9559	9.042778	0.000338	3.378497	0.572333	-0.006756
1206	6.0250e-01	7.9462	9.038502	0.000043	0.427658	0.072447	-0.000855
1207	6.0300e-01	7.9358	9.029949	0.000086	0.855316	0.144894	-0.001711
1208	6.0350e-01	7.9260	8.993601	0.000364	3.635092	0.615801	-0.007270
1209	6.0400e-01	7.9175	8.964095	0.000295	2.950840	0.499886	-0.005901
1210	6.0450e-01	7.9053	8.955970	0.000081	0.812550	0.137650	-0.001625
1211	6.0500e-01	7.8931	8.935016	0.000210	2.095524	0.354991	-0.004191
1212	6.0550e-01	7.8839	8.905510	0.000295	2.950840	0.499886	-0.005901
1213	6.0600e-01	7.8741	8.909359	-0.000038	-0.384892	-0.065202	0.000770
1214	6.0650e-01	7.8645	8.889260	0.000201	2.009992	0.340502	-0.004020
1215	6.0700e-01	7.8525	8.856333	0.000329	3.292966	0.557844	-0.006585
1216	6.0750e-01	7.8456	8.844360	0.000120	1.197442	0.202852	-0.002395
1217	6.0800e-01	7.8348	8.824261	0.000201	2.009992	0.340502	-0.004020
1218	6.0850e-01	7.8247	8.802452	0.000218	2.181055	0.369481	-0.004362
1219	6.0900e-01	7.8162	8.756697	0.000458	4.575940	0.775185	-0.009151
1220	6.0950e-01	7.8101	8.744295	0.000124	1.240208	0.210097	-0.002480
1221	6.1000e-01	7.7972	8.709658	0.000346	3.464029	0.586822	-0.006928
1222	6.1050e-01	7.7875	8.715645	-0.000060	-0.598721	-0.101426	0.001197
1223	6.1100e-01	7.7759	8.697257	0.000184	1.838929	0.311523	-0.003678
1224	6.1150e-01	7.7649	8.694691	0.000026	0.256595	0.043468	-0.000513
1225	6.1200e-01	7.7557	8.667751	0.000269	2.694245	0.456417	-0.005388
1226	6.1250e-01	7.7457	8.647224	0.000205	2.052758	0.347747	-0.004105
1227	6.1300e-01	7.7353	8.611732	0.000355	3.549561	0.601312	-0.007099
1228	6.1350e-01	7.7258	8.605745	0.000060	0.598721	0.101426	-0.001197
1229	6.1400e-01	7.7142	8.578377	0.000274	2.737011	0.463662	-0.005474
1230	6.1450e-01	7.7039	8.568114	0.000103	1.026379	0.173873	-0.002053
1231	6.1500e-01	7.6971	8.517654	0.000505	5.046363	0.854877	-0.010092
1232	6.1550e-01	7.6880	8.498411	0.000192	1.924461	0.326012	-0.003849
1233	6.1600e-01	7.6746	8.497983	0.000004	0.042766	0.007245	-0.000086
1234	6.1650e-01	7.6666	8.470188	0.000278	2.779776	0.470907	-0.005559
1235	6.1700e-01	7.6575	8.449662	0.000205	2.052758	0.347747	-0.004105
1236	6.1750e-01	7.6453	8.447096	0.000026	0.256595	0.043468	-0.000513
1237	6.1800e-01	7.6361	8.426570	0.000205	2.052758	0.347747	-0.004105
1238	6.1850e-01	7.6266	8.394926	0.000316	3.164668	0.536109	-0.006329
1239	6.1900e-01	7.6190	8.356867	0.000381	3.806155	0.644780	-0.007612
1240	6.1950e-01	7.6068	8.352163	0.000047	0.470424	0.079692	-0.000941
1241	6.2000e-01	7.5970	8.347032	0.000051	0.513189	0.086937	-0.001026
1242	6.2050e-01	7.5864	8.318381	0.000287	2.865308	0.485396	-0.005730
1243	6.2100e-01	7.5739	8.307690	0.000107	1.069145	0.181118	-0.002138
1244	6.2150e-01	7.5671	8.289302	0.000184	1.838929	0.311523	-0.003678
1245	6.2200e-01	7.5543	8.276473	0.000128	1.282974	0.217342	-0.002566
1246	6.2250e-01	7.5446	8.234138	0.000423	4.233813	0.717227	-0.008467
1247	6.2300e-01	7.5354	8.205060	0.000291	2.908074	0.492641	-0.005816
1248	6.2350e-01	7.5299	8.183251	0.000218	2.181055	0.369481	-0.004362
1249	6.2400e-01	7.5146	8.160159	0.000231	2.309353	0.391215	-0.004618
1250	6.2450e-01	7.5073	8.166146	-0.000060	-0.598721	-0.101426	0.001197
1251	6.2500e-01	7.4957	8.160159	0.000060	0.598721	0.101426	-0.001197
1252	6.2550e-01	7.4854	8.126805	0.000334	3.335732	0.565088	-0.006671
1253	6.2600e-01	7.4731	8.104996	0.000218	2.181055	0.369481	-0.004362
1254	6.2650e-01	7.4655	8.076772	0.000282	2.822542	0.478152	-0.005645
1255	6.2700e-01	7.4554	8.061805	0.000150	1.496803	0.253565	-0.002993
1256	6.2750e-01	7.4445	8.020326	0.000415	4.148282	0.702738	-0.008296
1257	6.2800e-01	7.4359	8.030589	-0.000103	-1.026379	-0.173873	0.002053
1258	6.2850e-01	7.4274	8.003221	0.000274	2.737011	0.463662	-0.005474
1259	6.2900e-01	7.4188	7.960458	0.000428	4.276579	0.724472	-0.008553
1260	6.2950e-01	7.4060	7.959603	0.000009	0.085532	0.014489	-0.000171
1261	6.3000e-01	7.3956	7.933518	0.000261	2.608713	0.441928	-0.005217
1262	6.3050e-01	7.3859	7.909571	0.000239	2.394884	0.405704	-0.004789
1263	6.3100e-01	7.3746	7.892466	0.000171	1.710632	0.289789	-0.003421
1264	6.3150e-01	7.3676	7.859539	0.000329	3.292966	0.557844	-0.006585
1265	6.3200e-01	7.3575	7.861249	-0.000017	-0.171063	-0.028979	0.000342
1266	6.3250e-01	7.3474	7.830888	0.000304	3.036371	0.514375	-0.006072
1267	6.3300e-01	7.3364	7.813355	0.000175	1.753397	0.297034	-0.003507
1268	6.3350e-01	7.3264	7.774869	0.000385	3.848921	0.652025	-0.007697
1269	6.3400e-01	7.3157	7.759047	0.000158	1.582334	0.268055	-0.003164
1270	6.3450e-01	7.3059	7.753488	0.000056	0.555955	0.094181	-0.001112
1271	6.3500e-01	7.2951	7.722271	0.000312	3.121903	0.528865	-0.006243
1272	6.3550e-01	7.2876	7.685495	0.000368	3.677858	0.623046	-0.007355
1273	6.3600e-01	7.2778	7.678653	0.000068	0.684253	0.115916	-0.001368
1274	6.3650e-01	7.2632	7.649147	0.000295	2.950840	0.499886	-0.005901
1275	6.3700e-01	7.2546	7.625628	0.000235	2.352118	0.398460	-0.004704
1276	6.3750e-01	7.2473	7.623062	0.000026	0.256595	0.043468	-0.000513
1277	6.3800e-01	7.2348	7.611088	0.000120	1.197442	0.202852	-0.002395
1278	6.3850e-01	7.2272	7.579444	0.000316	3.164668	0.536109	-0.006329
1279	6.3900e-01	7.2150	7.575168	0.000043	0.427658	0.072447	-0.000855
1280	6.3950e-01	7.2061	7.545234	0.000299	2.993605	0.507130	-0.005987
1281	6.4000e-01	7.1982	7.514873	0.000304	3.036371	0.514375	-0.006072
1282	6.4050e-01	7.1875	7.497340	0.000175	1.753397	0.297034	-0.003507
1283	6.4100e-01	7.1756	7.452439	0.000449	4.490408	0.760696	-0.008980
1284	6.4150e-01	7.1643	7.479807	-0.000274	-2.737011	-0.463662	0.005474
1285	6.4200e-01	7.1565	7.433196	0.000466	4.661471	0.789675	-0.009322
1286	6.4250e-01	7.1454	7.415236	0.000180	1.796163	0.304278	-0.003592
1287	6.4300e-01	7.1387	7.390434	0.000248	2.480416	0.420194	-0.004960
1288	6.4350e-01	7.1265	7.360500	0.000299	2.993605	0.507130	-0.005987
1289	6.4400e-01	7.1161	7.353230	0.000073	0.727018	0.123160	-0.001454
1290	6.4450e-01	7.1033	7.337836	0.000154	1.539568	0.260810	-0.003079
1291	6.4500e-01	7.0966	7.322014	0.000158	1.582334	0.268055	-0.003164
1292	6.4550e-01	7.0862	7.287376	0.000346	3.464029	0.586822	-0.006928
1293	6.4600e-01	7.0755	7.274120	0.000133	1.325739	0.224586	-0.002651
1294	6.4650e-01	7.0660	7.249745	0.000244	2.437650	0.412949	-0.004875
1295	6.4700e-01	7.0551	7.220239	0.000295	2.950840	0.499886	-0.005901
1296	6.4750e-01	7.0450	7.192016	0.000282	2.822542	0.478152	-0.005645
1297	6.4800e-01	7.0364	7.177049	0.000150	1.496803	0.253565	-0.002993
1298	6.4850e-01	7.0251	7.171917	0.000051	0.513189	0.086937	-0.001026
1299	6.4900e-01	7.0178	7.127017	0.000449	4.490408	0.760696	-0.008980
1300	6.4950e-01	7.0053	7.131293	-0.000043	-0.427658	-0.072447	0.000855
1301	6.5000e-01	6.9962	7.110339	0.000210	2.095524	0.354991	-0.004191
1302	6.5050e-01	6.9862	7.073136	0.000372	3.720624	0.630291	-0.007441
1303	6.5100e-01	6.9781	7.066721	0.000064	0.641487	0.108671	-0.001283
1304	6.5150e-01	6.9659	7.043202	0.000235	2.352118	0.398460	-0.004704
1305	6.5200e-01	6.9580	7.034650	0.000086	0.855316	0.144894	-0.001711
1306	6.5250e-01	6.9471	6.989321	0.000453	4.533174	0.767940	-0.009066
1307	6.5300e-01	6.9370	6.974354	0.000150	1.496803	0.253565	-0.002993
1308	6.5350e-01	6.9250	6.978631	-0.000043	-0.427658	-0.072447	0.000855
1309	6.5400e-01	6.9183	6.921329	0.000573	5.730616	0.970793	-0.011460
1310	6.5450e-01	6.9031	6.901230	0.000201	2.009992	0.340502	-0.004020
1311	6.5500e-01	6.8941	6.898237	0.000030	0.299361	0.050713	-0.000599
1312	6.5550e-01	6.8881	6.878566	0.000197	1.967226	0.333257	-0.003934
1313	6.5600e-01	6.8765	6.852054	0.000265	2.651479	0.449173	-0.005303
1314	6.5650e-01	6.8661	6.834093	0.000180	1.796163	0.304278	-0.003592
1315	6.5700e-01	6.8561	6.796462	0.000376	3.763390	0.637535	-0.007526
1316	6.5750e-01	6.8446	6.806298	-0.000098	-0.983613	-0.166629	0.001967
1317	6.5800e-01	6.8356	6.775081	0.000312	3.121903	0.528865	-0.006243
1318	6.5850e-01	6.8259	6.754983	0.000201	2.009992	0.340502	-0.004020
1319	6.5900e-01	6.8158	6.725477	0.000295	2.950840	0.499886	-0.005901
1320	6.5950e-01	6.8042	6.703668	0.000218	2.181055	0.369481	-0.004362
1321	6.6000e-01	6.7944	6.676300	0.000274	2.737011	0.463662	-0.005474
1322	6.6050e-01	6.7853	6.657912	0.000184	1.838929	0.311523	-0.003678
1323	6.6100e-01	6.7766	6.658767	-0.000009	-0.085532	-0.014489	0.000171
1324	6.6150e-01	6.7645	6.621136	0.000376	3.763390	0.637535	-0.007526
1325	6.6200e-01	6.7548	6.591202	0.000299	2.993605	0.507130	-0.005987
1326	6.6250e-01	6.7496	6.577518	0.000137	1.368505	0.231831	-0.002737
1327	6.6300e-01	6.7346	6.554854	0.000227	2.266587	0.383970	-0.004533
1328	6.6350e-01	6.7267	6.525348	0.000295	2.950840	0.499886	-0.005901
1329	6.6400e-01	6.7151	6.521499	0.000038	0.384892	0.065202	-0.000770
1330	6.6450e-01	6.7038	6.491565	0.000299	2.993605	0.507130	-0.005987
1331	6.6500e-01	6.6962	6.480447	0.000111	1.111911	0.188363	-0.002224
1332	6.6550e-01	6.6852	6.454362	0.000261	2.608713	0.441928	-0.005217
1333	6.6600e-01	6.6772	6.432553	0.000218	2.181055	0.369481	-0.004362
1334	6.6650e-01	6.6672	6.408179	0.000244	2.437650	0.412949	-0.004875
1335	6.6700e-01	6.6547	6.402619	0.000056	0.555955	0.094181	-0.001112
1336	6.6750e-01	6.6452	6.377390	0.000252	2.523182	0.427439	-0.005046
1337	6.6800e-01	6.6351	6.340186	0.000372	3.720624	0.630291	-0.007441
1338	6.6850e-01	6.6254	6.319232	0.000210	2.095524	0.354991	-0.004191
1339	6.6900e-01	6.6156	6.297424	0.000218	2.181055	0.369481	-0.004362
1340	6.6950e-01	6.6058	6.285450	0.000120	1.197442	0.202852	-0.002395
1341	6.7000e-01	6.5967	6.257227	0.000282	2.822542	0.478152	-0.005645
1342	6.7050e-01	6.5845	6.251240	0.000060	0.598721	0.101426	-0.001197
1343	6.7100e-01	6.5750	6.205057	0.000462	4.618705	0.782430	-0.009237
1344	6.7150e-01	6.5643	6.176406	0.000287	2.865308	0.485396	-0.005730
1345	6.7200e-01	6.5567	6.151176	0.000252	2.523182	0.427439	-0.005046
1346	6.7250e-01	6.5472	6.153314	-0.000021	-0.213829	-0.036224	0.000428
1347	6.7300e-01	6.5356	6.114828	0.000385	3.848921	0.652025	-0.007697
1348	6.7350e-01	6.5250	6.123808	-0.000090	-0.898082	-0.152139	0.001796
1349	6.7400e-01	6.5149	6.096440	0.000274	2.737011	0.463662	-0.005474
1350	6.7450e-01	6.5045	6.082328	0.000141	1.411271	0.239076	-0.002822
1351	6.7500e-01	6.4969	6.051539	0.000308	3.079137	0.521620	-0.006158
1352	6.7550e-01	6.4844	6.029303	0.000222	2.223821	0.376725	-0.004447
1353	6.7600e-01	6.4757	5.981836	0.000475	4.747003	0.804164	-0.009493
1354	6.7650e-01	6.4676	5.984402	-0.000026	-0.256595	-0.043468	0.000513
1355	6.7700e-01	6.4540	5.967725	0.000167	1.667866	0.282544	-0.003335
1356	6.7750e-01	6.4435	5.936936	0.000308	3.079137	0.521620	-0.006158
1357	6.7800e-01	6.4349	5.930949	0.000060	0.598721	0.101426	-0.001197
1358	6.7850e-01	6.4246	5.882627	0.000483	4.832534	0.818653	-0.009664
1359	6.7900e-01	6.4151	5.869371	0.000133	1.325739	0.224586	-0.002651
1360	6.7950e-01	6.4078	5.839865	0.000295	2.950840	0.499886	-0.005901
1361	6.8000e-01	6.3947	5.826181	0.000137	1.368505	0.231831	-0.002737
1362	6.8050e-01	6.3881	5.820621	0.000056	0.555955	0.094181	-0.001112
1363	6.8100e-01	6.3757	5.768024	0.000526	5.260192	0.891101	-0.010520
1364	6.8150e-01	6.3638	5.762037	0.000060	0.598721	0.101426	-0.001197
1365	6.8200e-01	6.3556	5.736807	0.000252	2.523182	0.427439	-0.005046
1366	6.8250e-01	6.3434	5.725689	0.000111	1.111911	0.188363	-0.002224
1367	6.8300e-01	6.3342	5.679505	0.000462	4.618705	0.782430	-0.009237
1368	6.8350e-01	6.3232	5.678222	0.000013	0.128297	0.021734	-0.000257
1369	6.8400e-01	6.3165	5.647433	0.000308	3.079137	0.521620	-0.006158
1370	6.8450e-01	6.3062	5.624769	0.000227	2.266587	0.383970	-0.004533
1371	6.8500e-01	6.2936	5.644867	-0.000201	-2.009992	-0.340502	0.004020
1372	6.8550e-01	6.2872	5.574309	0.000706	7.056355	1.195379	-0.014112
1373	6.8600e-01	6.2781	5.566612	0.000077	0.769784	0.130405	-0.001539
1374	6.8650e-01	6.2646	5.544375	0.000222	2.223821	0.376725	-0.004447
1375	6.8700e-01	6.2564	5.516580	0.000278	2.779776	0.470907	-0.005559
1376	6.8750e-01	6.2436	5.491350	0.000252	2.523182	0.427439	-0.005046
1377	6.8800e-01	6.2347	5.474673	0.000167	1.667866	0.282544	-0.003335
1378	6.8850e-01	6.2268	5.447305	0.000274	2.737011	0.463662	-0.005474
1379	6.8900e-01	6.2173	5.450298	-0.000030	-0.299361	-0.050713	0.000599
1380	6.8950e-01	6.2057	5.407108	0.000432	4.319345	0.731717	-0.008638
1381	6.9000e-01	6.1957	5.354082	0.000530	5.302958	0.898345	-0.010605
1382	6.9050e-01	6.1877	5.358359	-0.000043	-0.427658	-0.072447	0.000855
1383	6.9100e-01	6.1769	5.328425	0.000299	2.993605	0.507130	-0.005987
1384	6.9150e-01	6.1652	5.304050	0.000244	2.437650	0.412949	-0.004875
1385	6.9200e-01	6.1572	5.302340	0.000017	0.171063	0.028979	-0.000342
1386	6.9250e-01	6.1459	5.284807	0.000175	1.753397	0.297034	-0.003507
1387	6.9300e-01	6.1334	5.268985	0.000158	1.582334	0.268055	-0.003164
1388	6.9350e-01	6.1267	5.233492	0.000355	3.549561	0.601312	-0.007099
1389	6.9400e-01	6.1151	5.223229	0.000103	1.026379	0.173873	-0.002053
1390	6.9450e-01	6.1047	5.193295	0.000299	2.993605	0.507130	-0.005987
1391	6.9500e-01	6.0938	5.176190	0.000171	1.710632	0.289789	-0.003421
1392	6.9550e-01	6.0864	5.152243	0.000239	2.394884	0.405704	-0.004789
1393	6.9600e-01	6.0755	5.124447	0.000278	2.779776	0.470907	-0.005559
1394	6.9650e-01	6.0645	5.090665	0.000338	3.378497	0.572333	-0.006756
1395	6.9700e-01	6.0550	5.074415	0.000163	1.625100	0.275299	-0.003250
1396	6.9750e-01	6.0437	5.065008	0.000094	0.940847	0.159384	-0.001882
1397	6.9800e-01	6.0385	5.034646	0.000304	3.036371	0.514375	-0.006072
1398	6.9850e-01	6.0260	5.023100	0.000115	1.154676	0.195607	-0.002309
1399	6.9900e-01	6.0175	4.997443	0.000257	2.565947	0.434683	-0.005132
1400	6.9950e-01	6.0065	4.961095	0.000364	3.635092	0.615801	-0.007270
1401	7.0000e-01	5.9937	4.943562	0.000175	1.753397	0.297034	-0.003507
1402	7.0050e-01	5.9854	4.920470	0.000231	2.309353	0.391215	-0.004618
1403	7.0100e-01	5.9766	4.888398	0.000321	3.207434	0.543354	-0.006414
1404	7.0150e-01	5.9656	4.871721	0.000167	1.667866	0.282544	-0.003335
1405	7.0200e-01	5.9586	4.856754	0.000150	1.496803	0.253565	-0.002993
1406	7.0250e-01	5.9470	4.827248	0.000295	2.950840	0.499886	-0.005901
1407	7.0300e-01	5.9369	4.812709	0.000145	1.454037	0.246321	-0.002908
1408	7.0350e-01	5.9247	4.787051	0.000257	2.565947	0.434683	-0.005132
1409	7.0400e-01	5.9167	4.757117	0.000299	2.993605	0.507130	-0.005987
1410	7.0450e-01	5.9052	4.726328	0.000308	3.079137	0.521620	-0.006158
1411	7.0500e-01	5.8960	4.716493	0.000098	0.983613	0.166629	-0.001967
1412	7.0550e-01	5.8868	4.676296	0.000402	4.019984	0.681004	-0.008039
1413	7.0600e-01	5.8755	4.675013	0.000013	0.128297	0.021734	-0.000257
1414	7.0650e-01	5.8652	4.644224	0.000308	3.079137	0.521620	-0.006158
1415	7.0700e-01	5.8554	4.635244	0.000090	0.898082	0.152139	-0.001796
1416	7.0750e-01	5.8478	4.590771	0.000445	4.447642	0.753451	-0.008895
1417	7.0800e-01	5.8386	4.579653	0.000111	1.111911	0.188363	-0.002224
1418	7.0850e-01	5.8270	4.545015	0.000346	3.464029	0.586822	-0.006928
1419	7.0900e-01	5.8167	4.554423	-0.000094	-0.940847	-0.159384	0.001882
1420	7.0950e-01	5.8075	4.503108	0.000513	5.131895	0.869367	-0.010263
1421	7.1000e-01	5.7959	4.505246	-0.000021	-0.213829	-0.036224	0.000428
1422	7.1050e-01	5.7855	4.462056	0.000432	4.319345	0.731717	-0.008638
1423	7.1100e-01	5.7764	4.461201	0.000009	0.085532	0.014489	-0.000171
1424	7.1150e-01	5.7678	4.423997	0.000372	3.720624	0.630291	-0.007441
1425	7.1200e-01	5.7532	4.412879	0.000111	1.111911	0.188363	-0.002224
1426	7.1250e-01	5.7455	4.389360	0.000235	2.352118	0.398460	-0.004704
1427	7.1300e-01	5.7382	4.332058	0.000573	5.730616	0.970793	-0.011460
1428	7.1350e-01	5.7245	4.334196	-0.000021	-0.213829	-0.036224	0.000428
1429	7.1400e-01	5.7141	4.309821	0.000244	2.437650	0.412949	-0.004875
1430	7.1450e-01	5.7043	4.281598	0.000282	2.822542	0.478152	-0.005645
1431	7.1500e-01	5.6946	4.260644	0.000210	2.095524	0.354991	-0.004191
1432	7.1550e-01	5.6873	4.228573	0.000321	3.207434	0.543354	-0.006414
1433	7.1600e-01	5.6767	4.221731	0.000068	0.684253	0.115916	-0.001368
1434	7.1650e-01	5.6660	4.199922	0.000218	2.181055	0.369481	-0.004362
1435	7.1700e-01	5.6549	4.192652	0.000073	0.727018	0.123160	-0.001454
1436	7.1750e-01	5.6467	4.169133	0.000235	2.352118	0.398460	-0.004704
1437	7.1800e-01	5.6354	4.135778	0.000334	3.335732	0.565088	-0.006671
1438	7.1850e-01	5.6259	4.122521	0.000133	1.325739	0.224586	-0.002651
1439	7.1900e-01	5.6160	4.073772	0.000488	4.875300	0.825898	-0.009750
1440	7.1950e-01	5.6067	4.057095	0.000167	1.667866	0.282544	-0.003335
1441	7.2000e-01	5.5951	4.039135	0.000180	1.796163	0.304278	-0.003592
1442	7.2050e-01	5.5853	4.006207	0.000329	3.292966	0.557844	-0.006585
1443	7.2100e-01	5.5759	3.995944	0.000103	1.026379	0.173873	-0.002053
1444	7.2150e-01	5.5640	3.960879	0.000351	3.506795	0.594067	-0.007013
1445	7.2200e-01	5.5548	3.955320	0.000056	0.555955	0.094181	-0.001112
1446	7.2250e-01	5.5441	3.930518	0.000248	2.480416	0.420194	-0.004960
1447	7.2300e-01	5.5347	3.904433	0.000261	2.608713	0.441928	-0.005217
1448	7.2350e-01	5.5243	3.893314	0.000111	1.111911	0.188363	-0.002224
1449	7.2400e-01	5.5145	3.846703	0.000466	4.661471	0.789675	-0.009322
1450	7.2450e-01	5.5054	3.834302	0.000124	1.240208	0.210097	-0.002480
1451	7.2500e-01	5.4956	3.814204	0.000201	2.009992	0.340502	-0.004020
1452	7.2550e-01	5.4871	3.789829	0.000244	2.437650	0.412949	-0.004875
1453	7.2600e-01	5.4742	3.736803	0.000530	5.302958	0.898345	-0.010605
1454	7.2650e-01	5.4651	3.732527	0.000043	0.427658	0.072447	-0.000855
1455	7.2700e-01	5.4568	3.703876	0.000287	2.865308	0.485396	-0.005730
1456	7.2750e-01	5.4481	3.684206	0.000197	1.967226	0.333257	-0.003934
1457	7.2800e-01	5.4358	3.667956	0.000163	1.625100	0.275299	-0.003250
1458	7.2850e-01	5.4254	3.659831	0.000081	0.812550	0.137650	-0.001625
1459	7.2900e-01	5.4150	3.617924	0.000419	4.191047	0.709983	-0.008381
1460	7.2950e-01	5.4071	3.590556	0.000274	2.737011	0.463662	-0.005474
1461	7.3000e-01	5.3970	3.589273	0.000013	0.128297	0.021734	-0.000257
1462	7.3050e-01	5.3845	3.549504	0.000398	3.977218	0.673759	-0.007954
1463	7.3100e-01	5.3754	3.523846	0.000257	2.565947	0.434683	-0.005132
1464	7.3150e-01	5.3651	3.516149	0.000077	0.769784	0.130405	-0.001539
1465	7.3200e-01	5.3577	3.489636	0.000265	2.651479	0.449173	-0.005303
1466	7.3250e-01	5.3448	3.467827	0.000218	2.181055	0.369481	-0.004362
1467	7.3300e-01	5.3362	3.437893	0.000299	2.993605	0.507130	-0.005987
1468	7.3350e-01	5.3235	3.427203	0.000107	1.069145	0.181118	-0.002138
1469	7.3400e-01	5.3137	3.388289	0.000389	3.891687	0.659270	-0.007783
1470	7.3450e-01	5.3070	3.371184	0.000171	1.710632	0.289789	-0.003421
1471	7.3500e-01	5.2985	3.344243	0.000269	2.694245	0.456417	-0.005388
1472	7.3550e-01	5.2844	3.326283	0.000180	1.796163	0.304278	-0.003592
1473	7.3600e-01	5.2741	3.319441	0.000068	0.684253	0.115916	-0.001368
1474	7.3650e-01	5.2649	3.277962	0.000415	4.148282	0.702738	-0.008296
1475	7.3700e-01	5.2551	3.255297	0.000227	2.266587	0.383970	-0.004533
1476	7.3750e-01	5.2472	3.220660	0.000346	3.464029	0.586822	-0.006928
1477	7.3800e-01	5.2382	3.193719	0.000269	2.694245	0.456417	-0.005388
1478	7.3850e-01	5.2295	3.189015	0.000047	0.470424	0.079692	-0.000941
1479	7.3900e-01	5.2161	3.159509	0.000295	2.950840	0.499886	-0.005901
1480	7.3950e-01	5.2057	3.136845	0.000227	2.266587	0.383970	-0.004533
1481	7.4000e-01	5.1971	3.113326	0.000235	2.352118	0.398460	-0.004704
1482	7.4050e-01	5.1871	3.081254	0.000321	3.207434	0.543354	-0.006414
1483	7.4100e-01	5.1773	3.057307	0.000239	2.394884	0.405704	-0.004789
1484	7.4150e-01	5.1636	3.025663	0.000316	3.164668	0.536109	-0.006329
1485	7.4200e-01	5.1550	3.012834	0.000128	1.282974	0.217342	-0.002566
1486	7.4250e-01	5.1450	2.986749	0.000261	2.608713	0.441928	-0.005217
1487	7.4300e-01	5.1376	2.970927	0.000158	1.582334	0.268055	-0.003164
1488	7.4350e-01	5.1263	2.943986	0.000269	2.694245	0.456417	-0.005388
1489	7.4400e-01	5.1160	2.947835	-0.000038	-0.384892	-0.065202	0.000770
1490	7.4450e-01	5.1053	2.902507	0.000453	4.533174	0.767940	-0.009066
1491	7.4500e-01	5.0964	2.877704	0.000248	2.480416	0.420194	-0.004960
1492	7.4550e-01	5.0854	2.842639	0.000351	3.506795	0.594067	-0.007013
1493	7.4600e-01	5.0754	2.814843	0.000278	2.779776	0.470907	-0.005559
1494	7.4650e-01	5.0656	2.793462	0.000214	2.138290	0.362236	-0.004276
1495	7.4700e-01	5.0537	2.777212	0.000163	1.625100	0.275299	-0.003250
1496	7.4750e-01	5.0441	2.764811	0.000124	1.240208	0.210097	-0.002480
1497	7.4800e-01	5.0327	2.742575	0.000222	2.223821	0.376725	-0.004447
1498	7.4850e-01	5.0299	2.698102	0.000445	4.447642	0.753451	-0.008895
1499	7.4900e-01	5.0159	2.674582	0.000235	2.352118	0.398460	-0.004704
1500	7.4950e-01	5.0064	2.643793	0.000308	3.079137	0.521620	-0.006158
1501	7.5000e-01	4.9922	2.650635	-0.000068	-0.684253	-0.115916	0.001368
1502	7.5050e-01	4.9847	2.622840	0.000278	2.779776	0.470907	-0.005559
1503	7.5100e-01	4.9738	2.583926	0.000389	3.891687	0.659270	-0.007783
1504	7.5150e-01	4.9637	2.581788	0.000021	0.213829	0.036224	-0.000428
1505	7.5200e-01	4.9564	2.531328	0.000505	5.046363	0.854877	-0.010092
1506	7.5250e-01	4.9457	2.518499	0.000128	1.282974	0.217342	-0.002566
1507	7.5300e-01	4.9335	2.486427	0.000321	3.207434	0.543354	-0.006414
1508	7.5350e-01	4.9274	2.469322	0.000171	1.710632	0.289789	-0.003421
1509	7.5400e-01	4.9173	2.429553	0.000398	3.977218	0.673759	-0.007954
1510	7.5450e-01	4.9076	2.412020	0.000175	1.753397	0.297034	-0.003507
1511	7.5500e-01	4.8956	2.376527	0.000355	3.549561	0.601312	-0.007099
1512	7.5550e-01	4.8871	2.372251	0.000043	0.427658	0.072447	-0.000855
1513	7.5600e-01	4.8761	2.325640	0.000466	4.661471	0.789675	-0.009322
1514	7.5650e-01	4.8679	2.326495	-0.000009	-0.085532	-0.014489	0.000171
1515	7.5700e-01	4.8566	2.308107	0.000184	1.838929	0.311523	-0.003678
1516	7.5750e-01	4.8480	2.273042	0.000351	3.506795	0.594067	-0.007013
1517	7.5800e-01	4.8383	2.248240	0.000248	2.480416	0.420194	-0.004960
1518	7.5850e-01	4.8267	2.212319	0.000359	3.592326	0.608557	-0.007184
1519	7.5900e-01	4.8154	2.203767	0.000086	0.855316	0.144894	-0.001711
1520	7.5950e-01	4.8053	2.181103	0.000227	2.266587	0.383970	-0.004533
1521	7.6000e-01	4.7961	2.164853	0.000163	1.625100	0.275299	-0.003250
1522	7.6050e-01	4.7849	2.126794	0.000381	3.806155	0.644780	-0.007612
1523	7.6100e-01	4.7754	2.104130	0.000227	2.266587	0.383970	-0.004533
1524	7.6150e-01	4.7656	2.078045	0.000261	2.608713	0.441928	-0.005217
1525	7.6200e-01	4.7583	2.038276	0.000398	3.977218	0.673759	-0.007954
1526	7.6250e-01	4.7449	2.032717	0.000056	0.555955	0.094181	-0.001112
1527	7.6300e-01	4.7375	2.011763	0.000210	2.095524	0.354991	-0.004191
1528	7.6350e-01	4.7266	1.994230	0.000175	1.753397	0.297034	-0.003507
1529	7.6400e-01	4.7150	1.966007	0.000282	2.822542	0.478152	-0.005645
1530	7.6450e-01	4.7076	1.939922	0.000261	2.608713	0.441928	-0.005217
1531	7.6500e-01	4.6982	1.898870	0.000411	4.105516	0.695493	-0.008210
1532	7.6550e-01	4.6875	1.864660	0.000342	3.421263	0.579578	-0.006842
1533	7.6600e-01	4.6753	1.841568	0.000231	2.309353	0.391215	-0.004618
1534	7.6650e-01	4.6631	1.828312	0.000133	1.325739	0.224586	-0.002651
1535	7.6700e-01	4.6558	1.803510	0.000248	2.480416	0.420194	-0.004960
1536	7.6750e-01	4.6461	1.796240	0.000073	0.727018	0.123160	-0.001454
1537	7.6800e-01	4.6362	1.753477	0.000428	4.276579	0.724472	-0.008553
1538	7.6850e-01	4.6278	1.733379	0.000201	2.009992	0.340502	-0.004020
1539	7.6900e-01	4.6162	1.705583	0.000278	2.779776	0.470907	-0.005559
1540	7.6950e-01	4.6066	1.699169	0.000064	0.641487	0.108671	-0.001283
1541	7.7000e-01	4.5970	1.667097	0.000321	3.207434	0.543354	-0.006414
1542	7.7050e-01	4.5845	1.652130	0.000150	1.496803	0.253565	-0.002993
1543	7.7100e-01	4.5758	1.603381	0.000488	4.875300	0.825898	-0.009750
1544	7.7150e-01	4.5654	1.578579	0.000248	2.480416	0.420194	-0.004960
1545	7.7200e-01	4.5551	1.576013	0.000026	0.256595	0.043468	-0.000513
1546	7.7250e-01	4.5477	1.538810	0.000372	3.720624	0.630291	-0.007441
1547	7.7300e-01	4.5367	1.511869	0.000269	2.694245	0.456417	-0.005388
1548	7.7350e-01	4.5253	1.490060	0.000218	2.181055	0.369481	-0.004362
1549	7.7400e-01	4.5169	1.459271	0.000308	3.079137	0.521620	-0.006158
1550	7.7450e-01	4.5032	1.456705	0.000026	0.256595	0.043468	-0.000513
1551	7.7500e-01	4.4952	1.410094	0.000466	4.661471	0.789675	-0.009322
1552	7.7550e-01	4.4879	1.398121	0.000120	1.197442	0.202852	-0.002395
1553	7.7600e-01	4.4745	1.366049	0.000321	3.207434	0.543354	-0.006414
1554	7.7650e-01	4.4655	1.337826	0.000282	2.822542	0.478152	-0.005645
1555	7.7700e-01	4.4544	1.329701	0.000081	0.812550	0.137650	-0.001625
1556	7.7750e-01	4.4464	1.281379	0.000483	4.832534	0.818653	-0.009664
1557	7.7800e-01	4.4348	1.280096	0.000013	0.128297	0.021734	-0.000257
1558	7.7850e-01	4.4233	1.234768	0.000453	4.533174	0.767940	-0.009066
1559	7.7900e-01	4.4165	1.229636	0.000051	0.513189	0.086937	-0.001026
1560	7.7950e-01	4.4073	1.206117	0.000235	2.352118	0.398460	-0.004704
1561	7.8000e-01	4.3988	1.171479	0.000346	3.464029	0.586822	-0.006928
1562	7.8050e-01	4.3851	1.148815	0.000227	2.266587	0.383970	-0.004533
1563	7.8100e-01	4.3750	1.113322	0.000355	3.549561	0.601312	-0.007099
1564	7.8150e-01	4.3640	1.106908	0.000064	0.641487	0.108671	-0.001283
1565	7.8200e-01	4.3570	1.078257	0.000287	2.865308	0.485396	-0.005730
1566	7.8250e-01	4.3439	1.044902	0.000334	3.335732	0.565088	-0.006671
1567	7.8300e-01	4.3353	1.030791	0.000141	1.411271	0.239076	-0.002822
1568	7.8350e-01	4.3265	0.992732	0.000381	3.806155	0.644780	-0.007612
1569	7.8400e-01	4.3155	0.976482	0.000163	1.625100	0.275299	-0.003250
1570	7.8450e-01	4.3057	0.950825	0.000257	2.565947	0.434683	-0.005132
1571	7.8500e-01	4.2955	0.934147	0.000167	1.667866	0.282544	-0.003335
1572	7.8550e-01	4.2847	0.890530	0.000436	4.362111	0.738962	-0.008724
1573	7.8600e-01	4.2755	0.874707	0.000158	1.582334	0.268055	-0.003164
1574	7.8650e-01	4.2648	0.846484	0.000282	2.822542	0.478152	-0.005645
1575	7.8700e-01	4.2563	0.800728	0.000458	4.575940	0.775185	-0.009151
1576	7.8750e-01	4.2455	0.762242	0.000385	3.848921	0.652025	-0.007697
1577	7.8800e-01	4.2335	0.766946	-0.000047	-0.470424	-0.079692	0.000941
1578	7.8850e-01	4.2252	0.754972	0.000120	1.197442	0.202852	-0.002395
1579	7.8900e-01	4.2165	0.734019	0.000210	2.095524	0.354991	-0.004191
1580	7.8950e-01	4.2047	0.687408	0.000466	4.661471	0.789675	-0.009322
1581	7.9000e-01	4.1974	0.663888	0.000235	2.352118	0.398460	-0.004704
1582	7.9050e-01	4.1885	0.656191	0.000077	0.769784	0.130405	-0.001539
1583	7.9100e-01	4.1760	0.595896	0.000603	6.029976	1.021506	-0.012059
1584	7.9150e-01	4.1644	0.591620	0.000043	0.427658	0.072447	-0.000855
1585	7.9200e-01	4.1541	0.554416	0.000372	3.720624	0.630291	-0.007441
1586	7.9250e-01	4.1437	0.535601	0.000188	1.881695	0.318768	-0.003763
1587	7.9300e-01	4.1353	0.524482	0.000111	1.111911	0.188363	-0.002224
1588	7.9350e-01	4.1260	0.500535	0.000239	2.394884	0.405704	-0.004789
1589	7.9400e-01	4.1162	0.451358	0.000492	4.918066	0.833143	-0.009835
1590	7.9450e-01	4.1060	0.437247	0.000141	1.411271	0.239076	-0.002822
1591	7.9500e-01	4.0948	0.418859	0.000184	1.838929	0.311523	-0.003678
1592	7.9550e-01	4.0826	0.394912	0.000239	2.394884	0.405704	-0.004789
1593	7.9600e-01	4.0760	0.363268	0.000316	3.164668	0.536109	-0.006329
1594	7.9650e-01	4.0659	0.338465	0.000248	2.480416	0.420194	-0.004960
1595	7.9700e-01	4.0558	0.317512	0.000210	2.095524	0.354991	-0.004191
1596	7.9750e-01	4.0454	0.290571	0.000269	2.694245	0.456417	-0.005388
1597	7.9800e-01	4.0347	0.262776	0.000278	2.779776	0.470907	-0.005559
1598	7.9850e-01	4.0253	0.247381	0.000154	1.539568	0.260810	-0.003079
1599	7.9900e-01	4.0150	0.206757	0.000406	4.062750	0.688248	-0.008125
1600	7.9950e-01	4.0046	0.169126	0.000376	3.763390	0.637535	-0.007526
1601	8.0000e-01	3.9973	0.148600	0.000205	2.052758	0.347747	-0.004105
1602	8.0050e-01	3.9857	0.133633	0.000150	1.496803	0.253565	-0.002993
1603	8.0100e-01	3.9737	0.115245	0.000184	1.838929	0.311523	-0.003678
1604	8.0150e-01	3.9651	0.105837	0.000094	0.940847	0.159384	-0.001882
1605	8.0200e-01	3.9584	0.059654	0.000462	4.618705	0.782430	-0.009237
1606	8.0250e-01	3.9462	0.021167	0.000385	3.848921	0.652025	-0.007697
1607	8.0300e-01	3.9352	-0.009194	0.000304	3.036371	0.514375	-0.006072
1608	8.0350e-01	3.9249	-0.015181	0.000060	0.598721	0.101426	-0.001197
1609	8.0400e-01	3.9127	-0.028009	0.000128	1.282974	0.217342	-0.002566
1610	8.0450e-01	3.9051	-0.066496	0.000385	3.848921	0.652025	-0.007697
1611	8.0500e-01	3.8971	-0.081890	0.000154	1.539568	0.260810	-0.003079
1612	8.0550e-01	3.8862	-0.129784	0.000479	4.789769	0.811409	-0.009579
1613	8.0600e-01	3.8730	-0.148172	0.000184	1.838929	0.311523	-0.003678
1614	8.0650e-01	3.8669	-0.172547	0.000244	2.437650	0.412949	-0.004875
1615	8.0700e-01	3.8551	-0.218303	0.000458	4.575940	0.775185	-0.009151
1616	8.0750e-01	3.8458	-0.213171	-0.000051	-0.513189	-0.086937	0.001026
1617	8.0800e-01	3.8380	-0.241822	0.000287	2.865308	0.485396	-0.005730
1618	8.0850e-01	3.8242	-0.269618	0.000278	2.779776	0.470907	-0.005559
1619	8.0900e-01	3.8167	-0.287578	0.000180	1.796163	0.304278	-0.003592
1620	8.0950e-01	3.8072	-0.337183	0.000496	4.960832	0.840388	-0.009921
1621	8.1000e-01	3.7958	-0.346590	0.000094	0.940847	0.159384	-0.001882
1622	8.1050e-01	3.7859	-0.398761	0.000522	5.217426	0.883856	-0.010434
1623	8.1100e-01	3.7736	-0.410306	0.000115	1.154676	0.195607	-0.002309
1624	8.1150e-01	3.7633	-0.430832	0.000205	2.052758	0.347747	-0.004105
1625	8.1200e-01	3.7552	-0.467608	0.000368	3.677858	0.623046	-0.007355
1626	8.1250e-01	3.7454	-0.476161	0.000086	0.855316	0.144894	-0.001711
1627	8.1300e-01	3.7344	-0.513364	0.000372	3.720624	0.630291	-0.007441
1628	8.1350e-01	3.7258	-0.545008	0.000316	3.164668	0.536109	-0.006329
1629	8.1400e-01	3.7164	-0.564679	0.000197	1.967226	0.333257	-0.003934
1630	8.1450e-01	3.7076	-0.577508	0.000128	1.282974	0.217342	-0.002566
1631	8.1500e-01	3.6938	-0.615994	0.000385	3.848921	0.652025	-0.007697
1632	8.1550e-01	3.6852	-0.627968	0.000120	1.197442	0.202852	-0.002395
1633	8.1600e-01	3.6766	-0.672013	0.000440	4.404876	0.746206	-0.008809
1634	8.1650e-01	3.6658	-0.713493	0.000415	4.148282	0.702738	-0.008296
1635	8.1700e-01	3.6562	-0.720335	0.000068	0.684253	0.115916	-0.001368
1636	8.1750e-01	3.6427	-0.736585	0.000163	1.625100	0.275299	-0.003250
1637	8.1800e-01	3.6341	-0.779347	0.000428	4.276579	0.724472	-0.008553
1638	8.1850e-01	3.6263	-0.793886	0.000145	1.454037	0.246321	-0.002908
1639	8.1900e-01	3.6163	-0.823820	0.000299	2.993605	0.507130	-0.005987
1640	8.1950e-01	3.6060	-0.867010	0.000432	4.319345	0.731717	-0.008638
1641	8.2000e-01	3.5962	-0.869148	0.000021	0.213829	0.036224	-0.000428
1642	8.2050e-01	3.5883	-0.934147	0.000650	6.500400	1.101198	-0.013000
1643	8.2100e-01	3.5770	-0.947404	0.000133	1.325739	0.224586	-0.002651
1644	8.2150e-01	3.5641	-0.950397	0.000030	0.299361	0.050713	-0.000599
1645	8.2200e-01	3.5553	-0.981614	0.000312	3.121903	0.528865	-0.006243
1646	8.2250e-01	3.5464	-1.023093	0.000415	4.148282	0.702738	-0.008296
1647	8.2300e-01	3.5372	-1.053027	0.000299	2.993605	0.507130	-0.005987
1648	8.2350e-01	3.5245	-1.076974	0.000239	2.394884	0.405704	-0.004789
1649	8.2400e-01	3.5175	-1.111184	0.000342	3.421263	0.579578	-0.006842
1650	8.2450e-01	3.5071	-1.112467	0.000013	0.128297	0.021734	-0.000257
1651	8.2500e-01	3.4979	-1.141118	0.000287	2.865308	0.485396	-0.005730
1652	8.2550e-01	3.4863	-1.160361	0.000192	1.924461	0.326012	-0.003849
1653	8.2600e-01	3.4755	-1.196282	0.000359	3.592326	0.608557	-0.007184
1654	8.2650e-01	3.4659	-1.215097	0.000188	1.881695	0.318768	-0.003763
1655	8.2700e-01	3.4546	-1.260425	0.000453	4.533174	0.767940	-0.009066
1656	8.2750e-01	3.4473	-1.281379	0.000210	2.095524	0.354991	-0.004191
1657	8.2800e-01	3.4393	-1.297629	0.000163	1.625100	0.275299	-0.003250
1658	8.2850e-01	3.4241	-1.323714	0.000261	2.608713	0.441928	-0.005217
1659	8.2900e-01	3.4180	-1.354503	0.000308	3.079137	0.521620	-0.006158
1660	8.2950e-01	3.4062	-1.372891	0.000184	1.838929	0.311523	-0.003678
1661	8.3000e-01	3.3951	-1.404108	0.000312	3.121903	0.528865	-0.006243
1662	8.3050e-01	3.3863	-1.449436	0.000453	4.533174	0.767940	-0.009066
1663	8.3100e-01	3.3765	-1.464830	0.000154	1.539568	0.260810	-0.003079
1664	8.3150e-01	3.3643	-1.484501	0.000197	1.967226	0.333257	-0.003934
1665	8.3200e-01	3.3569	-1.510586	0.000261	2.608713	0.441928	-0.005217
1666	8.3250e-01	3.3478	-1.543513	0.000329	3.292966	0.557844	-0.006585
1667	8.3300e-01	3.3347	-1.570881	0.000274	2.737011	0.463662	-0.005474
1668	8.3350e-01	3.3240	-1.615354	0.000445	4.447642	0.753451	-0.008895
1669	8.3400e-01	3.3144	-1.629466	0.000141	1.411271	0.239076	-0.002822
1670	8.3450e-01	3.3041	-1.644861	0.000154	1.539568	0.260810	-0.003079
1671	8.3500e-01	3.2944	-1.688906	0.000440	4.404876	0.746206	-0.008809
1672	8.3550e-01	3.2844	-1.697886	0.000090	0.898082	0.152139	-0.001796
1673	8.3600e-01	3.2788	-1.732096	0.000342	3.421263	0.579578	-0.006842
1674	8.3650e-01	3.2683	-1.763313	0.000312	3.121903	0.528865	-0.006243
1675	8.3700e-01	3.2541	-1.788115	0.000248	2.480416	0.420194	-0.004960
1676	8.3750e-01	3.2452	-1.806931	0.000188	1.881695	0.318768	-0.003763
1677	8.3800e-01	3.2349	-1.847983	0.000411	4.105516	0.695493	-0.008210
1678	8.3850e-01	3.2252	-1.867653	0.000197	1.967226	0.333257	-0.003934
1679	8.3900e-01	3.2129	-1.915975	0.000483	4.832534	0.818653	-0.009664
1680	8.3950e-01	3.2056	-1.918541	0.000026	0.256595	0.043468	-0.000513
1681	8.4000e-01	3.1960	-1.942488	0.000239	2.394884	0.405704	-0.004789
1682	8.4050e-01	3.1854	-1.974560	0.000321	3.207434	0.543354	-0.006414
1683	8.4100e-01	3.1770	-2.004921	0.000304	3.036371	0.514375	-0.006072
1684	8.4150e-01	3.1671	-2.025447	0.000205	2.052758	0.347747	-0.004105
1685	8.4200e-01	3.1580	-2.063078	0.000376	3.763390	0.637535	-0.007526
1686	8.4250e-01	3.1454	-2.065644	0.000026	0.256595	0.043468	-0.000513
1687	8.4300e-01	3.1351	-2.120380	0.000547	5.474021	0.927324	-0.010947
1688	8.4350e-01	3.1235	-2.161004	0.000406	4.062750	0.688248	-0.008125
1689	8.4400e-01	3.1192	-2.175544	0.000145	1.454037	0.246321	-0.002908
1690	8.4450e-01	3.1037	-2.198635	0.000231	2.309353	0.391215	-0.004618
1691	8.4500e-01	3.0960	-2.229424	0.000308	3.079137	0.521620	-0.006158
1692	8.4550e-01	3.0880	-2.239687	0.000103	1.026379	0.173873	-0.002053
1693	8.4600e-01	3.0743	-2.281167	0.000415	4.148282	0.702738	-0.008296
1694	8.4650e-01	3.0643	-2.298700	0.000175	1.753397	0.297034	-0.003507
1695	8.4700e-01	3.0533	-2.339752	0.000411	4.105516	0.695493	-0.008210
1696	8.4750e-01	3.0463	-2.370968	0.000312	3.121903	0.528865	-0.006243
1697	8.4800e-01	3.0353	-2.383797	0.000128	1.282974	0.217342	-0.002566
1698	8.4850e-01	3.0264	-2.413731	0.000299	2.993605	0.507130	-0.005987
1699	8.4900e-01	3.0145	-2.459487	0.000458	4.575940	0.775185	-0.009151
1700	8.4950e-01	3.0029	-2.444092	-0.000154	-1.539568	-0.260810	0.003079
1701	8.5000e-01	2.9955	-2.499684	0.000556	5.559553	0.941814	-0.011118
1702	8.5050e-01	2.9852	-2.529190	0.000295	2.950840	0.499886	-0.005901
1703	8.5100e-01	2.9743	-2.536032	0.000068	0.684253	0.115916	-0.001368
1704	8.5150e-01	2.9647	-2.575801	0.000398	3.977218	0.673759	-0.007954
1705	8.5200e-01	2.9572	-2.600603	0.000248	2.480416	0.420194	-0.004960
1706	8.5250e-01	2.9453	-2.633958	0.000334	3.335732	0.565088	-0.006671
1707	8.5300e-01	2.9372	-2.667740	0.000338	3.378497	0.572333	-0.006756
1708	8.5350e-01	2.9225	-2.688694	0.000210	2.095524	0.354991	-0.004191
1709	8.5400e-01	2.9138	-2.723332	0.000346	3.464029	0.586822	-0.006928
1710	8.5450e-01	2.9044	-2.740864	0.000175	1.753397	0.297034	-0.003507
1711	8.5500e-01	2.8949	-2.788331	0.000475	4.747003	0.804164	-0.009493
1712	8.5550e-01	2.8874	-2.793890	0.000056	0.555955	0.094181	-0.001112
1713	8.5600e-01	2.8764	-2.838363	0.000445	4.447642	0.753451	-0.008895
1714	8.5650e-01	2.8638	-2.859744	0.000214	2.138290	0.362236	-0.004276
1715	8.5700e-01	2.8571	-2.890533	0.000308	3.079137	0.521620	-0.006158
1716	8.5750e-01	2.8461	-2.918329	0.000278	2.779776	0.470907	-0.005559
1717	8.5800e-01	2.8377	-2.953394	0.000351	3.506795	0.594067	-0.007013
1718	8.5850e-01	2.8262	-2.975630	0.000222	2.223821	0.376725	-0.004447
1719	8.5900e-01	2.8137	-3.006847	0.000312	3.121903	0.528865	-0.006243
1720	8.5950e-01	2.8038	-3.017110	0.000103	1.026379	0.173873	-0.002053
1721	8.6000e-01	2.7948	-3.052603	0.000355	3.549561	0.601312	-0.007099
1722	8.6050e-01	2.7834	-3.088524	0.000359	3.592326	0.608557	-0.007184
1723	8.6100e-01	2.7747	-3.118885	0.000304	3.036371	0.514375	-0.006072
1724	8.6150e-01	2.7647	-3.139839	0.000210	2.095524	0.354991	-0.004191
1725	8.6200e-01	2.7539	-3.158226	0.000184	1.838929	0.311523	-0.003678
1726	8.6250e-01	2.7449	-3.204838	0.000466	4.661471	0.789675	-0.009322
1727	8.6300e-01	2.7356	-3.222798	0.000180	1.796163	0.304278	-0.003592
1728	8.6350e-01	2.7274	-3.276679	0.000539	5.388490	0.912835	-0.010776
1729	8.6400e-01	2.7143	-3.278389	0.000017	0.171063	0.028979	-0.000342
1730	8.6450e-01	2.7039	-3.314310	0.000359	3.592326	0.608557	-0.007184
1731	8.6500e-01	2.6944	-3.309178	-0.000051	-0.513189	-0.086937	0.001026
1732	8.6550e-01	2.6842	-3.345954	0.000368	3.677858	0.623046	-0.007355
1733	8.6600e-01	2.6752	-3.395558	0.000496	4.960832	0.840388	-0.009921
1734	8.6650e-01	2.6657	-3.419933	0.000244	2.437650	0.412949	-0.004875
1735	8.6700e-01	2.6569	-3.447729	0.000278	2.779776	0.470907	-0.005559
1736	8.6750e-01	2.6501	-3.490919	0.000432	4.319345	0.731717	-0.008638
1737	8.6800e-01	2.6345	-3.519142	0.000282	2.822542	0.478152	-0.005645
1738	8.6850e-01	2.6254	-3.532826	0.000137	1.368505	0.231831	-0.002737
1739	8.6900e-01	2.6126	-3.562760	0.000299	2.993605	0.507130	-0.005987
1740	8.6950e-01	2.6065	-3.607661	0.000449	4.490408	0.760696	-0.008980
1741	8.7000e-01	2.5943	-3.619634	0.000120	1.197442	0.202852	-0.002395
1742	8.7050e-01	2.5848	-3.666673	0.000470	4.704237	0.796919	-0.009408
1743	8.7100e-01	2.5777	-3.673515	0.000068	0.684253	0.115916	-0.001368
1744	8.7150e-01	2.5636	-3.701311	0.000278	2.779776	0.470907	-0.005559
1745	8.7200e-01	2.5552	-3.739369	0.000381	3.806155	0.644780	-0.007612
1746	8.7250e-01	2.5453	-3.756047	0.000167	1.667866	0.282544	-0.003335
1747	8.7300e-01	2.5354	-3.810783	0.000547	5.474021	0.927324	-0.010947
1748	8.7350e-01	2.5250	-3.816342	0.000056	0.555955	0.094181	-0.001112
1749	8.7400e-01	2.5146	-3.822329	0.000060	0.598721	0.101426	-0.001197
1750	8.7450e-01	2.5063	-3.896735	0.000744	7.441248	1.260581	-0.014881
1751	8.7500e-01	2.4939	-3.902722	0.000060	0.598721	0.101426	-0.001197
1752	8.7550e-01	2.4849	-3.940781	0.000381	3.806155	0.644780	-0.007612
1753	8.7600e-01	2.4744	-3.959596	0.000188	1.881695	0.318768	-0.003763
1754	8.7650e-01	2.4646	-3.999793	0.000402	4.019984	0.681004	-0.008039
1755	8.7700e-01	2.4545	-3.996800	-0.000030	-0.299361	-0.050713	0.000599
1756	8.7750e-01	2.4448	-4.051536	0.000547	5.474021	0.927324	-0.010947
1757	8.7800e-01	2.4338	-4.076338	0.000248	2.480416	0.420194	-0.004960
1758	8.7850e-01	2.4261	-4.107127	0.000308	3.079137	0.521620	-0.006158
1759	8.7900e-01	2.4161	-4.146896	0.000398	3.977218	0.673759	-0.007954
1760	8.7950e-01	2.4070	-4.161863	0.000150	1.496803	0.253565	-0.002993
1761	8.8000e-01	2.3952	-4.192652	0.000308	3.079137	0.521620	-0.006158
1762	8.8050e-01	2.3849	-4.194790	0.000021	0.213829	0.036224	-0.000428
1763	8.8100e-01	2.3740	-4.252520	0.000577	5.773382	0.978037	-0.011546
1764	8.8150e-01	2.3639	-4.269197	0.000167	1.667866	0.282544	-0.003335
1765	8.8200e-01	2.3561	-4.298275	0.000291	2.908074	0.492641	-0.005816
1766	8.8250e-01	2.3447	-4.332485	0.000342	3.421263	0.579578	-0.006842
1767	8.8300e-01	2.3364	-4.346597	0.000141	1.411271	0.239076	-0.002822
1768	8.8350e-01	2.3254	-4.397912	0.000513	5.131895	0.869367	-0.010263
1769	8.8400e-01	2.3181	-4.413307	0.000154	1.539568	0.260810	-0.003079
1770	8.8450e-01	2.3059	-4.455642	0.000423	4.233813	0.717227	-0.008467
1771	8.8500e-01	2.2931	-4.486858	0.000312	3.121903	0.528865	-0.006243
1772	8.8550e-01	2.2849	-4.505674	0.000188	1.881695	0.318768	-0.003763
1773	8.8600e-01	2.2731	-4.559554	0.000539	5.388490	0.912835	-0.010776
1774	8.8650e-01	2.2647	-4.573666	0.000141	1.411271	0.239076	-0.002822
1775	8.8700e-01	2.2539	-4.602745	0.000291	2.908074	0.492641	-0.005816
1776	8.8750e-01	2.2463	-4.634817	0.000321	3.207434	0.543354	-0.006414
1777	8.8800e-01	2.2343	-4.660902	0.000261	2.608713	0.441928	-0.005217
1778	8.8850e-01	2.2261	-4.696822	0.000359	3.592326	0.608557	-0.007184
1779	8.8900e-01	2.2137	-4.696395	-0.000004	-0.042766	-0.007245	0.000086
1780	8.8950e-01	2.2046	-4.751131	0.000547	5.474021	0.927324	-0.010947
1781	8.9000e-01	2.1953	-4.781920	0.000308	3.079137	0.521620	-0.006158
1782	8.9050e-01	2.1865	-4.803301	0.000214	2.138290	0.362236	-0.004276
1783	8.9100e-01	2.1754	-4.838366	0.000351	3.506795	0.594067	-0.007013
1784	8.9150e-01	2.1658	-4.861030	0.000227	2.266587	0.383970	-0.004533
1785	8.9200e-01	2.1564	-4.902510	0.000415	4.148282	0.702738	-0.008296
1786	8.9250e-01	2.1449	-4.913628	0.000111	1.111911	0.188363	-0.002224
1787	8.9300e-01	2.1363	-4.951259	0.000376	3.763390	0.637535	-0.007526
1788	8.9350e-01	2.1217	-4.975634	0.000244	2.437650	0.412949	-0.004875
1789	8.9400e-01	2.1155	-5.012837	0.000372	3.720624	0.630291	-0.007441
1790	8.9450e-01	2.1045	-5.035929	0.000231	2.309353	0.391215	-0.004618
1791	8.9500e-01	2.0959	-5.079119	0.000432	4.319345	0.731717	-0.008638
1792	8.9550e-01	2.0854	-5.109481	0.000304	3.036371	0.514375	-0.006072
1793	8.9600e-01	2.0747	-5.126158	0.000167	1.667866	0.282544	-0.003335
1794	8.9650e-01	2.0639	-5.155236	0.000291	2.908074	0.492641	-0.005816
1795	8.9700e-01	2.0543	-5.200565	0.000453	4.533174	0.767940	-0.009066
1796	8.9750e-01	2.0448	-5.216387	0.000158	1.582334	0.268055	-0.003164
1797	8.9800e-01	2.0360	-5.242044	0.000257	2.565947	0.434683	-0.005132
1798	8.9850e-01	2.0255	-5.282669	0.000406	4.062750	0.688248	-0.008125
1799	8.9900e-01	2.0176	-5.319872	0.000372	3.720624	0.630291	-0.007441
1800	8.9950e-01	2.0056	-5.340826	0.000210	2.095524	0.354991	-0.004191
1801	9.0000e-01	1.9948	-5.372043	0.000312	3.121903	0.528865	-0.006243
1802	9.0050e-01	1.9885	-5.401976	0.000299	2.993605	0.507130	-0.005987
1803	9.0100e-01	1.9749	-5.416943	0.000150	1.496803	0.253565	-0.002993
1804	9.0150e-01	1.9667	-5.461416	0.000445	4.447642	0.753451	-0.008895
1805	9.0200e-01	1.9535	-5.513586	0.000522	5.217426	0.883856	-0.010434
1806	9.0250e-01	1.9449	-5.503751	-0.000098	-0.983613	-0.166629	0.001967
1807	9.0300e-01	1.9374	-5.540099	0.000364	3.635092	0.615801	-0.007270
1808	9.0350e-01	1.9267	-5.576447	0.000364	3.635092	0.615801	-0.007270
1809	9.0400e-01	1.9134	-5.625197	0.000488	4.875300	0.825898	-0.009750
1810	9.0450e-01	1.9067	-5.648716	0.000235	2.352118	0.398460	-0.004704
1811	9.0500e-01	1.8980	-5.649571	0.000009	0.085532	0.014489	-0.000171
1812	9.0550e-01	1.8844	-5.688913	0.000393	3.934453	0.666514	-0.007868
1813	9.0600e-01	1.8762	-5.738945	0.000500	5.003597	0.847632	-0.010006
1814	9.0650e-01	1.8641	-5.767168	0.000282	2.822542	0.478152	-0.005645
1815	9.0700e-01	1.8549	-5.800951	0.000338	3.378497	0.572333	-0.006756
1816	9.0750e-01	1.8488	-5.825753	0.000248	2.480416	0.420194	-0.004960
1817	9.0800e-01	1.8365	-5.855259	0.000295	2.950840	0.499886	-0.005901
1818	9.0850e-01	1.8243	-5.863812	0.000086	0.855316	0.144894	-0.001711
1819	9.0900e-01	1.8130	-5.916409	0.000526	5.260192	0.891101	-0.010520
1820	9.0950e-01	1.8063	-5.923679	0.000073	0.727018	0.123160	-0.001454
1821	9.1000e-01	1.7941	-5.972428	0.000488	4.875300	0.825898	-0.009750
1822	9.1050e-01	1.7828	-5.997658	0.000252	2.523182	0.427439	-0.005046
1823	9.1100e-01	1.7726	-6.043414	0.000458	4.575940	0.775185	-0.009151
1824	9.1150e-01	1.7652	-6.055388	0.000120	1.197442	0.202852	-0.002395
1825	9.1200e-01	1.7528	-6.095157	0.000398	3.977218	0.673759	-0.007954
1826	9.1250e-01	1.7445	-6.128512	0.000334	3.335732	0.565088	-0.006671
1827	9.1300e-01	1.7352	-6.165287	0.000368	3.677858	0.623046	-0.007355
1828	9.1350e-01	1.7252	-6.193938	0.000287	2.865308	0.485396	-0.005730
1829	9.1400e-01	1.7175	-6.217030	0.000231	2.309353	0.391215	-0.004618
1830	9.1450e-01	1.7052	-6.233707	0.000167	1.667866	0.282544	-0.003335
1831	9.1500e-01	1.6920	-6.262786	0.000291	2.908074	0.492641	-0.005816
1832	9.1550e-01	1.6829	-6.310680	0.000479	4.789769	0.811409	-0.009579
1833	9.1600e-01	1.6757	-6.336765	0.000261	2.608713	0.441928	-0.005217
1834	9.1650e-01	1.6626	-6.371403	0.000346	3.464029	0.586822	-0.006928
1835	9.1700e-01	1.6554	-6.415021	0.000436	4.362111	0.738962	-0.008724
1836	9.1750e-01	1.6464	-6.420580	0.000056	0.555955	0.094181	-0.001112
1837	9.1800e-01	1.6345	-6.446665	0.000261	2.608713	0.441928	-0.005217
1838	9.1850e-01	1.6254	-6.495842	0.000492	4.918066	0.833143	-0.009835
1839	9.1900e-01	1.6151	-6.534756	0.000389	3.891687	0.659270	-0.007783
1840	9.1950e-01	1.6062	-6.541598	0.000068	0.684253	0.115916	-0.001368
1841	9.2000e-01	1.5957	-6.583505	0.000419	4.191047	0.709983	-0.008381
1842	9.2050e-01	1.5855	-6.614722	0.000312	3.121903	0.528865	-0.006243
1843	9.2100e-01	1.5739	-6.644228	0.000295	2.950840	0.499886	-0.005901
1844	9.2150e-01	1.5610	-6.660477	0.000163	1.625100	0.275299	-0.003250
1845	9.2200e-01	1.5556	-6.725904	0.000654	6.543166	1.108442	-0.013085
1846	9.2250e-01	1.5437	-6.725477	-0.000004	-0.042766	-0.007245	0.000086
1847	9.2300e-01	1.5331	-6.779785	0.000543	5.431255	0.920080	-0.010862
1848	9.2350e-01	1.5245	-6.799883	0.000201	2.009992	0.340502	-0.004020
1849	9.2400e-01	1.5143	-6.826824	0.000269	2.694245	0.456417	-0.005388
1850	9.2450e-01	1.5031	-6.857613	0.000308	3.079137	0.521620	-0.006158
1851	9.2500e-01	1.4952	-6.867876	0.000103	1.026379	0.173873	-0.002053
1852	9.2550e-01	1.4851	-6.909355	0.000415	4.148282	0.702738	-0.008296
1853	9.2600e-01	1.4790	-6.962809	0.000535	5.345724	0.905590	-0.010691
1854	9.2650e-01	1.4645	-6.969651	0.000068	0.684253	0.115916	-0.001368
1855	9.2700e-01	1.4536	-7.002150	0.000325	3.250200	0.550599	-0.006500
1856	9.2750e-01	1.4481	-7.053893	0.000517	5.174661	0.876611	-0.010349
1857	9.2800e-01	1.4368	-7.099221	0.000453	4.533174	0.767940	-0.009066
1858	9.2850e-01	1.4223	-7.095372	-0.000038	-0.384892	-0.065202	0.000770
1859	9.2900e-01	1.4130	-7.156523	0.000612	6.115508	1.035995	-0.012230
1860	9.2950e-01	1.4047	-7.178332	0.000218	2.181055	0.369481	-0.004362
1861	9.3000e-01	1.3921	-7.203989	0.000257	2.565947	0.434683	-0.005132
1862	9.3050e-01	1.3849	-7.233495	0.000295	2.950840	0.499886	-0.005901
1863	9.3100e-01	1.3758	-7.268988	0.000355	3.549561	0.601312	-0.007099
1864	9.3150e-01	1.3643	-7.295501	0.000265	2.651479	0.449173	-0.005303
1865	9.3200e-01	1.3547	-7.349382	0.000539	5.388490	0.912835	-0.010776
1866	9.3250e-01	1.3449	-7.360500	0.000111	1.111911	0.188363	-0.002224
1867	9.3300e-01	1.3356	-7.401552	0.000411	4.105516	0.695493	-0.008210
1868	9.3350e-01	1.3235	-7.422506	0.000210	2.095524	0.354991	-0.004191
1869	9.3400e-01	1.3120	-7.479807	0.000573	5.730616	0.970793	-0.011460
1870	9.3450e-01	1.3048	-7.482801	0.000030	0.299361	0.050713	-0.000599
1871	9.3500e-01	1.2935	-7.515728	0.000329	3.292966	0.557844	-0.006585
1872	9.3550e-01	1.2843	-7.550366	0.000346	3.464029	0.586822	-0.006928
1873	9.3600e-01	1.2741	-7.576023	0.000257	2.565947	0.434683	-0.005132
1874	9.3650e-01	1.2647	-7.614509	0.000385	3.848921	0.652025	-0.007697
1875	9.3700e-01	1.2537	-7.642733	0.000282	2.822542	0.478152	-0.005645
1876	9.3750e-01	1.2438	-7.671384	0.000287	2.865308	0.485396	-0.005730
1877	9.3800e-01	1.2360	-7.708587	0.000372	3.720624	0.630291	-0.007441
1878	9.3850e-01	1.2259	-7.730824	0.000222	2.223821	0.376725	-0.004447
1879	9.3900e-01	1.2140	-7.778290	0.000475	4.747003	0.804164	-0.009493
1880	9.3950e-01	1.2063	-7.799244	0.000210	2.095524	0.354991	-0.004191
1881	9.4000e-01	1.1954	-7.833026	0.000338	3.378497	0.572333	-0.006756
1882	9.4050e-01	1.1866	-7.882203	0.000492	4.918066	0.833143	-0.009835
1883	9.4100e-01	1.1752	-7.904439	0.000222	2.223821	0.376725	-0.004447
1884	9.4150e-01	1.1642	-7.933946	0.000295	2.950840	0.499886	-0.005901
1885	9.4200e-01	1.1552	-7.965162	0.000312	3.121903	0.528865	-0.006243
1886	9.4250e-01	1.1459	-7.993385	0.000282	2.822542	0.478152	-0.005645
1887	9.4300e-01	1.1359	-8.044273	0.000509	5.089129	0.862122	-0.010177
1888	9.4350e-01	1.1259	-8.060095	0.000158	1.582334	0.268055	-0.003164
1889	9.4400e-01	1.1133	-8.094305	0.000342	3.421263	0.579578	-0.006842
1890	9.4450e-01	1.1057	-8.144765	0.000505	5.046363	0.854877	-0.010092
1891	9.4500e-01	1.0965	-8.167857	0.000231	2.309353	0.391215	-0.004618
1892	9.4550e-01	1.0848	-8.175554	0.000077	0.769784	0.130405	-0.001539
1893	9.4600e-01	1.0761	-8.228579	0.000530	5.302958	0.898345	-0.010605
1894	9.4650e-01	1.0669	-8.266638	0.000381	3.806155	0.644780	-0.007612
1895	9.4700e-01	1.0559	-8.280322	0.000137	1.368505	0.231831	-0.002737
1896	9.4750e-01	1.0453	-8.308545	0.000282	2.822542	0.478152	-0.005645
1897	9.4800e-01	1.0327	-8.337196	0.000287	2.865308	0.485396	-0.005730
1898	9.4850e-01	1.0247	-8.402623	0.000654	6.543166	1.108442	-0.013085
1899	9.4900e-01	1.0170	-8.432984	0.000304	3.036371	0.514375	-0.006072
1900	9.4950e-01	1.0059	-8.451372	0.000184	1.838929	0.311523	-0.003678
1901	9.5000e-01	0.9944	-8.494990	0.000436	4.362111	0.738962	-0.008724
1902	9.5050e-01	0.9875	-8.518937	0.000239	2.394884	0.405704	-0.004789
1903	9.5100e-01	0.9753	-8.553575	0.000346	3.464029	0.586822	-0.006928
1904	9.5150e-01	0.9641	-8.568114	0.000145	1.454037	0.246321	-0.002908
1905	9.5200e-01	0.9552	-8.604034	0.000359	3.592326	0.608557	-0.007184
1906	9.5250e-01	0.9480	-8.630975	0.000269	2.694245	0.456417	-0.005388
1907	9.5300e-01	0.9338	-8.671172	0.000402	4.019984	0.681004	-0.008039
1908	9.5350e-01	0.9219	-8.719921	0.000488	4.875300	0.825898	-0.009750
1909	9.5400e-01	0.9157	-8.747716	0.000278	2.779776	0.470907	-0.005559
1910	9.5450e-01	0.9068	-8.763966	0.000163	1.625100	0.275299	-0.003250
1911	9.5500e-01	0.8968	-8.801597	0.000376	3.763390	0.637535	-0.007526
1912	9.5550e-01	0.8841	-8.846498	0.000449	4.490408	0.760696	-0.008980
1913	9.5600e-01	0.8759	-8.871300	0.000248	2.480416	0.420194	-0.004960
1914	9.5650e-01	0.8645	-8.911497	0.000402	4.019984	0.681004	-0.008039
1915	9.5700e-01	0.8543	-8.938437	0.000269	2.694245	0.456417	-0.005388
1916	9.5750e-01	0.8439	-8.967943	0.000295	2.950840	0.499886	-0.005901
1917	9.5800e-01	0.8370	-9.002581	0.000346	3.464029	0.586822	-0.006928
1918	9.5850e-01	0.8250	-9.035081	0.000325	3.250200	0.550599	-0.006500
1919	9.5900e-01	0.8157	-9.083830	0.000488	4.875300	0.825898	-0.009750
1920	9.5950e-01	0.8044	-9.110343	0.000265	2.651479	0.449173	-0.005303
1921	9.6000e-01	0.7962	-9.150539	0.000402	4.019984	0.681004	-0.008039
1922	9.6050e-01	0.7855	-9.184322	0.000338	3.378497	0.572333	-0.006756
1923	9.6100e-01	0.7746	-9.208696	0.000244	2.437650	0.412949	-0.004875
1924	9.6150e-01	0.7652	-9.245472	0.000368	3.677858	0.623046	-0.007355
1925	9.6200e-01	0.7536	-9.267709	0.000222	2.223821	0.376725	-0.004447
1926	9.6250e-01	0.7468	-9.310044	0.000423	4.233813	0.717227	-0.008467
1927	9.6300e-01	0.7367	-9.334418	0.000244	2.437650	0.412949	-0.004875
1928	9.6350e-01	0.7256	-9.393431	0.000590	5.901679	0.999771	-0.011802
1929	9.6400e-01	0.7150	-9.413957	0.000205	2.052758	0.347747	-0.004105
1930	9.6450e-01	0.7043	-9.421226	0.000073	0.727018	0.123160	-0.001454
1931	9.6500e-01	0.6948	-9.482377	0.000612	6.115508	1.035995	-0.012230
1932	9.6550e-01	0.6845	-9.501620	0.000192	1.924461	0.326012	-0.003849
1933	9.6600e-01	0.6776	-9.536257	0.000346	3.464029	0.586822	-0.006928
1934	9.6650e-01	0.6637	-9.573888	0.000376	3.763390	0.637535	-0.007526
1935	9.6700e-01	0.6560	-9.619217	0.000453	4.533174	0.767940	-0.009066
1936	9.6750e-01	0.6450	-9.636749	0.000175	1.753397	0.297034	-0.003507
1937	9.6800e-01	0.6355	-9.689775	0.000530	5.302958	0.898345	-0.010605
1938	9.6850e-01	0.6252	-9.722274	0.000325	3.250200	0.550599	-0.006500
1939	9.6900e-01	0.6158	-9.762899	0.000406	4.062750	0.688248	-0.008125
1940	9.6950e-01	0.6064	-9.782570	0.000197	1.967226	0.333257	-0.003934
1941	9.7000e-01	0.5971	-9.815497	0.000329	3.292966	0.557844	-0.006585
1942	9.7050e-01	0.5862	-9.846713	0.000312	3.121903	0.528865	-0.006243
1943	9.7100e-01	0.5737	-9.868522	0.000218	2.181055	0.369481	-0.004362
1944	9.7150e-01	0.5639	-9.924541	0.000560	5.602319	0.949058	-0.011204
1945	9.7200e-01	0.5548	-9.946350	0.000218	2.181055	0.369481	-0.004362
1946	9.7250e-01	0.5453	-9.977994	0.000316	3.164668	0.536109	-0.006329
1947	9.7300e-01	0.5363	-10.013487	0.000355	3.549561	0.601312	-0.007099
1948	9.7350e-01	0.5267	-10.060954	0.000475	4.747003	0.804164	-0.009493
1949	9.7400e-01	0.5158	-10.090887	0.000299	2.993605	0.507130	-0.005987
1950	9.7450e-01	0.5048	-10.116973	0.000261	2.608713	0.441928	-0.005217
1951	9.7500e-01	0.4943	-10.146051	0.000291	2.908074	0.492641	-0.005816
1952	9.7550e-01	0.4850	-10.190096	0.000440	4.404876	0.746206	-0.008809
1953	9.7600e-01	0.4739	-10.216182	0.000261	2.608713	0.441928	-0.005217
1954	9.7650e-01	0.4649	-10.251675	0.000355	3.549561	0.601312	-0.007099
1955	9.7700e-01	0.4537	-10.295292	0.000436	4.362111	0.738962	-0.008724
1956	9.7750e-01	0.4445	-10.328647	0.000334	3.335732	0.565088	-0.006671
1957	9.7800e-01	0.4355	-10.320522	-0.000081	-0.812550	-0.137650	0.001625
1958	9.7850e-01	0.4253	-10.381673	0.000612	6.115508	1.035995	-0.012230
1959	9.7900e-01	0.4152	-10.442823	0.000612	6.115508	1.035995	-0.012230
1960	9.7950e-01	0.4057	-10.444534	0.000017	0.171063	0.028979	-0.000342
1961	9.8000e-01	0.3951	-10.496276	0.000517	5.174661	0.876611	-0.010349
1962	9.8050e-01	0.3831	-10.524927	0.000287	2.865308	0.485396	-0.005730
1963	9.8100e-01	0.3780	-10.566407	0.000415	4.148282	0.702738	-0.008296
1964	9.8150e-01	0.3660	-10.597196	0.000308	3.079137	0.521620	-0.006158
1965	9.8200e-01	0.3541	-10.633544	0.000364	3.635092	0.615801	-0.007270
1966	9.8250e-01	0.3451	-10.663905	0.000304	3.036371	0.514375	-0.006072
1967	9.8300e-01	0.3347	-10.688280	0.000244	2.437650	0.412949	-0.004875
1968	9.8350e-01	0.3238	-10.749003	0.000607	6.072742	1.028750	-0.012145
1969	9.8400e-01	0.3149	-10.771239	0.000222	2.223821	0.376725	-0.004447
1970	9.8450e-01	0.3050	-10.809726	0.000385	3.848921	0.652025	-0.007697
1971	9.8500e-01	0.2945	-10.856764	0.000470	4.704237	0.796919	-0.009408
1972	9.8550e-01	0.2853	-10.871731	0.000150	1.496803	0.253565	-0.002993
1973	9.8600e-01	0.2750	-10.919198	0.000475	4.747003	0.804164	-0.009493
1974	9.8650e-01	0.2652	-10.936303	0.000171	1.710632	0.289789	-0.003421
1975	9.8700e-01	0.2530	-10.993604	0.000573	5.730616	0.970793	-0.011460
1976	9.8750e-01	0.2436	-11.040216	0.000466	4.661471	0.789675	-0.009322
1977	9.8800e-01	0.2397	-11.055182	0.000150	1.496803	0.253565	-0.002993
1978	9.8850e-01	0.2265	-11.080412	0.000252	2.523182	0.427439	-0.005046
1979	9.8900e-01	0.2164	-11.130872	0.000505	5.046363	0.854877	-0.010092
1980	9.8950e-01	0.2042	-11.178766	0.000479	4.789769	0.811409	-0.009579
1981	9.9000e-01	0.1957	-11.182615	0.000038	0.384892	0.065202	-0.000770
1982	9.9050e-01	0.1850	-11.232219	0.000496	4.960832	0.840388	-0.009921
1983	9.9100e-01	0.1739	-11.279258	0.000470	4.704237	0.796919	-0.009408
1984	9.9150e-01	0.1647	-11.312185	0.000329	3.292966	0.557844	-0.006585
1985	9.9200e-01	0.1558	-11.343402	0.000312	3.121903	0.528865	-0.006243
1986	9.9250e-01	0.1465	-11.377612	0.000342	3.421263	0.579578	-0.006842
1987	9.9300e-01	0.1333	-11.402414	0.000248	2.480416	0.420194	-0.004960
1988	9.9350e-01	0.1262	-11.428072	0.000257	2.565947	0.434683	-0.005132
1989	9.9400e-01	0.1168	-11.499485	0.000714	7.141887	1.209868	-0.014283
1990	9.9450e-01	0.1041	-11.525143	0.000257	2.565947	0.434683	-0.005132
1991	9.9500e-01	0.0937	-11.557642	0.000325	3.250200	0.550599	-0.006500
1992	9.9550e-01	0.0863	-11.594846	0.000372	3.720624	0.630291	-0.007441
1993	9.9600e-01	0.0746	-11.635470	0.000406	4.062750	0.688248	-0.008125
1994	9.9650e-01	0.0644	-11.658562	0.000231	2.309353	0.391215	-0.004618
1995	9.9700e-01	0.0508	-11.688923	0.000304	3.036371	0.514375	-0.006072
1996	9.9750e-01	0.0446	-11.734251	0.000453	4.533174	0.767940	-0.009066
1997	9.9800e-01	0.0347	-11.774020	0.000398	3.977218	0.673759	-0.007954
1998	9.9850e-01	0.0271	-11.806520	0.000325	3.250200	0.550599	-0.006500
1999	9.9900e-01	0.0146	-11.826618	0.000201	2.009992	0.340502	-0.004020
2000	9.9950e-01	0.0043	-11.883065	0.000565	5.645084	0.956303	-0.011289
2001	1.0000e+00	-0.0055	-11.920268	0.000565	5.645084	0.956303	-0.007441

PMax (uC/cm2):	2.56e+01
Pr (uC/cm2):	8.64e-01
-Pr (uC/cm2):	0.00e+00
PLoss (uC/cm2):	0.00e+00
C (Max-Eff) (nF):	2.56e-01
K (Eff):	4.33e+02
Vert. (+/-Pr) Shift (uC/cm2):	4.32e-01
Offset (uC/cm2):	1.28e+01

A (Loop Area - uC/cm2·Volts):	-9.89e-03



Hysteresis Version: 5.48.1 - Radiant Technologies, Inc., 1999 - 9/12/24

