»»»»»»»»»»»»»»»»»»»»»»»»»»»»»»»»»»»» Hysteresis ««««««««««««««««««««««««««««««««««««
»»»  Executed Version:	5.48.1
»»»  Vision Version:	5.48.4 (R)
»»»  Vision Compiled:	9/18/24
»»»  Driver Version:	5.47.0
»»»  Windows Version:	Windows 8 or 8.1
»»»  Processor Information:	x86 (AMD or Intel) - 32 Processors
»»»  Tester Name:	PMF21124-494 (100V)
»»»  Tester S/N:	PMF21124-494
»»»  Internal Amp Type:	100V RevK 270k
»»»  Internal Amp S/N:	iAB2-596/K     
»»»  Execution Count:	1
»»»»»»»»»»»»»»»»»»»»»»»»»»»»»»»»»»»»»»»»»»««««««««««««««««««««««««««««««««««««««««««

Stored:	6/27/2025 - 16:57:6
Configured:	06/27/25 11:23:28 AM
Executed:	06/27/25 04:56:44 PM

»»»»»»»»»»»»»»»»»»»»»»»»»»»»»»»»»»» Sample Info ««««««««««««««««««««««««««««««««««««
Sample Name:	
Lot Name:	
Wafer Name:	
Die Row/Column:	0/0
Capacitor Number:	0
Sample Area (cm2):	1.00e-04
Sample Thickness (microns):	1.50e-01

Amplifier:	Internal

»»»»»»»»»»»»»»»»»»»»»»»»»»»»»»»»»»» Tester Info «««««««««««««««««««««««««««««««««««
Tester Name:	PMF21124-494 (100V)
Tester Serial Number:	PMF21124-494
Return Signal Amp. Level:	1.79 [Index: 2]

»»»»»»»»»»»»»»»»»»»»»»»»»»»»»»»» Hysteresis Info ««««««««««««««««««««««««««««««««««
Task Name:	Hyst-1276
Volts:	10.00
Field:	666.67 (kV/cm)
DCBias:	0.00
DCField:	0.00 (kV/cm)
Hysteresis Period (ms):	1.00e+00
Preset:	Enabled
Preset Delay (ms):	1.00e+03
Profile:	Standard Monopolar

»»»»»»»»»»»»»»»»»»»»»»»»»»»»»»»»»»»»»» Data «««««««««««««««««««««««««««««««««««««««
Points:	2001

Valid Data

Point	Time (ms)	Drive Voltage	Measured Polarization (uC/cm2)	Capacitance (uF)	Normalized Capacitance (uF/cm2)	Dielectric Constant	Instantaneous Current (mA)
   1	0.0000e+00	-0.0043	-11.536475	0.000419	4.189992	0.709804	0.008381
   2	5.0000e-04	0.0040	-11.494567	0.000419	4.189992	0.709804	0.008381
   3	1.0000e-03	0.0187	-11.459074	0.000355	3.548667	0.601160	0.007099
   4	1.5000e-03	0.0250	-11.443680	0.000154	1.539181	0.260744	0.003079
   5	2.0000e-03	0.0362	-11.436838	0.000068	0.684080	0.115886	0.001368
   6	2.5000e-03	0.0466	-11.419733	0.000171	1.710201	0.289716	0.003421
   7	3.0000e-03	0.0575	-11.362004	0.000577	5.771928	0.977791	0.011546
   8	3.5000e-03	0.0657	-11.352596	0.000094	0.940611	0.159344	0.001882
   9	4.0000e-03	0.0777	-11.315392	0.000372	3.719687	0.630132	0.007441
  10	4.5000e-03	0.0839	-11.288024	0.000274	2.736322	0.463545	0.005474
  11	5.0000e-03	0.0948	-11.267498	0.000205	2.052241	0.347659	0.004105
  12	5.5000e-03	0.1056	-11.222170	0.000453	4.532033	0.767747	0.009066
  13	6.0000e-03	0.1147	-11.217466	0.000047	0.470305	0.079672	0.000941
  14	6.5000e-03	0.1255	-11.187532	0.000299	2.992852	0.507003	0.005987
  15	7.0000e-03	0.1354	-11.162730	0.000248	2.479791	0.420088	0.004960
  16	7.5000e-03	0.1443	-11.131086	0.000316	3.163872	0.535974	0.006329
  17	8.0000e-03	0.1562	-11.115264	0.000158	1.581936	0.267987	0.003164
  18	8.5000e-03	0.1661	-11.098586	0.000167	1.667446	0.282473	0.003335
  19	9.0000e-03	0.1778	-11.066087	0.000325	3.249382	0.550460	0.006500
  20	9.5000e-03	0.1830	-11.033587	0.000325	3.249382	0.550460	0.006500
  21	1.0000e-02	0.1944	-11.013917	0.000197	1.966731	0.333173	0.003934
  22	1.0500e-02	0.2056	-10.978424	0.000355	3.548667	0.601160	0.007099
  23	1.1000e-02	0.2194	-10.959181	0.000192	1.923976	0.325930	0.003849
  24	1.1500e-02	0.2254	-10.936089	0.000231	2.308771	0.391116	0.004618
  25	1.2000e-02	0.2362	-10.901879	0.000342	3.420402	0.579432	0.006842
  26	1.2500e-02	0.2465	-10.855695	0.000462	4.617543	0.782233	0.009237
  27	1.3000e-02	0.2582	-10.855695	0.000000	0.000000	0.000000	0.000000
  28	1.3500e-02	0.2637	-10.824479	0.000312	3.121117	0.528732	0.006243
  29	1.4000e-02	0.2766	-10.791551	0.000329	3.292137	0.557703	0.006585
  30	1.4500e-02	0.2864	-10.771025	0.000205	2.052241	0.347659	0.004105
  31	1.5000e-02	0.2972	-10.735533	0.000355	3.548667	0.601160	0.007099
  32	1.5500e-02	0.3058	-10.713296	0.000222	2.223261	0.376631	0.004447
  33	1.6000e-02	0.3169	-10.687211	0.000261	2.608057	0.441817	0.005217
  34	1.6500e-02	0.3273	-10.659843	0.000274	2.736322	0.463545	0.005474
  35	1.7000e-02	0.3364	-10.631620	0.000282	2.821832	0.478031	0.005645
  36	1.7500e-02	0.3457	-10.638462	-0.000068	-0.684080	-0.115886	-0.001368
  37	1.8000e-02	0.3559	-10.563627	0.000748	7.482129	1.267507	0.014967
  38	1.8500e-02	0.3640	-10.565338	-0.000017	-0.171020	-0.028972	-0.000342
  39	1.9000e-02	0.3764	-10.543101	0.000222	2.223261	0.376631	0.004447
  40	1.9500e-02	0.3845	-10.490931	0.000522	5.216113	0.883633	0.010434
  41	2.0000e-02	0.3946	-10.487082	0.000038	0.384795	0.065186	0.000770
  42	2.0500e-02	0.4063	-10.452017	0.000351	3.505912	0.593918	0.007013
  43	2.1000e-02	0.4156	-10.421228	0.000308	3.078362	0.521489	0.006158
  44	2.1500e-02	0.4268	-10.407544	0.000137	1.368161	0.231773	0.002737
  45	2.2000e-02	0.4373	-10.384452	0.000231	2.308771	0.391116	0.004618
  46	2.2500e-02	0.4474	-10.352808	0.000316	3.163872	0.535974	0.006329
  47	2.3000e-02	0.4535	-10.322447	0.000304	3.035607	0.514246	0.006072
  48	2.3500e-02	0.4691	-10.309618	0.000128	1.282651	0.217287	0.002566
  49	2.4000e-02	0.4764	-10.265572	0.000440	4.403768	0.746018	0.008809
  50	2.4500e-02	0.4870	-10.239915	0.000257	2.565301	0.434574	0.005132
  51	2.5000e-02	0.4973	-10.220244	0.000197	1.966731	0.333173	0.003934
  52	2.5500e-02	0.5061	-10.188172	0.000321	3.206627	0.543217	0.006414
  53	2.6000e-02	0.5171	-10.162087	0.000261	2.608057	0.441817	0.005217
  54	2.6500e-02	0.5267	-10.130015	0.000321	3.206627	0.543217	0.006414
  55	2.7000e-02	0.5350	-10.091956	0.000381	3.805197	0.644618	0.007612
  56	2.7500e-02	0.5497	-10.085542	0.000064	0.641325	0.108643	0.001283
  57	2.8000e-02	0.5569	-10.077417	0.000081	0.812345	0.137615	0.001625
  58	2.8500e-02	0.5659	-10.054753	0.000227	2.266016	0.383874	0.004533
  59	2.9000e-02	0.5759	-10.007287	0.000475	4.745808	0.803962	0.009493
  60	2.9500e-02	0.5867	-9.990609	0.000167	1.667446	0.282473	0.003335
  61	3.0000e-02	0.5955	-9.962814	0.000278	2.779077	0.470788	0.005559
  62	3.0500e-02	0.6050	-9.944426	0.000184	1.838466	0.311445	0.003678
  63	3.1000e-02	0.6149	-9.888407	0.000560	5.600908	0.948820	0.011204
  64	3.1500e-02	0.6272	-9.867881	0.000205	2.052241	0.347659	0.004105
  65	3.2000e-02	0.6384	-9.866170	0.000017	0.171020	0.028972	0.000342
  66	3.2500e-02	0.6470	-9.821697	0.000445	4.446523	0.753261	0.008895
  67	3.3000e-02	0.6580	-9.785777	0.000359	3.591422	0.608403	0.007184
  68	3.3500e-02	0.6657	-9.778935	0.000068	0.684080	0.115886	0.001368
  69	3.4000e-02	0.6754	-9.751139	0.000278	2.779077	0.470788	0.005559
  70	3.4500e-02	0.6847	-9.725909	0.000252	2.522546	0.427331	0.005046
  71	3.5000e-02	0.6940	-9.692127	0.000338	3.377647	0.572189	0.006756
  72	3.5500e-02	0.7029	-9.671173	0.000209	2.094996	0.354902	0.004191
  73	3.6000e-02	0.7167	-9.614299	0.000569	5.686418	0.963305	0.011375
  74	3.6500e-02	0.7268	-9.609168	0.000051	0.513060	0.086915	0.001026
  75	3.7000e-02	0.7365	-9.589924	0.000192	1.923976	0.325930	0.003849
  76	3.7500e-02	0.7470	-9.555287	0.000346	3.463157	0.586675	0.006928
  77	3.8000e-02	0.7559	-9.546307	0.000090	0.897856	0.152101	0.001796
  78	3.8500e-02	0.7671	-9.527063	0.000192	1.923976	0.325930	0.003849
  79	3.9000e-02	0.7757	-9.468906	0.000581	5.814683	0.985034	0.011631
  80	3.9500e-02	0.7875	-9.448380	0.000205	2.052241	0.347659	0.004105
  81	4.0000e-02	0.7967	-9.435979	0.000124	1.239896	0.210044	0.002480
  82	4.0500e-02	0.8066	-9.399204	0.000368	3.676932	0.622889	0.007355
  83	4.1000e-02	0.8209	-9.368415	0.000308	3.078362	0.521489	0.006158
  84	4.1500e-02	0.8279	-9.359007	0.000094	0.940611	0.159344	0.001882
  85	4.2000e-02	0.8362	-9.309830	0.000492	4.916828	0.832933	0.009835
  86	4.2500e-02	0.8450	-9.313251	-0.000034	-0.342040	-0.057943	-0.000684
  87	4.3000e-02	0.8555	-9.279896	0.000333	3.334892	0.564946	0.006671
  88	4.3500e-02	0.8690	-9.259370	0.000205	2.052241	0.347659	0.004105
  89	4.4000e-02	0.8770	-9.248679	0.000107	1.068876	0.181072	0.002138
  90	4.4500e-02	0.8850	-9.181115	0.000676	6.755294	1.144378	0.013513
  91	4.5000e-02	0.8972	-9.169569	0.000115	1.154386	0.195558	0.002309
  92	4.5500e-02	0.9060	-9.135359	0.000342	3.420402	0.579432	0.006842
  93	4.6000e-02	0.9155	-9.122530	0.000128	1.282651	0.217287	0.002566
  94	4.6500e-02	0.9260	-9.096017	0.000265	2.650812	0.449060	0.005303
  95	4.7000e-02	0.9370	-9.049406	0.000466	4.660298	0.789476	0.009322
  96	4.7500e-02	0.9450	-9.043419	0.000060	0.598570	0.101401	0.001197
  97	4.8000e-02	0.9570	-9.029308	0.000141	1.410916	0.239016	0.002822
  98	4.8500e-02	0.9670	-8.983979	0.000453	4.532033	0.767747	0.009066
  99	4.9000e-02	0.9772	-8.972006	0.000120	1.197141	0.202801	0.002395
 100	4.9500e-02	0.9878	-8.926250	0.000457	4.574788	0.774990	0.009151
 101	5.0000e-02	0.9960	-8.879211	0.000470	4.703053	0.796719	0.009408
 102	5.0500e-02	1.0059	-8.877073	0.000021	0.213775	0.036214	0.000428
 103	5.1000e-02	1.0170	-8.869376	0.000077	0.769590	0.130372	0.001539
 104	5.1500e-02	1.0275	-8.831317	0.000381	3.805197	0.644618	0.007612
 105	5.2000e-02	1.0374	-8.805232	0.000261	2.608057	0.441817	0.005217
 106	5.2500e-02	1.0496	-8.762042	0.000432	4.318258	0.731533	0.008638
 107	5.3000e-02	1.0559	-8.742799	0.000192	1.923976	0.325930	0.003849
 108	5.3500e-02	1.0664	-8.725694	0.000171	1.710201	0.289716	0.003421
 109	5.4000e-02	1.0748	-8.711582	0.000141	1.410916	0.239016	0.002822
 110	5.4500e-02	1.0873	-8.672241	0.000393	3.933462	0.666347	0.007868
 111	5.5000e-02	1.0983	-8.659412	0.000128	1.282651	0.217287	0.002566
 112	5.5500e-02	1.1075	-8.642307	0.000171	1.710201	0.289716	0.003421
 113	5.6000e-02	1.1182	-8.602965	0.000393	3.933462	0.666347	0.007868
 114	5.6500e-02	1.1279	-8.574742	0.000282	2.821832	0.478031	0.005645
 115	5.7000e-02	1.1364	-8.538394	0.000363	3.634177	0.615646	0.007270
 116	5.7500e-02	1.1462	-8.535828	0.000026	0.256530	0.043457	0.000513
 117	5.8000e-02	1.1584	-8.491783	0.000440	4.403768	0.746018	0.008809
 118	5.8500e-02	1.1673	-8.456290	0.000355	3.548667	0.601160	0.007099
 119	5.9000e-02	1.1755	-8.432770	0.000235	2.351526	0.398359	0.004704
 120	5.9500e-02	1.1868	-8.411817	0.000209	2.094996	0.354902	0.004191
 121	6.0000e-02	1.1967	-8.389153	0.000227	2.266016	0.383874	0.004533
 122	6.0500e-02	1.2077	-8.361357	0.000278	2.779077	0.470788	0.005559
 123	6.1000e-02	1.2169	-8.342114	0.000192	1.923976	0.325930	0.003849
 124	6.1500e-02	1.2274	-8.322871	0.000192	1.923976	0.325930	0.003849
 125	6.2000e-02	1.2399	-8.288233	0.000346	3.463157	0.586675	0.006928
 126	6.2500e-02	1.2482	-8.268562	0.000197	1.966731	0.333173	0.003934
 127	6.3000e-02	1.2548	-8.249747	0.000188	1.881221	0.318687	0.003763
 128	6.3500e-02	1.2675	-8.236063	0.000137	1.368161	0.231773	0.002737
 129	6.4000e-02	1.2764	-8.166360	0.000697	6.969069	1.180592	0.013941
 130	6.4500e-02	1.2870	-8.145834	0.000205	2.052241	0.347659	0.004105
 131	6.5000e-02	1.2979	-8.123170	0.000227	2.266016	0.383874	0.004533
 132	6.5500e-02	1.3050	-8.103071	0.000201	2.009486	0.340416	0.004020
 133	6.6000e-02	1.3170	-8.087677	0.000154	1.539181	0.260744	0.003079
 134	6.6500e-02	1.3252	-8.044059	0.000436	4.361013	0.738776	0.008724
 135	6.7000e-02	1.3364	-8.041921	0.000021	0.213775	0.036214	0.000428
 136	6.7500e-02	1.3460	-7.995310	0.000466	4.660298	0.789476	0.009322
 137	6.8000e-02	1.3582	-7.983764	0.000115	1.154386	0.195558	0.002309
 138	6.8500e-02	1.3644	-7.961527	0.000222	2.223261	0.376631	0.004447
 139	6.9000e-02	1.3745	-7.923896	0.000376	3.762442	0.637375	0.007526
 140	6.9500e-02	1.3861	-7.905081	0.000188	1.881221	0.318687	0.003763
 141	7.0000e-02	1.3966	-7.874719	0.000304	3.035607	0.514246	0.006072
 142	7.0500e-02	1.4087	-7.855049	0.000197	1.966731	0.333173	0.003934
 143	7.1000e-02	1.4153	-7.825115	0.000299	2.992852	0.507003	0.005987
 144	7.1500e-02	1.4276	-7.792188	0.000329	3.292137	0.557703	0.006585
 145	7.2000e-02	1.4330	-7.767385	0.000248	2.479791	0.420088	0.004960
 146	7.2500e-02	1.4484	-7.762254	0.000051	0.513060	0.086915	0.001026
 147	7.3000e-02	1.4563	-7.719919	0.000423	4.232747	0.717047	0.008467
 148	7.3500e-02	1.4685	-7.700248	0.000197	1.966731	0.333173	0.003934
 149	7.4000e-02	1.4767	-7.679295	0.000209	2.094996	0.354902	0.004191
 150	7.4500e-02	1.4859	-7.645512	0.000338	3.377647	0.572189	0.006756
 151	7.5000e-02	1.4978	-7.626697	0.000188	1.881221	0.318687	0.003763
 152	7.5500e-02	1.5070	-7.594625	0.000321	3.206627	0.543217	0.006414
 153	7.6000e-02	1.5153	-7.569395	0.000252	2.522546	0.427331	0.005046
 154	7.6500e-02	1.5269	-7.542882	0.000265	2.650812	0.449060	0.005303
 155	7.7000e-02	1.5387	-7.534757	0.000081	0.812345	0.137615	0.001625
 156	7.7500e-02	1.5453	-7.506106	0.000286	2.864587	0.485274	0.005730
 157	7.8000e-02	1.5596	-7.457785	0.000483	4.831318	0.818447	0.009664
 158	7.8500e-02	1.5651	-7.439397	0.000184	1.838466	0.311445	0.003678
 159	7.9000e-02	1.5775	-7.450943	-0.000115	-1.154386	-0.195558	-0.002309
 160	7.9500e-02	1.5872	-7.388082	0.000628	6.284989	1.064706	0.012572
 161	8.0000e-02	1.6000	-7.350023	0.000381	3.805197	0.644618	0.007612
 162	8.0500e-02	1.6054	-7.340615	0.000094	0.940611	0.159344	0.001882
 163	8.1000e-02	1.6158	-7.304267	0.000363	3.634177	0.615646	0.007270
 164	8.1500e-02	1.6277	-7.298281	0.000060	0.598570	0.101401	0.001197
 165	8.2000e-02	1.6345	-7.283314	0.000150	1.496426	0.253501	0.002993
 166	8.2500e-02	1.6476	-7.241834	0.000415	4.147237	0.702561	0.008296
 167	8.3000e-02	1.6605	-7.205486	0.000363	3.634177	0.615646	0.007270
 168	8.3500e-02	1.6650	-7.180256	0.000252	2.522546	0.427331	0.005046
 169	8.4000e-02	1.6769	-7.157164	0.000231	2.308771	0.391116	0.004618
 170	8.4500e-02	1.6848	-7.137493	0.000197	1.966731	0.333173	0.003934
 171	8.5000e-02	1.6985	-7.109270	0.000282	2.821832	0.478031	0.005645
 172	8.5500e-02	1.7055	-7.076771	0.000325	3.249382	0.550460	0.006500
 173	8.6000e-02	1.7148	-7.051113	0.000257	2.565301	0.434574	0.005132
 174	8.6500e-02	1.7268	-7.014337	0.000368	3.676932	0.622889	0.007355
 175	8.7000e-02	1.7345	-7.004930	0.000094	0.940611	0.159344	0.001882
 176	8.7500e-02	1.7468	-6.990390	0.000145	1.453671	0.246259	0.002908
 177	8.8000e-02	1.7572	-6.947628	0.000428	4.275502	0.724290	0.008553
 178	8.8500e-02	1.7640	-6.921115	0.000265	2.650812	0.449060	0.005303
 179	8.9000e-02	1.7757	-6.903582	0.000175	1.752956	0.296959	0.003507
 180	8.9500e-02	1.7845	-6.870655	0.000329	3.292137	0.557703	0.006585
 181	9.0000e-02	1.7971	-6.856544	0.000141	1.410916	0.239016	0.002822
 182	9.0500e-02	1.8067	-6.828748	0.000278	2.779077	0.470788	0.005559
 183	9.1000e-02	1.8171	-6.790262	0.000385	3.847952	0.651861	0.007697
 184	9.1500e-02	1.8237	-6.782137	0.000081	0.812345	0.137615	0.001625
 185	9.2000e-02	1.8341	-6.759045	0.000231	2.308771	0.391116	0.004618
 186	9.2500e-02	1.8463	-6.726118	0.000329	3.292137	0.557703	0.006585
 187	9.3000e-02	1.8562	-6.695757	0.000304	3.035607	0.514246	0.006072
 188	9.3500e-02	1.8675	-6.687204	0.000086	0.855100	0.144858	0.001711
 189	9.4000e-02	1.8775	-6.647007	0.000402	4.018972	0.680832	0.008039
 190	9.4500e-02	1.8855	-6.628619	0.000184	1.838466	0.311445	0.003678
 191	9.5000e-02	1.8983	-6.605955	0.000227	2.266016	0.383874	0.004533
 192	9.5500e-02	1.9051	-6.592271	0.000137	1.368161	0.231773	0.002737
 193	9.6000e-02	1.9144	-6.568324	0.000239	2.394281	0.405602	0.004789
 194	9.6500e-02	1.9269	-6.525134	0.000432	4.318258	0.731533	0.008638
 195	9.7000e-02	1.9370	-6.496056	0.000291	2.907342	0.492517	0.005816
 196	9.7500e-02	1.9452	-6.475102	0.000209	2.094996	0.354902	0.004191
 197	9.8000e-02	1.9564	-6.461418	0.000137	1.368161	0.231773	0.002737
 198	9.8500e-02	1.9685	-6.432767	0.000286	2.864587	0.485274	0.005730
 199	9.9000e-02	1.9779	-6.397274	0.000355	3.548667	0.601160	0.007099
 200	9.9500e-02	1.9855	-6.378886	0.000184	1.838466	0.311445	0.003678
 201	1.0000e-01	1.9950	-6.334841	0.000440	4.403768	0.746018	0.008809
 202	1.0050e-01	2.0062	-6.316453	0.000184	1.838466	0.311445	0.003678
 203	1.0100e-01	2.0163	-6.276684	0.000398	3.976217	0.673589	0.007954
 204	1.0150e-01	2.0282	-6.279677	-0.000030	-0.299285	-0.050700	-0.000599
 205	1.0200e-01	2.0349	-6.250599	0.000291	2.907342	0.492517	0.005816
 206	1.0250e-01	2.0470	-6.210402	0.000402	4.018972	0.680832	0.008039
 207	1.0300e-01	2.0543	-6.183461	0.000269	2.693567	0.456303	0.005388
 208	1.0350e-01	2.0670	-6.159514	0.000239	2.394281	0.405602	0.004789
 209	1.0400e-01	2.0747	-6.146258	0.000133	1.325406	0.224530	0.002651
 210	1.0450e-01	2.0874	-6.109055	0.000372	3.719687	0.630132	0.007441
 211	1.0500e-01	2.0990	-6.092377	0.000167	1.667446	0.282473	0.003335
 212	1.0550e-01	2.1051	-6.079549	0.000128	1.282651	0.217287	0.002566
 213	1.0600e-01	2.1179	-6.051325	0.000282	2.821832	0.478031	0.005645
 214	1.0650e-01	2.1268	-6.007280	0.000440	4.403768	0.746018	0.008809
 215	1.0700e-01	2.1375	-5.979484	0.000278	2.779077	0.470788	0.005559
 216	1.0750e-01	2.1448	-5.963662	0.000158	1.581936	0.267987	0.003164
 217	1.0800e-01	2.1570	-5.938432	0.000252	2.522546	0.427331	0.005046
 218	1.0850e-01	2.1652	-5.913630	0.000248	2.479791	0.420088	0.004960
 219	1.0900e-01	2.1785	-5.873433	0.000402	4.018972	0.680832	0.008039
 220	1.0950e-01	2.1863	-5.849059	0.000244	2.437036	0.412845	0.004875
 221	1.1000e-01	2.1953	-5.825967	0.000231	2.308771	0.391116	0.004618
 222	1.1050e-01	2.2066	-5.822118	0.000038	0.384795	0.065186	0.000770
 223	1.1100e-01	2.2182	-5.781494	0.000406	4.061727	0.688075	0.008125
 224	1.1150e-01	2.2270	-5.762678	0.000188	1.881221	0.318687	0.003763
 225	1.1200e-01	2.2366	-5.734027	0.000286	2.864587	0.485274	0.005730
 226	1.1250e-01	2.2458	-5.716067	0.000180	1.795711	0.304202	0.003592
 227	1.1300e-01	2.2561	-5.696824	0.000192	1.923976	0.325930	0.003849
 228	1.1350e-01	2.2667	-5.678436	0.000184	1.838466	0.311445	0.003678
 229	1.1400e-01	2.2768	-5.634391	0.000440	4.403768	0.746018	0.008809
 230	1.1450e-01	2.2887	-5.598898	0.000355	3.548667	0.601160	0.007099
 231	1.1500e-01	2.2947	-5.586497	0.000124	1.239896	0.210044	0.002480
 232	1.1550e-01	2.3060	-5.552287	0.000342	3.420402	0.579432	0.006842
 233	1.1600e-01	2.3178	-5.532188	0.000201	2.009486	0.340416	0.004020
 234	1.1650e-01	2.3267	-5.512090	0.000201	2.009486	0.340416	0.004020
 235	1.1700e-01	2.3380	-5.477880	0.000342	3.420402	0.579432	0.006842
 236	1.1750e-01	2.3490	-5.483011	-0.000051	-0.513060	-0.086915	-0.001026
 237	1.1800e-01	2.3602	-5.450084	0.000329	3.292137	0.557703	0.006585
 238	1.1850e-01	2.3700	-5.394493	0.000556	5.558153	0.941577	0.011118
 239	1.1900e-01	2.3788	-5.380381	0.000141	1.410916	0.239016	0.002822
 240	1.1950e-01	2.3853	-5.368408	0.000120	1.197141	0.202801	0.002395
 241	1.2000e-01	2.3949	-5.326073	0.000423	4.232747	0.717047	0.008467
 242	1.2050e-01	2.4049	-5.296567	0.000295	2.950097	0.499760	0.005901
 243	1.2100e-01	2.4178	-5.293573	0.000030	0.299285	0.050700	0.000599
 244	1.2150e-01	2.4255	-5.258936	0.000346	3.463157	0.586675	0.006928
 245	1.2200e-01	2.4367	-5.238410	0.000205	2.052241	0.347659	0.004105
 246	1.2250e-01	2.4487	-5.211469	0.000269	2.693567	0.456303	0.005388
 247	1.2300e-01	2.4548	-5.190943	0.000205	2.052241	0.347659	0.004105
 248	1.2350e-01	2.4660	-5.156306	0.000346	3.463157	0.586675	0.006928
 249	1.2400e-01	2.4780	-5.141339	0.000150	1.496426	0.253501	0.002993
 250	1.2450e-01	2.4899	-5.119957	0.000214	2.137751	0.362145	0.004276
 251	1.2500e-01	2.4961	-5.084465	0.000355	3.548667	0.601160	0.007099
 252	1.2550e-01	2.5064	-5.047261	0.000372	3.719687	0.630132	0.007441
 253	1.2600e-01	2.5165	-5.044268	0.000030	0.299285	0.050700	0.000599
 254	1.2650e-01	2.5272	-5.033149	0.000111	1.111631	0.188315	0.002224
 255	1.2700e-01	2.5357	-4.982262	0.000509	5.087848	0.861905	0.010177
 256	1.2750e-01	2.5472	-4.966012	0.000162	1.624691	0.275230	0.003250
 257	1.2800e-01	2.5564	-4.935223	0.000308	3.078362	0.521489	0.006158
 258	1.2850e-01	2.5642	-4.899303	0.000359	3.591422	0.608403	0.007184
 259	1.2900e-01	2.5766	-4.887757	0.000115	1.154386	0.195558	0.002309
 260	1.2950e-01	2.5834	-4.863382	0.000244	2.437036	0.412845	0.004875
 261	1.3000e-01	2.5947	-4.833021	0.000304	3.035607	0.514246	0.006072
 262	1.3050e-01	2.6053	-4.795817	0.000372	3.719687	0.630132	0.007441
 263	1.3100e-01	2.6196	-4.787693	0.000081	0.812345	0.137615	0.001625
 264	1.3150e-01	2.6270	-4.751344	0.000363	3.634177	0.615646	0.007270
 265	1.3200e-01	2.6357	-4.729108	0.000222	2.223261	0.376631	0.004447
 266	1.3250e-01	2.6472	-4.722694	0.000064	0.641325	0.108643	0.001283
 267	1.3300e-01	2.6599	-4.694043	0.000286	2.864587	0.485274	0.005730
 268	1.3350e-01	2.6675	-4.658550	0.000355	3.548667	0.601160	0.007099
 269	1.3400e-01	2.6771	-4.629899	0.000286	2.864587	0.485274	0.005730
 270	1.3450e-01	2.6851	-4.617498	0.000124	1.239896	0.210044	0.002480
 271	1.3500e-01	2.6950	-4.582860	0.000346	3.463157	0.586675	0.006928
 272	1.3550e-01	2.7067	-4.553782	0.000291	2.907342	0.492517	0.005816
 273	1.3600e-01	2.7173	-4.508026	0.000457	4.574788	0.774990	0.009151
 274	1.3650e-01	2.7264	-4.505888	0.000021	0.213775	0.036214	0.000428
 275	1.3700e-01	2.7376	-4.480230	0.000257	2.565301	0.434574	0.005132
 276	1.3750e-01	2.7493	-4.472105	0.000081	0.812345	0.137615	0.001625
 277	1.3800e-01	2.7542	-4.434474	0.000376	3.762442	0.637375	0.007526
 278	1.3850e-01	2.7676	-4.415231	0.000192	1.923976	0.325930	0.003849
 279	1.3900e-01	2.7750	-4.374607	0.000406	4.061727	0.688075	0.008125
 280	1.3950e-01	2.7902	-4.376317	-0.000017	-0.171020	-0.028972	-0.000342
 281	1.4000e-01	2.7968	-4.339969	0.000363	3.634177	0.615646	0.007270
 282	1.4050e-01	2.8076	-4.310035	0.000299	2.992852	0.507003	0.005987
 283	1.4100e-01	2.8174	-4.273687	0.000363	3.634177	0.615646	0.007270
 284	1.4150e-01	2.8252	-4.258720	0.000150	1.496426	0.253501	0.002993
 285	1.4200e-01	2.8366	-4.241187	0.000175	1.752956	0.296959	0.003507
 286	1.4250e-01	2.8473	-4.216813	0.000244	2.437036	0.412845	0.004875
 287	1.4300e-01	2.8569	-4.202274	0.000145	1.453671	0.246259	0.002908
 288	1.4350e-01	2.8645	-4.168919	0.000333	3.334892	0.564946	0.006671
 289	1.4400e-01	2.8734	-4.126156	0.000428	4.275502	0.724290	0.008553
 290	1.4450e-01	2.8841	-4.112045	0.000141	1.410916	0.239016	0.002822
 291	1.4500e-01	2.8983	-4.093229	0.000188	1.881221	0.318687	0.003763
 292	1.4550e-01	2.9084	-4.059447	0.000338	3.377647	0.572189	0.006756
 293	1.4600e-01	2.9167	-4.022671	0.000368	3.676932	0.622889	0.007355
 294	1.4650e-01	2.9260	-4.025237	-0.000026	-0.256530	-0.043457	-0.000513
 295	1.4700e-01	2.9385	-4.000434	0.000248	2.479791	0.420088	0.004960
 296	1.4750e-01	2.9468	-3.964942	0.000355	3.548667	0.601160	0.007099
 297	1.4800e-01	2.9550	-3.950402	0.000145	1.453671	0.246259	0.002908
 298	1.4850e-01	2.9675	-3.906357	0.000440	4.403768	0.746018	0.008809
 299	1.4900e-01	2.9773	-3.894811	0.000115	1.154386	0.195558	0.002309
 300	1.4950e-01	2.9858	-3.869153	0.000257	2.565301	0.434574	0.005132
 301	1.5000e-01	2.9977	-3.847772	0.000214	2.137751	0.362145	0.004276
 302	1.5050e-01	3.0060	-3.816128	0.000316	3.163872	0.535974	0.006329
 303	1.5100e-01	3.0145	-3.796030	0.000201	2.009486	0.340416	0.004020
 304	1.5150e-01	3.0261	-3.773793	0.000222	2.223261	0.376631	0.004447
 305	1.5200e-01	3.0377	-3.722050	0.000517	5.173358	0.876391	0.010349
 306	1.5250e-01	3.0452	-3.701524	0.000205	2.052241	0.347659	0.004105
 307	1.5300e-01	3.0559	-3.663893	0.000376	3.762442	0.637375	0.007526
 308	1.5350e-01	3.0664	-3.642512	0.000214	2.137751	0.362145	0.004276
 309	1.5400e-01	3.0783	-3.639946	0.000026	0.256530	0.043457	0.000513
 310	1.5450e-01	3.0865	-3.627118	0.000128	1.282651	0.217287	0.002566
 311	1.5500e-01	3.0951	-3.595473	0.000316	3.163872	0.535974	0.006329
 312	1.5550e-01	3.1079	-3.564684	0.000308	3.078362	0.521489	0.006158
 313	1.5600e-01	3.1161	-3.548435	0.000162	1.624691	0.275230	0.003250
 314	1.5650e-01	3.1268	-3.521067	0.000274	2.736322	0.463545	0.005474
 315	1.5700e-01	3.1355	-3.501396	0.000197	1.966731	0.333173	0.003934
 316	1.5750e-01	3.1451	-3.465048	0.000363	3.634177	0.615646	0.007270
 317	1.5800e-01	3.1575	-3.450936	0.000141	1.410916	0.239016	0.002822
 318	1.5850e-01	3.1677	-3.418009	0.000329	3.292137	0.557703	0.006585
 319	1.5900e-01	3.1750	-3.393207	0.000248	2.479791	0.420088	0.004960
 320	1.5950e-01	3.1854	-3.374391	0.000188	1.881221	0.318687	0.003763
 321	1.6000e-01	3.1973	-3.340181	0.000342	3.420402	0.579432	0.006842
 322	1.6050e-01	3.2069	-3.334622	0.000056	0.555815	0.094158	0.001112
 323	1.6100e-01	3.2181	-3.285873	0.000487	4.874073	0.825690	0.009750
 324	1.6150e-01	3.2275	-3.281169	0.000047	0.470305	0.079672	0.000941
 325	1.6200e-01	3.2397	-3.249952	0.000312	3.121117	0.528732	0.006243
 326	1.6250e-01	3.2468	-3.214459	0.000355	3.548667	0.601160	0.007099
 327	1.6300e-01	3.2552	-3.196927	0.000175	1.752956	0.296959	0.003507
 328	1.6350e-01	3.2654	-3.169131	0.000278	2.779077	0.470788	0.005559
 329	1.6400e-01	3.2785	-3.149460	0.000197	1.966731	0.333173	0.003934
 330	1.6450e-01	3.2855	-3.131500	0.000180	1.795711	0.304202	0.003592
 331	1.6500e-01	3.2965	-3.095152	0.000363	3.634177	0.615646	0.007270
 332	1.6550e-01	3.3055	-3.057521	0.000376	3.762442	0.637375	0.007526
 333	1.6600e-01	3.3168	-3.060942	-0.000034	-0.342040	-0.057943	-0.000684
 334	1.6650e-01	3.3269	-3.019462	0.000415	4.147237	0.702561	0.008296
 335	1.6700e-01	3.3360	-2.995943	0.000235	2.351526	0.398359	0.004704
 336	1.6750e-01	3.3463	-2.975844	0.000201	2.009486	0.340416	0.004020
 337	1.6800e-01	3.3569	-2.954035	0.000218	2.180506	0.369388	0.004362
 338	1.6850e-01	3.3652	-2.915121	0.000389	3.890707	0.659104	0.007783
 339	1.6900e-01	3.3762	-2.905714	0.000094	0.940611	0.159344	0.001882
 340	1.6950e-01	3.3875	-2.875780	0.000299	2.992852	0.507003	0.005987
 341	1.7000e-01	3.3987	-2.848412	0.000274	2.736322	0.463545	0.005474
 342	1.7050e-01	3.4105	-2.832162	0.000162	1.624691	0.275230	0.003250
 343	1.7100e-01	3.4186	-2.799235	0.000329	3.292137	0.557703	0.006585
 344	1.7150e-01	3.4268	-2.798807	0.000004	0.042755	0.007243	0.000086
 345	1.7200e-01	3.4357	-2.748775	0.000500	5.002338	0.847419	0.010006
 346	1.7250e-01	3.4451	-2.732953	0.000158	1.581936	0.267987	0.003164
 347	1.7300e-01	3.4549	-2.696605	0.000363	3.634177	0.615646	0.007270
 348	1.7350e-01	3.4680	-2.682066	0.000145	1.453671	0.246259	0.002908
 349	1.7400e-01	3.4753	-2.661967	0.000201	2.009486	0.340416	0.004020
 350	1.7450e-01	3.4863	-2.658546	0.000034	0.342040	0.057943	0.000684
 351	1.7500e-01	3.4979	-2.617922	0.000406	4.061727	0.688075	0.008125
 352	1.7550e-01	3.5065	-2.581146	0.000368	3.676932	0.622889	0.007355
 353	1.7600e-01	3.5172	-2.549074	0.000321	3.206627	0.543217	0.006414
 354	1.7650e-01	3.5254	-2.530686	0.000184	1.838466	0.311445	0.003678
 355	1.7700e-01	3.5349	-2.523844	0.000068	0.684080	0.115886	0.001368
 356	1.7750e-01	3.5449	-2.487069	0.000368	3.676932	0.622889	0.007355
 357	1.7800e-01	3.5561	-2.472957	0.000141	1.410916	0.239016	0.002822
 358	1.7850e-01	3.5664	-2.436609	0.000363	3.634177	0.615646	0.007270
 359	1.7900e-01	3.5767	-2.405820	0.000308	3.078362	0.521489	0.006158
 360	1.7950e-01	3.5864	-2.389998	0.000158	1.581936	0.267987	0.003164
 361	1.8000e-01	3.5941	-2.354077	0.000359	3.591422	0.608403	0.007184
 362	1.8050e-01	3.6096	-2.351939	0.000021	0.213775	0.036214	0.000428
 363	1.8100e-01	3.6154	-2.315163	0.000368	3.676932	0.622889	0.007355
 364	1.8150e-01	3.6265	-2.298913	0.000162	1.624691	0.275230	0.003250
 365	1.8200e-01	3.6354	-2.280526	0.000184	1.838466	0.311445	0.003678
 366	1.8250e-01	3.6475	-2.266842	0.000137	1.368161	0.231773	0.002737
 367	1.8300e-01	3.6569	-2.207402	0.000594	5.942948	1.006763	0.011888
 368	1.8350e-01	3.6659	-2.200132	0.000073	0.726835	0.123129	0.001454
 369	1.8400e-01	3.6769	-2.174047	0.000261	2.608057	0.441817	0.005217
 370	1.8450e-01	3.6847	-2.130429	0.000436	4.361013	0.738776	0.008724
 371	1.8500e-01	3.6964	-2.151383	-0.000209	-2.094996	-0.354902	-0.004191
 372	1.8550e-01	3.7079	-2.099640	0.000517	5.173358	0.876391	0.010349
 373	1.8600e-01	3.7170	-2.086811	0.000128	1.282651	0.217287	0.002566
 374	1.8650e-01	3.7272	-2.064147	0.000227	2.266016	0.383874	0.004533
 375	1.8700e-01	3.7350	-2.019247	0.000449	4.489278	0.760504	0.008980
 376	1.8750e-01	3.7448	-2.000431	0.000188	1.881221	0.318687	0.003763
 377	1.8800e-01	3.7578	-1.961090	0.000393	3.933462	0.666347	0.007868
 378	1.8850e-01	3.7671	-1.946123	0.000150	1.496426	0.253501	0.002993
 379	1.8900e-01	3.7753	-1.924314	0.000218	2.180506	0.369388	0.004362
 380	1.8950e-01	3.7866	-1.935432	-0.000111	-1.111631	-0.188315	-0.002224
 381	1.9000e-01	3.8008	-1.895235	0.000402	4.018972	0.680832	0.008039
 382	1.9050e-01	3.8062	-1.870433	0.000248	2.479791	0.420088	0.004960
 383	1.9100e-01	3.8181	-1.816980	0.000534	5.344378	0.905362	0.010691
 384	1.9150e-01	3.8271	-1.816552	0.000004	0.042755	0.007243	0.000086
 385	1.9200e-01	3.8351	-1.764810	0.000517	5.173358	0.876391	0.010349
 386	1.9250e-01	3.8464	-1.763527	0.000013	0.128265	0.021729	0.000257
 387	1.9300e-01	3.8541	-1.741290	0.000222	2.223261	0.376631	0.004447
 388	1.9350e-01	3.8672	-1.709218	0.000321	3.206627	0.543217	0.006414
 389	1.9400e-01	3.8776	-1.699810	0.000094	0.940611	0.159344	0.001882
 390	1.9450e-01	3.8867	-1.673298	0.000265	2.650812	0.449060	0.005303
 391	1.9500e-01	3.8954	-1.638232	0.000351	3.505912	0.593918	0.007013
 392	1.9550e-01	3.9081	-1.628397	0.000098	0.983366	0.166587	0.001967
 393	1.9600e-01	3.9163	-1.581786	0.000466	4.660298	0.789476	0.009322
 394	1.9650e-01	3.9278	-1.558694	0.000231	2.308771	0.391116	0.004618
 395	1.9700e-01	3.9386	-1.527477	0.000312	3.121117	0.528732	0.006243
 396	1.9750e-01	3.9462	-1.525767	0.000017	0.171020	0.028972	0.000342
 397	1.9800e-01	3.9540	-1.494550	0.000312	3.121117	0.528732	0.006243
 398	1.9850e-01	3.9661	-1.482149	0.000124	1.239896	0.210044	0.002480
 399	1.9900e-01	3.9783	-1.444518	0.000376	3.762442	0.637375	0.007526
 400	1.9950e-01	3.9864	-1.439814	0.000047	0.470305	0.079672	0.000941
 401	2.0000e-01	3.9964	-1.416295	0.000235	2.351526	0.398359	0.004704
 402	2.0050e-01	4.0076	-1.380374	0.000359	3.591422	0.608403	0.007184
 403	2.0100e-01	4.0155	-1.356855	0.000235	2.351526	0.398359	0.004704
 404	2.0150e-01	4.0248	-1.326066	0.000308	3.078362	0.521489	0.006158
 405	2.0200e-01	4.0332	-1.293994	0.000321	3.206627	0.543217	0.006414
 406	2.0250e-01	4.0472	-1.266198	0.000278	2.779077	0.470788	0.005559
 407	2.0300e-01	4.0582	-1.273468	-0.000073	-0.726835	-0.123129	-0.001454
 408	2.0350e-01	4.0643	-1.234554	0.000389	3.890707	0.659104	0.007783
 409	2.0400e-01	4.0765	-1.232416	0.000021	0.213775	0.036214	0.000428
 410	2.0450e-01	4.0869	-1.193502	0.000389	3.890707	0.659104	0.007783
 411	2.0500e-01	4.0967	-1.175970	0.000175	1.752956	0.296959	0.003507
 412	2.0550e-01	4.1040	-1.140049	0.000359	3.591422	0.608403	0.007184
 413	2.0600e-01	4.1165	-1.121233	0.000188	1.881221	0.318687	0.003763
 414	2.0650e-01	4.1278	-1.081892	0.000393	3.933462	0.666347	0.007868
 415	2.0700e-01	4.1357	-1.076333	0.000056	0.555815	0.094158	0.001112
 416	2.0750e-01	4.1449	-1.040412	0.000359	3.591422	0.608403	0.007184
 417	2.0800e-01	4.1551	-1.020314	0.000201	2.009486	0.340416	0.004020
 418	2.0850e-01	4.1650	-0.995512	0.000248	2.479791	0.420088	0.004960
 419	2.0900e-01	4.1766	-0.967716	0.000278	2.779077	0.470788	0.005559
 420	2.0950e-01	4.1877	-0.938637	0.000291	2.907342	0.492517	0.005816
 421	2.1000e-01	4.1962	-0.936072	0.000026	0.256530	0.043457	0.000513
 422	2.1050e-01	4.2072	-0.899296	0.000368	3.676932	0.622889	0.007355
 423	2.1100e-01	4.2165	-0.861665	0.000376	3.762442	0.637375	0.007526
 424	2.1150e-01	4.2249	-0.844988	0.000167	1.667446	0.282473	0.003335
 425	2.1200e-01	4.2358	-0.823179	0.000218	2.180506	0.369388	0.004362
 426	2.1250e-01	4.2445	-0.788113	0.000351	3.505912	0.593918	0.007013
 427	2.1300e-01	4.2556	-0.787258	0.000009	0.085510	0.014486	0.000171
 428	2.1350e-01	4.2627	-0.744496	0.000428	4.275502	0.724290	0.008553
 429	2.1400e-01	4.2761	-0.738081	0.000064	0.641325	0.108643	0.001283
 430	2.1450e-01	4.2865	-0.710286	0.000278	2.779077	0.470788	0.005559
 431	2.1500e-01	4.2970	-0.700450	0.000098	0.983366	0.166587	0.001967
 432	2.1550e-01	4.3060	-0.669234	0.000312	3.121117	0.528732	0.006243
 433	2.1600e-01	4.3176	-0.631603	0.000376	3.762442	0.637375	0.007526
 434	2.1650e-01	4.3292	-0.616208	0.000154	1.539181	0.260744	0.003079
 435	2.1700e-01	4.3382	-0.591833	0.000244	2.437036	0.412845	0.004875
 436	2.1750e-01	4.3481	-0.578577	0.000133	1.325406	0.224530	0.002651
 437	2.1800e-01	4.3564	-0.537525	0.000410	4.104482	0.695318	0.008210
 438	2.1850e-01	4.3652	-0.513150	0.000244	2.437036	0.412845	0.004875
 439	2.1900e-01	4.3762	-0.490059	0.000231	2.308771	0.391116	0.004618
 440	2.1950e-01	4.3887	-0.462263	0.000278	2.779077	0.470788	0.005559
 441	2.2000e-01	4.3970	-0.452000	0.000103	1.026121	0.173830	0.002053
 442	2.2050e-01	4.4073	-0.421639	0.000304	3.035607	0.514246	0.006072
 443	2.2100e-01	4.4177	-0.415652	0.000060	0.598570	0.101401	0.001197
 444	2.2150e-01	4.4284	-0.375027	0.000406	4.061727	0.688075	0.008125
 445	2.2200e-01	4.4351	-0.363481	0.000115	1.154386	0.195558	0.002309
 446	2.2250e-01	4.4470	-0.323712	0.000398	3.976217	0.673589	0.007954
 447	2.2300e-01	4.4577	-0.297200	0.000265	2.650812	0.449060	0.005303
 448	2.2350e-01	4.4667	-0.275391	0.000218	2.180506	0.369388	0.004362
 449	2.2400e-01	4.4746	-0.245029	0.000304	3.035607	0.514246	0.006072
 450	2.2450e-01	4.4849	-0.236049	0.000090	0.897856	0.152101	0.001796
 451	2.2500e-01	4.4968	-0.233483	0.000026	0.256530	0.043457	0.000513
 452	2.2550e-01	4.5084	-0.165919	0.000676	6.755294	1.144378	0.013513
 453	2.2600e-01	4.5157	-0.168484	-0.000026	-0.256530	-0.043457	-0.000513
 454	2.2650e-01	4.5259	-0.138123	0.000304	3.035607	0.514246	0.006072
 455	2.2700e-01	4.5357	-0.121873	0.000162	1.624691	0.275230	0.003250
 456	2.2750e-01	4.5465	-0.100064	0.000218	2.180506	0.369388	0.004362
 457	2.2800e-01	4.5584	-0.077828	0.000222	2.223261	0.376631	0.004447
 458	2.2850e-01	4.5651	-0.047039	0.000308	3.078362	0.521489	0.006158
 459	2.2900e-01	4.5767	0.000000	0.000470	4.703053	0.796719	0.009408
 460	2.2950e-01	4.5880	0.004704	0.000047	0.470305	0.079672	0.000941
 461	2.3000e-01	4.5985	0.025658	0.000209	2.094996	0.354902	0.004191
 462	2.3050e-01	4.6069	0.069275	0.000436	4.361013	0.738776	0.008724
 463	2.3100e-01	4.6182	0.067992	-0.000013	-0.128265	-0.021729	-0.000257
 464	2.3150e-01	4.6271	0.075690	0.000077	0.769590	0.130372	0.001539
 465	2.3200e-01	4.6402	0.106479	0.000308	3.078362	0.521489	0.006158
 466	2.3250e-01	4.6484	0.145820	0.000393	3.933462	0.666347	0.007868
 467	2.3300e-01	4.6570	0.176182	0.000304	3.035607	0.514246	0.006072
 468	2.3350e-01	4.6664	0.183879	0.000077	0.769590	0.130372	0.001539
 469	2.3400e-01	4.6761	0.219799	0.000359	3.591422	0.608403	0.007184
 470	2.3450e-01	4.6887	0.218089	-0.000017	-0.171020	-0.028972	-0.000342
 471	2.3500e-01	4.6948	0.259141	0.000410	4.104482	0.695318	0.008210
 472	2.3550e-01	4.7064	0.282233	0.000231	2.308771	0.391116	0.004618
 473	2.3600e-01	4.7202	0.324568	0.000423	4.232747	0.717047	0.008467
 474	2.3650e-01	4.7260	0.321147	-0.000034	-0.342040	-0.057943	-0.000684
 475	2.3700e-01	4.7366	0.348087	0.000269	2.693567	0.456303	0.005388
 476	2.3750e-01	4.7456	0.394271	0.000462	4.617543	0.782233	0.009237
 477	2.3800e-01	4.7584	0.402395	0.000081	0.812345	0.137615	0.001625
 478	2.3850e-01	4.7650	0.423349	0.000209	2.094996	0.354902	0.004191
 479	2.3900e-01	4.7774	0.452428	0.000291	2.907342	0.492517	0.005816
 480	2.3950e-01	4.7852	0.461835	0.000094	0.940611	0.159344	0.001882
 481	2.4000e-01	4.7957	0.498611	0.000368	3.676932	0.622889	0.007355
 482	2.4050e-01	4.8077	0.522558	0.000239	2.394281	0.405602	0.004789
 483	2.4100e-01	4.8181	0.552064	0.000295	2.950097	0.499760	0.005901
 484	2.4150e-01	4.8267	0.553347	0.000013	0.128265	0.021729	0.000257
 485	2.4200e-01	4.8352	0.582426	0.000291	2.907342	0.492517	0.005816
 486	2.4250e-01	4.8450	0.602096	0.000197	1.966731	0.333173	0.003934
 487	2.4300e-01	4.8584	0.641866	0.000398	3.976217	0.673589	0.007954
 488	2.4350e-01	4.8674	0.654694	0.000128	1.282651	0.217287	0.002566
 489	2.4400e-01	4.8779	0.693608	0.000389	3.890707	0.659104	0.007783
 490	2.4450e-01	4.8865	0.699595	0.000060	0.598570	0.101401	0.001197
 491	2.4500e-01	4.8956	0.746206	0.000466	4.660298	0.789476	0.009322
 492	2.4550e-01	4.9049	0.765022	0.000188	1.881221	0.318687	0.003763
 493	2.4600e-01	4.9161	0.781699	0.000167	1.667446	0.282473	0.003335
 494	2.4650e-01	4.9249	0.780844	-0.000009	-0.085510	-0.014486	-0.000171
 495	2.4700e-01	4.9365	0.841139	0.000603	6.028459	1.021249	0.012059
 496	2.4750e-01	4.9487	0.852257	0.000111	1.111631	0.188315	0.002224
 497	2.4800e-01	4.9579	0.883474	0.000312	3.121117	0.528732	0.006243
 498	2.4850e-01	4.9664	0.896303	0.000128	1.282651	0.217287	0.002566
 499	2.4900e-01	4.9753	0.933078	0.000368	3.676932	0.622889	0.007355
 500	2.4950e-01	4.9867	0.936927	0.000038	0.384795	0.065186	0.000770
 501	2.5000e-01	4.9991	0.966005	0.000291	2.907342	0.492517	0.005816
 502	2.5050e-01	5.0081	0.987814	0.000218	2.180506	0.369388	0.004362
 503	2.5100e-01	5.0183	1.027584	0.000398	3.976217	0.673589	0.007954
 504	2.5150e-01	5.0272	1.048965	0.000214	2.137751	0.362145	0.004276
 505	2.5200e-01	5.0363	1.065642	0.000167	1.667446	0.282473	0.003335
 506	2.5250e-01	5.0470	1.053241	-0.000124	-1.239896	-0.210044	-0.002480
 507	2.5300e-01	5.0568	1.093438	0.000402	4.018972	0.680832	0.008039
 508	2.5350e-01	5.0690	1.123799	0.000304	3.035607	0.514246	0.006072
 509	2.5400e-01	5.0784	1.146463	0.000227	2.266016	0.383874	0.004533
 510	2.5450e-01	5.0891	1.181101	0.000346	3.463157	0.586675	0.006928
 511	2.5500e-01	5.0995	1.198634	0.000175	1.752956	0.296959	0.003507
 512	2.5550e-01	5.1074	1.219587	0.000209	2.094996	0.354902	0.004191
 513	2.5600e-01	5.1176	1.238403	0.000188	1.881221	0.318687	0.003763
 514	2.5650e-01	5.1282	1.265771	0.000274	2.736322	0.463545	0.005474
 515	2.5700e-01	5.1373	1.282448	0.000167	1.667446	0.282473	0.003335
 516	2.5750e-01	5.1479	1.306395	0.000239	2.394281	0.405602	0.004789
 517	2.5800e-01	5.1569	1.358565	0.000522	5.216113	0.883633	0.010434
 518	2.5850e-01	5.1662	1.356855	-0.000017	-0.171020	-0.028972	-0.000342
 519	2.5900e-01	5.1765	1.379092	0.000222	2.223261	0.376631	0.004447
 520	2.5950e-01	5.1868	1.402183	0.000231	2.308771	0.391116	0.004618
 521	2.6000e-01	5.1956	1.408170	0.000060	0.598570	0.101401	0.001197
 522	2.6050e-01	5.2066	1.434255	0.000261	2.608057	0.441817	0.005217
 523	2.6100e-01	5.2200	1.479583	0.000453	4.532033	0.767747	0.009066
 524	2.6150e-01	5.2264	1.497544	0.000180	1.795711	0.304202	0.003592
 525	2.6200e-01	5.2380	1.507379	0.000098	0.983366	0.166587	0.001967
 526	2.6250e-01	5.2461	1.545865	0.000385	3.847952	0.651861	0.007697
 527	2.6300e-01	5.2577	1.557411	0.000115	1.154386	0.195558	0.002309
 528	2.6350e-01	5.2661	1.579220	0.000218	2.180506	0.369388	0.004362
 529	2.6400e-01	5.2805	1.607871	0.000286	2.864587	0.485274	0.005730
 530	2.6450e-01	5.2893	1.640798	0.000329	3.292137	0.557703	0.006585
 531	2.6500e-01	5.2979	1.649778	0.000090	0.897856	0.152101	0.001796
 532	2.6550e-01	5.3075	1.665600	0.000158	1.581936	0.267987	0.003164
 533	2.6600e-01	5.3162	1.705370	0.000398	3.976217	0.673589	0.007954
 534	2.6650e-01	5.3287	1.730172	0.000248	2.479791	0.420088	0.004960
 535	2.6700e-01	5.3381	1.749843	0.000197	1.966731	0.333173	0.003934
 536	2.6750e-01	5.3474	1.757112	0.000073	0.726835	0.123129	0.001454
 537	2.6800e-01	5.3564	1.792605	0.000355	3.548667	0.601160	0.007099
 538	2.6850e-01	5.3665	1.827243	0.000346	3.463157	0.586675	0.006928
 539	2.6900e-01	5.3757	1.828098	0.000009	0.085510	0.014486	0.000171
 540	2.6950e-01	5.3843	1.859315	0.000312	3.121117	0.528732	0.006243
 541	2.7000e-01	5.3961	1.891814	0.000325	3.249382	0.550460	0.006500
 542	2.7050e-01	5.4089	1.919182	0.000274	2.736322	0.463545	0.005474
 543	2.7100e-01	5.4175	1.932866	0.000137	1.368161	0.231773	0.002737
 544	2.7150e-01	5.4272	1.949971	0.000171	1.710201	0.289716	0.003421
 545	2.7200e-01	5.4364	1.966649	0.000167	1.667446	0.282473	0.003335
 546	2.7250e-01	5.4453	1.992734	0.000261	2.608057	0.441817	0.005217
 547	2.7300e-01	5.4578	2.019674	0.000269	2.693567	0.456303	0.005388
 548	2.7350e-01	5.4681	2.025661	0.000060	0.598570	0.101401	0.001197
 549	2.7400e-01	5.4767	2.068851	0.000432	4.318258	0.731533	0.008638
 550	2.7450e-01	5.4871	2.108193	0.000393	3.933462	0.666347	0.007868
 551	2.7500e-01	5.4974	2.098357	-0.000098	-0.983366	-0.166587	-0.001967
 552	2.7550e-01	5.5074	2.147962	0.000496	4.959583	0.840176	0.009921
 553	2.7600e-01	5.5176	2.158225	0.000103	1.026121	0.173830	0.002053
 554	2.7650e-01	5.5246	2.188586	0.000304	3.035607	0.514246	0.006072
 555	2.7700e-01	5.5371	2.191152	0.000026	0.256530	0.043457	0.000513
 556	2.7750e-01	5.5489	2.223224	0.000321	3.206627	0.543217	0.006414
 557	2.7800e-01	5.5579	2.244605	0.000214	2.137751	0.362145	0.004276
 558	2.7850e-01	5.5666	2.268552	0.000239	2.394281	0.405602	0.004789
 559	2.7900e-01	5.5750	2.298486	0.000299	2.992852	0.507003	0.005987
 560	2.7950e-01	5.5872	2.300196	0.000017	0.171020	0.028972	0.000342
 561	2.8000e-01	5.5966	2.342959	0.000428	4.275502	0.724290	0.008553
 562	2.8050e-01	5.6076	2.363485	0.000205	2.052241	0.347659	0.004105
 563	2.8100e-01	5.6165	2.370755	0.000073	0.726835	0.123129	0.001454
 564	2.8150e-01	5.6256	2.385294	0.000145	1.453671	0.246259	0.002908
 565	2.8200e-01	5.6354	2.434471	0.000492	4.916828	0.832933	0.009835
 566	2.8250e-01	5.6464	2.459273	0.000248	2.479791	0.420088	0.004960
 567	2.8300e-01	5.6561	2.465687	0.000064	0.641325	0.108643	0.001283
 568	2.8350e-01	5.6677	2.489634	0.000239	2.394281	0.405602	0.004789
 569	2.8400e-01	5.6781	2.506739	0.000171	1.710201	0.289716	0.003421
 570	2.8450e-01	5.6860	2.525127	0.000184	1.838466	0.311445	0.003678
 571	2.8500e-01	5.6961	2.560620	0.000355	3.548667	0.601160	0.007099
 572	2.8550e-01	5.7063	2.581574	0.000209	2.094996	0.354902	0.004191
 573	2.8600e-01	5.7181	2.594830	0.000133	1.325406	0.224530	0.002651
 574	2.8650e-01	5.7266	2.649566	0.000547	5.472643	0.927091	0.010947
 575	2.8700e-01	5.7361	2.652560	0.000030	0.299285	0.050700	0.000599
 576	2.8750e-01	5.7440	2.660257	0.000077	0.769590	0.130372	0.001539
 577	2.8800e-01	5.7544	2.704730	0.000445	4.446523	0.753261	0.008895
 578	2.8850e-01	5.7648	2.718841	0.000141	1.410916	0.239016	0.002822
 579	2.8900e-01	5.7770	2.732953	0.000141	1.410916	0.239016	0.002822
 580	2.8950e-01	5.7861	2.760321	0.000274	2.736322	0.463545	0.005474
 581	2.9000e-01	5.7968	2.789400	0.000291	2.907342	0.492517	0.005816
 582	2.9050e-01	5.8063	2.827031	0.000376	3.762442	0.637375	0.007526
 583	2.9100e-01	5.8179	2.829169	0.000021	0.213775	0.036214	0.000428
 584	2.9150e-01	5.8264	2.852261	0.000231	2.308771	0.391116	0.004618
 585	2.9200e-01	5.8344	2.888609	0.000363	3.634177	0.615646	0.007270
 586	2.9250e-01	5.8484	2.926667	0.000381	3.805197	0.644618	0.007612
 587	2.9300e-01	5.8578	2.912128	-0.000145	-1.453671	-0.246259	-0.002908
 588	2.9350e-01	5.8649	2.965154	0.000530	5.301623	0.898119	0.010605
 589	2.9400e-01	5.8772	2.982259	0.000171	1.710201	0.289716	0.003421
 590	2.9450e-01	5.8846	3.008344	0.000261	2.608057	0.441817	0.005217
 591	2.9500e-01	5.8978	3.016041	0.000077	0.769590	0.130372	0.001539
 592	2.9550e-01	5.9073	3.044264	0.000282	2.821832	0.478031	0.005645
 593	2.9600e-01	5.9177	3.060942	0.000167	1.667446	0.282473	0.003335
 594	2.9650e-01	5.9259	3.081040	0.000201	2.009486	0.340416	0.004020
 595	2.9700e-01	5.9372	3.084889	0.000038	0.384795	0.065186	0.000770
 596	2.9750e-01	5.9473	3.138770	0.000539	5.387133	0.912605	0.010776
 597	2.9800e-01	5.9546	3.154592	0.000158	1.581936	0.267987	0.003164
 598	2.9850e-01	5.9674	3.167848	0.000133	1.325406	0.224530	0.002651
 599	2.9900e-01	5.9747	3.203341	0.000355	3.548667	0.601160	0.007099
 600	2.9950e-01	5.9860	3.224295	0.000209	2.094996	0.354902	0.004191
 601	3.0000e-01	5.9973	3.238406	0.000141	1.410916	0.239016	0.002822
 602	3.0050e-01	6.0071	3.278175	0.000398	3.976217	0.673589	0.007954
 603	3.0100e-01	6.0146	3.297846	0.000197	1.966731	0.333173	0.003934
 604	3.0150e-01	6.0260	3.314524	0.000167	1.667446	0.282473	0.003335
 605	3.0200e-01	6.0388	3.338043	0.000235	2.351526	0.398359	0.004704
 606	3.0250e-01	6.0468	3.349589	0.000115	1.154386	0.195558	0.002309
 607	3.0300e-01	6.0565	3.365839	0.000162	1.624691	0.275230	0.003250
 608	3.0350e-01	6.0657	3.397055	0.000312	3.121117	0.528732	0.006243
 609	3.0400e-01	6.0760	3.422285	0.000252	2.522546	0.427331	0.005046
 610	3.0450e-01	6.0889	3.423996	0.000017	0.171020	0.028972	0.000342
 611	3.0500e-01	6.0964	3.438962	0.000150	1.496426	0.253501	0.002993
 612	3.0550e-01	6.1063	3.476593	0.000376	3.762442	0.637375	0.007526
 613	3.0600e-01	6.1154	3.514652	0.000381	3.805197	0.644618	0.007612
 614	3.0650e-01	6.1267	3.531757	0.000171	1.710201	0.289716	0.003421
 615	3.0700e-01	6.1365	3.555704	0.000239	2.394281	0.405602	0.004789
 616	3.0750e-01	6.1456	3.583500	0.000278	2.779077	0.470788	0.005559
 617	3.0800e-01	6.1572	3.603598	0.000201	2.009486	0.340416	0.004020
 618	3.0850e-01	6.1670	3.624552	0.000209	2.094996	0.354902	0.004191
 619	3.0900e-01	6.1761	3.659189	0.000346	3.463157	0.586675	0.006928
 620	3.0950e-01	6.1859	3.677150	0.000180	1.795711	0.304202	0.003592
 621	3.1000e-01	6.1975	3.684847	0.000077	0.769590	0.130372	0.001539
 622	3.1050e-01	6.2073	3.703663	0.000188	1.881221	0.318687	0.003763
 623	3.1100e-01	6.2149	3.713926	0.000103	1.026121	0.173830	0.002053
 624	3.1150e-01	6.2262	3.749418	0.000355	3.548667	0.601160	0.007099
 625	3.1200e-01	6.2366	3.771655	0.000222	2.223261	0.376631	0.004447
 626	3.1250e-01	6.2458	3.799451	0.000278	2.779077	0.470788	0.005559
 627	3.1300e-01	6.2561	3.815273	0.000158	1.581936	0.267987	0.003164
 628	3.1350e-01	6.2677	3.833661	0.000184	1.838466	0.311445	0.003678
 629	3.1400e-01	6.2775	3.856752	0.000231	2.308771	0.391116	0.004618
 630	3.1450e-01	6.2878	3.872574	0.000158	1.581936	0.267987	0.003164
 631	3.1500e-01	6.2982	3.914482	0.000419	4.189992	0.709804	0.008381
 632	3.1550e-01	6.3092	3.895666	-0.000188	-1.881221	-0.318687	-0.003763
 633	3.1600e-01	6.3148	3.951685	0.000560	5.600908	0.948820	0.011204
 634	3.1650e-01	6.3269	3.965797	0.000141	1.410916	0.239016	0.002822
 635	3.1700e-01	6.3361	3.995731	0.000299	2.992852	0.507003	0.005987
 636	3.1750e-01	6.3470	4.020105	0.000244	2.437036	0.412845	0.004875
 637	3.1800e-01	6.3565	4.032079	0.000120	1.197141	0.202801	0.002395
 638	3.1850e-01	6.3644	4.074841	0.000428	4.275502	0.724290	0.008553
 639	3.1900e-01	6.3770	4.074414	-0.000004	-0.042755	-0.007243	-0.000086
 640	3.1950e-01	6.3873	4.119314	0.000449	4.489278	0.760504	0.008980
 641	3.2000e-01	6.3971	4.129577	0.000103	1.026121	0.173830	0.002053
 642	3.2050e-01	6.4063	4.124873	-0.000047	-0.470305	-0.079672	-0.000941
 643	3.2100e-01	6.4172	4.163787	0.000389	3.890707	0.659104	0.007783
 644	3.2150e-01	6.4252	4.192866	0.000291	2.907342	0.492517	0.005816
 645	3.2200e-01	6.4355	4.190728	-0.000021	-0.213775	-0.036214	-0.000428
 646	3.2250e-01	6.4450	4.210826	0.000201	2.009486	0.340416	0.004020
 647	3.2300e-01	6.4563	4.254871	0.000440	4.403768	0.746018	0.008809
 648	3.2350e-01	6.4679	4.261286	0.000064	0.641325	0.108643	0.001283
 649	3.2400e-01	6.4764	4.299345	0.000381	3.805197	0.644618	0.007612
 650	3.2450e-01	6.4850	4.321153	0.000218	2.180506	0.369388	0.004362
 651	3.2500e-01	6.4972	4.342535	0.000214	2.137751	0.362145	0.004276
 652	3.2550e-01	6.5045	4.348094	0.000056	0.555815	0.094158	0.001112
 653	3.2600e-01	6.5181	4.379310	0.000312	3.121117	0.528732	0.006243
 654	3.2650e-01	6.5265	4.407961	0.000286	2.864587	0.485274	0.005730
 655	3.2700e-01	6.5381	4.432336	0.000244	2.437036	0.412845	0.004875
 656	3.2750e-01	6.5479	4.437895	0.000056	0.555815	0.094158	0.001112
 657	3.2800e-01	6.5570	4.480230	0.000423	4.232747	0.717047	0.008467
 658	3.2850e-01	6.5656	4.496052	0.000158	1.581936	0.267987	0.003164
 659	3.2900e-01	6.5790	4.545657	0.000496	4.959583	0.840176	0.009921
 660	3.2950e-01	6.5851	4.535821	-0.000098	-0.983366	-0.166587	-0.001967
 661	3.3000e-01	6.5979	4.550361	0.000145	1.453671	0.246259	0.002908
 662	3.3050e-01	6.6048	4.590130	0.000398	3.976217	0.673589	0.007954
 663	3.3100e-01	6.6168	4.626478	0.000363	3.634177	0.615646	0.007270
 664	3.3150e-01	6.6261	4.640162	0.000137	1.368161	0.231773	0.002737
 665	3.3200e-01	6.6367	4.640162	0.000000	0.000000	0.000000	0.000000
 666	3.3250e-01	6.6461	4.673944	0.000338	3.377647	0.572189	0.006756
 667	3.3300e-01	6.6553	4.700885	0.000269	2.693567	0.456303	0.005388
 668	3.3350e-01	6.6670	4.715852	0.000150	1.496426	0.253501	0.002993
 669	3.3400e-01	6.6754	4.754338	0.000385	3.847952	0.651861	0.007697
 670	3.3450e-01	6.6870	4.757331	0.000030	0.299285	0.050700	0.000599
 671	3.3500e-01	6.6971	4.776147	0.000188	1.881221	0.318687	0.003763
 672	3.3550e-01	6.7072	4.805225	0.000291	2.907342	0.492517	0.005816
 673	3.3600e-01	6.7163	4.825751	0.000205	2.052241	0.347659	0.004105
 674	3.3650e-01	6.7242	4.840718	0.000150	1.496426	0.253501	0.002993
 675	3.3700e-01	6.7365	4.845422	0.000047	0.470305	0.079672	0.000941
 676	3.3750e-01	6.7474	4.895027	0.000496	4.959583	0.840176	0.009921
 677	3.3800e-01	6.7618	4.902296	0.000073	0.726835	0.123129	0.001454
 678	3.3850e-01	6.7670	4.946342	0.000440	4.403768	0.746018	0.008809
 679	3.3900e-01	6.7776	4.953184	0.000068	0.684080	0.115886	0.001368
 680	3.3950e-01	6.7860	4.980124	0.000269	2.693567	0.456303	0.005388
 681	3.4000e-01	6.8002	4.996801	0.000167	1.667446	0.282473	0.003335
 682	3.4050e-01	6.8066	5.026735	0.000299	2.992852	0.507003	0.005987
 683	3.4100e-01	6.8161	5.053248	0.000265	2.650812	0.449060	0.005303
 684	3.4150e-01	6.8250	5.069925	0.000167	1.667446	0.282473	0.003335
 685	3.4200e-01	6.8329	5.093017	0.000231	2.308771	0.391116	0.004618
 686	3.4250e-01	6.8472	5.090024	-0.000030	-0.299285	-0.050700	-0.000599
 687	3.4300e-01	6.8555	5.112688	0.000227	2.266016	0.383874	0.004533
 688	3.4350e-01	6.8665	5.153740	0.000410	4.104482	0.695318	0.008210
 689	3.4400e-01	6.8793	5.164003	0.000103	1.026121	0.173830	0.002053
 690	3.4450e-01	6.8875	5.193937	0.000299	2.992852	0.507003	0.005987
 691	3.4500e-01	6.8964	5.226008	0.000321	3.206627	0.543217	0.006414
 692	3.4550e-01	6.9104	5.219594	-0.000064	-0.641325	-0.108643	-0.001283
 693	3.4600e-01	6.9183	5.264495	0.000449	4.489278	0.760504	0.008980
 694	3.4650e-01	6.9246	5.280317	0.000158	1.581936	0.267987	0.003164
 695	3.4700e-01	6.9376	5.273475	-0.000068	-0.684080	-0.115886	-0.001368
 696	3.4750e-01	6.9440	5.311106	0.000376	3.762442	0.637375	0.007526
 697	3.4800e-01	6.9531	5.358145	0.000470	4.703053	0.796719	0.009408
 698	3.4850e-01	6.9675	5.372256	0.000141	1.410916	0.239016	0.002822
 699	3.4900e-01	6.9785	5.384230	0.000120	1.197141	0.202801	0.002395
 700	3.4950e-01	6.9894	5.403901	0.000197	1.966731	0.333173	0.003934
 701	3.5000e-01	6.9983	5.421006	0.000171	1.710201	0.289716	0.003421
 702	3.5050e-01	7.0090	5.459920	0.000389	3.890707	0.659104	0.007783
 703	3.5100e-01	7.0178	5.448801	-0.000111	-1.111631	-0.188315	-0.002224
 704	3.5150e-01	7.0282	5.491564	0.000428	4.275502	0.724290	0.008553
 705	3.5200e-01	7.0374	5.499689	0.000081	0.812345	0.137615	0.001625
 706	3.5250e-01	7.0459	5.534326	0.000346	3.463157	0.586675	0.006928
 707	3.5300e-01	7.0578	5.567681	0.000333	3.334892	0.564946	0.006671
 708	3.5350e-01	7.0679	5.578799	0.000111	1.111631	0.188315	0.002224
 709	3.5400e-01	7.0764	5.612154	0.000333	3.334892	0.564946	0.006671
 710	3.5450e-01	7.0868	5.622417	0.000103	1.026121	0.173830	0.002053
 711	3.5500e-01	7.0959	5.651496	0.000291	2.907342	0.492517	0.005816
 712	3.5550e-01	7.1045	5.658338	0.000068	0.684080	0.115886	0.001368
 713	3.5600e-01	7.1173	5.709225	0.000509	5.087848	0.861905	0.010177
 714	3.5650e-01	7.1265	5.703666	-0.000056	-0.555815	-0.094158	-0.001112
 715	3.5700e-01	7.1362	5.735738	0.000321	3.206627	0.543217	0.006414
 716	3.5750e-01	7.1472	5.747284	0.000115	1.154386	0.195558	0.002309
 717	3.5800e-01	7.1564	5.764389	0.000171	1.710201	0.289716	0.003421
 718	3.5850e-01	7.1689	5.796888	0.000325	3.249382	0.550460	0.006500
 719	3.5900e-01	7.1748	5.807579	0.000107	1.068876	0.181072	0.002138
 720	3.5950e-01	7.1884	5.850769	0.000432	4.318258	0.731533	0.008638
 721	3.6000e-01	7.1982	5.868729	0.000180	1.795711	0.304202	0.003592
 722	3.6050e-01	7.2073	5.870012	0.000013	0.128265	0.021729	0.000257
 723	3.6100e-01	7.2168	5.899946	0.000299	2.992852	0.507003	0.005987
 724	3.6150e-01	7.2260	5.926459	0.000265	2.650812	0.449060	0.005303
 725	3.6200e-01	7.2351	5.949978	0.000235	2.351526	0.398359	0.004704
 726	3.6250e-01	7.2479	5.990602	0.000406	4.061727	0.688075	0.008125
 727	3.6300e-01	7.2583	5.978629	-0.000120	-1.197141	-0.202801	-0.002395
 728	3.6350e-01	7.2675	5.994023	0.000154	1.539181	0.260744	0.003079
 729	3.6400e-01	7.2791	6.040207	0.000462	4.617543	0.782233	0.009237
 730	3.6450e-01	7.2859	6.045339	0.000051	0.513060	0.086915	0.001026
 731	3.6500e-01	7.2980	6.081259	0.000359	3.591422	0.608403	0.007184
 732	3.6550e-01	7.3050	6.085108	0.000038	0.384795	0.065186	0.000770
 733	3.6600e-01	7.3175	6.101785	0.000167	1.667446	0.282473	0.003335
 734	3.6650e-01	7.3267	6.127870	0.000261	2.608057	0.441817	0.005217
 735	3.6700e-01	7.3383	6.148396	0.000205	2.052241	0.347659	0.004105
 736	3.6750e-01	7.3468	6.168922	0.000205	2.052241	0.347659	0.004105
 737	3.6800e-01	7.3572	6.197573	0.000286	2.864587	0.485274	0.005730
 738	3.6850e-01	7.3657	6.217671	0.000201	2.009486	0.340416	0.004020
 739	3.6900e-01	7.3810	6.260862	0.000432	4.318258	0.731533	0.008638
 740	3.6950e-01	7.3871	6.260862	0.000000	0.000000	0.000000	0.000000
 741	3.7000e-01	7.3959	6.276256	0.000154	1.539181	0.260744	0.003079
 742	3.7050e-01	7.4060	6.308756	0.000325	3.249382	0.550460	0.006500
 743	3.7100e-01	7.4176	6.327144	0.000184	1.838466	0.311445	0.003678
 744	3.7150e-01	7.4274	6.343393	0.000162	1.624691	0.275230	0.003250
 745	3.7200e-01	7.4396	6.355367	0.000120	1.197141	0.202801	0.002395
 746	3.7250e-01	7.4457	6.387866	0.000325	3.249382	0.550460	0.006500
 747	3.7300e-01	7.4585	6.409675	0.000218	2.180506	0.369388	0.004362
 748	3.7350e-01	7.4664	6.422504	0.000128	1.282651	0.217287	0.002566
 749	3.7400e-01	7.4768	6.437043	0.000145	1.453671	0.246259	0.002908
 750	3.7450e-01	7.4869	6.456286	0.000192	1.923976	0.325930	0.003849
 751	3.7500e-01	7.4966	6.490069	0.000338	3.377647	0.572189	0.006756
 752	3.7550e-01	7.5079	6.507174	0.000171	1.710201	0.289716	0.003421
 753	3.7600e-01	7.5168	6.522996	0.000158	1.581936	0.267987	0.003164
 754	3.7650e-01	7.5290	6.551647	0.000286	2.864587	0.485274	0.005730
 755	3.7700e-01	7.5360	6.579442	0.000278	2.779077	0.470788	0.005559
 756	3.7750e-01	7.5473	6.596120	0.000167	1.667446	0.282473	0.003335
 757	3.7800e-01	7.5580	6.599968	0.000038	0.384795	0.065186	0.000770
 758	3.7850e-01	7.5702	6.611087	0.000111	1.111631	0.188315	0.002224
 759	3.7900e-01	7.5769	6.660691	0.000496	4.959583	0.840176	0.009921
 760	3.7950e-01	7.5894	6.674375	0.000137	1.368161	0.231773	0.002737
 761	3.8000e-01	7.5977	6.700033	0.000257	2.565301	0.434574	0.005132
 762	3.8050e-01	7.6080	6.720559	0.000205	2.052241	0.347659	0.004105
 763	3.8100e-01	7.6163	6.730822	0.000103	1.026121	0.173830	0.002053
 764	3.8150e-01	7.6251	6.764177	0.000333	3.334892	0.564946	0.006671
 765	3.8200e-01	7.6337	6.794966	0.000308	3.078362	0.521489	0.006158
 766	3.8250e-01	7.6440	6.810788	0.000158	1.581936	0.267987	0.003164
 767	3.8300e-01	7.6599	6.825327	0.000145	1.453671	0.246259	0.002908
 768	3.8350e-01	7.6688	6.830031	0.000047	0.470305	0.079672	0.000941
 769	3.8400e-01	7.6770	6.874076	0.000440	4.403768	0.746018	0.008809
 770	3.8450e-01	7.6880	6.889471	0.000154	1.539181	0.260744	0.003079
 771	3.8500e-01	7.6978	6.924536	0.000351	3.505912	0.593918	0.007013
 772	3.8550e-01	7.7094	6.935654	0.000111	1.111631	0.188315	0.002224
 773	3.8600e-01	7.7161	6.957036	0.000214	2.137751	0.362145	0.004276
 774	3.8650e-01	7.7258	6.986542	0.000295	2.950097	0.499760	0.005901
 775	3.8700e-01	7.7393	6.995094	0.000086	0.855100	0.144858	0.001711
 776	3.8750e-01	7.7450	7.013910	0.000188	1.881221	0.318687	0.003763
 777	3.8800e-01	7.7563	7.037429	0.000235	2.351526	0.398359	0.004704
 778	3.8850e-01	7.7655	7.065652	0.000282	2.821832	0.478031	0.005645
 779	3.8900e-01	7.7777	7.069501	0.000038	0.384795	0.065186	0.000770
 780	3.8950e-01	7.7847	7.096014	0.000265	2.650812	0.449060	0.005303
 781	3.9000e-01	7.7966	7.136638	0.000406	4.061727	0.688075	0.008125
 782	3.9050e-01	7.8043	7.151177	0.000145	1.453671	0.246259	0.002908
 783	3.9100e-01	7.8137	7.182394	0.000312	3.121117	0.528732	0.006243
 784	3.9150e-01	7.8265	7.204203	0.000218	2.180506	0.369388	0.004362
 785	3.9200e-01	7.8363	7.202493	-0.000017	-0.171020	-0.028972	-0.000342
 786	3.9250e-01	7.8467	7.232426	0.000299	2.992852	0.507003	0.005987
 787	3.9300e-01	7.8540	7.256373	0.000239	2.394281	0.405602	0.004789
 788	3.9350e-01	7.8656	7.270057	0.000137	1.368161	0.231773	0.002737
 789	3.9400e-01	7.8766	7.272623	0.000026	0.256530	0.043457	0.000513
 790	3.9450e-01	7.8864	7.304267	0.000316	3.163872	0.535974	0.006329
 791	3.9500e-01	7.8949	7.326504	0.000222	2.223261	0.376631	0.004447
 792	3.9550e-01	7.9056	7.366701	0.000402	4.018972	0.680832	0.008039
 793	3.9600e-01	7.9163	7.355155	-0.000115	-1.154386	-0.195558	-0.002309
 794	3.9650e-01	7.9254	7.385088	0.000299	2.992852	0.507003	0.005987
 795	3.9700e-01	7.9395	7.405187	0.000201	2.009486	0.340416	0.004020
 796	3.9750e-01	7.9468	7.424002	0.000188	1.881221	0.318687	0.003763
 797	3.9800e-01	7.9559	7.468903	0.000449	4.489278	0.760504	0.008980
 798	3.9850e-01	7.9669	7.485153	0.000162	1.624691	0.275230	0.003250
 799	3.9900e-01	7.9761	7.491995	0.000068	0.684080	0.115886	0.001368
 800	3.9950e-01	7.9871	7.526205	0.000342	3.420402	0.579432	0.006842
 801	4.0000e-01	7.9950	7.547158	0.000209	2.094996	0.354902	0.004191
 802	4.0050e-01	8.0075	7.554428	0.000073	0.726835	0.123129	0.001454
 803	4.0100e-01	8.0176	7.554000	-0.000004	-0.042755	-0.007243	-0.000086
 804	4.0150e-01	8.0283	7.590349	0.000363	3.634177	0.615646	0.007270
 805	4.0200e-01	8.0383	7.614296	0.000239	2.394281	0.405602	0.004789
 806	4.0250e-01	8.0505	7.636532	0.000222	2.223261	0.376631	0.004447
 807	4.0300e-01	8.0557	7.639098	0.000026	0.256530	0.043457	0.000513
 808	4.0350e-01	8.0646	7.654492	0.000154	1.539181	0.260744	0.003079
 809	4.0400e-01	8.0777	7.674591	0.000201	2.009486	0.340416	0.004020
 810	4.0450e-01	8.0859	7.717781	0.000432	4.318258	0.731533	0.008638
 811	4.0500e-01	8.0975	7.736169	0.000184	1.838466	0.311445	0.003678
 812	4.0550e-01	8.1070	7.747715	0.000115	1.154386	0.195558	0.002309
 813	4.0600e-01	8.1161	7.785773	0.000381	3.805197	0.644618	0.007612
 814	4.0650e-01	8.1262	7.802023	0.000162	1.624691	0.275230	0.003250
 815	4.0700e-01	8.1354	7.805444	0.000034	0.342040	0.057943	0.000684
 816	4.0750e-01	8.1448	7.818273	0.000128	1.282651	0.217287	0.002566
 817	4.0800e-01	8.1573	7.853338	0.000351	3.505912	0.593918	0.007013
 818	4.0850e-01	8.1659	7.872581	0.000192	1.923976	0.325930	0.003849
 819	4.0900e-01	8.1763	7.908074	0.000355	3.548667	0.601160	0.007099
 820	4.0950e-01	8.1854	7.912778	0.000047	0.470305	0.079672	0.000941
 821	4.1000e-01	8.1970	7.931594	0.000188	1.881221	0.318687	0.003763
 822	4.1050e-01	8.2095	7.958534	0.000269	2.693567	0.456303	0.005388
 823	4.1100e-01	8.2153	7.987185	0.000286	2.864587	0.485274	0.005730
 824	4.1150e-01	8.2257	8.024388	0.000372	3.719687	0.630132	0.007441
 825	4.1200e-01	8.2370	8.023961	-0.000004	-0.042755	-0.007243	-0.000086
 826	4.1250e-01	8.2477	8.037217	0.000133	1.325406	0.224530	0.002651
 827	4.1300e-01	8.2562	8.062875	0.000257	2.565301	0.434574	0.005132
 828	4.1350e-01	8.2629	8.095802	0.000329	3.292137	0.557703	0.006585
 829	4.1400e-01	8.2782	8.120176	0.000244	2.437036	0.412845	0.004875
 830	4.1450e-01	8.2861	8.126591	0.000064	0.641325	0.108643	0.001283
 831	4.1500e-01	8.2974	8.146261	0.000197	1.966731	0.333173	0.003934
 832	4.1550e-01	8.3057	8.177051	0.000308	3.078362	0.521489	0.006158
 833	4.1600e-01	8.3160	8.198432	0.000214	2.137751	0.362145	0.004276
 834	4.1650e-01	8.3260	8.217675	0.000192	1.923976	0.325930	0.003849
 835	4.1700e-01	8.3371	8.221951	0.000043	0.427550	0.072429	0.000855
 836	4.1750e-01	8.3472	8.238629	0.000167	1.667446	0.282473	0.003335
 837	4.1800e-01	8.3575	8.271983	0.000333	3.334892	0.564946	0.006671
 838	4.1850e-01	8.3667	8.296358	0.000244	2.437036	0.412845	0.004875
 839	4.1900e-01	8.3771	8.319450	0.000231	2.308771	0.391116	0.004618
 840	4.1950e-01	8.3887	8.344680	0.000252	2.522546	0.427331	0.005046
 841	4.2000e-01	8.3975	8.326292	-0.000184	-1.838466	-0.311445	-0.003678
 842	4.2050e-01	8.4067	8.374186	0.000479	4.788563	0.811204	0.009579
 843	4.2100e-01	8.4161	8.380600	0.000064	0.641325	0.108643	0.001283
 844	4.2150e-01	8.4265	8.421652	0.000410	4.104482	0.695318	0.008210
 845	4.2200e-01	8.4351	8.452441	0.000308	3.078362	0.521489	0.006158
 846	4.2250e-01	8.4442	8.460566	0.000081	0.812345	0.137615	0.001625
 847	4.2300e-01	8.4564	8.477671	0.000171	1.710201	0.289716	0.003421
 848	4.2350e-01	8.4686	8.473822	-0.000038	-0.384795	-0.065186	-0.000770
 849	4.2400e-01	8.4744	8.502046	0.000282	2.821832	0.478031	0.005645
 850	4.2450e-01	8.4875	8.544808	0.000428	4.275502	0.724290	0.008553
 851	4.2500e-01	8.4991	8.558492	0.000137	1.368161	0.231773	0.002737
 852	4.2550e-01	8.5046	8.567472	0.000090	0.897856	0.152101	0.001796
 853	4.2600e-01	8.5159	8.612373	0.000449	4.489278	0.760504	0.008980
 854	4.2650e-01	8.5272	8.632044	0.000197	1.966731	0.333173	0.003934
 855	4.2700e-01	8.5376	8.632044	0.000000	0.000000	0.000000	0.000000
 856	4.2750e-01	8.5445	8.647011	0.000150	1.496426	0.253501	0.002993
 857	4.2800e-01	8.5602	8.672241	0.000252	2.522546	0.427331	0.005046
 858	4.2850e-01	8.5651	8.691484	0.000192	1.923976	0.325930	0.003849
 859	4.2900e-01	8.5779	8.719279	0.000278	2.779077	0.470788	0.005559
 860	4.2950e-01	8.5852	8.753917	0.000346	3.463157	0.586675	0.006928
 861	4.3000e-01	8.5941	8.763752	0.000098	0.983366	0.166587	0.001967
 862	4.3050e-01	8.6057	8.784706	0.000209	2.094996	0.354902	0.004191
 863	4.3100e-01	8.6163	8.794969	0.000103	1.026121	0.173830	0.002053
 864	4.3150e-01	8.6267	8.826613	0.000316	3.163872	0.535974	0.006329
 865	4.3200e-01	8.6359	8.836021	0.000094	0.940611	0.159344	0.001882
 866	4.3250e-01	8.6462	8.859540	0.000235	2.351526	0.398359	0.004704
 867	4.3300e-01	8.6551	8.884343	0.000248	2.479791	0.420088	0.004960
 868	4.3350e-01	8.6652	8.906152	0.000218	2.180506	0.369388	0.004362
 869	4.3400e-01	8.6775	8.919836	0.000137	1.368161	0.231773	0.002737
 870	4.3450e-01	8.6861	8.944210	0.000244	2.437036	0.412845	0.004875
 871	4.3500e-01	8.6975	8.977137	0.000329	3.292137	0.557703	0.006585
 872	4.3550e-01	8.7091	8.987828	0.000107	1.068876	0.181072	0.002138
 873	4.3600e-01	8.7154	9.003650	0.000158	1.581936	0.267987	0.003164
 874	4.3650e-01	8.7250	9.041709	0.000381	3.805197	0.644618	0.007612
 875	4.3700e-01	8.7378	9.040426	-0.000013	-0.128265	-0.021729	-0.000257
 876	4.3750e-01	8.7469	9.053682	0.000133	1.325406	0.224530	0.002651
 877	4.3800e-01	8.7579	9.075491	0.000218	2.180506	0.369388	0.004362
 878	4.3850e-01	8.7674	9.093879	0.000184	1.838466	0.311445	0.003678
 879	4.3900e-01	8.7762	9.120392	0.000265	2.650812	0.449060	0.005303
 880	4.3950e-01	8.7866	9.126806	0.000064	0.641325	0.108643	0.001283
 881	4.4000e-01	8.7982	9.161444	0.000346	3.463157	0.586675	0.006928
 882	4.4050e-01	8.8065	9.167003	0.000056	0.555815	0.094158	0.001112
 883	4.4100e-01	8.8177	9.201213	0.000342	3.420402	0.579432	0.006842
 884	4.4150e-01	8.8275	9.183680	-0.000175	-1.752956	-0.296959	-0.003507
 885	4.4200e-01	8.8376	9.228153	0.000445	4.446523	0.753261	0.008895
 886	4.4250e-01	8.8477	9.241410	0.000133	1.325406	0.224530	0.002651
 887	4.4300e-01	8.8586	9.253383	0.000120	1.197141	0.202801	0.002395
 888	4.4350e-01	8.8657	9.297429	0.000440	4.403768	0.746018	0.008809
 889	4.4400e-01	8.8776	9.337625	0.000402	4.018972	0.680832	0.008039
 890	4.4450e-01	8.8831	9.351737	0.000141	1.410916	0.239016	0.002822
 891	4.4500e-01	8.8966	9.362000	0.000103	1.026121	0.173830	0.002053
 892	4.4550e-01	8.9063	9.391079	0.000291	2.907342	0.492517	0.005816
 893	4.4600e-01	8.9154	9.386802	-0.000043	-0.427550	-0.072429	-0.000855
 894	4.4650e-01	8.9258	9.416736	0.000299	2.992852	0.507003	0.005987
 895	4.4700e-01	8.9355	9.433841	0.000171	1.710201	0.289716	0.003421
 896	4.4750e-01	8.9471	9.460782	0.000269	2.693567	0.456303	0.005388
 897	4.4800e-01	8.9545	9.492853	0.000321	3.206627	0.543217	0.006414
 898	4.4850e-01	8.9648	9.511669	0.000188	1.881221	0.318687	0.003763
 899	4.4900e-01	8.9737	9.521932	0.000103	1.026121	0.173830	0.002053
 900	4.4950e-01	8.9862	9.554004	0.000321	3.206627	0.543217	0.006414
 901	4.5000e-01	8.9967	9.562984	0.000090	0.897856	0.152101	0.001796
 902	4.5050e-01	9.0065	9.577096	0.000141	1.410916	0.239016	0.002822
 903	4.5100e-01	9.0192	9.601470	0.000244	2.437036	0.412845	0.004875
 904	4.5150e-01	9.0253	9.614727	0.000133	1.325406	0.224530	0.002651
 905	4.5200e-01	9.0372	9.635253	0.000205	2.052241	0.347659	0.004105
 906	4.5250e-01	9.0448	9.634825	-0.000004	-0.042755	-0.007243	-0.000086
 907	4.5300e-01	9.0546	9.701535	0.000667	6.669784	1.129892	0.013342
 908	4.5350e-01	9.0649	9.710515	0.000090	0.897856	0.152101	0.001796
 909	4.5400e-01	9.0747	9.720778	0.000103	1.026121	0.173830	0.002053
 910	4.5450e-01	9.0863	9.746008	0.000252	2.522546	0.427331	0.005046
 911	4.5500e-01	9.0982	9.775514	0.000295	2.950097	0.499760	0.005901
 912	4.5550e-01	9.1040	9.766961	-0.000086	-0.855100	-0.144858	-0.001711
 913	4.5600e-01	9.1168	9.800316	0.000333	3.334892	0.564946	0.006671
 914	4.5650e-01	9.1266	9.809296	0.000090	0.897856	0.152101	0.001796
 915	4.5700e-01	9.1382	9.855480	0.000462	4.617543	0.782233	0.009237
 916	4.5750e-01	9.1467	9.865743	0.000103	1.026121	0.173830	0.002053
 917	4.5800e-01	9.1553	9.876433	0.000107	1.068876	0.181072	0.002138
 918	4.5850e-01	9.1635	9.898670	0.000222	2.223261	0.376631	0.004447
 919	4.5900e-01	9.1785	9.915347	0.000167	1.667446	0.282473	0.003335
 920	4.5950e-01	9.1864	9.928604	0.000133	1.325406	0.224530	0.002651
 921	4.6000e-01	9.1962	9.948274	0.000197	1.966731	0.333173	0.003934
 922	4.6050e-01	9.2053	9.966662	0.000184	1.838466	0.311445	0.003678
 923	4.6100e-01	9.2146	10.008997	0.000423	4.232747	0.717047	0.008467
 924	4.6150e-01	9.2261	10.025675	0.000167	1.667446	0.282473	0.003335
 925	4.6200e-01	9.2377	10.032944	0.000073	0.726835	0.123129	0.001454
 926	4.6250e-01	9.2462	10.040214	0.000073	0.726835	0.123129	0.001454
 927	4.6300e-01	9.2572	10.061167	0.000209	2.094996	0.354902	0.004191
 928	4.6350e-01	9.2651	10.077845	0.000167	1.667446	0.282473	0.003335
 929	4.6400e-01	9.2773	10.112055	0.000342	3.420402	0.579432	0.006842
 930	4.6450e-01	9.2859	10.136857	0.000248	2.479791	0.420088	0.004960
 931	4.6500e-01	9.2963	10.149258	0.000124	1.239896	0.210044	0.002480
 932	4.6550e-01	9.3060	10.177482	0.000282	2.821832	0.478031	0.005645
 933	4.6600e-01	9.3141	10.215540	0.000381	3.805197	0.644618	0.007612
 934	4.6650e-01	9.3256	10.221099	0.000056	0.555815	0.094158	0.001112
 935	4.6700e-01	9.3359	10.227941	0.000068	0.684080	0.115886	0.001368
 936	4.6750e-01	9.3452	10.257020	0.000291	2.907342	0.492517	0.005816
 937	4.6800e-01	9.3555	10.282677	0.000257	2.565301	0.434574	0.005132
 938	4.6850e-01	9.3665	10.292940	0.000103	1.026121	0.173830	0.002053
 939	4.6900e-01	9.3750	10.306624	0.000137	1.368161	0.231773	0.002737
 940	4.6950e-01	9.3861	10.354946	0.000483	4.831318	0.818447	0.009664
 941	4.7000e-01	9.3973	10.346821	-0.000081	-0.812345	-0.137615	-0.001625
 942	4.7050e-01	9.4067	10.370768	0.000239	2.394281	0.405602	0.004789
 943	4.7100e-01	9.4141	10.413531	0.000428	4.275502	0.724290	0.008553
 944	4.7150e-01	9.4263	10.410965	-0.000026	-0.256530	-0.043457	-0.000513
 945	4.7200e-01	9.4348	10.422511	0.000115	1.154386	0.195558	0.002309
 946	4.7250e-01	9.4470	10.460142	0.000376	3.762442	0.637375	0.007526
 947	4.7300e-01	9.4562	10.472971	0.000128	1.282651	0.217287	0.002566
 948	4.7350e-01	9.4678	10.462280	-0.000107	-1.068876	-0.181072	-0.002138
 949	4.7400e-01	9.4781	10.499483	0.000372	3.719687	0.630132	0.007441
 950	4.7450e-01	9.4867	10.513595	0.000141	1.410916	0.239016	0.002822
 951	4.7500e-01	9.4962	10.540535	0.000269	2.693567	0.456303	0.005388
 952	4.7550e-01	9.5056	10.561489	0.000209	2.094996	0.354902	0.004191
 953	4.7600e-01	9.5181	10.569186	0.000077	0.769590	0.130372	0.001539
 954	4.7650e-01	9.5251	10.624350	0.000552	5.515398	0.934334	0.011033
 955	4.7700e-01	9.5349	10.623067	-0.000013	-0.128265	-0.021729	-0.000257
 956	4.7750e-01	9.5453	10.641027	0.000180	1.795711	0.304202	0.003592
 957	4.7800e-01	9.5569	10.647014	0.000060	0.598570	0.101401	0.001197
 958	4.7850e-01	9.5667	10.698757	0.000517	5.173358	0.876391	0.010349
 959	4.7900e-01	9.5758	10.682079	-0.000167	-1.667446	-0.282473	-0.003335
 960	4.7950e-01	9.5877	10.700895	0.000188	1.881221	0.318687	0.003763
 961	4.8000e-01	9.5953	10.743657	0.000428	4.275502	0.724290	0.008553
 962	4.8050e-01	9.6063	10.750499	0.000068	0.684080	0.115886	0.001368
 963	4.8100e-01	9.6182	10.779578	0.000291	2.907342	0.492517	0.005816
 964	4.8150e-01	9.6249	10.805663	0.000261	2.608057	0.441817	0.005217
 965	4.8200e-01	9.6362	10.831748	0.000261	2.608057	0.441817	0.005217
 966	4.8250e-01	9.6466	10.842866	0.000111	1.111631	0.188315	0.002224
 967	4.8300e-01	9.6576	10.850564	0.000077	0.769590	0.130372	0.001539
 968	4.8350e-01	9.6649	10.873228	0.000227	2.266016	0.383874	0.004533
 969	4.8400e-01	9.6747	10.895892	0.000227	2.266016	0.383874	0.004533
 970	4.8450e-01	9.6863	10.915990	0.000201	2.009486	0.340416	0.004020
 971	4.8500e-01	9.6960	10.924971	0.000090	0.897856	0.152101	0.001796
 972	4.8550e-01	9.7028	10.961746	0.000368	3.676932	0.622889	0.007355
 973	4.8600e-01	9.7168	10.977141	0.000154	1.539181	0.260744	0.003079
 974	4.8650e-01	9.7241	11.005792	0.000286	2.864587	0.485274	0.005730
 975	4.8700e-01	9.7369	11.015199	0.000094	0.940611	0.159344	0.001882
 976	4.8750e-01	9.7455	11.026318	0.000111	1.111631	0.188315	0.002224
 977	4.8800e-01	9.7583	11.057107	0.000308	3.078362	0.521489	0.006158
 978	4.8850e-01	9.7662	11.066087	0.000090	0.897856	0.152101	0.001796
 979	4.8900e-01	9.7748	11.098586	0.000325	3.249382	0.550460	0.006500
 980	4.8950e-01	9.7858	11.122533	0.000239	2.394281	0.405602	0.004789
 981	4.9000e-01	9.7955	11.129375	0.000068	0.684080	0.115886	0.001368
 982	4.9050e-01	9.8053	11.160592	0.000312	3.121117	0.528732	0.006243
 983	4.9100e-01	9.8175	11.180263	0.000197	1.966731	0.333173	0.003934
 984	4.9150e-01	9.8254	11.169145	-0.000111	-1.111631	-0.188315	-0.002224
 985	4.9200e-01	9.8352	11.193947	0.000248	2.479791	0.420088	0.004960
 986	4.9250e-01	9.8450	11.229012	0.000351	3.505912	0.593918	0.007013
 987	4.9300e-01	9.8566	11.273913	0.000449	4.489278	0.760504	0.008980
 988	4.9350e-01	9.8657	11.286314	0.000124	1.239896	0.210044	0.002480
 989	4.9400e-01	9.8773	11.298287	0.000120	1.197141	0.202801	0.002395
 990	4.9450e-01	9.8877	11.294011	-0.000043	-0.427550	-0.072429	-0.000855
 991	4.9500e-01	9.8975	11.307268	0.000133	1.325406	0.224530	0.002651
 992	4.9550e-01	9.9054	11.346609	0.000393	3.933462	0.666347	0.007868
 993	4.9600e-01	9.9188	11.365852	0.000192	1.923976	0.325930	0.003849
 994	4.9650e-01	9.9286	11.384668	0.000188	1.881221	0.318687	0.003763
 995	4.9700e-01	9.9353	11.396214	0.000115	1.154386	0.195558	0.002309
 996	4.9750e-01	9.9469	11.429568	0.000333	3.334892	0.564946	0.006671
 997	4.9800e-01	9.9548	11.446673	0.000171	1.710201	0.289716	0.003421
 998	4.9850e-01	9.9640	11.486015	0.000393	3.933462	0.666347	0.007868
 999	4.9900e-01	9.9756	11.471903	-0.000141	-1.410916	-0.239016	-0.002822
1000	4.9950e-01	9.9857	11.507396	0.000355	3.548667	0.601160	0.007099
1001	5.0000e-01	9.9969	11.536475	0.000291	2.907342	0.492517	0.005816
1002	5.0050e-01	9.9841	11.502265	0.000342	3.420402	0.579432	-0.006842
1003	5.0100e-01	9.9753	11.479173	0.000231	2.308771	0.391116	-0.004618
1004	5.0150e-01	9.9670	11.478318	0.000009	0.085510	0.014486	-0.000171
1005	5.0200e-01	9.9561	11.460357	0.000180	1.795711	0.304202	-0.003592
1006	5.0250e-01	9.9438	11.441542	0.000188	1.881221	0.318687	-0.003763
1007	5.0300e-01	9.9335	11.436410	0.000051	0.513060	0.086915	-0.001026
1008	5.0350e-01	9.9222	11.418878	0.000175	1.752956	0.296959	-0.003507
1009	5.0400e-01	9.9164	11.398352	0.000205	2.052241	0.347659	-0.004105
1010	5.0450e-01	9.9054	11.363714	0.000346	3.463157	0.586675	-0.006928
1011	5.0500e-01	9.8975	11.361576	0.000021	0.213775	0.036214	-0.000428
1012	5.0550e-01	9.8871	11.321807	0.000398	3.976217	0.673589	-0.007954
1013	5.0600e-01	9.8755	11.341050	-0.000192	-1.923976	-0.325930	0.003849
1014	5.0650e-01	9.8645	11.294011	0.000470	4.703053	0.796719	-0.009408
1015	5.0700e-01	9.8553	11.311116	-0.000171	-1.710201	-0.289716	0.003421
1016	5.0750e-01	9.8450	11.294439	0.000167	1.667446	0.282473	-0.003335
1017	5.0800e-01	9.8358	11.259801	0.000346	3.463157	0.586675	-0.006928
1018	5.0850e-01	9.8285	11.283748	-0.000239	-2.394281	-0.405602	0.004789
1019	5.0900e-01	9.8151	11.229440	0.000543	5.429888	0.919848	-0.010862
1020	5.0950e-01	9.8047	11.213190	0.000162	1.624691	0.275230	-0.003250
1021	5.1000e-01	9.7943	11.203782	0.000094	0.940611	0.159344	-0.001882
1022	5.1050e-01	9.7855	11.182829	0.000209	2.094996	0.354902	-0.004191
1023	5.1100e-01	9.7772	11.170000	0.000128	1.282651	0.217287	-0.002566
1024	5.1150e-01	9.7656	11.143059	0.000269	2.693567	0.456303	-0.005388
1025	5.1200e-01	9.7528	11.149474	-0.000064	-0.641325	-0.108643	0.001283
1026	5.1250e-01	9.7449	11.136645	0.000128	1.282651	0.217287	-0.002566
1027	5.1300e-01	9.7363	11.122961	0.000137	1.368161	0.231773	-0.002737
1028	5.1350e-01	9.7260	11.099869	0.000231	2.308771	0.391116	-0.004618
1029	5.1400e-01	9.7156	11.089179	0.000107	1.068876	0.181072	-0.002138
1030	5.1450e-01	9.7064	11.072074	0.000171	1.710201	0.289716	-0.003421
1031	5.1500e-01	9.6982	11.042995	0.000291	2.907342	0.492517	-0.005816
1032	5.1550e-01	9.6851	11.031022	0.000120	1.197141	0.202801	-0.002395
1033	5.1600e-01	9.6790	11.002371	0.000286	2.864587	0.485274	-0.005730
1034	5.1650e-01	9.6680	10.989114	0.000133	1.325406	0.224530	-0.002651
1035	5.1700e-01	9.6539	10.971154	0.000180	1.795711	0.304202	-0.003592
1036	5.1750e-01	9.6460	10.955332	0.000158	1.581936	0.267987	-0.003164
1037	5.1800e-01	9.6375	10.955760	-0.000004	-0.042755	-0.007243	0.000086
1038	5.1850e-01	9.6265	10.930957	0.000248	2.479791	0.420088	-0.004960
1039	5.1900e-01	9.6179	10.914280	0.000167	1.667446	0.282473	-0.003335
1040	5.1950e-01	9.6040	10.901451	0.000128	1.282651	0.217287	-0.002566
1041	5.2000e-01	9.5966	10.873655	0.000278	2.779077	0.470788	-0.005559
1042	5.2050e-01	9.5898	10.861682	0.000120	1.197141	0.202801	-0.002395
1043	5.2100e-01	9.5752	10.822768	0.000389	3.890707	0.659104	-0.007783
1044	5.2150e-01	9.5679	10.847998	-0.000252	-2.522546	-0.427331	0.005046
1045	5.2200e-01	9.5547	10.822768	0.000252	2.522546	0.427331	-0.005046
1046	5.2250e-01	9.5483	10.793262	0.000295	2.950097	0.499760	-0.005901
1047	5.2300e-01	9.5340	10.774874	0.000184	1.838466	0.311445	-0.003678
1048	5.2350e-01	9.5270	10.766322	0.000086	0.855100	0.144858	-0.001711
1049	5.2400e-01	9.5154	10.740664	0.000257	2.565301	0.434574	-0.005132
1050	5.2450e-01	9.5087	10.723131	0.000175	1.752956	0.296959	-0.003507
1051	5.2500e-01	9.4946	10.709447	0.000137	1.368161	0.231773	-0.002737
1052	5.2550e-01	9.4855	10.702605	0.000068	0.684080	0.115886	-0.001368
1053	5.2600e-01	9.4739	10.679086	0.000235	2.351526	0.398359	-0.004704
1054	5.2650e-01	9.4637	10.681652	-0.000026	-0.256530	-0.043457	0.000513
1055	5.2700e-01	9.4562	10.680369	0.000013	0.128265	0.021729	-0.000257
1056	5.2750e-01	9.4464	10.641455	0.000389	3.890707	0.659104	-0.007783
1057	5.2800e-01	9.4373	10.628199	0.000133	1.325406	0.224530	-0.002651
1058	5.2850e-01	9.4269	10.569186	0.000590	5.900193	0.999520	-0.011802
1059	5.2900e-01	9.4141	10.600403	-0.000312	-3.121117	-0.528732	0.006243
1060	5.2950e-01	9.4061	10.572607	0.000278	2.779077	0.470788	-0.005559
1061	5.3000e-01	9.3951	10.546522	0.000261	2.608057	0.441817	-0.005217
1062	5.3050e-01	9.3860	10.517016	0.000295	2.950097	0.499760	-0.005901
1063	5.3100e-01	9.3768	10.505470	0.000115	1.154386	0.195558	-0.002309
1064	5.3150e-01	9.3677	10.491358	0.000141	1.410916	0.239016	-0.002822
1065	5.3200e-01	9.3567	10.479813	0.000115	1.154386	0.195558	-0.002309
1066	5.3250e-01	9.3475	10.446458	0.000333	3.334892	0.564946	-0.006671
1067	5.3300e-01	9.3353	10.442182	0.000043	0.427550	0.072429	-0.000855
1068	5.3350e-01	9.3253	10.431063	0.000111	1.111631	0.188315	-0.002224
1069	5.3400e-01	9.3164	10.385307	0.000457	4.574788	0.774990	-0.009151
1070	5.3450e-01	9.3060	10.377610	0.000077	0.769590	0.130372	-0.001539
1071	5.3500e-01	9.2953	10.384880	-0.000073	-0.726835	-0.123129	0.001454
1072	5.3550e-01	9.2859	10.336558	0.000483	4.831318	0.818447	-0.009664
1073	5.3600e-01	9.2749	10.349815	-0.000133	-1.325406	-0.224530	0.002651
1074	5.3650e-01	9.2670	10.330999	0.000188	1.881221	0.318687	-0.003763
1075	5.3700e-01	9.2542	10.310901	0.000201	2.009486	0.340416	-0.004020
1076	5.3750e-01	9.2456	10.296789	0.000141	1.410916	0.239016	-0.002822
1077	5.3800e-01	9.2377	10.264289	0.000325	3.249382	0.550460	-0.006500
1078	5.3850e-01	9.2261	10.255737	0.000086	0.855100	0.144858	-0.001711
1079	5.3900e-01	9.2175	10.225376	0.000304	3.035607	0.514246	-0.006072
1080	5.3950e-01	9.2059	10.206560	0.000188	1.881221	0.318687	-0.003763
1081	5.4000e-01	9.1956	10.197152	0.000094	0.940611	0.159344	-0.001882
1082	5.4050e-01	9.1846	10.189027	0.000081	0.812345	0.137615	-0.001625
1083	5.4100e-01	9.1748	10.175771	0.000133	1.325406	0.224530	-0.002651
1084	5.4150e-01	9.1650	10.162087	0.000137	1.368161	0.231773	-0.002737
1085	5.4200e-01	9.1547	10.150541	0.000115	1.154386	0.195558	-0.002309
1086	5.4250e-01	9.1492	10.106923	0.000436	4.361013	0.738776	-0.008724
1087	5.4300e-01	9.1357	10.082976	0.000239	2.394281	0.405602	-0.004789
1088	5.4350e-01	9.1278	10.084259	-0.000013	-0.128265	-0.021729	0.000257
1089	5.4400e-01	9.1174	10.051332	0.000329	3.292137	0.557703	-0.006585
1090	5.4450e-01	9.1077	10.044490	0.000068	0.684080	0.115886	-0.001368
1091	5.4500e-01	9.0948	10.028668	0.000158	1.581936	0.267987	-0.003164
1092	5.4550e-01	9.0875	10.002583	0.000261	2.608057	0.441817	-0.005217
1093	5.4600e-01	9.0778	9.999589	0.000030	0.299285	0.050700	-0.000599
1094	5.4650e-01	9.0656	9.977353	0.000222	2.223261	0.376631	-0.004447
1095	5.4700e-01	9.0552	9.949985	0.000274	2.736322	0.463545	-0.005474
1096	5.4750e-01	9.0454	9.943998	0.000060	0.598570	0.101401	-0.001197
1097	5.4800e-01	9.0356	9.923472	0.000205	2.052241	0.347659	-0.004105
1098	5.4850e-01	9.0265	9.903374	0.000201	2.009486	0.340416	-0.004020
1099	5.4900e-01	9.0152	9.898670	0.000047	0.470305	0.079672	-0.000941
1100	5.4950e-01	9.0082	9.884986	0.000137	1.368161	0.231773	-0.002737
1101	5.5000e-01	8.9951	9.869164	0.000158	1.581936	0.267987	-0.003164
1102	5.5050e-01	8.9853	9.844789	0.000244	2.437036	0.412845	-0.004875
1103	5.5100e-01	8.9740	9.830250	0.000145	1.453671	0.246259	-0.002908
1104	5.5150e-01	8.9673	9.797323	0.000329	3.292137	0.557703	-0.006585
1105	5.5200e-01	8.9563	9.777224	0.000201	2.009486	0.340416	-0.004020
1106	5.5250e-01	8.9478	9.750712	0.000265	2.650812	0.449060	-0.005303
1107	5.5300e-01	8.9374	9.755843	-0.000051	-0.513060	-0.086915	0.001026
1108	5.5350e-01	8.9246	9.718212	0.000376	3.762442	0.637375	-0.007526
1109	5.5400e-01	8.9148	9.713936	0.000043	0.427550	0.072429	-0.000855
1110	5.5450e-01	8.9050	9.690416	0.000235	2.351526	0.398359	-0.004704
1111	5.5500e-01	8.8965	9.668607	0.000218	2.180506	0.369388	-0.004362
1112	5.5550e-01	8.8861	9.663048	0.000056	0.555815	0.094158	-0.001112
1113	5.5600e-01	8.8770	9.641239	0.000218	2.180506	0.369388	-0.004362
1114	5.5650e-01	8.8663	9.622852	0.000184	1.838466	0.311445	-0.003678
1115	5.5700e-01	8.8544	9.599332	0.000235	2.351526	0.398359	-0.004704
1116	5.5750e-01	8.8440	9.575813	0.000235	2.351526	0.398359	-0.004704
1117	5.5800e-01	8.8382	9.562129	0.000137	1.368161	0.231773	-0.002737
1118	5.5850e-01	8.8263	9.526636	0.000355	3.548667	0.601160	-0.007099
1119	5.5900e-01	8.8153	9.536471	-0.000098	-0.983366	-0.166587	0.001967
1120	5.5950e-01	8.8055	9.518939	0.000175	1.752956	0.296959	-0.003507
1121	5.6000e-01	8.7955	9.509103	0.000098	0.983366	0.166587	-0.001967
1122	5.6050e-01	8.7842	9.505255	0.000038	0.384795	0.065186	-0.000770
1123	5.6100e-01	8.7770	9.459071	0.000462	4.617543	0.782233	-0.009237
1124	5.6150e-01	8.7689	9.436407	0.000227	2.266016	0.383874	-0.004533
1125	5.6200e-01	8.7549	9.410749	0.000257	2.565301	0.434574	-0.005132
1126	5.6250e-01	8.7433	9.409894	0.000009	0.085510	0.014486	-0.000171
1127	5.6300e-01	8.7360	9.415881	-0.000060	-0.598570	-0.101401	0.001197
1128	5.6350e-01	8.7280	9.377395	0.000385	3.847952	0.651861	-0.007697
1129	5.6400e-01	8.7170	9.345323	0.000321	3.206627	0.543217	-0.006414
1130	5.6450e-01	8.7061	9.335060	0.000103	1.026121	0.173830	-0.002053
1131	5.6500e-01	8.6960	9.299139	0.000359	3.591422	0.608403	-0.007184
1132	5.6550e-01	8.6859	9.296146	0.000030	0.299285	0.050700	-0.000599
1133	5.6600e-01	8.6755	9.305554	-0.000094	-0.940611	-0.159344	0.001882
1134	5.6650e-01	8.6658	9.260225	0.000453	4.532033	0.767747	-0.009066
1135	5.6700e-01	8.6566	9.250818	0.000094	0.940611	0.159344	-0.001882
1136	5.6750e-01	8.6478	9.221739	0.000291	2.907342	0.492517	-0.005816
1137	5.6800e-01	8.6377	9.195654	0.000261	2.608057	0.441817	-0.005217
1138	5.6850e-01	8.6261	9.195226	0.000004	0.042755	0.007243	-0.000086
1139	5.6900e-01	8.6169	9.171707	0.000235	2.351526	0.398359	-0.004704
1140	5.6950e-01	8.6084	9.144339	0.000274	2.736322	0.463545	-0.005474
1141	5.7000e-01	8.5962	9.118254	0.000261	2.608057	0.441817	-0.005217
1142	5.7050e-01	8.5870	9.132793	-0.000145	-1.453671	-0.246259	0.002908
1143	5.7100e-01	8.5768	9.086182	0.000466	4.660298	0.789476	-0.009322
1144	5.7150e-01	8.5675	9.089175	-0.000030	-0.299285	-0.050700	0.000599
1145	5.7200e-01	8.5565	9.066939	0.000222	2.223261	0.376631	-0.004447
1146	5.7250e-01	8.5443	9.057959	0.000090	0.897856	0.152101	-0.001796
1147	5.7300e-01	8.5382	9.036150	0.000218	2.180506	0.369388	-0.004362
1148	5.7350e-01	8.5260	9.010065	0.000261	2.608057	0.441817	-0.005217
1149	5.7400e-01	8.5150	8.995098	0.000150	1.496426	0.253501	-0.002993
1150	5.7450e-01	8.5071	8.979703	0.000154	1.539181	0.260744	-0.003079
1151	5.7500e-01	8.4967	8.955329	0.000244	2.437036	0.412845	-0.004875
1152	5.7550e-01	8.4854	8.945065	0.000103	1.026121	0.173830	-0.002053
1153	5.7600e-01	8.4766	8.923684	0.000214	2.137751	0.362145	-0.004276
1154	5.7650e-01	8.4644	8.909573	0.000141	1.410916	0.239016	-0.002822
1155	5.7700e-01	8.4570	8.890757	0.000188	1.881221	0.318687	-0.003763
1156	5.7750e-01	8.4454	8.861251	0.000295	2.950097	0.499760	-0.005901
1157	5.7800e-01	8.4381	8.843291	0.000180	1.795711	0.304202	-0.003592
1158	5.7850e-01	8.4279	8.823620	0.000197	1.966731	0.333173	-0.003934
1159	5.7900e-01	8.4177	8.803949	0.000197	1.966731	0.333173	-0.003934
1160	5.7950e-01	8.4088	8.782996	0.000209	2.094996	0.354902	-0.004191
1161	5.8000e-01	8.3955	8.756910	0.000261	2.608057	0.441817	-0.005217
1162	5.8050e-01	8.3865	8.741943	0.000150	1.496426	0.253501	-0.002993
1163	5.8100e-01	8.3759	8.733391	0.000086	0.855100	0.144858	-0.001711
1164	5.8150e-01	8.3664	8.721845	0.000115	1.154386	0.195558	-0.002309
1165	5.8200e-01	8.3569	8.685925	0.000359	3.591422	0.608403	-0.007184
1166	5.8250e-01	8.3459	8.684214	0.000017	0.171020	0.028972	-0.000342
1167	5.8300e-01	8.3344	8.658129	0.000261	2.608057	0.441817	-0.005217
1168	5.8350e-01	8.3273	8.641452	0.000167	1.667446	0.282473	-0.003335
1169	5.8400e-01	8.3157	8.608524	0.000329	3.292137	0.557703	-0.006585
1170	5.8450e-01	8.3052	8.609807	-0.000013	-0.128265	-0.021729	0.000257
1171	5.8500e-01	8.2962	8.578163	0.000316	3.163872	0.535974	-0.006329
1172	5.8550e-01	8.2849	8.568755	0.000094	0.940611	0.159344	-0.001882
1173	5.8600e-01	8.2755	8.556354	0.000124	1.239896	0.210044	-0.002480
1174	5.8650e-01	8.2666	8.528131	0.000282	2.821832	0.478031	-0.005645
1175	5.8700e-01	8.2571	8.509315	0.000188	1.881221	0.318687	-0.003763
1176	5.8750e-01	8.2465	8.505467	0.000038	0.384795	0.065186	-0.000770
1177	5.8800e-01	8.2373	8.469974	0.000355	3.548667	0.601160	-0.007099
1178	5.8850e-01	8.2239	8.449875	0.000201	2.009486	0.340416	-0.004020
1179	5.8900e-01	8.2166	8.440468	0.000094	0.940611	0.159344	-0.001882
1180	5.8950e-01	8.2047	8.413955	0.000265	2.650812	0.449060	-0.005303
1181	5.9000e-01	8.1946	8.406258	0.000077	0.769590	0.130372	-0.001539
1182	5.9050e-01	8.1879	8.395139	0.000111	1.111631	0.188315	-0.002224
1183	5.9100e-01	8.1775	8.350666	0.000445	4.446523	0.753261	-0.008895
1184	5.9150e-01	8.1653	8.336555	0.000141	1.410916	0.239016	-0.002822
1185	5.9200e-01	8.1561	8.315173	0.000214	2.137751	0.362145	-0.004276
1186	5.9250e-01	8.1473	8.300634	0.000145	1.453671	0.246259	-0.002908
1187	5.9300e-01	8.1360	8.286523	0.000141	1.410916	0.239016	-0.002822
1188	5.9350e-01	8.1271	8.274977	0.000115	1.154386	0.195558	-0.002309
1189	5.9400e-01	8.1189	8.239056	0.000359	3.591422	0.608403	-0.007184
1190	5.9450e-01	8.1055	8.228793	0.000103	1.026121	0.173830	-0.002053
1191	5.9500e-01	8.0975	8.200142	0.000286	2.864587	0.485274	-0.005730
1192	5.9550e-01	8.0875	8.191162	0.000090	0.897856	0.152101	-0.001796
1193	5.9600e-01	8.0750	8.171491	0.000197	1.966731	0.333173	-0.003934
1194	5.9650e-01	8.0678	8.165932	0.000056	0.555815	0.094158	-0.001112
1195	5.9700e-01	8.0566	8.131295	0.000346	3.463157	0.586675	-0.006928
1196	5.9750e-01	8.0469	8.121459	0.000098	0.983366	0.166587	-0.001967
1197	5.9800e-01	8.0347	8.095802	0.000257	2.565301	0.434574	-0.005132
1198	5.9850e-01	8.0243	8.084683	0.000111	1.111631	0.188315	-0.002224
1199	5.9900e-01	8.0157	8.044914	0.000398	3.976217	0.673589	-0.007954
1200	5.9950e-01	8.0054	8.047052	-0.000021	-0.213775	-0.036214	0.000428
1201	6.0000e-01	7.9962	8.024388	0.000227	2.266016	0.383874	-0.004533
1202	6.0050e-01	7.9829	8.003862	0.000205	2.052241	0.347659	-0.004105
1203	6.0100e-01	7.9755	8.011132	-0.000073	-0.726835	-0.123129	0.001454
1204	6.0150e-01	7.9691	7.974784	0.000363	3.634177	0.615646	-0.007270
1205	6.0200e-01	7.9590	7.945278	0.000295	2.950097	0.499760	-0.005901
1206	6.0250e-01	7.9437	7.918765	0.000265	2.650812	0.449060	-0.005303
1207	6.0300e-01	7.9346	7.914061	0.000047	0.470305	0.079672	-0.000941
1208	6.0350e-01	7.9282	7.912778	0.000013	0.128265	0.021729	-0.000257
1209	6.0400e-01	7.9182	7.870016	0.000428	4.275502	0.724290	-0.008553
1210	6.0450e-01	7.9059	7.857614	0.000124	1.239896	0.210044	-0.002480
1211	6.0500e-01	7.8973	7.836233	0.000214	2.137751	0.362145	-0.004276
1212	6.0550e-01	7.8853	7.805444	0.000308	3.078362	0.521489	-0.006158
1213	6.0600e-01	7.8748	7.805872	-0.000004	-0.042755	-0.007243	0.000086
1214	6.0650e-01	7.8662	7.789622	0.000162	1.624691	0.275230	-0.003250
1215	6.0700e-01	7.8546	7.765247	0.000244	2.437036	0.412845	-0.004875
1216	6.0750e-01	7.8464	7.729754	0.000355	3.548667	0.601160	-0.007099
1217	6.0800e-01	7.8348	7.718209	0.000115	1.154386	0.195558	-0.002309
1218	6.0850e-01	7.8250	7.685709	0.000325	3.249382	0.550460	-0.006500
1219	6.0900e-01	7.8156	7.681005	0.000047	0.470305	0.079672	-0.000941
1220	6.0950e-01	7.8058	7.660907	0.000201	2.009486	0.340416	-0.004020
1221	6.1000e-01	7.7966	7.657913	0.000030	0.299285	0.050700	-0.000599
1222	6.1050e-01	7.7863	7.630973	0.000269	2.693567	0.456303	-0.005388
1223	6.1100e-01	7.7753	7.598046	0.000329	3.292137	0.557703	-0.006585
1224	6.1150e-01	7.7667	7.582224	0.000158	1.581936	0.267987	-0.003164
1225	6.1200e-01	7.7557	7.569395	0.000128	1.282651	0.217287	-0.002566
1226	6.1250e-01	7.7490	7.533902	0.000355	3.548667	0.601160	-0.007099
1227	6.1300e-01	7.7374	7.503541	0.000304	3.035607	0.514246	-0.006072
1228	6.1350e-01	7.7261	7.509955	-0.000064	-0.641325	-0.108643	0.001283
1229	6.1400e-01	7.7139	7.493705	0.000162	1.624691	0.275230	-0.003250
1230	6.1450e-01	7.7051	7.486863	0.000068	0.684080	0.115886	-0.001368
1231	6.1500e-01	7.6981	7.457785	0.000291	2.907342	0.492517	-0.005816
1232	6.1550e-01	7.6849	7.439397	0.000184	1.838466	0.311445	-0.003678
1233	6.1600e-01	7.6758	7.406470	0.000329	3.292137	0.557703	-0.006585
1234	6.1650e-01	7.6649	7.380812	0.000257	2.565301	0.434574	-0.005132
1235	6.1700e-01	7.6563	7.381240	-0.000004	-0.042755	-0.007243	0.000086
1236	6.1750e-01	7.6447	7.346602	0.000346	3.463157	0.586675	-0.006928
1237	6.1800e-01	7.6361	7.326931	0.000197	1.966731	0.333173	-0.003934
1238	6.1850e-01	7.6270	7.317951	0.000090	0.897856	0.152101	-0.001796
1239	6.1900e-01	7.6181	7.295715	0.000222	2.223261	0.376631	-0.004447
1240	6.1950e-01	7.6050	7.269202	0.000265	2.650812	0.449060	-0.005303
1241	6.2000e-01	7.5974	7.250814	0.000184	1.838466	0.311445	-0.003678
1242	6.2050e-01	7.5842	7.245683	0.000051	0.513060	0.086915	-0.001026
1243	6.2100e-01	7.5769	7.224729	0.000209	2.094996	0.354902	-0.004191
1244	6.2150e-01	7.5668	7.191802	0.000329	3.292137	0.557703	-0.006585
1245	6.2200e-01	7.5562	7.205486	-0.000137	-1.368161	-0.231773	0.002737
1246	6.2250e-01	7.5461	7.172131	0.000333	3.334892	0.564946	-0.006671
1247	6.2300e-01	7.5354	7.143908	0.000282	2.821832	0.478031	-0.005645
1248	6.2350e-01	7.5269	7.125948	0.000180	1.795711	0.304202	-0.003592
1249	6.2400e-01	7.5171	7.117395	0.000086	0.855100	0.144858	-0.001711
1250	6.2450e-01	7.5058	7.098580	0.000188	1.881221	0.318687	-0.003763
1251	6.2500e-01	7.4951	7.072922	0.000257	2.565301	0.434574	-0.005132
1252	6.2550e-01	7.4844	7.033581	0.000393	3.933462	0.666347	-0.007868
1253	6.2600e-01	7.4762	7.025456	0.000081	0.812345	0.137615	-0.001625
1254	6.2650e-01	7.4664	7.027594	-0.000021	-0.213775	-0.036214	0.000428
1255	6.2700e-01	7.4573	6.997660	0.000299	2.992852	0.507003	-0.005987
1256	6.2750e-01	7.4445	6.967299	0.000304	3.035607	0.514246	-0.006072
1257	6.2800e-01	7.4359	6.959601	0.000077	0.769590	0.130372	-0.001539
1258	6.2850e-01	7.4277	6.938648	0.000209	2.094996	0.354902	-0.004191
1259	6.2900e-01	7.4170	6.901017	0.000376	3.762442	0.637375	-0.007526
1260	6.2950e-01	7.4045	6.901444	-0.000004	-0.042755	-0.007243	0.000086
1261	6.3000e-01	7.3975	6.883056	0.000184	1.838466	0.311445	-0.003678
1262	6.3050e-01	7.3840	6.853550	0.000295	2.950097	0.499760	-0.005901
1263	6.3100e-01	7.3756	6.849702	0.000038	0.384795	0.065186	-0.000770
1264	6.3150e-01	7.3654	6.830459	0.000192	1.923976	0.325930	-0.003849
1265	6.3200e-01	7.3578	6.799242	0.000312	3.121117	0.528732	-0.006243
1266	6.3250e-01	7.3445	6.785558	0.000137	1.368161	0.231773	-0.002737
1267	6.3300e-01	7.3376	6.765459	0.000201	2.009486	0.340416	-0.004020
1268	6.3350e-01	7.3248	6.733388	0.000321	3.206627	0.543217	-0.006414
1269	6.3400e-01	7.3187	6.717138	0.000162	1.624691	0.275230	-0.003250
1270	6.3450e-01	7.3065	6.675658	0.000415	4.147237	0.702561	-0.008296
1271	6.3500e-01	7.2961	6.671810	0.000038	0.384795	0.065186	-0.000770
1272	6.3550e-01	7.2876	6.644442	0.000274	2.736322	0.463545	-0.005474
1273	6.3600e-01	7.2778	6.623060	0.000214	2.137751	0.362145	-0.004276
1274	6.3650e-01	7.2650	6.612797	0.000103	1.026121	0.173830	-0.002053
1275	6.3700e-01	7.2556	6.595265	0.000175	1.752956	0.296959	-0.003507
1276	6.3750e-01	7.2467	6.582436	0.000128	1.282651	0.217287	-0.002566
1277	6.3800e-01	7.2357	6.546515	0.000359	3.591422	0.608403	-0.007184
1278	6.3850e-01	7.2272	6.532831	0.000137	1.368161	0.231773	-0.002737
1279	6.3900e-01	7.2168	6.516582	0.000162	1.624691	0.275230	-0.003250
1280	6.3950e-01	7.2046	6.509312	0.000073	0.726835	0.123129	-0.001454
1281	6.4000e-01	7.1960	6.479378	0.000299	2.992852	0.507003	-0.005987
1282	6.4050e-01	7.1851	6.465267	0.000141	1.410916	0.239016	-0.002822
1283	6.4100e-01	7.1759	6.443458	0.000218	2.180506	0.369388	-0.004362
1284	6.4150e-01	7.1674	6.420793	0.000227	2.266016	0.383874	-0.004533
1285	6.4200e-01	7.1555	6.401550	0.000192	1.923976	0.325930	-0.003849
1286	6.4250e-01	7.1445	6.384445	0.000171	1.710201	0.289716	-0.003421
1287	6.4300e-01	7.1348	6.368196	0.000162	1.624691	0.275230	-0.003250
1288	6.4350e-01	7.1255	6.358360	0.000098	0.983366	0.166587	-0.001967
1289	6.4400e-01	7.1170	6.315598	0.000428	4.275502	0.724290	-0.008553
1290	6.4450e-01	7.1066	6.315170	0.000004	0.042755	0.007243	-0.000086
1291	6.4500e-01	7.0959	6.274118	0.000410	4.104482	0.695318	-0.008210
1292	6.4550e-01	7.0850	6.276256	-0.000021	-0.213775	-0.036214	0.000428
1293	6.4600e-01	7.0746	6.250599	0.000257	2.565301	0.434574	-0.005132
1294	6.4650e-01	7.0633	6.230500	0.000201	2.009486	0.340416	-0.004020
1295	6.4700e-01	7.0560	6.207408	0.000231	2.308771	0.391116	-0.004618
1296	6.4750e-01	7.0447	6.189021	0.000184	1.838466	0.311445	-0.003678
1297	6.4800e-01	7.0334	6.157804	0.000312	3.121117	0.528732	-0.006243
1298	6.4850e-01	7.0245	6.168067	-0.000103	-1.026121	-0.173830	0.002053
1299	6.4900e-01	7.0160	6.127015	0.000410	4.104482	0.695318	-0.008210
1300	6.4950e-01	7.0074	6.113331	0.000137	1.368161	0.231773	-0.002737
1301	6.5000e-01	6.9946	6.068003	0.000453	4.532033	0.767747	-0.009066
1302	6.5050e-01	6.9861	6.083825	-0.000158	-1.581936	-0.267987	0.003164
1303	6.5100e-01	6.9769	6.065865	0.000180	1.795711	0.304202	-0.003592
1304	6.5150e-01	6.9653	6.025240	0.000406	4.061727	0.688075	-0.008125
1305	6.5200e-01	6.9550	6.033793	-0.000086	-0.855100	-0.144858	0.001711
1306	6.5250e-01	6.9464	5.968794	0.000650	6.498764	1.100920	-0.013000
1307	6.5300e-01	6.9373	5.954254	0.000145	1.453671	0.246259	-0.002908
1308	6.5350e-01	6.9263	5.949123	0.000051	0.513060	0.086915	-0.001026
1309	6.5400e-01	6.9159	5.938005	0.000111	1.111631	0.188315	-0.002224
1310	6.5450e-01	6.9060	5.899518	0.000385	3.847952	0.651861	-0.007697
1311	6.5500e-01	6.8982	5.883696	0.000158	1.581936	0.267987	-0.003164
1312	6.5550e-01	6.8860	5.857183	0.000265	2.650812	0.449060	-0.005303
1313	6.5600e-01	6.8765	5.878565	-0.000214	-2.137751	-0.362145	0.004276
1314	6.5650e-01	6.8652	5.828960	0.000496	4.959583	0.840176	-0.009921
1315	6.5700e-01	6.8567	5.808434	0.000205	2.052241	0.347659	-0.004105
1316	6.5750e-01	6.8478	5.803730	0.000047	0.470305	0.079672	-0.000941
1317	6.5800e-01	6.8359	5.763961	0.000398	3.976217	0.673589	-0.007954
1318	6.5850e-01	6.8251	5.733172	0.000308	3.078362	0.521489	-0.006158
1319	6.5900e-01	6.8152	5.717350	0.000158	1.581936	0.267987	-0.003164
1320	6.5950e-01	6.8048	5.709225	0.000081	0.812345	0.137615	-0.001625
1321	6.6000e-01	6.7944	5.685278	0.000239	2.394281	0.405602	-0.004789
1322	6.6050e-01	6.7874	5.661331	0.000239	2.394281	0.405602	-0.004789
1323	6.6100e-01	6.7766	5.636529	0.000248	2.479791	0.420088	-0.004960
1324	6.6150e-01	6.7645	5.621562	0.000150	1.496426	0.253501	-0.002993
1325	6.6200e-01	6.7560	5.612582	0.000090	0.897856	0.152101	-0.001796
1326	6.6250e-01	6.7456	5.586497	0.000261	2.608057	0.441817	-0.005217
1327	6.6300e-01	6.7358	5.557846	0.000286	2.864587	0.485274	-0.005730
1328	6.6350e-01	6.7261	5.528340	0.000295	2.950097	0.499760	-0.005901
1329	6.6400e-01	6.7152	5.521498	0.000068	0.684080	0.115886	-0.001368
1330	6.6450e-01	6.7035	5.503110	0.000184	1.838466	0.311445	-0.003678
1331	6.6500e-01	6.6962	5.470610	0.000325	3.249382	0.550460	-0.006500
1332	6.6550e-01	6.6858	5.453505	0.000171	1.710201	0.289716	-0.003421
1333	6.6600e-01	6.6745	5.435545	0.000180	1.795711	0.304202	-0.003592
1334	6.6650e-01	6.6652	5.431269	0.000043	0.427550	0.072429	-0.000855
1335	6.6700e-01	6.6565	5.404328	0.000269	2.693567	0.456303	-0.005388
1336	6.6750e-01	6.6440	5.385940	0.000184	1.838466	0.311445	-0.003678
1337	6.6800e-01	6.6394	5.373967	0.000120	1.197141	0.202801	-0.002395
1338	6.6850e-01	6.6248	5.332487	0.000415	4.147237	0.702561	-0.008296
1339	6.6900e-01	6.6168	5.311534	0.000209	2.094996	0.354902	-0.004191
1340	6.6950e-01	6.6055	5.297850	0.000137	1.368161	0.231773	-0.002737
1341	6.7000e-01	6.5973	5.294429	0.000034	0.342040	0.057943	-0.000684
1342	6.7050e-01	6.5863	5.255942	0.000385	3.847952	0.651861	-0.007697
1343	6.7100e-01	6.5760	5.240975	0.000150	1.496426	0.253501	-0.002993
1344	6.7150e-01	6.5662	5.227291	0.000137	1.368161	0.231773	-0.002737
1345	6.7200e-01	6.5598	5.208048	0.000192	1.923976	0.325930	-0.003849
1346	6.7250e-01	6.5454	5.166996	0.000410	4.104482	0.695318	-0.008210
1347	6.7300e-01	6.5363	5.157161	0.000098	0.983366	0.166587	-0.001967
1348	6.7350e-01	6.5280	5.107984	0.000492	4.916828	0.832933	-0.009835
1349	6.7400e-01	6.5167	5.109694	-0.000017	-0.171020	-0.028972	0.000342
1350	6.7450e-01	6.5052	5.104563	0.000051	0.513060	0.086915	-0.001026
1351	6.7500e-01	6.4948	5.072491	0.000321	3.206627	0.543217	-0.006414
1352	6.7550e-01	6.4856	5.068642	0.000038	0.384795	0.065186	-0.000770
1353	6.7600e-01	6.4740	5.043412	0.000252	2.522546	0.427331	-0.005046
1354	6.7650e-01	6.4679	5.004926	0.000385	3.847952	0.651861	-0.007697
1355	6.7700e-01	6.4569	4.970289	0.000346	3.463157	0.586675	-0.006928
1356	6.7750e-01	6.4435	4.975420	-0.000051	-0.513060	-0.086915	0.001026
1357	6.7800e-01	6.4349	4.955322	0.000201	2.009486	0.340416	-0.004020
1358	6.7850e-01	6.4252	4.940355	0.000150	1.496426	0.253501	-0.002993
1359	6.7900e-01	6.4154	4.918118	0.000222	2.223261	0.376631	-0.004447
1360	6.7950e-01	6.4056	4.868514	0.000496	4.959583	0.840176	-0.009921
1361	6.8000e-01	6.3959	4.866376	0.000021	0.213775	0.036214	-0.000428
1362	6.8050e-01	6.3837	4.846277	0.000201	2.009486	0.340416	-0.004020
1363	6.8100e-01	6.3754	4.828317	0.000180	1.795711	0.304202	-0.003592
1364	6.8150e-01	6.3641	4.818054	0.000103	1.026121	0.173830	-0.002053
1365	6.8200e-01	6.3541	4.776147	0.000419	4.189992	0.709804	-0.008381
1366	6.8250e-01	6.3452	4.776147	-0.000000	-0.000000	-0.000000	0.000000
1367	6.8300e-01	6.3348	4.732529	0.000436	4.361013	0.738776	-0.008724
1368	6.8350e-01	6.3258	4.709437	0.000231	2.308771	0.391116	-0.004618
1369	6.8400e-01	6.3156	4.701312	0.000081	0.812345	0.137615	-0.001625
1370	6.8450e-01	6.3046	4.683780	0.000175	1.752956	0.296959	-0.003507
1371	6.8500e-01	6.2943	4.693187	-0.000094	-0.940611	-0.159344	0.001882
1372	6.8550e-01	6.2866	4.658550	0.000346	3.463157	0.586675	-0.006928
1373	6.8600e-01	6.2744	4.614504	0.000440	4.403768	0.746018	-0.008809
1374	6.8650e-01	6.2666	4.587992	0.000265	2.650812	0.449060	-0.005303
1375	6.8700e-01	6.2576	4.580294	0.000077	0.769590	0.130372	-0.001539
1376	6.8750e-01	6.2494	4.553354	0.000269	2.693567	0.456303	-0.005388
1377	6.8800e-01	6.2386	4.524703	0.000286	2.864587	0.485274	-0.005730
1378	6.8850e-01	6.2256	4.516151	0.000086	0.855100	0.144858	-0.001711
1379	6.8900e-01	6.2173	4.487072	0.000291	2.907342	0.492517	-0.005816
1380	6.8950e-01	6.2042	4.485362	0.000017	0.171020	0.028972	-0.000342
1381	6.9000e-01	6.1945	4.449441	0.000359	3.591422	0.608403	-0.007184
1382	6.9050e-01	6.1835	4.414376	0.000351	3.505912	0.593918	-0.007013
1383	6.9100e-01	6.1768	4.400692	0.000137	1.368161	0.231773	-0.002737
1384	6.9150e-01	6.1658	4.383587	0.000171	1.710201	0.289716	-0.003421
1385	6.9200e-01	6.1584	4.372468	0.000111	1.111631	0.188315	-0.002224
1386	6.9250e-01	6.1465	4.341679	0.000308	3.078362	0.521489	-0.006158
1387	6.9300e-01	6.1341	4.317305	0.000244	2.437036	0.412845	-0.004875
1388	6.9350e-01	6.1267	4.303621	0.000137	1.368161	0.231773	-0.002737
1389	6.9400e-01	6.1172	4.301055	0.000026	0.256530	0.043457	-0.000513
1390	6.9450e-01	6.1032	4.270266	0.000308	3.078362	0.521489	-0.006158
1391	6.9500e-01	6.0974	4.237766	0.000325	3.249382	0.550460	-0.006500
1392	6.9550e-01	6.0858	4.218523	0.000192	1.923976	0.325930	-0.003849
1393	6.9600e-01	6.0770	4.204839	0.000137	1.368161	0.231773	-0.002737
1394	6.9650e-01	6.0663	4.167636	0.000372	3.719687	0.630132	-0.007441
1395	6.9700e-01	6.0565	4.161222	0.000064	0.641325	0.108643	-0.001283
1396	6.9750e-01	6.0455	4.123591	0.000376	3.762442	0.637375	-0.007526
1397	6.9800e-01	6.0376	4.131715	-0.000081	-0.812345	-0.137615	0.001625
1398	6.9850e-01	6.0266	4.109479	0.000222	2.223261	0.376631	-0.004447
1399	6.9900e-01	6.0135	4.079117	0.000304	3.035607	0.514246	-0.006072
1400	6.9950e-01	6.0048	4.072703	0.000064	0.641325	0.108643	-0.001283
1401	7.0000e-01	5.9961	4.048756	0.000239	2.394281	0.405602	-0.004789
1402	7.0050e-01	5.9854	4.012408	0.000363	3.634177	0.615646	-0.007270
1403	7.0100e-01	5.9750	3.997869	0.000145	1.453671	0.246259	-0.002908
1404	7.0150e-01	5.9644	3.978198	0.000197	1.966731	0.333173	-0.003934
1405	7.0200e-01	5.9549	3.949975	0.000282	2.821832	0.478031	-0.005645
1406	7.0250e-01	5.9445	3.924745	0.000252	2.522546	0.427331	-0.005046
1407	7.0300e-01	5.9360	3.892245	0.000325	3.249382	0.550460	-0.006500
1408	7.0350e-01	5.9256	3.886686	0.000056	0.555815	0.094158	-0.001112
1409	7.0400e-01	5.9155	3.851621	0.000351	3.505912	0.593918	-0.007013
1410	7.0450e-01	5.9071	3.836226	0.000154	1.539181	0.260744	-0.003079
1411	7.0500e-01	5.8951	3.822542	0.000137	1.368161	0.231773	-0.002737
1412	7.0550e-01	5.8857	3.808003	0.000145	1.453671	0.246259	-0.002908
1413	7.0600e-01	5.8765	3.782773	0.000252	2.522546	0.427331	-0.005046
1414	7.0650e-01	5.8667	3.762675	0.000201	2.009486	0.340416	-0.004020
1415	7.0700e-01	5.8582	3.766951	-0.000043	-0.427550	-0.072429	0.000855
1416	7.0750e-01	5.8453	3.706656	0.000603	6.028459	1.021249	-0.012059
1417	7.0800e-01	5.8377	3.702807	0.000038	0.384795	0.065186	-0.000770
1418	7.0850e-01	5.8282	3.688696	0.000141	1.410916	0.239016	-0.002822
1419	7.0900e-01	5.8148	3.666459	0.000222	2.223261	0.376631	-0.004447
1420	7.0950e-01	5.8070	3.626690	0.000398	3.976217	0.673589	-0.007954
1421	7.1000e-01	5.7941	3.619848	0.000068	0.684080	0.115886	-0.001368
1422	7.1050e-01	5.7898	3.577085	0.000428	4.275502	0.724290	-0.008553
1423	7.1100e-01	5.7755	3.549290	0.000278	2.779077	0.470788	-0.005559
1424	7.1150e-01	5.7678	3.557415	-0.000081	-0.812345	-0.137615	0.001625
1425	7.1200e-01	5.7562	3.533040	0.000244	2.437036	0.412845	-0.004875
1426	7.1250e-01	5.7465	3.496264	0.000368	3.676932	0.622889	-0.007355
1427	7.1300e-01	5.7355	3.483863	0.000124	1.239896	0.210044	-0.002480
1428	7.1350e-01	5.7257	3.479159	0.000047	0.470305	0.079672	-0.000941
1429	7.1400e-01	5.7149	3.433403	0.000457	4.574788	0.774990	-0.009151
1430	7.1450e-01	5.7065	3.429555	0.000038	0.384795	0.065186	-0.000770
1431	7.1500e-01	5.6952	3.397055	0.000325	3.249382	0.550460	-0.006500
1432	7.1550e-01	5.6870	3.372681	0.000244	2.437036	0.412845	-0.004875
1433	7.1600e-01	5.6776	3.350444	0.000222	2.223261	0.376631	-0.004447
1434	7.1650e-01	5.6677	3.330773	0.000197	1.966731	0.333173	-0.003934
1435	7.1700e-01	5.6580	3.297846	0.000329	3.292137	0.557703	-0.006585
1436	7.1750e-01	5.6451	3.301267	-0.000034	-0.342040	-0.057943	0.000684
1437	7.1800e-01	5.6348	3.267912	0.000333	3.334892	0.564946	-0.006671
1438	7.1850e-01	5.6241	3.238406	0.000295	2.950097	0.499760	-0.005901
1439	7.1900e-01	5.6140	3.214887	0.000235	2.351526	0.398359	-0.004704
1440	7.1950e-01	5.6061	3.183243	0.000316	3.163872	0.535974	-0.006329
1441	7.2000e-01	5.5966	3.175118	0.000081	0.812345	0.137615	-0.001625
1442	7.2050e-01	5.5853	3.173835	0.000013	0.128265	0.021729	-0.000257
1443	7.2100e-01	5.5740	3.150315	0.000235	2.351526	0.398359	-0.004704
1444	7.2150e-01	5.5641	3.117388	0.000329	3.292137	0.557703	-0.006585
1445	7.2200e-01	5.5548	3.104132	0.000133	1.325406	0.224530	-0.002651
1446	7.2250e-01	5.5444	3.075053	0.000291	2.907342	0.492517	-0.005816
1447	7.2300e-01	5.5359	3.047685	0.000274	2.736322	0.463545	-0.005474
1448	7.2350e-01	5.5273	3.046402	0.000013	0.128265	0.021729	-0.000257
1449	7.2400e-01	5.5154	3.002785	0.000436	4.361013	0.738776	-0.008724
1450	7.2450e-01	5.5054	2.975844	0.000269	2.693567	0.456303	-0.005388
1451	7.2500e-01	5.4938	2.950187	0.000257	2.565301	0.434574	-0.005132
1452	7.2550e-01	5.4855	2.939069	0.000111	1.111631	0.188315	-0.002224
1453	7.2600e-01	5.4770	2.908279	0.000308	3.078362	0.521489	-0.006158
1454	7.2650e-01	5.4669	2.890747	0.000175	1.752956	0.296959	-0.003507
1455	7.2700e-01	5.4562	2.890747	-0.000000	-0.000000	-0.000000	0.000000
1456	7.2750e-01	5.4437	2.868510	0.000222	2.223261	0.376631	-0.004447
1457	7.2800e-01	5.4352	2.839004	0.000295	2.950097	0.499760	-0.005901
1458	7.2850e-01	5.4272	2.823610	0.000154	1.539181	0.260744	-0.003079
1459	7.2900e-01	5.4153	2.793248	0.000304	3.035607	0.514246	-0.006072
1460	7.2950e-01	5.4048	2.785551	0.000077	0.769590	0.130372	-0.001539
1461	7.3000e-01	5.3973	2.749631	0.000359	3.591422	0.608403	-0.007184
1462	7.3050e-01	5.3857	2.718841	0.000308	3.078362	0.521489	-0.006158
1463	7.3100e-01	5.3772	2.708151	0.000107	1.068876	0.181072	-0.002138
1464	7.3150e-01	5.3656	2.668809	0.000393	3.933462	0.666347	-0.007868
1465	7.3200e-01	5.3554	2.650849	0.000180	1.795711	0.304202	-0.003592
1466	7.3250e-01	5.3458	2.639731	0.000111	1.111631	0.188315	-0.002224
1467	7.3300e-01	5.3345	2.630323	0.000094	0.940611	0.159344	-0.001882
1468	7.3350e-01	5.3235	2.604238	0.000261	2.608057	0.441817	-0.005217
1469	7.3400e-01	5.3165	2.576442	0.000278	2.779077	0.470788	-0.005559
1470	7.3450e-01	5.3070	2.547364	0.000291	2.907342	0.492517	-0.005816
1471	7.3500e-01	5.2936	2.526410	0.000209	2.094996	0.354902	-0.004191
1472	7.3550e-01	5.2875	2.498614	0.000278	2.779077	0.470788	-0.005559
1473	7.3600e-01	5.2750	2.476806	0.000218	2.180506	0.369388	-0.004362
1474	7.3650e-01	5.2657	2.464404	0.000124	1.239896	0.210044	-0.002480
1475	7.3700e-01	5.2545	2.422070	0.000423	4.232747	0.717047	-0.008467
1476	7.3750e-01	5.2460	2.400261	0.000218	2.180506	0.369388	-0.004362
1477	7.3800e-01	5.2374	2.393419	0.000068	0.684080	0.115886	-0.001368
1478	7.3850e-01	5.2267	2.372465	0.000209	2.094996	0.354902	-0.004191
1479	7.3900e-01	5.2167	2.361347	0.000111	1.111631	0.188315	-0.002224
1480	7.3950e-01	5.2054	2.339538	0.000218	2.180506	0.369388	-0.004362
1481	7.4000e-01	5.1965	2.314308	0.000252	2.522546	0.427331	-0.005046
1482	7.4050e-01	5.1862	2.277532	0.000368	3.676932	0.622889	-0.007355
1483	7.4100e-01	5.1746	2.292499	-0.000150	-1.496426	-0.253501	0.002993
1484	7.4150e-01	5.1654	2.250164	0.000423	4.232747	0.717047	-0.008467
1485	7.4200e-01	5.1550	2.232632	0.000175	1.752956	0.296959	-0.003507
1486	7.4250e-01	5.1453	2.183027	0.000496	4.959583	0.840176	-0.009921
1487	7.4300e-01	5.1350	2.162929	0.000201	2.009486	0.340416	-0.004020
1488	7.4350e-01	5.1270	2.154804	0.000081	0.812345	0.137615	-0.001625
1489	7.4400e-01	5.1129	2.138982	0.000158	1.581936	0.267987	-0.003164
1490	7.4450e-01	5.1057	2.107765	0.000312	3.121117	0.528732	-0.006243
1491	7.4500e-01	5.0967	2.074410	0.000333	3.334892	0.564946	-0.006671
1492	7.4550e-01	5.0856	2.072700	0.000017	0.171020	0.028972	-0.000342
1493	7.4600e-01	5.0812	2.058160	0.000145	1.453671	0.246259	-0.002908
1494	7.4650e-01	5.0659	2.008128	0.000500	5.002338	0.847419	-0.010006
1495	7.4700e-01	5.0563	2.003852	0.000043	0.427550	0.072429	-0.000855
1496	7.4750e-01	5.0443	1.979050	0.000248	2.479791	0.420088	-0.004960
1497	7.4800e-01	5.0330	1.980333	-0.000013	-0.128265	-0.021729	0.000257
1498	7.4850e-01	5.0261	1.924741	0.000556	5.558153	0.941577	-0.011118
1499	7.4900e-01	5.0159	1.908492	0.000162	1.624691	0.275230	-0.003250
1500	7.4950e-01	5.0046	1.896090	0.000124	1.239896	0.210044	-0.002480
1501	7.5000e-01	4.9968	1.882834	0.000133	1.325406	0.224530	-0.002651
1502	7.5050e-01	4.9850	1.860598	0.000222	2.223261	0.376631	-0.004447
1503	7.5100e-01	4.9731	1.824249	0.000363	3.634177	0.615646	-0.007270
1504	7.5150e-01	4.9661	1.808855	0.000154	1.539181	0.260744	-0.003079
1505	7.5200e-01	4.9567	1.786618	0.000222	2.223261	0.376631	-0.004447
1506	7.5250e-01	4.9471	1.753264	0.000333	3.334892	0.564946	-0.006671
1507	7.5300e-01	4.9347	1.730172	0.000231	2.308771	0.391116	-0.004618
1508	7.5350e-01	4.9255	1.683133	0.000470	4.703053	0.796719	-0.009408
1509	7.5400e-01	4.9161	1.695107	-0.000120	-1.197141	-0.202801	0.002395
1510	7.5450e-01	4.9031	1.683561	0.000115	1.154386	0.195558	-0.002309
1511	7.5500e-01	4.8959	1.633101	0.000505	5.045093	0.854662	-0.010092
1512	7.5550e-01	4.8865	1.617279	0.000158	1.581936	0.267987	-0.003164
1513	7.5600e-01	4.8779	1.586490	0.000308	3.078362	0.521489	-0.006158
1514	7.5650e-01	4.8669	1.580503	0.000060	0.598570	0.101401	-0.001197
1515	7.5700e-01	4.8566	1.550569	0.000299	2.992852	0.507003	-0.005987
1516	7.5750e-01	4.8457	1.530043	0.000205	2.052241	0.347659	-0.004105
1517	7.5800e-01	4.8358	1.527905	0.000021	0.213775	0.036214	-0.000428
1518	7.5850e-01	4.8248	1.503958	0.000239	2.394281	0.405602	-0.004789
1519	7.5900e-01	4.8141	1.479156	0.000248	2.479791	0.420088	-0.004960
1520	7.5950e-01	4.8059	1.441525	0.000376	3.762442	0.637375	-0.007526
1521	7.6000e-01	4.7949	1.433400	0.000081	0.812345	0.137615	-0.001625
1522	7.6050e-01	4.7852	1.391065	0.000423	4.232747	0.717047	-0.008467
1523	7.6100e-01	4.7748	1.374388	0.000167	1.667446	0.282473	-0.003335
1524	7.6150e-01	4.7693	1.358993	0.000154	1.539181	0.260744	-0.003079
1525	7.6200e-01	4.7552	1.330342	0.000286	2.864587	0.485274	-0.005730
1526	7.6250e-01	4.7426	1.303829	0.000265	2.650812	0.449060	-0.005303
1527	7.6300e-01	4.7372	1.283303	0.000205	2.052241	0.347659	-0.004105
1528	7.6350e-01	4.7253	1.254653	0.000286	2.864587	0.485274	-0.005730
1529	7.6400e-01	4.7169	1.244390	0.000103	1.026121	0.173830	-0.002053
1530	7.6450e-01	4.7076	1.239258	0.000051	0.513060	0.086915	-0.001026
1531	7.6500e-01	4.6945	1.196923	0.000423	4.232747	0.717047	-0.008467
1532	7.6550e-01	4.6835	1.189654	0.000073	0.726835	0.123129	-0.001454
1533	7.6600e-01	4.6759	1.170838	0.000188	1.881221	0.318687	-0.003763
1534	7.6650e-01	4.6664	1.137911	0.000329	3.292137	0.557703	-0.006585
1535	7.6700e-01	4.6570	1.112681	0.000252	2.522546	0.427331	-0.005046
1536	7.6750e-01	4.6472	1.096859	0.000158	1.581936	0.267987	-0.003164
1537	7.6800e-01	4.6393	1.066925	0.000299	2.992852	0.507003	-0.005987
1538	7.6850e-01	4.6260	1.019886	0.000470	4.703053	0.796719	-0.009408
1539	7.6900e-01	4.6198	1.021169	-0.000013	-0.128265	-0.021729	0.000257
1540	7.6950e-01	4.6063	0.992518	0.000286	2.864587	0.485274	-0.005730
1541	7.7000e-01	4.5963	0.966861	0.000257	2.565301	0.434574	-0.005132
1542	7.7050e-01	4.5865	0.950183	0.000167	1.667446	0.282473	-0.003335
1543	7.7100e-01	4.5776	0.913835	0.000363	3.634177	0.615646	-0.007270
1544	7.7150e-01	4.5660	0.899296	0.000145	1.453671	0.246259	-0.002908
1545	7.7200e-01	4.5566	0.874066	0.000252	2.522546	0.427331	-0.005046
1546	7.7250e-01	4.5447	0.874494	-0.000004	-0.042755	-0.007243	0.000086
1547	7.7300e-01	4.5356	0.844560	0.000299	2.992852	0.507003	-0.005987
1548	7.7350e-01	4.5255	0.824034	0.000205	2.052241	0.347659	-0.004105
1549	7.7400e-01	4.5160	0.799659	0.000244	2.437036	0.412845	-0.004875
1550	7.7450e-01	4.5041	0.759890	0.000398	3.976217	0.673589	-0.007954
1551	7.7500e-01	4.4952	0.750482	0.000094	0.940611	0.159344	-0.001882
1552	7.7550e-01	4.4861	0.713279	0.000372	3.719687	0.630132	-0.007441
1553	7.7600e-01	4.4751	0.709430	0.000038	0.384795	0.065186	-0.000770
1554	7.7650e-01	4.4647	0.671372	0.000381	3.805197	0.644618	-0.007612
1555	7.7700e-01	4.4556	0.645714	0.000257	2.565301	0.434574	-0.005132
1556	7.7750e-01	4.4461	0.632030	0.000137	1.368161	0.231773	-0.002737
1557	7.7800e-01	4.4354	0.610649	0.000214	2.137751	0.362145	-0.004276
1558	7.7850e-01	4.4225	0.589268	0.000214	2.137751	0.362145	-0.004276
1559	7.7900e-01	4.4180	0.561472	0.000278	2.779077	0.470788	-0.005559
1560	7.7950e-01	4.4058	0.552064	0.000094	0.940611	0.159344	-0.001882
1561	7.8000e-01	4.3958	0.526834	0.000252	2.522546	0.427331	-0.005046
1562	7.8050e-01	4.3878	0.506736	0.000201	2.009486	0.340416	-0.004020
1563	7.8100e-01	4.3741	0.453710	0.000530	5.301623	0.898119	-0.010605
1564	7.8150e-01	4.3677	0.441737	0.000120	1.197141	0.202801	-0.002395
1565	7.8200e-01	4.3549	0.434895	0.000068	0.684080	0.115886	-0.001368
1566	7.8250e-01	4.3457	0.401540	0.000333	3.334892	0.564946	-0.006671
1567	7.8300e-01	4.3353	0.376738	0.000248	2.479791	0.420088	-0.004960
1568	7.8350e-01	4.3256	0.367758	0.000090	0.897856	0.152101	-0.001796
1569	7.8400e-01	4.3176	0.327561	0.000402	4.018972	0.680832	-0.008039
1570	7.8450e-01	4.3066	0.295061	0.000325	3.249382	0.550460	-0.006500
1571	7.8500e-01	4.2953	0.296772	-0.000017	-0.171020	-0.028972	0.000342
1572	7.8550e-01	4.2847	0.278384	0.000184	1.838466	0.311445	-0.003678
1573	7.8600e-01	4.2757	0.238187	0.000402	4.018972	0.680832	-0.008039
1574	7.8650e-01	4.2636	0.216806	0.000214	2.137751	0.362145	-0.004276
1575	7.8700e-01	4.2560	0.184734	0.000321	3.206627	0.543217	-0.006414
1576	7.8750e-01	4.2462	0.170195	0.000145	1.453671	0.246259	-0.002908
1577	7.8800e-01	4.2349	0.151379	0.000188	1.881221	0.318687	-0.003763
1578	7.8850e-01	4.2267	0.118025	0.000333	3.334892	0.564946	-0.006671
1579	7.8900e-01	4.2160	0.093650	0.000244	2.437036	0.412845	-0.004875
1580	7.8950e-01	4.2050	0.069275	0.000244	2.437036	0.412845	-0.004875
1581	7.9000e-01	4.1946	0.035921	0.000333	3.334892	0.564946	-0.006671
1582	7.9050e-01	4.1847	0.015822	0.000201	2.009486	0.340416	-0.004020
1583	7.9100e-01	4.1773	0.023092	-0.000073	-0.726835	-0.123129	0.001454
1584	7.9150e-01	4.1647	-0.015395	0.000385	3.847952	0.651861	-0.007697
1585	7.9200e-01	4.1548	-0.038486	0.000231	2.308771	0.391116	-0.004618
1586	7.9250e-01	4.1468	-0.085953	0.000475	4.745808	0.803962	-0.009493
1587	7.9300e-01	4.1354	-0.100492	0.000145	1.453671	0.246259	-0.002908
1588	7.9350e-01	4.1278	-0.116742	0.000162	1.624691	0.275230	-0.003250
1589	7.9400e-01	4.1153	-0.122728	0.000060	0.598570	0.101401	-0.001197
1590	7.9450e-01	4.1058	-0.155228	0.000325	3.249382	0.550460	-0.006500
1591	7.9500e-01	4.0939	-0.175326	0.000201	2.009486	0.340416	-0.004020
1592	7.9550e-01	4.0857	-0.180885	0.000056	0.555815	0.094158	-0.001112
1593	7.9600e-01	4.0784	-0.239043	0.000581	5.814683	0.985034	-0.011631
1594	7.9650e-01	4.0639	-0.243746	0.000047	0.470305	0.079672	-0.000941
1595	7.9700e-01	4.0556	-0.250161	0.000064	0.641325	0.108643	-0.001283
1596	7.9750e-01	4.0433	-0.286937	0.000368	3.676932	0.622889	-0.007355
1597	7.9800e-01	4.0352	-0.324568	0.000376	3.762442	0.637375	-0.007526
1598	7.9850e-01	4.0256	-0.341673	0.000171	1.710201	0.289716	-0.003421
1599	7.9900e-01	4.0140	-0.360488	0.000188	1.881221	0.318687	-0.003763
1600	7.9950e-01	4.0042	-0.398974	0.000385	3.847952	0.651861	-0.007697
1601	8.0000e-01	3.9957	-0.409665	0.000107	1.068876	0.181072	-0.002138
1602	8.0050e-01	3.9844	-0.434467	0.000248	2.479791	0.420088	-0.004960
1603	8.0100e-01	3.9755	-0.449007	0.000145	1.453671	0.246259	-0.002908
1604	8.0150e-01	3.9661	-0.502887	0.000539	5.387133	0.912605	-0.010776
1605	8.0200e-01	3.9551	-0.505881	0.000030	0.299285	0.050700	-0.000599
1606	8.0250e-01	3.9465	-0.532821	0.000269	2.693567	0.456303	-0.005388
1607	8.0300e-01	3.9363	-0.559334	0.000265	2.650812	0.449060	-0.005303
1608	8.0350e-01	3.9249	-0.556340	-0.000030	-0.299285	-0.050700	0.000599
1609	8.0400e-01	3.9182	-0.607228	0.000509	5.087848	0.861905	-0.010177
1610	8.0450e-01	3.9045	-0.623050	0.000158	1.581936	0.267987	-0.003164
1611	8.0500e-01	3.8950	-0.626471	0.000034	0.342040	0.057943	-0.000684
1612	8.0550e-01	3.8885	-0.658115	0.000316	3.163872	0.535974	-0.006329
1613	8.0600e-01	3.8757	-0.679497	0.000214	2.137751	0.362145	-0.004276
1614	8.0650e-01	3.8660	-0.729529	0.000500	5.002338	0.847419	-0.010006
1615	8.0700e-01	3.8588	-0.742357	0.000128	1.282651	0.217287	-0.002566
1616	8.0750e-01	3.8449	-0.742357	-0.000000	-0.000000	-0.000000	0.000000
1617	8.0800e-01	3.8345	-0.794100	0.000517	5.173358	0.876391	-0.010349
1618	8.0850e-01	3.8263	-0.807357	0.000133	1.325406	0.224530	-0.002651
1619	8.0900e-01	3.8159	-0.841567	0.000342	3.420402	0.579432	-0.006842
1620	8.0950e-01	3.8031	-0.848836	0.000073	0.726835	0.123129	-0.001454
1621	8.1000e-01	3.7958	-0.890316	0.000415	4.147237	0.702561	-0.008296
1622	8.1050e-01	3.7854	-0.918967	0.000286	2.864587	0.485274	-0.005730
1623	8.1100e-01	3.7744	-0.913835	-0.000051	-0.513060	-0.086915	0.001026
1624	8.1150e-01	3.7671	-0.945479	0.000316	3.163872	0.535974	-0.006329
1625	8.1200e-01	3.7561	-0.984393	0.000389	3.890707	0.659104	-0.007783
1626	8.1250e-01	3.7433	-1.010051	0.000257	2.565301	0.434574	-0.005132
1627	8.1300e-01	3.7338	-1.025018	0.000150	1.496426	0.253501	-0.002993
1628	8.1350e-01	3.7244	-1.033570	0.000086	0.855100	0.144858	-0.001711
1629	8.1400e-01	3.7146	-1.044261	0.000107	1.068876	0.181072	-0.002138
1630	8.1450e-01	3.7048	-1.087451	0.000432	4.318258	0.731533	-0.008638
1631	8.1500e-01	3.6987	-1.110115	0.000227	2.266016	0.383874	-0.004533
1632	8.1550e-01	3.6847	-1.148601	0.000385	3.847952	0.651861	-0.007697
1633	8.1600e-01	3.6757	-1.166562	0.000180	1.795711	0.304202	-0.003592
1634	8.1650e-01	3.6673	-1.195640	0.000291	2.907342	0.492517	-0.005816
1635	8.1700e-01	3.6572	-1.211890	0.000162	1.624691	0.275230	-0.003250
1636	8.1750e-01	3.6462	-1.238403	0.000265	2.650812	0.449060	-0.005303
1637	8.1800e-01	3.6337	-1.230706	-0.000077	-0.769590	-0.130372	0.001539
1638	8.1850e-01	3.6264	-1.261922	0.000312	3.121117	0.528732	-0.006243
1639	8.1900e-01	3.6166	-1.293139	0.000312	3.121117	0.528732	-0.006243
1640	8.1950e-01	3.6066	-1.326066	0.000329	3.292137	0.557703	-0.006585
1641	8.2000e-01	3.5976	-1.354289	0.000282	2.821832	0.478031	-0.005645
1642	8.2050e-01	3.5858	-1.389355	0.000351	3.505912	0.593918	-0.007013
1643	8.2100e-01	3.5748	-1.402183	0.000128	1.282651	0.217287	-0.002566
1644	8.2150e-01	3.5657	-1.423992	0.000218	2.180506	0.369388	-0.004362
1645	8.2200e-01	3.5559	-1.459485	0.000355	3.548667	0.601160	-0.007099
1646	8.2250e-01	3.5450	-1.470176	0.000107	1.068876	0.181072	-0.002138
1647	8.2300e-01	3.5382	-1.497116	0.000269	2.693567	0.456303	-0.005388
1648	8.2350e-01	3.5252	-1.523629	0.000265	2.650812	0.449060	-0.005303
1649	8.2400e-01	3.5175	-1.574516	0.000509	5.087848	0.861905	-0.010177
1650	8.2450e-01	3.5046	-1.581358	0.000068	0.684080	0.115886	-0.001368
1651	8.2500e-01	3.4949	-1.581358	-0.000000	-0.000000	-0.000000	0.000000
1652	8.2550e-01	3.4859	-1.615568	0.000342	3.420402	0.579432	-0.006842
1653	8.2600e-01	3.4756	-1.636522	0.000209	2.094996	0.354902	-0.004191
1654	8.2650e-01	3.4634	-1.646785	0.000103	1.026121	0.173830	-0.002053
1655	8.2700e-01	3.4558	-1.691686	0.000449	4.489278	0.760504	-0.008980
1656	8.2750e-01	3.4457	-1.718626	0.000269	2.693567	0.456303	-0.005388
1657	8.2800e-01	3.4366	-1.695962	-0.000227	-2.266016	-0.383874	0.004533
1658	8.2850e-01	3.4265	-1.760961	0.000650	6.498764	1.100920	-0.013000
1659	8.2900e-01	3.4149	-1.778494	0.000175	1.752956	0.296959	-0.003507
1660	8.2950e-01	3.4073	-1.822111	0.000436	4.361013	0.738776	-0.008724
1661	8.3000e-01	3.3964	-1.862736	0.000406	4.061727	0.688075	-0.008125
1662	8.3050e-01	3.3856	-1.866157	0.000034	0.342040	0.057943	-0.000684
1663	8.3100e-01	3.3749	-1.886683	0.000205	2.052241	0.347659	-0.004105
1664	8.3150e-01	3.3701	-1.908919	0.000222	2.223261	0.376631	-0.004447
1665	8.3200e-01	3.3569	-1.946978	0.000381	3.805197	0.644618	-0.007612
1666	8.3250e-01	3.3449	-1.976056	0.000291	2.907342	0.492517	-0.005816
1667	8.3300e-01	3.3324	-1.967932	-0.000081	-0.812345	-0.137615	0.001625
1668	8.3350e-01	3.3261	-1.994017	0.000261	2.608057	0.441817	-0.005217
1669	8.3400e-01	3.3148	-2.033786	0.000398	3.976217	0.673589	-0.007954
1670	8.3450e-01	3.3057	-2.041483	0.000077	0.769590	0.130372	-0.001539
1671	8.3500e-01	3.2947	-2.071844	0.000304	3.035607	0.514246	-0.006072
1672	8.3550e-01	3.2867	-2.095364	0.000235	2.351526	0.398359	-0.004704
1673	8.3600e-01	3.2765	-2.133422	0.000381	3.805197	0.644618	-0.007612
1674	8.3650e-01	3.2629	-2.155231	0.000218	2.180506	0.369388	-0.004362
1675	8.3700e-01	3.2557	-2.182172	0.000269	2.693567	0.456303	-0.005388
1676	8.3750e-01	3.2465	-2.199704	0.000175	1.752956	0.296959	-0.003507
1677	8.3800e-01	3.2361	-2.241612	0.000419	4.189992	0.709804	-0.008381
1678	8.3850e-01	3.2251	-2.249737	0.000081	0.812345	0.137615	-0.001625
1679	8.3900e-01	3.2150	-2.273256	0.000235	2.351526	0.398359	-0.004704
1680	8.3950e-01	3.2060	-2.288650	0.000154	1.539181	0.260744	-0.003079
1681	8.4000e-01	3.1955	-2.329702	0.000410	4.104482	0.695318	-0.008210
1682	8.4050e-01	3.1842	-2.354505	0.000248	2.479791	0.420088	-0.004960
1683	8.4100e-01	3.1778	-2.369044	0.000145	1.453671	0.246259	-0.002908
1684	8.4150e-01	3.1676	-2.387004	0.000180	1.795711	0.304202	-0.003592
1685	8.4200e-01	3.1549	-2.431050	0.000440	4.403768	0.746018	-0.008809
1686	8.4250e-01	3.1445	-2.428056	-0.000030	-0.299285	-0.050700	0.000599
1687	8.4300e-01	3.1357	-2.462694	0.000346	3.463157	0.586675	-0.006928
1688	8.4350e-01	3.1232	-2.471246	0.000086	0.855100	0.144858	-0.001711
1689	8.4400e-01	3.1160	-2.504174	0.000329	3.292137	0.557703	-0.006585
1690	8.4450e-01	3.1073	-2.544798	0.000406	4.061727	0.688075	-0.008125
1691	8.4500e-01	3.0942	-2.554206	0.000094	0.940611	0.159344	-0.001882
1692	8.4550e-01	3.0862	-2.568745	0.000145	1.453671	0.246259	-0.002908
1693	8.4600e-01	3.0783	-2.628185	0.000594	5.942948	1.006763	-0.011888
1694	8.4650e-01	3.0650	-2.636737	0.000086	0.855100	0.144858	-0.001711
1695	8.4700e-01	3.0573	-2.652987	0.000162	1.624691	0.275230	-0.003250
1696	8.4750e-01	3.0438	-2.673086	0.000201	2.009486	0.340416	-0.004020
1697	8.4800e-01	3.0350	-2.692756	0.000197	1.966731	0.333173	-0.003934
1698	8.4850e-01	3.0258	-2.745782	0.000530	5.301623	0.898119	-0.010605
1699	8.4900e-01	3.0174	-2.776143	0.000304	3.035607	0.514246	-0.006072
1700	8.4950e-01	3.0038	-2.766736	-0.000094	-0.940611	-0.159344	0.001882
1701	8.5000e-01	2.9999	-2.806077	0.000393	3.933462	0.666347	-0.007868
1702	8.5050e-01	2.9861	-2.847557	0.000415	4.147237	0.702561	-0.008296
1703	8.5100e-01	2.9776	-2.873642	0.000261	2.608057	0.441817	-0.005217
1704	8.5150e-01	2.9647	-2.883050	0.000094	0.940611	0.159344	-0.001882
1705	8.5200e-01	2.9556	-2.922819	0.000398	3.976217	0.673589	-0.007954
1706	8.5250e-01	2.9451	-2.933509	0.000107	1.068876	0.181072	-0.002138
1707	8.5300e-01	2.9372	-2.983114	0.000496	4.959583	0.840176	-0.009921
1708	8.5350e-01	2.9260	-2.989101	0.000060	0.598570	0.101401	-0.001197
1709	8.5400e-01	2.9164	-2.992094	0.000030	0.299285	0.050700	-0.000599
1710	8.5450e-01	2.9066	-3.028442	0.000363	3.634177	0.615646	-0.007270
1711	8.5500e-01	2.8958	-3.058804	0.000304	3.035607	0.514246	-0.006072
1712	8.5550e-01	2.8882	-3.081040	0.000222	2.223261	0.376631	-0.004447
1713	8.5600e-01	2.8755	-3.119954	0.000389	3.890707	0.659104	-0.007783
1714	8.5650e-01	2.8677	-3.121665	0.000017	0.171020	0.028972	-0.000342
1715	8.5700e-01	2.8552	-3.157157	0.000355	3.548667	0.601160	-0.007099
1716	8.5750e-01	2.8442	-3.186236	0.000291	2.907342	0.492517	-0.005816
1717	8.5800e-01	2.8375	-3.198637	0.000124	1.239896	0.210044	-0.002480
1718	8.5850e-01	2.8235	-3.230281	0.000316	3.163872	0.535974	-0.006329
1719	8.5900e-01	2.8162	-3.250380	0.000201	2.009486	0.340416	-0.004020
1720	8.5950e-01	2.8061	-3.272189	0.000218	2.180506	0.369388	-0.004362
1721	8.6000e-01	2.7933	-3.306826	0.000346	3.463157	0.586675	-0.006928
1722	8.6050e-01	2.7856	-3.334194	0.000274	2.736322	0.463545	-0.005474
1723	8.6100e-01	2.7740	-3.346595	0.000124	1.239896	0.210044	-0.002480
1724	8.6150e-01	2.7640	-3.363273	0.000167	1.667446	0.282473	-0.003335
1725	8.6200e-01	2.7557	-3.401331	0.000381	3.805197	0.644618	-0.007612
1726	8.6250e-01	2.7454	-3.428699	0.000274	2.736322	0.463545	-0.005474
1727	8.6300e-01	2.7350	-3.451364	0.000227	2.266016	0.383874	-0.004533
1728	8.6350e-01	2.7261	-3.482580	0.000312	3.121117	0.528732	-0.006243
1729	8.6400e-01	2.7167	-3.500113	0.000175	1.752956	0.296959	-0.003507
1730	8.6450e-01	2.7041	-3.535178	0.000351	3.505912	0.593918	-0.007013
1731	8.6500e-01	2.6935	-3.530474	-0.000047	-0.470305	-0.079672	0.000941
1732	8.6550e-01	2.6874	-3.573664	0.000432	4.318258	0.731533	-0.008638
1733	8.6600e-01	2.6738	-3.602743	0.000291	2.907342	0.492517	-0.005816
1734	8.6650e-01	2.6660	-3.613434	0.000107	1.068876	0.181072	-0.002138
1735	8.6700e-01	2.6545	-3.647644	0.000342	3.420402	0.579432	-0.006842
1736	8.6750e-01	2.6451	-3.680571	0.000329	3.292137	0.557703	-0.006585
1737	8.6800e-01	2.6334	-3.698103	0.000175	1.752956	0.296959	-0.003507
1738	8.6850e-01	2.6250	-3.714353	0.000162	1.624691	0.275230	-0.003250
1739	8.6900e-01	2.6154	-3.745570	0.000312	3.121117	0.528732	-0.006243
1740	8.6950e-01	2.6068	-3.777214	0.000316	3.163872	0.535974	-0.006329
1741	8.7000e-01	2.5954	-3.806720	0.000295	2.950097	0.499760	-0.005901
1742	8.7050e-01	2.5848	-3.832378	0.000257	2.565301	0.434574	-0.005132
1743	8.7100e-01	2.5764	-3.832378	-0.000000	-0.000000	-0.000000	0.000000
1744	8.7150e-01	2.5653	-3.887114	0.000547	5.472643	0.927091	-0.010947
1745	8.7200e-01	2.5558	-3.900798	0.000137	1.368161	0.231773	-0.002737
1746	8.7250e-01	2.5450	-3.920041	0.000192	1.923976	0.325930	-0.003849
1747	8.7300e-01	2.5356	-3.954251	0.000342	3.420402	0.579432	-0.006842
1748	8.7350e-01	2.5245	-3.988033	0.000338	3.377647	0.572189	-0.006756
1749	8.7400e-01	2.5137	-3.992737	0.000047	0.470305	0.079672	-0.000941
1750	8.7450e-01	2.5040	-4.043197	0.000505	5.045093	0.854662	-0.010092
1751	8.7500e-01	2.4973	-4.036355	-0.000068	-0.684080	-0.115886	0.001368
1752	8.7550e-01	2.4876	-4.079545	0.000432	4.318258	0.731533	-0.008638
1753	8.7600e-01	2.4733	-4.083394	0.000038	0.384795	0.065186	-0.000770
1754	8.7650e-01	2.4641	-4.128722	0.000453	4.532033	0.767747	-0.009066
1755	8.7700e-01	2.4538	-4.144117	0.000154	1.539181	0.260744	-0.003079
1756	8.7750e-01	2.4445	-4.168491	0.000244	2.437036	0.412845	-0.004875
1757	8.7800e-01	2.4371	-4.197570	0.000291	2.907342	0.492517	-0.005816
1758	8.7850e-01	2.4242	-4.218523	0.000209	2.094996	0.354902	-0.004191
1759	8.7900e-01	2.4178	-4.248457	0.000299	2.992852	0.507003	-0.005987
1760	8.7950e-01	2.4092	-4.278818	0.000304	3.035607	0.514246	-0.006072
1761	8.8000e-01	2.3965	-4.309180	0.000304	3.035607	0.514246	-0.006072
1762	8.8050e-01	2.3851	-4.335693	0.000265	2.650812	0.449060	-0.005303
1763	8.8100e-01	2.3772	-4.357502	0.000218	2.180506	0.369388	-0.004362
1764	8.8150e-01	2.3636	-4.386580	0.000291	2.907342	0.492517	-0.005816
1765	8.8200e-01	2.3557	-4.423783	0.000372	3.719687	0.630132	-0.007441
1766	8.8250e-01	2.3429	-4.436185	0.000124	1.239896	0.210044	-0.002480
1767	8.8300e-01	2.3360	-4.475098	0.000389	3.890707	0.659104	-0.007783
1768	8.8350e-01	2.3258	-4.478520	0.000034	0.342040	0.057943	-0.000684
1769	8.8400e-01	2.3157	-4.490065	0.000115	1.154386	0.195558	-0.002309
1770	8.8450e-01	2.3046	-4.523420	0.000333	3.334892	0.564946	-0.006671
1771	8.8500e-01	2.2927	-4.546084	0.000227	2.266016	0.383874	-0.004533
1772	8.8550e-01	2.2851	-4.583715	0.000376	3.762442	0.637375	-0.007526
1773	8.8600e-01	2.2755	-4.598255	0.000145	1.453671	0.246259	-0.002908
1774	8.8650e-01	2.2657	-4.640162	0.000419	4.189992	0.709804	-0.008381
1775	8.8700e-01	2.2575	-4.673517	0.000333	3.334892	0.564946	-0.006671
1776	8.8750e-01	2.2473	-4.677365	0.000038	0.384795	0.065186	-0.000770
1777	8.8800e-01	2.2366	-4.714569	0.000372	3.719687	0.630132	-0.007441
1778	8.8850e-01	2.2276	-4.738088	0.000235	2.351526	0.398359	-0.004704
1779	8.8900e-01	2.2150	-4.748351	0.000103	1.026121	0.173830	-0.002053
1780	8.8950e-01	2.2043	-4.782561	0.000342	3.420402	0.579432	-0.006842
1781	8.9000e-01	2.1936	-4.802659	0.000201	2.009486	0.340416	-0.004020
1782	8.9050e-01	2.1854	-4.831738	0.000291	2.907342	0.492517	-0.005816
1783	8.9100e-01	2.1753	-4.876211	0.000445	4.446523	0.753261	-0.008895
1784	8.9150e-01	2.1677	-4.903579	0.000274	2.736322	0.463545	-0.005474
1785	8.9200e-01	2.1558	-4.929664	0.000261	2.608057	0.441817	-0.005217
1786	8.9250e-01	2.1460	-4.950618	0.000209	2.094996	0.354902	-0.004191
1787	8.9300e-01	2.1334	-4.960026	0.000094	0.940611	0.159344	-0.001882
1788	8.9350e-01	2.1231	-4.996374	0.000363	3.634177	0.615646	-0.007270
1789	8.9400e-01	2.1143	-5.021604	0.000252	2.522546	0.427331	-0.005046
1790	8.9450e-01	2.1069	-5.050682	0.000291	2.907342	0.492517	-0.005816
1791	8.9500e-01	2.0964	-5.047689	-0.000030	-0.299285	-0.050700	0.000599
1792	8.9550e-01	2.0887	-5.095583	0.000479	4.788563	0.811204	-0.009579
1793	8.9600e-01	2.0761	-5.147325	0.000517	5.173358	0.876391	-0.010349
1794	8.9650e-01	2.0660	-5.143049	-0.000043	-0.427550	-0.072429	0.000855
1795	8.9700e-01	2.0544	-5.171700	0.000286	2.864587	0.485274	-0.005730
1796	8.9750e-01	2.0447	-5.199496	0.000278	2.779077	0.470788	-0.005559
1797	8.9800e-01	2.0367	-5.215745	0.000162	1.624691	0.275230	-0.003250
1798	8.9850e-01	2.0251	-5.255087	0.000393	3.933462	0.666347	-0.007868
1799	8.9900e-01	2.0148	-5.273903	0.000188	1.881221	0.318687	-0.003763
1800	8.9950e-01	2.0053	-5.317948	0.000440	4.403768	0.746018	-0.008809
1801	9.0000e-01	1.9955	-5.322224	0.000043	0.427550	0.072429	-0.000855
1802	9.0050e-01	1.9846	-5.344888	0.000227	2.266016	0.383874	-0.004533
1803	9.0100e-01	1.9762	-5.373539	0.000286	2.864587	0.485274	-0.005730
1804	9.0150e-01	1.9666	-5.403473	0.000299	2.992852	0.507003	-0.005987
1805	9.0200e-01	1.9531	-5.433834	0.000304	3.035607	0.514246	-0.006072
1806	9.0250e-01	1.9463	-5.465479	0.000316	3.163872	0.535974	-0.006329
1807	9.0300e-01	1.9362	-5.494557	0.000291	2.907342	0.492517	-0.005816
1808	9.0350e-01	1.9244	-5.506958	0.000124	1.239896	0.210044	-0.002480
1809	9.0400e-01	1.9168	-5.535609	0.000286	2.864587	0.485274	-0.005730
1810	9.0450e-01	1.9058	-5.559129	0.000235	2.351526	0.398359	-0.004704
1811	9.0500e-01	1.8976	-5.574095	0.000150	1.496426	0.253501	-0.002993
1812	9.0550e-01	1.8837	-5.594194	0.000201	2.009486	0.340416	-0.004020
1813	9.0600e-01	1.8750	-5.627121	0.000329	3.292137	0.557703	-0.006585
1814	9.0650e-01	1.8649	-5.669028	0.000419	4.189992	0.709804	-0.008381
1815	9.0700e-01	1.8570	-5.679719	0.000107	1.068876	0.181072	-0.002138
1816	9.0750e-01	1.8457	-5.716922	0.000372	3.719687	0.630132	-0.007441
1817	9.0800e-01	1.8363	-5.739159	0.000222	2.223261	0.376631	-0.004447
1818	9.0850e-01	1.8233	-5.769093	0.000299	2.992852	0.507003	-0.005987
1819	9.0900e-01	1.8143	-5.788763	0.000197	1.966731	0.333173	-0.003934
1820	9.0950e-01	1.8026	-5.791329	0.000026	0.256530	0.043457	-0.000513
1821	9.1000e-01	1.7944	-5.849059	0.000577	5.771928	0.977791	-0.011546
1822	9.1050e-01	1.7834	-5.884979	0.000359	3.591422	0.608403	-0.007184
1823	9.1100e-01	1.7757	-5.903367	0.000184	1.838466	0.311445	-0.003678
1824	9.1150e-01	1.7630	-5.912775	0.000094	0.940611	0.159344	-0.001882
1825	9.1200e-01	1.7545	-5.943136	0.000304	3.035607	0.514246	-0.006072
1826	9.1250e-01	1.7444	-5.981195	0.000381	3.805197	0.644618	-0.007612
1827	9.1300e-01	1.7338	-5.994451	0.000133	1.325406	0.224530	-0.002651
1828	9.1350e-01	1.7253	-6.034648	0.000402	4.018972	0.680832	-0.008039
1829	9.1400e-01	1.7151	-6.068430	0.000338	3.377647	0.572189	-0.006756
1830	9.1450e-01	1.7056	-6.082114	0.000137	1.368161	0.231773	-0.002737
1831	9.1500e-01	1.6949	-6.116324	0.000342	3.420402	0.579432	-0.006842
1832	9.1550e-01	1.6843	-6.144120	0.000278	2.779077	0.470788	-0.005559
1833	9.1600e-01	1.6786	-6.144975	0.000009	0.085510	0.014486	-0.000171
1834	9.1650e-01	1.6641	-6.193724	0.000487	4.874073	0.825690	-0.009750
1835	9.1700e-01	1.6552	-6.208264	0.000145	1.453671	0.246259	-0.002908
1836	9.1750e-01	1.6461	-6.202277	-0.000060	-0.598570	-0.101401	0.001197
1837	9.1800e-01	1.6353	-6.266848	0.000646	6.456009	1.093677	-0.012914
1838	9.1850e-01	1.6251	-6.283526	0.000167	1.667446	0.282473	-0.003335
1839	9.1900e-01	1.6147	-6.322012	0.000385	3.847952	0.651861	-0.007697
1840	9.1950e-01	1.6061	-6.327571	0.000056	0.555815	0.094158	-0.001112
1841	9.2000e-01	1.5942	-6.372472	0.000449	4.489278	0.760504	-0.008980
1842	9.2050e-01	1.5852	-6.388294	0.000158	1.581936	0.267987	-0.003164
1843	9.2100e-01	1.5742	-6.416090	0.000278	2.779077	0.470788	-0.005559
1844	9.2150e-01	1.5617	-6.447734	0.000316	3.163872	0.535974	-0.006329
1845	9.2200e-01	1.5562	-6.477240	0.000295	2.950097	0.499760	-0.005901
1846	9.2250e-01	1.5448	-6.528555	0.000513	5.130603	0.869148	-0.010263
1847	9.2300e-01	1.5346	-6.523424	-0.000051	-0.513060	-0.086915	0.001026
1848	9.2350e-01	1.5244	-6.546088	0.000227	2.266016	0.383874	-0.004533
1849	9.2400e-01	1.5182	-6.572600	0.000265	2.650812	0.449060	-0.005303
1850	9.2450e-01	1.5060	-6.613225	0.000406	4.061727	0.688075	-0.008125
1851	9.2500e-01	1.4967	-6.620922	0.000077	0.769590	0.130372	-0.001539
1852	9.2550e-01	1.4840	-6.647435	0.000265	2.650812	0.449060	-0.005303
1853	9.2600e-01	1.4767	-6.679934	0.000325	3.249382	0.550460	-0.006500
1854	9.2650e-01	1.4680	-6.701316	0.000214	2.137751	0.362145	-0.004276
1855	9.2700e-01	1.4555	-6.734243	0.000329	3.292137	0.557703	-0.006585
1856	9.2750e-01	1.4449	-6.777433	0.000432	4.318258	0.731533	-0.008638
1857	9.2800e-01	1.4343	-6.789406	0.000120	1.197141	0.202801	-0.002395
1858	9.2850e-01	1.4248	-6.833880	0.000445	4.446523	0.753261	-0.008895
1859	9.2900e-01	1.4165	-6.833024	-0.000009	-0.085510	-0.014486	0.000171
1860	9.2950e-01	1.4042	-6.870655	0.000376	3.762442	0.637375	-0.007526
1861	9.3000e-01	1.3943	-6.909142	0.000385	3.847952	0.651861	-0.007697
1862	9.3050e-01	1.3864	-6.932661	0.000235	2.351526	0.398359	-0.004704
1863	9.3100e-01	1.3728	-6.947200	0.000145	1.453671	0.246259	-0.002908
1864	9.3150e-01	1.3638	-6.993384	0.000462	4.617543	0.782233	-0.009237
1865	9.3200e-01	1.3530	-7.031015	0.000376	3.762442	0.637375	-0.007526
1866	9.3250e-01	1.3454	-7.046837	0.000158	1.581936	0.267987	-0.003164
1867	9.3300e-01	1.3345	-7.051968	0.000051	0.513060	0.086915	-0.001026
1868	9.3350e-01	1.3238	-7.088317	0.000363	3.634177	0.615646	-0.007270
1869	9.3400e-01	1.3142	-7.101145	0.000128	1.282651	0.217287	-0.002566
1870	9.3450e-01	1.3062	-7.124665	0.000235	2.351526	0.398359	-0.004704
1871	9.3500e-01	1.2979	-7.168282	0.000436	4.361013	0.738776	-0.008724
1872	9.3550e-01	1.2843	-7.193512	0.000252	2.522546	0.427331	-0.005046
1873	9.3600e-01	1.2764	-7.220880	0.000274	2.736322	0.463545	-0.005474
1874	9.3650e-01	1.2630	-7.256801	0.000359	3.591422	0.608403	-0.007184
1875	9.3700e-01	1.2531	-7.255946	-0.000009	-0.085510	-0.014486	0.000171
1876	9.3750e-01	1.2465	-7.302129	0.000462	4.617543	0.782233	-0.009237
1877	9.3800e-01	1.2343	-7.305550	0.000034	0.342040	0.057943	-0.000684
1878	9.3850e-01	1.2269	-7.334201	0.000286	2.864587	0.485274	-0.005730
1879	9.3900e-01	1.2146	-7.370977	0.000368	3.676932	0.622889	-0.007355
1880	9.3950e-01	1.2068	-7.383378	0.000124	1.239896	0.210044	-0.002480
1881	9.4000e-01	1.1958	-7.417588	0.000342	3.420402	0.579432	-0.006842
1882	9.4050e-01	1.1869	-7.466765	0.000492	4.916828	0.832933	-0.009835
1883	9.4100e-01	1.1774	-7.484298	0.000175	1.752956	0.296959	-0.003507
1884	9.4150e-01	1.1650	-7.506106	0.000218	2.180506	0.369388	-0.004362
1885	9.4200e-01	1.1561	-7.538606	0.000325	3.249382	0.550460	-0.006500
1886	9.4250e-01	1.1462	-7.554428	0.000158	1.581936	0.267987	-0.003164
1887	9.4300e-01	1.1327	-7.607881	0.000534	5.344378	0.905362	-0.010691
1888	9.4350e-01	1.1256	-7.607881	-0.000000	-0.000000	-0.000000	0.000000
1889	9.4400e-01	1.1131	-7.643802	0.000359	3.591422	0.608403	-0.007184
1890	9.4450e-01	1.1053	-7.657913	0.000141	1.410916	0.239016	-0.002822
1891	9.4500e-01	1.0962	-7.691268	0.000333	3.334892	0.564946	-0.006671
1892	9.4550e-01	1.0847	-7.708373	0.000171	1.710201	0.289716	-0.003421
1893	9.4600e-01	1.0748	-7.728899	0.000205	2.052241	0.347659	-0.004105
1894	9.4650e-01	1.0674	-7.770379	0.000415	4.147237	0.702561	-0.008296
1895	9.4700e-01	1.0549	-7.792615	0.000222	2.223261	0.376631	-0.004447
1896	9.4750e-01	1.0450	-7.829391	0.000368	3.676932	0.622889	-0.007355
1897	9.4800e-01	1.0366	-7.870443	0.000410	4.104482	0.695318	-0.008210
1898	9.4850e-01	1.0245	-7.877713	0.000073	0.726835	0.123129	-0.001454
1899	9.4900e-01	1.0174	-7.911068	0.000333	3.334892	0.564946	-0.006671
1900	9.4950e-01	1.0060	-7.936725	0.000257	2.565301	0.434574	-0.005132
1901	9.5000e-01	0.9927	-7.965804	0.000291	2.907342	0.492517	-0.005816
1902	9.5050e-01	0.9830	-7.987613	0.000218	2.180506	0.369388	-0.004362
1903	9.5100e-01	0.9760	-7.992744	0.000051	0.513060	0.086915	-0.001026
1904	9.5150e-01	0.9668	-8.044059	0.000513	5.130603	0.869148	-0.010263
1905	9.5200e-01	0.9555	-8.076131	0.000321	3.206627	0.543217	-0.006414
1906	9.5250e-01	0.9451	-8.102216	0.000261	2.608057	0.441817	-0.005217
1907	9.5300e-01	0.9358	-8.110341	0.000081	0.812345	0.137615	-0.001625
1908	9.5350e-01	0.9241	-8.153959	0.000436	4.361013	0.738776	-0.008724
1909	9.5400e-01	0.9146	-8.182182	0.000282	2.821832	0.478031	-0.005645
1910	9.5450e-01	0.9049	-8.192873	0.000107	1.068876	0.181072	-0.002138
1911	9.5500e-01	0.8974	-8.228793	0.000359	3.591422	0.608403	-0.007184
1912	9.5550e-01	0.8861	-8.251030	0.000222	2.223261	0.376631	-0.004447
1913	9.5600e-01	0.8759	-8.287378	0.000363	3.634177	0.615646	-0.007270
1914	9.5650e-01	0.8675	-8.304055	0.000167	1.667446	0.282473	-0.003335
1915	9.5700e-01	0.8537	-8.340403	0.000363	3.634177	0.615646	-0.007270
1916	9.5750e-01	0.8475	-8.350666	0.000103	1.026121	0.173830	-0.002053
1917	9.5800e-01	0.8357	-8.384021	0.000333	3.334892	0.564946	-0.006671
1918	9.5850e-01	0.8242	-8.409251	0.000252	2.522546	0.427331	-0.005046
1919	9.5900e-01	0.8143	-8.446454	0.000372	3.719687	0.630132	-0.007441
1920	9.5950e-01	0.8064	-8.464842	0.000184	1.838466	0.311445	-0.003678
1921	9.6000e-01	0.7978	-8.528986	0.000641	6.413254	1.086435	-0.012829
1922	9.6050e-01	0.7854	-8.535400	0.000064	0.641325	0.108643	-0.001283
1923	9.6100e-01	0.7737	-8.557637	0.000222	2.223261	0.376631	-0.004447
1924	9.6150e-01	0.7623	-8.590992	0.000333	3.334892	0.564946	-0.006671
1925	9.6200e-01	0.7545	-8.635037	0.000440	4.403768	0.746018	-0.008809
1926	9.6250e-01	0.7488	-8.641879	0.000068	0.684080	0.115886	-0.001368
1927	9.6300e-01	0.7349	-8.674806	0.000329	3.292137	0.557703	-0.006585
1928	9.6350e-01	0.7272	-8.673096	-0.000017	-0.171020	-0.028972	0.000342
1929	9.6400e-01	0.7147	-8.728259	0.000552	5.515398	0.934334	-0.011033
1930	9.6450e-01	0.7040	-8.754345	0.000261	2.608057	0.441817	-0.005217
1931	9.6500e-01	0.6932	-8.770594	0.000162	1.624691	0.275230	-0.003250
1932	9.6550e-01	0.6839	-8.820199	0.000496	4.959583	0.840176	-0.009921
1933	9.6600e-01	0.6738	-8.825330	0.000051	0.513060	0.086915	-0.001026
1934	9.6650e-01	0.6678	-8.856975	0.000316	3.163872	0.535974	-0.006329
1935	9.6700e-01	0.6546	-8.881777	0.000248	2.479791	0.420088	-0.004960
1936	9.6750e-01	0.6456	-8.935658	0.000539	5.387133	0.912605	-0.010776
1937	9.6800e-01	0.6314	-8.954901	0.000192	1.923976	0.325930	-0.003849
1938	9.6850e-01	0.6213	-8.939079	-0.000158	-1.581936	-0.267987	0.003164
1939	9.6900e-01	0.6141	-8.995098	0.000560	5.600908	0.948820	-0.011204
1940	9.6950e-01	0.6042	-9.028452	0.000333	3.334892	0.564946	-0.006671
1941	9.7000e-01	0.5964	-9.040854	0.000124	1.239896	0.210044	-0.002480
1942	9.7050e-01	0.5839	-9.080623	0.000398	3.976217	0.673589	-0.007954
1943	9.7100e-01	0.5767	-9.115260	0.000346	3.463157	0.586675	-0.006928
1944	9.7150e-01	0.5646	-9.131082	0.000158	1.581936	0.267987	-0.003164
1945	9.7200e-01	0.5540	-9.174273	0.000432	4.318258	0.731533	-0.008638
1946	9.7250e-01	0.5444	-9.191378	0.000171	1.710201	0.289716	-0.003421
1947	9.7300e-01	0.5341	-9.223022	0.000316	3.163872	0.535974	-0.006329
1948	9.7350e-01	0.5251	-9.235851	0.000128	1.282651	0.217287	-0.002566
1949	9.7400e-01	0.5134	-9.288449	0.000526	5.258868	0.890876	-0.010520
1950	9.7450e-01	0.5035	-9.291870	0.000034	0.342040	0.057943	-0.000684
1951	9.7500e-01	0.4952	-9.324369	0.000325	3.249382	0.550460	-0.006500
1952	9.7550e-01	0.4883	-9.366276	0.000419	4.189992	0.709804	-0.008381
1953	9.7600e-01	0.4784	-9.393644	0.000274	2.736322	0.463545	-0.005474
1954	9.7650e-01	0.4649	-9.407328	0.000137	1.368161	0.231773	-0.002737
1955	9.7700e-01	0.4547	-9.433841	0.000265	2.650812	0.449060	-0.005303
1956	9.7750e-01	0.4440	-9.457788	0.000239	2.394281	0.405602	-0.004789
1957	9.7800e-01	0.4355	-9.503116	0.000453	4.532033	0.767747	-0.009066
1958	9.7850e-01	0.4285	-9.521077	0.000180	1.795711	0.304202	-0.003592
1959	9.7900e-01	0.4147	-9.543741	0.000227	2.266016	0.383874	-0.004533
1960	9.7950e-01	0.4060	-9.572392	0.000286	2.864587	0.485274	-0.005730
1961	9.8000e-01	0.3952	-9.609595	0.000372	3.719687	0.630132	-0.007441
1962	9.8050e-01	0.3849	-9.632259	0.000227	2.266016	0.383874	-0.004533
1963	9.8100e-01	0.3760	-9.660055	0.000278	2.779077	0.470788	-0.005559
1964	9.8150e-01	0.3636	-9.675022	0.000150	1.496426	0.253501	-0.002993
1965	9.8200e-01	0.3545	-9.718212	0.000432	4.318258	0.731533	-0.008638
1966	9.8250e-01	0.3445	-9.753705	0.000355	3.548667	0.601160	-0.007099
1967	9.8300e-01	0.3362	-9.785777	0.000321	3.206627	0.543217	-0.006414
1968	9.8350e-01	0.3283	-9.797323	0.000115	1.154386	0.195558	-0.002309
1969	9.8400e-01	0.3158	-9.808013	0.000107	1.068876	0.181072	-0.002138
1970	9.8450e-01	0.3064	-9.851203	0.000432	4.318258	0.731533	-0.008638
1971	9.8500e-01	0.2953	-9.876861	0.000257	2.565301	0.434574	-0.005132
1972	9.8550e-01	0.2876	-9.908505	0.000316	3.163872	0.535974	-0.006329
1973	9.8600e-01	0.2755	-9.923900	0.000154	1.539181	0.260744	-0.003079
1974	9.8650e-01	0.2657	-9.968800	0.000449	4.489278	0.760504	-0.008980
1975	9.8700e-01	0.2558	-9.991037	0.000222	2.223261	0.376631	-0.004447
1976	9.8750e-01	0.2451	-10.020543	0.000295	2.950097	0.499760	-0.005901
1977	9.8800e-01	0.2345	-10.040214	0.000197	1.966731	0.333173	-0.003934
1978	9.8850e-01	0.2227	-10.085114	0.000449	4.489278	0.760504	-0.008980
1979	9.8900e-01	0.2168	-10.121890	0.000368	3.676932	0.622889	-0.007355
1980	9.8950e-01	0.2074	-10.130443	0.000086	0.855100	0.144858	-0.001711
1981	9.9000e-01	0.1926	-10.161232	0.000308	3.078362	0.521489	-0.006158
1982	9.9050e-01	0.1833	-10.182185	0.000209	2.094996	0.354902	-0.004191
1983	9.9100e-01	0.1762	-10.216823	0.000346	3.463157	0.586675	-0.006928
1984	9.9150e-01	0.1656	-10.244191	0.000274	2.736322	0.463545	-0.005474
1985	9.9200e-01	0.1534	-10.258730	0.000145	1.453671	0.246259	-0.002908
1986	9.9250e-01	0.1433	-10.313039	0.000543	5.429888	0.919848	-0.010862
1987	9.9300e-01	0.1342	-10.332282	0.000192	1.923976	0.325930	-0.003849
1988	9.9350e-01	0.1246	-10.345538	0.000133	1.325406	0.224530	-0.002651
1989	9.9400e-01	0.1162	-10.393005	0.000475	4.745808	0.803962	-0.009493
1990	9.9450e-01	0.1063	-10.404978	0.000120	1.197141	0.202801	-0.002395
1991	9.9500e-01	0.0925	-10.427642	0.000227	2.266016	0.383874	-0.004533
1992	9.9550e-01	0.0854	-10.455010	0.000274	2.736322	0.463545	-0.005474
1993	9.9600e-01	0.0747	-10.502049	0.000470	4.703053	0.796719	-0.009408
1994	9.9650e-01	0.0628	-10.534549	0.000325	3.249382	0.550460	-0.006500
1995	9.9700e-01	0.0527	-10.553792	0.000192	1.923976	0.325930	-0.003849
1996	9.9750e-01	0.0439	-10.596982	0.000432	4.318258	0.731533	-0.008638
1997	9.9800e-01	0.0348	-10.612376	0.000154	1.539181	0.260744	-0.003079
1998	9.9850e-01	0.0216	-10.637606	0.000252	2.522546	0.427331	-0.005046
1999	9.9900e-01	0.0142	-10.670961	0.000333	3.334892	0.564946	-0.006671
2000	9.9950e-01	0.0034	-10.690632	0.000197	1.966731	0.333173	-0.003934
2001	1.0000e+00	-0.0053	-10.730401	0.000197	1.966731	0.333173	-0.007954

PMax (uC/cm2):	2.31e+01
Pr (uC/cm2):	8.15e-01
-Pr (uC/cm2):	0.00e+00
PLoss (uC/cm2):	0.00e+00
C (Max-Eff) (nF):	2.31e-01
K (Eff):	3.91e+02
Vert. (+/-Pr) Shift (uC/cm2):	4.08e-01
Offset (uC/cm2):	1.15e+01

A (Loop Area - uC/cm2·Volts):	-4.57e-03



Hysteresis Version: 5.48.1 - Radiant Technologies, Inc., 1999 - 9/12/24

