»»»»»»»»»»»»»»»»»»»»»»»»»»»»»»»»»»»» Hysteresis ««««««««««««««««««««««««««««««««««««
»»»  Executed Version:	5.48.1
»»»  Vision Version:	5.48.4 (R)
»»»  Vision Compiled:	9/18/24
»»»  Driver Version:	5.47.0
»»»  Windows Version:	Windows 8 or 8.1
»»»  Processor Information:	x86 (AMD or Intel) - 32 Processors
»»»  Tester Name:	PMF21124-494 (100V)
»»»  Tester S/N:	PMF21124-494
»»»  Internal Amp Type:	100V RevK 270k
»»»  Internal Amp S/N:	iAB2-596/K     
»»»  Execution Count:	1
»»»»»»»»»»»»»»»»»»»»»»»»»»»»»»»»»»»»»»»»»»««««««««««««««««««««««««««««««««««««««««««

Stored:	6/25/2025 - 14:43:30
Configured:	06/25/25 10:44:40 AM
Executed:	06/25/25 02:43:08 PM

»»»»»»»»»»»»»»»»»»»»»»»»»»»»»»»»»»» Sample Info ««««««««««««««««««««««««««««««««««««
Sample Name:	
Lot Name:	
Wafer Name:	
Die Row/Column:	0/0
Capacitor Number:	0
Sample Area (cm2):	1.00e-04
Sample Thickness (microns):	1.50e-01

Amplifier:	Internal

»»»»»»»»»»»»»»»»»»»»»»»»»»»»»»»»»»» Tester Info «««««««««««««««««««««««««««««««««««
Tester Name:	PMF21124-494 (100V)
Tester Serial Number:	PMF21124-494
Return Signal Amp. Level:	1.79 [Index: 2]

»»»»»»»»»»»»»»»»»»»»»»»»»»»»»»»» Hysteresis Info ««««««««««««««««««««««««««««««««««
Task Name:	Hyst-116
Volts:	10.00
Field:	666.67 (kV/cm)
DCBias:	0.00
DCField:	0.00 (kV/cm)
Hysteresis Period (ms):	1.00e+00
Preset:	Enabled
Preset Delay (ms):	1.00e+03
Profile:	Standard Monopolar

»»»»»»»»»»»»»»»»»»»»»»»»»»»»»»»»»»»»»» Data «««««««««««««««««««««««««««««««««««««««
Points:	2001

Valid Data

Point	Time (ms)	Drive Voltage	Measured Polarization (uC/cm2)	Capacitance (uF)	Normalized Capacitance (uF/cm2)	Dielectric Constant	Instantaneous Current (mA)
   1	0.0000e+00	-0.0041	-15.181553	0.000094	0.940707	0.159360	0.001882
   2	5.0000e-04	0.0028	-15.172145	0.000094	0.940707	0.159360	0.001882
   3	1.0000e-03	0.0193	-15.156323	0.000158	1.582099	0.268015	0.003164
   4	1.5000e-03	0.0234	-15.126816	0.000295	2.950401	0.499811	0.005901
   5	2.0000e-03	0.0354	-15.094745	0.000321	3.206957	0.543273	0.006414
   6	2.5000e-03	0.0455	-15.051127	0.000436	4.361462	0.738852	0.008724
   7	3.0000e-03	0.0546	-15.026752	0.000244	2.437287	0.412888	0.004875
   8	3.5000e-03	0.0646	-14.978858	0.000479	4.789056	0.811288	0.009579
   9	4.0000e-03	0.0735	-14.948924	0.000299	2.993160	0.507055	0.005987
  10	4.5000e-03	0.0854	-14.908300	0.000406	4.062146	0.688146	0.008125
  11	5.0000e-03	0.0954	-14.867676	0.000406	4.062146	0.688146	0.008125
  12	5.5000e-03	0.1015	-14.831755	0.000359	3.591792	0.608466	0.007184
  13	6.0000e-03	0.1146	-14.780012	0.000517	5.173891	0.876481	0.010349
  14	6.5000e-03	0.1236	-14.741526	0.000385	3.848349	0.651928	0.007697
  15	7.0000e-03	0.1343	-14.694060	0.000475	4.746297	0.804044	0.009493
  16	7.5000e-03	0.1435	-14.664554	0.000295	2.950401	0.499811	0.005901
  17	8.0000e-03	0.1549	-14.619225	0.000453	4.532499	0.767826	0.009066
  18	8.5000e-03	0.1640	-14.569621	0.000496	4.960094	0.840263	0.009921
  19	9.0000e-03	0.1748	-14.533273	0.000363	3.634551	0.615710	0.007270
  20	9.5000e-03	0.1833	-14.486234	0.000470	4.703537	0.796801	0.009408
  21	1.0000e-02	0.1948	-14.446892	0.000393	3.933867	0.666415	0.007868
  22	1.0500e-02	0.2056	-14.406268	0.000406	4.062146	0.688146	0.008125
  23	1.1000e-02	0.2155	-14.363933	0.000423	4.233183	0.717121	0.008467
  24	1.1500e-02	0.2255	-14.323736	0.000402	4.019386	0.680902	0.008039
  25	1.2000e-02	0.2381	-14.280118	0.000436	4.361462	0.738852	0.008724
  26	1.2500e-02	0.2467	-14.238639	0.000415	4.147665	0.702633	0.008296
  27	1.3000e-02	0.2517	-14.198442	0.000402	4.019386	0.680902	0.008039
  28	1.3500e-02	0.2657	-14.158245	0.000402	4.019386	0.680902	0.008039
  29	1.4000e-02	0.2765	-14.117621	0.000406	4.062146	0.688146	0.008125
  30	1.4500e-02	0.2860	-14.073575	0.000440	4.404221	0.746095	0.008809
  31	1.5000e-02	0.2935	-14.034234	0.000393	3.933867	0.666415	0.007868
  32	1.5500e-02	0.3051	-13.992327	0.000419	4.190424	0.709877	0.008381
  33	1.6000e-02	0.3130	-13.948709	0.000436	4.361462	0.738852	0.008724
  34	1.6500e-02	0.3249	-13.908084	0.000406	4.062146	0.688146	0.008125
  35	1.7000e-02	0.3337	-13.861901	0.000462	4.618018	0.782313	0.009237
  36	1.7500e-02	0.3455	-13.821704	0.000402	4.019386	0.680902	0.008039
  37	1.8000e-02	0.3548	-13.784501	0.000372	3.720070	0.630197	0.007441
  38	1.8500e-02	0.3690	-13.742166	0.000423	4.233183	0.717121	0.008467
  39	1.9000e-02	0.3767	-13.700686	0.000415	4.147665	0.702633	0.008296
  40	1.9500e-02	0.3869	-13.660917	0.000398	3.976627	0.673659	0.007954
  41	2.0000e-02	0.3947	-13.621575	0.000393	3.933867	0.666415	0.007868
  42	2.0500e-02	0.4039	-13.578385	0.000432	4.318702	0.731608	0.008638
  43	2.1000e-02	0.4164	-13.539044	0.000393	3.933867	0.666415	0.007868
  44	2.1500e-02	0.4263	-13.497564	0.000415	4.147665	0.702633	0.008296
  45	2.2000e-02	0.4353	-13.452664	0.000449	4.489740	0.760583	0.008980
  46	2.2500e-02	0.4470	-13.411184	0.000415	4.147665	0.702633	0.008296
  47	2.3000e-02	0.4544	-13.367566	0.000436	4.361462	0.738852	0.008724
  48	2.3500e-02	0.4636	-13.330790	0.000368	3.677311	0.622953	0.007355
  49	2.4000e-02	0.4742	-13.291021	0.000398	3.976627	0.673659	0.007954
  50	2.4500e-02	0.4845	-13.247831	0.000432	4.318702	0.731608	0.008638
  51	2.5000e-02	0.4935	-13.206779	0.000410	4.104905	0.695390	0.008210
  52	2.5500e-02	0.5035	-13.169576	0.000372	3.720070	0.630197	0.007441
  53	2.6000e-02	0.5160	-13.128096	0.000415	4.147665	0.702633	0.008296
  54	2.6500e-02	0.5264	-13.085333	0.000428	4.275943	0.724364	0.008553
  55	2.7000e-02	0.5385	-13.039150	0.000462	4.618018	0.782313	0.009237
  56	2.7500e-02	0.5468	-13.001519	0.000376	3.762830	0.637441	0.007526
  57	2.8000e-02	0.5583	-12.957901	0.000436	4.361462	0.738852	0.008724
  58	2.8500e-02	0.5676	-12.921125	0.000368	3.677311	0.622953	0.007355
  59	2.9000e-02	0.5753	-12.880501	0.000406	4.062146	0.688146	0.008125
  60	2.9500e-02	0.5821	-12.835600	0.000449	4.489740	0.760583	0.008980
  61	3.0000e-02	0.5965	-12.794976	0.000406	4.062146	0.688146	0.008125
  62	3.0500e-02	0.6046	-12.758628	0.000363	3.634551	0.615710	0.007270
  63	3.1000e-02	0.6142	-12.715438	0.000432	4.318702	0.731608	0.008638
  64	3.1500e-02	0.6268	-12.674813	0.000406	4.062146	0.688146	0.008125
  65	3.2000e-02	0.6367	-12.631195	0.000436	4.361462	0.738852	0.008724
  66	3.2500e-02	0.6479	-12.593992	0.000372	3.720070	0.630197	0.007441
  67	3.3000e-02	0.6564	-12.552940	0.000410	4.104905	0.695390	0.008210
  68	3.3500e-02	0.6651	-12.507612	0.000453	4.532499	0.767826	0.009066
  69	3.4000e-02	0.6755	-12.474257	0.000334	3.335235	0.565004	0.006671
  70	3.4500e-02	0.6844	-12.430639	0.000436	4.361462	0.738852	0.008724
  71	3.5000e-02	0.6949	-12.390442	0.000402	4.019386	0.680902	0.008039
  72	3.5500e-02	0.7030	-12.346397	0.000440	4.404221	0.746095	0.008809
  73	3.6000e-02	0.7153	-12.310904	0.000355	3.549033	0.601222	0.007099
  74	3.6500e-02	0.7282	-12.266431	0.000445	4.446981	0.753339	0.008895
  75	3.7000e-02	0.7347	-12.223668	0.000428	4.275943	0.724364	0.008553
  76	3.7500e-02	0.7424	-12.189458	0.000342	3.420754	0.579491	0.006842
  77	3.8000e-02	0.7581	-12.142847	0.000466	4.660778	0.789557	0.009322
  78	3.8500e-02	0.7668	-12.105216	0.000376	3.762830	0.637441	0.007526
  79	3.9000e-02	0.7753	-12.061598	0.000436	4.361462	0.738852	0.008724
  80	3.9500e-02	0.7856	-12.017981	0.000436	4.361462	0.738852	0.008724
  81	4.0000e-02	0.7959	-11.981633	0.000363	3.634551	0.615710	0.007270
  82	4.0500e-02	0.8049	-11.941008	0.000406	4.062146	0.688146	0.008125
  83	4.1000e-02	0.8128	-11.900384	0.000406	4.062146	0.688146	0.008125
  84	4.1500e-02	0.8276	-11.861470	0.000389	3.891108	0.659172	0.007783
  85	4.2000e-02	0.8363	-11.820845	0.000406	4.062146	0.688146	0.008125
  86	4.2500e-02	0.8462	-11.781504	0.000393	3.933867	0.666415	0.007868
  87	4.3000e-02	0.8540	-11.735320	0.000462	4.618018	0.782313	0.009237
  88	4.3500e-02	0.8668	-11.698545	0.000368	3.677311	0.622953	0.007355
  89	4.4000e-02	0.8768	-11.655354	0.000432	4.318702	0.731608	0.008638
  90	4.4500e-02	0.8857	-11.621572	0.000338	3.377995	0.572248	0.006756
  91	4.5000e-02	0.8945	-11.577954	0.000436	4.361462	0.738852	0.008724
  92	4.5500e-02	0.9048	-11.537330	0.000406	4.062146	0.688146	0.008125
  93	4.6000e-02	0.9155	-11.500127	0.000372	3.720070	0.630197	0.007441
  94	4.6500e-02	0.9266	-11.436838	0.000633	6.328395	1.072059	0.012658
  95	4.7000e-02	0.9347	-11.414174	0.000227	2.266250	0.383913	0.004533
  96	4.7500e-02	0.9454	-11.379536	0.000346	3.463514	0.586735	0.006928
  97	4.8000e-02	0.9555	-11.336774	0.000428	4.275943	0.724364	0.008553
  98	4.8500e-02	0.9676	-11.297005	0.000398	3.976627	0.673659	0.007954
  99	4.9000e-02	0.9778	-11.258091	0.000389	3.891108	0.659172	0.007783
 100	4.9500e-02	0.9848	-11.216611	0.000415	4.147665	0.702633	0.008296
 101	5.0000e-02	0.9920	-11.181546	0.000351	3.506273	0.593979	0.007013
 102	5.0500e-02	1.0057	-11.140494	0.000410	4.104905	0.695390	0.008210
 103	5.1000e-02	1.0168	-11.103290	0.000372	3.720070	0.630197	0.007441
 104	5.1500e-02	1.0278	-11.060955	0.000423	4.233183	0.717121	0.008467
 105	5.2000e-02	1.0344	-11.016910	0.000440	4.404221	0.746095	0.008809
 106	5.2500e-02	1.0464	-10.973720	0.000432	4.318702	0.731608	0.008638
 107	5.3000e-02	1.0535	-10.936516	0.000372	3.720070	0.630197	0.007441
 108	5.3500e-02	1.0663	-10.896320	0.000402	4.019386	0.680902	0.008039
 109	5.4000e-02	1.0755	-10.858689	0.000376	3.762830	0.637441	0.007526
 110	5.4500e-02	1.0843	-10.821913	0.000368	3.677311	0.622953	0.007355
 111	5.5000e-02	1.0983	-10.780006	0.000419	4.190424	0.709877	0.008381
 112	5.5500e-02	1.1037	-10.740664	0.000393	3.933867	0.666415	0.007868
 113	5.6000e-02	1.1176	-10.703888	0.000368	3.677311	0.622953	0.007355
 114	5.6500e-02	1.1256	-10.657277	0.000466	4.660778	0.789557	0.009322
 115	5.7000e-02	1.1349	-10.620074	0.000372	3.720070	0.630197	0.007441
 116	5.7500e-02	1.1447	-10.582870	0.000372	3.720070	0.630197	0.007441
 117	5.8000e-02	1.1574	-10.545239	0.000376	3.762830	0.637441	0.007526
 118	5.8500e-02	1.1648	-10.505898	0.000393	3.933867	0.666415	0.007868
 119	5.9000e-02	1.1758	-10.463563	0.000423	4.233183	0.717121	0.008467
 120	5.9500e-02	1.1883	-10.426359	0.000372	3.720070	0.630197	0.007441
 121	6.0000e-02	1.1950	-10.384880	0.000415	4.147665	0.702633	0.008296
 122	6.0500e-02	1.2051	-10.352808	0.000321	3.206957	0.543273	0.006414
 123	6.1000e-02	1.2140	-10.300638	0.000522	5.216650	0.883724	0.010434
 124	6.1500e-02	1.2258	-10.262151	0.000385	3.848349	0.651928	0.007697
 125	6.2000e-02	1.2372	-10.221527	0.000406	4.062146	0.688146	0.008125
 126	6.2500e-02	1.2480	-10.186889	0.000346	3.463514	0.586735	0.006928
 127	6.3000e-02	1.2578	-10.151396	0.000355	3.549033	0.601222	0.007099
 128	6.3500e-02	1.2688	-10.107779	0.000436	4.361462	0.738852	0.008724
 129	6.4000e-02	1.2752	-10.070575	0.000372	3.720070	0.630197	0.007441
 130	6.4500e-02	1.2842	-10.030806	0.000398	3.976627	0.673659	0.007954
 131	6.5000e-02	1.2955	-9.996596	0.000342	3.420754	0.579491	0.006842
 132	6.5500e-02	1.3043	-9.955544	0.000410	4.104905	0.695390	0.008210
 133	6.6000e-02	1.3141	-9.917485	0.000381	3.805589	0.644684	0.007612
 134	6.6500e-02	1.3242	-9.878999	0.000385	3.848349	0.651928	0.007697
 135	6.7000e-02	1.3353	-9.839230	0.000398	3.976627	0.673659	0.007954
 136	6.7500e-02	1.3435	-9.800744	0.000385	3.848349	0.651928	0.007697
 137	6.8000e-02	1.3566	-9.762257	0.000385	3.848349	0.651928	0.007697
 138	6.8500e-02	1.3649	-9.723771	0.000385	3.848349	0.651928	0.007697
 139	6.9000e-02	1.3742	-9.680581	0.000432	4.318702	0.731608	0.008638
 140	6.9500e-02	1.3861	-9.645088	0.000355	3.549033	0.601222	0.007099
 141	7.0000e-02	1.3965	-9.605319	0.000398	3.976627	0.673659	0.007954
 142	7.0500e-02	1.4041	-9.570254	0.000351	3.506273	0.593979	0.007013
 143	7.1000e-02	1.4185	-9.525353	0.000449	4.489740	0.760583	0.008980
 144	7.1500e-02	1.4249	-9.490715	0.000346	3.463514	0.586735	0.006928
 145	7.2000e-02	1.4349	-9.456078	0.000346	3.463514	0.586735	0.006928
 146	7.2500e-02	1.4478	-9.412888	0.000432	4.318702	0.731608	0.008638
 147	7.3000e-02	1.4552	-9.376967	0.000359	3.591792	0.608466	0.007184
 148	7.3500e-02	1.4640	-9.335915	0.000410	4.104905	0.695390	0.008210
 149	7.4000e-02	1.4760	-9.295291	0.000406	4.062146	0.688146	0.008125
 150	7.4500e-02	1.4841	-9.255094	0.000402	4.019386	0.680902	0.008039
 151	7.5000e-02	1.4963	-9.214469	0.000406	4.062146	0.688146	0.008125
 152	7.5500e-02	1.5044	-9.180259	0.000342	3.420754	0.579491	0.006842
 153	7.6000e-02	1.5173	-9.140063	0.000402	4.019386	0.680902	0.008039
 154	7.6500e-02	1.5272	-9.100721	0.000393	3.933867	0.666415	0.007868
 155	7.7000e-02	1.5368	-9.063090	0.000376	3.762830	0.637441	0.007526
 156	7.7500e-02	1.5443	-9.027170	0.000359	3.591792	0.608466	0.007184
 157	7.8000e-02	1.5545	-8.988683	0.000385	3.848349	0.651928	0.007697
 158	7.8500e-02	1.5642	-8.952335	0.000363	3.634551	0.615710	0.007270
 159	7.9000e-02	1.5756	-8.910428	0.000419	4.190424	0.709877	0.008381
 160	7.9500e-02	1.5857	-8.872797	0.000376	3.762830	0.637441	0.007526
 161	8.0000e-02	1.5953	-8.835593	0.000372	3.720070	0.630197	0.007441
 162	8.0500e-02	1.6055	-8.794541	0.000410	4.104905	0.695390	0.008210
 163	8.1000e-02	1.6151	-8.761187	0.000334	3.335235	0.565004	0.006671
 164	8.1500e-02	1.6235	-8.724838	0.000363	3.634551	0.615710	0.007270
 165	8.2000e-02	1.6327	-8.682931	0.000419	4.190424	0.709877	0.008381
 166	8.2500e-02	1.6476	-8.646155	0.000368	3.677311	0.622953	0.007355
 167	8.3000e-02	1.6577	-8.609380	0.000368	3.677311	0.622953	0.007355
 168	8.3500e-02	1.6679	-8.570038	0.000393	3.933867	0.666415	0.007868
 169	8.4000e-02	1.6775	-8.532407	0.000376	3.762830	0.637441	0.007526
 170	8.4500e-02	1.6864	-8.492638	0.000398	3.976627	0.673659	0.007954
 171	8.5000e-02	1.6954	-8.457145	0.000355	3.549033	0.601222	0.007099
 172	8.5500e-02	1.7043	-8.418659	0.000385	3.848349	0.651928	0.007697
 173	8.6000e-02	1.7151	-8.375896	0.000428	4.275943	0.724364	0.008553
 174	8.6500e-02	1.7232	-8.340831	0.000351	3.506273	0.593979	0.007013
 175	8.7000e-02	1.7337	-8.303628	0.000372	3.720070	0.630197	0.007441
 176	8.7500e-02	1.7433	-8.264286	0.000393	3.933867	0.666415	0.007868
 177	8.8000e-02	1.7564	-8.230931	0.000334	3.335235	0.565004	0.006671
 178	8.8500e-02	1.7659	-8.191590	0.000393	3.933867	0.666415	0.007868
 179	8.9000e-02	1.7728	-8.152248	0.000393	3.933867	0.666415	0.007868
 180	8.9500e-02	1.7859	-8.114190	0.000381	3.805589	0.644684	0.007612
 181	9.0000e-02	1.7963	-8.076559	0.000376	3.762830	0.637441	0.007526
 182	9.0500e-02	1.8071	-8.023105	0.000534	5.344929	0.905455	0.010691
 183	9.1000e-02	1.8153	-7.998731	0.000244	2.437287	0.412888	0.004875
 184	9.1500e-02	1.8250	-7.958962	0.000398	3.976627	0.673659	0.007954
 185	9.2000e-02	1.8359	-7.921758	0.000372	3.720070	0.630197	0.007441
 186	9.2500e-02	1.8446	-7.889686	0.000321	3.206957	0.543273	0.006414
 187	9.3000e-02	1.8541	-7.846496	0.000432	4.318702	0.731608	0.008638
 188	9.3500e-02	1.8658	-7.815707	0.000308	3.078679	0.521542	0.006158
 189	9.4000e-02	1.8768	-7.775938	0.000398	3.976627	0.673659	0.007954
 190	9.4500e-02	1.8864	-7.736169	0.000398	3.976627	0.673659	0.007954
 191	9.5000e-02	1.8970	-7.704952	0.000312	3.121438	0.528786	0.006243
 192	9.5500e-02	1.9061	-7.665183	0.000398	3.976627	0.673659	0.007954
 193	9.6000e-02	1.9144	-7.631828	0.000334	3.335235	0.565004	0.006671
 194	9.6500e-02	1.9239	-7.592059	0.000398	3.976627	0.673659	0.007954
 195	9.7000e-02	1.9357	-7.552290	0.000398	3.976627	0.673659	0.007954
 196	9.7500e-02	1.9409	-7.515942	0.000363	3.634551	0.615710	0.007270
 197	9.8000e-02	1.9565	-7.482159	0.000338	3.377995	0.572248	0.006756
 198	9.8500e-02	1.9632	-7.447094	0.000351	3.506273	0.593979	0.007013
 199	9.9000e-02	1.9772	-7.406897	0.000402	4.019386	0.680902	0.008039
 200	9.9500e-02	1.9868	-7.368839	0.000381	3.805589	0.644684	0.007612
 201	1.0000e-01	1.9952	-7.329497	0.000393	3.933867	0.666415	0.007868
 202	1.0050e-01	2.0052	-7.298708	0.000308	3.078679	0.521542	0.006158
 203	1.0100e-01	2.0175	-7.252952	0.000458	4.575259	0.775070	0.009151
 204	1.0150e-01	2.0230	-7.218742	0.000342	3.420754	0.579491	0.006842
 205	1.0200e-01	2.0346	-7.186243	0.000325	3.249717	0.550517	0.006500
 206	1.0250e-01	2.0462	-7.147756	0.000385	3.848349	0.651928	0.007697
 207	1.0300e-01	2.0554	-7.109698	0.000381	3.805589	0.644684	0.007612
 208	1.0350e-01	2.0664	-7.067363	0.000423	4.233183	0.717121	0.008467
 209	1.0400e-01	2.0744	-7.037002	0.000304	3.035919	0.514299	0.006072
 210	1.0450e-01	2.0840	-7.000653	0.000363	3.634551	0.615710	0.007270
 211	1.0500e-01	2.0934	-6.965160	0.000355	3.549033	0.601222	0.007099
 212	1.0550e-01	2.1039	-6.927102	0.000381	3.805589	0.644684	0.007612
 213	1.0600e-01	2.1146	-6.893319	0.000338	3.377995	0.572248	0.006756
 214	1.0650e-01	2.1266	-6.847136	0.000462	4.618018	0.782313	0.009237
 215	1.0700e-01	2.1356	-6.818057	0.000291	2.907641	0.492568	0.005816
 216	1.0750e-01	2.1468	-6.779571	0.000385	3.848349	0.651928	0.007697
 217	1.0800e-01	2.1582	-6.743651	0.000359	3.591792	0.608466	0.007184
 218	1.0850e-01	2.1661	-6.707730	0.000359	3.591792	0.608466	0.007184
 219	1.0900e-01	2.1756	-6.677369	0.000304	3.035919	0.514299	0.006072
 220	1.0950e-01	2.1840	-6.635889	0.000415	4.147665	0.702633	0.008296
 221	1.1000e-01	2.1967	-6.595265	0.000406	4.062146	0.688146	0.008125
 222	1.1050e-01	2.2076	-6.561910	0.000334	3.335235	0.565004	0.006671
 223	1.1100e-01	2.2133	-6.527700	0.000342	3.420754	0.579491	0.006842
 224	1.1150e-01	2.2241	-6.487931	0.000398	3.976627	0.673659	0.007954
 225	1.1200e-01	2.2351	-6.446451	0.000415	4.147665	0.702633	0.008296
 226	1.1250e-01	2.2494	-6.415662	0.000308	3.078679	0.521542	0.006158
 227	1.1300e-01	2.2555	-6.379314	0.000363	3.634551	0.615710	0.007270
 228	1.1350e-01	2.2668	-6.344676	0.000346	3.463514	0.586735	0.006928
 229	1.1400e-01	2.2742	-6.307900	0.000368	3.677311	0.622953	0.007355
 230	1.1450e-01	2.2854	-6.267704	0.000402	4.019386	0.680902	0.008039
 231	1.1500e-01	2.2926	-6.232211	0.000355	3.549033	0.601222	0.007099
 232	1.1550e-01	2.3068	-6.198856	0.000334	3.335235	0.565004	0.006671
 233	1.1600e-01	2.3187	-6.162935	0.000359	3.591792	0.608466	0.007184
 234	1.1650e-01	2.3254	-6.124877	0.000381	3.805589	0.644684	0.007612
 235	1.1700e-01	2.3366	-6.092377	0.000325	3.249717	0.550517	0.006500
 236	1.1750e-01	2.3450	-6.053036	0.000393	3.933867	0.666415	0.007868
 237	1.1800e-01	2.3560	-6.020536	0.000325	3.249717	0.550517	0.006500
 238	1.1850e-01	2.3643	-5.980339	0.000402	4.019386	0.680902	0.008039
 239	1.1900e-01	2.3746	-5.948268	0.000321	3.206957	0.543273	0.006414
 240	1.1950e-01	2.3856	-5.911919	0.000363	3.634551	0.615710	0.007270
 241	1.2000e-01	2.3996	-5.878137	0.000338	3.377995	0.572248	0.006756
 242	1.2050e-01	2.4081	-5.835802	0.000423	4.233183	0.717121	0.008467
 243	1.2100e-01	2.4155	-5.801592	0.000342	3.420754	0.579491	0.006842
 244	1.2150e-01	2.4227	-5.766527	0.000351	3.506273	0.593979	0.007013
 245	1.2200e-01	2.4369	-5.734027	0.000325	3.249717	0.550517	0.006500
 246	1.2250e-01	2.4461	-5.692120	0.000419	4.190424	0.709877	0.008381
 247	1.2300e-01	2.4564	-5.663469	0.000286	2.864882	0.485324	0.005730
 248	1.2350e-01	2.4647	-5.629259	0.000342	3.420754	0.579491	0.006842
 249	1.2400e-01	2.4783	-5.589062	0.000402	4.019386	0.680902	0.008039
 250	1.2450e-01	2.4844	-5.559129	0.000299	2.993160	0.507055	0.005987
 251	1.2500e-01	2.4957	-5.521070	0.000381	3.805589	0.644684	0.007612
 252	1.2550e-01	2.5073	-5.483867	0.000372	3.720070	0.630197	0.007441
 253	1.2600e-01	2.5185	-5.444525	0.000393	3.933867	0.666415	0.007868
 254	1.2650e-01	2.5250	-5.412881	0.000316	3.164198	0.536030	0.006329
 255	1.2700e-01	2.5345	-5.373539	0.000393	3.933867	0.666415	0.007868
 256	1.2750e-01	2.5471	-5.342750	0.000308	3.078679	0.521542	0.006158
 257	1.2800e-01	2.5525	-5.305119	0.000376	3.762830	0.637441	0.007526
 258	1.2850e-01	2.5653	-5.268343	0.000368	3.677311	0.622953	0.007355
 259	1.2900e-01	2.5787	-5.237982	0.000304	3.035919	0.514299	0.006072
 260	1.2950e-01	2.5883	-5.202917	0.000351	3.506273	0.593979	0.007013
 261	1.3000e-01	2.5955	-5.166996	0.000359	3.591792	0.608466	0.007184
 262	1.3050e-01	2.6084	-5.132786	0.000342	3.420754	0.579491	0.006842
 263	1.3100e-01	2.6143	-5.091734	0.000410	4.104905	0.695390	0.008210
 264	1.3150e-01	2.6246	-5.057952	0.000338	3.377995	0.572248	0.006756
 265	1.3200e-01	2.6382	-5.028018	0.000299	2.993160	0.507055	0.005987
 266	1.3250e-01	2.6460	-4.989959	0.000381	3.805589	0.644684	0.007612
 267	1.3300e-01	2.6578	-4.958315	0.000316	3.164198	0.536030	0.006329
 268	1.3350e-01	2.6666	-4.919401	0.000389	3.891108	0.659172	0.007783
 269	1.3400e-01	2.6761	-4.886046	0.000334	3.335235	0.565004	0.006671
 270	1.3450e-01	2.6837	-4.829172	0.000569	5.687004	0.963405	0.011375
 271	1.3500e-01	2.6959	-4.812067	0.000171	1.710377	0.289746	0.003421
 272	1.3550e-01	2.7057	-4.780851	0.000312	3.121438	0.528786	0.006243
 273	1.3600e-01	2.7146	-4.742792	0.000381	3.805589	0.644684	0.007612
 274	1.3650e-01	2.7216	-4.712431	0.000304	3.035919	0.514299	0.006072
 275	1.3700e-01	2.7361	-4.676938	0.000355	3.549033	0.601222	0.007099
 276	1.3750e-01	2.7490	-4.638451	0.000385	3.848349	0.651928	0.007697
 277	1.3800e-01	2.7548	-4.605524	0.000329	3.292476	0.557761	0.006585
 278	1.3850e-01	2.7646	-4.575163	0.000304	3.035919	0.514299	0.006072
 279	1.3900e-01	2.7777	-4.533256	0.000419	4.190424	0.709877	0.008381
 280	1.3950e-01	2.7869	-4.500756	0.000325	3.249717	0.550517	0.006500
 281	1.4000e-01	2.7955	-4.472105	0.000286	2.864882	0.485324	0.005730
 282	1.4050e-01	2.8050	-4.434474	0.000376	3.762830	0.637441	0.007526
 283	1.4100e-01	2.8168	-4.393422	0.000410	4.104905	0.695390	0.008210
 284	1.4150e-01	2.8281	-4.360923	0.000325	3.249717	0.550517	0.006500
 285	1.4200e-01	2.8381	-4.331416	0.000295	2.950401	0.499811	0.005901
 286	1.4250e-01	2.8440	-4.296779	0.000346	3.463514	0.586735	0.006928
 287	1.4300e-01	2.8535	-4.258720	0.000381	3.805589	0.644684	0.007612
 288	1.4350e-01	2.8651	-4.231780	0.000269	2.693844	0.456350	0.005388
 289	1.4400e-01	2.8761	-4.191155	0.000406	4.062146	0.688146	0.008125
 290	1.4450e-01	2.8850	-4.155235	0.000359	3.591792	0.608466	0.007184
 291	1.4500e-01	2.8967	-4.121025	0.000342	3.420754	0.579491	0.006842
 292	1.4550e-01	2.9071	-4.083821	0.000372	3.720070	0.630197	0.007441
 293	1.4600e-01	2.9156	-4.055170	0.000286	2.864882	0.485324	0.005730
 294	1.4650e-01	2.9268	-4.019678	0.000355	3.549033	0.601222	0.007099
 295	1.4700e-01	2.9364	-3.979908	0.000398	3.976627	0.673659	0.007954
 296	1.4750e-01	2.9465	-3.943560	0.000363	3.634551	0.615710	0.007270
 297	1.4800e-01	2.9559	-3.917903	0.000257	2.565566	0.434619	0.005132
 298	1.4850e-01	2.9622	-3.887114	0.000308	3.078679	0.521542	0.006158
 299	1.4900e-01	2.9750	-3.848627	0.000385	3.848349	0.651928	0.007697
 300	1.4950e-01	2.9860	-3.814845	0.000338	3.377995	0.572248	0.006756
 301	1.5000e-01	2.9938	-3.782346	0.000325	3.249717	0.550517	0.006500
 302	1.5050e-01	3.0055	-3.749846	0.000325	3.249717	0.550517	0.006500
 303	1.5100e-01	3.0148	-3.718202	0.000316	3.164198	0.536030	0.006329
 304	1.5150e-01	3.0276	-3.678433	0.000398	3.976627	0.673659	0.007954
 305	1.5200e-01	3.0371	-3.645933	0.000325	3.249717	0.550517	0.006500
 306	1.5250e-01	3.0453	-3.607447	0.000385	3.848349	0.651928	0.007697
 307	1.5300e-01	3.0551	-3.576658	0.000308	3.078679	0.521542	0.006158
 308	1.5350e-01	3.0664	-3.547579	0.000291	2.907641	0.492568	0.005816
 309	1.5400e-01	3.0769	-3.505244	0.000423	4.233183	0.717121	0.008467
 310	1.5450e-01	3.0838	-3.475738	0.000295	2.950401	0.499811	0.005901
 311	1.5500e-01	3.0975	-3.442811	0.000329	3.292476	0.557761	0.006585
 312	1.5550e-01	3.1050	-3.406463	0.000363	3.634551	0.615710	0.007270
 313	1.5600e-01	3.1175	-3.376529	0.000299	2.993160	0.507055	0.005987
 314	1.5650e-01	3.1256	-3.340609	0.000359	3.591792	0.608466	0.007184
 315	1.5700e-01	3.1387	-3.310675	0.000299	2.993160	0.507055	0.005987
 316	1.5750e-01	3.1465	-3.269195	0.000415	4.147665	0.702633	0.008296
 317	1.5800e-01	3.1544	-3.230709	0.000385	3.848349	0.651928	0.007697
 318	1.5850e-01	3.1641	-3.201630	0.000291	2.907641	0.492568	0.005816
 319	1.5900e-01	3.1741	-3.169559	0.000321	3.206957	0.543273	0.006414
 320	1.5950e-01	3.1862	-3.137059	0.000325	3.249717	0.550517	0.006500
 321	1.6000e-01	3.1949	-3.101138	0.000359	3.591792	0.608466	0.007184
 322	1.6050e-01	3.2045	-3.070777	0.000304	3.035919	0.514299	0.006072
 323	1.6100e-01	3.2159	-3.038278	0.000325	3.249717	0.550517	0.006500
 324	1.6150e-01	3.2219	-3.003640	0.000346	3.463514	0.586735	0.006928
 325	1.6200e-01	3.2353	-2.964726	0.000389	3.891108	0.659172	0.007783
 326	1.6250e-01	3.2443	-2.932227	0.000325	3.249717	0.550517	0.006500
 327	1.6300e-01	3.2538	-2.901010	0.000312	3.121438	0.528786	0.006243
 328	1.6350e-01	3.2675	-2.869366	0.000316	3.164198	0.536030	0.006329
 329	1.6400e-01	3.2762	-2.832162	0.000372	3.720070	0.630197	0.007441
 330	1.6450e-01	3.2825	-2.794959	0.000372	3.720070	0.630197	0.007441
 331	1.6500e-01	3.2938	-2.770584	0.000244	2.437287	0.412888	0.004875
 332	1.6550e-01	3.3051	-2.735519	0.000351	3.506273	0.593979	0.007013
 333	1.6600e-01	3.3130	-2.700454	0.000351	3.506273	0.593979	0.007013
 334	1.6650e-01	3.3252	-2.663678	0.000368	3.677311	0.622953	0.007355
 335	1.6700e-01	3.3392	-2.632034	0.000316	3.164198	0.536030	0.006329
 336	1.6750e-01	3.3463	-2.598251	0.000338	3.377995	0.572248	0.006756
 337	1.6800e-01	3.3533	-2.563186	0.000351	3.506273	0.593979	0.007013
 338	1.6850e-01	3.3633	-2.530259	0.000329	3.292476	0.557761	0.006585
 339	1.6900e-01	3.3771	-2.496476	0.000338	3.377995	0.572248	0.006756
 340	1.6950e-01	3.3875	-2.468253	0.000282	2.822122	0.478080	0.005645
 341	1.7000e-01	3.3948	-2.434043	0.000342	3.420754	0.579491	0.006842
 342	1.7050e-01	3.4045	-2.407530	0.000265	2.651085	0.449106	0.005303
 343	1.7100e-01	3.4149	-2.376741	0.000308	3.078679	0.521542	0.006158
 344	1.7150e-01	3.4235	-2.339538	0.000372	3.720070	0.630197	0.007441
 345	1.7200e-01	3.4326	-2.304900	0.000346	3.463514	0.586735	0.006928
 346	1.7250e-01	3.4454	-2.271545	0.000334	3.335235	0.565004	0.006671
 347	1.7300e-01	3.4550	-2.237763	0.000338	3.377995	0.572248	0.006756
 348	1.7350e-01	3.4657	-2.209967	0.000278	2.779363	0.470837	0.005559
 349	1.7400e-01	3.4761	-2.175757	0.000342	3.420754	0.579491	0.006842
 350	1.7450e-01	3.4848	-2.138554	0.000372	3.720070	0.630197	0.007441
 351	1.7500e-01	3.4955	-2.109048	0.000295	2.950401	0.499811	0.005901
 352	1.7550e-01	3.5049	-2.071844	0.000372	3.720070	0.630197	0.007441
 353	1.7600e-01	3.5138	-2.044904	0.000269	2.693844	0.456350	0.005388
 354	1.7650e-01	3.5231	-2.004707	0.000402	4.019386	0.680902	0.008039
 355	1.7700e-01	3.5358	-1.978622	0.000261	2.608325	0.441862	0.005217
 356	1.7750e-01	3.5481	-1.943129	0.000355	3.549033	0.601222	0.007099
 357	1.7800e-01	3.5587	-1.902505	0.000406	4.062146	0.688146	0.008125
 358	1.7850e-01	3.5667	-1.881979	0.000205	2.052453	0.347695	0.004105
 359	1.7900e-01	3.5733	-1.842210	0.000398	3.976627	0.673659	0.007954
 360	1.7950e-01	3.5849	-1.810565	0.000316	3.164198	0.536030	0.006329
 361	1.8000e-01	3.5963	-1.782770	0.000278	2.779363	0.470837	0.005559
 362	1.8050e-01	3.6066	-1.748132	0.000346	3.463514	0.586735	0.006928
 363	1.8100e-01	3.6145	-1.720336	0.000278	2.779363	0.470837	0.005559
 364	1.8150e-01	3.6285	-1.686554	0.000338	3.377995	0.572248	0.006756
 365	1.8200e-01	3.6346	-1.650634	0.000359	3.591792	0.608466	0.007184
 366	1.8250e-01	3.6462	-1.619845	0.000308	3.078679	0.521542	0.006158
 367	1.8300e-01	3.6548	-1.586490	0.000334	3.335235	0.565004	0.006671
 368	1.8350e-01	3.6694	-1.555273	0.000312	3.121438	0.528786	0.006243
 369	1.8400e-01	3.6761	-1.523629	0.000316	3.164198	0.536030	0.006329
 370	1.8450e-01	3.6877	-1.487281	0.000363	3.634551	0.615710	0.007270
 371	1.8500e-01	3.6958	-1.452643	0.000346	3.463514	0.586735	0.006928
 372	1.8550e-01	3.7042	-1.422709	0.000299	2.993160	0.507055	0.005987
 373	1.8600e-01	3.7161	-1.394486	0.000282	2.822122	0.478080	0.005645
 374	1.8650e-01	3.7253	-1.359421	0.000351	3.506273	0.593979	0.007013
 375	1.8700e-01	3.7360	-1.329915	0.000295	2.950401	0.499811	0.005901
 376	1.8750e-01	3.7470	-1.296132	0.000338	3.377995	0.572248	0.006756
 377	1.8800e-01	3.7579	-1.258929	0.000372	3.720070	0.630197	0.007441
 378	1.8850e-01	3.7671	-1.230706	0.000282	2.822122	0.478080	0.005645
 379	1.8900e-01	3.7756	-1.202482	0.000282	2.822122	0.478080	0.005645
 380	1.8950e-01	3.7849	-1.165279	0.000372	3.720070	0.630197	0.007441
 381	1.9000e-01	3.7958	-1.133207	0.000321	3.206957	0.543273	0.006414
 382	1.9050e-01	3.8069	-1.102418	0.000308	3.078679	0.521542	0.006158
 383	1.9100e-01	3.8155	-1.071629	0.000308	3.078679	0.521542	0.006158
 384	1.9150e-01	3.8275	-1.035281	0.000363	3.634551	0.615710	0.007270
 385	1.9200e-01	3.8354	-1.010479	0.000248	2.480047	0.420131	0.004960
 386	1.9250e-01	3.8474	-0.976269	0.000342	3.420754	0.579491	0.006842
 387	1.9300e-01	3.8556	-0.941203	0.000351	3.506273	0.593979	0.007013
 388	1.9350e-01	3.8672	-0.912125	0.000291	2.907641	0.492568	0.005816
 389	1.9400e-01	3.8770	-0.881763	0.000304	3.035919	0.514299	0.006072
 390	1.9450e-01	3.8859	-0.846270	0.000355	3.549033	0.601222	0.007099
 391	1.9500e-01	3.8947	-0.817192	0.000291	2.907641	0.492568	0.005816
 392	1.9550e-01	3.9069	-0.783410	0.000338	3.377995	0.572248	0.006756
 393	1.9600e-01	3.9166	-0.752620	0.000308	3.078679	0.521542	0.006158
 394	1.9650e-01	3.9247	-0.724397	0.000282	2.822122	0.478080	0.005645
 395	1.9700e-01	3.9328	-0.686339	0.000381	3.805589	0.644684	0.007612
 396	1.9750e-01	3.9450	-0.656832	0.000295	2.950401	0.499811	0.005901
 397	1.9800e-01	3.9542	-0.622622	0.000342	3.420754	0.579491	0.006842
 398	1.9850e-01	3.9658	-0.594827	0.000278	2.779363	0.470837	0.005559
 399	1.9900e-01	3.9758	-0.559761	0.000351	3.506273	0.593979	0.007013
 400	1.9950e-01	3.9856	-0.536242	0.000235	2.351769	0.398400	0.004704
 401	2.0000e-01	3.9941	-0.500322	0.000359	3.591792	0.608466	0.007184
 402	2.0050e-01	4.0070	-0.469960	0.000304	3.035919	0.514299	0.006072
 403	2.0100e-01	4.0149	-0.441309	0.000286	2.864882	0.485324	0.005730
 404	2.0150e-01	4.0253	-0.407955	0.000334	3.335235	0.565004	0.006671
 405	2.0200e-01	4.0356	-0.372034	0.000359	3.591792	0.608466	0.007184
 406	2.0250e-01	4.0457	-0.342100	0.000299	2.993160	0.507055	0.005987
 407	2.0300e-01	4.0585	-0.317298	0.000248	2.480047	0.420131	0.004960
 408	2.0350e-01	4.0656	-0.278384	0.000389	3.891108	0.659172	0.007783
 409	2.0400e-01	4.0736	-0.248450	0.000299	2.993160	0.507055	0.005987
 410	2.0450e-01	4.0845	-0.216806	0.000316	3.164198	0.536030	0.006329
 411	2.0500e-01	4.0944	-0.188583	0.000282	2.822122	0.478080	0.005645
 412	2.0550e-01	4.1079	-0.156083	0.000325	3.249717	0.550517	0.006500
 413	2.0600e-01	4.1187	-0.122728	0.000334	3.335235	0.565004	0.006671
 414	2.0650e-01	4.1251	-0.094078	0.000286	2.864882	0.485324	0.005730
 415	2.0700e-01	4.1365	-0.061150	0.000329	3.292476	0.557761	0.006585
 416	2.0750e-01	4.1457	-0.031217	0.000299	2.993160	0.507055	0.005987
 417	2.0800e-01	4.1565	0.000428	0.000316	3.164198	0.536030	0.006329
 418	2.0850e-01	4.1672	0.029934	0.000295	2.950401	0.499811	0.005901
 419	2.0900e-01	4.1766	0.063716	0.000338	3.377995	0.572248	0.006756
 420	2.0950e-01	4.1852	0.091939	0.000282	2.822122	0.478080	0.005645
 421	2.1000e-01	4.1940	0.124011	0.000321	3.206957	0.543273	0.006414
 422	2.1050e-01	4.2065	0.155656	0.000316	3.164198	0.536030	0.006329
 423	2.1100e-01	4.2181	0.186017	0.000304	3.035919	0.514299	0.006072
 424	2.1150e-01	4.2261	0.217661	0.000316	3.164198	0.536030	0.006329
 425	2.1200e-01	4.2355	0.249733	0.000321	3.206957	0.543273	0.006414
 426	2.1250e-01	4.2450	0.284798	0.000351	3.506273	0.593979	0.007013
 427	2.1300e-01	4.2572	0.308745	0.000239	2.394528	0.405644	0.004789
 428	2.1350e-01	4.2654	0.344666	0.000359	3.591792	0.608466	0.007184
 429	2.1400e-01	4.2783	0.376310	0.000316	3.164198	0.536030	0.006329
 430	2.1450e-01	4.2871	0.399830	0.000235	2.351769	0.398400	0.004704
 431	2.1500e-01	4.2966	0.436605	0.000368	3.677311	0.622953	0.007355
 432	2.1550e-01	4.3059	0.466967	0.000304	3.035919	0.514299	0.006072
 433	2.1600e-01	4.3158	0.496473	0.000295	2.950401	0.499811	0.005901
 434	2.1650e-01	4.3286	0.524269	0.000278	2.779363	0.470837	0.005559
 435	2.1700e-01	4.3359	0.558479	0.000342	3.420754	0.579491	0.006842
 436	2.1750e-01	4.3469	0.590123	0.000316	3.164198	0.536030	0.006329
 437	2.1800e-01	4.3579	0.619201	0.000291	2.907641	0.492568	0.005816
 438	2.1850e-01	4.3658	0.645714	0.000265	2.651085	0.449106	0.005303
 439	2.1900e-01	4.3750	0.676931	0.000312	3.121438	0.528786	0.006243
 440	2.1950e-01	4.3845	0.714562	0.000376	3.762830	0.637441	0.007526
 441	2.2000e-01	4.3971	0.742357	0.000278	2.779363	0.470837	0.005559
 442	2.2050e-01	4.4061	0.770153	0.000278	2.779363	0.470837	0.005559
 443	2.2100e-01	4.4177	0.808212	0.000381	3.805589	0.644684	0.007612
 444	2.2150e-01	4.4250	0.836863	0.000286	2.864882	0.485324	0.005730
 445	2.2200e-01	4.4351	0.858244	0.000214	2.137971	0.362182	0.004276
 446	2.2250e-01	4.4453	0.898013	0.000398	3.976627	0.673659	0.007954
 447	2.2300e-01	4.4519	0.935216	0.000372	3.720070	0.630197	0.007441
 448	2.2350e-01	4.4653	0.957025	0.000218	2.180731	0.369426	0.004362
 449	2.2400e-01	4.4751	0.989525	0.000325	3.249717	0.550517	0.006500
 450	2.2450e-01	4.4876	1.013900	0.000244	2.437287	0.412888	0.004875
 451	2.2500e-01	4.4965	1.051103	0.000372	3.720070	0.630197	0.007441
 452	2.2550e-01	4.5068	1.079326	0.000282	2.822122	0.478080	0.005645
 453	2.2600e-01	4.5160	1.111826	0.000325	3.249717	0.550517	0.006500
 454	2.2650e-01	4.5270	1.138338	0.000265	2.651085	0.449106	0.005303
 455	2.2700e-01	4.5361	1.166989	0.000286	2.864882	0.485324	0.005730
 456	2.2750e-01	4.5477	1.196496	0.000295	2.950401	0.499811	0.005901
 457	2.2800e-01	4.5560	1.231133	0.000346	3.463514	0.586735	0.006928
 458	2.2850e-01	4.5648	1.253797	0.000227	2.266250	0.383913	0.004533
 459	2.2900e-01	4.5753	1.291428	0.000376	3.762830	0.637441	0.007526
 460	2.2950e-01	4.5859	1.320507	0.000291	2.907641	0.492568	0.005816
 461	2.3000e-01	4.5972	1.353862	0.000334	3.335235	0.565004	0.006671
 462	2.3050e-01	4.6060	1.379092	0.000252	2.522806	0.427375	0.005046
 463	2.3100e-01	4.6170	1.412446	0.000334	3.335235	0.565004	0.006671
 464	2.3150e-01	4.6263	1.444518	0.000321	3.206957	0.543273	0.006414
 465	2.3200e-01	4.6344	1.473597	0.000291	2.907641	0.492568	0.005816
 466	2.3250e-01	4.6463	1.500537	0.000269	2.693844	0.456350	0.005388
 467	2.3300e-01	4.6545	1.526622	0.000261	2.608325	0.441862	0.005217
 468	2.3350e-01	4.6698	1.559977	0.000334	3.335235	0.565004	0.006671
 469	2.3400e-01	4.6759	1.585207	0.000252	2.522806	0.427375	0.005046
 470	2.3450e-01	4.6869	1.625404	0.000402	4.019386	0.680902	0.008039
 471	2.3500e-01	4.6979	1.651916	0.000265	2.651085	0.449106	0.005303
 472	2.3550e-01	4.7058	1.683561	0.000316	3.164198	0.536030	0.006329
 473	2.3600e-01	4.7162	1.707080	0.000235	2.351769	0.398400	0.004704
 474	2.3650e-01	4.7290	1.740862	0.000338	3.377995	0.572248	0.006756
 475	2.3700e-01	4.7388	1.770369	0.000295	2.950401	0.499811	0.005901
 476	2.3750e-01	4.7444	1.796881	0.000265	2.651085	0.449106	0.005303
 477	2.3800e-01	4.7565	1.827243	0.000304	3.035919	0.514299	0.006072
 478	2.3850e-01	4.7659	1.854183	0.000269	2.693844	0.456350	0.005388
 479	2.3900e-01	4.7766	1.887538	0.000334	3.335235	0.565004	0.006671
 480	2.3950e-01	4.7864	1.916616	0.000291	2.907641	0.492568	0.005816
 481	2.4000e-01	4.7977	1.953820	0.000372	3.720070	0.630197	0.007441
 482	2.4050e-01	4.8071	1.977339	0.000235	2.351769	0.398400	0.004704
 483	2.4100e-01	4.8184	2.005990	0.000286	2.864882	0.485324	0.005730
 484	2.4150e-01	4.8262	2.035069	0.000291	2.907641	0.492568	0.005816
 485	2.4200e-01	4.8360	2.069706	0.000346	3.463514	0.586735	0.006928
 486	2.4250e-01	4.8445	2.095364	0.000257	2.565566	0.434619	0.005132
 487	2.4300e-01	4.8541	2.126153	0.000308	3.078679	0.521542	0.006158
 488	2.4350e-01	4.8663	2.153949	0.000278	2.779363	0.470837	0.005559
 489	2.4400e-01	4.8750	2.183455	0.000295	2.950401	0.499811	0.005901
 490	2.4450e-01	4.8840	2.214671	0.000312	3.121438	0.528786	0.006243
 491	2.4500e-01	4.8956	2.239046	0.000244	2.437287	0.412888	0.004875
 492	2.4550e-01	4.9069	2.270690	0.000316	3.164198	0.536030	0.006329
 493	2.4600e-01	4.9152	2.306611	0.000359	3.591792	0.608466	0.007184
 494	2.4650e-01	4.9274	2.336972	0.000304	3.035919	0.514299	0.006072
 495	2.4700e-01	4.9356	2.362630	0.000257	2.565566	0.434619	0.005132
 496	2.4750e-01	4.9440	2.392136	0.000295	2.950401	0.499811	0.005901
 497	2.4800e-01	4.9550	2.421642	0.000295	2.950401	0.499811	0.005901
 498	2.4850e-01	4.9654	2.443023	0.000214	2.137971	0.362182	0.004276
 499	2.4900e-01	4.9765	2.475523	0.000325	3.249717	0.550517	0.006500
 500	2.4950e-01	4.9875	2.506739	0.000312	3.121438	0.528786	0.006243
 501	2.5000e-01	4.9957	2.540949	0.000342	3.420754	0.579491	0.006842
 502	2.5050e-01	5.0043	2.573877	0.000329	3.292476	0.557761	0.006585
 503	2.5100e-01	5.0165	2.598679	0.000248	2.480047	0.420131	0.004960
 504	2.5150e-01	5.0269	2.623909	0.000252	2.522806	0.427375	0.005046
 505	2.5200e-01	5.0372	2.656836	0.000329	3.292476	0.557761	0.006585
 506	2.5250e-01	5.0510	2.684631	0.000278	2.779363	0.470837	0.005559
 507	2.5300e-01	5.0571	2.717986	0.000334	3.335235	0.565004	0.006671
 508	2.5350e-01	5.0659	2.736374	0.000184	1.838655	0.311477	0.003678
 509	2.5400e-01	5.0745	2.774433	0.000381	3.805589	0.644684	0.007612
 510	2.5450e-01	5.0879	2.797525	0.000231	2.309009	0.391157	0.004618
 511	2.5500e-01	5.0958	2.829169	0.000316	3.164198	0.536030	0.006329
 512	2.5550e-01	5.1050	2.856537	0.000274	2.736603	0.463593	0.005474
 513	2.5600e-01	5.1181	2.884332	0.000278	2.779363	0.470837	0.005559
 514	2.5650e-01	5.1263	2.916832	0.000325	3.249717	0.550517	0.006500
 515	2.5700e-01	5.1376	2.944628	0.000278	2.779363	0.470837	0.005559
 516	2.5750e-01	5.1456	2.978410	0.000338	3.377995	0.572248	0.006756
 517	2.5800e-01	5.1550	3.003640	0.000252	2.522806	0.427375	0.005046
 518	2.5850e-01	5.1657	3.031863	0.000282	2.822122	0.478080	0.005645
 519	2.5900e-01	5.1752	3.063507	0.000316	3.164198	0.536030	0.006329
 520	2.5950e-01	5.1846	3.086172	0.000227	2.266250	0.383913	0.004533
 521	2.6000e-01	5.1950	3.114823	0.000286	2.864882	0.485324	0.005730
 522	2.6050e-01	5.2048	3.143901	0.000291	2.907641	0.492568	0.005816
 523	2.6100e-01	5.2182	3.172124	0.000282	2.822122	0.478080	0.005645
 524	2.6150e-01	5.2289	3.202486	0.000304	3.035919	0.514299	0.006072
 525	2.6200e-01	5.2362	3.231137	0.000286	2.864882	0.485324	0.005730
 526	2.6250e-01	5.2460	3.260643	0.000295	2.950401	0.499811	0.005901
 527	2.6300e-01	5.2547	3.288438	0.000278	2.779363	0.470837	0.005559
 528	2.6350e-01	5.2655	3.317945	0.000295	2.950401	0.499811	0.005901
 529	2.6400e-01	5.2768	3.347878	0.000299	2.993160	0.507055	0.005987
 530	2.6450e-01	5.2850	3.374391	0.000265	2.651085	0.449106	0.005303
 531	2.6500e-01	5.2936	3.408601	0.000342	3.420754	0.579491	0.006842
 532	2.6550e-01	5.3061	3.455212	0.000466	4.660778	0.789557	0.009322
 533	2.6600e-01	5.3143	3.460771	0.000056	0.555873	0.094167	0.001112
 534	2.6650e-01	5.3278	3.492416	0.000316	3.164198	0.536030	0.006329
 535	2.6700e-01	5.3351	3.520211	0.000278	2.779363	0.470837	0.005559
 536	2.6750e-01	5.3436	3.547152	0.000269	2.693844	0.456350	0.005388
 537	2.6800e-01	5.3558	3.575375	0.000282	2.822122	0.478080	0.005645
 538	2.6850e-01	5.3658	3.604881	0.000295	2.950401	0.499811	0.005901
 539	2.6900e-01	5.3751	3.636098	0.000312	3.121438	0.528786	0.006243
 540	2.6950e-01	5.3871	3.655768	0.000197	1.966934	0.333208	0.003934
 541	2.7000e-01	5.3967	3.683992	0.000282	2.822122	0.478080	0.005645
 542	2.7050e-01	5.4062	3.718202	0.000342	3.420754	0.579491	0.006842
 543	2.7100e-01	5.4144	3.743004	0.000248	2.480047	0.420131	0.004960
 544	2.7150e-01	5.4260	3.775076	0.000321	3.206957	0.543273	0.006414
 545	2.7200e-01	5.4382	3.803299	0.000282	2.822122	0.478080	0.005645
 546	2.7250e-01	5.4480	3.835371	0.000321	3.206957	0.543273	0.006414
 547	2.7300e-01	5.4529	3.865732	0.000304	3.035919	0.514299	0.006072
 548	2.7350e-01	5.4663	3.888397	0.000227	2.266250	0.383913	0.004533
 549	2.7400e-01	5.4755	3.917475	0.000291	2.907641	0.492568	0.005816
 550	2.7450e-01	5.4865	3.942705	0.000252	2.522806	0.427375	0.005046
 551	2.7500e-01	5.4974	3.972639	0.000299	2.993160	0.507055	0.005987
 552	2.7550e-01	5.5061	4.004283	0.000316	3.164198	0.536030	0.006329
 553	2.7600e-01	5.5157	4.029513	0.000252	2.522806	0.427375	0.005046
 554	2.7650e-01	5.5246	4.058591	0.000291	2.907641	0.492568	0.005816
 555	2.7700e-01	5.5341	4.080828	0.000222	2.223490	0.376669	0.004447
 556	2.7750e-01	5.5441	4.115893	0.000351	3.506273	0.593979	0.007013
 557	2.7800e-01	5.5551	4.140268	0.000244	2.437287	0.412888	0.004875
 558	2.7850e-01	5.5652	4.173195	0.000329	3.292476	0.557761	0.006585
 559	2.7900e-01	5.5792	4.203984	0.000308	3.078679	0.521542	0.006158
 560	2.7950e-01	5.5875	4.228786	0.000248	2.480047	0.420131	0.004960
 561	2.8000e-01	5.5958	4.259148	0.000304	3.035919	0.514299	0.006072
 562	2.8050e-01	5.6067	4.283095	0.000239	2.394528	0.405644	0.004789
 563	2.8100e-01	5.6158	4.308752	0.000257	2.565566	0.434619	0.005132
 564	2.8150e-01	5.6216	4.341252	0.000325	3.249717	0.550517	0.006500
 565	2.8200e-01	5.6384	4.368192	0.000269	2.693844	0.456350	0.005388
 566	2.8250e-01	5.6461	4.393850	0.000257	2.565566	0.434619	0.005132
 567	2.8300e-01	5.6534	4.423356	0.000295	2.950401	0.499811	0.005901
 568	2.8350e-01	5.6641	4.451151	0.000278	2.779363	0.470837	0.005559
 569	2.8400e-01	5.6781	4.478947	0.000278	2.779363	0.470837	0.005559
 570	2.8450e-01	5.6868	4.502894	0.000239	2.394528	0.405644	0.004789
 571	2.8500e-01	5.6940	4.537959	0.000351	3.506273	0.593979	0.007013
 572	2.8550e-01	5.7034	4.565327	0.000274	2.736603	0.463593	0.005474
 573	2.8600e-01	5.7147	4.586709	0.000214	2.137971	0.362182	0.004276
 574	2.8650e-01	5.7240	4.614504	0.000278	2.779363	0.470837	0.005559
 575	2.8700e-01	5.7361	4.650425	0.000359	3.591792	0.608466	0.007184
 576	2.8750e-01	5.7440	4.680359	0.000299	2.993160	0.507055	0.005987
 577	2.8800e-01	5.7544	4.703878	0.000235	2.351769	0.398400	0.004704
 578	2.8850e-01	5.7642	4.734239	0.000304	3.035919	0.514299	0.006072
 579	2.8900e-01	5.7736	4.754765	0.000205	2.052453	0.347695	0.004105
 580	2.8950e-01	5.7861	4.780851	0.000261	2.608325	0.441862	0.005217
 581	2.9000e-01	5.7941	4.815488	0.000346	3.463514	0.586735	0.006928
 582	2.9050e-01	5.8040	4.838580	0.000231	2.309009	0.391157	0.004618
 583	2.9100e-01	5.8168	4.868086	0.000295	2.950401	0.499811	0.005901
 584	2.9150e-01	5.8258	4.895882	0.000278	2.779363	0.470837	0.005559
 585	2.9200e-01	5.8387	4.924533	0.000286	2.864882	0.485324	0.005730
 586	2.9250e-01	5.8443	4.947624	0.000231	2.309009	0.391157	0.004618
 587	2.9300e-01	5.8533	4.978841	0.000312	3.121438	0.528786	0.006243
 588	2.9350e-01	5.8682	5.003216	0.000244	2.437287	0.412888	0.004875
 589	2.9400e-01	5.8789	5.035715	0.000325	3.249717	0.550517	0.006500
 590	2.9450e-01	5.8871	5.063511	0.000278	2.779363	0.470837	0.005559
 591	2.9500e-01	5.8942	5.087886	0.000244	2.437287	0.412888	0.004875
 592	2.9550e-01	5.9070	5.113115	0.000252	2.522806	0.427375	0.005046
 593	2.9600e-01	5.9180	5.142194	0.000291	2.907641	0.492568	0.005816
 594	2.9650e-01	5.9247	5.172983	0.000308	3.078679	0.521542	0.006158
 595	2.9700e-01	5.9335	5.198640	0.000257	2.565566	0.434619	0.005132
 596	2.9750e-01	5.9473	5.226436	0.000278	2.779363	0.470837	0.005559
 597	2.9800e-01	5.9560	5.251666	0.000252	2.522806	0.427375	0.005046
 598	2.9850e-01	5.9662	5.278179	0.000265	2.651085	0.449106	0.005303
 599	2.9900e-01	5.9766	5.307685	0.000295	2.950401	0.499811	0.005901
 600	2.9950e-01	5.9857	5.331204	0.000235	2.351769	0.398400	0.004704
 601	3.0000e-01	5.9974	5.362421	0.000312	3.121438	0.528786	0.006243
 602	3.0050e-01	6.0062	5.387223	0.000248	2.480047	0.420131	0.004960
 603	3.0100e-01	6.0150	5.418012	0.000308	3.078679	0.521542	0.006158
 604	3.0150e-01	6.0260	5.441532	0.000235	2.351769	0.398400	0.004704
 605	3.0200e-01	6.0352	5.471465	0.000299	2.993160	0.507055	0.005987
 606	3.0250e-01	6.0468	5.496695	0.000252	2.522806	0.427375	0.005046
 607	3.0300e-01	6.0553	5.525774	0.000291	2.907641	0.492568	0.005816
 608	3.0350e-01	6.0645	5.550576	0.000248	2.480047	0.420131	0.004960
 609	3.0400e-01	6.0770	5.583503	0.000329	3.292476	0.557761	0.006585
 610	3.0450e-01	6.0852	5.604029	0.000205	2.052453	0.347695	0.004105
 611	3.0500e-01	6.0953	5.630970	0.000269	2.693844	0.456350	0.005388
 612	3.0550e-01	6.1047	5.659193	0.000282	2.822122	0.478080	0.005645
 613	3.0600e-01	6.1169	5.690410	0.000312	3.121438	0.528786	0.006243
 614	3.0650e-01	6.1261	5.713929	0.000235	2.351769	0.398400	0.004704
 615	3.0700e-01	6.1362	5.741725	0.000278	2.779363	0.470837	0.005559
 616	3.0750e-01	6.1456	5.766527	0.000248	2.480047	0.420131	0.004960
 617	3.0800e-01	6.1549	5.789191	0.000227	2.266250	0.383913	0.004533
 618	3.0850e-01	6.1646	5.823829	0.000346	3.463514	0.586735	0.006928
 619	3.0900e-01	6.1768	5.846493	0.000227	2.266250	0.383913	0.004533
 620	3.0950e-01	6.1880	5.879848	0.000334	3.335235	0.565004	0.006671
 621	3.1000e-01	6.1982	5.905505	0.000257	2.565566	0.434619	0.005132
 622	3.1050e-01	6.2079	5.935011	0.000295	2.950401	0.499811	0.005901
 623	3.1100e-01	6.2158	5.952544	0.000175	1.753137	0.296989	0.003507
 624	3.1150e-01	6.2259	5.984616	0.000321	3.206957	0.543273	0.006414
 625	3.1200e-01	6.2347	6.005997	0.000214	2.137971	0.362182	0.004276
 626	3.1250e-01	6.2488	6.038924	0.000329	3.292476	0.557761	0.006585
 627	3.1300e-01	6.2555	6.065865	0.000269	2.693844	0.456350	0.005388
 628	3.1350e-01	6.2671	6.092377	0.000265	2.651085	0.449106	0.005303
 629	3.1400e-01	6.2756	6.118035	0.000257	2.565566	0.434619	0.005132
 630	3.1450e-01	6.2848	6.146258	0.000282	2.822122	0.478080	0.005645
 631	3.1500e-01	6.2973	6.169350	0.000231	2.309009	0.391157	0.004618
 632	3.1550e-01	6.3062	6.200566	0.000312	3.121438	0.528786	0.006243
 633	3.1600e-01	6.3147	6.225796	0.000252	2.522806	0.427375	0.005046
 634	3.1650e-01	6.3270	6.251454	0.000257	2.565566	0.434619	0.005132
 635	3.1700e-01	6.3367	6.274546	0.000231	2.309009	0.391157	0.004618
 636	3.1750e-01	6.3452	6.304052	0.000295	2.950401	0.499811	0.005901
 637	3.1800e-01	6.3562	6.332275	0.000282	2.822122	0.478080	0.005645
 638	3.1850e-01	6.3663	6.354939	0.000227	2.266250	0.383913	0.004533
 639	3.1900e-01	6.3757	6.385301	0.000304	3.035919	0.514299	0.006072
 640	3.1950e-01	6.3867	6.414807	0.000295	2.950401	0.499811	0.005901
 641	3.2000e-01	6.3959	6.432339	0.000175	1.753137	0.296989	0.003507
 642	3.2050e-01	6.4063	6.461846	0.000295	2.950401	0.499811	0.005901
 643	3.2100e-01	6.4154	6.489641	0.000278	2.779363	0.470837	0.005559
 644	3.2150e-01	6.4249	6.514443	0.000248	2.480047	0.420131	0.004960
 645	3.2200e-01	6.4355	6.541811	0.000274	2.736603	0.463593	0.005474
 646	3.2250e-01	6.4465	6.569179	0.000274	2.736603	0.463593	0.005474
 647	3.2300e-01	6.4563	6.600824	0.000316	3.164198	0.536030	0.006329
 648	3.2350e-01	6.4633	6.627764	0.000269	2.693844	0.456350	0.005388
 649	3.2400e-01	6.4760	6.645297	0.000175	1.753137	0.296989	0.003507
 650	3.2450e-01	6.4844	6.677369	0.000321	3.206957	0.543273	0.006414
 651	3.2500e-01	6.4935	6.705592	0.000282	2.822122	0.478080	0.005645
 652	3.2550e-01	6.5094	6.731677	0.000261	2.608325	0.441862	0.005217
 653	3.2600e-01	6.5170	6.756052	0.000244	2.437287	0.412888	0.004875
 654	3.2650e-01	6.5259	6.785558	0.000295	2.950401	0.499811	0.005901
 655	3.2700e-01	6.5350	6.810360	0.000248	2.480047	0.420131	0.004960
 656	3.2750e-01	6.5460	6.830459	0.000201	2.009693	0.340451	0.004020
 657	3.2800e-01	6.5576	6.856544	0.000261	2.608325	0.441862	0.005217
 658	3.2850e-01	6.5656	6.885622	0.000291	2.907641	0.492568	0.005816
 659	3.2900e-01	6.5778	6.916411	0.000308	3.078679	0.521542	0.006158
 660	3.2950e-01	6.5842	6.938648	0.000222	2.223490	0.376669	0.004447
 661	3.3000e-01	6.5982	6.962595	0.000239	2.394528	0.405644	0.004789
 662	3.3050e-01	6.6074	6.992956	0.000304	3.035919	0.514299	0.006072
 663	3.3100e-01	6.6180	7.019897	0.000269	2.693844	0.456350	0.005388
 664	3.3150e-01	6.6251	7.040850	0.000210	2.095212	0.354939	0.004191
 665	3.3200e-01	6.6339	7.066508	0.000257	2.565566	0.434619	0.005132
 666	3.3250e-01	6.6467	7.096014	0.000295	2.950401	0.499811	0.005901
 667	3.3300e-01	6.6571	7.123809	0.000278	2.779363	0.470837	0.005559
 668	3.3350e-01	6.6653	7.148184	0.000244	2.437287	0.412888	0.004875
 669	3.3400e-01	6.6742	7.169565	0.000214	2.137971	0.362182	0.004276
 670	3.3450e-01	6.6864	7.196078	0.000265	2.651085	0.449106	0.005303
 671	3.3500e-01	6.6968	7.221308	0.000252	2.522806	0.427375	0.005046
 672	3.3550e-01	6.7059	7.251669	0.000304	3.035919	0.514299	0.006072
 673	3.3600e-01	6.7183	7.280748	0.000291	2.907641	0.492568	0.005816
 674	3.3650e-01	6.7242	7.304267	0.000235	2.351769	0.398400	0.004704
 675	3.3700e-01	6.7355	7.331635	0.000274	2.736603	0.463593	0.005474
 676	3.3750e-01	6.7450	7.356865	0.000252	2.522806	0.427375	0.005046
 677	3.3800e-01	6.7558	7.379529	0.000227	2.266250	0.383913	0.004533
 678	3.3850e-01	6.7654	7.407753	0.000282	2.822122	0.478080	0.005645
 679	3.3900e-01	6.7773	7.433838	0.000261	2.608325	0.441862	0.005217
 680	3.3950e-01	6.7896	7.456930	0.000231	2.309009	0.391157	0.004618
 681	3.4000e-01	6.7993	7.483870	0.000269	2.693844	0.456350	0.005388
 682	3.4050e-01	6.8073	7.509100	0.000252	2.522806	0.427375	0.005046
 683	3.4100e-01	6.8152	7.531764	0.000227	2.266250	0.383913	0.004533
 684	3.4150e-01	6.8286	7.556994	0.000252	2.522806	0.427375	0.005046
 685	3.4200e-01	6.8353	7.588210	0.000312	3.121438	0.528786	0.006243
 686	3.4250e-01	6.8469	7.616434	0.000282	2.822122	0.478080	0.005645
 687	3.4300e-01	6.8567	7.634822	0.000184	1.838655	0.311477	0.003678
 688	3.4350e-01	6.8683	7.663900	0.000291	2.907641	0.492568	0.005816
 689	3.4400e-01	6.8762	7.689985	0.000261	2.608325	0.441862	0.005217
 690	3.4450e-01	6.8842	7.717781	0.000278	2.779363	0.470837	0.005559
 691	3.4500e-01	6.8951	7.746859	0.000291	2.907641	0.492568	0.005816
 692	3.4550e-01	6.9061	7.769096	0.000222	2.223490	0.376669	0.004447
 693	3.4600e-01	6.9154	7.790477	0.000214	2.137971	0.362182	0.004276
 694	3.4650e-01	6.9250	7.816562	0.000261	2.608325	0.441862	0.005217
 695	3.4700e-01	6.9348	7.841792	0.000252	2.522806	0.427375	0.005046
 696	3.4750e-01	6.9458	7.873009	0.000312	3.121438	0.528786	0.006243
 697	3.4800e-01	6.9528	7.895245	0.000222	2.223490	0.376669	0.004447
 698	3.4850e-01	6.9666	7.920048	0.000248	2.480047	0.420131	0.004960
 699	3.4900e-01	6.9754	7.946988	0.000269	2.693844	0.456350	0.005388
 700	3.4950e-01	6.9864	7.972218	0.000252	2.522806	0.427375	0.005046
 701	3.5000e-01	6.9958	7.999158	0.000269	2.693844	0.456350	0.005388
 702	3.5050e-01	7.0068	8.019257	0.000201	2.009693	0.340451	0.004020
 703	3.5100e-01	7.0163	8.050473	0.000312	3.121438	0.528786	0.006243
 704	3.5150e-01	7.0282	8.076559	0.000261	2.608325	0.441862	0.005217
 705	3.5200e-01	7.0374	8.103499	0.000269	2.693844	0.456350	0.005388
 706	3.5250e-01	7.0453	8.119321	0.000158	1.582099	0.268015	0.003164
 707	3.5300e-01	7.0605	8.165077	0.000458	4.575259	0.775070	0.009151
 708	3.5350e-01	7.0667	8.183037	0.000180	1.795896	0.304233	0.003592
 709	3.5400e-01	7.0758	8.199715	0.000167	1.667618	0.282502	0.003335
 710	3.5450e-01	7.0874	8.226227	0.000265	2.651085	0.449106	0.005303
 711	3.5500e-01	7.0975	8.256589	0.000304	3.035919	0.514299	0.006072
 712	3.5550e-01	7.1082	8.275404	0.000188	1.881415	0.318720	0.003763
 713	3.5600e-01	7.1182	8.301062	0.000257	2.565566	0.434619	0.005132
 714	3.5650e-01	7.1277	8.328430	0.000274	2.736603	0.463593	0.005474
 715	3.5700e-01	7.1362	8.354943	0.000265	2.651085	0.449106	0.005303
 716	3.5750e-01	7.1454	8.380173	0.000252	2.522806	0.427375	0.005046
 717	3.5800e-01	7.1548	8.405830	0.000257	2.565566	0.434619	0.005132
 718	3.5850e-01	7.1661	8.429349	0.000235	2.351769	0.398400	0.004704
 719	3.5900e-01	7.1747	8.458428	0.000291	2.907641	0.492568	0.005816
 720	3.5950e-01	7.1869	8.481092	0.000227	2.266250	0.383913	0.004533
 721	3.6000e-01	7.1976	8.505039	0.000239	2.394528	0.405644	0.004789
 722	3.6050e-01	7.2058	8.530697	0.000257	2.565566	0.434619	0.005132
 723	3.6100e-01	7.2150	8.560630	0.000299	2.993160	0.507055	0.005987
 724	3.6150e-01	7.2260	8.576880	0.000162	1.624858	0.275258	0.003250
 725	3.6200e-01	7.2327	8.599972	0.000231	2.309009	0.391157	0.004618
 726	3.6250e-01	7.2437	8.631616	0.000316	3.164198	0.536030	0.006329
 727	3.6300e-01	7.2565	8.658984	0.000274	2.736603	0.463593	0.005474
 728	3.6350e-01	7.2650	8.680365	0.000214	2.137971	0.362182	0.004276
 729	3.6400e-01	7.2754	8.708161	0.000278	2.779363	0.470837	0.005559
 730	3.6450e-01	7.2888	8.732963	0.000248	2.480047	0.420131	0.004960
 731	3.6500e-01	7.2958	8.749213	0.000162	1.624858	0.275258	0.003250
 732	3.6550e-01	7.3041	8.782568	0.000334	3.335235	0.565004	0.006671
 733	3.6600e-01	7.3169	8.808225	0.000257	2.565566	0.434619	0.005132
 734	3.6650e-01	7.3260	8.825758	0.000175	1.753137	0.296989	0.003507
 735	3.6700e-01	7.3370	8.859113	0.000334	3.335235	0.565004	0.006671
 736	3.6750e-01	7.3468	8.880922	0.000218	2.180731	0.369426	0.004362
 737	3.6800e-01	7.3566	8.907862	0.000269	2.693844	0.456350	0.005388
 738	3.6850e-01	7.3657	8.932664	0.000248	2.480047	0.420131	0.004960
 739	3.6900e-01	7.3763	8.953190	0.000205	2.052453	0.347695	0.004105
 740	3.6950e-01	7.3865	8.975855	0.000227	2.266250	0.383913	0.004533
 741	3.7000e-01	7.3987	9.010492	0.000346	3.463514	0.586735	0.006928
 742	3.7050e-01	7.4048	9.024604	0.000141	1.411061	0.239040	0.002822
 743	3.7100e-01	7.4158	9.057959	0.000334	3.335235	0.565004	0.006671
 744	3.7150e-01	7.4292	9.079340	0.000214	2.137971	0.362182	0.004276
 745	3.7200e-01	7.4377	9.107135	0.000278	2.779363	0.470837	0.005559
 746	3.7250e-01	7.4445	9.134076	0.000269	2.693844	0.456350	0.005388
 747	3.7300e-01	7.4542	9.157595	0.000235	2.351769	0.398400	0.004704
 748	3.7350e-01	7.4667	9.180259	0.000227	2.266250	0.383913	0.004533
 749	3.7400e-01	7.4744	9.205917	0.000257	2.565566	0.434619	0.005132
 750	3.7450e-01	7.4852	9.229009	0.000231	2.309009	0.391157	0.004618
 751	3.7500e-01	7.4976	9.256804	0.000278	2.779363	0.470837	0.005559
 752	3.7550e-01	7.5064	9.281179	0.000244	2.437287	0.412888	0.004875
 753	3.7600e-01	7.5134	9.305126	0.000239	2.394528	0.405644	0.004789
 754	3.7650e-01	7.5262	9.327790	0.000227	2.266250	0.383913	0.004533
 755	3.7700e-01	7.5342	9.354303	0.000265	2.651085	0.449106	0.005303
 756	3.7750e-01	7.5458	9.381243	0.000269	2.693844	0.456350	0.005388
 757	3.7800e-01	7.5549	9.403052	0.000218	2.180731	0.369426	0.004362
 758	3.7850e-01	7.5671	9.431703	0.000286	2.864882	0.485324	0.005730
 759	3.7900e-01	7.5763	9.453084	0.000214	2.137971	0.362182	0.004276
 760	3.7950e-01	7.5861	9.477887	0.000248	2.480047	0.420131	0.004960
 761	3.8000e-01	7.5995	9.505255	0.000274	2.736603	0.463593	0.005474
 762	3.8050e-01	7.6044	9.527919	0.000227	2.266250	0.383913	0.004533
 763	3.8100e-01	7.6178	9.551011	0.000231	2.309009	0.391157	0.004618
 764	3.8150e-01	7.6251	9.575813	0.000248	2.480047	0.420131	0.004960
 765	3.8200e-01	7.6373	9.602326	0.000265	2.651085	0.449106	0.005303
 766	3.8250e-01	7.6468	9.623707	0.000214	2.137971	0.362182	0.004276
 767	3.8300e-01	7.6587	9.652358	0.000286	2.864882	0.485324	0.005730
 768	3.8350e-01	7.6636	9.674167	0.000218	2.180731	0.369426	0.004362
 769	3.8400e-01	7.6758	9.695120	0.000210	2.095212	0.354939	0.004191
 770	3.8450e-01	7.6868	9.720350	0.000252	2.522806	0.427375	0.005046
 771	3.8500e-01	7.6984	9.752850	0.000325	3.249717	0.550517	0.006500
 772	3.8550e-01	7.7020	9.776797	0.000239	2.394528	0.405644	0.004789
 773	3.8600e-01	7.7167	9.796467	0.000197	1.966934	0.333208	0.003934
 774	3.8650e-01	7.7246	9.822980	0.000265	2.651085	0.449106	0.005303
 775	3.8700e-01	7.7368	9.847782	0.000248	2.480047	0.420131	0.004960
 776	3.8750e-01	7.7478	9.869164	0.000214	2.137971	0.362182	0.004276
 777	3.8800e-01	7.7533	9.899097	0.000299	2.993160	0.507055	0.005987
 778	3.8850e-01	7.7673	9.919196	0.000201	2.009693	0.340451	0.004020
 779	3.8900e-01	7.7734	9.942715	0.000235	2.351769	0.398400	0.004704
 780	3.8950e-01	7.7835	9.970511	0.000278	2.779363	0.470837	0.005559
 781	3.9000e-01	7.7960	9.990182	0.000197	1.966934	0.333208	0.003934
 782	3.9050e-01	7.8064	10.020115	0.000299	2.993160	0.507055	0.005987
 783	3.9100e-01	7.8168	10.043207	0.000231	2.309009	0.391157	0.004618
 784	3.9150e-01	7.8247	10.068009	0.000248	2.480047	0.420131	0.004960
 785	3.9200e-01	7.8357	10.086825	0.000188	1.881415	0.318720	0.003763
 786	3.9250e-01	7.8455	10.114193	0.000274	2.736603	0.463593	0.005474
 787	3.9300e-01	7.8540	10.141133	0.000269	2.693844	0.456350	0.005388
 788	3.9350e-01	7.8644	10.164653	0.000235	2.351769	0.398400	0.004704
 789	3.9400e-01	7.8754	10.186034	0.000214	2.137971	0.362182	0.004276
 790	3.9450e-01	7.8882	10.214257	0.000282	2.822122	0.478080	0.005645
 791	3.9500e-01	7.8949	10.236921	0.000227	2.266250	0.383913	0.004533
 792	3.9550e-01	7.9034	10.258303	0.000214	2.137971	0.362182	0.004276
 793	3.9600e-01	7.9144	10.284388	0.000261	2.608325	0.441862	0.005217
 794	3.9650e-01	7.9248	10.311756	0.000274	2.736603	0.463593	0.005474
 795	3.9700e-01	7.9382	10.320308	0.000086	0.855189	0.144873	0.001711
 796	3.9750e-01	7.9471	10.366492	0.000462	4.618018	0.782313	0.009237
 797	3.9800e-01	7.9547	10.389584	0.000231	2.309009	0.391157	0.004618
 798	3.9850e-01	7.9663	10.412248	0.000227	2.266250	0.383913	0.004533
 799	3.9900e-01	7.9742	10.431491	0.000192	1.924174	0.325964	0.003849
 800	3.9950e-01	7.9852	10.455010	0.000235	2.351769	0.398400	0.004704
 801	4.0000e-01	7.9953	10.475536	0.000205	2.052453	0.347695	0.004105
 802	4.0050e-01	8.0066	10.501621	0.000261	2.608325	0.441862	0.005217
 803	4.0100e-01	8.0164	10.525141	0.000235	2.351769	0.398400	0.004704
 804	4.0150e-01	8.0261	10.551226	0.000261	2.608325	0.441862	0.005217
 805	4.0200e-01	8.0341	10.576884	0.000257	2.565566	0.434619	0.005132
 806	4.0250e-01	8.0457	10.597410	0.000205	2.052453	0.347695	0.004105
 807	4.0300e-01	8.0548	10.623922	0.000265	2.651085	0.449106	0.005303
 808	4.0350e-01	8.0664	10.649152	0.000252	2.522806	0.427375	0.005046
 809	4.0400e-01	8.0750	10.668395	0.000192	1.924174	0.325964	0.003849
 810	4.0450e-01	8.0829	10.697046	0.000286	2.864882	0.485324	0.005730
 811	4.0500e-01	8.0981	10.727835	0.000308	3.078679	0.521542	0.006158
 812	4.0550e-01	8.1067	10.744513	0.000167	1.667618	0.282502	0.003335
 813	4.0600e-01	8.1152	10.770598	0.000261	2.608325	0.441862	0.005217
 814	4.0650e-01	8.1293	10.797538	0.000269	2.693844	0.456350	0.005388
 815	4.0700e-01	8.1329	10.818919	0.000214	2.137971	0.362182	0.004276
 816	4.0750e-01	8.1433	10.841584	0.000227	2.266250	0.383913	0.004533
 817	4.0800e-01	8.1525	10.868096	0.000265	2.651085	0.449106	0.005303
 818	4.0850e-01	8.1635	10.889478	0.000214	2.137971	0.362182	0.004276
 819	4.0900e-01	8.1763	10.917701	0.000282	2.822122	0.478080	0.005645
 820	4.0950e-01	8.1915	10.942076	0.000244	2.437287	0.412888	0.004875
 821	4.1000e-01	8.1952	10.965595	0.000235	2.351769	0.398400	0.004704
 822	4.1050e-01	8.2050	10.983983	0.000184	1.838655	0.311477	0.003678
 823	4.1100e-01	8.2153	11.008357	0.000244	2.437287	0.412888	0.004875
 824	4.1150e-01	8.2257	11.035298	0.000269	2.693844	0.456350	0.005388
 825	4.1200e-01	8.2349	11.053686	0.000184	1.838655	0.311477	0.003678
 826	4.1250e-01	8.2455	11.082337	0.000286	2.864882	0.485324	0.005730
 827	4.1300e-01	8.2574	11.106284	0.000239	2.394528	0.405644	0.004789
 828	4.1350e-01	8.2666	11.132369	0.000261	2.608325	0.441862	0.005217
 829	4.1400e-01	8.2739	11.151612	0.000192	1.924174	0.325964	0.003849
 830	4.1450e-01	8.2904	11.176842	0.000252	2.522806	0.427375	0.005046
 831	4.1500e-01	8.2950	11.206776	0.000299	2.993160	0.507055	0.005987
 832	4.1550e-01	8.3063	11.217894	0.000111	1.111745	0.188335	0.002224
 833	4.1600e-01	8.3142	11.247400	0.000295	2.950401	0.499811	0.005901
 834	4.1650e-01	8.3240	11.272630	0.000252	2.522806	0.427375	0.005046
 835	4.1700e-01	8.3350	11.299143	0.000265	2.651085	0.449106	0.005303
 836	4.1750e-01	8.3447	11.313254	0.000141	1.411061	0.239040	0.002822
 837	4.1800e-01	8.3563	11.344471	0.000312	3.121438	0.528786	0.006243
 838	4.1850e-01	8.3673	11.371411	0.000269	2.693844	0.456350	0.005388
 839	4.1900e-01	8.3746	11.391510	0.000201	2.009693	0.340451	0.004020
 840	4.1950e-01	8.3868	11.409898	0.000184	1.838655	0.311477	0.003678
 841	4.2000e-01	8.3954	11.439831	0.000299	2.993160	0.507055	0.005987
 842	4.2050e-01	8.4052	11.465489	0.000257	2.565566	0.434619	0.005132
 843	4.2100e-01	8.4158	11.491574	0.000261	2.608325	0.441862	0.005217
 844	4.2150e-01	8.4277	11.510390	0.000188	1.881415	0.318720	0.003763
 845	4.2200e-01	8.4357	11.532198	0.000218	2.180731	0.369426	0.004362
 846	4.2250e-01	8.4442	11.559994	0.000278	2.779363	0.470837	0.005559
 847	4.2300e-01	8.4583	11.580520	0.000205	2.052453	0.347695	0.004105
 848	4.2350e-01	8.4650	11.599336	0.000188	1.881415	0.318720	0.003763
 849	4.2400e-01	8.4760	11.626704	0.000274	2.736603	0.463593	0.005474
 850	4.2450e-01	8.4857	11.649368	0.000227	2.266250	0.383913	0.004533
 851	4.2500e-01	8.4937	11.674170	0.000248	2.480047	0.420131	0.004960
 852	4.2550e-01	8.5049	11.699828	0.000257	2.565566	0.434619	0.005132
 853	4.2600e-01	8.5150	11.723775	0.000239	2.394528	0.405644	0.004789
 854	4.2650e-01	8.5211	11.740880	0.000171	1.710377	0.289746	0.003421
 855	4.2700e-01	8.5364	11.767392	0.000265	2.651085	0.449106	0.005303
 856	4.2750e-01	8.5461	11.796898	0.000295	2.950401	0.499811	0.005901
 857	4.2800e-01	8.5559	11.813576	0.000167	1.667618	0.282502	0.003335
 858	4.2850e-01	8.5663	11.841371	0.000278	2.779363	0.470837	0.005559
 859	4.2900e-01	8.5776	11.863608	0.000222	2.223490	0.376669	0.004447
 860	4.2950e-01	8.5901	11.886700	0.000231	2.309009	0.391157	0.004618
 861	4.3000e-01	8.5938	11.917489	0.000308	3.078679	0.521542	0.006158
 862	4.3050e-01	8.6060	11.941008	0.000235	2.351769	0.398400	0.004704
 863	4.3100e-01	8.6194	11.959396	0.000184	1.838655	0.311477	0.003678
 864	4.3150e-01	8.6285	11.982915	0.000235	2.351769	0.398400	0.004704
 865	4.3200e-01	8.6365	12.011994	0.000291	2.907641	0.492568	0.005816
 866	4.3250e-01	8.6469	12.034230	0.000222	2.223490	0.376669	0.004447
 867	4.3300e-01	8.6523	12.054756	0.000205	2.052453	0.347695	0.004105
 868	4.3350e-01	8.6652	12.080414	0.000257	2.565566	0.434619	0.005132
 869	4.3400e-01	8.6749	12.101368	0.000210	2.095212	0.354939	0.004191
 870	4.3450e-01	8.6884	12.123177	0.000218	2.180731	0.369426	0.004362
 871	4.3500e-01	8.6951	12.148406	0.000252	2.522806	0.427375	0.005046
 872	4.3550e-01	8.7079	12.174919	0.000265	2.651085	0.449106	0.005303
 873	4.3600e-01	8.7158	12.192452	0.000175	1.753137	0.296989	0.003507
 874	4.3650e-01	8.7268	12.215116	0.000227	2.266250	0.383913	0.004533
 875	4.3700e-01	8.7372	12.235214	0.000201	2.009693	0.340451	0.004020
 876	4.3750e-01	8.7457	12.260017	0.000248	2.480047	0.420131	0.004960
 877	4.3800e-01	8.7561	12.284391	0.000244	2.437287	0.412888	0.004875
 878	4.3850e-01	8.7671	12.310476	0.000261	2.608325	0.441862	0.005217
 879	4.3900e-01	8.7732	12.332713	0.000222	2.223490	0.376669	0.004447
 880	4.3950e-01	8.7866	12.360936	0.000282	2.822122	0.478080	0.005645
 881	4.4000e-01	8.7946	12.381462	0.000205	2.052453	0.347695	0.004105
 882	4.4050e-01	8.8062	12.403271	0.000218	2.180731	0.369426	0.004362
 883	4.4100e-01	8.8153	12.426790	0.000235	2.351769	0.398400	0.004704
 884	4.4150e-01	8.8275	12.451593	0.000248	2.480047	0.420131	0.004960
 885	4.4200e-01	8.8361	12.474685	0.000231	2.309009	0.391157	0.004618
 886	4.4250e-01	8.8449	12.489224	0.000145	1.453821	0.246284	0.002908
 887	4.4300e-01	8.8550	12.518302	0.000291	2.907641	0.492568	0.005816
 888	4.4350e-01	8.8654	12.538828	0.000205	2.052453	0.347695	0.004105
 889	4.4400e-01	8.8788	12.564486	0.000257	2.565566	0.434619	0.005132
 890	4.4450e-01	8.8852	12.587150	0.000227	2.266250	0.383913	0.004533
 891	4.4500e-01	8.8928	12.612807	0.000257	2.565566	0.434619	0.005132
 892	4.4550e-01	8.9093	12.637182	0.000244	2.437287	0.412888	0.004875
 893	4.4600e-01	8.9169	12.657708	0.000205	2.052453	0.347695	0.004105
 894	4.4650e-01	8.9264	12.684649	0.000269	2.693844	0.456350	0.005388
 895	4.4700e-01	8.9380	12.712017	0.000274	2.736603	0.463593	0.005474
 896	4.4750e-01	8.9441	12.733398	0.000214	2.137971	0.362182	0.004276
 897	4.4800e-01	8.9557	12.751358	0.000180	1.795896	0.304233	0.003592
 898	4.4850e-01	8.9664	12.772312	0.000210	2.095212	0.354939	0.004191
 899	4.4900e-01	8.9758	12.792410	0.000201	2.009693	0.340451	0.004020
 900	4.4950e-01	8.9857	12.822771	0.000304	3.035919	0.514299	0.006072
 901	4.5000e-01	8.9948	12.848001	0.000252	2.522806	0.427375	0.005046
 902	4.5050e-01	9.0063	12.869810	0.000218	2.180731	0.369426	0.004362
 903	4.5100e-01	9.0155	12.891192	0.000214	2.137971	0.362182	0.004276
 904	4.5150e-01	9.0265	12.914283	0.000231	2.309009	0.391157	0.004618
 905	4.5200e-01	9.0350	12.936092	0.000218	2.180731	0.369426	0.004362
 906	4.5250e-01	9.0439	12.957901	0.000218	2.180731	0.369426	0.004362
 907	4.5300e-01	9.0570	12.983986	0.000261	2.608325	0.441862	0.005217
 908	4.5350e-01	9.0649	13.010927	0.000269	2.693844	0.456350	0.005388
 909	4.5400e-01	9.0732	13.037012	0.000261	2.608325	0.441862	0.005217
 910	4.5450e-01	9.0857	13.055827	0.000188	1.881415	0.318720	0.003763
 911	4.5500e-01	9.0955	13.081057	0.000252	2.522806	0.427375	0.005046
 912	4.5550e-01	9.1046	13.102011	0.000210	2.095212	0.354939	0.004191
 913	4.5600e-01	9.1144	13.130234	0.000282	2.822122	0.478080	0.005645
 914	4.5650e-01	9.1217	13.152471	0.000222	2.223490	0.376669	0.004447
 915	4.5700e-01	9.1376	13.170431	0.000180	1.795896	0.304233	0.003592
 916	4.5750e-01	9.1455	13.193950	0.000235	2.351769	0.398400	0.004704
 917	4.5800e-01	9.1559	13.216187	0.000222	2.223490	0.376669	0.004447
 918	4.5850e-01	9.1663	13.238423	0.000222	2.223490	0.376669	0.004447
 919	4.5900e-01	9.1745	13.264081	0.000257	2.565566	0.434619	0.005132
 920	4.5950e-01	9.1864	13.285462	0.000214	2.137971	0.362182	0.004276
 921	4.6000e-01	9.2004	13.307699	0.000222	2.223490	0.376669	0.004447
 922	4.6050e-01	9.2072	13.337205	0.000295	2.950401	0.499811	0.005901
 923	4.6100e-01	9.2169	13.355593	0.000184	1.838655	0.311477	0.003678
 924	4.6150e-01	9.2261	13.379112	0.000235	2.351769	0.398400	0.004704
 925	4.6200e-01	9.2346	13.405197	0.000261	2.608325	0.441862	0.005217
 926	4.6250e-01	9.2462	13.428289	0.000231	2.309009	0.391157	0.004618
 927	4.6300e-01	9.2554	13.451808	0.000235	2.351769	0.398400	0.004704
 928	4.6350e-01	9.2651	13.473190	0.000214	2.137971	0.362182	0.004276
 929	4.6400e-01	9.2767	13.498419	0.000252	2.522806	0.427375	0.005046
 930	4.6450e-01	9.2859	13.521939	0.000235	2.351769	0.398400	0.004704
 931	4.6500e-01	9.2960	13.544603	0.000227	2.266250	0.383913	0.004533
 932	4.6550e-01	9.3066	13.571971	0.000274	2.736603	0.463593	0.005474
 933	4.6600e-01	9.3170	13.590786	0.000188	1.881415	0.318720	0.003763
 934	4.6650e-01	9.3250	13.611312	0.000205	2.052453	0.347695	0.004105
 935	4.6700e-01	9.3329	13.639108	0.000278	2.779363	0.470837	0.005559
 936	4.6750e-01	9.3469	13.661772	0.000227	2.266250	0.383913	0.004533
 937	4.6800e-01	9.3567	13.681443	0.000197	1.966934	0.333208	0.003934
 938	4.6850e-01	9.3671	13.703680	0.000222	2.223490	0.376669	0.004447
 939	4.6900e-01	9.3762	13.730620	0.000269	2.693844	0.456350	0.005388
 940	4.6950e-01	9.3866	13.757133	0.000265	2.651085	0.449106	0.005303
 941	4.7000e-01	9.3951	13.772100	0.000150	1.496580	0.253528	0.002993
 942	4.7050e-01	9.4037	13.801178	0.000291	2.907641	0.492568	0.005816
 943	4.7100e-01	9.4141	13.819994	0.000188	1.881415	0.318720	0.003763
 944	4.7150e-01	9.4287	13.844796	0.000248	2.480047	0.420131	0.004960
 945	4.7200e-01	9.4360	13.873447	0.000286	2.864882	0.485324	0.005730
 946	4.7250e-01	9.4470	13.891835	0.000184	1.838655	0.311477	0.003678
 947	4.7300e-01	9.4568	13.912361	0.000205	2.052453	0.347695	0.004105
 948	4.7350e-01	9.4666	13.938873	0.000265	2.651085	0.449106	0.005303
 949	4.7400e-01	9.4745	13.968807	0.000299	2.993160	0.507055	0.005987
 950	4.7450e-01	9.4849	13.988906	0.000201	2.009693	0.340451	0.004020
 951	4.7500e-01	9.4965	14.006438	0.000175	1.753137	0.296989	0.003507
 952	4.7550e-01	9.5056	14.030385	0.000239	2.394528	0.405644	0.004789
 953	4.7600e-01	9.5166	14.060747	0.000304	3.035919	0.514299	0.006072
 954	4.7650e-01	9.5245	14.082556	0.000218	2.180731	0.369426	0.004362
 955	4.7700e-01	9.5367	14.096667	0.000141	1.411061	0.239040	0.002822
 956	4.7750e-01	9.5459	14.125318	0.000286	2.864882	0.485324	0.005730
 957	4.7800e-01	9.5563	14.148410	0.000231	2.309009	0.391157	0.004618
 958	4.7850e-01	9.5679	14.173212	0.000248	2.480047	0.420131	0.004960
 959	4.7900e-01	9.5761	14.191172	0.000180	1.795896	0.304233	0.003592
 960	4.7950e-01	9.5868	14.216402	0.000252	2.522806	0.427375	0.005046
 961	4.8000e-01	9.5966	14.240349	0.000239	2.394528	0.405644	0.004789
 962	4.8050e-01	9.6057	14.262586	0.000222	2.223490	0.376669	0.004447
 963	4.8100e-01	9.6161	14.284822	0.000222	2.223490	0.376669	0.004447
 964	4.8150e-01	9.6231	14.312618	0.000278	2.779363	0.470837	0.005559
 965	4.8200e-01	9.6350	14.330151	0.000175	1.753137	0.296989	0.003507
 966	4.8250e-01	9.6457	14.357091	0.000269	2.693844	0.456350	0.005388
 967	4.8300e-01	9.6539	14.381466	0.000244	2.437287	0.412888	0.004875
 968	4.8350e-01	9.6692	14.401992	0.000205	2.052453	0.347695	0.004105
 969	4.8400e-01	9.6765	14.427649	0.000257	2.565566	0.434619	0.005132
 970	4.8450e-01	9.6857	14.448175	0.000205	2.052453	0.347695	0.004105
 971	4.8500e-01	9.6942	14.471267	0.000231	2.309009	0.391157	0.004618
 972	4.8550e-01	9.7058	14.495214	0.000239	2.394528	0.405644	0.004789
 973	4.8600e-01	9.7156	14.518306	0.000231	2.309009	0.391157	0.004618
 974	4.8650e-01	9.7266	14.542680	0.000244	2.437287	0.412888	0.004875
 975	4.8700e-01	9.7339	14.563634	0.000210	2.095212	0.354939	0.004191
 976	4.8750e-01	9.7455	14.585870	0.000222	2.223490	0.376669	0.004447
 977	4.8800e-01	9.7528	14.614521	0.000286	2.864882	0.485324	0.005730
 978	4.8850e-01	9.7662	14.632054	0.000175	1.753137	0.296989	0.003507
 979	4.8900e-01	9.7778	14.658567	0.000265	2.651085	0.449106	0.005303
 980	4.8950e-01	9.7870	14.682086	0.000235	2.351769	0.398400	0.004704
 981	4.9000e-01	9.7961	14.705606	0.000235	2.351769	0.398400	0.004704
 982	4.9050e-01	9.8065	14.731691	0.000261	2.608325	0.441862	0.005217
 983	4.9100e-01	9.8132	14.750934	0.000192	1.924174	0.325964	0.003849
 984	4.9150e-01	9.8267	14.775308	0.000244	2.437287	0.412888	0.004875
 985	4.9200e-01	9.8358	14.791986	0.000167	1.667618	0.282502	0.003335
 986	4.9250e-01	9.8486	14.820637	0.000286	2.864882	0.485324	0.005730
 987	4.9300e-01	9.8538	14.843729	0.000231	2.309009	0.391157	0.004618
 988	4.9350e-01	9.8663	14.866820	0.000231	2.309009	0.391157	0.004618
 989	4.9400e-01	9.8788	14.886919	0.000201	2.009693	0.340451	0.004020
 990	4.9450e-01	9.8871	14.913859	0.000269	2.693844	0.456350	0.005388
 991	4.9500e-01	9.8956	14.938661	0.000248	2.480047	0.420131	0.004960
 992	4.9550e-01	9.9036	14.961325	0.000227	2.266250	0.383913	0.004533
 993	4.9600e-01	9.9127	14.984417	0.000231	2.309009	0.391157	0.004618
 994	4.9650e-01	9.9243	15.003660	0.000192	1.924174	0.325964	0.003849
 995	4.9700e-01	9.9341	15.034022	0.000304	3.035919	0.514299	0.006072
 996	4.9750e-01	9.9500	15.048989	0.000150	1.496580	0.253528	0.002993
 997	4.9800e-01	9.9579	15.070370	0.000214	2.137971	0.362182	0.004276
 998	4.9850e-01	9.9646	15.096883	0.000265	2.651085	0.449106	0.005303
 999	4.9900e-01	9.9774	15.118692	0.000218	2.180731	0.369426	0.004362
1000	4.9950e-01	9.9860	15.149481	0.000308	3.078679	0.521542	0.006158
1001	5.0000e-01	9.9963	15.172572	0.000231	2.309009	0.391157	0.004618
1002	5.0050e-01	9.9878	15.181553	-0.000090	-0.897948	-0.152117	0.001796
1003	5.0100e-01	9.9756	15.174710	0.000068	0.684151	0.115898	-0.001368
1004	5.0150e-01	9.9634	15.162309	0.000124	1.240023	0.210066	-0.002480
1005	5.0200e-01	9.9554	15.143066	0.000192	1.924174	0.325964	-0.003849
1006	5.0250e-01	9.9451	15.128527	0.000145	1.453821	0.246284	-0.002908
1007	5.0300e-01	9.9365	15.113560	0.000150	1.496580	0.253528	-0.002993
1008	5.0350e-01	9.9234	15.098593	0.000150	1.496580	0.253528	-0.002993
1009	5.0400e-01	9.9136	15.076357	0.000222	2.223490	0.376669	-0.004447
1010	5.0450e-01	9.9051	15.060962	0.000154	1.539339	0.260771	-0.003079
1011	5.0500e-01	9.8969	15.048989	0.000120	1.197264	0.202822	-0.002395
1012	5.0550e-01	9.8853	15.033167	0.000158	1.582099	0.268015	-0.003164
1013	5.0600e-01	9.8743	15.012641	0.000205	2.052453	0.347695	-0.004105
1014	5.0650e-01	9.8645	14.989549	0.000231	2.309009	0.391157	-0.004618
1015	5.0700e-01	9.8578	14.980141	0.000094	0.940707	0.159360	-0.001882
1016	5.0750e-01	9.8468	14.956194	0.000239	2.394528	0.405644	-0.004789
1017	5.0800e-01	9.8334	14.941227	0.000150	1.496580	0.253528	-0.002993
1018	5.0850e-01	9.8260	14.926688	0.000145	1.453821	0.246284	-0.002908
1019	5.0900e-01	9.8157	14.906162	0.000205	2.052453	0.347695	-0.004105
1020	5.0950e-01	9.8065	14.884781	0.000214	2.137971	0.362182	-0.004276
1021	5.1000e-01	9.7940	14.871952	0.000128	1.282783	0.217309	-0.002566
1022	5.1050e-01	9.7858	14.857413	0.000145	1.453821	0.246284	-0.002908
1023	5.1100e-01	9.7742	14.839025	0.000184	1.838655	0.311477	-0.003678
1024	5.1150e-01	9.7684	14.818926	0.000201	2.009693	0.340451	-0.004020
1025	5.1200e-01	9.7552	14.796690	0.000222	2.223490	0.376669	-0.004447
1026	5.1250e-01	9.7437	14.780868	0.000158	1.582099	0.268015	-0.003164
1027	5.1300e-01	9.7363	14.766328	0.000145	1.453821	0.246284	-0.002908
1028	5.1350e-01	9.7272	14.743664	0.000227	2.266250	0.383913	-0.004533
1029	5.1400e-01	9.7186	14.726132	0.000175	1.753137	0.296989	-0.003507
1030	5.1450e-01	9.7049	14.703467	0.000227	2.266250	0.383913	-0.004533
1031	5.1500e-01	9.6936	14.694060	0.000094	0.940707	0.159360	-0.001882
1032	5.1550e-01	9.6838	14.663271	0.000308	3.078679	0.521542	-0.006158
1033	5.1600e-01	9.6759	14.647021	0.000162	1.624858	0.275258	-0.003250
1034	5.1650e-01	9.6649	14.631626	0.000154	1.539339	0.260771	-0.003079
1035	5.1700e-01	9.6558	14.612811	0.000188	1.881415	0.318720	-0.003763
1036	5.1750e-01	9.6448	14.591430	0.000214	2.137971	0.362182	-0.004276
1037	5.1800e-01	9.6381	14.576890	0.000145	1.453821	0.246284	-0.002908
1038	5.1850e-01	9.6268	14.556792	0.000201	2.009693	0.340451	-0.004020
1039	5.1900e-01	9.6143	14.545246	0.000115	1.154505	0.195578	-0.002309
1040	5.1950e-01	9.6085	14.521727	0.000235	2.351769	0.398400	-0.004704
1041	5.2000e-01	9.5972	14.498635	0.000231	2.309009	0.391157	-0.004618
1042	5.2050e-01	9.5862	14.480675	0.000180	1.795896	0.304233	-0.003592
1043	5.2100e-01	9.5752	14.467846	0.000128	1.282783	0.217309	-0.002566
1044	5.2150e-01	9.5636	14.447748	0.000201	2.009693	0.340451	-0.004020
1045	5.2200e-01	9.5544	14.426366	0.000214	2.137971	0.362182	-0.004276
1046	5.2250e-01	9.5441	14.403702	0.000227	2.266250	0.383913	-0.004533
1047	5.2300e-01	9.5367	14.387452	0.000162	1.624858	0.275258	-0.003250
1048	5.2350e-01	9.5261	14.366499	0.000210	2.095212	0.354939	-0.004191
1049	5.2400e-01	9.5178	14.352387	0.000141	1.411061	0.239040	-0.002822
1050	5.2450e-01	9.5087	14.328440	0.000239	2.394528	0.405644	-0.004789
1051	5.2500e-01	9.5026	14.309625	0.000188	1.881415	0.318720	-0.003763
1052	5.2550e-01	9.4867	14.291664	0.000180	1.795896	0.304233	-0.003592
1053	5.2600e-01	9.4769	14.273276	0.000184	1.838655	0.311477	-0.003678
1054	5.2650e-01	9.4653	14.249329	0.000239	2.394528	0.405644	-0.004789
1055	5.2700e-01	9.4568	14.232224	0.000171	1.710377	0.289746	-0.003421
1056	5.2750e-01	9.4495	14.213409	0.000188	1.881415	0.318720	-0.003763
1057	5.2800e-01	9.4366	14.188179	0.000252	2.522806	0.427375	-0.005046
1058	5.2850e-01	9.4263	14.182620	0.000056	0.555873	0.094167	-0.001112
1059	5.2900e-01	9.4177	14.151831	0.000308	3.078679	0.521542	-0.006158
1060	5.2950e-01	9.4070	14.134726	0.000171	1.710377	0.289746	-0.003421
1061	5.3000e-01	9.3967	14.118476	0.000162	1.624858	0.275258	-0.003250
1062	5.3050e-01	9.3860	14.099233	0.000192	1.924174	0.325964	-0.003849
1063	5.3100e-01	9.3750	14.071010	0.000282	2.822122	0.478080	-0.005645
1064	5.3150e-01	9.3640	14.053905	0.000171	1.710377	0.289746	-0.003421
1065	5.3200e-01	9.3564	14.033379	0.000205	2.052453	0.347695	-0.004105
1066	5.3250e-01	9.3475	14.014136	0.000192	1.924174	0.325964	-0.003849
1067	5.3300e-01	9.3353	13.998741	0.000154	1.539339	0.260771	-0.003079
1068	5.3350e-01	9.3274	13.973511	0.000252	2.522806	0.427375	-0.005046
1069	5.3400e-01	9.3169	13.957261	0.000162	1.624858	0.275258	-0.003250
1070	5.3450e-01	9.3085	13.941012	0.000162	1.624858	0.275258	-0.003250
1071	5.3500e-01	9.2993	13.919203	0.000218	2.180731	0.369426	-0.004362
1072	5.3550e-01	9.2848	13.899960	0.000192	1.924174	0.325964	-0.003849
1073	5.3600e-01	9.2786	13.878578	0.000214	2.137971	0.362182	-0.004276
1074	5.3650e-01	9.2639	13.860190	0.000184	1.838655	0.311477	-0.003678
1075	5.3700e-01	9.2615	13.837954	0.000222	2.223490	0.376669	-0.004447
1076	5.3750e-01	9.2468	13.815290	0.000227	2.266250	0.383913	-0.004533
1077	5.3800e-01	9.2371	13.797329	0.000180	1.795896	0.304233	-0.003592
1078	5.3850e-01	9.2239	13.776376	0.000210	2.095212	0.354939	-0.004191
1079	5.3900e-01	9.2169	13.763119	0.000133	1.325542	0.224553	-0.002651
1080	5.3950e-01	9.2059	13.735324	0.000278	2.779363	0.470837	-0.005559
1081	5.4000e-01	9.1968	13.712660	0.000227	2.266250	0.383913	-0.004533
1082	5.4050e-01	9.1858	13.691278	0.000214	2.137971	0.362182	-0.004276
1083	5.4100e-01	9.1760	13.678022	0.000133	1.325542	0.224553	-0.002651
1084	5.4150e-01	9.1669	13.661772	0.000162	1.624858	0.275258	-0.003250
1085	5.4200e-01	9.1565	13.634832	0.000269	2.693844	0.456350	-0.005388
1086	5.4250e-01	9.1467	13.613878	0.000210	2.095212	0.354939	-0.004191
1087	5.4300e-01	9.1370	13.592069	0.000218	2.180731	0.369426	-0.004362
1088	5.4350e-01	9.1260	13.574109	0.000180	1.795896	0.304233	-0.003592
1089	5.4400e-01	9.1138	13.556149	0.000180	1.795896	0.304233	-0.003592
1090	5.4450e-01	9.1071	13.533485	0.000227	2.266250	0.383913	-0.004533
1091	5.4500e-01	9.0967	13.515952	0.000175	1.753137	0.296989	-0.003507
1092	5.4550e-01	9.0875	13.495426	0.000205	2.052453	0.347695	-0.004105
1093	5.4600e-01	9.0759	13.474900	0.000205	2.052453	0.347695	-0.004105
1094	5.4650e-01	9.0674	13.452664	0.000222	2.223490	0.376669	-0.004447
1095	5.4700e-01	9.0558	13.428289	0.000244	2.437287	0.412888	-0.004875
1096	5.4750e-01	9.0503	13.415032	0.000133	1.325542	0.224553	-0.002651
1097	5.4800e-01	9.0369	13.393651	0.000214	2.137971	0.362182	-0.004276
1098	5.4850e-01	9.0302	13.371842	0.000218	2.180731	0.369426	-0.004362
1099	5.4900e-01	9.0149	13.348751	0.000231	2.309009	0.391157	-0.004618
1100	5.4950e-01	9.0079	13.325231	0.000235	2.351769	0.398400	-0.004704
1101	5.5000e-01	8.9969	13.313258	0.000120	1.197264	0.202822	-0.002395
1102	5.5050e-01	8.9868	13.290594	0.000227	2.266250	0.383913	-0.004533
1103	5.5100e-01	8.9752	13.270068	0.000205	2.052453	0.347695	-0.004105
1104	5.5150e-01	8.9667	13.246121	0.000239	2.394528	0.405644	-0.004789
1105	5.5200e-01	8.9587	13.226877	0.000192	1.924174	0.325964	-0.003849
1106	5.5250e-01	8.9456	13.212338	0.000145	1.453821	0.246284	-0.002908
1107	5.5300e-01	8.9352	13.184970	0.000274	2.736603	0.463593	-0.005474
1108	5.5350e-01	8.9264	13.164872	0.000201	2.009693	0.340451	-0.004020
1109	5.5400e-01	8.9139	13.143918	0.000210	2.095212	0.354939	-0.004191
1110	5.5450e-01	8.9038	13.124675	0.000192	1.924174	0.325964	-0.003849
1111	5.5500e-01	8.8947	13.105432	0.000192	1.924174	0.325964	-0.003849
1112	5.5550e-01	8.8861	13.078064	0.000274	2.736603	0.463593	-0.005474
1113	5.5600e-01	8.8745	13.060104	0.000180	1.795896	0.304233	-0.003592
1114	5.5650e-01	8.8660	13.040005	0.000201	2.009693	0.340451	-0.004020
1115	5.5700e-01	8.8531	13.026749	0.000133	1.325542	0.224553	-0.002651
1116	5.5750e-01	8.8422	12.996815	0.000299	2.993160	0.507055	-0.005987
1117	5.5800e-01	8.8361	12.979282	0.000175	1.753137	0.296989	-0.003507
1118	5.5850e-01	8.8263	12.954908	0.000244	2.437287	0.412888	-0.004875
1119	5.5900e-01	8.8153	12.930105	0.000248	2.480047	0.420131	-0.004960
1120	5.5950e-01	8.8062	12.911718	0.000184	1.838655	0.311477	-0.003678
1121	5.6000e-01	8.7955	12.892047	0.000197	1.966934	0.333208	-0.003934
1122	5.6050e-01	8.7885	12.871521	0.000205	2.052453	0.347695	-0.004105
1123	5.6100e-01	8.7781	12.853561	0.000180	1.795896	0.304233	-0.003592
1124	5.6150e-01	8.7671	12.832179	0.000214	2.137971	0.362182	-0.004276
1125	5.6200e-01	8.7592	12.809943	0.000222	2.223490	0.376669	-0.004447
1126	5.6250e-01	8.7469	12.785568	0.000244	2.437287	0.412888	-0.004875
1127	5.6300e-01	8.7384	12.773595	0.000120	1.197264	0.202822	-0.002395
1128	5.6350e-01	8.7277	12.747509	0.000261	2.608325	0.441862	-0.005217
1129	5.6400e-01	8.7170	12.721424	0.000261	2.608325	0.441862	-0.005217
1130	5.6450e-01	8.7085	12.699615	0.000218	2.180731	0.369426	-0.004362
1131	5.6500e-01	8.6975	12.680800	0.000188	1.881415	0.318720	-0.003763
1132	5.6550e-01	8.6847	12.660274	0.000205	2.052453	0.347695	-0.004105
1133	5.6600e-01	8.6751	12.641458	0.000188	1.881415	0.318720	-0.003763
1134	5.6650e-01	8.6673	12.624353	0.000171	1.710377	0.289746	-0.003421
1135	5.6700e-01	8.6572	12.599979	0.000244	2.437287	0.412888	-0.004875
1136	5.6750e-01	8.6450	12.583301	0.000167	1.667618	0.282502	-0.003335
1137	5.6800e-01	8.6353	12.554223	0.000291	2.907641	0.492568	-0.005816
1138	5.6850e-01	8.6282	12.536690	0.000175	1.753137	0.296989	-0.003507
1139	5.6900e-01	8.6188	12.516164	0.000205	2.052453	0.347695	-0.004105
1140	5.6950e-01	8.6078	12.494355	0.000218	2.180731	0.369426	-0.004362
1141	5.7000e-01	8.5968	12.471691	0.000227	2.266250	0.383913	-0.004533
1142	5.7050e-01	8.5861	12.446461	0.000252	2.522806	0.427375	-0.005046
1143	5.7100e-01	8.5767	12.429784	0.000167	1.667618	0.282502	-0.003335
1144	5.7150e-01	8.5669	12.407975	0.000218	2.180731	0.369426	-0.004362
1145	5.7200e-01	8.5593	12.387449	0.000205	2.052453	0.347695	-0.004105
1146	5.7250e-01	8.5437	12.373337	0.000141	1.411061	0.239040	-0.002822
1147	5.7300e-01	8.5376	12.348963	0.000244	2.437287	0.412888	-0.004875
1148	5.7350e-01	8.5286	12.321595	0.000274	2.736603	0.463593	-0.005474
1149	5.7400e-01	8.5144	12.301496	0.000201	2.009693	0.340451	-0.004020
1150	5.7450e-01	8.5089	12.274984	0.000265	2.651085	0.449106	-0.005303
1151	5.7500e-01	8.4975	12.253602	0.000214	2.137971	0.362182	-0.004276
1152	5.7550e-01	8.4882	12.235642	0.000180	1.795896	0.304233	-0.003592
1153	5.7600e-01	8.4756	12.208702	0.000269	2.693844	0.456350	-0.005388
1154	5.7650e-01	8.4680	12.188176	0.000205	2.052453	0.347695	-0.004105
1155	5.7700e-01	8.4564	12.169788	0.000184	1.838655	0.311477	-0.003678
1156	5.7750e-01	8.4485	12.144558	0.000252	2.522806	0.427375	-0.005046
1157	5.7800e-01	8.4363	12.127880	0.000167	1.667618	0.282502	-0.003335
1158	5.7850e-01	8.4253	12.106072	0.000218	2.180731	0.369426	-0.004362
1159	5.7900e-01	8.4169	12.084690	0.000214	2.137971	0.362182	-0.004276
1160	5.7950e-01	8.4070	12.064592	0.000201	2.009693	0.340451	-0.004020
1161	5.8000e-01	8.3966	12.040217	0.000244	2.437287	0.412888	-0.004875
1162	5.8050e-01	8.3868	12.023540	0.000167	1.667618	0.282502	-0.003335
1163	5.8100e-01	8.3783	11.996599	0.000269	2.693844	0.456350	-0.005388
1164	5.8150e-01	8.3673	11.979067	0.000175	1.753137	0.296989	-0.003507
1165	5.8200e-01	8.3572	11.949133	0.000299	2.993160	0.507055	-0.005987
1166	5.8250e-01	8.3478	11.933739	0.000154	1.539339	0.260771	-0.003079
1167	5.8300e-01	8.3337	11.916634	0.000171	1.710377	0.289746	-0.003421
1168	5.8350e-01	8.3267	11.890121	0.000265	2.651085	0.449106	-0.005303
1169	5.8400e-01	8.3179	11.867029	0.000231	2.309009	0.391157	-0.004618
1170	5.8450e-01	8.3063	11.845220	0.000218	2.180731	0.369426	-0.004362
1171	5.8500e-01	8.2971	11.822128	0.000231	2.309009	0.391157	-0.004618
1172	5.8550e-01	8.2874	11.799892	0.000222	2.223490	0.376669	-0.004447
1173	5.8600e-01	8.2770	11.777655	0.000222	2.223490	0.376669	-0.004447
1174	5.8650e-01	8.2669	11.756274	0.000214	2.137971	0.362182	-0.004276
1175	5.8700e-01	8.2556	11.738741	0.000175	1.753137	0.296989	-0.003507
1176	5.8750e-01	8.2510	11.713939	0.000248	2.480047	0.420131	-0.004960
1177	5.8800e-01	8.2355	11.692130	0.000218	2.180731	0.369426	-0.004362
1178	5.8850e-01	8.2257	11.665617	0.000265	2.651085	0.449106	-0.005303
1179	5.8900e-01	8.2159	11.649368	0.000162	1.624858	0.275258	-0.003250
1180	5.8950e-01	8.2074	11.626276	0.000231	2.309009	0.391157	-0.004618
1181	5.9000e-01	8.1967	11.603184	0.000231	2.309009	0.391157	-0.004618
1182	5.9050e-01	8.1860	11.572395	0.000308	3.078679	0.521542	-0.006158
1183	5.9100e-01	8.1757	11.554007	0.000184	1.838655	0.311477	-0.003678
1184	5.9150e-01	8.1674	11.531343	0.000227	2.266250	0.383913	-0.004533
1185	5.9200e-01	8.1592	11.513811	0.000175	1.753137	0.296989	-0.003507
1186	5.9250e-01	8.1464	11.493285	0.000205	2.052453	0.347695	-0.004105
1187	5.9300e-01	8.1360	11.468482	0.000248	2.480047	0.420131	-0.004960
1188	5.9350e-01	8.1281	11.445390	0.000231	2.309009	0.391157	-0.004618
1189	5.9400e-01	8.1149	11.426575	0.000188	1.881415	0.318720	-0.003763
1190	5.9450e-01	8.1061	11.404766	0.000218	2.180731	0.369426	-0.004362
1191	5.9500e-01	8.0963	11.379964	0.000248	2.480047	0.420131	-0.004960
1192	5.9550e-01	8.0878	11.360721	0.000192	1.924174	0.325964	-0.003849
1193	5.9600e-01	8.0762	11.342333	0.000184	1.838655	0.311477	-0.003678
1194	5.9650e-01	8.0676	11.314110	0.000282	2.822122	0.478080	-0.005645
1195	5.9700e-01	8.0579	11.294011	0.000201	2.009693	0.340451	-0.004020
1196	5.9750e-01	8.0463	11.273057	0.000210	2.095212	0.354939	-0.004191
1197	5.9800e-01	8.0359	11.246972	0.000261	2.608325	0.441862	-0.005217
1198	5.9850e-01	8.0267	11.226874	0.000201	2.009693	0.340451	-0.004020
1199	5.9900e-01	8.0145	11.205065	0.000218	2.180731	0.369426	-0.004362
1200	5.9950e-01	8.0057	11.182401	0.000227	2.266250	0.383913	-0.004533
1201	6.0000e-01	7.9956	11.157599	0.000248	2.480047	0.420131	-0.004960
1202	6.0050e-01	7.9852	11.137073	0.000205	2.052453	0.347695	-0.004105
1203	6.0100e-01	7.9749	11.114836	0.000222	2.223490	0.376669	-0.004447
1204	6.0150e-01	7.9688	11.089606	0.000252	2.522806	0.427375	-0.005046
1205	6.0200e-01	7.9565	11.072074	0.000175	1.753137	0.296989	-0.003507
1206	6.0250e-01	7.9474	11.049837	0.000222	2.223490	0.376669	-0.004447
1207	6.0300e-01	7.9370	11.025035	0.000248	2.480047	0.420131	-0.004960
1208	6.0350e-01	7.9282	11.001515	0.000235	2.351769	0.398400	-0.004704
1209	6.0400e-01	7.9175	10.975858	0.000257	2.565566	0.434619	-0.005132
1210	6.0450e-01	7.9062	10.959181	0.000167	1.667618	0.282502	-0.003335
1211	6.0500e-01	7.8943	10.936944	0.000222	2.223490	0.376669	-0.004447
1212	6.0550e-01	7.8876	10.917701	0.000192	1.924174	0.325964	-0.003849
1213	6.0600e-01	7.8772	10.889905	0.000278	2.779363	0.470837	-0.005559
1214	6.0650e-01	7.8653	10.865531	0.000244	2.437287	0.412888	-0.004875
1215	6.0700e-01	7.8571	10.843294	0.000222	2.223490	0.376669	-0.004447
1216	6.0750e-01	7.8473	10.821913	0.000214	2.137971	0.362182	-0.004276
1217	6.0800e-01	7.8363	10.798393	0.000235	2.351769	0.398400	-0.004704
1218	6.0850e-01	7.8265	10.776157	0.000222	2.223490	0.376669	-0.004447
1219	6.0900e-01	7.8168	10.754348	0.000218	2.180731	0.369426	-0.004362
1220	6.0950e-01	7.8079	10.729118	0.000252	2.522806	0.427375	-0.005046
1221	6.1000e-01	7.7960	10.706882	0.000222	2.223490	0.376669	-0.004447
1222	6.1050e-01	7.7896	10.682507	0.000244	2.437287	0.412888	-0.004875
1223	6.1100e-01	7.7780	10.659843	0.000227	2.266250	0.383913	-0.004533
1224	6.1150e-01	7.7644	10.644021	0.000158	1.582099	0.268015	-0.003164
1225	6.1200e-01	7.7557	10.620929	0.000231	2.309009	0.391157	-0.004618
1226	6.1250e-01	7.7460	10.594416	0.000265	2.651085	0.449106	-0.005303
1227	6.1300e-01	7.7368	10.576884	0.000175	1.753137	0.296989	-0.003507
1228	6.1350e-01	7.7290	10.546522	0.000304	3.035919	0.514299	-0.006072
1229	6.1400e-01	7.7139	10.530700	0.000158	1.582099	0.268015	-0.003164
1230	6.1450e-01	7.7065	10.508036	0.000227	2.266250	0.383913	-0.004533
1231	6.1500e-01	7.6959	10.484944	0.000231	2.309009	0.391157	-0.004618
1232	6.1550e-01	7.6868	10.458004	0.000269	2.693844	0.456350	-0.005388
1233	6.1600e-01	7.6755	10.433629	0.000244	2.437287	0.412888	-0.004875
1234	6.1650e-01	7.6642	10.428070	0.000056	0.555873	0.094167	-0.001112
1235	6.1700e-01	7.6581	10.390867	0.000372	3.720070	0.630197	-0.007441
1236	6.1750e-01	7.6471	10.365637	0.000252	2.522806	0.427375	-0.005046
1237	6.1800e-01	7.6392	10.350670	0.000150	1.496580	0.253528	-0.002993
1238	6.1850e-01	7.6245	10.319881	0.000308	3.078679	0.521542	-0.006158
1239	6.1900e-01	7.6187	10.294223	0.000257	2.565566	0.434619	-0.005132
1240	6.1950e-01	7.6062	10.273697	0.000205	2.052453	0.347695	-0.004105
1241	6.2000e-01	7.5983	10.250605	0.000231	2.309009	0.391157	-0.004618
1242	6.2050e-01	7.5870	10.227941	0.000227	2.266250	0.383913	-0.004533
1243	6.2100e-01	7.5787	10.201001	0.000269	2.693844	0.456350	-0.005388
1244	6.2150e-01	7.5653	10.181758	0.000192	1.924174	0.325964	-0.003849
1245	6.2200e-01	7.5562	10.163798	0.000180	1.795896	0.304233	-0.003592
1246	6.2250e-01	7.5488	10.134719	0.000291	2.907641	0.492568	-0.005816
1247	6.2300e-01	7.5360	10.117186	0.000175	1.753137	0.296989	-0.003507
1248	6.2350e-01	7.5284	10.092812	0.000244	2.437287	0.412888	-0.004875
1249	6.2400e-01	7.5153	10.063733	0.000291	2.907641	0.492568	-0.005816
1250	6.2450e-01	7.5043	10.041497	0.000222	2.223490	0.376669	-0.004447
1251	6.2500e-01	7.4939	10.020115	0.000214	2.137971	0.362182	-0.004276
1252	6.2550e-01	7.4857	9.995313	0.000248	2.480047	0.420131	-0.004960
1253	6.2600e-01	7.4756	9.978636	0.000167	1.667618	0.282502	-0.003335
1254	6.2650e-01	7.4683	9.951268	0.000274	2.736603	0.463593	-0.005474
1255	6.2700e-01	7.4573	9.927321	0.000239	2.394528	0.405644	-0.004789
1256	6.2750e-01	7.4463	9.902946	0.000244	2.437287	0.412888	-0.004875
1257	6.2800e-01	7.4359	9.886269	0.000167	1.667618	0.282502	-0.003335
1258	6.2850e-01	7.4257	9.861894	0.000244	2.437287	0.412888	-0.004875
1259	6.2900e-01	7.4164	9.841368	0.000205	2.052453	0.347695	-0.004105
1260	6.2950e-01	7.4088	9.814855	0.000265	2.651085	0.449106	-0.005303
1261	6.3000e-01	7.3962	9.787915	0.000269	2.693844	0.456350	-0.005388
1262	6.3050e-01	7.3831	9.763113	0.000248	2.480047	0.420131	-0.004960
1263	6.3100e-01	7.3761	9.745580	0.000175	1.753137	0.296989	-0.003507
1264	6.3150e-01	7.3660	9.719922	0.000257	2.565566	0.434619	-0.005132
1265	6.3200e-01	7.3566	9.697686	0.000222	2.223490	0.376669	-0.004447
1266	6.3250e-01	7.3451	9.669035	0.000286	2.864882	0.485324	-0.005730
1267	6.3300e-01	7.3358	9.648081	0.000210	2.095212	0.354939	-0.004191
1268	6.3350e-01	7.3230	9.630976	0.000171	1.710377	0.289746	-0.003421
1269	6.3400e-01	7.3169	9.599760	0.000312	3.121438	0.528786	-0.006243
1270	6.3450e-01	7.3047	9.580089	0.000197	1.966934	0.333208	-0.003934
1271	6.3500e-01	7.2961	9.554432	0.000257	2.565566	0.434619	-0.005132
1272	6.3550e-01	7.2864	9.528774	0.000257	2.565566	0.434619	-0.005132
1273	6.3600e-01	7.2751	9.506965	0.000218	2.180731	0.369426	-0.004362
1274	6.3650e-01	7.2687	9.483873	0.000231	2.309009	0.391157	-0.004618
1275	6.3700e-01	7.2571	9.459499	0.000244	2.437287	0.412888	-0.004875
1276	6.3750e-01	7.2449	9.432131	0.000274	2.736603	0.463593	-0.005474
1277	6.3800e-01	7.2379	9.415026	0.000171	1.710377	0.289746	-0.003421
1278	6.3850e-01	7.2253	9.383381	0.000316	3.164198	0.536030	-0.006329
1279	6.3900e-01	7.2177	9.364994	0.000184	1.838655	0.311477	-0.003678
1280	6.3950e-01	7.2061	9.339764	0.000252	2.522806	0.427375	-0.005046
1281	6.4000e-01	7.1976	9.319238	0.000205	2.052453	0.347695	-0.004105
1282	6.4050e-01	7.1875	9.291014	0.000282	2.822122	0.478080	-0.005645
1283	6.4100e-01	7.1765	9.273054	0.000180	1.795896	0.304233	-0.003592
1284	6.4150e-01	7.1658	9.247824	0.000252	2.522806	0.427375	-0.005046
1285	6.4200e-01	7.1564	9.227726	0.000201	2.009693	0.340451	-0.004020
1286	6.4250e-01	7.1466	9.201641	0.000261	2.608325	0.441862	-0.005217
1287	6.4300e-01	7.1371	9.181970	0.000197	1.966934	0.333208	-0.003934
1288	6.4350e-01	7.1262	9.151609	0.000304	3.035919	0.514299	-0.006072
1289	6.4400e-01	7.1185	9.128517	0.000231	2.309009	0.391157	-0.004618
1290	6.4450e-01	7.1065	9.105425	0.000231	2.309009	0.391157	-0.004618
1291	6.4500e-01	7.0972	9.080195	0.000252	2.522806	0.427375	-0.005046
1292	6.4550e-01	7.0868	9.055393	0.000248	2.480047	0.420131	-0.004960
1293	6.4600e-01	7.0746	9.031018	0.000244	2.437287	0.412888	-0.004875
1294	6.4650e-01	7.0657	9.008782	0.000222	2.223490	0.376669	-0.004447
1295	6.4700e-01	7.0561	8.981414	0.000274	2.736603	0.463593	-0.005474
1296	6.4750e-01	7.0477	8.959605	0.000218	2.180731	0.369426	-0.004362
1297	6.4800e-01	7.0386	8.935658	0.000239	2.394528	0.405644	-0.004789
1298	6.4850e-01	7.0242	8.915132	0.000205	2.052453	0.347695	-0.004105
1299	6.4900e-01	7.0168	8.891612	0.000235	2.351769	0.398400	-0.004704
1300	6.4950e-01	7.0062	8.866810	0.000248	2.480047	0.420131	-0.004960
1301	6.5000e-01	6.9955	8.843291	0.000235	2.351769	0.398400	-0.004704
1302	6.5050e-01	6.9855	8.819344	0.000239	2.394528	0.405644	-0.004789
1303	6.5100e-01	6.9769	8.798818	0.000205	2.052453	0.347695	-0.004105
1304	6.5150e-01	6.9666	8.772305	0.000265	2.651085	0.449106	-0.005303
1305	6.5200e-01	6.9586	8.744937	0.000274	2.736603	0.463593	-0.005474
1306	6.5250e-01	6.9446	8.720562	0.000244	2.437287	0.412888	-0.004875
1307	6.5300e-01	6.9365	8.698753	0.000218	2.180731	0.369426	-0.004362
1308	6.5350e-01	6.9263	8.677800	0.000210	2.095212	0.354939	-0.004191
1309	6.5400e-01	6.9165	8.650859	0.000269	2.693844	0.456350	-0.005388
1310	6.5450e-01	6.9061	8.627768	0.000231	2.309009	0.391157	-0.004618
1311	6.5500e-01	6.8970	8.599117	0.000286	2.864882	0.485324	-0.005730
1312	6.5550e-01	6.8863	8.574742	0.000244	2.437287	0.412888	-0.004875
1313	6.5600e-01	6.8747	8.554644	0.000201	2.009693	0.340451	-0.004020
1314	6.5650e-01	6.8652	8.524282	0.000304	3.035919	0.514299	-0.006072
1315	6.5700e-01	6.8567	8.500335	0.000239	2.394528	0.405644	-0.004789
1316	6.5750e-01	6.8439	8.478954	0.000214	2.137971	0.362182	-0.004276
1317	6.5800e-01	6.8365	8.450731	0.000282	2.822122	0.478080	-0.005645
1318	6.5850e-01	6.8274	8.431060	0.000197	1.966934	0.333208	-0.003934
1319	6.5900e-01	6.8188	8.405830	0.000252	2.522806	0.427375	-0.005046
1320	6.5950e-01	6.8085	8.384876	0.000210	2.095212	0.354939	-0.004191
1321	6.6000e-01	6.7978	8.351949	0.000329	3.292476	0.557761	-0.006585
1322	6.6050e-01	6.7871	8.322443	0.000295	2.950401	0.499811	-0.005901
1323	6.6100e-01	6.7749	8.313035	0.000094	0.940707	0.159360	-0.001882
1324	6.6150e-01	6.7712	8.284812	0.000282	2.822122	0.478080	-0.005645
1325	6.6200e-01	6.7578	8.268135	0.000167	1.667618	0.282502	-0.003335
1326	6.6250e-01	6.7462	8.229648	0.000385	3.848349	0.651928	-0.007697
1327	6.6300e-01	6.7377	8.212971	0.000167	1.667618	0.282502	-0.003335
1328	6.6350e-01	6.7249	8.188169	0.000248	2.480047	0.420131	-0.004960
1329	6.6400e-01	6.7159	8.161228	0.000269	2.693844	0.456350	-0.005388
1330	6.6450e-01	6.7072	8.137709	0.000235	2.351769	0.398400	-0.004704
1331	6.6500e-01	6.6969	8.112907	0.000248	2.480047	0.420131	-0.004960
1332	6.6550e-01	6.6867	8.086822	0.000261	2.608325	0.441862	-0.005217
1333	6.6600e-01	6.6766	8.059454	0.000274	2.736603	0.463593	-0.005474
1334	6.6650e-01	6.6699	8.040210	0.000192	1.924174	0.325964	-0.003849
1335	6.6700e-01	6.6553	8.011987	0.000282	2.822122	0.478080	-0.005645
1336	6.6750e-01	6.6451	7.991034	0.000210	2.095212	0.354939	-0.004191
1337	6.6800e-01	6.6376	7.960244	0.000308	3.078679	0.521542	-0.006158
1338	6.6850e-01	6.6278	7.939718	0.000205	2.052453	0.347695	-0.004105
1339	6.6900e-01	6.6168	7.911495	0.000282	2.822122	0.478080	-0.005645
1340	6.6950e-01	6.6064	7.888831	0.000227	2.266250	0.383913	-0.004533
1341	6.7000e-01	6.5958	7.863174	0.000257	2.565566	0.434619	-0.005132
1342	6.7050e-01	6.5851	7.845213	0.000180	1.795896	0.304233	-0.003592
1343	6.7100e-01	6.5756	7.821266	0.000239	2.394528	0.405644	-0.004789
1344	6.7150e-01	6.5656	7.787056	0.000342	3.420754	0.579491	-0.006842
1345	6.7200e-01	6.5565	7.764820	0.000222	2.223490	0.376669	-0.004447
1346	6.7250e-01	6.5460	7.738735	0.000261	2.608325	0.441862	-0.005217
1347	6.7300e-01	6.5356	7.716070	0.000227	2.266250	0.383913	-0.004533
1348	6.7350e-01	6.5234	7.691696	0.000244	2.437287	0.412888	-0.004875
1349	6.7400e-01	6.5186	7.664328	0.000274	2.736603	0.463593	-0.005474
1350	6.7450e-01	6.5070	7.634822	0.000295	2.950401	0.499811	-0.005901
1351	6.7500e-01	6.4948	7.613440	0.000214	2.137971	0.362182	-0.004276
1352	6.7550e-01	6.4874	7.585217	0.000282	2.822122	0.478080	-0.005645
1353	6.7600e-01	6.4771	7.568540	0.000167	1.667618	0.282502	-0.003335
1354	6.7650e-01	6.4661	7.545448	0.000231	2.309009	0.391157	-0.004618
1355	6.7700e-01	6.4569	7.515514	0.000299	2.993160	0.507055	-0.005987
1356	6.7750e-01	6.4444	7.494988	0.000205	2.052453	0.347695	-0.004105
1357	6.7800e-01	6.4381	7.460778	0.000342	3.420754	0.579491	-0.006842
1358	6.7850e-01	6.4255	7.435976	0.000248	2.480047	0.420131	-0.004960
1359	6.7900e-01	6.4151	7.413739	0.000222	2.223490	0.376669	-0.004447
1360	6.7950e-01	6.4023	7.390648	0.000231	2.309009	0.391157	-0.004618
1361	6.8000e-01	6.4001	7.362852	0.000278	2.779363	0.470837	-0.005559
1362	6.8050e-01	6.3843	7.342326	0.000205	2.052453	0.347695	-0.004105
1363	6.8100e-01	6.3742	7.316668	0.000257	2.565566	0.434619	-0.005132
1364	6.8150e-01	6.3666	7.285879	0.000308	3.078679	0.521542	-0.006158
1365	6.8200e-01	6.3571	7.262360	0.000235	2.351769	0.398400	-0.004704
1366	6.8250e-01	6.3452	7.240551	0.000218	2.180731	0.369426	-0.004362
1367	6.8300e-01	6.3373	7.217459	0.000231	2.309009	0.391157	-0.004618
1368	6.8350e-01	6.3287	7.188808	0.000286	2.864882	0.485324	-0.005730
1369	6.8400e-01	6.3196	7.156737	0.000321	3.206957	0.543273	-0.006414
1370	6.8450e-01	6.3071	7.139632	0.000171	1.710377	0.289746	-0.003421
1371	6.8500e-01	6.2933	7.113546	0.000261	2.608325	0.441862	-0.005217
1372	6.8550e-01	6.2872	7.087034	0.000265	2.651085	0.449106	-0.005303
1373	6.8600e-01	6.2769	7.066508	0.000205	2.052453	0.347695	-0.004105
1374	6.8650e-01	6.2665	7.038284	0.000282	2.822122	0.478080	-0.005645
1375	6.8700e-01	6.2573	7.010061	0.000282	2.822122	0.478080	-0.005645
1376	6.8750e-01	6.2488	6.982693	0.000274	2.736603	0.463593	-0.005474
1377	6.8800e-01	6.2366	6.961739	0.000210	2.095212	0.354939	-0.004191
1378	6.8850e-01	6.2268	6.936937	0.000248	2.480047	0.420131	-0.004960
1379	6.8900e-01	6.2170	6.908714	0.000282	2.822122	0.478080	-0.005645
1380	6.8950e-01	6.2076	6.876214	0.000325	3.249717	0.550517	-0.006500
1381	6.9000e-01	6.1975	6.859537	0.000167	1.667618	0.282502	-0.003335
1382	6.9050e-01	6.1865	6.836018	0.000235	2.351769	0.398400	-0.004704
1383	6.9100e-01	6.1804	6.807367	0.000286	2.864882	0.485324	-0.005730
1384	6.9150e-01	6.1661	6.783420	0.000239	2.394528	0.405644	-0.004789
1385	6.9200e-01	6.1542	6.760328	0.000231	2.309009	0.391157	-0.004618
1386	6.9250e-01	6.1458	6.734243	0.000261	2.608325	0.441862	-0.005217
1387	6.9300e-01	6.1354	6.713289	0.000210	2.095212	0.354939	-0.004191
1388	6.9350e-01	6.1255	6.683783	0.000295	2.950401	0.499811	-0.005901
1389	6.9400e-01	6.1182	6.653849	0.000299	2.993160	0.507055	-0.005987
1390	6.9450e-01	6.1072	6.624771	0.000291	2.907641	0.492568	-0.005816
1391	6.9500e-01	6.0971	6.602107	0.000227	2.266250	0.383913	-0.004533
1392	6.9550e-01	6.0858	6.576877	0.000252	2.522806	0.427375	-0.005046
1393	6.9600e-01	6.0773	6.549509	0.000274	2.736603	0.463593	-0.005474
1394	6.9650e-01	6.0678	6.526845	0.000227	2.266250	0.383913	-0.004533
1395	6.9700e-01	6.0565	6.500759	0.000261	2.608325	0.441862	-0.005217
1396	6.9750e-01	6.0480	6.473391	0.000274	2.736603	0.463593	-0.005474
1397	6.9800e-01	6.0370	6.450300	0.000231	2.309009	0.391157	-0.004618
1398	6.9850e-01	6.0284	6.423787	0.000265	2.651085	0.449106	-0.005303
1399	6.9900e-01	6.0150	6.396419	0.000274	2.736603	0.463593	-0.005474
1400	6.9950e-01	6.0071	6.373755	0.000227	2.266250	0.383913	-0.004533
1401	7.0000e-01	5.9967	6.345531	0.000282	2.822122	0.478080	-0.005645
1402	7.0050e-01	5.9854	6.314315	0.000312	3.121438	0.528786	-0.006243
1403	7.0100e-01	5.9760	6.285664	0.000286	2.864882	0.485324	-0.005730
1404	7.0150e-01	5.9668	6.266848	0.000188	1.881415	0.318720	-0.003763
1405	7.0200e-01	5.9579	6.238625	0.000282	2.822122	0.478080	-0.005645
1406	7.0250e-01	5.9454	6.214678	0.000239	2.394528	0.405644	-0.004789
1407	7.0300e-01	5.9396	6.192442	0.000222	2.223490	0.376669	-0.004447
1408	7.0350e-01	5.9265	6.167639	0.000248	2.480047	0.420131	-0.004960
1409	7.0400e-01	5.9174	6.141127	0.000265	2.651085	0.449106	-0.005303
1410	7.0450e-01	5.9079	6.105206	0.000359	3.591792	0.608466	-0.007184
1411	7.0500e-01	5.8936	6.082542	0.000227	2.266250	0.383913	-0.004533
1412	7.0550e-01	5.8865	6.057740	0.000248	2.480047	0.420131	-0.004960
1413	7.0600e-01	5.8795	6.027806	0.000299	2.993160	0.507055	-0.005987
1414	7.0650e-01	5.8685	6.003004	0.000248	2.480047	0.420131	-0.004960
1415	7.0700e-01	5.8588	5.976491	0.000265	2.651085	0.449106	-0.005303
1416	7.0750e-01	5.8459	5.953399	0.000231	2.309009	0.391157	-0.004618
1417	7.0800e-01	5.8376	5.929452	0.000239	2.394528	0.405644	-0.004789
1418	7.0850e-01	5.8279	5.901229	0.000282	2.822122	0.478080	-0.005645
1419	7.0900e-01	5.8167	5.874716	0.000265	2.651085	0.449106	-0.005303
1420	7.0950e-01	5.8063	5.842644	0.000321	3.206957	0.543273	-0.006414
1421	7.1000e-01	5.7965	5.822118	0.000205	2.052453	0.347695	-0.004105
1422	7.1050e-01	5.7861	5.793895	0.000282	2.822122	0.478080	-0.005645
1423	7.1100e-01	5.7726	5.767810	0.000261	2.608325	0.441862	-0.005217
1424	7.1150e-01	5.7660	5.741725	0.000261	2.608325	0.441862	-0.005217
1425	7.1200e-01	5.7544	5.710936	0.000308	3.078679	0.521542	-0.006158
1426	7.1250e-01	5.7471	5.687844	0.000231	2.309009	0.391157	-0.004618
1427	7.1300e-01	5.7349	5.666035	0.000218	2.180731	0.369426	-0.004362
1428	7.1350e-01	5.7251	5.630542	0.000355	3.549033	0.601222	-0.007099
1429	7.1400e-01	5.7162	5.610016	0.000205	2.052453	0.347695	-0.004105
1430	7.1450e-01	5.7037	5.585641	0.000244	2.437287	0.412888	-0.004875
1431	7.1500e-01	5.6958	5.558701	0.000269	2.693844	0.456350	-0.005388
1432	7.1550e-01	5.6856	5.527057	0.000316	3.164198	0.536030	-0.006329
1433	7.1600e-01	5.6769	5.504393	0.000227	2.266250	0.383913	-0.004533
1434	7.1650e-01	5.6659	5.476169	0.000282	2.822122	0.478080	-0.005645
1435	7.1700e-01	5.6556	5.451795	0.000244	2.437287	0.412888	-0.004875
1436	7.1750e-01	5.6482	5.424427	0.000274	2.736603	0.463593	-0.005474
1437	7.1800e-01	5.6372	5.396631	0.000278	2.779363	0.470837	-0.005559
1438	7.1850e-01	5.6279	5.370973	0.000257	2.565566	0.434619	-0.005132
1439	7.1900e-01	5.6171	5.344033	0.000269	2.693844	0.456350	-0.005388
1440	7.1950e-01	5.6097	5.317520	0.000265	2.651085	0.449106	-0.005303
1441	7.2000e-01	5.5981	5.290152	0.000274	2.736603	0.463593	-0.005474
1442	7.2050e-01	5.5865	5.264495	0.000257	2.565566	0.434619	-0.005132
1443	7.2100e-01	5.5774	5.240120	0.000244	2.437287	0.412888	-0.004875
1444	7.2150e-01	5.5682	5.207621	0.000325	3.249717	0.550517	-0.006500
1445	7.2200e-01	5.5518	5.184101	0.000235	2.351769	0.398400	-0.004704
1446	7.2250e-01	5.5457	5.156306	0.000278	2.779363	0.470837	-0.005559
1447	7.2300e-01	5.5359	5.128082	0.000282	2.822122	0.478080	-0.005645
1448	7.2350e-01	5.5261	5.096438	0.000316	3.164198	0.536030	-0.006329
1449	7.2400e-01	5.5151	5.082326	0.000141	1.411061	0.239040	-0.002822
1450	7.2450e-01	5.5063	5.048544	0.000338	3.377995	0.572248	-0.006756
1451	7.2500e-01	5.4962	5.024169	0.000244	2.437287	0.412888	-0.004875
1452	7.2550e-01	5.4858	4.991242	0.000329	3.292476	0.557761	-0.006585
1453	7.2600e-01	5.4742	4.967295	0.000239	2.394528	0.405644	-0.004789
1454	7.2650e-01	5.4672	4.944631	0.000227	2.266250	0.383913	-0.004533
1455	7.2700e-01	5.4559	4.916408	0.000282	2.822122	0.478080	-0.005645
1456	7.2750e-01	5.4468	4.887757	0.000286	2.864882	0.485324	-0.005730
1457	7.2800e-01	5.4366	4.857823	0.000299	2.993160	0.507055	-0.005987
1458	7.2850e-01	5.4266	4.836442	0.000214	2.137971	0.362182	-0.004276
1459	7.2900e-01	5.4120	4.805225	0.000312	3.121438	0.528786	-0.006243
1460	7.2950e-01	5.4066	4.774864	0.000304	3.035919	0.514299	-0.006072
1461	7.3000e-01	5.3951	4.752200	0.000227	2.266250	0.383913	-0.004533
1462	7.3050e-01	5.3848	4.726115	0.000261	2.608325	0.441862	-0.005217
1463	7.3100e-01	5.3748	4.697464	0.000286	2.864882	0.485324	-0.005730
1464	7.3150e-01	5.3674	4.667957	0.000295	2.950401	0.499811	-0.005901
1465	7.3200e-01	5.3589	4.641445	0.000265	2.651085	0.449106	-0.005303
1466	7.3250e-01	5.3473	4.619208	0.000222	2.223490	0.376669	-0.004447
1467	7.3300e-01	5.3377	4.590130	0.000291	2.907641	0.492568	-0.005816
1468	7.3350e-01	5.3242	4.556347	0.000338	3.377995	0.572248	-0.006756
1469	7.3400e-01	5.3174	4.530262	0.000261	2.608325	0.441862	-0.005217
1470	7.3450e-01	5.3076	4.511447	0.000188	1.881415	0.318720	-0.003763
1471	7.3500e-01	5.2975	4.480230	0.000312	3.121438	0.528786	-0.006243
1472	7.3550e-01	5.2856	4.452434	0.000278	2.779363	0.470837	-0.005559
1473	7.3600e-01	5.2759	4.423783	0.000286	2.864882	0.485324	-0.005730
1474	7.3650e-01	5.2689	4.397271	0.000265	2.651085	0.449106	-0.005303
1475	7.3700e-01	5.2585	4.368620	0.000286	2.864882	0.485324	-0.005730
1476	7.3750e-01	5.2472	4.343818	0.000248	2.480047	0.420131	-0.004960
1477	7.3800e-01	5.2376	4.313456	0.000304	3.035919	0.514299	-0.006072
1478	7.3850e-01	5.2255	4.283095	0.000304	3.035919	0.514299	-0.006072
1479	7.3900e-01	5.2155	4.262141	0.000210	2.095212	0.354939	-0.004191
1480	7.3950e-01	5.2057	4.235201	0.000269	2.693844	0.456350	-0.005388
1481	7.4000e-01	5.1984	4.203984	0.000312	3.121438	0.528786	-0.006243
1482	7.4050e-01	5.1862	4.177044	0.000269	2.693844	0.456350	-0.005388
1483	7.4100e-01	5.1788	4.144544	0.000325	3.249717	0.550517	-0.006500
1484	7.4150e-01	5.1703	4.119314	0.000252	2.522806	0.427375	-0.005046
1485	7.4200e-01	5.1569	4.096223	0.000231	2.309009	0.391157	-0.004618
1486	7.4250e-01	5.1477	4.064151	0.000321	3.206957	0.543273	-0.006414
1487	7.4300e-01	5.1357	4.041486	0.000227	2.266250	0.383913	-0.004533
1488	7.4350e-01	5.1276	4.007276	0.000342	3.420754	0.579491	-0.006842
1489	7.4400e-01	5.1160	3.983329	0.000239	2.394528	0.405644	-0.004789
1490	7.4450e-01	5.1080	3.953396	0.000299	2.993160	0.507055	-0.005987
1491	7.4500e-01	5.0961	3.928166	0.000252	2.522806	0.427375	-0.005046
1492	7.4550e-01	5.0854	3.901225	0.000269	2.693844	0.456350	-0.005388
1493	7.4600e-01	5.0745	3.872147	0.000291	2.907641	0.492568	-0.005816
1494	7.4650e-01	5.0671	3.849055	0.000231	2.309009	0.391157	-0.004618
1495	7.4700e-01	5.0562	3.821259	0.000278	2.779363	0.470837	-0.005559
1496	7.4750e-01	5.0461	3.790043	0.000312	3.121438	0.528786	-0.006243
1497	7.4800e-01	5.0360	3.759254	0.000308	3.078679	0.521542	-0.006158
1498	7.4850e-01	5.0266	3.737017	0.000222	2.223490	0.376669	-0.004447
1499	7.4900e-01	5.0146	3.708794	0.000282	2.822122	0.478080	-0.005645
1500	7.4950e-01	5.0095	3.679288	0.000295	2.950401	0.499811	-0.005901
1501	7.5000e-01	4.9957	3.645505	0.000338	3.377995	0.572248	-0.006756
1502	7.5050e-01	4.9848	3.626690	0.000188	1.881415	0.318720	-0.003763
1503	7.5100e-01	4.9750	3.589914	0.000368	3.677311	0.622953	-0.007355
1504	7.5150e-01	4.9690	3.562119	0.000278	2.779363	0.470837	-0.005559
1505	7.5200e-01	4.9567	3.536461	0.000257	2.565566	0.434619	-0.005132
1506	7.5250e-01	4.9475	3.508665	0.000278	2.779363	0.470837	-0.005559
1507	7.5300e-01	4.9371	3.474883	0.000338	3.377995	0.572248	-0.006756
1508	7.5350e-01	4.9277	3.451364	0.000235	2.351769	0.398400	-0.004704
1509	7.5400e-01	4.9138	3.425278	0.000261	2.608325	0.441862	-0.005217
1510	7.5450e-01	4.9061	3.396628	0.000286	2.864882	0.485324	-0.005730
1511	7.5500e-01	4.8969	3.372681	0.000239	2.394528	0.405644	-0.004789
1512	7.5550e-01	4.8871	3.341036	0.000316	3.164198	0.536030	-0.006329
1513	7.5600e-01	4.8769	3.312813	0.000282	2.822122	0.478080	-0.005645
1514	7.5650e-01	4.8679	3.283734	0.000291	2.907641	0.492568	-0.005816
1515	7.5700e-01	4.8560	3.254228	0.000295	2.950401	0.499811	-0.005901
1516	7.5750e-01	4.8462	3.225150	0.000291	2.907641	0.492568	-0.005816
1517	7.5800e-01	4.8340	3.205479	0.000197	1.966934	0.333208	-0.003934
1518	7.5850e-01	4.8282	3.166993	0.000385	3.848349	0.651928	-0.007697
1519	7.5900e-01	4.8147	3.140052	0.000269	2.693844	0.456350	-0.005388
1520	7.5950e-01	4.8056	3.109691	0.000304	3.035919	0.514299	-0.006072
1521	7.6000e-01	4.7958	3.084889	0.000248	2.480047	0.420131	-0.004960
1522	7.6050e-01	4.7827	3.054527	0.000304	3.035919	0.514299	-0.006072
1523	7.6100e-01	4.7784	3.028015	0.000265	2.651085	0.449106	-0.005303
1524	7.6150e-01	4.7668	2.993377	0.000346	3.463514	0.586735	-0.006928
1525	7.6200e-01	4.7562	2.970713	0.000227	2.266250	0.383913	-0.004533
1526	7.6250e-01	4.7455	2.945055	0.000257	2.565566	0.434619	-0.005132
1527	7.6300e-01	4.7375	2.915549	0.000295	2.950401	0.499811	-0.005901
1528	7.6350e-01	4.7241	2.882194	0.000334	3.335235	0.565004	-0.006671
1529	7.6400e-01	4.7156	2.853116	0.000291	2.907641	0.492568	-0.005816
1530	7.6450e-01	4.7034	2.830024	0.000231	2.309009	0.391157	-0.004618
1531	7.6500e-01	4.6954	2.796669	0.000334	3.335235	0.565004	-0.006671
1532	7.6550e-01	4.6863	2.767591	0.000291	2.907641	0.492568	-0.005816
1533	7.6600e-01	4.6747	2.746210	0.000214	2.137971	0.362182	-0.004276
1534	7.6650e-01	4.6692	2.707723	0.000385	3.848349	0.651928	-0.007697
1535	7.6700e-01	4.6585	2.683349	0.000244	2.437287	0.412888	-0.004875
1536	7.6750e-01	4.6454	2.658119	0.000252	2.522806	0.427375	-0.005046
1537	7.6800e-01	4.6375	2.624336	0.000338	3.377995	0.572248	-0.006756
1538	7.6850e-01	4.6271	2.592264	0.000321	3.206957	0.543273	-0.006414
1539	7.6900e-01	4.6167	2.569173	0.000231	2.309009	0.391157	-0.004618
1540	7.6950e-01	4.6072	2.534963	0.000342	3.420754	0.579491	-0.006842
1541	7.7000e-01	4.5984	2.511443	0.000235	2.351769	0.398400	-0.004704
1542	7.7050e-01	4.5868	2.476378	0.000351	3.506273	0.593979	-0.007013
1543	7.7100e-01	4.5764	2.452003	0.000244	2.437287	0.412888	-0.004875
1544	7.7150e-01	4.5659	2.420359	0.000316	3.164198	0.536030	-0.006329
1545	7.7200e-01	4.5566	2.386149	0.000342	3.420754	0.579491	-0.006842
1546	7.7250e-01	4.5490	2.363913	0.000222	2.223490	0.376669	-0.004447
1547	7.7300e-01	4.5340	2.335689	0.000282	2.822122	0.478080	-0.005645
1548	7.7350e-01	4.5288	2.306183	0.000295	2.950401	0.499811	-0.005901
1549	7.7400e-01	4.5185	2.275822	0.000304	3.035919	0.514299	-0.006072
1550	7.7450e-01	4.5068	2.242039	0.000338	3.377995	0.572248	-0.006756
1551	7.7500e-01	4.4971	2.218948	0.000231	2.309009	0.391157	-0.004618
1552	7.7550e-01	4.4849	2.187731	0.000312	3.121438	0.528786	-0.006243
1553	7.7600e-01	4.4781	2.160791	0.000269	2.693844	0.456350	-0.005388
1554	7.7650e-01	4.4675	2.132567	0.000282	2.822122	0.478080	-0.005645
1555	7.7700e-01	4.4562	2.099212	0.000334	3.335235	0.565004	-0.006671
1556	7.7750e-01	4.4464	2.073983	0.000252	2.522806	0.427375	-0.005046
1557	7.7800e-01	4.4369	2.041483	0.000325	3.249717	0.550517	-0.006500
1558	7.7850e-01	4.4271	2.012405	0.000291	2.907641	0.492568	-0.005816
1559	7.7900e-01	4.4162	1.986319	0.000261	2.608325	0.441862	-0.005217
1560	7.7950e-01	4.4067	1.952537	0.000338	3.377995	0.572248	-0.006756
1561	7.8000e-01	4.3992	1.923886	0.000286	2.864882	0.485324	-0.005730
1562	7.8050e-01	4.3866	1.896946	0.000269	2.693844	0.456350	-0.005388
1563	7.8100e-01	4.3768	1.867440	0.000295	2.950401	0.499811	-0.005901
1564	7.8150e-01	4.3671	1.835368	0.000321	3.206957	0.543273	-0.006414
1565	7.8200e-01	4.3567	1.807144	0.000282	2.822122	0.478080	-0.005645
1566	7.8250e-01	4.3486	1.776355	0.000308	3.078679	0.521542	-0.006158
1567	7.8300e-01	4.3390	1.736586	0.000398	3.976627	0.673659	-0.007954
1568	7.8350e-01	4.3269	1.718626	0.000180	1.795896	0.304233	-0.003592
1569	7.8400e-01	4.3172	1.684844	0.000338	3.377995	0.572248	-0.006756
1570	7.8450e-01	4.3079	1.658331	0.000265	2.651085	0.449106	-0.005303
1571	7.8500e-01	4.2934	1.629680	0.000286	2.864882	0.485324	-0.005730
1572	7.8550e-01	4.2847	1.598036	0.000316	3.164198	0.536030	-0.006329
1573	7.8600e-01	4.2770	1.567674	0.000304	3.035919	0.514299	-0.006072
1574	7.8650e-01	4.2648	1.536458	0.000312	3.121438	0.528786	-0.006243
1575	7.8700e-01	4.2572	1.510800	0.000257	2.565566	0.434619	-0.005132
1576	7.8750e-01	4.2468	1.475735	0.000351	3.506273	0.593979	-0.007013
1577	7.8800e-01	4.2371	1.444518	0.000312	3.121438	0.528786	-0.006243
1578	7.8850e-01	4.2258	1.417578	0.000269	2.693844	0.456350	-0.005388
1579	7.8900e-01	4.2160	1.385078	0.000325	3.249717	0.550517	-0.006500
1580	7.8950e-01	4.2055	1.357710	0.000274	2.736603	0.463593	-0.005474
1581	7.9000e-01	4.1974	1.331197	0.000265	2.651085	0.449106	-0.005303
1582	7.9050e-01	4.1879	1.298698	0.000325	3.249717	0.550517	-0.006500
1583	7.9100e-01	4.1772	1.267054	0.000316	3.164198	0.536030	-0.006329
1584	7.9150e-01	4.1690	1.236265	0.000308	3.078679	0.521542	-0.006158
1585	7.9200e-01	4.1560	1.207614	0.000286	2.864882	0.485324	-0.005730
1586	7.9250e-01	4.1498	1.173831	0.000338	3.377995	0.572248	-0.006756
1587	7.9300e-01	4.1388	1.150740	0.000231	2.309009	0.391157	-0.004618
1588	7.9350e-01	4.1278	1.120806	0.000299	2.993160	0.507055	-0.005987
1589	7.9400e-01	4.1171	1.086168	0.000346	3.463514	0.586735	-0.006928
1590	7.9450e-01	4.1048	1.056234	0.000299	2.993160	0.507055	-0.005987
1591	7.9500e-01	4.0988	1.025873	0.000304	3.035919	0.514299	-0.006072
1592	7.9550e-01	4.0870	0.996795	0.000291	2.907641	0.492568	-0.005816
1593	7.9600e-01	4.0759	0.964295	0.000325	3.249717	0.550517	-0.006500
1594	7.9650e-01	4.0665	0.933078	0.000312	3.121438	0.528786	-0.006243
1595	7.9700e-01	4.0552	0.902717	0.000304	3.035919	0.514299	-0.006072
1596	7.9750e-01	4.0448	0.874921	0.000278	2.779363	0.470837	-0.005559
1597	7.9800e-01	4.0375	0.841994	0.000329	3.292476	0.557761	-0.006585
1598	7.9850e-01	4.0256	0.815054	0.000269	2.693844	0.456350	-0.005388
1599	7.9900e-01	4.0164	0.783837	0.000312	3.121438	0.528786	-0.006243
1600	7.9950e-01	4.0054	0.755614	0.000282	2.822122	0.478080	-0.005645
1601	8.0000e-01	3.9973	0.723542	0.000321	3.206957	0.543273	-0.006414
1602	8.0050e-01	3.9870	0.685911	0.000376	3.762830	0.637441	-0.007526
1603	8.0100e-01	3.9771	0.660253	0.000257	2.565566	0.434619	-0.005132
1604	8.0150e-01	3.9658	0.628609	0.000316	3.164198	0.536030	-0.006329
1605	8.0200e-01	3.9560	0.604662	0.000239	2.394528	0.405644	-0.004789
1606	8.0250e-01	3.9459	0.568314	0.000363	3.634551	0.615710	-0.007270
1607	8.0300e-01	3.9368	0.533676	0.000346	3.463514	0.586735	-0.006928
1608	8.0350e-01	3.9258	0.505453	0.000282	2.822122	0.478080	-0.005645
1609	8.0400e-01	3.9172	0.474664	0.000308	3.078679	0.521542	-0.006158
1610	8.0450e-01	3.9026	0.446441	0.000282	2.822122	0.478080	-0.005645
1611	8.0500e-01	3.8953	0.423349	0.000231	2.309009	0.391157	-0.004618
1612	8.0550e-01	3.8870	0.387001	0.000363	3.634551	0.615710	-0.007270
1613	8.0600e-01	3.8760	0.354074	0.000329	3.292476	0.557761	-0.006585
1614	8.0650e-01	3.8663	0.325423	0.000286	2.864882	0.485324	-0.005730
1615	8.0700e-01	3.8565	0.283516	0.000419	4.190424	0.709877	-0.008381
1616	8.0750e-01	3.8458	0.257430	0.000261	2.608325	0.441862	-0.005217
1617	8.0800e-01	3.8361	0.233911	0.000235	2.351769	0.398400	-0.004704
1618	8.0850e-01	3.8258	0.195852	0.000381	3.805589	0.644684	-0.007612
1619	8.0900e-01	3.8159	0.165491	0.000304	3.035919	0.514299	-0.006072
1620	8.0950e-01	3.8055	0.139833	0.000257	2.565566	0.434619	-0.005132
1621	8.1000e-01	3.7939	0.109472	0.000304	3.035919	0.514299	-0.006072
1622	8.1050e-01	3.7854	0.076545	0.000329	3.292476	0.557761	-0.006585
1623	8.1100e-01	3.7738	0.044901	0.000316	3.164198	0.536030	-0.006329
1624	8.1150e-01	3.7668	0.013256	0.000316	3.164198	0.536030	-0.006329
1625	8.1200e-01	3.7569	-0.016677	0.000299	2.993160	0.507055	-0.005987
1626	8.1250e-01	3.7463	-0.049177	0.000325	3.249717	0.550517	-0.006500
1627	8.1300e-01	3.7360	-0.076973	0.000278	2.779363	0.470837	-0.005559
1628	8.1350e-01	3.7262	-0.111183	0.000342	3.420754	0.579491	-0.006842
1629	8.1400e-01	3.7158	-0.137695	0.000265	2.651085	0.449106	-0.005303
1630	8.1450e-01	3.7051	-0.168912	0.000312	3.121438	0.528786	-0.006243
1631	8.1500e-01	3.6963	-0.204833	0.000359	3.591792	0.608466	-0.007184
1632	8.1550e-01	3.6849	-0.233483	0.000286	2.864882	0.485324	-0.005730
1633	8.1600e-01	3.6760	-0.261707	0.000282	2.822122	0.478080	-0.005645
1634	8.1650e-01	3.6673	-0.301476	0.000398	3.976627	0.673659	-0.007954
1635	8.1700e-01	3.6533	-0.333975	0.000325	3.249717	0.550517	-0.006500
1636	8.1750e-01	3.6460	-0.363054	0.000291	2.907641	0.492568	-0.005816
1637	8.1800e-01	3.6375	-0.389994	0.000269	2.693844	0.456350	-0.005388
1638	8.1850e-01	3.6298	-0.422921	0.000329	3.292476	0.557761	-0.006585
1639	8.1900e-01	3.6173	-0.454993	0.000321	3.206957	0.543273	-0.006414
1640	8.1950e-01	3.6067	-0.483217	0.000282	2.822122	0.478080	-0.005645
1641	8.2000e-01	3.5938	-0.516144	0.000329	3.292476	0.557761	-0.006585
1642	8.2050e-01	3.5861	-0.546933	0.000308	3.078679	0.521542	-0.006158
1643	8.2100e-01	3.5782	-0.582426	0.000355	3.549033	0.601222	-0.007099
1644	8.2150e-01	3.5651	-0.613642	0.000312	3.121438	0.528786	-0.006243
1645	8.2200e-01	3.5572	-0.647852	0.000342	3.420754	0.579491	-0.006842
1646	8.2250e-01	3.5455	-0.670089	0.000222	2.223490	0.376669	-0.004447
1647	8.2300e-01	3.5378	-0.711568	0.000415	4.147665	0.702633	-0.008296
1648	8.2350e-01	3.5260	-0.736371	0.000248	2.480047	0.420131	-0.004960
1649	8.2400e-01	3.5196	-0.773146	0.000368	3.677311	0.622953	-0.007355
1650	8.2450e-01	3.5059	-0.804363	0.000312	3.121438	0.528786	-0.006243
1651	8.2500e-01	3.4985	-0.836863	0.000325	3.249717	0.550517	-0.006500
1652	8.2550e-01	3.4869	-0.867652	0.000308	3.078679	0.521542	-0.006158
1653	8.2600e-01	3.4756	-0.897158	0.000295	2.950401	0.499811	-0.005901
1654	8.2650e-01	3.4662	-0.932223	0.000351	3.506273	0.593979	-0.007013
1655	8.2700e-01	3.4570	-0.964723	0.000325	3.249717	0.550517	-0.006500
1656	8.2750e-01	3.4442	-0.998505	0.000338	3.377995	0.572248	-0.006756
1657	8.2800e-01	3.4370	-1.026728	0.000282	2.822122	0.478080	-0.005645
1658	8.2850e-01	3.4261	-1.059228	0.000325	3.249717	0.550517	-0.006500
1659	8.2900e-01	3.4172	-1.095576	0.000363	3.634551	0.615710	-0.007270
1660	8.2950e-01	3.4048	-1.124227	0.000286	2.864882	0.485324	-0.005730
1661	8.3000e-01	3.3942	-1.158009	0.000338	3.377995	0.572248	-0.006756
1662	8.3050e-01	3.3862	-1.190081	0.000321	3.206957	0.543273	-0.006414
1663	8.3100e-01	3.3762	-1.225146	0.000351	3.506273	0.593979	-0.007013
1664	8.3150e-01	3.3667	-1.249521	0.000244	2.437287	0.412888	-0.004875
1665	8.3200e-01	3.3570	-1.282876	0.000334	3.335235	0.565004	-0.006671
1666	8.3250e-01	3.3459	-1.316231	0.000334	3.335235	0.565004	-0.006671
1667	8.3300e-01	3.3350	-1.350868	0.000346	3.463514	0.586735	-0.006928
1668	8.3350e-01	3.3270	-1.388072	0.000372	3.720070	0.630197	-0.007441
1669	8.3400e-01	3.3170	-1.417150	0.000291	2.907641	0.492568	-0.005816
1670	8.3450e-01	3.3063	-1.450933	0.000338	3.377995	0.572248	-0.006756
1671	8.3500e-01	3.2962	-1.479156	0.000282	2.822122	0.478080	-0.005645
1672	8.3550e-01	3.2861	-1.509945	0.000308	3.078679	0.521542	-0.006158
1673	8.3600e-01	3.2777	-1.545865	0.000359	3.591792	0.608466	-0.007184
1674	8.3650e-01	3.2675	-1.579220	0.000334	3.335235	0.565004	-0.006671
1675	8.3700e-01	3.2568	-1.605733	0.000265	2.651085	0.449106	-0.005303
1676	8.3750e-01	3.2493	-1.642081	0.000363	3.634551	0.615710	-0.007270
1677	8.3800e-01	3.2355	-1.675436	0.000334	3.335235	0.565004	-0.006671
1678	8.3850e-01	3.2265	-1.706652	0.000312	3.121438	0.528786	-0.006243
1679	8.3900e-01	3.2147	-1.742573	0.000359	3.591792	0.608466	-0.007184
1680	8.3950e-01	3.2074	-1.771652	0.000291	2.907641	0.492568	-0.005816
1681	8.4000e-01	3.1969	-1.809710	0.000381	3.805589	0.644684	-0.007612
1682	8.4050e-01	3.1857	-1.836223	0.000265	2.651085	0.449106	-0.005303
1683	8.4100e-01	3.1760	-1.869578	0.000334	3.335235	0.565004	-0.006671
1684	8.4150e-01	3.1665	-1.901222	0.000316	3.164198	0.536030	-0.006329
1685	8.4200e-01	3.1544	-1.938853	0.000376	3.762830	0.637441	-0.007526
1686	8.4250e-01	3.1436	-1.966221	0.000274	2.736603	0.463593	-0.005474
1687	8.4300e-01	3.1358	-2.000859	0.000346	3.463514	0.586735	-0.006928
1688	8.4350e-01	3.1268	-2.035924	0.000351	3.506273	0.593979	-0.007013
1689	8.4400e-01	3.1168	-2.066285	0.000304	3.035919	0.514299	-0.006072
1690	8.4450e-01	3.1073	-2.105627	0.000393	3.933867	0.666415	-0.007868
1691	8.4500e-01	3.0960	-2.131712	0.000261	2.608325	0.441862	-0.005217
1692	8.4550e-01	3.0841	-2.165494	0.000338	3.377995	0.572248	-0.006756
1693	8.4600e-01	3.0771	-2.197566	0.000321	3.206957	0.543273	-0.006414
1694	8.4650e-01	3.0682	-2.229638	0.000321	3.206957	0.543273	-0.006414
1695	8.4700e-01	3.0560	-2.269407	0.000398	3.976627	0.673659	-0.007954
1696	8.4750e-01	3.0444	-2.299769	0.000304	3.035919	0.514299	-0.006072
1697	8.4800e-01	3.0383	-2.333979	0.000342	3.420754	0.579491	-0.006842
1698	8.4850e-01	3.0283	-2.371182	0.000372	3.720070	0.630197	-0.007441
1699	8.4900e-01	3.0171	-2.393419	0.000222	2.223490	0.376669	-0.004447
1700	8.4950e-01	3.0038	-2.433615	0.000402	4.019386	0.680902	-0.008039
1701	8.5000e-01	2.9947	-2.469108	0.000355	3.549033	0.601222	-0.007099
1702	8.5050e-01	2.9873	-2.502891	0.000338	3.377995	0.572248	-0.006756
1703	8.5100e-01	2.9784	-2.534107	0.000312	3.121438	0.528786	-0.006243
1704	8.5150e-01	2.9657	-2.570028	0.000359	3.591792	0.608466	-0.007184
1705	8.5200e-01	2.9569	-2.602100	0.000321	3.206957	0.543273	-0.006414
1706	8.5250e-01	2.9466	-2.635027	0.000329	3.292476	0.557761	-0.006585
1707	8.5300e-01	2.9352	-2.666671	0.000316	3.164198	0.536030	-0.006329
1708	8.5350e-01	2.9269	-2.698743	0.000321	3.206957	0.543273	-0.006414
1709	8.5400e-01	2.9169	-2.732526	0.000338	3.377995	0.572248	-0.006756
1710	8.5450e-01	2.9081	-2.771439	0.000389	3.891108	0.659172	-0.007783
1711	8.5500e-01	2.8977	-2.803084	0.000316	3.164198	0.536030	-0.006329
1712	8.5550e-01	2.8864	-2.829596	0.000265	2.651085	0.449106	-0.005303
1713	8.5600e-01	2.8740	-2.866800	0.000372	3.720070	0.630197	-0.007441
1714	8.5650e-01	2.8644	-2.897589	0.000308	3.078679	0.521542	-0.006158
1715	8.5700e-01	2.8571	-2.941207	0.000436	4.361462	0.738852	-0.008724
1716	8.5750e-01	2.8462	-2.970285	0.000291	2.907641	0.492568	-0.005816
1717	8.5800e-01	2.8357	-3.001502	0.000312	3.121438	0.528786	-0.006243
1718	8.5850e-01	2.8281	-3.038278	0.000368	3.677311	0.622953	-0.007355
1719	8.5900e-01	2.8150	-3.065646	0.000274	2.736603	0.463593	-0.005474
1720	8.5950e-01	2.8043	-3.106698	0.000410	4.104905	0.695390	-0.008210
1721	8.6000e-01	2.7982	-3.143901	0.000372	3.720070	0.630197	-0.007441
1722	8.6050e-01	2.7869	-3.175545	0.000316	3.164198	0.536030	-0.006329
1723	8.6100e-01	2.7744	-3.210611	0.000351	3.506273	0.593979	-0.007013
1724	8.6150e-01	2.7649	-3.245248	0.000346	3.463514	0.586735	-0.006928
1725	8.6200e-01	2.7560	-3.279031	0.000338	3.377995	0.572248	-0.006756
1726	8.6250e-01	2.7498	-3.312813	0.000338	3.377995	0.572248	-0.006756
1727	8.6300e-01	2.7354	-3.350444	0.000376	3.762830	0.637441	-0.007526
1728	8.6350e-01	2.7284	-3.383799	0.000334	3.335235	0.565004	-0.006671
1729	8.6400e-01	2.7165	-3.409456	0.000257	2.565566	0.434619	-0.005132
1730	8.6450e-01	2.7034	-3.443239	0.000338	3.377995	0.572248	-0.006756
1731	8.6500e-01	2.6947	-3.482153	0.000389	3.891108	0.659172	-0.007783
1732	8.6550e-01	2.6839	-3.516790	0.000346	3.463514	0.586735	-0.006928
1733	8.6600e-01	2.6798	-3.553566	0.000368	3.677311	0.622953	-0.007355
1734	8.6650e-01	2.6648	-3.584355	0.000308	3.078679	0.521542	-0.006158
1735	8.6700e-01	2.6579	-3.620703	0.000363	3.634551	0.615710	-0.007270
1736	8.6750e-01	2.6483	-3.656196	0.000355	3.549033	0.601222	-0.007099
1737	8.6800e-01	2.6360	-3.689123	0.000329	3.292476	0.557761	-0.006585
1738	8.6850e-01	2.6258	-3.722478	0.000334	3.335235	0.565004	-0.006671
1739	8.6900e-01	2.6167	-3.760537	0.000381	3.805589	0.644684	-0.007612
1740	8.6950e-01	2.6093	-3.794747	0.000342	3.420754	0.579491	-0.006842
1741	8.7000e-01	2.5964	-3.829384	0.000346	3.463514	0.586735	-0.006928
1742	8.7050e-01	2.5867	-3.863594	0.000342	3.420754	0.579491	-0.006842
1743	8.7100e-01	2.5751	-3.899515	0.000359	3.591792	0.608466	-0.007184
1744	8.7150e-01	2.5665	-3.929021	0.000295	2.950401	0.499811	-0.005901
1745	8.7200e-01	2.5546	-3.968790	0.000398	3.976627	0.673659	-0.007954
1746	8.7250e-01	2.5485	-4.001717	0.000329	3.292476	0.557761	-0.006585
1747	8.7300e-01	2.5365	-4.033789	0.000321	3.206957	0.543273	-0.006414
1748	8.7350e-01	2.5256	-4.073986	0.000402	4.019386	0.680902	-0.008039
1749	8.7400e-01	2.5168	-4.106486	0.000325	3.249717	0.550517	-0.006500
1750	8.7450e-01	2.5084	-4.144972	0.000385	3.848349	0.651928	-0.007697
1751	8.7500e-01	2.4945	-4.177044	0.000321	3.206957	0.543273	-0.006414
1752	8.7550e-01	2.4881	-4.208260	0.000312	3.121438	0.528786	-0.006243
1753	8.7600e-01	2.4768	-4.250595	0.000423	4.233183	0.717121	-0.008467
1754	8.7650e-01	2.4669	-4.282240	0.000316	3.164198	0.536030	-0.006329
1755	8.7700e-01	2.4549	-4.312601	0.000304	3.035919	0.514299	-0.006072
1756	8.7750e-01	2.4448	-4.348521	0.000359	3.591792	0.608466	-0.007184
1757	8.7800e-01	2.4377	-4.385297	0.000368	3.677311	0.622953	-0.007355
1758	8.7850e-01	2.4257	-4.415659	0.000304	3.035919	0.514299	-0.006072
1759	8.7900e-01	2.4139	-4.449013	0.000334	3.335235	0.565004	-0.006671
1760	8.7950e-01	2.4078	-4.487072	0.000381	3.805589	0.644684	-0.007612
1761	8.8000e-01	2.3981	-4.509736	0.000227	2.266250	0.383913	-0.004533
1762	8.8050e-01	2.3857	-4.562334	0.000526	5.259410	0.890968	-0.010520
1763	8.8100e-01	2.3758	-4.595689	0.000334	3.335235	0.565004	-0.006671
1764	8.8150e-01	2.3672	-4.630754	0.000351	3.506273	0.593979	-0.007013
1765	8.8200e-01	2.3569	-4.665392	0.000346	3.463514	0.586735	-0.006928
1766	8.8250e-01	2.3462	-4.701740	0.000363	3.634551	0.615710	-0.007270
1767	8.8300e-01	2.3352	-4.736805	0.000351	3.506273	0.593979	-0.007013
1768	8.8350e-01	2.3257	-4.771015	0.000342	3.420754	0.579491	-0.006842
1769	8.8400e-01	2.3206	-4.809074	0.000381	3.805589	0.644684	-0.007612
1770	8.8450e-01	2.3055	-4.844994	0.000359	3.591792	0.608466	-0.007184
1771	8.8500e-01	2.2980	-4.877922	0.000329	3.292476	0.557761	-0.006585
1772	8.8550e-01	2.2847	-4.915125	0.000372	3.720070	0.630197	-0.007441
1773	8.8600e-01	2.2772	-4.951473	0.000363	3.634551	0.615710	-0.007270
1774	8.8650e-01	2.2681	-4.979269	0.000278	2.779363	0.470837	-0.005559
1775	8.8700e-01	2.2566	-5.022886	0.000436	4.361462	0.738852	-0.008724
1776	8.8750e-01	2.2467	-5.054531	0.000316	3.164198	0.536030	-0.006329
1777	8.8800e-01	2.2366	-5.093017	0.000385	3.848349	0.651928	-0.007697
1778	8.8850e-01	2.2260	-5.132786	0.000398	3.976627	0.673659	-0.007954
1779	8.8900e-01	2.2173	-5.166569	0.000338	3.377995	0.572248	-0.006756
1780	8.8950e-01	2.2028	-5.200351	0.000338	3.377995	0.572248	-0.006756
1781	8.9000e-01	2.1926	-5.237982	0.000376	3.762830	0.637441	-0.007526
1782	8.9050e-01	2.1851	-5.273047	0.000351	3.506273	0.593979	-0.007013
1783	8.9100e-01	2.1753	-5.311961	0.000389	3.891108	0.659172	-0.007783
1784	8.9150e-01	2.1655	-5.345744	0.000338	3.377995	0.572248	-0.006756
1785	8.9200e-01	2.1558	-5.382092	0.000363	3.634551	0.615710	-0.007270
1786	8.9250e-01	2.1454	-5.415446	0.000334	3.335235	0.565004	-0.006671
1787	8.9300e-01	2.1352	-5.450084	0.000346	3.463514	0.586735	-0.006928
1788	8.9350e-01	2.1244	-5.488570	0.000385	3.848349	0.651928	-0.007697
1789	8.9400e-01	2.1155	-5.522780	0.000342	3.420754	0.579491	-0.006842
1790	8.9450e-01	2.1064	-5.564688	0.000419	4.190424	0.709877	-0.008381
1791	8.9500e-01	2.0975	-5.600608	0.000359	3.591792	0.608466	-0.007184
1792	8.9550e-01	2.0876	-5.634391	0.000338	3.377995	0.572248	-0.006756
1793	8.9600e-01	2.0799	-5.670739	0.000363	3.634551	0.615710	-0.007270
1794	8.9650e-01	2.0673	-5.708797	0.000381	3.805589	0.644684	-0.007612
1795	8.9700e-01	2.0541	-5.741297	0.000325	3.249717	0.550517	-0.006500
1796	8.9750e-01	2.0437	-5.780211	0.000389	3.891108	0.659172	-0.007783
1797	8.9800e-01	2.0360	-5.815704	0.000355	3.549033	0.601222	-0.007099
1798	8.9850e-01	2.0226	-5.853762	0.000381	3.805589	0.644684	-0.007612
1799	8.9900e-01	2.0151	-5.890966	0.000372	3.720070	0.630197	-0.007441
1800	8.9950e-01	2.0062	-5.926886	0.000359	3.591792	0.608466	-0.007184
1801	9.0000e-01	1.9984	-5.959386	0.000325	3.249717	0.550517	-0.006500
1802	9.0050e-01	1.9858	-6.001721	0.000423	4.233183	0.717121	-0.008467
1803	9.0100e-01	1.9794	-6.038069	0.000363	3.634551	0.615710	-0.007270
1804	9.0150e-01	1.9673	-6.077410	0.000393	3.933867	0.666415	-0.007868
1805	9.0200e-01	1.9578	-6.106061	0.000286	2.864882	0.485324	-0.005730
1806	9.0250e-01	1.9464	-6.149679	0.000436	4.361462	0.738852	-0.008724
1807	9.0300e-01	1.9366	-6.180896	0.000312	3.121438	0.528786	-0.006243
1808	9.0350e-01	1.9220	-6.214250	0.000334	3.335235	0.565004	-0.006671
1809	9.0400e-01	1.9171	-6.259151	0.000449	4.489740	0.760583	-0.008980
1810	9.0450e-01	1.9049	-6.292506	0.000334	3.335235	0.565004	-0.006671
1811	9.0500e-01	1.8964	-6.332703	0.000402	4.019386	0.680902	-0.008039
1812	9.0550e-01	1.8839	-6.365630	0.000329	3.292476	0.557761	-0.006585
1813	9.0600e-01	1.8771	-6.402833	0.000372	3.720070	0.630197	-0.007441
1814	9.0650e-01	1.8655	-6.438326	0.000355	3.549033	0.601222	-0.007099
1815	9.0700e-01	1.8582	-6.478951	0.000406	4.062146	0.688146	-0.008125
1816	9.0750e-01	1.8475	-6.514016	0.000351	3.506273	0.593979	-0.007013
1817	9.0800e-01	1.8355	-6.545232	0.000312	3.121438	0.528786	-0.006243
1818	9.0850e-01	1.8257	-6.587140	0.000419	4.190424	0.709877	-0.008381
1819	9.0900e-01	1.8155	-6.623488	0.000363	3.634551	0.615710	-0.007270
1820	9.0950e-01	1.8106	-6.668389	0.000449	4.489740	0.760583	-0.008980
1821	9.1000e-01	1.7956	-6.701316	0.000329	3.292476	0.557761	-0.006585
1822	9.1050e-01	1.7871	-6.733388	0.000321	3.206957	0.543273	-0.006414
1823	9.1100e-01	1.7770	-6.774440	0.000410	4.104905	0.695390	-0.008210
1824	9.1150e-01	1.7653	-6.811643	0.000372	3.720070	0.630197	-0.007441
1825	9.1200e-01	1.7517	-6.848419	0.000368	3.677311	0.622953	-0.007355
1826	9.1250e-01	1.7455	-6.890754	0.000423	4.233183	0.717121	-0.008467
1827	9.1300e-01	1.7340	-6.915984	0.000252	2.522806	0.427375	-0.005046
1828	9.1350e-01	1.7274	-6.962595	0.000466	4.660778	0.789557	-0.009322
1829	9.1400e-01	1.7180	-6.999798	0.000372	3.720070	0.630197	-0.007441
1830	9.1450e-01	1.7056	-7.032725	0.000329	3.292476	0.557761	-0.006585
1831	9.1500e-01	1.6956	-7.073777	0.000410	4.104905	0.695390	-0.008210
1832	9.1550e-01	1.6849	-7.113546	0.000398	3.976627	0.673659	-0.007954
1833	9.1600e-01	1.6774	-7.147756	0.000342	3.420754	0.579491	-0.006842
1834	9.1650e-01	1.6671	-7.184960	0.000372	3.720070	0.630197	-0.007441
1835	9.1700e-01	1.6541	-7.225157	0.000402	4.019386	0.680902	-0.008039
1836	9.1750e-01	1.6443	-7.264926	0.000398	3.976627	0.673659	-0.007954
1837	9.1800e-01	1.6347	-7.296570	0.000316	3.164198	0.536030	-0.006329
1838	9.1850e-01	1.6287	-7.341471	0.000449	4.489740	0.760583	-0.008980
1839	9.1900e-01	1.6141	-7.378246	0.000368	3.677311	0.622953	-0.007355
1840	9.1950e-01	1.6042	-7.411174	0.000329	3.292476	0.557761	-0.006585
1841	9.2000e-01	1.5964	-7.452226	0.000410	4.104905	0.695390	-0.008210
1842	9.2050e-01	1.5857	-7.494561	0.000423	4.233183	0.717121	-0.008467
1843	9.2100e-01	1.5739	-7.526632	0.000321	3.206957	0.543273	-0.006414
1844	9.2150e-01	1.5646	-7.571961	0.000453	4.532499	0.767826	-0.009066
1845	9.2200e-01	1.5562	-7.612158	0.000402	4.019386	0.680902	-0.008039
1846	9.2250e-01	1.5451	-7.646368	0.000342	3.420754	0.579491	-0.006842
1847	9.2300e-01	1.5344	-7.681433	0.000351	3.506273	0.593979	-0.007013
1848	9.2350e-01	1.5244	-7.719064	0.000376	3.762830	0.637441	-0.007526
1849	9.2400e-01	1.5160	-7.731893	0.000128	1.282783	0.217309	-0.002566
1850	9.2450e-01	1.5041	-7.796036	0.000641	6.413914	1.086546	-0.012829
1851	9.2500e-01	1.4961	-7.835378	0.000393	3.933867	0.666415	-0.007868
1852	9.2550e-01	1.4850	-7.872154	0.000368	3.677311	0.622953	-0.007355
1853	9.2600e-01	1.4771	-7.913633	0.000415	4.147665	0.702633	-0.008296
1854	9.2650e-01	1.4655	-7.952547	0.000389	3.891108	0.659172	-0.007783
1855	9.2700e-01	1.4556	-7.989323	0.000368	3.677311	0.622953	-0.007355
1856	9.2750e-01	1.4465	-8.026099	0.000368	3.677311	0.622953	-0.007355
1857	9.2800e-01	1.4349	-8.066723	0.000406	4.062146	0.688146	-0.008125
1858	9.2850e-01	1.4267	-8.106920	0.000402	4.019386	0.680902	-0.008039
1859	9.2900e-01	1.4150	-8.143696	0.000368	3.677311	0.622953	-0.007355
1860	9.2950e-01	1.4072	-8.182182	0.000385	3.848349	0.651928	-0.007697
1861	9.3000e-01	1.3954	-8.221096	0.000389	3.891108	0.659172	-0.007783
1862	9.3050e-01	1.3857	-8.257872	0.000368	3.677311	0.622953	-0.007355
1863	9.3100e-01	1.3746	-8.295930	0.000381	3.805589	0.644684	-0.007612
1864	9.3150e-01	1.3660	-8.336127	0.000402	4.019386	0.680902	-0.008039
1865	9.3200e-01	1.3542	-8.369910	0.000338	3.377995	0.572248	-0.006756
1866	9.3250e-01	1.3457	-8.412244	0.000423	4.233183	0.717121	-0.008467
1867	9.3300e-01	1.3364	-8.448593	0.000363	3.634551	0.615710	-0.007270
1868	9.3350e-01	1.3268	-8.489645	0.000410	4.104905	0.695390	-0.008210
1869	9.3400e-01	1.3170	-8.528558	0.000389	3.891108	0.659172	-0.007783
1870	9.3450e-01	1.3087	-8.564051	0.000355	3.549033	0.601222	-0.007099
1871	9.3500e-01	1.2963	-8.612373	0.000483	4.831815	0.818532	-0.009664
1872	9.3550e-01	1.2855	-8.645728	0.000334	3.335235	0.565004	-0.006671
1873	9.3600e-01	1.2770	-8.685069	0.000393	3.933867	0.666415	-0.007868
1874	9.3650e-01	1.2665	-8.719707	0.000346	3.463514	0.586735	-0.006928
1875	9.3700e-01	1.2540	-8.763752	0.000440	4.404221	0.746095	-0.008809
1876	9.3750e-01	1.2465	-8.803522	0.000398	3.976627	0.673659	-0.007954
1877	9.3800e-01	1.2388	-8.845001	0.000415	4.147665	0.702633	-0.008296
1878	9.3850e-01	1.2265	-8.875790	0.000308	3.078679	0.521542	-0.006158
1879	9.3900e-01	1.2204	-8.917270	0.000415	4.147665	0.702633	-0.008296
1880	9.3950e-01	1.2065	-8.954473	0.000372	3.720070	0.630197	-0.007441
1881	9.4000e-01	1.1973	-8.995953	0.000415	4.147665	0.702633	-0.008296
1882	9.4050e-01	1.1884	-9.030163	0.000342	3.420754	0.579491	-0.006842
1883	9.4100e-01	1.1768	-9.078057	0.000479	4.789056	0.811288	-0.009579
1884	9.4150e-01	1.1653	-9.113550	0.000355	3.549033	0.601222	-0.007099
1885	9.4200e-01	1.1580	-9.155030	0.000415	4.147665	0.702633	-0.008296
1886	9.4250e-01	1.1488	-9.194371	0.000393	3.933867	0.666415	-0.007868
1887	9.4300e-01	1.1365	-9.232002	0.000376	3.762830	0.637441	-0.007526
1888	9.4350e-01	1.1279	-9.277330	0.000453	4.532499	0.767826	-0.009066
1889	9.4400e-01	1.1171	-9.313251	0.000359	3.591792	0.608466	-0.007184
1890	9.4450e-01	1.1050	-9.354303	0.000410	4.104905	0.695390	-0.008210
1891	9.4500e-01	1.0953	-9.391079	0.000368	3.677311	0.622953	-0.007355
1892	9.4550e-01	1.0891	-9.432131	0.000410	4.104905	0.695390	-0.008210
1893	9.4600e-01	1.0755	-9.470617	0.000385	3.848349	0.651928	-0.007697
1894	9.4650e-01	1.0678	-9.506965	0.000363	3.634551	0.615710	-0.007270
1895	9.4700e-01	1.0571	-9.551438	0.000445	4.446981	0.753339	-0.008895
1896	9.4750e-01	1.0449	-9.592063	0.000406	4.062146	0.688146	-0.008125
1897	9.4800e-01	1.0378	-9.622852	0.000308	3.078679	0.521542	-0.006158
1898	9.4850e-01	1.0222	-9.666469	0.000436	4.361462	0.738852	-0.008724
1899	9.4900e-01	1.0163	-9.709659	0.000432	4.318702	0.731608	-0.008638
1900	9.4950e-01	1.0062	-9.749856	0.000402	4.019386	0.680902	-0.008039
1901	9.5000e-01	0.9962	-9.790481	0.000406	4.062146	0.688146	-0.008125
1902	9.5050e-01	0.9840	-9.827684	0.000372	3.720070	0.630197	-0.007441
1903	9.5100e-01	0.9723	-9.867881	0.000402	4.019386	0.680902	-0.008039
1904	9.5150e-01	0.9649	-9.909788	0.000419	4.190424	0.709877	-0.008381
1905	9.5200e-01	0.9550	-9.947847	0.000381	3.805589	0.644684	-0.007612
1906	9.5250e-01	0.9479	-9.991037	0.000432	4.318702	0.731608	-0.008638
1907	9.5300e-01	0.9354	-10.030806	0.000398	3.976627	0.673659	-0.007954
1908	9.5350e-01	0.9273	-10.070148	0.000393	3.933867	0.666415	-0.007868
1909	9.5400e-01	0.9177	-10.111200	0.000410	4.104905	0.695390	-0.008210
1910	9.5450e-01	0.9091	-10.150541	0.000393	3.933867	0.666415	-0.007868
1911	9.5500e-01	0.8967	-10.192021	0.000415	4.147665	0.702633	-0.008296
1912	9.5550e-01	0.8859	-10.226231	0.000342	3.420754	0.579491	-0.006842
1913	9.5600e-01	0.8769	-10.269849	0.000436	4.361462	0.738852	-0.008724
1914	9.5650e-01	0.8678	-10.311756	0.000419	4.190424	0.709877	-0.008381
1915	9.5700e-01	0.8566	-10.349387	0.000376	3.762830	0.637441	-0.007526
1916	9.5750e-01	0.8474	-10.396426	0.000470	4.703537	0.796801	-0.009408
1917	9.5800e-01	0.8350	-10.435340	0.000389	3.891108	0.659172	-0.007783
1918	9.5850e-01	0.8249	-10.473398	0.000381	3.805589	0.644684	-0.007612
1919	9.5900e-01	0.8178	-10.521292	0.000479	4.789056	0.811288	-0.009579
1920	9.5950e-01	0.8059	-10.556358	0.000351	3.506273	0.593979	-0.007013
1921	9.6000e-01	0.7944	-10.598692	0.000423	4.233183	0.717121	-0.008467
1922	9.6050e-01	0.7861	-10.635896	0.000372	3.720070	0.630197	-0.007441
1923	9.6100e-01	0.7757	-10.679086	0.000432	4.318702	0.731608	-0.008638
1924	9.6150e-01	0.7653	-10.718855	0.000398	3.976627	0.673659	-0.007954
1925	9.6200e-01	0.7562	-10.758624	0.000398	3.976627	0.673659	-0.007954
1926	9.6250e-01	0.7461	-10.803525	0.000449	4.489740	0.760583	-0.008980
1927	9.6300e-01	0.7333	-10.844149	0.000406	4.062146	0.688146	-0.008125
1928	9.6350e-01	0.7251	-10.883063	0.000389	3.891108	0.659172	-0.007783
1929	9.6400e-01	0.7178	-10.927536	0.000445	4.446981	0.753339	-0.008895
1930	9.6450e-01	0.7069	-10.964740	0.000372	3.720070	0.630197	-0.007441
1931	9.6500e-01	0.6953	-11.009213	0.000445	4.446981	0.753339	-0.008895
1932	9.6550e-01	0.6871	-11.051548	0.000423	4.233183	0.717121	-0.008467
1933	9.6600e-01	0.6747	-11.088751	0.000372	3.720070	0.630197	-0.007441
1934	9.6650e-01	0.6659	-11.130231	0.000415	4.147665	0.702633	-0.008296
1935	9.6700e-01	0.6558	-11.174704	0.000445	4.446981	0.753339	-0.008895
1936	9.6750e-01	0.6502	-11.214473	0.000398	3.976627	0.673659	-0.007954
1937	9.6800e-01	0.6367	-11.247400	0.000329	3.292476	0.557761	-0.006585
1938	9.6850e-01	0.6252	-11.290163	0.000428	4.275943	0.724364	-0.008553
1939	9.6900e-01	0.6163	-11.333353	0.000432	4.318702	0.731608	-0.008638
1940	9.6950e-01	0.6047	-11.372267	0.000389	3.891108	0.659172	-0.007783
1941	9.7000e-01	0.5981	-11.427430	0.000552	5.515966	0.934430	-0.011033
1942	9.7050e-01	0.5880	-11.461640	0.000342	3.420754	0.579491	-0.006842
1943	9.7100e-01	0.5773	-11.503120	0.000415	4.147665	0.702633	-0.008296
1944	9.7150e-01	0.5660	-11.545882	0.000428	4.275943	0.724364	-0.008553
1945	9.7200e-01	0.5552	-11.588217	0.000423	4.233183	0.717121	-0.008467
1946	9.7250e-01	0.5485	-11.626276	0.000381	3.805589	0.644684	-0.007612
1947	9.7300e-01	0.5360	-11.666473	0.000402	4.019386	0.680902	-0.008039
1948	9.7350e-01	0.5291	-11.706670	0.000402	4.019386	0.680902	-0.008039
1949	9.7400e-01	0.5151	-11.750715	0.000440	4.404221	0.746095	-0.008809
1950	9.7450e-01	0.5065	-11.788346	0.000376	3.762830	0.637441	-0.007526
1951	9.7500e-01	0.4958	-11.832391	0.000440	4.404221	0.746095	-0.008809
1952	9.7550e-01	0.4866	-11.873443	0.000410	4.104905	0.695390	-0.008210
1953	9.7600e-01	0.4762	-11.917061	0.000436	4.361462	0.738852	-0.008724
1954	9.7650e-01	0.4663	-11.962817	0.000458	4.575259	0.775070	-0.009151
1955	9.7700e-01	0.4536	-12.005152	0.000423	4.233183	0.717121	-0.008467
1956	9.7750e-01	0.4438	-12.046204	0.000410	4.104905	0.695390	-0.008210
1957	9.7800e-01	0.4343	-12.083407	0.000372	3.720070	0.630197	-0.007441
1958	9.7850e-01	0.4255	-12.129163	0.000458	4.575259	0.775070	-0.009151
1959	9.7900e-01	0.4158	-12.174492	0.000453	4.532499	0.767826	-0.009066
1960	9.7950e-01	0.4066	-12.214261	0.000398	3.976627	0.673659	-0.007954
1961	9.8000e-01	0.3947	-12.256168	0.000419	4.190424	0.709877	-0.008381
1962	9.8050e-01	0.3850	-12.295510	0.000393	3.933867	0.666415	-0.007868
1963	9.8100e-01	0.3742	-12.335706	0.000402	4.019386	0.680902	-0.008039
1964	9.8150e-01	0.3674	-12.378041	0.000423	4.233183	0.717121	-0.008467
1965	9.8200e-01	0.3574	-12.425080	0.000470	4.703537	0.796801	-0.009408
1966	9.8250e-01	0.3468	-12.463566	0.000385	3.848349	0.651928	-0.007697
1967	9.8300e-01	0.3382	-12.511888	0.000483	4.831815	0.818532	-0.009664
1968	9.8350e-01	0.3263	-12.551657	0.000398	3.976627	0.673659	-0.007954
1969	9.8400e-01	0.3162	-12.593992	0.000423	4.233183	0.717121	-0.008467
1970	9.8450e-01	0.3067	-12.634189	0.000402	4.019386	0.680902	-0.008039
1971	9.8500e-01	0.2943	-12.674386	0.000402	4.019386	0.680902	-0.008039
1972	9.8550e-01	0.2893	-12.718431	0.000440	4.404221	0.746095	-0.008809
1973	9.8600e-01	0.2755	-12.761621	0.000432	4.318702	0.731608	-0.008638
1974	9.8650e-01	0.2682	-12.806949	0.000453	4.532499	0.767826	-0.009066
1975	9.8700e-01	0.2520	-12.843297	0.000363	3.634551	0.615710	-0.007270
1976	9.8750e-01	0.2458	-12.884777	0.000415	4.147665	0.702633	-0.008296
1977	9.8800e-01	0.2355	-12.927540	0.000428	4.275943	0.724364	-0.008553
1978	9.8850e-01	0.2272	-12.970302	0.000428	4.275943	0.724364	-0.008553
1979	9.8900e-01	0.2151	-13.014775	0.000445	4.446981	0.753339	-0.008895
1980	9.8950e-01	0.2060	-13.051123	0.000363	3.634551	0.615710	-0.007270
1981	9.9000e-01	0.1975	-13.100728	0.000496	4.960094	0.840263	-0.009921
1982	9.9050e-01	0.1843	-13.142635	0.000419	4.190424	0.709877	-0.008381
1983	9.9100e-01	0.1721	-13.181121	0.000385	3.848349	0.651928	-0.007697
1984	9.9150e-01	0.1643	-13.221318	0.000402	4.019386	0.680902	-0.008039
1985	9.9200e-01	0.1544	-13.266647	0.000453	4.532499	0.767826	-0.009066
1986	9.9250e-01	0.1460	-13.312830	0.000462	4.618018	0.782313	-0.009237
1987	9.9300e-01	0.1363	-13.355593	0.000428	4.275943	0.724364	-0.008553
1988	9.9350e-01	0.1281	-13.396645	0.000410	4.104905	0.695390	-0.008210
1989	9.9400e-01	0.1153	-13.439835	0.000432	4.318702	0.731608	-0.008638
1990	9.9450e-01	0.1077	-13.480032	0.000402	4.019386	0.680902	-0.008039
1991	9.9500e-01	0.0971	-13.525787	0.000458	4.575259	0.775070	-0.009151
1992	9.9550e-01	0.0864	-13.563418	0.000376	3.762830	0.637441	-0.007526
1993	9.9600e-01	0.0758	-13.611740	0.000483	4.831815	0.818532	-0.009664
1994	9.9650e-01	0.0661	-13.655358	0.000436	4.361462	0.738852	-0.008724
1995	9.9700e-01	0.0554	-13.699403	0.000440	4.404221	0.746095	-0.008809
1996	9.9750e-01	0.0445	-13.743449	0.000440	4.404221	0.746095	-0.008809
1997	9.9800e-01	0.0371	-13.780224	0.000368	3.677311	0.622953	-0.007355
1998	9.9850e-01	0.0282	-13.830684	0.000505	5.045613	0.854750	-0.010092
1999	9.9900e-01	0.0161	-13.870881	0.000402	4.019386	0.680902	-0.008039
2000	9.9950e-01	0.0079	-13.913216	0.000423	4.233183	0.717121	-0.008467
2001	1.0000e+00	-0.0047	-13.954268	0.000423	4.233183	0.717121	-0.008210

PMax (uC/cm2):	3.04e+01
Pr (uC/cm2):	1.22e+00
-Pr (uC/cm2):	0.00e+00
PLoss (uC/cm2):	0.00e+00
C (Max-Eff) (nF):	3.04e-01
K (Eff):	5.14e+02
Vert. (+/-Pr) Shift (uC/cm2):	6.12e-01
Offset (uC/cm2):	1.52e+01

A (Loop Area - uC/cm2·Volts):	-1.34e-02



Hysteresis Version: 5.48.1 - Radiant Technologies, Inc., 1999 - 9/12/24

