»»»»»»»»»»»»»»»»»»»»»»»»»»»»»»»»»»»» Hysteresis ««««««««««««««««««««««««««««««««««««
»»»  Executed Version:	5.48.1
»»»  Vision Version:	5.48.4 (R)
»»»  Vision Compiled:	9/18/24
»»»  Driver Version:	5.47.0
»»»  Windows Version:	Windows 8 or 8.1
»»»  Processor Information:	x86 (AMD or Intel) - 32 Processors
»»»  Tester Name:	PMF21124-494 (100V)
»»»  Tester S/N:	PMF21124-494
»»»  Internal Amp Type:	100V RevK 270k
»»»  Internal Amp S/N:	iAB2-596/K     
»»»  Execution Count:	1
»»»»»»»»»»»»»»»»»»»»»»»»»»»»»»»»»»»»»»»»»»««««««««««««««««««««««««««««««««««««««««««

Stored:	6/25/2025 - 15:17:22
Configured:	06/25/25 10:44:40 AM
Executed:	06/25/25 03:16:53 PM

»»»»»»»»»»»»»»»»»»»»»»»»»»»»»»»»»»» Sample Info ««««««««««««««««««««««««««««««««««««
Sample Name:	
Lot Name:	
Wafer Name:	
Die Row/Column:	0/0
Capacitor Number:	0
Sample Area (cm2):	1.00e-04
Sample Thickness (microns):	1.50e-01

Amplifier:	Internal

»»»»»»»»»»»»»»»»»»»»»»»»»»»»»»»»»»» Tester Info «««««««««««««««««««««««««««««««««««
Tester Name:	PMF21124-494 (100V)
Tester Serial Number:	PMF21124-494
Return Signal Amp. Level:	1.79 [Index: 2]

»»»»»»»»»»»»»»»»»»»»»»»»»»»»»»»» Hysteresis Info ««««««««««««««««««««««««««««««««««
Task Name:	Hyst-116
Volts:	10.00
Field:	666.67 (kV/cm)
DCBias:	0.00
DCField:	0.00 (kV/cm)
Hysteresis Period (ms):	1.00e+00
Preset:	Enabled
Preset Delay (ms):	1.00e+03
Profile:	Standard Monopolar

»»»»»»»»»»»»»»»»»»»»»»»»»»»»»»»»»»»»»» Data «««««««««««««««««««««««««««««««««««««««
Points:	2001

Valid Data

Point	Time (ms)	Drive Voltage	Measured Polarization (uC/cm2)	Capacitance (uF)	Normalized Capacitance (uF/cm2)	Dielectric Constant	Instantaneous Current (mA)
   1	0.0000e+00	-0.0056	-17.538623	0.000282	2.822941	0.478219	0.005645
   2	5.0000e-04	0.0043	-17.510400	0.000282	2.822941	0.478219	0.005645
   3	1.0000e-03	0.0172	-17.471913	0.000385	3.849464	0.652117	0.007697
   4	1.5000e-03	0.0262	-17.421026	0.000509	5.089847	0.862244	0.010177
   5	2.0000e-03	0.0363	-17.374843	0.000462	4.619357	0.782540	0.009237
   6	2.5000e-03	0.0462	-17.331652	0.000432	4.319955	0.731820	0.008638
   7	3.0000e-03	0.0532	-17.284186	0.000475	4.747673	0.804278	0.009493
   8	3.5000e-03	0.0670	-17.249121	0.000351	3.507290	0.594151	0.007013
   9	4.0000e-03	0.0766	-17.197378	0.000518	5.175391	0.876735	0.010349
  10	4.5000e-03	0.0859	-17.157609	0.000398	3.977780	0.673854	0.007954
  11	5.0000e-03	0.0948	-17.112281	0.000453	4.533814	0.768049	0.009066
  12	5.5000e-03	0.1049	-17.067808	0.000445	4.448270	0.753557	0.008895
  13	6.0000e-03	0.1144	-17.016920	0.000509	5.089847	0.862244	0.010177
  14	6.5000e-03	0.1266	-16.979289	0.000376	3.763921	0.637625	0.007526
  15	7.0000e-03	0.1360	-16.939092	0.000402	4.020552	0.681100	0.008039
  16	7.5000e-03	0.1433	-16.886067	0.000530	5.303707	0.898472	0.010605
  17	8.0000e-03	0.1541	-16.842877	0.000432	4.319955	0.731820	0.008638
  18	8.5000e-03	0.1632	-16.797121	0.000458	4.576586	0.775295	0.009151
  19	9.0000e-03	0.1727	-16.749654	0.000475	4.747673	0.804278	0.009493
  20	9.5000e-03	0.1846	-16.715872	0.000338	3.378974	0.572414	0.006756
  21	1.0000e-02	0.1955	-16.673965	0.000419	4.191639	0.710083	0.008381
  22	1.0500e-02	0.2063	-16.622222	0.000518	5.175391	0.876735	0.010349
  23	1.1000e-02	0.2175	-16.566631	0.000556	5.560338	0.941947	0.011118
  24	1.1500e-02	0.2262	-16.523868	0.000428	4.277183	0.724574	0.008553
  25	1.2000e-02	0.2354	-16.481961	0.000419	4.191639	0.710083	0.008381
  26	1.2500e-02	0.2467	-16.443047	0.000389	3.892236	0.659363	0.007783
  27	1.3000e-02	0.2556	-16.401567	0.000415	4.148867	0.702837	0.008296
  28	1.3500e-02	0.2663	-16.355384	0.000462	4.619357	0.782540	0.009237
  29	1.4000e-02	0.2760	-16.310483	0.000449	4.491042	0.760803	0.008980
  30	1.4500e-02	0.2859	-16.268576	0.000419	4.191639	0.710083	0.008381
  31	1.5000e-02	0.2952	-16.220682	0.000479	4.790445	0.811523	0.009579
  32	1.5500e-02	0.3053	-16.182623	0.000381	3.806693	0.644871	0.007612
  33	1.6000e-02	0.3164	-16.123183	0.000595	5.945284	1.007158	0.011888
  34	1.6500e-02	0.3261	-16.084697	0.000385	3.849464	0.652117	0.007697
  35	1.7000e-02	0.3321	-16.038941	0.000458	4.576586	0.775295	0.009151
  36	1.7500e-02	0.3452	-15.999172	0.000398	3.977780	0.673854	0.007954
  37	1.8000e-02	0.3566	-15.952988	0.000462	4.619357	0.782540	0.009237
  38	1.8500e-02	0.3662	-15.905522	0.000475	4.747673	0.804278	0.009493
  39	1.9000e-02	0.3758	-15.862332	0.000432	4.319955	0.731820	0.008638
  40	1.9500e-02	0.3844	-15.814866	0.000475	4.747673	0.804278	0.009493
  41	2.0000e-02	0.3944	-15.771675	0.000432	4.319955	0.731820	0.008638
  42	2.0500e-02	0.4038	-15.728058	0.000436	4.362726	0.739066	0.008724
  43	2.1000e-02	0.4145	-15.689571	0.000385	3.849464	0.652117	0.007697
  44	2.1500e-02	0.4230	-15.639112	0.000505	5.047076	0.854998	0.010092
  45	2.2000e-02	0.4361	-15.595921	0.000432	4.319955	0.731820	0.008638
  46	2.2500e-02	0.4465	-15.557007	0.000389	3.892236	0.659363	0.007783
  47	2.3000e-02	0.4548	-15.505692	0.000513	5.132619	0.869489	0.010263
  48	2.3500e-02	0.4694	-15.466351	0.000394	3.935008	0.666608	0.007868
  49	2.4000e-02	0.4758	-15.424444	0.000419	4.191639	0.710083	0.008381
  50	2.4500e-02	0.4855	-15.371846	0.000526	5.260935	0.891226	0.010520
  51	2.5000e-02	0.4961	-15.332077	0.000398	3.977780	0.673854	0.007954
  52	2.5500e-02	0.5093	-15.288886	0.000432	4.319955	0.731820	0.008638
  53	2.6000e-02	0.5154	-15.244841	0.000441	4.405498	0.746312	0.008809
  54	2.6500e-02	0.5270	-15.196947	0.000479	4.790445	0.811523	0.009579
  55	2.7000e-02	0.5368	-15.151619	0.000453	4.533814	0.768049	0.009066
  56	2.7500e-02	0.5484	-15.105863	0.000458	4.576586	0.775295	0.009151
  57	2.8000e-02	0.5592	-15.064383	0.000415	4.148867	0.702837	0.008296
  58	2.8500e-02	0.5659	-15.013923	0.000505	5.047076	0.854998	0.010092
  59	2.9000e-02	0.5765	-14.976292	0.000376	3.763921	0.637625	0.007526
  60	2.9500e-02	0.5872	-14.930109	0.000462	4.619357	0.782540	0.009237
  61	3.0000e-02	0.5950	-14.889484	0.000406	4.063324	0.688346	0.008125
  62	3.0500e-02	0.6067	-14.836031	0.000535	5.346478	0.905718	0.010691
  63	3.1000e-02	0.6177	-14.804815	0.000312	3.122343	0.528939	0.006243
  64	3.1500e-02	0.6273	-14.761624	0.000432	4.319955	0.731820	0.008638
  65	3.2000e-02	0.6363	-14.710737	0.000509	5.089847	0.862244	0.010177
  66	3.2500e-02	0.6446	-14.662415	0.000483	4.833217	0.818769	0.009664
  67	3.3000e-02	0.6545	-14.623502	0.000389	3.892236	0.659363	0.007783
  68	3.3500e-02	0.6673	-14.578173	0.000453	4.533814	0.768049	0.009066
  69	3.4000e-02	0.6784	-14.534128	0.000441	4.405498	0.746312	0.008809
  70	3.4500e-02	0.6855	-14.490938	0.000432	4.319955	0.731820	0.008638
  71	3.5000e-02	0.6945	-14.445182	0.000458	4.576586	0.775295	0.009151
  72	3.5500e-02	0.7043	-14.403275	0.000419	4.191639	0.710083	0.008381
  73	3.6000e-02	0.7149	-14.352387	0.000509	5.089847	0.862244	0.010177
  74	3.6500e-02	0.7252	-14.319460	0.000329	3.293431	0.557922	0.006585
  75	3.7000e-02	0.7362	-14.265579	0.000539	5.389250	0.912964	0.010776
  76	3.7500e-02	0.7462	-14.228376	0.000372	3.721149	0.630380	0.007441
  77	3.8000e-02	0.7558	-14.176205	0.000522	5.218163	0.883981	0.010434
  78	3.8500e-02	0.7655	-14.130450	0.000458	4.576586	0.775295	0.009151
  79	3.9000e-02	0.7741	-14.098805	0.000317	3.165115	0.536185	0.006329
  80	3.9500e-02	0.7873	-14.053905	0.000449	4.491042	0.760803	0.008980
  81	4.0000e-02	0.7945	-14.000879	0.000530	5.303707	0.898472	0.010605
  82	4.0500e-02	0.8071	-13.960255	0.000406	4.063324	0.688346	0.008125
  83	4.1000e-02	0.8141	-13.917065	0.000432	4.319955	0.731820	0.008638
  84	4.1500e-02	0.8254	-13.881144	0.000359	3.592834	0.608642	0.007184
  85	4.2000e-02	0.8353	-13.826836	0.000543	5.432022	0.920209	0.010862
  86	4.2500e-02	0.8473	-13.788349	0.000385	3.849464	0.652117	0.007697
  87	4.3000e-02	0.8541	-13.740028	0.000483	4.833217	0.818769	0.009664
  88	4.3500e-02	0.8659	-13.695982	0.000441	4.405498	0.746312	0.008809
  89	4.4000e-02	0.8765	-13.652792	0.000432	4.319955	0.731820	0.008638
  90	4.4500e-02	0.8846	-13.613023	0.000398	3.977780	0.673854	0.007954
  91	4.5000e-02	0.8966	-13.571543	0.000415	4.148867	0.702837	0.008296
  92	4.5500e-02	0.9048	-13.526643	0.000449	4.491042	0.760803	0.008980
  93	4.6000e-02	0.9134	-13.476611	0.000500	5.004304	0.847752	0.010006
  94	4.6500e-02	0.9256	-13.436841	0.000398	3.977780	0.673854	0.007954
  95	4.7000e-02	0.9359	-13.385526	0.000513	5.132619	0.869489	0.010263
  96	4.7500e-02	0.9460	-13.353454	0.000321	3.207887	0.543431	0.006414
  97	4.8000e-02	0.9557	-13.310264	0.000432	4.319955	0.731820	0.008638
  98	4.8500e-02	0.9656	-13.267074	0.000432	4.319955	0.731820	0.008638
  99	4.9000e-02	0.9755	-13.227305	0.000398	3.977780	0.673854	0.007954
 100	4.9500e-02	0.9836	-13.168720	0.000586	5.859740	0.992667	0.011717
 101	5.0000e-02	0.9964	-13.134083	0.000346	3.464518	0.586905	0.006928
 102	5.0500e-02	1.0084	-13.093031	0.000411	4.106095	0.695591	0.008210
 103	5.1000e-02	1.0162	-13.046420	0.000466	4.662129	0.789786	0.009322
 104	5.1500e-02	1.0271	-13.008361	0.000381	3.806693	0.644871	0.007612
 105	5.2000e-02	1.0339	-12.961322	0.000470	4.704901	0.797032	0.009408
 106	5.2500e-02	1.0449	-12.919842	0.000415	4.148867	0.702837	0.008296
 107	5.3000e-02	1.0551	-12.880073	0.000398	3.977780	0.673854	0.007954
 108	5.3500e-02	1.0657	-12.834745	0.000453	4.533814	0.768049	0.009066
 109	5.4000e-02	1.0773	-12.791555	0.000432	4.319955	0.731820	0.008638
 110	5.4500e-02	1.0855	-12.744516	0.000470	4.704901	0.797032	0.009408
 111	5.5000e-02	1.0963	-12.706030	0.000385	3.849464	0.652117	0.007697
 112	5.5500e-02	1.1046	-12.662840	0.000432	4.319955	0.731820	0.008638
 113	5.6000e-02	1.1166	-12.621360	0.000415	4.148867	0.702837	0.008296
 114	5.6500e-02	1.1255	-12.562775	0.000586	5.859740	0.992667	0.011717
 115	5.7000e-02	1.1352	-12.531559	0.000312	3.122343	0.528939	0.006243
 116	5.7500e-02	1.1462	-12.495211	0.000364	3.635605	0.615888	0.007270
 117	5.8000e-02	1.1536	-12.438764	0.000565	5.645881	0.956438	0.011289
 118	5.8500e-02	1.1685	-12.407975	0.000308	3.079572	0.521694	0.006158
 119	5.9000e-02	1.1771	-12.356232	0.000518	5.175391	0.876735	0.010349
 120	5.9500e-02	1.1857	-12.316463	0.000398	3.977780	0.673854	0.007954
 121	6.0000e-02	1.1980	-12.276694	0.000398	3.977780	0.673854	0.007954
 122	6.0500e-02	1.2067	-12.230510	0.000462	4.619357	0.782540	0.009237
 123	6.1000e-02	1.2173	-12.190314	0.000402	4.020552	0.681100	0.008039
 124	6.1500e-02	1.2222	-12.140282	0.000500	5.004304	0.847752	0.010006
 125	6.2000e-02	1.2366	-12.105216	0.000351	3.507290	0.594151	0.007013
 126	6.2500e-02	1.2451	-12.062881	0.000423	4.234411	0.717329	0.008467
 127	6.3000e-02	1.2561	-12.009001	0.000539	5.389250	0.912964	0.010776
 128	6.3500e-02	1.2680	-11.970942	0.000381	3.806693	0.644871	0.007612
 129	6.4000e-02	1.2749	-11.936732	0.000342	3.421746	0.579660	0.006842
 130	6.4500e-02	1.2878	-11.888838	0.000479	4.790445	0.811523	0.009579
 131	6.5000e-02	1.2939	-11.852062	0.000368	3.678377	0.623134	0.007355
 132	6.5500e-02	1.3046	-11.806734	0.000453	4.533814	0.768049	0.009066
 133	6.6000e-02	1.3141	-11.760978	0.000458	4.576586	0.775295	0.009151
 134	6.6500e-02	1.3252	-11.719926	0.000411	4.106095	0.695591	0.008210
 135	6.7000e-02	1.3370	-11.681440	0.000385	3.849464	0.652117	0.007697
 136	6.7500e-02	1.3457	-11.646374	0.000351	3.507290	0.594151	0.007013
 137	6.8000e-02	1.3544	-11.590783	0.000556	5.560338	0.941947	0.011118
 138	6.8500e-02	1.3616	-11.552724	0.000381	3.806693	0.644871	0.007612
 139	6.9000e-02	1.3736	-11.509107	0.000436	4.362726	0.739066	0.008724
 140	6.9500e-02	1.3868	-11.465916	0.000432	4.319955	0.731820	0.008638
 141	7.0000e-02	1.3965	-11.421443	0.000445	4.448270	0.753557	0.008895
 142	7.0500e-02	1.4053	-11.377398	0.000441	4.405498	0.746312	0.008809
 143	7.1000e-02	1.4149	-11.339339	0.000381	3.806693	0.644871	0.007612
 144	7.1500e-02	1.4249	-11.301281	0.000381	3.806693	0.644871	0.007612
 145	7.2000e-02	1.4364	-11.262794	0.000385	3.849464	0.652117	0.007697
 146	7.2500e-02	1.4433	-11.209341	0.000535	5.346478	0.905718	0.010691
 147	7.3000e-02	1.4531	-11.163158	0.000462	4.619357	0.782540	0.009237
 148	7.3500e-02	1.4638	-11.134079	0.000291	2.908484	0.492711	0.005816
 149	7.4000e-02	1.4764	-11.087468	0.000466	4.662129	0.789786	0.009322
 150	7.4500e-02	1.4845	-11.042567	0.000449	4.491042	0.760803	0.008980
 151	7.5000e-02	1.4958	-11.005364	0.000372	3.721149	0.630380	0.007441
 152	7.5500e-02	1.5041	-10.959608	0.000458	4.576586	0.775295	0.009151
 153	7.6000e-02	1.5168	-10.919411	0.000402	4.020552	0.681100	0.008039
 154	7.6500e-02	1.5257	-10.883063	0.000364	3.635605	0.615888	0.007270
 155	7.7000e-02	1.5347	-10.832603	0.000505	5.047076	0.854998	0.010092
 156	7.7500e-02	1.5468	-10.800959	0.000317	3.165115	0.536185	0.006329
 157	7.8000e-02	1.5535	-10.748361	0.000526	5.260935	0.891226	0.010520
 158	7.8500e-02	1.5659	-10.708592	0.000398	3.977780	0.673854	0.007954
 159	7.9000e-02	1.5765	-10.661553	0.000470	4.704901	0.797032	0.009408
 160	7.9500e-02	1.5839	-10.620074	0.000415	4.148867	0.702837	0.008296
 161	8.0000e-02	1.5949	-10.582015	0.000381	3.806693	0.644871	0.007612
 162	8.0500e-02	1.6036	-10.540108	0.000419	4.191639	0.710083	0.008381
 163	8.1000e-02	1.6164	-10.499056	0.000411	4.106095	0.695591	0.008210
 164	8.1500e-02	1.6267	-10.460142	0.000389	3.892236	0.659363	0.007783
 165	8.2000e-02	1.6354	-10.422083	0.000381	3.806693	0.644871	0.007612
 166	8.2500e-02	1.6464	-10.381886	0.000402	4.020552	0.681100	0.008039
 167	8.3000e-02	1.6560	-10.336986	0.000449	4.491042	0.760803	0.008980
 168	8.3500e-02	1.6645	-10.297217	0.000398	3.977780	0.673854	0.007954
 169	8.4000e-02	1.6730	-10.245474	0.000518	5.175391	0.876735	0.010349
 170	8.4500e-02	1.6846	-10.218961	0.000265	2.651853	0.449236	0.005303
 171	8.5000e-02	1.6969	-10.171067	0.000479	4.790445	0.811523	0.009579
 172	8.5500e-02	1.7057	-10.132581	0.000385	3.849464	0.652117	0.007697
 173	8.6000e-02	1.7146	-10.085970	0.000466	4.662129	0.789786	0.009322
 174	8.6500e-02	1.7249	-10.041497	0.000445	4.448270	0.753557	0.008895
 175	8.7000e-02	1.7340	-10.007287	0.000342	3.421746	0.579660	0.006842
 176	8.7500e-02	1.7474	-9.961531	0.000458	4.576586	0.775295	0.009151
 177	8.8000e-02	1.7561	-9.919196	0.000423	4.234411	0.717329	0.008467
 178	8.8500e-02	1.7670	-9.882848	0.000364	3.635605	0.615888	0.007270
 179	8.9000e-02	1.7769	-9.842223	0.000406	4.063324	0.688346	0.008125
 180	8.9500e-02	1.7862	-9.801171	0.000411	4.106095	0.695591	0.008210
 181	9.0000e-02	1.7960	-9.755415	0.000458	4.576586	0.775295	0.009151
 182	9.0500e-02	1.8057	-9.713508	0.000419	4.191639	0.710083	0.008381
 183	9.1000e-02	1.8134	-9.670318	0.000432	4.319955	0.731820	0.008638
 184	9.1500e-02	1.8280	-9.632687	0.000376	3.763921	0.637625	0.007526
 185	9.2000e-02	1.8356	-9.591207	0.000415	4.148867	0.702837	0.008296
 186	9.2500e-02	1.8488	-9.554004	0.000372	3.721149	0.630380	0.007441
 187	9.3000e-02	1.8546	-9.510814	0.000432	4.319955	0.731820	0.008638
 188	9.3500e-02	1.8649	-9.466768	0.000441	4.405498	0.746312	0.008809
 189	9.4000e-02	1.8764	-9.430848	0.000359	3.592834	0.608642	0.007184
 190	9.4500e-02	1.8870	-9.392362	0.000385	3.849464	0.652117	0.007697
 191	9.5000e-02	1.8951	-9.346178	0.000462	4.619357	0.782540	0.009237
 192	9.5500e-02	1.9089	-9.311968	0.000342	3.421746	0.579660	0.006842
 193	9.6000e-02	1.9156	-9.270061	0.000419	4.191639	0.710083	0.008381
 194	9.6500e-02	1.9250	-9.226015	0.000441	4.405498	0.746312	0.008809
 195	9.7000e-02	1.9359	-9.192233	0.000338	3.378974	0.572414	0.006756
 196	9.7500e-02	1.9479	-9.141773	0.000505	5.047076	0.854998	0.010092
 197	9.8000e-02	1.9565	-9.110129	0.000317	3.165115	0.536185	0.006329
 198	9.8500e-02	1.9656	-9.059241	0.000509	5.089847	0.862244	0.010177
 199	9.9000e-02	1.9748	-9.023749	0.000355	3.550062	0.601397	0.007099
 200	9.9500e-02	1.9843	-8.980986	0.000428	4.277183	0.724574	0.008553
 201	1.0000e-01	1.9934	-8.942927	0.000381	3.806693	0.644871	0.007612
 202	1.0050e-01	2.0050	-8.901448	0.000415	4.148867	0.702837	0.008296
 203	1.0100e-01	2.0142	-8.859113	0.000423	4.234411	0.717329	0.008467
 204	1.0150e-01	2.0254	-8.818061	0.000411	4.106095	0.695591	0.008210
 205	1.0200e-01	2.0392	-8.787272	0.000308	3.079572	0.521694	0.006158
 206	1.0250e-01	2.0444	-8.743226	0.000441	4.405498	0.746312	0.008809
 207	1.0300e-01	2.0575	-8.702174	0.000411	4.106095	0.695591	0.008210
 208	1.0350e-01	2.0661	-8.652142	0.000500	5.004304	0.847752	0.010006
 209	1.0400e-01	2.0770	-8.618360	0.000338	3.378974	0.572414	0.006756
 210	1.0450e-01	2.0926	-8.580301	0.000381	3.806693	0.644871	0.007612
 211	1.0500e-01	2.0987	-8.539677	0.000406	4.063324	0.688346	0.008125
 212	1.0550e-01	2.1027	-8.491355	0.000483	4.833217	0.818769	0.009664
 213	1.0600e-01	2.1170	-8.457145	0.000342	3.421746	0.579660	0.006842
 214	1.0650e-01	2.1262	-8.417376	0.000398	3.977780	0.673854	0.007954
 215	1.0700e-01	2.1338	-8.371620	0.000458	4.576586	0.775295	0.009151
 216	1.0750e-01	2.1422	-8.336555	0.000351	3.507290	0.594151	0.007013
 217	1.0800e-01	2.1552	-8.303200	0.000334	3.336203	0.565168	0.006671
 218	1.0850e-01	2.1635	-8.257016	0.000462	4.619357	0.782540	0.009237
 219	1.0900e-01	2.1777	-8.225800	0.000312	3.122343	0.528939	0.006243
 220	1.0950e-01	2.1901	-8.180899	0.000449	4.491042	0.760803	0.008980
 221	1.1000e-01	2.1955	-8.136426	0.000445	4.448270	0.753557	0.008895
 222	1.1050e-01	2.2058	-8.100506	0.000359	3.592834	0.608642	0.007184
 223	1.1100e-01	2.2168	-8.061592	0.000389	3.892236	0.659363	0.007783
 224	1.1150e-01	2.2266	-8.021823	0.000398	3.977780	0.673854	0.007954
 225	1.1200e-01	2.2340	-7.981626	0.000402	4.020552	0.681100	0.008039
 226	1.1250e-01	2.2463	-7.944850	0.000368	3.678377	0.623134	0.007355
 227	1.1300e-01	2.2536	-7.896956	0.000479	4.790445	0.811523	0.009579
 228	1.1350e-01	2.2667	-7.860180	0.000368	3.678377	0.623134	0.007355
 229	1.1400e-01	2.2748	-7.821694	0.000385	3.849464	0.652117	0.007697
 230	1.1450e-01	2.2859	-7.771662	0.000500	5.004304	0.847752	0.010006
 231	1.1500e-01	2.2955	-7.746859	0.000248	2.480766	0.420253	0.004960
 232	1.1550e-01	2.3047	-7.703242	0.000436	4.362726	0.739066	0.008724
 233	1.1600e-01	2.3154	-7.663473	0.000398	3.977780	0.673854	0.007954
 234	1.1650e-01	2.3251	-7.621565	0.000419	4.191639	0.710083	0.008381
 235	1.1700e-01	2.3346	-7.582651	0.000389	3.892236	0.659363	0.007783
 236	1.1750e-01	2.3489	-7.545020	0.000376	3.763921	0.637625	0.007526
 237	1.1800e-01	2.3541	-7.507389	0.000376	3.763921	0.637625	0.007526
 238	1.1850e-01	2.3685	-7.473179	0.000342	3.421746	0.579660	0.006842
 239	1.1900e-01	2.3740	-7.427851	0.000453	4.533814	0.768049	0.009066
 240	1.1950e-01	2.3895	-7.390648	0.000372	3.721149	0.630380	0.007441
 241	1.2000e-01	2.3975	-7.351734	0.000389	3.892236	0.659363	0.007783
 242	1.2050e-01	2.4077	-7.308971	0.000428	4.277183	0.724574	0.008553
 243	1.2100e-01	2.4160	-7.263643	0.000453	4.533814	0.768049	0.009066
 244	1.2150e-01	2.4260	-7.232426	0.000312	3.122343	0.528939	0.006243
 245	1.2200e-01	2.4377	-7.190947	0.000415	4.148867	0.702837	0.008296
 246	1.2250e-01	2.4471	-7.147756	0.000432	4.319955	0.731820	0.008638
 247	1.2300e-01	2.4574	-7.113974	0.000338	3.378974	0.572414	0.006756
 248	1.2350e-01	2.4667	-7.080192	0.000338	3.378974	0.572414	0.006756
 249	1.2400e-01	2.4783	-7.034436	0.000458	4.576586	0.775295	0.009151
 250	1.2450e-01	2.4864	-6.994239	0.000402	4.020552	0.681100	0.008039
 251	1.2500e-01	2.4931	-6.957463	0.000368	3.678377	0.623134	0.007355
 252	1.2550e-01	2.5056	-6.928812	0.000287	2.865712	0.485465	0.005730
 253	1.2600e-01	2.5134	-6.880918	0.000479	4.790445	0.811523	0.009579
 254	1.2650e-01	2.5278	-6.835590	0.000453	4.533814	0.768049	0.009066
 255	1.2700e-01	2.5337	-6.795821	0.000398	3.977780	0.673854	0.007954
 256	1.2750e-01	2.5470	-6.765459	0.000304	3.036800	0.514448	0.006072
 257	1.2800e-01	2.5532	-6.723125	0.000423	4.234411	0.717329	0.008467
 258	1.2850e-01	2.5658	-6.688915	0.000342	3.421746	0.579660	0.006842
 259	1.2900e-01	2.5755	-6.652139	0.000368	3.678377	0.623134	0.007355
 260	1.2950e-01	2.5867	-6.612797	0.000394	3.935008	0.666608	0.007868
 261	1.3000e-01	2.5952	-6.568752	0.000441	4.405498	0.746312	0.008809
 262	1.3050e-01	2.6077	-6.529410	0.000394	3.935008	0.666608	0.007868
 263	1.3100e-01	2.6166	-6.487503	0.000419	4.191639	0.710083	0.008381
 264	1.3150e-01	2.6264	-6.459280	0.000282	2.822941	0.478219	0.005645
 265	1.3200e-01	2.6375	-6.416945	0.000423	4.234411	0.717329	0.008467
 266	1.3250e-01	2.6474	-6.375893	0.000411	4.106095	0.695591	0.008210
 267	1.3300e-01	2.6566	-6.346814	0.000291	2.908484	0.492711	0.005816
 268	1.3350e-01	2.6640	-6.301914	0.000449	4.491042	0.760803	0.008980
 269	1.3400e-01	2.6740	-6.266421	0.000355	3.550062	0.601397	0.007099
 270	1.3450e-01	2.6857	-6.224941	0.000415	4.148867	0.702837	0.008296
 271	1.3500e-01	2.6956	-6.179185	0.000458	4.576586	0.775295	0.009151
 272	1.3550e-01	2.7051	-6.151390	0.000278	2.780169	0.470973	0.005559
 273	1.3600e-01	2.7158	-6.114186	0.000372	3.721149	0.630380	0.007441
 274	1.3650e-01	2.7258	-6.080404	0.000338	3.378974	0.572414	0.006756
 275	1.3700e-01	2.7353	-6.041062	0.000394	3.935008	0.666608	0.007868
 276	1.3750e-01	2.7440	-5.998300	0.000428	4.277183	0.724574	0.008553
 277	1.3800e-01	2.7551	-5.964945	0.000334	3.336203	0.565168	0.006671
 278	1.3850e-01	2.7655	-5.914058	0.000509	5.089847	0.862244	0.010177
 279	1.3900e-01	2.7757	-5.888400	0.000257	2.566310	0.434745	0.005132
 280	1.3950e-01	2.7842	-5.839223	0.000492	4.918760	0.833261	0.009835
 281	1.4000e-01	2.7945	-5.807579	0.000317	3.165115	0.536185	0.006329
 282	1.4050e-01	2.8064	-5.770803	0.000368	3.678377	0.623134	0.007355
 283	1.4100e-01	2.8146	-5.733600	0.000372	3.721149	0.630380	0.007441
 284	1.4150e-01	2.8258	-5.695113	0.000385	3.849464	0.652117	0.007697
 285	1.4200e-01	2.8357	-5.654917	0.000402	4.020552	0.681100	0.008039
 286	1.4250e-01	2.8447	-5.609588	0.000453	4.533814	0.768049	0.009066
 287	1.4300e-01	2.8546	-5.575378	0.000342	3.421746	0.579660	0.006842
 288	1.4350e-01	2.8644	-5.538603	0.000368	3.678377	0.623134	0.007355
 289	1.4400e-01	2.8749	-5.509096	0.000295	2.951256	0.499956	0.005901
 290	1.4450e-01	2.8851	-5.462058	0.000470	4.704901	0.797032	0.009408
 291	1.4500e-01	2.8967	-5.432979	0.000291	2.908484	0.492711	0.005816
 292	1.4550e-01	2.9034	-5.388506	0.000445	4.448270	0.753557	0.008895
 293	1.4600e-01	2.9150	-5.353868	0.000346	3.464518	0.586905	0.006928
 294	1.4650e-01	2.9267	-5.313244	0.000406	4.063324	0.688346	0.008125
 295	1.4700e-01	2.9404	-5.273047	0.000402	4.020552	0.681100	0.008039
 296	1.4750e-01	2.9468	-5.234561	0.000385	3.849464	0.652117	0.007697
 297	1.4800e-01	2.9564	-5.208903	0.000257	2.566310	0.434745	0.005132
 298	1.4850e-01	2.9645	-5.171272	0.000376	3.763921	0.637625	0.007526
 299	1.4900e-01	2.9764	-5.126372	0.000449	4.491042	0.760803	0.008980
 300	1.4950e-01	2.9854	-5.087030	0.000394	3.935008	0.666608	0.007868
 301	1.5000e-01	2.9956	-5.046833	0.000402	4.020552	0.681100	0.008039
 302	1.5050e-01	3.0067	-5.017327	0.000295	2.951256	0.499956	0.005901
 303	1.5100e-01	3.0182	-4.982262	0.000351	3.507290	0.594151	0.007013
 304	1.5150e-01	3.0255	-4.936506	0.000458	4.576586	0.775295	0.009151
 305	1.5200e-01	3.0359	-4.899730	0.000368	3.678377	0.623134	0.007355
 306	1.5250e-01	3.0459	-4.869369	0.000304	3.036800	0.514448	0.006072
 307	1.5300e-01	3.0594	-4.828745	0.000406	4.063324	0.688346	0.008125
 308	1.5350e-01	3.0685	-4.792396	0.000364	3.635605	0.615888	0.007270
 309	1.5400e-01	3.0759	-4.753910	0.000385	3.849464	0.652117	0.007697
 310	1.5450e-01	3.0844	-4.715424	0.000385	3.849464	0.652117	0.007697
 311	1.5500e-01	3.0957	-4.682497	0.000329	3.293431	0.557922	0.006585
 312	1.5550e-01	3.1055	-4.640589	0.000419	4.191639	0.710083	0.008381
 313	1.5600e-01	3.1175	-4.605524	0.000351	3.507290	0.594151	0.007013
 314	1.5650e-01	3.1252	-4.575590	0.000299	2.994028	0.507202	0.005987
 315	1.5700e-01	3.1366	-4.528552	0.000470	4.704901	0.797032	0.009408
 316	1.5750e-01	3.1453	-4.497763	0.000308	3.079572	0.521694	0.006158
 317	1.5800e-01	3.1561	-4.452007	0.000458	4.576586	0.775295	0.009151
 318	1.5850e-01	3.1650	-4.427632	0.000244	2.437994	0.413007	0.004875
 319	1.5900e-01	3.1760	-4.387435	0.000402	4.020552	0.681100	0.008039
 320	1.5950e-01	3.1870	-4.348094	0.000394	3.935008	0.666608	0.007868
 321	1.6000e-01	3.1953	-4.315594	0.000325	3.250659	0.550677	0.006500
 322	1.6050e-01	3.2053	-4.274115	0.000415	4.148867	0.702837	0.008296
 323	1.6100e-01	3.2150	-4.239049	0.000351	3.507290	0.594151	0.007013
 324	1.6150e-01	3.2251	-4.205267	0.000338	3.378974	0.572414	0.006756
 325	1.6200e-01	3.2367	-4.169346	0.000359	3.592834	0.608642	0.007184
 326	1.6250e-01	3.2462	-4.126156	0.000432	4.319955	0.731820	0.008638
 327	1.6300e-01	3.2526	-4.082538	0.000436	4.362726	0.739066	0.008724
 328	1.6350e-01	3.2642	-4.056453	0.000261	2.609081	0.441990	0.005217
 329	1.6400e-01	3.2779	-4.018395	0.000381	3.806693	0.644871	0.007612
 330	1.6450e-01	3.2874	-3.975632	0.000428	4.277183	0.724574	0.008553
 331	1.6500e-01	3.2960	-3.951685	0.000240	2.395222	0.405762	0.004789
 332	1.6550e-01	3.3032	-3.899943	0.000518	5.175391	0.876735	0.010349
 333	1.6600e-01	3.3191	-3.867871	0.000321	3.207887	0.543431	0.006414
 334	1.6650e-01	3.3284	-3.842641	0.000252	2.523538	0.427499	0.005046
 335	1.6700e-01	3.3357	-3.798595	0.000441	4.405498	0.746312	0.008809
 336	1.6750e-01	3.3467	-3.768662	0.000299	2.994028	0.507202	0.005987
 337	1.6800e-01	3.3571	-3.727610	0.000411	4.106095	0.695591	0.008210
 338	1.6850e-01	3.3643	-3.684419	0.000432	4.319955	0.731820	0.008638
 339	1.6900e-01	3.3765	-3.653203	0.000312	3.122343	0.528939	0.006243
 340	1.6950e-01	3.3856	-3.616855	0.000364	3.635605	0.615888	0.007270
 341	1.7000e-01	3.3963	-3.578796	0.000381	3.806693	0.644871	0.007612
 342	1.7050e-01	3.4064	-3.539882	0.000389	3.892236	0.659363	0.007783
 343	1.7100e-01	3.4155	-3.506527	0.000334	3.336203	0.565168	0.006671
 344	1.7150e-01	3.4264	-3.470607	0.000359	3.592834	0.608642	0.007184
 345	1.7200e-01	3.4377	-3.439818	0.000308	3.079572	0.521694	0.006158
 346	1.7250e-01	3.4476	-3.396628	0.000432	4.319955	0.731820	0.008638
 347	1.7300e-01	3.4589	-3.367977	0.000287	2.865712	0.485465	0.005730
 348	1.7350e-01	3.4671	-3.329490	0.000385	3.849464	0.652117	0.007697
 349	1.7400e-01	3.4729	-3.292715	0.000368	3.678377	0.623134	0.007355
 350	1.7450e-01	3.4863	-3.264491	0.000282	2.822941	0.478219	0.005645
 351	1.7500e-01	3.4950	-3.219591	0.000449	4.491042	0.760803	0.008980
 352	1.7550e-01	3.5040	-3.195216	0.000244	2.437994	0.413007	0.004875
 353	1.7600e-01	3.5156	-3.145612	0.000496	4.961532	0.840506	0.009921
 354	1.7650e-01	3.5263	-3.104987	0.000406	4.063324	0.688346	0.008125
 355	1.7700e-01	3.5349	-3.077619	0.000274	2.737397	0.463728	0.005474
 356	1.7750e-01	3.5504	-3.037850	0.000398	3.977780	0.673854	0.007954
 357	1.7800e-01	3.5553	-3.009627	0.000282	2.822941	0.478219	0.005645
 358	1.7850e-01	3.5675	-2.969002	0.000406	4.063324	0.688346	0.008125
 359	1.7900e-01	3.5762	-2.934365	0.000346	3.464518	0.586905	0.006928
 360	1.7950e-01	3.5838	-2.895451	0.000389	3.892236	0.659363	0.007783
 361	1.8000e-01	3.5999	-2.862951	0.000325	3.250659	0.550677	0.006500
 362	1.8050e-01	3.6115	-2.824465	0.000385	3.849464	0.652117	0.007697
 363	1.8100e-01	3.6169	-2.797952	0.000265	2.651853	0.449236	0.005303
 364	1.8150e-01	3.6267	-2.751769	0.000462	4.619357	0.782540	0.009237
 365	1.8200e-01	3.6349	-2.723118	0.000287	2.865712	0.485465	0.005730
 366	1.8250e-01	3.6444	-2.680355	0.000428	4.277183	0.724574	0.008553
 367	1.8300e-01	3.6566	-2.647000	0.000334	3.336203	0.565168	0.006671
 368	1.8350e-01	3.6659	-2.617922	0.000291	2.908484	0.492711	0.005816
 369	1.8400e-01	3.6774	-2.573021	0.000449	4.491042	0.760803	0.008980
 370	1.8450e-01	3.6868	-2.543943	0.000291	2.908484	0.492711	0.005816
 371	1.8500e-01	3.6963	-2.502463	0.000415	4.148867	0.702837	0.008296
 372	1.8550e-01	3.7067	-2.468681	0.000338	3.378974	0.572414	0.006756
 373	1.8600e-01	3.7198	-2.437036	0.000317	3.165115	0.536185	0.006329
 374	1.8650e-01	3.7268	-2.401971	0.000351	3.507290	0.594151	0.007013
 375	1.8700e-01	3.7360	-2.376314	0.000257	2.566310	0.434745	0.005132
 376	1.8750e-01	3.7476	-2.330130	0.000462	4.619357	0.782540	0.009237
 377	1.8800e-01	3.7582	-2.295492	0.000346	3.464518	0.586905	0.006928
 378	1.8850e-01	3.7672	-2.264276	0.000312	3.122343	0.528939	0.006243
 379	1.8900e-01	3.7775	-2.225362	0.000389	3.892236	0.659363	0.007783
 380	1.8950e-01	3.7866	-2.193718	0.000317	3.165115	0.536185	0.006329
 381	1.9000e-01	3.7959	-2.147962	0.000458	4.576586	0.775295	0.009151
 382	1.9050e-01	3.8043	-2.123159	0.000248	2.480766	0.420253	0.004960
 383	1.9100e-01	3.8177	-2.094081	0.000291	2.908484	0.492711	0.005816
 384	1.9150e-01	3.8251	-2.040200	0.000539	5.389250	0.912964	0.010776
 385	1.9200e-01	3.8367	-2.018391	0.000218	2.181363	0.369533	0.004362
 386	1.9250e-01	3.8474	-1.963228	0.000552	5.517566	0.934701	0.011033
 387	1.9300e-01	3.8552	-1.952109	0.000111	1.112068	0.188389	0.002224
 388	1.9350e-01	3.8673	-1.920037	0.000321	3.207887	0.543431	0.006414
 389	1.9400e-01	3.8741	-1.874709	0.000453	4.533814	0.768049	0.009066
 390	1.9450e-01	3.8852	-1.835795	0.000389	3.892236	0.659363	0.007783
 391	1.9500e-01	3.8959	-1.802868	0.000329	3.293431	0.557922	0.006585
 392	1.9550e-01	3.9032	-1.755829	0.000470	4.704901	0.797032	0.009408
 393	1.9600e-01	3.9166	-1.736159	0.000197	1.967504	0.333304	0.003934
 394	1.9650e-01	3.9252	-1.694679	0.000415	4.148867	0.702837	0.008296
 395	1.9700e-01	3.9346	-1.665173	0.000295	2.951256	0.499956	0.005901
 396	1.9750e-01	3.9442	-1.623266	0.000419	4.191639	0.710083	0.008381
 397	1.9800e-01	3.9545	-1.591194	0.000321	3.207887	0.543431	0.006414
 398	1.9850e-01	3.9664	-1.558694	0.000325	3.250659	0.550677	0.006500
 399	1.9900e-01	3.9771	-1.528760	0.000299	2.994028	0.507202	0.005987
 400	1.9950e-01	3.9851	-1.494123	0.000346	3.464518	0.586905	0.006928
 401	2.0000e-01	3.9960	-1.456492	0.000376	3.763921	0.637625	0.007526
 402	2.0050e-01	4.0076	-1.416295	0.000402	4.020552	0.681100	0.008039
 403	2.0100e-01	4.0125	-1.376098	0.000402	4.020552	0.681100	0.008039
 404	2.0150e-01	4.0271	-1.359848	0.000163	1.625329	0.275338	0.003250
 405	2.0200e-01	4.0369	-1.320079	0.000398	3.977780	0.673854	0.007954
 406	2.0250e-01	4.0433	-1.276034	0.000441	4.405498	0.746312	0.008809
 407	2.0300e-01	4.0541	-1.251232	0.000248	2.480766	0.420253	0.004960
 408	2.0350e-01	4.0668	-1.214456	0.000368	3.678377	0.623134	0.007355
 409	2.0400e-01	4.0793	-1.183239	0.000312	3.122343	0.528939	0.006243
 410	2.0450e-01	4.0851	-1.145180	0.000381	3.806693	0.644871	0.007612
 411	2.0500e-01	4.0961	-1.116102	0.000291	2.908484	0.492711	0.005816
 412	2.0550e-01	4.1046	-1.077616	0.000385	3.849464	0.652117	0.007697
 413	2.0600e-01	4.1168	-1.041695	0.000359	3.592834	0.608642	0.007184
 414	2.0650e-01	4.1266	-1.011334	0.000304	3.036800	0.514448	0.006072
 415	2.0700e-01	4.1336	-0.971992	0.000394	3.935008	0.666608	0.007868
 416	2.0750e-01	4.1449	-0.939065	0.000329	3.293431	0.557922	0.006585
 417	2.0800e-01	4.1565	-0.909559	0.000295	2.951256	0.499956	0.005901
 418	2.0850e-01	4.1663	-0.868079	0.000415	4.148867	0.702837	0.008296
 419	2.0900e-01	4.1772	-0.827455	0.000406	4.063324	0.688346	0.008125
 420	2.0950e-01	4.1888	-0.806074	0.000214	2.138591	0.362287	0.004276
 421	2.1000e-01	4.1968	-0.764166	0.000419	4.191639	0.710083	0.008381
 422	2.1050e-01	4.2047	-0.736798	0.000274	2.737397	0.463728	0.005474
 423	2.1100e-01	4.2157	-0.697457	0.000394	3.935008	0.666608	0.007868
 424	2.1150e-01	4.2236	-0.661109	0.000364	3.635605	0.615888	0.007270
 425	2.1200e-01	4.2365	-0.630320	0.000308	3.079572	0.521694	0.006158
 426	2.1250e-01	4.2458	-0.596965	0.000334	3.336203	0.565168	0.006671
 427	2.1300e-01	4.2572	-0.563610	0.000334	3.336203	0.565168	0.006671
 428	2.1350e-01	4.2657	-0.520848	0.000428	4.277183	0.724574	0.008553
 429	2.1400e-01	4.2749	-0.493480	0.000274	2.737397	0.463728	0.005474
 430	2.1450e-01	4.2865	-0.463118	0.000304	3.036800	0.514448	0.006072
 431	2.1500e-01	4.2944	-0.422066	0.000411	4.106095	0.695591	0.008210
 432	2.1550e-01	4.3063	-0.391277	0.000308	3.079572	0.521694	0.006158
 433	2.1600e-01	4.3170	-0.361343	0.000299	2.994028	0.507202	0.005987
 434	2.1650e-01	4.3275	-0.329271	0.000321	3.207887	0.543431	0.006414
 435	2.1700e-01	4.3350	-0.286509	0.000428	4.277183	0.724574	0.008553
 436	2.1750e-01	4.3471	-0.261279	0.000252	2.523538	0.427499	0.005046
 437	2.1800e-01	4.3549	-0.227924	0.000334	3.336203	0.565168	0.006671
 438	2.1850e-01	4.3668	-0.187300	0.000406	4.063324	0.688346	0.008125
 439	2.1900e-01	4.3781	-0.160787	0.000265	2.651853	0.449236	0.005303
 440	2.1950e-01	4.3861	-0.125294	0.000355	3.550062	0.601397	0.007099
 441	2.2000e-01	4.3982	-0.092367	0.000329	3.293431	0.557922	0.006585
 442	2.2050e-01	4.4055	-0.052598	0.000398	3.977780	0.673854	0.007954
 443	2.2100e-01	4.4171	-0.020954	0.000317	3.165115	0.536185	0.006329
 444	2.2150e-01	4.4263	0.010691	0.000317	3.165115	0.536185	0.006329
 445	2.2200e-01	4.4379	0.039342	0.000287	2.865712	0.485465	0.005730
 446	2.2250e-01	4.4453	0.080394	0.000411	4.106095	0.695591	0.008210
 447	2.2300e-01	4.4557	0.111610	0.000312	3.122343	0.528939	0.006243
 448	2.2350e-01	4.4659	0.151379	0.000398	3.977780	0.673854	0.007954
 449	2.2400e-01	4.4786	0.184306	0.000329	3.293431	0.557922	0.006585
 450	2.2450e-01	4.4846	0.205260	0.000210	2.095820	0.355041	0.004191
 451	2.2500e-01	4.4955	0.249306	0.000441	4.405498	0.746312	0.008809
 452	2.2550e-01	4.5090	0.280522	0.000312	3.122343	0.528939	0.006243
 453	2.2600e-01	4.5154	0.315587	0.000351	3.507290	0.594151	0.007013
 454	2.2650e-01	4.5288	0.345521	0.000299	2.994028	0.507202	0.005987
 455	2.2700e-01	4.5361	0.374172	0.000287	2.865712	0.485465	0.005730
 456	2.2750e-01	4.5485	0.416507	0.000423	4.234411	0.717329	0.008467
 457	2.2800e-01	4.5547	0.443875	0.000274	2.737397	0.463728	0.005474
 458	2.2850e-01	4.5636	0.481506	0.000376	3.763921	0.637625	0.007526
 459	2.2900e-01	4.5776	0.516144	0.000346	3.464518	0.586905	0.006928
 460	2.2950e-01	4.5881	0.552064	0.000359	3.592834	0.608642	0.007184
 461	2.3000e-01	4.5959	0.581998	0.000299	2.994028	0.507202	0.005987
 462	2.3050e-01	4.6065	0.611504	0.000295	2.951256	0.499956	0.005901
 463	2.3100e-01	4.6161	0.644004	0.000325	3.250659	0.550677	0.006500
 464	2.3150e-01	4.6277	0.671799	0.000278	2.780169	0.470973	0.005559
 465	2.3200e-01	4.6375	0.716272	0.000445	4.448270	0.753557	0.008895
 466	2.3250e-01	4.6472	0.747917	0.000317	3.165115	0.536185	0.006329
 467	2.3300e-01	4.6539	0.786403	0.000385	3.849464	0.652117	0.007697
 468	2.3350e-01	4.6643	0.814626	0.000282	2.822941	0.478219	0.005645
 469	2.3400e-01	4.6753	0.848409	0.000338	3.378974	0.572414	0.006756
 470	2.3450e-01	4.6863	0.880053	0.000317	3.165115	0.536185	0.006329
 471	2.3500e-01	4.6975	0.912552	0.000325	3.250659	0.550677	0.006500
 472	2.3550e-01	4.7075	0.941203	0.000287	2.865712	0.485465	0.005730
 473	2.3600e-01	4.7168	0.982255	0.000411	4.106095	0.695591	0.008210
 474	2.3650e-01	4.7253	1.016038	0.000338	3.378974	0.572414	0.006756
 475	2.3700e-01	4.7375	1.046827	0.000308	3.079572	0.521694	0.006158
 476	2.3750e-01	4.7479	1.080181	0.000334	3.336203	0.565168	0.006671
 477	2.3800e-01	4.7561	1.116102	0.000359	3.592834	0.608642	0.007184
 478	2.3850e-01	4.7675	1.141759	0.000257	2.566310	0.434745	0.005132
 479	2.3900e-01	4.7772	1.175114	0.000334	3.336203	0.565168	0.006671
 480	2.3950e-01	4.7839	1.211462	0.000364	3.635605	0.615888	0.007270
 481	2.4000e-01	4.7992	1.236692	0.000252	2.523538	0.427499	0.005046
 482	2.4050e-01	4.8074	1.276461	0.000398	3.977780	0.673854	0.007954
 483	2.4100e-01	4.8163	1.312810	0.000364	3.635605	0.615888	0.007270
 484	2.4150e-01	4.8257	1.340605	0.000278	2.780169	0.470973	0.005559
 485	2.4200e-01	4.8364	1.372677	0.000321	3.207887	0.543431	0.006414
 486	2.4250e-01	4.8462	1.406460	0.000338	3.378974	0.572414	0.006756
 487	2.4300e-01	4.8566	1.437676	0.000312	3.122343	0.528939	0.006243
 488	2.4350e-01	4.8665	1.465472	0.000278	2.780169	0.470973	0.005559
 489	2.4400e-01	4.8743	1.500965	0.000355	3.550062	0.601397	0.007099
 490	2.4450e-01	4.8865	1.534319	0.000334	3.336203	0.565168	0.006671
 491	2.4500e-01	4.8962	1.566819	0.000325	3.250659	0.550677	0.006500
 492	2.4550e-01	4.9060	1.600601	0.000338	3.378974	0.572414	0.006756
 493	2.4600e-01	4.9173	1.627542	0.000269	2.694625	0.456482	0.005388
 494	2.4650e-01	4.9274	1.662179	0.000346	3.464518	0.586905	0.006928
 495	2.4700e-01	4.9393	1.698528	0.000364	3.635605	0.615888	0.007270
 496	2.4750e-01	4.9482	1.726323	0.000278	2.780169	0.470973	0.005559
 497	2.4800e-01	4.9550	1.765665	0.000394	3.935008	0.666608	0.007868
 498	2.4850e-01	4.9667	1.793033	0.000274	2.737397	0.463728	0.005474
 499	2.4900e-01	4.9750	1.827670	0.000346	3.464518	0.586905	0.006928
 500	2.4950e-01	4.9863	1.862736	0.000351	3.507290	0.594151	0.007013
 501	2.5000e-01	4.9951	1.889248	0.000265	2.651853	0.449236	0.005303
 502	2.5050e-01	5.0079	1.923886	0.000346	3.464518	0.586905	0.006928
 503	2.5100e-01	5.0171	1.968787	0.000449	4.491042	0.760803	0.008980
 504	2.5150e-01	5.0281	1.990596	0.000218	2.181363	0.369533	0.004362
 505	2.5200e-01	5.0336	2.020102	0.000295	2.951256	0.499956	0.005901
 506	2.5250e-01	5.0473	2.055595	0.000355	3.550062	0.601397	0.007099
 507	2.5300e-01	5.0565	2.078686	0.000231	2.309679	0.391270	0.004618
 508	2.5350e-01	5.0671	2.119738	0.000411	4.106095	0.695591	0.008210
 509	2.5400e-01	5.0763	2.152238	0.000325	3.250659	0.550677	0.006500
 510	2.5450e-01	5.0885	2.184738	0.000325	3.250659	0.550677	0.006500
 511	2.5500e-01	5.0949	2.213388	0.000287	2.865712	0.485465	0.005730
 512	2.5550e-01	5.1070	2.251019	0.000376	3.763921	0.637625	0.007526
 513	2.5600e-01	5.1181	2.276249	0.000252	2.523538	0.427499	0.005046
 514	2.5650e-01	5.1233	2.318584	0.000423	4.234411	0.717329	0.008467
 515	2.5700e-01	5.1360	2.345952	0.000274	2.737397	0.463728	0.005474
 516	2.5750e-01	5.1459	2.372465	0.000265	2.651853	0.449236	0.005303
 517	2.5800e-01	5.1575	2.402399	0.000299	2.994028	0.507202	0.005987
 518	2.5850e-01	5.1666	2.433188	0.000308	3.079572	0.521694	0.006158
 519	2.5900e-01	5.1755	2.472529	0.000394	3.935008	0.666608	0.007868
 520	2.5950e-01	5.1849	2.509305	0.000368	3.678377	0.623134	0.007355
 521	2.6000e-01	5.1941	2.537101	0.000278	2.780169	0.470973	0.005559
 522	2.6050e-01	5.2032	2.563614	0.000265	2.651853	0.449236	0.005303
 523	2.6100e-01	5.2161	2.594403	0.000308	3.079572	0.521694	0.006158
 524	2.6150e-01	5.2255	2.630323	0.000359	3.592834	0.608642	0.007184
 525	2.6200e-01	5.2417	2.661540	0.000312	3.122343	0.528939	0.006243
 526	2.6250e-01	5.2448	2.694894	0.000334	3.336203	0.565168	0.006671
 527	2.6300e-01	5.2560	2.722262	0.000274	2.737397	0.463728	0.005474
 528	2.6350e-01	5.2667	2.761604	0.000394	3.935008	0.666608	0.007868
 529	2.6400e-01	5.2771	2.788972	0.000274	2.737397	0.463728	0.005474
 530	2.6450e-01	5.2838	2.821472	0.000325	3.250659	0.550677	0.006500
 531	2.6500e-01	5.2948	2.853543	0.000321	3.207887	0.543431	0.006414
 532	2.6550e-01	5.3058	2.890747	0.000372	3.721149	0.630380	0.007441
 533	2.6600e-01	5.3177	2.922391	0.000317	3.165115	0.536185	0.006329
 534	2.6650e-01	5.3235	2.953608	0.000312	3.122343	0.528939	0.006243
 535	2.6700e-01	5.3381	2.986107	0.000325	3.250659	0.550677	0.006500
 536	2.6750e-01	5.3464	3.010910	0.000248	2.480766	0.420253	0.004960
 537	2.6800e-01	5.3571	3.048541	0.000376	3.763921	0.637625	0.007526
 538	2.6850e-01	5.3670	3.072060	0.000235	2.352451	0.398516	0.004704
 539	2.6900e-01	5.3748	3.102421	0.000304	3.036800	0.514448	0.006072
 540	2.6950e-01	5.3864	3.135349	0.000329	3.293431	0.557922	0.006585
 541	2.7000e-01	5.3952	3.172124	0.000368	3.678377	0.623134	0.007355
 542	2.7050e-01	5.4059	3.202913	0.000308	3.079572	0.521694	0.006158
 543	2.7100e-01	5.4147	3.233275	0.000304	3.036800	0.514448	0.006072
 544	2.7150e-01	5.4260	3.267057	0.000338	3.378974	0.572414	0.006756
 545	2.7200e-01	5.4376	3.302122	0.000351	3.507290	0.594151	0.007013
 546	2.7250e-01	5.4465	3.325642	0.000235	2.352451	0.398516	0.004704
 547	2.7300e-01	5.4565	3.356003	0.000304	3.036800	0.514448	0.006072
 548	2.7350e-01	5.4669	3.391924	0.000359	3.592834	0.608642	0.007184
 549	2.7400e-01	5.4767	3.427417	0.000355	3.550062	0.601397	0.007099
 550	2.7450e-01	5.4846	3.468896	0.000415	4.148867	0.702837	0.008296
 551	2.7500e-01	5.4965	3.493698	0.000248	2.480766	0.420253	0.004960
 552	2.7550e-01	5.5060	3.524915	0.000312	3.122343	0.528939	0.006243
 553	2.7600e-01	5.5135	3.553138	0.000282	2.822941	0.478219	0.005645
 554	2.7650e-01	5.5273	3.586493	0.000334	3.336203	0.565168	0.006671
 555	2.7700e-01	5.5350	3.616427	0.000299	2.994028	0.507202	0.005987
 556	2.7750e-01	5.5463	3.645933	0.000295	2.951256	0.499956	0.005901
 557	2.7800e-01	5.5554	3.682709	0.000368	3.678377	0.623134	0.007355
 558	2.7850e-01	5.5652	3.706228	0.000235	2.352451	0.398516	0.004704
 559	2.7900e-01	5.5768	3.740438	0.000342	3.421746	0.579660	0.006842
 560	2.7950e-01	5.5820	3.767379	0.000269	2.694625	0.456482	0.005388
 561	2.8000e-01	5.5948	3.806293	0.000389	3.892236	0.659363	0.007783
 562	2.8050e-01	5.6091	3.839220	0.000329	3.293431	0.557922	0.006585
 563	2.8100e-01	5.6177	3.866588	0.000274	2.737397	0.463728	0.005474
 564	2.8150e-01	5.6287	3.893528	0.000269	2.694625	0.456482	0.005388
 565	2.8200e-01	5.6360	3.932014	0.000385	3.849464	0.652117	0.007697
 566	2.8250e-01	5.6482	3.961093	0.000291	2.908484	0.492711	0.005816
 567	2.8300e-01	5.6580	3.992737	0.000317	3.165115	0.536185	0.006329
 568	2.8350e-01	5.6622	4.011125	0.000184	1.839189	0.311567	0.003678
 569	2.8400e-01	5.6815	4.053460	0.000423	4.234411	0.717329	0.008467
 570	2.8450e-01	5.6860	4.077835	0.000244	2.437994	0.413007	0.004875
 571	2.8500e-01	5.6952	4.121025	0.000432	4.319955	0.731820	0.008638
 572	2.8550e-01	5.7068	4.151814	0.000308	3.079572	0.521694	0.006158
 573	2.8600e-01	5.7181	4.179182	0.000274	2.737397	0.463728	0.005474
 574	2.8650e-01	5.7263	4.212109	0.000329	3.293431	0.557922	0.006585
 575	2.8700e-01	5.7361	4.244181	0.000321	3.207887	0.543431	0.006414
 576	2.8750e-01	5.7471	4.277963	0.000338	3.378974	0.572414	0.006756
 577	2.8800e-01	5.7556	4.312601	0.000346	3.464518	0.586905	0.006928
 578	2.8850e-01	5.7648	4.340824	0.000282	2.822941	0.478219	0.005645
 579	2.8900e-01	5.7785	4.367765	0.000269	2.694625	0.456482	0.005388
 580	2.8950e-01	5.7867	4.397271	0.000295	2.951256	0.499956	0.005901
 581	2.9000e-01	5.7956	4.431481	0.000342	3.421746	0.579660	0.006842
 582	2.9050e-01	5.8038	4.451579	0.000201	2.010276	0.340550	0.004020
 583	2.9100e-01	5.8160	4.487927	0.000364	3.635605	0.615888	0.007270
 584	2.9150e-01	5.8234	4.530262	0.000423	4.234411	0.717329	0.008467
 585	2.9200e-01	5.8362	4.552926	0.000227	2.266907	0.384024	0.004533
 586	2.9250e-01	5.8459	4.584143	0.000312	3.122343	0.528939	0.006243
 587	2.9300e-01	5.8557	4.611939	0.000278	2.780169	0.470973	0.005559
 588	2.9350e-01	5.8691	4.640589	0.000287	2.865712	0.485465	0.005730
 589	2.9400e-01	5.8771	4.679931	0.000394	3.935008	0.666608	0.007868
 590	2.9450e-01	5.8870	4.710292	0.000304	3.036800	0.514448	0.006072
 591	2.9500e-01	5.8978	4.746641	0.000364	3.635605	0.615888	0.007270
 592	2.9550e-01	5.9042	4.768449	0.000218	2.181363	0.369533	0.004362
 593	2.9600e-01	5.9167	4.808219	0.000398	3.977780	0.673854	0.007954
 594	2.9650e-01	5.9265	4.828745	0.000205	2.053048	0.347796	0.004105
 595	2.9700e-01	5.9375	4.864665	0.000359	3.592834	0.608642	0.007184
 596	2.9750e-01	5.9473	4.895882	0.000312	3.122343	0.528939	0.006243
 597	2.9800e-01	5.9558	4.924533	0.000287	2.865712	0.485465	0.005730
 598	2.9850e-01	5.9650	4.953184	0.000287	2.865712	0.485465	0.005730
 599	2.9900e-01	5.9760	4.989532	0.000364	3.635605	0.615888	0.007270
 600	2.9950e-01	5.9875	5.014334	0.000248	2.480766	0.420253	0.004960
 601	3.0000e-01	5.9985	5.044695	0.000304	3.036800	0.514448	0.006072
 602	3.0050e-01	6.0054	5.071636	0.000269	2.694625	0.456482	0.005388
 603	3.0100e-01	6.0138	5.100287	0.000287	2.865712	0.485465	0.005730
 604	3.0150e-01	6.0272	5.137918	0.000376	3.763921	0.637625	0.007526
 605	3.0200e-01	6.0370	5.171700	0.000338	3.378974	0.572414	0.006756
 606	3.0250e-01	6.0489	5.203772	0.000321	3.207887	0.543431	0.006414
 607	3.0300e-01	6.0577	5.228574	0.000248	2.480766	0.420253	0.004960
 608	3.0350e-01	6.0657	5.260646	0.000321	3.207887	0.543431	0.006414
 609	3.0400e-01	6.0773	5.285448	0.000248	2.480766	0.420253	0.004960
 610	3.0450e-01	6.0867	5.323507	0.000381	3.806693	0.644871	0.007612
 611	3.0500e-01	6.0980	5.349165	0.000257	2.566310	0.434745	0.005132
 612	3.0550e-01	6.1053	5.378671	0.000295	2.951256	0.499956	0.005901
 613	3.0600e-01	6.1127	5.422716	0.000441	4.405498	0.746312	0.008809
 614	3.0650e-01	6.1249	5.444525	0.000218	2.181363	0.369533	0.004362
 615	3.0700e-01	6.1360	5.474459	0.000299	2.994028	0.507202	0.005987
 616	3.0750e-01	6.1462	5.508241	0.000338	3.378974	0.572414	0.006756
 617	3.0800e-01	6.1566	5.533899	0.000257	2.566310	0.434745	0.005132
 618	3.0850e-01	6.1647	5.575806	0.000419	4.191639	0.710083	0.008381
 619	3.0900e-01	6.1768	5.600608	0.000248	2.480766	0.420253	0.004960
 620	3.0950e-01	6.1865	5.622845	0.000222	2.224135	0.376779	0.004447
 621	3.1000e-01	6.1975	5.664324	0.000415	4.148867	0.702837	0.008296
 622	3.1050e-01	6.2061	5.690410	0.000261	2.609081	0.441990	0.005217
 623	3.1100e-01	6.2164	5.725902	0.000355	3.550062	0.601397	0.007099
 624	3.1150e-01	6.2268	5.752843	0.000269	2.694625	0.456482	0.005388
 625	3.1200e-01	6.2360	5.776362	0.000235	2.352451	0.398516	0.004704
 626	3.1250e-01	6.2459	5.813138	0.000368	3.678377	0.623134	0.007355
 627	3.1300e-01	6.2585	5.837940	0.000248	2.480766	0.420253	0.004960
 628	3.1350e-01	6.2720	5.871723	0.000338	3.378974	0.572414	0.006756
 629	3.1400e-01	6.2775	5.904650	0.000329	3.293431	0.557922	0.006585
 630	3.1450e-01	6.2848	5.936294	0.000317	3.165115	0.536185	0.006329
 631	3.1500e-01	6.2970	5.974353	0.000381	3.806693	0.644871	0.007612
 632	3.1550e-01	6.3092	5.992741	0.000184	1.839189	0.311567	0.003678
 633	3.1600e-01	6.3181	6.024385	0.000317	3.165115	0.536185	0.006329
 634	3.1650e-01	6.3281	6.050042	0.000257	2.566310	0.434745	0.005132
 635	3.1700e-01	6.3367	6.085108	0.000351	3.507290	0.594151	0.007013
 636	3.1750e-01	6.3440	6.115469	0.000304	3.036800	0.514448	0.006072
 637	3.1800e-01	6.3556	6.150534	0.000351	3.507290	0.594151	0.007013
 638	3.1850e-01	6.3629	6.183034	0.000325	3.250659	0.550677	0.006500
 639	3.1900e-01	6.3757	6.212540	0.000295	2.951256	0.499956	0.005901
 640	3.1950e-01	6.3879	6.241619	0.000291	2.908484	0.492711	0.005816
 641	3.2000e-01	6.3980	6.265993	0.000244	2.437994	0.413007	0.004875
 642	3.2050e-01	6.4050	6.304907	0.000389	3.892236	0.659363	0.007783
 643	3.2100e-01	6.4162	6.332275	0.000274	2.737397	0.463728	0.005474
 644	3.2150e-01	6.4264	6.360071	0.000278	2.780169	0.470973	0.005559
 645	3.2200e-01	6.4349	6.387011	0.000269	2.694625	0.456482	0.005388
 646	3.2250e-01	6.4459	6.419938	0.000329	3.293431	0.557922	0.006585
 647	3.2300e-01	6.4565	6.450300	0.000304	3.036800	0.514448	0.006072
 648	3.2350e-01	6.4691	6.475530	0.000252	2.523538	0.427499	0.005046
 649	3.2400e-01	6.4764	6.508457	0.000329	3.293431	0.557922	0.006585
 650	3.2450e-01	6.4856	6.546943	0.000385	3.849464	0.652117	0.007697
 651	3.2500e-01	6.4972	6.572600	0.000257	2.566310	0.434745	0.005132
 652	3.2550e-01	6.5094	6.603389	0.000308	3.079572	0.521694	0.006158
 653	3.2600e-01	6.5161	6.630330	0.000269	2.694625	0.456482	0.005388
 654	3.2650e-01	6.5277	6.664968	0.000346	3.464518	0.586905	0.006928
 655	3.2700e-01	6.5356	6.696184	0.000312	3.122343	0.528939	0.006243
 656	3.2750e-01	6.5430	6.720986	0.000248	2.480766	0.420253	0.004960
 657	3.2800e-01	6.5555	6.749637	0.000287	2.865712	0.485465	0.005730
 658	3.2850e-01	6.5659	6.779999	0.000304	3.036800	0.514448	0.006072
 659	3.2900e-01	6.5744	6.804373	0.000244	2.437994	0.413007	0.004875
 660	3.2950e-01	6.5863	6.834307	0.000299	2.994028	0.507202	0.005987
 661	3.3000e-01	6.5948	6.872366	0.000381	3.806693	0.644871	0.007612
 662	3.3050e-01	6.6077	6.906148	0.000338	3.378974	0.572414	0.006756
 663	3.3100e-01	6.6165	6.934371	0.000282	2.822941	0.478219	0.005645
 664	3.3150e-01	6.6269	6.961739	0.000274	2.737397	0.463728	0.005474
 665	3.3200e-01	6.6345	6.999370	0.000376	3.763921	0.637625	0.007526
 666	3.3250e-01	6.6492	7.015193	0.000158	1.582558	0.268093	0.003164
 667	3.3300e-01	6.6571	7.051541	0.000364	3.635605	0.615888	0.007270
 668	3.3350e-01	6.6653	7.086606	0.000351	3.507290	0.594151	0.007013
 669	3.3400e-01	6.6779	7.111408	0.000248	2.480766	0.420253	0.004960
 670	3.3450e-01	6.6846	7.140059	0.000287	2.865712	0.485465	0.005730
 671	3.3500e-01	6.6995	7.168282	0.000282	2.822941	0.478219	0.005645
 672	3.3550e-01	6.7053	7.203775	0.000355	3.550062	0.601397	0.007099
 673	3.3600e-01	6.7154	7.234564	0.000308	3.079572	0.521694	0.006158
 674	3.3650e-01	6.7261	7.269630	0.000351	3.507290	0.594151	0.007013
 675	3.3700e-01	6.7358	7.298281	0.000287	2.865712	0.485465	0.005730
 676	3.3750e-01	6.7480	7.323510	0.000252	2.523538	0.427499	0.005046
 677	3.3800e-01	6.7596	7.351306	0.000278	2.780169	0.470973	0.005559
 678	3.3850e-01	6.7639	7.377819	0.000265	2.651853	0.449236	0.005303
 679	3.3900e-01	6.7769	7.404759	0.000269	2.694625	0.456482	0.005388
 680	3.3950e-01	6.7877	7.449660	0.000449	4.491042	0.760803	0.008980
 681	3.4000e-01	6.7963	7.474462	0.000248	2.480766	0.420253	0.004960
 682	3.4050e-01	6.8066	7.494561	0.000201	2.010276	0.340550	0.004020
 683	3.4100e-01	6.8176	7.533902	0.000394	3.935008	0.666608	0.007868
 684	3.4150e-01	6.8231	7.562981	0.000291	2.908484	0.492711	0.005816
 685	3.4200e-01	6.8365	7.585645	0.000227	2.266907	0.384024	0.004533
 686	3.4250e-01	6.8463	7.620282	0.000346	3.464518	0.586905	0.006928
 687	3.4300e-01	6.8600	7.643802	0.000235	2.352451	0.398516	0.004704
 688	3.4350e-01	6.8654	7.692123	0.000483	4.833217	0.818769	0.009664
 689	3.4400e-01	6.8768	7.713505	0.000214	2.138591	0.362287	0.004276
 690	3.4450e-01	6.8854	7.743438	0.000299	2.994028	0.507202	0.005987
 691	3.4500e-01	6.8976	7.775083	0.000317	3.165115	0.536185	0.006329
 692	3.4550e-01	6.9070	7.803306	0.000282	2.822941	0.478219	0.005645
 693	3.4600e-01	6.9147	7.829391	0.000261	2.609081	0.441990	0.005217
 694	3.4650e-01	6.9275	7.861035	0.000317	3.165115	0.536185	0.006329
 695	3.4700e-01	6.9342	7.896956	0.000359	3.592834	0.608642	0.007184
 696	3.4750e-01	6.9464	7.914489	0.000175	1.753645	0.297075	0.003507
 697	3.4800e-01	6.9568	7.946133	0.000317	3.165115	0.536185	0.006329
 698	3.4850e-01	6.9672	7.985047	0.000389	3.892236	0.659363	0.007783
 699	3.4900e-01	6.9788	8.009421	0.000244	2.437994	0.413007	0.004875
 700	3.4950e-01	6.9867	8.048335	0.000389	3.892236	0.659363	0.007783
 701	3.5000e-01	6.9958	8.070144	0.000218	2.181363	0.369533	0.004362
 702	3.5050e-01	7.0099	8.098795	0.000287	2.865712	0.485465	0.005730
 703	3.5100e-01	7.0151	8.128301	0.000295	2.951256	0.499956	0.005901
 704	3.5150e-01	7.0258	8.153959	0.000257	2.566310	0.434745	0.005132
 705	3.5200e-01	7.0380	8.188596	0.000346	3.464518	0.586905	0.006928
 706	3.5250e-01	7.0456	8.208695	0.000201	2.010276	0.340550	0.004020
 707	3.5300e-01	7.0581	8.243760	0.000351	3.507290	0.594151	0.007013
 708	3.5350e-01	7.0657	8.276260	0.000325	3.250659	0.550677	0.006500
 709	3.5400e-01	7.0752	8.305338	0.000291	2.908484	0.492711	0.005816
 710	3.5450e-01	7.0850	8.333134	0.000278	2.780169	0.470973	0.005559
 711	3.5500e-01	7.0966	8.365206	0.000321	3.207887	0.543431	0.006414
 712	3.5550e-01	7.1051	8.393429	0.000282	2.822941	0.478219	0.005645
 713	3.5600e-01	7.1143	8.427211	0.000338	3.378974	0.572414	0.006756
 714	3.5650e-01	7.1246	8.454579	0.000274	2.737397	0.463728	0.005474
 715	3.5700e-01	7.1368	8.485796	0.000312	3.122343	0.528939	0.006243
 716	3.5750e-01	7.1472	8.511026	0.000252	2.523538	0.427499	0.005046
 717	3.5800e-01	7.1573	8.543953	0.000329	3.293431	0.557922	0.006585
 718	3.5850e-01	7.1649	8.575597	0.000317	3.165115	0.536185	0.006329
 719	3.5900e-01	7.1771	8.594840	0.000192	1.924732	0.326058	0.003849
 720	3.5950e-01	7.1851	8.631616	0.000368	3.678377	0.623134	0.007355
 721	3.6000e-01	7.1979	8.658984	0.000274	2.737397	0.463728	0.005474
 722	3.6050e-01	7.2061	8.691911	0.000329	3.293431	0.557922	0.006585
 723	3.6100e-01	7.2168	8.723556	0.000317	3.165115	0.536185	0.006329
 724	3.6150e-01	7.2250	8.755627	0.000321	3.207887	0.543431	0.006414
 725	3.6200e-01	7.2345	8.778719	0.000231	2.309679	0.391270	0.004618
 726	3.6250e-01	7.2467	8.811646	0.000329	3.293431	0.557922	0.006585
 727	3.6300e-01	7.2559	8.839870	0.000282	2.822941	0.478219	0.005645
 728	3.6350e-01	7.2662	8.871942	0.000321	3.207887	0.543431	0.006414
 729	3.6400e-01	7.2751	8.895889	0.000240	2.395222	0.405762	0.004789
 730	3.6450e-01	7.2864	8.924539	0.000287	2.865712	0.485465	0.005730
 731	3.6500e-01	7.2949	8.964736	0.000402	4.020552	0.681100	0.008039
 732	3.6550e-01	7.3044	8.989111	0.000244	2.437994	0.413007	0.004875
 733	3.6600e-01	7.3157	9.019045	0.000299	2.994028	0.507202	0.005987
 734	3.6650e-01	7.3285	9.041281	0.000222	2.224135	0.376779	0.004447
 735	3.6700e-01	7.3341	9.073781	0.000325	3.250659	0.550677	0.006500
 736	3.6750e-01	7.3462	9.099011	0.000252	2.523538	0.427499	0.005046
 737	3.6800e-01	7.3572	9.134076	0.000351	3.507290	0.594151	0.007013
 738	3.6850e-01	7.3682	9.161016	0.000269	2.694625	0.456482	0.005388
 739	3.6900e-01	7.3730	9.193516	0.000325	3.250659	0.550677	0.006500
 740	3.6950e-01	7.3846	9.229009	0.000355	3.550062	0.601397	0.007099
 741	3.7000e-01	7.3981	9.255094	0.000261	2.609081	0.441990	0.005217
 742	3.7050e-01	7.4054	9.285028	0.000299	2.994028	0.507202	0.005987
 743	3.7100e-01	7.4182	9.307692	0.000227	2.266907	0.384024	0.004533
 744	3.7150e-01	7.4261	9.344895	0.000372	3.721149	0.630380	0.007441
 745	3.7200e-01	7.4350	9.372691	0.000278	2.780169	0.470973	0.005559
 746	3.7250e-01	7.4423	9.407328	0.000346	3.464518	0.586905	0.006928
 747	3.7300e-01	7.4570	9.437690	0.000304	3.036800	0.514448	0.006072
 748	3.7350e-01	7.4664	9.460782	0.000231	2.309679	0.391270	0.004618
 749	3.7400e-01	7.4774	9.490715	0.000299	2.994028	0.507202	0.005987
 750	3.7450e-01	7.4875	9.523215	0.000325	3.250659	0.550677	0.006500
 751	3.7500e-01	7.4951	9.545879	0.000227	2.266907	0.384024	0.004533
 752	3.7550e-01	7.5040	9.580944	0.000351	3.507290	0.594151	0.007013
 753	3.7600e-01	7.5122	9.610023	0.000291	2.908484	0.492711	0.005816
 754	3.7650e-01	7.5275	9.645088	0.000351	3.507290	0.594151	0.007013
 755	3.7700e-01	7.5360	9.675022	0.000299	2.994028	0.507202	0.005987
 756	3.7750e-01	7.5449	9.707094	0.000321	3.207887	0.543431	0.006414
 757	3.7800e-01	7.5568	9.729330	0.000222	2.224135	0.376779	0.004447
 758	3.7850e-01	7.5671	9.758836	0.000295	2.951256	0.499956	0.005901
 759	3.7900e-01	7.5764	9.788770	0.000299	2.994028	0.507202	0.005987
 760	3.7950e-01	7.5879	9.815283	0.000265	2.651853	0.449236	0.005303
 761	3.8000e-01	7.5952	9.850348	0.000351	3.507290	0.594151	0.007013
 762	3.8050e-01	7.6031	9.880710	0.000304	3.036800	0.514448	0.006072
 763	3.8100e-01	7.6172	9.899525	0.000188	1.881960	0.318813	0.003763
 764	3.8150e-01	7.6245	9.935018	0.000355	3.550062	0.601397	0.007099
 765	3.8200e-01	7.6334	9.973504	0.000385	3.849464	0.652117	0.007697
 766	3.8250e-01	7.6462	9.990182	0.000167	1.668101	0.282584	0.003335
 767	3.8300e-01	7.6569	10.025247	0.000351	3.507290	0.594151	0.007013
 768	3.8350e-01	7.6630	10.055181	0.000299	2.994028	0.507202	0.005987
 769	3.8400e-01	7.6773	10.090246	0.000351	3.507290	0.594151	0.007013
 770	3.8450e-01	7.6855	10.115903	0.000257	2.566310	0.434745	0.005132
 771	3.8500e-01	7.6955	10.146265	0.000304	3.036800	0.514448	0.006072
 772	3.8550e-01	7.7063	10.177909	0.000317	3.165115	0.536185	0.006329
 773	3.8600e-01	7.7173	10.207415	0.000295	2.951256	0.499956	0.005901
 774	3.8650e-01	7.7267	10.228797	0.000214	2.138591	0.362287	0.004276
 775	3.8700e-01	7.7374	10.266855	0.000381	3.806693	0.644871	0.007612
 776	3.8750e-01	7.7467	10.297644	0.000308	3.079572	0.521694	0.006158
 777	3.8800e-01	7.7533	10.330999	0.000334	3.336203	0.565168	0.006671
 778	3.8850e-01	7.7649	10.350670	0.000197	1.967504	0.333304	0.003934
 779	3.8900e-01	7.7747	10.379321	0.000287	2.865712	0.485465	0.005730
 780	3.8950e-01	7.7853	10.409254	0.000299	2.994028	0.507202	0.005987
 781	3.9000e-01	7.7954	10.443892	0.000346	3.464518	0.586905	0.006928
 782	3.9050e-01	7.8052	10.472543	0.000287	2.865712	0.485465	0.005730
 783	3.9100e-01	7.8168	10.504615	0.000321	3.207887	0.543431	0.006414
 784	3.9150e-01	7.8253	10.532838	0.000282	2.822941	0.478219	0.005645
 785	3.9200e-01	7.8357	10.566193	0.000334	3.336203	0.565168	0.006671
 786	3.9250e-01	7.8455	10.591850	0.000257	2.566310	0.434745	0.005132
 787	3.9300e-01	7.8568	10.622639	0.000308	3.079572	0.521694	0.006158
 788	3.9350e-01	7.8656	10.653856	0.000312	3.122343	0.528939	0.006243
 789	3.9400e-01	7.8778	10.682079	0.000282	2.822941	0.478219	0.005645
 790	3.9450e-01	7.8857	10.713724	0.000317	3.165115	0.536185	0.006329
 791	3.9500e-01	7.8986	10.741947	0.000282	2.822941	0.478219	0.005645
 792	3.9550e-01	7.9050	10.775302	0.000334	3.336203	0.565168	0.006671
 793	3.9600e-01	7.9163	10.803097	0.000278	2.780169	0.470973	0.005559
 794	3.9650e-01	7.9285	10.827900	0.000248	2.480766	0.420253	0.004960
 795	3.9700e-01	7.9376	10.865531	0.000376	3.763921	0.637625	0.007526
 796	3.9750e-01	7.9474	10.890333	0.000248	2.480766	0.420253	0.004960
 797	3.9800e-01	7.9553	10.916846	0.000265	2.651853	0.449236	0.005303
 798	3.9850e-01	7.9678	10.955760	0.000389	3.892236	0.659363	0.007783
 799	3.9900e-01	7.9758	10.984410	0.000287	2.865712	0.485465	0.005730
 800	3.9950e-01	7.9846	11.006647	0.000222	2.224135	0.376779	0.004447
 801	4.0000e-01	7.9944	11.047699	0.000411	4.106095	0.695591	0.008210
 802	4.0050e-01	8.0060	11.074639	0.000269	2.694625	0.456482	0.005388
 803	4.0100e-01	8.0145	11.105428	0.000308	3.079572	0.521694	0.006158
 804	4.0150e-01	8.0263	11.132796	0.000274	2.737397	0.463728	0.005474
 805	4.0200e-01	8.0389	11.161875	0.000291	2.908484	0.492711	0.005816
 806	4.0250e-01	8.0487	11.189671	0.000278	2.780169	0.470973	0.005559
 807	4.0300e-01	8.0554	11.223453	0.000338	3.378974	0.572414	0.006756
 808	4.0350e-01	8.0652	11.258518	0.000351	3.507290	0.594151	0.007013
 809	4.0400e-01	8.0768	11.288880	0.000304	3.036800	0.514448	0.006072
 810	4.0450e-01	8.0872	11.305985	0.000171	1.710873	0.289830	0.003421
 811	4.0500e-01	8.0951	11.342760	0.000368	3.678377	0.623134	0.007355
 812	4.0550e-01	8.1036	11.376543	0.000338	3.378974	0.572414	0.006756
 813	4.0600e-01	8.1152	11.403911	0.000274	2.737397	0.463728	0.005474
 814	4.0650e-01	8.1256	11.428285	0.000244	2.437994	0.413007	0.004875
 815	4.0700e-01	8.1342	11.458647	0.000304	3.036800	0.514448	0.006072
 816	4.0750e-01	8.1439	11.499271	0.000406	4.063324	0.688346	0.008125
 817	4.0800e-01	8.1555	11.527922	0.000287	2.865712	0.485465	0.005730
 818	4.0850e-01	8.1653	11.555718	0.000278	2.780169	0.470973	0.005559
 819	4.0900e-01	8.1757	11.584369	0.000287	2.865712	0.485465	0.005730
 820	4.0950e-01	8.1866	11.611737	0.000274	2.737397	0.463728	0.005474
 821	4.1000e-01	8.1958	11.646374	0.000346	3.464518	0.586905	0.006928
 822	4.1050e-01	8.2083	11.676736	0.000304	3.036800	0.514448	0.006072
 823	4.1100e-01	8.2153	11.699828	0.000231	2.309679	0.391270	0.004618
 824	4.1150e-01	8.2263	11.740452	0.000406	4.063324	0.688346	0.008125
 825	4.1200e-01	8.2385	11.761406	0.000210	2.095820	0.355041	0.004191
 826	4.1250e-01	8.2483	11.796043	0.000346	3.464518	0.586905	0.006928
 827	4.1300e-01	8.2568	11.831108	0.000351	3.507290	0.594151	0.007013
 828	4.1350e-01	8.2661	11.853773	0.000227	2.266907	0.384024	0.004533
 829	4.1400e-01	8.2770	11.884134	0.000304	3.036800	0.514448	0.006072
 830	4.1450e-01	8.2886	11.910219	0.000261	2.609081	0.441990	0.005217
 831	4.1500e-01	8.2947	11.951271	0.000411	4.106095	0.695591	0.008210
 832	4.1550e-01	8.3044	11.977356	0.000261	2.609081	0.441990	0.005217
 833	4.1600e-01	8.3194	11.998738	0.000214	2.138591	0.362287	0.004276
 834	4.1650e-01	8.3295	12.039362	0.000406	4.063324	0.688346	0.008125
 835	4.1700e-01	8.3363	12.068013	0.000287	2.865712	0.485465	0.005730
 836	4.1750e-01	8.3463	12.102223	0.000342	3.421746	0.579660	0.006842
 837	4.1800e-01	8.3563	12.129163	0.000269	2.694625	0.456482	0.005388
 838	4.1850e-01	8.3667	12.154821	0.000257	2.566310	0.434745	0.005132
 839	4.1900e-01	8.3759	12.193735	0.000389	3.892236	0.659363	0.007783
 840	4.1950e-01	8.3850	12.205281	0.000115	1.154839	0.195635	0.002309
 841	4.2000e-01	8.4012	12.247615	0.000423	4.234411	0.717329	0.008467
 842	4.2050e-01	8.4058	12.272418	0.000248	2.480766	0.420253	0.004960
 843	4.2100e-01	8.4195	12.301924	0.000295	2.951256	0.499956	0.005901
 844	4.2150e-01	8.4265	12.327154	0.000252	2.523538	0.427499	0.005046
 845	4.2200e-01	8.4357	12.370344	0.000432	4.319955	0.731820	0.008638
 846	4.2250e-01	8.4485	12.404126	0.000338	3.378974	0.572414	0.006756
 847	4.2300e-01	8.4552	12.434488	0.000304	3.036800	0.514448	0.006072
 848	4.2350e-01	8.4680	12.452876	0.000184	1.839189	0.311567	0.003678
 849	4.2400e-01	8.4753	12.495638	0.000428	4.277183	0.724574	0.008553
 850	4.2450e-01	8.4869	12.527710	0.000321	3.207887	0.543431	0.006414
 851	4.2500e-01	8.4964	12.555078	0.000274	2.737397	0.463728	0.005474
 852	4.2550e-01	8.5071	12.581163	0.000261	2.609081	0.441990	0.005217
 853	4.2600e-01	8.5156	12.615373	0.000342	3.421746	0.579660	0.006842
 854	4.2650e-01	8.5248	12.644024	0.000287	2.865712	0.485465	0.005730
 855	4.2700e-01	8.5365	12.680800	0.000368	3.678377	0.623134	0.007355
 856	4.2750e-01	8.5480	12.709451	0.000287	2.865712	0.485465	0.005730
 857	4.2800e-01	8.5602	12.739812	0.000304	3.036800	0.514448	0.006072
 858	4.2850e-01	8.5681	12.770601	0.000308	3.079572	0.521694	0.006158
 859	4.2900e-01	8.5745	12.806949	0.000364	3.635605	0.615888	0.007270
 860	4.2950e-01	8.5870	12.826620	0.000197	1.967504	0.333304	0.003934
 861	4.3000e-01	8.5950	12.862541	0.000359	3.592834	0.608642	0.007184
 862	4.3050e-01	8.6066	12.895895	0.000334	3.336203	0.565168	0.006671
 863	4.3100e-01	8.6188	12.923691	0.000278	2.780169	0.470973	0.005559
 864	4.3150e-01	8.6267	12.953625	0.000299	2.994028	0.507202	0.005987
 865	4.3200e-01	8.6353	12.989973	0.000364	3.635605	0.615888	0.007270
 866	4.3250e-01	8.6450	13.019051	0.000291	2.908484	0.492711	0.005816
 867	4.3300e-01	8.6554	13.044281	0.000252	2.523538	0.427499	0.005046
 868	4.3350e-01	8.6667	13.081912	0.000376	3.763921	0.637625	0.007526
 869	4.3400e-01	8.6768	13.110991	0.000291	2.908484	0.492711	0.005816
 870	4.3450e-01	8.6871	13.139642	0.000287	2.865712	0.485465	0.005730
 871	4.3500e-01	8.6951	13.172569	0.000329	3.293431	0.557922	0.006585
 872	4.3550e-01	8.7073	13.193523	0.000210	2.095820	0.355041	0.004191
 873	4.3600e-01	8.7195	13.229443	0.000359	3.592834	0.608642	0.007184
 874	4.3650e-01	8.7250	13.258094	0.000287	2.865712	0.485465	0.005730
 875	4.3700e-01	8.7347	13.295297	0.000372	3.721149	0.630380	0.007441
 876	4.3750e-01	8.7473	13.320955	0.000257	2.566310	0.434745	0.005132
 877	4.3800e-01	8.7561	13.357731	0.000368	3.678377	0.623134	0.007355
 878	4.3850e-01	8.7634	13.397927	0.000402	4.020552	0.681100	0.008039
 879	4.3900e-01	8.7750	13.424868	0.000269	2.694625	0.456482	0.005388
 880	4.3950e-01	8.7842	13.451381	0.000265	2.651853	0.449236	0.005303
 881	4.4000e-01	8.7991	13.478749	0.000274	2.737397	0.463728	0.005474
 882	4.4050e-01	8.8068	13.511248	0.000325	3.250659	0.550677	0.006500
 883	4.4100e-01	8.8187	13.547596	0.000364	3.635605	0.615888	0.007270
 884	4.4150e-01	8.8263	13.576675	0.000291	2.908484	0.492711	0.005816
 885	4.4200e-01	8.8379	13.608747	0.000321	3.207887	0.543431	0.006414
 886	4.4250e-01	8.8434	13.639536	0.000308	3.079572	0.521694	0.006158
 887	4.4300e-01	8.8562	13.665193	0.000257	2.566310	0.434745	0.005132
 888	4.4350e-01	8.8684	13.702824	0.000376	3.763921	0.637625	0.007526
 889	4.4400e-01	8.8770	13.729337	0.000265	2.651853	0.449236	0.005303
 890	4.4450e-01	8.8879	13.762264	0.000329	3.293431	0.557922	0.006585
 891	4.4500e-01	8.8953	13.797329	0.000351	3.507290	0.594151	0.007013
 892	4.4550e-01	8.9038	13.825553	0.000282	2.822941	0.478219	0.005645
 893	4.4600e-01	8.9172	13.867888	0.000423	4.234411	0.717329	0.008467
 894	4.4650e-01	8.9261	13.893118	0.000252	2.523538	0.427499	0.005046
 895	4.4700e-01	8.9386	13.924334	0.000312	3.122343	0.528939	0.006243
 896	4.4750e-01	8.9478	13.956406	0.000321	3.207887	0.543431	0.006414
 897	4.4800e-01	8.9566	13.994465	0.000381	3.806693	0.644871	0.007612
 898	4.4850e-01	8.9682	14.014991	0.000205	2.053048	0.347796	0.004105
 899	4.4900e-01	8.9735	14.048346	0.000334	3.336203	0.565168	0.006671
 900	4.4950e-01	8.9859	14.088542	0.000402	4.020552	0.681100	0.008039
 901	4.5000e-01	8.9954	14.109924	0.000214	2.138591	0.362287	0.004276
 902	4.5050e-01	9.0057	14.142423	0.000325	3.250659	0.550677	0.006500
 903	4.5100e-01	9.0161	14.179199	0.000368	3.678377	0.623134	0.007355
 904	4.5150e-01	9.0265	14.203573	0.000244	2.437994	0.413007	0.004875
 905	4.5200e-01	9.0356	14.242060	0.000385	3.849464	0.652117	0.007697
 906	4.5250e-01	9.0448	14.269855	0.000278	2.780169	0.470973	0.005559
 907	4.5300e-01	9.0558	14.307059	0.000372	3.721149	0.630380	0.007441
 908	4.5350e-01	9.0640	14.339986	0.000329	3.293431	0.557922	0.006585
 909	4.5400e-01	9.0753	14.369492	0.000295	2.951256	0.499956	0.005901
 910	4.5450e-01	9.0894	14.402847	0.000334	3.336203	0.565168	0.006671
 911	4.5500e-01	9.0955	14.424228	0.000214	2.138591	0.362287	0.004276
 912	4.5550e-01	9.1052	14.464853	0.000406	4.063324	0.688346	0.008125
 913	4.5600e-01	9.1174	14.504622	0.000398	3.977780	0.673854	0.007954
 914	4.5650e-01	9.1254	14.530279	0.000257	2.566310	0.434745	0.005132
 915	4.5700e-01	9.1364	14.563206	0.000329	3.293431	0.557922	0.006585
 916	4.5750e-01	9.1452	14.599982	0.000368	3.678377	0.623134	0.007355
 917	4.5800e-01	9.1547	14.630344	0.000304	3.036800	0.514448	0.006072
 918	4.5850e-01	9.1675	14.655146	0.000248	2.480766	0.420253	0.004960
 919	4.5900e-01	9.1772	14.685080	0.000299	2.994028	0.507202	0.005987
 920	4.5950e-01	9.1858	14.729980	0.000449	4.491042	0.760803	0.008980
 921	4.6000e-01	9.1965	14.764618	0.000346	3.464518	0.586905	0.006928
 922	4.6050e-01	9.2072	14.787282	0.000227	2.266907	0.384024	0.004533
 923	4.6100e-01	9.2154	14.818071	0.000308	3.079572	0.521694	0.006158
 924	4.6150e-01	9.2276	14.854847	0.000368	3.678377	0.623134	0.007355
 925	4.6200e-01	9.2358	14.886919	0.000321	3.207887	0.543431	0.006414
 926	4.6250e-01	9.2441	14.920273	0.000334	3.336203	0.565168	0.006671
 927	4.6300e-01	9.2560	14.958332	0.000381	3.806693	0.644871	0.007612
 928	4.6350e-01	9.2664	14.989121	0.000308	3.079572	0.521694	0.006158
 929	4.6400e-01	9.2767	15.025469	0.000364	3.635605	0.615888	0.007270
 930	4.6450e-01	9.2859	15.048989	0.000235	2.352451	0.398516	0.004704
 931	4.6500e-01	9.2969	15.082343	0.000334	3.336203	0.565168	0.006671
 932	4.6550e-01	9.3048	15.124251	0.000419	4.191639	0.710083	0.008381
 933	4.6600e-01	9.3167	15.146487	0.000222	2.224135	0.376779	0.004447
 934	4.6650e-01	9.3262	15.183691	0.000372	3.721149	0.630380	0.007441
 935	4.6700e-01	9.3372	15.224743	0.000411	4.106095	0.695591	0.008210
 936	4.6750e-01	9.3465	15.258525	0.000338	3.378974	0.572414	0.006756
 937	4.6800e-01	9.3536	15.288031	0.000295	2.951256	0.499956	0.005901
 938	4.6850e-01	9.3677	15.315827	0.000278	2.780169	0.470973	0.005559
 939	4.6900e-01	9.3768	15.353030	0.000372	3.721149	0.630380	0.007441
 940	4.6950e-01	9.3878	15.387668	0.000346	3.464518	0.586905	0.006928
 941	4.7000e-01	9.3976	15.413325	0.000257	2.566310	0.434745	0.005132
 942	4.7050e-01	9.4046	15.452239	0.000389	3.892236	0.659363	0.007783
 943	4.7100e-01	9.4171	15.482601	0.000304	3.036800	0.514448	0.006072
 944	4.7150e-01	9.4247	15.518949	0.000364	3.635605	0.615888	0.007270
 945	4.7200e-01	9.4336	15.556152	0.000372	3.721149	0.630380	0.007441
 946	4.7250e-01	9.4464	15.586086	0.000299	2.994028	0.507202	0.005987
 947	4.7300e-01	9.4562	15.623289	0.000372	3.721149	0.630380	0.007441
 948	4.7350e-01	9.4653	15.657499	0.000342	3.421746	0.579660	0.006842
 949	4.7400e-01	9.4757	15.692565	0.000351	3.507290	0.594151	0.007013
 950	4.7450e-01	9.4849	15.722926	0.000304	3.036800	0.514448	0.006072
 951	4.7500e-01	9.4958	15.757991	0.000351	3.507290	0.594151	0.007013
 952	4.7550e-01	9.5068	15.795622	0.000376	3.763921	0.637625	0.007526
 953	4.7600e-01	9.5160	15.821708	0.000261	2.609081	0.441990	0.005217
 954	4.7650e-01	9.5270	15.863187	0.000415	4.148867	0.702837	0.008296
 955	4.7700e-01	9.5343	15.890128	0.000269	2.694625	0.456482	0.005388
 956	4.7750e-01	9.5447	15.923055	0.000329	3.293431	0.557922	0.006585
 957	4.7800e-01	9.5557	15.956837	0.000338	3.378974	0.572414	0.006756
 958	4.7850e-01	9.5642	16.001738	0.000449	4.491042	0.760803	0.008980
 959	4.7900e-01	9.5755	16.038514	0.000368	3.678377	0.623134	0.007355
 960	4.7950e-01	9.5850	16.061178	0.000227	2.266907	0.384024	0.004533
 961	4.8000e-01	9.5966	16.097953	0.000368	3.678377	0.623134	0.007355
 962	4.8050e-01	9.6045	16.137295	0.000394	3.935008	0.666608	0.007868
 963	4.8100e-01	9.6155	16.168512	0.000312	3.122343	0.528939	0.006243
 964	4.8150e-01	9.6289	16.211702	0.000432	4.319955	0.731820	0.008638
 965	4.8200e-01	9.6368	16.236504	0.000248	2.480766	0.420253	0.004960
 966	4.8250e-01	9.6443	16.271569	0.000351	3.507290	0.594151	0.007013
 967	4.8300e-01	9.6588	16.307490	0.000359	3.592834	0.608642	0.007184
 968	4.8350e-01	9.6643	16.346831	0.000394	3.935008	0.666608	0.007868
 969	4.8400e-01	9.6790	16.381897	0.000351	3.507290	0.594151	0.007013
 970	4.8450e-01	9.6857	16.415251	0.000334	3.336203	0.565168	0.006671
 971	4.8500e-01	9.6948	16.447323	0.000321	3.207887	0.543431	0.006414
 972	4.8550e-01	9.7058	16.486665	0.000394	3.935008	0.666608	0.007868
 973	4.8600e-01	9.7156	16.521730	0.000351	3.507290	0.594151	0.007013
 974	4.8650e-01	9.7266	16.554230	0.000325	3.250659	0.550677	0.006500
 975	4.8700e-01	9.7388	16.588012	0.000338	3.378974	0.572414	0.006756
 976	4.8750e-01	9.7455	16.624360	0.000364	3.635605	0.615888	0.007270
 977	4.8800e-01	9.7565	16.664985	0.000406	4.063324	0.688346	0.008125
 978	4.8850e-01	9.7632	16.701760	0.000368	3.678377	0.623134	0.007355
 979	4.8900e-01	9.7760	16.731694	0.000299	2.994028	0.507202	0.005987
 980	4.8950e-01	9.7835	16.768898	0.000372	3.721149	0.630380	0.007441
 981	4.9000e-01	9.7955	16.809094	0.000402	4.020552	0.681100	0.008039
 982	4.9050e-01	9.8047	16.834752	0.000257	2.566310	0.434745	0.005132
 983	4.9100e-01	9.8157	16.873238	0.000385	3.849464	0.652117	0.007697
 984	4.9150e-01	9.8267	16.912152	0.000389	3.892236	0.659363	0.007783
 985	4.9200e-01	9.8352	16.948500	0.000364	3.635605	0.615888	0.007270
 986	4.9250e-01	9.8486	16.987842	0.000394	3.935008	0.666608	0.007868
 987	4.9300e-01	9.8590	17.020769	0.000329	3.293431	0.557922	0.006585
 988	4.9350e-01	9.8633	17.061821	0.000411	4.106095	0.695591	0.008210
 989	4.9400e-01	9.8764	17.098597	0.000368	3.678377	0.623134	0.007355
 990	4.9450e-01	9.8853	17.132379	0.000338	3.378974	0.572414	0.006756
 991	4.9500e-01	9.8962	17.168300	0.000359	3.592834	0.608642	0.007184
 992	4.9550e-01	9.9060	17.200799	0.000325	3.250659	0.550677	0.006500
 993	4.9600e-01	9.9182	17.237575	0.000368	3.678377	0.623134	0.007355
 994	4.9650e-01	9.9255	17.271785	0.000342	3.421746	0.579660	0.006842
 995	4.9700e-01	9.9347	17.315403	0.000436	4.362726	0.739066	0.008724
 996	4.9750e-01	9.9445	17.352606	0.000372	3.721149	0.630380	0.007441
 997	4.9800e-01	9.9536	17.386388	0.000338	3.378974	0.572414	0.006756
 998	4.9850e-01	9.9664	17.426585	0.000402	4.020552	0.681100	0.008039
 999	4.9900e-01	9.9753	17.463789	0.000372	3.721149	0.630380	0.007441
1000	4.9950e-01	9.9841	17.492439	0.000287	2.865712	0.485465	0.005730
1001	5.0000e-01	9.9921	17.538623	0.000462	4.619357	0.782540	0.009237
1002	5.0050e-01	9.9854	17.525794	0.000128	1.283155	0.217372	-0.002566
1003	5.0100e-01	9.9768	17.520663	0.000051	0.513262	0.086949	-0.001026
1004	5.0150e-01	9.9652	17.512110	0.000086	0.855437	0.144915	-0.001711
1005	5.0200e-01	9.9539	17.500564	0.000115	1.154839	0.195635	-0.002309
1006	5.0250e-01	9.9445	17.495433	0.000051	0.513262	0.086949	-0.001026
1007	5.0300e-01	9.9359	17.483459	0.000120	1.197611	0.202881	-0.002395
1008	5.0350e-01	9.9271	17.475762	0.000077	0.769893	0.130423	-0.001539
1009	5.0400e-01	9.9164	17.462933	0.000128	1.283155	0.217372	-0.002566
1010	5.0450e-01	9.9060	17.448822	0.000141	1.411470	0.239110	-0.002822
1011	5.0500e-01	9.8956	17.444545	0.000043	0.427718	0.072457	-0.000855
1012	5.0550e-01	9.8849	17.438986	0.000056	0.556034	0.094195	-0.001112
1013	5.0600e-01	9.8743	17.420598	0.000184	1.839189	0.311567	-0.003678
1014	5.0650e-01	9.8663	17.406914	0.000137	1.368698	0.231864	-0.002737
1015	5.0700e-01	9.8560	17.395796	0.000111	1.112068	0.188389	-0.002224
1016	5.0750e-01	9.8462	17.381685	0.000141	1.411470	0.239110	-0.002822
1017	5.0800e-01	9.8358	17.370139	0.000115	1.154839	0.195635	-0.002309
1018	5.0850e-01	9.8260	17.356455	0.000137	1.368698	0.231864	-0.002737
1019	5.0900e-01	9.8138	17.349613	0.000068	0.684349	0.115932	-0.001368
1020	5.0950e-01	9.8077	17.319251	0.000304	3.036800	0.514448	-0.006072
1021	5.1000e-01	9.7975	17.305140	0.000141	1.411470	0.239110	-0.002822
1022	5.1050e-01	9.7855	17.296159	0.000090	0.898208	0.152161	-0.001796
1023	5.1100e-01	9.7766	17.277772	0.000184	1.839189	0.311567	-0.003678
1024	5.1150e-01	9.7632	17.274351	0.000034	0.342175	0.057966	-0.000684
1025	5.1200e-01	9.7546	17.243989	0.000304	3.036800	0.514448	-0.006072
1026	5.1250e-01	9.7476	17.245700	-0.000017	-0.171087	-0.028983	0.000342
1027	5.1300e-01	9.7363	17.229878	0.000158	1.582558	0.268093	-0.003164
1028	5.1350e-01	9.7253	17.210207	0.000197	1.967504	0.333304	-0.003934
1029	5.1400e-01	9.7174	17.194812	0.000154	1.539786	0.260847	-0.003079
1030	5.1450e-01	9.7070	17.181984	0.000128	1.283155	0.217372	-0.002566
1031	5.1500e-01	9.6973	17.169155	0.000128	1.283155	0.217372	-0.002566
1032	5.1550e-01	9.6863	17.149056	0.000201	2.010276	0.340550	-0.004020
1033	5.1600e-01	9.6759	17.129386	0.000197	1.967504	0.333304	-0.003934
1034	5.1650e-01	9.6655	17.111853	0.000175	1.753645	0.297075	-0.003507
1035	5.1700e-01	9.6558	17.101590	0.000103	1.026524	0.173898	-0.002053
1036	5.1750e-01	9.6454	17.078071	0.000235	2.352451	0.398516	-0.004704
1037	5.1800e-01	9.6356	17.066097	0.000120	1.197611	0.202881	-0.002395
1038	5.1850e-01	9.6228	17.047709	0.000184	1.839189	0.311567	-0.003678
1039	5.1900e-01	9.6155	17.028466	0.000192	1.924732	0.326058	-0.003849
1040	5.1950e-01	9.6045	17.009651	0.000188	1.881960	0.318813	-0.003763
1041	5.2000e-01	9.5947	16.986559	0.000231	2.309679	0.391270	-0.004618
1042	5.2050e-01	9.5874	16.967316	0.000192	1.924732	0.326058	-0.003849
1043	5.2100e-01	9.5761	16.955342	0.000120	1.197611	0.202881	-0.002395
1044	5.2150e-01	9.5642	16.938665	0.000167	1.668101	0.282584	-0.003335
1045	5.2200e-01	9.5563	16.920277	0.000184	1.839189	0.311567	-0.003678
1046	5.2250e-01	9.5465	16.907876	0.000124	1.240383	0.210127	-0.002480
1047	5.2300e-01	9.5355	16.882218	0.000257	2.566310	0.434745	-0.005132
1048	5.2350e-01	9.5276	16.865541	0.000167	1.668101	0.282584	-0.003335
1049	5.2400e-01	9.5166	16.848008	0.000175	1.753645	0.297075	-0.003507
1050	5.2450e-01	9.5062	16.827910	0.000201	2.010276	0.340550	-0.004020
1051	5.2500e-01	9.4946	16.806529	0.000214	2.138591	0.362287	-0.004276
1052	5.2550e-01	9.4867	16.789424	0.000171	1.710873	0.289830	-0.003421
1053	5.2600e-01	9.4778	16.771891	0.000175	1.753645	0.297075	-0.003507
1054	5.2650e-01	9.4653	16.756924	0.000150	1.497014	0.253601	-0.002993
1055	5.2700e-01	9.4537	16.732977	0.000240	2.395222	0.405762	-0.004789
1056	5.2750e-01	9.4452	16.726990	0.000060	0.598806	0.101440	-0.001197
1057	5.2800e-01	9.4354	16.703043	0.000240	2.395222	0.405762	-0.004789
1058	5.2850e-01	9.4287	16.682517	0.000205	2.053048	0.347796	-0.004105
1059	5.2900e-01	9.4171	16.659853	0.000227	2.266907	0.384024	-0.004533
1060	5.2950e-01	9.4086	16.638044	0.000218	2.181363	0.369533	-0.004362
1061	5.3000e-01	9.3964	16.622222	0.000158	1.582558	0.268093	-0.003164
1062	5.3050e-01	9.3878	16.600841	0.000214	2.138591	0.362287	-0.004276
1063	5.3100e-01	9.3750	16.582453	0.000184	1.839189	0.311567	-0.003678
1064	5.3150e-01	9.3655	16.570907	0.000115	1.154839	0.195635	-0.002309
1065	5.3200e-01	9.3573	16.536269	0.000346	3.464518	0.586905	-0.006928
1066	5.3250e-01	9.3469	16.524723	0.000115	1.154839	0.195635	-0.002309
1067	5.3300e-01	9.3365	16.499921	0.000248	2.480766	0.420253	-0.004960
1068	5.3350e-01	9.3268	16.481961	0.000180	1.796417	0.304321	-0.003592
1069	5.3400e-01	9.3164	16.464428	0.000175	1.753645	0.297075	-0.003507
1070	5.3450e-01	9.3112	16.443475	0.000210	2.095820	0.355041	-0.004191
1071	5.3500e-01	9.2981	16.427225	0.000163	1.625329	0.275338	-0.003250
1072	5.3550e-01	9.2859	16.394725	0.000325	3.250659	0.550677	-0.006500
1073	5.3600e-01	9.2767	16.382752	0.000120	1.197611	0.202881	-0.002395
1074	5.3650e-01	9.2682	16.361371	0.000214	2.138591	0.362287	-0.004276
1075	5.3700e-01	9.2554	16.340845	0.000205	2.053048	0.347796	-0.004105
1076	5.3750e-01	9.2474	16.320746	0.000201	2.010276	0.340550	-0.004020
1077	5.3800e-01	9.2358	16.297654	0.000231	2.309679	0.391270	-0.004618
1078	5.3850e-01	9.2258	16.281832	0.000158	1.582558	0.268093	-0.003164
1079	5.3900e-01	9.2188	16.259596	0.000222	2.224135	0.376779	-0.004447
1080	5.3950e-01	9.2065	16.233511	0.000261	2.609081	0.441990	-0.005217
1081	5.4000e-01	9.1974	16.221965	0.000115	1.154839	0.195635	-0.002309
1082	5.4050e-01	9.1864	16.193742	0.000282	2.822941	0.478219	-0.005645
1083	5.4100e-01	9.1772	16.170650	0.000231	2.309679	0.391270	-0.004618
1084	5.4150e-01	9.1681	16.146275	0.000244	2.437994	0.413007	-0.004875
1085	5.4200e-01	9.1547	16.133446	0.000128	1.283155	0.217372	-0.002566
1086	5.4250e-01	9.1449	16.111210	0.000222	2.224135	0.376779	-0.004447
1087	5.4300e-01	9.1382	16.088973	0.000222	2.224135	0.376779	-0.004447
1088	5.4350e-01	9.1272	16.065026	0.000240	2.395222	0.405762	-0.004789
1089	5.4400e-01	9.1169	16.044073	0.000210	2.095820	0.355041	-0.004191
1090	5.4450e-01	9.1080	16.025257	0.000188	1.881960	0.318813	-0.003763
1091	5.4500e-01	9.0961	16.008152	0.000171	1.710873	0.289830	-0.003421
1092	5.4550e-01	9.0857	15.977791	0.000304	3.036800	0.514448	-0.006072
1093	5.4600e-01	9.0759	15.960686	0.000171	1.710873	0.289830	-0.003421
1094	5.4650e-01	9.0698	15.936739	0.000240	2.395222	0.405762	-0.004789
1095	5.4700e-01	9.0579	15.923055	0.000137	1.368698	0.231864	-0.002737
1096	5.4750e-01	9.0479	15.894404	0.000287	2.865712	0.485465	-0.005730
1097	5.4800e-01	9.0375	15.871740	0.000227	2.266907	0.384024	-0.004533
1098	5.4850e-01	9.0259	15.854635	0.000171	1.710873	0.289830	-0.003421
1099	5.4900e-01	9.0167	15.831543	0.000231	2.309679	0.391270	-0.004618
1100	5.4950e-01	9.0063	15.806741	0.000248	2.480766	0.420253	-0.004960
1101	5.5000e-01	8.9978	15.783221	0.000235	2.352451	0.398516	-0.004704
1102	5.5050e-01	8.9874	15.770393	0.000128	1.283155	0.217372	-0.002566
1103	5.5100e-01	8.9772	15.743880	0.000265	2.651853	0.449236	-0.005303
1104	5.5150e-01	8.9655	15.727630	0.000163	1.625329	0.275338	-0.003250
1105	5.5200e-01	8.9551	15.706249	0.000214	2.138591	0.362287	-0.004276
1106	5.5250e-01	8.9490	15.676743	0.000295	2.951256	0.499956	-0.005901
1107	5.5300e-01	8.9374	15.656217	0.000205	2.053048	0.347796	-0.004105
1108	5.5350e-01	8.9252	15.638684	0.000175	1.753645	0.297075	-0.003507
1109	5.5400e-01	8.9160	15.611316	0.000274	2.737397	0.463728	-0.005474
1110	5.5450e-01	8.9063	15.583093	0.000282	2.822941	0.478219	-0.005645
1111	5.5500e-01	8.8971	15.566843	0.000163	1.625329	0.275338	-0.003250
1112	5.5550e-01	8.8867	15.548883	0.000180	1.796417	0.304321	-0.003592
1113	5.5600e-01	8.8766	15.523653	0.000252	2.523538	0.427499	-0.005046
1114	5.5650e-01	8.8672	15.495857	0.000278	2.780169	0.470973	-0.005559
1115	5.5700e-01	8.8538	15.487305	0.000086	0.855437	0.144915	-0.001711
1116	5.5750e-01	8.8440	15.458654	0.000287	2.865712	0.485465	-0.005730
1117	5.5800e-01	8.8348	15.442832	0.000158	1.582558	0.268093	-0.003164
1118	5.5850e-01	8.8269	15.404773	0.000381	3.806693	0.644871	-0.007612
1119	5.5900e-01	8.8184	15.390234	0.000145	1.454242	0.246355	-0.002908
1120	5.5950e-01	8.8062	15.368425	0.000218	2.181363	0.369533	-0.004362
1121	5.6000e-01	8.7946	15.349182	0.000192	1.924732	0.326058	-0.003849
1122	5.6050e-01	8.7872	15.325235	0.000240	2.395222	0.405762	-0.004789
1123	5.6100e-01	8.7793	15.303853	0.000214	2.138591	0.362287	-0.004276
1124	5.6150e-01	8.7646	15.279906	0.000240	2.395222	0.405762	-0.004789
1125	5.6200e-01	8.7549	15.267078	0.000128	1.283155	0.217372	-0.002566
1126	5.6250e-01	8.7451	15.231585	0.000355	3.550062	0.601397	-0.007099
1127	5.6300e-01	8.7366	15.208493	0.000231	2.309679	0.391270	-0.004618
1128	5.6350e-01	8.7262	15.190105	0.000184	1.839189	0.311567	-0.003678
1129	5.6400e-01	8.7167	15.164020	0.000261	2.609081	0.441990	-0.005217
1130	5.6450e-01	8.7068	15.140500	0.000235	2.352451	0.398516	-0.004704
1131	5.6500e-01	8.6969	15.119974	0.000205	2.053048	0.347796	-0.004105
1132	5.6550e-01	8.6896	15.096883	0.000231	2.309679	0.391270	-0.004618
1133	5.6600e-01	8.6771	15.071653	0.000252	2.523538	0.427499	-0.005046
1134	5.6650e-01	8.6664	15.053265	0.000184	1.839189	0.311567	-0.003678
1135	5.6700e-01	8.6548	15.035732	0.000175	1.753645	0.297075	-0.003507
1136	5.6750e-01	8.6475	15.002805	0.000329	3.293431	0.557922	-0.006585
1137	5.6800e-01	8.6371	14.983990	0.000188	1.881960	0.318813	-0.003763
1138	5.6850e-01	8.6243	14.958332	0.000257	2.566310	0.434745	-0.005132
1139	5.6900e-01	8.6145	14.938234	0.000201	2.010276	0.340550	-0.004020
1140	5.6950e-01	8.6072	14.913859	0.000244	2.437994	0.413007	-0.004875
1141	5.7000e-01	8.5980	14.892905	0.000210	2.095820	0.355041	-0.004191
1142	5.7050e-01	8.5864	14.866393	0.000265	2.651853	0.449236	-0.005303
1143	5.7100e-01	8.5760	14.845867	0.000205	2.053048	0.347796	-0.004105
1144	5.7150e-01	8.5693	14.822347	0.000235	2.352451	0.398516	-0.004704
1145	5.7200e-01	8.5562	14.794979	0.000274	2.737397	0.463728	-0.005474
1146	5.7250e-01	8.5455	14.778302	0.000167	1.668101	0.282584	-0.003335
1147	5.7300e-01	8.5376	14.750934	0.000274	2.737397	0.463728	-0.005474
1148	5.7350e-01	8.5278	14.721428	0.000295	2.951256	0.499956	-0.005901
1149	5.7400e-01	8.5156	14.712020	0.000094	0.940980	0.159406	-0.001882
1150	5.7450e-01	8.5065	14.685507	0.000265	2.651853	0.449236	-0.005303
1151	5.7500e-01	8.4943	14.663271	0.000222	2.224135	0.376779	-0.004447
1152	5.7550e-01	8.4888	14.642317	0.000210	2.095820	0.355041	-0.004191
1153	5.7600e-01	8.4784	14.612383	0.000299	2.994028	0.507202	-0.005987
1154	5.7650e-01	8.4656	14.585443	0.000269	2.694625	0.456482	-0.005388
1155	5.7700e-01	8.4528	14.569193	0.000163	1.625329	0.275338	-0.003250
1156	5.7750e-01	8.4485	14.543963	0.000252	2.523538	0.427499	-0.005046
1157	5.7800e-01	8.4369	14.517450	0.000265	2.651853	0.449236	-0.005303
1158	5.7850e-01	8.4265	14.493503	0.000240	2.395222	0.405762	-0.004789
1159	5.7900e-01	8.4149	14.474688	0.000188	1.881960	0.318813	-0.003763
1160	5.7950e-01	8.4058	14.445182	0.000295	2.951256	0.499956	-0.005901
1161	5.8000e-01	8.3984	14.429360	0.000158	1.582558	0.268093	-0.003164
1162	5.8050e-01	8.3878	14.404130	0.000252	2.523538	0.427499	-0.005046
1163	5.8100e-01	8.3752	14.376334	0.000278	2.780169	0.470973	-0.005559
1164	5.8150e-01	8.3667	14.362222	0.000141	1.411470	0.239110	-0.002822
1165	5.8200e-01	8.3582	14.329723	0.000325	3.250659	0.550677	-0.006500
1166	5.8250e-01	8.3456	14.309197	0.000205	2.053048	0.347796	-0.004105
1167	5.8300e-01	8.3411	14.281829	0.000274	2.737397	0.463728	-0.005474
1168	5.8350e-01	8.3276	14.251040	0.000308	3.079572	0.521694	-0.006158
1169	5.8400e-01	8.3160	14.248902	0.000021	0.213859	0.036229	-0.000428
1170	5.8450e-01	8.3069	14.214264	0.000346	3.464518	0.586905	-0.006928
1171	5.8500e-01	8.2938	14.194593	0.000197	1.967504	0.333304	-0.003934
1172	5.8550e-01	8.2861	14.168508	0.000261	2.609081	0.441990	-0.005217
1173	5.8600e-01	8.2758	14.141140	0.000274	2.737397	0.463728	-0.005474
1174	5.8650e-01	8.2642	14.125746	0.000154	1.539786	0.260847	-0.003079
1175	5.8700e-01	8.2556	14.091108	0.000346	3.464518	0.586905	-0.006928
1176	5.8750e-01	8.2489	14.073148	0.000180	1.796417	0.304321	-0.003592
1177	5.8800e-01	8.2370	14.040221	0.000329	3.293431	0.557922	-0.006585
1178	5.8850e-01	8.2291	14.019267	0.000210	2.095820	0.355041	-0.004191
1179	5.8900e-01	8.2190	13.996603	0.000227	2.266907	0.384024	-0.004533
1180	5.8950e-01	8.2068	13.967524	0.000291	2.908484	0.492711	-0.005816
1181	5.9000e-01	8.1970	13.944860	0.000227	2.266907	0.384024	-0.004533
1182	5.9050e-01	8.1854	13.931604	0.000133	1.325927	0.224618	-0.002651
1183	5.9100e-01	8.1781	13.901670	0.000299	2.994028	0.507202	-0.005987
1184	5.9150e-01	8.1689	13.877295	0.000244	2.437994	0.413007	-0.004875
1185	5.9200e-01	8.1580	13.850355	0.000269	2.694625	0.456482	-0.005388
1186	5.9250e-01	8.1482	13.825980	0.000244	2.437994	0.413007	-0.004875
1187	5.9300e-01	8.1386	13.805454	0.000205	2.053048	0.347796	-0.004105
1188	5.9350e-01	8.1274	13.781080	0.000244	2.437994	0.413007	-0.004875
1189	5.9400e-01	8.1165	13.754567	0.000265	2.651853	0.449236	-0.005303
1190	5.9450e-01	8.1070	13.736607	0.000180	1.796417	0.304321	-0.003592
1191	5.9500e-01	8.0965	13.708811	0.000278	2.780169	0.470973	-0.005559
1192	5.9550e-01	8.0890	13.689996	0.000188	1.881960	0.318813	-0.003763
1193	5.9600e-01	8.0777	13.655358	0.000346	3.464518	0.586905	-0.006928
1194	5.9650e-01	8.0649	13.636115	0.000192	1.924732	0.326058	-0.003849
1195	5.9700e-01	8.0573	13.614306	0.000218	2.181363	0.369533	-0.004362
1196	5.9750e-01	8.0438	13.601477	0.000128	1.283155	0.217372	-0.002566
1197	5.9800e-01	8.0377	13.572826	0.000287	2.865712	0.485465	-0.005730
1198	5.9850e-01	8.0261	13.539471	0.000334	3.336203	0.565168	-0.006671
1199	5.9900e-01	8.0154	13.516807	0.000227	2.266907	0.384024	-0.004533
1200	5.9950e-01	8.0096	13.492005	0.000248	2.480766	0.420253	-0.004960
1201	6.0000e-01	7.9956	13.467630	0.000244	2.437994	0.413007	-0.004875
1202	6.0050e-01	7.9871	13.443683	0.000240	2.395222	0.405762	-0.004789
1203	6.0100e-01	7.9767	13.421874	0.000218	2.181363	0.369533	-0.004362
1204	6.0150e-01	7.9642	13.397927	0.000240	2.395222	0.405762	-0.004789
1205	6.0200e-01	7.9550	13.367566	0.000304	3.036800	0.514448	-0.006072
1206	6.0250e-01	7.9489	13.348323	0.000192	1.924732	0.326058	-0.003849
1207	6.0300e-01	7.9388	13.317534	0.000308	3.079572	0.521694	-0.006158
1208	6.0350e-01	7.9248	13.295297	0.000222	2.224135	0.376779	-0.004447
1209	6.0400e-01	7.9163	13.279048	0.000163	1.625329	0.275338	-0.003250
1210	6.0450e-01	7.9095	13.248259	0.000308	3.079572	0.521694	-0.006158
1211	6.0500e-01	7.8949	13.220891	0.000274	2.737397	0.463728	-0.005474
1212	6.0550e-01	7.8857	13.198654	0.000222	2.224135	0.376779	-0.004447
1213	6.0600e-01	7.8748	13.169148	0.000295	2.951256	0.499956	-0.005901
1214	6.0650e-01	7.8668	13.146911	0.000222	2.224135	0.376779	-0.004447
1215	6.0700e-01	7.8549	13.123392	0.000235	2.352451	0.398516	-0.004704
1216	6.0750e-01	7.8455	13.096452	0.000269	2.694625	0.456482	-0.005388
1217	6.0800e-01	7.8363	13.075498	0.000210	2.095820	0.355041	-0.004191
1218	6.0850e-01	7.8241	13.053689	0.000218	2.181363	0.369533	-0.004362
1219	6.0900e-01	7.8192	13.023328	0.000304	3.036800	0.514448	-0.006072
1220	6.0950e-01	7.8052	12.995960	0.000274	2.737397	0.463728	-0.005474
1221	6.1000e-01	7.7948	12.975006	0.000210	2.095820	0.355041	-0.004191
1222	6.1050e-01	7.7838	12.947210	0.000278	2.780169	0.470973	-0.005559
1223	6.1100e-01	7.7777	12.924119	0.000231	2.309679	0.391270	-0.004618
1224	6.1150e-01	7.7661	12.908724	0.000154	1.539786	0.260847	-0.003079
1225	6.1200e-01	7.7551	12.876652	0.000321	3.207887	0.543431	-0.006414
1226	6.1250e-01	7.7435	12.849712	0.000269	2.694625	0.456482	-0.005388
1227	6.1300e-01	7.7370	12.826620	0.000231	2.309679	0.391270	-0.004618
1228	6.1350e-01	7.7277	12.794121	0.000325	3.250659	0.550677	-0.006500
1229	6.1400e-01	7.7222	12.777871	0.000163	1.625329	0.275338	-0.003250
1230	6.1450e-01	7.7075	12.742378	0.000355	3.550062	0.601397	-0.007099
1231	6.1500e-01	7.6978	12.732115	0.000103	1.026524	0.173898	-0.002053
1232	6.1550e-01	7.6849	12.698333	0.000338	3.378974	0.572414	-0.006756
1233	6.1600e-01	7.6761	12.673530	0.000248	2.480766	0.420253	-0.004960
1234	6.1650e-01	7.6654	12.658991	0.000145	1.454242	0.246355	-0.002908
1235	6.1700e-01	7.6563	12.626491	0.000325	3.250659	0.550677	-0.006500
1236	6.1750e-01	7.6489	12.588860	0.000376	3.763921	0.637625	-0.007526
1237	6.1800e-01	7.6349	12.578170	0.000107	1.069296	0.181144	-0.002138
1238	6.1850e-01	7.6263	12.549947	0.000282	2.822941	0.478219	-0.005645
1239	6.1900e-01	7.6154	12.526855	0.000231	2.309679	0.391270	-0.004618
1240	6.1950e-01	7.6062	12.500770	0.000261	2.609081	0.441990	-0.005217
1241	6.2000e-01	7.5964	12.477678	0.000231	2.309679	0.391270	-0.004618
1242	6.2050e-01	7.5854	12.455869	0.000218	2.181363	0.369533	-0.004362
1243	6.2100e-01	7.5748	12.420376	0.000355	3.550062	0.601397	-0.007099
1244	6.2150e-01	7.5671	12.396429	0.000240	2.395222	0.405762	-0.004789
1245	6.2200e-01	7.5551	12.372910	0.000235	2.352451	0.398516	-0.004704
1246	6.2250e-01	7.5476	12.360936	0.000120	1.197611	0.202881	-0.002395
1247	6.2300e-01	7.5378	12.325016	0.000359	3.592834	0.608642	-0.007184
1248	6.2350e-01	7.5269	12.293371	0.000317	3.165115	0.536185	-0.006329
1249	6.2400e-01	7.5183	12.275839	0.000175	1.753645	0.297075	-0.003507
1250	6.2450e-01	7.5061	12.245050	0.000308	3.079572	0.521694	-0.006158
1251	6.2500e-01	7.4976	12.222813	0.000222	2.224135	0.376779	-0.004447
1252	6.2550e-01	7.4860	12.197156	0.000257	2.566310	0.434745	-0.005132
1253	6.2600e-01	7.4768	12.168505	0.000287	2.865712	0.485465	-0.005730
1254	6.2650e-01	7.4664	12.145413	0.000231	2.309679	0.391270	-0.004618
1255	6.2700e-01	7.4548	12.126170	0.000192	1.924732	0.326058	-0.003849
1256	6.2750e-01	7.4471	12.095381	0.000308	3.079572	0.521694	-0.006158
1257	6.2800e-01	7.4365	12.065875	0.000295	2.951256	0.499956	-0.005901
1258	6.2850e-01	7.4261	12.050053	0.000158	1.582558	0.268093	-0.003164
1259	6.2900e-01	7.4158	12.023540	0.000265	2.651853	0.449236	-0.005303
1260	6.2950e-01	7.4048	11.988047	0.000355	3.550062	0.601397	-0.007099
1261	6.3000e-01	7.3962	11.968804	0.000192	1.924732	0.326058	-0.003849
1262	6.3050e-01	7.3846	11.936732	0.000321	3.207887	0.543431	-0.006414
1263	6.3100e-01	7.3770	11.914923	0.000218	2.181363	0.369533	-0.004362
1264	6.3150e-01	7.3703	11.892687	0.000222	2.224135	0.376779	-0.004447
1265	6.3200e-01	7.3560	11.868739	0.000240	2.395222	0.405762	-0.004789
1266	6.3250e-01	7.3468	11.840944	0.000278	2.780169	0.470973	-0.005559
1267	6.3300e-01	7.3358	11.811438	0.000295	2.951256	0.499956	-0.005901
1268	6.3350e-01	7.3279	11.787918	0.000235	2.352451	0.398516	-0.004704
1269	6.3400e-01	7.3157	11.759695	0.000282	2.822941	0.478219	-0.005645
1270	6.3450e-01	7.3065	11.743018	0.000167	1.668101	0.282584	-0.003335
1271	6.3500e-01	7.2980	11.715650	0.000274	2.737397	0.463728	-0.005474
1272	6.3550e-01	7.2849	11.688282	0.000274	2.737397	0.463728	-0.005474
1273	6.3600e-01	7.2755	11.661341	0.000269	2.694625	0.456482	-0.005388
1274	6.3650e-01	7.2665	11.633118	0.000282	2.822941	0.478219	-0.005645
1275	6.3700e-01	7.2614	11.602757	0.000304	3.036800	0.514448	-0.006072
1276	6.3750e-01	7.2443	11.583513	0.000192	1.924732	0.326058	-0.003849
1277	6.3800e-01	7.2308	11.550586	0.000329	3.293431	0.557922	-0.006585
1278	6.3850e-01	7.2296	11.535619	0.000150	1.497014	0.253601	-0.002993
1279	6.3900e-01	7.2198	11.502265	0.000334	3.336203	0.565168	-0.006671
1280	6.3950e-01	7.2049	11.479173	0.000231	2.309679	0.391270	-0.004618
1281	6.4000e-01	7.1964	11.465916	0.000133	1.325927	0.224618	-0.002651
1282	6.4050e-01	7.1857	11.425292	0.000406	4.063324	0.688346	-0.008125
1283	6.4100e-01	7.1753	11.403483	0.000218	2.181363	0.369533	-0.004362
1284	6.4150e-01	7.1649	11.371411	0.000321	3.207887	0.543431	-0.006414
1285	6.4200e-01	7.1558	11.352596	0.000188	1.881960	0.318813	-0.003763
1286	6.4250e-01	7.1460	11.330359	0.000222	2.224135	0.376779	-0.004447
1287	6.4300e-01	7.1375	11.297432	0.000329	3.293431	0.557922	-0.006585
1288	6.4350e-01	7.1295	11.270064	0.000274	2.737397	0.463728	-0.005474
1289	6.4400e-01	7.1167	11.246117	0.000240	2.395222	0.405762	-0.004789
1290	6.4450e-01	7.1094	11.213618	0.000325	3.250659	0.550677	-0.006500
1291	6.4500e-01	7.0972	11.191381	0.000222	2.224135	0.376779	-0.004447
1292	6.4550e-01	7.0874	11.161020	0.000304	3.036800	0.514448	-0.006072
1293	6.4600e-01	7.0764	11.139638	0.000214	2.138591	0.362287	-0.004276
1294	6.4650e-01	7.0679	11.114409	0.000252	2.523538	0.427499	-0.005046
1295	6.4700e-01	7.0593	11.082764	0.000317	3.165115	0.536185	-0.006329
1296	6.4750e-01	7.0447	11.055824	0.000269	2.694625	0.456482	-0.005388
1297	6.4800e-01	7.0374	11.031449	0.000244	2.437994	0.413007	-0.004875
1298	6.4850e-01	7.0276	11.005364	0.000261	2.609081	0.441990	-0.005217
1299	6.4900e-01	7.0190	10.979279	0.000261	2.609081	0.441990	-0.005217
1300	6.4950e-01	7.0062	10.960463	0.000188	1.881960	0.318813	-0.003763
1301	6.5000e-01	6.9971	10.928819	0.000317	3.165115	0.536185	-0.006329
1302	6.5050e-01	6.9830	10.905727	0.000231	2.309679	0.391270	-0.004618
1303	6.5100e-01	6.9775	10.882636	0.000231	2.309679	0.391270	-0.004618
1304	6.5150e-01	6.9659	10.843294	0.000394	3.935008	0.666608	-0.007868
1305	6.5200e-01	6.9559	10.818919	0.000244	2.437994	0.413007	-0.004875
1306	6.5250e-01	6.9489	10.792834	0.000261	2.609081	0.441990	-0.005217
1307	6.5300e-01	6.9366	10.767177	0.000257	2.566310	0.434745	-0.005132
1308	6.5350e-01	6.9263	10.736815	0.000304	3.036800	0.514448	-0.006072
1309	6.5400e-01	6.9141	10.708592	0.000282	2.822941	0.478219	-0.005645
1310	6.5450e-01	6.9061	10.693198	0.000154	1.539786	0.260847	-0.003079
1311	6.5500e-01	6.8964	10.662409	0.000308	3.079572	0.521694	-0.006158
1312	6.5550e-01	6.8866	10.632047	0.000304	3.036800	0.514448	-0.006072
1313	6.5600e-01	6.8764	10.608100	0.000240	2.395222	0.405762	-0.004789
1314	6.5650e-01	6.8652	10.586291	0.000218	2.181363	0.369533	-0.004362
1315	6.5700e-01	6.8555	10.567903	0.000184	1.839189	0.311567	-0.003678
1316	6.5750e-01	6.8445	10.526424	0.000415	4.148867	0.702837	-0.008296
1317	6.5800e-01	6.8365	10.502049	0.000244	2.437994	0.413007	-0.004875
1318	6.5850e-01	6.8274	10.475536	0.000265	2.651853	0.449236	-0.005303
1319	6.5900e-01	6.8170	10.449879	0.000257	2.566310	0.434745	-0.005132
1320	6.5950e-01	6.8097	10.428498	0.000214	2.138591	0.362287	-0.004276
1321	6.6000e-01	6.7975	10.387446	0.000411	4.106095	0.695591	-0.008210
1322	6.6050e-01	6.7844	10.366920	0.000205	2.053048	0.347796	-0.004105
1323	6.6100e-01	6.7755	10.338696	0.000282	2.822941	0.478219	-0.005645
1324	6.6150e-01	6.7664	10.314749	0.000240	2.395222	0.405762	-0.004789
1325	6.6200e-01	6.7529	10.298927	0.000158	1.582558	0.268093	-0.003164
1326	6.6250e-01	6.7456	10.253599	0.000453	4.533814	0.768049	-0.009066
1327	6.6300e-01	6.7377	10.241198	0.000124	1.240383	0.210127	-0.002480
1328	6.6350e-01	6.7267	10.201856	0.000394	3.935008	0.666608	-0.007868
1329	6.6400e-01	6.7206	10.177482	0.000244	2.437994	0.413007	-0.004875
1330	6.6450e-01	6.7047	10.151824	0.000257	2.566310	0.434745	-0.005132
1331	6.6500e-01	6.6971	10.122318	0.000295	2.951256	0.499956	-0.005901
1332	6.6550e-01	6.6858	10.104358	0.000180	1.796417	0.304321	-0.003592
1333	6.6600e-01	6.6791	10.073141	0.000312	3.122343	0.528939	-0.006243
1334	6.6650e-01	6.6681	10.043207	0.000299	2.994028	0.507202	-0.005987
1335	6.6700e-01	6.6580	10.015412	0.000278	2.780169	0.470973	-0.005559
1336	6.6750e-01	6.6467	9.982057	0.000334	3.336203	0.565168	-0.006671
1337	6.6800e-01	6.6370	9.964097	0.000180	1.796417	0.304321	-0.003592
1338	6.6850e-01	6.6261	9.941005	0.000231	2.309679	0.391270	-0.004618
1339	6.6900e-01	6.6162	9.910643	0.000304	3.036800	0.514448	-0.006072
1340	6.6950e-01	6.6046	9.889262	0.000214	2.138591	0.362287	-0.004276
1341	6.7000e-01	6.5961	9.853769	0.000355	3.550062	0.601397	-0.007099
1342	6.7050e-01	6.5881	9.831533	0.000222	2.224135	0.376779	-0.004447
1343	6.7100e-01	6.5765	9.795612	0.000359	3.592834	0.608642	-0.007184
1344	6.7150e-01	6.5656	9.768672	0.000269	2.694625	0.456482	-0.005388
1345	6.7200e-01	6.5588	9.749856	0.000188	1.881960	0.318813	-0.003763
1346	6.7250e-01	6.5466	9.720350	0.000295	2.951256	0.499956	-0.005901
1347	6.7300e-01	6.5375	9.697258	0.000231	2.309679	0.391270	-0.004618
1348	6.7350e-01	6.5271	9.662621	0.000346	3.464518	0.586905	-0.006928
1349	6.7400e-01	6.5155	9.638674	0.000240	2.395222	0.405762	-0.004789
1350	6.7450e-01	6.5063	9.612589	0.000261	2.609081	0.441990	-0.005217
1351	6.7500e-01	6.4960	9.581800	0.000308	3.079572	0.521694	-0.006158
1352	6.7550e-01	6.4865	9.553149	0.000287	2.865712	0.485465	-0.005730
1353	6.7600e-01	6.4777	9.518083	0.000351	3.507290	0.594151	-0.007013
1354	6.7650e-01	6.4670	9.497130	0.000210	2.095820	0.355041	-0.004191
1355	6.7700e-01	6.4551	9.469762	0.000274	2.737397	0.463728	-0.005474
1356	6.7750e-01	6.4465	9.446670	0.000231	2.309679	0.391270	-0.004618
1357	6.7800e-01	6.4362	9.414170	0.000325	3.250659	0.550677	-0.006500
1358	6.7850e-01	6.4270	9.389796	0.000244	2.437994	0.413007	-0.004875
1359	6.7900e-01	6.4154	9.370980	0.000188	1.881960	0.318813	-0.003763
1360	6.7950e-01	6.4047	9.332494	0.000385	3.849464	0.652117	-0.007697
1361	6.8000e-01	6.3983	9.300422	0.000321	3.207887	0.543431	-0.006414
1362	6.8050e-01	6.3849	9.282462	0.000180	1.796417	0.304321	-0.003592
1363	6.8100e-01	6.3751	9.252528	0.000299	2.994028	0.507202	-0.005987
1364	6.8150e-01	6.3660	9.223450	0.000291	2.908484	0.492711	-0.005816
1365	6.8200e-01	6.3580	9.191378	0.000321	3.207887	0.543431	-0.006414
1366	6.8250e-01	6.3489	9.162299	0.000291	2.908484	0.492711	-0.005816
1367	6.8300e-01	6.3351	9.140063	0.000222	2.224135	0.376779	-0.004447
1368	6.8350e-01	6.3275	9.109274	0.000308	3.079572	0.521694	-0.006158
1369	6.8400e-01	6.3190	9.086609	0.000227	2.266907	0.384024	-0.004533
1370	6.8450e-01	6.3062	9.052399	0.000342	3.421746	0.579660	-0.006842
1371	6.8500e-01	6.2946	9.022893	0.000295	2.951256	0.499956	-0.005901
1372	6.8550e-01	6.2866	9.008354	0.000145	1.454242	0.246355	-0.002908
1373	6.8600e-01	6.2756	8.967730	0.000406	4.063324	0.688346	-0.008125
1374	6.8650e-01	6.2665	8.947204	0.000205	2.053048	0.347796	-0.004105
1375	6.8700e-01	6.2567	8.918553	0.000287	2.865712	0.485465	-0.005730
1376	6.8750e-01	6.2457	8.891185	0.000274	2.737397	0.463728	-0.005474
1377	6.8800e-01	6.2372	8.862534	0.000287	2.865712	0.485465	-0.005730
1378	6.8850e-01	6.2305	8.838587	0.000240	2.395222	0.405762	-0.004789
1379	6.8900e-01	6.2161	8.808225	0.000304	3.036800	0.514448	-0.006072
1380	6.8950e-01	6.2109	8.772733	0.000355	3.550062	0.601397	-0.007099
1381	6.9000e-01	6.1981	8.750496	0.000222	2.224135	0.376779	-0.004447
1382	6.9050e-01	6.1850	8.718424	0.000321	3.207887	0.543431	-0.006414
1383	6.9100e-01	6.1771	8.687635	0.000308	3.079572	0.521694	-0.006158
1384	6.9150e-01	6.1670	8.667537	0.000201	2.010276	0.340550	-0.004020
1385	6.9200e-01	6.1571	8.635892	0.000317	3.165115	0.536185	-0.006329
1386	6.9250e-01	6.1481	8.611945	0.000240	2.395222	0.405762	-0.004789
1387	6.9300e-01	6.1371	8.584577	0.000274	2.737397	0.463728	-0.005474
1388	6.9350e-01	6.1255	8.553361	0.000312	3.122343	0.528939	-0.006243
1389	6.9400e-01	6.1163	8.526848	0.000265	2.651853	0.449236	-0.005303
1390	6.9450e-01	6.1053	8.494776	0.000321	3.207887	0.543431	-0.006414
1391	6.9500e-01	6.0968	8.469546	0.000252	2.523538	0.427499	-0.005046
1392	6.9550e-01	6.0870	8.436191	0.000334	3.336203	0.565168	-0.006671
1393	6.9600e-01	6.0764	8.406258	0.000299	2.994028	0.507202	-0.005987
1394	6.9650e-01	6.0660	8.384021	0.000222	2.224135	0.376779	-0.004447
1395	6.9700e-01	6.0559	8.352804	0.000312	3.122343	0.528939	-0.006243
1396	6.9750e-01	6.0446	8.331851	0.000210	2.095820	0.355041	-0.004191
1397	6.9800e-01	6.0373	8.294220	0.000376	3.763921	0.637625	-0.007526
1398	6.9850e-01	6.0266	8.267707	0.000265	2.651853	0.449236	-0.005303
1399	6.9900e-01	6.0178	8.239911	0.000278	2.780169	0.470973	-0.005559
1400	6.9950e-01	6.0077	8.211688	0.000282	2.822941	0.478219	-0.005645
1401	7.0000e-01	5.9973	8.180472	0.000312	3.122343	0.528939	-0.006243
1402	7.0050e-01	5.9839	8.157807	0.000227	2.266907	0.384024	-0.004533
1403	7.0100e-01	5.9766	8.127874	0.000299	2.994028	0.507202	-0.005987
1404	7.0150e-01	5.9686	8.096657	0.000312	3.122343	0.528939	-0.006243
1405	7.0200e-01	5.9558	8.068006	0.000287	2.865712	0.485465	-0.005730
1406	7.0250e-01	5.9467	8.035934	0.000321	3.207887	0.543431	-0.006414
1407	7.0300e-01	5.9351	8.015836	0.000201	2.010276	0.340550	-0.004020
1408	7.0350e-01	5.9265	7.991889	0.000240	2.395222	0.405762	-0.004789
1409	7.0400e-01	5.9169	7.960244	0.000317	3.165115	0.536185	-0.006329
1410	7.0450e-01	5.9052	7.926034	0.000342	3.421746	0.579660	-0.006842
1411	7.0500e-01	5.8972	7.899522	0.000265	2.651853	0.449236	-0.005303
1412	7.0550e-01	5.8860	7.866167	0.000334	3.336203	0.565168	-0.006671
1413	7.0600e-01	5.8774	7.842220	0.000240	2.395222	0.405762	-0.004789
1414	7.0650e-01	5.8664	7.815707	0.000265	2.651853	0.449236	-0.005303
1415	7.0700e-01	5.8569	7.781069	0.000346	3.464518	0.586905	-0.006928
1416	7.0750e-01	5.8484	7.747287	0.000338	3.378974	0.572414	-0.006756
1417	7.0800e-01	5.8374	7.727616	0.000197	1.967504	0.333304	-0.003934
1418	7.0850e-01	5.8267	7.692551	0.000351	3.507290	0.594151	-0.007013
1419	7.0900e-01	5.8173	7.677584	0.000150	1.497014	0.253601	-0.002993
1420	7.0950e-01	5.8087	7.627980	0.000496	4.961532	0.840506	-0.009921
1421	7.1000e-01	5.7977	7.601039	0.000269	2.694625	0.456482	-0.005388
1422	7.1050e-01	5.7852	7.581796	0.000192	1.924732	0.326058	-0.003849
1423	7.1100e-01	5.7765	7.553145	0.000287	2.865712	0.485465	-0.005730
1424	7.1150e-01	5.7663	7.520646	0.000325	3.250659	0.550677	-0.006500
1425	7.1200e-01	5.7556	7.492850	0.000278	2.780169	0.470973	-0.005559
1426	7.1250e-01	5.7501	7.462916	0.000299	2.994028	0.507202	-0.005987
1427	7.1300e-01	5.7385	7.430844	0.000321	3.207887	0.543431	-0.006414
1428	7.1350e-01	5.7263	7.410746	0.000201	2.010276	0.340550	-0.004020
1429	7.1400e-01	5.7159	7.374398	0.000364	3.635605	0.615888	-0.007270
1430	7.1450e-01	5.7021	7.353017	0.000214	2.138591	0.362287	-0.004276
1431	7.1500e-01	5.6952	7.313675	0.000394	3.935008	0.666608	-0.007868
1432	7.1550e-01	5.6848	7.291011	0.000227	2.266907	0.384024	-0.004533
1433	7.1600e-01	5.6750	7.260222	0.000308	3.079572	0.521694	-0.006158
1434	7.1650e-01	5.6653	7.235847	0.000244	2.437994	0.413007	-0.004875
1435	7.1700e-01	5.6570	7.211473	0.000244	2.437994	0.413007	-0.004875
1436	7.1750e-01	5.6482	7.167427	0.000441	4.405498	0.746312	-0.008809
1437	7.1800e-01	5.6390	7.140914	0.000265	2.651853	0.449236	-0.005303
1438	7.1850e-01	5.6256	7.112264	0.000287	2.865712	0.485465	-0.005730
1439	7.1900e-01	5.6165	7.085323	0.000269	2.694625	0.456482	-0.005388
1440	7.1950e-01	5.6055	7.059238	0.000261	2.609081	0.441990	-0.005217
1441	7.2000e-01	5.5963	7.023318	0.000359	3.592834	0.608642	-0.007184
1442	7.2050e-01	5.5873	6.989963	0.000334	3.336203	0.565168	-0.006671
1443	7.2100e-01	5.5780	6.969009	0.000210	2.095820	0.355041	-0.004191
1444	7.2150e-01	5.5656	6.932233	0.000368	3.678377	0.623134	-0.007355
1445	7.2200e-01	5.5591	6.902727	0.000295	2.951256	0.499956	-0.005901
1446	7.2250e-01	5.5481	6.871938	0.000308	3.079572	0.521694	-0.006158
1447	7.2300e-01	5.5374	6.850985	0.000210	2.095820	0.355041	-0.004191
1448	7.2350e-01	5.5304	6.841149	0.000098	0.983752	0.166652	-0.001967
1449	7.2400e-01	5.5164	6.797531	0.000436	4.362726	0.739066	-0.008724
1450	7.2450e-01	5.5072	6.760328	0.000372	3.721149	0.630380	-0.007441
1451	7.2500e-01	5.4947	6.727401	0.000329	3.293431	0.557922	-0.006585
1452	7.2550e-01	5.4858	6.699605	0.000278	2.780169	0.470973	-0.005559
1453	7.2600e-01	5.4773	6.675658	0.000240	2.395222	0.405762	-0.004789
1454	7.2650e-01	5.4666	6.638027	0.000376	3.763921	0.637625	-0.007526
1455	7.2700e-01	5.4572	6.612370	0.000257	2.566310	0.434745	-0.005132
1456	7.2750e-01	5.4456	6.580298	0.000321	3.207887	0.543431	-0.006414
1457	7.2800e-01	5.4352	6.556351	0.000240	2.395222	0.405762	-0.004789
1458	7.2850e-01	5.4248	6.523851	0.000325	3.250659	0.550677	-0.006500
1459	7.2900e-01	5.4169	6.498621	0.000252	2.523538	0.427499	-0.005046
1460	7.2950e-01	5.4083	6.461418	0.000372	3.721149	0.630380	-0.007441
1461	7.3000e-01	5.3973	6.431912	0.000295	2.951256	0.499956	-0.005901
1462	7.3050e-01	5.3868	6.403688	0.000282	2.822941	0.478219	-0.005645
1463	7.3100e-01	5.3757	6.376748	0.000269	2.694625	0.456482	-0.005388
1464	7.3150e-01	5.3668	6.344676	0.000321	3.207887	0.543431	-0.006414
1465	7.3200e-01	5.3552	6.313032	0.000317	3.165115	0.536185	-0.006329
1466	7.3250e-01	5.3467	6.280532	0.000325	3.250659	0.550677	-0.006500
1467	7.3300e-01	5.3363	6.246750	0.000338	3.378974	0.572414	-0.006756
1468	7.3350e-01	5.3278	6.217671	0.000291	2.908484	0.492711	-0.005816
1469	7.3400e-01	5.3159	6.199284	0.000184	1.839189	0.311567	-0.003678
1470	7.3450e-01	5.3076	6.168067	0.000312	3.122343	0.528939	-0.006243
1471	7.3500e-01	5.2975	6.133857	0.000342	3.421746	0.579660	-0.006842
1472	7.3550e-01	5.2864	6.105634	0.000282	2.822941	0.478219	-0.005645
1473	7.3600e-01	5.2762	6.076983	0.000287	2.865712	0.485465	-0.005730
1474	7.3650e-01	5.2665	6.042345	0.000346	3.464518	0.586905	-0.006928
1475	7.3700e-01	5.2557	6.021819	0.000205	2.053048	0.347796	-0.004105
1476	7.3750e-01	5.2448	5.973497	0.000483	4.833217	0.818769	-0.009664
1477	7.3800e-01	5.2371	5.951261	0.000222	2.224135	0.376779	-0.004447
1478	7.3850e-01	5.2264	5.920044	0.000312	3.122343	0.528939	-0.006243
1479	7.3900e-01	5.2167	5.890111	0.000299	2.994028	0.507202	-0.005987
1480	7.3950e-01	5.2069	5.864453	0.000257	2.566310	0.434745	-0.005132
1481	7.4000e-01	5.1996	5.835802	0.000287	2.865712	0.485465	-0.005730
1482	7.4050e-01	5.1852	5.805441	0.000304	3.036800	0.514448	-0.006072
1483	7.4100e-01	5.1765	5.771231	0.000342	3.421746	0.579660	-0.006842
1484	7.4150e-01	5.1672	5.743435	0.000278	2.780169	0.470973	-0.005559
1485	7.4200e-01	5.1550	5.710508	0.000329	3.293431	0.557922	-0.006585
1486	7.4250e-01	5.1480	5.674587	0.000359	3.592834	0.608642	-0.007184
1487	7.4300e-01	5.1355	5.644654	0.000299	2.994028	0.507202	-0.005987
1488	7.4350e-01	5.1260	5.620279	0.000244	2.437994	0.413007	-0.004875
1489	7.4400e-01	5.1166	5.577516	0.000428	4.277183	0.724574	-0.008553
1490	7.4450e-01	5.1068	5.556135	0.000214	2.138591	0.362287	-0.004276
1491	7.4500e-01	5.0974	5.521070	0.000351	3.507290	0.594151	-0.007013
1492	7.4550e-01	5.0854	5.493274	0.000278	2.780169	0.470973	-0.005559
1493	7.4600e-01	5.0775	5.465051	0.000282	2.822941	0.478219	-0.005645
1494	7.4650e-01	5.0671	5.421861	0.000432	4.319955	0.731820	-0.008638
1495	7.4700e-01	5.0574	5.401762	0.000201	2.010276	0.340550	-0.004020
1496	7.4750e-01	5.0458	5.364559	0.000372	3.721149	0.630380	-0.007441
1497	7.4800e-01	5.0342	5.338474	0.000261	2.609081	0.441990	-0.005217
1498	7.4850e-01	5.0262	5.310251	0.000282	2.822941	0.478219	-0.005645
1499	7.4900e-01	5.0159	5.278179	0.000321	3.207887	0.543431	-0.006414
1500	7.4950e-01	5.0050	5.260219	0.000180	1.796417	0.304321	-0.003592
1501	7.5000e-01	4.9976	5.217028	0.000432	4.319955	0.731820	-0.008638
1502	7.5050e-01	4.9841	5.186239	0.000308	3.079572	0.521694	-0.006158
1503	7.5100e-01	4.9756	5.159727	0.000265	2.651853	0.449236	-0.005303
1504	7.5150e-01	4.9659	5.120813	0.000389	3.892236	0.659363	-0.007783
1505	7.5200e-01	4.9562	5.102852	0.000180	1.796417	0.304321	-0.003592
1506	7.5250e-01	4.9463	5.070353	0.000325	3.250659	0.550677	-0.006500
1507	7.5300e-01	4.9380	5.029301	0.000411	4.106095	0.695591	-0.008210
1508	7.5350e-01	4.9286	5.013051	0.000163	1.625329	0.275338	-0.003250
1509	7.5400e-01	4.9170	4.960881	0.000522	5.218163	0.883981	-0.010434
1510	7.5450e-01	4.9060	4.935223	0.000257	2.566310	0.434745	-0.005132
1511	7.5500e-01	4.8978	4.906572	0.000287	2.865712	0.485465	-0.005730
1512	7.5550e-01	4.8889	4.879204	0.000274	2.737397	0.463728	-0.005474
1513	7.5600e-01	4.8761	4.843284	0.000359	3.592834	0.608642	-0.007184
1514	7.5650e-01	4.8694	4.816771	0.000265	2.651853	0.449236	-0.005303
1515	7.5700e-01	4.8547	4.785127	0.000317	3.165115	0.536185	-0.006329
1516	7.5750e-01	4.8477	4.747923	0.000372	3.721149	0.630380	-0.007441
1517	7.5800e-01	4.8383	4.717134	0.000308	3.079572	0.521694	-0.006158
1518	7.5850e-01	4.8254	4.690194	0.000269	2.694625	0.456482	-0.005388
1519	7.5900e-01	4.8169	4.649997	0.000402	4.020552	0.681100	-0.008039
1520	7.5950e-01	4.8090	4.633747	0.000163	1.625329	0.275338	-0.003250
1521	7.6000e-01	4.7955	4.596116	0.000376	3.763921	0.637625	-0.007526
1522	7.6050e-01	4.7839	4.566183	0.000299	2.994028	0.507202	-0.005987
1523	7.6100e-01	4.7742	4.533683	0.000325	3.250659	0.550677	-0.006500
1524	7.6150e-01	4.7685	4.510164	0.000235	2.352451	0.398516	-0.004704
1525	7.6200e-01	4.7531	4.474671	0.000355	3.550062	0.601397	-0.007099
1526	7.6250e-01	4.7424	4.437040	0.000376	3.763921	0.637625	-0.007526
1527	7.6300e-01	4.7365	4.410527	0.000265	2.651853	0.449236	-0.005303
1528	7.6350e-01	4.7260	4.374607	0.000359	3.592834	0.608642	-0.007184
1529	7.6400e-01	4.7144	4.345956	0.000287	2.865712	0.485465	-0.005730
1530	7.6450e-01	4.7052	4.313456	0.000325	3.250659	0.550677	-0.006500
1531	7.6500e-01	4.6968	4.280101	0.000334	3.336203	0.565168	-0.006671
1532	7.6550e-01	4.6860	4.246747	0.000334	3.336203	0.565168	-0.006671
1533	7.6600e-01	4.6753	4.224082	0.000227	2.266907	0.384024	-0.004533
1534	7.6650e-01	4.6667	4.174906	0.000492	4.918760	0.833261	-0.009835
1535	7.6700e-01	4.6559	4.153097	0.000218	2.181363	0.369533	-0.004362
1536	7.6750e-01	4.6454	4.118459	0.000346	3.464518	0.586905	-0.006928
1537	7.6800e-01	4.6358	4.088953	0.000295	2.951256	0.499956	-0.005901
1538	7.6850e-01	4.6268	4.048328	0.000406	4.063324	0.688346	-0.008125
1539	7.6900e-01	4.6152	4.026092	0.000222	2.224135	0.376779	-0.004447
1540	7.6950e-01	4.6075	3.992737	0.000334	3.336203	0.565168	-0.006671
1541	7.7000e-01	4.5963	3.960665	0.000321	3.207887	0.543431	-0.006414
1542	7.7050e-01	4.5854	3.934153	0.000265	2.651853	0.449236	-0.005303
1543	7.7100e-01	4.5772	3.903791	0.000304	3.036800	0.514448	-0.006072
1544	7.7150e-01	4.5691	3.863594	0.000402	4.020552	0.681100	-0.008039
1545	7.7200e-01	4.5578	3.831095	0.000325	3.250659	0.550677	-0.006500
1546	7.7250e-01	4.5465	3.796030	0.000351	3.507290	0.594151	-0.007013
1547	7.7300e-01	4.5363	3.772938	0.000231	2.309679	0.391270	-0.004618
1548	7.7350e-01	4.5279	3.729748	0.000432	4.319955	0.731820	-0.008638
1549	7.7400e-01	4.5172	3.711787	0.000180	1.796417	0.304321	-0.003592
1550	7.7450e-01	4.5068	3.671591	0.000402	4.020552	0.681100	-0.008039
1551	7.7500e-01	4.4948	3.636098	0.000355	3.550062	0.601397	-0.007099
1552	7.7550e-01	4.4882	3.608730	0.000274	2.737397	0.463728	-0.005474
1553	7.7600e-01	4.4782	3.576658	0.000321	3.207887	0.543431	-0.006414
1554	7.7650e-01	4.4678	3.538172	0.000385	3.849464	0.652117	-0.007697
1555	7.7700e-01	4.4553	3.511231	0.000269	2.694625	0.456482	-0.005388
1556	7.7750e-01	4.4443	3.484291	0.000269	2.694625	0.456482	-0.005388
1557	7.7800e-01	4.4373	3.448798	0.000355	3.550062	0.601397	-0.007099
1558	7.7850e-01	4.4269	3.415015	0.000338	3.378974	0.572414	-0.006756
1559	7.7900e-01	4.4168	3.382516	0.000325	3.250659	0.550677	-0.006500
1560	7.7950e-01	4.4055	3.349161	0.000334	3.336203	0.565168	-0.006671
1561	7.8000e-01	4.3952	3.314951	0.000342	3.421746	0.579660	-0.006842
1562	7.8050e-01	4.3860	3.285445	0.000295	2.951256	0.499956	-0.005901
1563	7.8100e-01	4.3744	3.256366	0.000291	2.908484	0.492711	-0.005816
1564	7.8150e-01	4.3680	3.217880	0.000385	3.849464	0.652117	-0.007697
1565	7.8200e-01	4.3593	3.190940	0.000269	2.694625	0.456482	-0.005388
1566	7.8250e-01	4.3445	3.159723	0.000312	3.122343	0.528939	-0.006243
1567	7.8300e-01	4.3335	3.128934	0.000308	3.079572	0.521694	-0.006158
1568	7.8350e-01	4.3250	3.088737	0.000402	4.020552	0.681100	-0.008039
1569	7.8400e-01	4.3185	3.055810	0.000329	3.293431	0.557922	-0.006585
1570	7.8450e-01	4.3060	3.022028	0.000338	3.378974	0.572414	-0.006756
1571	7.8500e-01	4.2978	2.994232	0.000278	2.780169	0.470973	-0.005559
1572	7.8550e-01	4.2871	2.956601	0.000376	3.763921	0.637625	-0.007526
1573	7.8600e-01	4.2787	2.922391	0.000342	3.421746	0.579660	-0.006842
1574	7.8650e-01	4.2671	2.896734	0.000257	2.566310	0.434745	-0.005132
1575	7.8700e-01	4.2572	2.863379	0.000334	3.336203	0.565168	-0.006671
1576	7.8750e-01	4.2456	2.824465	0.000389	3.892236	0.659363	-0.007783
1577	7.8800e-01	4.2369	2.798807	0.000257	2.566310	0.434745	-0.005132
1578	7.8850e-01	4.2261	2.765453	0.000334	3.336203	0.565168	-0.006671
1579	7.8900e-01	4.2142	2.731670	0.000338	3.378974	0.572414	-0.006756
1580	7.8950e-01	4.2059	2.697033	0.000346	3.464518	0.586905	-0.006928
1581	7.9000e-01	4.1951	2.663678	0.000334	3.336203	0.565168	-0.006671
1582	7.9050e-01	4.1861	2.625619	0.000381	3.806693	0.644871	-0.007612
1583	7.9100e-01	4.1754	2.598679	0.000269	2.694625	0.456482	-0.005388
1584	7.9150e-01	4.1663	2.567035	0.000317	3.165115	0.536185	-0.006329
1585	7.9200e-01	4.1560	2.526410	0.000406	4.063324	0.688346	-0.008125
1586	7.9250e-01	4.1455	2.501608	0.000248	2.480766	0.420253	-0.004960
1587	7.9300e-01	4.1367	2.466970	0.000346	3.464518	0.586905	-0.006928
1588	7.9350e-01	4.1238	2.431905	0.000351	3.507290	0.594151	-0.007013
1589	7.9400e-01	4.1144	2.404537	0.000274	2.737397	0.463728	-0.005474
1590	7.9450e-01	4.1052	2.369899	0.000346	3.464518	0.586905	-0.006928
1591	7.9500e-01	4.0936	2.331413	0.000385	3.849464	0.652117	-0.007697
1592	7.9550e-01	4.0868	2.299341	0.000321	3.207887	0.543431	-0.006414
1593	7.9600e-01	4.0761	2.263848	0.000355	3.550062	0.601397	-0.007099
1594	7.9650e-01	4.0656	2.229211	0.000346	3.464518	0.586905	-0.006928
1595	7.9700e-01	4.0579	2.203553	0.000257	2.566310	0.434745	-0.005132
1596	7.9750e-01	4.0469	2.165067	0.000385	3.849464	0.652117	-0.007697
1597	7.9800e-01	4.0366	2.132995	0.000321	3.207887	0.543431	-0.006414
1598	7.9850e-01	4.0253	2.101778	0.000312	3.122343	0.528939	-0.006243
1599	7.9900e-01	4.0167	2.052601	0.000492	4.918760	0.833261	-0.009835
1600	7.9950e-01	4.0051	2.036352	0.000163	1.625329	0.275338	-0.003250
1601	8.0000e-01	3.9955	2.002142	0.000342	3.421746	0.579660	-0.006842
1602	8.0050e-01	3.9850	1.967504	0.000346	3.464518	0.586905	-0.006928
1603	8.0100e-01	3.9764	1.932866	0.000346	3.464518	0.586905	-0.006928
1604	8.0150e-01	3.9673	1.887966	0.000449	4.491042	0.760803	-0.008980
1605	8.0200e-01	3.9558	1.855038	0.000329	3.293431	0.557922	-0.006585
1606	8.0250e-01	3.9435	1.828953	0.000261	2.609081	0.441990	-0.005217
1607	8.0300e-01	3.9355	1.794743	0.000342	3.421746	0.579660	-0.006842
1608	8.0350e-01	3.9259	1.759678	0.000351	3.507290	0.594151	-0.007013
1609	8.0400e-01	3.9145	1.729317	0.000304	3.036800	0.514448	-0.006072
1610	8.0450e-01	3.9069	1.690830	0.000385	3.849464	0.652117	-0.007697
1611	8.0500e-01	3.8959	1.653199	0.000376	3.763921	0.637625	-0.007526
1612	8.0550e-01	3.8861	1.622410	0.000308	3.079572	0.521694	-0.006158
1613	8.0600e-01	3.8776	1.595042	0.000274	2.737397	0.463728	-0.005474
1614	8.0650e-01	3.8693	1.554418	0.000406	4.063324	0.688346	-0.008125
1615	8.0700e-01	3.8562	1.526195	0.000282	2.822941	0.478219	-0.005645
1616	8.0750e-01	3.8449	1.496261	0.000299	2.994028	0.507202	-0.005987
1617	8.0800e-01	3.8394	1.446229	0.000500	5.004304	0.847752	-0.010006
1618	8.0850e-01	3.8266	1.422709	0.000235	2.352451	0.398516	-0.004704
1619	8.0900e-01	3.8156	1.384223	0.000385	3.849464	0.652117	-0.007697
1620	8.0950e-01	3.8055	1.350441	0.000338	3.378974	0.572414	-0.006756
1621	8.1000e-01	3.7982	1.313665	0.000368	3.678377	0.623134	-0.007355
1622	8.1050e-01	3.7863	1.274751	0.000389	3.892236	0.659363	-0.007783
1623	8.1100e-01	3.7732	1.261495	0.000133	1.325927	0.224618	-0.002651
1624	8.1150e-01	3.7643	1.215311	0.000462	4.619357	0.782540	-0.009237
1625	8.1200e-01	3.7573	1.183239	0.000321	3.207887	0.543431	-0.006414
1626	8.1250e-01	3.7477	1.146891	0.000364	3.635605	0.615888	-0.007270
1627	8.1300e-01	3.7363	1.106694	0.000402	4.020552	0.681100	-0.008039
1628	8.1350e-01	3.7241	1.078899	0.000278	2.780169	0.470973	-0.005559
1629	8.1400e-01	3.7164	1.040840	0.000381	3.806693	0.644871	-0.007612
1630	8.1450e-01	3.7048	1.012189	0.000287	2.865712	0.485465	-0.005730
1631	8.1500e-01	3.6957	0.978407	0.000338	3.378974	0.572414	-0.006756
1632	8.1550e-01	3.6862	0.942914	0.000355	3.550062	0.601397	-0.007099
1633	8.1600e-01	3.6784	0.915546	0.000274	2.737397	0.463728	-0.005474
1634	8.1650e-01	3.6652	0.870217	0.000453	4.533814	0.768049	-0.009066
1635	8.1700e-01	3.6568	0.839428	0.000308	3.079572	0.521694	-0.006158
1636	8.1750e-01	3.6475	0.803080	0.000364	3.635605	0.615888	-0.007270
1637	8.1800e-01	3.6362	0.764166	0.000389	3.892236	0.659363	-0.007783
1638	8.1850e-01	3.6272	0.736798	0.000274	2.737397	0.463728	-0.005474
1639	8.1900e-01	3.6165	0.697457	0.000394	3.935008	0.666608	-0.007868
1640	8.1950e-01	3.6053	0.666668	0.000308	3.079572	0.521694	-0.006158
1641	8.2000e-01	3.5959	0.629037	0.000376	3.763921	0.637625	-0.007526
1642	8.2050e-01	3.5858	0.587557	0.000415	4.148867	0.702837	-0.008296
1643	8.2100e-01	3.5767	0.564893	0.000227	2.266907	0.384024	-0.004533
1644	8.2150e-01	3.5681	0.521275	0.000436	4.362726	0.739066	-0.008724
1645	8.2200e-01	3.5579	0.486210	0.000351	3.507290	0.594151	-0.007013
1646	8.2250e-01	3.5480	0.455421	0.000308	3.079572	0.521694	-0.006158
1647	8.2300e-01	3.5370	0.419928	0.000355	3.550062	0.601397	-0.007099
1648	8.2350e-01	3.5249	0.388711	0.000312	3.122343	0.528939	-0.006243
1649	8.2400e-01	3.5168	0.352791	0.000359	3.592834	0.608642	-0.007184
1650	8.2450e-01	3.5075	0.310884	0.000419	4.191639	0.710083	-0.008381
1651	8.2500e-01	3.4952	0.278812	0.000321	3.207887	0.543431	-0.006414
1652	8.2550e-01	3.4882	0.242036	0.000368	3.678377	0.623134	-0.007355
1653	8.2600e-01	3.4772	0.212102	0.000299	2.994028	0.507202	-0.005987
1654	8.2650e-01	3.4662	0.171905	0.000402	4.020552	0.681100	-0.008039
1655	8.2700e-01	3.4570	0.140689	0.000312	3.122343	0.528939	-0.006243
1656	8.2750e-01	3.4448	0.114176	0.000265	2.651853	0.449236	-0.005303
1657	8.2800e-01	3.4344	0.072696	0.000415	4.148867	0.702837	-0.008296
1658	8.2850e-01	3.4265	0.034210	0.000385	3.849464	0.652117	-0.007697
1659	8.2900e-01	3.4167	0.001283	0.000329	3.293431	0.557922	-0.006585
1660	8.2950e-01	3.4042	-0.034210	0.000355	3.550062	0.601397	-0.007099
1661	8.3000e-01	3.3972	-0.070131	0.000359	3.592834	0.608642	-0.007184
1662	8.3050e-01	3.3862	-0.110327	0.000402	4.020552	0.681100	-0.008039
1663	8.3100e-01	3.3760	-0.141544	0.000312	3.122343	0.528939	-0.006243
1664	8.3150e-01	3.3649	-0.179175	0.000376	3.763921	0.637625	-0.007526
1665	8.3200e-01	3.3557	-0.211247	0.000321	3.207887	0.543431	-0.006414
1666	8.3250e-01	3.3456	-0.240753	0.000295	2.951256	0.499956	-0.005901
1667	8.3300e-01	3.3362	-0.292068	0.000513	5.132619	0.869489	-0.010263
1668	8.3350e-01	3.3264	-0.316015	0.000240	2.395222	0.405762	-0.004789
1669	8.3400e-01	3.3138	-0.349370	0.000334	3.336203	0.565168	-0.006671
1670	8.3450e-01	3.3054	-0.389139	0.000398	3.977780	0.673854	-0.007954
1671	8.3500e-01	3.2974	-0.422066	0.000329	3.293431	0.557922	-0.006585
1672	8.3550e-01	3.2858	-0.463546	0.000415	4.148867	0.702837	-0.008296
1673	8.3600e-01	3.2758	-0.491341	0.000278	2.780169	0.470973	-0.005559
1674	8.3650e-01	3.2675	-0.536670	0.000453	4.533814	0.768049	-0.009066
1675	8.3700e-01	3.2559	-0.576011	0.000394	3.935008	0.666608	-0.007868
1676	8.3750e-01	3.2497	-0.604662	0.000287	2.865712	0.485465	-0.005730
1677	8.3800e-01	3.2385	-0.641438	0.000368	3.678377	0.623134	-0.007355
1678	8.3850e-01	3.2263	-0.676503	0.000351	3.507290	0.594151	-0.007013
1679	8.3900e-01	3.2176	-0.711996	0.000355	3.550062	0.601397	-0.007099
1680	8.3950e-01	3.2056	-0.748772	0.000368	3.678377	0.623134	-0.007355
1681	8.4000e-01	3.2007	-0.785120	0.000364	3.635605	0.615888	-0.007270
1682	8.4050e-01	3.1851	-0.814199	0.000291	2.908484	0.492711	-0.005816
1683	8.4100e-01	3.1763	-0.855251	0.000411	4.106095	0.695591	-0.008210
1684	8.4150e-01	3.1655	-0.895447	0.000402	4.020552	0.681100	-0.008039
1685	8.4200e-01	3.1577	-0.927519	0.000321	3.207887	0.543431	-0.006414
1686	8.4250e-01	3.1429	-0.958736	0.000312	3.122343	0.528939	-0.006243
1687	8.4300e-01	3.1354	-1.001498	0.000428	4.277183	0.724574	-0.008553
1688	8.4350e-01	3.1256	-1.036564	0.000351	3.507290	0.594151	-0.007013
1689	8.4400e-01	3.1175	-1.070774	0.000342	3.421746	0.579660	-0.006842
1690	8.4450e-01	3.1057	-1.106694	0.000359	3.592834	0.608642	-0.007184
1691	8.4500e-01	3.0957	-1.152878	0.000462	4.619357	0.782540	-0.009237
1692	8.4550e-01	3.0875	-1.190936	0.000381	3.806693	0.644871	-0.007612
1693	8.4600e-01	3.0792	-1.216166	0.000252	2.523538	0.427499	-0.005046
1694	8.4650e-01	3.0640	-1.263633	0.000475	4.747673	0.804278	-0.009493
1695	8.4700e-01	3.0541	-1.290573	0.000269	2.694625	0.456482	-0.005388
1696	8.4750e-01	3.0429	-1.320507	0.000299	2.994028	0.507202	-0.005987
1697	8.4800e-01	3.0367	-1.368401	0.000479	4.790445	0.811523	-0.009579
1698	8.4850e-01	3.0249	-1.397479	0.000291	2.908484	0.492711	-0.005816
1699	8.4900e-01	3.0139	-1.441952	0.000445	4.448270	0.753557	-0.008895
1700	8.4950e-01	3.0063	-1.470603	0.000287	2.865712	0.485465	-0.005730
1701	8.5000e-01	2.9980	-1.509945	0.000394	3.935008	0.666608	-0.007868
1702	8.5050e-01	2.9899	-1.553990	0.000441	4.405498	0.746312	-0.008809
1703	8.5100e-01	2.9758	-1.580075	0.000261	2.609081	0.441990	-0.005217
1704	8.5150e-01	2.9652	-1.629252	0.000492	4.918760	0.833261	-0.009835
1705	8.5200e-01	2.9518	-1.665600	0.000364	3.635605	0.615888	-0.007270
1706	8.5250e-01	2.9454	-1.700238	0.000346	3.464518	0.586905	-0.006928
1707	8.5300e-01	2.9346	-1.740862	0.000406	4.063324	0.688346	-0.008125
1708	8.5350e-01	2.9272	-1.769941	0.000291	2.908484	0.492711	-0.005816
1709	8.5400e-01	2.9166	-1.806717	0.000368	3.678377	0.623134	-0.007355
1710	8.5450e-01	2.9062	-1.838789	0.000321	3.207887	0.543431	-0.006414
1711	8.5500e-01	2.8956	-1.878130	0.000394	3.935008	0.666608	-0.007868
1712	8.5550e-01	2.8857	-1.910630	0.000325	3.250659	0.550677	-0.006500
1713	8.5600e-01	2.8784	-1.960234	0.000496	4.961532	0.840506	-0.009921
1714	8.5650e-01	2.8665	-1.998293	0.000381	3.806693	0.644871	-0.007612
1715	8.5700e-01	2.8534	-2.019247	0.000210	2.095820	0.355041	-0.004191
1716	8.5750e-01	2.8448	-2.068423	0.000492	4.918760	0.833261	-0.009835
1717	8.5800e-01	2.8369	-2.100495	0.000321	3.207887	0.543431	-0.006414
1718	8.5850e-01	2.8252	-2.135561	0.000351	3.507290	0.594151	-0.007013
1719	8.5900e-01	2.8140	-2.177896	0.000423	4.234411	0.717329	-0.008467
1720	8.5950e-01	2.8052	-2.214671	0.000368	3.678377	0.623134	-0.007355
1721	8.6000e-01	2.7954	-2.255296	0.000406	4.063324	0.688346	-0.008125
1722	8.6050e-01	2.7866	-2.283947	0.000287	2.865712	0.485465	-0.005730
1723	8.6100e-01	2.7767	-2.329702	0.000458	4.576586	0.775295	-0.009151
1724	8.6150e-01	2.7667	-2.369044	0.000394	3.935008	0.666608	-0.007868
1725	8.6200e-01	2.7549	-2.398550	0.000295	2.951256	0.499956	-0.005901
1726	8.6250e-01	2.7440	-2.437892	0.000394	3.935008	0.666608	-0.007868
1727	8.6300e-01	2.7371	-2.477233	0.000394	3.935008	0.666608	-0.007868
1728	8.6350e-01	2.7264	-2.514009	0.000368	3.678377	0.623134	-0.007355
1729	8.6400e-01	2.7164	-2.553778	0.000398	3.977780	0.673854	-0.007954
1730	8.6450e-01	2.7076	-2.586705	0.000329	3.293431	0.557922	-0.006585
1731	8.6500e-01	2.6968	-2.627757	0.000411	4.106095	0.695591	-0.008210
1732	8.6550e-01	2.6860	-2.662395	0.000346	3.464518	0.586905	-0.006928
1733	8.6600e-01	2.6768	-2.705157	0.000428	4.277183	0.724574	-0.008553
1734	8.6650e-01	2.6667	-2.736374	0.000312	3.122343	0.528939	-0.006243
1735	8.6700e-01	2.6564	-2.779564	0.000432	4.319955	0.731820	-0.008638
1736	8.6750e-01	2.6453	-2.816768	0.000372	3.721149	0.630380	-0.007441
1737	8.6800e-01	2.6363	-2.853971	0.000372	3.721149	0.630380	-0.007441
1738	8.6850e-01	2.6288	-2.892457	0.000385	3.849464	0.652117	-0.007697
1739	8.6900e-01	2.6161	-2.927095	0.000346	3.464518	0.586905	-0.006928
1740	8.6950e-01	2.6050	-2.966437	0.000394	3.935008	0.666608	-0.007868
1741	8.7000e-01	2.5970	-3.010910	0.000445	4.448270	0.753557	-0.008895
1742	8.7050e-01	2.5848	-3.035712	0.000248	2.480766	0.420253	-0.004960
1743	8.7100e-01	2.5757	-3.081040	0.000453	4.533814	0.768049	-0.009066
1744	8.7150e-01	2.5671	-3.122947	0.000419	4.191639	0.710083	-0.008381
1745	8.7200e-01	2.5562	-3.162289	0.000394	3.935008	0.666608	-0.007868
1746	8.7250e-01	2.5443	-3.199920	0.000376	3.763921	0.637625	-0.007526
1747	8.7300e-01	2.5353	-3.228143	0.000282	2.822941	0.478219	-0.005645
1748	8.7350e-01	2.5284	-3.277320	0.000492	4.918760	0.833261	-0.009835
1749	8.7400e-01	2.5163	-3.311958	0.000346	3.464518	0.586905	-0.006928
1750	8.7450e-01	2.5046	-3.353010	0.000411	4.106095	0.695591	-0.008210
1751	8.7500e-01	2.4977	-3.381233	0.000282	2.822941	0.478219	-0.005645
1752	8.7550e-01	2.4846	-3.421857	0.000406	4.063324	0.688346	-0.008125
1753	8.7600e-01	2.4757	-3.459488	0.000376	3.763921	0.637625	-0.007526
1754	8.7650e-01	2.4677	-3.494981	0.000355	3.550062	0.601397	-0.007099
1755	8.7700e-01	2.4555	-3.548435	0.000535	5.346478	0.905718	-0.010691
1756	8.7750e-01	2.4475	-3.577085	0.000287	2.865712	0.485465	-0.005730
1757	8.7800e-01	2.4370	-3.616855	0.000398	3.977780	0.673854	-0.007954
1758	8.7850e-01	2.4255	-3.660472	0.000436	4.362726	0.739066	-0.008724
1759	8.7900e-01	2.4139	-3.686985	0.000265	2.651853	0.449236	-0.005303
1760	8.7950e-01	2.4072	-3.737017	0.000500	5.004304	0.847752	-0.010006
1761	8.8000e-01	2.3956	-3.775076	0.000381	3.806693	0.644871	-0.007612
1762	8.8050e-01	2.3856	-3.809286	0.000342	3.421746	0.579660	-0.006842
1763	8.8100e-01	2.3766	-3.854614	0.000453	4.533814	0.768049	-0.009066
1764	8.8150e-01	2.3647	-3.893101	0.000385	3.849464	0.652117	-0.007697
1765	8.8200e-01	2.3572	-3.921751	0.000287	2.865712	0.485465	-0.005730
1766	8.8250e-01	2.3474	-3.961948	0.000402	4.020552	0.681100	-0.008039
1767	8.8300e-01	2.3362	-4.007704	0.000458	4.576586	0.775295	-0.009151
1768	8.8350e-01	2.3268	-4.043625	0.000359	3.592834	0.608642	-0.007184
1769	8.8400e-01	2.3169	-4.082538	0.000389	3.892236	0.659363	-0.007783
1770	8.8450e-01	2.3091	-4.127439	0.000449	4.491042	0.760803	-0.008980
1771	8.8500e-01	2.2961	-4.160794	0.000334	3.336203	0.565168	-0.006671
1772	8.8550e-01	2.2906	-4.201418	0.000406	4.063324	0.688346	-0.008125
1773	8.8600e-01	2.2783	-4.241187	0.000398	3.977780	0.673854	-0.007954
1774	8.8650e-01	2.2668	-4.272404	0.000312	3.122343	0.528939	-0.006243
1775	8.8700e-01	2.2570	-4.313029	0.000406	4.063324	0.688346	-0.008125
1776	8.8750e-01	2.2461	-4.350232	0.000372	3.721149	0.630380	-0.007441
1777	8.8800e-01	2.2356	-4.398126	0.000479	4.790445	0.811523	-0.009579
1778	8.8850e-01	2.2250	-4.442599	0.000445	4.448270	0.753557	-0.008895
1779	8.8900e-01	2.2148	-4.472105	0.000295	2.951256	0.499956	-0.005901
1780	8.8950e-01	2.2098	-4.516578	0.000445	4.448270	0.753557	-0.008895
1781	8.9000e-01	2.1951	-4.558058	0.000415	4.148867	0.702837	-0.008296
1782	8.9050e-01	2.1857	-4.593978	0.000359	3.592834	0.608642	-0.007184
1783	8.9100e-01	2.1773	-4.625195	0.000312	3.122343	0.528939	-0.006243
1784	8.9150e-01	2.1658	-4.677365	0.000522	5.218163	0.883981	-0.010434
1785	8.9200e-01	2.1575	-4.720128	0.000428	4.277183	0.724574	-0.008553
1786	8.9250e-01	2.1460	-4.738943	0.000188	1.881960	0.318813	-0.003763
1787	8.9300e-01	2.1342	-4.784272	0.000453	4.533814	0.768049	-0.009066
1788	8.9350e-01	2.1262	-4.833448	0.000492	4.918760	0.833261	-0.009835
1789	8.9400e-01	2.1164	-4.869369	0.000359	3.592834	0.608642	-0.007184
1790	8.9450e-01	2.1082	-4.906572	0.000372	3.721149	0.630380	-0.007441
1791	8.9500e-01	2.0952	-4.943776	0.000372	3.721149	0.630380	-0.007441
1792	8.9550e-01	2.0848	-4.990387	0.000466	4.662129	0.789786	-0.009322
1793	8.9600e-01	2.0761	-5.022459	0.000321	3.207887	0.543431	-0.006414
1794	8.9650e-01	2.0636	-5.064366	0.000419	4.191639	0.710083	-0.008381
1795	8.9700e-01	2.0557	-5.112260	0.000479	4.790445	0.811523	-0.009579
1796	8.9750e-01	2.0477	-5.144332	0.000321	3.207887	0.543431	-0.006414
1797	8.9800e-01	2.0344	-5.188805	0.000445	4.448270	0.753557	-0.008895
1798	8.9850e-01	2.0261	-5.225581	0.000368	3.678377	0.623134	-0.007355
1799	8.9900e-01	2.0165	-5.268343	0.000428	4.277183	0.724574	-0.008553
1800	8.9950e-01	2.0062	-5.306402	0.000381	3.806693	0.644871	-0.007612
1801	9.0000e-01	1.9962	-5.345316	0.000389	3.892236	0.659363	-0.007783
1802	9.0050e-01	1.9879	-5.385085	0.000398	3.977780	0.673854	-0.007954
1803	9.0100e-01	1.9760	-5.423571	0.000385	3.849464	0.652117	-0.007697
1804	9.0150e-01	1.9644	-5.463341	0.000398	3.977780	0.673854	-0.007954
1805	9.0200e-01	1.9575	-5.508669	0.000453	4.533814	0.768049	-0.009066
1806	9.0250e-01	1.9465	-5.543734	0.000351	3.507290	0.594151	-0.007013
1807	9.0300e-01	1.9366	-5.588635	0.000449	4.491042	0.760803	-0.008980
1808	9.0350e-01	1.9254	-5.618996	0.000304	3.036800	0.514448	-0.006072
1809	9.0400e-01	1.9145	-5.669028	0.000500	5.004304	0.847752	-0.010006
1810	9.0450e-01	1.9061	-5.710936	0.000419	4.191639	0.710083	-0.008381
1811	9.0500e-01	1.8953	-5.747284	0.000364	3.635605	0.615888	-0.007270
1812	9.0550e-01	1.8838	-5.787908	0.000406	4.063324	0.688346	-0.008125
1813	9.0600e-01	1.8751	-5.828960	0.000411	4.106095	0.695591	-0.008210
1814	9.0650e-01	1.8642	-5.872150	0.000432	4.319955	0.731820	-0.008638
1815	9.0700e-01	1.8563	-5.904222	0.000321	3.207887	0.543431	-0.006414
1816	9.0750e-01	1.8466	-5.945702	0.000415	4.148867	0.702837	-0.008296
1817	9.0800e-01	1.8358	-5.986326	0.000406	4.063324	0.688346	-0.008125
1818	9.0850e-01	1.8276	-6.037641	0.000513	5.132619	0.869489	-0.010263
1819	9.0900e-01	1.8172	-6.074845	0.000372	3.721149	0.630380	-0.007441
1820	9.0950e-01	1.8069	-6.113759	0.000389	3.892236	0.659363	-0.007783
1821	9.1000e-01	1.7959	-6.156521	0.000428	4.277183	0.724574	-0.008553
1822	9.1050e-01	1.7859	-6.190303	0.000338	3.378974	0.572414	-0.006756
1823	9.1100e-01	1.7752	-6.228790	0.000385	3.849464	0.652117	-0.007697
1824	9.1150e-01	1.7661	-6.273263	0.000445	4.448270	0.753557	-0.008895
1825	9.1200e-01	1.7575	-6.317736	0.000445	4.448270	0.753557	-0.008895
1826	9.1250e-01	1.7462	-6.361354	0.000436	4.362726	0.739066	-0.008724
1827	9.1300e-01	1.7354	-6.394708	0.000334	3.336203	0.565168	-0.006671
1828	9.1350e-01	1.7276	-6.437899	0.000432	4.319955	0.731820	-0.008638
1829	9.1400e-01	1.7140	-6.477240	0.000394	3.935008	0.666608	-0.007868
1830	9.1450e-01	1.7075	-6.518720	0.000415	4.148867	0.702837	-0.008296
1831	9.1500e-01	1.6974	-6.570462	0.000518	5.175391	0.876735	-0.010349
1832	9.1550e-01	1.6864	-6.605100	0.000346	3.464518	0.586905	-0.006928
1833	9.1600e-01	1.6748	-6.647863	0.000428	4.277183	0.724574	-0.008553
1834	9.1650e-01	1.6681	-6.682073	0.000342	3.421746	0.579660	-0.006842
1835	9.1700e-01	1.6557	-6.729111	0.000470	4.704901	0.797032	-0.009408
1836	9.1750e-01	1.6466	-6.763749	0.000346	3.464518	0.586905	-0.006928
1837	9.1800e-01	1.6367	-6.812926	0.000492	4.918760	0.833261	-0.009835
1838	9.1850e-01	1.6260	-6.853123	0.000402	4.020552	0.681100	-0.008039
1839	9.1900e-01	1.6168	-6.894175	0.000411	4.106095	0.695591	-0.008210
1840	9.1950e-01	1.6042	-6.933944	0.000398	3.977780	0.673854	-0.007954
1841	9.2000e-01	1.5940	-6.972430	0.000385	3.849464	0.652117	-0.007697
1842	9.2050e-01	1.5849	-7.011772	0.000394	3.935008	0.666608	-0.007868
1843	9.2100e-01	1.5762	-7.062231	0.000505	5.047076	0.854998	-0.010092
1844	9.2150e-01	1.5646	-7.103283	0.000411	4.106095	0.695591	-0.008210
1845	9.2200e-01	1.5551	-7.141770	0.000385	3.849464	0.652117	-0.007697
1846	9.2250e-01	1.5439	-7.181111	0.000394	3.935008	0.666608	-0.007868
1847	9.2300e-01	1.5340	-7.223446	0.000423	4.234411	0.717329	-0.008467
1848	9.2350e-01	1.5237	-7.267492	0.000441	4.405498	0.746312	-0.008809
1849	9.2400e-01	1.5153	-7.301274	0.000338	3.378974	0.572414	-0.006756
1850	9.2450e-01	1.5053	-7.356865	0.000556	5.560338	0.941947	-0.011118
1851	9.2500e-01	1.4957	-7.385088	0.000282	2.822941	0.478219	-0.005645
1852	9.2550e-01	1.4862	-7.431700	0.000466	4.662129	0.789786	-0.009322
1853	9.2600e-01	1.4765	-7.477456	0.000458	4.576586	0.775295	-0.009151
1854	9.2650e-01	1.4644	-7.513376	0.000359	3.592834	0.608642	-0.007184
1855	9.2700e-01	1.4566	-7.563836	0.000505	5.047076	0.854998	-0.010092
1856	9.2750e-01	1.4469	-7.600612	0.000368	3.678377	0.623134	-0.007355
1857	9.2800e-01	1.4384	-7.645940	0.000453	4.533814	0.768049	-0.009066
1858	9.2850e-01	1.4259	-7.691696	0.000458	4.576586	0.775295	-0.009151
1859	9.2900e-01	1.4159	-7.722057	0.000304	3.036800	0.514448	-0.006072
1860	9.2950e-01	1.4075	-7.776793	0.000547	5.474794	0.927455	-0.010947
1861	9.3000e-01	1.3936	-7.807582	0.000308	3.079572	0.521694	-0.006158
1862	9.3050e-01	1.3874	-7.852911	0.000453	4.533814	0.768049	-0.009066
1863	9.3100e-01	1.3735	-7.890114	0.000372	3.721149	0.630380	-0.007441
1864	9.3150e-01	1.3647	-7.924752	0.000346	3.464518	0.586905	-0.006928
1865	9.3200e-01	1.3572	-7.977349	0.000526	5.260935	0.891226	-0.010520
1866	9.3250e-01	1.3465	-8.019684	0.000423	4.234411	0.717329	-0.008467
1867	9.3300e-01	1.3354	-8.069289	0.000496	4.961532	0.840506	-0.009921
1868	9.3350e-01	1.3274	-8.106492	0.000372	3.721149	0.630380	-0.007441
1869	9.3400e-01	1.3126	-8.151393	0.000449	4.491042	0.760803	-0.008980
1870	9.3450e-01	1.3034	-8.192873	0.000415	4.148867	0.702837	-0.008296
1871	9.3500e-01	1.2976	-8.227083	0.000342	3.421746	0.579660	-0.006842
1872	9.3550e-01	1.2846	-8.276260	0.000492	4.918760	0.833261	-0.009835
1873	9.3600e-01	1.2746	-8.318167	0.000419	4.191639	0.710083	-0.008381
1874	9.3650e-01	1.2668	-8.362212	0.000441	4.405498	0.746312	-0.008809
1875	9.3700e-01	1.2549	-8.403692	0.000415	4.148867	0.702837	-0.008296
1876	9.3750e-01	1.2443	-8.438757	0.000351	3.507290	0.594151	-0.007013
1877	9.3800e-01	1.2378	-8.490500	0.000518	5.175391	0.876735	-0.010349
1878	9.3850e-01	1.2233	-8.531552	0.000411	4.106095	0.695591	-0.008210
1879	9.3900e-01	1.2193	-8.574314	0.000428	4.277183	0.724574	-0.008553
1880	9.3950e-01	1.2048	-8.607242	0.000329	3.293431	0.557922	-0.006585
1881	9.4000e-01	1.1948	-8.655136	0.000479	4.790445	0.811523	-0.009579
1882	9.4050e-01	1.1878	-8.701319	0.000462	4.619357	0.782540	-0.009237
1883	9.4100e-01	1.1774	-8.738522	0.000372	3.721149	0.630380	-0.007441
1884	9.4150e-01	1.1691	-8.797107	0.000586	5.859740	0.992667	-0.011717
1885	9.4200e-01	1.1571	-8.834311	0.000372	3.721149	0.630380	-0.007441
1886	9.4250e-01	1.1465	-8.866810	0.000325	3.250659	0.550677	-0.006500
1887	9.4300e-01	1.1351	-8.913849	0.000470	4.704901	0.797032	-0.009408
1888	9.4350e-01	1.1246	-8.952763	0.000389	3.892236	0.659363	-0.007783
1889	9.4400e-01	1.1139	-9.004933	0.000522	5.218163	0.883981	-0.010434
1890	9.4450e-01	1.1058	-9.042136	0.000372	3.721149	0.630380	-0.007441
1891	9.4500e-01	1.0928	-9.081478	0.000394	3.935008	0.666608	-0.007868
1892	9.4550e-01	1.0850	-9.133648	0.000522	5.218163	0.883981	-0.010434
1893	9.4600e-01	1.0751	-9.170424	0.000368	3.678377	0.623134	-0.007355
1894	9.4650e-01	1.0651	-9.209338	0.000389	3.892236	0.659363	-0.007783
1895	9.4700e-01	1.0553	-9.253383	0.000441	4.405498	0.746312	-0.008809
1896	9.4750e-01	1.0482	-9.305126	0.000518	5.175391	0.876735	-0.010349
1897	9.4800e-01	1.0359	-9.342757	0.000376	3.763921	0.637625	-0.007526
1898	9.4850e-01	1.0251	-9.383809	0.000411	4.106095	0.695591	-0.008210
1899	9.4900e-01	1.0175	-9.429137	0.000453	4.533814	0.768049	-0.009066
1900	9.4950e-01	1.0054	-9.471900	0.000428	4.277183	0.724574	-0.008553
1901	9.5000e-01	0.9979	-9.518511	0.000466	4.662129	0.789786	-0.009322
1902	9.5050e-01	0.9859	-9.570681	0.000522	5.218163	0.883981	-0.010434
1903	9.5100e-01	0.9727	-9.601898	0.000312	3.122343	0.528939	-0.006243
1904	9.5150e-01	0.9647	-9.649364	0.000475	4.747673	0.804278	-0.009493
1905	9.5200e-01	0.9564	-9.692554	0.000432	4.319955	0.731820	-0.008638
1906	9.5250e-01	0.9481	-9.734462	0.000419	4.191639	0.710083	-0.008381
1907	9.5300e-01	0.9354	-9.780218	0.000458	4.576586	0.775295	-0.009151
1908	9.5350e-01	0.9268	-9.821697	0.000415	4.148867	0.702837	-0.008296
1909	9.5400e-01	0.9165	-9.864460	0.000428	4.277183	0.724574	-0.008553
1910	9.5450e-01	0.9064	-9.898670	0.000342	3.421746	0.579660	-0.006842
1911	9.5500e-01	0.8961	-9.953406	0.000547	5.474794	0.927455	-0.010947
1912	9.5550e-01	0.8841	-9.994458	0.000411	4.106095	0.695591	-0.008210
1913	9.5600e-01	0.8775	-10.033799	0.000394	3.935008	0.666608	-0.007868
1914	9.5650e-01	0.8659	-10.090246	0.000565	5.645881	0.956438	-0.011289
1915	9.5700e-01	0.8545	-10.125739	0.000355	3.550062	0.601397	-0.007099
1916	9.5750e-01	0.8472	-10.169357	0.000436	4.362726	0.739066	-0.008724
1917	9.5800e-01	0.8392	-10.213830	0.000445	4.448270	0.753557	-0.008895
1918	9.5850e-01	0.8255	-10.260441	0.000466	4.662129	0.789786	-0.009322
1919	9.5900e-01	0.8169	-10.308762	0.000483	4.833217	0.818769	-0.009664
1920	9.5950e-01	0.8075	-10.345111	0.000364	3.635605	0.615888	-0.007270
1921	9.6000e-01	0.7948	-10.388728	0.000436	4.362726	0.739066	-0.008724
1922	9.6050e-01	0.7859	-10.435340	0.000466	4.662129	0.789786	-0.009322
1923	9.6100e-01	0.7753	-10.479813	0.000445	4.448270	0.753557	-0.008895
1924	9.6150e-01	0.7644	-10.521720	0.000419	4.191639	0.710083	-0.008381
1925	9.6200e-01	0.7542	-10.565338	0.000436	4.362726	0.739066	-0.008724
1926	9.6250e-01	0.7434	-10.607673	0.000423	4.234411	0.717329	-0.008467
1927	9.6300e-01	0.7361	-10.657277	0.000496	4.961532	0.840506	-0.009921
1928	9.6350e-01	0.7263	-10.703888	0.000466	4.662129	0.789786	-0.009322
1929	9.6400e-01	0.7156	-10.741519	0.000376	3.763921	0.637625	-0.007526
1930	9.6450e-01	0.7074	-10.785565	0.000441	4.405498	0.746312	-0.008809
1931	9.6500e-01	0.6952	-10.833459	0.000479	4.790445	0.811523	-0.009579
1932	9.6550e-01	0.6882	-10.880070	0.000466	4.662129	0.789786	-0.009322
1933	9.6600e-01	0.6764	-10.930102	0.000500	5.004304	0.847752	-0.010006
1934	9.6650e-01	0.6673	-10.962174	0.000321	3.207887	0.543431	-0.006414
1935	9.6700e-01	0.6561	-11.012634	0.000505	5.047076	0.854998	-0.010092
1936	9.6750e-01	0.6461	-11.049409	0.000368	3.678377	0.623134	-0.007355
1937	9.6800e-01	0.6339	-11.092172	0.000428	4.277183	0.724574	-0.008553
1938	9.6850e-01	0.6256	-11.146480	0.000543	5.432022	0.920209	-0.010862
1939	9.6900e-01	0.6172	-11.189243	0.000428	4.277183	0.724574	-0.008553
1940	9.6950e-01	0.6055	-11.237565	0.000483	4.833217	0.818769	-0.009664
1941	9.7000e-01	0.5971	-11.281610	0.000441	4.405498	0.746312	-0.008809
1942	9.7050e-01	0.5866	-11.319241	0.000376	3.763921	0.637625	-0.007526
1943	9.7100e-01	0.5757	-11.363714	0.000445	4.448270	0.753557	-0.008895
1944	9.7150e-01	0.5652	-11.409470	0.000458	4.576586	0.775295	-0.009151
1945	9.7200e-01	0.5566	-11.456509	0.000470	4.704901	0.797032	-0.009408
1946	9.7250e-01	0.5466	-11.499699	0.000432	4.319955	0.731820	-0.008638
1947	9.7300e-01	0.5363	-11.545455	0.000458	4.576586	0.775295	-0.009151
1948	9.7350e-01	0.5257	-11.584796	0.000394	3.935008	0.666608	-0.007868
1949	9.7400e-01	0.5150	-11.627559	0.000428	4.277183	0.724574	-0.008553
1950	9.7450e-01	0.5071	-11.683578	0.000560	5.603109	0.949192	-0.011204
1951	9.7500e-01	0.4964	-11.721209	0.000376	3.763921	0.637625	-0.007526
1952	9.7550e-01	0.4855	-11.765682	0.000445	4.448270	0.753557	-0.008895
1953	9.7600e-01	0.4750	-11.809300	0.000436	4.362726	0.739066	-0.008724
1954	9.7650e-01	0.4646	-11.856766	0.000475	4.747673	0.804278	-0.009493
1955	9.7700e-01	0.4540	-11.907226	0.000505	5.047076	0.854998	-0.010092
1956	9.7750e-01	0.4446	-11.954265	0.000470	4.704901	0.797032	-0.009408
1957	9.7800e-01	0.4298	-11.993178	0.000389	3.892236	0.659363	-0.007783
1958	9.7850e-01	0.4260	-12.041928	0.000488	4.875988	0.826015	-0.009750
1959	9.7900e-01	0.4153	-12.083407	0.000415	4.148867	0.702837	-0.008296
1960	9.7950e-01	0.4040	-12.127025	0.000436	4.362726	0.739066	-0.008724
1961	9.8000e-01	0.3986	-12.175774	0.000488	4.875988	0.826015	-0.009750
1962	9.8050e-01	0.3872	-12.222813	0.000470	4.704901	0.797032	-0.009408
1963	9.8100e-01	0.3753	-12.275411	0.000526	5.260935	0.891226	-0.010520
1964	9.8150e-01	0.3677	-12.306200	0.000308	3.079572	0.521694	-0.006158
1965	9.8200e-01	0.3546	-12.353239	0.000470	4.704901	0.797032	-0.009408
1966	9.8250e-01	0.3483	-12.393436	0.000402	4.020552	0.681100	-0.008039
1967	9.8300e-01	0.3350	-12.445178	0.000518	5.175391	0.876735	-0.010349
1968	9.8350e-01	0.3240	-12.492645	0.000475	4.747673	0.804278	-0.009493
1969	9.8400e-01	0.3146	-12.529421	0.000368	3.678377	0.623134	-0.007355
1970	9.8450e-01	0.3071	-12.587150	0.000577	5.774197	0.978175	-0.011546
1971	9.8500e-01	0.2940	-12.626064	0.000389	3.892236	0.659363	-0.007783
1972	9.8550e-01	0.2850	-12.664123	0.000381	3.806693	0.644871	-0.007612
1973	9.8600e-01	0.2726	-12.713727	0.000496	4.961532	0.840506	-0.009921
1974	9.8650e-01	0.2665	-12.756490	0.000428	4.277183	0.724574	-0.008553
1975	9.8700e-01	0.2568	-12.815074	0.000586	5.859740	0.992667	-0.011717
1976	9.8750e-01	0.2460	-12.844580	0.000295	2.951256	0.499956	-0.005901
1977	9.8800e-01	0.2359	-12.900172	0.000556	5.560338	0.941947	-0.011118
1978	9.8850e-01	0.2238	-12.940368	0.000402	4.020552	0.681100	-0.008039
1979	9.8900e-01	0.2149	-12.981848	0.000415	4.148867	0.702837	-0.008296
1980	9.8950e-01	0.2052	-13.037012	0.000552	5.517566	0.934701	-0.011033
1981	9.9000e-01	0.1966	-13.072932	0.000359	3.592834	0.608642	-0.007184
1982	9.9050e-01	0.1854	-13.122964	0.000500	5.004304	0.847752	-0.010006
1983	9.9100e-01	0.1767	-13.167865	0.000449	4.491042	0.760803	-0.008980
1984	9.9150e-01	0.1651	-13.211055	0.000432	4.319955	0.731820	-0.008638
1985	9.9200e-01	0.1582	-13.257239	0.000462	4.619357	0.782540	-0.009237
1986	9.9250e-01	0.1470	-13.302995	0.000458	4.576586	0.775295	-0.009151
1987	9.9300e-01	0.1372	-13.357731	0.000547	5.474794	0.927455	-0.010947
1988	9.9350e-01	0.1241	-13.396217	0.000385	3.849464	0.652117	-0.007697
1989	9.9400e-01	0.1166	-13.439407	0.000432	4.319955	0.731820	-0.008638
1990	9.9450e-01	0.1067	-13.489439	0.000500	5.004304	0.847752	-0.010006
1991	9.9500e-01	0.0969	-13.532629	0.000432	4.319955	0.731820	-0.008638
1992	9.9550e-01	0.0847	-13.576247	0.000436	4.362726	0.739066	-0.008724
1993	9.9600e-01	0.0739	-13.622003	0.000458	4.576586	0.775295	-0.009151
1994	9.9650e-01	0.0667	-13.671608	0.000496	4.961532	0.840506	-0.009921
1995	9.9700e-01	0.0534	-13.712232	0.000406	4.063324	0.688346	-0.008125
1996	9.9750e-01	0.0445	-13.764402	0.000522	5.218163	0.883981	-0.010434
1997	9.9800e-01	0.0350	-13.819566	0.000552	5.517566	0.934701	-0.011033
1998	9.9850e-01	0.0263	-13.850783	0.000312	3.122343	0.528939	-0.006243
1999	9.9900e-01	0.0135	-13.900387	0.000496	4.961532	0.840506	-0.009921
2000	9.9950e-01	0.0039	-13.946998	0.000466	4.662129	0.789786	-0.009322
2001	1.0000e+00	-0.0060	-13.983774	0.000466	4.662129	0.789786	-0.007355

PMax (uC/cm2):	3.51e+01
Pr (uC/cm2):	3.56e+00
-Pr (uC/cm2):	0.00e+00
PLoss (uC/cm2):	0.00e+00
C (Max-Eff) (nF):	3.51e-01
K (Eff):	5.95e+02
Vert. (+/-Pr) Shift (uC/cm2):	1.78e+00
Offset (uC/cm2):	1.75e+01

A (Loop Area - uC/cm2·Volts):	-3.43e-02



Hysteresis Version: 5.48.1 - Radiant Technologies, Inc., 1999 - 9/12/24

