»»»»»»»»»»»»»»»»»»»»»»»»»»»»»»»»»»»» Hysteresis ««««««««««««««««««««««««««««««««««««
»»»  Executed Version:	5.48.1
»»»  Vision Version:	5.48.4 (R)
»»»  Vision Compiled:	9/18/24
»»»  Driver Version:	5.47.0
»»»  Windows Version:	Windows 8 or 8.1
»»»  Processor Information:	x86 (AMD or Intel) - 32 Processors
»»»  Tester Name:	PMF21124-494 (100V)
»»»  Tester S/N:	PMF21124-494
»»»  Internal Amp Type:	100V RevK 270k
»»»  Internal Amp S/N:	iAB2-596/K     
»»»  Execution Count:	1
»»»»»»»»»»»»»»»»»»»»»»»»»»»»»»»»»»»»»»»»»»««««««««««««««««««««««««««««««««««««««««««

Stored:	6/18/2025 - 12:20:16
Configured:	06/18/25 09:47:30 AM
Executed:	06/18/25 12:19:51 PM

»»»»»»»»»»»»»»»»»»»»»»»»»»»»»»»»»»» Sample Info ««««««««««««««««««««««««««««««««««««
Sample Name:	
Lot Name:	
Wafer Name:	
Die Row/Column:	0/0
Capacitor Number:	0
Sample Area (cm2):	1.00e-04
Sample Thickness (microns):	3.00e-01

Amplifier:	Internal

»»»»»»»»»»»»»»»»»»»»»»»»»»»»»»»»»»» Tester Info «««««««««««««««««««««««««««««««««««
Tester Name:	PMF21124-494 (100V)
Tester Serial Number:	PMF21124-494
Return Signal Amp. Level:	0.19 [Index: 3]

»»»»»»»»»»»»»»»»»»»»»»»»»»»»»»»» Hysteresis Info ««««««««««««««««««««««««««««««««««
Task Name:	Hyst-554
Volts:	20.00
Field:	666.67 (kV/cm)
DCBias:	0.00
DCField:	0.00 (kV/cm)
Hysteresis Period (ms):	1.00e+00
Preset:	Enabled
Preset Delay (ms):	1.00e+03
Profile:	Standard Bipolar

»»»»»»»»»»»»»»»»»»»»»»»»»»»»»»»»»»»»»» Data «««««««««««««««««««««««««««««««««««««««
Points:	2001

Valid Data

Point	Time (ms)	Drive Voltage	Measured Polarization (uC/cm2)	Capacitance (uF)	Normalized Capacitance (uF/cm2)	Dielectric Constant	Instantaneous Current (mA)
   1	0.0000e+00	0.0176	-6.700993	0.000424	4.244463	1.438063	0.033878
   2	5.0000e-04	0.0369	-6.531603	0.000424	4.244463	1.438063	0.033878
   3	1.0000e-03	0.0545	-6.523537	0.000020	0.202117	0.068479	0.001613
   4	1.5000e-03	0.0946	-6.277518	0.000616	6.164577	2.088615	0.049204
   5	2.0000e-03	0.1315	-6.067797	0.000526	5.255049	1.780459	0.041944
   6	2.5000e-03	0.1781	-5.999234	0.000172	1.717997	0.582073	0.013713
   7	3.0000e-03	0.2150	-5.684652	0.000788	7.882574	2.670688	0.062916
   8	3.5000e-03	0.2471	-5.374104	0.000778	7.781515	2.636449	0.062110
   9	4.0000e-03	0.2936	-5.051456	0.000808	8.084691	2.739168	0.064530
  10	4.5000e-03	0.3385	-4.857867	0.000485	4.850815	1.643501	0.038718
  11	5.0000e-03	0.3610	-4.611848	0.000616	6.164577	2.088615	0.049204
  12	5.5000e-03	0.4075	-4.256936	0.000889	8.893160	3.013084	0.070983
  13	6.0000e-03	0.4556	-4.103678	0.000384	3.840228	1.301105	0.030652
  14	6.5000e-03	0.4893	-3.837493	0.000667	6.669870	2.259813	0.053237
  15	7.0000e-03	0.5262	-3.502746	0.000839	8.387867	2.841886	0.066949
  16	7.5000e-03	0.5695	-3.450316	0.000131	1.313762	0.445115	0.010486
  17	8.0000e-03	0.6048	-3.010708	0.001102	11.015392	3.732116	0.087922
  18	8.5000e-03	0.6465	-2.909881	0.000253	2.526466	0.855990	0.020165
  19	9.0000e-03	0.6882	-2.599332	0.000778	7.781515	2.636449	0.062110
  20	9.5000e-03	0.7283	-2.333148	0.000667	6.669870	2.259813	0.053237
  21	1.0000e-02	0.7716	-2.062930	0.000677	6.770929	2.294053	0.054044
  22	1.0500e-02	0.8198	-1.776580	0.000718	7.175163	2.431011	0.057270
  23	1.1000e-02	0.8615	-1.623322	0.000384	3.840228	1.301105	0.030652
  24	1.1500e-02	0.9000	-1.466031	0.000394	3.941287	1.335344	0.031458
  25	1.2000e-02	0.9240	-1.264376	0.000505	5.052932	1.711980	0.040331
  26	1.2500e-02	0.9802	-1.014324	0.000627	6.265636	2.122855	0.050010
  27	1.3000e-02	1.0235	-0.574717	0.001102	11.015392	3.732116	0.087922
  28	1.3500e-02	1.0476	-0.223837	0.000879	8.792102	2.978845	0.070176
  29	1.4000e-02	1.0893	-0.018149	0.000515	5.153991	1.746219	0.041138
  30	1.4500e-02	1.1278	0.191572	0.000526	5.255049	1.780459	0.041944
  31	1.5000e-02	1.1695	0.457757	0.000667	6.669870	2.259813	0.053237
  32	1.5500e-02	1.2112	0.703776	0.000616	6.164577	2.088615	0.049204
  33	1.6000e-02	1.2481	0.917530	0.000536	5.356108	1.814698	0.042751
  34	1.6500e-02	1.2978	1.179681	0.000657	6.568812	2.225574	0.052430
  35	1.7000e-02	1.3331	1.534594	0.000889	8.893160	3.013084	0.070983
  36	1.7500e-02	1.3812	1.587024	0.000131	1.313762	0.445115	0.010486
  37	1.8000e-02	1.4005	1.833043	0.000616	6.164577	2.088615	0.049204
  38	1.8500e-02	1.4502	2.204088	0.000930	9.297395	3.150043	0.074209
  39	1.9000e-02	1.4951	2.369445	0.000414	4.143404	1.403823	0.033071
  40	1.9500e-02	1.5256	2.651762	0.000707	7.074105	2.396772	0.056463
  41	2.0000e-02	1.5705	2.986510	0.000839	8.387867	2.841886	0.066949
  42	2.0500e-02	1.6171	3.252694	0.000667	6.669870	2.259813	0.053237
  43	2.1000e-02	1.6475	3.547110	0.000738	7.377281	2.499490	0.058883
  44	2.1500e-02	1.6812	3.825394	0.000697	6.973046	2.362532	0.055657
  45	2.2000e-02	1.7374	4.018983	0.000485	4.850815	1.643501	0.038718
  46	2.2500e-02	1.7727	4.321465	0.000758	7.579398	2.567970	0.060496
  47	2.3000e-02	1.8176	4.611848	0.000728	7.276222	2.465251	0.058077
  48	2.3500e-02	1.8449	4.813503	0.000505	5.052932	1.711980	0.040331
  49	2.4000e-02	1.8978	4.950629	0.000344	3.435994	1.164146	0.027425
  50	2.4500e-02	1.9347	5.297475	0.000869	8.691043	2.944605	0.069369
  51	2.5000e-02	1.9700	5.438633	0.000354	3.537052	1.198386	0.028232
  52	2.5500e-02	2.0165	5.805645	0.000920	9.196336	3.115803	0.073402
  53	2.6000e-02	2.0502	6.124260	0.000798	7.983632	2.704928	0.063723
  54	2.6500e-02	2.0871	6.301717	0.000445	4.446580	1.506542	0.035491
  55	2.7000e-02	2.1368	6.511438	0.000526	5.255049	1.780459	0.041944
  56	2.7500e-02	2.1705	6.858284	0.000869	8.691043	2.944605	0.069369
  57	2.8000e-02	2.2106	6.999443	0.000354	3.537052	1.198386	0.028232
  58	2.8500e-02	2.2459	7.439050	0.001102	11.015392	3.732116	0.087922
  59	2.9000e-02	2.2973	7.560043	0.000303	3.031759	1.027188	0.024199
  60	2.9500e-02	2.3310	7.914956	0.000889	8.893160	3.013084	0.070983
  61	3.0000e-02	2.3807	8.181141	0.000667	6.669870	2.259813	0.053237
  62	3.0500e-02	2.4096	8.491689	0.000778	7.781515	2.636449	0.062110
  63	3.1000e-02	2.4432	8.729642	0.000596	5.962460	2.020136	0.047591
  64	3.1500e-02	2.4898	8.882900	0.000384	3.840228	1.301105	0.030652
  65	3.2000e-02	2.5283	9.157150	0.000687	6.871987	2.328292	0.054850
  66	3.2500e-02	2.5716	9.298309	0.000354	3.537052	1.198386	0.028232
  67	3.3000e-02	2.6149	9.665321	0.000920	9.196336	3.115803	0.073402
  68	3.3500e-02	2.6518	9.875042	0.000526	5.255049	1.780459	0.041944
  69	3.4000e-02	2.6967	10.064598	0.000475	4.749756	1.609261	0.037911
  70	3.4500e-02	2.7288	10.371113	0.000768	7.680457	2.602209	0.061303
  71	3.5000e-02	2.7737	10.677629	0.000768	7.680457	2.602209	0.061303
  72	3.5500e-02	2.8154	10.871217	0.000485	4.850815	1.643501	0.038718
  73	3.6000e-02	2.8507	11.226130	0.000889	8.893160	3.013084	0.070983
  74	3.6500e-02	2.8924	11.500381	0.000687	6.871987	2.328292	0.054850
  75	3.7000e-02	2.9325	11.766565	0.000667	6.669870	2.259813	0.053237
  76	3.7500e-02	2.9775	11.992419	0.000566	5.659284	1.917417	0.045171
  77	3.8000e-02	3.0208	12.282802	0.000728	7.276222	2.465251	0.058077
  78	3.8500e-02	3.0545	12.581251	0.000748	7.478339	2.533730	0.059690
  79	3.9000e-02	3.0994	12.738542	0.000394	3.941287	1.335344	0.031458
  80	3.9500e-02	3.1266	13.198315	0.001152	11.520685	3.903314	0.091955
  81	4.0000e-02	3.1716	13.508864	0.000778	7.781515	2.636449	0.062110
  82	4.0500e-02	3.2165	13.803280	0.000738	7.377281	2.499490	0.058883
  83	4.1000e-02	3.2662	13.871843	0.000172	1.717997	0.582073	0.013713
  84	4.1500e-02	3.2967	14.158193	0.000718	7.175163	2.431011	0.057270
  85	4.2000e-02	3.3352	14.388079	0.000576	5.760342	1.951657	0.045977
  86	4.2500e-02	3.3769	14.577635	0.000475	4.749756	1.609261	0.037911
  87	4.3000e-02	3.4154	14.993044	0.001041	10.409040	3.526678	0.083082
  88	4.3500e-02	3.4459	15.460883	0.001172	11.722802	3.971793	0.093568
  89	4.4000e-02	3.4892	15.690770	0.000576	5.760342	1.951657	0.045977
  90	4.4500e-02	3.5309	15.735134	0.000111	1.111645	0.376636	0.008873
  91	4.5000e-02	3.5774	15.944855	0.000526	5.255049	1.780459	0.041944
  92	4.5500e-02	3.6175	16.356231	0.001031	10.307981	3.492439	0.082275
  93	4.6000e-02	3.6480	16.569986	0.000536	5.356108	1.814698	0.042751
  94	4.6500e-02	3.6913	16.832137	0.000657	6.568812	2.225574	0.052430
  95	4.7000e-02	3.7330	17.215281	0.000960	9.600571	3.252761	0.076629
  96	4.7500e-02	3.7748	17.420969	0.000515	5.153991	1.746219	0.041138
  97	4.8000e-02	3.8117	17.594393	0.000435	4.345521	1.472303	0.034685
  98	4.8500e-02	3.8566	17.812180	0.000546	5.457167	1.848938	0.043557
  99	4.9000e-02	3.8871	18.219523	0.001021	10.206923	3.458199	0.081469
 100	4.9500e-02	3.9304	18.578469	0.000899	8.994219	3.047324	0.071789
 101	5.0000e-02	3.9737	18.856753	0.000697	6.973046	2.362532	0.055657
 102	5.0500e-02	4.0138	19.058407	0.000505	5.052932	1.711980	0.040331
 103	5.1000e-02	4.0491	19.332658	0.000687	6.871987	2.328292	0.054850
 104	5.1500e-02	4.0796	19.667405	0.000839	8.387867	2.841886	0.066949
 105	5.2000e-02	4.1229	19.925524	0.000647	6.467753	2.191334	0.051624
 106	5.2500e-02	4.1694	20.090881	0.000414	4.143404	1.403823	0.033071
 107	5.3000e-02	4.2111	20.474025	0.000960	9.600571	3.252761	0.076629
 108	5.3500e-02	4.2480	20.728110	0.000637	6.366694	2.157094	0.050817
 109	5.4000e-02	4.2897	21.030593	0.000758	7.579398	2.567970	0.060496
 110	5.4500e-02	4.3266	21.296777	0.000667	6.669870	2.259813	0.053237
 111	5.5000e-02	4.3667	21.373406	0.000192	1.920114	0.650552	0.015326
 112	5.5500e-02	4.4229	21.683955	0.000778	7.781515	2.636449	0.062110
 113	5.6000e-02	4.4453	22.014669	0.000829	8.286808	2.807647	0.066143
 114	5.6500e-02	4.4902	22.301019	0.000718	7.175163	2.431011	0.057270
 115	5.7000e-02	4.5352	22.518806	0.000546	5.457167	1.848938	0.043557
 116	5.7500e-02	4.5721	22.784991	0.000667	6.669870	2.259813	0.053237
 117	5.8000e-02	4.6106	23.172168	0.000970	9.701629	3.287001	0.077435
 118	5.8500e-02	4.6619	23.313326	0.000354	3.537052	1.198386	0.028232
 119	5.9000e-02	4.6988	23.640007	0.000819	8.185750	2.773407	0.065336
 120	5.9500e-02	4.7357	23.978788	0.000849	8.488926	2.876126	0.067756
 121	6.0000e-02	4.7758	24.220774	0.000606	6.063518	2.054376	0.048397
 122	6.0500e-02	4.8111	24.587786	0.000920	9.196336	3.115803	0.073402
 123	6.1000e-02	4.8544	24.825738	0.000596	5.962460	2.020136	0.047591
 124	6.1500e-02	4.8993	25.035460	0.000526	5.255049	1.780459	0.041944
 125	6.2000e-02	4.9426	25.362141	0.000819	8.185750	2.773407	0.065336
 126	6.2500e-02	4.9715	25.583961	0.000556	5.558225	1.883178	0.044364
 127	6.3000e-02	5.0180	25.870311	0.000718	7.175163	2.431011	0.057270
 128	6.3500e-02	5.0533	26.067933	0.000495	4.951873	1.677740	0.039524
 129	6.4000e-02	5.0934	26.559971	0.001233	12.329154	4.177230	0.098408
 130	6.4500e-02	5.1319	26.781791	0.000556	5.558225	1.883178	0.044364
 131	6.5000e-02	5.1704	26.874553	0.000232	2.324349	0.787511	0.018552
 132	6.5500e-02	5.2089	27.273829	0.001000	10.004805	3.389720	0.079855
 133	6.6000e-02	5.2474	27.479517	0.000515	5.153991	1.746219	0.041138
 134	6.6500e-02	5.2972	27.834430	0.000889	8.893160	3.013084	0.070983
 135	6.7000e-02	5.3164	27.955423	0.000303	3.031759	1.027188	0.024199
 136	6.7500e-02	5.3726	28.253872	0.000748	7.478339	2.533730	0.059690
 137	6.8000e-02	5.4239	28.572487	0.000798	7.983632	2.704928	0.063723
 138	6.8500e-02	5.4512	28.923367	0.000879	8.792102	2.978845	0.070176
 139	6.9000e-02	5.4897	29.286346	0.000910	9.095278	3.081563	0.072596
 140	6.9500e-02	5.5314	29.423471	0.000344	3.435994	1.164146	0.027425
 141	7.0000e-02	5.5699	29.850979	0.001071	10.712216	3.629397	0.085502
 142	7.0500e-02	5.6052	29.931641	0.000202	2.021173	0.684792	0.016132
 143	7.1000e-02	5.6533	30.326885	0.000990	9.903747	3.355480	0.079049
 144	7.1500e-02	5.6902	30.629367	0.000758	7.579398	2.567970	0.060496
 145	7.2000e-02	5.7207	30.927817	0.000748	7.478339	2.533730	0.059690
 146	7.2500e-02	5.7768	31.282729	0.000889	8.893160	3.013084	0.070983
 147	7.3000e-02	5.8186	31.427921	0.000364	3.638111	1.232625	0.029038
 148	7.3500e-02	5.8458	31.770734	0.000859	8.589984	2.910365	0.068563
 149	7.4000e-02	5.8923	32.198243	0.001071	10.712216	3.629397	0.085502
 150	7.4500e-02	5.9308	32.327302	0.000323	3.233876	1.095667	0.025812
 151	7.5000e-02	5.9790	32.520891	0.000485	4.850815	1.643501	0.038718
 152	7.5500e-02	6.0175	32.779009	0.000647	6.467753	2.191334	0.051624
 153	7.6000e-02	6.0447	33.089557	0.000778	7.781515	2.636449	0.062110
 154	7.6500e-02	6.0945	33.367841	0.000697	6.973046	2.362532	0.055657
 155	7.7000e-02	6.1266	33.746953	0.000950	9.499512	3.218522	0.075822
 156	7.7500e-02	6.1699	34.081700	0.000839	8.387867	2.841886	0.066949
 157	7.8000e-02	6.2148	34.452745	0.000930	9.297395	3.150043	0.074209
 158	7.8500e-02	6.2549	34.614069	0.000404	4.042346	1.369584	0.032265
 159	7.9000e-02	6.2870	34.795558	0.000455	4.547639	1.540782	0.036298
 160	7.9500e-02	6.3319	35.005279	0.000526	5.255049	1.780459	0.041944
 161	8.0000e-02	6.3672	35.323894	0.000798	7.983632	2.704928	0.063723
 162	8.0500e-02	6.4121	35.662674	0.000849	8.488926	2.876126	0.067756
 163	8.1000e-02	6.4602	36.186977	0.001314	13.137623	4.451147	0.104861
 164	8.1500e-02	6.4987	36.186977	0.000000	0.000000	0.000000	0.000000
 165	8.2000e-02	6.5308	36.316036	0.000323	3.233876	1.095667	0.025812
 166	8.2500e-02	6.5822	36.582221	0.000667	6.669870	2.259813	0.053237
 167	8.3000e-02	6.5998	36.969398	0.000970	9.701629	3.287001	0.077435
 168	8.3500e-02	6.6544	37.199285	0.000576	5.760342	1.951657	0.045977
 169	8.4000e-02	6.6913	37.614694	0.001041	10.409040	3.526678	0.083082
 170	8.4500e-02	6.7249	37.747786	0.000333	3.334935	1.129907	0.026618
 171	8.5000e-02	6.7731	38.090600	0.000859	8.589984	2.910365	0.068563
 172	8.5500e-02	6.8036	38.417281	0.000819	8.185750	2.773407	0.065336
 173	8.6000e-02	6.8485	38.675399	0.000647	6.467753	2.191334	0.051624
 174	8.6500e-02	6.8854	38.893186	0.000546	5.457167	1.848938	0.043557
 175	8.7000e-02	6.9287	39.304562	0.001031	10.307981	3.492439	0.082275
 176	8.7500e-02	6.9736	39.554615	0.000627	6.265636	2.122855	0.050010
 177	8.8000e-02	7.0025	39.760303	0.000515	5.153991	1.746219	0.041138
 178	8.8500e-02	7.0506	40.014388	0.000637	6.366694	2.157094	0.050817
 179	8.9000e-02	7.0907	40.288638	0.000687	6.871987	2.328292	0.054850
 180	8.9500e-02	7.1308	40.570955	0.000707	7.074105	2.396772	0.056463
 181	9.0000e-02	7.1773	40.901669	0.000829	8.286808	2.807647	0.066143
 182	9.0500e-02	7.2078	41.071060	0.000424	4.244463	1.438063	0.033878
 183	9.1000e-02	7.2463	41.369509	0.000748	7.478339	2.533730	0.059690
 184	9.1500e-02	7.2896	41.623594	0.000637	6.366694	2.157094	0.050817
 185	9.2000e-02	7.3410	41.990606	0.000920	9.196336	3.115803	0.073402
 186	9.2500e-02	7.3714	42.139831	0.000374	3.739170	1.266865	0.029845
 187	9.3000e-02	7.4116	42.381817	0.000606	6.063518	2.054376	0.048397
 188	9.3500e-02	7.4485	42.926285	0.001364	13.642916	4.622345	0.108894
 189	9.4000e-02	7.4821	43.172304	0.000616	6.164577	2.088615	0.049204
 190	9.4500e-02	7.5255	43.265065	0.000232	2.324349	0.787511	0.018552
 191	9.5000e-02	7.5704	43.591746	0.000819	8.185750	2.773407	0.065336
 192	9.5500e-02	7.6089	43.942626	0.000879	8.792102	2.978845	0.070176
 193	9.6000e-02	7.6506	44.160413	0.000546	5.457167	1.848938	0.043557
 194	9.6500e-02	7.6939	44.495160	0.000839	8.387867	2.841886	0.066949
 195	9.7000e-02	7.7324	44.620186	0.000313	3.132818	1.061427	0.025005
 196	9.7500e-02	7.7741	44.987198	0.000920	9.196336	3.115803	0.073402
 197	9.8000e-02	7.8078	45.196919	0.000526	5.255049	1.780459	0.041944
 198	9.8500e-02	7.8543	45.571998	0.000940	9.398453	3.184282	0.075016
 199	9.9000e-02	7.8944	45.652660	0.000202	2.021173	0.684792	0.016132
 200	9.9500e-02	7.9313	45.999506	0.000869	8.691043	2.944605	0.069369
 201	1.0000e-01	7.9618	46.326187	0.000819	8.185750	2.773407	0.065336
 202	1.0050e-01	8.0019	46.636736	0.000778	7.781515	2.636449	0.062110
 203	1.0100e-01	8.0516	46.975516	0.000849	8.488926	2.876126	0.067756
 204	1.0150e-01	8.0885	47.157005	0.000455	4.547639	1.540782	0.036298
 205	1.0200e-01	8.1335	47.277998	0.000303	3.031759	1.027188	0.024199
 206	1.0250e-01	8.1768	47.874897	0.001496	14.956679	5.067460	0.119380
 207	1.0300e-01	8.2024	48.112850	0.000596	5.962460	2.020136	0.047591
 208	1.0350e-01	8.2458	48.471796	0.000899	8.994219	3.047324	0.071789
 209	1.0400e-01	8.2939	48.504060	0.000081	0.808469	0.273917	0.006453
 210	1.0450e-01	8.3260	48.733947	0.000576	5.760342	1.951657	0.045977
 211	1.0500e-01	8.3693	48.975933	0.000606	6.063518	2.054376	0.048397
 212	1.0550e-01	8.4126	49.467971	0.001233	12.329154	4.177230	0.098408
 213	1.0600e-01	8.4431	49.584931	0.000293	2.930701	0.992948	0.023392
 214	1.0650e-01	8.4880	49.943877	0.000899	8.994219	3.047324	0.071789
 215	1.0700e-01	8.5281	50.153598	0.000526	5.255049	1.780459	0.041944
 216	1.0750e-01	8.5666	50.448014	0.000738	7.377281	2.499490	0.058883
 217	1.0800e-01	8.6051	50.637570	0.000475	4.749756	1.609261	0.037911
 218	1.0850e-01	8.6452	51.105409	0.001172	11.722802	3.971793	0.093568
 219	1.0900e-01	8.6821	51.335296	0.000576	5.760342	1.951657	0.045977
 220	1.0950e-01	8.7334	51.561149	0.000566	5.659284	1.917417	0.045171
 221	1.1000e-01	8.7719	51.871698	0.000778	7.781515	2.636449	0.062110
 222	1.1050e-01	8.8104	52.081419	0.000526	5.255049	1.780459	0.041944
 223	1.1100e-01	8.8425	52.379868	0.000748	7.478339	2.533730	0.059690
 224	1.1150e-01	8.8923	52.750913	0.000930	9.297395	3.150043	0.074209
 225	1.1200e-01	8.9404	52.900138	0.000374	3.739170	1.266865	0.029845
 226	1.1250e-01	8.9757	53.307481	0.001021	10.206923	3.458199	0.081469
 227	1.1300e-01	9.0094	53.428474	0.000303	3.031759	1.027188	0.024199
 228	1.1350e-01	9.0431	53.710791	0.000707	7.074105	2.396772	0.056463
 229	1.1400e-01	9.0992	54.057637	0.000869	8.691043	2.944605	0.069369
 230	1.1450e-01	9.1409	54.339954	0.000707	7.074105	2.396772	0.056463
 231	1.1500e-01	9.1682	54.702933	0.000910	9.095278	3.081563	0.072596
 232	1.1550e-01	9.2099	54.896522	0.000485	4.850815	1.643501	0.038718
 233	1.1600e-01	9.2516	55.098177	0.000505	5.052932	1.711980	0.040331
 234	1.1650e-01	9.2853	55.380493	0.000707	7.074105	2.396772	0.056463
 235	1.1700e-01	9.3382	55.699108	0.000798	7.983632	2.704928	0.063723
 236	1.1750e-01	9.3703	55.937061	0.000596	5.962460	2.020136	0.047591
 237	1.1800e-01	9.4104	56.070153	0.000333	3.334935	1.129907	0.026618
 238	1.1850e-01	9.4505	56.517827	0.001122	11.217509	3.800595	0.089535
 239	1.1900e-01	9.4890	56.796111	0.000697	6.973046	2.362532	0.055657
 240	1.1950e-01	9.5259	57.118759	0.000808	8.084691	2.739168	0.064530
 241	1.2000e-01	9.5757	57.489804	0.000930	9.297395	3.150043	0.074209
 242	1.2050e-01	9.6158	57.626929	0.000344	3.435994	1.164146	0.027425
 243	1.2100e-01	9.6543	57.917312	0.000728	7.276222	2.465251	0.058077
 244	1.2150e-01	9.6928	58.082670	0.000414	4.143404	1.403823	0.033071
 245	1.2200e-01	9.7313	58.324655	0.000606	6.063518	2.054376	0.048397
 246	1.2250e-01	9.7666	58.639237	0.000788	7.882574	2.670688	0.062916
 247	1.2300e-01	9.8131	58.917521	0.000697	6.973046	2.362532	0.055657
 248	1.2350e-01	9.8564	59.123209	0.000515	5.153991	1.746219	0.041138
 249	1.2400e-01	9.8837	59.389393	0.000667	6.669870	2.259813	0.053237
 250	1.2450e-01	9.9238	59.587015	0.000495	4.951873	1.677740	0.039524
 251	1.2500e-01	9.9655	60.107285	0.001304	13.036564	4.416908	0.104054
 252	1.2550e-01	10.0136	60.208112	0.000253	2.526466	0.855990	0.020165
 253	1.2600e-01	10.0505	60.385569	0.000445	4.446580	1.506542	0.035491
 254	1.2650e-01	10.0842	60.889706	0.001263	12.632330	4.279949	0.100827
 255	1.2700e-01	10.1371	61.087328	0.000495	4.951873	1.677740	0.039524
 256	1.2750e-01	10.1708	61.377711	0.000728	7.276222	2.465251	0.058077
 257	1.2800e-01	10.2061	61.599532	0.000556	5.558225	1.883178	0.044364
 258	1.2850e-01	10.2478	61.906047	0.000768	7.680457	2.602209	0.061303
 259	1.2900e-01	10.2895	62.006874	0.000253	2.526466	0.855990	0.020165
 260	1.2950e-01	10.3329	62.357754	0.000879	8.792102	2.978845	0.070176
 261	1.3000e-01	10.3858	62.672336	0.000788	7.882574	2.670688	0.062916
 262	1.3050e-01	10.4083	62.857858	0.000465	4.648697	1.575021	0.037105
 263	1.3100e-01	10.4564	63.228903	0.000930	9.297395	3.150043	0.074209
 264	1.3150e-01	10.4949	63.555584	0.000819	8.185750	2.773407	0.065336
 265	1.3200e-01	10.5382	63.648346	0.000232	2.324349	0.787511	0.018552
 266	1.3250e-01	10.5671	64.096020	0.001122	11.217509	3.800595	0.089535
 267	1.3300e-01	10.6136	64.350105	0.000637	6.366694	2.157094	0.050817
 268	1.3350e-01	10.6521	64.660653	0.000778	7.781515	2.636449	0.062110
 269	1.3400e-01	10.6906	64.866341	0.000515	5.153991	1.746219	0.041138
 270	1.3450e-01	10.7275	64.995401	0.000323	3.233876	1.095667	0.025812
 271	1.3500e-01	10.7708	65.265618	0.000677	6.770929	2.294053	0.054044
 272	1.3550e-01	10.8173	65.402743	0.000344	3.435994	1.164146	0.027425
 273	1.3600e-01	10.8494	65.967377	0.001415	14.148209	4.793543	0.112927
 274	1.3650e-01	10.8992	66.152900	0.000465	4.648697	1.575021	0.037105
 275	1.3700e-01	10.9409	66.249694	0.000243	2.425407	0.821750	0.019359
 276	1.3750e-01	10.9730	66.693335	0.001112	11.116450	3.766355	0.088728
 277	1.3800e-01	11.0098	66.882891	0.000475	4.749756	1.609261	0.037911
 278	1.3850e-01	11.0451	67.262002	0.000950	9.499512	3.218522	0.075822
 279	1.3900e-01	11.0917	67.387028	0.000313	3.132818	1.061427	0.025005
 280	1.3950e-01	11.1366	67.612882	0.000566	5.659284	1.917417	0.045171
 281	1.4000e-01	11.1735	67.915364	0.000758	7.579398	2.567970	0.060496
 282	1.4050e-01	11.2104	68.173482	0.000647	6.467753	2.191334	0.051624
 283	1.4100e-01	11.2553	68.431601	0.000647	6.467753	2.191334	0.051624
 284	1.4150e-01	11.2826	68.709884	0.000697	6.973046	2.362532	0.055657
 285	1.4200e-01	11.3307	69.056731	0.000869	8.691043	2.944605	0.069369
 286	1.4250e-01	11.3708	69.230154	0.000435	4.345521	1.472303	0.034685
 287	1.4300e-01	11.4077	69.532636	0.000758	7.579398	2.567970	0.060496
 288	1.4350e-01	11.4526	69.867384	0.000839	8.387867	2.841886	0.066949
 289	1.4400e-01	11.4799	70.194065	0.000819	8.185750	2.773407	0.065336
 290	1.4450e-01	11.5296	70.480415	0.000718	7.175163	2.431011	0.057270
 291	1.4500e-01	11.5633	70.742566	0.000657	6.568812	2.225574	0.052430
 292	1.4550e-01	11.6162	70.867592	0.000313	3.132818	1.061427	0.025005
 293	1.4600e-01	11.6580	71.186207	0.000798	7.983632	2.704928	0.063723
 294	1.4650e-01	11.6916	71.295101	0.000273	2.728583	0.924469	0.021779
 295	1.4700e-01	11.7269	71.460458	0.000414	4.143404	1.403823	0.033071
 296	1.4750e-01	11.7815	71.904098	0.001112	11.116450	3.766355	0.088728
 297	1.4800e-01	11.8055	72.267077	0.000910	9.095278	3.081563	0.072596
 298	1.4850e-01	11.8521	72.505030	0.000596	5.962460	2.020136	0.047591
 299	1.4900e-01	11.8922	72.593758	0.000222	2.223290	0.753271	0.017746
 300	1.4950e-01	11.9371	72.976903	0.000960	9.600571	3.252761	0.076629
 301	1.5000e-01	11.9692	73.114028	0.000344	3.435994	1.164146	0.027425
 302	1.5050e-01	12.0125	73.481040	0.000920	9.196336	3.115803	0.073402
 303	1.5100e-01	12.0494	73.811754	0.000829	8.286808	2.807647	0.066143
 304	1.5150e-01	12.0895	74.037608	0.000566	5.659284	1.917417	0.045171
 305	1.5200e-01	12.1344	74.287660	0.000627	6.265636	2.122855	0.050010
 306	1.5250e-01	12.1777	74.638539	0.000879	8.792102	2.978845	0.070176
 307	1.5300e-01	12.2162	74.735334	0.000243	2.425407	0.821750	0.019359
 308	1.5350e-01	12.2595	75.029750	0.000738	7.377281	2.499490	0.058883
 309	1.5400e-01	12.2900	75.396762	0.000920	9.196336	3.115803	0.073402
 310	1.5450e-01	12.3269	75.699244	0.000758	7.579398	2.567970	0.060496
 311	1.5500e-01	12.3734	75.751674	0.000131	1.313762	0.445115	0.010486
 312	1.5550e-01	12.4039	76.054157	0.000758	7.579398	2.567970	0.060496
 313	1.5600e-01	12.4553	76.312275	0.000647	6.467753	2.191334	0.051624
 314	1.5650e-01	12.4970	76.558294	0.000616	6.164577	2.088615	0.049204
 315	1.5700e-01	12.5258	76.840611	0.000707	7.074105	2.396772	0.056463
 316	1.5750e-01	12.5756	77.046299	0.000515	5.153991	1.746219	0.041138
 317	1.5800e-01	12.6109	77.473808	0.001071	10.712216	3.629397	0.085502
 318	1.5850e-01	12.6494	77.610933	0.000344	3.435994	1.164146	0.027425
 319	1.5900e-01	12.6991	77.885184	0.000687	6.871987	2.328292	0.054850
 320	1.5950e-01	12.7312	78.074739	0.000475	4.749756	1.609261	0.037911
 321	1.6000e-01	12.7697	78.453851	0.000950	9.499512	3.218522	0.075822
 322	1.6050e-01	12.8114	78.796664	0.000859	8.589984	2.910365	0.068563
 323	1.6100e-01	12.8499	78.933789	0.000344	3.435994	1.164146	0.027425
 324	1.6150e-01	12.8996	79.349198	0.001041	10.409040	3.526678	0.083082
 325	1.6200e-01	12.9253	79.530688	0.000455	4.547639	1.540782	0.036298
 326	1.6250e-01	12.9670	79.679913	0.000374	3.739170	1.266865	0.029845
 327	1.6300e-01	13.0119	79.821071	0.000354	3.537052	1.198386	0.028232
 328	1.6350e-01	13.0569	80.059024	0.000596	5.962460	2.020136	0.047591
 329	1.6400e-01	13.0857	80.409903	0.000879	8.792102	2.978845	0.070176
 330	1.6450e-01	13.1322	80.692220	0.000707	7.074105	2.396772	0.056463
 331	1.6500e-01	13.1691	80.914041	0.000556	5.558225	1.883178	0.044364
 332	1.6550e-01	13.2093	81.216523	0.000758	7.579398	2.567970	0.060496
 333	1.6600e-01	13.2526	81.398013	0.000455	4.547639	1.540782	0.036298
 334	1.6650e-01	13.2927	81.801322	0.001011	10.105864	3.423959	0.080662
 335	1.6700e-01	13.3264	81.890051	0.000222	2.223290	0.753271	0.017746
 336	1.6750e-01	13.3777	82.164301	0.000687	6.871987	2.328292	0.054850
 337	1.6800e-01	13.4114	82.374022	0.000526	5.255049	1.780459	0.041944
 338	1.6850e-01	13.4499	82.591810	0.000546	5.457167	1.848938	0.043557
 339	1.6900e-01	13.4900	82.995120	0.001011	10.105864	3.423959	0.080662
 340	1.6950e-01	13.5269	83.220973	0.000566	5.659284	1.917417	0.045171
 341	1.7000e-01	13.5750	83.386330	0.000414	4.143404	1.403823	0.033071
 342	1.7050e-01	13.6119	83.543621	0.000394	3.941287	1.335344	0.031458
 343	1.7100e-01	13.6504	83.918699	0.000940	9.398453	3.184282	0.075016
 344	1.7150e-01	13.6857	84.265546	0.000869	8.691043	2.944605	0.069369
 345	1.7200e-01	13.7258	84.394605	0.000323	3.233876	1.095667	0.025812
 346	1.7250e-01	13.7691	84.805981	0.001031	10.307981	3.492439	0.082275
 347	1.7300e-01	13.7996	84.999570	0.000485	4.850815	1.643501	0.038718
 348	1.7350e-01	13.8509	85.402879	0.001011	10.105864	3.423959	0.080662
 349	1.7400e-01	13.8943	85.540005	0.000344	3.435994	1.164146	0.027425
 350	1.7450e-01	13.9231	85.689229	0.000374	3.739170	1.266865	0.029845
 351	1.7500e-01	13.9841	85.923149	0.000586	5.861401	1.985896	0.046784
 352	1.7550e-01	14.0017	86.229665	0.000768	7.680457	2.602209	0.061303
 353	1.7600e-01	14.0531	86.507948	0.000697	6.973046	2.362532	0.055657
 354	1.7650e-01	14.0836	86.697504	0.000475	4.749756	1.609261	0.037911
 355	1.7700e-01	14.1269	87.032251	0.000839	8.387867	2.841886	0.066949
 356	1.7750e-01	14.1638	87.241972	0.000526	5.255049	1.780459	0.041944
 357	1.7800e-01	14.2119	87.492025	0.000627	6.265636	2.122855	0.050010
 358	1.7850e-01	14.2472	87.717878	0.000566	5.659284	1.917417	0.045171
 359	1.7900e-01	14.2889	87.915500	0.000495	4.951873	1.677740	0.039524
 360	1.7950e-01	14.3290	88.347041	0.001081	10.813274	3.663637	0.086308
 361	1.8000e-01	14.3723	88.524498	0.000445	4.446580	1.506542	0.035491
 362	1.8050e-01	14.4060	88.637425	0.000283	2.829642	0.958709	0.022585
 363	1.8100e-01	14.4397	88.907642	0.000677	6.770929	2.294053	0.054044
 364	1.8150e-01	14.4991	89.181893	0.000687	6.871987	2.328292	0.054850
 365	1.8200e-01	14.5263	89.512607	0.000829	8.286808	2.807647	0.066143
 366	1.8250e-01	14.5777	89.718295	0.000515	5.153991	1.746219	0.041138
 367	1.8300e-01	14.6097	89.847354	0.000323	3.233876	1.095667	0.025812
 368	1.8350e-01	14.6531	90.109506	0.000657	6.568812	2.225574	0.052430
 369	1.8400e-01	14.6932	90.383756	0.000687	6.871987	2.328292	0.054850
 370	1.8450e-01	14.7269	90.649941	0.000667	6.669870	2.259813	0.053237
 371	1.8500e-01	14.7638	90.972589	0.000808	8.084691	2.739168	0.064530
 372	1.8550e-01	14.8055	91.267005	0.000738	7.377281	2.499490	0.058883
 373	1.8600e-01	14.8488	91.428329	0.000404	4.042346	1.369584	0.032265
 374	1.8650e-01	14.8889	91.674348	0.000616	6.164577	2.088615	0.049204
 375	1.8700e-01	14.9274	91.888102	0.000536	5.356108	1.814698	0.042751
 376	1.8750e-01	14.9675	92.101856	0.000536	5.356108	1.814698	0.042751
 377	1.8800e-01	15.0156	92.287379	0.000465	4.648697	1.575021	0.037105
 378	1.8850e-01	15.0477	92.674556	0.000970	9.701629	3.287001	0.077435
 379	1.8900e-01	15.0910	92.827814	0.000384	3.840228	1.301105	0.030652
 380	1.8950e-01	15.1311	93.077866	0.000627	6.265636	2.122855	0.050010
 381	1.9000e-01	15.1712	93.311786	0.000586	5.861401	1.985896	0.046784
 382	1.9050e-01	15.2129	93.747360	0.001091	10.914333	3.697876	0.087115
 383	1.9100e-01	15.2514	94.057909	0.000778	7.781515	2.636449	0.062110
 384	1.9150e-01	15.2819	94.215200	0.000394	3.941287	1.335344	0.031458
 385	1.9200e-01	15.3317	94.328127	0.000283	2.829642	0.958709	0.022585
 386	1.9250e-01	15.3589	94.674973	0.000869	8.691043	2.944605	0.069369
 387	1.9300e-01	15.4054	94.953257	0.000697	6.973046	2.362532	0.055657
 388	1.9350e-01	15.4456	95.009720	0.000141	1.414821	0.479354	0.011293
 389	1.9400e-01	15.4921	95.312203	0.000758	7.579398	2.567970	0.060496
 390	1.9450e-01	15.5354	95.554189	0.000606	6.063518	2.054376	0.048397
 391	1.9500e-01	15.5675	95.751810	0.000495	4.951873	1.677740	0.039524
 392	1.9550e-01	15.6124	96.138988	0.000970	9.701629	3.287001	0.077435
 393	1.9600e-01	15.6589	96.324510	0.000465	4.648697	1.575021	0.037105
 394	1.9650e-01	15.6990	96.542298	0.000546	5.457167	1.848938	0.043557
 395	1.9700e-01	15.7279	96.639092	0.000243	2.425407	0.821750	0.019359
 396	1.9750e-01	15.7728	96.994005	0.000889	8.893160	3.013084	0.070983
 397	1.9800e-01	15.8049	97.320686	0.000819	8.185750	2.773407	0.065336
 398	1.9850e-01	15.8562	97.582837	0.000657	6.568812	2.225574	0.052430
 399	1.9900e-01	15.8899	97.687698	0.000263	2.627525	0.890229	0.020972
 400	1.9950e-01	15.9252	98.010346	0.000808	8.084691	2.739168	0.064530
 401	2.0000e-01	15.9653	98.462053	0.001132	11.318568	3.834835	0.090341
 402	2.0050e-01	16.0118	98.655641	0.000485	4.850815	1.643501	0.038718
 403	2.0100e-01	16.0536	98.885528	0.000576	5.760342	1.951657	0.045977
 404	2.0150e-01	16.0937	98.941991	0.000141	1.414821	0.479354	0.011293
 405	2.0200e-01	16.1257	99.175911	0.000586	5.861401	1.985896	0.046784
 406	2.0250e-01	16.1707	99.538890	0.000910	9.095278	3.081563	0.072596
 407	2.0300e-01	16.2108	99.716346	0.000445	4.446580	1.506542	0.035491
 408	2.0350e-01	16.2525	100.034961	0.000798	7.983632	2.704928	0.063723
 409	2.0400e-01	16.2878	100.111590	0.000192	1.920114	0.650552	0.015326
 410	2.0450e-01	16.3279	100.329377	0.000546	5.457167	1.848938	0.043557
 411	2.0500e-01	16.3680	100.700422	0.000930	9.297395	3.150043	0.074209
 412	2.0550e-01	16.4113	100.938375	0.000596	5.962460	2.020136	0.047591
 413	2.0600e-01	16.4562	101.252957	0.000788	7.882574	2.670688	0.062916
 414	2.0650e-01	16.4883	101.281189	0.000071	0.707410	0.239677	0.005646
 415	2.0700e-01	16.5316	101.446546	0.000414	4.143404	1.403823	0.033071
 416	2.0750e-01	16.5749	101.813558	0.000920	9.196336	3.115803	0.073402
 417	2.0800e-01	16.6134	102.116040	0.000758	7.579398	2.567970	0.060496
 418	2.0850e-01	16.6584	102.329794	0.000536	5.356108	1.814698	0.042751
 419	2.0900e-01	16.6936	102.499184	0.000424	4.244463	1.438063	0.033878
 420	2.0950e-01	16.7321	102.644376	0.000364	3.638111	1.232625	0.029038
 421	2.1000e-01	16.7723	103.124315	0.001203	12.025978	4.074512	0.095988
 422	2.1050e-01	16.8027	103.434863	0.000778	7.781515	2.636449	0.062110
 423	2.1100e-01	16.8573	103.592154	0.000394	3.941287	1.335344	0.031458
 424	2.1150e-01	16.8910	103.805908	0.000536	5.356108	1.814698	0.042751
 425	2.1200e-01	16.9343	104.015630	0.000526	5.255049	1.780459	0.041944
 426	2.1250e-01	16.9728	104.310046	0.000738	7.377281	2.499490	0.058883
 427	2.1300e-01	17.0129	104.455237	0.000364	3.638111	1.232625	0.029038
 428	2.1350e-01	17.0466	104.733521	0.000697	6.973046	2.362532	0.055657
 429	2.1400e-01	17.0931	104.995672	0.000657	6.568812	2.225574	0.052430
 430	2.1450e-01	17.1252	105.257824	0.000657	6.568812	2.225574	0.052430
 431	2.1500e-01	17.1685	105.419148	0.000404	4.042346	1.369584	0.032265
 432	2.1550e-01	17.2182	105.673233	0.000637	6.366694	2.157094	0.050817
 433	2.1600e-01	17.2455	105.826491	0.000384	3.840228	1.301105	0.030652
 434	2.1650e-01	17.2936	106.133006	0.000768	7.680457	2.602209	0.061303
 435	2.1700e-01	17.3353	106.463720	0.000829	8.286808	2.807647	0.066143
 436	2.1750e-01	17.3690	106.616978	0.000384	3.840228	1.301105	0.030652
 437	2.1800e-01	17.4059	106.774269	0.000394	3.941287	1.335344	0.031458
 438	2.1850e-01	17.4557	106.959791	0.000465	4.648697	1.575021	0.037105
 439	2.1900e-01	17.4910	107.371168	0.001031	10.307981	3.492439	0.082275
 440	2.1950e-01	17.5359	107.492160	0.000303	3.031759	1.027188	0.024199
 441	2.2000e-01	17.5631	107.762378	0.000677	6.770929	2.294053	0.054044
 442	2.2050e-01	17.6081	108.048728	0.000718	7.175163	2.431011	0.057270
 443	2.2100e-01	17.6514	108.173754	0.000313	3.132818	1.061427	0.025005
 444	2.2150e-01	17.6899	108.548832	0.000940	9.398453	3.184282	0.075016
 445	2.2200e-01	17.7300	108.669825	0.000303	3.031759	1.027188	0.024199
 446	2.2250e-01	17.7717	109.008606	0.000849	8.488926	2.876126	0.067756
 447	2.2300e-01	17.8022	109.347386	0.000849	8.488926	2.876126	0.067756
 448	2.2350e-01	17.8503	109.581306	0.000586	5.861401	1.985896	0.046784
 449	2.2400e-01	17.8872	109.774894	0.000485	4.850815	1.643501	0.038718
 450	2.2450e-01	17.9353	109.972516	0.000495	4.951873	1.677740	0.039524
 451	2.2500e-01	17.9690	110.137873	0.000414	4.143404	1.403823	0.033071
 452	2.2550e-01	18.0187	110.291131	0.000384	3.840228	1.301105	0.030652
 453	2.2600e-01	18.0428	110.496819	0.000515	5.153991	1.746219	0.041138
 454	2.2650e-01	18.0877	111.025155	0.001324	13.238682	4.485387	0.105667
 455	2.2700e-01	18.1310	110.976758	-0.000121	-1.212704	-0.410875	-0.009679
 456	2.2750e-01	18.1727	111.291339	0.000788	7.882574	2.670688	0.062916
 457	2.2800e-01	18.2113	111.569623	0.000697	6.973046	2.362532	0.055657
 458	2.2850e-01	18.2578	111.666418	0.000243	2.425407	0.821750	0.019359
 459	2.2900e-01	18.2979	111.928569	0.000657	6.568812	2.225574	0.052430
 460	2.2950e-01	18.3316	112.158456	0.000576	5.760342	1.951657	0.045977
 461	2.3000e-01	18.3781	112.561765	0.001011	10.105864	3.423959	0.080662
 462	2.3050e-01	18.4150	112.787619	0.000566	5.659284	1.917417	0.045171
 463	2.3100e-01	18.4519	112.880380	0.000232	2.324349	0.787511	0.018552
 464	2.3150e-01	18.5016	113.158664	0.000697	6.973046	2.362532	0.055657
 465	2.3200e-01	18.5273	113.360319	0.000505	5.052932	1.711980	0.040331
 466	2.3250e-01	18.5690	113.678934	0.000798	7.983632	2.704928	0.063723
 467	2.3300e-01	18.6123	113.828158	0.000374	3.739170	1.266865	0.029845
 468	2.3350e-01	18.6460	113.989482	0.000404	4.042346	1.369584	0.032265
 469	2.3400e-01	18.6861	114.211303	0.000556	5.558225	1.883178	0.044364
 470	2.3450e-01	18.7230	114.622679	0.001031	10.307981	3.492439	0.082275
 471	2.3500e-01	18.7695	115.005823	0.000960	9.600571	3.252761	0.076629
 472	2.3550e-01	18.8112	115.195379	0.000475	4.749756	1.609261	0.037911
 473	2.3600e-01	18.8481	115.393001	0.000495	4.951873	1.677740	0.039524
 474	2.3650e-01	18.8930	115.679351	0.000718	7.175163	2.431011	0.057270
 475	2.3700e-01	18.9299	115.820509	0.000354	3.537052	1.198386	0.028232
 476	2.3750e-01	18.9717	115.937469	0.000293	2.930701	0.992948	0.023392
 477	2.3800e-01	19.0166	116.122992	0.000465	4.648697	1.575021	0.037105
 478	2.3850e-01	19.0551	116.409342	0.000718	7.175163	2.431011	0.057270
 479	2.3900e-01	19.0904	116.502103	0.000232	2.324349	0.787511	0.018552
 480	2.3950e-01	19.1289	116.756188	0.000637	6.366694	2.157094	0.050817
 481	2.4000e-01	19.1722	117.050604	0.000738	7.377281	2.499490	0.058883
 482	2.4050e-01	19.2187	117.147399	0.000243	2.425407	0.821750	0.019359
 483	2.4100e-01	19.2604	117.470046	0.000808	8.084691	2.739168	0.064530
 484	2.4150e-01	19.2989	117.845125	0.000940	9.398453	3.184282	0.075016
 485	2.4200e-01	19.3278	117.982250	0.000344	3.435994	1.164146	0.027425
 486	2.4250e-01	19.3775	118.401692	0.001051	10.510098	3.560918	0.083888
 487	2.4300e-01	19.4176	118.599314	0.000495	4.951873	1.677740	0.039524
 488	2.4350e-01	19.4545	118.631579	0.000081	0.808469	0.273917	0.006453
 489	2.4400e-01	19.4882	118.784837	0.000384	3.840228	1.301105	0.030652
 490	2.4450e-01	19.5299	119.111518	0.000819	8.185750	2.773407	0.065336
 491	2.4500e-01	19.5781	119.438199	0.000819	8.185750	2.773407	0.065336
 492	2.4550e-01	19.6085	119.643887	0.000515	5.153991	1.746219	0.041138
 493	2.4600e-01	19.6567	119.789078	0.000364	3.638111	1.232625	0.029038
 494	2.4650e-01	19.6855	119.982667	0.000485	4.850815	1.643501	0.038718
 495	2.4700e-01	19.7337	120.244818	0.000657	6.568812	2.225574	0.052430
 496	2.4750e-01	19.7706	120.349679	0.000263	2.627525	0.890229	0.020972
 497	2.4800e-01	19.8107	120.716691	0.000920	9.196336	3.115803	0.073402
 498	2.4850e-01	19.8508	120.994975	0.000697	6.973046	2.362532	0.055657
 499	2.4900e-01	19.8957	121.136133	0.000354	3.537052	1.198386	0.028232
 500	2.4950e-01	19.9262	121.531377	0.000990	9.903747	3.355480	0.079049
 501	2.5000e-01	19.9711	121.765296	0.000586	5.861401	1.985896	0.046784
 502	2.5050e-01	19.9695	121.757230	0.000020	0.202117	0.068479	-0.001613
 503	2.5100e-01	19.9518	121.676568	0.000202	2.021173	0.684792	-0.016132
 504	2.5150e-01	19.9182	121.491046	0.000465	4.648697	1.575021	-0.037105
 505	2.5200e-01	19.8668	121.317623	0.000435	4.345521	1.472303	-0.034685
 506	2.5250e-01	19.8379	121.140166	0.000445	4.446580	1.506542	-0.035491
 507	2.5300e-01	19.7994	120.922379	0.000546	5.457167	1.848938	-0.043557
 508	2.5350e-01	19.7545	120.748956	0.000435	4.345521	1.472303	-0.034685
 509	2.5400e-01	19.7144	120.672327	0.000192	1.920114	0.650552	-0.015326
 510	2.5450e-01	19.6775	120.426308	0.000616	6.164577	2.088615	-0.049204
 511	2.5500e-01	19.6310	120.256918	0.000424	4.244463	1.438063	-0.033878
 512	2.5550e-01	19.5925	120.035097	0.000556	5.558225	1.883178	-0.044364
 513	2.5600e-01	19.5588	119.966534	0.000172	1.717997	0.582073	-0.013713
 514	2.5650e-01	19.5171	119.639853	0.000819	8.185750	2.773407	-0.065336
 515	2.5700e-01	19.4770	119.547092	0.000232	2.324349	0.787511	-0.018552
 516	2.5750e-01	19.4337	119.454331	0.000232	2.324349	0.787511	-0.018552
 517	2.5800e-01	19.3984	119.091352	0.000910	9.095278	3.081563	-0.072596
 518	2.5850e-01	19.3551	118.958260	0.000333	3.334935	1.129907	-0.026618
 519	2.5900e-01	19.3150	118.881631	0.000192	1.920114	0.650552	-0.015326
 520	2.5950e-01	19.2700	118.639645	0.000606	6.063518	2.054376	-0.048397
 521	2.6000e-01	19.2412	118.284732	0.000889	8.893160	3.013084	-0.070983
 522	2.6050e-01	19.1882	118.163739	0.000303	3.031759	1.027188	-0.024199
 523	2.6100e-01	19.1674	118.139541	0.000061	0.606352	0.205438	-0.004840
 524	2.6150e-01	19.1209	117.978217	0.000404	4.042346	1.369584	-0.032265
 525	2.6200e-01	19.0775	117.841092	0.000344	3.435994	1.164146	-0.027425
 526	2.6250e-01	19.0358	117.574907	0.000667	6.669870	2.259813	-0.053237
 527	2.6300e-01	19.0053	117.320822	0.000637	6.366694	2.157094	-0.050817
 528	2.6350e-01	18.9620	117.123200	0.000495	4.951873	1.677740	-0.039524
 529	2.6400e-01	18.9219	116.889280	0.000586	5.861401	1.985896	-0.046784
 530	2.6450e-01	18.8802	116.723923	0.000414	4.143404	1.403823	-0.033071
 531	2.6500e-01	18.8321	116.574699	0.000374	3.739170	1.266865	-0.029845
 532	2.6550e-01	18.7936	116.429507	0.000364	3.638111	1.232625	-0.029038
 533	2.6600e-01	18.7599	116.280282	0.000374	3.739170	1.266865	-0.029845
 534	2.6650e-01	18.7134	115.977800	0.000758	7.579398	2.567970	-0.060496
 535	2.6700e-01	18.6797	115.872939	0.000263	2.627525	0.890229	-0.020972
 536	2.6750e-01	18.6412	115.606755	0.000667	6.669870	2.259813	-0.053237
 537	2.6800e-01	18.5915	115.223611	0.000960	9.600571	3.252761	-0.076629
 538	2.6850e-01	18.5578	115.110684	0.000283	2.829642	0.958709	-0.022585
 539	2.6900e-01	18.5145	114.844499	0.000667	6.669870	2.259813	-0.053237
 540	2.6950e-01	18.4711	114.719473	0.000313	3.132818	1.061427	-0.025005
 541	2.7000e-01	18.4326	114.642844	0.000192	1.920114	0.650552	-0.015326
 542	2.7050e-01	18.3957	114.550083	0.000232	2.324349	0.787511	-0.018552
 543	2.7100e-01	18.3604	114.275832	0.000687	6.871987	2.328292	-0.054850
 544	2.7150e-01	18.3171	114.094343	0.000455	4.547639	1.540782	-0.036298
 545	2.7200e-01	18.2706	113.795894	0.000748	7.478339	2.533730	-0.059690
 546	2.7250e-01	18.2385	113.622470	0.000435	4.345521	1.472303	-0.034685
 547	2.7300e-01	18.1920	113.513577	0.000273	2.728583	0.924469	-0.021779
 548	2.7350e-01	18.1519	113.303856	0.000526	5.255049	1.780459	-0.041944
 549	2.7400e-01	18.1166	112.904579	0.001000	10.004805	3.389720	-0.079855
 550	2.7450e-01	18.0797	112.775520	0.000323	3.233876	1.095667	-0.025812
 551	2.7500e-01	18.0412	112.585964	0.000475	4.749756	1.609261	-0.037911
 552	2.7550e-01	17.9979	112.505302	0.000202	2.021173	0.684792	-0.016132
 553	2.7600e-01	17.9466	112.327846	0.000445	4.446580	1.506542	-0.035491
 554	2.7650e-01	17.9225	112.106025	0.000556	5.558225	1.883178	-0.044364
 555	2.7700e-01	17.8792	111.714815	0.000980	9.802688	3.321241	-0.078242
 556	2.7750e-01	17.8359	111.597855	0.000293	2.930701	0.992948	-0.023392
 557	2.7800e-01	17.7909	111.440564	0.000394	3.941287	1.335344	-0.031458
 558	2.7850e-01	17.7556	111.267141	0.000435	4.345521	1.472303	-0.034685
 559	2.7900e-01	17.7155	111.041287	0.000566	5.659284	1.917417	-0.045171
 560	2.7950e-01	17.6851	110.847699	0.000485	4.850815	1.643501	-0.038718
 561	2.8000e-01	17.6289	110.658143	0.000475	4.749756	1.609261	-0.037911
 562	2.8050e-01	17.5904	110.408091	0.000627	6.265636	2.122855	-0.050010
 563	2.8100e-01	17.5583	110.246767	0.000404	4.042346	1.369584	-0.032265
 564	2.8150e-01	17.5166	109.944284	0.000758	7.579398	2.567970	-0.060496
 565	2.8200e-01	17.4781	109.795060	0.000374	3.739170	1.266865	-0.029845
 566	2.8250e-01	17.4332	109.730530	0.000162	1.616938	0.547834	-0.012906
 567	2.8300e-01	17.3883	109.294956	0.001091	10.914333	3.697876	-0.087115
 568	2.8350e-01	17.3562	109.113466	0.000455	4.547639	1.540782	-0.036298
 569	2.8400e-01	17.3161	108.996506	0.000293	2.930701	0.992948	-0.023392
 570	2.8450e-01	17.2744	108.786785	0.000526	5.255049	1.780459	-0.041944
 571	2.8500e-01	17.2279	108.621428	0.000414	4.143404	1.403823	-0.033071
 572	2.8550e-01	17.1990	108.298780	0.000808	8.084691	2.739168	-0.064530
 573	2.8600e-01	17.1573	108.052761	0.000616	6.164577	2.088615	-0.049204
 574	2.8650e-01	17.1140	107.883371	0.000424	4.244463	1.438063	-0.033878
 575	2.8700e-01	17.0722	107.689782	0.000485	4.850815	1.643501	-0.038718
 576	2.8750e-01	17.0273	107.463929	0.000566	5.659284	1.917417	-0.045171
 577	2.8800e-01	16.9952	107.387300	0.000192	1.920114	0.650552	-0.015326
 578	2.8850e-01	16.9535	107.016255	0.000930	9.297395	3.150043	-0.074209
 579	2.8900e-01	16.9150	106.931560	0.000212	2.122231	0.719031	-0.016939
 580	2.8950e-01	16.8733	106.746037	0.000465	4.648697	1.575021	-0.037105
 581	2.9000e-01	16.8364	106.290297	0.001142	11.419626	3.869074	-0.091148
 582	2.9050e-01	16.7931	106.225768	0.000162	1.616938	0.547834	-0.012906
 583	2.9100e-01	16.7594	105.983782	0.000606	6.063518	2.054376	-0.048397
 584	2.9150e-01	16.7177	105.782127	0.000505	5.052932	1.711980	-0.040331
 585	2.9200e-01	16.6792	105.636935	0.000364	3.638111	1.232625	-0.029038
 586	2.9250e-01	16.6295	105.419148	0.000546	5.457167	1.848938	-0.043557
 587	2.9300e-01	16.5878	105.221526	0.000495	4.951873	1.677740	-0.039524
 588	2.9350e-01	16.5509	105.076334	0.000364	3.638111	1.232625	-0.029038
 589	2.9400e-01	16.5140	104.846448	0.000576	5.760342	1.951657	-0.045977
 590	2.9450e-01	16.4739	104.592363	0.000637	6.366694	2.157094	-0.050817
 591	2.9500e-01	16.4306	104.197119	0.000990	9.903747	3.355480	-0.079049
 592	2.9550e-01	16.3856	104.180987	0.000040	0.404235	0.136958	-0.003226
 593	2.9600e-01	16.3423	103.878504	0.000758	7.579398	2.567970	-0.060496
 594	2.9650e-01	16.3263	103.733313	0.000364	3.638111	1.232625	-0.029038
 595	2.9700e-01	16.2749	103.648618	0.000212	2.122231	0.719031	-0.016939
 596	2.9750e-01	16.2445	103.414698	0.000586	5.861401	1.985896	-0.046784
 597	2.9800e-01	16.1931	103.096083	0.000798	7.983632	2.704928	-0.063723
 598	2.9850e-01	16.1498	102.563714	0.001334	13.339740	4.519626	-0.106474
 599	2.9900e-01	16.1161	102.527416	0.000091	0.909528	0.308156	-0.007260
 600	2.9950e-01	16.0776	102.374158	0.000384	3.840228	1.301105	-0.030652
 601	3.0000e-01	16.0327	102.269298	0.000263	2.627525	0.890229	-0.020972
 602	3.0050e-01	15.9910	102.180570	0.000222	2.223290	0.753271	-0.017746
 603	3.0100e-01	15.9461	101.922451	0.000647	6.467753	2.191334	-0.051624
 604	3.0150e-01	15.9172	101.660300	0.000657	6.568812	2.225574	-0.052430
 605	3.0200e-01	15.8739	101.515108	0.000364	3.638111	1.232625	-0.029038
 606	3.0250e-01	15.8306	101.228758	0.000718	7.175163	2.431011	-0.057270
 607	3.0300e-01	15.7969	101.002905	0.000566	5.659284	1.917417	-0.045171
 608	3.0350e-01	15.7584	100.829482	0.000435	4.345521	1.472303	-0.034685
 609	3.0400e-01	15.7119	100.587496	0.000606	6.063518	2.054376	-0.048397
 610	3.0450e-01	15.6798	100.276947	0.000778	7.781515	2.636449	-0.062110
 611	3.0500e-01	15.6381	99.970432	0.000768	7.680457	2.602209	-0.061303
 612	3.0550e-01	15.5980	99.805075	0.000414	4.143404	1.403823	-0.033071
 613	3.0600e-01	15.5514	99.494526	0.000778	7.781515	2.636449	-0.062110
 614	3.0650e-01	15.5193	99.365467	0.000323	3.233876	1.095667	-0.025812
 615	3.0700e-01	15.4728	99.143646	0.000556	5.558225	1.883178	-0.044364
 616	3.0750e-01	15.4391	98.998455	0.000364	3.638111	1.232625	-0.029038
 617	3.0800e-01	15.3926	98.619344	0.000950	9.499512	3.218522	-0.075822
 618	3.0850e-01	15.3509	98.558847	0.000152	1.515880	0.513594	-0.012099
 619	3.0900e-01	15.3236	98.453987	0.000263	2.627525	0.890229	-0.020972
 620	3.0950e-01	15.2739	98.175703	0.000697	6.973046	2.362532	-0.055657
 621	3.1000e-01	15.2338	97.824823	0.000879	8.792102	2.978845	-0.070176
 622	3.1050e-01	15.1937	97.639301	0.000465	4.648697	1.575021	-0.037105
 623	3.1100e-01	15.1536	97.393282	0.000616	6.164577	2.088615	-0.049204
 624	3.1150e-01	15.1295	97.183560	0.000526	5.255049	1.780459	-0.041944
 625	3.1200e-01	15.0750	97.098865	0.000212	2.122231	0.719031	-0.016939
 626	3.1250e-01	15.0301	96.929475	0.000424	4.244463	1.438063	-0.033878
 627	3.1300e-01	14.9964	96.594728	0.000839	8.387867	2.841886	-0.066949
 628	3.1350e-01	14.9498	96.296279	0.000748	7.478339	2.533730	-0.059690
 629	3.1400e-01	14.9178	96.066392	0.000576	5.760342	1.951657	-0.045977
 630	3.1450e-01	14.8744	95.973631	0.000232	2.324349	0.787511	-0.018552
 631	3.1500e-01	14.8375	95.828439	0.000364	3.638111	1.232625	-0.029038
 632	3.1550e-01	14.7926	95.525957	0.000758	7.579398	2.567970	-0.060496
 633	3.1600e-01	14.7573	95.356567	0.000424	4.244463	1.438063	-0.033878
 634	3.1650e-01	14.7188	95.082316	0.000687	6.871987	2.328292	-0.054850
 635	3.1700e-01	14.6675	94.751602	0.000829	8.286808	2.807647	-0.066143
 636	3.1750e-01	14.6418	94.477351	0.000687	6.871987	2.328292	-0.054850
 637	3.1800e-01	14.6049	94.356358	0.000303	3.031759	1.027188	-0.024199
 638	3.1850e-01	14.5600	94.013545	0.000859	8.589984	2.910365	-0.068563
 639	3.1900e-01	14.5183	93.799791	0.000536	5.356108	1.814698	-0.042751
 640	3.1950e-01	14.4798	93.630401	0.000424	4.244463	1.438063	-0.033878
 641	3.2000e-01	14.4301	93.396481	0.000586	5.861401	1.985896	-0.046784
 642	3.2050e-01	14.4012	93.223058	0.000435	4.345521	1.472303	-0.034685
 643	3.2100e-01	14.3547	93.009303	0.000536	5.356108	1.814698	-0.042751
 644	3.2150e-01	14.3114	92.799582	0.000526	5.255049	1.780459	-0.041944
 645	3.2200e-01	14.2713	92.638258	0.000404	4.042346	1.369584	-0.032265
 646	3.2250e-01	14.2360	92.376107	0.000657	6.568812	2.225574	-0.052430
 647	3.2300e-01	14.1959	92.166386	0.000526	5.255049	1.780459	-0.041944
 648	3.2350e-01	14.1525	91.811473	0.000889	8.893160	3.013084	-0.070983
 649	3.2400e-01	14.1156	91.609818	0.000505	5.052932	1.711980	-0.040331
 650	3.2450e-01	14.0820	91.448494	0.000404	4.042346	1.369584	-0.032265
 651	3.2500e-01	14.0322	91.166177	0.000707	7.074105	2.396772	-0.056463
 652	3.2550e-01	13.9969	90.904026	0.000657	6.568812	2.225574	-0.052430
 653	3.2600e-01	13.9536	90.774967	0.000323	3.233876	1.095667	-0.025812
 654	3.2650e-01	13.9183	90.609610	0.000414	4.143404	1.403823	-0.033071
 655	3.2700e-01	13.8766	90.339392	0.000677	6.770929	2.294053	-0.054044
 656	3.2750e-01	13.8381	90.004645	0.000839	8.387867	2.841886	-0.066949
 657	3.2800e-01	13.7916	89.718295	0.000718	7.175163	2.431011	-0.057270
 658	3.2850e-01	13.7515	89.677964	0.000101	1.010586	0.342396	-0.008066
 659	3.2900e-01	13.7146	89.399680	0.000697	6.973046	2.362532	-0.055657
 660	3.2950e-01	13.6793	89.060900	0.000849	8.488926	2.876126	-0.067756
 661	3.3000e-01	13.6392	88.810848	0.000627	6.265636	2.122855	-0.050010
 662	3.3050e-01	13.5943	88.609193	0.000505	5.052932	1.711980	-0.040331
 663	3.3100e-01	13.5590	88.459968	0.000374	3.739170	1.266865	-0.029845
 664	3.3150e-01	13.5141	88.310744	0.000374	3.739170	1.266865	-0.029845
 665	3.3200e-01	13.4852	88.084890	0.000566	5.659284	1.917417	-0.045171
 666	3.3250e-01	13.4387	87.641249	0.001112	11.116450	3.766355	-0.088728
 667	3.3300e-01	13.4034	87.451694	0.000475	4.749756	1.609261	-0.037911
 668	3.3350e-01	13.3520	87.326667	0.000313	3.132818	1.061427	-0.025005
 669	3.3400e-01	13.3135	86.999986	0.000819	8.185750	2.773407	-0.065336
 670	3.3450e-01	13.2766	86.870927	0.000323	3.233876	1.095667	-0.025812
 671	3.3500e-01	13.2349	86.564412	0.000768	7.680457	2.602209	-0.061303
 672	3.3550e-01	13.1964	86.467617	0.000243	2.425407	0.821750	-0.019359
 673	3.3600e-01	13.1547	86.265963	0.000505	5.052932	1.711980	-0.040331
 674	3.3650e-01	13.1226	85.870719	0.000990	9.903747	3.355480	-0.079049
 675	3.3700e-01	13.0713	85.656965	0.000536	5.356108	1.814698	-0.042751
 676	3.3750e-01	13.0392	85.362548	0.000738	7.377281	2.499490	-0.058883
 677	3.3800e-01	12.9895	85.168960	0.000485	4.850815	1.643501	-0.038718
 678	3.3850e-01	12.9638	84.995536	0.000435	4.345521	1.472303	-0.034685
 679	3.3900e-01	12.9044	84.620458	0.000940	9.398453	3.184282	-0.075016
 680	3.3950e-01	12.8708	84.455101	0.000414	4.143404	1.403823	-0.033071
 681	3.4000e-01	12.8307	84.430903	0.000061	0.606352	0.205438	-0.004840
 682	3.4050e-01	12.8002	84.148586	0.000707	7.074105	2.396772	-0.056463
 683	3.4100e-01	12.7601	83.813839	0.000839	8.387867	2.841886	-0.066949
 684	3.4150e-01	12.7248	83.555720	0.000647	6.467753	2.191334	-0.051624
 685	3.4200e-01	12.6750	83.321801	0.000586	5.861401	1.985896	-0.046784
 686	3.4250e-01	12.6430	83.176609	0.000364	3.638111	1.232625	-0.029038
 687	3.4300e-01	12.6029	82.946722	0.000576	5.760342	1.951657	-0.045977
 688	3.4350e-01	12.5660	82.765233	0.000455	4.547639	1.540782	-0.036298
 689	3.4400e-01	12.5226	82.543413	0.000556	5.558225	1.883178	-0.044364
 690	3.4450e-01	12.4793	82.224798	0.000798	7.983632	2.704928	-0.063723
 691	3.4500e-01	12.4344	81.994911	0.000576	5.760342	1.951657	-0.045977
 692	3.4550e-01	12.4039	81.769058	0.000566	5.659284	1.917417	-0.045171
 693	3.4600e-01	12.3542	81.623866	0.000364	3.638111	1.232625	-0.029038
 694	3.4650e-01	12.3093	81.216523	0.001021	10.206923	3.458199	-0.081469
 695	3.4700e-01	12.2868	80.930173	0.000718	7.175163	2.431011	-0.057270
 696	3.4750e-01	12.2355	80.857577	0.000182	1.819056	0.616313	-0.014519
 697	3.4800e-01	12.1970	80.571227	0.000718	7.175163	2.431011	-0.057270
 698	3.4850e-01	12.1537	80.305043	0.000667	6.669870	2.259813	-0.053237
 699	3.4900e-01	12.1232	80.220348	0.000212	2.122231	0.719031	-0.016939
 700	3.4950e-01	12.0831	79.970296	0.000627	6.265636	2.122855	-0.050010
 701	3.5000e-01	12.0382	79.615383	0.000889	8.893160	3.013084	-0.070983
 702	3.5050e-01	11.9948	79.510522	0.000263	2.627525	0.890229	-0.020972
 703	3.5100e-01	11.9547	79.240305	0.000677	6.770929	2.294053	-0.054044
 704	3.5150e-01	11.9162	78.990253	0.000627	6.265636	2.122855	-0.050010
 705	3.5200e-01	11.8777	78.736167	0.000637	6.366694	2.157094	-0.050817
 706	3.5250e-01	11.8457	78.389321	0.000869	8.691043	2.944605	-0.069369
 707	3.5300e-01	11.7975	78.143302	0.000616	6.164577	2.088615	-0.049204
 708	3.5350e-01	11.7590	78.014243	0.000323	3.233876	1.095667	-0.025812
 709	3.5400e-01	11.7205	77.731926	0.000707	7.074105	2.396772	-0.056463
 710	3.5450e-01	11.6820	77.582701	0.000374	3.739170	1.266865	-0.029845
 711	3.5500e-01	11.6355	77.276186	0.000768	7.680457	2.602209	-0.061303
 712	3.5550e-01	11.5970	76.945472	0.000829	8.286808	2.807647	-0.066143
 713	3.5600e-01	11.5697	76.679287	0.000667	6.669870	2.259813	-0.053237
 714	3.5650e-01	11.5232	76.489732	0.000475	4.749756	1.609261	-0.037911
 715	3.5700e-01	11.4799	76.122720	0.000920	9.196336	3.115803	-0.073402
 716	3.5750e-01	11.4350	75.953329	0.000424	4.244463	1.438063	-0.033878
 717	3.5800e-01	11.3917	75.731509	0.000556	5.558225	1.883178	-0.044364
 718	3.5850e-01	11.3580	75.525821	0.000515	5.153991	1.746219	-0.041138
 719	3.5900e-01	11.3195	75.328199	0.000495	4.951873	1.677740	-0.039524
 720	3.5950e-01	11.2874	75.086213	0.000606	6.063518	2.054376	-0.048397
 721	3.6000e-01	11.2457	74.941022	0.000364	3.638111	1.232625	-0.029038
 722	3.6050e-01	11.2040	74.662738	0.000697	6.973046	2.362532	-0.055657
 723	3.6100e-01	11.1542	74.396553	0.000667	6.669870	2.259813	-0.053237
 724	3.6150e-01	11.1189	74.041641	0.000889	8.893160	3.013084	-0.070983
 725	3.6200e-01	11.0901	73.848052	0.000485	4.850815	1.643501	-0.038718
 726	3.6250e-01	11.0355	73.747224	0.000253	2.526466	0.855990	-0.020165
 727	3.6300e-01	10.9922	73.432643	0.000788	7.882574	2.670688	-0.062916
 728	3.6350e-01	10.9489	73.259220	0.000435	4.345521	1.472303	-0.034685
 729	3.6400e-01	10.9104	72.976903	0.000707	7.074105	2.396772	-0.056463
 730	3.6450e-01	10.8799	72.674420	0.000758	7.579398	2.567970	-0.060496
 731	3.6500e-01	10.8382	72.420335	0.000637	6.366694	2.157094	-0.050817
 732	3.6550e-01	10.7933	72.089621	0.000829	8.286808	2.807647	-0.066143
 733	3.6600e-01	10.7564	71.916198	0.000435	4.345521	1.472303	-0.034685
 734	3.6650e-01	10.7131	71.746808	0.000424	4.244463	1.438063	-0.033878
 735	3.6700e-01	10.6842	71.456424	0.000728	7.276222	2.465251	-0.058077
 736	3.6750e-01	10.6393	71.218472	0.000596	5.962460	2.020136	-0.047591
 737	3.6800e-01	10.5960	71.004717	0.000536	5.356108	1.814698	-0.042751
 738	3.6850e-01	10.5559	70.661904	0.000859	8.589984	2.910365	-0.068563
 739	3.6900e-01	10.5093	70.407819	0.000637	6.366694	2.157094	-0.050817
 740	3.6950e-01	10.4788	70.274727	0.000333	3.334935	1.129907	-0.026618
 741	3.7000e-01	10.4355	69.980310	0.000738	7.377281	2.499490	-0.058883
 742	3.7050e-01	10.4018	69.814953	0.000414	4.143404	1.403823	-0.033071
 743	3.7100e-01	10.3553	69.496339	0.000798	7.983632	2.704928	-0.063723
 744	3.7150e-01	10.3248	69.161591	0.000839	8.387867	2.841886	-0.066949
 745	3.7200e-01	10.2719	68.859109	0.000758	7.579398	2.567970	-0.060496
 746	3.7250e-01	10.2366	68.726017	0.000333	3.334935	1.129907	-0.026618
 747	3.7300e-01	10.1997	68.536461	0.000475	4.749756	1.609261	-0.037911
 748	3.7350e-01	10.1548	68.371104	0.000414	4.143404	1.403823	-0.033071
 749	3.7400e-01	10.1035	68.104920	0.000667	6.669870	2.259813	-0.053237
 750	3.7450e-01	10.0842	67.862934	0.000606	6.063518	2.054376	-0.048397
 751	3.7500e-01	10.0329	67.536253	0.000819	8.185750	2.773407	-0.065336
 752	3.7550e-01	9.9960	67.193439	0.000859	8.589984	2.910365	-0.068563
 753	3.7600e-01	9.9543	66.943387	0.000627	6.265636	2.122855	-0.050010
 754	3.7650e-01	9.9093	66.753832	0.000475	4.749756	1.609261	-0.037911
 755	3.7700e-01	9.8724	66.560243	0.000485	4.850815	1.643501	-0.038718
 756	3.7750e-01	9.8339	66.334389	0.000566	5.659284	1.917417	-0.045171
 757	3.7800e-01	9.7874	66.031907	0.000758	7.579398	2.567970	-0.060496
 758	3.7850e-01	9.7569	65.870583	0.000404	4.042346	1.369584	-0.032265
 759	3.7900e-01	9.7168	65.443074	0.001071	10.712216	3.629397	-0.085502
 760	3.7950e-01	9.6735	65.201089	0.000606	6.063518	2.054376	-0.048397
 761	3.8000e-01	9.6398	64.975235	0.000566	5.659284	1.917417	-0.045171
 762	3.8050e-01	9.6061	64.717117	0.000647	6.467753	2.191334	-0.051624
 763	3.8100e-01	9.5580	64.551760	0.000414	4.143404	1.403823	-0.033071
 764	3.8150e-01	9.5243	64.342039	0.000526	5.255049	1.780459	-0.041944
 765	3.8200e-01	9.4666	64.039556	0.000758	7.579398	2.567970	-0.060496
 766	3.8250e-01	9.4297	63.797570	0.000606	6.063518	2.054376	-0.048397
 767	3.8300e-01	9.3976	63.406360	0.000980	9.802688	3.321241	-0.078242
 768	3.8350e-01	9.3479	63.168407	0.000596	5.962460	2.020136	-0.047591
 769	3.8400e-01	9.3142	62.918355	0.000627	6.265636	2.122855	-0.050010
 770	3.8450e-01	9.2901	62.664270	0.000637	6.366694	2.157094	-0.050817
 771	3.8500e-01	9.2324	62.438416	0.000566	5.659284	1.917417	-0.045171
 772	3.8550e-01	9.1955	62.281125	0.000394	3.941287	1.335344	-0.031458
 773	3.8600e-01	9.1586	62.055272	0.000566	5.659284	1.917417	-0.045171
 774	3.8650e-01	9.1153	61.607598	0.001122	11.217509	3.800595	-0.089535
 775	3.8700e-01	9.0880	61.450307	0.000394	3.941287	1.335344	-0.031458
 776	3.8750e-01	9.0350	61.248652	0.000505	5.052932	1.711980	-0.040331
 777	3.8800e-01	8.9885	61.059096	0.000475	4.749756	1.609261	-0.037911
 778	3.8850e-01	8.9548	60.679985	0.000950	9.499512	3.218522	-0.075822
 779	3.8900e-01	8.9163	60.486396	0.000485	4.850815	1.643501	-0.038718
 780	3.8950e-01	8.8794	60.204079	0.000707	7.074105	2.396772	-0.056463
 781	3.9000e-01	8.8361	59.941928	0.000657	6.568812	2.225574	-0.052430
 782	3.9050e-01	8.7992	59.728174	0.000536	5.356108	1.814698	-0.042751
 783	3.9100e-01	8.7463	59.470055	0.000647	6.467753	2.191334	-0.051624
 784	3.9150e-01	8.7110	59.167573	0.000758	7.579398	2.567970	-0.060496
 785	3.9200e-01	8.6805	58.921554	0.000616	6.164577	2.088615	-0.049204
 786	3.9250e-01	8.6324	58.683601	0.000596	5.962460	2.020136	-0.047591
 787	3.9300e-01	8.5923	58.494046	0.000475	4.749756	1.609261	-0.037911
 788	3.9350e-01	8.5554	58.336755	0.000394	3.941287	1.335344	-0.031458
 789	3.9400e-01	8.5137	57.949577	0.000970	9.701629	3.287001	-0.077435
 790	3.9450e-01	8.4720	57.691459	0.000647	6.467753	2.191334	-0.051624
 791	3.9500e-01	8.4351	57.598698	0.000232	2.324349	0.787511	-0.018552
 792	3.9550e-01	8.3982	57.146991	0.001132	11.318568	3.834835	-0.090341
 793	3.9600e-01	8.3420	56.913071	0.000586	5.861401	1.985896	-0.046784
 794	3.9650e-01	8.3115	56.602522	0.000778	7.781515	2.636449	-0.062110
 795	3.9700e-01	8.2730	56.461364	0.000354	3.537052	1.198386	-0.028232
 796	3.9750e-01	8.2393	56.223411	0.000596	5.962460	2.020136	-0.047591
 797	3.9800e-01	8.1880	55.977392	0.000616	6.164577	2.088615	-0.049204
 798	3.9850e-01	8.1559	55.626512	0.000879	8.792102	2.978845	-0.070176
 799	3.9900e-01	8.1174	55.445023	0.000455	4.547639	1.540782	-0.036298
 800	3.9950e-01	8.0677	55.057846	0.000970	9.701629	3.287001	-0.077435
 801	4.0000e-01	8.0388	54.831992	0.000566	5.659284	1.917417	-0.045171
 802	4.0050e-01	7.9955	54.638403	0.000485	4.850815	1.643501	-0.038718
 803	4.0100e-01	7.9474	54.335921	0.000758	7.579398	2.567970	-0.060496
 804	4.0150e-01	7.9169	54.085869	0.000627	6.265636	2.122855	-0.050010
 805	4.0200e-01	7.8800	53.739022	0.000869	8.691043	2.944605	-0.069369
 806	4.0250e-01	7.8319	53.525268	0.000536	5.356108	1.814698	-0.042751
 807	4.0300e-01	7.7918	53.367977	0.000394	3.941287	1.335344	-0.031458
 808	4.0350e-01	7.7468	53.134058	0.000586	5.861401	1.985896	-0.046784
 809	4.0400e-01	7.7115	52.847708	0.000718	7.175163	2.431011	-0.057270
 810	4.0450e-01	7.6730	52.670251	0.000445	4.446580	1.506542	-0.035491
 811	4.0500e-01	7.6361	52.311305	0.000899	8.994219	3.047324	-0.071789
 812	4.0550e-01	7.5928	52.133849	0.000445	4.446580	1.506542	-0.035491
 813	4.0600e-01	7.5527	51.746672	0.000970	9.701629	3.287001	-0.077435
 814	4.0650e-01	7.5062	51.472421	0.000687	6.871987	2.328292	-0.054850
 815	4.0700e-01	7.4773	51.206236	0.000667	6.669870	2.259813	-0.053237
 816	4.0750e-01	7.4485	50.931986	0.000687	6.871987	2.328292	-0.054850
 817	4.0800e-01	7.3923	50.718231	0.000536	5.356108	1.814698	-0.042751
 818	4.0850e-01	7.3506	50.605305	0.000283	2.829642	0.958709	-0.022585
 819	4.0900e-01	7.3153	50.169730	0.001091	10.914333	3.697876	-0.087115
 820	4.0950e-01	7.2688	50.024539	0.000364	3.638111	1.232625	-0.029038
 821	4.1000e-01	7.2415	49.568798	0.001142	11.419626	3.869074	-0.091148
 822	4.1050e-01	7.1982	49.221952	0.000869	8.691043	2.944605	-0.069369
 823	4.1100e-01	7.1549	49.056595	0.000414	4.143404	1.403823	-0.033071
 824	4.1150e-01	7.1228	48.758146	0.000748	7.478339	2.533730	-0.059690
 825	4.1200e-01	7.0779	48.721848	0.000091	0.909528	0.308156	-0.007260
 826	4.1250e-01	7.0297	48.274174	0.001122	11.217509	3.800595	-0.089535
 827	4.1300e-01	6.9977	48.100750	0.000435	4.345521	1.472303	-0.034685
 828	4.1350e-01	6.9576	47.882963	0.000546	5.457167	1.848938	-0.043557
 829	4.1400e-01	6.9191	47.608712	0.000687	6.871987	2.328292	-0.054850
 830	4.1450e-01	6.8838	47.318329	0.000728	7.276222	2.465251	-0.058077
 831	4.1500e-01	6.8276	47.092476	0.000566	5.659284	1.917417	-0.045171
 832	4.1550e-01	6.7971	46.785960	0.000768	7.680457	2.602209	-0.061303
 833	4.1600e-01	6.7490	46.612537	0.000435	4.345521	1.472303	-0.034685
 834	4.1650e-01	6.7057	46.330220	0.000707	7.074105	2.396772	-0.056463
 835	4.1700e-01	6.6752	46.047903	0.000707	7.074105	2.396772	-0.056463
 836	4.1750e-01	6.6351	45.721222	0.000819	8.185750	2.773407	-0.065336
 837	4.1800e-01	6.5966	45.269515	0.001132	11.318568	3.834835	-0.090341
 838	4.1850e-01	6.5549	45.160622	0.000273	2.728583	0.924469	-0.021779
 839	4.1900e-01	6.5148	44.946867	0.000536	5.356108	1.814698	-0.042751
 840	4.1950e-01	6.4747	44.527425	0.001051	10.510098	3.560918	-0.083888
 841	4.2000e-01	6.4362	44.354002	0.000435	4.345521	1.472303	-0.034685
 842	4.2050e-01	6.3945	44.204777	0.000374	3.739170	1.266865	-0.029845
 843	4.2100e-01	6.3560	43.926493	0.000697	6.973046	2.362532	-0.055657
 844	4.2150e-01	6.3078	43.628044	0.000748	7.478339	2.533730	-0.059690
 845	4.2200e-01	6.2822	43.361860	0.000667	6.669870	2.259813	-0.053237
 846	4.2250e-01	6.2405	43.184403	0.000445	4.446580	1.506542	-0.035491
 847	4.2300e-01	6.1972	42.857722	0.000819	8.185750	2.773407	-0.065336
 848	4.2350e-01	6.1522	42.672200	0.000465	4.648697	1.575021	-0.037105
 849	4.2400e-01	6.1201	42.418115	0.000637	6.366694	2.157094	-0.050817
 850	4.2450e-01	6.0865	42.055136	0.000910	9.095278	3.081563	-0.072596
 851	4.2500e-01	6.0351	41.704256	0.000879	8.792102	2.978845	-0.070176
 852	4.2550e-01	6.0014	41.583263	0.000303	3.031759	1.027188	-0.024199
 853	4.2600e-01	5.9437	41.292880	0.000728	7.276222	2.465251	-0.058077
 854	4.2650e-01	5.9164	40.950067	0.000859	8.589984	2.910365	-0.068563
 855	4.2700e-01	5.8715	40.687915	0.000657	6.568812	2.225574	-0.052430
 856	4.2750e-01	5.8410	40.607253	0.000202	2.021173	0.684792	-0.016132
 857	4.2800e-01	5.7913	40.333003	0.000687	6.871987	2.328292	-0.054850
 858	4.2850e-01	5.7576	39.941792	0.000980	9.802688	3.321241	-0.078242
 859	4.2900e-01	5.7191	39.760303	0.000455	4.547639	1.540782	-0.036298
 860	4.2950e-01	5.6790	39.461853	0.000748	7.478339	2.533730	-0.059690
 861	4.3000e-01	5.6389	39.183569	0.000697	6.973046	2.362532	-0.055657
 862	4.3050e-01	5.5940	38.752028	0.001081	10.813274	3.663637	-0.086308
 863	4.3100e-01	5.5555	38.518108	0.000586	5.861401	1.985896	-0.046784
 864	4.3150e-01	5.5234	38.280155	0.000596	5.962460	2.020136	-0.047591
 865	4.3200e-01	5.4752	38.042203	0.000596	5.962460	2.020136	-0.047591
 866	4.3250e-01	5.4416	37.812316	0.000576	5.760342	1.951657	-0.045977
 867	4.3300e-01	5.3982	37.437238	0.000940	9.398453	3.184282	-0.075016
 868	4.3350e-01	5.3581	37.134755	0.000758	7.579398	2.567970	-0.060496
 869	4.3400e-01	5.3132	36.884703	0.000627	6.265636	2.122855	-0.050010
 870	4.3450e-01	5.2795	36.687081	0.000495	4.951873	1.677740	-0.039524
 871	4.3500e-01	5.2378	36.449129	0.000596	5.962460	2.020136	-0.047591
 872	4.3550e-01	5.1945	36.118415	0.000829	8.286808	2.807647	-0.066143
 873	4.3600e-01	5.1560	35.997422	0.000303	3.031759	1.027188	-0.024199
 874	4.3650e-01	5.1191	35.577979	0.001051	10.510098	3.560918	-0.083888
 875	4.3700e-01	5.0774	35.307762	0.000677	6.770929	2.294053	-0.054044
 876	4.3750e-01	5.0325	35.029478	0.000697	6.973046	2.362532	-0.055657
 877	4.3800e-01	4.9940	34.779426	0.000627	6.265636	2.122855	-0.050010
 878	4.3850e-01	4.9539	34.509208	0.000677	6.770929	2.294053	-0.054044
 879	4.3900e-01	4.9202	34.222858	0.000718	7.175163	2.431011	-0.057270
 880	4.3950e-01	4.8817	34.017170	0.000515	5.153991	1.746219	-0.041138
 881	4.4000e-01	4.8303	33.750986	0.000667	6.669870	2.259813	-0.053237
 882	4.4050e-01	4.8031	33.472702	0.000697	6.973046	2.362532	-0.055657
 883	4.4100e-01	4.7614	33.287179	0.000465	4.648697	1.575021	-0.037105
 884	4.4150e-01	4.7084	33.037127	0.000627	6.265636	2.122855	-0.050010
 885	4.4200e-01	4.6779	32.738678	0.000748	7.478339	2.533730	-0.059690
 886	4.4250e-01	4.6282	32.452328	0.000718	7.175163	2.431011	-0.057270
 887	4.4300e-01	4.5945	32.234541	0.000546	5.457167	1.848938	-0.043557
 888	4.4350e-01	4.5656	31.903826	0.000829	8.286808	2.807647	-0.066143
 889	4.4400e-01	4.5223	31.532781	0.000930	9.297395	3.150043	-0.074209
 890	4.4450e-01	4.4678	31.198034	0.000839	8.387867	2.841886	-0.066949
 891	4.4500e-01	4.4389	31.060909	0.000344	3.435994	1.164146	-0.027425
 892	4.4550e-01	4.3940	30.750360	0.000778	7.781515	2.636449	-0.062110
 893	4.4600e-01	4.3683	30.459977	0.000728	7.276222	2.465251	-0.058077
 894	4.4650e-01	4.3234	30.201859	0.000647	6.467753	2.191334	-0.051624
 895	4.4700e-01	4.2769	30.040535	0.000404	4.042346	1.369584	-0.032265
 896	4.4750e-01	4.2272	29.915509	0.000313	3.132818	1.061427	-0.025005
 897	4.4800e-01	4.1967	29.600927	0.000788	7.882574	2.670688	-0.062916
 898	4.4850e-01	4.1550	29.153253	0.001122	11.217509	3.800595	-0.089535
 899	4.4900e-01	4.1181	28.903201	0.000627	6.265636	2.122855	-0.050010
 900	4.4950e-01	4.0876	28.536189	0.000920	9.196336	3.115803	-0.073402
 901	4.5000e-01	4.0330	28.173210	0.000910	9.095278	3.081563	-0.072596
 902	4.5050e-01	3.9849	28.028019	0.000364	3.638111	1.232625	-0.029038
 903	4.5100e-01	3.9512	27.701338	0.000819	8.185750	2.773407	-0.065336
 904	4.5150e-01	3.9175	27.495650	0.000515	5.153991	1.746219	-0.041138
 905	4.5200e-01	3.8822	27.257697	0.000596	5.962460	2.020136	-0.047591
 906	4.5250e-01	3.8389	27.193167	0.000162	1.616938	0.547834	-0.012906
 907	4.5300e-01	3.7956	26.624500	0.001425	14.249268	4.827783	-0.113733
 908	4.5350e-01	3.7491	26.426879	0.000495	4.951873	1.677740	-0.039524
 909	4.5400e-01	3.7138	26.225224	0.000505	5.052932	1.711980	-0.040331
 910	4.5450e-01	3.6833	25.858212	0.000920	9.196336	3.115803	-0.073402
 911	4.5500e-01	3.6384	25.450869	0.001021	10.206923	3.458199	-0.081469
 912	4.5550e-01	3.5983	25.216949	0.000586	5.861401	1.985896	-0.046784
 913	4.5600e-01	3.5550	24.922533	0.000738	7.377281	2.499490	-0.058883
 914	4.5650e-01	3.5085	24.708779	0.000536	5.356108	1.814698	-0.042751
 915	4.5700e-01	3.4732	24.446627	0.000657	6.568812	2.225574	-0.052430
 916	4.5750e-01	3.4443	24.107847	0.000849	8.488926	2.876126	-0.067756
 917	4.5800e-01	3.3978	23.930391	0.000445	4.446580	1.506542	-0.035491
 918	4.5850e-01	3.3689	23.535147	0.000990	9.903747	3.355480	-0.079049
 919	4.5900e-01	3.3143	23.244764	0.000728	7.276222	2.465251	-0.058077
 920	4.5950e-01	3.2887	23.164102	0.000202	2.021173	0.684792	-0.016132
 921	4.6000e-01	3.2325	22.772891	0.000980	9.802688	3.321241	-0.078242
 922	4.6050e-01	3.1908	22.526872	0.000616	6.164577	2.088615	-0.049204
 923	4.6100e-01	3.1491	22.288919	0.000596	5.962460	2.020136	-0.047591
 924	4.6150e-01	3.1186	22.175993	0.000283	2.829642	0.958709	-0.022585
 925	4.6200e-01	3.0833	21.655723	0.001304	13.036564	4.416908	-0.104054
 926	4.6250e-01	3.0416	21.522631	0.000333	3.334935	1.129907	-0.026618
 927	4.6300e-01	2.9951	21.244347	0.000697	6.973046	2.362532	-0.055657
 928	4.6350e-01	2.9582	20.889434	0.000889	8.893160	3.013084	-0.070983
 929	4.6400e-01	2.9229	20.457893	0.001081	10.813274	3.663637	-0.086308
 930	4.6450e-01	2.8716	20.219940	0.000596	5.962460	2.020136	-0.047591
 931	4.6500e-01	2.8395	20.030384	0.000475	4.749756	1.609261	-0.037911
 932	4.6550e-01	2.8010	19.776299	0.000637	6.366694	2.157094	-0.050817
 933	4.6600e-01	2.7673	19.506081	0.000677	6.770929	2.294053	-0.054044
 934	4.6650e-01	2.7256	19.106805	0.001000	10.004805	3.389720	-0.079855
 935	4.6700e-01	2.6823	18.860786	0.000616	6.164577	2.088615	-0.049204
 936	4.6750e-01	2.6422	18.768024	0.000232	2.324349	0.787511	-0.018552
 937	4.6800e-01	2.6021	18.421178	0.000869	8.691043	2.944605	-0.069369
 938	4.6850e-01	2.5652	18.038033	0.000960	9.600571	3.252761	-0.076629
 939	4.6900e-01	2.5186	17.787981	0.000627	6.265636	2.122855	-0.050010
 940	4.6950e-01	2.4801	17.497598	0.000728	7.276222	2.465251	-0.058077
 941	4.7000e-01	2.4400	17.299976	0.000495	4.951873	1.677740	-0.039524
 942	4.7050e-01	2.3983	17.017660	0.000707	7.074105	2.396772	-0.056463
 943	4.7100e-01	2.3550	16.602250	0.001041	10.409040	3.526678	-0.083082
 944	4.7150e-01	2.3133	16.521588	0.000202	2.021173	0.684792	-0.016132
 945	4.7200e-01	2.2684	16.295735	0.000566	5.659284	1.917417	-0.045171
 946	4.7250e-01	2.2379	16.005352	0.000728	7.276222	2.465251	-0.058077
 947	4.7300e-01	2.1930	15.577843	0.001071	10.712216	3.629397	-0.085502
 948	4.7350e-01	2.1609	15.259229	0.000798	7.983632	2.704928	-0.063723
 949	4.7400e-01	2.1160	15.150335	0.000273	2.728583	0.924469	-0.021779
 950	4.7450e-01	2.0743	14.924481	0.000566	5.659284	1.917417	-0.045171
 951	4.7500e-01	2.0374	14.585701	0.000849	8.488926	2.876126	-0.067756
 952	4.7550e-01	1.9925	14.283219	0.000758	7.579398	2.567970	-0.060496
 953	4.7600e-01	1.9556	14.085597	0.000495	4.951873	1.677740	-0.039524
 954	4.7650e-01	1.9219	13.851677	0.000586	5.861401	1.985896	-0.046784
 955	4.7700e-01	1.8705	13.496764	0.000889	8.893160	3.013084	-0.070983
 956	4.7750e-01	1.8336	13.250745	0.000616	6.164577	2.088615	-0.049204
 957	4.7800e-01	1.8016	12.911965	0.000849	8.488926	2.876126	-0.067756
 958	4.7850e-01	1.7566	12.593350	0.000798	7.983632	2.704928	-0.063723
 959	4.7900e-01	1.7117	12.315067	0.000697	6.973046	2.362532	-0.055657
 960	4.7950e-01	1.6780	12.004518	0.000778	7.781515	2.636449	-0.062110
 961	4.8000e-01	1.6379	11.669771	0.000839	8.387867	2.841886	-0.066949
 962	4.8050e-01	1.5978	11.431818	0.000596	5.962460	2.020136	-0.047591
 963	4.8100e-01	1.5513	11.234196	0.000495	4.951873	1.677740	-0.039524
 964	4.8150e-01	1.5208	11.056740	0.000445	4.446580	1.506542	-0.035491
 965	4.8200e-01	1.4775	10.701827	0.000889	8.893160	3.013084	-0.070983
 966	4.8250e-01	1.4310	10.290451	0.001031	10.307981	3.492439	-0.082275
 967	4.8300e-01	1.3989	10.161392	0.000323	3.233876	1.095667	-0.025812
 968	4.8350e-01	1.3604	9.822612	0.000849	8.488926	2.876126	-0.067756
 969	4.8400e-01	1.3187	9.580626	0.000606	6.063518	2.054376	-0.048397
 970	4.8450e-01	1.2818	9.185382	0.000990	9.903747	3.355480	-0.079049
 971	4.8500e-01	1.2401	8.862734	0.000808	8.084691	2.739168	-0.064530
 972	4.8550e-01	1.1903	8.693344	0.000424	4.244463	1.438063	-0.033878
 973	4.8600e-01	1.1599	8.467491	0.000566	5.659284	1.917417	-0.045171
 974	4.8650e-01	1.1117	8.116611	0.000879	8.792102	2.978845	-0.070176
 975	4.8700e-01	1.0732	7.818162	0.000748	7.478339	2.533730	-0.059690
 976	4.8750e-01	1.0283	7.491481	0.000819	8.185750	2.773407	-0.065336
 977	4.8800e-01	0.9866	7.330157	0.000404	4.042346	1.369584	-0.032265
 978	4.8850e-01	0.9577	7.112369	0.000546	5.457167	1.848938	-0.043557
 979	4.8900e-01	0.9112	6.830052	0.000707	7.074105	2.396772	-0.056463
 980	4.8950e-01	0.8807	6.660662	0.000424	4.244463	1.438063	-0.033878
 981	4.9000e-01	0.8390	6.269452	0.000980	9.802688	3.321241	-0.078242
 982	4.9050e-01	0.7989	5.966969	0.000758	7.579398	2.567970	-0.060496
 983	4.9100e-01	0.7540	5.491064	0.001192	11.924919	4.040272	-0.095181
 984	4.9150e-01	0.7203	5.305541	0.000465	4.648697	1.575021	-0.037105
 985	4.9200e-01	0.6786	5.188581	0.000293	2.930701	0.992948	-0.023392
 986	4.9250e-01	0.6401	5.023224	0.000414	4.143404	1.403823	-0.033071
 987	4.9300e-01	0.6000	4.640080	0.000960	9.600571	3.252761	-0.076629
 988	4.9350e-01	0.5551	4.188373	0.001132	11.318568	3.834835	-0.090341
 989	4.9400e-01	0.5214	3.813295	0.000940	9.398453	3.184282	-0.075016
 990	4.9450e-01	0.4749	3.676169	0.000344	3.435994	1.164146	-0.027425
 991	4.9500e-01	0.4299	3.381753	0.000738	7.377281	2.499490	-0.058883
 992	4.9550e-01	0.3930	3.155900	0.000566	5.659284	1.917417	-0.045171
 993	4.9600e-01	0.3561	3.038940	0.000293	2.930701	0.992948	-0.023392
 994	4.9650e-01	0.3192	2.684027	0.000889	8.893160	3.013084	-0.070983
 995	4.9700e-01	0.2791	2.317015	0.000920	9.196336	3.115803	-0.073402
 996	4.9750e-01	0.2438	2.038731	0.000697	6.973046	2.362532	-0.055657
 997	4.9800e-01	0.1957	1.712050	0.000819	8.185750	2.773407	-0.065336
 998	4.9850e-01	0.1572	1.437800	0.000687	6.871987	2.328292	-0.054850
 999	4.9900e-01	0.1219	1.228079	0.000526	5.255049	1.780459	-0.041944
1000	4.9950e-01	0.0706	0.937695	0.000728	7.276222	2.465251	-0.058077
1001	5.0000e-01	0.0337	0.433558	0.001263	12.632330	4.279949	-0.100827
1002	5.0050e-01	0.0064	0.397260	0.000091	0.909528	0.308156	-0.007260
1003	5.0100e-01	-0.0337	0.195605	0.000505	5.052932	1.711980	-0.040331
1004	5.0150e-01	-0.0722	-0.151241	0.000869	8.691043	2.944605	-0.069369
1005	5.0200e-01	-0.1171	-0.381128	0.000576	5.760342	1.951657	-0.045977
1006	5.0250e-01	-0.1588	-0.534386	0.000384	3.840228	1.301105	-0.030652
1007	5.0300e-01	-0.1957	-0.957861	0.001061	10.611157	3.595157	-0.084695
1008	5.0350e-01	-0.2294	-1.195814	0.000596	5.962460	2.020136	-0.047591
1009	5.0400e-01	-0.2663	-1.506362	0.000778	7.781515	2.636449	-0.062110
1010	5.0450e-01	-0.3225	-1.671719	0.000414	4.143404	1.403823	-0.033071
1011	5.0500e-01	-0.3545	-1.829010	0.000394	3.941287	1.335344	-0.031458
1012	5.0550e-01	-0.3914	-2.260552	0.001081	10.813274	3.663637	-0.086308
1013	5.0600e-01	-0.4331	-2.655795	0.000990	9.903747	3.355480	-0.079049
1014	5.0650e-01	-0.4781	-2.865517	0.000526	5.255049	1.780459	-0.041944
1015	5.0700e-01	-0.5166	-3.172032	0.000768	7.680457	2.602209	-0.061303
1016	5.0750e-01	-0.5535	-3.389819	0.000546	5.457167	1.848938	-0.043557
1017	5.0800e-01	-0.5968	-3.587441	0.000495	4.951873	1.677740	-0.039524
1018	5.0850e-01	-0.6369	-3.857659	0.000677	6.770929	2.294053	-0.054044
1019	5.0900e-01	-0.6674	-4.289200	0.001081	10.813274	3.663637	-0.086308
1020	5.0950e-01	-0.7155	-4.494888	0.000515	5.153991	1.746219	-0.041138
1021	5.1000e-01	-0.7460	-4.692510	0.000495	4.951873	1.677740	-0.039524
1022	5.1050e-01	-0.8037	-4.978860	0.000718	7.175163	2.431011	-0.057270
1023	5.1100e-01	-0.8358	-5.297475	0.000798	7.983632	2.704928	-0.063723
1024	5.1150e-01	-0.8775	-5.692719	0.000990	9.903747	3.355480	-0.079049
1025	5.1200e-01	-0.9176	-6.003267	0.000778	7.781515	2.636449	-0.062110
1026	5.1250e-01	-0.9593	-6.176691	0.000435	4.345521	1.472303	-0.034685
1027	5.1300e-01	-1.0010	-6.329948	0.000384	3.840228	1.301105	-0.030652
1028	5.1350e-01	-1.0347	-6.580000	0.000627	6.265636	2.122855	-0.050010
1029	5.1400e-01	-1.0764	-6.959112	0.000950	9.499512	3.218522	-0.075822
1030	5.1450e-01	-1.1133	-7.144634	0.000465	4.648697	1.575021	-0.037105
1031	5.1500e-01	-1.1534	-7.499547	0.000889	8.893160	3.013084	-0.070983
1032	5.1550e-01	-1.1919	-7.882691	0.000960	9.600571	3.252761	-0.076629
1033	5.1600e-01	-1.2385	-8.035949	0.000384	3.840228	1.301105	-0.030652
1034	5.1650e-01	-1.2802	-8.350531	0.000788	7.882574	2.670688	-0.062916
1035	5.1700e-01	-1.3235	-8.536053	0.000465	4.648697	1.575021	-0.037105
1036	5.1750e-01	-1.3508	-8.939363	0.001011	10.105864	3.423959	-0.080662
1037	5.1800e-01	-1.3941	-9.278143	0.000849	8.488926	2.876126	-0.067756
1038	5.1850e-01	-1.4294	-9.596758	0.000798	7.983632	2.704928	-0.063723
1039	5.1900e-01	-1.4839	-9.830678	0.000586	5.861401	1.985896	-0.046784
1040	5.1950e-01	-1.5192	-10.104929	0.000687	6.871987	2.328292	-0.054850
1041	5.2000e-01	-1.5545	-10.310617	0.000515	5.153991	1.746219	-0.041138
1042	5.2050e-01	-1.5898	-10.568735	0.000647	6.467753	2.191334	-0.051624
1043	5.2100e-01	-1.6443	-11.004310	0.001091	10.914333	3.697876	-0.087115
1044	5.2150e-01	-1.6796	-11.040607	0.000091	0.909528	0.308156	-0.007260
1045	5.2200e-01	-1.7165	-11.335024	0.000738	7.377281	2.499490	-0.058883
1046	5.2250e-01	-1.7614	-11.665738	0.000829	8.286808	2.807647	-0.066143
1047	5.2300e-01	-1.7967	-11.831095	0.000414	4.143404	1.403823	-0.033071
1048	5.2350e-01	-1.8417	-11.927889	0.000243	2.425407	0.821750	-0.019359
1049	5.2400e-01	-1.8818	-12.383629	0.001142	11.419626	3.869074	-0.091148
1050	5.2450e-01	-1.9138	-12.718376	0.000839	8.387867	2.841886	-0.066949
1051	5.2500e-01	-1.9572	-12.980528	0.000657	6.568812	2.225574	-0.052430
1052	5.2550e-01	-1.9941	-13.141852	0.000404	4.042346	1.369584	-0.032265
1053	5.2600e-01	-2.0358	-13.577426	0.001091	10.914333	3.697876	-0.087115
1054	5.2650e-01	-2.0775	-13.726651	0.000374	3.739170	1.266865	-0.029845
1055	5.2700e-01	-2.1144	-14.041233	0.000788	7.882574	2.670688	-0.062916
1056	5.2750e-01	-2.1497	-14.436476	0.000990	9.903747	3.355480	-0.079049
1057	5.2800e-01	-2.1914	-14.642164	0.000515	5.153991	1.746219	-0.041138
1058	5.2850e-01	-2.2363	-14.904316	0.000657	6.568812	2.225574	-0.052430
1059	5.2900e-01	-2.2844	-15.097905	0.000485	4.850815	1.643501	-0.038718
1060	5.2950e-01	-2.3229	-15.392321	0.000738	7.377281	2.499490	-0.058883
1061	5.3000e-01	-2.3550	-15.690770	0.000748	7.478339	2.533730	-0.059690
1062	5.3050e-01	-2.3935	-16.013418	0.000808	8.084691	2.739168	-0.064530
1063	5.3100e-01	-2.4336	-16.178775	0.000414	4.143404	1.403823	-0.033071
1064	5.3150e-01	-2.4721	-16.461092	0.000707	7.074105	2.396772	-0.056463
1065	5.3200e-01	-2.5251	-16.654681	0.000485	4.850815	1.643501	-0.038718
1066	5.3250e-01	-2.5491	-16.936998	0.000707	7.074105	2.396772	-0.056463
1067	5.3300e-01	-2.6005	-17.203182	0.000667	6.669870	2.259813	-0.053237
1068	5.3350e-01	-2.6390	-17.485499	0.000707	7.074105	2.396772	-0.056463
1069	5.3400e-01	-2.6759	-17.751683	0.000667	6.669870	2.259813	-0.053237
1070	5.3450e-01	-2.7095	-18.090464	0.000849	8.488926	2.876126	-0.067756
1071	5.3500e-01	-2.7577	-18.401012	0.000778	7.781515	2.636449	-0.062110
1072	5.3550e-01	-2.7994	-18.743826	0.000859	8.589984	2.910365	-0.068563
1073	5.3600e-01	-2.8411	-18.989845	0.000616	6.164577	2.088615	-0.049204
1074	5.3650e-01	-2.8764	-19.264095	0.000687	6.871987	2.328292	-0.054850
1075	5.3700e-01	-2.9021	-19.481883	0.000546	5.457167	1.848938	-0.043557
1076	5.3750e-01	-2.9582	-19.760167	0.000697	6.973046	2.362532	-0.055657
1077	5.3800e-01	-3.0095	-19.965855	0.000515	5.153991	1.746219	-0.041138
1078	5.3850e-01	-3.0384	-20.135245	0.000424	4.244463	1.438063	-0.033878
1079	5.3900e-01	-3.0833	-20.494191	0.000899	8.994219	3.047324	-0.071789
1080	5.3950e-01	-3.1218	-20.663581	0.000424	4.244463	1.438063	-0.033878
1081	5.4000e-01	-3.1603	-20.845070	0.000455	4.547639	1.540782	-0.036298
1082	5.4050e-01	-3.2037	-21.401638	0.001395	13.946092	4.725064	-0.111314
1083	5.4100e-01	-3.2389	-21.647657	0.000616	6.164577	2.088615	-0.049204
1084	5.4150e-01	-3.2742	-21.881576	0.000586	5.861401	1.985896	-0.046784
1085	5.4200e-01	-3.3224	-22.127595	0.000616	6.164577	2.088615	-0.049204
1086	5.4250e-01	-3.3609	-22.357482	0.000576	5.760342	1.951657	-0.045977
1087	5.4300e-01	-3.3930	-22.571236	0.000536	5.356108	1.814698	-0.042751
1088	5.4350e-01	-3.4379	-22.958414	0.000970	9.701629	3.287001	-0.077435
1089	5.4400e-01	-3.4812	-23.176201	0.000546	5.457167	1.848938	-0.043557
1090	5.4450e-01	-3.5293	-23.252830	0.000192	1.920114	0.650552	-0.015326
1091	5.4500e-01	-3.5502	-23.644041	0.000980	9.802688	3.321241	-0.078242
1092	5.4550e-01	-3.6015	-24.019119	0.000940	9.398453	3.184282	-0.075016
1093	5.4600e-01	-3.6400	-24.220774	0.000505	5.052932	1.711980	-0.040331
1094	5.4650e-01	-3.6721	-24.708779	0.001223	12.228095	4.142991	-0.097601
1095	5.4700e-01	-3.7186	-24.797507	0.000222	2.223290	0.753271	-0.017746
1096	5.4750e-01	-3.7555	-25.007228	0.000526	5.255049	1.780459	-0.041944
1097	5.4800e-01	-3.8004	-25.418604	0.001031	10.307981	3.492439	-0.082275
1098	5.4850e-01	-3.8357	-25.555729	0.000344	3.435994	1.164146	-0.027425
1099	5.4900e-01	-3.8694	-25.878377	0.000808	8.084691	2.739168	-0.064530
1100	5.4950e-01	-3.9111	-26.124396	0.000616	6.164577	2.088615	-0.049204
1101	5.5000e-01	-3.9576	-26.265555	0.000354	3.537052	1.198386	-0.028232
1102	5.5050e-01	-3.9961	-26.547872	0.000707	7.074105	2.396772	-0.056463
1103	5.5100e-01	-4.0443	-26.914884	0.000920	9.196336	3.115803	-0.073402
1104	5.5150e-01	-4.0796	-27.168969	0.000637	6.366694	2.157094	-0.050817
1105	5.5200e-01	-4.1229	-27.406922	0.000596	5.962460	2.020136	-0.047591
1106	5.5250e-01	-4.1582	-27.717470	0.000778	7.781515	2.636449	-0.062110
1107	5.5300e-01	-4.1903	-27.951390	0.000586	5.861401	1.985896	-0.046784
1108	5.5350e-01	-4.2368	-28.124813	0.000435	4.345521	1.472303	-0.034685
1109	5.5400e-01	-4.2817	-28.334534	0.000526	5.255049	1.780459	-0.041944
1110	5.5450e-01	-4.3186	-28.834638	0.001253	12.531271	4.245710	-0.100021
1111	5.5500e-01	-4.3539	-29.213750	0.000950	9.499512	3.218522	-0.075822
1112	5.5550e-01	-4.3972	-29.306511	0.000232	2.324349	0.787511	-0.018552
1113	5.5600e-01	-4.4453	-29.580762	0.000687	6.871987	2.328292	-0.054850
1114	5.5650e-01	-4.4838	-29.879211	0.000748	7.478339	2.533730	-0.059690
1115	5.5700e-01	-4.5207	-29.935674	0.000141	1.414821	0.479354	-0.011293
1116	5.5750e-01	-4.5512	-30.338984	0.001011	10.105864	3.423959	-0.080662
1117	5.5800e-01	-4.5897	-30.504341	0.000414	4.143404	1.403823	-0.033071
1118	5.5850e-01	-4.6410	-30.943949	0.001102	11.015392	3.732116	-0.087922
1119	5.5900e-01	-4.6795	-31.121405	0.000445	4.446580	1.506542	-0.035491
1120	5.5950e-01	-4.7197	-31.177869	0.000141	1.414821	0.479354	-0.011293
1121	5.6000e-01	-4.7549	-31.597311	0.001051	10.510098	3.560918	-0.083888
1122	5.6050e-01	-4.8015	-31.802999	0.000515	5.153991	1.746219	-0.041138
1123	5.6100e-01	-4.8384	-32.113548	0.000778	7.781515	2.636449	-0.062110
1124	5.6150e-01	-4.8721	-32.472493	0.000899	8.994219	3.047324	-0.071789
1125	5.6200e-01	-4.9266	-32.577354	0.000263	2.627525	0.890229	-0.020972
1126	5.6250e-01	-4.9603	-32.746744	0.000424	4.244463	1.438063	-0.033878
1127	5.6300e-01	-4.9956	-33.065359	0.000798	7.983632	2.704928	-0.063723
1128	5.6350e-01	-5.0453	-33.363808	0.000748	7.478339	2.533730	-0.059690
1129	5.6400e-01	-5.0870	-33.726787	0.000910	9.095278	3.081563	-0.072596
1130	5.6450e-01	-5.1175	-33.896177	0.000424	4.244463	1.438063	-0.033878
1131	5.6500e-01	-5.1672	-34.142196	0.000616	6.164577	2.088615	-0.049204
1132	5.6550e-01	-5.1977	-34.412414	0.000677	6.770929	2.294053	-0.054044
1133	5.6600e-01	-5.2507	-34.630201	0.000546	5.457167	1.848938	-0.043557
1134	5.6650e-01	-5.2747	-34.860088	0.000576	5.760342	1.951657	-0.045977
1135	5.6700e-01	-5.3180	-34.985114	0.000313	3.132818	1.061427	-0.025005
1136	5.6750e-01	-5.3581	-35.465053	0.001203	12.025978	4.074512	-0.095988
1137	5.6800e-01	-5.3886	-35.775601	0.000778	7.781515	2.636449	-0.062110
1138	5.6850e-01	-5.4464	-35.888528	0.000283	2.829642	0.958709	-0.022585
1139	5.6900e-01	-5.4688	-36.191010	0.000758	7.579398	2.567970	-0.060496
1140	5.6950e-01	-5.5202	-36.432996	0.000606	6.063518	2.054376	-0.048397
1141	5.7000e-01	-5.5619	-36.590287	0.000394	3.941287	1.335344	-0.031458
1142	5.7050e-01	-5.5956	-36.800008	0.000526	5.255049	1.780459	-0.041944
1143	5.7100e-01	-5.6357	-37.199285	0.001000	10.004805	3.389720	-0.079855
1144	5.7150e-01	-5.6726	-37.505800	0.000768	7.680457	2.602209	-0.061303
1145	5.7200e-01	-5.7191	-37.731654	0.000566	5.659284	1.917417	-0.045171
1146	5.7250e-01	-5.7592	-37.917177	0.000465	4.648697	1.575021	-0.037105
1147	5.7300e-01	-5.7993	-38.292255	0.000940	9.398453	3.184282	-0.075016
1148	5.7350e-01	-5.8314	-38.433413	0.000354	3.537052	1.198386	-0.028232
1149	5.7400e-01	-5.8811	-38.739929	0.000768	7.680457	2.602209	-0.061303
1150	5.7450e-01	-5.9148	-39.082742	0.000859	8.589984	2.910365	-0.068563
1151	5.7500e-01	-5.9565	-39.356993	0.000687	6.871987	2.328292	-0.054850
1152	5.7550e-01	-5.9966	-39.425555	0.000172	1.717997	0.582073	-0.013713
1153	5.7600e-01	-6.0367	-39.699806	0.000687	6.871987	2.328292	-0.054850
1154	5.7650e-01	-6.0736	-39.945825	0.000616	6.164577	2.088615	-0.049204
1155	5.7700e-01	-6.1201	-40.280572	0.000839	8.387867	2.841886	-0.066949
1156	5.7750e-01	-6.1603	-40.445929	0.000414	4.143404	1.403823	-0.033071
1157	5.7800e-01	-6.2020	-40.784710	0.000849	8.488926	2.876126	-0.067756
1158	5.7850e-01	-6.2421	-40.825041	0.000101	1.010586	0.342396	-0.008066
1159	5.7900e-01	-6.2774	-41.058960	0.000586	5.861401	1.985896	-0.046784
1160	5.7950e-01	-6.3191	-41.405807	0.000869	8.691043	2.944605	-0.069369
1161	5.8000e-01	-6.3608	-41.740554	0.000839	8.387867	2.841886	-0.066949
1162	5.8050e-01	-6.3913	-42.030937	0.000728	7.276222	2.465251	-0.058077
1163	5.8100e-01	-6.4330	-42.470545	0.001102	11.015392	3.732116	-0.087922
1164	5.8150e-01	-6.4731	-42.643968	0.000435	4.345521	1.472303	-0.034685
1165	5.8200e-01	-6.5116	-42.873855	0.000576	5.760342	1.951657	-0.045977
1166	5.8250e-01	-6.5597	-42.978715	0.000263	2.627525	0.890229	-0.020972
1167	5.8300e-01	-6.5998	-43.333628	0.000889	8.893160	3.013084	-0.070983
1168	5.8350e-01	-6.6335	-43.426389	0.000232	2.324349	0.787511	-0.018552
1169	5.8400e-01	-6.6768	-43.773236	0.000869	8.691043	2.944605	-0.069369
1170	5.8450e-01	-6.7121	-43.930527	0.000394	3.941287	1.335344	-0.031458
1171	5.8500e-01	-6.7602	-44.164446	0.000586	5.861401	1.985896	-0.046784
1172	5.8550e-01	-6.7987	-44.511293	0.000869	8.691043	2.944605	-0.069369
1173	5.8600e-01	-6.8356	-44.676650	0.000414	4.143404	1.403823	-0.033071
1174	5.8650e-01	-6.8790	-44.954934	0.000697	6.973046	2.362532	-0.055657
1175	5.8700e-01	-6.9239	-45.140456	0.000465	4.648697	1.575021	-0.037105
1176	5.8750e-01	-6.9624	-45.438905	0.000748	7.478339	2.533730	-0.059690
1177	5.8800e-01	-6.9993	-45.588130	0.000374	3.739170	1.266865	-0.029845
1178	5.8850e-01	-7.0346	-45.789785	0.000505	5.052932	1.711980	-0.040331
1179	5.8900e-01	-7.0666	-46.027738	0.000596	5.962460	2.020136	-0.047591
1180	5.8950e-01	-7.1196	-46.354419	0.000819	8.185750	2.773407	-0.065336
1181	5.9000e-01	-7.1581	-46.640769	0.000718	7.175163	2.431011	-0.057270
1182	5.9050e-01	-7.1982	-46.777894	0.000344	3.435994	1.164146	-0.027425
1183	5.9100e-01	-7.2367	-47.185237	0.001021	10.206923	3.458199	-0.081469
1184	5.9150e-01	-7.2704	-47.487719	0.000758	7.579398	2.567970	-0.060496
1185	5.9200e-01	-7.3201	-47.560315	0.000182	1.819056	0.616313	-0.014519
1186	5.9250e-01	-7.3602	-47.822467	0.000657	6.568812	2.225574	-0.052430
1187	5.9300e-01	-7.3907	-48.189479	0.000920	9.196336	3.115803	-0.073402
1188	5.9350e-01	-7.4436	-48.294339	0.000263	2.627525	0.890229	-0.020972
1189	5.9400e-01	-7.4773	-48.576656	0.000707	7.074105	2.396772	-0.056463
1190	5.9450e-01	-7.5190	-48.834774	0.000647	6.467753	2.191334	-0.051624
1191	5.9500e-01	-7.5624	-49.044496	0.000526	5.255049	1.780459	-0.041944
1192	5.9550e-01	-7.5944	-49.221952	0.000445	4.446580	1.506542	-0.035491
1193	5.9600e-01	-7.6313	-49.641394	0.001051	10.510098	3.560918	-0.083888
1194	5.9650e-01	-7.6779	-49.826917	0.000465	4.648697	1.575021	-0.037105
1195	5.9700e-01	-7.7164	-50.060836	0.000586	5.861401	1.985896	-0.046784
1196	5.9750e-01	-7.7565	-50.266524	0.000515	5.153991	1.746219	-0.041138
1197	5.9800e-01	-7.7950	-50.577073	0.000778	7.781515	2.636449	-0.062110
1198	5.9850e-01	-7.8447	-50.847291	0.000677	6.770929	2.294053	-0.054044
1199	5.9900e-01	-7.8752	-51.093310	0.000616	6.164577	2.088615	-0.049204
1200	5.9950e-01	-7.9201	-51.250600	0.000394	3.941287	1.335344	-0.031458
1201	6.0000e-01	-7.9538	-51.605513	0.000889	8.893160	3.013084	-0.070983
1202	6.0050e-01	-7.9939	-51.791036	0.000465	4.648697	1.575021	-0.037105
1203	6.0100e-01	-8.0404	-52.065286	0.000687	6.871987	2.328292	-0.054850
1204	6.0150e-01	-8.0725	-52.408100	0.000859	8.589984	2.910365	-0.068563
1205	6.0200e-01	-8.1190	-52.553291	0.000364	3.638111	1.232625	-0.029038
1206	6.0250e-01	-8.1495	-52.662185	0.000273	2.728583	0.924469	-0.021779
1207	6.0300e-01	-8.1896	-53.004998	0.000859	8.589984	2.910365	-0.068563
1208	6.0350e-01	-8.2361	-53.186488	0.000455	4.547639	1.540782	-0.036298
1209	6.0400e-01	-8.2794	-53.488970	0.000758	7.579398	2.567970	-0.060496
1210	6.0450e-01	-8.3228	-53.605930	0.000293	2.930701	0.992948	-0.023392
1211	6.0500e-01	-8.3564	-53.900346	0.000738	7.377281	2.499490	-0.058883
1212	6.0550e-01	-8.3966	-54.154431	0.000637	6.366694	2.157094	-0.050817
1213	6.0600e-01	-8.4399	-54.388351	0.000586	5.861401	1.985896	-0.046784
1214	6.0650e-01	-8.4848	-54.594039	0.000515	5.153991	1.746219	-0.041138
1215	6.0700e-01	-8.5137	-54.787628	0.000485	4.850815	1.643501	-0.038718
1216	6.0750e-01	-8.5570	-55.001382	0.000536	5.356108	1.814698	-0.042751
1217	6.0800e-01	-8.5939	-55.271600	0.000677	6.770929	2.294053	-0.054044
1218	6.0850e-01	-8.6324	-55.634579	0.000910	9.095278	3.081563	-0.072596
1219	6.0900e-01	-8.6805	-55.808002	0.000435	4.345521	1.472303	-0.034685
1220	6.0950e-01	-8.7238	-56.017723	0.000526	5.255049	1.780459	-0.041944
1221	6.1000e-01	-8.7639	-56.271808	0.000637	6.366694	2.157094	-0.050817
1222	6.1050e-01	-8.7928	-56.404901	0.000333	3.334935	1.129907	-0.026618
1223	6.1100e-01	-8.8329	-56.658986	0.000637	6.366694	2.157094	-0.050817
1224	6.1150e-01	-8.8682	-57.114726	0.001142	11.419626	3.869074	-0.091148
1225	6.1200e-01	-8.9227	-57.288149	0.000435	4.345521	1.472303	-0.034685
1226	6.1250e-01	-8.9532	-57.409142	0.000303	3.031759	1.027188	-0.024199
1227	6.1300e-01	-8.9949	-57.598698	0.000475	4.749756	1.609261	-0.037911
1228	6.1350e-01	-9.0366	-57.997974	0.001000	10.004805	3.389720	-0.079855
1229	6.1400e-01	-9.0719	-58.187530	0.000475	4.749756	1.609261	-0.037911
1230	6.1450e-01	-9.1217	-58.316589	0.000323	3.233876	1.095667	-0.025812
1231	6.1500e-01	-9.1554	-58.679568	0.000910	9.095278	3.081563	-0.072596
1232	6.1550e-01	-9.2003	-58.889289	0.000526	5.255049	1.780459	-0.041944
1233	6.1600e-01	-9.2340	-59.123209	0.000586	5.861401	1.985896	-0.046784
1234	6.1650e-01	-9.2709	-59.393427	0.000677	6.770929	2.294053	-0.054044
1235	6.1700e-01	-9.3190	-59.675743	0.000707	7.074105	2.396772	-0.056463
1236	6.1750e-01	-9.3607	-59.804803	0.000323	3.233876	1.095667	-0.025812
1237	6.1800e-01	-9.3976	-60.119384	0.000788	7.882574	2.670688	-0.062916
1238	6.1850e-01	-9.4345	-60.361370	0.000606	6.063518	2.054376	-0.048397
1239	6.1900e-01	-9.4890	-60.458165	0.000243	2.425407	0.821750	-0.019359
1240	6.1950e-01	-9.5179	-60.724349	0.000667	6.669870	2.259813	-0.053237
1241	6.2000e-01	-9.5532	-60.998600	0.000687	6.871987	2.328292	-0.054850
1242	6.2050e-01	-9.5917	-61.301082	0.000758	7.579398	2.567970	-0.060496
1243	6.2100e-01	-9.6495	-61.555167	0.000637	6.366694	2.157094	-0.050817
1244	6.2150e-01	-9.6767	-61.555167	-0.000000	-0.000000	-0.000000	0.000000
1245	6.2200e-01	-9.7281	-61.914113	0.000899	8.994219	3.047324	-0.071789
1246	6.2250e-01	-9.7553	-62.067371	0.000384	3.840228	1.301105	-0.030652
1247	6.2300e-01	-9.7987	-62.269026	0.000505	5.052932	1.711980	-0.040331
1248	6.2350e-01	-9.8372	-62.478747	0.000526	5.255049	1.780459	-0.041944
1249	6.2400e-01	-9.8773	-62.785262	0.000768	7.680457	2.602209	-0.061303
1250	6.2450e-01	-9.9126	-63.071612	0.000718	7.175163	2.431011	-0.057270
1251	6.2500e-01	-9.9543	-63.228903	0.000394	3.941287	1.335344	-0.031458
1252	6.2550e-01	-9.9944	-63.325698	0.000243	2.425407	0.821750	-0.019359
1253	6.2600e-01	-10.0249	-63.837901	0.001283	12.834447	4.348428	-0.102441
1254	6.2650e-01	-10.0746	-63.962927	0.000313	3.132818	1.061427	-0.025005
1255	6.2700e-01	-10.1179	-64.221046	0.000647	6.467753	2.191334	-0.051624
1256	6.2750e-01	-10.1452	-64.442866	0.000556	5.558225	1.883178	-0.044364
1257	6.2800e-01	-10.2013	-64.559826	0.000293	2.930701	0.992948	-0.023392
1258	6.2850e-01	-10.2350	-64.830043	0.000677	6.770929	2.294053	-0.054044
1259	6.2900e-01	-10.2751	-65.080096	0.000627	6.265636	2.122855	-0.050010
1260	6.2950e-01	-10.3168	-65.249486	0.000424	4.244463	1.438063	-0.033878
1261	6.3000e-01	-10.3585	-65.463240	0.000536	5.356108	1.814698	-0.042751
1262	6.3050e-01	-10.3954	-65.652796	0.000475	4.749756	1.609261	-0.037911
1263	6.3100e-01	-10.4371	-66.076271	0.001061	10.611157	3.595157	-0.084695
1264	6.3150e-01	-10.4805	-66.140801	0.000162	1.616938	0.547834	-0.012906
1265	6.3200e-01	-10.5141	-66.342455	0.000505	5.052932	1.711980	-0.040331
1266	6.3250e-01	-10.5559	-66.548143	0.000515	5.153991	1.746219	-0.041138
1267	6.3300e-01	-10.5976	-66.790129	0.000606	6.063518	2.054376	-0.048397
1268	6.3350e-01	-10.6441	-66.939354	0.000374	3.739170	1.266865	-0.029845
1269	6.3400e-01	-10.6826	-67.322498	0.000960	9.600571	3.252761	-0.076629
1270	6.3450e-01	-10.7163	-67.600782	0.000697	6.973046	2.362532	-0.055657
1271	6.3500e-01	-10.7628	-67.629014	0.000071	0.707410	0.239677	-0.005646
1272	6.3550e-01	-10.7981	-67.875033	0.000616	6.164577	2.088615	-0.049204
1273	6.3600e-01	-10.8382	-68.117019	0.000606	6.063518	2.054376	-0.048397
1274	6.3650e-01	-10.8815	-68.580825	0.001162	11.621743	3.937553	-0.092761
1275	6.3700e-01	-10.9200	-68.701818	0.000303	3.031759	1.027188	-0.024199
1276	6.3750e-01	-10.9665	-68.851043	0.000374	3.739170	1.266865	-0.029845
1277	6.3800e-01	-11.0066	-68.992201	0.000354	3.537052	1.198386	-0.028232
1278	6.3850e-01	-11.0355	-69.121260	0.000323	3.233876	1.095667	-0.025812
1279	6.3900e-01	-11.0836	-69.460041	0.000849	8.488926	2.876126	-0.067756
1280	6.3950e-01	-11.1093	-69.790755	0.000829	8.286808	2.807647	-0.066143
1281	6.4000e-01	-11.1655	-69.968211	0.000445	4.446580	1.506542	-0.035491
1282	6.4050e-01	-11.1943	-70.190032	0.000556	5.558225	1.883178	-0.044364
1283	6.4100e-01	-11.2344	-70.355389	0.000414	4.143404	1.403823	-0.033071
1284	6.4150e-01	-11.2778	-70.581242	0.000566	5.659284	1.917417	-0.045171
1285	6.4200e-01	-11.3211	-70.661904	0.000202	2.021173	0.684792	-0.016132
1286	6.4250e-01	-11.3596	-70.964386	0.000758	7.579398	2.567970	-0.060496
1287	6.4300e-01	-11.3965	-71.262836	0.000748	7.478339	2.533730	-0.059690
1288	6.4350e-01	-11.4318	-71.399961	0.000344	3.435994	1.164146	-0.027425
1289	6.4400e-01	-11.4719	-71.621782	0.000556	5.558225	1.883178	-0.044364
1290	6.4450e-01	-11.5088	-72.025091	0.001011	10.105864	3.423959	-0.080662
1291	6.4500e-01	-11.5537	-72.154151	0.000323	3.233876	1.095667	-0.025812
1292	6.4550e-01	-11.5938	-72.440501	0.000718	7.175163	2.431011	-0.057270
1293	6.4600e-01	-11.6339	-72.468732	0.000071	0.707410	0.239677	-0.005646
1294	6.4650e-01	-11.6756	-72.876075	0.001021	10.206923	3.458199	-0.081469
1295	6.4700e-01	-11.7141	-73.138227	0.000657	6.568812	2.225574	-0.052430
1296	6.4750e-01	-11.7606	-73.376179	0.000596	5.962460	2.020136	-0.047591
1297	6.4800e-01	-11.7975	-73.602033	0.000566	5.659284	1.917417	-0.045171
1298	6.4850e-01	-11.8328	-73.638331	0.000091	0.909528	0.308156	-0.007260
1299	6.4900e-01	-11.8826	-73.803688	0.000414	4.143404	1.403823	-0.033071
1300	6.4950e-01	-11.9034	-74.138435	0.000839	8.387867	2.841886	-0.066949
1301	6.5000e-01	-11.9580	-74.384454	0.000616	6.164577	2.088615	-0.049204
1302	6.5050e-01	-11.9997	-74.594175	0.000526	5.255049	1.780459	-0.041944
1303	6.5100e-01	-12.0462	-74.900691	0.000768	7.680457	2.602209	-0.061303
1304	6.5150e-01	-12.0735	-75.134610	0.000586	5.861401	1.985896	-0.046784
1305	6.5200e-01	-12.1216	-75.154776	0.000051	0.505293	0.171198	-0.004033
1306	6.5250e-01	-12.1537	-75.505655	0.000879	8.792102	2.978845	-0.070176
1307	6.5300e-01	-12.1986	-75.703277	0.000495	4.951873	1.677740	-0.039524
1308	6.5350e-01	-12.2451	-75.828303	0.000313	3.132818	1.061427	-0.025005
1309	6.5400e-01	-12.2820	-75.917032	0.000222	2.223290	0.753271	-0.017746
1310	6.5450e-01	-12.3157	-76.396970	0.001203	12.025978	4.074512	-0.095988
1311	6.5500e-01	-12.3558	-76.501831	0.000263	2.627525	0.890229	-0.020972
1312	6.5550e-01	-12.4023	-76.816413	0.000788	7.882574	2.670688	-0.062916
1313	6.5600e-01	-12.4296	-76.876909	0.000152	1.515880	0.513594	-0.012099
1314	6.5650e-01	-12.4761	-77.356848	0.001203	12.025978	4.074512	-0.095988
1315	6.5700e-01	-12.5130	-77.445576	0.000222	2.223290	0.753271	-0.017746
1316	6.5750e-01	-12.5595	-77.417344	-0.000071	-0.707410	-0.239677	0.005646
1317	6.5800e-01	-12.6077	-77.671429	0.000637	6.366694	2.157094	-0.050817
1318	6.5850e-01	-12.6333	-77.994077	0.000808	8.084691	2.739168	-0.064530
1319	6.5900e-01	-12.6815	-78.223964	0.000576	5.760342	1.951657	-0.045977
1320	6.5950e-01	-12.7168	-78.373189	0.000374	3.739170	1.266865	-0.029845
1321	6.6000e-01	-12.7649	-78.611141	0.000596	5.962460	2.020136	-0.047591
1322	6.6050e-01	-12.7970	-78.893458	0.000707	7.074105	2.396772	-0.056463
1323	6.6100e-01	-12.8307	-79.002352	0.000273	2.728583	0.924469	-0.021779
1324	6.6150e-01	-12.8692	-79.542787	0.001354	13.541858	4.588106	-0.108087
1325	6.6200e-01	-12.9125	-79.522622	-0.000051	-0.505293	-0.171198	0.004033
1326	6.6250e-01	-12.9510	-79.667813	0.000364	3.638111	1.232625	-0.029038
1327	6.6300e-01	-12.9959	-79.942064	0.000687	6.871987	2.328292	-0.054850
1328	6.6350e-01	-13.0312	-80.022726	0.000202	2.021173	0.684792	-0.016132
1329	6.6400e-01	-13.0729	-80.422003	0.001000	10.004805	3.389720	-0.079855
1330	6.6450e-01	-13.1162	-80.575260	0.000384	3.840228	1.301105	-0.030652
1331	6.6500e-01	-13.1611	-80.756750	0.000455	4.547639	1.540782	-0.036298
1332	6.6550e-01	-13.1900	-80.914041	0.000394	3.941287	1.335344	-0.031458
1333	6.6600e-01	-13.2397	-81.119729	0.000515	5.153991	1.746219	-0.041138
1334	6.6650e-01	-13.2766	-81.478675	0.000899	8.994219	3.047324	-0.071789
1335	6.6700e-01	-13.3087	-81.680329	0.000505	5.052932	1.711980	-0.040331
1336	6.6750e-01	-13.3520	-81.849720	0.000424	4.244463	1.438063	-0.033878
1337	6.6800e-01	-13.3953	-82.035242	0.000465	4.648697	1.575021	-0.037105
1338	6.6850e-01	-13.4322	-82.317559	0.000707	7.074105	2.396772	-0.056463
1339	6.6900e-01	-13.4723	-82.587777	0.000677	6.770929	2.294053	-0.054044
1340	6.6950e-01	-13.5157	-82.737001	0.000374	3.739170	1.266865	-0.029845
1341	6.7000e-01	-13.5429	-82.878160	0.000354	3.537052	1.198386	-0.028232
1342	6.7050e-01	-13.5991	-83.075782	0.000495	4.951873	1.677740	-0.039524
1343	6.7100e-01	-13.6392	-83.233072	0.000394	3.941287	1.335344	-0.031458
1344	6.7150e-01	-13.6745	-83.491191	0.000647	6.467753	2.191334	-0.051624
1345	6.7200e-01	-13.7210	-83.757375	0.000667	6.669870	2.259813	-0.053237
1346	6.7250e-01	-13.7643	-83.954997	0.000495	4.951873	1.677740	-0.039524
1347	6.7300e-01	-13.8012	-84.132453	0.000445	4.446580	1.506542	-0.035491
1348	6.7350e-01	-13.8381	-84.394605	0.000657	6.568812	2.225574	-0.052430
1349	6.7400e-01	-13.8798	-84.604326	0.000526	5.255049	1.780459	-0.041944
1350	6.7450e-01	-13.9151	-84.729352	0.000313	3.132818	1.061427	-0.025005
1351	6.7500e-01	-13.9600	-84.947139	0.000546	5.457167	1.848938	-0.043557
1352	6.7550e-01	-13.9937	-85.326251	0.000950	9.499512	3.218522	-0.075822
1353	6.7600e-01	-14.0354	-85.503707	0.000445	4.446580	1.506542	-0.035491
1354	6.7650e-01	-14.0787	-85.777958	0.000687	6.871987	2.328292	-0.054850
1355	6.7700e-01	-14.1172	-85.931215	0.000384	3.840228	1.301105	-0.030652
1356	6.7750e-01	-14.1638	-86.153036	0.000556	5.558225	1.883178	-0.044364
1357	6.7800e-01	-14.2039	-86.386956	0.000586	5.861401	1.985896	-0.046784
1358	6.7850e-01	-14.2279	-86.681372	0.000738	7.377281	2.499490	-0.058883
1359	6.7900e-01	-14.2793	-86.778166	0.000243	2.425407	0.821750	-0.019359
1360	6.7950e-01	-14.3226	-86.903192	0.000313	3.132818	1.061427	-0.025005
1361	6.8000e-01	-14.3547	-87.092748	0.000475	4.749756	1.609261	-0.037911
1362	6.8050e-01	-14.3916	-87.403296	0.000778	7.781515	2.636449	-0.062110
1363	6.8100e-01	-14.4413	-87.576720	0.000435	4.345521	1.472303	-0.034685
1364	6.8150e-01	-14.4814	-87.693679	0.000293	2.930701	0.992948	-0.023392
1365	6.8200e-01	-14.5231	-87.863070	0.000424	4.244463	1.438063	-0.033878
1366	6.8250e-01	-14.5552	-88.238148	0.000940	9.398453	3.184282	-0.075016
1367	6.8300e-01	-14.6033	-88.395439	0.000394	3.941287	1.335344	-0.031458
1368	6.8350e-01	-14.6418	-88.625325	0.000576	5.760342	1.951657	-0.045977
1369	6.8400e-01	-14.6739	-88.806815	0.000455	4.547639	1.540782	-0.036298
1370	6.8450e-01	-14.7188	-88.984271	0.000445	4.446580	1.506542	-0.035491
1371	6.8500e-01	-14.7589	-89.310952	0.000819	8.185750	2.773407	-0.065336
1372	6.8550e-01	-14.8007	-89.435978	0.000313	3.132818	1.061427	-0.025005
1373	6.8600e-01	-14.8327	-89.617467	0.000455	4.547639	1.540782	-0.036298
1374	6.8650e-01	-14.8696	-89.956248	0.000849	8.488926	2.876126	-0.067756
1375	6.8700e-01	-14.9097	-90.234532	0.000697	6.973046	2.362532	-0.055657
1376	6.8750e-01	-14.9595	-90.331326	0.000243	2.425407	0.821750	-0.019359
1377	6.8800e-01	-14.9980	-90.637841	0.000768	7.680457	2.602209	-0.061303
1378	6.8850e-01	-15.0365	-90.625742	-0.000030	-0.303176	-0.102719	0.002420
1379	6.8900e-01	-15.0846	-90.952423	0.000819	8.185750	2.773407	-0.065336
1380	6.8950e-01	-15.1167	-91.109714	0.000394	3.941287	1.335344	-0.031458
1381	6.9000e-01	-15.1520	-91.246839	0.000344	3.435994	1.164146	-0.027425
1382	6.9050e-01	-15.1969	-91.529156	0.000707	7.074105	2.396772	-0.056463
1383	6.9100e-01	-15.2354	-91.876003	0.000869	8.691043	2.944605	-0.069369
1384	6.9150e-01	-15.2707	-92.021194	0.000364	3.638111	1.232625	-0.029038
1385	6.9200e-01	-15.3188	-92.247048	0.000566	5.659284	1.917417	-0.045171
1386	6.9250e-01	-15.3573	-92.408372	0.000404	4.042346	1.369584	-0.032265
1387	6.9300e-01	-15.4038	-92.819748	0.001031	10.307981	3.492439	-0.082275
1388	6.9350e-01	-15.4263	-92.977039	0.000394	3.941287	1.335344	-0.031458
1389	6.9400e-01	-15.4760	-93.174660	0.000495	4.951873	1.677740	-0.039524
1390	6.9450e-01	-15.5193	-93.388415	0.000536	5.356108	1.814698	-0.042751
1391	6.9500e-01	-15.5530	-93.582003	0.000485	4.850815	1.643501	-0.038718
1392	6.9550e-01	-15.6012	-93.807857	0.000566	5.659284	1.917417	-0.045171
1393	6.9600e-01	-15.6477	-93.844155	0.000091	0.909528	0.308156	-0.007260
1394	6.9650e-01	-15.6798	-94.110339	0.000667	6.669870	2.259813	-0.053237
1395	6.9700e-01	-15.7151	-94.332160	0.000556	5.558225	1.883178	-0.044364
1396	6.9750e-01	-15.7648	-94.461219	0.000323	3.233876	1.095667	-0.025812
1397	6.9800e-01	-15.7873	-94.791933	0.000829	8.286808	2.807647	-0.066143
1398	6.9850e-01	-15.8434	-95.062151	0.000677	6.770929	2.294053	-0.054044
1399	6.9900e-01	-15.8835	-95.175077	0.000283	2.829642	0.958709	-0.022585
1400	6.9950e-01	-15.9140	-95.356567	0.000455	4.547639	1.540782	-0.036298
1401	7.0000e-01	-15.9573	-95.650983	0.000738	7.377281	2.499490	-0.058883
1402	7.0050e-01	-15.9974	-95.792141	0.000354	3.537052	1.198386	-0.028232
1403	7.0100e-01	-16.0327	-96.147054	0.000889	8.893160	3.013084	-0.070983
1404	7.0150e-01	-16.0856	-96.312411	0.000414	4.143404	1.403823	-0.033071
1405	7.0200e-01	-16.1241	-96.550364	0.000596	5.962460	2.020136	-0.047591
1406	7.0250e-01	-16.1578	-96.687489	0.000344	3.435994	1.164146	-0.027425
1407	7.0300e-01	-16.1899	-97.078700	0.000980	9.802688	3.321241	-0.078242
1408	7.0350e-01	-16.2268	-97.308587	0.000576	5.760342	1.951657	-0.045977
1409	7.0400e-01	-16.2765	-97.465877	0.000394	3.941287	1.335344	-0.031458
1410	7.0450e-01	-16.3070	-97.679632	0.000536	5.356108	1.814698	-0.042751
1411	7.0500e-01	-16.3616	-97.978081	0.000748	7.478339	2.533730	-0.059690
1412	7.0550e-01	-16.4033	-98.224100	0.000616	6.164577	2.088615	-0.049204
1413	7.0600e-01	-16.4354	-98.393490	0.000424	4.244463	1.438063	-0.033878
1414	7.0650e-01	-16.4771	-98.704039	0.000778	7.781515	2.636449	-0.062110
1415	7.0700e-01	-16.5172	-98.885528	0.000455	4.547639	1.540782	-0.036298
1416	7.0750e-01	-16.5509	-99.111382	0.000566	5.659284	1.917417	-0.045171
1417	7.0800e-01	-16.5990	-99.365467	0.000637	6.366694	2.157094	-0.050817
1418	7.0850e-01	-16.6279	-99.510658	0.000364	3.638111	1.232625	-0.029038
1419	7.0900e-01	-16.6776	-99.809108	0.000748	7.478339	2.533730	-0.059690
1420	7.0950e-01	-16.7129	-99.998663	0.000475	4.749756	1.609261	-0.037911
1421	7.1000e-01	-16.7658	-100.115623	0.000293	2.930701	0.992948	-0.023392
1422	7.1050e-01	-16.7899	-100.466503	0.000879	8.792102	2.978845	-0.070176
1423	7.1100e-01	-16.8332	-100.579429	0.000283	2.829642	0.958709	-0.022585
1424	7.1150e-01	-16.8797	-100.716555	0.000344	3.435994	1.164146	-0.027425
1425	7.1200e-01	-16.9182	-101.063401	0.000869	8.691043	2.944605	-0.069369
1426	7.1250e-01	-16.9616	-101.285222	0.000556	5.558225	1.883178	-0.044364
1427	7.1300e-01	-17.0001	-101.599803	0.000788	7.882574	2.670688	-0.062916
1428	7.1350e-01	-17.0434	-101.688532	0.000222	2.223290	0.753271	-0.017746
1429	7.1400e-01	-17.0803	-101.870021	0.000455	4.547639	1.540782	-0.036298
1430	7.1450e-01	-17.1252	-102.152338	0.000707	7.074105	2.396772	-0.056463
1431	7.1500e-01	-17.1557	-102.410456	0.000647	6.467753	2.191334	-0.051624
1432	7.1550e-01	-17.1990	-102.608078	0.000495	4.951873	1.677740	-0.039524
1433	7.1600e-01	-17.2423	-102.979123	0.000930	9.297395	3.150043	-0.074209
1434	7.1650e-01	-17.2824	-103.128348	0.000374	3.739170	1.266865	-0.029845
1435	7.1700e-01	-17.3161	-103.418731	0.000728	7.276222	2.465251	-0.058077
1436	7.1750e-01	-17.3498	-103.624419	0.000515	5.153991	1.746219	-0.041138
1437	7.1800e-01	-17.4011	-103.749445	0.000313	3.132818	1.061427	-0.025005
1438	7.1850e-01	-17.4300	-104.185020	0.001091	10.914333	3.697876	-0.087115
1439	7.1900e-01	-17.4781	-104.402807	0.000546	5.457167	1.848938	-0.043557
1440	7.1950e-01	-17.5070	-104.503634	0.000253	2.526466	0.855990	-0.020165
1441	7.2000e-01	-17.5631	-104.814183	0.000778	7.781515	2.636449	-0.062110
1442	7.2050e-01	-17.6032	-105.064235	0.000627	6.265636	2.122855	-0.050010
1443	7.2100e-01	-17.6369	-105.314287	0.000627	6.265636	2.122855	-0.050010
1444	7.2150e-01	-17.6738	-105.515942	0.000505	5.052932	1.711980	-0.040331
1445	7.2200e-01	-17.7171	-105.765994	0.000627	6.265636	2.122855	-0.050010
1446	7.2250e-01	-17.7556	-106.007980	0.000606	6.063518	2.054376	-0.048397
1447	7.2300e-01	-17.8006	-106.286264	0.000697	6.973046	2.362532	-0.055657
1448	7.2350e-01	-17.8439	-106.576647	0.000728	7.276222	2.465251	-0.058077
1449	7.2400e-01	-17.8744	-106.806534	0.000576	5.760342	1.951657	-0.045977
1450	7.2450e-01	-17.9193	-107.000122	0.000485	4.850815	1.643501	-0.038718
1451	7.2500e-01	-17.9562	-107.330837	0.000829	8.286808	2.807647	-0.066143
1452	7.2550e-01	-17.9915	-107.613153	0.000707	7.074105	2.396772	-0.056463
1453	7.2600e-01	-18.0300	-107.907570	0.000738	7.377281	2.499490	-0.058883
1454	7.2650e-01	-18.0829	-108.129390	0.000556	5.558225	1.883178	-0.044364
1455	7.2700e-01	-18.1150	-108.476237	0.000869	8.691043	2.944605	-0.069369
1456	7.2750e-01	-18.1471	-108.661759	0.000465	4.648697	1.575021	-0.037105
1457	7.2800e-01	-18.2080	-108.859381	0.000495	4.951873	1.677740	-0.039524
1458	7.2850e-01	-18.2385	-109.214294	0.000889	8.893160	3.013084	-0.070983
1459	7.2900e-01	-18.2850	-109.391750	0.000445	4.446580	1.506542	-0.035491
1460	7.2950e-01	-18.3171	-109.770861	0.000950	9.499512	3.218522	-0.075822
1461	7.3000e-01	-18.3588	-109.883788	0.000283	2.829642	0.958709	-0.022585
1462	7.3050e-01	-18.3989	-110.222568	0.000849	8.488926	2.876126	-0.067756
1463	7.3100e-01	-18.4391	-110.412124	0.000475	4.749756	1.609261	-0.037911
1464	7.3150e-01	-18.4743	-110.617812	0.000515	5.153991	1.746219	-0.041138
1465	7.3200e-01	-18.5241	-110.920294	0.000758	7.579398	2.567970	-0.060496
1466	7.3250e-01	-18.5546	-111.230843	0.000778	7.781515	2.636449	-0.062110
1467	7.3300e-01	-18.5947	-111.484928	0.000637	6.366694	2.157094	-0.050817
1468	7.3350e-01	-18.6364	-111.666418	0.000455	4.547639	1.540782	-0.036298
1469	7.3400e-01	-18.6652	-111.892271	0.000566	5.659284	1.917417	-0.045171
1470	7.3450e-01	-18.7086	-112.440772	0.001374	13.743975	4.656585	-0.109700
1471	7.3500e-01	-18.7535	-112.569832	0.000323	3.233876	1.095667	-0.025812
1472	7.3550e-01	-18.7904	-112.928777	0.000899	8.994219	3.047324	-0.071789
1473	7.3600e-01	-18.8385	-113.118333	0.000475	4.749756	1.609261	-0.037911
1474	7.3650e-01	-18.8770	-113.328054	0.000526	5.255049	1.780459	-0.041944
1475	7.3700e-01	-18.9235	-113.630537	0.000758	7.579398	2.567970	-0.060496
1476	7.3750e-01	-18.9556	-113.985449	0.000889	8.893160	3.013084	-0.070983
1477	7.3800e-01	-19.0021	-114.295998	0.000778	7.781515	2.636449	-0.062110
1478	7.3850e-01	-19.0455	-114.356494	0.000152	1.515880	0.513594	-0.012099
1479	7.3900e-01	-19.0759	-114.703341	0.000869	8.691043	2.944605	-0.069369
1480	7.3950e-01	-19.1225	-115.030022	0.000819	8.185750	2.773407	-0.065336
1481	7.4000e-01	-19.1529	-115.437365	0.001021	10.206923	3.458199	-0.081469
1482	7.4050e-01	-19.2011	-115.643053	0.000515	5.153991	1.746219	-0.041138
1483	7.4100e-01	-19.2267	-115.961668	0.000798	7.983632	2.704928	-0.063723
1484	7.4150e-01	-19.2716	-116.215753	0.000637	6.366694	2.157094	-0.050817
1485	7.4200e-01	-19.3134	-116.635195	0.001051	10.510098	3.560918	-0.083888
1486	7.4250e-01	-19.3551	-116.857015	0.000556	5.558225	1.883178	-0.044364
1487	7.4300e-01	-19.3952	-117.074803	0.000546	5.457167	1.848938	-0.043557
1488	7.4350e-01	-19.4417	-117.280491	0.000515	5.153991	1.746219	-0.041138
1489	7.4400e-01	-19.4722	-117.792694	0.001283	12.834447	4.348428	-0.102441
1490	7.4450e-01	-19.5187	-118.018548	0.000566	5.659284	1.917417	-0.045171
1491	7.4500e-01	-19.5636	-118.437990	0.001051	10.510098	3.560918	-0.083888
1492	7.4550e-01	-19.5909	-118.740472	0.000758	7.579398	2.567970	-0.060496
1493	7.4600e-01	-19.6358	-118.974392	0.000586	5.861401	1.985896	-0.046784
1494	7.4650e-01	-19.6775	-119.442232	0.001172	11.722802	3.971793	-0.093568
1495	7.4700e-01	-19.7208	-119.660019	0.000546	5.457167	1.848938	-0.043557
1496	7.4750e-01	-19.7481	-119.801177	0.000354	3.537052	1.198386	-0.028232
1497	7.4800e-01	-19.7866	-120.220620	0.001051	10.510098	3.560918	-0.083888
1498	7.4850e-01	-19.8428	-120.490837	0.000677	6.770929	2.294053	-0.054044
1499	7.4900e-01	-19.8780	-120.728790	0.000596	5.962460	2.020136	-0.047591
1500	7.4950e-01	-19.9149	-121.111934	0.000960	9.600571	3.252761	-0.076629
1501	7.5000e-01	-19.9551	-121.507178	0.000990	9.903747	3.355480	-0.079049
1502	7.5050e-01	-19.9534	-121.680601	-0.000435	-4.345521	-1.472303	-0.034685
1503	7.5100e-01	-19.9278	-121.696734	-0.000040	-0.404235	-0.136958	-0.003226
1504	7.5150e-01	-19.8957	-121.656403	0.000101	1.010586	0.342396	0.008066
1505	7.5200e-01	-19.8588	-121.648337	0.000020	0.202117	0.068479	0.001613
1506	7.5250e-01	-19.8187	-121.684634	-0.000091	-0.909528	-0.308156	-0.007260
1507	7.5300e-01	-19.7754	-121.535410	0.000374	3.739170	1.266865	0.029845
1508	7.5350e-01	-19.7433	-121.680601	-0.000364	-3.638111	-1.232625	-0.029038
1509	7.5400e-01	-19.6968	-121.765296	-0.000212	-2.122231	-0.719031	-0.016939
1510	7.5450e-01	-19.6567	-121.668502	0.000243	2.425407	0.821750	0.019359
1511	7.5500e-01	-19.6117	-121.527344	0.000354	3.537052	1.198386	0.028232
1512	7.5550e-01	-19.5797	-121.672535	-0.000364	-3.638111	-1.232625	-0.029038
1513	7.5600e-01	-19.5347	-121.567675	0.000263	2.627525	0.890229	0.020972
1514	7.5650e-01	-19.4962	-121.438615	0.000323	3.233876	1.095667	0.025812
1515	7.5700e-01	-19.4626	-121.692701	-0.000637	-6.366694	-2.157094	-0.050817
1516	7.5750e-01	-19.4192	-121.668502	0.000061	0.606352	0.205438	0.004840
1517	7.5800e-01	-19.3759	-121.620105	0.000121	1.212704	0.410875	0.009679
1518	7.5850e-01	-19.3342	-121.382152	0.000596	5.962460	2.020136	0.047591
1519	7.5900e-01	-19.3085	-121.491046	-0.000273	-2.728583	-0.924469	-0.021779
1520	7.5950e-01	-19.2684	-121.370053	0.000303	3.031759	1.027188	0.024199
1521	7.6000e-01	-19.2123	-121.313589	0.000141	1.414821	0.479354	0.011293
1522	7.6050e-01	-19.1802	-121.232927	0.000202	2.021173	0.684792	0.016132
1523	7.6100e-01	-19.1433	-121.378119	-0.000364	-3.638111	-1.232625	-0.029038
1524	7.6150e-01	-19.0968	-121.103868	0.000687	6.871987	2.328292	0.054850
1525	7.6200e-01	-19.0599	-120.982875	0.000303	3.031759	1.027188	0.024199
1526	7.6250e-01	-19.0214	-121.063537	-0.000202	-2.021173	-0.684792	-0.016132
1527	7.6300e-01	-18.9829	-120.865915	0.000495	4.951873	1.677740	0.039524
1528	7.6350e-01	-18.9396	-120.974809	-0.000273	-2.728583	-0.924469	-0.021779
1529	7.6400e-01	-18.9123	-120.817518	0.000394	3.941287	1.335344	0.031458
1530	7.6450e-01	-18.8594	-120.769121	0.000121	1.212704	0.410875	0.009679
1531	7.6500e-01	-18.8225	-120.704592	0.000162	1.616938	0.547834	0.012906
1532	7.6550e-01	-18.7840	-120.535201	0.000424	4.244463	1.438063	0.033878
1533	7.6600e-01	-18.7439	-120.470672	0.000162	1.616938	0.547834	0.012906
1534	7.6650e-01	-18.6957	-120.498903	-0.000071	-0.707410	-0.239677	-0.005646
1535	7.6700e-01	-18.6556	-120.430341	0.000172	1.717997	0.582073	0.013713
1536	7.6750e-01	-18.6171	-120.273050	0.000394	3.941287	1.335344	0.031458
1537	7.6800e-01	-18.5915	-120.087527	0.000465	4.648697	1.575021	0.037105
1538	7.6850e-01	-18.5417	-120.095594	-0.000020	-0.202117	-0.068479	-0.001613
1539	7.6900e-01	-18.5000	-119.954435	0.000354	3.537052	1.198386	0.028232
1540	7.6950e-01	-18.4599	-119.950402	0.000010	0.101059	0.034240	0.000807
1541	7.7000e-01	-18.4246	-119.926203	0.000061	0.606352	0.205438	0.004840
1542	7.7050e-01	-18.3717	-119.752780	0.000435	4.345521	1.472303	0.034685
1543	7.7100e-01	-18.3460	-119.559192	0.000485	4.850815	1.643501	0.038718
1544	7.7150e-01	-18.3059	-119.543059	0.000040	0.404235	0.136958	0.003226
1545	7.7200e-01	-18.2610	-119.349470	0.000485	4.850815	1.643501	0.038718
1546	7.7250e-01	-18.2241	-119.260742	0.000222	2.223290	0.753271	0.017746
1547	7.7300e-01	-18.1888	-119.059087	0.000505	5.052932	1.711980	0.040331
1548	7.7350e-01	-18.1487	-118.921962	0.000344	3.435994	1.164146	0.027425
1549	7.7400e-01	-18.1006	-118.978425	-0.000141	-1.414821	-0.479354	-0.011293
1550	7.7450e-01	-18.0621	-118.921962	0.000141	1.414821	0.479354	0.011293
1551	7.7500e-01	-18.0252	-118.837267	0.000212	2.122231	0.719031	0.016939
1552	7.7550e-01	-17.9706	-118.679976	0.000394	3.941287	1.335344	0.031458
1553	7.7600e-01	-17.9466	-118.587215	0.000232	2.324349	0.787511	0.018552
1554	7.7650e-01	-17.9048	-118.401692	0.000465	4.648697	1.575021	0.037105
1555	7.7700e-01	-17.8535	-118.393626	0.000020	0.202117	0.068479	0.001613
1556	7.7750e-01	-17.8182	-118.191971	0.000505	5.052932	1.711980	0.040331
1557	7.7800e-01	-17.7829	-118.115342	0.000192	1.920114	0.650552	0.015326
1558	7.7850e-01	-17.7348	-118.046780	0.000172	1.717997	0.582073	0.013713
1559	7.7900e-01	-17.6995	-117.861257	0.000465	4.648697	1.575021	0.037105
1560	7.7950e-01	-17.6594	-117.776562	0.000212	2.122231	0.719031	0.016939
1561	7.8000e-01	-17.6257	-117.663635	0.000283	2.829642	0.958709	0.022585
1562	7.8050e-01	-17.5824	-117.449881	0.000536	5.356108	1.814698	0.042751
1563	7.8100e-01	-17.5423	-117.413583	0.000091	0.909528	0.308156	0.007260
1564	7.8150e-01	-17.5054	-117.260325	0.000384	3.840228	1.301105	0.030652
1565	7.8200e-01	-17.4653	-117.207895	0.000131	1.313762	0.445115	0.010486
1566	7.8250e-01	-17.4075	-117.115134	0.000232	2.324349	0.787511	0.018552
1567	7.8300e-01	-17.3835	-116.913479	0.000505	5.052932	1.711980	0.040331
1568	7.8350e-01	-17.3369	-116.703758	0.000526	5.255049	1.780459	0.041944
1569	7.8400e-01	-17.2984	-116.494037	0.000526	5.255049	1.780459	0.041944
1570	7.8450e-01	-17.2519	-116.518235	-0.000061	-0.606352	-0.205438	-0.004840
1571	7.8500e-01	-17.2118	-116.417408	0.000253	2.526466	0.855990	0.020165
1572	7.8550e-01	-17.1749	-116.316580	0.000253	2.526466	0.855990	0.020165
1573	7.8600e-01	-17.1412	-116.143157	0.000435	4.345521	1.472303	0.034685
1574	7.8650e-01	-17.1011	-115.864873	0.000697	6.973046	2.362532	0.055657
1575	7.8700e-01	-17.0674	-115.808410	0.000141	1.414821	0.479354	0.011293
1576	7.8750e-01	-17.0161	-115.699516	0.000273	2.728583	0.924469	0.021779
1577	7.8800e-01	-16.9792	-115.590622	0.000273	2.728583	0.924469	0.021779
1578	7.8850e-01	-16.9423	-115.393001	0.000495	4.951873	1.677740	0.039524
1579	7.8900e-01	-16.9006	-115.308306	0.000212	2.122231	0.719031	0.016939
1580	7.8950e-01	-16.8685	-115.094551	0.000536	5.356108	1.814698	0.042751
1581	7.9000e-01	-16.8188	-115.030022	0.000162	1.616938	0.547834	0.012906
1582	7.9050e-01	-16.7787	-114.792069	0.000596	5.962460	2.020136	0.047591
1583	7.9100e-01	-16.7498	-114.723506	0.000172	1.717997	0.582073	0.013713
1584	7.9150e-01	-16.7001	-114.566215	0.000394	3.941287	1.335344	0.031458
1585	7.9200e-01	-16.6664	-114.554116	0.000030	0.303176	0.102719	0.002420
1586	7.9250e-01	-16.6295	-114.300031	0.000637	6.366694	2.157094	0.050817
1587	7.9300e-01	-16.5910	-114.158872	0.000354	3.537052	1.198386	0.028232
1588	7.9350e-01	-16.5509	-114.033846	0.000313	3.132818	1.061427	0.025005
1589	7.9400e-01	-16.4995	-113.807993	0.000566	5.659284	1.917417	0.045171
1590	7.9450e-01	-16.4610	-113.678934	0.000323	3.233876	1.095667	0.025812
1591	7.9500e-01	-16.4289	-113.622470	0.000141	1.414821	0.479354	0.011293
1592	7.9550e-01	-16.3856	-113.533742	0.000222	2.223290	0.753271	0.017746
1593	7.9600e-01	-16.3455	-113.299822	0.000586	5.861401	1.985896	0.046784
1594	7.9650e-01	-16.3054	-113.126399	0.000435	4.345521	1.472303	0.034685
1595	7.9700e-01	-16.2605	-113.057837	0.000172	1.717997	0.582073	0.013713
1596	7.9750e-01	-16.2172	-112.936844	0.000303	3.031759	1.027188	0.024199
1597	7.9800e-01	-16.1787	-112.658560	0.000697	6.973046	2.362532	0.055657
1598	7.9850e-01	-16.1370	-112.339945	0.000798	7.983632	2.704928	0.063723
1599	7.9900e-01	-16.0921	-112.440772	-0.000253	-2.526466	-0.855990	-0.020165
1600	7.9950e-01	-16.0664	-112.194753	0.000616	6.164577	2.088615	0.049204
1601	8.0000e-01	-16.0199	-111.956801	0.000596	5.962460	2.020136	0.047591
1602	8.0050e-01	-15.9830	-111.904370	0.000131	1.313762	0.445115	0.010486
1603	8.0100e-01	-15.9493	-111.747080	0.000394	3.941287	1.335344	0.031458
1604	8.0150e-01	-15.8979	-111.501061	0.000616	6.164577	2.088615	0.049204
1605	8.0200e-01	-15.8675	-111.432498	0.000172	1.717997	0.582073	0.013713
1606	8.0250e-01	-15.8145	-111.307472	0.000313	3.132818	1.061427	0.025005
1607	8.0300e-01	-15.7857	-111.069519	0.000596	5.962460	2.020136	0.047591
1608	8.0350e-01	-15.7455	-110.924327	0.000364	3.638111	1.232625	0.029038
1609	8.0400e-01	-15.7054	-110.892063	0.000081	0.808469	0.273917	0.006453
1610	8.0450e-01	-15.6557	-110.682341	0.000526	5.255049	1.780459	0.041944
1611	8.0500e-01	-15.6252	-110.613779	0.000172	1.717997	0.582073	0.013713
1612	8.0550e-01	-15.5803	-110.391958	0.000556	5.558225	1.883178	0.044364
1613	8.0600e-01	-15.5402	-110.254833	0.000344	3.435994	1.164146	0.027425
1614	8.0650e-01	-15.5049	-110.020913	0.000586	5.861401	1.985896	0.046784
1615	8.0700e-01	-15.4568	-109.831358	0.000475	4.749756	1.609261	0.037911
1616	8.0750e-01	-15.4119	-109.633736	0.000495	4.951873	1.677740	0.039524
1617	8.0800e-01	-15.3686	-109.569206	0.000162	1.616938	0.547834	0.012906
1618	8.0850e-01	-15.3349	-109.456280	0.000283	2.829642	0.958709	0.022585
1619	8.0900e-01	-15.3060	-109.399816	0.000141	1.414821	0.479354	0.011293
1620	8.0950e-01	-15.2627	-109.153797	0.000616	6.164577	2.088615	0.049204
1621	8.1000e-01	-15.2258	-108.871480	0.000707	7.074105	2.396772	0.056463
1622	8.1050e-01	-15.1841	-108.726289	0.000364	3.638111	1.232625	0.029038
1623	8.1100e-01	-15.1440	-108.520601	0.000515	5.153991	1.746219	0.041138
1624	8.1150e-01	-15.0958	-108.258449	0.000657	6.568812	2.225574	0.052430
1625	8.1200e-01	-15.0686	-108.282648	-0.000061	-0.606352	-0.205438	-0.004840
1626	8.1250e-01	-15.0236	-108.072927	0.000526	5.255049	1.780459	0.041944
1627	8.1300e-01	-14.9787	-107.818841	0.000637	6.366694	2.157094	0.050817
1628	8.1350e-01	-14.9386	-107.871272	-0.000131	-1.313762	-0.445115	-0.010486
1629	8.1400e-01	-14.9001	-107.661551	0.000526	5.255049	1.780459	0.041944
1630	8.1450e-01	-14.8600	-107.532491	0.000323	3.233876	1.095667	0.025812
1631	8.1500e-01	-14.8215	-107.250175	0.000707	7.074105	2.396772	0.056463
1632	8.1550e-01	-14.7878	-107.181612	0.000172	1.717997	0.582073	0.013713
1633	8.1600e-01	-14.7365	-106.996089	0.000465	4.648697	1.575021	0.037105
1634	8.1650e-01	-14.6964	-106.737971	0.000647	6.467753	2.191334	0.051624
1635	8.1700e-01	-14.6643	-106.592780	0.000364	3.638111	1.232625	0.029038
1636	8.1750e-01	-14.6178	-106.350794	0.000606	6.063518	2.054376	0.048397
1637	8.1800e-01	-14.5809	-106.322562	0.000071	0.707410	0.239677	0.005646
1638	8.1850e-01	-14.5408	-106.088642	0.000586	5.861401	1.985896	0.046784
1639	8.1900e-01	-14.5055	-105.963616	0.000313	3.132818	1.061427	0.025005
1640	8.1950e-01	-14.4638	-105.761961	0.000505	5.052932	1.711980	0.040331
1641	8.2000e-01	-14.4253	-105.612737	0.000374	3.739170	1.266865	0.029845
1642	8.2050e-01	-14.3836	-105.334453	0.000697	6.973046	2.362532	0.055657
1643	8.2100e-01	-14.3418	-105.330420	0.000010	0.101059	0.034240	0.000807
1644	8.2150e-01	-14.3033	-105.193294	0.000344	3.435994	1.164146	0.027425
1645	8.2200e-01	-14.2584	-105.003739	0.000475	4.749756	1.609261	0.037911
1646	8.2250e-01	-14.2231	-104.652859	0.000879	8.792102	2.978845	0.070176
1647	8.2300e-01	-14.1766	-104.673025	-0.000051	-0.505293	-0.171198	-0.004033
1648	8.2350e-01	-14.1397	-104.301980	0.000930	9.297395	3.150043	0.074209
1649	8.2400e-01	-14.1124	-104.398774	-0.000243	-2.425407	-0.821750	-0.019359
1650	8.2450e-01	-14.0547	-104.164854	0.000586	5.861401	1.985896	0.046784
1651	8.2500e-01	-14.0226	-103.898670	0.000667	6.669870	2.259813	0.053237
1652	8.2550e-01	-13.9745	-103.684915	0.000536	5.356108	1.814698	0.042751
1653	8.2600e-01	-13.9392	-103.535691	0.000374	3.739170	1.266865	0.029845
1654	8.2650e-01	-13.8975	-103.430830	0.000263	2.627525	0.890229	0.020972
1655	8.2700e-01	-13.8654	-103.071884	0.000899	8.994219	3.047324	0.071789
1656	8.2750e-01	-13.8205	-102.882329	0.000475	4.749756	1.609261	0.037911
1657	8.2800e-01	-13.7852	-102.878296	0.000010	0.101059	0.034240	0.000807
1658	8.2850e-01	-13.7274	-102.652442	0.000566	5.659284	1.917417	0.045171
1659	8.2900e-01	-13.7050	-102.539515	0.000283	2.829642	0.958709	0.022585
1660	8.2950e-01	-13.6681	-102.450787	0.000222	2.223290	0.753271	0.017746
1661	8.3000e-01	-13.6215	-102.208801	0.000606	6.063518	2.054376	0.048397
1662	8.3050e-01	-13.5734	-102.059577	0.000374	3.739170	1.266865	0.029845
1663	8.3100e-01	-13.5397	-101.841789	0.000546	5.457167	1.848938	0.043557
1664	8.3150e-01	-13.5044	-101.454612	0.000970	9.701629	3.287001	0.077435
1665	8.3200e-01	-13.4675	-101.422347	0.000081	0.808469	0.273917	0.006453
1666	8.3250e-01	-13.4178	-101.333619	0.000222	2.223290	0.753271	0.017746
1667	8.3300e-01	-13.3841	-101.002905	0.000829	8.286808	2.807647	0.066143
1668	8.3350e-01	-13.3440	-100.885945	0.000293	2.930701	0.992948	0.023392
1669	8.3400e-01	-13.3039	-100.760919	0.000313	3.132818	1.061427	0.025005
1670	8.3450e-01	-13.2654	-100.446337	0.000788	7.882574	2.670688	0.062916
1671	8.3500e-01	-13.2269	-100.264848	0.000455	4.547639	1.540782	0.036298
1672	8.3550e-01	-13.1788	-100.240649	0.000061	0.606352	0.205438	0.004840
1673	8.3600e-01	-13.1339	-99.950266	0.000728	7.276222	2.465251	0.058077
1674	8.3650e-01	-13.1018	-99.934134	0.000040	0.404235	0.136958	0.003226
1675	8.3700e-01	-13.0569	-99.611486	0.000808	8.084691	2.739168	0.064530
1676	8.3750e-01	-13.0151	-99.446129	0.000414	4.143404	1.403823	0.033071
1677	8.3800e-01	-12.9766	-99.325136	0.000303	3.031759	1.027188	0.024199
1678	8.3850e-01	-12.9413	-99.321103	0.000010	0.101059	0.034240	0.000807
1679	8.3900e-01	-12.8948	-98.829065	0.001233	12.329154	4.177230	0.098408
1680	8.3950e-01	-12.8595	-98.695972	0.000333	3.334935	1.129907	0.026618
1681	8.4000e-01	-12.8226	-98.603211	0.000232	2.324349	0.787511	0.018552
1682	8.4050e-01	-12.7793	-98.611277	-0.000020	-0.202117	-0.068479	-0.001613
1683	8.4100e-01	-12.7424	-98.264431	0.000869	8.691043	2.944605	0.069369
1684	8.4150e-01	-12.6991	-98.034544	0.000576	5.760342	1.951657	0.045977
1685	8.4200e-01	-12.6638	-97.800625	0.000586	5.861401	1.985896	0.046784
1686	8.4250e-01	-12.6269	-97.643334	0.000394	3.941287	1.335344	0.031458
1687	8.4300e-01	-12.5836	-97.316653	0.000819	8.185750	2.773407	0.065336
1688	8.4350e-01	-12.5403	-97.183560	0.000333	3.334935	1.129907	0.026618
1689	8.4400e-01	-12.5050	-97.042402	0.000354	3.537052	1.198386	0.028232
1690	8.4450e-01	-12.4633	-96.949641	0.000232	2.324349	0.787511	0.018552
1691	8.4500e-01	-12.4184	-96.618927	0.000829	8.286808	2.807647	0.066143
1692	8.4550e-01	-12.3847	-96.554397	0.000162	1.616938	0.547834	0.012906
1693	8.4600e-01	-12.3430	-96.449537	0.000263	2.627525	0.890229	0.020972
1694	8.4650e-01	-12.3045	-96.167220	0.000707	7.074105	2.396772	0.056463
1695	8.4700e-01	-12.2563	-95.965565	0.000505	5.052932	1.711980	0.040331
1696	8.4750e-01	-12.2162	-95.884903	0.000202	2.021173	0.684792	0.016132
1697	8.4800e-01	-12.1841	-95.445295	0.001102	11.015392	3.732116	0.087922
1698	8.4850e-01	-12.1424	-95.408997	0.000091	0.909528	0.308156	0.007260
1699	8.4900e-01	-12.1039	-95.142813	0.000667	6.669870	2.259813	0.053237
1700	8.4950e-01	-12.0590	-95.029886	0.000283	2.829642	0.958709	0.022585
1701	8.5000e-01	-12.0301	-94.711271	0.000798	7.983632	2.704928	0.063723
1702	8.5050e-01	-11.9772	-94.533815	0.000445	4.446580	1.506542	0.035491
1703	8.5100e-01	-11.9371	-94.533815	0.000000	0.000000	0.000000	0.000000
1704	8.5150e-01	-11.9002	-94.424921	0.000273	2.728583	0.924469	0.021779
1705	8.5200e-01	-11.8617	-94.098240	0.000819	8.185750	2.773407	0.065336
1706	8.5250e-01	-11.8152	-93.920784	0.000445	4.446580	1.506542	0.035491
1707	8.5300e-01	-11.7767	-93.771559	0.000374	3.739170	1.266865	0.029845
1708	8.5350e-01	-11.7398	-93.529573	0.000606	6.063518	2.054376	0.048397
1709	8.5400e-01	-11.7013	-93.307753	0.000556	5.558225	1.883178	0.044364
1710	8.5450e-01	-11.6644	-93.206925	0.000253	2.526466	0.855990	0.020165
1711	8.5500e-01	-11.6195	-93.061734	0.000364	3.638111	1.232625	0.029038
1712	8.5550e-01	-11.5906	-92.605994	0.001142	11.419626	3.869074	0.091148
1713	8.5600e-01	-11.5441	-92.549530	0.000141	1.414821	0.479354	0.011293
1714	8.5650e-01	-11.4975	-92.392239	0.000394	3.941287	1.335344	0.031458
1715	8.5700e-01	-11.4687	-92.122022	0.000677	6.770929	2.294053	0.054044
1716	8.5750e-01	-11.4237	-91.964731	0.000394	3.941287	1.335344	0.031458
1717	8.5800e-01	-11.3708	-91.791308	0.000435	4.345521	1.472303	0.034685
1718	8.5850e-01	-11.3419	-91.654182	0.000344	3.435994	1.164146	0.027425
1719	8.5900e-01	-11.3066	-91.347667	0.000768	7.680457	2.602209	0.061303
1720	8.5950e-01	-11.2633	-91.194409	0.000384	3.840228	1.301105	0.030652
1721	8.6000e-01	-11.2216	-91.061317	0.000333	3.334935	1.129907	0.026618
1722	8.6050e-01	-11.1879	-90.779000	0.000707	7.074105	2.396772	0.056463
1723	8.6100e-01	-11.1462	-90.569279	0.000526	5.255049	1.780459	0.041944
1724	8.6150e-01	-11.1013	-90.480551	0.000222	2.223290	0.753271	0.017746
1725	8.6200e-01	-11.0644	-90.230498	0.000627	6.265636	2.122855	0.050010
1726	8.6250e-01	-11.0195	-89.972380	0.000647	6.467753	2.191334	0.051624
1727	8.6300e-01	-10.9842	-89.774758	0.000495	4.951873	1.677740	0.039524
1728	8.6350e-01	-10.9409	-89.661832	0.000283	2.829642	0.958709	0.022585
1729	8.6400e-01	-10.9104	-89.379515	0.000707	7.074105	2.396772	0.056463
1730	8.6450e-01	-10.8703	-89.185926	0.000485	4.850815	1.643501	0.038718
1731	8.6500e-01	-10.8238	-89.012503	0.000435	4.345521	1.472303	0.034685
1732	8.6550e-01	-10.7676	-88.802782	0.000526	5.255049	1.780459	0.041944
1733	8.6600e-01	-10.7355	-88.697921	0.000263	2.627525	0.890229	0.020972
1734	8.6650e-01	-10.6922	-88.572895	0.000313	3.132818	1.061427	0.025005
1735	8.6700e-01	-10.6714	-88.153453	0.001051	10.510098	3.560918	0.083888
1736	8.6750e-01	-10.6216	-87.992129	0.000404	4.042346	1.369584	0.032265
1737	8.6800e-01	-10.5799	-87.891301	0.000253	2.526466	0.855990	0.020165
1738	8.6850e-01	-10.5398	-87.556554	0.000839	8.387867	2.841886	0.066949
1739	8.6900e-01	-10.4997	-87.487991	0.000172	1.717997	0.582073	0.013713
1740	8.6950e-01	-10.4644	-87.177443	0.000778	7.781515	2.636449	0.062110
1741	8.7000e-01	-10.4227	-86.947556	0.000576	5.760342	1.951657	0.045977
1742	8.7050e-01	-10.3858	-86.766067	0.000455	4.547639	1.540782	0.036298
1743	8.7100e-01	-10.3377	-86.580544	0.000465	4.648697	1.575021	0.037105
1744	8.7150e-01	-10.3056	-86.483750	0.000243	2.425407	0.821750	0.019359
1745	8.7200e-01	-10.2607	-86.386956	0.000243	2.425407	0.821750	0.019359
1746	8.7250e-01	-10.2174	-86.040109	0.000869	8.691043	2.944605	0.069369
1747	8.7300e-01	-10.1789	-85.927182	0.000283	2.829642	0.958709	0.022585
1748	8.7350e-01	-10.1339	-85.491608	0.001091	10.914333	3.697876	0.087115
1749	8.7400e-01	-10.1051	-85.491608	0.000000	0.000000	0.000000	0.000000
1750	8.7450e-01	-10.0569	-85.144761	0.000869	8.691043	2.944605	0.069369
1751	8.7500e-01	-10.0168	-85.035867	0.000273	2.728583	0.924469	0.021779
1752	8.7550e-01	-9.9799	-84.818080	0.000546	5.457167	1.848938	0.043557
1753	8.7600e-01	-9.9430	-84.551896	0.000667	6.669870	2.259813	0.053237
1754	8.7650e-01	-9.9093	-84.293777	0.000647	6.467753	2.191334	0.051624
1755	8.7700e-01	-9.8676	-84.148586	0.000364	3.638111	1.232625	0.029038
1756	8.7750e-01	-9.8291	-84.075990	0.000182	1.819056	0.616313	0.014519
1757	8.7800e-01	-9.7826	-83.898534	0.000445	4.446580	1.506542	0.035491
1758	8.7850e-01	-9.7489	-83.717044	0.000455	4.547639	1.540782	0.036298
1759	8.7900e-01	-9.7008	-83.458926	0.000647	6.467753	2.191334	0.051624
1760	8.7950e-01	-9.6639	-83.305668	0.000384	3.840228	1.301105	0.030652
1761	8.8000e-01	-9.6254	-82.938656	0.000920	9.196336	3.115803	0.073402
1762	8.8050e-01	-9.5821	-82.737001	0.000505	5.052932	1.711980	0.040331
1763	8.8100e-01	-9.5500	-82.559545	0.000445	4.446580	1.506542	0.035491
1764	8.8150e-01	-9.5035	-82.337725	0.000556	5.558225	1.883178	0.044364
1765	8.8200e-01	-9.4570	-82.091706	0.000616	6.164577	2.088615	0.049204
1766	8.8250e-01	-9.4233	-82.059441	0.000081	0.808469	0.273917	0.006453
1767	8.8300e-01	-9.3751	-81.845686	0.000536	5.356108	1.814698	0.042751
1768	8.8350e-01	-9.3495	-81.575469	0.000677	6.770929	2.294053	0.054044
1769	8.8400e-01	-9.3013	-81.337516	0.000596	5.962460	2.020136	0.047591
1770	8.8450e-01	-9.2628	-81.147960	0.000475	4.749756	1.609261	0.037911
1771	8.8500e-01	-9.2211	-80.954372	0.000485	4.850815	1.643501	0.038718
1772	8.8550e-01	-9.1794	-80.776915	0.000445	4.446580	1.506542	0.035491
1773	8.8600e-01	-9.1457	-80.595426	0.000455	4.547639	1.540782	0.036298
1774	8.8650e-01	-9.1040	-80.216315	0.000950	9.499512	3.218522	0.075822
1775	8.8700e-01	-9.0511	-80.159851	0.000141	1.414821	0.479354	0.011293
1776	8.8750e-01	-9.0222	-79.982395	0.000445	4.446580	1.506542	0.035491
1777	8.8800e-01	-8.9773	-79.687979	0.000738	7.377281	2.499490	0.058883
1778	8.8850e-01	-8.9436	-79.389529	0.000748	7.478339	2.533730	0.059690
1779	8.8900e-01	-8.9019	-79.183841	0.000515	5.153991	1.746219	0.041138
1780	8.8950e-01	-8.8634	-79.030584	0.000384	3.840228	1.301105	0.030652
1781	8.9000e-01	-8.8153	-78.962021	0.000172	1.717997	0.582073	0.013713
1782	8.9050e-01	-8.7735	-78.756333	0.000515	5.153991	1.746219	0.041138
1783	8.9100e-01	-8.7431	-78.409486	0.000869	8.691043	2.944605	0.069369
1784	8.9150e-01	-8.7014	-78.223964	0.000465	4.648697	1.575021	0.037105
1785	8.9200e-01	-8.6596	-77.969879	0.000637	6.366694	2.157094	0.050817
1786	8.9250e-01	-8.6163	-77.760158	0.000526	5.255049	1.780459	0.041944
1787	8.9300e-01	-8.5842	-77.651264	0.000273	2.728583	0.924469	0.021779
1788	8.9350e-01	-8.5345	-77.473808	0.000445	4.446580	1.506542	0.035491
1789	8.9400e-01	-8.5040	-77.086630	0.000970	9.701629	3.287001	0.077435
1790	8.9450e-01	-8.4623	-76.889008	0.000495	4.951873	1.677740	0.039524
1791	8.9500e-01	-8.4238	-76.711552	0.000445	4.446580	1.506542	0.035491
1792	8.9550e-01	-8.3773	-76.582493	0.000323	3.233876	1.095667	0.025812
1793	8.9600e-01	-8.3436	-76.288077	0.000738	7.377281	2.499490	0.058883
1794	8.9650e-01	-8.3067	-76.042058	0.000616	6.164577	2.088615	0.049204
1795	8.9700e-01	-8.2618	-75.868634	0.000435	4.345521	1.472303	0.034685
1796	8.9750e-01	-8.2217	-75.703277	0.000414	4.143404	1.403823	0.033071
1797	8.9800e-01	-8.1864	-75.384663	0.000798	7.983632	2.704928	0.063723
1798	8.9850e-01	-8.1431	-75.215272	0.000424	4.244463	1.438063	0.033878
1799	8.9900e-01	-8.1062	-74.892624	0.000808	8.084691	2.739168	0.064530
1800	8.9950e-01	-8.0709	-74.638539	0.000637	6.366694	2.157094	0.050817
1801	9.0000e-01	-8.0180	-74.549811	0.000222	2.223290	0.753271	0.017746
1802	9.0050e-01	-7.9859	-74.340090	0.000526	5.255049	1.780459	0.041944
1803	9.0100e-01	-7.9361	-74.227163	0.000283	2.829642	0.958709	0.022585
1804	9.0150e-01	-7.8992	-73.823853	0.001011	10.105864	3.423959	0.080662
1805	9.0200e-01	-7.8575	-73.666563	0.000394	3.941287	1.335344	0.031458
1806	9.0250e-01	-7.8254	-73.573801	0.000232	2.324349	0.787511	0.018552
1807	9.0300e-01	-7.7837	-73.452808	0.000303	3.031759	1.027188	0.024199
1808	9.0350e-01	-7.7404	-73.069664	0.000960	9.600571	3.252761	0.076629
1809	9.0400e-01	-7.7067	-72.662321	0.001021	10.206923	3.458199	0.081469
1810	9.0450e-01	-7.6634	-72.650222	0.000030	0.303176	0.102719	0.002420
1811	9.0500e-01	-7.6137	-72.448567	0.000505	5.052932	1.711980	0.040331
1812	9.0550e-01	-7.5816	-72.315474	0.000333	3.334935	1.129907	0.026618
1813	9.0600e-01	-7.5335	-72.138018	0.000445	4.446580	1.506542	0.035491
1814	9.0650e-01	-7.5030	-71.771006	0.000920	9.196336	3.115803	0.073402
1815	9.0700e-01	-7.4501	-71.577417	0.000485	4.850815	1.643501	0.038718
1816	9.0750e-01	-7.4196	-71.145876	0.001081	10.813274	3.663637	0.086308
1817	9.0800e-01	-7.3779	-71.077313	0.000172	1.717997	0.582073	0.013713
1818	9.0850e-01	-7.3410	-70.907923	0.000424	4.244463	1.438063	0.033878
1819	9.0900e-01	-7.2977	-70.807096	0.000253	2.526466	0.855990	0.020165
1820	9.0950e-01	-7.2624	-70.375554	0.001081	10.813274	3.663637	0.086308
1821	9.1000e-01	-7.2158	-70.258594	0.000293	2.930701	0.992948	0.023392
1822	9.1050e-01	-7.1805	-70.117436	0.000354	3.537052	1.198386	0.028232
1823	9.1100e-01	-7.1404	-69.677828	0.001102	11.015392	3.732116	0.087922
1824	9.1150e-01	-7.0875	-69.540703	0.000344	3.435994	1.164146	0.027425
1825	9.1200e-01	-7.0570	-69.464074	0.000192	1.920114	0.650552	0.015326
1826	9.1250e-01	-7.0089	-69.246286	0.000546	5.457167	1.848938	0.043557
1827	9.1300e-01	-6.9800	-68.867175	0.000950	9.499512	3.218522	0.075822
1828	9.1350e-01	-6.9463	-68.500163	0.000920	9.196336	3.115803	0.073402
1829	9.1400e-01	-6.9030	-68.544527	-0.000111	-1.111645	-0.376636	-0.008873
1830	9.1450e-01	-6.8549	-68.342872	0.000505	5.052932	1.711980	0.040331
1831	9.1500e-01	-6.8228	-67.959728	0.000960	9.600571	3.252761	0.076629
1832	9.1550e-01	-6.7763	-67.624981	0.000839	8.387867	2.841886	0.066949
1833	9.1600e-01	-6.7458	-67.467690	0.000394	3.941287	1.335344	0.031458
1834	9.1650e-01	-6.6961	-67.354763	0.000283	2.829642	0.958709	0.022585
1835	9.1700e-01	-6.6704	-66.923222	0.001081	10.813274	3.663637	0.086308
1836	9.1750e-01	-6.6223	-66.911122	0.000030	0.303176	0.102719	0.002420
1837	9.1800e-01	-6.5758	-66.661070	0.000627	6.265636	2.122855	0.050010
1838	9.1850e-01	-6.5405	-66.459415	0.000505	5.052932	1.711980	0.040331
1839	9.1900e-01	-6.5004	-66.273893	0.000465	4.648697	1.575021	0.037105
1840	9.1950e-01	-6.4602	-65.781855	0.001233	12.329154	4.177230	0.098408
1841	9.2000e-01	-6.4233	-65.600365	0.000455	4.547639	1.540782	0.036298
1842	9.2050e-01	-6.3865	-65.451141	0.000374	3.739170	1.266865	0.029845
1843	9.2100e-01	-6.3496	-65.233353	0.000546	5.457167	1.848938	0.043557
1844	9.2150e-01	-6.3111	-65.124460	0.000273	2.728583	0.924469	0.021779
1845	9.2200e-01	-6.2645	-64.761481	0.000910	9.095278	3.081563	0.072596
1846	9.2250e-01	-6.2260	-64.539660	0.000556	5.558225	1.883178	0.044364
1847	9.2300e-01	-6.1779	-64.475131	0.000162	1.616938	0.547834	0.012906
1848	9.2350e-01	-6.1378	-64.164582	0.000778	7.781515	2.636449	0.062110
1849	9.2400e-01	-6.1025	-63.890332	0.000687	6.871987	2.328292	0.054850
1850	9.2450e-01	-6.0688	-63.628180	0.000657	6.568812	2.225574	0.052430
1851	9.2500e-01	-6.0191	-63.426525	0.000505	5.052932	1.711980	0.040331
1852	9.2550e-01	-5.9758	-63.289400	0.000344	3.435994	1.164146	0.027425
1853	9.2600e-01	-5.9437	-62.986917	0.000758	7.579398	2.567970	0.060496
1854	9.2650e-01	-5.9052	-62.789296	0.000495	4.951873	1.677740	0.039524
1855	9.2700e-01	-5.8635	-62.482780	0.000768	7.680457	2.602209	0.061303
1856	9.2750e-01	-5.8202	-62.248860	0.000586	5.861401	1.985896	0.046784
1857	9.2800e-01	-5.7833	-62.002841	0.000616	6.164577	2.088615	0.049204
1858	9.2850e-01	-5.7512	-61.829418	0.000435	4.345521	1.472303	0.034685
1859	9.2900e-01	-5.6966	-61.522903	0.000768	7.680457	2.602209	0.061303
1860	9.2950e-01	-5.6613	-61.345446	0.000445	4.446580	1.506542	0.035491
1861	9.3000e-01	-5.6244	-61.099427	0.000616	6.164577	2.088615	0.049204
1862	9.3050e-01	-5.5875	-60.970368	0.000323	3.233876	1.095667	0.025812
1863	9.3100e-01	-5.5474	-60.635621	0.000839	8.387867	2.841886	0.066949
1864	9.3150e-01	-5.4929	-60.526727	0.000273	2.728583	0.924469	0.021779
1865	9.3200e-01	-5.4736	-60.167781	0.000899	8.994219	3.047324	0.071789
1866	9.3250e-01	-5.4143	-59.974193	0.000485	4.850815	1.643501	0.038718
1867	9.3300e-01	-5.3790	-59.788670	0.000465	4.648697	1.575021	0.037105
1868	9.3350e-01	-5.3373	-59.470055	0.000798	7.983632	2.704928	0.063723
1869	9.3400e-01	-5.3020	-59.183705	0.000718	7.175163	2.431011	0.057270
1870	9.3450e-01	-5.2619	-58.953819	0.000576	5.760342	1.951657	0.045977
1871	9.3500e-01	-5.2218	-58.828793	0.000313	3.132818	1.061427	0.025005
1872	9.3550e-01	-5.1865	-58.602939	0.000566	5.659284	1.917417	0.045171
1873	9.3600e-01	-5.1448	-58.352887	0.000627	6.265636	2.122855	0.050010
1874	9.3650e-01	-5.1031	-58.106868	0.000616	6.164577	2.088615	0.049204
1875	9.3700e-01	-5.0581	-57.824551	0.000707	7.074105	2.396772	0.056463
1876	9.3750e-01	-5.0164	-57.505936	0.000798	7.983632	2.704928	0.063723
1877	9.3800e-01	-4.9860	-57.336546	0.000424	4.244463	1.438063	0.033878
1878	9.3850e-01	-4.9475	-57.163123	0.000435	4.345521	1.472303	0.034685
1879	9.3900e-01	-4.9073	-56.913071	0.000627	6.265636	2.122855	0.050010
1880	9.3950e-01	-4.8656	-56.505728	0.001021	10.206923	3.458199	0.081469
1881	9.4000e-01	-4.8159	-56.243577	0.000657	6.568812	2.225574	0.052430
1882	9.4050e-01	-4.7774	-56.134683	0.000273	2.728583	0.924469	0.021779
1883	9.4100e-01	-4.7469	-55.876565	0.000647	6.467753	2.191334	0.051624
1884	9.4150e-01	-4.7004	-55.771704	0.000263	2.627525	0.890229	0.020972
1885	9.4200e-01	-4.6635	-55.525685	0.000616	6.164577	2.088615	0.049204
1886	9.4250e-01	-4.6154	-55.259500	0.000667	6.669870	2.259813	0.053237
1887	9.4300e-01	-4.5849	-54.993316	0.000667	6.669870	2.259813	0.053237
1888	9.4350e-01	-4.5432	-54.698900	0.000738	7.377281	2.499490	0.058883
1889	9.4400e-01	-4.4951	-54.650503	0.000121	1.212704	0.410875	0.009679
1890	9.4450e-01	-4.4630	-54.396417	0.000637	6.366694	2.157094	0.050817
1891	9.4500e-01	-4.4277	-54.045538	0.000879	8.792102	2.978845	0.070176
1892	9.4550e-01	-4.3812	-53.876148	0.000424	4.244463	1.438063	0.033878
1893	9.4600e-01	-4.3346	-53.658360	0.000546	5.457167	1.848938	0.043557
1894	9.4650e-01	-4.2993	-53.452672	0.000515	5.153991	1.746219	0.041138
1895	9.4700e-01	-4.2641	-53.093727	0.000899	8.994219	3.047324	0.071789
1896	9.4750e-01	-4.2207	-52.750913	0.000859	8.589984	2.910365	0.068563
1897	9.4800e-01	-4.1870	-52.468596	0.000707	7.074105	2.396772	0.056463
1898	9.4850e-01	-4.1421	-52.210478	0.000647	6.467753	2.191334	0.051624
1899	9.4900e-01	-4.1068	-52.121750	0.000222	2.223290	0.753271	0.017746
1900	9.4950e-01	-4.0651	-52.008823	0.000283	2.829642	0.958709	0.022585
1901	9.5000e-01	-4.0186	-51.573248	0.001091	10.914333	3.697876	0.087115
1902	9.5050e-01	-3.9769	-51.452255	0.000303	3.031759	1.027188	0.024199
1903	9.5100e-01	-3.9400	-51.347395	0.000263	2.627525	0.890229	0.020972
1904	9.5150e-01	-3.8983	-50.980383	0.000920	9.196336	3.115803	0.073402
1905	9.5200e-01	-3.8678	-50.718231	0.000657	6.568812	2.225574	0.052430
1906	9.5250e-01	-3.8261	-50.335087	0.000960	9.600571	3.252761	0.076629
1907	9.5300e-01	-3.7748	-50.169730	0.000414	4.143404	1.403823	0.033071
1908	9.5350e-01	-3.7475	-49.911612	0.000647	6.467753	2.191334	0.051624
1909	9.5400e-01	-3.7042	-49.746255	0.000414	4.143404	1.403823	0.033071
1910	9.5450e-01	-3.6625	-49.334879	0.001031	10.307981	3.492439	0.082275
1911	9.5500e-01	-3.6208	-49.109025	0.000566	5.659284	1.917417	0.045171
1912	9.5550e-01	-3.5806	-48.939635	0.000424	4.244463	1.438063	0.033878
1913	9.5600e-01	-3.5438	-48.673450	0.000667	6.669870	2.259813	0.053237
1914	9.5650e-01	-3.5149	-48.447597	0.000566	5.659284	1.917417	0.045171
1915	9.5700e-01	-3.4635	-48.181412	0.000667	6.669870	2.259813	0.053237
1916	9.5750e-01	-3.4234	-48.024122	0.000394	3.941287	1.335344	0.031458
1917	9.5800e-01	-3.3753	-47.870864	0.000384	3.840228	1.301105	0.030652
1918	9.5850e-01	-3.3464	-47.600646	0.000677	6.770929	2.294053	0.054044
1919	9.5900e-01	-3.3047	-47.350594	0.000627	6.265636	2.122855	0.050010
1920	9.5950e-01	-3.2598	-47.132807	0.000546	5.457167	1.848938	0.043557
1921	9.6000e-01	-3.2197	-46.624636	0.001273	12.733389	4.314189	0.101634
1922	9.6050e-01	-3.1844	-46.297955	0.000819	8.185750	2.773407	0.065336
1923	9.6100e-01	-3.1475	-45.991440	0.000768	7.680457	2.602209	0.061303
1924	9.6150e-01	-3.1010	-46.023705	-0.000081	-0.808469	-0.273917	-0.006453
1925	9.6200e-01	-3.0609	-45.616362	0.001021	10.206923	3.458199	0.081469
1926	9.6250e-01	-3.0304	-45.471170	0.000364	3.638111	1.232625	0.029038
1927	9.6300e-01	-2.9887	-45.128357	0.000859	8.589984	2.910365	0.068563
1928	9.6350e-01	-2.9357	-44.846040	0.000707	7.074105	2.396772	0.056463
1929	9.6400e-01	-2.9021	-44.850073	-0.000010	-0.101059	-0.034240	-0.000807
1930	9.6450e-01	-2.8652	-44.483061	0.000920	9.196336	3.115803	0.073402
1931	9.6500e-01	-2.8234	-44.301572	0.000455	4.547639	1.540782	0.036298
1932	9.6550e-01	-2.7866	-44.091850	0.000526	5.255049	1.780459	0.041944
1933	9.6600e-01	-2.7400	-43.656276	0.001091	10.914333	3.697876	0.087115
1934	9.6650e-01	-2.6951	-43.474786	0.000455	4.547639	1.540782	0.036298
1935	9.6700e-01	-2.6582	-43.297330	0.000445	4.446580	1.506542	0.035491
1936	9.6750e-01	-2.6197	-42.898053	0.001000	10.004805	3.389720	0.079855
1937	9.6800e-01	-2.5796	-42.615736	0.000707	7.074105	2.396772	0.056463
1938	9.6850e-01	-2.5379	-42.514909	0.000253	2.526466	0.855990	0.020165
1939	9.6900e-01	-2.4978	-42.127731	0.000970	9.701629	3.287001	0.077435
1940	9.6950e-01	-2.4593	-41.825249	0.000758	7.579398	2.567970	0.060496
1941	9.7000e-01	-2.4208	-41.740554	0.000212	2.122231	0.719031	0.016939
1942	9.7050e-01	-2.3759	-41.430005	0.000778	7.781515	2.636449	0.062110
1943	9.7100e-01	-2.3438	-41.179953	0.000627	6.265636	2.122855	0.050010
1944	9.7150e-01	-2.3053	-40.954100	0.000566	5.659284	1.917417	0.045171
1945	9.7200e-01	-2.2556	-40.768577	0.000465	4.648697	1.575021	0.037105
1946	9.7250e-01	-2.2235	-40.558856	0.000526	5.255049	1.780459	0.041944
1947	9.7300e-01	-2.1898	-40.252341	0.000768	7.680457	2.602209	0.061303
1948	9.7350e-01	-2.1352	-39.978090	0.000687	6.871987	2.328292	0.054850
1949	9.7400e-01	-2.1048	-39.663508	0.000788	7.882574	2.670688	0.062916
1950	9.7450e-01	-2.0743	-39.421522	0.000606	6.063518	2.054376	0.048397
1951	9.7500e-01	-2.0294	-39.050477	0.000930	9.297395	3.150043	0.074209
1952	9.7550e-01	-1.9780	-38.768160	0.000707	7.074105	2.396772	0.056463
1953	9.7600e-01	-1.9443	-38.598770	0.000424	4.244463	1.438063	0.033878
1954	9.7650e-01	-1.9042	-38.401148	0.000495	4.951873	1.677740	0.039524
1955	9.7700e-01	-1.8641	-38.001872	0.001000	10.004805	3.389720	0.079855
1956	9.7750e-01	-1.8160	-37.800217	0.000505	5.052932	1.711980	0.040331
1957	9.7800e-01	-1.7823	-37.570330	0.000576	5.760342	1.951657	0.045977
1958	9.7850e-01	-1.7406	-37.348510	0.000556	5.558225	1.883178	0.044364
1959	9.7900e-01	-1.7021	-37.090391	0.000647	6.467753	2.191334	0.051624
1960	9.7950e-01	-1.6636	-36.921001	0.000424	4.244463	1.438063	0.033878
1961	9.8000e-01	-1.6139	-36.618519	0.000758	7.579398	2.567970	0.060496
1962	9.8050e-01	-1.5818	-36.364434	0.000637	6.366694	2.157094	0.050817
1963	9.8100e-01	-1.5433	-36.203110	0.000404	4.042346	1.369584	0.032265
1964	9.8150e-01	-1.4935	-35.888528	0.000788	7.882574	2.670688	0.062916
1965	9.8200e-01	-1.4679	-35.602178	0.000718	7.175163	2.431011	0.057270
1966	9.8250e-01	-1.4197	-35.303729	0.000748	7.478339	2.533730	0.059690
1967	9.8300e-01	-1.3764	-34.964948	0.000849	8.488926	2.876126	0.067756
1968	9.8350e-01	-1.3492	-34.900419	0.000162	1.616938	0.547834	0.012906
1969	9.8400e-01	-1.3010	-34.601969	0.000748	7.478339	2.533730	0.059690
1970	9.8450e-01	-1.2689	-34.299487	0.000758	7.579398	2.567970	0.060496
1971	9.8500e-01	-1.2256	-33.980872	0.000798	7.983632	2.704928	0.063723
1972	9.8550e-01	-1.1839	-33.863912	0.000293	2.930701	0.992948	0.023392
1973	9.8600e-01	-1.1326	-33.565463	0.000748	7.478339	2.533730	0.059690
1974	9.8650e-01	-1.1021	-33.238782	0.000819	8.185750	2.773407	0.065336
1975	9.8700e-01	-1.0668	-33.178286	0.000152	1.515880	0.513594	0.012099
1976	9.8750e-01	-1.0219	-32.750777	0.001071	10.712216	3.629397	0.085502
1977	9.8800e-01	-0.9802	-32.528957	0.000556	5.558225	1.883178	0.044364
1978	9.8850e-01	-0.9321	-32.170011	0.000899	8.994219	3.047324	0.071789
1979	9.8900e-01	-0.9032	-32.024819	0.000364	3.638111	1.232625	0.029038
1980	9.8950e-01	-0.8663	-31.827198	0.000495	4.951873	1.677740	0.039524
1981	9.9000e-01	-0.8230	-31.512616	0.000788	7.882574	2.670688	0.062916
1982	9.9050e-01	-0.7748	-31.242398	0.000677	6.770929	2.294053	0.054044
1983	9.9100e-01	-0.7363	-30.923784	0.000798	7.983632	2.704928	0.063723
1984	9.9150e-01	-0.7075	-30.589036	0.000839	8.387867	2.841886	0.066949
1985	9.9200e-01	-0.6658	-30.306719	0.000707	7.074105	2.396772	0.056463
1986	9.9250e-01	-0.6208	-29.963906	0.000859	8.589984	2.910365	0.068563
1987	9.9300e-01	-0.5727	-29.943741	0.000051	0.505293	0.171198	0.004033
1988	9.9350e-01	-0.5342	-29.725953	0.000546	5.457167	1.848938	0.043557
1989	9.9400e-01	-0.5021	-29.298445	0.001071	10.712216	3.629397	0.085502
1990	9.9450e-01	-0.4636	-29.133088	0.000414	4.143404	1.403823	0.033071
1991	9.9500e-01	-0.4139	-28.790274	0.000859	8.589984	2.910365	0.068563
1992	9.9550e-01	-0.3754	-28.524090	0.000667	6.669870	2.259813	0.053237
1993	9.9600e-01	-0.3417	-28.132879	0.000980	9.802688	3.321241	0.078242
1994	9.9650e-01	-0.3000	-27.874761	0.000647	6.467753	2.191334	0.051624
1995	9.9700e-01	-0.2615	-27.685205	0.000475	4.749756	1.609261	0.037911
1996	9.9750e-01	-0.2198	-27.467418	0.000546	5.457167	1.848938	0.043557
1997	9.9800e-01	-0.1877	-27.148803	0.000798	7.983632	2.704928	0.063723
1998	9.9850e-01	-0.1444	-27.039910	0.000273	2.728583	0.924469	0.021779
1999	9.9900e-01	-0.1027	-26.721295	0.000798	7.983632	2.704928	0.063723
2000	9.9950e-01	-0.0610	-26.434945	0.000718	7.175163	2.431011	0.057270
2001	1.0000e+00	-0.0176	-26.120363	0.000718	7.175163	2.431011	0.062916

PMax (uC/cm2):	1.28e+02
Pr (uC/cm2):	7.05e+00
-Pr (uC/cm2):	-1.94e+01
PLoss (uC/cm2):	-1.94e+01
-Vc:	-1.05e+00
C (Max-Eff) (nF):	6.43e-01
K (Eff):	2.18e+03
Vert. (+/-Pr) Shift (uC/cm2):	-6.19e+00
Offset (uC/cm2):	6.69e+00

A (Loop Area - uC/cm2·Volts):	-4.22e-01



Hysteresis Version: 5.48.1 - Radiant Technologies, Inc., 1999 - 9/12/24

