»»»»»»»»»»»»»»»»»»»»»»»»»»»»»»»»»»»» Hysteresis ««««««««««««««««««««««««««««««««««««
»»»  Executed Version:	5.48.1
»»»  Vision Version:	5.48.4 (R)
»»»  Vision Compiled:	9/18/24
»»»  Driver Version:	5.47.0
»»»  Windows Version:	Windows 8 or 8.1
»»»  Processor Information:	x86 (AMD or Intel) - 32 Processors
»»»  Tester Name:	PMF21124-494 (100V)
»»»  Tester S/N:	PMF21124-494
»»»  Internal Amp Type:	100V RevK 270k
»»»  Internal Amp S/N:	iAB2-596/K     
»»»  Execution Count:	1
»»»»»»»»»»»»»»»»»»»»»»»»»»»»»»»»»»»»»»»»»»««««««««««««««««««««««««««««««««««««««««««

Stored:	6/18/2025 - 13:10:52
Configured:	06/18/25 09:47:30 AM
Executed:	06/18/25 01:10:25 PM

»»»»»»»»»»»»»»»»»»»»»»»»»»»»»»»»»»» Sample Info ««««««««««««««««««««««««««««««««««««
Sample Name:	
Lot Name:	
Wafer Name:	
Die Row/Column:	0/0
Capacitor Number:	0
Sample Area (cm2):	1.00e-04
Sample Thickness (microns):	3.00e-01

Amplifier:	Internal

»»»»»»»»»»»»»»»»»»»»»»»»»»»»»»»»»»» Tester Info «««««««««««««««««««««««««««««««««««
Tester Name:	PMF21124-494 (100V)
Tester Serial Number:	PMF21124-494
Return Signal Amp. Level:	0.19 [Index: 3]

»»»»»»»»»»»»»»»»»»»»»»»»»»»»»»»» Hysteresis Info ««««««««««««««««««««««««««««««««««
Task Name:	Hyst-554
Volts:	20.00
Field:	666.67 (kV/cm)
DCBias:	0.00
DCField:	0.00 (kV/cm)
Hysteresis Period (ms):	1.00e+00
Preset:	Enabled
Preset Delay (ms):	1.00e+03
Profile:	Standard Bipolar

»»»»»»»»»»»»»»»»»»»»»»»»»»»»»»»»»»»»»» Data «««««««««««««««««««««««««««««««««««««««
Points:	2001

Valid Data

Point	Time (ms)	Drive Voltage	Measured Polarization (uC/cm2)	Capacitance (uF)	Normalized Capacitance (uF/cm2)	Dielectric Constant	Instantaneous Current (mA)
   1	0.0000e+00	0.0128	-8.146859	0.001030	10.304046	3.491105	0.082275
   2	5.0000e-04	0.0225	-7.735483	0.001030	10.304046	3.491105	0.082275
   3	1.0000e-03	0.0642	-7.763715	-0.000071	-0.707140	-0.239586	-0.005646
   4	1.5000e-03	0.0930	-7.695152	0.000172	1.717341	0.581851	0.013713
   5	2.0000e-03	0.1380	-7.352339	0.000859	8.586705	2.909254	0.068563
   6	2.5000e-03	0.1684	-7.122452	0.000576	5.758144	1.950912	0.045977
   7	3.0000e-03	0.2021	-6.949029	0.000434	4.343863	1.471741	0.034685
   8	3.5000e-03	0.2487	-6.896599	0.000131	1.313261	0.444945	0.010486
   9	4.0000e-03	0.2936	-6.590083	0.000768	7.677525	2.601216	0.061303
  10	4.5000e-03	0.3305	-6.287601	0.000758	7.576505	2.566989	0.060496
  11	5.0000e-03	0.3658	-6.162575	0.000313	3.131622	1.061022	0.025005
  12	5.5000e-03	0.4091	-5.948820	0.000535	5.354063	1.814006	0.042751
  13	6.0000e-03	0.4460	-5.597941	0.000879	8.788745	2.977708	0.070176
  14	6.5000e-03	0.4813	-5.436617	0.000404	4.040802	1.369061	0.032265
  15	7.0000e-03	0.5326	-5.315624	0.000303	3.030602	1.026796	0.024199
  16	7.5000e-03	0.5679	-5.130101	0.000465	4.646923	1.574420	0.037105
  17	8.0000e-03	0.6096	-4.755023	0.000939	9.394866	3.183067	0.075016
  18	8.5000e-03	0.6465	-4.525137	0.000576	5.758144	1.950912	0.045977
  19	9.0000e-03	0.6834	-4.448508	0.000192	1.919381	0.650304	0.015326
  20	9.5000e-03	0.7283	-4.012933	0.001091	10.910167	3.696465	0.087115
  21	1.0000e-02	0.7732	-3.827411	0.000465	4.646923	1.574420	0.037105
  22	1.0500e-02	0.8037	-3.766914	0.000152	1.515301	0.513398	0.012099
  23	1.1000e-02	0.8599	-3.480564	0.000717	7.172424	2.430083	0.057270
  24	1.1500e-02	0.8871	-3.351505	0.000323	3.232642	1.095249	0.025812
  25	1.2000e-02	0.9337	-3.174049	0.000444	4.444883	1.505967	0.035491
  26	1.2500e-02	0.9770	-2.798970	0.000939	9.394866	3.183067	0.075016
  27	1.3000e-02	1.0059	-2.811070	-0.000030	-0.303060	-0.102680	-0.002420
  28	1.3500e-02	1.0508	-2.528753	0.000707	7.071404	2.395857	0.056463
  29	1.4000e-02	1.0813	-2.383561	0.000364	3.636722	1.232155	0.029038
  30	1.4500e-02	1.1278	-2.129476	0.000636	6.364264	2.156271	0.050817
  31	1.5000e-02	1.1679	-1.931854	0.000495	4.949983	1.677100	0.039524
  32	1.5500e-02	1.2096	-1.710034	0.000556	5.556103	1.882459	0.044364
  33	1.6000e-02	1.2497	-1.560809	0.000374	3.737742	1.266381	0.029845
  34	1.6500e-02	1.2898	-1.169599	0.000980	9.798946	3.319973	0.078242
  35	1.7000e-02	1.3299	-0.919546	0.000626	6.263244	2.122044	0.050010
  36	1.7500e-02	1.3700	-0.717892	0.000505	5.051003	1.711326	0.040331
  37	1.8000e-02	1.4117	-0.685627	0.000081	0.808160	0.273812	0.006453
  38	1.8500e-02	1.4518	-0.483972	0.000505	5.051003	1.711326	0.040331
  39	1.9000e-02	1.4791	-0.125026	0.000899	8.990785	3.046161	0.071789
  40	1.9500e-02	1.5385	-0.129059	-0.000010	-0.101020	-0.034227	-0.000807
  41	2.0000e-02	1.5689	0.193589	0.000808	8.081605	2.738122	0.064530
  42	2.0500e-02	1.6026	0.596899	0.001010	10.102006	3.422652	0.080662
  43	2.1000e-02	1.6492	0.802587	0.000515	5.152023	1.745553	0.041138
  44	2.1500e-02	1.6893	0.762256	-0.000101	-1.010201	-0.342265	-0.008066
  45	2.2000e-02	1.7310	1.028440	0.000667	6.667324	2.258951	0.053237
  46	2.2500e-02	1.7775	1.371254	0.000859	8.586705	2.909254	0.068563
  47	2.3000e-02	1.8048	1.742299	0.000929	9.293846	3.148840	0.074209
  48	2.3500e-02	1.8449	2.008483	0.000667	6.667324	2.258951	0.053237
  49	2.4000e-02	1.8930	2.121410	0.000283	2.828562	0.958343	0.022585
  50	2.4500e-02	1.9315	2.359363	0.000596	5.960184	2.019365	0.047591
  51	2.5000e-02	1.9700	2.440025	0.000202	2.020401	0.684530	0.016132
  52	2.5500e-02	2.0133	2.665878	0.000566	5.657123	1.916685	0.045171
  53	2.6000e-02	2.0534	2.956261	0.000727	7.273444	2.464310	0.058077
  54	2.6500e-02	2.0871	3.153883	0.000495	4.949983	1.677100	0.039524
  55	2.7000e-02	2.1256	3.476531	0.000808	8.081605	2.738122	0.064530
  56	2.7500e-02	2.1737	3.678186	0.000505	5.051003	1.711326	0.040331
  57	2.8000e-02	2.2170	3.726583	0.000121	1.212241	0.410718	0.009679
  58	2.8500e-02	2.2539	3.895973	0.000424	4.242843	1.437514	0.033878
  59	2.9000e-02	2.2924	4.202489	0.000768	7.677525	2.601216	0.061303
  60	2.9500e-02	2.3149	4.545302	0.000859	8.586705	2.909254	0.068563
  61	3.0000e-02	2.3646	4.750990	0.000515	5.152023	1.745553	0.041138
  62	3.0500e-02	2.4112	4.948612	0.000495	4.949983	1.677100	0.039524
  63	3.1000e-02	2.4529	5.210763	0.000657	6.566304	2.224724	0.052430
  64	3.1500e-02	2.4978	5.376120	0.000414	4.141823	1.403287	0.033071
  65	3.2000e-02	2.5315	5.525345	0.000374	3.737742	1.266381	0.029845
  66	3.2500e-02	2.5684	5.827827	0.000758	7.576505	2.566989	0.060496
  67	3.3000e-02	2.6117	6.073846	0.000616	6.162224	2.087818	0.049204
  68	3.3500e-02	2.6534	6.271468	0.000495	4.949983	1.677100	0.039524
  69	3.4000e-02	2.6935	6.509421	0.000596	5.960184	2.019365	0.047591
  70	3.4500e-02	2.7272	6.731242	0.000556	5.556103	1.882459	0.044364
  71	3.5000e-02	2.7737	6.872400	0.000354	3.535702	1.197928	0.028232
  72	3.5500e-02	2.8090	7.005492	0.000333	3.333662	1.129475	0.026618
  73	3.6000e-02	2.8411	7.380570	0.000939	9.394866	3.183067	0.075016
  74	3.6500e-02	2.8892	7.533828	0.000384	3.838762	1.300608	0.030652
  75	3.7000e-02	2.9293	7.650788	0.000293	2.929582	0.992569	0.023392
  76	3.7500e-02	2.9598	8.005701	0.000889	8.889765	3.011934	0.070983
  77	3.8000e-02	3.0160	8.259786	0.000636	6.364264	2.156271	0.050817
  78	3.8500e-02	3.0545	8.546136	0.000717	7.172424	2.430083	0.057270
  79	3.9000e-02	3.0962	8.578401	0.000081	0.808160	0.273812	0.006453
  80	3.9500e-02	3.1234	8.884916	0.000768	7.677525	2.601216	0.061303
  81	4.0000e-02	3.1668	9.203531	0.000798	7.980585	2.703895	0.063723
  82	4.0500e-02	3.2101	9.497947	0.000737	7.374464	2.498536	0.058883
  83	4.1000e-02	3.2534	9.703635	0.000515	5.152023	1.745553	0.041138
  84	4.1500e-02	3.2871	9.691536	-0.000030	-0.303060	-0.102680	-0.002420
  85	4.2000e-02	3.3272	9.973853	0.000707	7.071404	2.395857	0.056463
  86	4.2500e-02	3.3689	10.187607	0.000535	5.354063	1.814006	0.042751
  87	4.3000e-02	3.4074	10.494123	0.000768	7.677525	2.601216	0.061303
  88	4.3500e-02	3.4523	10.550586	0.000141	1.414281	0.479171	0.011293
  89	4.4000e-02	3.4892	10.881300	0.000828	8.283645	2.806575	0.066143
  90	4.4500e-02	3.5341	11.171683	0.000727	7.273444	2.464310	0.058077
  91	4.5000e-02	3.5742	11.328974	0.000394	3.939782	1.334834	0.031458
  92	4.5500e-02	3.6079	11.558861	0.000576	5.758144	1.950912	0.045977
  93	4.6000e-02	3.6496	11.845211	0.000717	7.172424	2.430083	0.057270
  94	4.6500e-02	3.6897	12.188024	0.000859	8.586705	2.909254	0.068563
  95	4.7000e-02	3.7347	12.276752	0.000222	2.222441	0.752984	0.017746
  96	4.7500e-02	3.7699	12.389679	0.000283	2.828562	0.958343	0.022585
  97	4.8000e-02	3.8101	12.760724	0.000929	9.293846	3.148840	0.074209
  98	4.8500e-02	3.8518	12.913982	0.000384	3.838762	1.300608	0.030652
  99	4.9000e-02	3.8838	13.204365	0.000727	7.273444	2.464310	0.058077
 100	4.9500e-02	3.9223	13.510880	0.000768	7.677525	2.601216	0.061303
 101	5.0000e-02	3.9705	13.418119	-0.000232	-2.323461	-0.787210	-0.018552
 102	5.0500e-02	4.0074	13.789164	0.000929	9.293846	3.148840	0.074209
 103	5.1000e-02	4.0427	14.131978	0.000859	8.586705	2.909254	0.068563
 104	5.1500e-02	4.0924	14.414294	0.000707	7.071404	2.395857	0.056463
 105	5.2000e-02	4.1277	14.482857	0.000172	1.717341	0.581851	0.013713
 106	5.2500e-02	4.1694	14.926498	0.001111	11.112207	3.764918	0.088728
 107	5.3000e-02	4.2159	15.039425	0.000283	2.828562	0.958343	0.022585
 108	5.3500e-02	4.2560	15.265278	0.000566	5.657123	1.916685	0.045171
 109	5.4000e-02	4.2929	15.515330	0.000626	6.263244	2.122044	0.050010
 110	5.4500e-02	4.3266	15.954938	0.001101	11.011187	3.730691	0.087922
 111	5.5000e-02	4.3747	15.979137	0.000061	0.606120	0.205359	0.004840
 112	5.5500e-02	4.4116	16.229189	0.000626	6.263244	2.122044	0.050010
 113	5.6000e-02	4.4469	16.459075	0.000576	5.758144	1.950912	0.045977
 114	5.6500e-02	4.4951	16.438910	-0.000051	-0.505100	-0.171133	-0.004033
 115	5.7000e-02	4.5271	16.717194	0.000697	6.970384	2.361630	0.055657
 116	5.7500e-02	4.5721	17.096305	0.000950	9.495886	3.217293	0.075822
 117	5.8000e-02	4.6009	17.386688	0.000727	7.273444	2.464310	0.058077
 118	5.8500e-02	4.6523	17.475416	0.000222	2.222441	0.752984	0.017746
 119	5.9000e-02	4.6924	17.669005	0.000485	4.848963	1.642873	0.038718
 120	5.9500e-02	4.7277	17.906958	0.000596	5.960184	2.019365	0.047591
 121	6.0000e-02	4.7774	18.128778	0.000556	5.556103	1.882459	0.044364
 122	6.0500e-02	4.8143	18.479658	0.000879	8.788745	2.977708	0.070176
 123	6.1000e-02	4.8512	18.737776	0.000647	6.465284	2.190497	0.051624
 124	6.1500e-02	4.8993	18.935398	0.000495	4.949983	1.677100	0.039524
 125	6.2000e-02	4.9346	19.145119	0.000525	5.253043	1.779779	0.041944
 126	6.2500e-02	4.9667	19.358873	0.000535	5.354063	1.814006	0.042751
 127	6.3000e-02	5.0132	19.552462	0.000485	4.848963	1.642873	0.038718
 128	6.3500e-02	5.0453	19.669422	0.000293	2.929582	0.992569	0.023392
 129	6.4000e-02	5.0838	20.012235	0.000859	8.586705	2.909254	0.068563
 130	6.4500e-02	5.1319	20.318751	0.000768	7.677525	2.601216	0.061303
 131	6.5000e-02	5.1704	20.484108	0.000414	4.141823	1.403287	0.033071
 132	6.5500e-02	5.2122	20.681730	0.000495	4.949983	1.677100	0.039524
 133	6.6000e-02	5.2474	20.875318	0.000485	4.848963	1.642873	0.038718
 134	6.6500e-02	5.2811	21.113271	0.000596	5.960184	2.019365	0.047591
 135	6.7000e-02	5.3228	21.552879	0.001101	11.011187	3.730691	0.087922
 136	6.7500e-02	5.3742	21.790832	0.000596	5.960184	2.019365	0.047591
 137	6.8000e-02	5.4047	22.101380	0.000778	7.778545	2.635442	0.062110
 138	6.8500e-02	5.4480	22.226406	0.000313	3.131622	1.061022	0.025005
 139	6.9000e-02	5.4913	22.436128	0.000525	5.253043	1.779779	0.041944
 140	6.9500e-02	5.5266	22.597451	0.000404	4.040802	1.369061	0.032265
 141	7.0000e-02	5.5715	22.815239	0.000546	5.455083	1.848232	0.043557
 142	7.0500e-02	5.6084	23.149986	0.000838	8.384665	2.840801	0.066949
 143	7.1000e-02	5.6453	23.246780	0.000242	2.424481	0.821437	0.019359
 144	7.1500e-02	5.6918	23.500866	0.000636	6.364264	2.156271	0.050817
 145	7.2000e-02	5.7271	23.851745	0.000879	8.788745	2.977708	0.070176
 146	7.2500e-02	5.7688	24.073566	0.000556	5.556103	1.882459	0.044364
 147	7.3000e-02	5.8121	24.226823	0.000384	3.838762	1.300608	0.030652
 148	7.3500e-02	5.8474	24.529306	0.000758	7.576505	2.566989	0.060496
 149	7.4000e-02	5.8972	24.654332	0.000313	3.131622	1.061022	0.025005
 150	7.4500e-02	5.9325	24.940682	0.000717	7.172424	2.430083	0.057270
 151	7.5000e-02	5.9822	25.255263	0.000788	7.879565	2.669669	0.062916
 152	7.5500e-02	6.0191	25.392389	0.000343	3.434682	1.163702	0.027425
 153	7.6000e-02	6.0447	25.658573	0.000667	6.667324	2.258951	0.053237
 154	7.6500e-02	6.0881	25.912659	0.000636	6.364264	2.156271	0.050817
 155	7.7000e-02	6.1346	26.017519	0.000263	2.626522	0.889890	0.020972
 156	7.7500e-02	6.1779	26.255472	0.000596	5.960184	2.019365	0.047591
 157	7.8000e-02	6.2052	26.521656	0.000667	6.667324	2.258951	0.053237
 158	7.8500e-02	6.2549	26.747510	0.000566	5.657123	1.916685	0.045171
 159	7.9000e-02	6.2854	27.005628	0.000647	6.465284	2.190497	0.051624
 160	7.9500e-02	6.3271	27.166952	0.000404	4.040802	1.369061	0.032265
 161	8.0000e-02	6.3640	27.465401	0.000748	7.475485	2.532763	0.059690
 162	8.0500e-02	6.4169	27.606560	0.000354	3.535702	1.197928	0.028232
 163	8.1000e-02	6.4506	28.126830	0.001303	13.031588	4.415222	0.104054
 164	8.1500e-02	6.4987	28.219591	0.000232	2.323461	0.787210	0.018552
 165	8.2000e-02	6.5308	28.405113	0.000465	4.646923	1.574420	0.037105
 166	8.2500e-02	6.5709	28.598702	0.000485	4.848963	1.642873	0.038718
 167	8.3000e-02	6.6175	28.820523	0.000556	5.556103	1.882459	0.044364
 168	8.3500e-02	6.6576	29.114939	0.000737	7.374464	2.498536	0.058883
 169	8.4000e-02	6.6897	29.445653	0.000828	8.283645	2.806575	0.066143
 170	8.4500e-02	6.7298	29.550513	0.000263	2.626522	0.889890	0.020972
 171	8.5000e-02	6.7731	29.844930	0.000737	7.374464	2.498536	0.058883
 172	8.5500e-02	6.8068	30.058684	0.000535	5.354063	1.814006	0.042751
 173	8.6000e-02	6.8581	30.163544	0.000263	2.626522	0.889890	0.020972
 174	8.6500e-02	6.8902	30.457961	0.000737	7.374464	2.498536	0.058883
 175	8.7000e-02	6.9287	30.703980	0.000616	6.162224	2.087818	0.049204
 176	8.7500e-02	6.9656	30.941932	0.000596	5.960184	2.019365	0.047591
 177	8.8000e-02	7.0041	31.103256	0.000404	4.040802	1.369061	0.032265
 178	8.8500e-02	7.0378	31.397673	0.000737	7.374464	2.498536	0.058883
 179	8.9000e-02	7.0907	31.538831	0.000354	3.535702	1.197928	0.028232
 180	8.9500e-02	7.1340	31.889711	0.000879	8.788745	2.977708	0.070176
 181	9.0000e-02	7.1677	32.159928	0.000677	6.768344	2.293177	0.054044
 182	9.0500e-02	7.2078	32.345451	0.000465	4.646923	1.574420	0.037105
 183	9.1000e-02	7.2431	32.551139	0.000515	5.152023	1.745553	0.041138
 184	9.1500e-02	7.2977	32.764893	0.000535	5.354063	1.814006	0.042751
 185	9.2000e-02	7.3297	32.954449	0.000475	4.747943	1.608647	0.037911
 186	9.2500e-02	7.3731	33.131905	0.000444	4.444883	1.505967	0.035491
 187	9.3000e-02	7.4067	33.498917	0.000919	9.192826	3.114614	0.073402
 188	9.3500e-02	7.4436	33.882061	0.000960	9.596906	3.251520	0.076629
 189	9.4000e-02	7.4934	34.035319	0.000384	3.838762	1.300608	0.030652
 190	9.4500e-02	7.5271	34.200676	0.000414	4.141823	1.403287	0.033071
 191	9.5000e-02	7.5752	34.370066	0.000424	4.242843	1.437514	0.033878
 192	9.5500e-02	7.6073	34.716913	0.000869	8.687725	2.943481	0.069369
 193	9.6000e-02	7.6490	34.898402	0.000455	4.545903	1.540194	0.036298
 194	9.6500e-02	7.6891	35.003263	0.000263	2.626522	0.889890	0.020972
 195	9.7000e-02	7.7324	35.208951	0.000515	5.152023	1.745553	0.041138
 196	9.7500e-02	7.7629	35.551764	0.000859	8.586705	2.909254	0.068563
 197	9.8000e-02	7.8094	35.821982	0.000677	6.768344	2.293177	0.054044
 198	9.8500e-02	7.8527	36.144630	0.000808	8.081605	2.738122	0.064530
 199	9.9000e-02	7.8848	36.148663	0.000010	0.101020	0.034227	0.000807
 200	9.9500e-02	7.9249	36.410814	0.000657	6.566304	2.224724	0.052430
 201	1.0000e-01	7.9682	36.644734	0.000586	5.859164	1.985138	0.046784
 202	1.0050e-01	8.0099	36.951249	0.000768	7.677525	2.601216	0.061303
 203	1.0100e-01	8.0565	37.128706	0.000444	4.444883	1.505967	0.035491
 204	1.0150e-01	8.1014	37.302129	0.000434	4.343863	1.471741	0.034685
 205	1.0200e-01	8.1303	37.632843	0.000828	8.283645	2.806575	0.066143
 206	1.0250e-01	8.1800	37.774002	0.000354	3.535702	1.197928	0.028232
 207	1.0300e-01	8.2024	38.092616	0.000798	7.980585	2.703895	0.063723
 208	1.0350e-01	8.2522	38.197477	0.000263	2.626522	0.889890	0.020972
 209	1.0400e-01	8.2810	38.588687	0.000980	9.798946	3.319973	0.078242
 210	1.0450e-01	8.3292	38.866971	0.000697	6.970384	2.361630	0.055657
 211	1.0500e-01	8.3629	38.983931	0.000293	2.929582	0.992569	0.023392
 212	1.0550e-01	8.4142	39.193652	0.000525	5.253043	1.779779	0.041944
 213	1.0600e-01	8.4495	39.532432	0.000849	8.485685	2.875028	0.067756
 214	1.0650e-01	8.4880	39.588896	0.000141	1.414281	0.479171	0.011293
 215	1.0700e-01	8.5329	39.883312	0.000737	7.374464	2.498536	0.058883
 216	1.0750e-01	8.5778	40.048669	0.000414	4.141823	1.403287	0.033071
 217	1.0800e-01	8.6147	40.302754	0.000636	6.364264	2.156271	0.050817
 218	1.0850e-01	8.6532	40.371317	0.000172	1.717341	0.581851	0.013713
 219	1.0900e-01	8.6901	40.823024	0.001131	11.314247	3.833371	0.090341
 220	1.0950e-01	8.7350	41.157771	0.000838	8.384665	2.840801	0.066949
 221	1.1000e-01	8.7719	41.290863	0.000333	3.333662	1.129475	0.026618
 222	1.1050e-01	8.8040	41.565114	0.000687	6.869364	2.327404	0.054850
 223	1.1100e-01	8.8489	41.569147	0.000010	0.101020	0.034227	0.000807
 224	1.1150e-01	8.8858	42.113616	0.001364	13.637708	4.620581	0.108894
 225	1.1200e-01	8.9388	42.178145	0.000162	1.616321	0.547624	0.012906
 226	1.1250e-01	8.9709	42.403999	0.000566	5.657123	1.916685	0.045171
 227	1.1300e-01	9.0126	42.666150	0.000657	6.566304	2.224724	0.052430
 228	1.1350e-01	9.0575	42.940401	0.000687	6.869364	2.327404	0.054850
 229	1.1400e-01	9.0784	43.287247	0.000869	8.687725	2.943481	0.069369
 230	1.1450e-01	9.1297	43.307413	0.000051	0.505100	0.171133	0.004033
 231	1.1500e-01	9.1826	43.525200	0.000546	5.455083	1.848232	0.043557
 232	1.1550e-01	9.2147	43.855914	0.000828	8.283645	2.806575	0.066143
 233	1.1600e-01	9.2580	44.017238	0.000404	4.040802	1.369061	0.032265
 234	1.1650e-01	9.2885	44.186628	0.000424	4.242843	1.437514	0.033878
 235	1.1700e-01	9.3222	44.489111	0.000758	7.576505	2.566989	0.060496
 236	1.1750e-01	9.3671	44.727063	0.000596	5.960184	2.019365	0.047591
 237	1.1800e-01	9.4104	44.852090	0.000313	3.131622	1.061022	0.025005
 238	1.1850e-01	9.4570	45.073910	0.000556	5.556103	1.882459	0.044364
 239	1.1900e-01	9.4906	45.485286	0.001030	10.304046	3.491105	0.082275
 240	1.1950e-01	9.5291	45.816000	0.000828	8.283645	2.806575	0.066143
 241	1.2000e-01	9.5692	45.884563	0.000172	1.717341	0.581851	0.013713
 242	1.2050e-01	9.6078	45.973291	0.000222	2.222441	0.752984	0.017746
 243	1.2100e-01	9.6446	46.437097	0.001162	11.617307	3.936050	0.092761
 244	1.2150e-01	9.6864	46.602454	0.000414	4.141823	1.403287	0.033071
 245	1.2200e-01	9.7313	46.828308	0.000566	5.657123	1.916685	0.045171
 246	1.2250e-01	9.7714	46.997698	0.000424	4.242843	1.437514	0.033878
 247	1.2300e-01	9.8179	47.401008	0.001010	10.102006	3.422652	0.080662
 248	1.2350e-01	9.8500	47.465537	0.000162	1.616321	0.547624	0.012906
 249	1.2400e-01	9.8885	47.755921	0.000727	7.273444	2.464310	0.058077
 250	1.2450e-01	9.9350	47.913211	0.000394	3.939782	1.334834	0.031458
 251	1.2500e-01	9.9655	48.070502	0.000394	3.939782	1.334834	0.031458
 252	1.2550e-01	10.0088	48.304422	0.000586	5.859164	1.985138	0.046784
 253	1.2600e-01	10.0569	48.623037	0.000798	7.980585	2.703895	0.063723
 254	1.2650e-01	10.1002	48.772261	0.000374	3.737742	1.266381	0.029845
 255	1.2700e-01	10.1371	49.018280	0.000616	6.162224	2.087818	0.049204
 256	1.2750e-01	10.1724	49.264299	0.000616	6.162224	2.087818	0.049204
 257	1.2800e-01	10.2029	49.554683	0.000727	7.273444	2.464310	0.058077
 258	1.2850e-01	10.2559	49.732139	0.000444	4.444883	1.505967	0.035491
 259	1.2900e-01	10.2912	50.119316	0.000970	9.697926	3.285746	0.077435
 260	1.2950e-01	10.3313	50.195945	0.000192	1.919381	0.650304	0.015326
 261	1.3000e-01	10.3714	50.288706	0.000232	2.323461	0.787210	0.018552
 262	1.3050e-01	10.4131	50.595222	0.000768	7.677525	2.601216	0.061303
 263	1.3100e-01	10.4516	50.748480	0.000384	3.838762	1.300608	0.030652
 264	1.3150e-01	10.4949	51.059028	0.000778	7.778545	2.635442	0.062110
 265	1.3200e-01	10.5254	51.345378	0.000717	7.172424	2.430083	0.057270
 266	1.3250e-01	10.5719	51.655927	0.000778	7.778545	2.635442	0.062110
 267	1.3300e-01	10.6120	51.817251	0.000404	4.040802	1.369061	0.032265
 268	1.3350e-01	10.6473	51.994707	0.000444	4.444883	1.505967	0.035491
 269	1.3400e-01	10.6954	52.164097	0.000424	4.242843	1.437514	0.033878
 270	1.3450e-01	10.7291	52.349620	0.000465	4.646923	1.574420	0.037105
 271	1.3500e-01	10.7788	52.603705	0.000636	6.364264	2.156271	0.050817
 272	1.3550e-01	10.8157	52.744864	0.000354	3.535702	1.197928	0.028232
 273	1.3600e-01	10.8591	53.132041	0.000970	9.697926	3.285746	0.077435
 274	1.3650e-01	10.8943	53.313530	0.000455	4.545903	1.540194	0.036298
 275	1.3700e-01	10.9280	53.458722	0.000364	3.636722	1.232155	0.029038
 276	1.3750e-01	10.9697	53.849933	0.000980	9.798946	3.319973	0.078242
 277	1.3800e-01	11.0211	54.035455	0.000465	4.646923	1.574420	0.037105
 278	1.3850e-01	11.0532	54.225011	0.000475	4.747943	1.608647	0.037911
 279	1.3900e-01	11.0869	54.442798	0.000546	5.455083	1.848232	0.043557
 280	1.3950e-01	11.1334	54.765446	0.000808	8.081605	2.738122	0.064530
 281	1.4000e-01	11.1687	54.946935	0.000455	4.545903	1.540194	0.036298
 282	1.4050e-01	11.2200	55.132458	0.000465	4.646923	1.574420	0.037105
 283	1.4100e-01	11.2553	55.313947	0.000455	4.545903	1.540194	0.036298
 284	1.4150e-01	11.2986	55.572066	0.000647	6.465284	2.190497	0.051624
 285	1.4200e-01	11.3339	55.842283	0.000677	6.768344	2.293177	0.054044
 286	1.4250e-01	11.3724	55.866482	0.000061	0.606120	0.205359	0.004840
 287	1.4300e-01	11.4013	56.128633	0.000657	6.566304	2.224724	0.052430
 288	1.4350e-01	11.4558	56.439182	0.000778	7.778545	2.635442	0.062110
 289	1.4400e-01	11.4911	56.612605	0.000434	4.343863	1.471741	0.034685
 290	1.4450e-01	11.5344	57.019948	0.001020	10.203026	3.456879	0.081469
 291	1.4500e-01	11.5681	57.237735	0.000546	5.455083	1.848232	0.043557
 292	1.4550e-01	11.6195	57.374861	0.000343	3.434682	1.163702	0.027425
 293	1.4600e-01	11.6451	57.511986	0.000343	3.434682	1.163702	0.027425
 294	1.4650e-01	11.6949	57.669277	0.000394	3.939782	1.334834	0.031458
 295	1.4700e-01	11.7334	57.955627	0.000717	7.172424	2.430083	0.057270
 296	1.4750e-01	11.7735	58.217778	0.000657	6.566304	2.224724	0.052430
 297	1.4800e-01	11.8088	58.556559	0.000849	8.485685	2.875028	0.067756
 298	1.4850e-01	11.8408	58.810644	0.000636	6.364264	2.156271	0.050817
 299	1.4900e-01	11.8954	58.947769	0.000343	3.434682	1.163702	0.027425
 300	1.4950e-01	11.9339	59.113126	0.000414	4.141823	1.403287	0.033071
 301	1.5000e-01	11.9692	59.343013	0.000576	5.758144	1.950912	0.045977
 302	1.5050e-01	12.0093	59.540635	0.000495	4.949983	1.677100	0.039524
 303	1.5100e-01	12.0638	59.798753	0.000647	6.465284	2.190497	0.051624
 304	1.5150e-01	12.0831	60.020573	0.000556	5.556103	1.882459	0.044364
 305	1.5200e-01	12.1328	60.351287	0.000828	8.283645	2.806575	0.066143
 306	1.5250e-01	12.1745	60.460181	0.000273	2.727542	0.924116	0.021779
 307	1.5300e-01	12.2098	60.758630	0.000748	7.475485	2.532763	0.059690
 308	1.5350e-01	12.2563	60.940120	0.000455	4.545903	1.540194	0.036298
 309	1.5400e-01	12.2884	61.133709	0.000485	4.848963	1.642873	0.038718
 310	1.5450e-01	12.3366	61.428125	0.000737	7.374464	2.498536	0.058883
 311	1.5500e-01	12.3686	61.613647	0.000465	4.646923	1.574420	0.037105
 312	1.5550e-01	12.4103	61.803203	0.000475	4.747943	1.608647	0.037911
 313	1.5600e-01	12.4569	62.129884	0.000818	8.182625	2.772348	0.065336
 314	1.5650e-01	12.4890	62.359771	0.000576	5.758144	1.950912	0.045977
 315	1.5700e-01	12.5323	62.464631	0.000263	2.626522	0.889890	0.020972
 316	1.5750e-01	12.5660	62.508995	0.000111	1.111221	0.376492	0.008873
 317	1.5800e-01	12.6173	62.750981	0.000606	6.061204	2.053591	0.048397
 318	1.5850e-01	12.6558	62.843742	0.000232	2.323461	0.787210	0.018552
 319	1.5900e-01	12.6991	63.259152	0.001041	10.405066	3.525332	0.083082
 320	1.5950e-01	12.7360	63.364012	0.000263	2.626522	0.889890	0.020972
 321	1.6000e-01	12.7745	63.702792	0.000849	8.485685	2.875028	0.067756
 322	1.6050e-01	12.8082	63.940745	0.000596	5.960184	2.019365	0.047591
 323	1.6100e-01	12.8579	64.102069	0.000404	4.040802	1.369061	0.032265
 324	1.6150e-01	12.8916	64.586041	0.001212	12.122407	4.107183	0.096794
 325	1.6200e-01	12.9413	64.666703	0.000202	2.020401	0.684530	0.016132
 326	1.6250e-01	12.9734	64.811895	0.000364	3.636722	1.232155	0.029038
 327	1.6300e-01	13.0135	64.944987	0.000333	3.333662	1.129475	0.026618
 328	1.6350e-01	13.0520	65.211171	0.000667	6.667324	2.258951	0.053237
 329	1.6400e-01	13.0905	65.634647	0.001061	10.607106	3.593785	0.084695
 330	1.6450e-01	13.1290	65.832268	0.000495	4.949983	1.677100	0.039524
 331	1.6500e-01	13.1804	65.836302	0.000010	0.101020	0.034227	0.000807
 332	1.6550e-01	13.2044	65.989559	0.000384	3.838762	1.300608	0.030652
 333	1.6600e-01	13.2574	66.332373	0.000859	8.586705	2.909254	0.068563
 334	1.6650e-01	13.2879	66.691318	0.000899	8.990785	3.046161	0.071789
 335	1.6700e-01	13.3312	66.824411	0.000333	3.333662	1.129475	0.026618
 336	1.6750e-01	13.3617	66.997834	0.000434	4.343863	1.471741	0.034685
 337	1.6800e-01	13.4050	67.223688	0.000566	5.657123	1.916685	0.045171
 338	1.6850e-01	13.4515	67.598766	0.000939	9.394866	3.183067	0.075016
 339	1.6900e-01	13.4852	67.707659	0.000273	2.727542	0.924116	0.021779
 340	1.6950e-01	13.5205	67.985943	0.000697	6.970384	2.361630	0.055657
 341	1.7000e-01	13.5750	68.119035	0.000333	3.333662	1.129475	0.026618
 342	1.7050e-01	13.6135	68.324723	0.000515	5.152023	1.745553	0.041138
 343	1.7100e-01	13.6488	68.619140	0.000737	7.374464	2.498536	0.058883
 344	1.7150e-01	13.6793	68.768364	0.000374	3.737742	1.266381	0.029845
 345	1.7200e-01	13.7258	69.171674	0.001010	10.102006	3.422652	0.080662
 346	1.7250e-01	13.7675	69.288634	0.000293	2.929582	0.992569	0.023392
 347	1.7300e-01	13.8076	69.389461	0.000253	2.525502	0.855663	0.020165
 348	1.7350e-01	13.8509	69.587083	0.000495	4.949983	1.677100	0.039524
 349	1.7400e-01	13.8846	69.861334	0.000687	6.869364	2.327404	0.054850
 350	1.7450e-01	13.9296	70.103320	0.000606	6.061204	2.053591	0.048397
 351	1.7500e-01	13.9697	70.349339	0.000616	6.162224	2.087818	0.049204
 352	1.7550e-01	14.0178	70.550994	0.000505	5.051003	1.711326	0.040331
 353	1.7600e-01	14.0499	70.635689	0.000212	2.121421	0.718757	0.016939
 354	1.7650e-01	14.0852	70.768781	0.000333	3.333662	1.129475	0.026618
 355	1.7700e-01	14.1333	70.986568	0.000546	5.455083	1.848232	0.043557
 356	1.7750e-01	14.1734	71.232588	0.000616	6.162224	2.087818	0.049204
 357	1.7800e-01	14.2119	71.426176	0.000485	4.848963	1.642873	0.038718
 358	1.7850e-01	14.2504	71.716559	0.000727	7.273444	2.464310	0.058077
 359	1.7900e-01	14.2889	71.873850	0.000394	3.939782	1.334834	0.031458
 360	1.7950e-01	14.3354	71.865784	-0.000020	-0.202040	-0.068453	-0.001613
 361	1.8000e-01	14.3723	72.313458	0.001121	11.213227	3.799144	0.089535
 362	1.8050e-01	14.4076	72.688536	0.000939	9.394866	3.183067	0.075016
 363	1.8100e-01	14.4445	72.934555	0.000616	6.162224	2.087818	0.049204
 364	1.8150e-01	14.4878	73.148309	0.000535	5.354063	1.814006	0.042751
 365	1.8200e-01	14.5311	73.454825	0.000768	7.677525	2.601216	0.061303
 366	1.8250e-01	14.5680	73.511288	0.000141	1.414281	0.479171	0.011293
 367	1.8300e-01	14.6130	73.668579	0.000394	3.939782	1.334834	0.031458
 368	1.8350e-01	14.6434	73.878300	0.000525	5.253043	1.779779	0.041944
 369	1.8400e-01	14.6819	74.096088	0.000546	5.455083	1.848232	0.043557
 370	1.8450e-01	14.7333	74.334040	0.000596	5.960184	2.019365	0.047591
 371	1.8500e-01	14.7846	74.446967	0.000283	2.828562	0.958343	0.022585
 372	1.8550e-01	14.8055	74.725251	0.000697	6.970384	2.361630	0.055657
 373	1.8600e-01	14.8408	75.039833	0.000788	7.879565	2.669669	0.062916
 374	1.8650e-01	14.8841	75.180991	0.000354	3.535702	1.197928	0.028232
 375	1.8700e-01	14.9338	75.511705	0.000828	8.283645	2.806575	0.066143
 376	1.8750e-01	14.9771	75.580268	0.000172	1.717341	0.581851	0.013713
 377	1.8800e-01	15.0156	75.834353	0.000636	6.364264	2.156271	0.050817
 378	1.8850e-01	15.0461	76.027942	0.000485	4.848963	1.642873	0.038718
 379	1.8900e-01	15.0894	76.269928	0.000606	6.061204	2.053591	0.048397
 380	1.8950e-01	15.1295	76.471583	0.000505	5.051003	1.711326	0.040331
 381	1.9000e-01	15.1728	76.673238	0.000505	5.051003	1.711326	0.040331
 382	1.9050e-01	15.2065	76.886992	0.000535	5.354063	1.814006	0.042751
 383	1.9100e-01	15.2450	77.193507	0.000768	7.677525	2.601216	0.061303
 384	1.9150e-01	15.2915	77.318533	0.000313	3.131622	1.061022	0.025005
 385	1.9200e-01	15.3300	77.407261	0.000222	2.222441	0.752984	0.017746
 386	1.9250e-01	15.3734	77.742009	0.000838	8.384665	2.840801	0.066949
 387	1.9300e-01	15.4119	78.012226	0.000677	6.768344	2.293177	0.054044
 388	1.9350e-01	15.4423	78.161451	0.000374	3.737742	1.266381	0.029845
 389	1.9400e-01	15.4889	78.342940	0.000455	4.545903	1.540194	0.036298
 390	1.9450e-01	15.5306	78.552661	0.000525	5.253043	1.779779	0.041944
 391	1.9500e-01	15.5739	78.774482	0.000556	5.556103	1.882459	0.044364
 392	1.9550e-01	15.6124	78.943872	0.000424	4.242843	1.437514	0.033878
 393	1.9600e-01	15.6557	79.214090	0.000677	6.768344	2.293177	0.054044
 394	1.9650e-01	15.6878	79.331050	0.000293	2.929582	0.992569	0.023392
 395	1.9700e-01	15.7247	79.706128	0.000939	9.394866	3.183067	0.075016
 396	1.9750e-01	15.7632	79.843253	0.000343	3.434682	1.163702	0.027425
 397	1.9800e-01	15.8017	80.020709	0.000444	4.444883	1.505967	0.035491
 398	1.9850e-01	15.8466	80.117504	0.000242	2.424481	0.821437	0.019359
 399	1.9900e-01	15.8819	80.407887	0.000727	7.273444	2.464310	0.058077
 400	1.9950e-01	15.9397	80.831362	0.001061	10.607106	3.593785	0.084695
 401	2.0000e-01	15.9605	80.891859	0.000152	1.515301	0.513398	0.012099
 402	2.0050e-01	16.0118	80.984620	0.000232	2.323461	0.787210	0.018552
 403	2.0100e-01	16.0487	81.202407	0.000546	5.455083	1.848232	0.043557
 404	2.0150e-01	16.0824	81.448426	0.000616	6.162224	2.087818	0.049204
 405	2.0200e-01	16.1290	81.879968	0.001081	10.809147	3.662238	0.086308
 406	2.0250e-01	16.1675	82.065490	0.000465	4.646923	1.574420	0.037105
 407	2.0300e-01	16.2108	82.117921	0.000131	1.313261	0.444945	0.010486
 408	2.0350e-01	16.2493	82.444602	0.000818	8.182625	2.772348	0.065336
 409	2.0400e-01	16.2814	82.561561	0.000293	2.929582	0.992569	0.023392
 410	2.0450e-01	16.3295	82.771283	0.000525	5.253043	1.779779	0.041944
 411	2.0500e-01	16.3632	83.053600	0.000707	7.071404	2.395857	0.056463
 412	2.0550e-01	16.4065	83.186692	0.000333	3.333662	1.129475	0.026618
 413	2.0600e-01	16.4386	83.610167	0.001061	10.607106	3.593785	0.084695
 414	2.0650e-01	16.4867	83.654531	0.000111	1.111221	0.376492	0.008873
 415	2.0700e-01	16.5300	83.751326	0.000242	2.424481	0.821437	0.019359
 416	2.0750e-01	16.5653	83.860219	0.000273	2.727542	0.924116	0.021779
 417	2.0800e-01	16.6022	84.170768	0.000778	7.778545	2.635442	0.062110
 418	2.0850e-01	16.6375	84.525681	0.000889	8.889765	3.011934	0.070983
 419	2.0900e-01	16.6904	84.622475	0.000242	2.424481	0.821437	0.019359
 420	2.0950e-01	16.7289	84.747501	0.000313	3.131622	1.061022	0.025005
 421	2.1000e-01	16.7658	85.118546	0.000929	9.293846	3.148840	0.074209
 422	2.1050e-01	16.8124	85.388764	0.000677	6.768344	2.293177	0.054044
 423	2.1100e-01	16.8412	85.586385	0.000495	4.949983	1.677100	0.039524
 424	2.1150e-01	16.8958	85.663014	0.000192	1.919381	0.650304	0.015326
 425	2.1200e-01	16.9375	85.929199	0.000667	6.667324	2.258951	0.053237
 426	2.1250e-01	16.9712	86.259913	0.000828	8.283645	2.806575	0.066143
 427	2.1300e-01	17.0113	86.199416	-0.000152	-1.515301	-0.513398	-0.012099
 428	2.1350e-01	17.0514	86.465601	0.000667	6.667324	2.258951	0.053237
 429	2.1400e-01	17.0899	86.639024	0.000434	4.343863	1.471741	0.034685
 430	2.1450e-01	17.1316	86.800348	0.000404	4.040802	1.369061	0.032265
 431	2.1500e-01	17.1765	87.002003	0.000505	5.051003	1.711326	0.040331
 432	2.1550e-01	17.1942	87.348850	0.000869	8.687725	2.943481	0.069369
 433	2.1600e-01	17.2455	87.546471	0.000495	4.949983	1.677100	0.039524
 434	2.1650e-01	17.2824	87.889285	0.000859	8.586705	2.909254	0.068563
 435	2.1700e-01	17.3209	88.010278	0.000303	3.030602	1.026796	0.024199
 436	2.1750e-01	17.3738	88.215966	0.000515	5.152023	1.745553	0.041138
 437	2.1800e-01	17.4139	88.244197	0.000071	0.707140	0.239586	0.005646
 438	2.1850e-01	17.4573	88.554746	0.000778	7.778545	2.635442	0.062110
 439	2.1900e-01	17.4877	88.635408	0.000202	2.020401	0.684530	0.016132
 440	2.1950e-01	17.5359	88.982254	0.000869	8.687725	2.943481	0.069369
 441	2.2000e-01	17.5680	89.228273	0.000616	6.162224	2.087818	0.049204
 442	2.2050e-01	17.6145	89.413796	0.000465	4.646923	1.574420	0.037105
 443	2.2100e-01	17.6514	89.671914	0.000647	6.465284	2.190497	0.051624
 444	2.2150e-01	17.6947	89.821139	0.000374	3.737742	1.266381	0.029845
 445	2.2200e-01	17.7316	90.103456	0.000707	7.071404	2.395857	0.056463
 446	2.2250e-01	17.7733	90.280912	0.000444	4.444883	1.505967	0.035491
 447	2.2300e-01	17.8118	90.365607	0.000212	2.121421	0.718757	0.016939
 448	2.2350e-01	17.8423	90.643891	0.000697	6.970384	2.361630	0.055657
 449	2.2400e-01	17.8872	90.813281	0.000424	4.242843	1.437514	0.033878
 450	2.2450e-01	17.9257	90.930241	0.000293	2.929582	0.992569	0.023392
 451	2.2500e-01	17.9770	91.160128	0.000576	5.758144	1.950912	0.045977
 452	2.2550e-01	18.0123	91.579570	0.001051	10.506086	3.559558	0.083888
 453	2.2600e-01	18.0444	91.623934	0.000111	1.111221	0.376492	0.008873
 454	2.2650e-01	18.0925	92.019178	0.000990	9.899966	3.354199	0.079049
 455	2.2700e-01	18.1310	92.015145	-0.000010	-0.101020	-0.034227	-0.000807
 456	2.2750e-01	18.1599	92.345859	0.000828	8.283645	2.806575	0.066143
 457	2.2800e-01	18.2064	92.430554	0.000212	2.121421	0.718757	0.016939
 458	2.2850e-01	18.2433	92.862095	0.001081	10.809147	3.662238	0.086308
 459	2.2900e-01	18.2883	92.902426	0.000101	1.010201	0.342265	0.008066
 460	2.2950e-01	18.3316	92.946790	0.000111	1.111221	0.376492	0.008873
 461	2.3000e-01	18.3637	93.507391	0.001404	14.041789	4.757487	0.112120
 462	2.3050e-01	18.4134	93.636450	0.000323	3.232642	1.095249	0.025812
 463	2.3100e-01	18.4519	93.765509	0.000323	3.232642	1.095249	0.025812
 464	2.3150e-01	18.4952	93.979264	0.000535	5.354063	1.814006	0.042751
 465	2.3200e-01	18.5321	94.076058	0.000242	2.424481	0.821437	0.019359
 466	2.3250e-01	18.5770	94.350309	0.000687	6.869364	2.327404	0.054850
 467	2.3300e-01	18.6219	94.636659	0.000717	7.172424	2.430083	0.057270
 468	2.3350e-01	18.6588	94.737486	0.000253	2.525502	0.855663	0.020165
 469	2.3400e-01	18.6893	95.092399	0.000889	8.889765	3.011934	0.070983
 470	2.3450e-01	18.7278	95.173061	0.000202	2.020401	0.684530	0.016132
 471	2.3500e-01	18.7647	95.302120	0.000323	3.232642	1.095249	0.025812
 472	2.3550e-01	18.8160	95.499742	0.000495	4.949983	1.677100	0.039524
 473	2.3600e-01	18.8529	95.721562	0.000556	5.556103	1.882459	0.044364
 474	2.3650e-01	18.8914	95.935316	0.000535	5.354063	1.814006	0.042751
 475	2.3700e-01	18.9332	96.068409	0.000333	3.333662	1.129475	0.026618
 476	2.3750e-01	18.9733	96.221666	0.000384	3.838762	1.300608	0.030652
 477	2.3800e-01	19.0070	96.503983	0.000707	7.071404	2.395857	0.056463
 478	2.3850e-01	19.0519	96.665307	0.000404	4.040802	1.369061	0.032265
 479	2.3900e-01	19.0872	96.786300	0.000303	3.030602	1.026796	0.024199
 480	2.3950e-01	19.1241	97.266239	0.001202	12.021387	4.072956	0.095988
 481	2.4000e-01	19.1690	97.342868	0.000192	1.919381	0.650304	0.015326
 482	2.4050e-01	19.2107	97.681648	0.000849	8.485685	2.875028	0.067756
 483	2.4100e-01	19.2636	97.814740	0.000333	3.333662	1.129475	0.026618
 484	2.4150e-01	19.2925	98.024462	0.000525	5.253043	1.779779	0.041944
 485	2.4200e-01	19.3342	98.173686	0.000374	3.737742	1.266381	0.029845
 486	2.4250e-01	19.3679	98.576996	0.001010	10.102006	3.422652	0.080662
 487	2.4300e-01	19.4096	98.661691	0.000212	2.121421	0.718757	0.016939
 488	2.4350e-01	19.4545	98.823015	0.000404	4.040802	1.369061	0.032265
 489	2.4400e-01	19.4882	98.871412	0.000121	1.212241	0.410718	0.009679
 490	2.4450e-01	19.5267	99.181961	0.000778	7.778545	2.635442	0.062110
 491	2.4500e-01	19.5732	99.315053	0.000333	3.333662	1.129475	0.026618
 492	2.4550e-01	19.6117	99.617535	0.000758	7.576505	2.566989	0.060496
 493	2.4600e-01	19.6519	99.734495	0.000293	2.929582	0.992569	0.023392
 494	2.4650e-01	19.6936	99.980514	0.000616	6.162224	2.087818	0.049204
 495	2.4700e-01	19.7289	100.077309	0.000242	2.424481	0.821437	0.019359
 496	2.4750e-01	19.7625	100.335427	0.000647	6.465284	2.190497	0.051624
 497	2.4800e-01	19.8075	100.609678	0.000687	6.869364	2.327404	0.054850
 498	2.4850e-01	19.8460	100.722604	0.000283	2.828562	0.958343	0.022585
 499	2.4900e-01	19.8957	100.787134	0.000162	1.616321	0.547624	0.012906
 500	2.4950e-01	19.9342	101.049285	0.000657	6.566304	2.224724	0.052430
 501	2.5000e-01	19.9711	101.505026	0.001142	11.415267	3.867597	0.091148
 502	2.5050e-01	19.9775	101.295304	-0.000525	-5.253043	-1.779779	-0.041944
 503	2.5100e-01	19.9599	101.246907	0.000121	1.212241	0.410718	-0.009679
 504	2.5150e-01	19.9166	101.081550	0.000414	4.141823	1.403287	-0.033071
 505	2.5200e-01	19.8716	101.073484	0.000020	0.202040	0.068453	-0.001613
 506	2.5250e-01	19.8363	100.887962	0.000465	4.646923	1.574420	-0.037105
 507	2.5300e-01	19.7978	100.662108	0.000566	5.657123	1.916685	-0.045171
 508	2.5350e-01	19.7497	100.561281	0.000253	2.525502	0.855663	-0.020165
 509	2.5400e-01	19.7208	100.202335	0.000899	8.990785	3.046161	-0.071789
 510	2.5450e-01	19.6743	100.065209	0.000343	3.434682	1.163702	-0.027425
 511	2.5500e-01	19.6422	99.972448	0.000232	2.323461	0.787210	-0.018552
 512	2.5550e-01	19.5957	99.774826	0.000495	4.949983	1.677100	-0.039524
 513	2.5600e-01	19.5524	99.682065	0.000232	2.323461	0.787210	-0.018552
 514	2.5650e-01	19.5075	99.524774	0.000394	3.939782	1.334834	-0.031458
 515	2.5700e-01	19.4722	99.403781	0.000303	3.030602	1.026796	-0.024199
 516	2.5750e-01	19.4481	99.016604	0.000970	9.697926	3.285746	-0.077435
 517	2.5800e-01	19.4000	98.758485	0.000647	6.465284	2.190497	-0.051624
 518	2.5850e-01	19.3631	98.742353	0.000040	0.404080	0.136906	-0.003226
 519	2.5900e-01	19.3069	98.657658	0.000212	2.121421	0.718757	-0.016939
 520	2.5950e-01	19.2733	98.568930	0.000222	2.222441	0.752984	-0.017746
 521	2.6000e-01	19.2412	98.326944	0.000606	6.061204	2.053591	-0.048397
 522	2.6050e-01	19.1995	98.246282	0.000202	2.020401	0.684530	-0.016132
 523	2.6100e-01	19.1594	97.907502	0.000849	8.485685	2.875028	-0.067756
 524	2.6150e-01	19.1144	97.826840	0.000202	2.020401	0.684530	-0.016132
 525	2.6200e-01	19.0759	97.572754	0.000636	6.364264	2.156271	-0.050817
 526	2.6250e-01	19.0294	97.415464	0.000394	3.939782	1.334834	-0.031458
 527	2.6300e-01	18.9909	97.443695	-0.000071	-0.707140	-0.239586	0.005646
 528	2.6350e-01	18.9604	97.096849	0.000869	8.687725	2.943481	-0.069369
 529	2.6400e-01	18.9139	96.943591	0.000384	3.838762	1.300608	-0.030652
 530	2.6450e-01	18.8770	96.661274	0.000707	7.071404	2.395857	-0.056463
 531	2.6500e-01	18.8353	96.596745	0.000162	1.616321	0.547624	-0.012906
 532	2.6550e-01	18.7904	96.443487	0.000384	3.838762	1.300608	-0.030652
 533	2.6600e-01	18.7551	96.274097	0.000424	4.242843	1.437514	-0.033878
 534	2.6650e-01	18.7230	96.020012	0.000636	6.364264	2.156271	-0.050817
 535	2.6700e-01	18.6685	95.866754	0.000384	3.838762	1.300608	-0.030652
 536	2.6750e-01	18.6348	95.693331	0.000434	4.343863	1.471741	-0.034685
 537	2.6800e-01	18.5947	95.423113	0.000677	6.768344	2.293177	-0.054044
 538	2.6850e-01	18.5546	95.169028	0.000636	6.364264	2.156271	-0.050817
 539	2.6900e-01	18.5128	95.173061	-0.000010	-0.101020	-0.034227	0.000807
 540	2.6950e-01	18.4711	94.882678	0.000727	7.273444	2.464310	-0.058077
 541	2.7000e-01	18.4326	94.789916	0.000232	2.323461	0.787210	-0.018552
 542	2.7050e-01	18.3893	94.701188	0.000222	2.222441	0.752984	-0.017746
 543	2.7100e-01	18.3508	94.628593	0.000182	1.818361	0.616077	-0.014519
 544	2.7150e-01	18.3203	94.229316	0.001000	10.000986	3.388426	-0.079855
 545	2.7200e-01	18.2674	94.088157	0.000354	3.535702	1.197928	-0.028232
 546	2.7250e-01	18.2321	93.918767	0.000424	4.242843	1.437514	-0.033878
 547	2.7300e-01	18.1920	93.692914	0.000566	5.657123	1.916685	-0.045171
 548	2.7350e-01	18.1519	93.487226	0.000515	5.152023	1.745553	-0.041138
 549	2.7400e-01	18.1102	93.325902	0.000404	4.040802	1.369061	-0.032265
 550	2.7450e-01	18.0701	93.297670	0.000071	0.707140	0.239586	-0.005646
 551	2.7500e-01	18.0428	92.987121	0.000778	7.778545	2.635442	-0.062110
 552	2.7550e-01	17.9963	92.745135	0.000606	6.061204	2.053591	-0.048397
 553	2.7600e-01	17.9401	92.720937	0.000061	0.606120	0.205359	-0.004840
 554	2.7650e-01	17.9193	92.620109	0.000253	2.525502	0.855663	-0.020165
 555	2.7700e-01	17.8679	92.406355	0.000535	5.354063	1.814006	-0.042751
 556	2.7750e-01	17.8278	92.059509	0.000869	8.687725	2.943481	-0.069369
 557	2.7800e-01	17.7958	91.942549	0.000293	2.929582	0.992569	-0.023392
 558	2.7850e-01	17.7508	91.825589	0.000293	2.929582	0.992569	-0.023392
 559	2.7900e-01	17.7155	91.607802	0.000546	5.455083	1.848232	-0.043557
 560	2.7950e-01	17.6770	91.337584	0.000677	6.768344	2.293177	-0.054044
 561	2.8000e-01	17.6337	91.087532	0.000626	6.263244	2.122044	-0.050010
 562	2.8050e-01	17.5872	90.954440	0.000333	3.333662	1.129475	-0.026618
 563	2.8100e-01	17.5551	90.736652	0.000546	5.455083	1.848232	-0.043557
 564	2.8150e-01	17.5070	90.708421	0.000071	0.707140	0.239586	-0.005646
 565	2.8200e-01	17.4733	90.571295	0.000343	3.434682	1.163702	-0.027425
 566	2.8250e-01	17.4332	90.333342	0.000596	5.960184	2.019365	-0.047591
 567	2.8300e-01	17.3883	90.046992	0.000717	7.172424	2.430083	-0.057270
 568	2.8350e-01	17.3578	89.784841	0.000657	6.566304	2.224724	-0.052430
 569	2.8400e-01	17.3145	89.800973	-0.000040	-0.404080	-0.136906	0.003226
 570	2.8450e-01	17.2776	89.514623	0.000717	7.172424	2.430083	-0.057270
 571	2.8500e-01	17.2311	89.228273	0.000717	7.172424	2.430083	-0.057270
 572	2.8550e-01	17.1910	89.187942	0.000101	1.010201	0.342265	-0.008066
 573	2.8600e-01	17.1605	88.954023	0.000586	5.859164	1.985138	-0.046784
 574	2.8650e-01	17.1124	88.728169	0.000566	5.657123	1.916685	-0.045171
 575	2.8700e-01	17.0722	88.582978	0.000364	3.636722	1.232155	-0.029038
 576	2.8750e-01	17.0289	88.405521	0.000444	4.444883	1.505967	-0.035491
 577	2.8800e-01	16.9888	88.203866	0.000505	5.051003	1.711326	-0.040331
 578	2.8850e-01	16.9487	88.058675	0.000364	3.636722	1.232155	-0.029038
 579	2.8900e-01	16.9118	87.748126	0.000778	7.778545	2.635442	-0.062110
 580	2.8950e-01	16.8701	87.695696	0.000131	1.313261	0.444945	-0.010486
 581	2.9000e-01	16.8364	87.417412	0.000697	6.970384	2.361630	-0.055657
 582	2.9050e-01	16.7915	87.292386	0.000313	3.131622	1.061022	-0.025005
 583	2.9100e-01	16.7514	87.074599	0.000546	5.455083	1.848232	-0.043557
 584	2.9150e-01	16.7097	86.925374	0.000374	3.737742	1.266381	-0.029845
 585	2.9200e-01	16.6744	86.768083	0.000394	3.939782	1.334834	-0.031458
 586	2.9250e-01	16.6279	86.647090	0.000303	3.030602	1.026796	-0.024199
 587	2.9300e-01	16.5974	86.272012	0.000939	9.394866	3.183067	-0.075016
 588	2.9350e-01	16.5573	86.146986	0.000313	3.131622	1.061022	-0.025005
 589	2.9400e-01	16.5076	85.965497	0.000455	4.545903	1.540194	-0.036298
 590	2.9450e-01	16.4707	85.824338	0.000354	3.535702	1.197928	-0.028232
 591	2.9500e-01	16.4322	85.679147	0.000364	3.636722	1.232155	-0.029038
 592	2.9550e-01	16.3953	85.473459	0.000515	5.152023	1.745553	-0.041138
 593	2.9600e-01	16.3519	85.316168	0.000394	3.939782	1.334834	-0.031458
 594	2.9650e-01	16.3183	85.066116	0.000626	6.263244	2.122044	-0.050010
 595	2.9700e-01	16.2701	84.832196	0.000586	5.859164	1.985138	-0.046784
 596	2.9750e-01	16.2396	84.529714	0.000758	7.576505	2.566989	-0.060496
 597	2.9800e-01	16.1883	84.473250	0.000141	1.414281	0.479171	-0.011293
 598	2.9850e-01	16.1450	84.110271	0.000909	9.091806	3.080387	-0.072596
 599	2.9900e-01	16.1161	84.130437	-0.000051	-0.505100	-0.171133	0.004033
 600	2.9950e-01	16.0744	83.973146	0.000394	3.939782	1.334834	-0.031458
 601	3.0000e-01	16.0359	83.690829	0.000707	7.071404	2.395857	-0.056463
 602	3.0050e-01	15.9926	83.440777	0.000626	6.263244	2.122044	-0.050010
 603	3.0100e-01	15.9509	83.420611	0.000051	0.505100	0.171133	-0.004033
 604	3.0150e-01	15.9236	83.218957	0.000505	5.051003	1.711326	-0.040331
 605	3.0200e-01	15.8851	82.920507	0.000748	7.475485	2.532763	-0.059690
 606	3.0250e-01	15.8434	82.819680	0.000253	2.525502	0.855663	-0.020165
 607	3.0300e-01	15.8017	82.585760	0.000586	5.859164	1.985138	-0.046784
 608	3.0350e-01	15.7536	82.444602	0.000354	3.535702	1.197928	-0.028232
 609	3.0400e-01	15.7151	82.234881	0.000525	5.253043	1.779779	-0.041944
 610	3.0450e-01	15.6637	81.972729	0.000657	6.566304	2.224724	-0.052430
 611	3.0500e-01	15.6381	81.795273	0.000444	4.444883	1.505967	-0.035491
 612	3.0550e-01	15.5980	81.541188	0.000636	6.364264	2.156271	-0.050817
 613	3.0600e-01	15.5498	81.379864	0.000404	4.040802	1.369061	-0.032265
 614	3.0650e-01	15.5065	81.307268	0.000182	1.818361	0.616077	-0.014519
 615	3.0700e-01	15.4808	81.053183	0.000636	6.364264	2.156271	-0.050817
 616	3.0750e-01	15.4295	80.698270	0.000889	8.889765	3.011934	-0.070983
 617	3.0800e-01	15.3990	80.573244	0.000313	3.131622	1.061022	-0.025005
 618	3.0850e-01	15.3445	80.387721	0.000465	4.646923	1.574420	-0.037105
 619	3.0900e-01	15.3172	80.137669	0.000626	6.263244	2.122044	-0.050010
 620	3.0950e-01	15.2707	80.069107	0.000172	1.717341	0.581851	-0.013713
 621	3.1000e-01	15.2322	79.964246	0.000263	2.626522	0.889890	-0.020972
 622	3.1050e-01	15.1857	79.899716	0.000162	1.616321	0.547624	-0.012906
 623	3.1100e-01	15.1632	79.460109	0.001101	11.011187	3.730691	-0.087922
 624	3.1150e-01	15.1006	79.161659	0.000748	7.475485	2.532763	-0.059690
 625	3.1200e-01	15.0734	78.915640	0.000616	6.162224	2.087818	-0.049204
 626	3.1250e-01	15.0285	78.851111	0.000162	1.616321	0.547624	-0.012906
 627	3.1300e-01	14.9964	78.649456	0.000505	5.051003	1.711326	-0.040331
 628	3.1350e-01	14.9531	78.338907	0.000778	7.778545	2.635442	-0.062110
 629	3.1400e-01	14.9178	78.367139	-0.000071	-0.707140	-0.239586	0.005646
 630	3.1450e-01	14.8809	78.153385	0.000535	5.354063	1.814006	-0.042751
 631	3.1500e-01	14.8295	77.967862	0.000465	4.646923	1.574420	-0.037105
 632	3.1550e-01	14.8071	77.729909	0.000596	5.960184	2.019365	-0.047591
 633	3.1600e-01	14.7557	77.254004	0.001192	11.920367	4.038730	-0.095181
 634	3.1650e-01	14.7220	77.076547	0.000444	4.444883	1.505967	-0.035491
 635	3.1700e-01	14.6755	77.108812	-0.000081	-0.808160	-0.273812	0.006453
 636	3.1750e-01	14.6354	76.818429	0.000727	7.273444	2.464310	-0.058077
 637	3.1800e-01	14.5841	76.749866	0.000172	1.717341	0.581851	-0.013713
 638	3.1850e-01	14.5616	76.592576	0.000394	3.939782	1.334834	-0.031458
 639	3.1900e-01	14.5215	76.407053	0.000465	4.646923	1.574420	-0.037105
 640	3.1950e-01	14.4734	76.189266	0.000546	5.455083	1.848232	-0.043557
 641	3.2000e-01	14.4445	76.068273	0.000303	3.030602	1.026796	-0.024199
 642	3.2050e-01	14.3932	75.709327	0.000899	8.990785	3.046161	-0.071789
 643	3.2100e-01	14.3499	75.451209	0.000647	6.465284	2.190497	-0.051624
 644	3.2150e-01	14.3065	75.491540	-0.000101	-1.010201	-0.342265	0.008066
 645	3.2200e-01	14.2664	75.245521	0.000616	6.162224	2.087818	-0.049204
 646	3.2250e-01	14.2295	75.108395	0.000343	3.434682	1.163702	-0.027425
 647	3.2300e-01	14.1943	74.725251	0.000960	9.596906	3.251520	-0.076629
 648	3.2350e-01	14.1525	74.495364	0.000576	5.758144	1.950912	-0.045977
 649	3.2400e-01	14.1124	74.305809	0.000475	4.747943	1.608647	-0.037911
 650	3.2450e-01	14.0691	74.253378	0.000131	1.313261	0.444945	-0.010486
 651	3.2500e-01	14.0338	74.152551	0.000253	2.525502	0.855663	-0.020165
 652	3.2550e-01	13.9905	73.809738	0.000859	8.586705	2.909254	-0.068563
 653	3.2600e-01	13.9536	73.442726	0.000919	9.192826	3.114614	-0.073402
 654	3.2650e-01	13.9071	73.495156	-0.000131	-1.313261	-0.444945	0.010486
 655	3.2700e-01	13.8670	73.228971	0.000667	6.667324	2.258951	-0.053237
 656	3.2750e-01	13.8317	72.974886	0.000636	6.364264	2.156271	-0.050817
 657	3.2800e-01	13.7948	72.728867	0.000616	6.162224	2.087818	-0.049204
 658	3.2850e-01	13.7483	72.515113	0.000535	5.354063	1.814006	-0.042751
 659	3.2900e-01	13.7130	72.309425	0.000515	5.152023	1.745553	-0.041138
 660	3.2950e-01	13.6793	72.010976	0.000748	7.475485	2.532763	-0.059690
 661	3.3000e-01	13.6360	71.756890	0.000636	6.364264	2.156271	-0.050817
 662	3.3050e-01	13.5830	71.643964	0.000283	2.828562	0.958343	-0.022585
 663	3.3100e-01	13.5670	71.555235	0.000222	2.222441	0.752984	-0.017746
 664	3.3150e-01	13.5060	71.462474	0.000232	2.323461	0.787210	-0.018552
 665	3.3200e-01	13.4852	71.131760	0.000828	8.283645	2.806575	-0.066143
 666	3.3250e-01	13.4258	70.946238	0.000465	4.646923	1.574420	-0.037105
 667	3.3300e-01	13.3953	70.805079	0.000354	3.535702	1.197928	-0.028232
 668	3.3350e-01	13.3440	70.627623	0.000444	4.444883	1.505967	-0.035491
 669	3.3400e-01	13.3087	70.446133	0.000455	4.545903	1.540194	-0.036298
 670	3.3450e-01	13.2718	70.200114	0.000616	6.162224	2.087818	-0.049204
 671	3.3500e-01	13.2365	69.946029	0.000636	6.364264	2.156271	-0.050817
 672	3.3550e-01	13.1964	69.679845	0.000667	6.667324	2.258951	-0.053237
 673	3.3600e-01	13.1515	69.425759	0.000636	6.364264	2.156271	-0.050817
 674	3.3650e-01	13.1178	69.236204	0.000475	4.747943	1.608647	-0.037911
 675	3.3700e-01	13.0681	69.078913	0.000394	3.939782	1.334834	-0.031458
 676	3.3750e-01	13.0280	68.925655	0.000384	3.838762	1.300608	-0.030652
 677	3.3800e-01	12.9847	68.715934	0.000525	5.253043	1.779779	-0.041944
 678	3.3850e-01	12.9622	68.570742	0.000364	3.636722	1.232155	-0.029038
 679	3.3900e-01	12.9173	68.147267	0.001061	10.607106	3.593785	-0.084695
 680	3.3950e-01	12.8804	68.163399	-0.000040	-0.404080	-0.136906	0.003226
 681	3.4000e-01	12.8419	67.969811	0.000485	4.848963	1.642873	-0.038718
 682	3.4050e-01	12.7922	67.828652	0.000354	3.535702	1.197928	-0.028232
 683	3.4100e-01	12.7601	67.485839	0.000859	8.586705	2.909254	-0.068563
 684	3.4150e-01	12.7071	67.199489	0.000717	7.172424	2.430083	-0.057270
 685	3.4200e-01	12.6734	67.130926	0.000172	1.717341	0.581851	-0.013713
 686	3.4250e-01	12.6381	67.034132	0.000242	2.424481	0.821437	-0.019359
 687	3.4300e-01	12.6029	66.804245	0.000576	5.758144	1.950912	-0.045977
 688	3.4350e-01	12.5595	66.558226	0.000616	6.162224	2.087818	-0.049204
 689	3.4400e-01	12.5098	66.324307	0.000586	5.859164	1.985138	-0.046784
 690	3.4450e-01	12.4729	66.239611	0.000212	2.121421	0.718757	-0.016939
 691	3.4500e-01	12.4328	66.167016	0.000182	1.818361	0.616077	-0.014519
 692	3.4550e-01	12.3959	65.800004	0.000919	9.192826	3.114614	-0.073402
 693	3.4600e-01	12.3542	65.626580	0.000434	4.343863	1.471741	-0.034685
 694	3.4650e-01	12.3237	65.275701	0.000879	8.788745	2.977708	-0.070176
 695	3.4700e-01	12.2692	65.029682	0.000616	6.162224	2.087818	-0.049204
 696	3.4750e-01	12.2323	64.920788	0.000273	2.727542	0.924116	-0.021779
 697	3.4800e-01	12.1922	64.860292	0.000152	1.515301	0.513398	-0.012099
 698	3.4850e-01	12.1553	64.622339	0.000596	5.960184	2.019365	-0.047591
 699	3.4900e-01	12.1152	64.231128	0.000980	9.798946	3.319973	-0.078242
 700	3.4950e-01	12.0831	63.831852	0.001000	10.000986	3.388426	-0.079855
 701	3.5000e-01	12.0301	63.956878	-0.000313	-3.131622	-1.061022	0.025005
 702	3.5050e-01	11.9997	63.614064	0.000859	8.586705	2.909254	-0.068563
 703	3.5100e-01	11.9596	63.448707	0.000414	4.141823	1.403287	-0.033071
 704	3.5150e-01	11.9211	63.238986	0.000525	5.253043	1.779779	-0.041944
 705	3.5200e-01	11.8729	63.166390	0.000182	1.818361	0.616077	-0.014519
 706	3.5250e-01	11.8360	62.815511	0.000879	8.788745	2.977708	-0.070176
 707	3.5300e-01	11.7911	62.843742	-0.000071	-0.707140	-0.239586	0.005646
 708	3.5350e-01	11.7574	62.492863	0.000879	8.788745	2.977708	-0.070176
 709	3.5400e-01	11.7205	62.105685	0.000970	9.697926	3.285746	-0.077435
 710	3.5450e-01	11.6756	61.992759	0.000283	2.828562	0.958343	-0.022585
 711	3.5500e-01	11.6355	61.984692	0.000020	0.202040	0.068453	-0.001613
 712	3.5550e-01	11.5890	61.730607	0.000636	6.364264	2.156271	-0.050817
 713	3.5600e-01	11.5633	61.416026	0.000788	7.879565	2.669669	-0.062916
 714	3.5650e-01	11.5184	61.174040	0.000606	6.061204	2.053591	-0.048397
 715	3.5700e-01	11.4767	60.879623	0.000737	7.374464	2.498536	-0.058883
 716	3.5750e-01	11.4382	60.831226	0.000121	1.212241	0.410718	-0.009679
 717	3.5800e-01	11.3949	60.686035	0.000364	3.636722	1.232155	-0.029038
 718	3.5850e-01	11.3516	60.331122	0.000889	8.889765	3.011934	-0.070983
 719	3.5900e-01	11.3050	60.081070	0.000626	6.263244	2.122044	-0.050010
 720	3.5950e-01	11.2858	59.701959	0.000950	9.495886	3.217293	-0.075822
 721	3.6000e-01	11.2441	59.476105	0.000566	5.657123	1.916685	-0.045171
 722	3.6050e-01	11.1879	59.451906	0.000061	0.606120	0.205359	-0.004840
 723	3.6100e-01	11.1590	59.294616	0.000394	3.939782	1.334834	-0.031458
 724	3.6150e-01	11.1173	58.992133	0.000758	7.576505	2.566989	-0.060496
 725	3.6200e-01	11.0708	58.786445	0.000515	5.152023	1.745553	-0.041138
 726	3.6250e-01	11.0339	58.701750	0.000212	2.121421	0.718757	-0.016939
 727	3.6300e-01	10.9954	58.564625	0.000343	3.434682	1.163702	-0.027425
 728	3.6350e-01	10.9489	58.258109	0.000768	7.677525	2.601216	-0.061303
 729	3.6400e-01	10.9152	58.076620	0.000455	4.545903	1.540194	-0.036298
 730	3.6450e-01	10.8735	57.786237	0.000727	7.273444	2.464310	-0.058077
 731	3.6500e-01	10.8462	57.524085	0.000657	6.566304	2.224724	-0.052430
 732	3.6550e-01	10.7933	57.528118	-0.000010	-0.101020	-0.034227	0.000807
 733	3.6600e-01	10.7419	57.370828	0.000394	3.939782	1.334834	-0.031458
 734	3.6650e-01	10.7115	57.136908	0.000586	5.859164	1.985138	-0.046784
 735	3.6700e-01	10.6649	56.882823	0.000636	6.364264	2.156271	-0.050817
 736	3.6750e-01	10.6345	56.701333	0.000455	4.545903	1.540194	-0.036298
 737	3.6800e-01	10.5992	56.330288	0.000929	9.293846	3.148840	-0.074209
 738	3.6850e-01	10.5494	56.156865	0.000434	4.343863	1.471741	-0.034685
 739	3.6900e-01	10.5206	55.882614	0.000687	6.869364	2.327404	-0.054850
 740	3.6950e-01	10.4788	55.628529	0.000636	6.364264	2.156271	-0.050817
 741	3.7000e-01	10.4307	55.588198	0.000101	1.010201	0.342265	-0.008066
 742	3.7050e-01	10.3970	55.366378	0.000556	5.556103	1.882459	-0.044364
 743	3.7100e-01	10.3537	55.088094	0.000697	6.970384	2.361630	-0.055657
 744	3.7150e-01	10.3152	54.898538	0.000475	4.747943	1.608647	-0.037911
 745	3.7200e-01	10.2831	54.571857	0.000818	8.182625	2.772348	-0.065336
 746	3.7250e-01	10.2334	54.317772	0.000636	6.364264	2.156271	-0.050817
 747	3.7300e-01	10.1933	54.321805	-0.000010	-0.101020	-0.034227	0.000807
 748	3.7350e-01	10.1500	54.212911	0.000273	2.727542	0.924116	-0.021779
 749	3.7400e-01	10.1211	53.849933	0.000909	9.091806	3.080387	-0.072596
 750	3.7450e-01	10.0778	53.434523	0.001041	10.405066	3.525332	-0.083082
 751	3.7500e-01	10.0297	53.418391	0.000040	0.404080	0.136906	-0.003226
 752	3.7550e-01	9.9960	52.986849	0.001081	10.809147	3.662238	-0.086308
 753	3.7600e-01	9.9527	53.099776	-0.000283	-2.828562	-0.958343	0.022585
 754	3.7650e-01	9.9158	52.660168	0.001101	11.011187	3.730691	-0.087922
 755	3.7700e-01	9.8757	52.603705	0.000141	1.414281	0.479171	-0.011293
 756	3.7750e-01	9.8291	52.385918	0.000546	5.455083	1.848232	-0.043557
 757	3.7800e-01	9.7987	52.224594	0.000404	4.040802	1.369061	-0.032265
 758	3.7850e-01	9.7521	51.994707	0.000576	5.758144	1.950912	-0.045977
 759	3.7900e-01	9.7072	51.700291	0.000737	7.374464	2.498536	-0.058883
 760	3.7950e-01	9.6655	51.393775	0.000768	7.677525	2.601216	-0.061303
 761	3.8000e-01	9.6366	51.228418	0.000414	4.141823	1.403287	-0.033071
 762	3.8050e-01	9.5917	51.155823	0.000182	1.818361	0.616077	-0.014519
 763	3.8100e-01	9.5500	50.913837	0.000606	6.061204	2.053591	-0.048397
 764	3.8150e-01	9.5035	50.643619	0.000677	6.768344	2.293177	-0.054044
 765	3.8200e-01	9.4746	50.369368	0.000687	6.869364	2.327404	-0.054850
 766	3.8250e-01	9.4361	50.171747	0.000495	4.949983	1.677100	-0.039524
 767	3.8300e-01	9.3992	49.957992	0.000535	5.354063	1.814006	-0.042751
 768	3.8350e-01	9.3623	49.877330	0.000202	2.020401	0.684530	-0.016132
 769	3.8400e-01	9.3094	49.514352	0.000909	9.091806	3.080387	-0.072596
 770	3.8450e-01	9.2821	49.175571	0.000849	8.485685	2.875028	-0.067756
 771	3.8500e-01	9.2436	48.969883	0.000515	5.152023	1.745553	-0.041138
 772	3.8550e-01	9.1906	48.796460	0.000434	4.343863	1.471741	-0.034685
 773	3.8600e-01	9.1666	48.663368	0.000333	3.333662	1.129475	-0.026618
 774	3.8650e-01	9.1233	48.465746	0.000495	4.949983	1.677100	-0.039524
 775	3.8700e-01	9.0719	48.211661	0.000636	6.364264	2.156271	-0.050817
 776	3.8750e-01	9.0447	47.989840	0.000556	5.556103	1.882459	-0.044364
 777	3.8800e-01	8.9997	47.768020	0.000556	5.556103	1.882459	-0.044364
 778	3.8850e-01	8.9516	47.530067	0.000596	5.960184	2.019365	-0.047591
 779	3.8900e-01	8.9115	47.288081	0.000606	6.061204	2.053591	-0.048397
 780	3.8950e-01	8.8810	47.231618	0.000141	1.414281	0.479171	-0.011293
 781	3.9000e-01	8.8361	46.977533	0.000636	6.364264	2.156271	-0.050817
 782	3.9050e-01	8.7912	46.929135	0.000121	1.212241	0.410718	-0.009679
 783	3.9100e-01	8.7623	46.429031	0.001253	12.526488	4.244089	-0.100021
 784	3.9150e-01	8.7190	46.263674	0.000414	4.141823	1.403287	-0.033071
 785	3.9200e-01	8.6677	46.178979	0.000212	2.121421	0.718757	-0.016939
 786	3.9250e-01	8.6388	45.908761	0.000677	6.768344	2.293177	-0.054044
 787	3.9300e-01	8.5923	45.723239	0.000465	4.646923	1.574420	-0.037105
 788	3.9350e-01	8.5554	45.594180	0.000323	3.232642	1.095249	-0.025812
 789	3.9400e-01	8.5008	45.263466	0.000828	8.283645	2.806575	-0.066143
 790	3.9450e-01	8.4816	44.952917	0.000778	7.778545	2.635442	-0.062110
 791	3.9500e-01	8.4318	44.763361	0.000475	4.747943	1.608647	-0.037911
 792	3.9550e-01	8.3917	44.694799	0.000172	1.717341	0.581851	-0.013713
 793	3.9600e-01	8.3532	44.202761	0.001232	12.324448	4.175636	-0.098408
 794	3.9650e-01	8.3147	44.061602	0.000354	3.535702	1.197928	-0.028232
 795	3.9700e-01	8.2698	44.001106	0.000152	1.515301	0.513398	-0.012099
 796	3.9750e-01	8.2409	43.621994	0.000950	9.495886	3.217293	-0.075822
 797	3.9800e-01	8.1944	43.424373	0.000495	4.949983	1.677100	-0.039524
 798	3.9850e-01	8.1575	43.242883	0.000455	4.545903	1.540194	-0.036298
 799	3.9900e-01	8.1174	43.061394	0.000455	4.545903	1.540194	-0.036298
 800	3.9950e-01	8.0805	42.654051	0.001020	10.203026	3.456879	-0.081469
 801	4.0000e-01	8.0324	42.537091	0.000293	2.929582	0.992569	-0.023392
 802	4.0050e-01	7.9939	42.327370	0.000525	5.253043	1.779779	-0.041944
 803	4.0100e-01	7.9618	42.258807	0.000172	1.717341	0.581851	-0.013713
 804	4.0150e-01	7.9089	41.815166	0.001111	11.112207	3.764918	-0.088728
 805	4.0200e-01	7.8720	41.678041	0.000343	3.434682	1.163702	-0.027425
 806	4.0250e-01	7.8479	41.456221	0.000556	5.556103	1.882459	-0.044364
 807	4.0300e-01	7.7853	41.286830	0.000424	4.242843	1.437514	-0.033878
 808	4.0350e-01	7.7549	41.065010	0.000556	5.556103	1.882459	-0.044364
 809	4.0400e-01	7.7115	40.919818	0.000364	3.636722	1.232155	-0.029038
 810	4.0450e-01	7.6746	40.625402	0.000737	7.374464	2.498536	-0.058883
 811	4.0500e-01	7.6329	40.476178	0.000374	3.737742	1.266381	-0.029845
 812	4.0550e-01	7.5912	40.177728	0.000748	7.475485	2.532763	-0.059690
 813	4.0600e-01	7.5543	40.028504	0.000374	3.737742	1.266381	-0.029845
 814	4.0650e-01	7.5030	39.713922	0.000788	7.879565	2.669669	-0.062916
 815	4.0700e-01	7.4741	39.508234	0.000515	5.152023	1.745553	-0.041138
 816	4.0750e-01	7.4404	39.165421	0.000859	8.586705	2.909254	-0.068563
 817	4.0800e-01	7.4003	38.927468	0.000596	5.960184	2.019365	-0.047591
 818	4.0850e-01	7.3602	38.790342	0.000343	3.434682	1.163702	-0.027425
 819	4.0900e-01	7.3185	38.758078	0.000081	0.808160	0.273812	-0.006453
 820	4.0950e-01	7.2672	38.508025	0.000626	6.263244	2.122044	-0.050010
 821	4.1000e-01	7.2287	38.302337	0.000515	5.152023	1.745553	-0.041138
 822	4.1050e-01	7.1870	38.072451	0.000576	5.758144	1.950912	-0.045977
 823	4.1100e-01	7.1517	37.620744	0.001131	11.314247	3.833371	-0.090341
 824	4.1150e-01	7.1132	37.511850	0.000273	2.727542	0.924116	-0.021779
 825	4.1200e-01	7.0699	37.326328	0.000465	4.646923	1.574420	-0.037105
 826	4.1250e-01	7.0346	37.064176	0.000657	6.566304	2.224724	-0.052430
 827	4.1300e-01	6.9945	36.781859	0.000707	7.071404	2.395857	-0.056463
 828	4.1350e-01	6.9608	36.676999	0.000263	2.626522	0.889890	-0.020972
 829	4.1400e-01	6.9126	36.394682	0.000707	7.071404	2.395857	-0.056463
 830	4.1450e-01	6.8806	36.112365	0.000707	7.071404	2.395857	-0.056463
 831	4.1500e-01	6.8228	36.023637	0.000222	2.222441	0.752984	-0.017746
 832	4.1550e-01	6.7891	35.813916	0.000525	5.253043	1.779779	-0.041944
 833	4.1600e-01	6.7586	35.543698	0.000677	6.768344	2.293177	-0.054044
 834	4.1650e-01	6.7073	35.208951	0.000838	8.384665	2.840801	-0.066949
 835	4.1700e-01	6.6752	34.999230	0.000525	5.253043	1.779779	-0.041944
 836	4.1750e-01	6.6351	34.833873	0.000414	4.141823	1.403287	-0.033071
 837	4.1800e-01	6.5998	34.620118	0.000535	5.354063	1.814006	-0.042751
 838	4.1850e-01	6.5517	34.378132	0.000606	6.061204	2.053591	-0.048397
 839	4.1900e-01	6.5132	34.168411	0.000525	5.253043	1.779779	-0.041944
 840	4.1950e-01	6.4651	33.688473	0.001202	12.021387	4.072956	-0.095988
 841	4.2000e-01	6.4378	33.636042	0.000131	1.313261	0.444945	-0.010486
 842	4.2050e-01	6.4057	33.385990	0.000626	6.263244	2.122044	-0.050010
 843	4.2100e-01	6.3624	33.180302	0.000515	5.152023	1.745553	-0.041138
 844	4.2150e-01	6.3127	33.063342	0.000293	2.929582	0.992569	-0.023392
 845	4.2200e-01	6.2742	32.970581	0.000232	2.323461	0.787210	-0.018552
 846	4.2250e-01	6.2373	32.680198	0.000727	7.273444	2.464310	-0.058077
 847	4.2300e-01	6.2068	32.381749	0.000748	7.475485	2.532763	-0.059690
 848	4.2350e-01	6.1619	32.075233	0.000768	7.677525	2.601216	-0.061303
 849	4.2400e-01	6.1250	32.002637	0.000182	1.818361	0.616077	-0.014519
 850	4.2450e-01	6.0865	31.728387	0.000687	6.869364	2.327404	-0.054850
 851	4.2500e-01	6.0319	31.506566	0.000556	5.556103	1.882459	-0.044364
 852	4.2550e-01	5.9950	31.292812	0.000535	5.354063	1.814006	-0.042751
 853	4.2600e-01	5.9597	31.075025	0.000546	5.455083	1.848232	-0.043557
 854	4.2650e-01	5.9164	30.833039	0.000606	6.061204	2.053591	-0.048397
 855	4.2700e-01	5.8859	30.691880	0.000354	3.535702	1.197928	-0.028232
 856	4.2750e-01	5.8426	30.417630	0.000687	6.869364	2.327404	-0.054850
 857	4.2800e-01	5.7881	30.147412	0.000677	6.768344	2.293177	-0.054044
 858	4.2850e-01	5.7528	29.925592	0.000556	5.556103	1.882459	-0.044364
 859	4.2900e-01	5.7223	29.647308	0.000697	6.970384	2.361630	-0.055657
 860	4.2950e-01	5.6742	29.405322	0.000606	6.061204	2.053591	-0.048397
 861	4.3000e-01	5.6260	29.324660	0.000202	2.020401	0.684530	-0.016132
 862	4.3050e-01	5.6004	29.038310	0.000717	7.172424	2.430083	-0.057270
 863	4.3100e-01	5.5571	28.800357	0.000596	5.960184	2.019365	-0.047591
 864	4.3150e-01	5.5121	28.453511	0.000869	8.687725	2.943481	-0.069369
 865	4.3200e-01	5.4801	28.263955	0.000475	4.747943	1.608647	-0.037911
 866	4.3250e-01	5.4351	27.977605	0.000717	7.172424	2.430083	-0.057270
 867	4.3300e-01	5.3982	27.880811	0.000242	2.424481	0.821437	-0.019359
 868	4.3350e-01	5.3613	27.719487	0.000404	4.040802	1.369061	-0.032265
 869	4.3400e-01	5.3228	27.300044	0.001051	10.506086	3.559558	-0.083888
 870	4.3450e-01	5.2731	27.090323	0.000525	5.253043	1.779779	-0.041944
 871	4.3500e-01	5.2314	26.876569	0.000535	5.354063	1.814006	-0.042751
 872	4.3550e-01	5.2057	26.808006	0.000172	1.717341	0.581851	-0.013713
 873	4.3600e-01	5.1448	26.469226	0.000849	8.485685	2.875028	-0.067756
 874	4.3650e-01	5.1207	26.320001	0.000374	3.737742	1.266381	-0.029845
 875	4.3700e-01	5.0774	26.053817	0.000667	6.667324	2.258951	-0.053237
 876	4.3750e-01	5.0373	25.787632	0.000667	6.667324	2.258951	-0.053237
 877	4.3800e-01	4.9908	25.590011	0.000495	4.949983	1.677100	-0.039524
 878	4.3850e-01	4.9523	25.469018	0.000303	3.030602	1.026796	-0.024199
 879	4.3900e-01	4.9106	25.214932	0.000636	6.364264	2.156271	-0.050817
 880	4.3950e-01	4.8753	24.968913	0.000616	6.162224	2.087818	-0.049204
 881	4.4000e-01	4.8400	24.505107	0.001162	11.617307	3.936050	-0.092761
 882	4.4050e-01	4.7967	24.271187	0.000586	5.859164	1.985138	-0.046784
 883	4.4100e-01	4.7533	24.194559	0.000192	1.919381	0.650304	-0.015326
 884	4.4150e-01	4.7213	23.916275	0.000697	6.970384	2.361630	-0.055657
 885	4.4200e-01	4.6795	23.686388	0.000576	5.758144	1.950912	-0.045977
 886	4.4250e-01	4.6346	23.597660	0.000222	2.222441	0.752984	-0.017746
 887	4.4300e-01	4.5881	23.387939	0.000525	5.253043	1.779779	-0.041944
 888	4.4350e-01	4.5544	23.041092	0.000869	8.687725	2.943481	-0.069369
 889	4.4400e-01	4.5143	22.815239	0.000566	5.657123	1.916685	-0.045171
 890	4.4450e-01	4.4678	22.633749	0.000455	4.545903	1.540194	-0.036298
 891	4.4500e-01	4.4373	22.343366	0.000727	7.273444	2.464310	-0.058077
 892	4.4550e-01	4.3956	22.149778	0.000485	4.848963	1.642873	-0.038718
 893	4.4600e-01	4.3555	21.891659	0.000647	6.465284	2.190497	-0.051624
 894	4.4650e-01	4.3170	21.698070	0.000485	4.848963	1.642873	-0.038718
 895	4.4700e-01	4.2737	21.443985	0.000636	6.364264	2.156271	-0.050817
 896	4.4750e-01	4.2352	21.189900	0.000636	6.364264	2.156271	-0.050817
 897	4.4800e-01	4.1935	21.161668	0.000071	0.707140	0.239586	-0.005646
 898	4.4850e-01	4.1646	20.713994	0.001121	11.213227	3.799144	-0.089535
 899	4.4900e-01	4.1213	20.431678	0.000707	7.071404	2.395857	-0.056463
 900	4.4950e-01	4.0748	20.367148	0.000162	1.616321	0.547624	-0.012906
 901	4.5000e-01	4.0395	20.096930	0.000677	6.768344	2.293177	-0.054044
 902	4.5050e-01	3.9913	19.871077	0.000566	5.657123	1.916685	-0.045171
 903	4.5100e-01	3.9496	19.750084	0.000303	3.030602	1.026796	-0.024199
 904	4.5150e-01	3.9207	19.491966	0.000647	6.465284	2.190497	-0.051624
 905	4.5200e-01	3.8710	19.233847	0.000647	6.465284	2.190497	-0.051624
 906	4.5250e-01	3.8421	18.943464	0.000727	7.273444	2.464310	-0.058077
 907	4.5300e-01	3.7956	18.536121	0.001020	10.203026	3.456879	-0.081469
 908	4.5350e-01	3.7571	18.419161	0.000293	2.929582	0.992569	-0.023392
 909	4.5400e-01	3.7138	18.241705	0.000444	4.444883	1.505967	-0.035491
 910	4.5450e-01	3.6801	18.084414	0.000394	3.939782	1.334834	-0.031458
 911	4.5500e-01	3.6368	17.886792	0.000495	4.949983	1.677100	-0.039524
 912	4.5550e-01	3.5999	17.511714	0.000939	9.394866	3.183067	-0.075016
 913	4.5600e-01	3.5454	17.261662	0.000626	6.263244	2.122044	-0.050010
 914	4.5650e-01	3.5165	17.285861	-0.000061	-0.606120	-0.205359	0.004840
 915	4.5700e-01	3.4716	16.979345	0.000768	7.677525	2.601216	-0.061303
 916	4.5750e-01	3.4363	16.547804	0.001081	10.809147	3.662238	-0.086308
 917	4.5800e-01	3.3881	16.418744	0.000323	3.232642	1.095249	-0.025812
 918	4.5850e-01	3.3464	16.176758	0.000606	6.061204	2.053591	-0.048397
 919	4.5900e-01	3.3192	15.842011	0.000838	8.384665	2.840801	-0.066949
 920	4.5950e-01	3.2791	15.729085	0.000283	2.828562	0.958343	-0.022585
 921	4.6000e-01	3.2341	15.487099	0.000606	6.061204	2.053591	-0.048397
 922	4.6050e-01	3.1876	15.487099	-0.000000	-0.000000	-0.000000	0.000000
 923	4.6100e-01	3.1459	15.192682	0.000737	7.374464	2.498536	-0.058883
 924	4.6150e-01	3.1218	14.753075	0.001101	11.011187	3.730691	-0.087922
 925	4.6200e-01	3.0705	14.624016	0.000323	3.232642	1.095249	-0.025812
 926	4.6250e-01	3.0304	14.289268	0.000838	8.384665	2.840801	-0.066949
 927	4.6300e-01	3.0095	14.152143	0.000343	3.434682	1.163702	-0.027425
 928	4.6350e-01	2.9502	13.813363	0.000849	8.485685	2.875028	-0.067756
 929	4.6400e-01	2.9101	13.684304	0.000323	3.232642	1.095249	-0.025812
 930	4.6450e-01	2.8748	13.438285	0.000616	6.162224	2.087818	-0.049204
 931	4.6500e-01	2.8299	13.196299	0.000606	6.061204	2.053591	-0.048397
 932	4.6550e-01	2.7882	12.873651	0.000808	8.081605	2.738122	-0.064530
 933	4.6600e-01	2.7593	12.599400	0.000687	6.869364	2.327404	-0.054850
 934	4.6650e-01	2.7128	12.470341	0.000323	3.232642	1.095249	-0.025812
 935	4.6700e-01	2.6727	12.337249	0.000333	3.333662	1.129475	-0.026618
 936	4.6750e-01	2.6406	11.946038	0.000980	9.798946	3.319973	-0.078242
 937	4.6800e-01	2.5973	11.615324	0.000828	8.283645	2.806575	-0.066143
 938	4.6850e-01	2.5588	11.603225	0.000030	0.303060	0.102680	-0.002420
 939	4.6900e-01	2.5074	11.353173	0.000626	6.263244	2.122044	-0.050010
 940	4.6950e-01	2.4737	11.207981	0.000364	3.636722	1.232155	-0.029038
 941	4.7000e-01	2.4288	10.845002	0.000909	9.091806	3.080387	-0.072596
 942	4.7050e-01	2.3855	10.639314	0.000515	5.152023	1.745553	-0.041138
 943	4.7100e-01	2.3502	10.268269	0.000929	9.293846	3.148840	-0.074209
 944	4.7150e-01	2.3149	9.949654	0.000798	7.980585	2.703895	-0.063723
 945	4.7200e-01	2.2684	9.864959	0.000212	2.121421	0.718757	-0.016939
 946	4.7250e-01	2.2347	9.639106	0.000566	5.657123	1.916685	-0.045171
 947	4.7300e-01	2.1946	9.372921	0.000667	6.667324	2.258951	-0.053237
 948	4.7350e-01	2.1545	9.058339	0.000788	7.879565	2.669669	-0.062916
 949	4.7400e-01	2.1128	8.921214	0.000343	3.434682	1.163702	-0.027425
 950	4.7450e-01	2.0759	8.687294	0.000586	5.859164	1.985138	-0.046784
 951	4.7500e-01	2.0374	8.538070	0.000374	3.737742	1.266381	-0.029845
 952	4.7550e-01	1.9973	8.223488	0.000788	7.879565	2.669669	-0.062916
 953	4.7600e-01	1.9588	8.066197	0.000394	3.939782	1.334834	-0.031458
 954	4.7650e-01	1.9074	7.808079	0.000647	6.465284	2.190497	-0.051624
 955	4.7700e-01	1.8737	7.650788	0.000394	3.939782	1.334834	-0.031458
 956	4.7750e-01	1.8304	7.344273	0.000768	7.677525	2.601216	-0.061303
 957	4.7800e-01	1.7919	7.150684	0.000485	4.848963	1.642873	-0.038718
 958	4.7850e-01	1.7614	6.836102	0.000788	7.879565	2.669669	-0.062916
 959	4.7900e-01	1.7117	6.565885	0.000677	6.768344	2.293177	-0.054044
 960	4.7950e-01	1.6796	6.243237	0.000808	8.081605	2.738122	-0.064530
 961	4.8000e-01	1.6347	6.017383	0.000566	5.657123	1.916685	-0.045171
 962	4.8050e-01	1.5978	5.973019	0.000111	1.111221	0.376492	-0.008873
 963	4.8100e-01	1.5513	5.791530	0.000455	4.545903	1.540194	-0.036298
 964	4.8150e-01	1.5176	5.654404	0.000343	3.434682	1.163702	-0.027425
 965	4.8200e-01	1.4727	5.138168	0.001293	12.930568	4.380995	-0.103247
 966	4.8250e-01	1.4278	4.888116	0.000626	6.263244	2.122044	-0.050010
 967	4.8300e-01	1.3909	4.746957	0.000354	3.535702	1.197928	-0.028232
 968	4.8350e-01	1.3572	4.634030	0.000283	2.828562	0.958343	-0.022585
 969	4.8400e-01	1.3171	4.186356	0.001121	11.213227	3.799144	-0.089535
 970	4.8450e-01	1.2722	4.073430	0.000283	2.828562	0.958343	-0.022585
 971	4.8500e-01	1.2272	3.895973	0.000444	4.444883	1.505967	-0.035491
 972	4.8550e-01	1.2016	3.601557	0.000737	7.374464	2.498536	-0.058883
 973	4.8600e-01	1.1534	3.307141	0.000737	7.374464	2.498536	-0.058883
 974	4.8650e-01	1.1182	3.016758	0.000727	7.273444	2.464310	-0.058077
 975	4.8700e-01	1.0716	2.823169	0.000485	4.848963	1.642873	-0.038718
 976	4.8750e-01	1.0363	2.718308	0.000263	2.626522	0.889890	-0.020972
 977	4.8800e-01	0.9978	2.278701	0.001101	11.011187	3.730691	-0.087922
 978	4.8850e-01	0.9625	2.218204	0.000152	1.515301	0.513398	-0.012099
 979	4.8900e-01	0.9144	2.040748	0.000444	4.444883	1.505967	-0.035491
 980	4.8950e-01	0.8695	1.766497	0.000687	6.869364	2.327404	-0.054850
 981	4.9000e-01	0.8342	1.572908	0.000485	4.848963	1.642873	-0.038718
 982	4.9050e-01	0.7877	1.266393	0.000768	7.677525	2.601216	-0.061303
 983	4.9100e-01	0.7572	1.016341	0.000626	6.263244	2.122044	-0.050010
 984	4.9150e-01	0.7155	0.822752	0.000485	4.848963	1.642873	-0.038718
 985	4.9200e-01	0.6754	0.657395	0.000414	4.141823	1.403287	-0.033071
 986	4.9250e-01	0.6321	0.334747	0.000808	8.081605	2.738122	-0.064530
 987	4.9300e-01	0.6016	0.068563	0.000667	6.667324	2.258951	-0.053237
 988	4.9350e-01	0.5519	-0.133092	0.000505	5.051003	1.711326	-0.040331
 989	4.9400e-01	0.5118	-0.463806	0.000828	8.283645	2.806575	-0.066143
 990	4.9450e-01	0.4781	-0.689660	0.000566	5.657123	1.916685	-0.045171
 991	4.9500e-01	0.4412	-0.798554	0.000273	2.727542	0.924116	-0.021779
 992	4.9550e-01	0.3946	-1.000208	0.000505	5.051003	1.711326	-0.040331
 993	4.9600e-01	0.3433	-1.165565	0.000414	4.141823	1.403287	-0.033071
 994	4.9650e-01	0.3160	-1.399485	0.000586	5.859164	1.985138	-0.046784
 995	4.9700e-01	0.2775	-1.714067	0.000788	7.879565	2.669669	-0.062916
 996	4.9750e-01	0.2342	-1.927821	0.000535	5.354063	1.814006	-0.042751
 997	4.9800e-01	0.1957	-2.198039	0.000677	6.768344	2.293177	-0.054044
 998	4.9850e-01	0.1476	-2.460190	0.000657	6.566304	2.224724	-0.052430
 999	4.9900e-01	0.1091	-2.750573	0.000727	7.273444	2.464310	-0.058077
1000	4.9950e-01	0.0690	-2.875599	0.000313	3.131622	1.061022	-0.025005
1001	5.0000e-01	0.0305	-3.371670	0.001243	12.425468	4.209862	-0.099214
1002	5.0050e-01	-0.0112	-3.291008	-0.000202	-2.020401	-0.684530	0.016132
1003	5.0100e-01	-0.0401	-3.569292	0.000697	6.970384	2.361630	-0.055657
1004	5.0150e-01	-0.0818	-3.827411	0.000647	6.465284	2.190497	-0.051624
1005	5.0200e-01	-0.1235	-4.053264	0.000566	5.657123	1.916685	-0.045171
1006	5.0250e-01	-0.1572	-4.464640	0.001030	10.304046	3.491105	-0.082275
1007	5.0300e-01	-0.2005	-4.472706	0.000020	0.202040	0.068453	-0.001613
1008	5.0350e-01	-0.2358	-4.662262	0.000475	4.747943	1.608647	-0.037911
1009	5.0400e-01	-0.2839	-4.867950	0.000515	5.152023	1.745553	-0.041138
1010	5.0450e-01	-0.3208	-5.037340	0.000424	4.242843	1.437514	-0.033878
1011	5.0500e-01	-0.3401	-5.376120	0.000849	8.485685	2.875028	-0.067756
1012	5.0550e-01	-0.4027	-5.714901	0.000849	8.485685	2.875028	-0.067756
1013	5.0600e-01	-0.4315	-5.900423	0.000465	4.646923	1.574420	-0.037105
1014	5.0650e-01	-0.4813	-6.275501	0.000939	9.394866	3.183067	-0.075016
1015	5.0700e-01	-0.5214	-6.473123	0.000495	4.949983	1.677100	-0.039524
1016	5.0750e-01	-0.5711	-6.501355	0.000071	0.707140	0.239586	-0.005646
1017	5.0800e-01	-0.6000	-6.743341	0.000606	6.061204	2.053591	-0.048397
1018	5.0850e-01	-0.6401	-6.836102	0.000232	2.323461	0.787210	-0.018552
1019	5.0900e-01	-0.6738	-7.332173	0.001243	12.425468	4.209862	-0.099214
1020	5.0950e-01	-0.7203	-7.566093	0.000586	5.859164	1.985138	-0.046784
1021	5.1000e-01	-0.7556	-7.723384	0.000394	3.939782	1.334834	-0.031458
1022	5.1050e-01	-0.8053	-7.933105	0.000525	5.253043	1.779779	-0.041944
1023	5.1100e-01	-0.8390	-8.179124	0.000616	6.162224	2.087818	-0.049204
1024	5.1150e-01	-0.8727	-8.562268	0.000960	9.596906	3.251520	-0.076629
1025	5.1200e-01	-0.9144	-8.663096	0.000253	2.525502	0.855663	-0.020165
1026	5.1250e-01	-0.9593	-9.082538	0.001051	10.506086	3.559558	-0.083888
1027	5.1300e-01	-0.9994	-9.195465	0.000283	2.828562	0.958343	-0.022585
1028	5.1350e-01	-1.0395	-9.413252	0.000546	5.455083	1.848232	-0.043557
1029	5.1400e-01	-1.0829	-9.586675	0.000434	4.343863	1.471741	-0.034685
1030	5.1450e-01	-1.1310	-9.848827	0.000657	6.566304	2.224724	-0.052430
1031	5.1500e-01	-1.1583	-10.183574	0.000838	8.384665	2.840801	-0.066949
1032	5.1550e-01	-1.2000	-10.248104	0.000162	1.616321	0.547624	-0.012906
1033	5.1600e-01	-1.2369	-10.405394	0.000394	3.939782	1.334834	-0.031458
1034	5.1650e-01	-1.2770	-10.691744	0.000717	7.172424	2.430083	-0.057270
1035	5.1700e-01	-1.3171	-10.909532	0.000546	5.455083	1.848232	-0.043557
1036	5.1750e-01	-1.3652	-11.147485	0.000596	5.960184	2.019365	-0.047591
1037	5.1800e-01	-1.3941	-11.466099	0.000798	7.980585	2.703895	-0.063723
1038	5.1850e-01	-1.4406	-11.643556	0.000444	4.444883	1.505967	-0.035491
1039	5.1900e-01	-1.4807	-12.006535	0.000909	9.091806	3.080387	-0.072596
1040	5.1950e-01	-1.5208	-12.159792	0.000384	3.838762	1.300608	-0.030652
1041	5.2000e-01	-1.5609	-12.369513	0.000525	5.253043	1.779779	-0.041944
1042	5.2050e-01	-1.6026	-12.542937	0.000434	4.343863	1.471741	-0.034685
1043	5.2100e-01	-1.6443	-12.865585	0.000808	8.081605	2.738122	-0.064530
1044	5.2150e-01	-1.6716	-13.051107	0.000465	4.646923	1.574420	-0.037105
1045	5.2200e-01	-1.7213	-13.119670	0.000172	1.717341	0.581851	-0.013713
1046	5.2250e-01	-1.7534	-13.522980	0.001010	10.102006	3.422652	-0.080662
1047	5.2300e-01	-1.7887	-13.793197	0.000677	6.768344	2.293177	-0.054044
1048	5.2350e-01	-1.8385	-13.978720	0.000465	4.646923	1.574420	-0.037105
1049	5.2400e-01	-1.8770	-14.127944	0.000374	3.737742	1.266381	-0.029845
1050	5.2450e-01	-1.9171	-14.353798	0.000566	5.657123	1.916685	-0.045171
1051	5.2500e-01	-1.9507	-14.349765	-0.000010	-0.101020	-0.034227	0.000807
1052	5.2550e-01	-1.9989	-14.740975	0.000980	9.798946	3.319973	-0.078242
1053	5.2600e-01	-2.0422	-15.023292	0.000707	7.071404	2.395857	-0.056463
1054	5.2650e-01	-2.0727	-15.265278	0.000606	6.061204	2.053591	-0.048397
1055	5.2700e-01	-2.1208	-15.527430	0.000657	6.566304	2.224724	-0.052430
1056	5.2750e-01	-2.1577	-15.737151	0.000525	5.253043	1.779779	-0.041944
1057	5.2800e-01	-2.2026	-15.850078	0.000283	2.828562	0.958343	-0.022585
1058	5.2850e-01	-2.2347	-16.237255	0.000970	9.697926	3.285746	-0.077435
1059	5.2900e-01	-2.2812	-16.463108	0.000566	5.657123	1.916685	-0.045171
1060	5.2950e-01	-2.3342	-16.636532	0.000434	4.343863	1.471741	-0.034685
1061	5.3000e-01	-2.3598	-16.870451	0.000586	5.859164	1.985138	-0.046784
1062	5.3050e-01	-2.4015	-17.197132	0.000818	8.182625	2.772348	-0.065336
1063	5.3100e-01	-2.4481	-17.346357	0.000374	3.737742	1.266381	-0.029845
1064	5.3150e-01	-2.4801	-17.600442	0.000636	6.364264	2.156271	-0.050817
1065	5.3200e-01	-2.5283	-17.745634	0.000364	3.636722	1.232155	-0.029038
1066	5.3250e-01	-2.5636	-18.064249	0.000798	7.980585	2.703895	-0.063723
1067	5.3300e-01	-2.6037	-18.193308	0.000323	3.232642	1.095249	-0.025812
1068	5.3350e-01	-2.6390	-18.511923	0.000798	7.980585	2.703895	-0.063723
1069	5.3400e-01	-2.6855	-18.616783	0.000263	2.626522	0.889890	-0.020972
1070	5.3450e-01	-2.7192	-18.774074	0.000394	3.939782	1.334834	-0.031458
1071	5.3500e-01	-2.7561	-18.995894	0.000556	5.556103	1.882459	-0.044364
1072	5.3550e-01	-2.7994	-19.278211	0.000707	7.071404	2.395857	-0.056463
1073	5.3600e-01	-2.8379	-19.455668	0.000444	4.444883	1.505967	-0.035491
1074	5.3650e-01	-2.8860	-19.737985	0.000707	7.071404	2.395857	-0.056463
1075	5.3700e-01	-2.9213	-20.012235	0.000687	6.869364	2.327404	-0.054850
1076	5.3750e-01	-2.9662	-20.113063	0.000253	2.525502	0.855663	-0.020165
1077	5.3800e-01	-2.9983	-20.294552	0.000455	4.545903	1.540194	-0.036298
1078	5.3850e-01	-3.0432	-20.661564	0.000919	9.192826	3.114614	-0.073402
1079	5.3900e-01	-3.0769	-20.923716	0.000657	6.566304	2.224724	-0.052430
1080	5.3950e-01	-3.1218	-21.072940	0.000374	3.737742	1.266381	-0.029845
1081	5.4000e-01	-3.1587	-21.290728	0.000546	5.455083	1.848232	-0.043557
1082	5.4050e-01	-3.2037	-21.677905	0.000970	9.697926	3.285746	-0.077435
1083	5.4100e-01	-3.2357	-21.831163	0.000384	3.838762	1.300608	-0.030652
1084	5.4150e-01	-3.2774	-22.141711	0.000778	7.778545	2.635442	-0.062110
1085	5.4200e-01	-3.3208	-22.113480	-0.000071	-0.707140	-0.239586	0.005646
1086	5.4250e-01	-3.3593	-22.246572	0.000333	3.333662	1.129475	-0.026618
1087	5.4300e-01	-3.4010	-22.573253	0.000818	8.182625	2.772348	-0.065336
1088	5.4350e-01	-3.4395	-22.891868	0.000798	7.980585	2.703895	-0.063723
1089	5.4400e-01	-3.4812	-23.069324	0.000444	4.444883	1.505967	-0.035491
1090	5.4450e-01	-3.5181	-23.363740	0.000737	7.374464	2.498536	-0.058883
1091	5.4500e-01	-3.5598	-23.500866	0.000343	3.434682	1.163702	-0.027425
1092	5.4550e-01	-3.6031	-23.742851	0.000606	6.061204	2.053591	-0.048397
1093	5.4600e-01	-3.6416	-24.041301	0.000748	7.475485	2.532763	-0.059690
1094	5.4650e-01	-3.6769	-24.190525	0.000374	3.737742	1.266381	-0.029845
1095	5.4700e-01	-3.7186	-24.376048	0.000465	4.646923	1.574420	-0.037105
1096	5.4750e-01	-3.7555	-24.755159	0.000950	9.495886	3.217293	-0.075822
1097	5.4800e-01	-3.8036	-24.916483	0.000404	4.040802	1.369061	-0.032265
1098	5.4850e-01	-3.8373	-25.081840	0.000414	4.141823	1.403287	-0.033071
1099	5.4900e-01	-3.8726	-25.436753	0.000889	8.889765	3.011934	-0.070983
1100	5.4950e-01	-3.9207	-25.525481	0.000222	2.222441	0.752984	-0.017746
1101	5.5000e-01	-3.9560	-25.952990	0.001071	10.708127	3.628011	-0.085502
1102	5.5050e-01	-3.9897	-26.158678	0.000515	5.152023	1.745553	-0.041138
1103	5.5100e-01	-4.0395	-26.344200	0.000465	4.646923	1.574420	-0.037105
1104	5.5150e-01	-4.0812	-26.396630	0.000131	1.313261	0.444945	-0.010486
1105	5.5200e-01	-4.1277	-26.691047	0.000737	7.374464	2.498536	-0.058883
1106	5.5250e-01	-4.1598	-26.924966	0.000586	5.859164	1.985138	-0.046784
1107	5.5300e-01	-4.2079	-27.126621	0.000505	5.051003	1.711326	-0.040331
1108	5.5350e-01	-4.2384	-27.308111	0.000455	4.545903	1.540194	-0.036298
1109	5.5400e-01	-4.2769	-27.578328	0.000677	6.768344	2.293177	-0.054044
1110	5.5450e-01	-4.3138	-27.537997	-0.000101	-1.010201	-0.342265	0.008066
1111	5.5500e-01	-4.3555	-27.981638	0.001111	11.112207	3.764918	-0.088728
1112	5.5550e-01	-4.3972	-28.066333	0.000212	2.121421	0.718757	-0.016939
1113	5.5600e-01	-4.4373	-28.292187	0.000566	5.657123	1.916685	-0.045171
1114	5.5650e-01	-4.4774	-28.760026	0.001172	11.718327	3.970277	-0.093568
1115	5.5700e-01	-4.5207	-28.868920	0.000273	2.727542	0.924116	-0.021779
1116	5.5750e-01	-4.5608	-28.989913	0.000303	3.030602	1.026796	-0.024199
1117	5.5800e-01	-4.5993	-29.219799	0.000576	5.758144	1.950912	-0.045977
1118	5.5850e-01	-4.6459	-29.437587	0.000546	5.455083	1.848232	-0.043557
1119	5.5900e-01	-4.6731	-29.776367	0.000849	8.485685	2.875028	-0.067756
1120	5.5950e-01	-4.7229	-29.836863	0.000152	1.515301	0.513398	-0.012099
1121	5.6000e-01	-4.7646	-30.006254	0.000424	4.242843	1.437514	-0.033878
1122	5.6050e-01	-4.8047	-30.280504	0.000687	6.869364	2.327404	-0.054850
1123	5.6100e-01	-4.8480	-30.574921	0.000737	7.374464	2.498536	-0.058883
1124	5.6150e-01	-4.8817	-30.812873	0.000596	5.960184	2.019365	-0.047591
1125	5.6200e-01	-4.9202	-30.990330	0.000444	4.444883	1.505967	-0.035491
1126	5.6250e-01	-4.9667	-31.240382	0.000626	6.263244	2.122044	-0.050010
1127	5.6300e-01	-5.0084	-31.361375	0.000303	3.030602	1.026796	-0.024199
1128	5.6350e-01	-5.0389	-31.615460	0.000636	6.364264	2.156271	-0.050817
1129	5.6400e-01	-5.0726	-32.059101	0.001111	11.112207	3.764918	-0.088728
1130	5.6450e-01	-5.1191	-32.176061	0.000293	2.929582	0.992569	-0.023392
1131	5.6500e-01	-5.1608	-32.309153	0.000333	3.333662	1.129475	-0.026618
1132	5.6550e-01	-5.1977	-32.518874	0.000525	5.253043	1.779779	-0.041944
1133	5.6600e-01	-5.2378	-32.724562	0.000515	5.152023	1.745553	-0.041138
1134	5.6650e-01	-5.2876	-32.897985	0.000434	4.343863	1.471741	-0.034685
1135	5.6700e-01	-5.3261	-33.164170	0.000667	6.667324	2.258951	-0.053237
1136	5.6750e-01	-5.3581	-33.519082	0.000889	8.889765	3.011934	-0.070983
1137	5.6800e-01	-5.3982	-33.652175	0.000333	3.333662	1.129475	-0.026618
1138	5.6850e-01	-5.4432	-33.704605	0.000131	1.313261	0.444945	-0.010486
1139	5.6900e-01	-5.4833	-33.962723	0.000647	6.465284	2.190497	-0.051624
1140	5.6950e-01	-5.5154	-34.236974	0.000687	6.869364	2.327404	-0.054850
1141	5.7000e-01	-5.5603	-34.474927	0.000596	5.960184	2.019365	-0.047591
1142	5.7050e-01	-5.6052	-34.672549	0.000495	4.949983	1.677100	-0.039524
1143	5.7100e-01	-5.6389	-34.906468	0.000586	5.859164	1.985138	-0.046784
1144	5.7150e-01	-5.6790	-35.261381	0.000889	8.889765	3.011934	-0.070983
1145	5.7200e-01	-5.7191	-35.467069	0.000515	5.152023	1.745553	-0.041138
1146	5.7250e-01	-5.7624	-35.515466	0.000121	1.212241	0.410718	-0.009679
1147	5.7300e-01	-5.8073	-35.632426	0.000293	2.929582	0.992569	-0.023392
1148	5.7350e-01	-5.8458	-35.858280	0.000566	5.657123	1.916685	-0.045171
1149	5.7400e-01	-5.8763	-36.193027	0.000838	8.384665	2.840801	-0.066949
1150	5.7450e-01	-5.9244	-36.475344	0.000707	7.071404	2.395857	-0.056463
1151	5.7500e-01	-5.9645	-36.556006	0.000202	2.020401	0.684530	-0.016132
1152	5.7550e-01	-5.9966	-36.862521	0.000768	7.677525	2.601216	-0.061303
1153	5.7600e-01	-6.0480	-37.039978	0.000444	4.444883	1.505967	-0.035491
1154	5.7650e-01	-6.0752	-37.273897	0.000586	5.859164	1.985138	-0.046784
1155	5.7700e-01	-6.1153	-37.527982	0.000636	6.364264	2.156271	-0.050817
1156	5.7750e-01	-6.1619	-37.644942	0.000293	2.929582	0.992569	-0.023392
1157	5.7800e-01	-6.1939	-37.894994	0.000626	6.263244	2.122044	-0.050010
1158	5.7850e-01	-6.2421	-38.080517	0.000465	4.646923	1.574420	-0.037105
1159	5.7900e-01	-6.2822	-38.145047	0.000162	1.616321	0.547624	-0.012906
1160	5.7950e-01	-6.3159	-38.455595	0.000778	7.778545	2.635442	-0.062110
1161	5.8000e-01	-6.3688	-38.778243	0.000808	8.081605	2.738122	-0.064530
1162	5.8050e-01	-6.4025	-38.967799	0.000475	4.747943	1.608647	-0.037911
1163	5.8100e-01	-6.4426	-39.395307	0.001071	10.708127	3.628011	-0.085502
1164	5.8150e-01	-6.4779	-39.415473	0.000051	0.505100	0.171133	-0.004033
1165	5.8200e-01	-6.5148	-39.528399	0.000283	2.828562	0.958343	-0.022585
1166	5.8250e-01	-6.5565	-39.693756	0.000414	4.141823	1.403287	-0.033071
1167	5.8300e-01	-6.5982	-39.794584	0.000253	2.525502	0.855663	-0.020165
1168	5.8350e-01	-6.6383	-40.093033	0.000748	7.475485	2.532763	-0.059690
1169	5.8400e-01	-6.6720	-40.286622	0.000485	4.848963	1.642873	-0.038718
1170	5.8450e-01	-6.7233	-40.516509	0.000576	5.758144	1.950912	-0.045977
1171	5.8500e-01	-6.7618	-40.810925	0.000737	7.374464	2.498536	-0.058883
1172	5.8550e-01	-6.8003	-40.960149	0.000374	3.737742	1.266381	-0.029845
1173	5.8600e-01	-6.8404	-41.190036	0.000576	5.758144	1.950912	-0.045977
1174	5.8650e-01	-6.8773	-41.379592	0.000475	4.747943	1.608647	-0.037911
1175	5.8700e-01	-6.9207	-41.544949	0.000414	4.141823	1.403287	-0.033071
1176	5.8750e-01	-6.9608	-41.827266	0.000707	7.071404	2.395857	-0.056463
1177	5.8800e-01	-6.9993	-42.061185	0.000586	5.859164	1.985138	-0.046784
1178	5.8850e-01	-7.0410	-42.323337	0.000657	6.566304	2.224724	-0.052430
1179	5.8900e-01	-7.0634	-42.444330	0.000303	3.030602	1.026796	-0.024199
1180	5.8950e-01	-7.1244	-42.565323	0.000303	3.030602	1.026796	-0.024199
1181	5.9000e-01	-7.1661	-42.940401	0.000939	9.394866	3.183067	-0.075016
1182	5.9050e-01	-7.2014	-43.029129	0.000222	2.222441	0.752984	-0.017746
1183	5.9100e-01	-7.2367	-43.158188	0.000323	3.232642	1.095249	-0.025812
1184	5.9150e-01	-7.2704	-43.408240	0.000626	6.263244	2.122044	-0.050010
1185	5.9200e-01	-7.3153	-43.634094	0.000566	5.657123	1.916685	-0.045171
1186	5.9250e-01	-7.3538	-43.896245	0.000657	6.566304	2.224724	-0.052430
1187	5.9300e-01	-7.3971	-44.029337	0.000333	3.333662	1.129475	-0.026618
1188	5.9350e-01	-7.4388	-44.186628	0.000394	3.939782	1.334834	-0.031458
1189	5.9400e-01	-7.4854	-44.343919	0.000394	3.939782	1.334834	-0.031458
1190	5.9450e-01	-7.5078	-44.662534	0.000798	7.980585	2.703895	-0.063723
1191	5.9500e-01	-7.5591	-44.844023	0.000455	4.545903	1.540194	-0.036298
1192	5.9550e-01	-7.5976	-45.154572	0.000778	7.778545	2.635442	-0.062110
1193	5.9600e-01	-7.6378	-45.295730	0.000354	3.535702	1.197928	-0.028232
1194	5.9650e-01	-7.6746	-45.412690	0.000293	2.929582	0.992569	-0.023392
1195	5.9700e-01	-7.7148	-45.739371	0.000818	8.182625	2.772348	-0.065336
1196	5.9750e-01	-7.7533	-45.965225	0.000566	5.657123	1.916685	-0.045171
1197	5.9800e-01	-7.7918	-45.989423	0.000061	0.606120	0.205359	-0.004840
1198	5.9850e-01	-7.8335	-46.291906	0.000758	7.576505	2.566989	-0.060496
1199	5.9900e-01	-7.8944	-46.408866	0.000293	2.929582	0.992569	-0.023392
1200	5.9950e-01	-7.9137	-46.650852	0.000606	6.061204	2.053591	-0.048397
1201	6.0000e-01	-7.9522	-46.876705	0.000566	5.657123	1.916685	-0.045171
1202	6.0050e-01	-7.9923	-47.138856	0.000657	6.566304	2.224724	-0.052430
1203	6.0100e-01	-8.0388	-47.405041	0.000667	6.667324	2.258951	-0.053237
1204	6.0150e-01	-8.0805	-47.509902	0.000263	2.626522	0.889890	-0.020972
1205	6.0200e-01	-8.1190	-47.687358	0.000444	4.444883	1.505967	-0.035491
1206	6.0250e-01	-8.1559	-47.780119	0.000232	2.323461	0.787210	-0.018552
1207	6.0300e-01	-8.2008	-48.058403	0.000697	6.970384	2.361630	-0.055657
1208	6.0350e-01	-8.2329	-48.211661	0.000384	3.838762	1.300608	-0.030652
1209	6.0400e-01	-8.2762	-48.554474	0.000859	8.586705	2.909254	-0.068563
1210	6.0450e-01	-8.3131	-48.824692	0.000677	6.768344	2.293177	-0.054044
1211	6.0500e-01	-8.3564	-49.102975	0.000697	6.970384	2.361630	-0.055657
1212	6.0550e-01	-8.3982	-49.086843	-0.000040	-0.404080	-0.136906	0.003226
1213	6.0600e-01	-8.4367	-49.268333	0.000455	4.545903	1.540194	-0.036298
1214	6.0650e-01	-8.4912	-49.425623	0.000394	3.939782	1.334834	-0.031458
1215	6.0700e-01	-8.5169	-49.788602	0.000909	9.091806	3.080387	-0.072596
1216	6.0750e-01	-8.5586	-49.990257	0.000505	5.051003	1.711326	-0.040331
1217	6.0800e-01	-8.6003	-50.058820	0.000172	1.717341	0.581851	-0.013713
1218	6.0850e-01	-8.6372	-50.228210	0.000424	4.242843	1.437514	-0.033878
1219	6.0900e-01	-8.6757	-50.389534	0.000404	4.040802	1.369061	-0.032265
1220	6.0950e-01	-8.7206	-50.687983	0.000748	7.475485	2.532763	-0.059690
1221	6.1000e-01	-8.7591	-51.151790	0.001162	11.617307	3.936050	-0.092761
1222	6.1050e-01	-8.8056	-51.059028	-0.000232	-2.323461	-0.787210	0.018552
1223	6.1100e-01	-8.8313	-51.329246	0.000677	6.768344	2.293177	-0.054044
1224	6.1150e-01	-8.8762	-51.567199	0.000596	5.960184	2.019365	-0.047591
1225	6.1200e-01	-8.9195	-51.724490	0.000394	3.939782	1.334834	-0.031458
1226	6.1250e-01	-8.9612	-51.942277	0.000546	5.455083	1.848232	-0.043557
1227	6.1300e-01	-9.0030	-52.176197	0.000586	5.859164	1.985138	-0.046784
1228	6.1350e-01	-9.0318	-52.349620	0.000434	4.343863	1.471741	-0.034685
1229	6.1400e-01	-9.0784	-52.635970	0.000717	7.172424	2.430083	-0.057270
1230	6.1450e-01	-9.1217	-52.720665	0.000212	2.121421	0.718757	-0.016939
1231	6.1500e-01	-9.1538	-52.946518	0.000566	5.657123	1.916685	-0.045171
1232	6.1550e-01	-9.1939	-53.160273	0.000535	5.354063	1.814006	-0.042751
1233	6.1600e-01	-9.2548	-53.281266	0.000303	3.030602	1.026796	-0.024199
1234	6.1650e-01	-9.2853	-53.446623	0.000414	4.141823	1.403287	-0.033071
1235	6.1700e-01	-9.3286	-53.660377	0.000535	5.354063	1.814006	-0.042751
1236	6.1750e-01	-9.3591	-53.946727	0.000717	7.172424	2.430083	-0.057270
1237	6.1800e-01	-9.4008	-54.059654	0.000283	2.828562	0.958343	-0.022585
1238	6.1850e-01	-9.4345	-54.325838	0.000667	6.667324	2.258951	-0.053237
1239	6.1900e-01	-9.4730	-54.612188	0.000717	7.172424	2.430083	-0.057270
1240	6.1950e-01	-9.5131	-54.648486	0.000091	0.909181	0.308039	-0.007260
1241	6.2000e-01	-9.5548	-54.797711	0.000374	3.737742	1.266381	-0.029845
1242	6.2050e-01	-9.6061	-55.039697	0.000606	6.061204	2.053591	-0.048397
1243	6.2100e-01	-9.6398	-55.354278	0.000788	7.879565	2.669669	-0.062916
1244	6.2150e-01	-9.6783	-55.378477	0.000061	0.606120	0.205359	-0.004840
1245	6.2200e-01	-9.7200	-55.584165	0.000515	5.152023	1.745553	-0.041138
1246	6.2250e-01	-9.7714	-55.717257	0.000333	3.333662	1.129475	-0.026618
1247	6.2300e-01	-9.7938	-55.967309	0.000626	6.263244	2.122044	-0.050010
1248	6.2350e-01	-9.8452	-56.245593	0.000697	6.970384	2.361630	-0.055657
1249	6.2400e-01	-9.8869	-56.193163	-0.000131	-1.313261	-0.444945	0.010486
1250	6.2450e-01	-9.9190	-56.560175	0.000919	9.192826	3.114614	-0.073402
1251	6.2500e-01	-9.9543	-56.705366	0.000364	3.636722	1.232155	-0.029038
1252	6.2550e-01	-9.9976	-57.140941	0.001091	10.910167	3.696465	-0.087115
1253	6.2600e-01	-10.0393	-57.330497	0.000475	4.747943	1.608647	-0.037911
1254	6.2650e-01	-10.0778	-57.431324	0.000253	2.525502	0.855663	-0.020165
1255	6.2700e-01	-10.1195	-57.596681	0.000414	4.141823	1.403287	-0.033071
1256	6.2750e-01	-10.1548	-57.850766	0.000636	6.364264	2.156271	-0.050817
1257	6.2800e-01	-10.1997	-57.939495	0.000222	2.222441	0.752984	-0.017746
1258	6.2850e-01	-10.2270	-58.052421	0.000283	2.828562	0.958343	-0.022585
1259	6.2900e-01	-10.2735	-58.483963	0.001081	10.809147	3.662238	-0.086308
1260	6.2950e-01	-10.3136	-58.524294	0.000101	1.010201	0.342265	-0.008066
1261	6.3000e-01	-10.3601	-58.734015	0.000525	5.253043	1.779779	-0.041944
1262	6.3050e-01	-10.4034	-58.959868	0.000566	5.657123	1.916685	-0.045171
1263	6.3100e-01	-10.4420	-59.092961	0.000333	3.333662	1.129475	-0.026618
1264	6.3150e-01	-10.4805	-59.363178	0.000677	6.768344	2.293177	-0.054044
1265	6.3200e-01	-10.5141	-59.516436	0.000384	3.838762	1.300608	-0.030652
1266	6.3250e-01	-10.5510	-59.843117	0.000818	8.182625	2.772348	-0.065336
1267	6.3300e-01	-10.5976	-59.992342	0.000374	3.737742	1.266381	-0.029845
1268	6.3350e-01	-10.6409	-60.129467	0.000343	3.434682	1.163702	-0.027425
1269	6.3400e-01	-10.6810	-60.319023	0.000475	4.747943	1.608647	-0.037911
1270	6.3450e-01	-10.7275	-60.464214	0.000364	3.636722	1.232155	-0.029038
1271	6.3500e-01	-10.7644	-60.710233	0.000616	6.162224	2.087818	-0.049204
1272	6.3550e-01	-10.8029	-60.778796	0.000172	1.717341	0.581851	-0.013713
1273	6.3600e-01	-10.8398	-61.065146	0.000717	7.172424	2.430083	-0.057270
1274	6.3650e-01	-10.8783	-61.420059	0.000889	8.889765	3.011934	-0.070983
1275	6.3700e-01	-10.9264	-61.327297	-0.000232	-2.323461	-0.787210	0.018552
1276	6.3750e-01	-10.9553	-61.593482	0.000667	6.667324	2.258951	-0.053237
1277	6.3800e-01	-11.0034	-61.710442	0.000293	2.929582	0.992569	-0.023392
1278	6.3850e-01	-11.0451	-61.932262	0.000556	5.556103	1.882459	-0.044364
1279	6.3900e-01	-11.0836	-62.170215	0.000596	5.960184	2.019365	-0.047591
1280	6.3950e-01	-11.1221	-62.347671	0.000444	4.444883	1.505967	-0.035491
1281	6.4000e-01	-11.1526	-62.492863	0.000364	3.636722	1.232155	-0.029038
1282	6.4050e-01	-11.2088	-62.827610	0.000838	8.384665	2.840801	-0.066949
1283	6.4100e-01	-11.2393	-62.859875	0.000081	0.808160	0.273812	-0.006453
1284	6.4150e-01	-11.2842	-63.093795	0.000586	5.859164	1.985138	-0.046784
1285	6.4200e-01	-11.3211	-63.404343	0.000778	7.778545	2.635442	-0.062110
1286	6.4250e-01	-11.3596	-63.549535	0.000364	3.636722	1.232155	-0.029038
1287	6.4300e-01	-11.3949	-63.642296	0.000232	2.323461	0.787210	-0.018552
1288	6.4350e-01	-11.4430	-63.831852	0.000475	4.747943	1.608647	-0.037911
1289	6.4400e-01	-11.4815	-64.138367	0.000768	7.677525	2.601216	-0.061303
1290	6.4450e-01	-11.5168	-64.214996	0.000192	1.919381	0.650304	-0.015326
1291	6.4500e-01	-11.5489	-64.557809	0.000859	8.586705	2.909254	-0.068563
1292	6.4550e-01	-11.6034	-64.582008	0.000061	0.606120	0.205359	-0.004840
1293	6.4600e-01	-11.6403	-64.807861	0.000566	5.657123	1.916685	-0.045171
1294	6.4650e-01	-11.6868	-65.005483	0.000495	4.949983	1.677100	-0.039524
1295	6.4700e-01	-11.7221	-65.186973	0.000455	4.545903	1.540194	-0.036298
1296	6.4750e-01	-11.7606	-65.320065	0.000333	3.333662	1.129475	-0.026618
1297	6.4800e-01	-11.7991	-65.525753	0.000515	5.152023	1.745553	-0.041138
1298	6.4850e-01	-11.8424	-65.570117	0.000111	1.111221	0.376492	-0.008873
1299	6.4900e-01	-11.8826	-65.908897	0.000849	8.485685	2.875028	-0.067756
1300	6.4950e-01	-11.9194	-66.070221	0.000404	4.040802	1.369061	-0.032265
1301	6.5000e-01	-11.9531	-66.404968	0.000838	8.384665	2.840801	-0.066949
1302	6.5050e-01	-12.0141	-66.356571	-0.000121	-1.212241	-0.410718	0.009679
1303	6.5100e-01	-12.0382	-66.687285	0.000828	8.283645	2.806575	-0.066143
1304	6.5150e-01	-12.0863	-66.743749	0.000141	1.414281	0.479171	-0.011293
1305	6.5200e-01	-12.1184	-66.965569	0.000556	5.556103	1.882459	-0.044364
1306	6.5250e-01	-12.1617	-67.276118	0.000778	7.778545	2.635442	-0.062110
1307	6.5300e-01	-12.1970	-67.393078	0.000293	2.929582	0.992569	-0.023392
1308	6.5350e-01	-12.2371	-67.481806	0.000222	2.222441	0.752984	-0.017746
1309	6.5400e-01	-12.2836	-67.739924	0.000647	6.465284	2.190497	-0.051624
1310	6.5450e-01	-12.3221	-67.889149	0.000374	3.737742	1.266381	-0.029845
1311	6.5500e-01	-12.3510	-68.102903	0.000535	5.354063	1.814006	-0.042751
1312	6.5550e-01	-12.3927	-68.288426	0.000465	4.646923	1.574420	-0.037105
1313	6.5600e-01	-12.4344	-68.445716	0.000394	3.939782	1.334834	-0.031458
1314	6.5650e-01	-12.4697	-68.804662	0.000899	8.990785	3.046161	-0.071789
1315	6.5700e-01	-12.5258	-69.074880	0.000677	6.768344	2.293177	-0.054044
1316	6.5750e-01	-12.5611	-69.127310	0.000131	1.313261	0.444945	-0.010486
1317	6.5800e-01	-12.5996	-69.284601	0.000394	3.939782	1.334834	-0.031458
1318	6.5850e-01	-12.6462	-69.341064	0.000141	1.414281	0.479171	-0.011293
1319	6.5900e-01	-12.6783	-69.651613	0.000778	7.778545	2.635442	-0.062110
1320	6.5950e-01	-12.7200	-69.752440	0.000253	2.525502	0.855663	-0.020165
1321	6.6000e-01	-12.7504	-69.857301	0.000263	2.626522	0.889890	-0.020972
1322	6.6050e-01	-12.7986	-70.123485	0.000667	6.667324	2.258951	-0.053237
1323	6.6100e-01	-12.8419	-70.256578	0.000333	3.333662	1.129475	-0.026618
1324	6.6150e-01	-12.8724	-70.534861	0.000697	6.970384	2.361630	-0.055657
1325	6.6200e-01	-12.9285	-70.534861	-0.000000	-0.000000	-0.000000	0.000000
1326	6.6250e-01	-12.9590	-70.716351	0.000455	4.545903	1.540194	-0.036298
1327	6.6300e-01	-12.9991	-70.768781	0.000131	1.313261	0.444945	-0.010486
1328	6.6350e-01	-13.0392	-71.115628	0.000869	8.687725	2.943481	-0.069369
1329	6.6400e-01	-13.0841	-71.418110	0.000758	7.576505	2.566989	-0.060496
1330	6.6450e-01	-13.1130	-71.486673	0.000172	1.717341	0.581851	-0.013713
1331	6.6500e-01	-13.1451	-72.019042	0.001333	13.334648	4.517901	-0.106474
1332	6.6550e-01	-13.1884	-71.950479	-0.000172	-1.717341	-0.581851	0.013713
1333	6.6600e-01	-13.2429	-71.958545	0.000020	0.202040	0.068453	-0.001613
1334	6.6650e-01	-13.2814	-72.256995	0.000748	7.475485	2.532763	-0.059690
1335	6.6700e-01	-13.3232	-72.406219	0.000374	3.737742	1.266381	-0.029845
1336	6.6750e-01	-13.3488	-72.607874	0.000505	5.051003	1.711326	-0.040331
1337	6.6800e-01	-13.4018	-72.769198	0.000404	4.040802	1.369061	-0.032265
1338	6.6850e-01	-13.4338	-73.019250	0.000626	6.263244	2.122044	-0.050010
1339	6.6900e-01	-13.4804	-73.124111	0.000263	2.626522	0.889890	-0.020972
1340	6.6950e-01	-13.5076	-73.358030	0.000586	5.859164	1.985138	-0.046784
1341	6.7000e-01	-13.5574	-73.414494	0.000141	1.414281	0.479171	-0.011293
1342	6.7050e-01	-13.5943	-73.692778	0.000697	6.970384	2.361630	-0.055657
1343	6.7100e-01	-13.6376	-73.906532	0.000535	5.354063	1.814006	-0.042751
1344	6.7150e-01	-13.6825	-74.144485	0.000596	5.960184	2.019365	-0.047591
1345	6.7200e-01	-13.7242	-74.285643	0.000354	3.535702	1.197928	-0.028232
1346	6.7250e-01	-13.7627	-74.362272	0.000192	1.919381	0.650304	-0.015326
1347	6.7300e-01	-13.7996	-74.584092	0.000556	5.556103	1.882459	-0.044364
1348	6.7350e-01	-13.8493	-74.692986	0.000273	2.727542	0.924116	-0.021779
1349	6.7400e-01	-13.8878	-74.939005	0.000616	6.162224	2.087818	-0.049204
1350	6.7450e-01	-13.9215	-75.144693	0.000515	5.152023	1.745553	-0.041138
1351	6.7500e-01	-13.9600	-75.314083	0.000424	4.242843	1.437514	-0.033878
1352	6.7550e-01	-13.9969	-75.487507	0.000434	4.343863	1.471741	-0.034685
1353	6.7600e-01	-14.0322	-75.539937	0.000131	1.313261	0.444945	-0.010486
1354	6.7650e-01	-14.0804	-75.717393	0.000444	4.444883	1.505967	-0.035491
1355	6.7700e-01	-14.1189	-76.124736	0.001020	10.203026	3.456879	-0.081469
1356	6.7750e-01	-14.1670	-76.161034	0.000091	0.909181	0.308039	-0.007260
1357	6.7800e-01	-14.2071	-76.362689	0.000505	5.051003	1.711326	-0.040331
1358	6.7850e-01	-14.2408	-76.540145	0.000444	4.444883	1.505967	-0.035491
1359	6.7900e-01	-14.2921	-76.689370	0.000374	3.737742	1.266381	-0.029845
1360	6.7950e-01	-14.3130	-76.931356	0.000606	6.061204	2.053591	-0.048397
1361	6.8000e-01	-14.3723	-77.100746	0.000424	4.242843	1.437514	-0.033878
1362	6.8050e-01	-14.3964	-77.278202	0.000444	4.444883	1.505967	-0.035491
1363	6.8100e-01	-14.4381	-77.520188	0.000606	6.061204	2.053591	-0.048397
1364	6.8150e-01	-14.4862	-77.689578	0.000424	4.242843	1.437514	-0.033878
1365	6.8200e-01	-14.5167	-77.814604	0.000313	3.131622	1.061022	-0.025005
1366	6.8250e-01	-14.5600	-77.996094	0.000455	4.545903	1.540194	-0.036298
1367	6.8300e-01	-14.5953	-78.185650	0.000475	4.747943	1.608647	-0.037911
1368	6.8350e-01	-14.6322	-78.286477	0.000253	2.525502	0.855663	-0.020165
1369	6.8400e-01	-14.6771	-78.528463	0.000606	6.061204	2.053591	-0.048397
1370	6.8450e-01	-14.7156	-78.701886	0.000434	4.343863	1.471741	-0.034685
1371	6.8500e-01	-14.7589	-78.802714	0.000253	2.525502	0.855663	-0.020165
1372	6.8550e-01	-14.7926	-79.181825	0.000950	9.495886	3.217293	-0.075822
1373	6.8600e-01	-14.8343	-79.137461	-0.000111	-1.111221	-0.376492	0.008873
1374	6.8650e-01	-14.8825	-79.443976	0.000768	7.677525	2.601216	-0.061303
1375	6.8700e-01	-14.9146	-79.673863	0.000576	5.758144	1.950912	-0.045977
1376	6.8750e-01	-14.9563	-79.798889	0.000313	3.131622	1.061022	-0.025005
1377	6.8800e-01	-14.9980	-79.794856	-0.000010	-0.101020	-0.034227	0.000807
1378	6.8850e-01	-15.0349	-80.024742	0.000576	5.758144	1.950912	-0.045977
1379	6.8900e-01	-15.0814	-80.178000	0.000384	3.838762	1.300608	-0.030652
1380	6.8950e-01	-15.1199	-80.278828	0.000253	2.525502	0.855663	-0.020165
1381	6.9000e-01	-15.1456	-80.500648	0.000556	5.556103	1.882459	-0.044364
1382	6.9050e-01	-15.2065	-80.625674	0.000313	3.131622	1.061022	-0.025005
1383	6.9100e-01	-15.2354	-80.835395	0.000525	5.253043	1.779779	-0.041944
1384	6.9150e-01	-15.2787	-81.101580	0.000667	6.667324	2.258951	-0.053237
1385	6.9200e-01	-15.3188	-81.137878	0.000091	0.909181	0.308039	-0.007260
1386	6.9250e-01	-15.3686	-81.331466	0.000485	4.848963	1.642873	-0.038718
1387	6.9300e-01	-15.3958	-81.702511	0.000929	9.293846	3.148840	-0.074209
1388	6.9350e-01	-15.4407	-81.879968	0.000444	4.444883	1.505967	-0.035491
1389	6.9400e-01	-15.4792	-81.928365	0.000121	1.212241	0.410718	-0.009679
1390	6.9450e-01	-15.5210	-82.174384	0.000616	6.162224	2.087818	-0.049204
1391	6.9500e-01	-15.5643	-82.138086	-0.000091	-0.909181	-0.308039	0.007260
1392	6.9550e-01	-15.6028	-82.420403	0.000707	7.071404	2.395857	-0.056463
1393	6.9600e-01	-15.6381	-82.622058	0.000505	5.051003	1.711326	-0.040331
1394	6.9650e-01	-15.6798	-82.831779	0.000525	5.253043	1.779779	-0.041944
1395	6.9700e-01	-15.7151	-82.835812	0.000010	0.101020	0.034227	-0.000807
1396	6.9750e-01	-15.7712	-83.150394	0.000788	7.879565	2.669669	-0.062916
1397	6.9800e-01	-15.8065	-83.400446	0.000626	6.263244	2.122044	-0.050010
1398	6.9850e-01	-15.8370	-83.497240	0.000242	2.424481	0.821437	-0.019359
1399	6.9900e-01	-15.8819	-83.618233	0.000303	3.030602	1.026796	-0.024199
1400	6.9950e-01	-15.9236	-83.795690	0.000444	4.444883	1.505967	-0.035491
1401	7.0000e-01	-15.9589	-83.973146	0.000444	4.444883	1.505967	-0.035491
1402	7.0050e-01	-15.9958	-84.223198	0.000626	6.263244	2.122044	-0.050010
1403	7.0100e-01	-16.0375	-84.336125	0.000283	2.828562	0.958343	-0.022585
1404	7.0150e-01	-16.0744	-84.646673	0.000778	7.778545	2.635442	-0.062110
1405	7.0200e-01	-16.1177	-84.937057	0.000727	7.273444	2.464310	-0.058077
1406	7.0250e-01	-16.1530	-84.997553	0.000152	1.515301	0.513398	-0.012099
1407	7.0300e-01	-16.1931	-85.142745	0.000364	3.636722	1.232155	-0.029038
1408	7.0350e-01	-16.2396	-85.279870	0.000343	3.434682	1.163702	-0.027425
1409	7.0400e-01	-16.2733	-85.352466	0.000182	1.818361	0.616077	-0.014519
1410	7.0450e-01	-16.3183	-85.582352	0.000576	5.758144	1.950912	-0.045977
1411	7.0500e-01	-16.3584	-85.812239	0.000576	5.758144	1.950912	-0.045977
1412	7.0550e-01	-16.3969	-85.808206	-0.000010	-0.101020	-0.034227	0.000807
1413	7.0600e-01	-16.4273	-86.042126	0.000586	5.859164	1.985138	-0.046784
1414	7.0650e-01	-16.4819	-86.215549	0.000434	4.343863	1.471741	-0.034685
1415	7.0700e-01	-16.5172	-86.546263	0.000828	8.283645	2.806575	-0.066143
1416	7.0750e-01	-16.5605	-86.489800	-0.000141	-1.414281	-0.479171	0.011293
1417	7.0800e-01	-16.5974	-86.739852	0.000626	6.263244	2.122044	-0.050010
1418	7.0850e-01	-16.6359	-87.139128	0.001000	10.000986	3.388426	-0.079855
1419	7.0900e-01	-16.6824	-87.171393	0.000081	0.808160	0.273812	-0.006453
1420	7.0950e-01	-16.7225	-87.332717	0.000404	4.040802	1.369061	-0.032265
1421	7.1000e-01	-16.7658	-87.385147	0.000131	1.313261	0.444945	-0.010486
1422	7.1050e-01	-16.7979	-87.538405	0.000384	3.838762	1.300608	-0.030652
1423	7.1100e-01	-16.8444	-87.804590	0.000667	6.667324	2.258951	-0.053237
1424	7.1150e-01	-16.8781	-87.990112	0.000465	4.646923	1.574420	-0.037105
1425	7.1200e-01	-16.9118	-88.195800	0.000515	5.152023	1.745553	-0.041138
1426	7.1250e-01	-16.9632	-88.514415	0.000798	7.980585	2.703895	-0.063723
1427	7.1300e-01	-17.0049	-88.361157	-0.000384	-3.838762	-1.300608	0.030652
1428	7.1350e-01	-17.0353	-88.635408	0.000687	6.869364	2.327404	-0.054850
1429	7.1400e-01	-17.0803	-88.760434	0.000313	3.131622	1.061022	-0.025005
1430	7.1450e-01	-17.1140	-89.066950	0.000768	7.677525	2.601216	-0.061303
1431	7.1500e-01	-17.1573	-89.171810	0.000263	2.626522	0.889890	-0.020972
1432	7.1550e-01	-17.2006	-89.228273	0.000141	1.414281	0.479171	-0.011293
1433	7.1600e-01	-17.2391	-89.522690	0.000737	7.374464	2.498536	-0.058883
1434	7.1650e-01	-17.2792	-89.571087	0.000121	1.212241	0.410718	-0.009679
1435	7.1700e-01	-17.3209	-89.841304	0.000677	6.768344	2.293177	-0.054044
1436	7.1750e-01	-17.3610	-89.986496	0.000364	3.636722	1.232155	-0.029038
1437	7.1800e-01	-17.4043	-90.188151	0.000505	5.051003	1.711326	-0.040331
1438	7.1850e-01	-17.4316	-90.345442	0.000394	3.939782	1.334834	-0.031458
1439	7.1900e-01	-17.4765	-90.587428	0.000606	6.061204	2.053591	-0.048397
1440	7.1950e-01	-17.5230	-90.680189	0.000232	2.323461	0.787210	-0.018552
1441	7.2000e-01	-17.5583	-91.031069	0.000879	8.788745	2.977708	-0.070176
1442	7.2050e-01	-17.5968	-91.115764	0.000212	2.121421	0.718757	-0.016939
1443	7.2100e-01	-17.6385	-91.281121	0.000414	4.141823	1.403287	-0.033071
1444	7.2150e-01	-17.6754	-91.377915	0.000242	2.424481	0.821437	-0.019359
1445	7.2200e-01	-17.7204	-91.599735	0.000556	5.556103	1.882459	-0.044364
1446	7.2250e-01	-17.7508	-91.789291	0.000475	4.747943	1.608647	-0.037911
1447	7.2300e-01	-17.7974	-92.011112	0.000556	5.556103	1.882459	-0.044364
1448	7.2350e-01	-17.8310	-92.240998	0.000576	5.758144	1.950912	-0.045977
1449	7.2400e-01	-17.8840	-92.353925	0.000283	2.828562	0.958343	-0.022585
1450	7.2450e-01	-17.9193	-92.555580	0.000505	5.051003	1.711326	-0.040331
1451	7.2500e-01	-17.9690	-92.620109	0.000162	1.616321	0.547624	-0.012906
1452	7.2550e-01	-17.9995	-92.837897	0.000546	5.455083	1.848232	-0.043557
1453	7.2600e-01	-18.0460	-92.922592	0.000212	2.121421	0.718757	-0.016939
1454	7.2650e-01	-18.0733	-93.229107	0.000768	7.677525	2.601216	-0.061303
1455	7.2700e-01	-18.1070	-93.378332	0.000374	3.737742	1.266381	-0.029845
1456	7.2750e-01	-18.1567	-93.450928	0.000182	1.818361	0.616077	-0.014519
1457	7.2800e-01	-18.2016	-93.672748	0.000556	5.556103	1.882459	-0.044364
1458	7.2850e-01	-18.2241	-93.777609	0.000263	2.626522	0.889890	-0.020972
1459	7.2900e-01	-18.2786	-94.023628	0.000616	6.162224	2.087818	-0.049204
1460	7.2950e-01	-18.3123	-94.120422	0.000242	2.424481	0.821437	-0.019359
1461	7.3000e-01	-18.3588	-94.253514	0.000333	3.333662	1.129475	-0.026618
1462	7.3050e-01	-18.3989	-94.475335	0.000556	5.556103	1.882459	-0.044364
1463	7.3100e-01	-18.4407	-94.741519	0.000667	6.667324	2.258951	-0.053237
1464	7.3150e-01	-18.4824	-94.830247	0.000222	2.222441	0.752984	-0.017746
1465	7.3200e-01	-18.5257	-95.031902	0.000505	5.051003	1.711326	-0.040331
1466	7.3250e-01	-18.5562	-95.237590	0.000515	5.152023	1.745553	-0.041138
1467	7.3300e-01	-18.6043	-95.346484	0.000273	2.727542	0.924116	-0.021779
1468	7.3350e-01	-18.6396	-95.491676	0.000364	3.636722	1.232155	-0.029038
1469	7.3400e-01	-18.6845	-95.717529	0.000566	5.657123	1.916685	-0.045171
1470	7.3450e-01	-18.7198	-96.132938	0.001041	10.405066	3.525332	-0.083082
1471	7.3500e-01	-18.7551	-96.233766	0.000253	2.525502	0.855663	-0.020165
1472	7.3550e-01	-18.8032	-96.439454	0.000515	5.152023	1.745553	-0.041138
1473	7.3600e-01	-18.8337	-96.600778	0.000404	4.040802	1.369061	-0.032265
1474	7.3650e-01	-18.8770	-96.608844	0.000020	0.202040	0.068453	-0.001613
1475	7.3700e-01	-18.9075	-96.834697	0.000566	5.657123	1.916685	-0.045171
1476	7.3750e-01	-18.9636	-97.040385	0.000515	5.152023	1.745553	-0.041138
1477	7.3800e-01	-18.9973	-97.205743	0.000414	4.141823	1.403287	-0.033071
1478	7.3850e-01	-19.0438	-97.403364	0.000495	4.949983	1.677100	-0.039524
1479	7.3900e-01	-19.0840	-97.528390	0.000313	3.131622	1.061022	-0.025005
1480	7.3950e-01	-19.1176	-97.653416	0.000313	3.131622	1.061022	-0.025005
1481	7.4000e-01	-19.1513	-97.879270	0.000566	5.657123	1.916685	-0.045171
1482	7.4050e-01	-19.1995	-98.149488	0.000677	6.768344	2.293177	-0.054044
1483	7.4100e-01	-19.2460	-98.415672	0.000667	6.667324	2.258951	-0.053237
1484	7.4150e-01	-19.2765	-98.351143	-0.000162	-1.616321	-0.547624	0.012906
1485	7.4200e-01	-19.3214	-98.766552	0.001041	10.405066	3.525332	-0.083082
1486	7.4250e-01	-19.3551	-98.665724	-0.000253	-2.525502	-0.855663	0.020165
1487	7.4300e-01	-19.3952	-98.915776	0.000626	6.263244	2.122044	-0.050010
1488	7.4350e-01	-19.4369	-99.319086	0.001010	10.102006	3.422652	-0.080662
1489	7.4400e-01	-19.4706	-99.347318	0.000071	0.707140	0.239586	-0.005646
1490	7.4450e-01	-19.5219	-99.432013	0.000212	2.121421	0.718757	-0.016939
1491	7.4500e-01	-19.5540	-99.597370	0.000414	4.141823	1.403287	-0.033071
1492	7.4550e-01	-19.5973	-99.726429	0.000323	3.232642	1.095249	-0.025812
1493	7.4600e-01	-19.6390	-100.057143	0.000828	8.283645	2.806575	-0.066143
1494	7.4650e-01	-19.6759	-100.278964	0.000556	5.556103	1.882459	-0.044364
1495	7.4700e-01	-19.7176	-100.391890	0.000283	2.828562	0.958343	-0.022585
1496	7.4750e-01	-19.7561	-100.553214	0.000404	4.040802	1.369061	-0.032265
1497	7.4800e-01	-19.7914	-100.766969	0.000535	5.354063	1.814006	-0.042751
1498	7.4850e-01	-19.8395	-100.932326	0.000414	4.141823	1.403287	-0.033071
1499	7.4900e-01	-19.8732	-101.186411	0.000636	6.364264	2.156271	-0.050817
1500	7.4950e-01	-19.9085	-101.488893	0.000758	7.576505	2.566989	-0.060496
1501	7.5000e-01	-19.9583	-101.500993	0.000030	0.303060	0.102680	-0.002420
1502	7.5050e-01	-19.9663	-101.505026	0.000010	0.101020	0.034227	-0.000807
1503	7.5100e-01	-19.9422	-101.505026	0.000000	0.000000	0.000000	0.000000
1504	7.5150e-01	-19.8989	-101.452595	0.000131	1.313261	0.444945	0.010486
1505	7.5200e-01	-19.8588	-101.242874	0.000525	5.253043	1.779779	0.041944
1506	7.5250e-01	-19.8139	-100.992822	0.000626	6.263244	2.122044	0.050010
1507	7.5300e-01	-19.7882	-101.073484	-0.000202	-2.020401	-0.684530	-0.016132
1508	7.5350e-01	-19.7401	-100.706472	0.000919	9.192826	3.114614	0.073402
1509	7.5400e-01	-19.6984	-100.706472	0.000000	0.000000	0.000000	0.000000
1510	7.5450e-01	-19.6567	-100.823432	-0.000293	-2.929582	-0.992569	-0.023392
1511	7.5500e-01	-19.6246	-100.637909	0.000465	4.646923	1.574420	0.037105
1512	7.5550e-01	-19.5813	-100.549181	0.000222	2.222441	0.752984	0.017746
1513	7.5600e-01	-19.5444	-100.436254	0.000283	2.828562	0.958343	0.022585
1514	7.5650e-01	-19.4994	-100.355593	0.000202	2.020401	0.684530	0.016132
1515	7.5700e-01	-19.4690	-100.190235	0.000414	4.141823	1.403287	0.033071
1516	7.5750e-01	-19.4305	-100.121673	0.000172	1.717341	0.581851	0.013713
1517	7.5800e-01	-19.3839	-99.960349	0.000404	4.040802	1.369061	0.032265
1518	7.5850e-01	-19.3374	-99.589304	0.000929	9.293846	3.148840	0.074209
1519	7.5900e-01	-19.2989	-99.605436	-0.000040	-0.404080	-0.136906	-0.003226
1520	7.5950e-01	-19.2700	-99.682065	-0.000192	-1.919381	-0.650304	-0.015326
1521	7.6000e-01	-19.2171	-99.544940	0.000343	3.434682	1.163702	0.027425
1522	7.6050e-01	-19.1866	-99.282788	0.000657	6.566304	2.224724	0.052430
1523	7.6100e-01	-19.1417	-99.036769	0.000616	6.162224	2.087818	0.049204
1524	7.6150e-01	-19.1144	-98.960140	0.000192	1.919381	0.650304	0.015326
1525	7.6200e-01	-19.0679	-98.911743	0.000121	1.212241	0.410718	0.009679
1526	7.6250e-01	-19.0214	-98.903677	0.000020	0.202040	0.068453	0.001613
1527	7.6300e-01	-18.9877	-98.786717	0.000293	2.929582	0.992569	0.023392
1528	7.6350e-01	-18.9364	-98.581029	0.000515	5.152023	1.745553	0.041138
1529	7.6400e-01	-18.9075	-98.431804	0.000374	3.737742	1.266381	0.029845
1530	7.6450e-01	-18.8658	-98.367275	0.000162	1.616321	0.547624	0.012906
1531	7.6500e-01	-18.8225	-98.193852	0.000434	4.343863	1.471741	0.034685
1532	7.6550e-01	-18.7775	-98.266447	-0.000182	-1.818361	-0.616077	-0.014519
1533	7.6600e-01	-18.7455	-98.016395	0.000626	6.263244	2.122044	0.050010
1534	7.6650e-01	-18.7005	-97.806674	0.000525	5.253043	1.779779	0.041944
1535	7.6700e-01	-18.6636	-97.609052	0.000495	4.949983	1.677100	0.039524
1536	7.6750e-01	-18.6219	-97.572754	0.000091	0.909181	0.308039	0.007260
1537	7.6800e-01	-18.5818	-97.528390	0.000111	1.111221	0.376492	0.008873
1538	7.6850e-01	-18.5401	-97.342868	0.000465	4.646923	1.574420	0.037105
1539	7.6900e-01	-18.5096	-97.282371	0.000152	1.515301	0.513398	0.012099
1540	7.6950e-01	-18.4615	-97.246073	0.000091	0.909181	0.308039	0.007260
1541	7.7000e-01	-18.4262	-97.112981	0.000333	3.333662	1.129475	0.026618
1542	7.7050e-01	-18.3781	-96.806466	0.000768	7.677525	2.601216	0.061303
1543	7.7100e-01	-18.3396	-96.850830	-0.000111	-1.111221	-0.376492	-0.008873
1544	7.7150e-01	-18.3043	-96.548347	0.000758	7.576505	2.566989	0.060496
1545	7.7200e-01	-18.2626	-96.387023	0.000404	4.040802	1.369061	0.032265
1546	7.7250e-01	-18.2145	-96.306362	0.000202	2.020401	0.684530	0.016132
1547	7.7300e-01	-18.1824	-96.044210	0.000657	6.566304	2.224724	0.052430
1548	7.7350e-01	-18.1375	-95.979681	0.000162	1.616321	0.547624	0.012906
1549	7.7400e-01	-18.0974	-95.834489	0.000364	3.636722	1.232155	0.029038
1550	7.7450e-01	-18.0621	-95.677198	0.000394	3.939782	1.334834	0.031458
1551	7.7500e-01	-18.0203	-95.620735	0.000141	1.414281	0.479171	0.011293
1552	7.7550e-01	-17.9867	-95.523940	0.000242	2.424481	0.821437	0.019359
1553	7.7600e-01	-17.9449	-95.362616	0.000404	4.040802	1.369061	0.032265
1554	7.7650e-01	-17.9048	-95.197259	0.000414	4.141823	1.403287	0.033071
1555	7.7700e-01	-17.8695	-95.011737	0.000465	4.646923	1.574420	0.037105
1556	7.7750e-01	-17.8198	-94.939141	0.000182	1.818361	0.616077	0.014519
1557	7.7800e-01	-17.7845	-95.023836	-0.000212	-2.121421	-0.718757	-0.016939
1558	7.7850e-01	-17.7412	-94.781850	0.000606	6.061204	2.053591	0.048397
1559	7.7900e-01	-17.7075	-94.499533	0.000707	7.071404	2.395857	0.056463
1560	7.7950e-01	-17.6610	-94.487434	0.000030	0.303060	0.102680	0.002420
1561	7.8000e-01	-17.6241	-94.269647	0.000546	5.455083	1.848232	0.043557
1562	7.8050e-01	-17.5824	-94.140588	0.000323	3.232642	1.095249	0.025812
1563	7.8100e-01	-17.5455	-94.055893	0.000212	2.121421	0.718757	0.016939
1564	7.8150e-01	-17.4958	-93.777609	0.000697	6.970384	2.361630	0.055657
1565	7.8200e-01	-17.4797	-93.628384	0.000374	3.737742	1.266381	0.029845
1566	7.8250e-01	-17.4236	-93.584020	0.000111	1.111221	0.376492	0.008873
1567	7.8300e-01	-17.3803	-93.301703	0.000707	7.071404	2.395857	0.056463
1568	7.8350e-01	-17.3321	-93.277504	0.000061	0.606120	0.205359	0.004840
1569	7.8400e-01	-17.3097	-93.079883	0.000495	4.949983	1.677100	0.039524
1570	7.8450e-01	-17.2631	-93.011320	0.000172	1.717341	0.581851	0.013713
1571	7.8500e-01	-17.2198	-92.765301	0.000616	6.162224	2.087818	0.049204
1572	7.8550e-01	-17.1765	-92.805632	-0.000101	-1.010201	-0.342265	-0.008066
1573	7.8600e-01	-17.1476	-92.603977	0.000505	5.051003	1.711326	0.040331
1574	7.8650e-01	-17.1075	-92.406355	0.000495	4.949983	1.677100	0.039524
1575	7.8700e-01	-17.0674	-92.289395	0.000293	2.929582	0.992569	0.023392
1576	7.8750e-01	-17.0161	-92.164369	0.000313	3.131622	1.061022	0.025005
1577	7.8800e-01	-16.9824	-91.934483	0.000576	5.758144	1.950912	0.045977
1578	7.8850e-01	-16.9407	-91.926416	0.000020	0.202040	0.068453	0.001613
1579	7.8900e-01	-16.8974	-91.656199	0.000677	6.768344	2.293177	0.054044
1580	7.8950e-01	-16.8653	-91.490842	0.000414	4.141823	1.403287	0.033071
1581	7.9000e-01	-16.8172	-91.410180	0.000202	2.020401	0.684530	0.016132
1582	7.9050e-01	-16.7835	-91.277088	0.000333	3.333662	1.129475	0.026618
1583	7.9100e-01	-16.7514	-91.039135	0.000596	5.960184	2.019365	0.047591
1584	7.9150e-01	-16.7017	-90.978638	0.000152	1.515301	0.513398	0.012099
1585	7.9200e-01	-16.6584	-90.962506	0.000040	0.404080	0.136906	0.003226
1586	7.9250e-01	-16.6150	-90.869745	0.000232	2.323461	0.787210	0.018552
1587	7.9300e-01	-16.5878	-90.688255	0.000455	4.545903	1.540194	0.036298
1588	7.9350e-01	-16.5380	-90.321243	0.000919	9.192826	3.114614	0.073402
1589	7.9400e-01	-16.5027	-90.216383	0.000263	2.626522	0.889890	0.020972
1590	7.9450e-01	-16.4723	-90.030860	0.000465	4.646923	1.574420	0.037105
1591	7.9500e-01	-16.4225	-89.861470	0.000424	4.242843	1.437514	0.033878
1592	7.9550e-01	-16.3872	-89.805007	0.000141	1.414281	0.479171	0.011293
1593	7.9600e-01	-16.3391	-89.684014	0.000303	3.030602	1.026796	0.024199
1594	7.9650e-01	-16.3022	-89.518657	0.000414	4.141823	1.403287	0.033071
1595	7.9700e-01	-16.2589	-89.296836	0.000556	5.556103	1.882459	0.044364
1596	7.9750e-01	-16.2188	-89.119380	0.000444	4.444883	1.505967	0.035491
1597	7.9800e-01	-16.1723	-89.236340	-0.000293	-2.929582	-0.992569	-0.023392
1598	7.9850e-01	-16.1450	-88.816897	0.001051	10.506086	3.559558	0.083888
1599	7.9900e-01	-16.1017	-88.772533	0.000111	1.111221	0.376492	0.008873
1600	7.9950e-01	-16.0696	-88.623309	0.000374	3.737742	1.266381	0.029845
1601	8.0000e-01	-16.0279	-88.405521	0.000546	5.455083	1.848232	0.043557
1602	8.0050e-01	-15.9830	-88.312760	0.000232	2.323461	0.787210	0.018552
1603	8.0100e-01	-15.9461	-88.191767	0.000303	3.030602	1.026796	0.024199
1604	8.0150e-01	-15.9012	-88.014311	0.000444	4.444883	1.505967	0.035491
1605	8.0200e-01	-15.8707	-87.905417	0.000273	2.727542	0.924116	0.021779
1606	8.0250e-01	-15.8274	-87.715862	0.000475	4.747943	1.608647	0.037911
1607	8.0300e-01	-15.7840	-87.627133	0.000222	2.222441	0.752984	0.017746
1608	8.0350e-01	-15.7455	-87.469842	0.000394	3.939782	1.334834	0.031458
1609	8.0400e-01	-15.6990	-87.356916	0.000283	2.828562	0.958343	0.022585
1610	8.0450e-01	-15.6653	-87.042334	0.000788	7.879565	2.669669	0.062916
1611	8.0500e-01	-15.6188	-86.889076	0.000384	3.838762	1.300608	0.030652
1612	8.0550e-01	-15.5899	-86.792282	0.000242	2.424481	0.821437	0.019359
1613	8.0600e-01	-15.5434	-86.828580	-0.000091	-0.909181	-0.308039	-0.007260
1614	8.0650e-01	-15.4937	-86.630958	0.000495	4.949983	1.677100	0.039524
1615	8.0700e-01	-15.4792	-86.328476	0.000758	7.576505	2.566989	0.060496
1616	8.0750e-01	-15.4199	-86.159085	0.000424	4.242843	1.437514	0.033878
1617	8.0800e-01	-15.3798	-85.917100	0.000606	6.061204	2.053591	0.048397
1618	8.0850e-01	-15.3493	-85.751742	0.000414	4.141823	1.403287	0.033071
1619	8.0900e-01	-15.3108	-85.675114	0.000192	1.919381	0.650304	0.015326
1620	8.0950e-01	-15.2611	-85.546054	0.000323	3.232642	1.095249	0.025812
1621	8.1000e-01	-15.2242	-85.372631	0.000434	4.343863	1.471741	0.034685
1622	8.1050e-01	-15.1760	-85.412962	-0.000101	-1.010201	-0.342265	-0.008066
1623	8.1100e-01	-15.1440	-85.102414	0.000778	7.778545	2.635442	0.062110
1624	8.1150e-01	-15.0926	-85.049983	0.000131	1.313261	0.444945	0.010486
1625	8.1200e-01	-15.0654	-84.860428	0.000475	4.747943	1.608647	0.037911
1626	8.1250e-01	-15.0285	-84.691038	0.000424	4.242843	1.437514	0.033878
1627	8.1300e-01	-14.9867	-84.582144	0.000273	2.727542	0.924116	0.021779
1628	8.1350e-01	-14.9466	-84.412754	0.000424	4.242843	1.437514	0.033878
1629	8.1400e-01	-14.9033	-84.122371	0.000727	7.273444	2.464310	0.058077
1630	8.1450e-01	-14.8648	-84.033642	0.000222	2.222441	0.752984	0.017746
1631	8.1500e-01	-14.8215	-83.698895	0.000838	8.384665	2.840801	0.066949
1632	8.1550e-01	-14.7942	-83.694862	0.000010	0.101020	0.034227	0.000807
1633	8.1600e-01	-14.7445	-83.594035	0.000253	2.525502	0.855663	0.020165
1634	8.1650e-01	-14.6980	-83.557737	0.000091	0.909181	0.308039	0.007260
1635	8.1700e-01	-14.6659	-83.335916	0.000556	5.556103	1.882459	0.044364
1636	8.1750e-01	-14.6194	-83.186692	0.000374	3.737742	1.266381	0.029845
1637	8.1800e-01	-14.5761	-82.981004	0.000515	5.152023	1.745553	0.041138
1638	8.1850e-01	-14.5424	-82.884209	0.000242	2.424481	0.821437	0.019359
1639	8.1900e-01	-14.4942	-82.670455	0.000535	5.354063	1.814006	0.042751
1640	8.1950e-01	-14.4638	-82.416370	0.000636	6.364264	2.156271	0.050817
1641	8.2000e-01	-14.4253	-82.210682	0.000515	5.152023	1.745553	0.041138
1642	8.2050e-01	-14.3755	-82.178417	0.000081	0.808160	0.273812	0.006453
1643	8.2100e-01	-14.3386	-82.202616	-0.000061	-0.606120	-0.205359	-0.004840
1644	8.2150e-01	-14.3017	-81.811405	0.000980	9.798946	3.319973	0.078242
1645	8.2200e-01	-14.2648	-81.682346	0.000323	3.232642	1.095249	0.025812
1646	8.2250e-01	-14.2167	-81.460526	0.000556	5.556103	1.882459	0.044364
1647	8.2300e-01	-14.1782	-81.319367	0.000354	3.535702	1.197928	0.028232
1648	8.2350e-01	-14.1429	-81.182242	0.000343	3.434682	1.163702	0.027425
1649	8.2400e-01	-14.1012	-81.024951	0.000394	3.939782	1.334834	0.031458
1650	8.2450e-01	-14.0531	-80.899925	0.000313	3.131622	1.061022	0.025005
1651	8.2500e-01	-14.0194	-80.791031	0.000273	2.727542	0.924116	0.021779
1652	8.2550e-01	-13.9809	-80.472416	0.000798	7.980585	2.703895	0.063723
1653	8.2600e-01	-13.9424	-80.298993	0.000434	4.343863	1.471741	0.034685
1654	8.2650e-01	-13.8927	-80.169934	0.000323	3.232642	1.095249	0.025812
1655	8.2700e-01	-13.8606	-80.061040	0.000273	2.727542	0.924116	0.021779
1656	8.2750e-01	-13.8205	-79.859385	0.000505	5.051003	1.711326	0.040331
1657	8.2800e-01	-13.7788	-79.706128	0.000384	3.838762	1.300608	0.030652
1658	8.2850e-01	-13.7483	-79.448009	0.000647	6.465284	2.190497	0.051624
1659	8.2900e-01	-13.7001	-79.391546	0.000141	1.414281	0.479171	0.011293
1660	8.2950e-01	-13.6633	-79.347182	0.000111	1.111221	0.376492	0.008873
1661	8.3000e-01	-13.6199	-78.976137	0.000929	9.293846	3.148840	0.074209
1662	8.3050e-01	-13.5814	-79.040666	-0.000162	-1.616321	-0.547624	-0.012906
1663	8.3100e-01	-13.5349	-78.730118	0.000778	7.778545	2.635442	0.062110
1664	8.3150e-01	-13.5028	-78.649456	0.000202	2.020401	0.684530	0.016132
1665	8.3200e-01	-13.4659	-78.447801	0.000505	5.051003	1.711326	0.040331
1666	8.3250e-01	-13.4146	-78.250179	0.000495	4.949983	1.677100	0.039524
1667	8.3300e-01	-13.3825	-78.193716	0.000141	1.414281	0.479171	0.011293
1668	8.3350e-01	-13.3440	-77.838803	0.000889	8.889765	3.011934	0.070983
1669	8.3400e-01	-13.2991	-78.028359	-0.000475	-4.747943	-1.608647	-0.037911
1670	8.3450e-01	-13.2622	-77.871068	0.000394	3.939782	1.334834	0.031458
1671	8.3500e-01	-13.2173	-77.524221	0.000869	8.687725	2.943481	0.069369
1672	8.3550e-01	-13.1788	-77.431460	0.000232	2.323461	0.787210	0.018552
1673	8.3600e-01	-13.1531	-77.112845	0.000798	7.980585	2.703895	0.063723
1674	8.3650e-01	-13.1082	-76.995885	0.000293	2.929582	0.992569	0.023392
1675	8.3700e-01	-13.0585	-76.782131	0.000535	5.354063	1.814006	0.042751
1676	8.3750e-01	-13.0232	-76.697436	0.000212	2.121421	0.718757	0.016939
1677	8.3800e-01	-12.9782	-76.568377	0.000323	3.232642	1.095249	0.025812
1678	8.3850e-01	-12.9446	-76.350590	0.000546	5.455083	1.848232	0.043557
1679	8.3900e-01	-12.9028	-75.947280	0.001010	10.102006	3.422652	0.080662
1680	8.3950e-01	-12.8611	-76.015842	-0.000172	-1.717341	-0.581851	-0.013713
1681	8.4000e-01	-12.8242	-75.878717	0.000343	3.434682	1.163702	0.027425
1682	8.4050e-01	-12.7841	-75.584301	0.000737	7.374464	2.498536	0.058883
1683	8.4100e-01	-12.7392	-75.463308	0.000303	3.030602	1.026796	0.024199
1684	8.4150e-01	-12.6975	-75.233421	0.000576	5.758144	1.950912	0.045977
1685	8.4200e-01	-12.6750	-75.281819	-0.000121	-1.212241	-0.410718	-0.009679
1686	8.4250e-01	-12.6221	-75.108395	0.000434	4.343863	1.471741	0.034685
1687	8.4300e-01	-12.5868	-75.011601	0.000242	2.424481	0.821437	0.019359
1688	8.4350e-01	-12.5467	-74.624423	0.000970	9.697926	3.285746	0.077435
1689	8.4400e-01	-12.5018	-74.491331	0.000333	3.333662	1.129475	0.026618
1690	8.4450e-01	-12.4649	-74.467133	0.000061	0.606120	0.205359	0.004840
1691	8.4500e-01	-12.4216	-74.382438	0.000212	2.121421	0.718757	0.016939
1692	8.4550e-01	-12.3815	-73.902499	0.001202	12.021387	4.072956	0.095988
1693	8.4600e-01	-12.3398	-73.938797	-0.000091	-0.909181	-0.308039	-0.007260
1694	8.4650e-01	-12.2997	-73.733109	0.000515	5.152023	1.745553	0.041138
1695	8.4700e-01	-12.2595	-73.551619	0.000455	4.545903	1.540194	0.036298
1696	8.4750e-01	-12.2291	-73.349964	0.000505	5.051003	1.711326	0.040331
1697	8.4800e-01	-12.1825	-73.180574	0.000424	4.242843	1.437514	0.033878
1698	8.4850e-01	-12.1505	-72.982952	0.000495	4.949983	1.677100	0.039524
1699	8.4900e-01	-12.1023	-72.986985	-0.000010	-0.101020	-0.034227	-0.000807
1700	8.4950e-01	-12.0654	-72.692569	0.000737	7.374464	2.498536	0.058883
1701	8.5000e-01	-12.0173	-72.579642	0.000283	2.828562	0.958343	0.022585
1702	8.5050e-01	-11.9884	-72.369921	0.000525	5.253043	1.779779	0.041944
1703	8.5100e-01	-11.9387	-72.204564	0.000414	4.141823	1.403287	0.033071
1704	8.5150e-01	-11.9034	-72.083571	0.000303	3.030602	1.026796	0.024199
1705	8.5200e-01	-11.8617	-71.865784	0.000546	5.455083	1.848232	0.043557
1706	8.5250e-01	-11.8232	-71.736725	0.000323	3.232642	1.095249	0.025812
1707	8.5300e-01	-11.7879	-71.539103	0.000495	4.949983	1.677100	0.039524
1708	8.5350e-01	-11.7366	-71.458441	0.000202	2.020401	0.684530	0.016132
1709	8.5400e-01	-11.7013	-71.272918	0.000465	4.646923	1.574420	0.037105
1710	8.5450e-01	-11.6580	-71.059164	0.000535	5.354063	1.814006	0.042751
1711	8.5500e-01	-11.6146	-70.889774	0.000424	4.242843	1.437514	0.033878
1712	8.5550e-01	-11.5842	-70.546961	0.000859	8.586705	2.909254	0.068563
1713	8.5600e-01	-11.5473	-70.409835	0.000343	3.434682	1.163702	0.027425
1714	8.5650e-01	-11.4959	-70.345306	0.000162	1.616321	0.547624	0.012906
1715	8.5700e-01	-11.4622	-70.046857	0.000748	7.475485	2.532763	0.059690
1716	8.5750e-01	-11.4221	-69.881499	0.000414	4.141823	1.403287	0.033071
1717	8.5800e-01	-11.3917	-69.679845	0.000505	5.051003	1.711326	0.040331
1718	8.5850e-01	-11.3435	-69.458024	0.000556	5.556103	1.882459	0.044364
1719	8.5900e-01	-11.3082	-69.361230	0.000242	2.424481	0.821437	0.019359
1720	8.5950e-01	-11.2617	-69.381395	-0.000051	-0.505100	-0.171133	-0.004033
1721	8.6000e-01	-11.2248	-69.175707	0.000515	5.152023	1.745553	0.041138
1722	8.6050e-01	-11.1831	-68.925655	0.000626	6.263244	2.122044	0.050010
1723	8.6100e-01	-11.1398	-68.756265	0.000424	4.242843	1.437514	0.033878
1724	8.6150e-01	-11.1029	-68.546544	0.000525	5.253043	1.779779	0.041944
1725	8.6200e-01	-11.0612	-68.437650	0.000273	2.727542	0.924116	0.021779
1726	8.6250e-01	-11.0291	-68.227929	0.000525	5.253043	1.779779	0.041944
1727	8.6300e-01	-10.9810	-68.115002	0.000283	2.828562	0.958343	0.022585
1728	8.6350e-01	-10.9409	-67.885116	0.000576	5.758144	1.950912	0.045977
1729	8.6400e-01	-10.9104	-67.570534	0.000788	7.879565	2.669669	0.062916
1730	8.6450e-01	-10.8687	-67.610865	-0.000101	-1.010201	-0.342265	-0.008066
1731	8.6500e-01	-10.8254	-67.501971	0.000273	2.727542	0.924116	0.021779
1732	8.6550e-01	-10.7788	-67.219654	0.000707	7.071404	2.395857	0.056463
1733	8.6600e-01	-10.7452	-67.042198	0.000444	4.444883	1.505967	0.035491
1734	8.6650e-01	-10.7002	-66.913139	0.000323	3.232642	1.095249	0.025812
1735	8.6700e-01	-10.6569	-66.683252	0.000576	5.758144	1.950912	0.045977
1736	8.6750e-01	-10.6152	-66.659054	0.000061	0.606120	0.205359	0.004840
1737	8.6800e-01	-10.5767	-66.316240	0.000859	8.586705	2.909254	0.068563
1738	8.6850e-01	-10.5446	-66.195247	0.000303	3.030602	1.026796	0.024199
1739	8.6900e-01	-10.4965	-66.122652	0.000182	1.818361	0.616077	0.014519
1740	8.6950e-01	-10.4676	-65.723375	0.001000	10.000986	3.388426	0.079855
1741	8.7000e-01	-10.4227	-65.666911	0.000141	1.414281	0.479171	0.011293
1742	8.7050e-01	-10.3682	-65.404760	0.000657	6.566304	2.224724	0.052430
1743	8.7100e-01	-10.3457	-65.267635	0.000343	3.434682	1.163702	0.027425
1744	8.7150e-01	-10.3104	-65.102278	0.000414	4.141823	1.403287	0.033071
1745	8.7200e-01	-10.2639	-64.888523	0.000535	5.354063	1.814006	0.042751
1746	8.7250e-01	-10.2238	-64.755431	0.000333	3.333662	1.129475	0.026618
1747	8.7300e-01	-10.1917	-64.537644	0.000546	5.455083	1.848232	0.043557
1748	8.7350e-01	-10.1404	-64.255327	0.000707	7.071404	2.395857	0.056463
1749	8.7400e-01	-10.1035	-64.021407	0.000586	5.859164	1.985138	0.046784
1750	8.7450e-01	-10.0601	-63.952845	0.000172	1.717341	0.581851	0.013713
1751	8.7500e-01	-10.0184	-63.722958	0.000576	5.758144	1.950912	0.045977
1752	8.7550e-01	-9.9767	-63.626164	0.000242	2.424481	0.821437	0.019359
1753	8.7600e-01	-9.9366	-63.287383	0.000849	8.485685	2.875028	0.067756
1754	8.7650e-01	-9.9061	-63.243019	0.000111	1.111221	0.376492	0.008873
1755	8.7700e-01	-9.8644	-63.013133	0.000576	5.758144	1.950912	0.045977
1756	8.7750e-01	-9.8275	-62.791312	0.000556	5.556103	1.882459	0.044364
1757	8.7800e-01	-9.7858	-62.541260	0.000626	6.263244	2.122044	0.050010
1758	8.7850e-01	-9.7441	-62.448499	0.000232	2.323461	0.787210	0.018552
1759	8.7900e-01	-9.7024	-62.323473	0.000313	3.131622	1.061022	0.025005
1760	8.7950e-01	-9.6623	-62.081487	0.000606	6.061204	2.053591	0.048397
1761	8.8000e-01	-9.6270	-61.827402	0.000636	6.364264	2.156271	0.050817
1762	8.8050e-01	-9.5821	-61.637846	0.000475	4.747943	1.608647	0.037911
1763	8.8100e-01	-9.5404	-61.569283	0.000172	1.717341	0.581851	0.013713
1764	8.8150e-01	-9.5035	-61.504754	0.000162	1.616321	0.547624	0.012906
1765	8.8200e-01	-9.4634	-61.307132	0.000495	4.949983	1.677100	0.039524
1766	8.8250e-01	-9.4281	-61.194205	0.000283	2.828562	0.958343	0.022585
1767	8.8300e-01	-9.3848	-61.069179	0.000313	3.131622	1.061022	0.025005
1768	8.8350e-01	-9.3382	-60.855425	0.000535	5.354063	1.814006	0.042751
1769	8.8400e-01	-9.3046	-60.524711	0.000828	8.283645	2.806575	0.066143
1770	8.8450e-01	-9.2580	-60.435983	0.000222	2.222441	0.752984	0.017746
1771	8.8500e-01	-9.2195	-60.290791	0.000364	3.636722	1.232155	0.029038
1772	8.8550e-01	-9.1810	-59.968143	0.000808	8.081605	2.738122	0.064530
1773	8.8600e-01	-9.1409	-59.754389	0.000535	5.354063	1.814006	0.042751
1774	8.8650e-01	-9.0992	-59.488204	0.000667	6.667324	2.258951	0.053237
1775	8.8700e-01	-9.0687	-59.447873	0.000101	1.010201	0.342265	0.008066
1776	8.8750e-01	-9.0334	-59.379311	0.000172	1.717341	0.581851	0.013713
1777	8.8800e-01	-8.9805	-59.193788	0.000465	4.646923	1.574420	0.037105
1778	8.8850e-01	-8.9372	-58.996166	0.000495	4.949983	1.677100	0.039524
1779	8.8900e-01	-8.9003	-58.661419	0.000838	8.384665	2.840801	0.066949
1780	8.8950e-01	-8.8618	-58.560592	0.000253	2.525502	0.855663	0.020165
1781	8.9000e-01	-8.8265	-58.161315	0.001000	10.000986	3.388426	0.079855
1782	8.9050e-01	-8.7832	-57.991925	0.000424	4.242843	1.437514	0.033878
1783	8.9100e-01	-8.7399	-58.064521	-0.000182	-1.818361	-0.616077	-0.014519
1784	8.9150e-01	-8.7062	-57.778171	0.000717	7.172424	2.430083	0.057270
1785	8.9200e-01	-8.6629	-57.520052	0.000647	6.465284	2.190497	0.051624
1786	8.9250e-01	-8.6244	-57.467622	0.000131	1.313261	0.444945	0.010486
1787	8.9300e-01	-8.5826	-57.225636	0.000606	6.061204	2.053591	0.048397
1788	8.9350e-01	-8.5425	-57.068345	0.000394	3.939782	1.334834	0.031458
1789	8.9400e-01	-8.5024	-56.915087	0.000384	3.838762	1.300608	0.030652
1790	8.9450e-01	-8.4527	-56.765863	0.000374	3.737742	1.266381	0.029845
1791	8.9500e-01	-8.4126	-56.487579	0.000697	6.970384	2.361630	0.055657
1792	8.9550e-01	-8.3773	-56.217361	0.000677	6.768344	2.293177	0.054044
1793	8.9600e-01	-8.3388	-56.152832	0.000162	1.616321	0.547624	0.012906
1794	8.9650e-01	-8.3019	-55.846316	0.000768	7.677525	2.601216	0.061303
1795	8.9700e-01	-8.2618	-55.580132	0.000667	6.667324	2.258951	0.053237
1796	8.9750e-01	-8.2233	-55.507536	0.000182	1.818361	0.616077	0.014519
1797	8.9800e-01	-8.1880	-55.382510	0.000313	3.131622	1.061022	0.025005
1798	8.9850e-01	-8.1431	-55.196987	0.000465	4.646923	1.574420	0.037105
1799	8.9900e-01	-8.0998	-54.950968	0.000616	6.162224	2.087818	0.049204
1800	8.9950e-01	-8.0549	-54.725115	0.000566	5.657123	1.916685	0.045171
1801	9.0000e-01	-8.0244	-54.604122	0.000303	3.030602	1.026796	0.024199
1802	9.0050e-01	-7.9827	-54.341971	0.000657	6.566304	2.224724	0.052430
1803	9.0100e-01	-7.9458	-54.031422	0.000778	7.778545	2.635442	0.062110
1804	9.0150e-01	-7.9041	-54.116117	-0.000212	-2.121421	-0.718757	-0.016939
1805	9.0200e-01	-7.8704	-53.942694	0.000434	4.343863	1.471741	0.034685
1806	9.0250e-01	-7.8222	-53.563583	0.000950	9.495886	3.217293	0.075822
1807	9.0300e-01	-7.7821	-53.309497	0.000636	6.364264	2.156271	0.050817
1808	9.0350e-01	-7.7372	-53.269166	0.000101	1.010201	0.342265	0.008066
1809	9.0400e-01	-7.7019	-53.152206	0.000293	2.929582	0.992569	0.023392
1810	9.0450e-01	-7.6666	-52.873923	0.000697	6.970384	2.361630	0.055657
1811	9.0500e-01	-7.6281	-52.579506	0.000737	7.374464	2.498536	0.058883
1812	9.0550e-01	-7.5768	-52.426249	0.000384	3.838762	1.300608	0.030652
1813	9.0600e-01	-7.5447	-52.293156	0.000333	3.333662	1.129475	0.026618
1814	9.0650e-01	-7.4982	-52.135866	0.000394	3.939782	1.334834	0.031458
1815	9.0700e-01	-7.4677	-52.018906	0.000293	2.929582	0.992569	0.023392
1816	9.0750e-01	-7.4228	-51.752721	0.000667	6.667324	2.258951	0.053237
1817	9.0800e-01	-7.3747	-51.583331	0.000424	4.242843	1.437514	0.033878
1818	9.0850e-01	-7.3362	-51.232452	0.000879	8.788745	2.977708	0.070176
1819	9.0900e-01	-7.2944	-51.123558	0.000273	2.727542	0.924116	0.021779
1820	9.0950e-01	-7.2543	-50.962234	0.000404	4.040802	1.369061	0.032265
1821	9.1000e-01	-7.2174	-50.917870	0.000111	1.111221	0.376492	0.008873
1822	9.1050e-01	-7.1757	-50.566990	0.000879	8.788745	2.977708	0.070176
1823	9.1100e-01	-7.1420	-50.329037	0.000596	5.960184	2.019365	0.047591
1824	9.1150e-01	-7.1116	-50.163680	0.000414	4.141823	1.403287	0.033071
1825	9.1200e-01	-7.0634	-49.861198	0.000758	7.576505	2.566989	0.060496
1826	9.1250e-01	-7.0185	-49.857165	0.000010	0.101020	0.034227	0.000807
1827	9.1300e-01	-6.9880	-49.510318	0.000869	8.687725	2.943481	0.069369
1828	9.1350e-01	-6.9447	-49.469987	0.000101	1.010201	0.342265	0.008066
1829	9.1400e-01	-6.9062	-49.203803	0.000667	6.667324	2.258951	0.053237
1830	9.1450e-01	-6.8645	-49.070711	0.000333	3.333662	1.129475	0.026618
1831	9.1500e-01	-6.8196	-48.667401	0.001010	10.102006	3.422652	0.080662
1832	9.1550e-01	-6.7779	-48.651268	0.000040	0.404080	0.136906	0.003226
1833	9.1600e-01	-6.7490	-48.385084	0.000667	6.667324	2.258951	0.053237
1834	9.1650e-01	-6.6993	-48.147131	0.000596	5.960184	2.019365	0.047591
1835	9.1700e-01	-6.6608	-48.058403	0.000222	2.222441	0.752984	0.017746
1836	9.1750e-01	-6.6191	-47.909178	0.000374	3.737742	1.266381	0.029845
1837	9.1800e-01	-6.5838	-47.711556	0.000495	4.949983	1.677100	0.039524
1838	9.1850e-01	-6.5292	-47.530067	0.000455	4.545903	1.540194	0.036298
1839	9.1900e-01	-6.5052	-47.255816	0.000687	6.869364	2.327404	0.054850
1840	9.1950e-01	-6.4651	-46.884771	0.000929	9.293846	3.148840	0.074209
1841	9.2000e-01	-6.4217	-46.779911	0.000263	2.626522	0.889890	0.020972
1842	9.2050e-01	-6.3897	-46.731514	0.000121	1.212241	0.410718	0.009679
1843	9.2100e-01	-6.3479	-46.396766	0.000838	8.384665	2.840801	0.066949
1844	9.2150e-01	-6.3078	-46.275773	0.000303	3.030602	1.026796	0.024199
1845	9.2200e-01	-6.2677	-46.017655	0.000647	6.465284	2.190497	0.051624
1846	9.2250e-01	-6.2228	-45.864397	0.000384	3.838762	1.300608	0.030652
1847	9.2300e-01	-6.1939	-45.755504	0.000273	2.727542	0.924116	0.021779
1848	9.2350e-01	-6.1538	-45.400591	0.000889	8.889765	3.011934	0.070983
1849	9.2400e-01	-6.1073	-45.178771	0.000556	5.556103	1.882459	0.044364
1850	9.2450e-01	-6.0704	-45.021480	0.000394	3.939782	1.334834	0.031458
1851	9.2500e-01	-6.0207	-44.775461	0.000616	6.162224	2.087818	0.049204
1852	9.2550e-01	-5.9790	-44.537508	0.000596	5.960184	2.019365	0.047591
1853	9.2600e-01	-5.9373	-44.565740	-0.000071	-0.707140	-0.239586	-0.005646
1854	9.2650e-01	-5.9052	-44.291489	0.000687	6.869364	2.327404	0.054850
1855	9.2700e-01	-5.8635	-44.041437	0.000626	6.263244	2.122044	0.050010
1856	9.2750e-01	-5.8250	-43.783318	0.000647	6.465284	2.190497	0.051624
1857	9.2800e-01	-5.7801	-43.799451	-0.000040	-0.404080	-0.136906	-0.003226
1858	9.2850e-01	-5.7432	-43.666359	0.000333	3.333662	1.129475	0.026618
1859	9.2900e-01	-5.7014	-43.388075	0.000697	6.970384	2.361630	0.055657
1860	9.2950e-01	-5.6629	-43.178354	0.000525	5.253043	1.779779	0.041944
1861	9.3000e-01	-5.6293	-42.932335	0.000616	6.162224	2.087818	0.049204
1862	9.3050e-01	-5.5827	-42.682283	0.000626	6.263244	2.122044	0.050010
1863	9.3100e-01	-5.5378	-42.416098	0.000667	6.667324	2.258951	0.053237
1864	9.3150e-01	-5.5025	-42.190244	0.000566	5.657123	1.916685	0.045171
1865	9.3200e-01	-5.4640	-42.053119	0.000343	3.434682	1.163702	0.027425
1866	9.3250e-01	-5.4175	-41.774835	0.000697	6.970384	2.361630	0.055657
1867	9.3300e-01	-5.3822	-41.686107	0.000222	2.222441	0.752984	0.017746
1868	9.3350e-01	-5.3517	-41.520750	0.000414	4.141823	1.403287	0.033071
1869	9.3400e-01	-5.3068	-41.391691	0.000323	3.232642	1.095249	0.025812
1870	9.3450e-01	-5.2603	-41.081142	0.000778	7.778545	2.635442	0.062110
1871	9.3500e-01	-5.2170	-40.839156	0.000606	6.061204	2.053591	0.048397
1872	9.3550e-01	-5.1849	-40.633468	0.000515	5.152023	1.745553	0.041138
1873	9.3600e-01	-5.1480	-40.500376	0.000333	3.333662	1.129475	0.026618
1874	9.3650e-01	-5.1015	-40.230159	0.000677	6.768344	2.293177	0.054044
1875	9.3700e-01	-5.0694	-40.129331	0.000253	2.525502	0.855663	0.020165
1876	9.3750e-01	-5.0180	-39.754253	0.000939	9.394866	3.183067	0.075016
1877	9.3800e-01	-4.9860	-39.617128	0.000343	3.434682	1.163702	0.027425
1878	9.3850e-01	-4.9426	-39.338844	0.000697	6.970384	2.361630	0.055657
1879	9.3900e-01	-4.9025	-39.092825	0.000616	6.162224	2.087818	0.049204
1880	9.3950e-01	-4.8624	-38.915368	0.000444	4.444883	1.505967	0.035491
1881	9.4000e-01	-4.8143	-38.850839	0.000162	1.616321	0.547624	0.012906
1882	9.4050e-01	-4.7886	-38.693548	0.000394	3.939782	1.334834	0.031458
1883	9.4100e-01	-4.7501	-38.278139	0.001041	10.405066	3.525332	0.083082
1884	9.4150e-01	-4.6988	-38.213609	0.000162	1.616321	0.547624	0.012906
1885	9.4200e-01	-4.6603	-37.983723	0.000576	5.758144	1.950912	0.045977
1886	9.4250e-01	-4.6250	-37.729637	0.000636	6.364264	2.156271	0.050817
1887	9.4300e-01	-4.5785	-37.624777	0.000263	2.626522	0.889890	0.020972
1888	9.4350e-01	-4.5400	-37.281963	0.000859	8.586705	2.909254	0.068563
1889	9.4400e-01	-4.5047	-37.072242	0.000525	5.253043	1.779779	0.041944
1890	9.4450e-01	-4.4678	-36.846389	0.000566	5.657123	1.916685	0.045171
1891	9.4500e-01	-4.4245	-36.681032	0.000414	4.141823	1.403287	0.033071
1892	9.4550e-01	-4.3924	-36.551973	0.000323	3.232642	1.095249	0.025812
1893	9.4600e-01	-4.3362	-36.229325	0.000808	8.081605	2.738122	0.064530
1894	9.4650e-01	-4.3122	-35.987339	0.000606	6.061204	2.053591	0.048397
1895	9.4700e-01	-4.2705	-35.902644	0.000212	2.121421	0.718757	0.016939
1896	9.4750e-01	-4.2304	-35.547731	0.000889	8.889765	3.011934	0.070983
1897	9.4800e-01	-4.1870	-35.370275	0.000444	4.444883	1.505967	0.035491
1898	9.4850e-01	-4.1405	-35.249282	0.000303	3.030602	1.026796	0.024199
1899	9.4900e-01	-4.1036	-35.124256	0.000313	3.131622	1.061022	0.025005
1900	9.4950e-01	-4.0619	-34.946799	0.000444	4.444883	1.505967	0.035491
1901	9.5000e-01	-4.0218	-34.571721	0.000939	9.394866	3.183067	0.075016
1902	9.5050e-01	-3.9817	-34.374099	0.000495	4.949983	1.677100	0.039524
1903	9.5100e-01	-3.9464	-33.986922	0.000970	9.697926	3.285746	0.077435
1904	9.5150e-01	-3.9095	-33.982889	0.000010	0.101020	0.034227	0.000807
1905	9.5200e-01	-3.8550	-33.817532	0.000414	4.141823	1.403287	0.033071
1906	9.5250e-01	-3.8245	-33.636042	0.000455	4.545903	1.540194	0.036298
1907	9.5300e-01	-3.7876	-33.345659	0.000727	7.273444	2.464310	0.058077
1908	9.5350e-01	-3.7491	-33.156104	0.000475	4.747943	1.608647	0.037911
1909	9.5400e-01	-3.6994	-32.918151	0.000596	5.960184	2.019365	0.047591
1910	9.5450e-01	-3.6609	-32.781025	0.000343	3.434682	1.163702	0.027425
1911	9.5500e-01	-3.6272	-32.422080	0.000899	8.990785	3.046161	0.071789
1912	9.5550e-01	-3.5823	-32.309153	0.000283	2.828562	0.958343	0.022585
1913	9.5600e-01	-3.5357	-32.119597	0.000475	4.747943	1.608647	0.037911
1914	9.5650e-01	-3.5036	-31.958273	0.000404	4.040802	1.369061	0.032265
1915	9.5700e-01	-3.4619	-31.788883	0.000424	4.242843	1.437514	0.033878
1916	9.5750e-01	-3.4234	-31.450103	0.000849	8.485685	2.875028	0.067756
1917	9.5800e-01	-3.3865	-31.321044	0.000323	3.232642	1.095249	0.025812
1918	9.5850e-01	-3.3480	-31.038727	0.000707	7.071404	2.395857	0.056463
1919	9.5900e-01	-3.3031	-30.760443	0.000697	6.970384	2.361630	0.055657
1920	9.5950e-01	-3.2614	-30.639450	0.000303	3.030602	1.026796	0.024199
1921	9.6000e-01	-3.2229	-30.211942	0.001071	10.708127	3.628011	0.085502
1922	9.6050e-01	-3.1764	-30.034485	0.000444	4.444883	1.505967	0.035491
1923	9.6100e-01	-3.1491	-29.861062	0.000434	4.343863	1.471741	0.034685
1924	9.6150e-01	-3.0994	-29.627142	0.000586	5.859164	1.985138	0.046784
1925	9.6200e-01	-3.0641	-29.421454	0.000515	5.152023	1.745553	0.041138
1926	9.6250e-01	-3.0288	-29.203667	0.000546	5.455083	1.848232	0.043557
1927	9.6300e-01	-2.9775	-29.175435	0.000071	0.707140	0.239586	0.005646
1928	9.6350e-01	-2.9309	-28.893118	0.000707	7.071404	2.395857	0.056463
1929	9.6400e-01	-2.9037	-28.824556	0.000172	1.717341	0.581851	0.013713
1930	9.6450e-01	-2.8668	-28.651132	0.000434	4.343863	1.471741	0.034685
1931	9.6500e-01	-2.8170	-28.489809	0.000404	4.040802	1.369061	0.032265
1932	9.6550e-01	-2.7882	-28.155061	0.000838	8.384665	2.840801	0.066949
1933	9.6600e-01	-2.7416	-27.913075	0.000606	6.061204	2.053591	0.048397
1934	9.6650e-01	-2.7031	-27.699321	0.000535	5.354063	1.814006	0.042751
1935	9.6700e-01	-2.6630	-27.453302	0.000616	6.162224	2.087818	0.049204
1936	9.6750e-01	-2.6261	-27.179051	0.000687	6.869364	2.327404	0.054850
1937	9.6800e-01	-2.5828	-26.997562	0.000455	4.545903	1.540194	0.036298
1938	9.6850e-01	-2.5427	-26.775742	0.000556	5.556103	1.882459	0.044364
1939	9.6900e-01	-2.5026	-26.481325	0.000737	7.374464	2.498536	0.058883
1940	9.6950e-01	-2.4593	-26.412763	0.000172	1.717341	0.581851	0.013713
1941	9.7000e-01	-2.4288	-26.154644	0.000647	6.465284	2.190497	0.051624
1942	9.7050e-01	-2.3775	-25.928791	0.000566	5.657123	1.916685	0.045171
1943	9.7100e-01	-2.3406	-25.594044	0.000838	8.384665	2.840801	0.066949
1944	9.7150e-01	-2.3037	-25.436753	0.000394	3.939782	1.334834	0.031458
1945	9.7200e-01	-2.2588	-25.247197	0.000475	4.747943	1.608647	0.037911
1946	9.7250e-01	-2.2235	-24.956814	0.000727	7.273444	2.464310	0.058077
1947	9.7300e-01	-2.1834	-24.779358	0.000444	4.444883	1.505967	0.035491
1948	9.7350e-01	-2.1433	-24.593835	0.000465	4.646923	1.574420	0.037105
1949	9.7400e-01	-2.1015	-24.311518	0.000707	7.071404	2.395857	0.056463
1950	9.7450e-01	-2.0711	-24.109863	0.000505	5.051003	1.711326	0.040331
1951	9.7500e-01	-2.0197	-23.815447	0.000737	7.374464	2.498536	0.058883
1952	9.7550e-01	-1.9764	-23.823513	-0.000020	-0.202040	-0.068453	-0.001613
1953	9.7600e-01	-1.9459	-23.512965	0.000778	7.778545	2.635442	0.062110
1954	9.7650e-01	-1.9058	-23.170151	0.000859	8.586705	2.909254	0.068563
1955	9.7700e-01	-1.8657	-22.992695	0.000444	4.444883	1.505967	0.035491
1956	9.7750e-01	-1.8208	-22.766842	0.000566	5.657123	1.916685	0.045171
1957	9.7800e-01	-1.7791	-22.553087	0.000535	5.354063	1.814006	0.042751
1958	9.7850e-01	-1.7358	-22.403863	0.000374	3.737742	1.266381	0.029845
1959	9.7900e-01	-1.7101	-22.173976	0.000576	5.758144	1.950912	0.045977
1960	9.7950e-01	-1.6588	-21.956189	0.000546	5.455083	1.848232	0.043557
1961	9.8000e-01	-1.6251	-21.778732	0.000444	4.444883	1.505967	0.035491
1962	9.8050e-01	-1.5882	-21.452051	0.000818	8.182625	2.772348	0.065336
1963	9.8100e-01	-1.5385	-21.339125	0.000283	2.828562	0.958343	0.022585
1964	9.8150e-01	-1.5096	-21.121337	0.000546	5.455083	1.848232	0.043557
1965	9.8200e-01	-1.4631	-20.843054	0.000697	6.970384	2.361630	0.055657
1966	9.8250e-01	-1.4181	-20.532505	0.000778	7.778545	2.635442	0.062110
1967	9.8300e-01	-1.3861	-20.371181	0.000404	4.040802	1.369061	0.032265
1968	9.8350e-01	-1.3379	-20.096930	0.000687	6.869364	2.327404	0.054850
1969	9.8400e-01	-1.3010	-19.935606	0.000404	4.040802	1.369061	0.032265
1970	9.8450e-01	-1.2625	-19.790415	0.000364	3.636722	1.232155	0.029038
1971	9.8500e-01	-1.2144	-19.467767	0.000808	8.081605	2.738122	0.064530
1972	9.8550e-01	-1.1807	-19.161251	0.000768	7.677525	2.601216	0.061303
1973	9.8600e-01	-1.1310	-19.108821	0.000131	1.313261	0.444945	0.010486
1974	9.8650e-01	-1.1101	-18.935398	0.000434	4.343863	1.471741	0.034685
1975	9.8700e-01	-1.0668	-18.612750	0.000808	8.081605	2.738122	0.064530
1976	9.8750e-01	-1.0235	-18.419161	0.000485	4.848963	1.642873	0.038718
1977	9.8800e-01	-0.9850	-18.161043	0.000647	6.465284	2.190497	0.051624
1978	9.8850e-01	-0.9385	-18.031984	0.000323	3.232642	1.095249	0.025812
1979	9.8900e-01	-0.9112	-17.721435	0.000778	7.778545	2.635442	0.062110
1980	9.8950e-01	-0.8679	-17.572211	0.000374	3.737742	1.266381	0.029845
1981	9.9000e-01	-0.8166	-17.237463	0.000838	8.384665	2.840801	0.066949
1982	9.9050e-01	-0.7861	-17.051941	0.000465	4.646923	1.574420	0.037105
1983	9.9100e-01	-0.7396	-16.951113	0.000253	2.525502	0.855663	0.020165
1984	9.9150e-01	-0.7010	-16.612333	0.000849	8.485685	2.875028	0.067756
1985	9.9200e-01	-0.6561	-16.527638	0.000212	2.121421	0.718757	0.016939
1986	9.9250e-01	-0.6128	-16.096097	0.001081	10.809147	3.662238	0.086308
1987	9.9300e-01	-0.5855	-15.785548	0.000778	7.778545	2.635442	0.062110
1988	9.9350e-01	-0.5454	-15.708919	0.000192	1.919381	0.650304	0.015326
1989	9.9400e-01	-0.5085	-15.434668	0.000687	6.869364	2.327404	0.054850
1990	9.9450e-01	-0.4668	-15.164451	0.000677	6.768344	2.293177	0.054044
1991	9.9500e-01	-0.4219	-14.978928	0.000465	4.646923	1.574420	0.037105
1992	9.9550e-01	-0.3914	-14.708711	0.000677	6.768344	2.293177	0.054044
1993	9.9600e-01	-0.3545	-14.644181	0.000162	1.616321	0.547624	0.012906
1994	9.9650e-01	-0.3048	-14.458658	0.000465	4.646923	1.574420	0.037105
1995	9.9700e-01	-0.2631	-14.103746	0.000889	8.889765	3.011934	0.070983
1996	9.9750e-01	-0.2262	-13.869826	0.000586	5.859164	1.985138	0.046784
1997	9.9800e-01	-0.1845	-13.777065	0.000232	2.323461	0.787210	0.018552
1998	9.9850e-01	-0.1428	-13.506847	0.000677	6.768344	2.293177	0.054044
1999	9.9900e-01	-0.1027	-13.285027	0.000556	5.556103	1.882459	0.044364
2000	9.9950e-01	-0.0561	-12.966412	0.000798	7.980585	2.703895	0.063723
2001	1.0000e+00	-0.0273	-12.809121	0.000798	7.980585	2.703895	0.031458

PMax (uC/cm2):	1.09e+02
Pr (uC/cm2):	4.70e+00
-Pr (uC/cm2):	-4.80e+00
PLoss (uC/cm2):	-4.66e+00
-Vc:	-8.16e-01
C (Max-Eff) (nF):	5.47e-01
K (Eff):	1.85e+03
Vert. (+/-Pr) Shift (uC/cm2):	-4.72e-02
Offset (uC/cm2):	8.01e+00

A (Loop Area - uC/cm2·Volts):	-1.05e-01



Hysteresis Version: 5.48.1 - Radiant Technologies, Inc., 1999 - 9/12/24

