»»»»»»»»»»»»»»»»»»»»»»»»»»»»»»»»»»»» Hysteresis ««««««««««««««««««««««««««««««««««««
»»»  Executed Version:	5.48.1
»»»  Vision Version:	5.48.4 (R)
»»»  Vision Compiled:	9/18/24
»»»  Driver Version:	5.47.0
»»»  Windows Version:	Windows 8 or 8.1
»»»  Processor Information:	x86 (AMD or Intel) - 32 Processors
»»»  Tester Name:	PMF21124-494 (100V)
»»»  Tester S/N:	PMF21124-494
»»»  Internal Amp Type:	100V RevK 270k
»»»  Internal Amp S/N:	iAB2-596/K     
»»»  Execution Count:	1
»»»»»»»»»»»»»»»»»»»»»»»»»»»»»»»»»»»»»»»»»»««««««««««««««««««««««««««««««««««««««««««

Stored:	6/18/2025 - 15:6:28
Configured:	06/18/25 09:47:30 AM
Executed:	06/18/25 03:05:59 PM

»»»»»»»»»»»»»»»»»»»»»»»»»»»»»»»»»»» Sample Info ««««««««««««««««««««««««««««««««««««
Sample Name:	
Lot Name:	
Wafer Name:	
Die Row/Column:	0/0
Capacitor Number:	0
Sample Area (cm2):	1.00e-04
Sample Thickness (microns):	3.00e-01

Amplifier:	Internal

»»»»»»»»»»»»»»»»»»»»»»»»»»»»»»»»»»» Tester Info «««««««««««««««««««««««««««««««««««
Tester Name:	PMF21124-494 (100V)
Tester Serial Number:	PMF21124-494
Return Signal Amp. Level:	0.19 [Index: 3]

»»»»»»»»»»»»»»»»»»»»»»»»»»»»»»»» Hysteresis Info ««««««««««««««««««««««««««««««««««
Task Name:	Hyst-554
Volts:	20.00
Field:	666.67 (kV/cm)
DCBias:	0.00
DCField:	0.00 (kV/cm)
Hysteresis Period (ms):	1.00e+00
Preset:	Enabled
Preset Delay (ms):	1.00e+03
Profile:	Standard Bipolar

»»»»»»»»»»»»»»»»»»»»»»»»»»»»»»»»»»»»»» Data «««««««««««««««««««««««««««««««««««««««
Points:	2001

Valid Data

Point	Time (ms)	Drive Voltage	Measured Polarization (uC/cm2)	Capacitance (uF)	Normalized Capacitance (uF/cm2)	Dielectric Constant	Instantaneous Current (mA)
   1	0.0000e+00	0.0112	-6.378345	0.000808	8.084366	2.739057	0.064530
   2	5.0000e-04	0.0369	-6.055698	0.000808	8.084366	2.739057	0.064530
   3	1.0000e-03	0.0658	-6.027466	0.000071	0.707382	0.239668	0.005646
   4	1.5000e-03	0.0898	-5.862109	0.000414	4.143238	1.403767	0.033071
   5	2.0000e-03	0.1332	-5.817745	0.000111	1.111600	0.376620	0.008873
   6	2.5000e-03	0.1733	-5.676586	0.000354	3.536910	1.198338	0.028232
   7	3.0000e-03	0.2102	-5.620123	0.000141	1.414764	0.479335	0.011293
   8	3.5000e-03	0.2551	-5.394269	0.000566	5.659056	1.917340	0.045171
   9	4.0000e-03	0.2904	-5.043390	0.000879	8.791748	2.978725	0.070176
  10	4.5000e-03	0.3401	-4.720742	0.000808	8.084366	2.739057	0.064530
  11	5.0000e-03	0.3658	-4.704610	0.000040	0.404218	0.136953	0.003226
  12	5.5000e-03	0.4043	-4.474723	0.000576	5.760111	1.951578	0.045977
  13	6.0000e-03	0.4492	-4.039148	0.001091	10.913894	3.697727	0.087115
  14	6.5000e-03	0.4829	-4.091579	-0.000131	-1.313709	-0.445097	-0.010486
  15	7.0000e-03	0.5326	-3.942354	0.000374	3.739019	1.266814	0.029845
  16	7.5000e-03	0.5727	-3.760864	0.000455	4.547456	1.540720	0.036298
  17	8.0000e-03	0.6048	-3.494680	0.000667	6.669602	2.259722	0.053237
  18	8.5000e-03	0.6561	-3.184131	0.000778	7.781202	2.636343	0.062110
  19	9.0000e-03	0.6898	-3.071205	0.000283	2.829528	0.958670	0.022585
  20	9.5000e-03	0.7283	-2.885682	0.000465	4.648511	1.574958	0.037105
  21	1.0000e-02	0.7668	-2.845351	0.000101	1.010546	0.342382	0.008066
  22	1.0500e-02	0.8133	-2.567067	0.000697	6.972766	2.362437	0.055657
  23	1.1000e-02	0.8599	-2.397677	0.000424	4.244292	1.438005	0.033878
  24	1.1500e-02	0.8855	-2.163757	0.000586	5.861165	1.985817	0.046784
  25	1.2000e-02	0.9353	-1.833043	0.000829	8.286475	2.807534	0.066143
  26	1.2500e-02	0.9706	-1.728183	0.000263	2.627419	0.890194	0.020972
  27	1.3000e-02	1.0171	-1.667686	0.000152	1.515819	0.513573	0.012099
  28	1.3500e-02	1.0508	-1.292608	0.000940	9.398076	3.184154	0.075016
  29	1.4000e-02	1.0957	-1.115152	0.000445	4.446401	1.506482	0.035491
  30	1.4500e-02	1.1278	-1.038523	0.000192	1.920037	0.650526	0.015326
  31	1.5000e-02	1.1663	-0.824769	0.000536	5.355893	1.814626	0.042751
  32	1.5500e-02	1.2144	-0.615048	0.000525	5.254838	1.780387	0.041944
  33	1.6000e-02	1.2561	-0.300466	0.000788	7.882257	2.670581	0.062916
  34	1.6500e-02	1.2962	0.058480	0.000899	8.993857	3.047201	0.071789
  35	1.7000e-02	1.3331	0.070579	0.000030	0.303164	0.102715	0.002420
  36	1.7500e-02	1.3764	0.252069	0.000455	4.547456	1.540720	0.036298
  37	1.8000e-02	1.4165	0.473889	0.000556	5.558002	1.883102	0.044364
  38	1.8500e-02	1.4534	0.748140	0.000687	6.871711	2.328199	0.054850
  39	1.9000e-02	1.4839	1.034490	0.000717	7.174875	2.430913	0.057270
  40	1.9500e-02	1.5353	1.139350	0.000263	2.627419	0.890194	0.020972
  41	2.0000e-02	1.5754	1.336972	0.000495	4.951674	1.677673	0.039524
  42	2.0500e-02	1.6203	1.595090	0.000647	6.467493	2.191246	0.051624
  43	2.1000e-02	1.6492	1.695918	0.000253	2.526364	0.855955	0.020165
  44	2.1500e-02	1.6973	1.905639	0.000525	5.254838	1.780387	0.041944
  45	2.2000e-02	1.7422	2.179890	0.000687	6.871711	2.328199	0.054850
  46	2.2500e-02	1.7711	2.454140	0.000687	6.871711	2.328199	0.054850
  47	2.3000e-02	1.8176	2.635630	0.000455	4.547456	1.540720	0.036298
  48	2.3500e-02	1.8481	2.833252	0.000495	4.951674	1.677673	0.039524
  49	2.4000e-02	1.8946	2.938112	0.000263	2.627419	0.890194	0.020972
  50	2.4500e-02	1.9395	3.071205	0.000333	3.334801	1.129861	0.026618
  51	2.5000e-02	1.9764	3.478548	0.001021	10.206512	3.458060	0.081469
  52	2.5500e-02	2.0149	3.559210	0.000202	2.021092	0.684764	0.016132
  53	2.6000e-02	2.0486	3.668103	0.000273	2.728474	0.924432	0.021779
  54	2.6500e-02	2.0967	4.018983	0.000879	8.791748	2.978725	0.070176
  55	2.7000e-02	2.1304	4.224671	0.000515	5.153783	1.746149	0.041138
  56	2.7500e-02	2.1850	4.337598	0.000283	2.829528	0.958670	0.022585
  57	2.8000e-02	2.2026	4.410193	0.000182	1.818982	0.616288	0.014519
  58	2.8500e-02	2.2604	4.736874	0.000819	8.185421	2.773296	0.065336
  59	2.9000e-02	2.2828	5.083721	0.000869	8.690694	2.944487	0.069369
  60	2.9500e-02	2.3326	5.232945	0.000374	3.739019	1.266814	0.029845
  61	3.0000e-02	2.3807	5.523329	0.000728	7.275930	2.465152	0.058077
  62	3.0500e-02	2.4128	5.841943	0.000798	7.983312	2.704819	0.063723
  63	3.1000e-02	2.4513	5.962936	0.000303	3.031637	1.027147	0.024199
  64	3.1500e-02	2.4866	6.128293	0.000414	4.143238	1.403767	0.033071
  65	3.2000e-02	2.5299	6.378345	0.000627	6.265384	2.122769	0.050010
  66	3.2500e-02	2.5748	6.636464	0.000647	6.467493	2.191246	0.051624
  67	3.3000e-02	2.6069	6.834086	0.000495	4.951674	1.677673	0.039524
  68	3.3500e-02	2.6486	7.007509	0.000435	4.345347	1.472243	0.034685
  69	3.4000e-02	2.7047	7.100270	0.000232	2.324255	0.787479	0.018552
  70	3.4500e-02	2.7320	7.350322	0.000627	6.265384	2.122769	0.050010
  71	3.5000e-02	2.7689	7.644738	0.000738	7.376984	2.499390	0.058883
  72	3.5500e-02	2.8138	7.773798	0.000323	3.233746	1.095623	0.025812
  73	3.6000e-02	2.8555	8.116611	0.000859	8.589639	2.910248	0.068563
  74	3.6500e-02	2.8860	8.160975	0.000111	1.111600	0.376620	0.008873
  75	3.7000e-02	2.9341	8.459424	0.000748	7.478039	2.533628	0.059690
  76	3.7500e-02	2.9694	8.725609	0.000667	6.669602	2.259722	0.053237
  77	3.8000e-02	3.0224	8.697377	-0.000071	-0.707382	-0.239668	-0.005646
  78	3.8500e-02	3.0496	9.060356	0.000909	9.094912	3.081440	0.072596
  79	3.9000e-02	3.0930	9.161183	0.000253	2.526364	0.855955	0.020165
  80	3.9500e-02	3.1331	9.330574	0.000424	4.244292	1.438005	0.033878
  81	4.0000e-02	3.1796	9.818579	0.001223	12.227604	4.142824	0.097601
  82	4.0500e-02	3.2165	10.060564	0.000606	6.063275	2.054293	0.048397
  83	4.1000e-02	3.2598	10.145260	0.000212	2.122146	0.719003	0.016939
  84	4.1500e-02	3.2983	10.411444	0.000667	6.669602	2.259722	0.053237
  85	4.2000e-02	3.3336	10.572768	0.000404	4.042183	1.369529	0.032265
  86	4.2500e-02	3.3689	10.726026	0.000384	3.840074	1.301052	0.030652
  87	4.3000e-02	3.4058	10.911548	0.000465	4.648511	1.574958	0.037105
  88	4.3500e-02	3.4539	11.387454	0.001192	11.924440	4.040110	0.095181
  89	4.4000e-02	3.4972	11.351156	-0.000091	-0.909491	-0.308144	-0.007260
  90	4.4500e-02	3.5229	11.629440	0.000697	6.972766	2.362437	0.055657
  91	4.5000e-02	3.5630	11.814962	0.000465	4.648511	1.574958	0.037105
  92	4.5500e-02	3.6127	11.988386	0.000435	4.345347	1.472243	0.034685
  93	4.6000e-02	3.6528	12.206173	0.000546	5.456947	1.848864	0.043557
  94	4.6500e-02	3.6978	12.391695	0.000465	4.648511	1.574958	0.037105
  95	4.7000e-02	3.7347	12.706277	0.000788	7.882257	2.670581	0.062916
  96	4.7500e-02	3.7764	12.799038	0.000232	2.324255	0.787479	0.018552
  97	4.8000e-02	3.8133	13.057157	0.000647	6.467493	2.191246	0.051624
  98	4.8500e-02	3.8470	13.520963	0.001162	11.621276	3.937395	0.092761
  99	4.9000e-02	3.8951	13.682287	0.000404	4.042183	1.369529	0.032265
 100	4.9500e-02	3.9288	13.932339	0.000627	6.265384	2.122769	0.050010
 101	5.0000e-02	3.9689	14.214656	0.000707	7.073820	2.396675	0.056463
 102	5.0500e-02	4.0138	14.121895	-0.000232	-2.324255	-0.787479	-0.018552
 103	5.1000e-02	4.0523	14.388079	0.000667	6.669602	2.259722	0.053237
 104	5.1500e-02	4.0924	14.791389	0.001011	10.105458	3.423822	0.080662
 105	5.2000e-02	4.1421	15.081772	0.000728	7.275930	2.465152	0.058077
 106	5.2500e-02	4.1774	14.989011	-0.000232	-2.324255	-0.787479	-0.018552
 107	5.3000e-02	4.2079	15.388288	0.001000	10.004403	3.389584	0.079855
 108	5.3500e-02	4.2528	15.771432	0.000960	9.600185	3.252631	0.076629
 109	5.4000e-02	4.2913	15.831929	0.000152	1.515819	0.513573	0.012099
 110	5.4500e-02	4.3330	16.094080	0.000657	6.568547	2.225484	0.052430
 111	5.5000e-02	4.3731	16.231205	0.000344	3.435856	1.164099	0.027425
 112	5.5500e-02	4.4100	16.529655	0.000748	7.478039	2.533628	0.059690
 113	5.6000e-02	4.4550	16.626449	0.000243	2.425310	0.821717	0.019359
 114	5.6500e-02	4.5031	16.775674	0.000374	3.739019	1.266814	0.029845
 115	5.7000e-02	4.5255	17.219314	0.001112	11.116003	3.766204	0.088728
 116	5.7500e-02	4.5785	17.283844	0.000162	1.616873	0.547811	0.012906
 117	5.8000e-02	4.6202	17.509698	0.000566	5.659056	1.917340	0.045171
 118	5.8500e-02	4.6491	17.872676	0.000909	9.094912	3.081440	0.072596
 119	5.9000e-02	4.6892	18.114662	0.000606	6.063275	2.054293	0.048397
 120	5.9500e-02	4.7309	18.392946	0.000697	6.972766	2.362437	0.055657
 121	6.0000e-02	4.7726	18.453443	0.000152	1.515819	0.513573	0.012099
 122	6.0500e-02	4.8191	18.618800	0.000414	4.143238	1.403767	0.033071
 123	6.1000e-02	4.8560	19.034209	0.001041	10.408621	3.526536	0.083082
 124	6.1500e-02	4.8961	19.090672	0.000141	1.414764	0.479335	0.011293
 125	6.2000e-02	4.9378	19.385088	0.000738	7.376984	2.499390	0.058883
 126	6.2500e-02	4.9715	19.441552	0.000141	1.414764	0.479335	0.011293
 127	6.3000e-02	5.0100	20.038450	0.001496	14.956077	5.067256	0.119380
 128	6.3500e-02	5.0517	20.102980	0.000162	1.616873	0.547811	0.012906
 129	6.4000e-02	5.0999	20.336900	0.000586	5.861165	1.985817	0.046784
 130	6.4500e-02	5.1287	20.619217	0.000707	7.073820	2.396675	0.056463
 131	6.5000e-02	5.1737	20.679713	0.000152	1.515819	0.513573	0.012099
 132	6.5500e-02	5.2009	20.820872	0.000354	3.536910	1.198338	0.028232
 133	6.6000e-02	5.2571	21.131420	0.000778	7.781202	2.636343	0.062110
 134	6.6500e-02	5.2859	21.333075	0.000505	5.052729	1.711911	0.040331
 135	6.7000e-02	5.3341	21.776716	0.001112	11.116003	3.766204	0.088728
 136	6.7500e-02	5.3678	21.861411	0.000212	2.122146	0.719003	0.016939
 137	6.8000e-02	5.4015	22.175993	0.000788	7.882257	2.670581	0.062916
 138	6.8500e-02	5.4480	22.454276	0.000697	6.972766	2.362437	0.055657
 139	6.9000e-02	5.4929	22.615600	0.000404	4.042183	1.369529	0.032265
 140	6.9500e-02	5.5346	22.615600	0.000000	0.000000	0.000000	0.000000
 141	7.0000e-02	5.5763	22.958414	0.000859	8.589639	2.910248	0.068563
 142	7.0500e-02	5.6068	23.309293	0.000879	8.791748	2.978725	0.070176
 143	7.1000e-02	5.6485	23.454485	0.000364	3.637965	1.232576	0.029038
 144	7.1500e-02	5.6934	23.664206	0.000525	5.254838	1.780387	0.041944
 145	7.2000e-02	5.7319	23.958622	0.000738	7.376984	2.499390	0.058883
 146	7.2500e-02	5.7801	24.184476	0.000566	5.659056	1.917340	0.045171
 147	7.3000e-02	5.8137	24.345800	0.000404	4.042183	1.369529	0.032265
 148	7.3500e-02	5.8538	24.535355	0.000475	4.749565	1.609196	0.037911
 149	7.4000e-02	5.8891	25.095956	0.001405	14.046586	4.759112	0.112120
 150	7.4500e-02	5.9341	25.192750	0.000243	2.425310	0.821717	0.019359
 151	7.5000e-02	5.9822	25.253247	0.000152	1.515819	0.513573	0.012099
 152	7.5500e-02	6.0175	25.249214	-0.000010	-0.101055	-0.034238	-0.000807
 153	7.6000e-02	6.0576	25.842079	0.001486	14.855023	5.033018	0.118573
 154	7.6500e-02	6.0913	26.063900	0.000556	5.558002	1.883102	0.044364
 155	7.7000e-02	6.1330	25.995337	-0.000172	-1.717928	-0.582050	-0.013713
 156	7.7500e-02	6.1875	26.241356	0.000616	6.164329	2.088531	0.049204
 157	7.8000e-02	6.2148	26.721295	0.001203	12.025495	4.074348	0.095988
 158	7.8500e-02	6.2485	27.043943	0.000808	8.084366	2.739057	0.064530
 159	7.9000e-02	6.2998	27.181068	0.000344	3.435856	1.164099	0.027425
 160	7.9500e-02	6.3351	27.168969	-0.000030	-0.303164	-0.102715	-0.002420
 161	8.0000e-02	6.3704	27.366591	0.000495	4.951674	1.677673	0.039524
 162	8.0500e-02	6.4169	27.886860	0.001304	13.036040	4.416730	0.104054
 163	8.1000e-02	6.4570	28.173210	0.000717	7.174875	2.430913	0.057270
 164	8.1500e-02	6.4987	28.157078	-0.000040	-0.404218	-0.136953	-0.003226
 165	8.2000e-02	6.5308	28.447461	0.000728	7.275930	2.465152	0.058077
 166	8.2500e-02	6.5790	28.637017	0.000475	4.749565	1.609196	0.037911
 167	8.3000e-02	6.6030	28.879003	0.000606	6.063275	2.054293	0.048397
 168	8.3500e-02	6.6495	29.354908	0.001192	11.924440	4.040110	0.095181
 169	8.4000e-02	6.6945	29.358941	0.000010	0.101055	0.034238	0.000807
 170	8.4500e-02	6.7330	29.830814	0.001182	11.823385	4.005871	0.094375
 171	8.5000e-02	6.7747	29.798549	-0.000081	-0.808437	-0.273906	-0.006453
 172	8.5500e-02	6.8164	30.032469	0.000586	5.861165	1.985817	0.046784
 173	8.6000e-02	6.8437	30.451911	0.001051	10.509676	3.560775	0.083888
 174	8.6500e-02	6.8886	30.480143	0.000071	0.707382	0.239668	0.005646
 175	8.7000e-02	6.9351	30.693897	0.000536	5.355893	1.814626	0.042751
 176	8.7500e-02	6.9704	30.923784	0.000576	5.760111	1.951578	0.045977
 177	8.8000e-02	7.0137	31.367424	0.001112	11.116003	3.766204	0.088728
 178	8.8500e-02	7.0474	31.452119	0.000212	2.122146	0.719003	0.016939
 179	8.9000e-02	7.0939	31.863496	0.001031	10.307567	3.492298	0.082275
 180	8.9500e-02	7.1372	31.936091	0.000182	1.818982	0.616288	0.014519
 181	9.0000e-02	7.1661	32.311169	0.000940	9.398076	3.184154	0.075016
 182	9.0500e-02	7.2078	32.569288	0.000647	6.467493	2.191246	0.051624
 183	9.1000e-02	7.2511	32.831439	0.000657	6.568547	2.225484	0.052430
 184	9.1500e-02	7.2864	33.077458	0.000616	6.164329	2.088531	0.049204
 185	9.2000e-02	7.3249	33.234749	0.000394	3.941128	1.335290	0.031458
 186	9.2500e-02	7.3698	33.258948	0.000061	0.606327	0.205429	0.004840
 187	9.3000e-02	7.4148	33.484801	0.000566	5.659056	1.917340	0.045171
 188	9.3500e-02	7.4565	33.811482	0.000819	8.185421	2.773296	0.065336
 189	9.4000e-02	7.4934	34.005071	0.000485	4.850620	1.643434	0.038718
 190	9.4500e-02	7.5287	34.178494	0.000435	4.345347	1.472243	0.034685
 191	9.5000e-02	7.5720	34.646334	0.001172	11.722331	3.971633	0.093568
 192	9.5500e-02	7.6105	34.722962	0.000192	1.920037	0.650526	0.015326
 193	9.6000e-02	7.6474	34.771360	0.000121	1.212655	0.410859	0.009679
 194	9.6500e-02	7.6971	35.190802	0.001051	10.509676	3.560775	0.083888
 195	9.7000e-02	7.7324	35.497317	0.000768	7.680148	2.602105	0.061303
 196	9.7500e-02	7.7693	35.646542	0.000374	3.739019	1.266814	0.029845
 197	9.8000e-02	7.8094	35.860296	0.000536	5.355893	1.814626	0.042751
 198	9.8500e-02	7.8591	36.078084	0.000546	5.456947	1.848864	0.043557
 199	9.9000e-02	7.8928	36.267639	0.000475	4.749565	1.609196	0.037911
 200	9.9500e-02	7.9313	36.570122	0.000758	7.579093	2.567866	0.060496
 201	1.0000e-01	7.9746	36.929067	0.000899	8.993857	3.047201	0.071789
 202	1.0050e-01	8.0115	37.013762	0.000212	2.122146	0.719003	0.016939
 203	1.0100e-01	8.0597	37.328344	0.000788	7.882257	2.670581	0.062916
 204	1.0150e-01	8.0950	37.457403	0.000323	3.233746	1.095623	0.025812
 205	1.0200e-01	8.1335	37.638893	0.000455	4.547456	1.540720	0.036298
 206	1.0250e-01	8.1736	38.284188	0.001617	16.168732	5.478115	0.129059
 207	1.0300e-01	8.2137	38.421314	0.000344	3.435856	1.164099	0.027425
 208	1.0350e-01	8.2506	38.691531	0.000677	6.770657	2.293961	0.054044
 209	1.0400e-01	8.2907	38.747995	0.000141	1.414764	0.479335	0.011293
 210	1.0450e-01	8.3292	38.917385	0.000424	4.244292	1.438005	0.033878
 211	1.0500e-01	8.3741	39.175503	0.000647	6.467493	2.191246	0.051624
 212	1.0550e-01	8.4142	39.429588	0.000637	6.366438	2.157008	0.050817
 213	1.0600e-01	8.4463	39.857097	0.001071	10.711785	3.629251	0.085502
 214	1.0650e-01	8.4896	39.929693	0.000182	1.818982	0.616288	0.014519
 215	1.0700e-01	8.5297	40.167646	0.000596	5.962220	2.020055	0.047591
 216	1.0750e-01	8.5730	40.611286	0.001112	11.116003	3.766204	0.088728
 217	1.0800e-01	8.6099	40.720180	0.000273	2.728474	0.924432	0.021779
 218	1.0850e-01	8.6516	40.873438	0.000384	3.840074	1.301052	0.030652
 219	1.0900e-01	8.6933	41.026696	0.000384	3.840074	1.301052	0.030652
 220	1.0950e-01	8.7350	41.284814	0.000647	6.467493	2.191246	0.051624
 221	1.1000e-01	8.7752	41.567131	0.000707	7.073820	2.396675	0.056463
 222	1.1050e-01	8.8169	41.853481	0.000717	7.174875	2.430913	0.057270
 223	1.1100e-01	8.8473	42.204360	0.000879	8.791748	2.978725	0.070176
 224	1.1150e-01	8.9003	42.522975	0.000798	7.983312	2.704819	0.063723
 225	1.1200e-01	8.9324	42.522975	0.000000	0.000000	0.000000	0.000000
 226	1.1250e-01	8.9693	42.841590	0.000798	7.983312	2.704819	0.063723
 227	1.1300e-01	9.0222	42.777060	-0.000162	-1.616873	-0.547811	-0.012906
 228	1.1350e-01	9.0655	42.998881	0.000556	5.558002	1.883102	0.044364
 229	1.1400e-01	9.0896	43.208602	0.000525	5.254838	1.780387	0.041944
 230	1.1450e-01	9.1265	43.773236	0.001415	14.147641	4.793350	0.112927
 231	1.1500e-01	9.1602	43.995056	0.000556	5.558002	1.883102	0.044364
 232	1.1550e-01	9.2147	44.043453	0.000121	1.212655	0.410859	0.009679
 233	1.1600e-01	9.2468	44.188645	0.000364	3.637965	1.232576	0.029038
 234	1.1650e-01	9.2917	44.559690	0.000930	9.297021	3.149916	0.074209
 235	1.1700e-01	9.3334	44.757312	0.000495	4.951674	1.677673	0.039524
 236	1.1750e-01	9.3735	45.354210	0.001496	14.956077	5.067256	0.119380
 237	1.1800e-01	9.4104	45.285648	-0.000172	-1.717928	-0.582050	-0.013713
 238	1.1850e-01	9.4553	45.596196	0.000778	7.781202	2.636343	0.062110
 239	1.1900e-01	9.4938	45.926910	0.000829	8.286475	2.807534	0.066143
 240	1.1950e-01	9.5227	46.124532	0.000495	4.951674	1.677673	0.039524
 241	1.2000e-01	9.5644	46.475412	0.000879	8.791748	2.978725	0.070176
 242	1.2050e-01	9.6142	46.515743	0.000101	1.010546	0.342382	0.008066
 243	1.2100e-01	9.6463	46.697232	0.000455	4.547456	1.540720	0.036298
 244	1.2150e-01	9.6864	46.927119	0.000576	5.760111	1.951578	0.045977
 245	1.2200e-01	9.7377	47.253800	0.000819	8.185421	2.773296	0.065336
 246	1.2250e-01	9.7762	47.503852	0.000627	6.265384	2.122769	0.050010
 247	1.2300e-01	9.8147	47.604679	0.000253	2.526364	0.855955	0.020165
 248	1.2350e-01	9.8548	47.903129	0.000748	7.478039	2.533628	0.059690
 249	1.2400e-01	9.8997	48.217710	0.000788	7.882257	2.670581	0.062916
 250	1.2450e-01	9.9302	48.423398	0.000515	5.153783	1.746149	0.041138
 251	1.2500e-01	9.9719	48.649252	0.000566	5.659056	1.917340	0.045171
 252	1.2550e-01	10.0136	48.705715	0.000141	1.414764	0.479335	0.011293
 253	1.2600e-01	10.0521	49.044496	0.000849	8.488584	2.876010	0.067756
 254	1.2650e-01	10.0938	49.246150	0.000505	5.052729	1.711911	0.040331
 255	1.2700e-01	10.1307	49.657527	0.001031	10.307567	3.492298	0.082275
 256	1.2750e-01	10.1692	49.883380	0.000566	5.659056	1.917340	0.045171
 257	1.2800e-01	10.2109	50.210061	0.000819	8.185421	2.773296	0.065336
 258	1.2850e-01	10.2607	50.318955	0.000273	2.728474	0.924432	0.021779
 259	1.2900e-01	10.2976	50.399617	0.000202	2.021092	0.684764	0.016132
 260	1.2950e-01	10.3264	50.750496	0.000879	8.791748	2.978725	0.070176
 261	1.3000e-01	10.3698	50.831158	0.000202	2.021092	0.684764	0.016132
 262	1.3050e-01	10.4147	51.274799	0.001112	11.116003	3.766204	0.088728
 263	1.3100e-01	10.4500	51.532917	0.000647	6.467493	2.191246	0.051624
 264	1.3150e-01	10.4901	51.625679	0.000232	2.324255	0.787479	0.018552
 265	1.3200e-01	10.5286	52.057220	0.001081	10.812840	3.663489	0.086308
 266	1.3250e-01	10.5735	52.275008	0.000546	5.456947	1.848864	0.043557
 267	1.3300e-01	10.6136	52.456497	0.000455	4.547456	1.540720	0.036298
 268	1.3350e-01	10.6457	52.642020	0.000465	4.648511	1.574958	0.037105
 269	1.3400e-01	10.6906	52.956601	0.000788	7.882257	2.670581	0.062916
 270	1.3450e-01	10.7339	53.081627	0.000313	3.132692	1.061385	0.025005
 271	1.3500e-01	10.7692	53.303448	0.000556	5.558002	1.883102	0.044364
 272	1.3550e-01	10.8173	53.408308	0.000263	2.627419	0.890194	0.020972
 273	1.3600e-01	10.8558	53.791453	0.000960	9.600185	3.252631	0.076629
 274	1.3650e-01	10.8943	54.057637	0.000667	6.669602	2.259722	0.053237
 275	1.3700e-01	10.9328	54.303656	0.000616	6.164329	2.088531	0.049204
 276	1.3750e-01	10.9633	54.561774	0.000647	6.467493	2.191246	0.051624
 277	1.3800e-01	11.0195	54.815860	0.000637	6.366438	2.157008	0.050817
 278	1.3850e-01	11.0516	55.102210	0.000717	7.174875	2.430913	0.057270
 279	1.3900e-01	11.0965	55.259500	0.000394	3.941128	1.335290	0.031458
 280	1.3950e-01	11.1318	55.400659	0.000354	3.536910	1.198338	0.028232
 281	1.4000e-01	11.1719	55.449056	0.000121	1.212655	0.410859	0.009679
 282	1.4050e-01	11.2152	55.828167	0.000950	9.499130	3.218392	0.075822
 283	1.4100e-01	11.2537	56.231477	0.001011	10.105458	3.423822	0.080662
 284	1.4150e-01	11.2858	56.445231	0.000536	5.355893	1.814626	0.042751
 285	1.4200e-01	11.3387	56.626721	0.000455	4.547456	1.540720	0.036298
 286	1.4250e-01	11.3708	56.896939	0.000677	6.770657	2.293961	0.054044
 287	1.4300e-01	11.4109	57.078428	0.000455	4.547456	1.540720	0.036298
 288	1.4350e-01	11.4526	57.449473	0.000930	9.297021	3.149916	0.074209
 289	1.4400e-01	11.4911	57.808419	0.000899	8.993857	3.047201	0.071789
 290	1.4450e-01	11.5312	57.856816	0.000121	1.212655	0.410859	0.009679
 291	1.4500e-01	11.5761	58.022173	0.000414	4.143238	1.403767	0.033071
 292	1.4550e-01	11.6050	58.199629	0.000445	4.446401	1.506482	0.035491
 293	1.4600e-01	11.6580	58.586807	0.000970	9.701239	3.286869	0.077435
 294	1.4650e-01	11.6965	58.861058	0.000687	6.871711	2.328199	0.054850
 295	1.4700e-01	11.7334	58.901389	0.000101	1.010546	0.342382	0.008066
 296	1.4750e-01	11.7703	59.264367	0.000909	9.094912	3.081440	0.072596
 297	1.4800e-01	11.8168	59.683810	0.001051	10.509676	3.560775	0.083888
 298	1.4850e-01	11.8617	59.824968	0.000354	3.536910	1.198338	0.028232
 299	1.4900e-01	11.8986	60.107285	0.000707	7.073820	2.396675	0.056463
 300	1.4950e-01	11.9307	60.200046	0.000232	2.324255	0.787479	0.018552
 301	1.5000e-01	11.9804	60.542860	0.000859	8.589639	2.910248	0.068563
 302	1.5050e-01	12.0077	60.651753	0.000273	2.728474	0.924432	0.021779
 303	1.5100e-01	12.0526	60.889706	0.000596	5.962220	2.020055	0.047591
 304	1.5150e-01	12.0911	61.067162	0.000445	4.446401	1.506482	0.035491
 305	1.5200e-01	12.1312	61.180089	0.000283	2.829528	0.958670	0.022585
 306	1.5250e-01	12.1665	61.716491	0.001344	13.440259	4.553683	0.107280
 307	1.5300e-01	12.2178	61.651962	-0.000162	-1.616873	-0.547811	-0.012906
 308	1.5350e-01	12.2483	62.043172	0.000980	9.802294	3.321107	0.078242
 309	1.5400e-01	12.2980	62.172232	0.000323	3.233746	1.095623	0.025812
 310	1.5450e-01	12.3317	62.418251	0.000616	6.164329	2.088531	0.049204
 311	1.5500e-01	12.3686	62.736865	0.000798	7.983312	2.704819	0.063723
 312	1.5550e-01	12.4023	62.902222	0.000414	4.143238	1.403767	0.033071
 313	1.5600e-01	12.4456	63.204705	0.000758	7.579093	2.567866	0.060496
 314	1.5650e-01	12.4954	63.422492	0.000546	5.456947	1.848864	0.043557
 315	1.5700e-01	12.5355	63.773372	0.000879	8.791748	2.978725	0.070176
 316	1.5750e-01	12.5724	63.898398	0.000313	3.132692	1.061385	0.025005
 317	1.5800e-01	12.6125	63.906464	0.000020	0.202109	0.068476	0.001613
 318	1.5850e-01	12.6622	64.265410	0.000899	8.993857	3.047201	0.071789
 319	1.5900e-01	12.6911	64.523528	0.000647	6.467493	2.191246	0.051624
 320	1.5950e-01	12.7408	64.874408	0.000879	8.791748	2.978725	0.070176
 321	1.6000e-01	12.7777	65.039765	0.000414	4.143238	1.403767	0.033071
 322	1.6050e-01	12.8130	65.285784	0.000616	6.164329	2.088531	0.049204
 323	1.6100e-01	12.8579	65.644729	0.000899	8.993857	3.047201	0.071789
 324	1.6150e-01	12.8868	66.027874	0.000960	9.600185	3.252631	0.076629
 325	1.6200e-01	12.9349	65.906881	-0.000303	-3.031637	-1.027147	-0.024199
 326	1.6250e-01	12.9686	66.088370	0.000455	4.547456	1.540720	0.036298
 327	1.6300e-01	13.0119	66.423117	0.000839	8.387530	2.841772	0.066949
 328	1.6350e-01	13.0536	66.765931	0.000859	8.589639	2.910248	0.068563
 329	1.6400e-01	13.0937	66.769964	0.000010	0.101055	0.034238	0.000807
 330	1.6450e-01	13.1355	66.967586	0.000495	4.951674	1.677673	0.039524
 331	1.6500e-01	13.1740	67.266035	0.000748	7.478039	2.533628	0.059690
 332	1.6550e-01	13.2093	67.721775	0.001142	11.419167	3.868919	0.091148
 333	1.6600e-01	13.2526	67.806470	0.000212	2.122146	0.719003	0.016939
 334	1.6650e-01	13.2991	68.205747	0.001000	10.004403	3.389584	0.079855
 335	1.6700e-01	13.3312	68.286409	0.000202	2.021092	0.684764	0.016132
 336	1.6750e-01	13.3681	68.334806	0.000121	1.212655	0.410859	0.009679
 337	1.6800e-01	13.4162	68.738116	0.001011	10.105458	3.423822	0.080662
 338	1.6850e-01	13.4483	68.899440	0.000404	4.042183	1.369529	0.032265
 339	1.6900e-01	13.4964	69.153525	0.000637	6.366438	2.157008	0.050817
 340	1.6950e-01	13.5397	69.532636	0.000950	9.499130	3.218392	0.075822
 341	1.7000e-01	13.5750	69.774622	0.000606	6.063275	2.054293	0.048397
 342	1.7050e-01	13.6183	69.952079	0.000445	4.446401	1.506482	0.035491
 343	1.7100e-01	13.6456	70.274727	0.000808	8.084366	2.739057	0.064530
 344	1.7150e-01	13.6857	70.464282	0.000475	4.749565	1.609196	0.037911
 345	1.7200e-01	13.7370	70.827261	0.000909	9.094912	3.081440	0.072596
 346	1.7250e-01	13.7739	70.843393	0.000040	0.404218	0.136953	0.003226
 347	1.7300e-01	13.8060	71.178141	0.000839	8.387530	2.841772	0.066949
 348	1.7350e-01	13.8574	71.125710	-0.000131	-1.313709	-0.445097	-0.010486
 349	1.7400e-01	13.8878	71.512888	0.000970	9.701239	3.286869	0.077435
 350	1.7450e-01	13.9344	71.783105	0.000677	6.770657	2.293961	0.054044
 351	1.7500e-01	13.9745	71.932330	0.000374	3.739019	1.266814	0.029845
 352	1.7550e-01	14.0162	72.101720	0.000424	4.244292	1.438005	0.033878
 353	1.7600e-01	14.0531	72.440501	0.000849	8.488584	2.876010	0.067756
 354	1.7650e-01	14.0820	72.670387	0.000576	5.760111	1.951578	0.045977
 355	1.7700e-01	14.1317	72.960770	0.000728	7.275930	2.465152	0.058077
 356	1.7750e-01	14.1766	73.053532	0.000232	2.324255	0.787479	0.018552
 357	1.7800e-01	14.2119	73.428610	0.000940	9.398076	3.184154	0.075016
 358	1.7850e-01	14.2424	73.694794	0.000667	6.669602	2.259722	0.053237
 359	1.7900e-01	14.2905	73.739158	0.000111	1.111600	0.376620	0.008873
 360	1.7950e-01	14.3450	74.182799	0.001112	11.116003	3.766204	0.088728
 361	1.8000e-01	14.3691	74.295726	0.000283	2.829528	0.958670	0.022585
 362	1.8050e-01	14.4156	74.557877	0.000657	6.568547	2.225484	0.052430
 363	1.8100e-01	14.4525	74.715168	0.000394	3.941128	1.335290	0.031458
 364	1.8150e-01	14.4894	74.912790	0.000495	4.951674	1.677673	0.039524
 365	1.8200e-01	14.5327	75.183008	0.000677	6.770657	2.293961	0.054044
 366	1.8250e-01	14.5712	75.376596	0.000485	4.850620	1.643434	0.038718
 367	1.8300e-01	14.6065	75.497589	0.000303	3.031637	1.027147	0.024199
 368	1.8350e-01	14.6499	75.969462	0.001182	11.823385	4.005871	0.094375
 369	1.8400e-01	14.6884	76.066256	0.000243	2.425310	0.821717	0.019359
 370	1.8450e-01	14.7333	76.598625	0.001334	13.339204	4.519445	0.106474
 371	1.8500e-01	14.7734	76.489732	-0.000273	-2.728474	-0.924432	-0.021779
 372	1.8550e-01	14.8151	76.772048	0.000707	7.073820	2.396675	0.056463
 373	1.8600e-01	14.8424	77.078564	0.000768	7.680148	2.602105	0.061303
 374	1.8650e-01	14.8921	77.522205	0.001112	11.116003	3.766204	0.088728
 375	1.8700e-01	14.9306	77.667396	0.000364	3.637965	1.232576	0.029038
 376	1.8750e-01	14.9675	77.820654	0.000384	3.840074	1.301052	0.030652
 377	1.8800e-01	15.0124	77.973912	0.000384	3.840074	1.301052	0.030652
 378	1.8850e-01	15.0461	78.320758	0.000869	8.690694	2.944487	0.069369
 379	1.8900e-01	15.0846	78.482082	0.000404	4.042183	1.369529	0.032265
 380	1.8950e-01	15.1311	78.716002	0.000586	5.861165	1.985817	0.046784
 381	1.9000e-01	15.1728	78.901525	0.000465	4.648511	1.574958	0.037105
 382	1.9050e-01	15.2129	79.413728	0.001283	12.833931	4.348254	0.102441
 383	1.9100e-01	15.2498	79.482291	0.000172	1.717928	0.582050	0.013713
 384	1.9150e-01	15.2883	79.454059	-0.000071	-0.707382	-0.239668	-0.005646
 385	1.9200e-01	15.3333	79.825104	0.000930	9.297021	3.149916	0.074209
 386	1.9250e-01	15.3637	80.155818	0.000829	8.286475	2.807534	0.066143
 387	1.9300e-01	15.4038	80.401837	0.000616	6.164329	2.088531	0.049204
 388	1.9350e-01	15.4616	80.502665	0.000253	2.526364	0.855955	0.020165
 389	1.9400e-01	15.4921	80.740617	0.000596	5.962220	2.020055	0.047591
 390	1.9450e-01	15.5306	81.071332	0.000829	8.286475	2.807534	0.066143
 391	1.9500e-01	15.5723	81.192325	0.000303	3.031637	1.027147	0.024199
 392	1.9550e-01	15.6172	81.293152	0.000253	2.526364	0.855955	0.020165
 393	1.9600e-01	15.6525	81.490774	0.000495	4.951674	1.677673	0.039524
 394	1.9650e-01	15.6974	81.833587	0.000859	8.589639	2.910248	0.068563
 395	1.9700e-01	15.7247	82.180434	0.000869	8.690694	2.944487	0.069369
 396	1.9750e-01	15.7696	82.543413	0.000909	9.094912	3.081440	0.072596
 397	1.9800e-01	15.8081	82.805564	0.000657	6.568547	2.225484	0.052430
 398	1.9850e-01	15.8514	82.833796	0.000071	0.707382	0.239668	0.005646
 399	1.9900e-01	15.8899	82.987053	0.000384	3.840074	1.301052	0.030652
 400	1.9950e-01	15.9300	83.394396	0.001021	10.206512	3.458060	0.081469
 401	2.0000e-01	15.9685	83.583952	0.000475	4.749565	1.609196	0.037911
 402	2.0050e-01	16.0118	83.725110	0.000354	3.536910	1.198338	0.028232
 403	2.0100e-01	16.0439	83.987262	0.000657	6.568547	2.225484	0.052430
 404	2.0150e-01	16.0921	84.257479	0.000677	6.770657	2.293961	0.054044
 405	2.0200e-01	16.1257	84.576094	0.000798	7.983312	2.704819	0.063723
 406	2.0250e-01	16.1642	84.757584	0.000455	4.547456	1.540720	0.036298
 407	2.0300e-01	16.2124	85.052000	0.000738	7.376984	2.499390	0.058883
 408	2.0350e-01	16.2445	85.273820	0.000556	5.558002	1.883102	0.044364
 409	2.0400e-01	16.2894	85.350449	0.000192	1.920037	0.650526	0.015326
 410	2.0450e-01	16.3263	85.527906	0.000445	4.446401	1.506482	0.035491
 411	2.0500e-01	16.3648	85.604534	0.000192	1.920037	0.650526	0.015326
 412	2.0550e-01	16.4177	85.842487	0.000596	5.962220	2.020055	0.047591
 413	2.0600e-01	16.4450	86.399055	0.001395	13.945532	4.724874	0.111314
 414	2.0650e-01	16.4947	86.499882	0.000253	2.526364	0.855955	0.020165
 415	2.0700e-01	16.5332	86.733802	0.000586	5.861165	1.985817	0.046784
 416	2.0750e-01	16.5717	86.983854	0.000627	6.265384	2.122769	0.050010
 417	2.0800e-01	16.6199	87.177443	0.000485	4.850620	1.643434	0.038718
 418	2.0850e-01	16.6551	87.528322	0.000879	8.791748	2.978725	0.070176
 419	2.0900e-01	16.6904	87.826772	0.000748	7.478039	2.533628	0.059690
 420	2.0950e-01	16.7338	87.915500	0.000222	2.223201	0.753241	0.017746
 421	2.1000e-01	16.7690	88.153453	0.000596	5.962220	2.020055	0.047591
 422	2.1050e-01	16.8188	88.088923	-0.000162	-1.616873	-0.547811	-0.012906
 423	2.1100e-01	16.8509	88.395439	0.000768	7.680148	2.602105	0.061303
 424	2.1150e-01	16.9022	88.734219	0.000849	8.488584	2.876010	0.067756
 425	2.1200e-01	16.9327	88.863278	0.000323	3.233746	1.095623	0.025812
 426	2.1250e-01	16.9776	89.085098	0.000556	5.558002	1.883102	0.044364
 427	2.1300e-01	17.0113	89.250456	0.000414	4.143238	1.403767	0.033071
 428	2.1350e-01	17.0594	89.706196	0.001142	11.419167	3.868919	0.091148
 429	2.1400e-01	17.0979	89.932049	0.000566	5.659056	1.917340	0.045171
 430	2.1450e-01	17.1252	90.214366	0.000707	7.073820	2.396675	0.056463
 431	2.1500e-01	17.1669	90.424087	0.000525	5.254838	1.780387	0.041944
 432	2.1550e-01	17.2134	90.601544	0.000445	4.446401	1.506482	0.035491
 433	2.1600e-01	17.2439	90.859662	0.000647	6.467493	2.191246	0.051624
 434	2.1650e-01	17.2952	90.980655	0.000303	3.031637	1.027147	0.024199
 435	2.1700e-01	17.3305	91.335567	0.000889	8.892803	3.012963	0.070983
 436	2.1750e-01	17.3754	91.670315	0.000839	8.387530	2.841772	0.066949
 437	2.1800e-01	17.4075	91.811473	0.000354	3.536910	1.198338	0.028232
 438	2.1850e-01	17.4524	91.932466	0.000303	3.031637	1.027147	0.024199
 439	2.1900e-01	17.4958	92.162353	0.000576	5.760111	1.951578	0.045977
 440	2.1950e-01	17.5359	92.230915	0.000172	1.717928	0.582050	0.013713
 441	2.2000e-01	17.5680	92.589861	0.000899	8.993857	3.047201	0.071789
 442	2.2050e-01	17.6097	92.831847	0.000606	6.063275	2.054293	0.048397
 443	2.2100e-01	17.6578	93.210958	0.000950	9.499130	3.218392	0.075822
 444	2.2150e-01	17.6883	93.428746	0.000546	5.456947	1.848864	0.043557
 445	2.2200e-01	17.7348	93.541672	0.000283	2.829528	0.958670	0.022585
 446	2.2250e-01	17.7653	93.775592	0.000586	5.861165	1.985817	0.046784
 447	2.2300e-01	17.8134	94.037744	0.000657	6.568547	2.225484	0.052430
 448	2.2350e-01	17.8567	94.126472	0.000222	2.223201	0.753241	0.017746
 449	2.2400e-01	17.8984	94.275696	0.000374	3.739019	1.266814	0.029845
 450	2.2450e-01	17.9257	94.509616	0.000586	5.861165	1.985817	0.046784
 451	2.2500e-01	17.9738	94.929058	0.001051	10.509676	3.560775	0.083888
 452	2.2550e-01	18.0171	94.993588	0.000162	1.616873	0.547811	0.012906
 453	2.2600e-01	18.0524	95.304137	0.000778	7.781202	2.636343	0.062110
 454	2.2650e-01	18.0974	95.481593	0.000445	4.446401	1.506482	0.035491
 455	2.2700e-01	18.1326	95.602586	0.000303	3.031637	1.027147	0.024199
 456	2.2750e-01	18.1679	96.001863	0.001000	10.004403	3.389584	0.079855
 457	2.2800e-01	18.2177	96.215617	0.000536	5.355893	1.814626	0.042751
 458	2.2850e-01	18.2546	96.421305	0.000515	5.153783	1.746149	0.041138
 459	2.2900e-01	18.2947	96.699589	0.000697	6.972766	2.362437	0.055657
 460	2.2950e-01	18.3380	96.985939	0.000717	7.174875	2.430913	0.057270
 461	2.3000e-01	18.3685	97.179527	0.000485	4.850620	1.643434	0.038718
 462	2.3050e-01	18.4054	97.191627	0.000030	0.303164	0.102715	0.002420
 463	2.3100e-01	18.4471	97.683665	0.001233	12.328658	4.177063	0.098408
 464	2.3150e-01	18.4856	98.054710	0.000930	9.297021	3.149916	0.074209
 465	2.3200e-01	18.5241	98.224100	0.000424	4.244292	1.438005	0.033878
 466	2.3250e-01	18.5754	98.123272	-0.000253	-2.526364	-0.855955	-0.020165
 467	2.3300e-01	18.6187	98.530615	0.001021	10.206512	3.458060	0.081469
 468	2.3350e-01	18.6620	98.700006	0.000424	4.244292	1.438005	0.033878
 469	2.3400e-01	18.6941	98.909727	0.000525	5.254838	1.780387	0.041944
 470	2.3450e-01	18.7374	98.994422	0.000212	2.122146	0.719003	0.016939
 471	2.3500e-01	18.7695	99.421930	0.001071	10.711785	3.629251	0.085502
 472	2.3550e-01	18.8144	99.502592	0.000202	2.021092	0.684764	0.016132
 473	2.3600e-01	18.8513	99.905902	0.001011	10.105458	3.423822	0.080662
 474	2.3650e-01	18.8947	100.014796	0.000273	2.728474	0.924432	0.021779
 475	2.3700e-01	18.9348	100.192252	0.000445	4.446401	1.506482	0.035491
 476	2.3750e-01	18.9701	100.317278	0.000313	3.132692	1.061385	0.025005
 477	2.3800e-01	19.0102	100.688323	0.000930	9.297021	3.149916	0.074209
 478	2.3850e-01	19.0551	100.797217	0.000273	2.728474	0.924432	0.021779
 479	2.3900e-01	19.0904	101.131964	0.000839	8.387530	2.841772	0.066949
 480	2.3950e-01	19.1401	101.442513	0.000778	7.781202	2.636343	0.062110
 481	2.4000e-01	19.1706	101.438479	-0.000010	-0.101055	-0.034238	-0.000807
 482	2.4050e-01	19.2123	101.744995	0.000768	7.680148	2.602105	0.061303
 483	2.4100e-01	19.2444	102.007146	0.000657	6.568547	2.225484	0.052430
 484	2.4150e-01	19.2941	102.204768	0.000495	4.951674	1.677673	0.039524
 485	2.4200e-01	19.3262	102.499184	0.000738	7.376984	2.499390	0.058883
 486	2.4250e-01	19.3823	103.011388	0.001283	12.833931	4.348254	0.102441
 487	2.4300e-01	19.4192	102.975090	-0.000091	-0.909491	-0.308144	-0.007260
 488	2.4350e-01	19.4513	103.132381	0.000394	3.941128	1.335290	0.031458
 489	2.4400e-01	19.4898	103.277572	0.000364	3.637965	1.232576	0.029038
 490	2.4450e-01	19.5396	103.430830	0.000384	3.840074	1.301052	0.030652
 491	2.4500e-01	19.5748	103.604253	0.000435	4.345347	1.472243	0.034685
 492	2.4550e-01	19.6134	103.789776	0.000465	4.648511	1.574958	0.037105
 493	2.4600e-01	19.6599	104.059994	0.000677	6.770657	2.293961	0.054044
 494	2.4650e-01	19.7000	104.463303	0.001011	10.105458	3.423822	0.080662
 495	2.4700e-01	19.7273	104.616561	0.000384	3.840074	1.301052	0.030652
 496	2.4750e-01	19.7674	104.906944	0.000728	7.275930	2.465152	0.058077
 497	2.4800e-01	19.8043	105.096500	0.000475	4.749565	1.609196	0.037911
 498	2.4850e-01	19.8524	105.435280	0.000849	8.488584	2.876010	0.067756
 499	2.4900e-01	19.8845	105.394949	-0.000101	-1.010546	-0.342382	-0.008066
 500	2.4950e-01	19.9294	105.899087	0.001263	12.631822	4.279777	0.100827
 501	2.5000e-01	19.9679	105.943451	0.000111	1.111600	0.376620	0.008873
 502	2.5050e-01	19.9743	106.028146	0.000212	2.122146	0.719003	0.016939
 503	2.5100e-01	19.9502	105.991848	0.000091	0.909491	0.308144	-0.007260
 504	2.5150e-01	19.9149	105.814391	0.000445	4.446401	1.506482	-0.035491
 505	2.5200e-01	19.8845	105.870855	-0.000141	-1.414764	-0.479335	0.011293
 506	2.5250e-01	19.8412	105.616770	0.000637	6.366438	2.157008	-0.050817
 507	2.5300e-01	19.8026	105.273956	0.000859	8.589639	2.910248	-0.068563
 508	2.5350e-01	19.7561	105.277989	-0.000010	-0.101055	-0.034238	0.000807
 509	2.5400e-01	19.7176	105.084401	0.000485	4.850620	1.643434	-0.038718
 510	2.5450e-01	19.6695	105.056169	0.000071	0.707382	0.239668	-0.005646
 511	2.5500e-01	19.6422	104.866613	0.000475	4.749565	1.609196	-0.037911
 512	2.5550e-01	19.6053	104.725455	0.000354	3.536910	1.198338	-0.028232
 513	2.5600e-01	19.5572	104.552032	0.000435	4.345347	1.472243	-0.034685
 514	2.5650e-01	19.5187	104.289880	0.000657	6.568547	2.225484	-0.052430
 515	2.5700e-01	19.4802	104.108391	0.000455	4.547456	1.540720	-0.036298
 516	2.5750e-01	19.4337	104.011596	0.000243	2.425310	0.821717	-0.019359
 517	2.5800e-01	19.3904	103.705081	0.000768	7.680148	2.602105	-0.061303
 518	2.5850e-01	19.3503	103.874471	-0.000424	-4.244292	-1.438005	0.033878
 519	2.5900e-01	19.3230	103.588121	0.000717	7.174875	2.430913	-0.057270
 520	2.5950e-01	19.2861	103.467128	0.000303	3.031637	1.027147	-0.024199
 521	2.6000e-01	19.2460	103.225142	0.000606	6.063275	2.054293	-0.048397
 522	2.6050e-01	19.2027	103.144480	0.000202	2.021092	0.684764	-0.016132
 523	2.6100e-01	19.1561	102.979123	0.000414	4.143238	1.403767	-0.033071
 524	2.6150e-01	19.1144	102.926693	0.000131	1.313709	0.445097	-0.010486
 525	2.6200e-01	19.0823	102.600012	0.000819	8.185421	2.773296	-0.065336
 526	2.6250e-01	19.0422	102.378191	0.000556	5.558002	1.883102	-0.044364
 527	2.6300e-01	18.9989	102.220901	0.000394	3.941128	1.335290	-0.031458
 528	2.6350e-01	18.9556	102.196702	0.000061	0.606327	0.205429	-0.004840
 529	2.6400e-01	18.9187	102.132172	0.000162	1.616873	0.547811	-0.012906
 530	2.6450e-01	18.8818	101.736929	0.000990	9.903349	3.355345	-0.079049
 531	2.6500e-01	18.8385	101.688532	0.000121	1.212655	0.410859	-0.009679
 532	2.6550e-01	18.8000	101.551406	0.000344	3.435856	1.164099	-0.027425
 533	2.6600e-01	18.7615	101.390082	0.000404	4.042183	1.369529	-0.032265
 534	2.6650e-01	18.7150	101.333619	0.000141	1.414764	0.479335	-0.011293
 535	2.6700e-01	18.6797	100.902077	0.001081	10.812840	3.663489	-0.086308
 536	2.6750e-01	18.6332	100.942408	-0.000101	-1.010546	-0.342382	0.008066
 537	2.6800e-01	18.6123	100.571363	0.000930	9.297021	3.149916	-0.074209
 538	2.6850e-01	18.5626	100.426172	0.000364	3.637965	1.232576	-0.029038
 539	2.6900e-01	18.5209	100.280980	0.000364	3.637965	1.232576	-0.029038
 540	2.6950e-01	18.4872	100.151921	0.000323	3.233746	1.095623	-0.025812
 541	2.7000e-01	18.4407	100.083358	0.000172	1.717928	0.582050	-0.013713
 542	2.7050e-01	18.4086	99.873637	0.000525	5.254838	1.780387	-0.041944
 543	2.7100e-01	18.3540	99.792975	0.000202	2.021092	0.684764	-0.016132
 544	2.7150e-01	18.3187	99.599387	0.000485	4.850620	1.643434	-0.038718
 545	2.7200e-01	18.2818	99.425963	0.000435	4.345347	1.472243	-0.034685
 546	2.7250e-01	18.2417	99.183977	0.000606	6.063275	2.054293	-0.048397
 547	2.7300e-01	18.1936	99.119448	0.000162	1.616873	0.547811	-0.012906
 548	2.7350e-01	18.1679	98.901660	0.000546	5.456947	1.848864	-0.043557
 549	2.7400e-01	18.1086	98.716138	0.000465	4.648511	1.574958	-0.037105
 550	2.7450e-01	18.0749	98.579013	0.000344	3.435856	1.164099	-0.027425
 551	2.7500e-01	18.0364	98.409622	0.000424	4.244292	1.438005	-0.033878
 552	2.7550e-01	17.9995	98.324927	0.000212	2.122146	0.719003	-0.016939
 553	2.7600e-01	17.9610	97.941783	0.000960	9.600185	3.252631	-0.076629
 554	2.7650e-01	17.9177	97.780459	0.000404	4.042183	1.369529	-0.032265
 555	2.7700e-01	17.8872	97.506208	0.000687	6.871711	2.328199	-0.054850
 556	2.7750e-01	17.8407	97.530407	-0.000061	-0.606327	-0.205429	0.004840
 557	2.7800e-01	17.8038	97.195660	0.000839	8.387530	2.841772	-0.066949
 558	2.7850e-01	17.7573	96.989972	0.000515	5.153783	1.746149	-0.041138
 559	2.7900e-01	17.7107	96.925442	0.000162	1.616873	0.547811	-0.012906
 560	2.7950e-01	17.6835	96.735887	0.000475	4.749565	1.609196	-0.037911
 561	2.8000e-01	17.6546	96.429371	0.000768	7.680148	2.602105	-0.061303
 562	2.8050e-01	17.6016	96.497934	-0.000172	-1.717928	-0.582050	0.013713
 563	2.8100e-01	17.5567	96.211584	0.000717	7.174875	2.430913	-0.057270
 564	2.8150e-01	17.5198	95.933300	0.000697	6.972766	2.362437	-0.055657
 565	2.8200e-01	17.4797	95.691314	0.000606	6.063275	2.054293	-0.048397
 566	2.8250e-01	17.4412	95.566288	0.000313	3.132692	1.061385	-0.025005
 567	2.8300e-01	17.3963	95.421096	0.000364	3.637965	1.232576	-0.029038
 568	2.8350e-01	17.3578	95.211375	0.000525	5.254838	1.780387	-0.041944
 569	2.8400e-01	17.3081	95.021820	0.000475	4.749565	1.609196	-0.037911
 570	2.8450e-01	17.2776	94.916959	0.000263	2.627419	0.890194	-0.020972
 571	2.8500e-01	17.2311	94.731437	0.000465	4.648511	1.574958	-0.037105
 572	2.8550e-01	17.2070	94.501550	0.000576	5.760111	1.951578	-0.045977
 573	2.8600e-01	17.1557	94.606410	-0.000263	-2.627419	-0.890194	0.020972
 574	2.8650e-01	17.1140	94.275696	0.000829	8.286475	2.807534	-0.066143
 575	2.8700e-01	17.0835	93.981280	0.000738	7.376984	2.499390	-0.058883
 576	2.8750e-01	17.0466	93.715096	0.000667	6.669602	2.259722	-0.053237
 577	2.8800e-01	17.0001	93.670732	0.000111	1.111600	0.376620	-0.008873
 578	2.8850e-01	16.9583	93.493275	0.000445	4.446401	1.506482	-0.035491
 579	2.8900e-01	16.9070	93.307753	0.000465	4.648511	1.574958	-0.037105
 580	2.8950e-01	16.8797	93.114164	0.000485	4.850620	1.643434	-0.038718
 581	2.9000e-01	16.8364	92.920575	0.000485	4.850620	1.643434	-0.038718
 582	2.9050e-01	16.7995	92.847979	0.000182	1.818982	0.616288	-0.014519
 583	2.9100e-01	16.7610	92.577762	0.000677	6.770657	2.293961	-0.054044
 584	2.9150e-01	16.7225	92.444670	0.000333	3.334801	1.129861	-0.026618
 585	2.9200e-01	16.6744	92.198651	0.000616	6.164329	2.088531	-0.049204
 586	2.9250e-01	16.6327	91.928433	0.000677	6.770657	2.293961	-0.054044
 587	2.9300e-01	16.5862	91.831639	0.000243	2.425310	0.821717	-0.019359
 588	2.9350e-01	16.5621	91.803407	0.000071	0.707382	0.239668	-0.005646
 589	2.9400e-01	16.5204	91.331534	0.001182	11.823385	4.005871	-0.094375
 590	2.9450e-01	16.4819	91.198442	0.000333	3.334801	1.129861	-0.026618
 591	2.9500e-01	16.4370	91.113747	0.000212	2.122146	0.719003	-0.016939
 592	2.9550e-01	16.3969	90.952423	0.000404	4.042183	1.369529	-0.032265
 593	2.9600e-01	16.3648	90.625742	0.000819	8.185421	2.773296	-0.065336
 594	2.9650e-01	16.3263	90.379723	0.000616	6.164329	2.088531	-0.049204
 595	2.9700e-01	16.2749	90.238565	0.000354	3.536910	1.198338	-0.028232
 596	2.9750e-01	16.2348	90.044976	0.000485	4.850620	1.643434	-0.038718
 597	2.9800e-01	16.2011	89.863487	0.000455	4.547456	1.540720	-0.036298
 598	2.9850e-01	16.1610	89.710229	0.000384	3.840074	1.301052	-0.030652
 599	2.9900e-01	16.1209	89.363382	0.000869	8.690694	2.944487	-0.069369
 600	2.9950e-01	16.0744	89.290787	0.000182	1.818982	0.616288	-0.014519
 601	3.0000e-01	16.0423	89.052834	0.000596	5.962220	2.020055	-0.047591
 602	3.0050e-01	16.0006	88.871344	0.000455	4.547456	1.540720	-0.036298
 603	3.0100e-01	15.9733	88.831013	0.000101	1.010546	0.342382	-0.008066
 604	3.0150e-01	15.9188	88.427703	0.001011	10.105458	3.423822	-0.080662
 605	3.0200e-01	15.8819	88.161519	0.000667	6.669602	2.259722	-0.053237
 606	3.0250e-01	15.8434	88.262346	-0.000253	-2.526364	-0.855955	0.020165
 607	3.0300e-01	15.8033	87.879202	0.000960	9.600185	3.252631	-0.076629
 608	3.0350e-01	15.7584	87.705779	0.000435	4.345347	1.472243	-0.034685
 609	3.0400e-01	15.7215	87.516223	0.000475	4.749565	1.609196	-0.037911
 610	3.0450e-01	15.6814	87.282303	0.000586	5.861165	1.985817	-0.046784
 611	3.0500e-01	15.6381	87.112913	0.000424	4.244292	1.438005	-0.033878
 612	3.0550e-01	15.5996	87.032251	0.000202	2.021092	0.684764	-0.016132
 613	3.0600e-01	15.5514	86.745901	0.000717	7.174875	2.430913	-0.057270
 614	3.0650e-01	15.5193	86.649107	0.000243	2.425310	0.821717	-0.019359
 615	3.0700e-01	15.4712	86.556346	0.000232	2.324255	0.787479	-0.018552
 616	3.0750e-01	15.4359	86.245797	0.000778	7.781202	2.636343	-0.062110
 617	3.0800e-01	15.3974	86.169168	0.000192	1.920037	0.650526	-0.015326
 618	3.0850e-01	15.3589	85.927182	0.000606	6.063275	2.054293	-0.048397
 619	3.0900e-01	15.3204	85.665031	0.000657	6.568547	2.225484	-0.052430
 620	3.0950e-01	15.2643	85.386747	0.000697	6.972766	2.362437	-0.055657
 621	3.1000e-01	15.2370	85.370615	0.000040	0.404218	0.136953	-0.003226
 622	3.1050e-01	15.1937	85.072165	0.000748	7.478039	2.533628	-0.059690
 623	3.1100e-01	15.1568	84.672889	0.001000	10.004403	3.389584	-0.079855
 624	3.1150e-01	15.1215	84.826146	-0.000384	-3.840074	-1.301052	0.030652
 625	3.1200e-01	15.0782	84.499465	0.000819	8.185421	2.773296	-0.065336
 626	3.1250e-01	15.0381	84.289744	0.000525	5.254838	1.780387	-0.041944
 627	3.1300e-01	14.9996	84.075990	0.000536	5.355893	1.814626	-0.042751
 628	3.1350e-01	14.9563	83.983229	0.000232	2.324255	0.787479	-0.018552
 629	3.1400e-01	14.9210	83.648482	0.000839	8.387530	2.841772	-0.066949
 630	3.1450e-01	14.8793	83.479091	0.000424	4.244292	1.438005	-0.033878
 631	3.1500e-01	14.8359	83.426661	0.000131	1.313709	0.445097	-0.010486
 632	3.1550e-01	14.7910	83.188708	0.000596	5.962220	2.020055	-0.047591
 633	3.1600e-01	14.7541	82.890259	0.000748	7.478039	2.533628	-0.059690
 634	3.1650e-01	14.7156	82.757167	0.000333	3.334801	1.129861	-0.026618
 635	3.1700e-01	14.6787	82.527280	0.000576	5.760111	1.951578	-0.045977
 636	3.1750e-01	14.6338	82.527280	-0.000000	-0.000000	-0.000000	0.000000
 637	3.1800e-01	14.5937	82.273195	0.000637	6.366438	2.157008	-0.050817
 638	3.1850e-01	14.5456	81.974746	0.000748	7.478039	2.533628	-0.059690
 639	3.1900e-01	14.5215	81.946514	0.000071	0.707382	0.239668	-0.005646
 640	3.1950e-01	14.4830	81.692429	0.000637	6.366438	2.157008	-0.050817
 641	3.2000e-01	14.4461	81.297185	0.000990	9.903349	3.355345	-0.079049
 642	3.2050e-01	14.3996	81.067298	0.000576	5.760111	1.951578	-0.045977
 643	3.2100e-01	14.3563	80.901941	0.000414	4.143238	1.403767	-0.033071
 644	3.2150e-01	14.3098	80.938239	-0.000091	-0.909491	-0.308144	0.007260
 645	3.2200e-01	14.2729	80.680121	0.000647	6.467493	2.191246	-0.051624
 646	3.2250e-01	14.2408	80.393771	0.000717	7.174875	2.430913	-0.057270
 647	3.2300e-01	14.1959	80.135653	0.000647	6.467493	2.191246	-0.051624
 648	3.2350e-01	14.1541	79.829137	0.000768	7.680148	2.602105	-0.061303
 649	3.2400e-01	14.1189	79.724277	0.000263	2.627419	0.890194	-0.020972
 650	3.2450e-01	14.0820	79.522622	0.000505	5.052729	1.711911	-0.040331
 651	3.2500e-01	14.0386	79.337099	0.000465	4.648511	1.574958	-0.037105
 652	3.2550e-01	14.0066	79.066882	0.000677	6.770657	2.293961	-0.054044
 653	3.2600e-01	13.9600	78.764399	0.000758	7.579093	2.567866	-0.060496
 654	3.2650e-01	13.9247	78.881359	-0.000293	-2.930583	-0.992908	0.023392
 655	3.2700e-01	13.8766	78.474016	0.001021	10.206512	3.458060	-0.081469
 656	3.2750e-01	13.8397	78.474016	-0.000000	-0.000000	-0.000000	0.000000
 657	3.2800e-01	13.7852	78.316725	0.000394	3.941128	1.335290	-0.031458
 658	3.2850e-01	13.7595	78.018276	0.000748	7.478039	2.533628	-0.059690
 659	3.2900e-01	13.7162	77.856952	0.000404	4.042183	1.369529	-0.032265
 660	3.2950e-01	13.6793	77.590767	0.000667	6.669602	2.259722	-0.053237
 661	3.3000e-01	13.6376	77.671429	-0.000202	-2.021092	-0.684764	0.016132
 662	3.3050e-01	13.5975	77.038233	0.001587	15.865569	5.375400	-0.126639
 663	3.3100e-01	13.5542	76.949505	0.000222	2.223201	0.753241	-0.017746
 664	3.3150e-01	13.5125	76.800280	0.000374	3.739019	1.266814	-0.029845
 665	3.3200e-01	13.4852	76.344540	0.001142	11.419167	3.868919	-0.091148
 666	3.3250e-01	13.4419	76.211448	0.000333	3.334801	1.129861	-0.026618
 667	3.3300e-01	13.4034	76.179183	0.000081	0.808437	0.273906	-0.006453
 668	3.3350e-01	13.3472	75.876701	0.000758	7.579093	2.567866	-0.060496
 669	3.3400e-01	13.3264	75.666979	0.000525	5.254838	1.780387	-0.041944
 670	3.3450e-01	13.2718	75.735542	-0.000172	-1.717928	-0.582050	0.013713
 671	3.3500e-01	13.2317	75.412894	0.000808	8.084366	2.739057	-0.064530
 672	3.3550e-01	13.1932	75.243504	0.000424	4.244292	1.438005	-0.033878
 673	3.3600e-01	13.1611	75.106379	0.000344	3.435856	1.164099	-0.027425
 674	3.3650e-01	13.1226	74.783731	0.000808	8.084366	2.739057	-0.064530
 675	3.3700e-01	13.0777	74.682903	0.000253	2.526364	0.855955	-0.020165
 676	3.3750e-01	13.0424	74.565944	0.000293	2.930583	0.992908	-0.023392
 677	3.3800e-01	12.9911	74.178766	0.000970	9.701239	3.286869	-0.077435
 678	3.3850e-01	12.9622	73.896449	0.000707	7.073820	2.396675	-0.056463
 679	3.3900e-01	12.9253	73.279385	0.001546	15.461350	5.238447	-0.123413
 680	3.3950e-01	12.8676	73.259220	0.000051	0.505273	0.171191	-0.004033
 681	3.4000e-01	12.8339	73.319716	-0.000152	-1.515819	-0.513573	0.012099
 682	3.4050e-01	12.8002	73.162425	0.000394	3.941128	1.335290	-0.031458
 683	3.4100e-01	12.7633	72.823645	0.000849	8.488584	2.876010	-0.067756
 684	3.4150e-01	12.7200	72.868009	-0.000111	-1.111600	-0.376620	0.008873
 685	3.4200e-01	12.6702	72.315474	0.001384	13.844477	4.690636	-0.110507
 686	3.4250e-01	12.6414	72.146084	0.000424	4.244292	1.438005	-0.033878
 687	3.4300e-01	12.5884	72.109786	0.000091	0.909491	0.308144	-0.007260
 688	3.4350e-01	12.5595	71.863767	0.000616	6.164329	2.088531	-0.049204
 689	3.4400e-01	12.5162	71.766973	0.000243	2.425310	0.821717	-0.019359
 690	3.4450e-01	12.4841	71.504822	0.000657	6.568547	2.225484	-0.052430
 691	3.4500e-01	12.4472	71.295101	0.000525	5.254838	1.780387	-0.041944
 692	3.4550e-01	12.4007	71.036982	0.000647	6.467493	2.191246	-0.051624
 693	3.4600e-01	12.3542	70.815162	0.000556	5.558002	1.883102	-0.044364
 694	3.4650e-01	12.3189	70.899857	-0.000212	-2.122146	-0.719003	0.016939
 695	3.4700e-01	12.2804	70.569143	0.000829	8.286475	2.807534	-0.066143
 696	3.4750e-01	12.2291	70.355389	0.000536	5.355893	1.814626	-0.042751
 697	3.4800e-01	12.2066	70.165833	0.000475	4.749565	1.609196	-0.037911
 698	3.4850e-01	12.1617	69.625398	0.001354	13.541313	4.587921	-0.108087
 699	3.4900e-01	12.1312	69.347114	0.000697	6.972766	2.362437	-0.055657
 700	3.4950e-01	12.0783	69.278551	0.000172	1.717928	0.582050	-0.013713
 701	3.5000e-01	12.0478	69.258386	0.000051	0.505273	0.171191	-0.004033
 702	3.5050e-01	11.9997	69.036565	0.000556	5.558002	1.883102	-0.044364
 703	3.5100e-01	11.9660	68.750215	0.000717	7.174875	2.430913	-0.057270
 704	3.5150e-01	11.9211	68.532428	0.000546	5.456947	1.848864	-0.043557
 705	3.5200e-01	11.8729	68.451766	0.000202	2.021092	0.684764	-0.016132
 706	3.5250e-01	11.8328	68.314641	0.000344	3.435856	1.164099	-0.027425
 707	3.5300e-01	11.7991	68.004092	0.000778	7.781202	2.636343	-0.062110
 708	3.5350e-01	11.7638	67.661279	0.000859	8.589639	2.910248	-0.068563
 709	3.5400e-01	11.7253	67.608848	0.000131	1.313709	0.445097	-0.010486
 710	3.5450e-01	11.6852	67.342664	0.000667	6.669602	2.259722	-0.053237
 711	3.5500e-01	11.6451	67.141009	0.000505	5.052729	1.711911	-0.040331
 712	3.5550e-01	11.6050	67.072446	0.000172	1.717928	0.582050	-0.013713
 713	3.5600e-01	11.5505	66.834493	0.000596	5.962220	2.020055	-0.047591
 714	3.5650e-01	11.5200	66.604607	0.000576	5.760111	1.951578	-0.045977
 715	3.5700e-01	11.4751	66.269860	0.000839	8.387530	2.841772	-0.066949
 716	3.5750e-01	11.4478	65.902848	0.000920	9.195966	3.115678	-0.073402
 717	3.5800e-01	11.4013	65.797987	0.000263	2.627419	0.890194	-0.020972
 718	3.5850e-01	11.3548	65.620531	0.000445	4.446401	1.506482	-0.035491
 719	3.5900e-01	11.3227	65.406777	0.000536	5.355893	1.814626	-0.042751
 720	3.5950e-01	11.2794	65.156724	0.000627	6.265384	2.122769	-0.050010
 721	3.6000e-01	11.2473	64.688885	0.001172	11.722331	3.971633	-0.093568
 722	3.6050e-01	11.1975	64.668720	0.000051	0.505273	0.171191	-0.004033
 723	3.6100e-01	11.1574	64.563859	0.000263	2.627419	0.890194	-0.020972
 724	3.6150e-01	11.1221	64.293641	0.000677	6.770657	2.293961	-0.054044
 725	3.6200e-01	11.0804	64.132317	0.000404	4.042183	1.369529	-0.032265
 726	3.6250e-01	11.0419	64.007291	0.000313	3.132692	1.061385	-0.025005
 727	3.6300e-01	11.0002	63.733041	0.000687	6.871711	2.328199	-0.054850
 728	3.6350e-01	10.9617	63.482989	0.000627	6.265384	2.122769	-0.050010
 729	3.6400e-01	10.9232	63.422492	0.000152	1.515819	0.513573	-0.012099
 730	3.6450e-01	10.8847	63.216804	0.000515	5.153783	1.746149	-0.041138
 731	3.6500e-01	10.8510	63.003050	0.000536	5.355893	1.814626	-0.042751
 732	3.6550e-01	10.8125	62.704601	0.000748	7.478039	2.533628	-0.059690
 733	3.6600e-01	10.7628	62.402118	0.000758	7.579093	2.567866	-0.060496
 734	3.6650e-01	10.7307	62.091570	0.000778	7.781202	2.636343	-0.062110
 735	3.6700e-01	10.6890	61.906047	0.000465	4.648511	1.574958	-0.037105
 736	3.6750e-01	10.6345	61.805220	0.000253	2.526364	0.855955	-0.020165
 737	3.6800e-01	10.5960	61.772955	0.000081	0.808437	0.273906	-0.006453
 738	3.6850e-01	10.5607	61.434174	0.000849	8.488584	2.876010	-0.067756
 739	3.6900e-01	10.5222	61.119593	0.000788	7.882257	2.670581	-0.062916
 740	3.6950e-01	10.4788	61.095394	0.000061	0.606327	0.205429	-0.004840
 741	3.7000e-01	10.4355	60.821143	0.000687	6.871711	2.328199	-0.054850
 742	3.7050e-01	10.4051	60.619489	0.000505	5.052729	1.711911	-0.040331
 743	3.7100e-01	10.3569	60.369436	0.000627	6.265384	2.122769	-0.050010
 744	3.7150e-01	10.3200	60.115351	0.000637	6.366438	2.157008	-0.050817
 745	3.7200e-01	10.2831	59.748339	0.000920	9.195966	3.115678	-0.073402
 746	3.7250e-01	10.2462	59.599115	0.000374	3.739019	1.266814	-0.029845
 747	3.7300e-01	10.1981	59.502320	0.000243	2.425310	0.821717	-0.019359
 748	3.7350e-01	10.1612	59.316798	0.000465	4.648511	1.574958	-0.037105
 749	3.7400e-01	10.1195	58.990117	0.000819	8.185421	2.773296	-0.065336
 750	3.7450e-01	10.0778	58.631171	0.000899	8.993857	3.047201	-0.071789
 751	3.7500e-01	10.0457	58.477913	0.000384	3.840074	1.301052	-0.030652
 752	3.7550e-01	9.9992	58.300457	0.000445	4.446401	1.506482	-0.035491
 753	3.7600e-01	9.9543	58.211729	0.000222	2.223201	0.753241	-0.017746
 754	3.7650e-01	9.9158	57.977809	0.000586	5.861165	1.985817	-0.046784
 755	3.7700e-01	9.8805	57.792286	0.000465	4.648511	1.574958	-0.037105
 756	3.7750e-01	9.8548	57.659194	0.000333	3.334801	1.129861	-0.026618
 757	3.7800e-01	9.7970	57.167156	0.001233	12.328658	4.177063	-0.098408
 758	3.7850e-01	9.7569	56.969534	0.000495	4.951674	1.677673	-0.039524
 759	3.7900e-01	9.7184	56.691251	0.000697	6.972766	2.362437	-0.055657
 760	3.7950e-01	9.6815	56.445231	0.000616	6.164329	2.088531	-0.049204
 761	3.8000e-01	9.6414	56.497662	-0.000131	-1.313709	-0.445097	0.010486
 762	3.8050e-01	9.5917	56.328272	0.000424	4.244292	1.438005	-0.033878
 763	3.8100e-01	9.5628	56.251643	0.000192	1.920037	0.650526	-0.015326
 764	3.8150e-01	9.5163	55.920929	0.000829	8.286475	2.807534	-0.066143
 765	3.8200e-01	9.4810	55.578115	0.000859	8.589639	2.910248	-0.068563
 766	3.8250e-01	9.4409	55.267567	0.000778	7.781202	2.636343	-0.062110
 767	3.8300e-01	9.4040	54.836025	0.001081	10.812840	3.663489	-0.086308
 768	3.8350e-01	9.3671	54.735198	0.000253	2.526364	0.855955	-0.020165
 769	3.8400e-01	9.3222	54.775529	-0.000101	-1.010546	-0.342382	0.008066
 770	3.8450e-01	9.2821	54.626304	0.000374	3.739019	1.266814	-0.029845
 771	3.8500e-01	9.2324	54.436748	0.000475	4.749565	1.609196	-0.037911
 772	3.8550e-01	9.1987	54.227027	0.000525	5.254838	1.780387	-0.041944
 773	3.8600e-01	9.1586	53.839850	0.000970	9.701239	3.286869	-0.077435
 774	3.8650e-01	9.1281	53.448639	0.000980	9.802294	3.321107	-0.078242
 775	3.8700e-01	9.0735	53.521235	-0.000182	-1.818982	-0.616288	0.014519
 776	3.8750e-01	9.0399	53.049362	0.001182	11.823385	4.005871	-0.094375
 777	3.8800e-01	8.9837	52.964667	0.000212	2.122146	0.719003	-0.016939
 778	3.8850e-01	8.9645	52.763012	0.000505	5.052729	1.711911	-0.040331
 779	3.8900e-01	8.9179	52.746880	0.000040	0.404218	0.136953	-0.003226
 780	3.8950e-01	8.8650	52.549258	0.000495	4.951674	1.677673	-0.039524
 781	3.9000e-01	8.8441	52.024955	0.001314	13.137095	4.450968	-0.104861
 782	3.9050e-01	8.7976	51.956393	0.000172	1.717928	0.582050	-0.013713
 783	3.9100e-01	8.7591	51.545017	0.001031	10.307567	3.492298	-0.082275
 784	3.9150e-01	8.7190	51.379660	0.000414	4.143238	1.403767	-0.033071
 785	3.9200e-01	8.6741	51.238501	0.000354	3.536910	1.198338	-0.028232
 786	3.9250e-01	8.6356	51.069111	0.000424	4.244292	1.438005	-0.033878
 787	3.9300e-01	8.6003	50.710165	0.000899	8.993857	3.047201	-0.071789
 788	3.9350e-01	8.5570	50.661768	0.000121	1.212655	0.410859	-0.009679
 789	3.9400e-01	8.5153	50.399617	0.000657	6.568547	2.225484	-0.052430
 790	3.9450e-01	8.4800	50.165697	0.000586	5.861165	1.985817	-0.046784
 791	3.9500e-01	8.4415	49.887413	0.000697	6.972766	2.362437	-0.055657
 792	3.9550e-01	8.3966	49.617196	0.000677	6.770657	2.293961	-0.054044
 793	3.9600e-01	8.3532	49.399408	0.000546	5.456947	1.848864	-0.043557
 794	3.9650e-01	8.3276	49.266316	0.000333	3.334801	1.129861	-0.026618
 795	3.9700e-01	8.2810	49.032396	0.000586	5.861165	1.985817	-0.046784
 796	3.9750e-01	8.2409	48.871072	0.000404	4.042183	1.369529	-0.032265
 797	3.9800e-01	8.1944	48.669417	0.000505	5.052729	1.711911	-0.040331
 798	3.9850e-01	8.1655	48.354836	0.000788	7.882257	2.670581	-0.062916
 799	3.9900e-01	8.1206	48.032188	0.000808	8.084366	2.739057	-0.064530
 800	3.9950e-01	8.0821	47.818434	0.000536	5.355893	1.814626	-0.042751
 801	4.0000e-01	8.0452	47.628878	0.000475	4.749565	1.609196	-0.037911
 802	4.0050e-01	8.0035	47.511918	0.000293	2.930583	0.992908	-0.023392
 803	4.0100e-01	7.9602	47.330429	0.000455	4.547456	1.540720	-0.036298
 804	4.0150e-01	7.9185	47.100542	0.000576	5.760111	1.951578	-0.045977
 805	4.0200e-01	7.8768	46.886788	0.000536	5.355893	1.814626	-0.042751
 806	4.0250e-01	7.8399	46.681100	0.000515	5.153783	1.746149	-0.041138
 807	4.0300e-01	7.8046	46.245525	0.001091	10.913894	3.697727	-0.087115
 808	4.0350e-01	7.7613	46.035804	0.000525	5.254838	1.780387	-0.041944
 809	4.0400e-01	7.7196	46.047903	-0.000030	-0.303164	-0.102715	0.002420
 810	4.0450e-01	7.6779	45.729289	0.000798	7.983312	2.704819	-0.063723
 811	4.0500e-01	7.6458	45.612329	0.000293	2.930583	0.992908	-0.023392
 812	4.0550e-01	7.6009	45.184820	0.001071	10.711785	3.629251	-0.085502
 813	4.0600e-01	7.5575	44.930735	0.000637	6.366438	2.157008	-0.050817
 814	4.0650e-01	7.5287	44.664550	0.000667	6.669602	2.259722	-0.053237
 815	4.0700e-01	7.4757	44.422565	0.000606	6.063275	2.054293	-0.048397
 816	4.0750e-01	7.4324	44.120082	0.000758	7.579093	2.567866	-0.060496
 817	4.0800e-01	7.4051	43.914394	0.000515	5.153783	1.746149	-0.041138
 818	4.0850e-01	7.3682	43.894229	0.000051	0.505273	0.171191	-0.004033
 819	4.0900e-01	7.3185	43.805500	0.000222	2.223201	0.753241	-0.017746
 820	4.0950e-01	7.2848	43.474786	0.000829	8.286475	2.807534	-0.066143
 821	4.1000e-01	7.2431	43.063410	0.001031	10.307567	3.492298	-0.082275
 822	4.1050e-01	7.2030	42.934351	0.000323	3.233746	1.095623	-0.025812
 823	4.1100e-01	7.1581	42.656067	0.000697	6.972766	2.362437	-0.055657
 824	4.1150e-01	7.1212	42.450379	0.000515	5.153783	1.746149	-0.041138
 825	4.1200e-01	7.0763	42.168062	0.000707	7.073820	2.396675	-0.056463
 826	4.1250e-01	7.0314	41.784918	0.000960	9.600185	3.252631	-0.076629
 827	4.1300e-01	6.9993	42.043036	-0.000647	-6.467493	-2.191246	0.051624
 828	4.1350e-01	6.9495	41.595362	0.001122	11.217058	3.800442	-0.089535
 829	4.1400e-01	6.9158	41.575197	0.000051	0.505273	0.171191	-0.004033
 830	4.1450e-01	6.8773	41.224317	0.000879	8.791748	2.978725	-0.070176
 831	4.1500e-01	6.8292	40.853272	0.000930	9.297021	3.149916	-0.074209
 832	4.1550e-01	6.8019	40.764544	0.000222	2.223201	0.753241	-0.017746
 833	4.1600e-01	6.7586	40.554823	0.000525	5.254838	1.780387	-0.041944
 834	4.1650e-01	6.7185	40.163612	0.000980	9.802294	3.321107	-0.078242
 835	4.1700e-01	6.6784	40.046653	0.000293	2.930583	0.992908	-0.023392
 836	4.1750e-01	6.6431	39.905494	0.000354	3.536910	1.198338	-0.028232
 837	4.1800e-01	6.6014	39.667541	0.000596	5.962220	2.020055	-0.047591
 838	4.1850e-01	6.5533	39.361026	0.000768	7.680148	2.602105	-0.061303
 839	4.1900e-01	6.5132	39.248099	0.000283	2.829528	0.958670	-0.022585
 840	4.1950e-01	6.4811	38.594737	0.001637	16.370841	5.546591	-0.130672
 841	4.2000e-01	6.4298	38.639101	-0.000111	-1.111600	-0.376620	0.008873
 842	4.2050e-01	6.3993	38.711697	-0.000182	-1.818982	-0.616288	0.014519
 843	4.2100e-01	6.3592	38.469711	0.000606	6.063275	2.054293	-0.048397
 844	4.2150e-01	6.3223	38.207560	0.000657	6.568547	2.225484	-0.052430
 845	4.2200e-01	6.2854	37.868779	0.000849	8.488584	2.876010	-0.067756
 846	4.2250e-01	6.2389	37.759886	0.000273	2.728474	0.924432	-0.021779
 847	4.2300e-01	6.1923	37.473536	0.000717	7.174875	2.430913	-0.057270
 848	4.2350e-01	6.1538	37.171053	0.000758	7.579093	2.567866	-0.060496
 849	4.2400e-01	6.1089	36.953266	0.000546	5.456947	1.848864	-0.043557
 850	4.2450e-01	6.0784	36.771777	0.000455	4.547456	1.540720	-0.036298
 851	4.2500e-01	6.0415	36.872604	-0.000253	-2.526364	-0.855955	0.020165
 852	4.2550e-01	6.0014	36.283772	0.001475	14.753968	4.998780	-0.117766
 853	4.2600e-01	5.9581	35.880462	0.001011	10.105458	3.423822	-0.080662
 854	4.2650e-01	5.9116	35.912727	-0.000081	-0.808437	-0.273906	0.006453
 855	4.2700e-01	5.8795	35.626377	0.000717	7.174875	2.430913	-0.057270
 856	4.2750e-01	5.8394	35.223067	0.001011	10.105458	3.423822	-0.080662
 857	4.2800e-01	5.7993	35.223067	-0.000000	-0.000000	-0.000000	0.000000
 858	4.2850e-01	5.7528	34.823790	0.001000	10.004403	3.389584	-0.079855
 859	4.2900e-01	5.7127	34.694731	0.000323	3.233746	1.095623	-0.025812
 860	4.2950e-01	5.6726	34.485010	0.000525	5.254838	1.780387	-0.041944
 861	4.3000e-01	5.6325	34.202693	0.000707	7.073820	2.396675	-0.056463
 862	4.3050e-01	5.6068	33.799383	0.001011	10.105458	3.423822	-0.080662
 863	4.3100e-01	5.5587	33.666291	0.000333	3.334801	1.129861	-0.026618
 864	4.3150e-01	5.5186	33.363808	0.000758	7.579093	2.567866	-0.060496
 865	4.3200e-01	5.4785	33.041160	0.000808	8.084366	2.739057	-0.064530
 866	4.3250e-01	5.4432	32.936300	0.000263	2.627419	0.890194	-0.020972
 867	4.3300e-01	5.3950	32.706413	0.000576	5.760111	1.951578	-0.045977
 868	4.3350e-01	5.3678	32.678181	0.000071	0.707382	0.239668	-0.005646
 869	4.3400e-01	5.3244	32.234541	0.001112	11.116003	3.766204	-0.088728
 870	4.3450e-01	5.2763	32.117581	0.000293	2.930583	0.992908	-0.023392
 871	4.3500e-01	5.2362	32.020786	0.000243	2.425310	0.821717	-0.019359
 872	4.3550e-01	5.1929	31.766701	0.000637	6.366438	2.157008	-0.050817
 873	4.3600e-01	5.1576	31.657807	0.000273	2.728474	0.924432	-0.021779
 874	4.3650e-01	5.1223	31.093174	0.001415	14.147641	4.793350	-0.112927
 875	4.3700e-01	5.0774	30.947982	0.000364	3.637965	1.232576	-0.029038
 876	4.3750e-01	5.0325	30.778592	0.000424	4.244292	1.438005	-0.033878
 877	4.3800e-01	5.0036	30.637434	0.000354	3.536910	1.198338	-0.028232
 878	4.3850e-01	4.9539	30.472076	0.000414	4.143238	1.403767	-0.033071
 879	4.3900e-01	4.9186	30.088932	0.000960	9.600185	3.252631	-0.076629
 880	4.3950e-01	4.8881	29.778384	0.000778	7.781202	2.636343	-0.062110
 881	4.4000e-01	4.8336	29.548497	0.000576	5.760111	1.951578	-0.045977
 882	4.4050e-01	4.7934	29.310544	0.000596	5.962220	2.020055	-0.047591
 883	4.4100e-01	4.7614	29.088724	0.000556	5.558002	1.883102	-0.044364
 884	4.4150e-01	4.7197	28.939499	0.000374	3.739019	1.266814	-0.029845
 885	4.4200e-01	4.6795	28.677348	0.000657	6.568547	2.225484	-0.052430
 886	4.4250e-01	4.6346	28.354700	0.000808	8.084366	2.739057	-0.064530
 887	4.4300e-01	4.6041	28.149012	0.000515	5.153783	1.746149	-0.041138
 888	4.4350e-01	4.5721	28.048184	0.000253	2.526364	0.855955	-0.020165
 889	4.4400e-01	4.5207	27.790066	0.000647	6.467493	2.191246	-0.051624
 890	4.4450e-01	4.4758	27.362557	0.001071	10.711785	3.629251	-0.085502
 891	4.4500e-01	4.4325	27.273829	0.000222	2.223201	0.753241	-0.017746
 892	4.4550e-01	4.3956	26.939082	0.000839	8.387530	2.841772	-0.066949
 893	4.4600e-01	4.3587	26.874553	0.000162	1.616873	0.547811	-0.012906
 894	4.4650e-01	4.3122	26.584169	0.000728	7.275930	2.465152	-0.058077
 895	4.4700e-01	4.2785	26.213124	0.000930	9.297021	3.149916	-0.074209
 896	4.4750e-01	4.2368	26.084065	0.000323	3.233746	1.095623	-0.025812
 897	4.4800e-01	4.1951	25.946940	0.000344	3.435856	1.164099	-0.027425
 898	4.4850e-01	4.1518	25.729153	0.000546	5.456947	1.848864	-0.043557
 899	4.4900e-01	4.1197	25.370207	0.000899	8.993857	3.047201	-0.071789
 900	4.4950e-01	4.0731	25.083857	0.000717	7.174875	2.430913	-0.057270
 901	4.5000e-01	4.0491	24.946731	0.000344	3.435856	1.164099	-0.027425
 902	4.5050e-01	4.0042	24.817672	0.000323	3.233746	1.095623	-0.025812
 903	4.5100e-01	3.9609	24.430495	0.000970	9.701239	3.286869	-0.077435
 904	4.5150e-01	3.9175	24.253038	0.000445	4.446401	1.506482	-0.035491
 905	4.5200e-01	3.8822	23.857795	0.000990	9.903349	3.355345	-0.079049
 906	4.5250e-01	3.8389	23.861828	-0.000010	-0.101055	-0.034238	0.000807
 907	4.5300e-01	3.8036	23.652107	0.000525	5.254838	1.780387	-0.041944
 908	4.5350e-01	3.7667	23.349624	0.000758	7.579093	2.567866	-0.060496
 909	4.5400e-01	3.7234	22.950348	0.001000	10.004403	3.389584	-0.079855
 910	4.5450e-01	3.6769	22.946314	0.000010	0.101055	0.034238	-0.000807
 911	4.5500e-01	3.6352	22.655931	0.000728	7.275930	2.465152	-0.058077
 912	4.5550e-01	3.5967	22.434111	0.000556	5.558002	1.883102	-0.044364
 913	4.5600e-01	3.5566	22.454276	-0.000051	-0.505273	-0.171191	0.004033
 914	4.5650e-01	3.5197	21.946106	0.001273	12.732877	4.314015	-0.101634
 915	4.5700e-01	3.4764	21.587160	0.000899	8.993857	3.047201	-0.071789
 916	4.5750e-01	3.4298	21.639591	-0.000131	-1.313709	-0.445097	0.010486
 917	4.5800e-01	3.4058	21.183850	0.001142	11.419167	3.868919	-0.091148
 918	4.5850e-01	3.3625	20.861203	0.000808	8.084366	2.739057	-0.064530
 919	4.5900e-01	3.3176	20.760375	0.000253	2.526364	0.855955	-0.020165
 920	4.5950e-01	3.2758	20.615184	0.000364	3.637965	1.232576	-0.029038
 921	4.6000e-01	3.2406	20.304635	0.000778	7.781202	2.636343	-0.062110
 922	4.6050e-01	3.2053	20.090881	0.000536	5.355893	1.814626	-0.042751
 923	4.6100e-01	3.1539	19.792431	0.000748	7.478039	2.533628	-0.059690
 924	4.6150e-01	3.1266	19.602876	0.000475	4.749565	1.609196	-0.037911
 925	4.6200e-01	3.0753	19.473817	0.000323	3.233746	1.095623	-0.025812
 926	4.6250e-01	3.0416	19.163268	0.000778	7.781202	2.636343	-0.062110
 927	4.6300e-01	3.0015	18.848686	0.000788	7.882257	2.670581	-0.062916
 928	4.6350e-01	2.9614	18.610734	0.000596	5.962220	2.020055	-0.047591
 929	4.6400e-01	2.9213	18.243722	0.000920	9.195966	3.115678	-0.073402
 930	4.6450e-01	2.8828	18.110629	0.000333	3.334801	1.129861	-0.026618
 931	4.6500e-01	2.8395	18.001736	0.000273	2.728474	0.924432	-0.021779
 932	4.6550e-01	2.8010	17.816213	0.000465	4.648511	1.574958	-0.037105
 933	4.6600e-01	2.7513	17.558095	0.000647	6.467493	2.191246	-0.051624
 934	4.6650e-01	2.7160	17.384672	0.000435	4.345347	1.472243	-0.034685
 935	4.6700e-01	2.6839	16.945064	0.001101	11.014949	3.731966	-0.087922
 936	4.6750e-01	2.6390	16.920865	0.000061	0.606327	0.205429	-0.004840
 937	4.6800e-01	2.5940	16.723243	0.000495	4.951674	1.677673	-0.039524
 938	4.6850e-01	2.5604	16.311867	0.001031	10.307567	3.492298	-0.082275
 939	4.6900e-01	2.5138	16.118279	0.000485	4.850620	1.643434	-0.038718
 940	4.6950e-01	2.4834	15.831929	0.000717	7.174875	2.430913	-0.057270
 941	4.7000e-01	2.4400	15.686737	0.000364	3.637965	1.232576	-0.029038
 942	4.7050e-01	2.3967	15.452817	0.000586	5.861165	1.985817	-0.046784
 943	4.7100e-01	2.3566	15.509281	-0.000141	-1.414764	-0.479335	0.011293
 944	4.7150e-01	2.3181	15.210831	0.000748	7.478039	2.533628	-0.059690
 945	4.7200e-01	2.2828	14.783323	0.001071	10.711785	3.629251	-0.085502
 946	4.7250e-01	2.2379	14.480841	0.000758	7.579093	2.567866	-0.060496
 947	4.7300e-01	2.1930	14.234822	0.000616	6.164329	2.088531	-0.049204
 948	4.7350e-01	2.1577	14.029133	0.000515	5.153783	1.746149	-0.041138
 949	4.7400e-01	2.1160	13.843611	0.000465	4.648511	1.574958	-0.037105
 950	4.7450e-01	2.0855	13.799247	0.000111	1.111600	0.376620	-0.008873
 951	4.7500e-01	2.0342	13.311242	0.001223	12.227604	4.142824	-0.097601
 952	4.7550e-01	1.9957	12.984561	0.000819	8.185421	2.773296	-0.065336
 953	4.7600e-01	1.9620	12.786939	0.000495	4.951674	1.677673	-0.039524
 954	4.7650e-01	1.9122	12.766774	0.000051	0.505273	0.171191	-0.004033
 955	4.7700e-01	1.8818	12.371530	0.000990	9.903349	3.355345	-0.079049
 956	4.7750e-01	1.8401	12.141643	0.000576	5.760111	1.951578	-0.045977
 957	4.7800e-01	1.7935	11.867393	0.000687	6.871711	2.328199	-0.054850
 958	4.7850e-01	1.7566	11.746400	0.000303	3.031637	1.027147	-0.024199
 959	4.7900e-01	1.7213	11.383421	0.000909	9.094912	3.081440	-0.072596
 960	4.7950e-01	1.6764	11.209998	0.000435	4.345347	1.472243	-0.034685
 961	4.8000e-01	1.6283	10.834919	0.000940	9.398076	3.184154	-0.075016
 962	4.8050e-01	1.5946	10.669562	0.000414	4.143238	1.403767	-0.033071
 963	4.8100e-01	1.5529	10.459841	0.000525	5.254838	1.780387	-0.041944
 964	4.8150e-01	1.5160	10.334815	0.000313	3.132692	1.061385	-0.025005
 965	4.8200e-01	1.4711	10.254153	0.000202	2.021092	0.684764	-0.016132
 966	4.8250e-01	1.4390	9.927472	0.000819	8.185421	2.773296	-0.065336
 967	4.8300e-01	1.3957	9.491898	0.001091	10.913894	3.697727	-0.087115
 968	4.8350e-01	1.3604	9.362838	0.000323	3.233746	1.095623	-0.025812
 969	4.8400e-01	1.3203	8.983727	0.000950	9.499130	3.218392	-0.075822
 970	4.8450e-01	1.2754	8.903065	0.000202	2.021092	0.684764	-0.016132
 971	4.8500e-01	1.2321	8.604616	0.000748	7.478039	2.533628	-0.059690
 972	4.8550e-01	1.2064	8.277935	0.000819	8.185421	2.773296	-0.065336
 973	4.8600e-01	1.1711	8.148876	0.000323	3.233746	1.095623	-0.025812
 974	4.8650e-01	1.1149	7.745566	0.001011	10.105458	3.423822	-0.080662
 975	4.8700e-01	1.0796	7.527779	0.000546	5.456947	1.848864	-0.043557
 976	4.8750e-01	1.0411	7.277726	0.000627	6.265384	2.122769	-0.050010
 977	4.8800e-01	0.9994	7.156733	0.000303	3.031637	1.027147	-0.024199
 978	4.8850e-01	0.9513	7.031707	0.000313	3.132692	1.061385	-0.025005
 979	4.8900e-01	0.9144	6.838119	0.000485	4.850620	1.643434	-0.038718
 980	4.8950e-01	0.8711	6.527570	0.000778	7.781202	2.636343	-0.062110
 981	4.9000e-01	0.8438	6.063764	0.001162	11.621276	3.937395	-0.092761
 982	4.9050e-01	0.7925	5.793546	0.000677	6.770657	2.293961	-0.054044
 983	4.9100e-01	0.7588	5.821778	-0.000071	-0.707382	-0.239668	0.005646
 984	4.9150e-01	0.7123	5.487031	0.000839	8.387530	2.841772	-0.066949
 985	4.9200e-01	0.6754	5.281343	0.000515	5.153783	1.746149	-0.041138
 986	4.9250e-01	0.6433	5.015158	0.000667	6.669602	2.259722	-0.053237
 987	4.9300e-01	0.6000	4.886099	0.000323	3.233746	1.095623	-0.025812
 988	4.9350e-01	0.5519	4.720742	0.000414	4.143238	1.403767	-0.033071
 989	4.9400e-01	0.5246	4.369862	0.000879	8.791748	2.978725	-0.070176
 990	4.9450e-01	0.4813	4.095612	0.000687	6.871711	2.328199	-0.054850
 991	4.9500e-01	0.4380	3.910089	0.000465	4.648511	1.574958	-0.037105
 992	4.9550e-01	0.3978	3.680202	0.000576	5.760111	1.951578	-0.045977
 993	4.9600e-01	0.3561	3.442250	0.000596	5.962220	2.020055	-0.047591
 994	4.9650e-01	0.3192	3.155900	0.000717	7.174875	2.430913	-0.057270
 995	4.9700e-01	0.2727	2.909881	0.000616	6.164329	2.088531	-0.049204
 996	4.9750e-01	0.2422	2.817119	0.000232	2.324255	0.787479	-0.018552
 997	4.9800e-01	0.1877	2.559001	0.000647	6.467493	2.191246	-0.051624
 998	4.9850e-01	0.1620	2.329114	0.000576	5.760111	1.951578	-0.045977
 999	4.9900e-01	0.1187	2.083095	0.000616	6.164329	2.088531	-0.049204
1000	4.9950e-01	0.0658	1.865308	0.000546	5.456947	1.848864	-0.043557
1001	5.0000e-01	0.0337	1.300674	0.001415	14.147641	4.793350	-0.112927
1002	5.0050e-01	0.0048	1.288575	0.000030	0.303164	0.102715	-0.002420
1003	5.0100e-01	-0.0289	1.276476	0.000030	0.303164	0.102715	-0.002420
1004	5.0150e-01	-0.0738	0.941729	0.000839	8.387530	2.841772	-0.066949
1005	5.0200e-01	-0.1219	0.530352	0.001031	10.307567	3.492298	-0.082275
1006	5.0250e-01	-0.1556	0.316598	0.000536	5.355893	1.814626	-0.042751
1007	5.0300e-01	-0.1973	0.179473	0.000344	3.435856	1.164099	-0.027425
1008	5.0350e-01	-0.2358	-0.062513	0.000606	6.063275	2.054293	-0.048397
1009	5.0400e-01	-0.2807	-0.304499	0.000606	6.063275	2.054293	-0.048397
1010	5.0450e-01	-0.3080	-0.518253	0.000536	5.355893	1.814626	-0.042751
1011	5.0500e-01	-0.3561	-0.853000	0.000839	8.387530	2.841772	-0.066949
1012	5.0550e-01	-0.3995	-0.917530	0.000162	1.616873	0.547811	-0.012906
1013	5.0600e-01	-0.4331	-1.123218	0.000515	5.153783	1.746149	-0.041138
1014	5.0650e-01	-0.4684	-1.449899	0.000819	8.185421	2.773296	-0.065336
1015	5.0700e-01	-0.5150	-1.651554	0.000505	5.052729	1.711911	-0.040331
1016	5.0750e-01	-0.5454	-1.978235	0.000819	8.185421	2.773296	-0.065336
1017	5.0800e-01	-0.5952	-2.329114	0.000879	8.791748	2.978725	-0.070176
1018	5.0850e-01	-0.6337	-2.389611	0.000152	1.515819	0.513573	-0.012099
1019	5.0900e-01	-0.6770	-2.575133	0.000465	4.648511	1.574958	-0.037105
1020	5.0950e-01	-0.7107	-2.809053	0.000586	5.861165	1.985817	-0.046784
1021	5.1000e-01	-0.7540	-2.950212	0.000354	3.536910	1.198338	-0.028232
1022	5.1050e-01	-0.7925	-3.414018	0.001162	11.621276	3.937395	-0.092761
1023	5.1100e-01	-0.8310	-3.752798	0.000849	8.488584	2.876010	-0.067756
1024	5.1150e-01	-0.8711	-3.837493	0.000212	2.122146	0.719003	-0.016939
1025	5.1200e-01	-0.9144	-3.986718	0.000374	3.739019	1.266814	-0.029845
1026	5.1250e-01	-0.9497	-4.309366	0.000808	8.084366	2.739057	-0.064530
1027	5.1300e-01	-0.9962	-4.712676	0.001011	10.105458	3.423822	-0.080662
1028	5.1350e-01	-1.0251	-4.894165	0.000455	4.547456	1.540720	-0.036298
1029	5.1400e-01	-1.0700	-4.914331	0.000051	0.505273	0.171191	-0.004033
1030	5.1450e-01	-1.1182	-5.132118	0.000546	5.456947	1.848864	-0.043557
1031	5.1500e-01	-1.1550	-5.426534	0.000738	7.376984	2.499390	-0.058883
1032	5.1550e-01	-1.1952	-5.382170	-0.000111	-1.111600	-0.376620	0.008873
1033	5.1600e-01	-1.2321	-5.708851	0.000819	8.185421	2.773296	-0.065336
1034	5.1650e-01	-1.2738	-6.104095	0.000990	9.903349	3.355345	-0.079049
1035	5.1700e-01	-1.3139	-6.354147	0.000627	6.265384	2.122769	-0.050010
1036	5.1750e-01	-1.3620	-6.519504	0.000414	4.143238	1.403767	-0.033071
1037	5.1800e-01	-1.3973	-6.813920	0.000738	7.376984	2.499390	-0.058883
1038	5.1850e-01	-1.4310	-7.136568	0.000808	8.084366	2.739057	-0.064530
1039	5.1900e-01	-1.4807	-7.261594	0.000313	3.132692	1.061385	-0.025005
1040	5.1950e-01	-1.5176	-7.551977	0.000728	7.275930	2.465152	-0.058077
1041	5.2000e-01	-1.5609	-7.898824	0.000869	8.690694	2.944487	-0.069369
1042	5.2050e-01	-1.5978	-8.076280	0.000445	4.446401	1.506482	-0.035491
1043	5.2100e-01	-1.6331	-8.374729	0.000748	7.478039	2.533628	-0.059690
1044	5.2150e-01	-1.6828	-8.483623	0.000273	2.728474	0.924432	-0.021779
1045	5.2200e-01	-1.7149	-8.576384	0.000232	2.324255	0.787479	-0.018552
1046	5.2250e-01	-1.7550	-8.600583	0.000061	0.606327	0.205429	-0.004840
1047	5.2300e-01	-1.8048	-9.189415	0.001475	14.753968	4.998780	-0.117766
1048	5.2350e-01	-1.8401	-9.378971	0.000475	4.749565	1.609196	-0.037911
1049	5.2400e-01	-1.8721	-9.653222	0.000687	6.871711	2.328199	-0.054850
1050	5.2450e-01	-1.9122	-9.971836	0.000798	7.983312	2.704819	-0.063723
1051	5.2500e-01	-1.9652	-10.371113	0.001000	10.004403	3.389584	-0.079855
1052	5.2550e-01	-1.9989	-10.403378	0.000081	0.808437	0.273906	-0.006453
1053	5.2600e-01	-2.0261	-10.802655	0.001000	10.004403	3.389584	-0.079855
1054	5.2650e-01	-2.0646	-10.955912	0.000384	3.840074	1.301052	-0.030652
1055	5.2700e-01	-2.1176	-11.064806	0.000273	2.728474	0.924432	-0.021779
1056	5.2750e-01	-2.1577	-11.399553	0.000839	8.387530	2.841772	-0.066949
1057	5.2800e-01	-2.2042	-11.443917	0.000111	1.111600	0.376620	-0.008873
1058	5.2850e-01	-2.2363	-11.774631	0.000829	8.286475	2.807534	-0.066143
1059	5.2900e-01	-2.2844	-11.944022	0.000424	4.244292	1.438005	-0.033878
1060	5.2950e-01	-2.3165	-12.282802	0.000849	8.488584	2.876010	-0.067756
1061	5.3000e-01	-2.3598	-12.557052	0.000687	6.871711	2.328199	-0.054850
1062	5.3050e-01	-2.4015	-12.758707	0.000505	5.052729	1.711911	-0.040331
1063	5.3100e-01	-2.4368	-13.077322	0.000798	7.983312	2.704819	-0.063723
1064	5.3150e-01	-2.4817	-13.230580	0.000384	3.840074	1.301052	-0.030652
1065	5.3200e-01	-2.5090	-13.597592	0.000920	9.195966	3.115678	-0.073402
1066	5.3250e-01	-2.5588	-13.980736	0.000960	9.600185	3.252631	-0.076629
1067	5.3300e-01	-2.6005	-13.988803	0.000020	0.202109	0.068476	-0.001613
1068	5.3350e-01	-2.6293	-14.041233	0.000131	1.313709	0.445097	-0.010486
1069	5.3400e-01	-2.6743	-14.432443	0.000980	9.802294	3.321107	-0.078242
1070	5.3450e-01	-2.7144	-14.666363	0.000586	5.861165	1.985817	-0.046784
1071	5.3500e-01	-2.7561	-14.827687	0.000404	4.042183	1.369529	-0.032265
1072	5.3550e-01	-2.7962	-14.863985	0.000091	0.909491	0.308144	-0.007260
1073	5.3600e-01	-2.8347	-15.243096	0.000950	9.499130	3.218392	-0.075822
1074	5.3650e-01	-2.8716	-15.561711	0.000798	7.983312	2.704819	-0.063723
1075	5.3700e-01	-2.9181	-15.719002	0.000394	3.941128	1.335290	-0.031458
1076	5.3750e-01	-2.9534	-15.731101	0.000030	0.303164	0.102715	-0.002420
1077	5.3800e-01	-2.9903	-15.997286	0.000667	6.669602	2.259722	-0.053237
1078	5.3850e-01	-3.0336	-16.207007	0.000525	5.254838	1.780387	-0.041944
1079	5.3900e-01	-3.0785	-16.642581	0.001091	10.913894	3.697727	-0.087115
1080	5.3950e-01	-3.1074	-17.045891	0.001011	10.105458	3.423822	-0.080662
1081	5.4000e-01	-3.1684	-17.275778	0.000576	5.760111	1.951578	-0.045977
1082	5.4050e-01	-3.2101	-17.582293	0.000768	7.680148	2.602105	-0.061303
1083	5.4100e-01	-3.2357	-17.662955	0.000202	2.021092	0.684764	-0.016132
1084	5.4150e-01	-3.2871	-17.856544	0.000485	4.850620	1.643434	-0.038718
1085	5.4200e-01	-3.3208	-17.929140	0.000182	1.818982	0.616288	-0.014519
1086	5.4250e-01	-3.3480	-18.308251	0.000950	9.499130	3.218392	-0.075822
1087	5.4300e-01	-3.4010	-18.509906	0.000505	5.052729	1.711911	-0.040331
1088	5.4350e-01	-3.4379	-18.772057	0.000657	6.568547	2.225484	-0.052430
1089	5.4400e-01	-3.4748	-19.223764	0.001132	11.318113	3.834680	-0.090341
1090	5.4450e-01	-3.5181	-19.280228	0.000141	1.414764	0.479335	-0.011293
1091	5.4500e-01	-3.5518	-19.610942	0.000829	8.286475	2.807534	-0.066143
1092	5.4550e-01	-3.5935	-19.731935	0.000303	3.031637	1.027147	-0.024199
1093	5.4600e-01	-3.6416	-19.917457	0.000465	4.648511	1.574958	-0.037105
1094	5.4650e-01	-3.6785	-20.340933	0.001061	10.610731	3.595013	-0.084695
1095	5.4700e-01	-3.7250	-20.421595	0.000202	2.021092	0.684764	-0.016132
1096	5.4750e-01	-3.7619	-20.744243	0.000808	8.084366	2.739057	-0.064530
1097	5.4800e-01	-3.8004	-20.970096	0.000566	5.659056	1.917340	-0.045171
1098	5.4850e-01	-3.8245	-21.171751	0.000505	5.052729	1.711911	-0.040331
1099	5.4900e-01	-3.8774	-21.329042	0.000394	3.941128	1.335290	-0.031458
1100	5.4950e-01	-3.9207	-21.603293	0.000687	6.871711	2.328199	-0.054850
1101	5.5000e-01	-3.9592	-21.748484	0.000364	3.637965	1.232576	-0.029038
1102	5.5050e-01	-4.0010	-21.958205	0.000525	5.254838	1.780387	-0.041944
1103	5.5100e-01	-4.0362	-22.365548	0.001021	10.206512	3.458060	-0.081469
1104	5.5150e-01	-4.0860	-22.591402	0.000566	5.659056	1.917340	-0.045171
1105	5.5200e-01	-4.1084	-22.760792	0.000424	4.244292	1.438005	-0.033878
1106	5.5250e-01	-4.1534	-22.914050	0.000384	3.840074	1.301052	-0.030652
1107	5.5300e-01	-4.1919	-23.228631	0.000788	7.882257	2.670581	-0.062916
1108	5.5350e-01	-4.2352	-23.490783	0.000657	6.568547	2.225484	-0.052430
1109	5.5400e-01	-4.2769	-23.599676	0.000273	2.728474	0.924432	-0.021779
1110	5.5450e-01	-4.3186	-23.877960	0.000697	6.972766	2.362437	-0.055657
1111	5.5500e-01	-4.3619	-24.011053	0.000333	3.334801	1.129861	-0.026618
1112	5.5550e-01	-4.3972	-24.249005	0.000596	5.962220	2.020055	-0.047591
1113	5.5600e-01	-4.4437	-24.611984	0.000909	9.094912	3.081440	-0.072596
1114	5.5650e-01	-4.4838	-24.765242	0.000384	3.840074	1.301052	-0.030652
1115	5.5700e-01	-4.5191	-24.934632	0.000424	4.244292	1.438005	-0.033878
1116	5.5750e-01	-4.5576	-25.281479	0.000869	8.690694	2.944487	-0.069369
1117	5.5800e-01	-4.5929	-25.555729	0.000687	6.871711	2.328199	-0.054850
1118	5.5850e-01	-4.6314	-25.737219	0.000455	4.547456	1.540720	-0.036298
1119	5.5900e-01	-4.6731	-25.813848	0.000192	1.920037	0.650526	-0.015326
1120	5.5950e-01	-4.7132	-26.205058	0.000980	9.802294	3.321107	-0.078242
1121	5.6000e-01	-4.7630	-26.402680	0.000495	4.951674	1.677673	-0.039524
1122	5.6050e-01	-4.7902	-26.684997	0.000707	7.073820	2.396675	-0.056463
1123	5.6100e-01	-4.8303	-26.963281	0.000697	6.972766	2.362437	-0.055657
1124	5.6150e-01	-4.8672	-27.197200	0.000586	5.861165	1.985817	-0.046784
1125	5.6200e-01	-4.9186	-27.394822	0.000495	4.951674	1.677673	-0.039524
1126	5.6250e-01	-4.9491	-27.471451	0.000192	1.920037	0.650526	-0.015326
1127	5.6300e-01	-4.9956	-27.596477	0.000313	3.132692	1.061385	-0.025005
1128	5.6350e-01	-5.0373	-28.088515	0.001233	12.328658	4.177063	-0.098408
1129	5.6400e-01	-5.0822	-28.314369	0.000566	5.659056	1.917340	-0.045171
1130	5.6450e-01	-5.1223	-28.637017	0.000808	8.084366	2.739057	-0.064530
1131	5.6500e-01	-5.1544	-28.963698	0.000819	8.185421	2.773296	-0.065336
1132	5.6550e-01	-5.2057	-28.991929	0.000071	0.707382	0.239668	-0.005646
1133	5.6600e-01	-5.2378	-29.258114	0.000667	6.669602	2.259722	-0.053237
1134	5.6650e-01	-5.2747	-29.358941	0.000253	2.526364	0.855955	-0.020165
1135	5.6700e-01	-5.3228	-29.552530	0.000485	4.850620	1.643434	-0.038718
1136	5.6750e-01	-5.3485	-29.939707	0.000970	9.701239	3.286869	-0.077435
1137	5.6800e-01	-5.3918	-30.072800	0.000333	3.334801	1.129861	-0.026618
1138	5.6850e-01	-5.4367	-30.222024	0.000374	3.739019	1.266814	-0.029845
1139	5.6900e-01	-5.4785	-30.568871	0.000869	8.690694	2.944487	-0.069369
1140	5.6950e-01	-5.5041	-30.943949	0.000940	9.398076	3.184154	-0.075016
1141	5.7000e-01	-5.5571	-30.992346	0.000121	1.212655	0.410859	-0.009679
1142	5.7050e-01	-5.5972	-31.177869	0.000465	4.648511	1.574958	-0.037105
1143	5.7100e-01	-5.6357	-31.484384	0.000768	7.680148	2.602105	-0.061303
1144	5.7150e-01	-5.6854	-31.770734	0.000717	7.174875	2.430913	-0.057270
1145	5.7200e-01	-5.7175	-31.774767	0.000010	0.101055	0.034238	-0.000807
1146	5.7250e-01	-5.7608	-31.968356	0.000485	4.850620	1.643434	-0.038718
1147	5.7300e-01	-5.7913	-32.145812	0.000445	4.446401	1.506482	-0.035491
1148	5.7350e-01	-5.8394	-32.537023	0.000980	9.802294	3.321107	-0.078242
1149	5.7400e-01	-5.8811	-32.690281	0.000384	3.840074	1.301052	-0.030652
1150	5.7450e-01	-5.9180	-33.061326	0.000930	9.297021	3.149916	-0.074209
1151	5.7500e-01	-5.9613	-33.234749	0.000435	4.345347	1.472243	-0.034685
1152	5.7550e-01	-5.9902	-33.440437	0.000515	5.153783	1.746149	-0.041138
1153	5.7600e-01	-6.0351	-33.654191	0.000536	5.355893	1.814626	-0.042751
1154	5.7650e-01	-6.0849	-33.952641	0.000748	7.478039	2.533628	-0.059690
1155	5.7700e-01	-6.1137	-34.287388	0.000839	8.387530	2.841772	-0.066949
1156	5.7750e-01	-6.1586	-34.359984	0.000182	1.818982	0.616288	-0.014519
1157	5.7800e-01	-6.1972	-34.686665	0.000819	8.185421	2.773296	-0.065336
1158	5.7850e-01	-6.2308	-34.856055	0.000424	4.244292	1.438005	-0.033878
1159	5.7900e-01	-6.2726	-35.134338	0.000697	6.972766	2.362437	-0.055657
1160	5.7950e-01	-6.3111	-35.307762	0.000435	4.345347	1.472243	-0.034685
1161	5.8000e-01	-6.3608	-35.630410	0.000808	8.084366	2.739057	-0.064530
1162	5.8050e-01	-6.3945	-35.654608	0.000061	0.606327	0.205429	-0.004840
1163	5.8100e-01	-6.4442	-36.239407	0.001465	14.652914	4.964542	-0.116960
1164	5.8150e-01	-6.4747	-36.102282	-0.000344	-3.435856	-1.164099	0.027425
1165	5.8200e-01	-6.5132	-36.392665	0.000728	7.275930	2.465152	-0.058077
1166	5.8250e-01	-6.5501	-36.570122	0.000445	4.446401	1.506482	-0.035491
1167	5.8300e-01	-6.5902	-37.046027	0.001192	11.924440	4.040110	-0.095181
1168	5.8350e-01	-6.6367	-37.231550	0.000465	4.648511	1.574958	-0.037105
1169	5.8400e-01	-6.6640	-37.324311	0.000232	2.324255	0.787479	-0.018552
1170	5.8450e-01	-6.7137	-37.417072	0.000232	2.324255	0.787479	-0.018552
1171	5.8500e-01	-6.7474	-37.828448	0.001031	10.307567	3.492298	-0.082275
1172	5.8550e-01	-6.7939	-38.118831	0.000728	7.275930	2.465152	-0.058077
1173	5.8600e-01	-6.8292	-38.296288	0.000445	4.446401	1.506482	-0.035491
1174	5.8650e-01	-6.8709	-38.506009	0.000525	5.254838	1.780387	-0.041944
1175	5.8700e-01	-6.9191	-38.530207	0.000061	0.606327	0.205429	-0.004840
1176	5.8750e-01	-6.9543	-38.965782	0.001091	10.913894	3.697727	-0.087115
1177	5.8800e-01	-6.9912	-39.288430	0.000808	8.084366	2.739057	-0.064530
1178	5.8850e-01	-7.0426	-39.264231	-0.000061	-0.606327	-0.205429	0.004840
1179	5.8900e-01	-7.0699	-39.498151	0.000586	5.861165	1.985817	-0.046784
1180	5.8950e-01	-7.1132	-39.853064	0.000889	8.892803	3.012963	-0.070983
1181	5.9000e-01	-7.1581	-39.921627	0.000172	1.717928	0.582050	-0.013713
1182	5.9050e-01	-7.1854	-40.187811	0.000667	6.669602	2.259722	-0.053237
1183	5.9100e-01	-7.2351	-40.534658	0.000869	8.690694	2.944487	-0.069369
1184	5.9150e-01	-7.2752	-40.776643	0.000606	6.063275	2.054293	-0.048397
1185	5.9200e-01	-7.3185	-40.901669	0.000313	3.132692	1.061385	-0.025005
1186	5.9250e-01	-7.3474	-41.212218	0.000778	7.781202	2.636343	-0.062110
1187	5.9300e-01	-7.3987	-41.401774	0.000475	4.749565	1.609196	-0.037911
1188	5.9350e-01	-7.4308	-41.567131	0.000414	4.143238	1.403767	-0.033071
1189	5.9400e-01	-7.4773	-41.853481	0.000717	7.174875	2.430913	-0.057270
1190	5.9450e-01	-7.5174	-41.897845	0.000111	1.111600	0.376620	-0.008873
1191	5.9500e-01	-7.5559	-42.083367	0.000465	4.648511	1.574958	-0.037105
1192	5.9550e-01	-7.5993	-42.498777	0.001041	10.408621	3.526536	-0.083082
1193	5.9600e-01	-7.6426	-42.809325	0.000778	7.781202	2.636343	-0.062110
1194	5.9650e-01	-7.6650	-42.821424	0.000030	0.303164	0.102715	-0.002420
1195	5.9700e-01	-7.7115	-43.123907	0.000758	7.579093	2.567866	-0.060496
1196	5.9750e-01	-7.7533	-43.390091	0.000667	6.669602	2.259722	-0.053237
1197	5.9800e-01	-7.7902	-43.482853	0.000232	2.324255	0.787479	-0.018552
1198	5.9850e-01	-7.8367	-43.801467	0.000798	7.983312	2.704819	-0.063723
1199	5.9900e-01	-7.8768	-43.882129	0.000202	2.021092	0.684764	-0.016132
1200	5.9950e-01	-7.9105	-44.116049	0.000586	5.861165	1.985817	-0.046784
1201	6.0000e-01	-7.9458	-44.454829	0.000849	8.488584	2.876010	-0.067756
1202	6.0050e-01	-7.9987	-44.632286	0.000445	4.446401	1.506482	-0.035491
1203	6.0100e-01	-8.0388	-44.874272	0.000606	6.063275	2.054293	-0.048397
1204	6.0150e-01	-8.0773	-45.168688	0.000738	7.376984	2.499390	-0.058883
1205	6.0200e-01	-8.1190	-45.374376	0.000515	5.153783	1.746149	-0.041138
1206	6.0250e-01	-8.1511	-45.551832	0.000445	4.446401	1.506482	-0.035491
1207	6.0300e-01	-8.1928	-45.951109	0.001000	10.004403	3.389584	-0.079855
1208	6.0350e-01	-8.2345	-45.943043	-0.000020	-0.202109	-0.068476	0.001613
1209	6.0400e-01	-8.2682	-46.213260	0.000677	6.770657	2.293961	-0.054044
1210	6.0450e-01	-8.3131	-46.233426	0.000051	0.505273	0.171191	-0.004033
1211	6.0500e-01	-8.3564	-46.580272	0.000869	8.690694	2.944487	-0.069369
1212	6.0550e-01	-8.3805	-46.838391	0.000647	6.467493	2.191246	-0.051624
1213	6.0600e-01	-8.4318	-46.967450	0.000323	3.233746	1.095623	-0.025812
1214	6.0650e-01	-8.4687	-47.455455	0.001223	12.227604	4.142824	-0.097601
1215	6.0700e-01	-8.5153	-47.544183	0.000222	2.223201	0.753241	-0.017746
1216	6.0750e-01	-8.5554	-47.673242	0.000323	3.233746	1.095623	-0.025812
1217	6.0800e-01	-8.5891	-47.927327	0.000637	6.366438	2.157008	-0.050817
1218	6.0850e-01	-8.6340	-48.185446	0.000647	6.467493	2.191246	-0.051624
1219	6.0900e-01	-8.6789	-48.310472	0.000313	3.132692	1.061385	-0.025005
1220	6.0950e-01	-8.7078	-48.500027	0.000475	4.749565	1.609196	-0.037911
1221	6.1000e-01	-8.7543	-48.564557	0.000162	1.616873	0.547811	-0.012906
1222	6.1050e-01	-8.7928	-48.967867	0.001011	10.105458	3.423822	-0.080662
1223	6.1100e-01	-8.8329	-49.387309	0.001051	10.509676	3.560775	-0.083888
1224	6.1150e-01	-8.8730	-49.556699	0.000424	4.244292	1.438005	-0.033878
1225	6.1200e-01	-8.9099	-49.637361	0.000202	2.021092	0.684764	-0.016132
1226	6.1250e-01	-8.9532	-49.960009	0.000808	8.084366	2.739057	-0.064530
1227	6.1300e-01	-8.9933	-50.149565	0.000475	4.749565	1.609196	-0.037911
1228	6.1350e-01	-9.0350	-50.452047	0.000758	7.579093	2.567866	-0.060496
1229	6.1400e-01	-9.0735	-50.645636	0.000485	4.850620	1.643434	-0.038718
1230	6.1450e-01	-9.1153	-50.698066	0.000131	1.313709	0.445097	-0.010486
1231	6.1500e-01	-9.1570	-51.262700	0.001415	14.147641	4.793350	-0.112927
1232	6.1550e-01	-9.1874	-51.214303	-0.000121	-1.212655	-0.410859	0.009679
1233	6.1600e-01	-9.2356	-51.553083	0.000849	8.488584	2.876010	-0.067756
1234	6.1650e-01	-9.2709	-51.613579	0.000152	1.515819	0.513573	-0.012099
1235	6.1700e-01	-9.3094	-52.033022	0.001051	10.509676	3.560775	-0.083888
1236	6.1750e-01	-9.3591	-52.008823	-0.000061	-0.606327	-0.205429	0.004840
1237	6.1800e-01	-9.3960	-52.335504	0.000819	8.185421	2.773296	-0.065336
1238	6.1850e-01	-9.4297	-52.609755	0.000687	6.871711	2.328199	-0.054850
1239	6.1900e-01	-9.4762	-52.875939	0.000667	6.669602	2.259722	-0.053237
1240	6.1950e-01	-9.5019	-52.968700	0.000232	2.324255	0.787479	-0.018552
1241	6.2000e-01	-9.5580	-53.214720	0.000616	6.164329	2.088531	-0.049204
1242	6.2050e-01	-9.5917	-53.549467	0.000839	8.387530	2.841772	-0.066949
1243	6.2100e-01	-9.6318	-53.726923	0.000445	4.446401	1.506482	-0.035491
1244	6.2150e-01	-9.6735	-53.892280	0.000414	4.143238	1.403767	-0.033071
1245	6.2200e-01	-9.7217	-54.202829	0.000778	7.781202	2.636343	-0.062110
1246	6.2250e-01	-9.7553	-54.364153	0.000404	4.042183	1.369529	-0.032265
1247	6.2300e-01	-9.7938	-54.557741	0.000485	4.850620	1.643434	-0.038718
1248	6.2350e-01	-9.8388	-54.723098	0.000414	4.143238	1.403767	-0.033071
1249	6.2400e-01	-9.8789	-54.948952	0.000566	5.659056	1.917340	-0.045171
1250	6.2450e-01	-9.9142	-55.251434	0.000758	7.579093	2.567866	-0.060496
1251	6.2500e-01	-9.9543	-55.440990	0.000475	4.749565	1.609196	-0.037911
1252	6.2550e-01	-9.9896	-55.513586	0.000182	1.818982	0.616288	-0.014519
1253	6.2600e-01	-10.0297	-55.799936	0.000717	7.174875	2.430913	-0.057270
1254	6.2650e-01	-10.0698	-56.219378	0.001051	10.509676	3.560775	-0.083888
1255	6.2700e-01	-10.1067	-56.400867	0.000455	4.547456	1.540720	-0.036298
1256	6.2750e-01	-10.1564	-56.404901	0.000010	0.101055	0.034238	-0.000807
1257	6.2800e-01	-10.1997	-56.562191	0.000394	3.941128	1.335290	-0.031458
1258	6.2850e-01	-10.2302	-56.763846	0.000505	5.052729	1.711911	-0.040331
1259	6.2900e-01	-10.2767	-57.151024	0.000970	9.701239	3.286869	-0.077435
1260	6.2950e-01	-10.3152	-57.340579	0.000475	4.749565	1.609196	-0.037911
1261	6.3000e-01	-10.3601	-57.534168	0.000485	4.850620	1.643434	-0.038718
1262	6.3050e-01	-10.3874	-57.639029	0.000263	2.627419	0.890194	-0.020972
1263	6.3100e-01	-10.4387	-58.074603	0.001091	10.913894	3.697727	-0.087115
1264	6.3150e-01	-10.4805	-58.163331	0.000222	2.223201	0.753241	-0.017746
1265	6.3200e-01	-10.5141	-58.316589	0.000384	3.840074	1.301052	-0.030652
1266	6.3250e-01	-10.5526	-58.385152	0.000172	1.717928	0.582050	-0.013713
1267	6.3300e-01	-10.5960	-58.844925	0.001152	11.520222	3.903157	-0.091955
1268	6.3350e-01	-10.6345	-58.921554	0.000192	1.920037	0.650526	-0.015326
1269	6.3400e-01	-10.6794	-59.191772	0.000677	6.770657	2.293961	-0.054044
1270	6.3450e-01	-10.7115	-59.381327	0.000475	4.749565	1.609196	-0.037911
1271	6.3500e-01	-10.7628	-59.474089	0.000232	2.324255	0.787479	-0.018552
1272	6.3550e-01	-10.7917	-59.530552	0.000141	1.414764	0.479335	-0.011293
1273	6.3600e-01	-10.8286	-60.006458	0.001192	11.924440	4.040110	-0.095181
1274	6.3650e-01	-10.8719	-60.244410	0.000596	5.962220	2.020055	-0.047591
1275	6.3700e-01	-10.9200	-60.377503	0.000333	3.334801	1.129861	-0.026618
1276	6.3750e-01	-10.9537	-60.809044	0.001081	10.812840	3.663489	-0.086308
1277	6.3800e-01	-10.9874	-61.059096	0.000627	6.265384	2.122769	-0.050010
1278	6.3850e-01	-11.0387	-61.200255	0.000354	3.536910	1.198338	-0.028232
1279	6.3900e-01	-11.0692	-61.309148	0.000273	2.728474	0.924432	-0.021779
1280	6.3950e-01	-11.1189	-61.607598	0.000748	7.478039	2.533628	-0.059690
1281	6.4000e-01	-11.1542	-61.841517	0.000586	5.861165	1.985817	-0.046784
1282	6.4050e-01	-11.1991	-62.232728	0.000980	9.802294	3.321107	-0.078242
1283	6.4100e-01	-11.2344	-62.103669	-0.000323	-3.233746	-1.095623	0.025812
1284	6.4150e-01	-11.2745	-62.381953	0.000697	6.972766	2.362437	-0.055657
1285	6.4200e-01	-11.3066	-62.648137	0.000667	6.669602	2.259722	-0.053237
1286	6.4250e-01	-11.3596	-62.950620	0.000758	7.579093	2.567866	-0.060496
1287	6.4300e-01	-11.3852	-63.232936	0.000707	7.073820	2.396675	-0.056463
1288	6.4350e-01	-11.4334	-63.462823	0.000576	5.760111	1.951578	-0.045977
1289	6.4400e-01	-11.4735	-63.470889	0.000020	0.202109	0.068476	-0.001613
1290	6.4450e-01	-11.5104	-63.656412	0.000465	4.648511	1.574958	-0.037105
1291	6.4500e-01	-11.5553	-63.789504	0.000333	3.334801	1.129861	-0.026618
1292	6.4550e-01	-11.5906	-63.991159	0.000505	5.052729	1.711911	-0.040331
1293	6.4600e-01	-11.6323	-64.241211	0.000627	6.265384	2.122769	-0.050010
1294	6.4650e-01	-11.6660	-64.571925	0.000829	8.286475	2.807534	-0.066143
1295	6.4700e-01	-11.7237	-64.785679	0.000536	5.355893	1.814626	-0.042751
1296	6.4750e-01	-11.7510	-64.991367	0.000515	5.153783	1.746149	-0.041138
1297	6.4800e-01	-11.7975	-65.193022	0.000505	5.052729	1.711911	-0.040331
1298	6.4850e-01	-11.8441	-65.330148	0.000344	3.435856	1.164099	-0.027425
1299	6.4900e-01	-11.8697	-65.588266	0.000647	6.467493	2.191246	-0.051624
1300	6.4950e-01	-11.9162	-65.818153	0.000576	5.760111	1.951578	-0.045977
1301	6.5000e-01	-11.9435	-66.072238	0.000637	6.366438	2.157008	-0.050817
1302	6.5050e-01	-11.9965	-66.249694	0.000445	4.446401	1.506482	-0.035491
1303	6.5100e-01	-12.0382	-66.370687	0.000303	3.031637	1.027147	-0.024199
1304	6.5150e-01	-12.0719	-66.709467	0.000849	8.488584	2.876010	-0.067756
1305	6.5200e-01	-12.1120	-66.717534	0.000020	0.202109	0.068476	-0.001613
1306	6.5250e-01	-12.1505	-66.959520	0.000606	6.063275	2.054293	-0.048397
1307	6.5300e-01	-12.1874	-67.173274	0.000536	5.355893	1.814626	-0.042751
1308	6.5350e-01	-12.2451	-67.431392	0.000647	6.467493	2.191246	-0.051624
1309	6.5400e-01	-12.2724	-67.689510	0.000647	6.467493	2.191246	-0.051624
1310	6.5450e-01	-12.3157	-67.850834	0.000404	4.042183	1.369529	-0.032265
1311	6.5500e-01	-12.3558	-67.891165	0.000101	1.010546	0.342382	-0.008066
1312	6.5550e-01	-12.3895	-68.371104	0.001203	12.025495	4.074348	-0.095988
1313	6.5600e-01	-12.4312	-68.330773	-0.000101	-1.010546	-0.342382	0.008066
1314	6.5650e-01	-12.4729	-68.758282	0.001071	10.711785	3.629251	-0.085502
1315	6.5700e-01	-12.5130	-69.024466	0.000667	6.669602	2.259722	-0.053237
1316	6.5750e-01	-12.5595	-69.157558	0.000333	3.334801	1.129861	-0.026618
1317	6.5800e-01	-12.5948	-69.504405	0.000869	8.690694	2.944487	-0.069369
1318	6.5850e-01	-12.6301	-69.847218	0.000859	8.589639	2.910248	-0.068563
1319	6.5900e-01	-12.6750	-70.020641	0.000435	4.345347	1.472243	-0.034685
1320	6.5950e-01	-12.7151	-70.000476	-0.000051	-0.505273	-0.171191	0.004033
1321	6.6000e-01	-12.7553	-70.036774	0.000091	0.909491	0.308144	-0.007260
1322	6.6050e-01	-12.7889	-70.379587	0.000859	8.589639	2.910248	-0.068563
1323	6.6100e-01	-12.8323	-70.601408	0.000556	5.558002	1.883102	-0.044364
1324	6.6150e-01	-12.8772	-70.952287	0.000879	8.791748	2.978725	-0.070176
1325	6.6200e-01	-12.9141	-70.903890	-0.000121	-1.212655	-0.410859	0.009679
1326	6.6250e-01	-12.9526	-71.206372	0.000758	7.579093	2.567866	-0.060496
1327	6.6300e-01	-12.9911	-71.339465	0.000333	3.334801	1.129861	-0.026618
1328	6.6350e-01	-13.0296	-71.460458	0.000303	3.031637	1.027147	-0.024199
1329	6.6400e-01	-13.0777	-71.896032	0.001091	10.913894	3.697727	-0.087115
1330	6.6450e-01	-13.1066	-72.129952	0.000586	5.861165	1.985817	-0.046784
1331	6.6500e-01	-13.1531	-72.150117	0.000051	0.505273	0.171191	-0.004033
1332	6.6550e-01	-13.1900	-72.380004	0.000576	5.760111	1.951578	-0.045977
1333	6.6600e-01	-13.2365	-72.658288	0.000697	6.972766	2.362437	-0.055657
1334	6.6650e-01	-13.2782	-72.944638	0.000717	7.174875	2.430913	-0.057270
1335	6.6700e-01	-13.3151	-73.222922	0.000697	6.972766	2.362437	-0.055657
1336	6.6750e-01	-13.3536	-73.388279	0.000414	4.143238	1.403767	-0.033071
1337	6.6800e-01	-13.3969	-73.557669	0.000424	4.244292	1.438005	-0.033878
1338	6.6850e-01	-13.4387	-73.727059	0.000424	4.244292	1.438005	-0.033878
1339	6.6900e-01	-13.4707	-73.602033	-0.000313	-3.132692	-1.061385	0.025005
1340	6.6950e-01	-13.5092	-74.041641	0.001101	11.014949	3.731966	-0.087922
1341	6.7000e-01	-13.5526	-74.186832	0.000364	3.637965	1.232576	-0.029038
1342	6.7050e-01	-13.5959	-74.545778	0.000899	8.993857	3.047201	-0.071789
1343	6.7100e-01	-13.6296	-74.606274	0.000152	1.515819	0.513573	-0.012099
1344	6.7150e-01	-13.6729	-75.013617	0.001021	10.206512	3.458060	-0.081469
1345	6.7200e-01	-13.7146	-75.178974	0.000414	4.143238	1.403767	-0.033071
1346	6.7250e-01	-13.7579	-75.199140	0.000051	0.505273	0.171191	-0.004033
1347	6.7300e-01	-13.7964	-75.437093	0.000596	5.962220	2.020055	-0.047591
1348	6.7350e-01	-13.8349	-75.558086	0.000303	3.031637	1.027147	-0.024199
1349	6.7400e-01	-13.8734	-75.896866	0.000849	8.488584	2.876010	-0.067756
1350	6.7450e-01	-13.9087	-76.171117	0.000687	6.871711	2.328199	-0.054850
1351	6.7500e-01	-13.9488	-76.199348	0.000071	0.707382	0.239668	-0.005646
1352	6.7550e-01	-13.9873	-76.489732	0.000728	7.275930	2.465152	-0.058077
1353	6.7600e-01	-14.0290	-76.634923	0.000364	3.637965	1.232576	-0.029038
1354	6.7650e-01	-14.0723	-76.800280	0.000414	4.143238	1.403767	-0.033071
1355	6.7700e-01	-14.1124	-77.082597	0.000707	7.073820	2.396675	-0.056463
1356	6.7750e-01	-14.1429	-77.256020	0.000435	4.345347	1.472243	-0.034685
1357	6.7800e-01	-14.1926	-77.514139	0.000647	6.467493	2.191246	-0.051624
1358	6.7850e-01	-14.2311	-77.860985	0.000869	8.690694	2.944487	-0.069369
1359	6.7900e-01	-14.2745	-78.066673	0.000515	5.153783	1.746149	-0.041138
1360	6.7950e-01	-14.3082	-78.171534	0.000263	2.627419	0.890194	-0.020972
1361	6.8000e-01	-14.3515	-78.441751	0.000677	6.770657	2.293961	-0.054044
1362	6.8050e-01	-14.3916	-78.510314	0.000172	1.717928	0.582050	-0.013713
1363	6.8100e-01	-14.4349	-78.869260	0.000899	8.993857	3.047201	-0.071789
1364	6.8150e-01	-14.4734	-78.990253	0.000303	3.031637	1.027147	-0.024199
1365	6.8200e-01	-14.5279	-79.046716	0.000141	1.414764	0.479335	-0.011293
1366	6.8250e-01	-14.5472	-79.421794	0.000940	9.398076	3.184154	-0.075016
1367	6.8300e-01	-14.5937	-79.365331	-0.000141	-1.414764	-0.479335	0.011293
1368	6.8350e-01	-14.6338	-79.659747	0.000738	7.376984	2.499390	-0.058883
1369	6.8400e-01	-14.6659	-79.889634	0.000576	5.760111	1.951578	-0.045977
1370	6.8450e-01	-14.7140	-80.155818	0.000667	6.669602	2.259722	-0.053237
1371	6.8500e-01	-14.7557	-80.095322	-0.000152	-1.515819	-0.513573	0.012099
1372	6.8550e-01	-14.7894	-80.542996	0.001122	11.217058	3.800442	-0.089535
1373	6.8600e-01	-14.8311	-80.663989	0.000303	3.031637	1.027147	-0.024199
1374	6.8650e-01	-14.8712	-80.849511	0.000465	4.648511	1.574958	-0.037105
1375	6.8700e-01	-14.9210	-81.123762	0.000687	6.871711	2.328199	-0.054850
1376	6.8750e-01	-14.9563	-81.232655	0.000273	2.728474	0.924432	-0.021779
1377	6.8800e-01	-15.0060	-81.502873	0.000677	6.770657	2.293961	-0.054044
1378	6.8850e-01	-15.0365	-81.664197	0.000404	4.042183	1.369529	-0.032265
1379	6.8900e-01	-15.0750	-82.011044	0.000869	8.690694	2.944487	-0.069369
1380	6.8950e-01	-15.1119	-82.043308	0.000081	0.808437	0.273906	-0.006453
1381	6.9000e-01	-15.1536	-82.265129	0.000556	5.558002	1.883102	-0.044364
1382	6.9050e-01	-15.1889	-82.434519	0.000424	4.244292	1.438005	-0.033878
1383	6.9100e-01	-15.2322	-82.519214	0.000212	2.122146	0.719003	-0.016939
1384	6.9150e-01	-15.2739	-82.672472	0.000384	3.840074	1.301052	-0.030652
1385	6.9200e-01	-15.3156	-82.946722	0.000687	6.871711	2.328199	-0.054850
1386	6.9250e-01	-15.3509	-83.132245	0.000465	4.648511	1.574958	-0.037105
1387	6.9300e-01	-15.3942	-83.519422	0.000970	9.701239	3.286869	-0.077435
1388	6.9350e-01	-15.4247	-83.753342	0.000586	5.861165	1.985817	-0.046784
1389	6.9400e-01	-15.4696	-83.850136	0.000243	2.425310	0.821717	-0.019359
1390	6.9450e-01	-15.5033	-84.205049	0.000889	8.892803	3.012963	-0.070983
1391	6.9500e-01	-15.5482	-84.188917	-0.000040	-0.404218	-0.136953	0.003226
1392	6.9550e-01	-15.5899	-84.390572	0.000505	5.052729	1.711911	-0.040331
1393	6.9600e-01	-15.6397	-84.539796	0.000374	3.739019	1.266814	-0.029845
1394	6.9650e-01	-15.6750	-84.947139	0.001021	10.206512	3.458060	-0.081469
1395	6.9700e-01	-15.7151	-85.064099	0.000293	2.930583	0.992908	-0.023392
1396	6.9750e-01	-15.7600	-85.189125	0.000313	3.132692	1.061385	-0.025005
1397	6.9800e-01	-15.7969	-85.358515	0.000424	4.244292	1.438005	-0.033878
1398	6.9850e-01	-15.8386	-85.600501	0.000606	6.063275	2.054293	-0.048397
1399	6.9900e-01	-15.8739	-85.931215	0.000829	8.286475	2.807534	-0.066143
1400	6.9950e-01	-15.9108	-86.153036	0.000556	5.558002	1.883102	-0.044364
1401	7.0000e-01	-15.9589	-86.132870	-0.000051	-0.505273	-0.171191	0.004033
1402	7.0050e-01	-15.9958	-86.237731	0.000263	2.627419	0.890194	-0.020972
1403	7.0100e-01	-16.0311	-86.536180	0.000748	7.478039	2.533628	-0.059690
1404	7.0150e-01	-16.0584	-86.802365	0.000667	6.669602	2.259722	-0.053237
1405	7.0200e-01	-16.1161	-87.060483	0.000647	6.467493	2.191246	-0.051624
1406	7.0250e-01	-16.1578	-87.197608	0.000344	3.435856	1.164099	-0.027425
1407	7.0300e-01	-16.1851	-87.371032	0.000435	4.345347	1.472243	-0.034685
1408	7.0350e-01	-16.2316	-87.532356	0.000404	4.042183	1.369529	-0.032265
1409	7.0400e-01	-16.2733	-87.782408	0.000627	6.265384	2.122769	-0.050010
1410	7.0450e-01	-16.3199	-87.875169	0.000232	2.324255	0.787479	-0.018552
1411	7.0500e-01	-16.3503	-87.996162	0.000303	3.031637	1.027147	-0.024199
1412	7.0550e-01	-16.3921	-88.242181	0.000616	6.164329	2.088531	-0.049204
1413	7.0600e-01	-16.4338	-88.496266	0.000637	6.366438	2.157008	-0.050817
1414	7.0650e-01	-16.4803	-88.839079	0.000859	8.589639	2.910248	-0.068563
1415	7.0700e-01	-16.5108	-88.895543	0.000141	1.414764	0.479335	-0.011293
1416	7.0750e-01	-16.5509	-89.081065	0.000465	4.648511	1.574958	-0.037105
1417	7.0800e-01	-16.5926	-89.335151	0.000637	6.366438	2.157008	-0.050817
1418	7.0850e-01	-16.6295	-89.609401	0.000687	6.871711	2.328199	-0.054850
1419	7.0900e-01	-16.6808	-89.585203	-0.000061	-0.606327	-0.205429	0.004840
1420	7.0950e-01	-16.7177	-89.798957	0.000536	5.355893	1.814626	-0.042751
1421	7.1000e-01	-16.7530	-90.327293	0.001324	13.238150	4.485206	-0.105667
1422	7.1050e-01	-16.7899	-90.174035	-0.000384	-3.840074	-1.301052	0.030652
1423	7.1100e-01	-16.8252	-90.589444	0.001041	10.408621	3.526536	-0.083082
1424	7.1150e-01	-16.8717	-90.895960	0.000768	7.680148	2.602105	-0.061303
1425	7.1200e-01	-16.9118	-90.883860	-0.000030	-0.303164	-0.102715	0.002420
1426	7.1250e-01	-16.9487	-91.085515	0.000505	5.052729	1.711911	-0.040331
1427	7.1300e-01	-16.9904	-91.162144	0.000192	1.920037	0.650526	-0.015326
1428	7.1350e-01	-17.0386	-91.339601	0.000445	4.446401	1.506482	-0.035491
1429	7.1400e-01	-17.0722	-91.702579	0.000909	9.094912	3.081440	-0.072596
1430	7.1450e-01	-17.1172	-92.005062	0.000758	7.579093	2.567866	-0.060496
1431	7.1500e-01	-17.1557	-92.130088	0.000313	3.132692	1.061385	-0.025005
1432	7.1550e-01	-17.1926	-92.315610	0.000465	4.648511	1.574958	-0.037105
1433	7.1600e-01	-17.2279	-92.456769	0.000354	3.536910	1.198338	-0.028232
1434	7.1650e-01	-17.2696	-92.545497	0.000222	2.223201	0.753241	-0.017746
1435	7.1700e-01	-17.3113	-92.682622	0.000344	3.435856	1.164099	-0.027425
1436	7.1750e-01	-17.3610	-92.791516	0.000273	2.728474	0.924432	-0.021779
1437	7.1800e-01	-17.3915	-93.122230	0.000829	8.286475	2.807534	-0.066143
1438	7.1850e-01	-17.4300	-93.408580	0.000717	7.174875	2.430913	-0.057270
1439	7.1900e-01	-17.4733	-93.537639	0.000323	3.233746	1.095623	-0.025812
1440	7.1950e-01	-17.5150	-93.803824	0.000667	6.669602	2.259722	-0.053237
1441	7.2000e-01	-17.5567	-94.074041	0.000677	6.770657	2.293961	-0.054044
1442	7.2050e-01	-17.5920	-94.178902	0.000263	2.627419	0.890194	-0.020972
1443	7.2100e-01	-17.6337	-94.307961	0.000323	3.233746	1.095623	-0.025812
1444	7.2150e-01	-17.6802	-94.453153	0.000364	3.637965	1.232576	-0.029038
1445	7.2200e-01	-17.7123	-94.743536	0.000728	7.275930	2.465152	-0.058077
1446	7.2250e-01	-17.7556	-95.114581	0.000930	9.297021	3.149916	-0.074209
1447	7.2300e-01	-17.7877	-95.235574	0.000303	3.031637	1.027147	-0.024199
1448	7.2350e-01	-17.8375	-95.134746	-0.000253	-2.526364	-0.855955	0.020165
1449	7.2400e-01	-17.8792	-95.546122	0.001031	10.307567	3.492298	-0.082275
1450	7.2450e-01	-17.9129	-95.800208	0.000637	6.366438	2.157008	-0.050817
1451	7.2500e-01	-17.9578	-95.921201	0.000303	3.031637	1.027147	-0.024199
1452	7.2550e-01	-17.9883	-96.143021	0.000556	5.558002	1.883102	-0.044364
1453	7.2600e-01	-18.0364	-96.280146	0.000344	3.435856	1.164099	-0.027425
1454	7.2650e-01	-18.0685	-96.590695	0.000778	7.781202	2.636343	-0.062110
1455	7.2700e-01	-18.1150	-96.933508	0.000859	8.589639	2.910248	-0.068563
1456	7.2750e-01	-18.1503	-97.006104	0.000182	1.818982	0.616288	-0.014519
1457	7.2800e-01	-18.2000	-97.066601	0.000152	1.515819	0.513573	-0.012099
1458	7.2850e-01	-18.2353	-97.369083	0.000758	7.579093	2.567866	-0.060496
1459	7.2900e-01	-18.2642	-97.671565	0.000758	7.579093	2.567866	-0.060496
1460	7.2950e-01	-18.3123	-97.776426	0.000263	2.627419	0.890194	-0.020972
1461	7.3000e-01	-18.3556	-97.828856	0.000131	1.313709	0.445097	-0.010486
1462	7.3050e-01	-18.3925	-98.103107	0.000687	6.871711	2.328199	-0.054850
1463	7.3100e-01	-18.4326	-98.260398	0.000394	3.941128	1.335290	-0.031458
1464	7.3150e-01	-18.4776	-98.365258	0.000263	2.627419	0.890194	-0.020972
1465	7.3200e-01	-18.5145	-98.885528	0.001304	13.036040	4.416730	-0.104054
1466	7.3250e-01	-18.5481	-98.873429	-0.000030	-0.303164	-0.102715	0.002420
1467	7.3300e-01	-18.5931	-99.050885	0.000445	4.446401	1.506482	-0.035491
1468	7.3350e-01	-18.6364	-99.252540	0.000505	5.052729	1.711911	-0.040331
1469	7.3400e-01	-18.6781	-99.522758	0.000677	6.770657	2.293961	-0.054044
1470	7.3450e-01	-18.7214	-99.671982	0.000374	3.739019	1.266814	-0.029845
1471	7.3500e-01	-18.7455	-100.107557	0.001091	10.913894	3.697727	-0.087115
1472	7.3550e-01	-18.8032	-99.982531	-0.000313	-3.132692	-1.061385	0.025005
1473	7.3600e-01	-18.8353	-100.422139	0.001101	11.014949	3.731966	-0.087922
1474	7.3650e-01	-18.8674	-100.381808	-0.000101	-1.010546	-0.342382	0.008066
1475	7.3700e-01	-18.9123	-100.724621	0.000859	8.589639	2.910248	-0.068563
1476	7.3750e-01	-18.9492	-100.922243	0.000495	4.951674	1.677673	-0.039524
1477	7.3800e-01	-18.9941	-101.103732	0.000455	4.547456	1.540720	-0.036298
1478	7.3850e-01	-19.0342	-101.200527	0.000243	2.425310	0.821717	-0.019359
1479	7.3900e-01	-19.0695	-101.430413	0.000576	5.760111	1.951578	-0.045977
1480	7.3950e-01	-19.1209	-101.652234	0.000556	5.558002	1.883102	-0.044364
1481	7.4000e-01	-19.1513	-101.652234	-0.000000	-0.000000	-0.000000	0.000000
1482	7.4050e-01	-19.1930	-101.849856	0.000495	4.951674	1.677673	-0.039524
1483	7.4100e-01	-19.2428	-102.140239	0.000728	7.275930	2.465152	-0.058077
1484	7.4150e-01	-19.2765	-102.382225	0.000606	6.063275	2.054293	-0.048397
1485	7.4200e-01	-19.3214	-102.749237	0.000920	9.195966	3.115678	-0.073402
1486	7.4250e-01	-19.3503	-102.745203	-0.000010	-0.101055	-0.034238	0.000807
1487	7.4300e-01	-19.4016	-102.910560	0.000414	4.143238	1.403767	-0.033071
1488	7.4350e-01	-19.4337	-103.172712	0.000657	6.568547	2.225484	-0.052430
1489	7.4400e-01	-19.4738	-103.330003	0.000394	3.941128	1.335290	-0.031458
1490	7.4450e-01	-19.5107	-103.644584	0.000788	7.882257	2.670581	-0.062916
1491	7.4500e-01	-19.5460	-103.781710	0.000344	3.435856	1.164099	-0.027425
1492	7.4550e-01	-19.5909	-103.999497	0.000546	5.456947	1.848864	-0.043557
1493	7.4600e-01	-19.6390	-104.148722	0.000374	3.739019	1.266814	-0.029845
1494	7.4650e-01	-19.6743	-104.293913	0.000364	3.637965	1.232576	-0.029038
1495	7.4700e-01	-19.7112	-104.673025	0.000950	9.499130	3.218392	-0.075822
1496	7.4750e-01	-19.7529	-104.810150	0.000344	3.435856	1.164099	-0.027425
1497	7.4800e-01	-19.7978	-104.842415	0.000081	0.808437	0.273906	-0.006453
1498	7.4850e-01	-19.8395	-105.257824	0.001041	10.408621	3.526536	-0.083082
1499	7.4900e-01	-19.8716	-105.330420	0.000182	1.818982	0.616288	-0.014519
1500	7.4950e-01	-19.9117	-105.661134	0.000829	8.286475	2.807534	-0.066143
1501	7.5000e-01	-19.9518	-105.878921	0.000546	5.456947	1.848864	-0.043557
1502	7.5050e-01	-19.9534	-106.028146	0.000374	3.739019	1.266814	-0.029845
1503	7.5100e-01	-19.9358	-105.979749	0.000121	1.212655	0.410859	0.009679
1504	7.5150e-01	-19.8973	-105.951517	0.000071	0.707382	0.239668	0.005646
1505	7.5200e-01	-19.8620	-105.661134	0.000728	7.275930	2.465152	0.058077
1506	7.5250e-01	-19.8171	-105.592571	0.000172	1.717928	0.582050	0.013713
1507	7.5300e-01	-19.7786	-105.532075	0.000152	1.515819	0.513573	0.012099
1508	7.5350e-01	-19.7433	-105.378817	0.000384	3.840074	1.301052	0.030652
1509	7.5400e-01	-19.7016	-105.185228	0.000485	4.850620	1.643434	0.038718
1510	7.5450e-01	-19.6599	-105.096500	0.000222	2.223201	0.753241	0.017746
1511	7.5500e-01	-19.6085	-104.882746	0.000536	5.355893	1.814626	0.042751
1512	7.5550e-01	-19.5813	-104.858547	0.000061	0.606327	0.205429	0.004840
1513	7.5600e-01	-19.5315	-104.826282	0.000081	0.808437	0.273906	0.006453
1514	7.5650e-01	-19.4978	-104.580263	0.000616	6.164329	2.088531	0.049204
1515	7.5700e-01	-19.4513	-104.709322	-0.000323	-3.233746	-1.095623	-0.025812
1516	7.5750e-01	-19.4128	-104.382641	0.000819	8.185421	2.773296	0.065336
1517	7.5800e-01	-19.3807	-104.560098	-0.000445	-4.446401	-1.506482	-0.035491
1518	7.5850e-01	-19.3390	-104.088225	0.001182	11.823385	4.005871	0.094375
1519	7.5900e-01	-19.3005	-104.080159	0.000020	0.202109	0.068476	0.001613
1520	7.5950e-01	-19.2508	-104.092258	-0.000030	-0.303164	-0.102715	-0.002420
1521	7.6000e-01	-19.2203	-103.854306	0.000596	5.962220	2.020055	0.047591
1522	7.6050e-01	-19.1882	-103.692982	0.000404	4.042183	1.369529	0.032265
1523	7.6100e-01	-19.1401	-103.721213	-0.000071	-0.707382	-0.239668	-0.005646
1524	7.6150e-01	-19.0936	-103.721213	0.000000	0.000000	0.000000	0.000000
1525	7.6200e-01	-19.0599	-103.600220	0.000303	3.031637	1.027147	0.024199
1526	7.6250e-01	-19.0166	-103.273539	0.000819	8.185421	2.773296	0.065336
1527	7.6300e-01	-18.9765	-103.168679	0.000263	2.627419	0.890194	0.020972
1528	7.6350e-01	-18.9460	-103.071884	0.000243	2.425310	0.821717	0.019359
1529	7.6400e-01	-18.8963	-103.067851	0.000010	0.101055	0.034238	0.000807
1530	7.6450e-01	-18.8626	-102.785534	0.000707	7.073820	2.396675	0.056463
1531	7.6500e-01	-18.8241	-102.664541	0.000303	3.031637	1.027147	0.024199
1532	7.6550e-01	-18.7856	-102.575813	0.000222	2.223201	0.753241	0.017746
1533	7.6600e-01	-18.7423	-102.245099	0.000829	8.286475	2.807534	0.066143
1534	7.6650e-01	-18.6989	-102.184603	0.000152	1.515819	0.513573	0.012099
1535	7.6700e-01	-18.6604	-102.192669	-0.000020	-0.202109	-0.068476	-0.001613
1536	7.6750e-01	-18.6300	-102.140239	0.000131	1.313709	0.445097	0.010486
1537	7.6800e-01	-18.5754	-102.031345	0.000273	2.728474	0.924432	0.021779
1538	7.6850e-01	-18.5369	-101.777260	0.000637	6.366438	2.157008	0.050817
1539	7.6900e-01	-18.5032	-101.813558	-0.000091	-0.909491	-0.308144	-0.007260
1540	7.6950e-01	-18.4615	-101.652234	0.000404	4.042183	1.369529	0.032265
1541	7.7000e-01	-18.4198	-101.321520	0.000829	8.286475	2.807534	0.066143
1542	7.7050e-01	-18.3717	-101.337652	-0.000040	-0.404218	-0.136953	-0.003226
1543	7.7100e-01	-18.3428	-101.256990	0.000202	2.021092	0.684764	0.016132
1544	7.7150e-01	-18.3027	-101.055335	0.000505	5.052729	1.711911	0.040331
1545	7.7200e-01	-18.2610	-100.740753	0.000788	7.882257	2.670581	0.062916
1546	7.7250e-01	-18.2241	-100.777051	-0.000091	-0.909491	-0.308144	-0.007260
1547	7.7300e-01	-18.1824	-100.623794	0.000384	3.840074	1.301052	0.030652
1548	7.7350e-01	-18.1423	-100.442304	0.000455	4.547456	1.540720	0.036298
1549	7.7400e-01	-18.0990	-100.115623	0.000819	8.185421	2.773296	0.065336
1550	7.7450e-01	-18.0524	-100.200318	-0.000212	-2.122146	-0.719003	-0.016939
1551	7.7500e-01	-18.0268	-100.083358	0.000293	2.930583	0.992908	0.023392
1552	7.7550e-01	-17.9867	-99.881703	0.000505	5.052729	1.711911	0.040331
1553	7.7600e-01	-17.9417	-99.639718	0.000606	6.063275	2.054293	0.048397
1554	7.7650e-01	-17.8984	-99.546956	0.000232	2.324255	0.787479	0.018552
1555	7.7700e-01	-17.8583	-99.587287	-0.000101	-1.010546	-0.342382	-0.008066
1556	7.7750e-01	-17.8230	-99.288838	0.000748	7.478039	2.533628	0.059690
1557	7.7800e-01	-17.7845	-99.083150	0.000515	5.153783	1.746149	0.041138
1558	7.7850e-01	-17.7364	-99.095249	-0.000030	-0.303164	-0.102715	-0.002420
1559	7.7900e-01	-17.7027	-98.925859	0.000424	4.244292	1.438005	0.033878
1560	7.7950e-01	-17.6610	-98.659675	0.000667	6.669602	2.259722	0.053237
1561	7.8000e-01	-17.6209	-98.425755	0.000586	5.861165	1.985817	0.046784
1562	7.8050e-01	-17.5808	-98.445920	-0.000051	-0.505273	-0.171191	-0.004033
1563	7.8100e-01	-17.5407	-98.421722	0.000061	0.606327	0.205429	0.004840
1564	7.8150e-01	-17.5070	-98.147471	0.000687	6.871711	2.328199	0.054850
1565	7.8200e-01	-17.4685	-98.127306	0.000051	0.505273	0.171191	0.004033
1566	7.8250e-01	-17.4107	-98.046644	0.000202	2.021092	0.684764	0.016132
1567	7.8300e-01	-17.3819	-97.893386	0.000384	3.840074	1.301052	0.030652
1568	7.8350e-01	-17.3466	-97.586870	0.000768	7.680148	2.602105	0.061303
1569	7.8400e-01	-17.2920	-97.429579	0.000394	3.941128	1.335290	0.031458
1570	7.8450e-01	-17.2551	-97.268256	0.000404	4.042183	1.369529	0.032265
1571	7.8500e-01	-17.2230	-97.155329	0.000283	2.829528	0.958670	0.022585
1572	7.8550e-01	-17.1765	-97.082733	0.000182	1.818982	0.616288	0.014519
1573	7.8600e-01	-17.1412	-96.719754	0.000909	9.094912	3.081440	0.072596
1574	7.8650e-01	-17.0963	-96.731853	-0.000030	-0.303164	-0.102715	-0.002420
1575	7.8700e-01	-17.0594	-96.675390	0.000141	1.414764	0.479335	0.011293
1576	7.8750e-01	-17.0193	-96.409206	0.000667	6.669602	2.259722	0.053237
1577	7.8800e-01	-16.9808	-96.147054	0.000657	6.568547	2.225484	0.052430
1578	7.8850e-01	-16.9439	-96.098657	0.000121	1.212655	0.410859	0.009679
1579	7.8900e-01	-16.9038	-95.816340	0.000707	7.073820	2.396675	0.056463
1580	7.8950e-01	-16.8653	-95.650983	0.000414	4.143238	1.403767	0.033071
1581	7.9000e-01	-16.8316	-95.699380	-0.000121	-1.212655	-0.410859	-0.009679
1582	7.9050e-01	-16.7803	-95.638884	0.000152	1.515819	0.513573	0.012099
1583	7.9100e-01	-16.7466	-95.352534	0.000717	7.174875	2.430913	0.057270
1584	7.9150e-01	-16.6953	-95.288004	0.000162	1.616873	0.547811	0.012906
1585	7.9200e-01	-16.6728	-95.090382	0.000495	4.951674	1.677673	0.039524
1586	7.9250e-01	-16.6311	-94.957290	0.000333	3.334801	1.129861	0.026618
1587	7.9300e-01	-16.5717	-94.759668	0.000495	4.951674	1.677673	0.039524
1588	7.9350e-01	-16.5428	-94.489451	0.000677	6.770657	2.293961	0.054044
1589	7.9400e-01	-16.5076	-94.279729	0.000525	5.254838	1.780387	0.041944
1590	7.9450e-01	-16.4498	-94.235365	0.000111	1.111600	0.376620	0.008873
1591	7.9500e-01	-16.4097	-94.017578	0.000546	5.456947	1.848864	0.043557
1592	7.9550e-01	-16.3840	-93.932883	0.000212	2.122146	0.719003	0.016939
1593	7.9600e-01	-16.3391	-93.840122	0.000232	2.324255	0.787479	0.018552
1594	7.9650e-01	-16.2974	-93.626368	0.000536	5.355893	1.814626	0.042751
1595	7.9700e-01	-16.2653	-93.481176	0.000364	3.637965	1.232576	0.029038
1596	7.9750e-01	-16.2188	-93.465044	0.000040	0.404218	0.136953	0.003226
1597	7.9800e-01	-16.1771	-93.372282	0.000232	2.324255	0.787479	0.018552
1598	7.9850e-01	-16.1402	-92.985105	0.000970	9.701239	3.286869	0.077435
1599	7.9900e-01	-16.0921	-92.888310	0.000243	2.425310	0.821717	0.019359
1600	7.9950e-01	-16.0680	-92.726987	0.000404	4.042183	1.369529	0.032265
1601	8.0000e-01	-16.0231	-92.610027	0.000293	2.930583	0.992908	0.023392
1602	8.0050e-01	-15.9862	-92.388206	0.000556	5.558002	1.883102	0.044364
1603	8.0100e-01	-15.9413	-92.331743	0.000141	1.414764	0.479335	0.011293
1604	8.0150e-01	-15.8947	-91.884069	0.001122	11.217058	3.800442	0.089535
1605	8.0200e-01	-15.8643	-91.948598	-0.000162	-1.616873	-0.547811	-0.012906
1606	8.0250e-01	-15.8242	-91.710646	0.000596	5.962220	2.020055	0.047591
1607	8.0300e-01	-15.7808	-91.444461	0.000667	6.669602	2.259722	0.053237
1608	8.0350e-01	-15.7375	-91.436395	0.000020	0.202109	0.068476	0.001613
1609	8.0400e-01	-15.7006	-91.222641	0.000536	5.355893	1.814626	0.042751
1610	8.0450e-01	-15.6573	-91.077449	0.000364	3.637965	1.232576	0.029038
1611	8.0500e-01	-15.6252	-90.980655	0.000243	2.425310	0.821717	0.019359
1612	8.0550e-01	-15.5867	-90.750768	0.000576	5.760111	1.951578	0.045977
1613	8.0600e-01	-15.5498	-90.504749	0.000616	6.164329	2.088531	0.049204
1614	8.0650e-01	-15.5001	-90.464418	0.000101	1.010546	0.342382	0.008066
1615	8.0700e-01	-15.4600	-90.303094	0.000404	4.042183	1.369529	0.032265
1616	8.0750e-01	-15.4167	-90.057075	0.000616	6.164329	2.088531	0.049204
1617	8.0800e-01	-15.3798	-89.883652	0.000435	4.345347	1.472243	0.034685
1618	8.0850e-01	-15.3413	-89.980446	-0.000243	-2.425310	-0.821717	-0.019359
1619	8.0900e-01	-15.3028	-89.714262	0.000667	6.669602	2.259722	0.053237
1620	8.0950e-01	-15.2563	-89.343217	0.000930	9.297021	3.149916	0.074209
1621	8.1000e-01	-15.2290	-89.343217	0.000000	0.000000	0.000000	0.000000
1622	8.1050e-01	-15.1809	-89.173827	0.000424	4.244292	1.438005	0.033878
1623	8.1100e-01	-15.1424	-89.266588	-0.000232	-2.324255	-0.787479	-0.018552
1624	8.1150e-01	-15.1055	-88.806815	0.001152	11.520222	3.903157	0.091955
1625	8.1200e-01	-15.0686	-88.597094	0.000525	5.254838	1.780387	0.041944
1626	8.1250e-01	-15.0108	-88.468034	0.000323	3.233746	1.095623	0.025812
1627	8.1300e-01	-14.9723	-88.649524	-0.000455	-4.547456	-1.540720	-0.036298
1628	8.1350e-01	-14.9434	-88.306710	0.000859	8.589639	2.910248	0.068563
1629	8.1400e-01	-14.8969	-88.076824	0.000576	5.760111	1.951578	0.045977
1630	8.1450e-01	-14.8616	-87.806606	0.000677	6.770657	2.293961	0.054044
1631	8.1500e-01	-14.8183	-87.806606	0.000000	0.000000	0.000000	0.000000
1632	8.1550e-01	-14.7750	-87.588819	0.000546	5.456947	1.848864	0.043557
1633	8.1600e-01	-14.7413	-87.294403	0.000738	7.376984	2.499390	0.058883
1634	8.1650e-01	-14.6980	-87.108880	0.000465	4.648511	1.574958	0.037105
1635	8.1700e-01	-14.6643	-86.951589	0.000394	3.941128	1.335290	0.031458
1636	8.1750e-01	-14.6162	-86.895126	0.000141	1.414764	0.479335	0.011293
1637	8.1800e-01	-14.5761	-86.915291	-0.000051	-0.505273	-0.171191	-0.004033
1638	8.1850e-01	-14.5327	-86.403088	0.001283	12.833931	4.348254	0.102441
1639	8.1900e-01	-14.4991	-86.294194	0.000273	2.728474	0.924432	0.021779
1640	8.1950e-01	-14.4606	-85.927182	0.000920	9.195966	3.115678	0.073402
1641	8.2000e-01	-14.4237	-86.278062	-0.000879	-8.791748	-2.978725	-0.070176
1642	8.2050e-01	-14.3836	-85.931215	0.000869	8.690694	2.944487	0.069369
1643	8.2100e-01	-14.3386	-85.955414	-0.000061	-0.606327	-0.205429	-0.004840
1644	8.2150e-01	-14.3017	-85.580336	0.000940	9.398076	3.184154	0.075016
1645	8.2200e-01	-14.2584	-85.471442	0.000273	2.728474	0.924432	0.021779
1646	8.2250e-01	-14.2231	-85.483541	-0.000030	-0.303164	-0.102715	-0.002420
1647	8.2300e-01	-14.1766	-85.052000	0.001081	10.812840	3.663489	0.086308
1648	8.2350e-01	-14.1445	-84.749517	0.000758	7.579093	2.567866	0.060496
1649	8.2400e-01	-14.0964	-84.975371	-0.000566	-5.659056	-1.917340	-0.045171
1650	8.2450e-01	-14.0691	-84.588194	0.000970	9.701239	3.286869	0.077435
1651	8.2500e-01	-14.0242	-84.503498	0.000212	2.122146	0.719003	0.016939
1652	8.2550e-01	-13.9905	-84.213115	0.000728	7.275930	2.465152	0.058077
1653	8.2600e-01	-13.9392	-84.075990	0.000344	3.435856	1.164099	0.027425
1654	8.2650e-01	-13.9039	-84.031626	0.000111	1.111600	0.376620	0.008873
1655	8.2700e-01	-13.8654	-83.729144	0.000758	7.579093	2.567866	0.060496
1656	8.2750e-01	-13.8140	-83.652515	0.000192	1.920037	0.650526	0.015326
1657	8.2800e-01	-13.7836	-83.547654	0.000263	2.627419	0.890194	0.020972
1658	8.2850e-01	-13.7403	-83.152410	0.000990	9.903349	3.355345	0.079049
1659	8.2900e-01	-13.6953	-82.870094	0.000707	7.073820	2.396675	0.056463
1660	8.2950e-01	-13.6697	-83.039484	-0.000424	-4.244292	-1.438005	-0.033878
1661	8.3000e-01	-13.6167	-82.821696	0.000546	5.456947	1.848864	0.043557
1662	8.3050e-01	-13.5814	-82.442585	0.000950	9.499130	3.218392	0.075822
1663	8.3100e-01	-13.5397	-82.470817	-0.000071	-0.707382	-0.239668	-0.005646
1664	8.3150e-01	-13.4996	-82.232864	0.000596	5.962220	2.020055	0.047591
1665	8.3200e-01	-13.4563	-82.019110	0.000536	5.355893	1.814626	0.042751
1666	8.3250e-01	-13.4130	-82.019110	0.000000	0.000000	0.000000	0.000000
1667	8.3300e-01	-13.3857	-81.700495	0.000798	7.983312	2.704819	0.063723
1668	8.3350e-01	-13.3312	-81.639998	0.000152	1.515819	0.513573	0.012099
1669	8.3400e-01	-13.2991	-81.345582	0.000738	7.376984	2.499390	0.058883
1670	8.3450e-01	-13.2590	-81.051166	0.000738	7.376984	2.499390	0.058883
1671	8.3500e-01	-13.2189	-80.829346	0.000556	5.558002	1.883102	0.044364
1672	8.3550e-01	-13.1772	-80.821279	0.000020	0.202109	0.068476	0.001613
1673	8.3600e-01	-13.1483	-80.567194	0.000637	6.366438	2.157008	0.050817
1674	8.3650e-01	-13.0905	-80.563161	0.000010	0.101055	0.034238	0.000807
1675	8.3700e-01	-13.0569	-80.244546	0.000798	7.983312	2.704819	0.063723
1676	8.3750e-01	-13.0167	-80.292944	-0.000121	-1.212655	-0.410859	-0.009679
1677	8.3800e-01	-12.9750	-79.933998	0.000899	8.993857	3.047201	0.071789
1678	8.3850e-01	-12.9413	-79.837203	0.000243	2.425310	0.821717	0.019359
1679	8.3900e-01	-12.8932	-79.341132	0.001243	12.429713	4.211301	0.099214
1680	8.3950e-01	-12.8611	-79.385496	-0.000111	-1.111600	-0.376620	-0.008873
1681	8.4000e-01	-12.8194	-79.405662	-0.000051	-0.505273	-0.171191	-0.004033
1682	8.4050e-01	-12.7793	-79.095113	0.000778	7.781202	2.636343	0.062110
1683	8.4100e-01	-12.7392	-79.147544	-0.000131	-1.313709	-0.445097	-0.010486
1684	8.4150e-01	-12.7007	-78.885392	0.000657	6.568547	2.225484	0.052430
1685	8.4200e-01	-12.6558	-78.413520	0.001182	11.823385	4.005871	0.094375
1686	8.4250e-01	-12.6141	-78.232030	0.000455	4.547456	1.540720	0.036298
1687	8.4300e-01	-12.5676	-78.163467	0.000172	1.717928	0.582050	0.013713
1688	8.4350e-01	-12.5387	-78.211865	-0.000121	-1.212655	-0.410859	-0.009679
1689	8.4400e-01	-12.5002	-77.990044	0.000556	5.558002	1.883102	0.044364
1690	8.4450e-01	-12.4617	-77.901316	0.000222	2.223201	0.753241	0.017746
1691	8.4500e-01	-12.4232	-77.542370	0.000899	8.993857	3.047201	0.071789
1692	8.4550e-01	-12.3815	-77.288285	0.000637	6.366438	2.157008	0.050817
1693	8.4600e-01	-12.3430	-77.130994	0.000394	3.941128	1.335290	0.031458
1694	8.4650e-01	-12.2980	-77.046299	0.000212	2.122146	0.719003	0.016939
1695	8.4700e-01	-12.2644	-76.828512	0.000546	5.456947	1.848864	0.043557
1696	8.4750e-01	-12.2178	-76.594592	0.000586	5.861165	1.985817	0.046784
1697	8.4800e-01	-12.1793	-76.570394	0.000061	0.606327	0.205429	0.004840
1698	8.4850e-01	-12.1376	-76.175150	0.000990	9.903349	3.355345	0.079049
1699	8.4900e-01	-12.1007	-76.207415	-0.000081	-0.808437	-0.273906	-0.006453
1700	8.4950e-01	-12.0574	-75.876701	0.000829	8.286475	2.807534	0.066143
1701	8.5000e-01	-12.0221	-75.590351	0.000717	7.174875	2.430913	0.057270
1702	8.5050e-01	-11.9724	-75.545986	0.000111	1.111600	0.376620	0.008873
1703	8.5100e-01	-11.9339	-75.291901	0.000637	6.366438	2.157008	0.050817
1704	8.5150e-01	-11.8970	-75.408861	-0.000293	-2.930583	-0.992908	-0.023392
1705	8.5200e-01	-11.8569	-75.053948	0.000889	8.892803	3.012963	0.070983
1706	8.5250e-01	-11.8168	-74.836161	0.000546	5.456947	1.848864	0.043557
1707	8.5300e-01	-11.7815	-74.642572	0.000485	4.850620	1.643434	0.038718
1708	8.5350e-01	-11.7382	-74.578043	0.000162	1.616873	0.547811	0.012906
1709	8.5400e-01	-11.6997	-74.299759	0.000697	6.972766	2.362437	0.055657
1710	8.5450e-01	-11.6628	-74.384454	-0.000212	-2.122146	-0.719003	-0.016939
1711	8.5500e-01	-11.6211	-73.940813	0.001112	11.116003	3.766204	0.088728
1712	8.5550e-01	-11.5890	-73.795622	0.000364	3.637965	1.232576	0.029038
1713	8.5600e-01	-11.5409	-73.767390	0.000071	0.707382	0.239668	0.005646
1714	8.5650e-01	-11.5007	-73.602033	0.000414	4.143238	1.403767	0.033071
1715	8.5700e-01	-11.4590	-73.202756	0.001000	10.004403	3.389584	0.079855
1716	8.5750e-01	-11.4221	-73.077730	0.000313	3.132692	1.061385	0.025005
1717	8.5800e-01	-11.3804	-72.900274	0.000445	4.446401	1.506482	0.035491
1718	8.5850e-01	-11.3403	-72.613924	0.000717	7.174875	2.430913	0.057270
1719	8.5900e-01	-11.2954	-72.464699	0.000374	3.739019	1.266814	0.029845
1720	8.5950e-01	-11.2633	-72.400170	0.000162	1.616873	0.547811	0.012906
1721	8.6000e-01	-11.2168	-72.081555	0.000798	7.983312	2.704819	0.063723
1722	8.6050e-01	-11.1799	-72.121886	-0.000101	-1.010546	-0.342382	-0.008066
1723	8.6100e-01	-11.1478	-71.662113	0.001152	11.520222	3.903157	0.091955
1724	8.6150e-01	-11.1029	-71.666146	-0.000010	-0.101055	-0.034238	-0.000807
1725	8.6200e-01	-11.0596	-71.533053	0.000333	3.334801	1.129861	0.026618
1726	8.6250e-01	-11.0163	-71.327365	0.000515	5.153783	1.746149	0.041138
1727	8.6300e-01	-10.9858	-71.186207	0.000354	3.536910	1.198338	0.028232
1728	8.6350e-01	-10.9361	-70.883724	0.000758	7.579093	2.567866	0.060496
1729	8.6400e-01	-10.9024	-70.702235	0.000455	4.547456	1.540720	0.036298
1730	8.6450e-01	-10.8558	-70.444117	0.000647	6.467493	2.191246	0.051624
1731	8.6500e-01	-10.8238	-70.561077	-0.000293	-2.930583	-0.992908	-0.023392
1732	8.6550e-01	-10.7756	-70.125502	0.001091	10.913894	3.697727	0.087115
1733	8.6600e-01	-10.7403	-69.778655	0.000869	8.690694	2.944487	0.069369
1734	8.6650e-01	-10.7002	-69.911748	-0.000333	-3.334801	-1.129861	-0.026618
1735	8.6700e-01	-10.6553	-69.718159	0.000485	4.850620	1.643434	0.038718
1736	8.6750e-01	-10.6248	-69.403577	0.000788	7.882257	2.670581	0.062916
1737	8.6800e-01	-10.5879	-69.052698	0.000879	8.791748	2.978725	0.070176
1738	8.6850e-01	-10.5382	-68.875241	0.000445	4.446401	1.506482	0.035491
1739	8.6900e-01	-10.5013	-68.709884	0.000414	4.143238	1.403767	0.033071
1740	8.6950e-01	-10.4548	-68.508229	0.000505	5.052729	1.711911	0.040331
1741	8.7000e-01	-10.4227	-68.520329	-0.000030	-0.303164	-0.102715	-0.002420
1742	8.7050e-01	-10.3762	-68.383203	0.000344	3.435856	1.164099	0.027425
1743	8.7100e-01	-10.3409	-68.125085	0.000647	6.467493	2.191246	0.051624
1744	8.7150e-01	-10.2895	-67.975860	0.000374	3.739019	1.266814	0.029845
1745	8.7200e-01	-10.2591	-67.806470	0.000424	4.244292	1.438005	0.033878
1746	8.7250e-01	-10.2206	-67.649179	0.000394	3.941128	1.335290	0.031458
1747	8.7300e-01	-10.1837	-67.370896	0.000697	6.972766	2.362437	0.055657
1748	8.7350e-01	-10.1468	-67.120843	0.000627	6.265384	2.122769	0.050010
1749	8.7400e-01	-10.1019	-66.709467	0.001031	10.307567	3.492298	0.082275
1750	8.7450e-01	-10.0537	-66.592508	0.000293	2.930583	0.992908	0.023392
1751	8.7500e-01	-10.0232	-66.463448	0.000323	3.233746	1.095623	0.025812
1752	8.7550e-01	-9.9831	-66.463448	0.000000	0.000000	0.000000	0.000000
1753	8.7600e-01	-9.9334	-66.148867	0.000788	7.882257	2.670581	0.062916
1754	8.7650e-01	-9.8917	-66.116602	0.000081	0.808437	0.273906	0.006453
1755	8.7700e-01	-9.8596	-66.011741	0.000263	2.627419	0.890194	0.020972
1756	8.7750e-01	-9.8291	-65.866550	0.000364	3.637965	1.232576	0.029038
1757	8.7800e-01	-9.7778	-65.495505	0.000930	9.297021	3.149916	0.074209
1758	8.7850e-01	-9.7361	-65.193022	0.000758	7.579093	2.567866	0.060496
1759	8.7900e-01	-9.7008	-65.160758	0.000081	0.808437	0.273906	0.006453
1760	8.7950e-01	-9.6575	-64.910705	0.000627	6.265384	2.122769	0.050010
1761	8.8000e-01	-9.6206	-64.624355	0.000717	7.174875	2.430913	0.057270
1762	8.8050e-01	-9.5853	-64.479164	0.000364	3.637965	1.232576	0.029038
1763	8.8100e-01	-9.5452	-64.382370	0.000243	2.425310	0.821717	0.019359
1764	8.8150e-01	-9.4938	-64.079887	0.000758	7.579093	2.567866	0.060496
1765	8.8200e-01	-9.4602	-63.680610	0.001000	10.004403	3.389584	0.079855
1766	8.8250e-01	-9.4168	-63.555584	0.000313	3.132692	1.061385	0.025005
1767	8.8300e-01	-9.3751	-63.595915	-0.000101	-1.010546	-0.342382	-0.008066
1768	8.8350e-01	-9.3447	-63.245036	0.000879	8.791748	2.978725	0.070176
1769	8.8400e-01	-9.2981	-63.091778	0.000384	3.840074	1.301052	0.030652
1770	8.8450e-01	-9.2532	-62.946586	0.000364	3.637965	1.232576	0.029038
1771	8.8500e-01	-9.2131	-62.849792	0.000243	2.425310	0.821717	0.019359
1772	8.8550e-01	-9.1826	-62.640071	0.000525	5.254838	1.780387	0.041944
1773	8.8600e-01	-9.1409	-62.309357	0.000829	8.286475	2.807534	0.066143
1774	8.8650e-01	-9.1024	-62.164165	0.000364	3.637965	1.232576	0.029038
1775	8.8700e-01	-9.0623	-62.127867	0.000091	0.909491	0.308144	0.007260
1776	8.8750e-01	-9.0302	-61.857650	0.000677	6.770657	2.293961	0.054044
1777	8.8800e-01	-8.9789	-61.647929	0.000525	5.254838	1.780387	0.041944
1778	8.8850e-01	-8.9468	-61.409976	0.000596	5.962220	2.020055	0.047591
1779	8.8900e-01	-8.8987	-61.272851	0.000344	3.435856	1.164099	0.027425
1780	8.8950e-01	-8.8538	-60.982467	0.000728	7.275930	2.465152	0.058077
1781	8.9000e-01	-8.8249	-60.994567	-0.000030	-0.303164	-0.102715	-0.002420
1782	8.9050e-01	-8.7784	-60.849375	0.000364	3.637965	1.232576	0.029038
1783	8.9100e-01	-8.7431	-60.583191	0.000667	6.669602	2.259722	0.053237
1784	8.9150e-01	-8.7046	-60.345238	0.000596	5.962220	2.020055	0.047591
1785	8.9200e-01	-8.6596	-60.095186	0.000627	6.265384	2.122769	0.050010
1786	8.9250e-01	-8.6163	-59.857233	0.000596	5.962220	2.020055	0.047591
1787	8.9300e-01	-8.5794	-59.578949	0.000697	6.972766	2.362437	0.055657
1788	8.9350e-01	-8.5409	-59.490221	0.000222	2.223201	0.753241	0.017746
1789	8.9400e-01	-8.5056	-59.365195	0.000313	3.132692	1.061385	0.025005
1790	8.9450e-01	-8.4623	-59.034481	0.000829	8.286475	2.807534	0.066143
1791	8.9500e-01	-8.4238	-58.800561	0.000586	5.861165	1.985817	0.046784
1792	8.9550e-01	-8.3789	-58.623105	0.000445	4.446401	1.506482	0.035491
1793	8.9600e-01	-8.3388	-58.413384	0.000525	5.254838	1.780387	0.041944
1794	8.9650e-01	-8.3003	-58.235927	0.000445	4.446401	1.506482	0.035491
1795	8.9700e-01	-8.2634	-57.977809	0.000647	6.467493	2.191246	0.051624
1796	8.9750e-01	-8.2153	-57.905213	0.000182	1.818982	0.616288	0.014519
1797	8.9800e-01	-8.1816	-57.707591	0.000495	4.951674	1.677673	0.039524
1798	8.9850e-01	-8.1415	-57.546267	0.000404	4.042183	1.369529	0.032265
1799	8.9900e-01	-8.0982	-57.514003	0.000081	0.808437	0.273906	0.006453
1800	8.9950e-01	-8.0613	-57.146991	0.000920	9.195966	3.115678	0.073402
1801	9.0000e-01	-8.0180	-56.909038	0.000596	5.962220	2.020055	0.047591
1802	9.0050e-01	-7.9778	-56.695284	0.000536	5.355893	1.814626	0.042751
1803	9.0100e-01	-7.9442	-56.473463	0.000556	5.558002	1.883102	0.044364
1804	9.0150e-01	-7.8976	-56.328272	0.000364	3.637965	1.232576	0.029038
1805	9.0200e-01	-7.8559	-56.360536	-0.000081	-0.808437	-0.273906	-0.006453
1806	9.0250e-01	-7.8206	-56.049988	0.000778	7.781202	2.636343	0.062110
1807	9.0300e-01	-7.7853	-55.719274	0.000829	8.286475	2.807534	0.066143
1808	9.0350e-01	-7.7388	-55.465189	0.000637	6.366438	2.157008	0.050817
1809	9.0400e-01	-7.6987	-55.453089	0.000030	0.303164	0.102715	0.002420
1810	9.0450e-01	-7.6650	-54.977184	0.001192	11.924440	4.040110	0.095181
1811	9.0500e-01	-7.6089	-54.803760	0.000435	4.345347	1.472243	0.034685
1812	9.0550e-01	-7.5816	-54.771496	0.000081	0.808437	0.273906	0.006453
1813	9.0600e-01	-7.5335	-54.715032	0.000141	1.414764	0.479335	0.011293
1814	9.0650e-01	-7.4998	-54.343987	0.000930	9.297021	3.149916	0.074209
1815	9.0700e-01	-7.4549	-54.235093	0.000273	2.728474	0.924432	0.021779
1816	9.0750e-01	-7.4244	-54.122167	0.000283	2.829528	0.958670	0.022585
1817	9.0800e-01	-7.3811	-53.811618	0.000778	7.781202	2.636343	0.062110
1818	9.0850e-01	-7.3442	-53.472838	0.000849	8.488584	2.876010	0.067756
1819	9.0900e-01	-7.3041	-53.396209	0.000192	1.920037	0.650526	0.015326
1820	9.0950e-01	-7.2511	-53.287315	0.000273	2.728474	0.924432	0.021779
1821	9.1000e-01	-7.2142	-53.146157	0.000354	3.536910	1.198338	0.028232
1822	9.1050e-01	-7.1757	-52.851741	0.000738	7.376984	2.499390	0.058883
1823	9.1100e-01	-7.1324	-52.730748	0.000303	3.031637	1.027147	0.024199
1824	9.1150e-01	-7.0987	-52.686384	0.000111	1.111600	0.376620	0.008873
1825	9.1200e-01	-7.0650	-52.170147	0.001293	12.934986	4.382492	0.103247
1826	9.1250e-01	-7.0281	-51.855565	0.000788	7.882257	2.670581	0.062916
1827	9.1300e-01	-6.9864	-51.855565	0.000000	0.000000	0.000000	0.000000
1828	9.1350e-01	-6.9383	-51.492586	0.000909	9.094912	3.081440	0.072596
1829	9.1400e-01	-6.8966	-51.286898	0.000515	5.153783	1.746149	0.041138
1830	9.1450e-01	-6.8613	-51.036846	0.000627	6.265384	2.122769	0.050010
1831	9.1500e-01	-6.8244	-50.964250	0.000182	1.818982	0.616288	0.014519
1832	9.1550e-01	-6.7827	-50.560941	0.001011	10.105458	3.423822	0.080662
1833	9.1600e-01	-6.7410	-50.472212	0.000222	2.223201	0.753241	0.017746
1834	9.1650e-01	-6.6977	-50.343153	0.000323	3.233746	1.095623	0.025812
1835	9.1700e-01	-6.6544	-50.101167	0.000606	6.063275	2.054293	0.048397
1836	9.1750e-01	-6.6126	-50.032605	0.000172	1.717928	0.582050	0.013713
1837	9.1800e-01	-6.5758	-49.923711	0.000273	2.728474	0.924432	0.021779
1838	9.1850e-01	-6.5356	-49.520401	0.001011	10.105458	3.423822	0.080662
1839	9.1900e-01	-6.5116	-49.254217	0.000667	6.669602	2.259722	0.053237
1840	9.1950e-01	-6.4570	-49.004165	0.000627	6.265384	2.122769	0.050010
1841	9.2000e-01	-6.4137	-48.854940	0.000374	3.739019	1.266814	0.029845
1842	9.2050e-01	-6.3800	-48.556491	0.000748	7.478039	2.533628	0.059690
1843	9.2100e-01	-6.3319	-48.504060	0.000131	1.313709	0.445097	0.010486
1844	9.2150e-01	-6.2966	-48.314505	0.000475	4.749565	1.609196	0.037911
1845	9.2200e-01	-6.2533	-48.084618	0.000576	5.760111	1.951578	0.045977
1846	9.2250e-01	-6.2244	-47.725672	0.000899	8.993857	3.047201	0.071789
1847	9.2300e-01	-6.1875	-47.616779	0.000273	2.728474	0.924432	0.021779
1848	9.2350e-01	-6.1426	-47.398991	0.000546	5.456947	1.848864	0.043557
1849	9.2400e-01	-6.1105	-47.427223	-0.000071	-0.707382	-0.239668	-0.005646
1850	9.2450e-01	-6.0608	-47.209436	0.000546	5.456947	1.848864	0.043557
1851	9.2500e-01	-6.0255	-46.818225	0.000980	9.802294	3.321107	0.078242
1852	9.2550e-01	-5.9790	-46.733530	0.000212	2.122146	0.719003	0.016939
1853	9.2600e-01	-5.9389	-46.310055	0.001061	10.610731	3.595013	0.084695
1854	9.2650e-01	-5.9036	-46.217293	0.000232	2.324255	0.787479	0.018552
1855	9.2700e-01	-5.8619	-46.007572	0.000525	5.254838	1.780387	0.041944
1856	9.2750e-01	-5.8250	-45.785752	0.000556	5.558002	1.883102	0.044364
1857	9.2800e-01	-5.7817	-45.644593	0.000354	3.536910	1.198338	0.028232
1858	9.2850e-01	-5.7351	-45.370343	0.000687	6.871711	2.328199	0.054850
1859	9.2900e-01	-5.7095	-45.233217	0.000344	3.435856	1.164099	0.027425
1860	9.2950e-01	-5.6645	-44.829908	0.001011	10.105458	3.423822	0.080662
1861	9.3000e-01	-5.6260	-44.773444	0.000141	1.414764	0.479335	0.011293
1862	9.3050e-01	-5.5811	-44.636319	0.000344	3.435856	1.164099	0.027425
1863	9.3100e-01	-5.5474	-44.366101	0.000677	6.770657	2.293961	0.054044
1864	9.3150e-01	-5.5073	-44.237042	0.000323	3.233746	1.095623	0.025812
1865	9.3200e-01	-5.4656	-43.910361	0.000819	8.185421	2.773296	0.065336
1866	9.3250e-01	-5.4191	-43.648210	0.000657	6.568547	2.225484	0.052430
1867	9.3300e-01	-5.3790	-43.527217	0.000303	3.031637	1.027147	0.024199
1868	9.3350e-01	-5.3421	-43.216668	0.000778	7.781202	2.636343	0.062110
1869	9.3400e-01	-5.2892	-43.047278	0.000424	4.244292	1.438005	0.033878
1870	9.3450e-01	-5.2571	-42.938384	0.000273	2.728474	0.924432	0.021779
1871	9.3500e-01	-5.2250	-42.781093	0.000394	3.941128	1.335290	0.031458
1872	9.3550e-01	-5.1817	-42.458446	0.000808	8.084366	2.739057	0.064530
1873	9.3600e-01	-5.1368	-42.301155	0.000394	3.941128	1.335290	0.031458
1874	9.3650e-01	-5.1031	-42.075301	0.000566	5.659056	1.917340	0.045171
1875	9.3700e-01	-5.0581	-41.918010	0.000394	3.941128	1.335290	0.031458
1876	9.3750e-01	-5.0196	-41.643760	0.000687	6.871711	2.328199	0.054850
1877	9.3800e-01	-4.9892	-41.534866	0.000273	2.728474	0.924432	0.021779
1878	9.3850e-01	-4.9442	-41.309012	0.000566	5.659056	1.917340	0.045171
1879	9.3900e-01	-4.9041	-41.075093	0.000586	5.861165	1.985817	0.046784
1880	9.3950e-01	-4.8672	-40.970232	0.000263	2.627419	0.890194	0.020972
1881	9.4000e-01	-4.8223	-40.526591	0.001112	11.116003	3.766204	0.088728
1882	9.4050e-01	-4.7774	-40.361234	0.000414	4.143238	1.403767	0.033071
1883	9.4100e-01	-4.7437	-40.369300	-0.000020	-0.202109	-0.068476	-0.001613
1884	9.4150e-01	-4.7052	-40.066818	0.000758	7.579093	2.567866	0.060496
1885	9.4200e-01	-4.6635	-39.917593	0.000374	3.739019	1.266814	0.029845
1886	9.4250e-01	-4.6138	-39.417489	0.001253	12.530768	4.245539	0.100021
1887	9.4300e-01	-4.5833	-39.377158	0.000101	1.010546	0.342382	0.008066
1888	9.4350e-01	-4.5352	-39.090808	0.000717	7.174875	2.430913	0.057270
1889	9.4400e-01	-4.5127	-38.937550	0.000384	3.840074	1.301052	0.030652
1890	9.4450e-01	-4.4566	-38.518108	0.001051	10.509676	3.560775	0.083888
1891	9.4500e-01	-4.4229	-38.243857	0.000687	6.871711	2.328199	0.054850
1892	9.4550e-01	-4.3828	-38.199493	0.000111	1.111600	0.376620	0.008873
1893	9.4600e-01	-4.3491	-37.997838	0.000505	5.052729	1.711911	0.040331
1894	9.4650e-01	-4.2961	-37.820382	0.000445	4.446401	1.506482	0.035491
1895	9.4700e-01	-4.2592	-37.683257	0.000344	3.435856	1.164099	0.027425
1896	9.4750e-01	-4.2175	-37.469503	0.000536	5.355893	1.814626	0.042751
1897	9.4800e-01	-4.1822	-37.090391	0.000950	9.499130	3.218392	0.075822
1898	9.4850e-01	-4.1421	-37.021829	0.000172	1.717928	0.582050	0.013713
1899	9.4900e-01	-4.0956	-36.723379	0.000748	7.478039	2.533628	0.059690
1900	9.4950e-01	-4.0603	-36.481393	0.000606	6.063275	2.054293	0.048397
1901	9.5000e-01	-4.0154	-36.118415	0.000909	9.094912	3.081440	0.072596
1902	9.5050e-01	-3.9753	-36.118415	0.000000	0.000000	0.000000	0.000000
1903	9.5100e-01	-3.9320	-35.860296	0.000647	6.467493	2.191246	0.051624
1904	9.5150e-01	-3.9063	-35.545715	0.000788	7.882257	2.670581	0.062916
1905	9.5200e-01	-3.8550	-35.469086	0.000192	1.920037	0.650526	0.015326
1906	9.5250e-01	-3.8165	-35.287596	0.000455	4.547456	1.540720	0.036298
1907	9.5300e-01	-3.7828	-34.936717	0.000879	8.791748	2.978725	0.070176
1908	9.5350e-01	-3.7411	-34.799591	0.000344	3.435856	1.164099	0.027425
1909	9.5400e-01	-3.6929	-34.525341	0.000687	6.871711	2.328199	0.054850
1910	9.5450e-01	-3.6673	-34.452745	0.000182	1.818982	0.616288	0.014519
1911	9.5500e-01	-3.6272	-33.815515	0.001597	15.966623	5.409638	0.127446
1912	9.5550e-01	-3.5742	-33.976839	-0.000404	-4.042183	-1.369529	-0.032265
1913	9.5600e-01	-3.5405	-33.722754	0.000637	6.366438	2.157008	0.050817
1914	9.5650e-01	-3.5117	-33.408172	0.000788	7.882257	2.670581	0.062916
1915	9.5700e-01	-3.4635	-33.194418	0.000536	5.355893	1.814626	0.042751
1916	9.5750e-01	-3.4170	-33.141988	0.000131	1.313709	0.445097	0.010486
1917	9.5800e-01	-3.3865	-32.787075	0.000889	8.892803	3.012963	0.070983
1918	9.5850e-01	-3.3320	-32.532990	0.000637	6.366438	2.157008	0.050817
1919	9.5900e-01	-3.3063	-32.399898	0.000333	3.334801	1.129861	0.026618
1920	9.5950e-01	-3.2598	-32.133713	0.000667	6.669602	2.259722	0.053237
1921	9.6000e-01	-3.2181	-31.669907	0.001162	11.621276	3.937395	0.092761
1922	9.6050e-01	-3.1892	-31.573112	0.000243	2.425310	0.821717	0.019359
1923	9.6100e-01	-3.1411	-31.484384	0.000222	2.223201	0.753241	0.017746
1924	9.6150e-01	-3.0994	-31.456153	0.000071	0.707382	0.239668	0.005646
1925	9.6200e-01	-3.0721	-31.052843	0.001011	10.105458	3.423822	0.080662
1926	9.6250e-01	-3.0240	-30.899585	0.000384	3.840074	1.301052	0.030652
1927	9.6300e-01	-2.9855	-30.730195	0.000424	4.244292	1.438005	0.033878
1928	9.6350e-01	-2.9341	-30.585003	0.000364	3.637965	1.232576	0.029038
1929	9.6400e-01	-2.8956	-30.161528	0.001061	10.610731	3.595013	0.084695
1930	9.6450e-01	-2.8571	-29.967939	0.000485	4.850620	1.643434	0.038718
1931	9.6500e-01	-2.8138	-29.661424	0.000768	7.680148	2.602105	0.061303
1932	9.6550e-01	-2.7785	-29.350875	0.000778	7.781202	2.636343	0.062110
1933	9.6600e-01	-2.7384	-29.314577	0.000091	0.909491	0.308144	0.007260
1934	9.6650e-01	-2.6951	-28.987896	0.000819	8.185421	2.773296	0.065336
1935	9.6700e-01	-2.6646	-28.866903	0.000303	3.031637	1.027147	0.024199
1936	9.6750e-01	-2.6197	-28.681381	0.000465	4.648511	1.574958	0.037105
1937	9.6800e-01	-2.5812	-28.487792	0.000485	4.850620	1.643434	0.038718
1938	9.6850e-01	-2.5427	-28.233707	0.000637	6.366438	2.157008	0.050817
1939	9.6900e-01	-2.4946	-28.144979	0.000222	2.223201	0.753241	0.017746
1940	9.6950e-01	-2.4593	-27.894926	0.000627	6.265384	2.122769	0.050010
1941	9.7000e-01	-2.4272	-27.544047	0.000879	8.791748	2.978725	0.070176
1942	9.7050e-01	-2.3823	-27.229465	0.000788	7.882257	2.670581	0.062916
1943	9.7100e-01	-2.3326	-27.177035	0.000131	1.313709	0.445097	0.010486
1944	9.7150e-01	-2.2924	-26.874553	0.000758	7.579093	2.567866	0.060496
1945	9.7200e-01	-2.2604	-26.628534	0.000616	6.164329	2.088531	0.049204
1946	9.7250e-01	-2.2235	-26.455110	0.000435	4.345347	1.472243	0.034685
1947	9.7300e-01	-2.1866	-26.104231	0.000879	8.791748	2.978725	0.070176
1948	9.7350e-01	-2.1304	-25.979205	0.000313	3.132692	1.061385	0.025005
1949	9.7400e-01	-2.0983	-25.737219	0.000606	6.063275	2.054293	0.048397
1950	9.7450e-01	-2.0646	-25.462968	0.000687	6.871711	2.328199	0.054850
1951	9.7500e-01	-2.0165	-25.426670	0.000091	0.909491	0.308144	0.007260
1952	9.7550e-01	-1.9700	-25.116122	0.000778	7.781202	2.636343	0.062110
1953	9.7600e-01	-1.9443	-24.801540	0.000788	7.882257	2.670581	0.062916
1954	9.7650e-01	-1.8962	-24.559554	0.000606	6.063275	2.054293	0.048397
1955	9.7700e-01	-1.8657	-24.426462	0.000333	3.334801	1.129861	0.026618
1956	9.7750e-01	-1.8240	-24.172376	0.000637	6.366438	2.157008	0.050817
1957	9.7800e-01	-1.7887	-23.841662	0.000829	8.286475	2.807534	0.066143
1958	9.7850e-01	-1.7358	-23.543213	0.000748	7.478039	2.533628	0.059690
1959	9.7900e-01	-1.7053	-23.333492	0.000525	5.254838	1.780387	0.041944
1960	9.7950e-01	-1.6572	-23.317360	0.000040	0.404218	0.136953	0.003226
1961	9.8000e-01	-1.6251	-23.143936	0.000435	4.345347	1.472243	0.034685
1962	9.8050e-01	-1.5786	-22.732560	0.001031	10.307567	3.492298	0.082275
1963	9.8100e-01	-1.5449	-22.603501	0.000323	3.233746	1.095623	0.025812
1964	9.8150e-01	-1.5032	-22.325217	0.000697	6.972766	2.362437	0.055657
1965	9.8200e-01	-1.4647	-22.268754	0.000141	1.414764	0.479335	0.011293
1966	9.8250e-01	-1.4165	-21.913841	0.000889	8.892803	3.012963	0.070983
1967	9.8300e-01	-1.3764	-21.776716	0.000344	3.435856	1.164099	0.027425
1968	9.8350e-01	-1.3460	-21.349207	0.001071	10.711785	3.629251	0.085502
1969	9.8400e-01	-1.3123	-21.220148	0.000323	3.233746	1.095623	0.025812
1970	9.8450e-01	-1.2529	-21.107222	0.000283	2.829528	0.958670	0.022585
1971	9.8500e-01	-1.2256	-20.881368	0.000566	5.659056	1.917340	0.045171
1972	9.8550e-01	-1.1695	-20.607117	0.000687	6.871711	2.328199	0.054850
1973	9.8600e-01	-1.1358	-20.413529	0.000485	4.850620	1.643434	0.038718
1974	9.8650e-01	-1.0973	-20.179609	0.000586	5.861165	1.985817	0.046784
1975	9.8700e-01	-1.0604	-20.090881	0.000222	2.223201	0.753241	0.017746
1976	9.8750e-01	-1.0203	-19.631107	0.001152	11.520222	3.903157	0.091955
1977	9.8800e-01	-0.9834	-19.518181	0.000283	2.829528	0.958670	0.022585
1978	9.8850e-01	-0.9337	-19.179400	0.000849	8.488584	2.876010	0.067756
1979	9.8900e-01	-0.8968	-18.957580	0.000556	5.558002	1.883102	0.044364
1980	9.8950e-01	-0.8631	-18.828521	0.000323	3.233746	1.095623	0.025812
1981	9.9000e-01	-0.8166	-18.465542	0.000909	9.094912	3.081440	0.072596
1982	9.9050e-01	-0.7813	-18.356648	0.000273	2.728474	0.924432	0.021779
1983	9.9100e-01	-0.7347	-18.114662	0.000606	6.063275	2.054293	0.048397
1984	9.9150e-01	-0.7043	-17.917041	0.000495	4.951674	1.677673	0.039524
1985	9.9200e-01	-0.6593	-17.642790	0.000687	6.871711	2.328199	0.054850
1986	9.9250e-01	-0.6128	-17.594393	0.000121	1.212655	0.410859	0.009679
1987	9.9300e-01	-0.5775	-17.324175	0.000677	6.770657	2.293961	0.054044
1988	9.9350e-01	-0.5438	-16.949097	0.000940	9.398076	3.184154	0.075016
1989	9.9400e-01	-0.4989	-16.727276	0.000556	5.558002	1.883102	0.044364
1990	9.9450e-01	-0.4668	-16.832137	-0.000263	-2.627419	-0.890194	-0.020972
1991	9.9500e-01	-0.4187	-16.360264	0.001182	11.823385	4.005871	0.094375
1992	9.9550e-01	-0.3818	-16.037617	0.000808	8.084366	2.739057	0.064530
1993	9.9600e-01	-0.3449	-15.880326	0.000394	3.941128	1.335290	0.031458
1994	9.9650e-01	-0.2920	-15.646406	0.000586	5.861165	1.985817	0.046784
1995	9.9700e-01	-0.2663	-15.271328	0.000940	9.398076	3.184154	0.075016
1996	9.9750e-01	-0.2134	-15.154368	0.000293	2.930583	0.992908	0.023392
1997	9.9800e-01	-0.1813	-14.843819	0.000778	7.781202	2.636343	0.062110
1998	9.9850e-01	-0.1364	-15.001110	-0.000394	-3.941128	-1.335290	-0.031458
1999	9.9900e-01	-0.1011	-14.295318	0.001768	17.684551	5.991688	0.141158
2000	9.9950e-01	-0.0561	-14.113829	0.000455	4.547456	1.540720	0.036298
2001	1.0000e+00	-0.0241	-13.996869	0.000455	4.547456	1.540720	0.023392

PMax (uC/cm2):	1.12e+02
Pr (uC/cm2):	7.67e+00
-Pr (uC/cm2):	-7.62e+00
PLoss (uC/cm2):	-7.62e+00
-Vc:	-1.32e+00
C (Max-Eff) (nF):	5.63e-01
K (Eff):	1.91e+03
Vert. (+/-Pr) Shift (uC/cm2):	2.33e-02
Offset (uC/cm2):	6.38e+00

A (Loop Area - uC/cm2·Volts):	-2.99e-01



Hysteresis Version: 5.48.1 - Radiant Technologies, Inc., 1999 - 9/12/24

