»»»»»»»»»»»»»»»»»»»»»»»»»»»»»»»»»»»» Hysteresis ««««««««««««««««««««««««««««««««««««
»»»  Executed Version:	5.48.1
»»»  Vision Version:	5.48.4 (R)
»»»  Vision Compiled:	9/18/24
»»»  Driver Version:	5.47.0
»»»  Windows Version:	Windows 8 or 8.1
»»»  Processor Information:	x86 (AMD or Intel) - 32 Processors
»»»  Tester Name:	PMF21124-494 (100V)
»»»  Tester S/N:	PMF21124-494
»»»  Internal Amp Type:	100V RevK 270k
»»»  Internal Amp S/N:	iAB2-596/K     
»»»  Execution Count:	1
»»»»»»»»»»»»»»»»»»»»»»»»»»»»»»»»»»»»»»»»»»««««««««««««««««««««««««««««««««««««««««««

Stored:	6/18/2025 - 15:19:38
Configured:	06/18/25 09:47:30 AM
Executed:	06/18/25 03:19:11 PM

»»»»»»»»»»»»»»»»»»»»»»»»»»»»»»»»»»» Sample Info ««««««««««««««««««««««««««««««««««««
Sample Name:	
Lot Name:	
Wafer Name:	
Die Row/Column:	0/0
Capacitor Number:	0
Sample Area (cm2):	1.00e-04
Sample Thickness (microns):	3.00e-01

Amplifier:	Internal

»»»»»»»»»»»»»»»»»»»»»»»»»»»»»»»»»»» Tester Info «««««««««««««««««««««««««««««««««««
Tester Name:	PMF21124-494 (100V)
Tester Serial Number:	PMF21124-494
Return Signal Amp. Level:	0.19 [Index: 3]

»»»»»»»»»»»»»»»»»»»»»»»»»»»»»»»» Hysteresis Info ««««««««««««««««««««««««««««««««««
Task Name:	Hyst-554
Volts:	20.00
Field:	666.67 (kV/cm)
DCBias:	0.00
DCField:	0.00 (kV/cm)
Hysteresis Period (ms):	1.00e+00
Preset:	Enabled
Preset Delay (ms):	1.00e+03
Profile:	Standard Bipolar

»»»»»»»»»»»»»»»»»»»»»»»»»»»»»»»»»»»»»» Data «««««««««««««««««««««««««««««««««««««««
Points:	2001

Valid Data

Point	Time (ms)	Drive Voltage	Measured Polarization (uC/cm2)	Capacitance (uF)	Normalized Capacitance (uF/cm2)	Dielectric Constant	Instantaneous Current (mA)
   1	0.0000e+00	0.0112	-14.952713	0.001121	11.211675	3.798618	0.089535
   2	5.0000e-04	0.0241	-14.505039	0.001121	11.211675	3.798618	0.089535
   3	1.0000e-03	0.0449	-14.380013	0.000313	3.131188	1.060875	0.025005
   4	1.5000e-03	0.0882	-14.226755	0.000384	3.838231	1.300428	0.030652
   5	2.0000e-03	0.1283	-14.097696	0.000323	3.232195	1.095097	0.025812
   6	2.5000e-03	0.1700	-13.633890	0.001162	11.615699	3.935505	0.092761
   7	3.0000e-03	0.2086	-13.323341	0.000778	7.777468	2.635078	0.062110
   8	3.5000e-03	0.2535	-13.012793	0.000778	7.777468	2.635078	0.062110
   9	4.0000e-03	0.2968	-12.839369	0.000434	4.343261	1.471537	0.034685
  10	4.5000e-03	0.3257	-12.359431	0.001202	12.019723	4.072393	0.095988
  11	5.0000e-03	0.3658	-11.835128	0.001313	13.130790	4.448832	0.104861
  12	5.5000e-03	0.4059	-11.689936	0.000364	3.636219	1.231984	0.029038
  13	6.0000e-03	0.4476	-11.532645	0.000394	3.939237	1.334650	0.031458
  14	6.5000e-03	0.4973	-11.294693	0.000596	5.959359	2.019085	0.047591
  15	7.0000e-03	0.5310	-10.818787	0.001192	11.918717	4.038171	0.095181
  16	7.5000e-03	0.5727	-10.322716	0.001242	12.423748	4.209280	0.099214
  17	8.0000e-03	0.6176	-9.919406	0.001010	10.100608	3.422179	0.080662
  18	8.5000e-03	0.6593	-9.729850	0.000475	4.747286	1.608424	0.037911
  19	9.0000e-03	0.6914	-9.633056	0.000242	2.424146	0.821323	0.019359
  20	9.5000e-03	0.7315	-9.128919	0.001263	12.625760	4.277723	0.100827
  21	1.0000e-02	0.7668	-8.725609	0.001010	10.100608	3.422179	0.080662
  22	1.0500e-02	0.8069	-8.286001	0.001101	11.009663	3.730175	0.087922
  23	1.1000e-02	0.8502	-8.100479	0.000465	4.646280	1.574202	0.037105
  24	1.1500e-02	0.8871	-7.741533	0.000899	8.989541	3.045739	0.071789
  25	1.2000e-02	0.9224	-7.580209	0.000404	4.040243	1.368871	0.032265
  26	1.2500e-02	0.9770	-7.136568	0.001111	11.110669	3.764396	0.088728
  27	1.3000e-02	1.0219	-6.963145	0.000434	4.343261	1.471537	0.034685
  28	1.3500e-02	1.0508	-6.680828	0.000707	7.070426	2.395525	0.056463
  29	1.4000e-02	1.0877	-6.124260	0.001394	13.938839	4.722606	0.111314
  30	1.4500e-02	1.1342	-5.688686	0.001091	10.908657	3.695953	0.087115
  31	1.5000e-02	1.1727	-5.422501	0.000667	6.666401	2.258638	0.053237
  32	1.5500e-02	1.2144	-5.115986	0.000768	7.676462	2.600856	0.061303
  33	1.6000e-02	1.2529	-4.773172	0.000859	8.585517	2.908852	0.068563
  34	1.6500e-02	1.2898	-4.269035	0.001263	12.625760	4.277723	0.100827
  35	1.7000e-02	1.3347	-4.192406	0.000192	1.919116	0.650214	0.015326
  36	1.7500e-02	1.3684	-4.055281	0.000343	3.434207	1.163541	0.027425
  37	1.8000e-02	1.4021	-3.611640	0.001111	11.110669	3.764396	0.088728
  38	1.8500e-02	1.4566	-3.147833	0.001162	11.615699	3.935505	0.092761
  39	1.9000e-02	1.4951	-2.893748	0.000636	6.363383	2.155973	0.050817
  40	1.9500e-02	1.5288	-2.571100	0.000808	8.080486	2.737743	0.064530
  41	2.0000e-02	1.5721	-2.167790	0.001010	10.100608	3.422179	0.080662
  42	2.0500e-02	1.6042	-1.808845	0.000899	8.989541	3.045739	0.071789
  43	2.1000e-02	1.6508	-1.393436	0.001040	10.403626	3.524844	0.083082
  44	2.1500e-02	1.6925	-1.038523	0.000889	8.888535	3.011517	0.070983
  45	2.2000e-02	1.7262	-0.824769	0.000535	5.353322	1.813755	0.042751
  46	2.2500e-02	1.7647	-0.433558	0.000980	9.797590	3.319513	0.078242
  47	2.3000e-02	1.8112	-0.256102	0.000444	4.444268	1.505759	0.035491
  48	2.3500e-02	1.8481	0.356929	0.001535	15.352924	5.201711	0.122606
  49	2.4000e-02	1.8914	0.699743	0.000859	8.585517	2.908852	0.068563
  50	2.4500e-02	1.9395	0.732007	0.000081	0.808049	0.273774	0.006453
  51	2.5000e-02	1.9620	1.256310	0.001313	13.130790	4.448832	0.104861
  52	2.5500e-02	2.0069	1.591057	0.000838	8.383505	2.840408	0.066949
  53	2.6000e-02	2.0486	1.841110	0.000626	6.262377	2.121751	0.050010
  54	2.6500e-02	2.0887	2.187956	0.000869	8.686523	2.943074	0.069369
  55	2.7000e-02	2.1208	2.724358	0.001343	13.433809	4.551498	0.107280
  56	2.7500e-02	2.1737	2.893748	0.000424	4.242255	1.437315	0.033878
  57	2.8000e-02	2.1962	3.494680	0.001505	15.049906	5.099046	0.120186
  58	2.8500e-02	2.2604	3.664070	0.000424	4.242255	1.437315	0.033878
  59	2.9000e-02	2.2924	3.982685	0.000798	7.979480	2.703521	0.063723
  60	2.9500e-02	2.3326	4.297267	0.000788	7.878474	2.669299	0.062916
  61	3.0000e-02	2.3695	4.716709	0.001050	10.504632	3.559066	0.083888
  62	3.0500e-02	2.4128	5.128085	0.001030	10.302620	3.490622	0.082275
  63	3.1000e-02	2.4432	5.345872	0.000545	5.454328	1.847976	0.043557
  64	3.1500e-02	2.4930	5.708851	0.000909	9.090547	3.079961	0.072596
  65	3.2000e-02	2.5315	6.003267	0.000737	7.373444	2.498190	0.058883
  66	3.2500e-02	2.5652	6.249286	0.000616	6.161371	2.087529	0.049204
  67	3.3000e-02	2.6117	6.672762	0.001061	10.605638	3.593288	0.084695
  68	3.3500e-02	2.6486	6.805854	0.000333	3.333201	1.129319	0.026618
  69	3.4000e-02	2.6903	7.080105	0.000687	6.868413	2.327081	0.054850
  70	3.4500e-02	2.7288	7.689102	0.001525	15.251918	5.167490	0.121800
  71	3.5000e-02	2.7689	8.116611	0.001071	10.706644	3.627509	0.085502
  72	3.5500e-02	2.8074	8.322299	0.000515	5.151310	1.745311	0.041138
  73	3.6000e-02	2.8443	8.778039	0.001141	11.413687	3.867062	0.091148
  74	3.6500e-02	2.8972	9.108753	0.000828	8.282499	2.806186	0.066143
  75	3.7000e-02	2.9309	9.383004	0.000687	6.868413	2.327081	0.054850
  76	3.7500e-02	2.9726	9.733883	0.000879	8.787529	2.977295	0.070176
  77	3.8000e-02	3.0095	10.024267	0.000727	7.272438	2.463969	0.058077
  78	3.8500e-02	3.0545	10.330782	0.000768	7.676462	2.600856	0.061303
  79	3.9000e-02	3.0833	10.927681	0.001495	14.948900	5.064824	0.119380
  80	3.9500e-02	3.1347	11.089005	0.000404	4.040243	1.368871	0.032265
  81	4.0000e-02	3.1748	11.532645	0.001111	11.110669	3.764396	0.088728
  82	4.0500e-02	3.2085	12.206173	0.001687	16.868015	5.715038	0.134705
  83	4.1000e-02	3.2486	12.173908	-0.000081	-0.808049	-0.273774	-0.006453
  84	4.1500e-02	3.2967	12.512688	0.000848	8.484511	2.874630	0.067756
  85	4.2000e-02	3.3320	12.984561	0.001182	11.817711	4.003949	0.094375
  86	4.2500e-02	3.3673	13.137819	0.000384	3.838231	1.300428	0.030652
  87	4.3000e-02	3.4186	13.432235	0.000737	7.373444	2.498190	0.058883
  88	4.3500e-02	3.4539	14.081564	0.001626	16.261979	5.509708	0.129866
  89	4.4000e-02	3.4892	14.162226	0.000202	2.020122	0.684436	0.016132
  90	4.4500e-02	3.5421	14.549403	0.000970	9.696584	3.285291	0.077435
  91	4.5000e-02	3.5774	14.759124	0.000525	5.252316	1.779533	0.041944
  92	4.5500e-02	3.6127	15.311659	0.001384	13.837833	4.688385	0.110507
  93	4.6000e-02	3.6528	15.690770	0.000949	9.494571	3.216848	0.075822
  94	4.6500e-02	3.6994	15.965021	0.000687	6.868413	2.327081	0.054850
  95	4.7000e-02	3.7314	16.162643	0.000495	4.949298	1.676868	0.039524
  96	4.7500e-02	3.7764	16.569986	0.001020	10.201614	3.456400	0.081469
  97	4.8000e-02	3.8101	16.997494	0.001071	10.706644	3.627509	0.085502
  98	4.8500e-02	3.8486	17.352407	0.000889	8.888535	3.011517	0.070983
  99	4.9000e-02	3.8951	17.860577	0.001273	12.726766	4.311945	0.101634
 100	4.9500e-02	3.9320	18.199357	0.000848	8.484511	2.874630	0.067756
 101	5.0000e-02	3.9817	18.364714	0.000414	4.141249	1.403093	0.033071
 102	5.0500e-02	4.0074	18.925315	0.001404	14.039845	4.756828	0.112120
 103	5.1000e-02	4.0491	19.231831	0.000768	7.676462	2.600856	0.061303
 104	5.1500e-02	4.0940	19.635141	0.001010	10.100608	3.422179	0.080662
 105	5.2000e-02	4.1325	20.026351	0.000980	9.797590	3.319513	0.078242
 106	5.2500e-02	4.1678	20.566786	0.001353	13.534815	4.585719	0.108087
 107	5.3000e-02	4.2191	20.707945	0.000354	3.535213	1.197763	0.028232
 108	5.3500e-02	4.2464	20.909600	0.000505	5.050304	1.711089	0.040331
 109	5.4000e-02	4.2929	21.135453	0.000566	5.656340	1.916420	0.045171
 110	5.4500e-02	4.3330	21.720253	0.001465	14.645882	4.962159	0.116960
 111	5.5000e-02	4.3715	22.050967	0.000828	8.282499	2.806186	0.066143
 112	5.5500e-02	4.4084	22.272787	0.000556	5.555334	1.882198	0.044364
 113	5.6000e-02	4.4517	22.591402	0.000798	7.979480	2.703521	0.063723
 114	5.6500e-02	4.4951	23.051175	0.001151	11.514693	3.901284	0.091955
 115	5.7000e-02	4.5336	23.398022	0.000869	8.686523	2.943074	0.069369
 116	5.7500e-02	4.5737	23.692438	0.000737	7.373444	2.498190	0.058883
 117	5.8000e-02	4.6090	24.321601	0.001576	15.756948	5.338599	0.125833
 118	5.8500e-02	4.6571	24.611984	0.000727	7.272438	2.463969	0.058077
 119	5.9000e-02	4.7036	24.785407	0.000434	4.343261	1.471537	0.034685
 120	5.9500e-02	4.7357	25.003195	0.000545	5.454328	1.847976	0.043557
 121	6.0000e-02	4.7758	25.511365	0.001273	12.726766	4.311945	0.101634
 122	6.0500e-02	4.8175	25.910642	0.001000	9.999602	3.387957	0.079855
 123	6.1000e-02	4.8512	26.398647	0.001222	12.221736	4.140836	0.097601
 124	6.1500e-02	4.8929	26.749526	0.000879	8.787529	2.977295	0.070176
 125	6.2000e-02	4.9362	26.931016	0.000455	4.545274	1.539980	0.036298
 126	6.2500e-02	4.9731	27.245598	0.000788	7.878474	2.669299	0.062916
 127	6.3000e-02	5.0148	27.786033	0.001353	13.534815	4.585719	0.108087
 128	6.3500e-02	5.0453	28.007853	0.000556	5.555334	1.882198	0.044364
 129	6.4000e-02	5.0966	28.483759	0.001192	11.918717	4.038171	0.095181
 130	6.4500e-02	5.1271	28.770109	0.000717	7.171432	2.429747	0.057270
 131	6.5000e-02	5.1817	29.270213	0.001252	12.524754	4.243501	0.100021
 132	6.5500e-02	5.2105	29.568662	0.000747	7.474450	2.532412	0.059690
 133	6.6000e-02	5.2523	30.000204	0.001081	10.807651	3.661731	0.086308
 134	6.6500e-02	5.2924	30.326885	0.000818	8.181492	2.771965	0.065336
 135	6.7000e-02	5.3357	30.492242	0.000414	4.141249	1.403093	0.033071
 136	6.7500e-02	5.3758	30.794724	0.000758	7.575456	2.566634	0.060496
 137	6.8000e-02	5.4047	31.387590	0.001485	14.847894	5.030603	0.118573
 138	6.8500e-02	5.4448	31.831231	0.001111	11.110669	3.764396	0.088728
 139	6.9000e-02	5.4897	32.040952	0.000525	5.252316	1.779533	0.041944
 140	6.9500e-02	5.5330	32.335368	0.000737	7.373444	2.498190	0.058883
 141	7.0000e-02	5.5651	32.815307	0.001202	12.019723	4.072393	0.095988
 142	7.0500e-02	5.6052	32.900002	0.000212	2.121128	0.718658	0.016939
 143	7.1000e-02	5.6517	33.392040	0.001232	12.322742	4.175058	0.098408
 144	7.1500e-02	5.6966	33.815515	0.001061	10.605638	3.593288	0.084695
 145	7.2000e-02	5.7287	34.218825	0.001010	10.100608	3.422179	0.080662
 146	7.2500e-02	5.7720	34.541473	0.000808	8.080486	2.737743	0.064530
 147	7.3000e-02	5.8025	34.759260	0.000545	5.454328	1.847976	0.043557
 148	7.3500e-02	5.8554	35.194835	0.001091	10.908657	3.695953	0.087115
 149	7.4000e-02	5.8972	35.517483	0.000808	8.080486	2.737743	0.064530
 150	7.4500e-02	5.9357	36.061951	0.001364	13.635821	4.619941	0.108894
 151	7.5000e-02	5.9726	36.400731	0.000848	8.484511	2.874630	0.067756
 152	7.5500e-02	6.0111	36.574155	0.000434	4.343261	1.471537	0.034685
 153	7.6000e-02	6.0480	37.146855	0.001434	14.342863	4.859494	0.114540
 154	7.6500e-02	6.0913	37.316245	0.000424	4.242255	1.437315	0.033878
 155	7.7000e-02	6.1346	37.558231	0.000606	6.060365	2.053307	0.048397
 156	7.7500e-02	6.1586	38.001872	0.001111	11.110669	3.764396	0.088728
 157	7.8000e-02	6.2084	38.433413	0.001081	10.807651	3.661731	0.086308
 158	7.8500e-02	6.2533	38.933517	0.001252	12.524754	4.243501	0.100021
 159	7.9000e-02	6.2934	39.300529	0.000919	9.191553	3.114183	0.073402
 160	7.9500e-02	6.3319	39.659475	0.000899	8.989541	3.045739	0.071789
 161	8.0000e-02	6.3768	39.933726	0.000687	6.868413	2.327081	0.054850
 162	8.0500e-02	6.4169	40.131348	0.000495	4.949298	1.676868	0.039524
 163	8.1000e-02	6.4490	40.841173	0.001778	17.777070	6.023034	0.141965
 164	8.1500e-02	6.4907	41.002497	0.000404	4.040243	1.368871	0.032265
 165	8.2000e-02	6.5324	41.248516	0.000616	6.161371	2.087529	0.049204
 166	8.2500e-02	6.5774	41.740554	0.001232	12.322742	4.175058	0.098408
 167	8.3000e-02	6.6078	42.051103	0.000778	7.777468	2.635078	0.062110
 168	8.3500e-02	6.6463	42.252758	0.000505	5.050304	1.711089	0.040331
 169	8.4000e-02	6.6864	42.623803	0.000929	9.292559	3.148404	0.074209
 170	8.4500e-02	6.7282	43.200536	0.001444	14.443869	4.893715	0.115347
 171	8.5000e-02	6.7731	43.414290	0.000535	5.353322	1.813755	0.042751
 172	8.5500e-02	6.8132	43.801467	0.000970	9.696584	3.285291	0.077435
 173	8.6000e-02	6.8453	44.261241	0.001151	11.514693	3.901284	0.091955
 174	8.6500e-02	6.8854	44.595988	0.000838	8.383505	2.840408	0.066949
 175	8.7000e-02	6.9287	44.789577	0.000485	4.848292	1.642646	0.038718
 176	8.7500e-02	6.9752	44.991231	0.000505	5.050304	1.711089	0.040331
 177	8.8000e-02	7.0153	45.608296	0.001545	15.453930	5.235933	0.123413
 178	8.8500e-02	7.0538	45.955142	0.000869	8.686523	2.943074	0.069369
 179	8.9000e-02	7.0907	46.265691	0.000778	7.777468	2.635078	0.062110
 180	8.9500e-02	7.1292	46.564140	0.000747	7.474450	2.532412	0.059690
 181	9.0000e-02	7.1725	46.753696	0.000475	4.747286	1.608424	0.037911
 182	9.0500e-02	7.2062	47.157005	0.001010	10.100608	3.422179	0.080662
 183	9.1000e-02	7.2511	47.665176	0.001273	12.726766	4.311945	0.101634
 184	9.1500e-02	7.2880	48.060419	0.000990	9.898596	3.353735	0.079049
 185	9.2000e-02	7.3297	48.596822	0.001343	13.433809	4.551498	0.107280
 186	9.2500e-02	7.3779	48.798477	0.000505	5.050304	1.711089	0.040331
 187	9.3000e-02	7.4083	49.153389	0.000889	8.888535	3.011517	0.070983
 188	9.3500e-02	7.4565	49.476037	0.000808	8.080486	2.737743	0.064530
 189	9.4000e-02	7.4934	49.730122	0.000636	6.363383	2.155973	0.050817
 190	9.4500e-02	7.5415	50.298789	0.001424	14.241857	4.825272	0.113733
 191	9.5000e-02	7.5752	50.468179	0.000424	4.242255	1.437315	0.033878
 192	9.5500e-02	7.6105	50.790827	0.000808	8.080486	2.737743	0.064530
 193	9.6000e-02	7.6602	51.214303	0.001061	10.605638	3.593288	0.084695
 194	9.6500e-02	7.6891	51.573248	0.000899	8.989541	3.045739	0.071789
 195	9.7000e-02	7.7244	52.016889	0.001111	11.110669	3.764396	0.088728
 196	9.7500e-02	7.7773	52.400034	0.000960	9.595578	3.251070	0.076629
 197	9.8000e-02	7.8110	52.694450	0.000737	7.373444	2.498190	0.058883
 198	9.8500e-02	7.8495	52.972734	0.000697	6.969419	2.361303	0.055657
 199	9.9000e-02	7.8880	53.238918	0.000667	6.666401	2.258638	0.053237
 200	9.9500e-02	7.9249	53.718857	0.001202	12.019723	4.072393	0.095988
 201	1.0000e-01	7.9666	54.259292	0.001353	13.534815	4.585719	0.108087
 202	1.0050e-01	8.0164	54.489179	0.000576	5.757347	1.950642	0.045977
 203	1.0100e-01	8.0468	54.844091	0.000889	8.888535	3.011517	0.070983
 204	1.0150e-01	8.0950	55.082044	0.000596	5.959359	2.019085	0.047591
 205	1.0200e-01	8.1286	55.461155	0.000949	9.494571	3.216848	0.075822
 206	1.0250e-01	8.1736	55.670877	0.000525	5.252316	1.779533	0.041944
 207	1.0300e-01	8.2105	56.191146	0.001303	13.029784	4.414610	0.104054
 208	1.0350e-01	8.2522	56.743681	0.001384	13.837833	4.688385	0.110507
 209	1.0400e-01	8.2955	56.896939	0.000384	3.838231	1.300428	0.030652
 210	1.0450e-01	8.3308	57.413175	0.001293	12.928778	4.380389	0.103247
 211	1.0500e-01	8.3741	57.630962	0.000545	5.454328	1.847976	0.043557
 212	1.0550e-01	8.4094	58.022173	0.000980	9.797590	3.319513	0.078242
 213	1.0600e-01	8.4511	58.473880	0.001131	11.312681	3.832840	0.090341
 214	1.0650e-01	8.4976	58.699734	0.000566	5.656340	1.916420	0.045171
 215	1.0700e-01	8.5265	59.046580	0.000869	8.686523	2.943074	0.069369
 216	1.0750e-01	8.5634	59.369228	0.000808	8.080486	2.737743	0.064530
 217	1.0800e-01	8.6147	59.667677	0.000747	7.474450	2.532412	0.059690
 218	1.0850e-01	8.6404	60.288774	0.001555	15.554936	5.270155	0.124219
 219	1.0900e-01	8.6837	60.756614	0.001172	11.716705	3.969727	0.093568
 220	1.0950e-01	8.7302	60.760647	0.000010	0.101006	0.034222	0.000807
 221	1.1000e-01	8.7687	61.196222	0.001091	10.908657	3.695953	0.087115
 222	1.1050e-01	8.8088	61.599532	0.001010	10.100608	3.422179	0.080662
 223	1.1100e-01	8.8554	61.664061	0.000162	1.616097	0.547549	0.012906
 224	1.1150e-01	8.8971	62.212562	0.001374	13.736827	4.654163	0.109700
 225	1.1200e-01	8.9388	62.632005	0.001050	10.504632	3.559066	0.083888
 226	1.1250e-01	8.9725	62.902222	0.000677	6.767407	2.292860	0.054044
 227	1.1300e-01	9.0078	63.394260	0.001232	12.322742	4.175058	0.098408
 228	1.1350e-01	9.0623	63.737074	0.000859	8.585517	2.908852	0.068563
 229	1.1400e-01	9.0848	64.136351	0.001000	9.999602	3.387957	0.079855
 230	1.1450e-01	9.1361	64.374303	0.000596	5.959359	2.019085	0.047591
 231	1.1500e-01	9.1650	64.817944	0.001111	11.110669	3.764396	0.088728
 232	1.1550e-01	9.2131	65.092195	0.000687	6.868413	2.327081	0.054850
 233	1.1600e-01	9.2484	65.394677	0.000758	7.575456	2.566634	0.060496
 234	1.1650e-01	9.2933	65.681027	0.000717	7.171432	2.429747	0.057270
 235	1.1700e-01	9.3254	66.318257	0.001596	15.958961	5.407042	0.127446
 236	1.1750e-01	9.3767	66.527978	0.000525	5.252316	1.779533	0.041944
 237	1.1800e-01	9.4104	66.677203	0.000374	3.737225	1.266206	0.029845
 238	1.1850e-01	9.4489	67.262002	0.001465	14.645882	4.962159	0.116960
 239	1.1900e-01	9.4938	67.584650	0.000808	8.080486	2.737743	0.064530
 240	1.1950e-01	9.5291	67.701610	0.000293	2.929176	0.992432	0.023392
 241	1.2000e-01	9.5644	68.185582	0.001212	12.120730	4.106614	0.096794
 242	1.2050e-01	9.6158	68.532428	0.000869	8.686523	2.943074	0.069369
 243	1.2100e-01	9.6511	68.794579	0.000657	6.565395	2.224416	0.052430
 244	1.2150e-01	9.6960	69.326948	0.001333	13.332803	4.517276	0.106474
 245	1.2200e-01	9.7393	69.447941	0.000303	3.030182	1.026654	0.024199
 246	1.2250e-01	9.7730	69.814953	0.000919	9.191553	3.114183	0.073402
 247	1.2300e-01	9.8195	70.121469	0.000768	7.676462	2.600856	0.061303
 248	1.2350e-01	9.8484	70.359422	0.000596	5.959359	2.019085	0.047591
 249	1.2400e-01	9.8933	70.710301	0.000879	8.787529	2.977295	0.070176
 250	1.2450e-01	9.9318	71.311233	0.001505	15.049906	5.099046	0.120186
 251	1.2500e-01	9.9655	71.746808	0.001091	10.908657	3.695953	0.087115
 252	1.2550e-01	10.0136	72.029124	0.000707	7.070426	2.395525	0.056463
 253	1.2600e-01	10.0537	72.254978	0.000566	5.656340	1.916420	0.045171
 254	1.2650e-01	10.0986	72.686520	0.001081	10.807651	3.661731	0.086308
 255	1.2700e-01	10.1307	72.755082	0.000172	1.717103	0.581770	0.013713
 256	1.2750e-01	10.1692	72.819612	0.000162	1.616097	0.547549	0.012906
 257	1.2800e-01	10.2093	73.602033	0.001960	19.595179	6.639027	0.156484
 258	1.2850e-01	10.2510	73.944846	0.000859	8.585517	2.908852	0.068563
 259	1.2900e-01	10.2912	74.424785	0.001202	12.019723	4.072393	0.095988
 260	1.2950e-01	10.3313	74.690970	0.000667	6.666401	2.258638	0.053237
 261	1.3000e-01	10.3666	75.199140	0.001273	12.726766	4.311945	0.101634
 262	1.3050e-01	10.4131	75.453225	0.000636	6.363383	2.155973	0.050817
 263	1.3100e-01	10.4532	75.852502	0.001000	9.999602	3.387957	0.079855
 264	1.3150e-01	10.4981	76.199348	0.000869	8.686523	2.943074	0.069369
 265	1.3200e-01	10.5302	76.449401	0.000626	6.262377	2.121751	0.050010
 266	1.3250e-01	10.5783	76.691386	0.000606	6.060365	2.053307	0.048397
 267	1.3300e-01	10.6072	77.171325	0.001202	12.019723	4.072393	0.095988
 268	1.3350e-01	10.6569	77.381046	0.000525	5.252316	1.779533	0.041944
 269	1.3400e-01	10.6954	77.881151	0.001252	12.524754	4.243501	0.100021
 270	1.3450e-01	10.7371	78.018276	0.000343	3.434207	1.163541	0.027425
 271	1.3500e-01	10.7660	78.373189	0.000889	8.888535	3.011517	0.070983
 272	1.3550e-01	10.8109	78.816829	0.001111	11.110669	3.764396	0.088728
 273	1.3600e-01	10.8430	79.272570	0.001141	11.413687	3.867062	0.091148
 274	1.3650e-01	10.8911	79.498423	0.000566	5.656340	1.916420	0.045171
 275	1.3700e-01	10.9361	79.696045	0.000495	4.949298	1.676868	0.039524
 276	1.3750e-01	10.9697	80.188083	0.001232	12.322742	4.175058	0.098408
 277	1.3800e-01	11.0082	80.337308	0.000374	3.737225	1.266206	0.029845
 278	1.3850e-01	11.0564	80.764816	0.001071	10.706644	3.627509	0.085502
 279	1.3900e-01	11.0997	81.156027	0.000980	9.797590	3.319513	0.078242
 280	1.3950e-01	11.1350	81.543204	0.000970	9.696584	3.285291	0.077435
 281	1.4000e-01	11.1751	81.696462	0.000384	3.838231	1.300428	0.030652
 282	1.4050e-01	11.2248	82.309493	0.001535	15.352924	5.201711	0.122606
 283	1.4100e-01	11.2585	82.349824	0.000101	1.010061	0.342218	0.008066
 284	1.4150e-01	11.2842	82.761200	0.001030	10.302620	3.490622	0.082275
 285	1.4200e-01	11.3355	83.200808	0.001101	11.009663	3.730175	0.087922
 286	1.4250e-01	11.3724	83.644448	0.001111	11.110669	3.764396	0.088728
 287	1.4300e-01	11.4253	83.821905	0.000444	4.444268	1.505759	0.035491
 288	1.4350e-01	11.4510	84.027593	0.000515	5.151310	1.745311	0.041138
 289	1.4400e-01	11.4879	84.386539	0.000899	8.989541	3.045739	0.071789
 290	1.4450e-01	11.5312	84.793882	0.001020	10.201614	3.456400	0.081469
 291	1.4500e-01	11.5713	85.023768	0.000576	5.757347	1.950642	0.045977
 292	1.4550e-01	11.6098	85.515806	0.001232	12.322742	4.175058	0.098408
 293	1.4600e-01	11.6612	85.975579	0.001151	11.514693	3.901284	0.091955
 294	1.4650e-01	11.6868	86.177234	0.000505	5.050304	1.711089	0.040331
 295	1.4700e-01	11.7318	86.403088	0.000566	5.656340	1.916420	0.045171
 296	1.4750e-01	11.7638	86.782199	0.000949	9.494571	3.216848	0.075822
 297	1.4800e-01	11.8136	87.100814	0.000798	7.979480	2.703521	0.063723
 298	1.4850e-01	11.8537	87.540422	0.001101	11.009663	3.730175	0.087922
 299	1.4900e-01	11.9002	87.762242	0.000556	5.555334	1.882198	0.044364
 300	1.4950e-01	11.9419	88.189751	0.001071	10.706644	3.627509	0.085502
 301	1.5000e-01	11.9692	88.496266	0.000768	7.676462	2.600856	0.061303
 302	1.5050e-01	12.0157	88.895543	0.001000	9.999602	3.387957	0.079855
 303	1.5100e-01	12.0526	89.169794	0.000687	6.868413	2.327081	0.054850
 304	1.5150e-01	12.0975	89.411779	0.000606	6.060365	2.053307	0.048397
 305	1.5200e-01	12.1264	89.956248	0.001364	13.635821	4.619941	0.108894
 306	1.5250e-01	12.1617	90.387789	0.001081	10.807651	3.661731	0.086308
 307	1.5300e-01	12.2210	90.674139	0.000717	7.171432	2.429747	0.057270
 308	1.5350e-01	12.2515	90.904026	0.000576	5.757347	1.950642	0.045977
 309	1.5400e-01	12.2804	91.279104	0.000939	9.393565	3.182626	0.075016
 310	1.5450e-01	12.3285	91.472693	0.000485	4.848292	1.642646	0.038718
 311	1.5500e-01	12.3751	91.859870	0.000970	9.696584	3.285291	0.077435
 312	1.5550e-01	12.4119	92.158320	0.000747	7.474450	2.532412	0.059690
 313	1.5600e-01	12.4569	92.509199	0.000879	8.787529	2.977295	0.070176
 314	1.5650e-01	12.4938	92.779417	0.000677	6.767407	2.292860	0.054044
 315	1.5700e-01	12.5355	93.202892	0.001061	10.605638	3.593288	0.084695
 316	1.5750e-01	12.5836	93.489242	0.000717	7.171432	2.429747	0.057270
 317	1.5800e-01	12.6141	93.856254	0.000919	9.191553	3.114183	0.073402
 318	1.5850e-01	12.6446	94.320060	0.001162	11.615699	3.935505	0.092761
 319	1.5900e-01	12.6863	94.594311	0.000687	6.868413	2.327081	0.054850
 320	1.5950e-01	12.7360	94.723370	0.000323	3.232195	1.095097	0.025812
 321	1.6000e-01	12.7665	95.029886	0.000768	7.676462	2.600856	0.061303
 322	1.6050e-01	12.8146	95.429163	0.001000	9.999602	3.387957	0.079855
 323	1.6100e-01	12.8499	95.901035	0.001182	11.817711	4.003949	0.094375
 324	1.6150e-01	12.8916	96.598761	0.001747	17.474052	5.920369	0.139545
 325	1.6200e-01	12.9349	96.562463	-0.000091	-0.909055	-0.307996	-0.007260
 326	1.6250e-01	12.9670	96.852846	0.000727	7.272438	2.463969	0.058077
 327	1.6300e-01	13.0151	97.203726	0.000879	8.787529	2.977295	0.070176
 328	1.6350e-01	13.0536	97.518308	0.000788	7.878474	2.669299	0.062916
 329	1.6400e-01	13.0921	97.691731	0.000434	4.343261	1.471537	0.034685
 330	1.6450e-01	13.1274	98.143438	0.001131	11.312681	3.832840	0.090341
 331	1.6500e-01	13.1675	98.328960	0.000465	4.646280	1.574202	0.037105
 332	1.6550e-01	13.2125	98.566913	0.000596	5.959359	2.019085	0.047591
 333	1.6600e-01	13.2510	98.837131	0.000677	6.767407	2.292860	0.054044
 334	1.6650e-01	13.2830	99.276739	0.001101	11.009663	3.730175	0.087922
 335	1.6700e-01	13.3312	99.829273	0.001384	13.837833	4.688385	0.110507
 336	1.6750e-01	13.3793	100.055127	0.000566	5.656340	1.916420	0.045171
 337	1.6800e-01	13.4178	100.317278	0.000657	6.565395	2.224416	0.052430
 338	1.6850e-01	13.4483	100.825449	0.001273	12.726766	4.311945	0.101634
 339	1.6900e-01	13.4932	100.692356	-0.000333	-3.333201	-1.129319	-0.026618
 340	1.6950e-01	13.5301	101.176328	0.001212	12.120730	4.106614	0.096794
 341	1.7000e-01	13.5734	101.632068	0.001141	11.413687	3.867062	0.091148
 342	1.7050e-01	13.6151	101.950683	0.000798	7.979480	2.703521	0.063723
 343	1.7100e-01	13.6504	102.362059	0.001030	10.302620	3.490622	0.082275
 344	1.7150e-01	13.6841	102.608078	0.000616	6.161371	2.087529	0.049204
 345	1.7200e-01	13.7354	103.071884	0.001162	11.615699	3.935505	0.092761
 346	1.7250e-01	13.7675	103.128348	0.000141	1.414085	0.479105	0.011293
 347	1.7300e-01	13.8044	103.507459	0.000949	9.494571	3.216848	0.075822
 348	1.7350e-01	13.8477	103.826074	0.000798	7.979480	2.703521	0.063723
 349	1.7400e-01	13.8943	104.140656	0.000788	7.878474	2.669299	0.062916
 350	1.7450e-01	13.9247	104.568164	0.001071	10.706644	3.627509	0.085502
 351	1.7500e-01	13.9665	105.015838	0.001121	11.211675	3.798618	0.089535
 352	1.7550e-01	14.0098	105.277989	0.000657	6.565395	2.224416	0.052430
 353	1.7600e-01	14.0515	105.701465	0.001061	10.605638	3.593288	0.084695
 354	1.7650e-01	14.0916	106.040245	0.000848	8.484511	2.874630	0.067756
 355	1.7700e-01	14.1285	106.185437	0.000364	3.636219	1.231984	0.029038
 356	1.7750e-01	14.1782	106.229801	0.000111	1.111067	0.376440	0.008873
 357	1.7800e-01	14.2183	106.705706	0.001192	11.918717	4.038171	0.095181
 358	1.7850e-01	14.2536	107.113049	0.001020	10.201614	3.456400	0.081469
 359	1.7900e-01	14.2953	107.367134	0.000636	6.363383	2.155973	0.050817
 360	1.7950e-01	14.3146	107.726080	0.000899	8.989541	3.045739	0.071789
 361	1.8000e-01	14.3675	107.887404	0.000404	4.040243	1.368871	0.032265
 362	1.8050e-01	14.4204	108.411707	0.001313	13.130790	4.448832	0.104861
 363	1.8100e-01	14.4509	108.649660	0.000596	5.959359	2.019085	0.047591
 364	1.8150e-01	14.4894	108.827116	0.000444	4.444268	1.505759	0.035491
 365	1.8200e-01	14.5376	109.335287	0.001273	12.726766	4.311945	0.101634
 366	1.8250e-01	14.5680	109.762795	0.001071	10.706644	3.627509	0.085502
 367	1.8300e-01	14.6033	110.162072	0.001000	9.999602	3.387957	0.079855
 368	1.8350e-01	14.6515	110.081410	-0.000202	-2.020122	-0.684436	-0.016132
 369	1.8400e-01	14.6900	110.452455	0.000929	9.292559	3.148404	0.074209
 370	1.8450e-01	14.7220	110.952559	0.001252	12.524754	4.243501	0.100021
 371	1.8500e-01	14.7734	111.347803	0.000990	9.898596	3.353735	0.079049
 372	1.8550e-01	14.8135	111.650285	0.000758	7.575456	2.566634	0.060496
 373	1.8600e-01	14.8440	111.960834	0.000778	7.777468	2.635078	0.062110
 374	1.8650e-01	14.8889	112.166522	0.000515	5.151310	1.745311	0.041138
 375	1.8700e-01	14.9322	112.360111	0.000485	4.848292	1.642646	0.038718
 376	1.8750e-01	14.9739	112.783586	0.001061	10.605638	3.593288	0.084695
 377	1.8800e-01	15.0076	113.142532	0.000899	8.989541	3.045739	0.071789
 378	1.8850e-01	15.0493	113.416782	0.000687	6.868413	2.327081	0.054850
 379	1.8900e-01	15.0910	113.860423	0.001111	11.110669	3.764396	0.088728
 380	1.8950e-01	15.1311	114.247601	0.000970	9.696584	3.285291	0.077435
 381	1.9000e-01	15.1760	114.521851	0.000687	6.868413	2.327081	0.054850
 382	1.9050e-01	15.2145	114.840466	0.000798	7.979480	2.703521	0.063723
 383	1.9100e-01	15.2482	114.977592	0.000343	3.434207	1.163541	0.027425
 384	1.9150e-01	15.2851	115.388968	0.001030	10.302620	3.490622	0.082275
 385	1.9200e-01	15.3236	115.735814	0.000869	8.686523	2.943074	0.069369
 386	1.9250e-01	15.3734	116.243984	0.001273	12.726766	4.311945	0.101634
 387	1.9300e-01	15.4087	116.598897	0.000889	8.888535	3.011517	0.070983
 388	1.9350e-01	15.4439	116.816684	0.000545	5.454328	1.847976	0.043557
 389	1.9400e-01	15.4889	116.861049	0.000111	1.111067	0.376440	0.008873
 390	1.9450e-01	15.5210	117.393418	0.001333	13.332803	4.517276	0.106474
 391	1.9500e-01	15.5643	117.796727	0.001010	10.100608	3.422179	0.080662
 392	1.9550e-01	15.6076	117.889489	0.000232	2.323140	0.787101	0.018552
 393	1.9600e-01	15.6461	118.349262	0.001151	11.514693	3.901284	0.091955
 394	1.9650e-01	15.6942	118.534784	0.000465	4.646280	1.574202	0.037105
 395	1.9700e-01	15.7311	118.744506	0.000525	5.252316	1.779533	0.041944
 396	1.9750e-01	15.7744	119.103451	0.000899	8.989541	3.045739	0.071789
 397	1.9800e-01	15.8081	119.345437	0.000606	6.060365	2.053307	0.048397
 398	1.9850e-01	15.8466	119.849575	0.001263	12.625760	4.277723	0.100827
 399	1.9900e-01	15.8883	120.119792	0.000677	6.767407	2.292860	0.054044
 400	1.9950e-01	15.9284	120.329513	0.000525	5.252316	1.779533	0.041944
 401	2.0000e-01	15.9685	120.470672	0.000354	3.535213	1.197763	0.028232
 402	2.0050e-01	16.0038	120.728790	0.000646	6.464389	2.190194	0.051624
 403	2.0100e-01	16.0455	121.341821	0.001535	15.352924	5.201711	0.122606
 404	2.0150e-01	16.0889	121.704800	0.000909	9.090547	3.079961	0.072596
 405	2.0200e-01	16.1274	122.140375	0.001091	10.908657	3.695953	0.087115
 406	2.0250e-01	16.1691	122.487221	0.000869	8.686523	2.943074	0.069369
 407	2.0300e-01	16.2076	122.596115	0.000273	2.727164	0.923988	0.021779
 408	2.0350e-01	16.2509	122.890531	0.000737	7.373444	2.498190	0.058883
 409	2.0400e-01	16.2862	123.281742	0.000980	9.797590	3.319513	0.078242
 410	2.0450e-01	16.3295	123.350304	0.000172	1.717103	0.581770	0.013713
 411	2.0500e-01	16.3696	123.717316	0.000919	9.191553	3.114183	0.073402
 412	2.0550e-01	16.4065	124.265818	0.001374	13.736827	4.654163	0.109700
 413	2.0600e-01	16.4530	124.568300	0.000758	7.575456	2.566634	0.060496
 414	2.0650e-01	16.4899	124.689293	0.000303	3.030182	1.026654	0.024199
 415	2.0700e-01	16.5252	124.798187	0.000273	2.727164	0.923988	0.021779
 416	2.0750e-01	16.5717	125.221662	0.001061	10.605638	3.593288	0.084695
 417	2.0800e-01	16.6182	125.774196	0.001384	13.837833	4.688385	0.110507
 418	2.0850e-01	16.6471	126.149275	0.000939	9.393565	3.182626	0.075016
 419	2.0900e-01	16.6808	126.484022	0.000838	8.383505	2.840408	0.066949
 420	2.0950e-01	16.7305	126.548551	0.000162	1.616097	0.547549	0.012906
 421	2.1000e-01	16.7658	126.750206	0.000505	5.050304	1.711089	0.040331
 422	2.1050e-01	16.8124	127.109152	0.000899	8.989541	3.045739	0.071789
 423	2.1100e-01	16.8460	127.472131	0.000909	9.090547	3.079961	0.072596
 424	2.1150e-01	16.8813	127.802845	0.000828	8.282499	2.806186	0.066143
 425	2.1200e-01	16.9327	128.077096	0.000687	6.868413	2.327081	0.054850
 426	2.1250e-01	16.9728	128.379578	0.000758	7.575456	2.566634	0.060496
 427	2.1300e-01	17.0081	128.673994	0.000737	7.373444	2.498190	0.058883
 428	2.1350e-01	17.0466	128.891782	0.000545	5.454328	1.847976	0.043557
 429	2.1400e-01	17.0931	129.250727	0.000899	8.989541	3.045739	0.071789
 430	2.1450e-01	17.1364	129.706468	0.001141	11.413687	3.867062	0.091148
 431	2.1500e-01	17.1605	130.049281	0.000859	8.585517	2.908852	0.068563
 432	2.1550e-01	17.1990	130.311432	0.000657	6.565395	2.224416	0.052430
 433	2.1600e-01	17.2471	130.722808	0.001030	10.302620	3.490622	0.082275
 434	2.1650e-01	17.2904	131.073688	0.000879	8.787529	2.977295	0.070176
 435	2.1700e-01	17.3434	131.247111	0.000434	4.343261	1.471537	0.034685
 436	2.1750e-01	17.3674	131.614123	0.000919	9.191553	3.114183	0.073402
 437	2.1800e-01	17.4091	131.928705	0.000788	7.878474	2.669299	0.062916
 438	2.1850e-01	17.4428	132.323949	0.000990	9.898596	3.353735	0.079049
 439	2.1900e-01	17.4958	132.513504	0.000475	4.747286	1.608424	0.037911
 440	2.1950e-01	17.5359	132.852285	0.000848	8.484511	2.874630	0.067756
 441	2.2000e-01	17.5696	132.916814	0.000162	1.616097	0.547549	0.012906
 442	2.2050e-01	17.6032	133.461282	0.001364	13.635821	4.619941	0.108894
 443	2.2100e-01	17.6385	133.703268	0.000606	6.060365	2.053307	0.048397
 444	2.2150e-01	17.6883	134.054148	0.000879	8.787529	2.977295	0.070176
 445	2.2200e-01	17.7284	134.328399	0.000687	6.868413	2.327081	0.054850
 446	2.2250e-01	17.7685	134.638947	0.000778	7.777468	2.635078	0.062110
 447	2.2300e-01	17.8230	134.921264	0.000707	7.070426	2.395525	0.056463
 448	2.2350e-01	17.8567	135.139051	0.000545	5.454328	1.847976	0.043557
 449	2.2400e-01	17.8920	135.522196	0.000960	9.595578	3.251070	0.076629
 450	2.2450e-01	17.9209	135.925506	0.001010	10.100608	3.422179	0.080662
 451	2.2500e-01	17.9706	136.232021	0.000768	7.676462	2.600856	0.061303
 452	2.2550e-01	18.0155	136.223955	-0.000020	-0.202012	-0.068444	-0.001613
 453	2.2600e-01	18.0556	136.490139	0.000667	6.666401	2.258638	0.053237
 454	2.2650e-01	18.0893	136.857151	0.000919	9.191553	3.114183	0.073402
 455	2.2700e-01	18.1278	137.272561	0.001040	10.403626	3.524844	0.083082
 456	2.2750e-01	18.1695	137.837194	0.001414	14.140851	4.791050	0.112927
 457	2.2800e-01	18.2064	137.873492	0.000091	0.909055	0.307996	0.007260
 458	2.2850e-01	18.2498	138.236471	0.000909	9.090547	3.079961	0.072596
 459	2.2900e-01	18.2915	138.434093	0.000495	4.949298	1.676868	0.039524
 460	2.2950e-01	18.3284	138.603483	0.000424	4.242255	1.437315	0.033878
 461	2.3000e-01	18.3701	139.224580	0.001555	15.554936	5.270155	0.124219
 462	2.3050e-01	18.4054	139.248779	0.000061	0.606036	0.205331	0.004840
 463	2.3100e-01	18.4519	139.845677	0.001495	14.948900	5.064824	0.119380
 464	2.3150e-01	18.4840	139.962637	0.000293	2.929176	0.992432	0.023392
 465	2.3200e-01	18.5369	140.293351	0.000828	8.282499	2.806186	0.066143
 466	2.3250e-01	18.5722	140.579701	0.000717	7.171432	2.429747	0.057270
 467	2.3300e-01	18.6027	140.987044	0.001020	10.201614	3.456400	0.081469
 468	2.3350e-01	18.6540	141.233063	0.000616	6.161371	2.087529	0.049204
 469	2.3400e-01	18.6861	141.491182	0.000646	6.464389	2.190194	0.051624
 470	2.3450e-01	18.7406	141.704936	0.000535	5.353322	1.813755	0.042751
 471	2.3500e-01	18.7743	142.039683	0.000838	8.383505	2.840408	0.066949
 472	2.3550e-01	18.8096	142.301835	0.000657	6.565395	2.224416	0.052430
 473	2.3600e-01	18.8481	142.604317	0.000758	7.575456	2.566634	0.060496
 474	2.3650e-01	18.8979	142.963263	0.000899	8.989541	3.045739	0.071789
 475	2.3700e-01	18.9283	143.306076	0.000859	8.585517	2.908852	0.068563
 476	2.3750e-01	18.9733	143.830379	0.001313	13.130790	4.448832	0.104861
 477	2.3800e-01	19.0118	143.915074	0.000212	2.121128	0.718658	0.016939
 478	2.3850e-01	19.0551	144.036067	0.000303	3.030182	1.026654	0.024199
 479	2.3900e-01	19.0936	144.358715	0.000808	8.080486	2.737743	0.064530
 480	2.3950e-01	19.1369	144.963680	0.001515	15.150912	5.133268	0.120993
 481	2.4000e-01	19.1706	145.076606	0.000283	2.828170	0.958210	0.022585
 482	2.4050e-01	19.2123	145.366989	0.000727	7.272438	2.463969	0.058077
 483	2.4100e-01	19.2524	145.657373	0.000727	7.272438	2.463969	0.058077
 484	2.4150e-01	19.2925	145.677538	0.000051	0.505030	0.171109	0.004033
 485	2.4200e-01	19.3310	146.222006	0.001364	13.635821	4.619941	0.108894
 486	2.4250e-01	19.3695	146.790673	0.001424	14.241857	4.825272	0.113733
 487	2.4300e-01	19.4144	146.899567	0.000273	2.727164	0.923988	0.021779
 488	2.4350e-01	19.4481	146.980229	0.000202	2.020122	0.684436	0.016132
 489	2.4400e-01	19.4930	147.294811	0.000788	7.878474	2.669299	0.062916
 490	2.4450e-01	19.5267	147.601326	0.000768	7.676462	2.600856	0.061303
 491	2.4500e-01	19.5684	147.891709	0.000727	7.272438	2.463969	0.058077
 492	2.4550e-01	19.6101	148.113530	0.000556	5.555334	1.882198	0.044364
 493	2.4600e-01	19.6535	148.569270	0.001141	11.413687	3.867062	0.091148
 494	2.4650e-01	19.6887	148.899984	0.000828	8.282499	2.806186	0.066143
 495	2.4700e-01	19.7289	149.125837	0.000566	5.656340	1.916420	0.045171
 496	2.4750e-01	19.7690	149.436386	0.000778	7.777468	2.635078	0.062110
 497	2.4800e-01	19.8139	149.855828	0.001050	10.504632	3.559066	0.083888
 498	2.4850e-01	19.8460	150.178476	0.000808	8.080486	2.737743	0.064530
 499	2.4900e-01	19.8941	150.351899	0.000434	4.343261	1.471537	0.034685
 500	2.4950e-01	19.9326	150.380131	0.000071	0.707043	0.239553	0.005646
 501	2.5000e-01	19.9695	150.682613	0.000758	7.575456	2.566634	0.060496
 502	2.5050e-01	19.9695	150.920566	-0.000596	-5.959359	-2.019085	0.047591
 503	2.5100e-01	19.9551	150.799573	0.000303	3.030182	1.026654	-0.024199
 504	2.5150e-01	19.9166	150.484992	0.000788	7.878474	2.669299	-0.062916
 505	2.5200e-01	19.8732	150.372065	0.000283	2.828170	0.958210	-0.022585
 506	2.5250e-01	19.8428	150.238973	0.000333	3.333201	1.129319	-0.026618
 507	2.5300e-01	19.8059	149.835663	0.001010	10.100608	3.422179	-0.080662
 508	2.5350e-01	19.7641	149.706604	0.000323	3.232195	1.095097	-0.025812
 509	2.5400e-01	19.7176	149.690471	0.000040	0.404024	0.136887	-0.003226
 510	2.5450e-01	19.6936	149.383956	0.000768	7.676462	2.600856	-0.061303
 511	2.5500e-01	19.6310	149.077440	0.000768	7.676462	2.600856	-0.061303
 512	2.5550e-01	19.6037	149.069374	0.000020	0.202012	0.068444	-0.001613
 513	2.5600e-01	19.5540	148.706395	0.000909	9.090547	3.079961	-0.072596
 514	2.5650e-01	19.5155	148.682197	0.000061	0.606036	0.205331	-0.004840
 515	2.5700e-01	19.4674	148.246622	0.001091	10.908657	3.695953	-0.087115
 516	2.5750e-01	19.4417	147.782816	0.001162	11.615699	3.935505	-0.092761
 517	2.5800e-01	19.3904	147.234314	0.001374	13.736827	4.654163	-0.109700
 518	2.5850e-01	19.3551	147.286744	-0.000131	-1.313079	-0.444883	0.010486
 519	2.5900e-01	19.3198	147.206082	0.000202	2.020122	0.684436	-0.016132
 520	2.5950e-01	19.2813	147.004428	0.000505	5.050304	1.711089	-0.040331
 521	2.6000e-01	19.2428	146.875368	0.000323	3.232195	1.095097	-0.025812
 522	2.6050e-01	19.2027	146.625316	0.000626	6.262377	2.121751	-0.050010
 523	2.6100e-01	19.1561	146.286536	0.000848	8.484511	2.874630	-0.067756
 524	2.6150e-01	19.1176	146.230073	0.000141	1.414085	0.479105	-0.011293
 525	2.6200e-01	19.0791	145.834829	0.000990	9.898596	3.353735	-0.079049
 526	2.6250e-01	19.0310	145.467817	0.000919	9.191553	3.114183	-0.073402
 527	2.6300e-01	18.9989	145.185500	0.000707	7.070426	2.395525	-0.056463
 528	2.6350e-01	18.9508	145.153235	0.000081	0.808049	0.273774	-0.006453
 529	2.6400e-01	18.9187	144.874951	0.000697	6.969419	2.361303	-0.055657
 530	2.6450e-01	18.8818	144.511973	0.000909	9.090547	3.079961	-0.072596
 531	2.6500e-01	18.8401	144.201424	0.000778	7.777468	2.635078	-0.062110
 532	2.6550e-01	18.7936	143.955405	0.000616	6.161371	2.087529	-0.049204
 533	2.6600e-01	18.7679	143.846511	0.000273	2.727164	0.923988	-0.021779
 534	2.6650e-01	18.7214	143.471433	0.000939	9.393565	3.182626	-0.075016
 535	2.6700e-01	18.6877	143.156851	0.000788	7.878474	2.669299	-0.062916
 536	2.6750e-01	18.6284	142.999561	0.000394	3.939237	1.334650	-0.031458
 537	2.6800e-01	18.6027	142.818071	0.000455	4.545274	1.539980	-0.036298
 538	2.6850e-01	18.5610	142.596251	0.000556	5.555334	1.882198	-0.044364
 539	2.6900e-01	18.5289	142.261504	0.000838	8.383505	2.840408	-0.066949
 540	2.6950e-01	18.4808	141.846094	0.001040	10.403626	3.524844	-0.083082
 541	2.7000e-01	18.4374	141.805763	0.000101	1.010061	0.342218	-0.008066
 542	2.7050e-01	18.4022	141.418586	0.000970	9.696584	3.285291	-0.077435
 543	2.7100e-01	18.3588	141.071739	0.000869	8.686523	2.943074	-0.069369
 544	2.7150e-01	18.3187	141.011243	0.000152	1.515091	0.513327	-0.012099
 545	2.7200e-01	18.2770	140.741025	0.000677	6.767407	2.292860	-0.054044
 546	2.7250e-01	18.2369	140.486940	0.000636	6.363383	2.155973	-0.050817
 547	2.7300e-01	18.1968	140.236888	0.000626	6.262377	2.121751	-0.050010
 548	2.7350e-01	18.1599	139.934406	0.000758	7.575456	2.566634	-0.060496
 549	2.7400e-01	18.1214	139.656122	0.000697	6.969419	2.361303	-0.055657
 550	2.7450e-01	18.0877	139.289110	0.000919	9.191553	3.114183	-0.073402
 551	2.7500e-01	18.0300	139.147951	0.000354	3.535213	1.197763	-0.028232
 552	2.7550e-01	18.0091	138.825304	0.000808	8.080486	2.737743	-0.064530
 553	2.7600e-01	17.9546	138.692211	0.000333	3.333201	1.129319	-0.026618
 554	2.7650e-01	17.9177	138.542987	0.000374	3.737225	1.266206	-0.029845
 555	2.7700e-01	17.8808	138.244537	0.000747	7.474450	2.532412	-0.059690
 556	2.7750e-01	17.8455	138.010618	0.000586	5.858353	1.984864	-0.046784
 557	2.7800e-01	17.7958	137.740400	0.000677	6.767407	2.292860	-0.054044
 558	2.7850e-01	17.7476	137.530679	0.000525	5.252316	1.779533	-0.041944
 559	2.7900e-01	17.7188	137.256428	0.000687	6.868413	2.327081	-0.054850
 560	2.7950e-01	17.6819	136.885383	0.000929	9.292559	3.148404	-0.074209
 561	2.8000e-01	17.6466	136.711960	0.000434	4.343261	1.471537	-0.034685
 562	2.8050e-01	17.6032	136.284451	0.001071	10.706644	3.627509	-0.085502
 563	2.8100e-01	17.5535	135.953737	0.000828	8.282499	2.806186	-0.066143
 564	2.8150e-01	17.5214	135.695619	0.000646	6.464389	2.190194	-0.051624
 565	2.8200e-01	17.4797	135.514130	0.000455	4.545274	1.539980	-0.036298
 566	2.8250e-01	17.4316	135.453633	0.000152	1.515091	0.513327	-0.012099
 567	2.8300e-01	17.3883	135.316508	0.000343	3.434207	1.163541	-0.027425
 568	2.8350e-01	17.3578	134.913198	0.001010	10.100608	3.422179	-0.080662
 569	2.8400e-01	17.3209	134.642980	0.000677	6.767407	2.292860	-0.054044
 570	2.8450e-01	17.2728	134.288068	0.000889	8.888535	3.011517	-0.070983
 571	2.8500e-01	17.2391	133.957354	0.000828	8.282499	2.806186	-0.066143
 572	2.8550e-01	17.1990	133.489514	0.001172	11.716705	3.969727	-0.093568
 573	2.8600e-01	17.1557	133.537911	-0.000121	-1.212073	-0.410661	0.009679
 574	2.8650e-01	17.1236	133.247528	0.000727	7.272438	2.463969	-0.058077
 575	2.8700e-01	17.0787	132.884549	0.000909	9.090547	3.079961	-0.072596
 576	2.8750e-01	17.0402	132.650630	0.000586	5.858353	1.984864	-0.046784
 577	2.8800e-01	17.0001	132.223121	0.001071	10.706644	3.627509	-0.085502
 578	2.8850e-01	16.9599	132.102128	0.000303	3.030182	1.026654	-0.024199
 579	2.8900e-01	16.9134	131.791580	0.000778	7.777468	2.635078	-0.062110
 580	2.8950e-01	16.8829	131.456832	0.000838	8.383505	2.840408	-0.066949
 581	2.9000e-01	16.8396	131.210813	0.000616	6.161371	2.087529	-0.049204
 582	2.9050e-01	16.7915	131.049489	0.000404	4.040243	1.368871	-0.032265
 583	2.9100e-01	16.7594	130.900265	0.000374	3.737225	1.266206	-0.029845
 584	2.9150e-01	16.7225	130.416293	0.001212	12.120730	4.106614	-0.096794
 585	2.9200e-01	16.6840	130.146075	0.000677	6.767407	2.292860	-0.054044
 586	2.9250e-01	16.6439	129.863758	0.000707	7.070426	2.395525	-0.056463
 587	2.9300e-01	16.6022	129.815361	0.000121	1.212073	0.410661	-0.009679
 588	2.9350e-01	16.5541	129.416084	0.001000	9.999602	3.387957	-0.079855
 589	2.9400e-01	16.5220	128.976477	0.001101	11.009663	3.730175	-0.087922
 590	2.9450e-01	16.4787	128.790954	0.000465	4.646280	1.574202	-0.037105
 591	2.9500e-01	16.4450	128.528803	0.000657	6.565395	2.224416	-0.052430
 592	2.9550e-01	16.3969	128.311015	0.000545	5.454328	1.847976	-0.043557
 593	2.9600e-01	16.3664	128.105327	0.000515	5.151310	1.745311	-0.041138
 594	2.9650e-01	16.3118	127.948037	0.000394	3.939237	1.334650	-0.031458
 595	2.9700e-01	16.2782	127.597157	0.000879	8.787529	2.977295	-0.070176
 596	2.9750e-01	16.2300	127.205946	0.000980	9.797590	3.319513	-0.078242
 597	2.9800e-01	16.1947	126.951861	0.000636	6.363383	2.155973	-0.050817
 598	2.9850e-01	16.1578	126.524353	0.001071	10.706644	3.627509	-0.085502
 599	2.9900e-01	16.1129	126.358996	0.000414	4.141249	1.403093	-0.033071
 600	2.9950e-01	16.0856	126.149275	0.000525	5.252316	1.779533	-0.041944
 601	3.0000e-01	16.0423	125.955686	0.000485	4.848292	1.642646	-0.038718
 602	3.0050e-01	15.9942	125.552376	0.001010	10.100608	3.422179	-0.080662
 603	3.0100e-01	15.9541	125.475747	0.000192	1.919116	0.650214	-0.015326
 604	3.0150e-01	15.9092	125.213596	0.000657	6.565395	2.224416	-0.052430
 605	3.0200e-01	15.8819	124.717525	0.001242	12.423748	4.209280	-0.099214
 606	3.0250e-01	15.8418	124.398910	0.000798	7.979480	2.703521	-0.063723
 607	3.0300e-01	15.8049	124.173056	0.000566	5.656340	1.916420	-0.045171
 608	3.0350e-01	15.7616	123.910905	0.000657	6.565395	2.224416	-0.052430
 609	3.0400e-01	15.7183	123.689084	0.000556	5.555334	1.882198	-0.044364
 610	3.0450e-01	15.6782	123.451132	0.000596	5.959359	2.019085	-0.047591
 611	3.0500e-01	15.6429	123.051855	0.001000	9.999602	3.387957	-0.079855
 612	3.0550e-01	15.5947	122.797770	0.000636	6.363383	2.155973	-0.050817
 613	3.0600e-01	15.5466	122.551751	0.000616	6.161371	2.087529	-0.049204
 614	3.0650e-01	15.5193	122.414625	0.000343	3.434207	1.163541	-0.027425
 615	3.0700e-01	15.4825	122.063746	0.000879	8.787529	2.977295	-0.070176
 616	3.0750e-01	15.4359	121.660436	0.001010	10.100608	3.422179	-0.080662
 617	3.0800e-01	15.4054	121.478946	0.000455	4.545274	1.539980	-0.036298
 618	3.0850e-01	15.3637	121.031273	0.001121	11.211675	3.798618	-0.089535
 619	3.0900e-01	15.3172	120.599731	0.001081	10.807651	3.661731	-0.086308
 620	3.0950e-01	15.2787	120.535201	0.000162	1.616097	0.547549	-0.012906
 621	3.1000e-01	15.2402	120.115759	0.001050	10.504632	3.559066	-0.083888
 622	3.1050e-01	15.2033	119.934270	0.000455	4.545274	1.539980	-0.036298
 623	3.1100e-01	15.1552	119.660019	0.000687	6.868413	2.327081	-0.054850
 624	3.1150e-01	15.1151	119.559192	0.000253	2.525152	0.855545	-0.020165
 625	3.1200e-01	15.0766	119.216378	0.000859	8.585517	2.908852	-0.068563
 626	3.1250e-01	15.0349	118.792903	0.001061	10.605638	3.593288	-0.084695
 627	3.1300e-01	14.9948	118.446056	0.000869	8.686523	2.943074	-0.069369
 628	3.1350e-01	14.9563	118.296832	0.000374	3.737225	1.266206	-0.029845
 629	3.1400e-01	14.9129	118.183905	0.000283	2.828170	0.958210	-0.022585
 630	3.1450e-01	14.8793	117.837058	0.000869	8.686523	2.943074	-0.069369
 631	3.1500e-01	14.8424	117.534576	0.000758	7.575456	2.566634	-0.060496
 632	3.1550e-01	14.7910	117.437782	0.000242	2.424146	0.821323	-0.019359
 633	3.1600e-01	14.7622	117.042538	0.000990	9.898596	3.353735	-0.079049
 634	3.1650e-01	14.7156	116.707791	0.000838	8.383505	2.840408	-0.066949
 635	3.1700e-01	14.6707	116.405308	0.000758	7.575456	2.566634	-0.060496
 636	3.1750e-01	14.6450	115.953601	0.001131	11.312681	3.832840	-0.090341
 637	3.1800e-01	14.5969	115.513994	0.001101	11.009663	3.730175	-0.087922
 638	3.1850e-01	14.5600	115.195379	0.000798	7.979480	2.703521	-0.063723
 639	3.1900e-01	14.5167	115.046154	0.000374	3.737225	1.266206	-0.029845
 640	3.1950e-01	14.4750	115.078419	-0.000081	-0.808049	-0.273774	0.006453
 641	3.2000e-01	14.4381	114.703341	0.000939	9.393565	3.182626	-0.075016
 642	3.2050e-01	14.3900	114.400858	0.000758	7.575456	2.566634	-0.060496
 643	3.2100e-01	14.3627	114.130641	0.000677	6.767407	2.292860	-0.054044
 644	3.2150e-01	14.3226	113.751530	0.000949	9.494571	3.216848	-0.075822
 645	3.2200e-01	14.2761	113.493411	0.000646	6.464389	2.190194	-0.051624
 646	3.2250e-01	14.2360	112.965075	0.001323	13.231796	4.483054	-0.105667
 647	3.2300e-01	14.2023	112.860215	0.000263	2.626158	0.889766	-0.020972
 648	3.2350e-01	14.1670	112.791652	0.000172	1.717103	0.581770	-0.013713
 649	3.2400e-01	14.1172	112.456905	0.000838	8.383505	2.840408	-0.066949
 650	3.2450e-01	14.0707	112.186687	0.000677	6.767407	2.292860	-0.054044
 651	3.2500e-01	14.0467	111.755146	0.001081	10.807651	3.661731	-0.086308
 652	3.2550e-01	13.9969	111.533325	0.000556	5.555334	1.882198	-0.044364
 653	3.2600e-01	13.9632	111.218744	0.000788	7.878474	2.669299	-0.062916
 654	3.2650e-01	13.9247	110.827533	0.000980	9.797590	3.319513	-0.078242
 655	3.2700e-01	13.8750	110.492786	0.000838	8.383505	2.840408	-0.066949
 656	3.2750e-01	13.8429	110.283065	0.000525	5.252316	1.779533	-0.041944
 657	3.2800e-01	13.8012	110.033013	0.000626	6.262377	2.121751	-0.050010
 658	3.2850e-01	13.7563	109.674067	0.000899	8.989541	3.045739	-0.071789
 659	3.2900e-01	13.7210	109.569206	0.000263	2.626158	0.889766	-0.020972
 660	3.2950e-01	13.6681	109.355452	0.000535	5.353322	1.813755	-0.042751
 661	3.3000e-01	13.6360	109.048937	0.000768	7.676462	2.600856	-0.061303
 662	3.3050e-01	13.6007	108.661759	0.000970	9.696584	3.285291	-0.077435
 663	3.3100e-01	13.5510	108.302813	0.000899	8.989541	3.045739	-0.071789
 664	3.3150e-01	13.5253	107.980165	0.000808	8.080486	2.737743	-0.064530
 665	3.3200e-01	13.4820	107.592988	0.000970	9.696584	3.285291	-0.077435
 666	3.3250e-01	13.4371	107.201777	0.000980	9.797590	3.319513	-0.078242
 667	3.3300e-01	13.3889	107.032387	0.000424	4.242255	1.437315	-0.033878
 668	3.3350e-01	13.3568	106.806534	0.000566	5.656340	1.916420	-0.045171
 669	3.3400e-01	13.3103	106.399191	0.001020	10.201614	3.456400	-0.081469
 670	3.3450e-01	13.2750	106.177370	0.000556	5.555334	1.882198	-0.044364
 671	3.3500e-01	13.2365	105.753895	0.001061	10.605638	3.593288	-0.084695
 672	3.3550e-01	13.1948	105.681299	0.000182	1.818109	0.615992	-0.014519
 673	3.3600e-01	13.1579	105.511909	0.000424	4.242255	1.437315	-0.033878
 674	3.3650e-01	13.1162	104.971474	0.001353	13.534815	4.585719	-0.108087
 675	3.3700e-01	13.0697	104.781918	0.000475	4.747286	1.608424	-0.037911
 676	3.3750e-01	13.0296	104.580263	0.000505	5.050304	1.711089	-0.040331
 677	3.3800e-01	13.0087	104.156788	0.001061	10.605638	3.593288	-0.084695
 678	3.3850e-01	12.9606	103.676849	0.001202	12.019723	4.072393	-0.095988
 679	3.3900e-01	12.9237	103.253374	0.001061	10.605638	3.593288	-0.084695
 680	3.3950e-01	12.8772	103.221109	0.000081	0.808049	0.273774	-0.006453
 681	3.4000e-01	12.8435	103.039620	0.000455	4.545274	1.539980	-0.036298
 682	3.4050e-01	12.8018	102.753270	0.000717	7.171432	2.429747	-0.057270
 683	3.4100e-01	12.7601	102.458853	0.000737	7.373444	2.498190	-0.058883
 684	3.4150e-01	12.7200	102.075709	0.000960	9.595578	3.251070	-0.076629
 685	3.4200e-01	12.6783	101.753061	0.000808	8.080486	2.737743	-0.064530
 686	3.4250e-01	12.6414	101.535274	0.000545	5.454328	1.847976	-0.043557
 687	3.4300e-01	12.5916	101.353784	0.000455	4.545274	1.539980	-0.036298
 688	3.4350e-01	12.5627	100.825449	0.001323	13.231796	4.483054	-0.105667
 689	3.4400e-01	12.5162	100.660091	0.000414	4.141249	1.403093	-0.033071
 690	3.4450e-01	12.4697	100.357609	0.000758	7.575456	2.566634	-0.060496
 691	3.4500e-01	12.4408	100.123689	0.000586	5.858353	1.984864	-0.046784
 692	3.4550e-01	12.4055	99.704247	0.001050	10.504632	3.559066	-0.083888
 693	3.4600e-01	12.3542	99.248507	0.001141	11.413687	3.867062	-0.091148
 694	3.4650e-01	12.3125	99.127514	0.000303	3.030182	1.026654	-0.024199
 695	3.4700e-01	12.2804	98.788734	0.000848	8.484511	2.874630	-0.067756
 696	3.4750e-01	12.2419	98.498351	0.000727	7.272438	2.463969	-0.058077
 697	3.4800e-01	12.2018	98.260398	0.000596	5.959359	2.019085	-0.047591
 698	3.4850e-01	12.1697	97.889353	0.000929	9.292559	3.148404	-0.074209
 699	3.4900e-01	12.1264	97.623168	0.000667	6.666401	2.258638	-0.053237
 700	3.4950e-01	12.0863	97.356984	0.000667	6.666401	2.258638	-0.053237
 701	3.5000e-01	12.0334	97.006104	0.000879	8.787529	2.977295	-0.070176
 702	3.5050e-01	12.0077	96.679423	0.000818	8.181492	2.771965	-0.065336
 703	3.5100e-01	11.9644	96.243848	0.001091	10.908657	3.695953	-0.087115
 704	3.5150e-01	11.9178	96.046227	0.000495	4.949298	1.676868	-0.039524
 705	3.5200e-01	11.8761	95.578387	0.001172	11.716705	3.969727	-0.093568
 706	3.5250e-01	11.8424	95.562255	0.000040	0.404024	0.136887	-0.003226
 707	3.5300e-01	11.7991	95.239607	0.000808	8.080486	2.737743	-0.064530
 708	3.5350e-01	11.7638	94.759668	0.001202	12.019723	4.072393	-0.095988
 709	3.5400e-01	11.7189	94.441053	0.000798	7.979480	2.703521	-0.063723
 710	3.5450e-01	11.6804	94.263597	0.000444	4.444268	1.505759	-0.035491
 711	3.5500e-01	11.6403	93.944982	0.000798	7.979480	2.703521	-0.063723
 712	3.5550e-01	11.6002	93.638467	0.000768	7.676462	2.600856	-0.061303
 713	3.5600e-01	11.5617	93.573937	0.000162	1.616097	0.547549	-0.012906
 714	3.5650e-01	11.5168	93.021403	0.001384	13.837833	4.688385	-0.110507
 715	3.5700e-01	11.4799	92.678589	0.000859	8.585517	2.908852	-0.068563
 716	3.5750e-01	11.4430	92.182518	0.001242	12.423748	4.209280	-0.099214
 717	3.5800e-01	11.4061	92.001029	0.000455	4.545274	1.539980	-0.036298
 718	3.5850e-01	11.3564	91.726778	0.000687	6.868413	2.327081	-0.054850
 719	3.5900e-01	11.3323	91.404130	0.000808	8.080486	2.737743	-0.064530
 720	3.5950e-01	11.2810	91.045184	0.000899	8.989541	3.045739	-0.071789
 721	3.6000e-01	11.2409	91.008887	0.000091	0.909055	0.307996	-0.007260
 722	3.6050e-01	11.1991	90.524915	0.001212	12.120730	4.106614	-0.096794
 723	3.6100e-01	11.1703	90.198234	0.000818	8.181492	2.771965	-0.065336
 724	3.6150e-01	11.1254	89.855420	0.000859	8.585517	2.908852	-0.068563
 725	3.6200e-01	11.0836	89.383548	0.001182	11.817711	4.003949	-0.094375
 726	3.6250e-01	11.0419	89.319018	0.000162	1.616097	0.547549	-0.012906
 727	3.6300e-01	11.0066	89.000403	0.000798	7.979480	2.703521	-0.063723
 728	3.6350e-01	10.9553	88.863278	0.000343	3.434207	1.163541	-0.027425
 729	3.6400e-01	10.9216	88.443836	0.001050	10.504632	3.559066	-0.083888
 730	3.6450e-01	10.8783	88.080857	0.000909	9.090547	3.079961	-0.072596
 731	3.6500e-01	10.8446	87.814672	0.000667	6.666401	2.258638	-0.053237
 732	3.6550e-01	10.8045	87.479925	0.000838	8.383505	2.840408	-0.066949
 733	3.6600e-01	10.7548	87.157277	0.000808	8.080486	2.737743	-0.064530
 734	3.6650e-01	10.7227	86.604743	0.001384	13.837833	4.688385	-0.110507
 735	3.6700e-01	10.6890	86.516015	0.000222	2.222134	0.752879	-0.017746
 736	3.6750e-01	10.6361	86.306294	0.000525	5.252316	1.779533	-0.041944
 737	3.6800e-01	10.5992	85.947348	0.000899	8.989541	3.045739	-0.071789
 738	3.6850e-01	10.5591	85.608567	0.000848	8.484511	2.874630	-0.067756
 739	3.6900e-01	10.5157	85.225423	0.000960	9.595578	3.251070	-0.076629
 740	3.6950e-01	10.4869	84.943106	0.000707	7.070426	2.395525	-0.056463
 741	3.7000e-01	10.4403	84.588194	0.000889	8.888535	3.011517	-0.070983
 742	3.7050e-01	10.4067	84.257479	0.000828	8.282499	2.806186	-0.066143
 743	3.7100e-01	10.3585	83.987262	0.000677	6.767407	2.292860	-0.054044
 744	3.7150e-01	10.3168	83.737210	0.000626	6.262377	2.121751	-0.050010
 745	3.7200e-01	10.2831	83.466992	0.000677	6.767407	2.292860	-0.054044
 746	3.7250e-01	10.2462	83.229039	0.000596	5.959359	2.019085	-0.047591
 747	3.7300e-01	10.2029	82.890259	0.000848	8.484511	2.874630	-0.067756
 748	3.7350e-01	10.1564	82.426453	0.001162	11.615699	3.935505	-0.092761
 749	3.7400e-01	10.1179	82.083639	0.000859	8.585517	2.908852	-0.068563
 750	3.7450e-01	10.0842	81.785190	0.000747	7.474450	2.532412	-0.059690
 751	3.7500e-01	10.0313	81.579502	0.000515	5.151310	1.745311	-0.041138
 752	3.7550e-01	9.9960	81.446410	0.000333	3.333201	1.129319	-0.026618
 753	3.7600e-01	9.9639	81.018901	0.001071	10.706644	3.627509	-0.085502
 754	3.7650e-01	9.9222	80.583327	0.001091	10.908657	3.695953	-0.087115
 755	3.7700e-01	9.8837	80.268745	0.000788	7.878474	2.669299	-0.062916
 756	3.7750e-01	9.8452	79.825104	0.001111	11.110669	3.764396	-0.088728
 757	3.7800e-01	9.7987	79.550853	0.000687	6.868413	2.327081	-0.054850
 758	3.7850e-01	9.7602	79.276603	0.000687	6.868413	2.327081	-0.054850
 759	3.7900e-01	9.7088	78.711969	0.001414	14.140851	4.791050	-0.112927
 760	3.7950e-01	9.6751	78.659539	0.000131	1.313079	0.444883	-0.010486
 761	3.8000e-01	9.6366	78.316725	0.000859	8.585517	2.908852	-0.068563
 762	3.8050e-01	9.6110	77.917448	0.001000	9.999602	3.387957	-0.079855
 763	3.8100e-01	9.5596	77.820654	0.000242	2.424146	0.821323	-0.019359
 764	3.8150e-01	9.5211	77.498006	0.000808	8.080486	2.737743	-0.064530
 765	3.8200e-01	9.4826	77.207623	0.000727	7.272438	2.463969	-0.058077
 766	3.8250e-01	9.4361	76.808346	0.001000	9.999602	3.387957	-0.079855
 767	3.8300e-01	9.4072	76.296143	0.001283	12.827772	4.346167	-0.102441
 768	3.8350e-01	9.3687	76.050124	0.000616	6.161371	2.087529	-0.049204
 769	3.8400e-01	9.3190	75.900899	0.000374	3.737225	1.266206	-0.029845
 770	3.8450e-01	9.2853	75.642781	0.000646	6.464389	2.190194	-0.051624
 771	3.8500e-01	9.2356	75.203173	0.001101	11.009663	3.730175	-0.087922
 772	3.8550e-01	9.2035	74.674837	0.001323	13.231796	4.483054	-0.105667
 773	3.8600e-01	9.1554	74.295726	0.000949	9.494571	3.216848	-0.075822
 774	3.8650e-01	9.1185	74.057773	0.000596	5.959359	2.019085	-0.047591
 775	3.8700e-01	9.0912	73.799655	0.000646	6.464389	2.190194	-0.051624
 776	3.8750e-01	9.0286	73.561702	0.000596	5.959359	2.019085	-0.047591
 777	3.8800e-01	8.9965	73.230988	0.000828	8.282499	2.806186	-0.066143
 778	3.8850e-01	8.9564	72.912373	0.000798	7.979480	2.703521	-0.063723
 779	3.8900e-01	8.9179	72.674420	0.000596	5.959359	2.019085	-0.047591
 780	3.8950e-01	8.8842	72.267077	0.001020	10.201614	3.456400	-0.081469
 781	3.9000e-01	8.8457	71.863767	0.001010	10.100608	3.422179	-0.080662
 782	3.9050e-01	8.8056	71.516921	0.000869	8.686523	2.943074	-0.069369
 783	3.9100e-01	8.7703	71.145876	0.000929	9.292559	3.148404	-0.074209
 784	3.9150e-01	8.7270	70.786930	0.000899	8.989541	3.045739	-0.071789
 785	3.9200e-01	8.6725	70.532845	0.000636	6.363383	2.155973	-0.050817
 786	3.9250e-01	8.6420	70.282793	0.000626	6.262377	2.121751	-0.050010
 787	3.9300e-01	8.5987	70.230363	0.000131	1.313079	0.444883	-0.010486
 788	3.9350e-01	8.5506	69.863351	0.000919	9.191553	3.114183	-0.073402
 789	3.9400e-01	8.5153	69.443908	0.001050	10.504632	3.559066	-0.083888
 790	3.9450e-01	8.4832	69.028499	0.001040	10.403626	3.524844	-0.083082
 791	3.9500e-01	8.4527	68.766348	0.000657	6.565395	2.224416	-0.052430
 792	3.9550e-01	8.4030	68.516296	0.000626	6.262377	2.121751	-0.050010
 793	3.9600e-01	8.3532	68.169449	0.000869	8.686523	2.943074	-0.069369
 794	3.9650e-01	8.3131	67.770172	0.001000	9.999602	3.387957	-0.079855
 795	3.9700e-01	8.2762	67.374929	0.000990	9.898596	3.353735	-0.079049
 796	3.9750e-01	8.2409	66.979685	0.000990	9.898596	3.353735	-0.079049
 797	3.9800e-01	8.1992	66.620739	0.000899	8.989541	3.045739	-0.071789
 798	3.9850e-01	8.1575	66.366654	0.000636	6.363383	2.155973	-0.050817
 799	3.9900e-01	8.1254	66.072238	0.000737	7.373444	2.498190	-0.058883
 800	3.9950e-01	8.0853	65.737491	0.000838	8.383505	2.840408	-0.066949
 801	4.0000e-01	8.0452	65.273684	0.001162	11.615699	3.935505	-0.092761
 802	4.0050e-01	7.9971	65.084129	0.000475	4.747286	1.608424	-0.037911
 803	4.0100e-01	7.9602	64.817944	0.000667	6.666401	2.258638	-0.053237
 804	4.0150e-01	7.9169	64.475131	0.000859	8.585517	2.908852	-0.068563
 805	4.0200e-01	7.8800	64.023424	0.001131	11.312681	3.832840	-0.090341
 806	4.0250e-01	7.8367	63.555584	0.001172	11.716705	3.969727	-0.093568
 807	4.0300e-01	7.7950	63.543485	0.000030	0.303018	0.102665	-0.002420
 808	4.0350e-01	7.7613	63.265201	0.000697	6.969419	2.361303	-0.055657
 809	4.0400e-01	7.7164	62.769130	0.001242	12.423748	4.209280	-0.099214
 810	4.0450e-01	7.6811	62.539243	0.000576	5.757347	1.950642	-0.045977
 811	4.0500e-01	7.6410	62.119801	0.001050	10.504632	3.559066	-0.083888
 812	4.0550e-01	7.6009	61.805220	0.000788	7.878474	2.669299	-0.062916
 813	4.0600e-01	7.5559	61.607598	0.000495	4.949298	1.676868	-0.039524
 814	4.0650e-01	7.5206	60.982467	0.001566	15.655942	5.304377	-0.125026
 815	4.0700e-01	7.4741	61.002633	-0.000051	-0.505030	-0.171109	0.004033
 816	4.0750e-01	7.4388	60.506562	0.001242	12.423748	4.209280	-0.099214
 817	4.0800e-01	7.4051	60.014524	0.001232	12.322742	4.175058	-0.098408
 818	4.0850e-01	7.3554	59.699942	0.000788	7.878474	2.669299	-0.062916
 819	4.0900e-01	7.3169	59.357129	0.000859	8.585517	2.908852	-0.068563
 820	4.0950e-01	7.2752	59.252268	0.000263	2.626158	0.889766	-0.020972
 821	4.1000e-01	7.2303	58.957852	0.000737	7.373444	2.498190	-0.058883
 822	4.1050e-01	7.1934	58.574708	0.000960	9.595578	3.251070	-0.076629
 823	4.1100e-01	7.1549	58.163331	0.001030	10.302620	3.490622	-0.082275
 824	4.1150e-01	7.1212	57.546267	0.001545	15.453930	5.235933	-0.123413
 825	4.1200e-01	7.0827	57.546267	-0.000000	-0.000000	-0.000000	0.000000
 826	4.1250e-01	7.0362	57.332513	0.000535	5.353322	1.813755	-0.042751
 827	4.1300e-01	7.0057	56.860641	0.001182	11.817711	4.003949	-0.094375
 828	4.1350e-01	6.9576	56.421033	0.001101	11.009663	3.730175	-0.087922
 829	4.1400e-01	6.9175	56.158881	0.000657	6.565395	2.224416	-0.052430
 830	4.1450e-01	6.8806	55.864465	0.000737	7.373444	2.498190	-0.058883
 831	4.1500e-01	6.8421	55.436957	0.001071	10.706644	3.627509	-0.085502
 832	4.1550e-01	6.7955	55.299831	0.000343	3.434207	1.163541	-0.027425
 833	4.1600e-01	6.7586	54.723098	0.001444	14.443869	4.893715	-0.115347
 834	4.1650e-01	6.7201	54.440781	0.000707	7.070426	2.395525	-0.056463
 835	4.1700e-01	6.6800	54.142332	0.000747	7.474450	2.532412	-0.059690
 836	4.1750e-01	6.6399	53.678526	0.001162	11.615699	3.935505	-0.092761
 837	4.1800e-01	6.6094	53.315547	0.000909	9.090547	3.079961	-0.072596
 838	4.1850e-01	6.5661	53.045329	0.000677	6.767407	2.292860	-0.054044
 839	4.1900e-01	6.5164	52.633953	0.001030	10.302620	3.490622	-0.082275
 840	4.1950e-01	6.4843	52.206445	0.001071	10.706644	3.627509	-0.085502
 841	4.2000e-01	6.4378	52.206445	-0.000000	-0.000000	-0.000000	0.000000
 842	4.2050e-01	6.4009	51.653910	0.001384	13.837833	4.688385	-0.110507
 843	4.2100e-01	6.3608	51.395792	0.000646	6.464389	2.190194	-0.051624
 844	4.2150e-01	6.3207	51.117508	0.000697	6.969419	2.361303	-0.055657
 845	4.2200e-01	6.2726	50.899721	0.000545	5.454328	1.847976	-0.043557
 846	4.2250e-01	6.2340	50.524643	0.000939	9.393565	3.182626	-0.075016
 847	4.2300e-01	6.1972	50.339120	0.000465	4.646280	1.574202	-0.037105
 848	4.2350e-01	6.1603	49.693824	0.001616	16.160973	5.475486	-0.129059
 849	4.2400e-01	6.1185	49.383276	0.000778	7.777468	2.635078	-0.062110
 850	4.2450e-01	6.0768	49.270349	0.000283	2.828170	0.958210	-0.022585
 851	4.2500e-01	6.0415	48.867039	0.001010	10.100608	3.422179	-0.080662
 852	4.2550e-01	6.0046	48.254008	0.001535	15.352924	5.201711	-0.122606
 853	4.2600e-01	5.9581	47.927327	0.000818	8.181492	2.771965	-0.065336
 854	4.2650e-01	5.9212	47.681308	0.000616	6.161371	2.087529	-0.049204
 855	4.2700e-01	5.8827	47.459488	0.000556	5.555334	1.882198	-0.044364
 856	4.2750e-01	5.8506	46.878722	0.001454	14.544875	4.927937	-0.116153
 857	4.2800e-01	5.8025	46.527842	0.000879	8.787529	2.977295	-0.070176
 858	4.2850e-01	5.7640	46.414915	0.000283	2.828170	0.958210	-0.022585
 859	4.2900e-01	5.7111	46.084201	0.000828	8.282499	2.806186	-0.066143
 860	4.2950e-01	5.6758	45.697024	0.000970	9.696584	3.285291	-0.077435
 861	4.3000e-01	5.6389	45.269515	0.001071	10.706644	3.627509	-0.085502
 862	4.3050e-01	5.5972	45.019463	0.000626	6.262377	2.121751	-0.050010
 863	4.3100e-01	5.5603	44.616153	0.001010	10.100608	3.422179	-0.080662
 864	4.3150e-01	5.5250	44.204777	0.001030	10.302620	3.490622	-0.082275
 865	4.3200e-01	5.4801	43.934560	0.000677	6.767407	2.292860	-0.054044
 866	4.3250e-01	5.4383	43.587713	0.000869	8.686523	2.943074	-0.069369
 867	4.3300e-01	5.3934	43.107774	0.001202	12.019723	4.072393	-0.095988
 868	4.3350e-01	5.3613	42.914186	0.000485	4.848292	1.642646	-0.038718
 869	4.3400e-01	5.3212	42.466512	0.001121	11.211675	3.798618	-0.089535
 870	4.3450e-01	5.2827	42.155963	0.000778	7.777468	2.635078	-0.062110
 871	4.3500e-01	5.2346	41.833315	0.000808	8.080486	2.737743	-0.064530
 872	4.3550e-01	5.1977	41.442105	0.000980	9.797590	3.319513	-0.078242
 873	4.3600e-01	5.1688	41.220284	0.000556	5.555334	1.882198	-0.044364
 874	4.3650e-01	5.1239	40.748412	0.001182	11.817711	4.003949	-0.094375
 875	4.3700e-01	5.0806	40.417698	0.000828	8.282499	2.806186	-0.066143
 876	4.3750e-01	5.0341	40.123281	0.000737	7.373444	2.498190	-0.058883
 877	4.3800e-01	4.9988	39.913560	0.000525	5.252316	1.779533	-0.041944
 878	4.3850e-01	4.9619	39.598979	0.000788	7.878474	2.669299	-0.062916
 879	4.3900e-01	4.9138	39.409423	0.000475	4.747286	1.608424	-0.037911
 880	4.3950e-01	4.8833	38.784293	0.001566	15.655942	5.304377	-0.125026
 881	4.4000e-01	4.8416	38.316453	0.001172	11.716705	3.969727	-0.093568
 882	4.4050e-01	4.7967	38.074467	0.000606	6.060365	2.053307	-0.048397
 883	4.4100e-01	4.7630	37.759886	0.000788	7.878474	2.669299	-0.062916
 884	4.4150e-01	4.7116	37.409006	0.000879	8.787529	2.977295	-0.070176
 885	4.4200e-01	4.6828	37.009729	0.001000	9.999602	3.387957	-0.079855
 886	4.4250e-01	4.6426	36.832273	0.000444	4.444268	1.505759	-0.035491
 887	4.4300e-01	4.5977	36.404765	0.001071	10.706644	3.627509	-0.085502
 888	4.4350e-01	4.5480	36.178911	0.000566	5.656340	1.916420	-0.045171
 889	4.4400e-01	4.5175	35.630410	0.001374	13.736827	4.654163	-0.109700
 890	4.4450e-01	4.4806	35.271464	0.000899	8.989541	3.045739	-0.071789
 891	4.4500e-01	4.4373	34.977048	0.000737	7.373444	2.498190	-0.058883
 892	4.4550e-01	4.4036	34.464844	0.001283	12.827772	4.346167	-0.102441
 893	4.4600e-01	4.3555	34.134130	0.000828	8.282499	2.806186	-0.066143
 894	4.4650e-01	4.3218	33.738886	0.000990	9.898596	3.353735	-0.079049
 895	4.4700e-01	4.2737	33.404139	0.000838	8.383505	2.840408	-0.066949
 896	4.4750e-01	4.2400	33.303312	0.000253	2.525152	0.855545	-0.020165
 897	4.4800e-01	4.2127	32.859671	0.001111	11.110669	3.764396	-0.088728
 898	4.4850e-01	4.1630	32.605586	0.000636	6.363383	2.155973	-0.050817
 899	4.4900e-01	4.1165	32.153879	0.001131	11.312681	3.832840	-0.090341
 900	4.4950e-01	4.0828	31.738469	0.001040	10.403626	3.524844	-0.083082
 901	4.5000e-01	4.0346	31.476318	0.000657	6.565395	2.224416	-0.052430
 902	4.5050e-01	4.0042	31.109306	0.000919	9.191553	3.114183	-0.073402
 903	4.5100e-01	3.9576	30.871353	0.000596	5.959359	2.019085	-0.047591
 904	4.5150e-01	3.9223	30.516441	0.000889	8.888535	3.011517	-0.070983
 905	4.5200e-01	3.8758	30.028436	0.001222	12.221736	4.140836	-0.097601
 906	4.5250e-01	3.8325	29.802582	0.000566	5.656340	1.916420	-0.045171
 907	4.5300e-01	3.8004	29.371041	0.001081	10.807651	3.661731	-0.086308
 908	4.5350e-01	3.7523	29.274246	0.000242	2.424146	0.821323	-0.019359
 909	4.5400e-01	3.7170	28.620884	0.001636	16.362985	5.543929	-0.130672
 910	4.5450e-01	3.6753	28.265972	0.000889	8.888535	3.011517	-0.070983
 911	4.5500e-01	3.6368	27.931224	0.000838	8.383505	2.840408	-0.066949
 912	4.5550e-01	3.6031	27.652941	0.000697	6.969419	2.361303	-0.055657
 913	4.5600e-01	3.5534	27.047976	0.001515	15.150912	5.133268	-0.120993
 914	4.5650e-01	3.5213	26.830188	0.000545	5.454328	1.847976	-0.043557
 915	4.5700e-01	3.4812	26.584169	0.000616	6.161371	2.087529	-0.049204
 916	4.5750e-01	3.4459	26.192959	0.000980	9.797590	3.319513	-0.078242
 917	4.5800e-01	3.3881	25.829980	0.000909	9.090547	3.079961	-0.072596
 918	4.5850e-01	3.3689	25.382306	0.001121	11.211675	3.798618	-0.089535
 919	4.5900e-01	3.3224	24.987062	0.000990	9.898596	3.353735	-0.079049
 920	4.5950e-01	3.2774	24.688613	0.000747	7.474450	2.532412	-0.059690
 921	4.6000e-01	3.2341	24.454693	0.000586	5.858353	1.984864	-0.046784
 922	4.6050e-01	3.1972	24.039284	0.001040	10.403626	3.524844	-0.083082
 923	4.6100e-01	3.1603	23.611776	0.001071	10.706644	3.627509	-0.085502
 924	4.6150e-01	3.1266	23.514981	0.000242	2.424146	0.821323	-0.019359
 925	4.6200e-01	3.0737	23.192334	0.000808	8.080486	2.737743	-0.064530
 926	4.6250e-01	3.0416	22.833388	0.000899	8.989541	3.045739	-0.071789
 927	4.6300e-01	3.0031	22.422012	0.001030	10.302620	3.490622	-0.082275
 928	4.6350e-01	2.9582	22.046934	0.000939	9.393565	3.182626	-0.075016
 929	4.6400e-01	2.9021	21.627491	0.001050	10.504632	3.559066	-0.083888
 930	4.6450e-01	2.8764	21.486333	0.000354	3.535213	1.197763	-0.028232
 931	4.6500e-01	2.8347	20.970096	0.001293	12.928778	4.380389	-0.103247
 932	4.6550e-01	2.7978	20.498224	0.001182	11.817711	4.003949	-0.094375
 933	4.6600e-01	2.7561	20.211874	0.000717	7.171432	2.429747	-0.057270
 934	4.6650e-01	2.7176	19.957788	0.000636	6.363383	2.155973	-0.050817
 935	4.6700e-01	2.6855	19.566578	0.000980	9.797590	3.319513	-0.078242
 936	4.6750e-01	2.6454	19.151169	0.001040	10.403626	3.524844	-0.083082
 937	4.6800e-01	2.6037	18.743826	0.001020	10.201614	3.456400	-0.081469
 938	4.6850e-01	2.5555	18.493774	0.000626	6.262377	2.121751	-0.050010
 939	4.6900e-01	2.5202	18.195324	0.000747	7.474450	2.532412	-0.059690
 940	4.6950e-01	2.4737	17.921074	0.000687	6.868413	2.327081	-0.054850
 941	4.7000e-01	2.4416	17.340307	0.001454	14.544875	4.927937	-0.116153
 942	4.7050e-01	2.3983	16.953130	0.000970	9.696584	3.285291	-0.077435
 943	4.7100e-01	2.3502	16.666780	0.000717	7.171432	2.429747	-0.057270
 944	4.7150e-01	2.3229	16.267503	0.001000	9.999602	3.387957	-0.079855
 945	4.7200e-01	2.2732	16.186841	0.000202	2.020122	0.684436	-0.016132
 946	4.7250e-01	2.2443	15.472983	0.001788	17.878076	6.057256	-0.142772
 947	4.7300e-01	2.2058	15.315692	0.000394	3.939237	1.334650	-0.031458
 948	4.7350e-01	2.1529	14.924481	0.000980	9.797590	3.319513	-0.078242
 949	4.7400e-01	2.1192	14.609900	0.000788	7.878474	2.669299	-0.062916
 950	4.7450e-01	2.0775	14.335649	0.000687	6.868413	2.327081	-0.054850
 951	4.7500e-01	2.0358	13.988803	0.000869	8.686523	2.943074	-0.069369
 952	4.7550e-01	2.0037	13.476599	0.001283	12.827772	4.346167	-0.102441
 953	4.7600e-01	1.9524	12.976495	0.001252	12.524754	4.243501	-0.100021
 954	4.7650e-01	1.9251	12.601417	0.000939	9.393565	3.182626	-0.075016
 955	4.7700e-01	1.8818	12.294901	0.000768	7.676462	2.600856	-0.061303
 956	4.7750e-01	1.8336	12.262636	0.000081	0.808049	0.273774	-0.006453
 957	4.7800e-01	1.7983	11.637506	0.001566	15.655942	5.304377	-0.125026
 958	4.7850e-01	1.7518	11.399553	0.000596	5.959359	2.019085	-0.047591
 959	4.7900e-01	1.7117	10.927681	0.001182	11.817711	4.003949	-0.094375
 960	4.7950e-01	1.6780	10.564702	0.000909	9.090547	3.079961	-0.072596
 961	4.8000e-01	1.6411	10.080730	0.001212	12.120730	4.106614	-0.096794
 962	4.8050e-01	1.5898	10.024267	0.000141	1.414085	0.479105	-0.011293
 963	4.8100e-01	1.5577	9.681453	0.000859	8.585517	2.908852	-0.068563
 964	4.8150e-01	1.5208	9.298309	0.000960	9.595578	3.251070	-0.076629
 965	4.8200e-01	1.4759	8.838536	0.001151	11.514693	3.901284	-0.091955
 966	4.8250e-01	1.4358	8.245670	0.001485	14.847894	5.030603	-0.118573
 967	4.8300e-01	1.4037	8.023850	0.000556	5.555334	1.882198	-0.044364
 968	4.8350e-01	1.3556	7.648771	0.000939	9.393565	3.182626	-0.075016
 969	4.8400e-01	1.3219	7.378554	0.000677	6.767407	2.292860	-0.054044
 970	4.8450e-01	1.2802	7.076071	0.000758	7.575456	2.566634	-0.060496
 971	4.8500e-01	1.2417	6.684861	0.000980	9.797590	3.319513	-0.078242
 972	4.8550e-01	1.1968	6.414643	0.000677	6.767407	2.292860	-0.054044
 973	4.8600e-01	1.1550	5.954870	0.001151	11.514693	3.901284	-0.091955
 974	4.8650e-01	1.1133	5.527362	0.001071	10.706644	3.627509	-0.085502
 975	4.8700e-01	1.0748	5.313607	0.000535	5.353322	1.813755	-0.042751
 976	4.8750e-01	1.0411	4.958695	0.000889	8.888535	3.011517	-0.070983
 977	4.8800e-01	1.0042	4.648146	0.000778	7.777468	2.635078	-0.062110
 978	4.8850e-01	0.9465	4.148042	0.001252	12.524754	4.243501	-0.100021
 979	4.8900e-01	0.9208	3.716500	0.001081	10.807651	3.661731	-0.086308
 980	4.8950e-01	0.8791	3.442250	0.000687	6.868413	2.327081	-0.054850
 981	4.9000e-01	0.8358	3.192198	0.000626	6.262377	2.121751	-0.050010
 982	4.9050e-01	0.7941	2.885682	0.000768	7.676462	2.600856	-0.061303
 983	4.9100e-01	0.7572	2.458174	0.001071	10.706644	3.627509	-0.085502
 984	4.9150e-01	0.7187	2.240386	0.000545	5.454328	1.847976	-0.043557
 985	4.9200e-01	0.6818	1.780613	0.001151	11.514693	3.901284	-0.091955
 986	4.9250e-01	0.6385	1.268410	0.001283	12.827772	4.346167	-0.102441
 987	4.9300e-01	0.6000	1.070788	0.000495	4.949298	1.676868	-0.039524
 988	4.9350e-01	0.5647	0.530352	0.001353	13.534815	4.585719	-0.108087
 989	4.9400e-01	0.5262	0.123010	0.001020	10.201614	3.456400	-0.081469
 990	4.9450e-01	0.4829	-0.207705	0.000828	8.282499	2.806186	-0.066143
 991	4.9500e-01	0.4428	-0.477922	0.000677	6.767407	2.292860	-0.054044
 992	4.9550e-01	0.3978	-0.832835	0.000889	8.888535	3.011517	-0.070983
 993	4.9600e-01	0.3593	-1.179681	0.000869	8.686523	2.943074	-0.069369
 994	4.9650e-01	0.3192	-1.530561	0.000879	8.787529	2.977295	-0.070176
 995	4.9700e-01	0.2807	-1.812878	0.000707	7.070426	2.395525	-0.056463
 996	4.9750e-01	0.2390	-2.204088	0.000980	9.797590	3.319513	-0.078242
 997	4.9800e-01	0.1893	-2.421876	0.000545	5.454328	1.847976	-0.043557
 998	4.9850e-01	0.1508	-2.659829	0.000596	5.959359	2.019085	-0.047591
 999	4.9900e-01	0.1187	-3.252694	0.001485	14.847894	5.030603	-0.118573
1000	4.9950e-01	0.0754	-3.825394	0.001434	14.342863	4.859494	-0.114540
1001	5.0000e-01	0.0433	-4.265002	0.001101	11.009663	3.730175	-0.087922
1002	5.0050e-01	0.0000	-4.458591	0.000485	4.848292	1.642646	-0.038718
1003	5.0100e-01	-0.0337	-4.748974	0.000727	7.272438	2.463969	-0.058077
1004	5.0150e-01	-0.0770	-4.930463	0.000455	4.545274	1.539980	-0.036298
1005	5.0200e-01	-0.1123	-5.446700	0.001293	12.928778	4.380389	-0.103247
1006	5.0250e-01	-0.1556	-5.829844	0.000960	9.595578	3.251070	-0.076629
1007	5.0300e-01	-0.1941	-5.983102	0.000384	3.838231	1.300428	-0.030652
1008	5.0350e-01	-0.2310	-6.378345	0.000990	9.898596	3.353735	-0.079049
1009	5.0400e-01	-0.2807	-6.753424	0.000939	9.393565	3.182626	-0.075016
1010	5.0450e-01	-0.3208	-7.205131	0.001131	11.312681	3.832840	-0.090341
1011	5.0500e-01	-0.3593	-7.451150	0.000616	6.161371	2.087529	-0.049204
1012	5.0550e-01	-0.3946	-7.983519	0.001333	13.332803	4.517276	-0.106474
1013	5.0600e-01	-0.4299	-8.112578	0.000323	3.232195	1.095097	-0.025812
1014	5.0650e-01	-0.4797	-8.532020	0.001050	10.504632	3.559066	-0.083888
1015	5.0700e-01	-0.5134	-8.907098	0.000939	9.393565	3.182626	-0.075016
1016	5.0750e-01	-0.5535	-9.322507	0.001040	10.403626	3.524844	-0.083082
1017	5.0800e-01	-0.5936	-9.584659	0.000657	6.565395	2.224416	-0.052430
1018	5.0850e-01	-0.6257	-10.112995	0.001323	13.231796	4.483054	-0.105667
1019	5.0900e-01	-0.6802	-10.427576	0.000788	7.878474	2.669299	-0.062916
1020	5.0950e-01	-0.7123	-10.855085	0.001071	10.706644	3.627509	-0.085502
1021	5.1000e-01	-0.7508	-10.968012	0.000283	2.828170	0.958210	-0.022585
1022	5.1050e-01	-0.7973	-11.286626	0.000798	7.979480	2.703521	-0.063723
1023	5.1100e-01	-0.8310	-11.661705	0.000939	9.393565	3.182626	-0.075016
1024	5.1150e-01	-0.8711	-11.948055	0.000717	7.171432	2.429747	-0.057270
1025	5.1200e-01	-0.9128	-12.452192	0.001263	12.625760	4.277723	-0.100827
1026	5.1250e-01	-0.9561	-13.024892	0.001434	14.342863	4.859494	-0.114540
1027	5.1300e-01	-0.9930	-13.416103	0.000980	9.797590	3.319513	-0.078242
1028	5.1350e-01	-1.0315	-13.710519	0.000737	7.373444	2.498190	-0.058883
1029	5.1400e-01	-1.0684	-13.799247	0.000222	2.222134	0.752879	-0.017746
1030	5.1450e-01	-1.1182	-14.222722	0.001061	10.605638	3.593288	-0.084695
1031	5.1500e-01	-1.1534	-14.726860	0.001263	12.625760	4.277723	-0.100827
1032	5.1550e-01	-1.1855	-15.093872	0.000919	9.191553	3.114183	-0.073402
1033	5.1600e-01	-1.2337	-15.331824	0.000596	5.959359	2.019085	-0.047591
1034	5.1650e-01	-1.2673	-15.666572	0.000838	8.383505	2.840408	-0.066949
1035	5.1700e-01	-1.3187	-16.198941	0.001333	13.332803	4.517276	-0.106474
1036	5.1750e-01	-1.3524	-16.428827	0.000576	5.757347	1.950642	-0.045977
1037	5.1800e-01	-1.3893	-16.642581	0.000535	5.353322	1.813755	-0.042751
1038	5.1850e-01	-1.4230	-17.219314	0.001444	14.443869	4.893715	-0.115347
1039	5.1900e-01	-1.4695	-17.550029	0.000828	8.282499	2.806186	-0.066143
1040	5.1950e-01	-1.5096	-17.828312	0.000697	6.969419	2.361303	-0.055657
1041	5.2000e-01	-1.5513	-18.271953	0.001111	11.110669	3.764396	-0.088728
1042	5.2050e-01	-1.5930	-18.606700	0.000838	8.383505	2.840408	-0.066949
1043	5.2100e-01	-1.6379	-18.941448	0.000838	8.383505	2.840408	-0.066949
1044	5.2150e-01	-1.6700	-19.098738	0.000394	3.939237	1.334650	-0.031458
1045	5.2200e-01	-1.7133	-19.485916	0.000970	9.696584	3.285291	-0.077435
1046	5.2250e-01	-1.7647	-19.965855	0.001202	12.019723	4.072393	-0.095988
1047	5.2300e-01	-1.8016	-20.236072	0.000677	6.767407	2.292860	-0.054044
1048	5.2350e-01	-1.8320	-20.752309	0.001293	12.928778	4.380389	-0.103247
1049	5.2400e-01	-1.8786	-21.083023	0.000828	8.282499	2.806186	-0.066143
1050	5.2450e-01	-1.9155	-21.272579	0.000475	4.747286	1.608424	-0.037911
1051	5.2500e-01	-1.9636	-21.603293	0.000828	8.282499	2.806186	-0.066143
1052	5.2550e-01	-1.9973	-22.095331	0.001232	12.322742	4.175058	-0.098408
1053	5.2600e-01	-2.0310	-22.268754	0.000434	4.343261	1.471537	-0.034685
1054	5.2650e-01	-2.0679	-22.680130	0.001030	10.302620	3.490622	-0.082275
1055	5.2700e-01	-2.1080	-23.035043	0.000889	8.888535	3.011517	-0.070983
1056	5.2750e-01	-2.1593	-23.410121	0.000939	9.393565	3.182626	-0.075016
1057	5.2800e-01	-2.1994	-23.833596	0.001061	10.605638	3.593288	-0.084695
1058	5.2850e-01	-2.2395	-24.136079	0.000758	7.575456	2.566634	-0.060496
1059	5.2900e-01	-2.2844	-24.442594	0.000768	7.676462	2.600856	-0.061303
1060	5.2950e-01	-2.3133	-24.781374	0.000848	8.484511	2.874630	-0.067756
1061	5.3000e-01	-2.3566	-25.120155	0.000848	8.484511	2.874630	-0.067756
1062	5.3050e-01	-2.3887	-25.543630	0.001061	10.605638	3.593288	-0.084695
1063	5.3100e-01	-2.4288	-25.999370	0.001141	11.413687	3.867062	-0.091148
1064	5.3150e-01	-2.4705	-26.394614	0.000990	9.898596	3.353735	-0.079049
1065	5.3200e-01	-2.5122	-26.640633	0.000616	6.161371	2.087529	-0.049204
1066	5.3250e-01	-2.5604	-26.955215	0.000788	7.878474	2.669299	-0.062916
1067	5.3300e-01	-2.5956	-27.322226	0.000919	9.191553	3.114183	-0.073402
1068	5.3350e-01	-2.6374	-27.548080	0.000566	5.656340	1.916420	-0.045171
1069	5.3400e-01	-2.6678	-27.556146	0.000020	0.202012	0.068444	-0.001613
1070	5.3450e-01	-2.7112	-28.245806	0.001727	17.272040	5.851925	-0.137932
1071	5.3500e-01	-2.7609	-28.616851	0.000929	9.292559	3.148404	-0.074209
1072	5.3550e-01	-2.7946	-29.008062	0.000980	9.797590	3.319513	-0.078242
1073	5.3600e-01	-2.8347	-29.443636	0.001091	10.908657	3.695953	-0.087115
1074	5.3650e-01	-2.8748	-29.782417	0.000848	8.484511	2.874630	-0.067756
1075	5.3700e-01	-2.9181	-29.822748	0.000101	1.010061	0.342218	-0.008066
1076	5.3750e-01	-2.9566	-30.476110	0.001636	16.362985	5.543929	-0.130672
1077	5.3800e-01	-2.9999	-30.718096	0.000606	6.060365	2.053307	-0.048397
1078	5.3850e-01	-3.0384	-30.875386	0.000394	3.939237	1.334650	-0.031458
1079	5.3900e-01	-3.0609	-31.407755	0.001333	13.332803	4.517276	-0.106474
1080	5.3950e-01	-3.1138	-31.730403	0.000808	8.080486	2.737743	-0.064530
1081	5.4000e-01	-3.1507	-32.266805	0.001343	13.433809	4.551498	-0.107280
1082	5.4050e-01	-3.1940	-32.553155	0.000717	7.171432	2.429747	-0.057270
1083	5.4100e-01	-3.2261	-32.948399	0.000990	9.898596	3.353735	-0.079049
1084	5.4150e-01	-3.2774	-33.125855	0.000444	4.444268	1.505759	-0.035491
1085	5.4200e-01	-3.3143	-33.271047	0.000364	3.636219	1.231984	-0.029038
1086	5.4250e-01	-3.3609	-33.803416	0.001333	13.332803	4.517276	-0.106474
1087	5.4300e-01	-3.3930	-34.073634	0.000677	6.767407	2.292860	-0.054044
1088	5.4350e-01	-3.4395	-34.525341	0.001131	11.312681	3.832840	-0.090341
1089	5.4400e-01	-3.4780	-34.593903	0.000172	1.717103	0.581770	-0.013713
1090	5.4450e-01	-3.5213	-35.037544	0.001111	11.110669	3.764396	-0.088728
1091	5.4500e-01	-3.5486	-35.598145	0.001404	14.039845	4.756828	-0.112120
1092	5.4550e-01	-3.6047	-35.888528	0.000727	7.272438	2.463969	-0.058077
1093	5.4600e-01	-3.6416	-36.195043	0.000768	7.676462	2.600856	-0.061303
1094	5.4650e-01	-3.6689	-36.666916	0.001182	11.817711	4.003949	-0.094375
1095	5.4700e-01	-3.7170	-36.775810	0.000273	2.727164	0.923988	-0.021779
1096	5.4750e-01	-3.7523	-36.977465	0.000505	5.050304	1.711089	-0.040331
1097	5.4800e-01	-3.8101	-37.283980	0.000768	7.676462	2.600856	-0.061303
1098	5.4850e-01	-3.8309	-37.808283	0.001313	13.130790	4.448832	-0.104861
1099	5.4900e-01	-3.8758	-38.018004	0.000525	5.252316	1.779533	-0.041944
1100	5.4950e-01	-3.9159	-38.203527	0.000465	4.646280	1.574202	-0.037105
1101	5.5000e-01	-3.9641	-38.566505	0.000909	9.090547	3.079961	-0.072596
1102	5.5050e-01	-4.0026	-39.062577	0.001242	12.423748	4.209280	-0.099214
1103	5.5100e-01	-4.0298	-39.381191	0.000798	7.979480	2.703521	-0.063723
1104	5.5150e-01	-4.0748	-39.949858	0.001424	14.241857	4.825272	-0.113733
1105	5.5200e-01	-4.1133	-40.103116	0.000384	3.838231	1.300428	-0.030652
1106	5.5250e-01	-4.1534	-40.349135	0.000616	6.161371	2.087529	-0.049204
1107	5.5300e-01	-4.1967	-40.732279	0.000960	9.595578	3.251070	-0.076629
1108	5.5350e-01	-4.2352	-41.071060	0.000848	8.484511	2.874630	-0.067756
1109	5.5400e-01	-4.2785	-41.534866	0.001162	11.615699	3.935505	-0.092761
1110	5.5450e-01	-4.3122	-41.797017	0.000657	6.565395	2.224416	-0.052430
1111	5.5500e-01	-4.3507	-42.155963	0.000899	8.989541	3.045739	-0.071789
1112	5.5550e-01	-4.3988	-42.410048	0.000636	6.363383	2.155973	-0.050817
1113	5.5600e-01	-4.4293	-42.805292	0.000990	9.898596	3.353735	-0.079049
1114	5.5650e-01	-4.4758	-43.200536	0.000990	9.898596	3.353735	-0.079049
1115	5.5700e-01	-4.5143	-43.466720	0.000667	6.666401	2.258638	-0.053237
1116	5.5750e-01	-4.5544	-43.688541	0.000556	5.555334	1.882198	-0.044364
1117	5.5800e-01	-4.6025	-43.991023	0.000758	7.575456	2.566634	-0.060496
1118	5.5850e-01	-4.6394	-44.382234	0.000980	9.797590	3.319513	-0.078242
1119	5.5900e-01	-4.6763	-44.721014	0.000848	8.484511	2.874630	-0.067756
1120	5.5950e-01	-4.7245	-45.043662	0.000808	8.080486	2.737743	-0.064530
1121	5.6000e-01	-4.7533	-45.370343	0.000818	8.181492	2.771965	-0.065336
1122	5.6050e-01	-4.7902	-45.874480	0.001263	12.625760	4.277723	-0.100827
1123	5.6100e-01	-4.8432	-46.168896	0.000737	7.373444	2.498190	-0.058883
1124	5.6150e-01	-4.8705	-46.604471	0.001091	10.908657	3.695953	-0.087115
1125	5.6200e-01	-4.9106	-46.878722	0.000687	6.868413	2.327081	-0.054850
1126	5.6250e-01	-4.9523	-47.116674	0.000596	5.959359	2.019085	-0.047591
1127	5.6300e-01	-4.9956	-47.415124	0.000747	7.474450	2.532412	-0.059690
1128	5.6350e-01	-5.0405	-47.729705	0.000788	7.878474	2.669299	-0.062916
1129	5.6400e-01	-5.0758	-47.907162	0.000444	4.444268	1.505759	-0.035491
1130	5.6450e-01	-5.1159	-48.516160	0.001525	15.251918	5.167490	-0.121800
1131	5.6500e-01	-5.1528	-48.673450	0.000394	3.939237	1.334650	-0.031458
1132	5.6550e-01	-5.2009	-48.838808	0.000414	4.141249	1.403093	-0.033071
1133	5.6600e-01	-5.2346	-49.467971	0.001576	15.756948	5.338599	-0.125833
1134	5.6650e-01	-5.2795	-49.883380	0.001040	10.403626	3.524844	-0.083082
1135	5.6700e-01	-5.3148	-50.052770	0.000424	4.242255	1.437315	-0.033878
1136	5.6750e-01	-5.3533	-50.395584	0.000859	8.585517	2.908852	-0.068563
1137	5.6800e-01	-5.3934	-50.790827	0.000990	9.898596	3.353735	-0.079049
1138	5.6850e-01	-5.4351	-51.052979	0.000657	6.565395	2.224416	-0.052430
1139	5.6900e-01	-5.4769	-51.206236	0.000384	3.838231	1.300428	-0.030652
1140	5.6950e-01	-5.5121	-51.645844	0.001101	11.009663	3.730175	-0.087922
1141	5.7000e-01	-5.5522	-52.016889	0.000929	9.292559	3.148404	-0.074209
1142	5.7050e-01	-5.5972	-52.464563	0.001121	11.211675	3.798618	-0.089535
1143	5.7100e-01	-5.6341	-52.702516	0.000596	5.959359	2.019085	-0.047591
1144	5.7150e-01	-5.6710	-52.972734	0.000677	6.767407	2.292860	-0.054044
1145	5.7200e-01	-5.7239	-53.182455	0.000525	5.252316	1.779533	-0.041944
1146	5.7250e-01	-5.7608	-53.545434	0.000909	9.090547	3.079961	-0.072596
1147	5.7300e-01	-5.7945	-53.908412	0.000909	9.090547	3.079961	-0.072596
1148	5.7350e-01	-5.8282	-54.311722	0.001010	10.100608	3.422179	-0.080662
1149	5.7400e-01	-5.8779	-54.638403	0.000818	8.181492	2.771965	-0.065336
1150	5.7450e-01	-5.9260	-54.900555	0.000657	6.565395	2.224416	-0.052430
1151	5.7500e-01	-5.9597	-55.174805	0.000687	6.868413	2.327081	-0.054850
1152	5.7550e-01	-5.9982	-55.420824	0.000616	6.161371	2.087529	-0.049204
1153	5.7600e-01	-6.0415	-55.900763	0.001202	12.019723	4.072393	-0.095988
1154	5.7650e-01	-6.0752	-56.162915	0.000657	6.565395	2.224416	-0.052430
1155	5.7700e-01	-6.1169	-56.614622	0.001131	11.312681	3.832840	-0.090341
1156	5.7750e-01	-6.1554	-56.929203	0.000788	7.878474	2.669299	-0.062916
1157	5.7800e-01	-6.1859	-57.255884	0.000818	8.181492	2.771965	-0.065336
1158	5.7850e-01	-6.2324	-57.550301	0.000737	7.373444	2.498190	-0.058883
1159	5.7900e-01	-6.2742	-57.796320	0.000616	6.161371	2.087529	-0.049204
1160	5.7950e-01	-6.3127	-58.187530	0.000980	9.797590	3.319513	-0.078242
1161	5.8000e-01	-6.3463	-58.663436	0.001192	11.918717	4.038171	-0.095181
1162	5.8050e-01	-6.3929	-58.893322	0.000576	5.757347	1.950642	-0.045977
1163	5.8100e-01	-6.4298	-59.405526	0.001283	12.827772	4.346167	-0.102441
1164	5.8150e-01	-6.4763	-59.405526	-0.000000	-0.000000	-0.000000	0.000000
1165	5.8200e-01	-6.5084	-59.643479	0.000596	5.959359	2.019085	-0.047591
1166	5.8250e-01	-6.5533	-60.026623	0.000960	9.595578	3.251070	-0.076629
1167	5.8300e-01	-6.5966	-60.486396	0.001151	11.514693	3.901284	-0.091955
1168	5.8350e-01	-6.6367	-60.712250	0.000566	5.656340	1.916420	-0.045171
1169	5.8400e-01	-6.6672	-60.873574	0.000404	4.040243	1.368871	-0.032265
1170	5.8450e-01	-6.7217	-61.309148	0.001091	10.908657	3.695953	-0.087115
1171	5.8500e-01	-6.7442	-61.571300	0.000657	6.565395	2.224416	-0.052430
1172	5.8550e-01	-6.7811	-61.776988	0.000515	5.151310	1.745311	-0.041138
1173	5.8600e-01	-6.8372	-61.954444	0.000444	4.444268	1.505759	-0.035491
1174	5.8650e-01	-6.8790	-62.406151	0.001131	11.312681	3.832840	-0.090341
1175	5.8700e-01	-6.9175	-62.761064	0.000889	8.888535	3.011517	-0.070983
1176	5.8750e-01	-6.9560	-62.978851	0.000545	5.454328	1.847976	-0.043557
1177	5.8800e-01	-6.9993	-63.152274	0.000434	4.343261	1.471537	-0.034685
1178	5.8850e-01	-7.0346	-63.745140	0.001485	14.847894	5.030603	-0.118573
1179	5.8900e-01	-7.0747	-63.914530	0.000424	4.242255	1.437315	-0.033878
1180	5.8950e-01	-7.1084	-64.309774	0.000990	9.898596	3.353735	-0.079049
1181	5.9000e-01	-7.1420	-64.608223	0.000747	7.474450	2.532412	-0.059690
1182	5.9050e-01	-7.1934	-65.063963	0.001141	11.413687	3.867062	-0.091148
1183	5.9100e-01	-7.2335	-65.334181	0.000677	6.767407	2.292860	-0.054044
1184	5.9150e-01	-7.2736	-65.515670	0.000455	4.545274	1.539980	-0.036298
1185	5.9200e-01	-7.3169	-65.822186	0.000768	7.676462	2.600856	-0.061303
1186	5.9250e-01	-7.3538	-66.229529	0.001020	10.201614	3.456400	-0.081469
1187	5.9300e-01	-7.3795	-66.483614	0.000636	6.363383	2.155973	-0.050817
1188	5.9350e-01	-7.4356	-66.919189	0.001091	10.908657	3.695953	-0.087115
1189	5.9400e-01	-7.4725	-66.983718	0.000162	1.616097	0.547549	-0.012906
1190	5.9450e-01	-7.5094	-67.278134	0.000737	7.373444	2.498190	-0.058883
1191	5.9500e-01	-7.5559	-67.822603	0.001364	13.635821	4.619941	-0.108894
1192	5.9550e-01	-7.5928	-68.108953	0.000717	7.171432	2.429747	-0.057270
1193	5.9600e-01	-7.6378	-68.330773	0.000556	5.555334	1.882198	-0.044364
1194	5.9650e-01	-7.6698	-68.693752	0.000909	9.090547	3.079961	-0.072596
1195	5.9700e-01	-7.7099	-69.060764	0.000919	9.191553	3.114183	-0.073402
1196	5.9750e-01	-7.7500	-69.222088	0.000404	4.040243	1.368871	-0.032265
1197	5.9800e-01	-7.7982	-69.726225	0.001263	12.625760	4.277723	-0.100827
1198	5.9850e-01	-7.8383	-69.802854	0.000192	1.919116	0.650214	-0.015326
1199	5.9900e-01	-7.8704	-70.012575	0.000525	5.252316	1.779533	-0.041944
1200	5.9950e-01	-7.9169	-70.415885	0.001010	10.100608	3.422179	-0.080662
1201	6.0000e-01	-7.9474	-70.778864	0.000909	9.090547	3.079961	-0.072596
1202	6.0050e-01	-8.0003	-71.085379	0.000768	7.676462	2.600856	-0.061303
1203	6.0100e-01	-8.0308	-71.359630	0.000687	6.868413	2.327081	-0.054850
1204	6.0150e-01	-8.0805	-71.654046	0.000737	7.373444	2.498190	-0.058883
1205	6.0200e-01	-8.1142	-71.863767	0.000525	5.252316	1.779533	-0.041944
1206	6.0250e-01	-8.1479	-72.166250	0.000758	7.575456	2.566634	-0.060496
1207	6.0300e-01	-8.1928	-72.460666	0.000737	7.373444	2.498190	-0.058883
1208	6.0350e-01	-8.2361	-72.682486	0.000556	5.555334	1.882198	-0.044364
1209	6.0400e-01	-8.2794	-73.045465	0.000909	9.090547	3.079961	-0.072596
1210	6.0450e-01	-8.3131	-73.360047	0.000788	7.878474	2.669299	-0.062916
1211	6.0500e-01	-8.3564	-73.622198	0.000657	6.565395	2.224416	-0.052430
1212	6.0550e-01	-8.3885	-74.077939	0.001141	11.413687	3.867062	-0.091148
1213	6.0600e-01	-8.4286	-74.235229	0.000394	3.939237	1.334650	-0.031458
1214	6.0650e-01	-8.4655	-74.674837	0.001101	11.009663	3.730175	-0.087922
1215	6.0700e-01	-8.5089	-75.033783	0.000899	8.989541	3.045739	-0.071789
1216	6.0750e-01	-8.5474	-75.183008	0.000374	3.737225	1.266206	-0.029845
1217	6.0800e-01	-8.5794	-75.711344	0.001323	13.231796	4.483054	-0.105667
1218	6.0850e-01	-8.6372	-76.062223	0.000879	8.787529	2.977295	-0.070176
1219	6.0900e-01	-8.6596	-76.405036	0.000859	8.585517	2.908852	-0.068563
1220	6.0950e-01	-8.7206	-76.364705	-0.000101	-1.010061	-0.342218	0.008066
1221	6.1000e-01	-8.7447	-76.792214	0.001071	10.706644	3.627509	-0.085502
1222	6.1050e-01	-8.7880	-76.953538	0.000404	4.040243	1.368871	-0.032265
1223	6.1100e-01	-8.8281	-77.368947	0.001040	10.403626	3.524844	-0.083082
1224	6.1150e-01	-8.8810	-77.671429	0.000758	7.575456	2.566634	-0.060496
1225	6.1200e-01	-8.9195	-77.788389	0.000293	2.929176	0.992432	-0.023392
1226	6.1250e-01	-8.9532	-78.147335	0.000899	8.989541	3.045739	-0.071789
1227	6.1300e-01	-8.9949	-78.514347	0.000919	9.191553	3.114183	-0.073402
1228	6.1350e-01	-9.0382	-78.812796	0.000747	7.474450	2.532412	-0.059690
1229	6.1400e-01	-9.0655	-79.074948	0.000657	6.565395	2.224416	-0.052430
1230	6.1450e-01	-9.1169	-79.478258	0.001010	10.100608	3.422179	-0.080662
1231	6.1500e-01	-9.1570	-79.829137	0.000879	8.787529	2.977295	-0.070176
1232	6.1550e-01	-9.1987	-80.143719	0.000788	7.878474	2.669299	-0.062916
1233	6.1600e-01	-9.2308	-80.446201	0.000758	7.575456	2.566634	-0.060496
1234	6.1650e-01	-9.2677	-80.651889	0.000515	5.151310	1.745311	-0.041138
1235	6.1700e-01	-9.3110	-80.744651	0.000232	2.323140	0.787101	-0.018552
1236	6.1750e-01	-9.3495	-81.248788	0.001263	12.625760	4.277723	-0.100827
1237	6.1800e-01	-9.3960	-81.482708	0.000586	5.858353	1.984864	-0.046784
1238	6.1850e-01	-9.4409	-81.639998	0.000394	3.939237	1.334650	-0.031458
1239	6.1900e-01	-9.4762	-81.950547	0.000778	7.777468	2.635078	-0.062110
1240	6.1950e-01	-9.5147	-82.289327	0.000848	8.484511	2.874630	-0.067756
1241	6.2000e-01	-9.5436	-82.543413	0.000636	6.363383	2.155973	-0.050817
1242	6.2050e-01	-9.5981	-82.898325	0.000889	8.888535	3.011517	-0.070983
1243	6.2100e-01	-9.6254	-83.333900	0.001091	10.908657	3.695953	-0.087115
1244	6.2150e-01	-9.6703	-83.495224	0.000404	4.040243	1.368871	-0.032265
1245	6.2200e-01	-9.7152	-83.664614	0.000424	4.242255	1.437315	-0.033878
1246	6.2250e-01	-9.7489	-84.092122	0.001071	10.706644	3.627509	-0.085502
1247	6.2300e-01	-9.7938	-84.410737	0.000798	7.979480	2.703521	-0.063723
1248	6.2350e-01	-9.8372	-84.612392	0.000505	5.050304	1.711089	-0.040331
1249	6.2400e-01	-9.8692	-84.902775	0.000727	7.272438	2.463969	-0.058077
1250	6.2450e-01	-9.9174	-85.229456	0.000818	8.181492	2.771965	-0.065336
1251	6.2500e-01	-9.9559	-85.604534	0.000939	9.393565	3.182626	-0.075016
1252	6.2550e-01	-9.9928	-85.749726	0.000364	3.636219	1.231984	-0.029038
1253	6.2600e-01	-10.0329	-86.048175	0.000747	7.474450	2.532412	-0.059690
1254	6.2650e-01	-10.0730	-86.366790	0.000798	7.979480	2.703521	-0.063723
1255	6.2700e-01	-10.1195	-86.721703	0.000889	8.888535	3.011517	-0.070983
1256	6.2750e-01	-10.1548	-86.826563	0.000263	2.626158	0.889766	-0.020972
1257	6.2800e-01	-10.1885	-87.116946	0.000727	7.272438	2.463969	-0.058077
1258	6.2850e-01	-10.2350	-87.479925	0.000909	9.090547	3.079961	-0.072596
1259	6.2900e-01	-10.2719	-87.588819	0.000273	2.727164	0.923988	-0.021779
1260	6.2950e-01	-10.3152	-87.814672	0.000566	5.656340	1.916420	-0.045171
1261	6.3000e-01	-10.3553	-88.270413	0.001141	11.413687	3.867062	-0.091148
1262	6.3050e-01	-10.3938	-88.468034	0.000495	4.949298	1.676868	-0.039524
1263	6.3100e-01	-10.4275	-88.919741	0.001131	11.312681	3.832840	-0.090341
1264	6.3150e-01	-10.4660	-89.161727	0.000606	6.060365	2.053307	-0.048397
1265	6.3200e-01	-10.5125	-89.480342	0.000798	7.979480	2.703521	-0.063723
1266	6.3250e-01	-10.5446	-89.895751	0.001040	10.403626	3.524844	-0.083082
1267	6.3300e-01	-10.5992	-89.984479	0.000222	2.222134	0.752879	-0.017746
1268	6.3350e-01	-10.6361	-90.274863	0.000727	7.272438	2.463969	-0.058077
1269	6.3400e-01	-10.6730	-90.637841	0.000909	9.090547	3.079961	-0.072596
1270	6.3450e-01	-10.7147	-90.920158	0.000707	7.070426	2.395525	-0.056463
1271	6.3500e-01	-10.7419	-91.061317	0.000354	3.535213	1.197763	-0.028232
1272	6.3550e-01	-10.7949	-91.537222	0.001192	11.918717	4.038171	-0.095181
1273	6.3600e-01	-10.8318	-91.738877	0.000505	5.050304	1.711089	-0.040331
1274	6.3650e-01	-10.8783	-92.162353	0.001061	10.605638	3.593288	-0.084695
1275	6.3700e-01	-10.9104	-92.222849	0.000152	1.515091	0.513327	-0.012099
1276	6.3750e-01	-10.9505	-92.448703	0.000566	5.656340	1.916420	-0.045171
1277	6.3800e-01	-10.9938	-92.924608	0.001192	11.918717	4.038171	-0.095181
1278	6.3850e-01	-11.0355	-93.102065	0.000444	4.444268	1.505759	-0.035491
1279	6.3900e-01	-11.0756	-93.344051	0.000606	6.060365	2.053307	-0.048397
1280	6.3950e-01	-11.1093	-93.586037	0.000606	6.060365	2.053307	-0.048397
1281	6.4000e-01	-11.1462	-93.973214	0.000970	9.696584	3.285291	-0.077435
1282	6.4050e-01	-11.1911	-94.267630	0.000737	7.373444	2.498190	-0.058883
1283	6.4100e-01	-11.2360	-94.404756	0.000343	3.434207	1.163541	-0.027425
1284	6.4150e-01	-11.2729	-94.751602	0.000869	8.686523	2.943074	-0.069369
1285	6.4200e-01	-11.3130	-95.118614	0.000919	9.191553	3.114183	-0.073402
1286	6.4250e-01	-11.3548	-95.534023	0.001040	10.403626	3.524844	-0.083082
1287	6.4300e-01	-11.3852	-95.634851	0.000253	2.525152	0.855545	-0.020165
1288	6.4350e-01	-11.4270	-96.017995	0.000960	9.595578	3.251070	-0.076629
1289	6.4400e-01	-11.4719	-96.288213	0.000677	6.767407	2.292860	-0.054044
1290	6.4450e-01	-11.5104	-96.449537	0.000404	4.040243	1.368871	-0.032265
1291	6.4500e-01	-11.5505	-96.554397	0.000263	2.626158	0.889766	-0.020972
1292	6.4550e-01	-11.5954	-96.848813	0.000737	7.373444	2.498190	-0.058883
1293	6.4600e-01	-11.6339	-97.393282	0.001364	13.635821	4.619941	-0.108894
1294	6.4650e-01	-11.6676	-97.623168	0.000576	5.757347	1.950642	-0.045977
1295	6.4700e-01	-11.7189	-97.703830	0.000202	2.020122	0.684436	-0.016132
1296	6.4750e-01	-11.7574	-98.034544	0.000828	8.282499	2.806186	-0.066143
1297	6.4800e-01	-11.8023	-98.385424	0.000879	8.787529	2.977295	-0.070176
1298	6.4850e-01	-11.8408	-98.639509	0.000636	6.363383	2.155973	-0.050817
1299	6.4900e-01	-11.8681	-98.994422	0.000889	8.888535	3.011517	-0.070983
1300	6.4950e-01	-11.9194	-99.071051	0.000192	1.919116	0.650214	-0.015326
1301	6.5000e-01	-11.9547	-99.438063	0.000919	9.191553	3.114183	-0.073402
1302	6.5050e-01	-11.9884	-99.724413	0.000717	7.171432	2.429747	-0.057270
1303	6.5100e-01	-12.0317	-100.075292	0.000879	8.787529	2.977295	-0.070176
1304	6.5150e-01	-12.0654	-100.494734	0.001050	10.504632	3.559066	-0.083888
1305	6.5200e-01	-12.1120	-100.357609	-0.000343	-3.434207	-1.163541	0.027425
1306	6.5250e-01	-12.1521	-100.760919	0.001010	10.100608	3.422179	-0.080662
1307	6.5300e-01	-12.1890	-101.224725	0.001162	11.615699	3.935505	-0.092761
1308	6.5350e-01	-12.2339	-101.418314	0.000485	4.848292	1.642646	-0.038718
1309	6.5400e-01	-12.2692	-101.579638	0.000404	4.040243	1.368871	-0.032265
1310	6.5450e-01	-12.3109	-101.914385	0.000838	8.383505	2.840408	-0.066949
1311	6.5500e-01	-12.3590	-102.333827	0.001050	10.504632	3.559066	-0.083888
1312	6.5550e-01	-12.3895	-102.676641	0.000859	8.585517	2.908852	-0.068563
1313	6.5600e-01	-12.4408	-102.696806	0.000051	0.505030	0.171109	-0.004033
1314	6.5650e-01	-12.4793	-102.950891	0.000636	6.363383	2.155973	-0.050817
1315	6.5700e-01	-12.5114	-103.455029	0.001263	12.625760	4.277723	-0.100827
1316	6.5750e-01	-12.5515	-103.459062	0.000010	0.101006	0.034222	-0.000807
1317	6.5800e-01	-12.5996	-103.701048	0.000606	6.060365	2.053307	-0.048397
1318	6.5850e-01	-12.6381	-103.898670	0.000495	4.949298	1.676868	-0.039524
1319	6.5900e-01	-12.6799	-104.253582	0.000889	8.888535	3.011517	-0.070983
1320	6.5950e-01	-12.7151	-104.648826	0.000990	9.898596	3.353735	-0.079049
1321	6.6000e-01	-12.7553	-105.023904	0.000939	9.393565	3.182626	-0.075016
1322	6.6050e-01	-12.7857	-105.241691	0.000545	5.454328	1.847976	-0.043557
1323	6.6100e-01	-12.8339	-105.310254	0.000172	1.717103	0.581770	-0.013713
1324	6.6150e-01	-12.8708	-105.963616	0.001636	16.362985	5.543929	-0.130672
1325	6.6200e-01	-12.9028	-105.943451	-0.000051	-0.505030	-0.171109	0.004033
1326	6.6250e-01	-12.9558	-106.181403	0.000596	5.959359	2.019085	-0.047591
1327	6.6300e-01	-12.9895	-106.439522	0.000646	6.464389	2.190194	-0.051624
1328	6.6350e-01	-13.0264	-106.673441	0.000586	5.858353	1.984864	-0.046784
1329	6.6400e-01	-13.0793	-107.088851	0.001040	10.403626	3.524844	-0.083082
1330	6.6450e-01	-13.1178	-107.250175	0.000404	4.040243	1.368871	-0.032265
1331	6.6500e-01	-13.1483	-107.496194	0.000616	6.161371	2.087529	-0.049204
1332	6.6550e-01	-13.1884	-107.822875	0.000818	8.181492	2.771965	-0.065336
1333	6.6600e-01	-13.2381	-107.976132	0.000384	3.838231	1.300428	-0.030652
1334	6.6650e-01	-13.2718	-108.383475	0.001020	10.201614	3.456400	-0.081469
1335	6.6700e-01	-13.3055	-108.649660	0.000667	6.666401	2.258638	-0.053237
1336	6.6750e-01	-13.3520	-108.778719	0.000323	3.232195	1.095097	-0.025812
1337	6.6800e-01	-13.3937	-108.940043	0.000404	4.040243	1.368871	-0.032265
1338	6.6850e-01	-13.4274	-109.391750	0.001131	11.312681	3.832840	-0.090341
1339	6.6900e-01	-13.4836	-109.585339	0.000485	4.848292	1.642646	-0.038718
1340	6.6950e-01	-13.5060	-109.932185	0.000869	8.686523	2.943074	-0.069369
1341	6.7000e-01	-13.5558	-110.133840	0.000505	5.050304	1.711089	-0.040331
1342	6.7050e-01	-13.6007	-110.266932	0.000333	3.333201	1.129319	-0.026618
1343	6.7100e-01	-13.6376	-110.730739	0.001162	11.615699	3.935505	-0.092761
1344	6.7150e-01	-13.6745	-110.944493	0.000535	5.353322	1.813755	-0.042751
1345	6.7200e-01	-13.7178	-111.089684	0.000364	3.636219	1.231984	-0.029038
1346	6.7250e-01	-13.7531	-111.509127	0.001050	10.504632	3.559066	-0.083888
1347	6.7300e-01	-13.7884	-111.819675	0.000778	7.777468	2.635078	-0.062110
1348	6.7350e-01	-13.8493	-111.900337	0.000202	2.020122	0.684436	-0.016132
1349	6.7400e-01	-13.8782	-112.327846	0.001071	10.706644	3.627509	-0.085502
1350	6.7450e-01	-13.9055	-112.428673	0.000253	2.525152	0.855545	-0.020165
1351	6.7500e-01	-13.9648	-112.650494	0.000556	5.555334	1.882198	-0.044364
1352	6.7550e-01	-13.9905	-113.134465	0.001212	12.120730	4.106614	-0.096794
1353	6.7600e-01	-14.0306	-113.251425	0.000293	2.929176	0.992432	-0.023392
1354	6.7650e-01	-14.0820	-113.408716	0.000394	3.939237	1.334650	-0.031458
1355	6.7700e-01	-14.1124	-113.840258	0.001081	10.807651	3.661731	-0.086308
1356	6.7750e-01	-14.1493	-114.025780	0.000465	4.646280	1.574202	-0.037105
1357	6.7800e-01	-14.1910	-114.279865	0.000636	6.363383	2.155973	-0.050817
1358	6.7850e-01	-14.2376	-114.578315	0.000747	7.474450	2.532412	-0.059690
1359	6.7900e-01	-14.2761	-114.691242	0.000283	2.828170	0.958210	-0.022585
1360	6.7950e-01	-14.3130	-115.050187	0.000899	8.989541	3.045739	-0.071789
1361	6.8000e-01	-14.3499	-115.388968	0.000848	8.484511	2.874630	-0.067756
1362	6.8050e-01	-14.3852	-115.780178	0.000980	9.797590	3.319513	-0.078242
1363	6.8100e-01	-14.4349	-115.784211	0.000010	0.101006	0.034222	-0.000807
1364	6.8150e-01	-14.4814	-116.106859	0.000808	8.080486	2.737743	-0.064530
1365	6.8200e-01	-14.5103	-116.280282	0.000434	4.343261	1.471537	-0.034685
1366	6.8250e-01	-14.5520	-116.711824	0.001081	10.807651	3.661731	-0.086308
1367	6.8300e-01	-14.5921	-116.869115	0.000394	3.939237	1.334650	-0.031458
1368	6.8350e-01	-14.6322	-117.123200	0.000636	6.363383	2.155973	-0.050817
1369	6.8400e-01	-14.6787	-117.252259	0.000323	3.232195	1.095097	-0.025812
1370	6.8450e-01	-14.7060	-117.494245	0.000606	6.060365	2.053307	-0.048397
1371	6.8500e-01	-14.7509	-117.833025	0.000848	8.484511	2.874630	-0.067756
1372	6.8550e-01	-14.7846	-118.200037	0.000919	9.191553	3.114183	-0.073402
1373	6.8600e-01	-14.8327	-118.514619	0.000788	7.878474	2.669299	-0.062916
1374	6.8650e-01	-14.8696	-118.494453	-0.000051	-0.505030	-0.171109	0.004033
1375	6.8700e-01	-14.9097	-119.075220	0.001454	14.544875	4.927937	-0.116153
1376	6.8750e-01	-14.9595	-119.345437	0.000677	6.767407	2.292860	-0.054044
1377	6.8800e-01	-14.9883	-119.349470	0.000010	0.101006	0.034222	-0.000807
1378	6.8850e-01	-15.0285	-119.781012	0.001081	10.807651	3.661731	-0.086308
1379	6.8900e-01	-15.0766	-120.039130	0.000646	6.464389	2.190194	-0.051624
1380	6.8950e-01	-15.1119	-120.313381	0.000687	6.868413	2.327081	-0.054850
1381	6.9000e-01	-15.1407	-120.474705	0.000404	4.040243	1.368871	-0.032265
1382	6.9050e-01	-15.1969	-120.712658	0.000596	5.959359	2.019085	-0.047591
1383	6.9100e-01	-15.2338	-120.970776	0.000646	6.464389	2.190194	-0.051624
1384	6.9150e-01	-15.2803	-121.220828	0.000626	6.262377	2.121751	-0.050010
1385	6.9200e-01	-15.3156	-121.208729	-0.000030	-0.303018	-0.102665	0.002420
1386	6.9250e-01	-15.3541	-121.491046	0.000707	7.070426	2.395525	-0.056463
1387	6.9300e-01	-15.3958	-121.910488	0.001050	10.504632	3.559066	-0.083888
1388	6.9350e-01	-15.4247	-122.079878	0.000424	4.242255	1.437315	-0.033878
1389	6.9400e-01	-15.4712	-122.261368	0.000455	4.545274	1.539980	-0.036298
1390	6.9450e-01	-15.5113	-122.616280	0.000889	8.888535	3.011517	-0.070983
1391	6.9500e-01	-15.5578	-122.874399	0.000646	6.464389	2.190194	-0.051624
1392	6.9550e-01	-15.5947	-123.322073	0.001121	11.211675	3.798618	-0.089535
1393	6.9600e-01	-15.6284	-123.588257	0.000667	6.666401	2.258638	-0.053237
1394	6.9650e-01	-15.6814	-123.668919	0.000202	2.020122	0.684436	-0.016132
1395	6.9700e-01	-15.7183	-123.943170	0.000687	6.868413	2.327081	-0.054850
1396	6.9750e-01	-15.7536	-124.112560	0.000424	4.242255	1.437315	-0.033878
1397	6.9800e-01	-15.7937	-124.390844	0.000697	6.969419	2.361303	-0.055657
1398	6.9850e-01	-15.8338	-124.491671	0.000253	2.525152	0.855545	-0.020165
1399	6.9900e-01	-15.8771	-124.782054	0.000727	7.272438	2.463969	-0.058077
1400	6.9950e-01	-15.9124	-125.100669	0.000798	7.979480	2.703521	-0.063723
1401	7.0000e-01	-15.9605	-125.411218	0.000778	7.777468	2.635078	-0.062110
1402	7.0050e-01	-15.9862	-125.729832	0.000798	7.979480	2.703521	-0.063723
1403	7.0100e-01	-16.0295	-126.032315	0.000758	7.575456	2.566634	-0.060496
1404	7.0150e-01	-16.0760	-126.282367	0.000626	6.262377	2.121751	-0.050010
1405	7.0200e-01	-16.1145	-126.705842	0.001061	10.605638	3.593288	-0.084695
1406	7.0250e-01	-16.1514	-126.730041	0.000061	0.606036	0.205331	-0.004840
1407	7.0300e-01	-16.1915	-127.036556	0.000768	7.676462	2.600856	-0.061303
1408	7.0350e-01	-16.2268	-127.282575	0.000616	6.161371	2.087529	-0.049204
1409	7.0400e-01	-16.2733	-127.460032	0.000444	4.444268	1.505759	-0.035491
1410	7.0450e-01	-16.3022	-127.613289	0.000384	3.838231	1.300428	-0.030652
1411	7.0500e-01	-16.3519	-128.016599	0.001010	10.100608	3.422179	-0.080662
1412	7.0550e-01	-16.3937	-128.145658	0.000323	3.232195	1.095097	-0.025812
1413	7.0600e-01	-16.4370	-128.290850	0.000364	3.636219	1.231984	-0.029038
1414	7.0650e-01	-16.4691	-128.702226	0.001030	10.302620	3.490622	-0.082275
1415	7.0700e-01	-16.5092	-128.920013	0.000545	5.454328	1.847976	-0.043557
1416	7.0750e-01	-16.5509	-129.081337	0.000404	4.040243	1.368871	-0.032265
1417	7.0800e-01	-16.5974	-129.391886	0.000778	7.777468	2.635078	-0.062110
1418	7.0850e-01	-16.6311	-129.706468	0.000788	7.878474	2.669299	-0.062916
1419	7.0900e-01	-16.6728	-129.871825	0.000414	4.141249	1.403093	-0.033071
1420	7.0950e-01	-16.7161	-130.355796	0.001212	12.120730	4.106614	-0.096794
1421	7.1000e-01	-16.7594	-130.444525	0.000222	2.222134	0.752879	-0.017746
1422	7.1050e-01	-16.8011	-130.537286	0.000232	2.323140	0.787101	-0.018552
1423	7.1100e-01	-16.8204	-130.976894	0.001101	11.009663	3.730175	-0.087922
1424	7.1150e-01	-16.8781	-131.154350	0.000444	4.444268	1.505759	-0.035491
1425	7.1200e-01	-16.9150	-131.525395	0.000929	9.292559	3.148404	-0.074209
1426	7.1250e-01	-16.9616	-131.505230	-0.000051	-0.505030	-0.171109	0.004033
1427	7.1300e-01	-16.9872	-131.880308	0.000939	9.393565	3.182626	-0.075016
1428	7.1350e-01	-17.0225	-132.231187	0.000879	8.787529	2.977295	-0.070176
1429	7.1400e-01	-17.0755	-132.473173	0.000606	6.060365	2.053307	-0.048397
1430	7.1450e-01	-17.1188	-132.642563	0.000424	4.242255	1.437315	-0.033878
1431	7.1500e-01	-17.1460	-133.049906	0.001020	10.201614	3.456400	-0.081469
1432	7.1550e-01	-17.1942	-133.356422	0.000768	7.676462	2.600856	-0.061303
1433	7.1600e-01	-17.2439	-133.400786	0.000111	1.111067	0.376440	-0.008873
1434	7.1650e-01	-17.2680	-133.731500	0.000828	8.282499	2.806186	-0.066143
1435	7.1700e-01	-17.3225	-133.779897	0.000121	1.212073	0.410661	-0.009679
1436	7.1750e-01	-17.3530	-134.211439	0.001081	10.807651	3.661731	-0.086308
1437	7.1800e-01	-17.3963	-134.638947	0.001071	10.706644	3.627509	-0.085502
1438	7.1850e-01	-17.4332	-134.679278	0.000101	1.010061	0.342218	-0.008066
1439	7.1900e-01	-17.4813	-134.937396	0.000646	6.464389	2.190194	-0.051624
1440	7.1950e-01	-17.5102	-135.276177	0.000848	8.484511	2.874630	-0.067756
1441	7.2000e-01	-17.5439	-135.586725	0.000778	7.777468	2.635078	-0.062110
1442	7.2050e-01	-17.5888	-135.731917	0.000364	3.636219	1.231984	-0.029038
1443	7.2100e-01	-17.6385	-135.776281	0.000111	1.111067	0.376440	-0.008873
1444	7.2150e-01	-17.6706	-136.155392	0.000949	9.494571	3.216848	-0.075822
1445	7.2200e-01	-17.7236	-136.522404	0.000919	9.191553	3.114183	-0.073402
1446	7.2250e-01	-17.7524	-136.845052	0.000808	8.080486	2.737743	-0.064530
1447	7.2300e-01	-17.7925	-136.865218	0.000051	0.505030	0.171109	-0.004033
1448	7.2350e-01	-17.8294	-137.147535	0.000707	7.070426	2.395525	-0.056463
1449	7.2400e-01	-17.8760	-137.595208	0.001121	11.211675	3.798618	-0.089535
1450	7.2450e-01	-17.9193	-137.740400	0.000364	3.636219	1.231984	-0.029038
1451	7.2500e-01	-17.9449	-137.865426	0.000313	3.131188	1.060875	-0.025005
1452	7.2550e-01	-17.9931	-138.087246	0.000556	5.555334	1.882198	-0.044364
1453	7.2600e-01	-18.0332	-138.502656	0.001040	10.403626	3.524844	-0.083082
1454	7.2650e-01	-18.0797	-138.663980	0.000404	4.040243	1.368871	-0.032265
1455	7.2700e-01	-18.1150	-138.784973	0.000303	3.030182	1.026654	-0.024199
1456	7.2750e-01	-18.1519	-139.196349	0.001030	10.302620	3.490622	-0.082275
1457	7.2800e-01	-18.2000	-139.518996	0.000808	8.080486	2.737743	-0.064530
1458	7.2850e-01	-18.2369	-139.700486	0.000455	4.545274	1.539980	-0.036298
1459	7.2900e-01	-18.2770	-139.934406	0.000586	5.858353	1.984864	-0.046784
1460	7.2950e-01	-18.3107	-140.240921	0.000768	7.676462	2.600856	-0.061303
1461	7.3000e-01	-18.3588	-140.321583	0.000202	2.020122	0.684436	-0.016132
1462	7.3050e-01	-18.4006	-140.688595	0.000919	9.191553	3.114183	-0.073402
1463	7.3100e-01	-18.4342	-141.152401	0.001162	11.615699	3.935505	-0.092761
1464	7.3150e-01	-18.4647	-141.410520	0.000646	6.464389	2.190194	-0.051624
1465	7.3200e-01	-18.5161	-141.592009	0.000455	4.545274	1.539980	-0.036298
1466	7.3250e-01	-18.5562	-142.019518	0.001071	10.706644	3.627509	-0.085502
1467	7.3300e-01	-18.5963	-141.975154	-0.000111	-1.111067	-0.376440	0.008873
1468	7.3350e-01	-18.6300	-142.511556	0.001343	13.433809	4.551498	-0.107280
1469	7.3400e-01	-18.6669	-142.447026	-0.000162	-1.616097	-0.547549	0.012906
1470	7.3450e-01	-18.7134	-142.709177	0.000657	6.565395	2.224416	-0.052430
1471	7.3500e-01	-18.7503	-142.995527	0.000717	7.171432	2.429747	-0.057270
1472	7.3550e-01	-18.8016	-143.164918	0.000424	4.242255	1.437315	-0.033878
1473	7.3600e-01	-18.8305	-143.459334	0.000737	7.373444	2.498190	-0.058883
1474	7.3650e-01	-18.8834	-143.959438	0.001252	12.524754	4.243501	-0.100021
1475	7.3700e-01	-18.9171	-143.987670	0.000071	0.707043	0.239553	-0.005646
1476	7.3750e-01	-18.9572	-144.350649	0.000909	9.090547	3.079961	-0.072596
1477	7.3800e-01	-19.0005	-144.524072	0.000434	4.343261	1.471537	-0.034685
1478	7.3850e-01	-19.0422	-144.616833	0.000232	2.323140	0.787101	-0.018552
1479	7.3900e-01	-19.0695	-145.229864	0.001535	15.352924	5.201711	-0.122606
1480	7.3950e-01	-19.1225	-145.536380	0.000768	7.676462	2.600856	-0.061303
1481	7.4000e-01	-19.1417	-145.721902	0.000465	4.646280	1.574202	-0.037105
1482	7.4050e-01	-19.1834	-145.822730	0.000253	2.525152	0.855545	-0.020165
1483	7.4100e-01	-19.2331	-145.955822	0.000333	3.333201	1.129319	-0.026618
1484	7.4150e-01	-19.2652	-146.435761	0.001202	12.019723	4.072393	-0.095988
1485	7.4200e-01	-19.3085	-146.907633	0.001182	11.817711	4.003949	-0.094375
1486	7.4250e-01	-19.3470	-146.851170	-0.000141	-1.414085	-0.479105	0.011293
1487	7.4300e-01	-19.4000	-147.189950	0.000848	8.484511	2.874630	-0.067756
1488	7.4350e-01	-19.4289	-147.383539	0.000485	4.848292	1.642646	-0.038718
1489	7.4400e-01	-19.4754	-147.605359	0.000556	5.555334	1.882198	-0.044364
1490	7.4450e-01	-19.5107	-147.843312	0.000596	5.959359	2.019085	-0.047591
1491	7.4500e-01	-19.5540	-148.117563	0.000687	6.868413	2.327081	-0.054850
1492	7.4550e-01	-19.5941	-148.230489	0.000283	2.828170	0.958210	-0.022585
1493	7.4600e-01	-19.6246	-148.621700	0.000980	9.797590	3.319513	-0.078242
1494	7.4650e-01	-19.6807	-148.904017	0.000707	7.070426	2.395525	-0.056463
1495	7.4700e-01	-19.7144	-149.230698	0.000818	8.181492	2.771965	-0.065336
1496	7.4750e-01	-19.7545	-149.561412	0.000828	8.282499	2.806186	-0.066143
1497	7.4800e-01	-19.7882	-149.892126	0.000828	8.282499	2.806186	-0.066143
1498	7.4850e-01	-19.8347	-150.021185	0.000323	3.232195	1.095097	-0.025812
1499	7.4900e-01	-19.8748	-150.238973	0.000545	5.454328	1.847976	-0.043557
1500	7.4950e-01	-19.9069	-150.396263	0.000394	3.939237	1.334650	-0.031458
1501	7.5000e-01	-19.9502	-150.771342	0.000939	9.393565	3.182626	-0.075016
1502	7.5050e-01	-19.9583	-150.759242	-0.000030	-0.303018	-0.102665	0.002420
1503	7.5100e-01	-19.9358	-150.920566	-0.000404	-4.040243	-1.368871	-0.032265
1504	7.5150e-01	-19.8989	-150.706812	0.000535	5.353322	1.813755	0.042751
1505	7.5200e-01	-19.8604	-150.702779	0.000010	0.101006	0.034222	0.000807
1506	7.5250e-01	-19.8203	-150.517256	0.000465	4.646280	1.574202	0.037105
1507	7.5300e-01	-19.7738	-150.456760	0.000152	1.515091	0.513327	0.012099
1508	7.5350e-01	-19.7449	-150.259138	0.000495	4.949298	1.676868	0.039524
1509	7.5400e-01	-19.7016	-150.105880	0.000384	3.838231	1.300428	0.030652
1510	7.5450e-01	-19.6567	-149.936490	0.000424	4.242255	1.437315	0.033878
1511	7.5500e-01	-19.6166	-149.867928	0.000172	1.717103	0.581770	0.013713
1512	7.5550e-01	-19.5797	-149.646107	0.000556	5.555334	1.882198	0.044364
1513	7.5600e-01	-19.5428	-149.629975	0.000040	0.404024	0.136887	0.003226
1514	7.5650e-01	-19.4978	-149.492849	0.000343	3.434207	1.163541	0.027425
1515	7.5700e-01	-19.4577	-149.464618	0.000071	0.707043	0.239553	0.005646
1516	7.5750e-01	-19.4192	-148.976613	0.001222	12.221736	4.140836	0.097601
1517	7.5800e-01	-19.3823	-148.887885	0.000222	2.222134	0.752879	0.017746
1518	7.5850e-01	-19.3390	-148.464409	0.001061	10.605638	3.593288	0.084695
1519	7.5900e-01	-19.3005	-148.520873	-0.000141	-1.414085	-0.479105	-0.011293
1520	7.5950e-01	-19.2588	-148.573303	-0.000131	-1.313079	-0.444883	-0.010486
1521	7.6000e-01	-19.2235	-148.355516	0.000545	5.454328	1.847976	0.043557
1522	7.6050e-01	-19.1818	-148.343416	0.000030	0.303018	0.102665	0.002420
1523	7.6100e-01	-19.1417	-148.073199	0.000677	6.767407	2.292860	0.054044
1524	7.6150e-01	-19.1032	-147.758617	0.000788	7.878474	2.669299	0.062916
1525	7.6200e-01	-19.0519	-147.609392	0.000374	3.737225	1.266206	0.029845
1526	7.6250e-01	-19.0166	-147.302877	0.000768	7.676462	2.600856	0.061303
1527	7.6300e-01	-18.9749	-147.234314	0.000172	1.717103	0.581770	0.013713
1528	7.6350e-01	-18.9332	-147.137520	0.000242	2.424146	0.821323	0.019359
1529	7.6400e-01	-18.9091	-146.863269	0.000687	6.868413	2.327081	0.054850
1530	7.6450e-01	-18.8674	-146.605151	0.000646	6.464389	2.190194	0.051624
1531	7.6500e-01	-18.8193	-146.455926	0.000374	3.737225	1.266206	0.029845
1532	7.6550e-01	-18.7872	-146.387363	0.000172	1.717103	0.581770	0.013713
1533	7.6600e-01	-18.7374	-146.274437	0.000283	2.828170	0.958210	0.022585
1534	7.6650e-01	-18.7070	-146.125212	0.000374	3.737225	1.266206	0.029845
1535	7.6700e-01	-18.6636	-146.020351	0.000263	2.626158	0.889766	0.020972
1536	7.6750e-01	-18.6139	-145.500082	0.001303	13.029784	4.414610	0.104054
1537	7.6800e-01	-18.5818	-145.391188	0.000273	2.727164	0.923988	0.021779
1538	7.6850e-01	-18.5417	-145.350857	0.000101	1.010061	0.342218	0.008066
1539	7.6900e-01	-18.5080	-145.133070	0.000545	5.454328	1.847976	0.043557
1540	7.6950e-01	-18.4663	-144.870918	0.000657	6.565395	2.224416	0.052430
1541	7.7000e-01	-18.4182	-144.947547	-0.000192	-1.919116	-0.650214	-0.015326
1542	7.7050e-01	-18.3765	-144.632966	0.000788	7.878474	2.669299	0.062916
1543	7.7100e-01	-18.3412	-144.318384	0.000788	7.878474	2.669299	0.062916
1544	7.7150e-01	-18.2979	-144.140927	0.000444	4.444268	1.505759	0.035491
1545	7.7200e-01	-18.2578	-143.979604	0.000404	4.040243	1.368871	0.032265
1546	7.7250e-01	-18.2209	-143.923140	0.000141	1.414085	0.479105	0.011293
1547	7.7300e-01	-18.1760	-143.669055	0.000636	6.363383	2.155973	0.050817
1548	7.7350e-01	-18.1391	-143.467400	0.000505	5.050304	1.711089	0.040331
1549	7.7400e-01	-18.1038	-143.289944	0.000444	4.444268	1.505759	0.035491
1550	7.7450e-01	-18.0524	-143.342374	-0.000131	-1.313079	-0.444883	-0.010486
1551	7.7500e-01	-18.0220	-142.866468	0.001192	11.918717	4.038171	0.095181
1552	7.7550e-01	-17.9834	-142.805972	0.000152	1.515091	0.513327	0.012099
1553	7.7600e-01	-17.9385	-142.559953	0.000616	6.161371	2.087529	0.049204
1554	7.7650e-01	-17.9064	-142.277636	0.000707	7.070426	2.395525	0.056463
1555	7.7700e-01	-17.8663	-142.160676	0.000293	2.929176	0.992432	0.023392
1556	7.7750e-01	-17.8278	-142.120345	0.000101	1.010061	0.342218	0.008066
1557	7.7800e-01	-17.7829	-142.063882	0.000141	1.414085	0.479105	0.011293
1558	7.7850e-01	-17.7492	-141.487149	0.001444	14.443869	4.893715	0.115347
1559	7.7900e-01	-17.6963	-141.325825	0.000404	4.040243	1.368871	0.032265
1560	7.7950e-01	-17.6626	-141.337924	-0.000030	-0.303018	-0.102665	-0.002420
1561	7.8000e-01	-17.6209	-141.168534	0.000424	4.242255	1.437315	0.033878
1562	7.8050e-01	-17.5840	-141.027375	0.000354	3.535213	1.197763	0.028232
1563	7.8100e-01	-17.5423	-140.724893	0.000758	7.575456	2.566634	0.060496
1564	7.8150e-01	-17.4990	-140.547437	0.000444	4.444268	1.505759	0.035491
1565	7.8200e-01	-17.4653	-140.285285	0.000657	6.565395	2.224416	0.052430
1566	7.8250e-01	-17.4156	-140.031200	0.000636	6.363383	2.155973	0.050817
1567	7.8300e-01	-17.3963	-139.740817	0.000727	7.272438	2.463969	0.058077
1568	7.8350e-01	-17.3434	-139.817446	-0.000192	-1.919116	-0.650214	-0.015326
1569	7.8400e-01	-17.3097	-139.773082	0.000111	1.111067	0.376440	0.008873
1570	7.8450e-01	-17.2631	-139.438335	0.000838	8.383505	2.840408	0.066949
1571	7.8500e-01	-17.2230	-139.277011	0.000404	4.040243	1.368871	0.032265
1572	7.8550e-01	-17.1797	-139.087455	0.000475	4.747286	1.608424	0.037911
1573	7.8600e-01	-17.1476	-138.845469	0.000606	6.060365	2.053307	0.048397
1574	7.8650e-01	-17.1091	-138.845469	0.000000	0.000000	0.000000	0.000000
1575	7.8700e-01	-17.0578	-138.393762	0.001131	11.312681	3.832840	0.090341
1576	7.8750e-01	-17.0033	-138.099346	0.000737	7.373444	2.498190	0.058883
1577	7.8800e-01	-16.9744	-137.994485	0.000263	2.626158	0.889766	0.020972
1578	7.8850e-01	-16.9327	-137.712168	0.000707	7.070426	2.395525	0.056463
1579	7.8900e-01	-16.9086	-137.639573	0.000182	1.818109	0.615992	0.014519
1580	7.8950e-01	-16.8573	-137.381454	0.000646	6.464389	2.190194	0.051624
1581	7.9000e-01	-16.8188	-137.312892	0.000172	1.717103	0.581770	0.013713
1582	7.9050e-01	-16.7883	-136.853118	0.001151	11.514693	3.901284	0.091955
1583	7.9100e-01	-16.7338	-136.724059	0.000323	3.232195	1.095097	0.025812
1584	7.9150e-01	-16.6985	-136.510305	0.000535	5.353322	1.813755	0.042751
1585	7.9200e-01	-16.6696	-136.357047	0.000384	3.838231	1.300428	0.030652
1586	7.9250e-01	-16.6231	-136.171525	0.000465	4.646280	1.574202	0.037105
1587	7.9300e-01	-16.5749	-135.998101	0.000434	4.343261	1.471537	0.034685
1588	7.9350e-01	-16.5477	-135.639156	0.000899	8.989541	3.045739	0.071789
1589	7.9400e-01	-16.5011	-135.554461	0.000212	2.121128	0.718658	0.016939
1590	7.9450e-01	-16.4642	-135.316508	0.000596	5.959359	2.019085	0.047591
1591	7.9500e-01	-16.4193	-135.256011	0.000152	1.515091	0.513327	0.012099
1592	7.9550e-01	-16.3888	-134.925297	0.000828	8.282499	2.806186	0.066143
1593	7.9600e-01	-16.3343	-134.735742	0.000475	4.747286	1.608424	0.037911
1594	7.9650e-01	-16.3006	-134.751874	-0.000040	-0.404024	-0.136887	-0.003226
1595	7.9700e-01	-16.2573	-134.409061	0.000859	8.585517	2.908852	0.068563
1596	7.9750e-01	-16.2140	-134.058181	0.000879	8.787529	2.977295	0.070176
1597	7.9800e-01	-16.1867	-133.848460	0.000525	5.252316	1.779533	0.041944
1598	7.9850e-01	-16.1402	-133.497580	0.000879	8.787529	2.977295	0.070176
1599	7.9900e-01	-16.0969	-133.501613	-0.000010	-0.101006	-0.034222	-0.000807
1600	7.9950e-01	-16.0600	-133.461282	0.000101	1.010061	0.342218	0.008066
1601	8.0000e-01	-16.0167	-133.086204	0.000939	9.393565	3.182626	0.075016
1602	8.0050e-01	-15.9766	-133.017642	0.000172	1.717103	0.581770	0.013713
1603	8.0100e-01	-15.9477	-132.545769	0.001182	11.817711	4.003949	0.094375
1604	8.0150e-01	-15.8931	-132.219088	0.000818	8.181492	2.771965	0.065336
1605	8.0200e-01	-15.8546	-132.186823	0.000081	0.808049	0.273774	0.006453
1606	8.0250e-01	-15.8242	-132.041632	0.000364	3.636219	1.231984	0.029038
1607	8.0300e-01	-15.7792	-131.799646	0.000606	6.060365	2.053307	0.048397
1608	8.0350e-01	-15.7375	-131.646388	0.000384	3.838231	1.300428	0.030652
1609	8.0400e-01	-15.6990	-131.428601	0.000545	5.454328	1.847976	0.043557
1610	8.0450e-01	-15.6589	-131.081754	0.000869	8.686523	2.943074	0.069369
1611	8.0500e-01	-15.6156	-130.872033	0.000525	5.252316	1.779533	0.041944
1612	8.0550e-01	-15.5803	-130.642146	0.000576	5.757347	1.950642	0.045977
1613	8.0600e-01	-15.5466	-130.319499	0.000808	8.080486	2.737743	0.064530
1614	8.0650e-01	-15.5033	-130.283201	0.000091	0.909055	0.307996	0.007260
1615	8.0700e-01	-15.4648	-130.230770	0.000131	1.313079	0.444883	0.010486
1616	8.0750e-01	-15.4151	-129.996851	0.000586	5.858353	1.984864	0.046784
1617	8.0800e-01	-15.3798	-129.484647	0.001283	12.827772	4.346167	0.102441
1618	8.0850e-01	-15.3429	-129.347522	0.000343	3.434207	1.163541	0.027425
1619	8.0900e-01	-15.2932	-129.161999	0.000465	4.646280	1.574202	0.037105
1620	8.0950e-01	-15.2627	-128.835318	0.000818	8.181492	2.771965	0.065336
1621	8.1000e-01	-15.2226	-128.758689	0.000192	1.919116	0.650214	0.015326
1622	8.1050e-01	-15.1825	-128.460240	0.000747	7.474450	2.532412	0.059690
1623	8.1100e-01	-15.1359	-128.202122	0.000646	6.464389	2.190194	0.051624
1624	8.1150e-01	-15.0958	-128.105327	0.000242	2.424146	0.821323	0.019359
1625	8.1200e-01	-15.0557	-127.919805	0.000465	4.646280	1.574202	0.037105
1626	8.1250e-01	-15.0220	-127.633455	0.000717	7.171432	2.429747	0.057270
1627	8.1300e-01	-14.9787	-127.379370	0.000636	6.363383	2.155973	0.050817
1628	8.1350e-01	-14.9450	-127.193847	0.000465	4.646280	1.574202	0.037105
1629	8.1400e-01	-14.9017	-126.980093	0.000535	5.353322	1.813755	0.042751
1630	8.1450e-01	-14.8616	-126.810703	0.000424	4.242255	1.437315	0.033878
1631	8.1500e-01	-14.8183	-126.463856	0.000869	8.686523	2.943074	0.069369
1632	8.1550e-01	-14.7734	-126.326731	0.000343	3.434207	1.163541	0.027425
1633	8.1600e-01	-14.7413	-126.290433	0.000091	0.909055	0.307996	0.007260
1634	8.1650e-01	-14.6884	-125.883090	0.001020	10.201614	3.456400	0.081469
1635	8.1700e-01	-14.6643	-125.580608	0.000758	7.575456	2.566634	0.060496
1636	8.1750e-01	-14.6242	-125.459615	0.000303	3.030182	1.026654	0.024199
1637	8.1800e-01	-14.5680	-125.391052	0.000172	1.717103	0.581770	0.013713
1638	8.1850e-01	-14.5408	-125.064371	0.000818	8.181492	2.771965	0.065336
1639	8.1900e-01	-14.4991	-124.709458	0.000889	8.888535	3.011517	0.070983
1640	8.1950e-01	-14.4590	-124.560234	0.000374	3.737225	1.266206	0.029845
1641	8.2000e-01	-14.4237	-124.229520	0.000828	8.282499	2.806186	0.066143
1642	8.2050e-01	-14.3884	-124.164990	0.000162	1.616097	0.547549	0.012906
1643	8.2100e-01	-14.3450	-123.894773	0.000677	6.767407	2.292860	0.054044
1644	8.2150e-01	-14.3033	-123.656820	0.000596	5.959359	2.019085	0.047591
1645	8.2200e-01	-14.2536	-123.463231	0.000485	4.848292	1.642646	0.038718
1646	8.2250e-01	-14.2183	-123.108318	0.000889	8.888535	3.011517	0.070983
1647	8.2300e-01	-14.1830	-122.975226	0.000333	3.333201	1.129319	0.026618
1648	8.2350e-01	-14.1477	-122.813902	0.000404	4.040243	1.368871	0.032265
1649	8.2400e-01	-14.1012	-122.692909	0.000303	3.030182	1.026654	0.024199
1650	8.2450e-01	-14.0531	-122.434791	0.000646	6.464389	2.190194	0.051624
1651	8.2500e-01	-14.0178	-122.313798	0.000303	3.030182	1.026654	0.024199
1652	8.2550e-01	-13.9793	-122.071812	0.000606	6.060365	2.053307	0.048397
1653	8.2600e-01	-13.9392	-121.700767	0.000929	9.292559	3.148404	0.074209
1654	8.2650e-01	-13.9007	-121.446682	0.000636	6.363383	2.155973	0.050817
1655	8.2700e-01	-13.8574	-121.011107	0.001091	10.908657	3.695953	0.087115
1656	8.2750e-01	-13.8301	-120.865915	0.000364	3.636219	1.231984	0.029038
1657	8.2800e-01	-13.7755	-120.744923	0.000303	3.030182	1.026654	0.024199
1658	8.2850e-01	-13.7435	-120.446473	0.000747	7.474450	2.532412	0.059690
1659	8.2900e-01	-13.7098	-120.131892	0.000788	7.878474	2.669299	0.062916
1660	8.2950e-01	-13.6633	-119.998799	0.000333	3.333201	1.129319	0.026618
1661	8.3000e-01	-13.6199	-119.906038	0.000232	2.323140	0.787101	0.018552
1662	8.3050e-01	-13.5750	-119.639853	0.000667	6.666401	2.258638	0.053237
1663	8.3100e-01	-13.5461	-119.321239	0.000798	7.979480	2.703521	0.063723
1664	8.3150e-01	-13.4932	-119.014723	0.000768	7.676462	2.600856	0.061303
1665	8.3200e-01	-13.4563	-118.780803	0.000586	5.858353	1.984864	0.046784
1666	8.3250e-01	-13.4210	-118.647711	0.000333	3.333201	1.129319	0.026618
1667	8.3300e-01	-13.3809	-118.365394	0.000707	7.070426	2.395525	0.056463
1668	8.3350e-01	-13.3344	-118.091144	0.000687	6.868413	2.327081	0.054850
1669	8.3400e-01	-13.3039	-117.768496	0.000808	8.080486	2.737743	0.064530
1670	8.3450e-01	-13.2510	-117.699933	0.000172	1.717103	0.581770	0.013713
1671	8.3500e-01	-13.2269	-117.562808	0.000343	3.434207	1.163541	0.027425
1672	8.3550e-01	-13.1804	-117.300656	0.000657	6.565395	2.224416	0.052430
1673	8.3600e-01	-13.1339	-116.816684	0.001212	12.120730	4.106614	0.096794
1674	8.3650e-01	-13.0970	-116.675526	0.000354	3.535213	1.197763	0.028232
1675	8.3700e-01	-13.0745	-116.425474	0.000626	6.262377	2.121751	0.050010
1676	8.3750e-01	-13.0216	-116.211720	0.000535	5.353322	1.813755	0.042751
1677	8.3800e-01	-12.9831	-116.050396	0.000404	4.040243	1.368871	0.032265
1678	8.3850e-01	-12.9381	-116.074594	-0.000061	-0.606036	-0.205331	-0.004840
1679	8.3900e-01	-12.8932	-115.453497	0.001555	15.554936	5.270155	0.124219
1680	8.3950e-01	-12.8579	-115.187313	0.000667	6.666401	2.258638	0.053237
1681	8.4000e-01	-12.8162	-115.058253	0.000323	3.232195	1.095097	0.025812
1682	8.4050e-01	-12.7841	-114.896930	0.000404	4.040243	1.368871	0.032265
1683	8.4100e-01	-12.7424	-114.598480	0.000747	7.474450	2.532412	0.059690
1684	8.4150e-01	-12.6975	-114.372627	0.000566	5.656340	1.916420	0.045171
1685	8.4200e-01	-12.6654	-114.146773	0.000566	5.656340	1.916420	0.045171
1686	8.4250e-01	-12.6221	-113.997549	0.000374	3.737225	1.266206	0.029845
1687	8.4300e-01	-12.5884	-113.699099	0.000747	7.474450	2.532412	0.059690
1688	8.4350e-01	-12.5483	-113.332087	0.000919	9.191553	3.114183	0.073402
1689	8.4400e-01	-12.4986	-113.203028	0.000323	3.232195	1.095097	0.025812
1690	8.4450e-01	-12.4633	-112.928777	0.000687	6.868413	2.327081	0.054850
1691	8.4500e-01	-12.4264	-112.795685	0.000333	3.333201	1.129319	0.026618
1692	8.4550e-01	-12.3783	-112.473037	0.000808	8.080486	2.737743	0.064530
1693	8.4600e-01	-12.3510	-112.243151	0.000576	5.757347	1.950642	0.045977
1694	8.4650e-01	-12.2916	-112.122158	0.000303	3.030182	1.026654	0.024199
1695	8.4700e-01	-12.2628	-111.900337	0.000556	5.555334	1.882198	0.044364
1696	8.4750e-01	-12.2226	-111.480895	0.001050	10.504632	3.559066	0.083888
1697	8.4800e-01	-12.1874	-111.206644	0.000687	6.868413	2.327081	0.054850
1698	8.4850e-01	-12.1344	-111.049353	0.000394	3.939237	1.334650	0.031458
1699	8.4900e-01	-12.1104	-110.888030	0.000404	4.040243	1.368871	0.032265
1700	8.4950e-01	-12.0558	-110.525051	0.000909	9.090547	3.079961	0.072596
1701	8.5000e-01	-12.0157	-110.234668	0.000727	7.272438	2.463969	0.058077
1702	8.5050e-01	-11.9804	-109.903953	0.000828	8.282499	2.806186	0.066143
1703	8.5100e-01	-11.9499	-109.960417	-0.000141	-1.414085	-0.479105	-0.011293
1704	8.5150e-01	-11.9066	-109.428048	0.001333	13.332803	4.517276	0.106474
1705	8.5200e-01	-11.8681	-109.282856	0.000364	3.636219	1.231984	0.029038
1706	8.5250e-01	-11.8296	-108.992473	0.000727	7.272438	2.463969	0.058077
1707	8.5300e-01	-11.7799	-108.859381	0.000333	3.333201	1.129319	0.026618
1708	8.5350e-01	-11.7478	-108.645627	0.000535	5.353322	1.813755	0.042751
1709	8.5400e-01	-11.6981	-108.274582	0.000929	9.292559	3.148404	0.074209
1710	8.5450e-01	-11.6596	-107.976132	0.000747	7.474450	2.532412	0.059690
1711	8.5500e-01	-11.6243	-107.802709	0.000434	4.343261	1.471537	0.034685
1712	8.5550e-01	-11.5745	-107.568789	0.000586	5.858353	1.984864	0.046784
1713	8.5600e-01	-11.5409	-107.221943	0.000869	8.686523	2.943074	0.069369
1714	8.5650e-01	-11.4991	-106.975924	0.000616	6.161371	2.087529	0.049204
1715	8.5700e-01	-11.4655	-106.709739	0.000667	6.666401	2.258638	0.053237
1716	8.5750e-01	-11.4253	-106.451621	0.000646	6.464389	2.190194	0.051624
1717	8.5800e-01	-11.3836	-106.362893	0.000222	2.222134	0.752879	0.017746
1718	8.5850e-01	-11.3467	-105.971682	0.000980	9.797590	3.319513	0.078242
1719	8.5900e-01	-11.3050	-105.503843	0.001172	11.716705	3.969727	0.093568
1720	8.5950e-01	-11.2649	-105.471578	0.000081	0.808049	0.273774	0.006453
1721	8.6000e-01	-11.2200	-105.185228	0.000717	7.171432	2.429747	0.057270
1722	8.6050e-01	-11.1847	-105.027937	0.000394	3.939237	1.334650	0.031458
1723	8.6100e-01	-11.1430	-104.765786	0.000657	6.565395	2.224416	0.052430
1724	8.6150e-01	-11.1013	-104.624627	0.000354	3.535213	1.197763	0.028232
1725	8.6200e-01	-11.0548	-104.358443	0.000667	6.666401	2.258638	0.053237
1726	8.6250e-01	-11.0259	-103.943034	0.001040	10.403626	3.524844	0.083082
1727	8.6300e-01	-10.9713	-103.688949	0.000636	6.363383	2.155973	0.050817
1728	8.6350e-01	-10.9345	-103.434863	0.000636	6.363383	2.155973	0.050817
1729	8.6400e-01	-10.8976	-103.362268	0.000182	1.818109	0.615992	0.014519
1730	8.6450e-01	-10.8655	-103.132381	0.000576	5.757347	1.950642	0.045977
1731	8.6500e-01	-10.8189	-102.761336	0.000929	9.292559	3.148404	0.074209
1732	8.6550e-01	-10.7724	-102.571780	0.000475	4.747286	1.608424	0.037911
1733	8.6600e-01	-10.7419	-102.309629	0.000657	6.565395	2.224416	0.052430
1734	8.6650e-01	-10.7018	-101.950683	0.000899	8.989541	3.045739	0.071789
1735	8.6700e-01	-10.6681	-101.797425	0.000384	3.838231	1.300428	0.030652
1736	8.6750e-01	-10.6216	-101.426380	0.000929	9.292559	3.148404	0.074209
1737	8.6800e-01	-10.5863	-101.152129	0.000687	6.868413	2.327081	0.054850
1738	8.6850e-01	-10.5446	-101.039203	0.000283	2.828170	0.958210	0.022585
1739	8.6900e-01	-10.5077	-100.712522	0.000818	8.181492	2.771965	0.065336
1740	8.6950e-01	-10.4692	-100.470536	0.000606	6.060365	2.053307	0.048397
1741	8.7000e-01	-10.4195	-100.341477	0.000323	3.232195	1.095097	0.025812
1742	8.7050e-01	-10.3746	-100.216451	0.000313	3.131188	1.060875	0.025005
1743	8.7100e-01	-10.3345	-99.813141	0.001010	10.100608	3.422179	0.080662
1744	8.7150e-01	-10.3040	-99.470327	0.000859	8.585517	2.908852	0.068563
1745	8.7200e-01	-10.2655	-99.300937	0.000424	4.242255	1.437315	0.033878
1746	8.7250e-01	-10.2174	-99.010554	0.000727	7.272438	2.463969	0.058077
1747	8.7300e-01	-10.1805	-98.780668	0.000576	5.757347	1.950642	0.045977
1748	8.7350e-01	-10.1371	-98.627410	0.000384	3.838231	1.300428	0.030652
1749	8.7400e-01	-10.0922	-98.224100	0.001010	10.100608	3.422179	0.080662
1750	8.7450e-01	-10.0682	-97.857088	0.000919	9.191553	3.114183	0.073402
1751	8.7500e-01	-10.0184	-97.510241	0.000869	8.686523	2.943074	0.069369
1752	8.7550e-01	-9.9751	-97.119031	0.000980	9.797590	3.319513	0.078242
1753	8.7600e-01	-9.9414	-97.070634	0.000121	1.212073	0.410661	0.009679
1754	8.7650e-01	-9.8981	-96.877045	0.000485	4.848292	1.642646	0.038718
1755	8.7700e-01	-9.8660	-96.469702	0.001020	10.201614	3.456400	0.081469
1756	8.7750e-01	-9.8259	-96.163187	0.000768	7.676462	2.600856	0.061303
1757	8.7800e-01	-9.7778	-95.743744	0.001050	10.504632	3.559066	0.083888
1758	8.7850e-01	-9.7345	-95.626784	0.000293	2.929176	0.992432	0.023392
1759	8.7900e-01	-9.6928	-95.687281	-0.000152	-1.515091	-0.513327	-0.012099
1760	8.7950e-01	-9.6591	-95.207342	0.001202	12.019723	4.072393	0.095988
1761	8.8000e-01	-9.6206	-95.062151	0.000364	3.636219	1.231984	0.029038
1762	8.8050e-01	-9.5789	-94.735470	0.000818	8.181492	2.771965	0.065336
1763	8.8100e-01	-9.5372	-94.263597	0.001182	11.817711	4.003949	0.094375
1764	8.8150e-01	-9.5003	-94.166803	0.000242	2.424146	0.821323	0.019359
1765	8.8200e-01	-9.4618	-93.957082	0.000525	5.252316	1.779533	0.041944
1766	8.8250e-01	-9.4152	-93.707029	0.000626	6.262377	2.121751	0.050010
1767	8.8300e-01	-9.3864	-93.477143	0.000576	5.757347	1.950642	0.045977
1768	8.8350e-01	-9.3479	-93.013337	0.001162	11.615699	3.935505	0.092761
1769	8.8400e-01	-9.2933	-92.698755	0.000788	7.878474	2.669299	0.062916
1770	8.8450e-01	-9.2548	-92.626159	0.000182	1.818109	0.615992	0.014519
1771	8.8500e-01	-9.2275	-92.291412	0.000838	8.383505	2.840408	0.066949
1772	8.8550e-01	-9.1826	-92.150253	0.000354	3.535213	1.197763	0.028232
1773	8.8600e-01	-9.1457	-91.722745	0.001071	10.706644	3.627509	0.085502
1774	8.8650e-01	-9.0976	-91.545289	0.000444	4.444268	1.505759	0.035491
1775	8.8700e-01	-9.0687	-91.198442	0.000869	8.686523	2.943074	0.069369
1776	8.8750e-01	-9.0222	-90.904026	0.000737	7.373444	2.498190	0.058883
1777	8.8800e-01	-8.9789	-90.831430	0.000182	1.818109	0.615992	0.014519
1778	8.8850e-01	-8.9420	-90.557179	0.000687	6.868413	2.327081	0.054850
1779	8.8900e-01	-8.9019	-90.266796	0.000727	7.272438	2.463969	0.058077
1780	8.8950e-01	-8.8634	-89.899784	0.000919	9.191553	3.114183	0.073402
1781	8.9000e-01	-8.8233	-89.552938	0.000869	8.686523	2.943074	0.069369
1782	8.9050e-01	-8.7719	-89.246422	0.000768	7.676462	2.600856	0.061303
1783	8.9100e-01	-8.7383	-89.198025	0.000121	1.212073	0.410661	0.009679
1784	8.9150e-01	-8.6998	-88.891510	0.000768	7.676462	2.600856	0.061303
1785	8.9200e-01	-8.6548	-88.375273	0.001293	12.928778	4.380389	0.103247
1786	8.9250e-01	-8.6083	-88.109089	0.000667	6.666401	2.258638	0.053237
1787	8.9300e-01	-8.5778	-87.992129	0.000293	2.929176	0.992432	0.023392
1788	8.9350e-01	-8.5409	-87.774341	0.000545	5.454328	1.847976	0.043557
1789	8.9400e-01	-8.5089	-87.346833	0.001071	10.706644	3.627509	0.085502
1790	8.9450e-01	-8.4559	-87.104847	0.000606	6.060365	2.053307	0.048397
1791	8.9500e-01	-8.4142	-87.092748	0.000030	0.303018	0.102665	0.002420
1792	8.9550e-01	-8.3789	-86.641041	0.001131	11.312681	3.832840	0.090341
1793	8.9600e-01	-8.3292	-86.245797	0.000990	9.898596	3.353735	0.079049
1794	8.9650e-01	-8.2987	-86.068341	0.000444	4.444268	1.505759	0.035491
1795	8.9700e-01	-8.2602	-85.806189	0.000657	6.565395	2.224416	0.052430
1796	8.9750e-01	-8.2249	-85.507740	0.000747	7.474450	2.532412	0.059690
1797	8.9800e-01	-8.1816	-85.185092	0.000808	8.080486	2.737743	0.064530
1798	8.9850e-01	-8.1383	-84.931007	0.000636	6.363383	2.155973	0.050817
1799	8.9900e-01	-8.0998	-84.434936	0.001242	12.423748	4.209280	0.099214
1800	8.9950e-01	-8.0516	-84.309910	0.000313	3.131188	1.060875	0.025005
1801	9.0000e-01	-8.0228	-84.148586	0.000404	4.040243	1.368871	0.032265
1802	9.0050e-01	-7.9795	-83.817872	0.000828	8.282499	2.806186	0.066143
1803	9.0100e-01	-7.9361	-83.313734	0.001263	12.625760	4.277723	0.100827
1804	9.0150e-01	-7.9008	-83.249205	0.000162	1.616097	0.547549	0.012906
1805	9.0200e-01	-7.8607	-82.890259	0.000899	8.989541	3.045739	0.071789
1806	9.0250e-01	-7.8190	-82.567611	0.000808	8.080486	2.737743	0.064530
1807	9.0300e-01	-7.7789	-82.418386	0.000374	3.737225	1.266206	0.029845
1808	9.0350e-01	-7.7436	-82.083639	0.000838	8.383505	2.840408	0.066949
1809	9.0400e-01	-7.6939	-81.821488	0.000657	6.565395	2.224416	0.052430
1810	9.0450e-01	-7.6586	-81.458509	0.000909	9.090547	3.079961	0.072596
1811	9.0500e-01	-7.6185	-81.426244	0.000081	0.808049	0.273774	0.006453
1812	9.0550e-01	-7.5704	-81.212490	0.000535	5.353322	1.813755	0.042751
1813	9.0600e-01	-7.5351	-80.744651	0.001172	11.716705	3.969727	0.093568
1814	9.0650e-01	-7.4950	-80.454267	0.000727	7.272438	2.463969	0.058077
1815	9.0700e-01	-7.4565	-80.188083	0.000667	6.666401	2.258638	0.053237
1816	9.0750e-01	-7.4116	-80.034825	0.000384	3.838231	1.300428	0.030652
1817	9.0800e-01	-7.3875	-79.736376	0.000747	7.474450	2.532412	0.059690
1818	9.0850e-01	-7.3378	-79.357265	0.000949	9.494571	3.216848	0.075822
1819	9.0900e-01	-7.3057	-79.066882	0.000727	7.272438	2.463969	0.058077
1820	9.0950e-01	-7.2624	-78.869260	0.000495	4.949298	1.676868	0.039524
1821	9.1000e-01	-7.2094	-78.478049	0.000980	9.797590	3.319513	0.078242
1822	9.1050e-01	-7.1757	-78.405453	0.000182	1.818109	0.615992	0.014519
1823	9.1100e-01	-7.1372	-78.062640	0.000859	8.585517	2.908852	0.068563
1824	9.1150e-01	-7.0955	-77.542370	0.001303	13.029784	4.414610	0.104054
1825	9.1200e-01	-7.0602	-77.393146	0.000374	3.737225	1.266206	0.029845
1826	9.1250e-01	-7.0169	-77.074531	0.000798	7.979480	2.703521	0.063723
1827	9.1300e-01	-6.9848	-76.638956	0.001091	10.908657	3.695953	0.087115
1828	9.1350e-01	-6.9431	-76.211448	0.001071	10.706644	3.627509	0.085502
1829	9.1400e-01	-6.9046	-76.191282	0.000051	0.505030	0.171109	0.004033
1830	9.1450e-01	-6.8453	-76.159017	0.000081	0.808049	0.273774	0.006453
1831	9.1500e-01	-6.8180	-75.771840	0.000970	9.696584	3.285291	0.077435
1832	9.1550e-01	-6.7827	-75.429027	0.000859	8.585517	2.908852	0.068563
1833	9.1600e-01	-6.7426	-75.005551	0.001061	10.605638	3.593288	0.084695
1834	9.1650e-01	-6.6993	-74.791797	0.000535	5.353322	1.813755	0.042751
1835	9.1700e-01	-6.6592	-74.323958	0.001172	11.716705	3.969727	0.093568
1836	9.1750e-01	-6.6287	-73.948879	0.000939	9.393565	3.182626	0.075016
1837	9.1800e-01	-6.5822	-73.783522	0.000414	4.141249	1.403093	0.033071
1838	9.1850e-01	-6.5453	-73.485073	0.000747	7.474450	2.532412	0.059690
1839	9.1900e-01	-6.4955	-73.142260	0.000859	8.585517	2.908852	0.068563
1840	9.1950e-01	-6.4618	-72.541328	0.001505	15.049906	5.099046	0.120186
1841	9.2000e-01	-6.4298	-72.400170	0.000354	3.535213	1.197763	0.028232
1842	9.2050e-01	-6.3752	-72.460666	-0.000152	-1.515091	-0.513327	-0.012099
1843	9.2100e-01	-6.3415	-72.105753	0.000889	8.888535	3.011517	0.070983
1844	9.2150e-01	-6.3062	-71.875867	0.000576	5.757347	1.950642	0.045977
1845	9.2200e-01	-6.2629	-71.529020	0.000869	8.686523	2.943074	0.069369
1846	9.2250e-01	-6.2196	-71.081346	0.001121	11.211675	3.798618	0.089535
1847	9.2300e-01	-6.1827	-70.750632	0.000828	8.282499	2.806186	0.066143
1848	9.2350e-01	-6.1458	-70.617540	0.000333	3.333201	1.129319	0.026618
1849	9.2400e-01	-6.1041	-70.250528	0.000919	9.191553	3.114183	0.073402
1850	9.2450e-01	-6.0640	-69.879483	0.000929	9.292559	3.148404	0.074209
1851	9.2500e-01	-6.0287	-69.714126	0.000414	4.141249	1.403093	0.033071
1852	9.2550e-01	-5.9806	-69.504405	0.000525	5.252316	1.779533	0.041944
1853	9.2600e-01	-5.9421	-69.133360	0.000929	9.292559	3.148404	0.074209
1854	9.2650e-01	-5.9084	-68.818778	0.000788	7.878474	2.669299	0.062916
1855	9.2700e-01	-5.8635	-68.508229	0.000778	7.777468	2.635078	0.062110
1856	9.2750e-01	-5.8218	-68.310608	0.000495	4.949298	1.676868	0.039524
1857	9.2800e-01	-5.7784	-67.899232	0.001030	10.302620	3.490622	0.082275
1858	9.2850e-01	-5.7319	-67.883099	0.000040	0.404024	0.136887	0.003226
1859	9.2900e-01	-5.7079	-67.354763	0.001323	13.231796	4.483054	0.105667
1860	9.2950e-01	-5.6662	-66.874824	0.001202	12.019723	4.072393	0.095988
1861	9.3000e-01	-5.6341	-66.709467	0.000414	4.141249	1.403093	0.033071
1862	9.3050e-01	-5.5779	-66.475548	0.000586	5.858353	1.984864	0.046784
1863	9.3100e-01	-5.5410	-66.205330	0.000677	6.767407	2.292860	0.054044
1864	9.3150e-01	-5.5073	-65.838318	0.000919	9.191553	3.114183	0.073402
1865	9.3200e-01	-5.4576	-65.463240	0.000939	9.393565	3.182626	0.075016
1866	9.3250e-01	-5.4159	-65.273684	0.000475	4.747286	1.608424	0.037911
1867	9.3300e-01	-5.3806	-64.809878	0.001162	11.615699	3.935505	0.092761
1868	9.3350e-01	-5.3437	-64.402535	0.001020	10.201614	3.456400	0.081469
1869	9.3400e-01	-5.3132	-64.333972	0.000172	1.717103	0.581770	0.013713
1870	9.3450e-01	-5.2699	-63.845967	0.001222	12.221736	4.140836	0.097601
1871	9.3500e-01	-5.2266	-63.648346	0.000495	4.949298	1.676868	0.039524
1872	9.3550e-01	-5.1817	-63.587849	0.000152	1.515091	0.513327	0.012099
1873	9.3600e-01	-5.1351	-62.982884	0.001515	15.150912	5.133268	0.120993
1874	9.3650e-01	-5.1095	-62.752998	0.000576	5.757347	1.950642	0.045977
1875	9.3700e-01	-5.0549	-62.478747	0.000687	6.868413	2.327081	0.054850
1876	9.3750e-01	-5.0229	-62.144000	0.000838	8.383505	2.840408	0.066949
1877	9.3800e-01	-4.9795	-62.059305	0.000212	2.121128	0.718658	0.016939
1878	9.3850e-01	-4.9314	-61.506770	0.001384	13.837833	4.688385	0.110507
1879	9.3900e-01	-4.8945	-61.063129	0.001111	11.110669	3.764396	0.088728
1880	9.3950e-01	-4.8721	-60.869541	0.000485	4.848292	1.642646	0.038718
1881	9.4000e-01	-4.8255	-60.615455	0.000636	6.363383	2.155973	0.050817
1882	9.4050e-01	-4.7694	-60.401701	0.000535	5.353322	1.813755	0.042751
1883	9.4100e-01	-4.7357	-60.135517	0.000667	6.666401	2.258638	0.053237
1884	9.4150e-01	-4.7084	-59.740273	0.000990	9.898596	3.353735	0.079049
1885	9.4200e-01	-4.6667	-59.215970	0.001313	13.130790	4.448832	0.104861
1886	9.4250e-01	-4.6218	-59.224036	-0.000020	-0.202012	-0.068444	-0.001613
1887	9.4300e-01	-4.5817	-58.824760	0.001000	9.999602	3.387957	0.079855
1888	9.4350e-01	-4.5480	-58.506145	0.000798	7.979480	2.703521	0.063723
1889	9.4400e-01	-4.4967	-58.155265	0.000879	8.787529	2.977295	0.070176
1890	9.4450e-01	-4.4646	-57.844717	0.000778	7.777468	2.635078	0.062110
1891	9.4500e-01	-4.4213	-57.550301	0.000737	7.373444	2.498190	0.058883
1892	9.4550e-01	-4.3844	-56.989700	0.001404	14.039845	4.756828	0.112120
1893	9.4600e-01	-4.3282	-56.788045	0.000505	5.050304	1.711089	0.040331
1894	9.4650e-01	-4.3058	-56.441198	0.000869	8.686523	2.943074	0.069369
1895	9.4700e-01	-4.2641	-56.231477	0.000525	5.252316	1.779533	0.041944
1896	9.4750e-01	-4.2191	-55.916896	0.000788	7.878474	2.669299	0.062916
1897	9.4800e-01	-4.1838	-55.505520	0.001030	10.302620	3.490622	0.082275
1898	9.4850e-01	-4.1485	-55.069945	0.001091	10.908657	3.695953	0.087115
1899	9.4900e-01	-4.1052	-54.957018	0.000283	2.828170	0.958210	0.022585
1900	9.4950e-01	-4.0571	-54.723098	0.000586	5.858353	1.984864	0.046784
1901	9.5000e-01	-4.0266	-54.352053	0.000929	9.292559	3.148404	0.074209
1902	9.5050e-01	-3.9849	-53.791453	0.001404	14.039845	4.756828	0.112120
1903	9.5100e-01	-3.9432	-53.803552	-0.000030	-0.303018	-0.102665	-0.002420
1904	9.5150e-01	-3.9047	-53.376043	0.001071	10.706644	3.627509	0.085502
1905	9.5200e-01	-3.8646	-52.928370	0.001121	11.211675	3.798618	0.089535
1906	9.5250e-01	-3.8213	-52.670251	0.000646	6.464389	2.190194	0.051624
1907	9.5300e-01	-3.7844	-52.593622	0.000192	1.919116	0.650214	0.015326
1908	9.5350e-01	-3.7443	-52.113684	0.001202	12.019723	4.072393	0.095988
1909	9.5400e-01	-3.7058	-51.553083	0.001404	14.039845	4.756828	0.112120
1910	9.5450e-01	-3.6496	-51.242534	0.000778	7.777468	2.635078	0.062110
1911	9.5500e-01	-3.6272	-51.085243	0.000394	3.939237	1.334650	0.031458
1912	9.5550e-01	-3.5774	-50.815026	0.000677	6.767407	2.292860	0.054044
1913	9.5600e-01	-3.5405	-50.468179	0.000869	8.686523	2.943074	0.069369
1914	9.5650e-01	-3.5101	-50.137465	0.000828	8.282499	2.806186	0.066143
1915	9.5700e-01	-3.4619	-49.879347	0.000646	6.464389	2.190194	0.051624
1916	9.5750e-01	-3.4186	-49.693824	0.000465	4.646280	1.574202	0.037105
1917	9.5800e-01	-3.3785	-49.351011	0.000859	8.585517	2.908852	0.068563
1918	9.5850e-01	-3.3384	-49.008198	0.000859	8.585517	2.908852	0.068563
1919	9.5900e-01	-3.3095	-48.520193	0.001222	12.221736	4.140836	0.097601
1920	9.5950e-01	-3.2566	-48.354836	0.000414	4.141249	1.403093	0.033071
1921	9.6000e-01	-3.2229	-47.753904	0.001505	15.049906	5.099046	0.120186
1922	9.6050e-01	-3.1780	-47.487719	0.000667	6.666401	2.258638	0.053237
1923	9.6100e-01	-3.1427	-47.072310	0.001040	10.403626	3.524844	0.083082
1924	9.6150e-01	-3.1010	-46.886788	0.000465	4.646280	1.574202	0.037105
1925	9.6200e-01	-3.0593	-46.689166	0.000495	4.949298	1.676868	0.039524
1926	9.6250e-01	-3.0144	-46.338286	0.000879	8.787529	2.977295	0.070176
1927	9.6300e-01	-2.9871	-45.854315	0.001212	12.120730	4.106614	0.096794
1928	9.6350e-01	-2.9454	-45.499402	0.000889	8.888535	3.011517	0.070983
1929	9.6400e-01	-2.9085	-45.253383	0.000616	6.161371	2.087529	0.049204
1930	9.6450e-01	-2.8700	-44.979132	0.000687	6.868413	2.327081	0.054850
1931	9.6500e-01	-2.8186	-44.769411	0.000525	5.252316	1.779533	0.041944
1932	9.6550e-01	-2.7721	-44.523392	0.000616	6.161371	2.087529	0.049204
1933	9.6600e-01	-2.7448	-44.112016	0.001030	10.302620	3.490622	0.082275
1934	9.6650e-01	-2.7031	-43.789368	0.000808	8.080486	2.737743	0.064530
1935	9.6700e-01	-2.6694	-43.281198	0.001273	12.726766	4.311945	0.101634
1936	9.6750e-01	-2.6229	-42.833524	0.001121	11.211675	3.798618	0.089535
1937	9.6800e-01	-2.5908	-42.583472	0.000626	6.262377	2.121751	0.050010
1938	9.6850e-01	-2.5459	-42.301155	0.000707	7.070426	2.395525	0.056463
1939	9.6900e-01	-2.5026	-41.998672	0.000758	7.575456	2.566634	0.060496
1940	9.6950e-01	-2.4593	-41.647793	0.000879	8.787529	2.977295	0.070176
1941	9.7000e-01	-2.4208	-41.256582	0.000980	9.797590	3.319513	0.078242
1942	9.7050e-01	-2.3807	-41.369509	-0.000283	-2.828170	-0.958210	-0.022585
1943	9.7100e-01	-2.3438	-40.929901	0.001101	11.009663	3.730175	0.087922
1944	9.7150e-01	-2.3053	-40.324936	0.001515	15.150912	5.133268	0.120993
1945	9.7200e-01	-2.2604	-39.824832	0.001252	12.524754	4.243501	0.100021
1946	9.7250e-01	-2.2251	-39.514284	0.000778	7.777468	2.635078	0.062110
1947	9.7300e-01	-2.1850	-39.498151	0.000040	0.404024	0.136887	0.003226
1948	9.7350e-01	-2.1384	-39.115007	0.000960	9.595578	3.251070	0.076629
1949	9.7400e-01	-2.1064	-38.590704	0.001313	13.130790	4.448832	0.104861
1950	9.7450e-01	-2.0582	-38.501976	0.000222	2.222134	0.752879	0.017746
1951	9.7500e-01	-2.0261	-38.042203	0.001151	11.514693	3.901284	0.091955
1952	9.7550e-01	-1.9828	-37.622760	0.001050	10.504632	3.559066	0.083888
1953	9.7600e-01	-1.9411	-37.300112	0.000808	8.080486	2.737743	0.064530
1954	9.7650e-01	-1.8994	-37.046027	0.000636	6.363383	2.155973	0.050817
1955	9.7700e-01	-1.8657	-36.650784	0.000990	9.898596	3.353735	0.079049
1956	9.7750e-01	-1.8192	-36.388632	0.000657	6.565395	2.224416	0.052430
1957	9.7800e-01	-1.7903	-35.977256	0.001030	10.302620	3.490622	0.082275
1958	9.7850e-01	-1.7438	-35.876429	0.000253	2.525152	0.855545	0.020165
1959	9.7900e-01	-1.7085	-35.303729	0.001434	14.342863	4.859494	0.114540
1960	9.7950e-01	-1.6588	-34.968981	0.000838	8.383505	2.840408	0.066949
1961	9.8000e-01	-1.6267	-34.803624	0.000414	4.141249	1.403093	0.033071
1962	9.8050e-01	-1.5818	-34.476943	0.000818	8.181492	2.771965	0.065336
1963	9.8100e-01	-1.5417	-34.154296	0.000808	8.080486	2.737743	0.064530
1964	9.8150e-01	-1.5016	-33.920376	0.000586	5.858353	1.984864	0.046784
1965	9.8200e-01	-1.4631	-33.339610	0.001454	14.544875	4.927937	0.116153
1966	9.8250e-01	-1.4117	-32.976631	0.000909	9.090547	3.079961	0.072596
1967	9.8300e-01	-1.3796	-32.875803	0.000253	2.525152	0.855545	0.020165
1968	9.8350e-01	-1.3379	-32.250673	0.001566	15.655942	5.304377	0.125026
1969	9.8400e-01	-1.3058	-32.097415	0.000384	3.838231	1.300428	0.030652
1970	9.8450e-01	-1.2497	-31.577146	0.001303	13.029784	4.414610	0.104054
1971	9.8500e-01	-1.2224	-31.226266	0.000879	8.787529	2.977295	0.070176
1972	9.8550e-01	-1.1807	-30.939916	0.000717	7.171432	2.429747	0.057270
1973	9.8600e-01	-1.1438	-30.621301	0.000798	7.979480	2.703521	0.063723
1974	9.8650e-01	-1.0989	-30.488209	0.000333	3.333201	1.129319	0.026618
1975	9.8700e-01	-1.0620	-29.859046	0.001576	15.756948	5.338599	0.125833
1976	9.8750e-01	-1.0283	-29.492034	0.000919	9.191553	3.114183	0.073402
1977	9.8800e-01	-0.9850	-29.197617	0.000737	7.373444	2.498190	0.058883
1978	9.8850e-01	-0.9481	-28.971764	0.000566	5.656340	1.916420	0.045171
1979	9.8900e-01	-0.9064	-28.604752	0.000919	9.191553	3.114183	0.073402
1980	9.8950e-01	-0.8631	-28.370832	0.000586	5.858353	1.984864	0.046784
1981	9.9000e-01	-0.8214	-27.818298	0.001384	13.837833	4.688385	0.110507
1982	9.9050e-01	-0.7764	-27.669073	0.000374	3.737225	1.266206	0.029845
1983	9.9100e-01	-0.7379	-27.499683	0.000424	4.242255	1.437315	0.033878
1984	9.9150e-01	-0.6978	-26.793891	0.001768	17.676064	5.988813	0.141158
1985	9.9200e-01	-0.6609	-26.434945	0.000899	8.989541	3.045739	0.071789
1986	9.9250e-01	-0.6144	-26.184893	0.000626	6.262377	2.121751	0.050010
1987	9.9300e-01	-0.5855	-25.797715	0.000970	9.696584	3.285291	0.077435
1988	9.9350e-01	-0.5374	-25.317776	0.001202	12.019723	4.072393	0.095988
1989	9.9400e-01	-0.5085	-25.152419	0.000414	4.141249	1.403093	0.033071
1990	9.9450e-01	-0.4540	-25.031426	0.000303	3.030182	1.026654	0.024199
1991	9.9500e-01	-0.4315	-24.293369	0.001848	18.484113	6.262587	0.147611
1992	9.9550e-01	-0.3770	-23.926357	0.000919	9.191553	3.114183	0.073402
1993	9.9600e-01	-0.3513	-23.502882	0.001061	10.605638	3.593288	0.084695
1994	9.9650e-01	-0.2952	-23.381889	0.000303	3.030182	1.026654	0.024199
1995	9.9700e-01	-0.2599	-22.998745	0.000960	9.595578	3.251070	0.076629
1996	9.9750e-01	-0.2246	-22.897917	0.000253	2.525152	0.855545	0.020165
1997	9.9800e-01	-0.1797	-22.611567	0.000717	7.171432	2.429747	0.057270
1998	9.9850e-01	-0.1444	-21.990470	0.001555	15.554936	5.270155	0.124219
1999	9.9900e-01	-0.0995	-21.643624	0.000869	8.686523	2.943074	0.069369
2000	9.9950e-01	-0.0626	-21.199983	0.001111	11.110669	3.764396	0.088728
2001	1.0000e+00	-0.0257	-21.066891	0.001111	11.110669	3.764396	0.026618

PMax (uC/cm2):	1.65e+02
Pr (uC/cm2):	1.03e+01
-Pr (uC/cm2):	-6.26e+00
PLoss (uC/cm2):	-6.11e+00
-Vc:	-1.16e+00
C (Max-Eff) (nF):	8.29e-01
K (Eff):	2.81e+03
Vert. (+/-Pr) Shift (uC/cm2):	2.04e+00
Offset (uC/cm2):	1.48e+01

A (Loop Area - uC/cm2·Volts):	-1.19e-01



Hysteresis Version: 5.48.1 - Radiant Technologies, Inc., 1999 - 9/12/24

