»»»»»»»»»»»»»»»»»»»»»»»»»»»»»»»»»»»» Hysteresis ««««««««««««««««««««««««««««««««««««
»»»  Executed Version:	5.48.1
»»»  Vision Version:	5.48.4 (R)
»»»  Vision Compiled:	9/18/24
»»»  Driver Version:	5.47.0
»»»  Windows Version:	Windows 8 or 8.1
»»»  Processor Information:	x86 (AMD or Intel) - 32 Processors
»»»  Tester Name:	PMF21124-494 (100V)
»»»  Tester S/N:	PMF21124-494
»»»  Internal Amp Type:	100V RevK 270k
»»»  Internal Amp S/N:	iAB2-596/K     
»»»  Execution Count:	1
»»»»»»»»»»»»»»»»»»»»»»»»»»»»»»»»»»»»»»»»»»««««««««««««««««««««««««««««««««««««««««««

Stored:	6/18/2025 - 16:57:2
Configured:	06/18/25 09:47:30 AM
Executed:	06/18/25 04:56:25 PM

»»»»»»»»»»»»»»»»»»»»»»»»»»»»»»»»»»» Sample Info ««««««««««««««««««««««««««««««««««««
Sample Name:	
Lot Name:	
Wafer Name:	
Die Row/Column:	0/0
Capacitor Number:	0
Sample Area (cm2):	1.00e-04
Sample Thickness (microns):	3.00e-01

Amplifier:	Internal

»»»»»»»»»»»»»»»»»»»»»»»»»»»»»»»»»»» Tester Info «««««««««««««««««««««««««««««««««««
Tester Name:	PMF21124-494 (100V)
Tester Serial Number:	PMF21124-494
Return Signal Amp. Level:	0.19 [Index: 3]

»»»»»»»»»»»»»»»»»»»»»»»»»»»»»»»» Hysteresis Info ««««««««««««««««««««««««««««««««««
Task Name:	Hyst-554
Volts:	20.00
Field:	666.67 (kV/cm)
DCBias:	0.00
DCField:	0.00 (kV/cm)
Hysteresis Period (ms):	1.00e+00
Preset:	Enabled
Preset Delay (ms):	1.00e+03
Profile:	Standard Bipolar

»»»»»»»»»»»»»»»»»»»»»»»»»»»»»»»»»»»»»» Data «««««««««««««««««««««««««««««««««««««««
Points:	2001

Valid Data

Point	Time (ms)	Drive Voltage	Measured Polarization (uC/cm2)	Capacitance (uF)	Normalized Capacitance (uF/cm2)	Dielectric Constant	Instantaneous Current (mA)
   1	0.0000e+00	0.0193	-8.826436	0.000536	5.357077	1.815027	0.042751
   2	5.0000e-04	0.0305	-8.612682	0.000536	5.357077	1.815027	0.042751
   3	1.0000e-03	0.0642	-8.532020	0.000202	2.021538	0.684916	0.016132
   4	1.5000e-03	0.1043	-8.523954	0.000020	0.202154	0.068492	0.001613
   5	2.0000e-03	0.1299	-8.338431	0.000465	4.649538	1.575306	0.037105
   6	2.5000e-03	0.1668	-8.128710	0.000526	5.256000	1.780781	0.041944
   7	3.0000e-03	0.2086	-7.918989	0.000526	5.256000	1.780781	0.041944
   8	3.5000e-03	0.2503	-7.713301	0.000515	5.154923	1.746535	0.041138
   9	4.0000e-03	0.3000	-7.491481	0.000556	5.559231	1.883518	0.044364
  10	4.5000e-03	0.3337	-7.314024	0.000445	4.447385	1.506815	0.035491
  11	5.0000e-03	0.3738	-7.116402	0.000495	4.952769	1.678044	0.039524
  12	5.5000e-03	0.4107	-6.914748	0.000505	5.053846	1.712289	0.040331
  13	6.0000e-03	0.4572	-6.608232	0.000768	7.681846	2.602680	0.061303
  14	6.5000e-03	0.4989	-6.370279	0.000596	5.963538	2.020502	0.047591
  15	7.0000e-03	0.5406	-6.180724	0.000475	4.750615	1.609552	0.037911
  16	7.5000e-03	0.5679	-6.096029	0.000212	2.122615	0.719162	0.016939
  17	8.0000e-03	0.6192	-5.769348	0.000819	8.187231	2.773909	0.065336
  18	8.5000e-03	0.6577	-5.495097	0.000687	6.873231	2.328714	0.054850
  19	9.0000e-03	0.6978	-5.357971	0.000344	3.436615	1.164357	0.027425
  20	9.5000e-03	0.7331	-5.035324	0.000809	8.086154	2.739663	0.064530
  21	1.0000e-02	0.7668	-4.861900	0.000435	4.346308	1.472569	0.034685
  22	1.0500e-02	0.8182	-4.559418	0.000758	7.580769	2.568434	0.060496
  23	1.1000e-02	0.8583	-4.329531	0.000576	5.761385	1.952010	0.045977
  24	1.1500e-02	0.8936	-4.115777	0.000536	5.357077	1.815027	0.042751
  25	1.2000e-02	0.9272	-3.837493	0.000697	6.974308	2.362959	0.055657
  26	1.2500e-02	0.9722	-3.539044	0.000748	7.479692	2.534188	0.059690
  27	1.3000e-02	1.0091	-3.329323	0.000526	5.256000	1.780781	0.041944
  28	1.3500e-02	1.0604	-3.131701	0.000495	4.952769	1.678044	0.039524
  29	1.4000e-02	1.1021	-2.962311	0.000425	4.245231	1.438323	0.033878
  30	1.4500e-02	1.1310	-2.700160	0.000657	6.570000	2.225976	0.052430
  31	1.5000e-02	1.1727	-2.559001	0.000354	3.537692	1.198603	0.028232
  32	1.5500e-02	1.2112	-2.171824	0.000970	9.703385	3.287596	0.077435
  33	1.6000e-02	1.2625	-2.010500	0.000404	4.043077	1.369832	0.032265
  34	1.6500e-02	1.2946	-1.748348	0.000657	6.570000	2.225976	0.052430
  35	1.7000e-02	1.3363	-1.526528	0.000556	5.559231	1.883518	0.044364
  36	1.7500e-02	1.3764	-1.328906	0.000495	4.952769	1.678044	0.039524
  37	1.8000e-02	1.4230	-1.078854	0.000627	6.266769	2.123239	0.050010
  38	1.8500e-02	1.4566	-0.796537	0.000708	7.075385	2.397205	0.056463
  39	1.9000e-02	1.4951	-0.485988	0.000778	7.782923	2.636926	0.062110
  40	1.9500e-02	1.5401	-0.304499	0.000455	4.548462	1.541060	0.036298
  41	2.0000e-02	1.5770	-0.110910	0.000485	4.851692	1.643798	0.038718
  42	2.0500e-02	1.6106	0.235936	0.000869	8.692615	2.945138	0.069369
  43	2.1000e-02	1.6620	0.385161	0.000374	3.739846	1.267094	0.029845
  44	2.1500e-02	1.6909	0.635213	0.000627	6.266769	2.123239	0.050010
  45	2.2000e-02	1.7374	0.945762	0.000778	7.782923	2.636926	0.062110
  46	2.2500e-02	1.7791	1.244211	0.000748	7.479692	2.534188	0.059690
  47	2.3000e-02	1.8048	1.441833	0.000495	4.952769	1.678044	0.039524
  48	2.3500e-02	1.8481	1.683819	0.000606	6.064615	2.054747	0.048397
  49	2.4000e-02	1.8930	1.909672	0.000566	5.660308	1.917764	0.045171
  50	2.4500e-02	1.9443	2.175857	0.000667	6.671077	2.260222	0.053237
  51	2.5000e-02	1.9764	2.349280	0.000435	4.346308	1.472569	0.034685
  52	2.5500e-02	2.0133	2.611431	0.000657	6.570000	2.225976	0.052430
  53	2.6000e-02	2.0518	2.954245	0.000859	8.591538	2.910892	0.068563
  54	2.6500e-02	2.0951	3.163966	0.000526	5.256000	1.780781	0.041944
  55	2.7000e-02	2.1304	3.426117	0.000657	6.570000	2.225976	0.052430
  56	2.7500e-02	2.1769	3.668103	0.000606	6.064615	2.054747	0.048397
  57	2.8000e-02	2.2074	3.853626	0.000465	4.649538	1.575306	0.037105
  58	2.8500e-02	2.2620	4.083512	0.000576	5.761385	1.952010	0.045977
  59	2.9000e-02	2.3021	4.394061	0.000778	7.782923	2.636926	0.062110
  60	2.9500e-02	2.3310	4.611848	0.000546	5.458154	1.849273	0.043557
  61	3.0000e-02	2.3759	4.902231	0.000728	7.277538	2.465697	0.058077
  62	3.0500e-02	2.4192	5.168416	0.000667	6.671077	2.260222	0.053237
  63	3.1000e-02	2.4545	5.499130	0.000829	8.288308	2.808155	0.066143
  64	3.1500e-02	2.5026	5.672553	0.000435	4.346308	1.472569	0.034685
  65	3.2000e-02	2.5267	5.918572	0.000617	6.165692	2.088993	0.049204
  66	3.2500e-02	2.5732	6.180724	0.000657	6.570000	2.225976	0.052430
  67	3.3000e-02	2.6117	6.450941	0.000677	6.772154	2.294468	0.054044
  68	3.3500e-02	2.6662	6.721159	0.000677	6.772154	2.294468	0.054044
  69	3.4000e-02	2.6935	7.023641	0.000758	7.580769	2.568434	0.060496
  70	3.4500e-02	2.7336	7.188998	0.000414	4.144154	1.404077	0.033071
  71	3.5000e-02	2.7753	7.426951	0.000596	5.963538	2.020502	0.047591
  72	3.5500e-02	2.8267	7.725400	0.000748	7.479692	2.534188	0.059690
  73	3.6000e-02	2.8620	7.898824	0.000435	4.346308	1.472569	0.034685
  74	3.6500e-02	2.8988	8.225505	0.000819	8.187231	2.773909	0.065336
  75	3.7000e-02	2.9341	8.552186	0.000819	8.187231	2.773909	0.065336
  76	3.7500e-02	2.9903	8.834502	0.000708	7.075385	2.397205	0.056463
  77	3.8000e-02	3.0160	9.060356	0.000566	5.660308	1.917764	0.045171
  78	3.8500e-02	3.0496	9.395103	0.000839	8.389385	2.842400	0.066949
  79	3.9000e-02	3.0946	9.600791	0.000515	5.154923	1.746535	0.041138
  80	3.9500e-02	3.1331	9.826645	0.000566	5.660308	1.917764	0.045171
  81	4.0000e-02	3.1748	10.080730	0.000637	6.367846	2.157485	0.050817
  82	4.0500e-02	3.2165	10.282385	0.000505	5.053846	1.712289	0.040331
  83	4.1000e-02	3.2630	10.689728	0.001021	10.208769	3.458825	0.081469
  84	4.1500e-02	3.2903	10.907515	0.000546	5.458154	1.849273	0.043557
  85	4.2000e-02	3.3304	11.214031	0.000768	7.681846	2.602680	0.061303
  86	4.2500e-02	3.3737	11.355189	0.000354	3.537692	1.198603	0.028232
  87	4.3000e-02	3.4138	11.714135	0.000900	8.995846	3.047875	0.071789
  88	4.3500e-02	3.4571	11.980319	0.000667	6.671077	2.260222	0.053237
  89	4.4000e-02	3.5020	12.254570	0.000687	6.873231	2.328714	0.054850
  90	4.4500e-02	3.5341	12.508655	0.000637	6.367846	2.157485	0.050817
  91	4.5000e-02	3.5774	12.770807	0.000657	6.570000	2.225976	0.052430
  92	4.5500e-02	3.6240	13.012793	0.000606	6.064615	2.054747	0.048397
  93	4.6000e-02	3.6577	13.347540	0.000839	8.389385	2.842400	0.066949
  94	4.6500e-02	3.6929	13.516930	0.000425	4.245231	1.438323	0.033878
  95	4.7000e-02	3.7427	13.746817	0.000576	5.761385	1.952010	0.045977
  96	4.7500e-02	3.7699	14.113829	0.000920	9.198000	3.116367	0.073402
  97	4.8000e-02	3.8197	14.351781	0.000596	5.963538	2.020502	0.047591
  98	4.8500e-02	3.8550	14.581668	0.000576	5.761385	1.952010	0.045977
  99	4.9000e-02	3.8871	14.859952	0.000697	6.974308	2.362959	0.055657
 100	4.9500e-02	3.9368	15.190666	0.000829	8.288308	2.808155	0.066143
 101	5.0000e-02	3.9753	15.420553	0.000576	5.761385	1.952010	0.045977
 102	5.0500e-02	4.0138	15.763366	0.000859	8.591538	2.910892	0.068563
 103	5.1000e-02	4.0587	15.989219	0.000566	5.660308	1.917764	0.045171
 104	5.1500e-02	4.0940	16.239272	0.000627	6.266769	2.123239	0.050010
 105	5.2000e-02	4.1309	16.505456	0.000667	6.671077	2.260222	0.053237
 106	5.2500e-02	4.1758	16.779707	0.000687	6.873231	2.328714	0.054850
 107	5.3000e-02	4.2111	17.138653	0.000900	8.995846	3.047875	0.071789
 108	5.3500e-02	4.2592	17.360473	0.000556	5.559231	1.883518	0.044364
 109	5.4000e-02	4.2913	17.715386	0.000889	8.894769	3.013629	0.070983
 110	5.4500e-02	4.3427	17.908974	0.000485	4.851692	1.643798	0.038718
 111	5.5000e-02	4.3747	18.138861	0.000576	5.761385	1.952010	0.045977
 112	5.5500e-02	4.4181	18.392946	0.000637	6.367846	2.157485	0.050817
 113	5.6000e-02	4.4534	18.667197	0.000687	6.873231	2.328714	0.054850
 114	5.6500e-02	4.4967	19.042275	0.000940	9.400154	3.184858	0.075016
 115	5.7000e-02	4.5384	19.308460	0.000667	6.671077	2.260222	0.053237
 116	5.7500e-02	4.5801	19.574644	0.000667	6.671077	2.260222	0.053237
 117	5.8000e-02	4.6170	19.933590	0.000900	8.995846	3.047875	0.071789
 118	5.8500e-02	4.6475	20.143311	0.000526	5.256000	1.780781	0.041944
 119	5.9000e-02	4.7004	20.429661	0.000718	7.176462	2.431451	0.057270
 120	5.9500e-02	4.7357	20.691812	0.000657	6.570000	2.225976	0.052430
 121	6.0000e-02	4.7774	20.905567	0.000536	5.357077	1.815027	0.042751
 122	6.0500e-02	4.8175	21.320976	0.001041	10.410923	3.527316	0.083082
 123	6.1000e-02	4.8560	21.579094	0.000647	6.468923	2.191730	0.051624
 124	6.1500e-02	4.9025	21.788815	0.000526	5.256000	1.780781	0.041944
 125	6.2000e-02	4.9346	22.099364	0.000778	7.782923	2.636926	0.062110
 126	6.2500e-02	4.9747	22.422012	0.000809	8.086154	2.739663	0.064530
 127	6.3000e-02	5.0116	22.680130	0.000647	6.468923	2.191730	0.051624
 128	6.3500e-02	5.0517	22.934215	0.000637	6.367846	2.157485	0.050817
 129	6.4000e-02	5.0950	23.329459	0.000991	9.905538	3.356087	0.079049
 130	6.4500e-02	5.1287	23.555312	0.000566	5.660308	1.917764	0.045171
 131	6.5000e-02	5.1769	23.793265	0.000596	5.963538	2.020502	0.047591
 132	6.5500e-02	5.2122	24.144145	0.000879	8.793692	2.979384	0.070176
 133	6.6000e-02	5.2507	24.349833	0.000515	5.154923	1.746535	0.041138
 134	6.6500e-02	5.2908	24.708779	0.000900	8.995846	3.047875	0.071789
 135	6.7000e-02	5.3228	24.983029	0.000687	6.873231	2.328714	0.054850
 136	6.7500e-02	5.3790	25.148386	0.000414	4.144154	1.404077	0.033071
 137	6.8000e-02	5.4207	25.462968	0.000788	7.884000	2.671172	0.062916
 138	6.8500e-02	5.4528	25.777550	0.000788	7.884000	2.671172	0.062916
 139	6.9000e-02	5.4929	26.140529	0.000910	9.096923	3.082121	0.072596
 140	6.9500e-02	5.5394	26.422845	0.000708	7.075385	2.397205	0.056463
 141	7.0000e-02	5.5795	26.721295	0.000748	7.479692	2.534188	0.059690
 142	7.0500e-02	5.6116	27.003612	0.000708	7.075385	2.397205	0.056463
 143	7.1000e-02	5.6517	27.221399	0.000546	5.458154	1.849273	0.043557
 144	7.1500e-02	5.6918	27.475484	0.000637	6.367846	2.157485	0.050817
 145	7.2000e-02	5.7319	27.866695	0.000980	9.804462	3.321841	0.078242
 146	7.2500e-02	5.7817	28.056250	0.000475	4.750615	1.609552	0.037911
 147	7.3000e-02	5.8089	28.354700	0.000748	7.479692	2.534188	0.059690
 148	7.3500e-02	5.8571	28.641050	0.000718	7.176462	2.431451	0.057270
 149	7.4000e-02	5.8956	28.955631	0.000788	7.884000	2.671172	0.062916
 150	7.4500e-02	5.9405	29.250048	0.000738	7.378615	2.499943	0.058883
 151	7.5000e-02	5.9806	29.504133	0.000637	6.367846	2.157485	0.050817
 152	7.5500e-02	6.0111	29.879211	0.000940	9.400154	3.184858	0.075016
 153	7.6000e-02	6.0608	30.149429	0.000677	6.772154	2.294468	0.054044
 154	7.6500e-02	6.0993	30.516441	0.000920	9.198000	3.116367	0.073402
 155	7.7000e-02	6.1362	30.774559	0.000647	6.468923	2.191730	0.051624
 156	7.7500e-02	6.1747	31.081074	0.000768	7.681846	2.602680	0.061303
 157	7.8000e-02	6.2180	31.290796	0.000526	5.256000	1.780781	0.041944
 158	7.8500e-02	6.2565	31.496484	0.000515	5.154923	1.746535	0.041138
 159	7.9000e-02	6.2918	31.936091	0.001102	11.017385	3.732791	0.087922
 160	7.9500e-02	6.3415	32.250673	0.000788	7.884000	2.671172	0.062916
 161	8.0000e-02	6.3768	32.460394	0.000526	5.256000	1.780781	0.041944
 162	8.0500e-02	6.4153	32.686248	0.000566	5.660308	1.917764	0.045171
 163	8.1000e-02	6.4538	33.210550	0.001314	13.140000	4.451953	0.104861
 164	8.1500e-02	6.5036	33.416238	0.000515	5.154923	1.746535	0.041138
 165	8.2000e-02	6.5308	33.617893	0.000505	5.053846	1.712289	0.040331
 166	8.2500e-02	6.5709	34.013137	0.000991	9.905538	3.356087	0.079049
 167	8.3000e-02	6.6110	34.271255	0.000647	6.468923	2.191730	0.051624
 168	8.3500e-02	6.6528	34.670532	0.001001	10.006615	3.390333	0.079855
 169	8.4000e-02	6.6961	34.916551	0.000617	6.165692	2.088993	0.049204
 170	8.4500e-02	6.7265	35.170636	0.000637	6.367846	2.157485	0.050817
 171	8.5000e-02	6.7779	35.545715	0.000940	9.400154	3.184858	0.075016
 172	8.5500e-02	6.8148	35.811899	0.000667	6.671077	2.260222	0.053237
 173	8.6000e-02	6.8597	35.981289	0.000425	4.245231	1.438323	0.033878
 174	8.6500e-02	6.8918	36.360400	0.000950	9.501231	3.219104	0.075822
 175	8.7000e-02	6.9367	36.634651	0.000687	6.873231	2.328714	0.054850
 176	8.7500e-02	6.9640	37.029895	0.000991	9.905538	3.356087	0.079049
 177	8.8000e-02	7.0137	37.283980	0.000637	6.367846	2.157485	0.050817
 178	8.8500e-02	7.0458	37.477569	0.000485	4.851692	1.643798	0.038718
 179	8.9000e-02	7.0955	37.913143	0.001092	10.916308	3.698545	0.087115
 180	8.9500e-02	7.1340	38.183361	0.000677	6.772154	2.294468	0.054044
 181	9.0000e-02	7.1709	38.372917	0.000475	4.750615	1.609552	0.037911
 182	9.0500e-02	7.2110	38.760094	0.000970	9.703385	3.287596	0.077435
 183	9.1000e-02	7.2479	39.070643	0.000778	7.782923	2.636926	0.062110
 184	9.1500e-02	7.2944	39.401357	0.000829	8.288308	2.808155	0.066143
 185	9.2000e-02	7.3346	39.639310	0.000596	5.963538	2.020502	0.047591
 186	9.2500e-02	7.3779	39.998255	0.000900	8.995846	3.047875	0.071789
 187	9.3000e-02	7.4116	40.240241	0.000606	6.064615	2.054747	0.048397
 188	9.3500e-02	7.4517	40.530624	0.000728	7.277538	2.465697	0.058077
 189	9.4000e-02	7.4886	40.816974	0.000718	7.176462	2.431451	0.057270
 190	9.4500e-02	7.5319	41.171887	0.000889	8.894769	3.013629	0.070983
 191	9.5000e-02	7.5704	41.490502	0.000799	7.985077	2.705417	0.063723
 192	9.5500e-02	7.6265	41.716355	0.000566	5.660308	1.917764	0.045171
 193	9.6000e-02	7.6522	42.043036	0.000819	8.187231	2.773909	0.065336
 194	9.6500e-02	7.6987	42.353585	0.000778	7.782923	2.636926	0.062110
 195	9.7000e-02	7.7404	42.712531	0.000900	8.995846	3.047875	0.071789
 196	9.7500e-02	7.7805	43.027112	0.000788	7.884000	2.671172	0.062916
 197	9.8000e-02	7.8142	43.353793	0.000819	8.187231	2.773909	0.065336
 198	9.8500e-02	7.8607	43.672408	0.000799	7.985077	2.705417	0.063723
 199	9.9000e-02	7.8944	43.982957	0.000778	7.782923	2.636926	0.062110
 200	9.9500e-02	7.9297	44.224943	0.000606	6.064615	2.054747	0.048397
 201	1.0000e-01	7.9762	44.483061	0.000647	6.468923	2.191730	0.051624
 202	1.0050e-01	8.0099	44.781510	0.000748	7.479692	2.534188	0.059690
 203	1.0100e-01	8.0565	45.027529	0.000617	6.165692	2.088993	0.049204
 204	1.0150e-01	8.0918	45.342111	0.000788	7.884000	2.671172	0.062916
 205	1.0200e-01	8.1303	45.801884	0.001152	11.522769	3.904020	0.091955
 206	1.0250e-01	8.1720	46.003539	0.000505	5.053846	1.712289	0.040331
 207	1.0300e-01	8.2121	46.289889	0.000718	7.176462	2.431451	0.057270
 208	1.0350e-01	8.2538	46.677067	0.000970	9.703385	3.287596	0.077435
 209	1.0400e-01	8.2923	46.963417	0.000718	7.176462	2.431451	0.057270
 210	1.0450e-01	8.3340	47.249767	0.000718	7.176462	2.431451	0.057270
 211	1.0500e-01	8.3757	47.524017	0.000687	6.873231	2.328714	0.054850
 212	1.0550e-01	8.4174	47.834566	0.000778	7.782923	2.636926	0.062110
 213	1.0600e-01	8.4527	48.262074	0.001071	10.714154	3.630054	0.085502
 214	1.0650e-01	8.4960	48.584722	0.000809	8.086154	2.739663	0.064530
 215	1.0700e-01	8.5393	48.733947	0.000374	3.739846	1.267094	0.029845
 216	1.0750e-01	8.5714	49.012231	0.000697	6.974308	2.362959	0.055657
 217	1.0800e-01	8.6083	49.451839	0.001102	11.017385	3.732791	0.087922
 218	1.0850e-01	8.6548	49.722056	0.000677	6.772154	2.294468	0.054044
 219	1.0900e-01	8.6933	49.923711	0.000505	5.053846	1.712289	0.040331
 220	1.0950e-01	8.7350	50.302822	0.000950	9.501231	3.219104	0.075822
 221	1.1000e-01	8.7735	50.681934	0.000950	9.501231	3.219104	0.075822
 222	1.1050e-01	8.8056	50.952151	0.000677	6.772154	2.294468	0.054044
 223	1.1100e-01	8.8538	51.234468	0.000708	7.075385	2.397205	0.056463
 224	1.1150e-01	8.8955	51.641811	0.001021	10.208769	3.458825	0.081469
 225	1.1200e-01	8.9340	51.928161	0.000718	7.176462	2.431451	0.057270
 226	1.1250e-01	8.9661	52.226610	0.000748	7.479692	2.534188	0.059690
 227	1.1300e-01	9.0206	52.581523	0.000889	8.894769	3.013629	0.070983
 228	1.1350e-01	9.0575	52.831575	0.000627	6.266769	2.123239	0.050010
 229	1.1400e-01	9.0992	53.134058	0.000758	7.580769	2.568434	0.060496
 230	1.1450e-01	9.1377	53.396209	0.000657	6.570000	2.225976	0.052430
 231	1.1500e-01	9.1794	53.702724	0.000768	7.681846	2.602680	0.061303
 232	1.1550e-01	9.2147	54.021339	0.000799	7.985077	2.705417	0.063723
 233	1.1600e-01	9.2532	54.303656	0.000708	7.075385	2.397205	0.056463
 234	1.1650e-01	9.2933	54.642436	0.000849	8.490462	2.876646	0.067756
 235	1.1700e-01	9.3270	54.920720	0.000697	6.974308	2.362959	0.055657
 236	1.1750e-01	9.3751	55.219170	0.000748	7.479692	2.534188	0.059690
 237	1.1800e-01	9.4152	55.533751	0.000788	7.884000	2.671172	0.062916
 238	1.1850e-01	9.4634	55.864465	0.000829	8.288308	2.808155	0.066143
 239	1.1900e-01	9.4987	56.195179	0.000829	8.288308	2.808155	0.066143
 240	1.1950e-01	9.5404	56.550092	0.000889	8.894769	3.013629	0.070983
 241	1.2000e-01	9.5853	56.840475	0.000728	7.277538	2.465697	0.058077
 242	1.2050e-01	9.6174	57.118759	0.000697	6.974308	2.362959	0.055657
 243	1.2100e-01	9.6639	57.393010	0.000687	6.873231	2.328714	0.054850
 244	1.2150e-01	9.7008	57.711624	0.000799	7.985077	2.705417	0.063723
 245	1.2200e-01	9.7377	58.038305	0.000819	8.187231	2.773909	0.065336
 246	1.2250e-01	9.7714	58.272225	0.000586	5.862462	1.986256	0.046784
 247	1.2300e-01	9.8099	58.586807	0.000788	7.884000	2.671172	0.062916
 248	1.2350e-01	9.8564	58.925587	0.000849	8.490462	2.876646	0.067756
 249	1.2400e-01	9.8869	59.183705	0.000647	6.468923	2.191730	0.051624
 250	1.2450e-01	9.9334	59.522486	0.000849	8.490462	2.876646	0.067756
 251	1.2500e-01	9.9767	59.881431	0.000900	8.995846	3.047875	0.071789
 252	1.2550e-01	10.0088	60.200046	0.000799	7.985077	2.705417	0.063723
 253	1.2600e-01	10.0650	60.494462	0.000738	7.378615	2.499943	0.058883
 254	1.2650e-01	10.0970	60.849375	0.000889	8.894769	3.013629	0.070983
 255	1.2700e-01	10.1275	61.107493	0.000647	6.468923	2.191730	0.051624
 256	1.2750e-01	10.1692	61.454340	0.000869	8.692615	2.945138	0.069369
 257	1.2800e-01	10.2174	61.724558	0.000677	6.772154	2.294468	0.054044
 258	1.2850e-01	10.2462	61.974610	0.000627	6.266769	2.123239	0.050010
 259	1.2900e-01	10.3008	62.381953	0.001021	10.208769	3.458825	0.081469
 260	1.2950e-01	10.3329	62.640071	0.000647	6.468923	2.191730	0.051624
 261	1.3000e-01	10.3714	62.954653	0.000788	7.884000	2.671172	0.062916
 262	1.3050e-01	10.4115	63.333764	0.000950	9.501231	3.219104	0.075822
 263	1.3100e-01	10.4548	63.531386	0.000495	4.952769	1.678044	0.039524
 264	1.3150e-01	10.5045	63.821769	0.000728	7.277538	2.465697	0.058077
 265	1.3200e-01	10.5318	64.120218	0.000748	7.479692	2.534188	0.059690
 266	1.3250e-01	10.5687	64.535627	0.001041	10.410923	3.527316	0.083082
 267	1.3300e-01	10.6248	64.838110	0.000758	7.580769	2.568434	0.060496
 268	1.3350e-01	10.6537	65.076062	0.000596	5.963538	2.020502	0.047591
 269	1.3400e-01	10.6986	65.451141	0.000940	9.400154	3.184858	0.075016
 270	1.3450e-01	10.7323	65.757656	0.000768	7.681846	2.602680	0.061303
 271	1.3500e-01	10.7756	66.076271	0.000799	7.985077	2.705417	0.063723
 272	1.3550e-01	10.8206	66.415051	0.000849	8.490462	2.876646	0.067756
 273	1.3600e-01	10.8574	66.681236	0.000667	6.671077	2.260222	0.053237
 274	1.3650e-01	10.8927	67.036148	0.000889	8.894769	3.013629	0.070983
 275	1.3700e-01	10.9361	67.326532	0.000728	7.277538	2.465697	0.058077
 276	1.3750e-01	10.9858	67.677411	0.000879	8.793692	2.979384	0.070176
 277	1.3800e-01	11.0147	67.975860	0.000748	7.479692	2.534188	0.059690
 278	1.3850e-01	11.0500	68.270277	0.000738	7.378615	2.499943	0.058883
 279	1.3900e-01	11.0949	68.625189	0.000889	8.894769	3.013629	0.070983
 280	1.3950e-01	11.1318	68.923639	0.000748	7.479692	2.534188	0.059690
 281	1.4000e-01	11.1815	69.258386	0.000839	8.389385	2.842400	0.066949
 282	1.4050e-01	11.2248	69.504405	0.000617	6.165692	2.088993	0.049204
 283	1.4100e-01	11.2569	69.794788	0.000728	7.277538	2.465697	0.058077
 284	1.4150e-01	11.2922	70.161800	0.000920	9.198000	3.116367	0.073402
 285	1.4200e-01	11.3387	70.488481	0.000819	8.187231	2.773909	0.065336
 286	1.4250e-01	11.3756	70.758698	0.000677	6.772154	2.294468	0.054044
 287	1.4300e-01	11.4157	71.032949	0.000687	6.873231	2.328714	0.054850
 288	1.4350e-01	11.4510	71.323332	0.000728	7.277538	2.465697	0.058077
 289	1.4400e-01	11.4911	71.654046	0.000829	8.288308	2.808155	0.066143
 290	1.4450e-01	11.5360	71.964595	0.000778	7.782923	2.636926	0.062110
 291	1.4500e-01	11.5745	72.267077	0.000758	7.580769	2.568434	0.060496
 292	1.4550e-01	11.6243	72.609891	0.000859	8.591538	2.910892	0.068563
 293	1.4600e-01	11.6580	72.851877	0.000606	6.064615	2.054747	0.048397
 294	1.4650e-01	11.6981	73.158392	0.000768	7.681846	2.602680	0.061303
 295	1.4700e-01	11.7350	73.464908	0.000768	7.681846	2.602680	0.061303
 296	1.4750e-01	11.7815	73.823853	0.000900	8.995846	3.047875	0.071789
 297	1.4800e-01	11.8232	74.090038	0.000667	6.671077	2.260222	0.053237
 298	1.4850e-01	11.8617	74.448984	0.000900	8.995846	3.047875	0.071789
 299	1.4900e-01	11.8954	74.743400	0.000738	7.378615	2.499943	0.058883
 300	1.4950e-01	11.9419	75.049915	0.000768	7.681846	2.602680	0.061303
 301	1.5000e-01	11.9756	75.400795	0.000879	8.793692	2.979384	0.070176
 302	1.5050e-01	12.0253	75.671013	0.000677	6.772154	2.294468	0.054044
 303	1.5100e-01	12.0590	75.997694	0.000819	8.187231	2.773909	0.065336
 304	1.5150e-01	12.0991	76.409070	0.001031	10.309846	3.493070	0.082275
 305	1.5200e-01	12.1328	76.667188	0.000647	6.468923	2.191730	0.051624
 306	1.5250e-01	12.1729	76.893041	0.000566	5.660308	1.917764	0.045171
 307	1.5300e-01	12.2194	77.175358	0.000708	7.075385	2.397205	0.056463
 308	1.5350e-01	12.2515	77.493973	0.000799	7.985077	2.705417	0.063723
 309	1.5400e-01	12.3013	77.921482	0.001071	10.714154	3.630054	0.085502
 310	1.5450e-01	12.3398	78.143302	0.000556	5.559231	1.883518	0.044364
 311	1.5500e-01	12.3734	78.348990	0.000515	5.154923	1.746535	0.041138
 312	1.5550e-01	12.4200	78.711969	0.000910	9.096923	3.082121	0.072596
 313	1.5600e-01	12.4537	79.034617	0.000809	8.086154	2.739663	0.064530
 314	1.5650e-01	12.5002	79.365331	0.000829	8.288308	2.808155	0.066143
 315	1.5700e-01	12.5403	79.732343	0.000920	9.198000	3.116367	0.073402
 316	1.5750e-01	12.5788	79.978362	0.000617	6.165692	2.088993	0.049204
 317	1.5800e-01	12.6141	80.329241	0.000879	8.793692	2.979384	0.070176
 318	1.5850e-01	12.6590	80.587360	0.000647	6.468923	2.191730	0.051624
 319	1.5900e-01	12.6975	80.905975	0.000799	7.985077	2.705417	0.063723
 320	1.5950e-01	12.7264	81.107629	0.000505	5.053846	1.712289	0.040331
 321	1.6000e-01	12.7681	81.466575	0.000900	8.995846	3.047875	0.071789
 322	1.6050e-01	12.8210	81.861819	0.000991	9.905538	3.356087	0.079049
 323	1.6100e-01	12.8531	82.200599	0.000849	8.490462	2.876646	0.067756
 324	1.6150e-01	12.8964	82.624075	0.001061	10.613077	3.595808	0.084695
 325	1.6200e-01	12.9365	82.890259	0.000667	6.671077	2.260222	0.053237
 326	1.6250e-01	12.9750	83.152410	0.000657	6.570000	2.225976	0.052430
 327	1.6300e-01	13.0151	83.442794	0.000728	7.277538	2.465697	0.058077
 328	1.6350e-01	13.0569	83.733177	0.000728	7.277538	2.465697	0.058077
 329	1.6400e-01	13.0921	84.027593	0.000738	7.378615	2.499943	0.058883
 330	1.6450e-01	13.1306	84.293777	0.000667	6.671077	2.260222	0.053237
 331	1.6500e-01	13.1659	84.580127	0.000718	7.176462	2.431451	0.057270
 332	1.6550e-01	13.2076	84.926974	0.000869	8.692615	2.945138	0.069369
 333	1.6600e-01	13.2558	85.273820	0.000869	8.692615	2.945138	0.069369
 334	1.6650e-01	13.2959	85.544038	0.000677	6.772154	2.294468	0.054044
 335	1.6700e-01	13.3312	85.846520	0.000758	7.580769	2.568434	0.060496
 336	1.6750e-01	13.3825	86.197400	0.000879	8.793692	2.979384	0.070176
 337	1.6800e-01	13.4130	86.511982	0.000788	7.884000	2.671172	0.062916
 338	1.6850e-01	13.4515	86.786232	0.000687	6.873231	2.328714	0.054850
 339	1.6900e-01	13.4996	87.068549	0.000708	7.075385	2.397205	0.056463
 340	1.6950e-01	13.5349	87.455727	0.000970	9.703385	3.287596	0.077435
 341	1.7000e-01	13.5718	87.798540	0.000859	8.591538	2.910892	0.068563
 342	1.7050e-01	13.6167	88.020360	0.000556	5.559231	1.883518	0.044364
 343	1.7100e-01	13.6504	88.351075	0.000829	8.288308	2.808155	0.066143
 344	1.7150e-01	13.6889	88.649524	0.000748	7.479692	2.534188	0.059690
 345	1.7200e-01	13.7354	88.956039	0.000768	7.681846	2.602680	0.061303
 346	1.7250e-01	13.7675	89.282720	0.000819	8.187231	2.773909	0.065336
 347	1.7300e-01	13.8140	89.589236	0.000768	7.681846	2.602680	0.061303
 348	1.7350e-01	13.8590	89.815089	0.000566	5.660308	1.917764	0.045171
 349	1.7400e-01	13.8894	90.174035	0.000900	8.995846	3.047875	0.071789
 350	1.7450e-01	13.9312	90.508782	0.000839	8.389385	2.842400	0.066949
 351	1.7500e-01	13.9777	90.770934	0.000657	6.570000	2.225976	0.052430
 352	1.7550e-01	14.0178	91.121813	0.000879	8.793692	2.979384	0.070176
 353	1.7600e-01	14.0515	91.379932	0.000647	6.468923	2.191730	0.051624
 354	1.7650e-01	14.0916	91.791308	0.001031	10.309846	3.493070	0.082275
 355	1.7700e-01	14.1269	92.057492	0.000667	6.671077	2.260222	0.053237
 356	1.7750e-01	14.1734	92.347875	0.000728	7.277538	2.465697	0.058077
 357	1.7800e-01	14.2119	92.670523	0.000809	8.086154	2.739663	0.064530
 358	1.7850e-01	14.2424	92.952840	0.000708	7.075385	2.397205	0.056463
 359	1.7900e-01	14.2953	93.275488	0.000809	8.086154	2.739663	0.064530
 360	1.7950e-01	14.3354	93.525540	0.000627	6.266769	2.123239	0.050010
 361	1.8000e-01	14.3755	93.868353	0.000859	8.591538	2.910892	0.068563
 362	1.8050e-01	14.4124	94.146637	0.000697	6.974308	2.362959	0.055657
 363	1.8100e-01	14.4622	94.513649	0.000920	9.198000	3.116367	0.073402
 364	1.8150e-01	14.4975	94.799999	0.000718	7.176462	2.431451	0.057270
 365	1.8200e-01	14.5360	95.130713	0.000829	8.288308	2.808155	0.066143
 366	1.8250e-01	14.5729	95.433196	0.000758	7.580769	2.568434	0.060496
 367	1.8300e-01	14.6146	95.755844	0.000809	8.086154	2.739663	0.064530
 368	1.8350e-01	14.6450	96.082525	0.000819	8.187231	2.773909	0.065336
 369	1.8400e-01	14.6948	96.300312	0.000546	5.458154	1.849273	0.043557
 370	1.8450e-01	14.7349	96.639092	0.000849	8.490462	2.876646	0.067756
 371	1.8500e-01	14.7670	97.010137	0.000930	9.299077	3.150613	0.074209
 372	1.8550e-01	14.8151	97.268256	0.000647	6.468923	2.191730	0.051624
 373	1.8600e-01	14.8504	97.554606	0.000718	7.176462	2.431451	0.057270
 374	1.8650e-01	14.8905	97.897419	0.000859	8.591538	2.910892	0.068563
 375	1.8700e-01	14.9306	98.163603	0.000667	6.671077	2.260222	0.053237
 376	1.8750e-01	14.9723	98.385424	0.000556	5.559231	1.883518	0.044364
 377	1.8800e-01	15.0204	98.732270	0.000869	8.692615	2.945138	0.069369
 378	1.8850e-01	15.0541	99.127514	0.000991	9.905538	3.356087	0.079049
 379	1.8900e-01	15.0814	99.389665	0.000657	6.570000	2.225976	0.052430
 380	1.8950e-01	15.1343	99.748611	0.000900	8.995846	3.047875	0.071789
 381	1.9000e-01	15.1744	99.982531	0.000586	5.862462	1.986256	0.046784
 382	1.9050e-01	15.2210	100.293079	0.000778	7.782923	2.636926	0.062110
 383	1.9100e-01	15.2595	100.547165	0.000637	6.367846	2.157485	0.050817
 384	1.9150e-01	15.3044	100.877879	0.000829	8.288308	2.808155	0.066143
 385	1.9200e-01	15.3429	101.212626	0.000839	8.389385	2.842400	0.066949
 386	1.9250e-01	15.3718	101.535274	0.000809	8.086154	2.739663	0.064530
 387	1.9300e-01	15.4135	101.765160	0.000576	5.761385	1.952010	0.045977
 388	1.9350e-01	15.4520	102.180570	0.001041	10.410923	3.527316	0.083082
 389	1.9400e-01	15.4921	102.470953	0.000728	7.277538	2.465697	0.058077
 390	1.9450e-01	15.5434	102.761336	0.000728	7.277538	2.465697	0.058077
 391	1.9500e-01	15.5739	103.039620	0.000697	6.974308	2.362959	0.055657
 392	1.9550e-01	15.6172	103.334036	0.000738	7.378615	2.499943	0.058883
 393	1.9600e-01	15.6509	103.656684	0.000809	8.086154	2.739663	0.064530
 394	1.9650e-01	15.6926	104.088225	0.001082	10.815231	3.664299	0.086308
 395	1.9700e-01	15.7327	104.366509	0.000697	6.974308	2.362959	0.055657
 396	1.9750e-01	15.7776	104.620594	0.000637	6.367846	2.157485	0.050817
 397	1.9800e-01	15.8161	104.898878	0.000697	6.974308	2.362959	0.055657
 398	1.9850e-01	15.8594	105.169096	0.000677	6.772154	2.294468	0.054044
 399	1.9900e-01	15.8931	105.511909	0.000859	8.591538	2.910892	0.068563
 400	1.9950e-01	15.9348	105.838590	0.000819	8.187231	2.773909	0.065336
 401	2.0000e-01	15.9669	106.137039	0.000748	7.479692	2.534188	0.059690
 402	2.0050e-01	16.0199	106.415323	0.000697	6.974308	2.362959	0.055657
 403	2.0100e-01	16.0552	106.802501	0.000970	9.703385	3.287596	0.077435
 404	2.0150e-01	16.0969	107.024321	0.000556	5.559231	1.883518	0.044364
 405	2.0200e-01	16.1402	107.330837	0.000768	7.681846	2.602680	0.061303
 406	2.0250e-01	16.1723	107.592988	0.000657	6.570000	2.225976	0.052430
 407	2.0300e-01	16.2172	107.875305	0.000708	7.075385	2.397205	0.056463
 408	2.0350e-01	16.2605	108.201986	0.000819	8.187231	2.773909	0.065336
 409	2.0400e-01	16.2974	108.532700	0.000829	8.288308	2.808155	0.066143
 410	2.0450e-01	16.3359	108.859381	0.000819	8.187231	2.773909	0.065336
 411	2.0500e-01	16.3632	109.117499	0.000647	6.468923	2.191730	0.051624
 412	2.0550e-01	16.4081	109.448213	0.000829	8.288308	2.808155	0.066143
 413	2.0600e-01	16.4466	109.827325	0.000950	9.501231	3.219104	0.075822
 414	2.0650e-01	16.4867	110.105608	0.000697	6.974308	2.362959	0.055657
 415	2.0700e-01	16.5380	110.367760	0.000657	6.570000	2.225976	0.052430
 416	2.0750e-01	16.5701	110.698474	0.000829	8.288308	2.808155	0.066143
 417	2.0800e-01	16.6166	110.908195	0.000526	5.256000	1.780781	0.041944
 418	2.0850e-01	16.6584	111.255041	0.000869	8.692615	2.945138	0.069369
 419	2.0900e-01	16.6969	111.626087	0.000930	9.299077	3.150613	0.074209
 420	2.0950e-01	16.7354	111.892271	0.000667	6.671077	2.260222	0.053237
 421	2.1000e-01	16.7787	112.130224	0.000596	5.963538	2.020502	0.047591
 422	2.1050e-01	16.8204	112.469004	0.000849	8.490462	2.876646	0.067756
 423	2.1100e-01	16.8605	112.771487	0.000758	7.580769	2.568434	0.060496
 424	2.1150e-01	16.8942	113.106234	0.000839	8.389385	2.842400	0.066949
 425	2.1200e-01	16.9279	113.396617	0.000728	7.277538	2.465697	0.058077
 426	2.1250e-01	16.9744	113.703132	0.000768	7.681846	2.602680	0.061303
 427	2.1300e-01	17.0097	114.045946	0.000859	8.591538	2.910892	0.068563
 428	2.1350e-01	17.0594	114.275832	0.000576	5.761385	1.952010	0.045977
 429	2.1400e-01	17.0979	114.626712	0.000879	8.793692	2.979384	0.070176
 430	2.1450e-01	17.1332	114.989691	0.000910	9.096923	3.082121	0.072596
 431	2.1500e-01	17.1781	115.203445	0.000536	5.357077	1.815027	0.042751
 432	2.1550e-01	17.2086	115.429299	0.000566	5.660308	1.917764	0.045171
 433	2.1600e-01	17.2664	115.796311	0.000920	9.198000	3.116367	0.073402
 434	2.1650e-01	17.2952	116.127025	0.000829	8.288308	2.808155	0.066143
 435	2.1700e-01	17.3337	116.381110	0.000637	6.367846	2.157485	0.050817
 436	2.1750e-01	17.3770	116.695692	0.000788	7.884000	2.671172	0.062916
 437	2.1800e-01	17.4123	116.990108	0.000738	7.378615	2.499943	0.058883
 438	2.1850e-01	17.4524	117.349053	0.000900	8.995846	3.047875	0.071789
 439	2.1900e-01	17.4942	117.659602	0.000778	7.782923	2.636926	0.062110
 440	2.1950e-01	17.5327	117.877389	0.000546	5.458154	1.849273	0.043557
 441	2.2000e-01	17.5663	118.252468	0.000940	9.400154	3.184858	0.075016
 442	2.2050e-01	17.6209	118.534784	0.000708	7.075385	2.397205	0.056463
 443	2.2100e-01	17.6594	118.817101	0.000708	7.075385	2.397205	0.056463
 444	2.2150e-01	17.6931	119.184113	0.000920	9.198000	3.116367	0.073402
 445	2.2200e-01	17.7332	119.414000	0.000576	5.761385	1.952010	0.045977
 446	2.2250e-01	17.7797	119.704383	0.000728	7.277538	2.465697	0.058077
 447	2.2300e-01	17.8182	120.010899	0.000768	7.681846	2.602680	0.061303
 448	2.2350e-01	17.8471	120.325480	0.000788	7.884000	2.671172	0.062916
 449	2.2400e-01	17.8888	120.700558	0.000940	9.400154	3.184858	0.075016
 450	2.2450e-01	17.9321	120.902213	0.000505	5.053846	1.712289	0.040331
 451	2.2500e-01	17.9754	121.236961	0.000839	8.389385	2.842400	0.066949
 452	2.2550e-01	18.0252	121.575741	0.000849	8.490462	2.876646	0.067756
 453	2.2600e-01	18.0492	121.918554	0.000859	8.591538	2.910892	0.068563
 454	2.2650e-01	18.1038	122.087944	0.000425	4.245231	1.438323	0.033878
 455	2.2700e-01	18.1326	122.346063	0.000647	6.468923	2.191730	0.051624
 456	2.2750e-01	18.1760	122.700975	0.000889	8.894769	3.013629	0.070983
 457	2.2800e-01	18.2096	123.039756	0.000849	8.490462	2.876646	0.067756
 458	2.2850e-01	18.2610	123.346271	0.000768	7.681846	2.602680	0.061303
 459	2.2900e-01	18.2979	123.616489	0.000677	6.772154	2.294468	0.054044
 460	2.2950e-01	18.3396	123.971401	0.000889	8.894769	3.013629	0.070983
 461	2.3000e-01	18.3861	124.189189	0.000546	5.458154	1.849273	0.043557
 462	2.3050e-01	18.4086	124.479572	0.000728	7.277538	2.465697	0.058077
 463	2.3100e-01	18.4663	124.899014	0.001051	10.512000	3.561562	0.083888
 464	2.3150e-01	18.4904	125.141000	0.000606	6.064615	2.054747	0.048397
 465	2.3200e-01	18.5321	125.508012	0.000920	9.198000	3.116367	0.073402
 466	2.3250e-01	18.5770	125.794362	0.000718	7.176462	2.431451	0.057270
 467	2.3300e-01	18.6155	125.967785	0.000435	4.346308	1.472569	0.034685
 468	2.3350e-01	18.6540	126.322698	0.000889	8.894769	3.013629	0.070983
 469	2.3400e-01	18.6973	126.641313	0.000799	7.985077	2.705417	0.063723
 470	2.3450e-01	18.7214	126.976060	0.000839	8.389385	2.842400	0.066949
 471	2.3500e-01	18.7743	127.262410	0.000718	7.176462	2.431451	0.057270
 472	2.3550e-01	18.8160	127.585058	0.000809	8.086154	2.739663	0.064530
 473	2.3600e-01	18.8594	127.895606	0.000778	7.782923	2.636926	0.062110
 474	2.3650e-01	18.8995	128.246486	0.000879	8.793692	2.979384	0.070176
 475	2.3700e-01	18.9332	128.403777	0.000394	3.942000	1.335586	0.031458
 476	2.3750e-01	18.9765	128.734491	0.000829	8.288308	2.808155	0.066143
 477	2.3800e-01	19.0134	129.012775	0.000697	6.974308	2.362959	0.055657
 478	2.3850e-01	19.0503	129.367687	0.000889	8.894769	3.013629	0.070983
 479	2.3900e-01	19.0904	129.722600	0.000889	8.894769	3.013629	0.070983
 480	2.3950e-01	19.1305	129.968619	0.000617	6.165692	2.088993	0.049204
 481	2.4000e-01	19.1786	130.190439	0.000556	5.559231	1.883518	0.044364
 482	2.4050e-01	19.2219	130.525187	0.000839	8.389385	2.842400	0.066949
 483	2.4100e-01	19.2572	130.916397	0.000980	9.804462	3.321841	0.078242
 484	2.4150e-01	19.2989	131.190648	0.000687	6.873231	2.328714	0.054850
 485	2.4200e-01	19.3390	131.481031	0.000728	7.277538	2.465697	0.058077
 486	2.4250e-01	19.3775	131.767381	0.000718	7.176462	2.431451	0.057270
 487	2.4300e-01	19.4160	132.073896	0.000768	7.681846	2.602680	0.061303
 488	2.4350e-01	19.4577	132.287651	0.000536	5.357077	1.815027	0.042751
 489	2.4400e-01	19.4978	132.594166	0.000768	7.681846	2.602680	0.061303
 490	2.4450e-01	19.5315	132.892615	0.000748	7.479692	2.534188	0.059690
 491	2.4500e-01	19.5748	133.223330	0.000829	8.288308	2.808155	0.066143
 492	2.4550e-01	19.6117	133.489514	0.000667	6.671077	2.260222	0.053237
 493	2.4600e-01	19.6599	133.695202	0.000515	5.154923	1.746535	0.041138
 494	2.4650e-01	19.6904	134.058181	0.000910	9.096923	3.082121	0.072596
 495	2.4700e-01	19.7321	134.284035	0.000566	5.660308	1.917764	0.045171
 496	2.4750e-01	19.7706	134.614749	0.000829	8.288308	2.808155	0.066143
 497	2.4800e-01	19.8155	134.925297	0.000778	7.782923	2.636926	0.062110
 498	2.4850e-01	19.8524	135.207614	0.000708	7.075385	2.397205	0.056463
 499	2.4900e-01	19.8989	135.550427	0.000859	8.591538	2.910892	0.068563
 500	2.4950e-01	19.9326	135.917439	0.000920	9.198000	3.116367	0.073402
 501	2.5000e-01	19.9679	136.119094	0.000505	5.053846	1.712289	0.040331
 502	2.5050e-01	19.9759	136.369146	0.000627	6.266769	2.123239	0.050010
 503	2.5100e-01	19.9486	136.365113	0.000010	0.101077	0.034246	-0.000807
 504	2.5150e-01	19.9149	136.332849	0.000081	0.808615	0.273966	-0.006453
 505	2.5200e-01	19.8620	136.328816	0.000010	0.101077	0.034246	-0.000807
 506	2.5250e-01	19.8363	136.264286	0.000162	1.617231	0.547933	-0.012906
 507	2.5300e-01	19.7930	136.139260	0.000313	3.133385	1.061619	-0.025005
 508	2.5350e-01	19.7433	136.090863	0.000121	1.212923	0.410949	-0.009679
 509	2.5400e-01	19.7112	135.877108	0.000536	5.357077	1.815027	-0.042751
 510	2.5450e-01	19.6759	135.792413	0.000212	2.122615	0.719162	-0.016939
 511	2.5500e-01	19.6390	135.647222	0.000364	3.638769	1.232848	-0.029038
 512	2.5550e-01	19.5909	135.542361	0.000263	2.628000	0.890391	-0.020972
 513	2.5600e-01	19.5444	135.336673	0.000515	5.154923	1.746535	-0.041138
 514	2.5650e-01	19.5187	135.082588	0.000637	6.367846	2.157485	-0.050817
 515	2.5700e-01	19.4754	135.030158	0.000131	1.314000	0.445195	-0.010486
 516	2.5750e-01	19.4337	134.945463	0.000212	2.122615	0.719162	-0.016939
 517	2.5800e-01	19.4000	134.671212	0.000687	6.873231	2.328714	-0.054850
 518	2.5850e-01	19.3583	134.566351	0.000263	2.628000	0.890391	-0.020972
 519	2.5900e-01	19.3102	134.453425	0.000283	2.830154	0.958882	-0.022585
 520	2.5950e-01	19.2716	134.324365	0.000323	3.234462	1.095865	-0.025812
 521	2.6000e-01	19.2428	134.171108	0.000384	3.840923	1.301340	-0.030652
 522	2.6050e-01	19.1946	134.021883	0.000374	3.739846	1.267094	-0.029845
 523	2.6100e-01	19.1577	133.800063	0.000556	5.559231	1.883518	-0.044364
 524	2.6150e-01	19.1160	133.594375	0.000515	5.154923	1.746535	-0.041138
 525	2.6200e-01	19.0775	133.441117	0.000384	3.840923	1.301340	-0.030652
 526	2.6250e-01	19.0471	133.263661	0.000445	4.447385	1.506815	-0.035491
 527	2.6300e-01	18.9861	133.122502	0.000354	3.537692	1.198603	-0.028232
 528	2.6350e-01	18.9556	133.029741	0.000232	2.324769	0.787653	-0.018552
 529	2.6400e-01	18.9171	132.799854	0.000576	5.761385	1.952010	-0.045977
 530	2.6450e-01	18.8738	132.561901	0.000596	5.963538	2.020502	-0.047591
 531	2.6500e-01	18.8385	132.513504	0.000121	1.212923	0.410949	-0.009679
 532	2.6550e-01	18.7968	132.291684	0.000556	5.559231	1.883518	-0.044364
 533	2.6600e-01	18.7471	132.106161	0.000465	4.649538	1.575306	-0.037105
 534	2.6650e-01	18.7086	132.001301	0.000263	2.628000	0.890391	-0.020972
 535	2.6700e-01	18.6717	131.815778	0.000465	4.649538	1.575306	-0.037105
 536	2.6750e-01	18.6332	131.585892	0.000576	5.761385	1.952010	-0.045977
 537	2.6800e-01	18.5947	131.428601	0.000394	3.942000	1.335586	-0.031458
 538	2.6850e-01	18.5513	131.230979	0.000495	4.952769	1.678044	-0.039524
 539	2.6900e-01	18.5193	131.017225	0.000536	5.357077	1.815027	-0.042751
 540	2.6950e-01	18.4808	130.783305	0.000586	5.862462	1.986256	-0.046784
 541	2.7000e-01	18.4278	130.690544	0.000232	2.324769	0.787653	-0.018552
 542	2.7050e-01	18.4022	130.521154	0.000425	4.245231	1.438323	-0.033878
 543	2.7100e-01	18.3492	130.230770	0.000728	7.277538	2.465697	-0.058077
 544	2.7150e-01	18.3075	129.996851	0.000586	5.862462	1.986256	-0.046784
 545	2.7200e-01	18.2690	129.908123	0.000222	2.223692	0.753407	-0.017746
 546	2.7250e-01	18.2353	129.714534	0.000485	4.851692	1.643798	-0.038718
 547	2.7300e-01	18.1904	129.545144	0.000425	4.245231	1.438323	-0.033878
 548	2.7350e-01	18.1583	129.363654	0.000455	4.548462	1.541060	-0.036298
 549	2.7400e-01	18.1150	129.133768	0.000576	5.761385	1.952010	-0.045977
 550	2.7450e-01	18.0701	128.968411	0.000414	4.144154	1.404077	-0.033071
 551	2.7500e-01	18.0396	128.665928	0.000758	7.580769	2.568434	-0.060496
 552	2.7550e-01	17.9947	128.488472	0.000445	4.447385	1.506815	-0.035491
 553	2.7600e-01	17.9514	128.294883	0.000485	4.851692	1.643798	-0.038718
 554	2.7650e-01	17.9129	128.141625	0.000384	3.840923	1.301340	-0.030652
 555	2.7700e-01	17.8792	127.907706	0.000586	5.862462	1.986256	-0.046784
 556	2.7750e-01	17.8391	127.685885	0.000556	5.559231	1.883518	-0.044364
 557	2.7800e-01	17.7942	127.508429	0.000445	4.447385	1.506815	-0.035491
 558	2.7850e-01	17.7492	127.419701	0.000222	2.223692	0.753407	-0.017746
 559	2.7900e-01	17.7188	127.230145	0.000475	4.750615	1.609552	-0.037911
 560	2.7950e-01	17.6754	126.891365	0.000849	8.490462	2.876646	-0.067756
 561	2.8000e-01	17.6225	126.721975	0.000425	4.245231	1.438323	-0.033878
 562	2.8050e-01	17.5968	126.496121	0.000566	5.660308	1.917764	-0.045171
 563	2.8100e-01	17.5487	126.282367	0.000536	5.357077	1.815027	-0.042751
 564	2.8150e-01	17.5118	126.108944	0.000435	4.346308	1.472569	-0.034685
 565	2.8200e-01	17.4765	125.915355	0.000485	4.851692	1.643798	-0.038718
 566	2.8250e-01	17.4364	125.673369	0.000606	6.064615	2.054747	-0.048397
 567	2.8300e-01	17.3867	125.443482	0.000576	5.761385	1.952010	-0.045977
 568	2.8350e-01	17.3562	125.257960	0.000465	4.649538	1.575306	-0.037105
 569	2.8400e-01	17.3129	125.076470	0.000455	4.548462	1.541060	-0.036298
 570	2.8450e-01	17.2696	124.866749	0.000526	5.256000	1.780781	-0.041944
 571	2.8500e-01	17.2343	124.685260	0.000455	4.548462	1.541060	-0.036298
 572	2.8550e-01	17.1942	124.479572	0.000515	5.154923	1.746535	-0.041138
 573	2.8600e-01	17.1492	124.229520	0.000627	6.266769	2.123239	-0.050010
 574	2.8650e-01	17.1059	123.951236	0.000697	6.974308	2.362959	-0.055657
 575	2.8700e-01	17.0738	123.846375	0.000263	2.628000	0.890391	-0.020972
 576	2.8750e-01	17.0321	123.636654	0.000526	5.256000	1.780781	-0.041944
 577	2.8800e-01	16.9904	123.350304	0.000718	7.176462	2.431451	-0.057270
 578	2.8850e-01	16.9535	123.257543	0.000232	2.324769	0.787653	-0.018552
 579	2.8900e-01	16.9070	122.934895	0.000809	8.086154	2.739663	-0.064530
 580	2.8950e-01	16.8797	122.797770	0.000344	3.436615	1.164357	-0.027425
 581	2.9000e-01	16.8428	122.563850	0.000586	5.862462	1.986256	-0.046784
 582	2.9050e-01	16.7947	122.321864	0.000606	6.064615	2.054747	-0.048397
 583	2.9100e-01	16.7546	122.104077	0.000546	5.458154	1.849273	-0.043557
 584	2.9150e-01	16.7225	121.922587	0.000455	4.548462	1.541060	-0.036298
 585	2.9200e-01	16.6744	121.660436	0.000657	6.570000	2.225976	-0.052430
 586	2.9250e-01	16.6263	121.547509	0.000283	2.830154	0.958882	-0.022585
 587	2.9300e-01	16.5958	121.329722	0.000546	5.458154	1.849273	-0.043557
 588	2.9350e-01	16.5525	121.115968	0.000536	5.357077	1.815027	-0.042751
 589	2.9400e-01	16.5108	120.833651	0.000708	7.075385	2.397205	-0.056463
 590	2.9450e-01	16.4739	120.644095	0.000475	4.750615	1.609552	-0.037911
 591	2.9500e-01	16.4257	120.418242	0.000566	5.660308	1.917764	-0.045171
 592	2.9550e-01	16.3904	120.244818	0.000435	4.346308	1.472569	-0.034685
 593	2.9600e-01	16.3487	120.022998	0.000556	5.559231	1.883518	-0.044364
 594	2.9650e-01	16.3167	119.748747	0.000687	6.873231	2.328714	-0.054850
 595	2.9700e-01	16.2717	119.559192	0.000475	4.750615	1.609552	-0.037911
 596	2.9750e-01	16.2300	119.325272	0.000586	5.862462	1.986256	-0.046784
 597	2.9800e-01	16.1819	119.240577	0.000212	2.122615	0.719162	-0.016939
 598	2.9850e-01	16.1482	118.934061	0.000768	7.681846	2.602680	-0.061303
 599	2.9900e-01	16.1193	118.643678	0.000728	7.277538	2.465697	-0.058077
 600	2.9950e-01	16.0680	118.405725	0.000596	5.963538	2.020502	-0.047591
 601	3.0000e-01	16.0375	118.228269	0.000445	4.447385	1.506815	-0.035491
 602	3.0050e-01	15.9926	118.010482	0.000546	5.458154	1.849273	-0.043557
 603	3.0100e-01	15.9573	117.816893	0.000485	4.851692	1.643798	-0.038718
 604	3.0150e-01	15.9156	117.542642	0.000687	6.873231	2.328714	-0.054850
 605	3.0200e-01	15.8723	117.340987	0.000505	5.053846	1.712289	-0.040331
 606	3.0250e-01	15.8354	117.139332	0.000505	5.053846	1.712289	-0.040331
 607	3.0300e-01	15.7889	116.965909	0.000435	4.346308	1.472569	-0.034685
 608	3.0350e-01	15.7584	116.736022	0.000576	5.761385	1.952010	-0.045977
 609	3.0400e-01	15.7135	116.397242	0.000849	8.490462	2.876646	-0.067756
 610	3.0450e-01	15.6766	116.223819	0.000435	4.346308	1.472569	-0.034685
 611	3.0500e-01	15.6349	116.038296	0.000465	4.649538	1.575306	-0.037105
 612	3.0550e-01	15.5980	115.792277	0.000617	6.165692	2.088993	-0.049204
 613	3.0600e-01	15.5450	115.522060	0.000677	6.772154	2.294468	-0.054044
 614	3.0650e-01	15.5161	115.263942	0.000647	6.468923	2.191730	-0.051624
 615	3.0700e-01	15.4648	115.078419	0.000465	4.649538	1.575306	-0.037105
 616	3.0750e-01	15.4327	114.888863	0.000475	4.750615	1.609552	-0.037911
 617	3.0800e-01	15.3974	114.574282	0.000788	7.884000	2.671172	-0.062916
 618	3.0850e-01	15.3509	114.392792	0.000455	4.548462	1.541060	-0.036298
 619	3.0900e-01	15.3156	114.187104	0.000515	5.154923	1.746535	-0.041138
 620	3.0950e-01	15.2739	113.888655	0.000748	7.479692	2.534188	-0.059690
 621	3.1000e-01	15.2338	113.678934	0.000526	5.256000	1.780781	-0.041944
 622	3.1050e-01	15.1937	113.457113	0.000556	5.559231	1.883518	-0.044364
 623	3.1100e-01	15.1584	113.287723	0.000425	4.245231	1.438323	-0.033878
 624	3.1150e-01	15.1167	112.997340	0.000728	7.277538	2.465697	-0.058077
 625	3.1200e-01	15.0734	112.787619	0.000526	5.256000	1.780781	-0.041944
 626	3.1250e-01	15.0381	112.541600	0.000617	6.165692	2.088993	-0.049204
 627	3.1300e-01	14.9948	112.343978	0.000495	4.952769	1.678044	-0.039524
 628	3.1350e-01	14.9547	112.093926	0.000627	6.266769	2.123239	-0.050010
 629	3.1400e-01	14.8969	111.864039	0.000576	5.761385	1.952010	-0.045977
 630	3.1450e-01	14.8664	111.730947	0.000334	3.335538	1.130111	-0.026618
 631	3.1500e-01	14.8311	111.420399	0.000778	7.782923	2.636926	-0.062110
 632	3.1550e-01	14.7926	111.170346	0.000627	6.266769	2.123239	-0.050010
 633	3.1600e-01	14.7541	110.855765	0.000788	7.884000	2.671172	-0.062916
 634	3.1650e-01	14.7156	110.742838	0.000283	2.830154	0.958882	-0.022585
 635	3.1700e-01	14.6659	110.545216	0.000495	4.952769	1.678044	-0.039524
 636	3.1750e-01	14.6306	110.222568	0.000809	8.086154	2.739663	-0.064530
 637	3.1800e-01	14.5857	109.920086	0.000758	7.580769	2.568434	-0.060496
 638	3.1850e-01	14.5520	109.678100	0.000606	6.064615	2.054747	-0.048397
 639	3.1900e-01	14.5135	109.557107	0.000303	3.032308	1.027374	-0.024199
 640	3.1950e-01	14.4702	109.331253	0.000566	5.660308	1.917764	-0.045171
 641	3.2000e-01	14.4365	109.081201	0.000627	6.266769	2.123239	-0.050010
 642	3.2050e-01	14.3980	108.802918	0.000697	6.974308	2.362959	-0.055657
 643	3.2100e-01	14.3515	108.552865	0.000627	6.266769	2.123239	-0.050010
 644	3.2150e-01	14.3114	108.262482	0.000728	7.277538	2.465697	-0.058077
 645	3.2200e-01	14.2664	108.044695	0.000546	5.458154	1.849273	-0.043557
 646	3.2250e-01	14.2344	107.903537	0.000354	3.537692	1.198603	-0.028232
 647	3.2300e-01	14.1943	107.661551	0.000606	6.064615	2.054747	-0.048397
 648	3.2350e-01	14.1541	107.379234	0.000708	7.075385	2.397205	-0.056463
 649	3.2400e-01	14.1140	107.100950	0.000697	6.974308	2.362959	-0.055657
 650	3.2450e-01	14.0691	106.911394	0.000475	4.750615	1.609552	-0.037911
 651	3.2500e-01	14.0338	106.677475	0.000586	5.862462	1.986256	-0.046784
 652	3.2550e-01	13.9921	106.330628	0.000869	8.692615	2.945138	-0.069369
 653	3.2600e-01	13.9504	106.161238	0.000425	4.245231	1.438323	-0.033878
 654	3.2650e-01	13.9023	105.886987	0.000687	6.873231	2.328714	-0.054850
 655	3.2700e-01	13.8686	105.657101	0.000576	5.761385	1.952010	-0.045977
 656	3.2750e-01	13.8413	105.398982	0.000647	6.468923	2.191730	-0.051624
 657	3.2800e-01	13.7948	105.217493	0.000455	4.548462	1.541060	-0.036298
 658	3.2850e-01	13.7499	105.007772	0.000526	5.256000	1.780781	-0.041944
 659	3.2900e-01	13.7162	104.818216	0.000475	4.750615	1.609552	-0.037911
 660	3.2950e-01	13.6681	104.511701	0.000768	7.681846	2.602680	-0.061303
 661	3.3000e-01	13.6312	104.306013	0.000515	5.154923	1.746535	-0.041138
 662	3.3050e-01	13.5911	103.934968	0.000930	9.299077	3.150613	-0.074209
 663	3.3100e-01	13.5510	103.701048	0.000586	5.862462	1.986256	-0.046784
 664	3.3150e-01	13.5108	103.519558	0.000455	4.548462	1.541060	-0.036298
 665	3.3200e-01	13.4643	103.289672	0.000576	5.761385	1.952010	-0.045977
 666	3.3250e-01	13.4322	103.023487	0.000667	6.671077	2.260222	-0.053237
 667	3.3300e-01	13.3889	102.765369	0.000647	6.468923	2.191730	-0.051624
 668	3.3350e-01	13.3536	102.438688	0.000819	8.187231	2.773909	-0.065336
 669	3.3400e-01	13.3151	102.120073	0.000799	7.985077	2.705417	-0.063723
 670	3.3450e-01	13.2814	101.950683	0.000425	4.245231	1.438323	-0.033878
 671	3.3500e-01	13.2333	101.817591	0.000334	3.335538	1.130111	-0.026618
 672	3.3550e-01	13.1852	101.599803	0.000546	5.458154	1.849273	-0.043557
 673	3.3600e-01	13.1515	101.240858	0.000900	8.995846	3.047875	-0.071789
 674	3.3650e-01	13.1130	100.994839	0.000617	6.165692	2.088993	-0.049204
 675	3.3700e-01	13.0713	100.777051	0.000546	5.458154	1.849273	-0.043557
 676	3.3750e-01	13.0360	100.631860	0.000364	3.638769	1.232848	-0.029038
 677	3.3800e-01	12.9927	100.321311	0.000778	7.782923	2.636926	-0.062110
 678	3.3850e-01	12.9542	100.030928	0.000728	7.277538	2.465697	-0.058077
 679	3.3900e-01	12.9109	99.768777	0.000657	6.570000	2.225976	-0.052430
 680	3.3950e-01	12.8708	99.530824	0.000596	5.963538	2.020502	-0.047591
 681	3.4000e-01	12.8339	99.321103	0.000526	5.256000	1.780781	-0.041944
 682	3.4050e-01	12.7889	99.038786	0.000708	7.075385	2.397205	-0.056463
 683	3.4100e-01	12.7520	98.776634	0.000657	6.570000	2.225976	-0.052430
 684	3.4150e-01	12.7135	98.566913	0.000526	5.256000	1.780781	-0.041944
 685	3.4200e-01	12.6670	98.232166	0.000839	8.389385	2.842400	-0.066949
 686	3.4250e-01	12.6317	97.978081	0.000637	6.367846	2.157485	-0.050817
 687	3.4300e-01	12.5852	97.804658	0.000435	4.346308	1.472569	-0.034685
 688	3.4350e-01	12.5499	97.526374	0.000697	6.974308	2.362959	-0.055657
 689	3.4400e-01	12.5162	97.268256	0.000647	6.468923	2.191730	-0.051624
 690	3.4450e-01	12.4697	97.098865	0.000425	4.245231	1.438323	-0.033878
 691	3.4500e-01	12.4424	96.868979	0.000576	5.761385	1.952010	-0.045977
 692	3.4550e-01	12.3927	96.570529	0.000748	7.479692	2.534188	-0.059690
 693	3.4600e-01	12.3510	96.328544	0.000606	6.064615	2.054747	-0.048397
 694	3.4650e-01	12.3189	96.086558	0.000606	6.064615	2.054747	-0.048397
 695	3.4700e-01	12.2756	95.816340	0.000677	6.772154	2.294468	-0.054044
 696	3.4750e-01	12.2371	95.497725	0.000799	7.985077	2.705417	-0.063723
 697	3.4800e-01	12.1986	95.154912	0.000859	8.591538	2.910892	-0.068563
 698	3.4850e-01	12.1569	94.981489	0.000435	4.346308	1.472569	-0.034685
 699	3.4900e-01	12.1120	94.707238	0.000687	6.873231	2.328714	-0.054850
 700	3.4950e-01	12.0654	94.497517	0.000526	5.256000	1.780781	-0.041944
 701	3.5000e-01	12.0301	94.219233	0.000697	6.974308	2.362959	-0.055657
 702	3.5050e-01	11.9916	93.961115	0.000647	6.468923	2.191730	-0.051624
 703	3.5100e-01	11.9515	93.767526	0.000485	4.851692	1.643798	-0.038718
 704	3.5150e-01	11.9146	93.541672	0.000566	5.660308	1.917764	-0.045171
 705	3.5200e-01	11.8729	93.283554	0.000647	6.468923	2.191730	-0.051624
 706	3.5250e-01	11.8328	92.989138	0.000738	7.378615	2.499943	-0.058883
 707	3.5300e-01	11.7959	92.694722	0.000738	7.378615	2.499943	-0.058883
 708	3.5350e-01	11.7590	92.464835	0.000576	5.761385	1.952010	-0.045977
 709	3.5400e-01	11.7141	92.238982	0.000566	5.660308	1.917764	-0.045171
 710	3.5450e-01	11.6836	91.908267	0.000829	8.288308	2.808155	-0.066143
 711	3.5500e-01	11.6355	91.617884	0.000728	7.277538	2.465697	-0.058077
 712	3.5550e-01	11.5906	91.371865	0.000617	6.165692	2.088993	-0.049204
 713	3.5600e-01	11.5537	91.085515	0.000718	7.176462	2.431451	-0.057270
 714	3.5650e-01	11.5056	91.008887	0.000192	1.920462	0.650670	-0.015326
 715	3.5700e-01	11.4799	90.597510	0.001031	10.309846	3.493070	-0.082275
 716	3.5750e-01	11.4237	90.375690	0.000556	5.559231	1.883518	-0.044364
 717	3.5800e-01	11.4013	90.206300	0.000425	4.245231	1.438323	-0.033878
 718	3.5850e-01	11.3564	89.839288	0.000920	9.198000	3.116367	-0.073402
 719	3.5900e-01	11.3211	89.573103	0.000667	6.671077	2.260222	-0.053237
 720	3.5950e-01	11.2681	89.351283	0.000556	5.559231	1.883518	-0.044364
 721	3.6000e-01	11.2409	89.036701	0.000788	7.884000	2.671172	-0.062916
 722	3.6050e-01	11.1911	88.766484	0.000677	6.772154	2.294468	-0.054044
 723	3.6100e-01	11.1542	88.520465	0.000617	6.165692	2.088993	-0.049204
 724	3.6150e-01	11.1061	88.278479	0.000606	6.064615	2.054747	-0.048397
 725	3.6200e-01	11.0740	88.028427	0.000627	6.266769	2.123239	-0.050010
 726	3.6250e-01	11.0371	87.806606	0.000556	5.559231	1.883518	-0.044364
 727	3.6300e-01	10.9922	87.548488	0.000647	6.468923	2.191730	-0.051624
 728	3.6350e-01	10.9521	87.233906	0.000788	7.884000	2.671172	-0.062916
 729	3.6400e-01	10.9152	87.012086	0.000556	5.559231	1.883518	-0.044364
 730	3.6450e-01	10.8671	86.673306	0.000849	8.490462	2.876646	-0.067756
 731	3.6500e-01	10.8318	86.507948	0.000414	4.144154	1.404077	-0.033071
 732	3.6550e-01	10.7997	86.140936	0.000920	9.198000	3.116367	-0.073402
 733	3.6600e-01	10.7532	85.874752	0.000667	6.671077	2.260222	-0.053237
 734	3.6650e-01	10.7147	85.753759	0.000303	3.032308	1.027374	-0.024199
 735	3.6700e-01	10.6762	85.419012	0.000839	8.389385	2.842400	-0.066949
 736	3.6750e-01	10.6296	85.168960	0.000627	6.266769	2.123239	-0.050010
 737	3.6800e-01	10.5879	84.902775	0.000667	6.671077	2.260222	-0.053237
 738	3.6850e-01	10.5607	84.596260	0.000768	7.681846	2.602680	-0.061303
 739	3.6900e-01	10.5141	84.326042	0.000677	6.772154	2.294468	-0.054044
 740	3.6950e-01	10.4708	84.003394	0.000809	8.086154	2.739663	-0.064530
 741	3.7000e-01	10.4371	83.785607	0.000546	5.458154	1.849273	-0.043557
 742	3.7050e-01	10.3922	83.596051	0.000475	4.750615	1.609552	-0.037911
 743	3.7100e-01	10.3457	83.233072	0.000910	9.096923	3.082121	-0.072596
 744	3.7150e-01	10.3152	82.938656	0.000738	7.378615	2.499943	-0.058883
 745	3.7200e-01	10.2735	82.720869	0.000546	5.458154	1.849273	-0.043557
 746	3.7250e-01	10.2366	82.426453	0.000738	7.378615	2.499943	-0.058883
 747	3.7300e-01	10.1901	82.244963	0.000455	4.548462	1.541060	-0.036298
 748	3.7350e-01	10.1564	81.942481	0.000758	7.580769	2.568434	-0.060496
 749	3.7400e-01	10.1051	81.716627	0.000566	5.660308	1.917764	-0.045171
 750	3.7450e-01	10.0746	81.393979	0.000809	8.086154	2.739663	-0.064530
 751	3.7500e-01	10.0329	81.127795	0.000667	6.671077	2.260222	-0.053237
 752	3.7550e-01	9.9880	80.885809	0.000606	6.064615	2.054747	-0.048397
 753	3.7600e-01	9.9591	80.510731	0.000940	9.400154	3.184858	-0.075016
 754	3.7650e-01	9.9142	80.268745	0.000606	6.064615	2.054747	-0.048397
 755	3.7700e-01	9.8741	80.014660	0.000637	6.367846	2.157485	-0.050817
 756	3.7750e-01	9.8372	79.732343	0.000708	7.075385	2.397205	-0.056463
 757	3.7800e-01	9.7954	79.506489	0.000566	5.660308	1.917764	-0.045171
 758	3.7850e-01	9.7553	79.208040	0.000748	7.479692	2.534188	-0.059690
 759	3.7900e-01	9.7168	78.974120	0.000586	5.862462	1.986256	-0.046784
 760	3.7950e-01	9.6767	78.639373	0.000839	8.389385	2.842400	-0.066949
 761	3.8000e-01	9.6382	78.385288	0.000637	6.367846	2.157485	-0.050817
 762	3.8050e-01	9.6045	78.090872	0.000738	7.378615	2.499943	-0.058883
 763	3.8100e-01	9.5548	77.865018	0.000566	5.660308	1.917764	-0.045171
 764	3.8150e-01	9.5067	77.590767	0.000687	6.873231	2.328714	-0.054850
 765	3.8200e-01	9.4730	77.336682	0.000637	6.367846	2.157485	-0.050817
 766	3.8250e-01	9.4345	77.046299	0.000728	7.277538	2.465697	-0.058077
 767	3.8300e-01	9.3944	76.727684	0.000799	7.985077	2.705417	-0.063723
 768	3.8350e-01	9.3479	76.433268	0.000738	7.378615	2.499943	-0.058883
 769	3.8400e-01	9.3142	76.211448	0.000556	5.559231	1.883518	-0.044364
 770	3.8450e-01	9.2693	75.921065	0.000728	7.277538	2.465697	-0.058077
 771	3.8500e-01	9.2388	75.626648	0.000738	7.378615	2.499943	-0.058883
 772	3.8550e-01	9.1955	75.384663	0.000606	6.064615	2.054747	-0.048397
 773	3.8600e-01	9.1521	75.122511	0.000657	6.570000	2.225976	-0.052430
 774	3.8650e-01	9.1072	74.864393	0.000647	6.468923	2.191730	-0.051624
 775	3.8700e-01	9.0735	74.590142	0.000687	6.873231	2.328714	-0.054850
 776	3.8750e-01	9.0302	74.291693	0.000748	7.479692	2.534188	-0.059690
 777	3.8800e-01	8.9917	74.025508	0.000667	6.671077	2.260222	-0.053237
 778	3.8850e-01	8.9516	73.698827	0.000819	8.187231	2.773909	-0.065336
 779	3.8900e-01	8.9131	73.444742	0.000637	6.367846	2.157485	-0.050817
 780	3.8950e-01	8.8810	73.158392	0.000718	7.176462	2.431451	-0.057270
 781	3.9000e-01	8.8281	72.896241	0.000657	6.570000	2.225976	-0.052430
 782	3.9050e-01	8.7944	72.646189	0.000627	6.266769	2.123239	-0.050010
 783	3.9100e-01	8.7479	72.400170	0.000617	6.165692	2.088993	-0.049204
 784	3.9150e-01	8.7206	72.081555	0.000799	7.985077	2.705417	-0.063723
 785	3.9200e-01	8.6693	71.851668	0.000576	5.761385	1.952010	-0.045977
 786	3.9250e-01	8.6228	71.504822	0.000869	8.692615	2.945138	-0.069369
 787	3.9300e-01	8.5939	71.258803	0.000617	6.165692	2.088993	-0.049204
 788	3.9350e-01	8.5457	70.827261	0.001082	10.815231	3.664299	-0.086308
 789	3.9400e-01	8.5249	70.786930	0.000101	1.010769	0.342458	-0.008066
 790	3.9450e-01	8.4720	70.411852	0.000940	9.400154	3.184858	-0.075016
 791	3.9500e-01	8.4351	70.157767	0.000637	6.367846	2.157485	-0.050817
 792	3.9550e-01	8.3982	69.895615	0.000657	6.570000	2.225976	-0.052430
 793	3.9600e-01	8.3613	69.645563	0.000627	6.266769	2.123239	-0.050010
 794	3.9650e-01	8.3115	69.318882	0.000819	8.187231	2.773909	-0.065336
 795	3.9700e-01	8.2746	68.972036	0.000869	8.692615	2.945138	-0.069369
 796	3.9750e-01	8.2249	68.693752	0.000697	6.974308	2.362959	-0.055657
 797	3.9800e-01	8.1944	68.508229	0.000465	4.649538	1.575306	-0.037105
 798	3.9850e-01	8.1543	68.141217	0.000920	9.198000	3.116367	-0.073402
 799	3.9900e-01	8.1190	67.818570	0.000809	8.086154	2.739663	-0.064530
 800	3.9950e-01	8.0709	67.524153	0.000738	7.378615	2.499943	-0.058883
 801	4.0000e-01	8.0292	67.278134	0.000617	6.165692	2.088993	-0.049204
 802	4.0050e-01	7.9891	67.036148	0.000606	6.064615	2.054747	-0.048397
 803	4.0100e-01	7.9522	66.794163	0.000606	6.064615	2.054747	-0.048397
 804	4.0150e-01	7.9041	66.467482	0.000819	8.187231	2.773909	-0.065336
 805	4.0200e-01	7.8656	66.209363	0.000647	6.468923	2.191730	-0.051624
 806	4.0250e-01	7.8335	65.906881	0.000758	7.580769	2.568434	-0.060496
 807	4.0300e-01	7.7982	65.632630	0.000687	6.873231	2.328714	-0.054850
 808	4.0350e-01	7.7581	65.378545	0.000637	6.367846	2.157485	-0.050817
 809	4.0400e-01	7.7051	65.193022	0.000465	4.649538	1.575306	-0.037105
 810	4.0450e-01	7.6730	64.805845	0.000970	9.703385	3.287596	-0.077435
 811	4.0500e-01	7.6313	64.495296	0.000778	7.782923	2.636926	-0.062110
 812	4.0550e-01	7.6009	64.273476	0.000556	5.559231	1.883518	-0.044364
 813	4.0600e-01	7.5575	63.926629	0.000869	8.692615	2.945138	-0.069369
 814	4.0650e-01	7.5255	63.559617	0.000920	9.198000	3.116367	-0.073402
 815	4.0700e-01	7.4725	63.245036	0.000788	7.884000	2.671172	-0.062916
 816	4.0750e-01	7.4244	63.011116	0.000586	5.862462	1.986256	-0.046784
 817	4.0800e-01	7.3859	62.793329	0.000546	5.458154	1.849273	-0.043557
 818	4.0850e-01	7.3506	62.482780	0.000778	7.782923	2.636926	-0.062110
 819	4.0900e-01	7.3105	62.212562	0.000677	6.772154	2.294468	-0.054044
 820	4.0950e-01	7.2720	61.926212	0.000718	7.176462	2.431451	-0.057270
 821	4.1000e-01	7.2351	61.587432	0.000849	8.490462	2.876646	-0.067756
 822	4.1050e-01	7.1966	61.357546	0.000576	5.761385	1.952010	-0.045977
 823	4.1100e-01	7.1469	61.188155	0.000425	4.245231	1.438323	-0.033878
 824	4.1150e-01	7.1084	60.825177	0.000910	9.096923	3.082121	-0.072596
 825	4.1200e-01	7.0715	60.575124	0.000627	6.266769	2.123239	-0.050010
 826	4.1250e-01	7.0378	60.321039	0.000637	6.367846	2.157485	-0.050817
 827	4.1300e-01	6.9912	59.990325	0.000829	8.288308	2.808155	-0.066143
 828	4.1350e-01	6.9624	59.578949	0.001031	10.309846	3.493070	-0.082275
 829	4.1400e-01	6.9142	59.349062	0.000576	5.761385	1.952010	-0.045977
 830	4.1450e-01	6.8645	59.062712	0.000718	7.176462	2.431451	-0.057270
 831	4.1500e-01	6.8228	58.852991	0.000526	5.256000	1.780781	-0.041944
 832	4.1550e-01	6.7955	58.554542	0.000748	7.479692	2.534188	-0.059690
 833	4.1600e-01	6.7586	58.183497	0.000930	9.299077	3.150613	-0.074209
 834	4.1650e-01	6.7153	57.864882	0.000799	7.985077	2.705417	-0.063723
 835	4.1700e-01	6.6640	57.626929	0.000596	5.963538	2.020502	-0.047591
 836	4.1750e-01	6.6367	57.348646	0.000697	6.974308	2.362959	-0.055657
 837	4.1800e-01	6.5982	57.054229	0.000738	7.378615	2.499943	-0.058883
 838	4.1850e-01	6.5533	56.820310	0.000586	5.862462	1.986256	-0.046784
 839	4.1900e-01	6.5100	56.554125	0.000667	6.671077	2.260222	-0.053237
 840	4.1950e-01	6.4779	56.154848	0.001001	10.006615	3.390333	-0.079855
 841	4.2000e-01	6.4362	55.795903	0.000900	8.995846	3.047875	-0.071789
 842	4.2050e-01	6.3929	55.598281	0.000495	4.952769	1.678044	-0.039524
 843	4.2100e-01	6.3544	55.344196	0.000637	6.367846	2.157485	-0.050817
 844	4.2150e-01	6.3143	55.041713	0.000758	7.580769	2.568434	-0.060496
 845	4.2200e-01	6.2790	54.831992	0.000526	5.256000	1.780781	-0.041944
 846	4.2250e-01	6.2357	54.501278	0.000829	8.288308	2.808155	-0.066143
 847	4.2300e-01	6.1907	54.186696	0.000788	7.884000	2.671172	-0.062916
 848	4.2350e-01	6.1554	53.916479	0.000677	6.772154	2.294468	-0.054044
 849	4.2400e-01	6.1105	53.613996	0.000758	7.580769	2.568434	-0.060496
 850	4.2450e-01	6.0752	53.363944	0.000627	6.266769	2.123239	-0.050010
 851	4.2500e-01	6.0335	53.073561	0.000728	7.277538	2.465697	-0.058077
 852	4.2550e-01	5.9934	52.714615	0.000900	8.995846	3.047875	-0.071789
 853	4.2600e-01	5.9533	52.400034	0.000788	7.884000	2.671172	-0.062916
 854	4.2650e-01	5.9180	52.162081	0.000596	5.963538	2.020502	-0.047591
 855	4.2700e-01	5.8779	51.823300	0.000849	8.490462	2.876646	-0.067756
 856	4.2750e-01	5.8378	51.532917	0.000728	7.277538	2.465697	-0.058077
 857	4.2800e-01	5.7945	51.226402	0.000768	7.681846	2.602680	-0.061303
 858	4.2850e-01	5.7544	51.016681	0.000526	5.256000	1.780781	-0.041944
 859	4.2900e-01	5.7159	50.685967	0.000829	8.288308	2.808155	-0.066143
 860	4.2950e-01	5.6742	50.468179	0.000546	5.458154	1.849273	-0.043557
 861	4.3000e-01	5.6405	50.105200	0.000910	9.096923	3.082121	-0.072596
 862	4.3050e-01	5.5956	49.806751	0.000748	7.479692	2.534188	-0.059690
 863	4.3100e-01	5.5603	49.459905	0.000869	8.692615	2.945138	-0.069369
 864	4.3150e-01	5.5105	49.246150	0.000536	5.357077	1.815027	-0.042751
 865	4.3200e-01	5.4801	48.975933	0.000677	6.772154	2.294468	-0.054044
 866	4.3250e-01	5.4351	48.548424	0.001071	10.714154	3.630054	-0.085502
 867	4.3300e-01	5.3966	48.370968	0.000445	4.447385	1.506815	-0.035491
 868	4.3350e-01	5.3646	48.020089	0.000879	8.793692	2.979384	-0.070176
 869	4.3400e-01	5.3084	47.741805	0.000697	6.974308	2.362959	-0.055657
 870	4.3450e-01	5.2779	47.398991	0.000859	8.591538	2.910892	-0.068563
 871	4.3500e-01	5.2346	47.132807	0.000667	6.671077	2.260222	-0.053237
 872	4.3550e-01	5.2025	46.919053	0.000536	5.357077	1.815027	-0.042751
 873	4.3600e-01	5.1576	46.568173	0.000879	8.793692	2.979384	-0.070176
 874	4.3650e-01	5.1127	46.330220	0.000596	5.963538	2.020502	-0.047591
 875	4.3700e-01	5.0710	45.963208	0.000920	9.198000	3.116367	-0.073402
 876	4.3750e-01	5.0373	45.656693	0.000768	7.681846	2.602680	-0.061303
 877	4.3800e-01	4.9940	45.390508	0.000667	6.671077	2.260222	-0.053237
 878	4.3850e-01	4.9523	45.088026	0.000758	7.580769	2.568434	-0.060496
 879	4.3900e-01	4.9122	44.777477	0.000778	7.782923	2.636926	-0.062110
 880	4.3950e-01	4.8769	44.474995	0.000758	7.580769	2.568434	-0.060496
 881	4.4000e-01	4.8416	44.168479	0.000768	7.681846	2.602680	-0.061303
 882	4.4050e-01	4.7902	43.906328	0.000657	6.570000	2.225976	-0.052430
 883	4.4100e-01	4.7662	43.539316	0.000920	9.198000	3.116367	-0.073402
 884	4.4150e-01	4.7100	43.248933	0.000728	7.277538	2.465697	-0.058077
 885	4.4200e-01	4.6828	43.006947	0.000606	6.064615	2.054747	-0.048397
 886	4.4250e-01	4.6362	42.688332	0.000799	7.985077	2.705417	-0.063723
 887	4.4300e-01	4.5977	42.397949	0.000728	7.277538	2.465697	-0.058077
 888	4.4350e-01	4.5592	42.047069	0.000879	8.793692	2.979384	-0.070176
 889	4.4400e-01	4.5127	41.805084	0.000606	6.064615	2.054747	-0.048397
 890	4.4450e-01	4.4774	41.514700	0.000728	7.277538	2.465697	-0.058077
 891	4.4500e-01	4.4389	41.159788	0.000889	8.894769	3.013629	-0.070983
 892	4.4550e-01	4.3956	40.792776	0.000920	9.198000	3.116367	-0.073402
 893	4.4600e-01	4.3603	40.603220	0.000475	4.750615	1.609552	-0.037911
 894	4.4650e-01	4.3026	40.268473	0.000839	8.389385	2.842400	-0.066949
 895	4.4700e-01	4.2769	40.006322	0.000657	6.570000	2.225976	-0.052430
 896	4.4750e-01	4.2288	39.715938	0.000728	7.277538	2.465697	-0.058077
 897	4.4800e-01	4.1967	39.421522	0.000738	7.378615	2.499943	-0.058883
 898	4.4850e-01	4.1582	39.151305	0.000677	6.772154	2.294468	-0.054044
 899	4.4900e-01	4.1181	38.856888	0.000738	7.378615	2.499943	-0.058883
 900	4.4950e-01	4.0860	38.530207	0.000819	8.187231	2.773909	-0.065336
 901	4.5000e-01	4.0330	38.259990	0.000677	6.772154	2.294468	-0.054044
 902	4.5050e-01	3.9897	37.945408	0.000788	7.884000	2.671172	-0.062916
 903	4.5100e-01	3.9480	37.590496	0.000889	8.894769	3.013629	-0.070983
 904	4.5150e-01	3.9095	37.348510	0.000606	6.064615	2.054747	-0.048397
 905	4.5200e-01	3.8855	37.009729	0.000849	8.490462	2.876646	-0.067756
 906	4.5250e-01	3.8309	36.634651	0.000940	9.400154	3.184858	-0.075016
 907	4.5300e-01	3.7892	36.404765	0.000576	5.761385	1.952010	-0.045977
 908	4.5350e-01	3.7587	36.094216	0.000778	7.782923	2.636926	-0.062110
 909	4.5400e-01	3.7106	35.771568	0.000809	8.086154	2.739663	-0.064530
 910	4.5450e-01	3.6705	35.573946	0.000495	4.952769	1.678044	-0.039524
 911	4.5500e-01	3.6240	35.219034	0.000889	8.894769	3.013629	-0.070983
 912	4.5550e-01	3.5935	34.940750	0.000697	6.974308	2.362959	-0.055657
 913	4.5600e-01	3.5598	34.597936	0.000859	8.591538	2.910892	-0.068563
 914	4.5650e-01	3.5197	34.267222	0.000829	8.288308	2.808155	-0.066143
 915	4.5700e-01	3.4732	33.976839	0.000728	7.277538	2.465697	-0.058077
 916	4.5750e-01	3.4347	33.710655	0.000667	6.671077	2.260222	-0.053237
 917	4.5800e-01	3.3994	33.416238	0.000738	7.378615	2.499943	-0.058883
 918	4.5850e-01	3.3561	33.117789	0.000748	7.479692	2.534188	-0.059690
 919	4.5900e-01	3.3192	32.863704	0.000637	6.367846	2.157485	-0.050817
 920	4.5950e-01	3.2774	32.488626	0.000940	9.400154	3.184858	-0.075016
 921	4.6000e-01	3.2389	32.230507	0.000647	6.468923	2.191730	-0.051624
 922	4.6050e-01	3.2020	31.956257	0.000687	6.873231	2.328714	-0.054850
 923	4.6100e-01	3.1587	31.565046	0.000980	9.804462	3.321841	-0.078242
 924	4.6150e-01	3.1138	31.254498	0.000778	7.782923	2.636926	-0.062110
 925	4.6200e-01	3.0785	31.012512	0.000606	6.064615	2.054747	-0.048397
 926	4.6250e-01	3.0400	30.621301	0.000980	9.804462	3.321841	-0.078242
 927	4.6300e-01	2.9887	30.290587	0.000829	8.288308	2.808155	-0.066143
 928	4.6350e-01	2.9598	30.129263	0.000404	4.043077	1.369832	-0.032265
 929	4.6400e-01	2.9053	29.834847	0.000738	7.378615	2.499943	-0.058883
 930	4.6450e-01	2.8780	29.435570	0.001001	10.006615	3.390333	-0.079855
 931	4.6500e-01	2.8331	29.060492	0.000940	9.400154	3.184858	-0.075016
 932	4.6550e-01	2.7994	28.826572	0.000586	5.862462	1.986256	-0.046784
 933	4.6600e-01	2.7593	28.544255	0.000708	7.075385	2.397205	-0.056463
 934	4.6650e-01	2.7176	28.197409	0.000869	8.692615	2.945138	-0.069369
 935	4.6700e-01	2.6791	27.979622	0.000546	5.458154	1.849273	-0.043557
 936	4.6750e-01	2.6342	27.665040	0.000788	7.884000	2.671172	-0.062916
 937	4.6800e-01	2.6005	27.435153	0.000576	5.761385	1.952010	-0.045977
 938	4.6850e-01	2.5475	27.072174	0.000910	9.096923	3.082121	-0.072596
 939	4.6900e-01	2.5122	26.717262	0.000889	8.894769	3.013629	-0.070983
 940	4.6950e-01	2.4657	26.430912	0.000718	7.176462	2.431451	-0.057270
 941	4.7000e-01	2.4416	26.035668	0.000991	9.905538	3.356087	-0.079049
 942	4.7050e-01	2.3999	25.737219	0.000748	7.479692	2.534188	-0.059690
 943	4.7100e-01	2.3614	25.499266	0.000596	5.963538	2.020502	-0.047591
 944	4.7150e-01	2.3069	25.245181	0.000637	6.367846	2.157485	-0.050817
 945	4.7200e-01	2.2748	24.845904	0.001001	10.006615	3.390333	-0.079855
 946	4.7250e-01	2.2299	24.543422	0.000758	7.580769	2.568434	-0.060496
 947	4.7300e-01	2.1978	24.281270	0.000657	6.570000	2.225976	-0.052430
 948	4.7350e-01	2.1433	24.002986	0.000697	6.974308	2.362959	-0.055657
 949	4.7400e-01	2.1080	23.833596	0.000425	4.245231	1.438323	-0.033878
 950	4.7450e-01	2.0743	23.418187	0.001041	10.410923	3.527316	-0.083082
 951	4.7500e-01	2.0342	23.087473	0.000829	8.288308	2.808155	-0.066143
 952	4.7550e-01	1.9989	22.756759	0.000829	8.288308	2.808155	-0.066143
 953	4.7600e-01	1.9507	22.482508	0.000687	6.873231	2.328714	-0.054850
 954	4.7650e-01	1.9138	22.083231	0.001001	10.006615	3.390333	-0.079855
 955	4.7700e-01	1.8721	21.752517	0.000829	8.288308	2.808155	-0.066143
 956	4.7750e-01	1.8272	21.510531	0.000606	6.064615	2.054747	-0.048397
 957	4.7800e-01	1.7951	21.224181	0.000718	7.176462	2.431451	-0.057270
 958	4.7850e-01	1.7647	20.897500	0.000819	8.187231	2.773909	-0.065336
 959	4.7900e-01	1.7262	20.619217	0.000697	6.974308	2.362959	-0.055657
 960	4.7950e-01	1.6748	20.199774	0.001051	10.512000	3.561562	-0.083888
 961	4.8000e-01	1.6347	19.973921	0.000566	5.660308	1.917764	-0.045171
 962	4.8050e-01	1.5978	19.635141	0.000849	8.490462	2.876646	-0.067756
 963	4.8100e-01	1.5609	19.352824	0.000708	7.075385	2.397205	-0.056463
 964	4.8150e-01	1.5176	19.026143	0.000819	8.187231	2.773909	-0.065336
 965	4.8200e-01	1.4791	18.671230	0.000889	8.894769	3.013629	-0.070983
 966	4.8250e-01	1.4342	18.546204	0.000313	3.133385	1.061619	-0.025005
 967	4.8300e-01	1.3973	18.175159	0.000930	9.299077	3.150613	-0.074209
 968	4.8350e-01	1.3604	17.884776	0.000728	7.277538	2.465697	-0.058077
 969	4.8400e-01	1.3139	17.509698	0.000940	9.400154	3.184858	-0.075016
 970	4.8450e-01	1.2754	17.247546	0.000657	6.570000	2.225976	-0.052430
 971	4.8500e-01	1.2433	16.949097	0.000748	7.479692	2.534188	-0.059690
 972	4.8550e-01	1.1919	16.622416	0.000819	8.187231	2.773909	-0.065336
 973	4.8600e-01	1.1599	16.299768	0.000809	8.086154	2.739663	-0.064530
 974	4.8650e-01	1.1149	15.960988	0.000849	8.490462	2.876646	-0.067756
 975	4.8700e-01	1.0764	15.698836	0.000657	6.570000	2.225976	-0.052430
 976	4.8750e-01	1.0363	15.380222	0.000799	7.985077	2.705417	-0.063723
 977	4.8800e-01	0.9866	15.025309	0.000889	8.894769	3.013629	-0.070983
 978	4.8850e-01	0.9545	14.759124	0.000667	6.671077	2.260222	-0.053237
 979	4.8900e-01	0.9128	14.480841	0.000697	6.974308	2.362959	-0.055657
 980	4.8950e-01	0.8759	14.182391	0.000748	7.479692	2.534188	-0.059690
 981	4.9000e-01	0.8294	13.875876	0.000768	7.681846	2.602680	-0.061303
 982	4.9050e-01	0.8021	13.404003	0.001183	11.826000	4.006757	-0.094375
 983	4.9100e-01	0.7524	13.149918	0.000637	6.367846	2.157485	-0.050817
 984	4.9150e-01	0.7155	12.879700	0.000677	6.772154	2.294468	-0.054044
 985	4.9200e-01	0.6658	12.633681	0.000617	6.165692	2.088993	-0.049204
 986	4.9250e-01	0.6369	12.290868	0.000859	8.591538	2.910892	-0.068563
 987	4.9300e-01	0.5952	11.927889	0.000910	9.096923	3.082121	-0.072596
 988	4.9350e-01	0.5663	11.609274	0.000799	7.985077	2.705417	-0.063723
 989	4.9400e-01	0.5134	11.218064	0.000980	9.804462	3.321841	-0.078242
 990	4.9450e-01	0.4700	10.968012	0.000627	6.266769	2.123239	-0.050010
 991	4.9500e-01	0.4396	10.758291	0.000526	5.256000	1.780781	-0.041944
 992	4.9550e-01	0.3978	10.423543	0.000839	8.389385	2.842400	-0.066949
 993	4.9600e-01	0.3545	10.080730	0.000859	8.591538	2.910892	-0.068563
 994	4.9650e-01	0.3241	9.770181	0.000778	7.782923	2.636926	-0.062110
 995	4.9700e-01	0.2711	9.411236	0.000900	8.995846	3.047875	-0.071789
 996	4.9750e-01	0.2294	9.189415	0.000556	5.559231	1.883518	-0.044364
 997	4.9800e-01	0.1925	8.886933	0.000758	7.580769	2.568434	-0.060496
 998	4.9850e-01	0.1524	8.564285	0.000809	8.086154	2.739663	-0.064530
 999	4.9900e-01	0.1075	8.225505	0.000849	8.490462	2.876646	-0.067756
1000	4.9950e-01	0.0770	7.979486	0.000617	6.165692	2.088993	-0.049204
1001	5.0000e-01	0.0369	7.499547	0.001203	12.028154	4.075249	-0.095988
1002	5.0050e-01	0.0000	7.269660	0.000576	5.761385	1.952010	-0.045977
1003	5.0100e-01	-0.0401	7.047840	0.000556	5.559231	1.883518	-0.044364
1004	5.0150e-01	-0.0690	6.741324	0.000768	7.681846	2.602680	-0.061303
1005	5.0200e-01	-0.1171	6.378345	0.000910	9.096923	3.082121	-0.072596
1006	5.0250e-01	-0.1540	6.108128	0.000677	6.772154	2.294468	-0.054044
1007	5.0300e-01	-0.1909	5.781447	0.000819	8.187231	2.773909	-0.065336
1008	5.0350e-01	-0.2487	5.539461	0.000606	6.064615	2.054747	-0.048397
1009	5.0400e-01	-0.2743	5.168416	0.000930	9.299077	3.150613	-0.074209
1010	5.0450e-01	-0.3192	4.857867	0.000778	7.782923	2.636926	-0.062110
1011	5.0500e-01	-0.3593	4.575550	0.000708	7.075385	2.397205	-0.056463
1012	5.0550e-01	-0.4059	4.289200	0.000718	7.176462	2.431451	-0.057270
1013	5.0600e-01	-0.4444	3.966552	0.000809	8.086154	2.739663	-0.064530
1014	5.0650e-01	-0.4797	3.635838	0.000829	8.288308	2.808155	-0.066143
1015	5.0700e-01	-0.5214	3.301091	0.000839	8.389385	2.842400	-0.066949
1016	5.0750e-01	-0.5567	3.047006	0.000637	6.367846	2.157485	-0.050817
1017	5.0800e-01	-0.5968	2.732424	0.000788	7.884000	2.671172	-0.062916
1018	5.0850e-01	-0.6449	2.538836	0.000485	4.851692	1.643798	-0.038718
1019	5.0900e-01	-0.6802	2.187956	0.000879	8.793692	2.979384	-0.070176
1020	5.0950e-01	-0.7123	1.788679	0.001001	10.006615	3.390333	-0.079855
1021	5.1000e-01	-0.7588	1.554760	0.000586	5.862462	1.986256	-0.046784
1022	5.1050e-01	-0.7893	1.215979	0.000849	8.490462	2.876646	-0.067756
1023	5.1100e-01	-0.8278	0.836868	0.000950	9.501231	3.219104	-0.075822
1024	5.1150e-01	-0.8663	0.498088	0.000849	8.490462	2.876646	-0.067756
1025	5.1200e-01	-0.9080	0.179473	0.000799	7.985077	2.705417	-0.063723
1026	5.1250e-01	-0.9561	-0.006050	0.000465	4.649538	1.575306	-0.037105
1027	5.1300e-01	-1.0026	-0.389194	0.000960	9.602308	3.253350	-0.076629
1028	5.1350e-01	-1.0411	-0.744107	0.000889	8.894769	3.013629	-0.070983
1029	5.1400e-01	-1.0780	-1.042556	0.000748	7.479692	2.534188	-0.059690
1030	5.1450e-01	-1.1165	-1.373270	0.000829	8.288308	2.808155	-0.066143
1031	5.1500e-01	-1.1567	-1.699951	0.000819	8.187231	2.773909	-0.065336
1032	5.1550e-01	-1.1968	-1.945970	0.000617	6.165692	2.088993	-0.049204
1033	5.1600e-01	-1.2385	-2.272651	0.000819	8.187231	2.773909	-0.065336
1034	5.1650e-01	-1.2754	-2.526736	0.000637	6.367846	2.157485	-0.050817
1035	5.1700e-01	-1.3171	-2.942145	0.001041	10.410923	3.527316	-0.083082
1036	5.1750e-01	-1.3636	-3.159933	0.000546	5.458154	1.849273	-0.043557
1037	5.1800e-01	-1.3925	-3.494680	0.000839	8.389385	2.842400	-0.066949
1038	5.1850e-01	-1.4326	-3.797162	0.000758	7.580769	2.568434	-0.060496
1039	5.1900e-01	-1.4775	-4.123843	0.000819	8.187231	2.773909	-0.065336
1040	5.1950e-01	-1.5112	-4.454557	0.000829	8.288308	2.808155	-0.066143
1041	5.2000e-01	-1.5609	-4.696543	0.000606	6.064615	2.054747	-0.048397
1042	5.2050e-01	-1.5994	-5.051456	0.000889	8.894769	3.013629	-0.070983
1043	5.2100e-01	-1.6315	-5.442667	0.000980	9.804462	3.321841	-0.078242
1044	5.2150e-01	-1.6764	-5.724983	0.000708	7.075385	2.397205	-0.056463
1045	5.2200e-01	-1.7117	-5.962936	0.000596	5.963538	2.020502	-0.047591
1046	5.2250e-01	-1.7598	-6.269452	0.000768	7.681846	2.602680	-0.061303
1047	5.2300e-01	-1.8032	-6.616298	0.000869	8.692615	2.945138	-0.069369
1048	5.2350e-01	-1.8304	-6.999443	0.000960	9.602308	3.253350	-0.076629
1049	5.2400e-01	-1.8770	-7.221263	0.000556	5.559231	1.883518	-0.044364
1050	5.2450e-01	-1.9219	-7.539878	0.000799	7.985077	2.705417	-0.063723
1051	5.2500e-01	-1.9540	-7.814129	0.000687	6.873231	2.328714	-0.054850
1052	5.2550e-01	-1.9941	-8.104512	0.000728	7.277538	2.465697	-0.058077
1053	5.2600e-01	-2.0294	-8.532020	0.001071	10.714154	3.630054	-0.085502
1054	5.2650e-01	-2.0743	-8.802238	0.000677	6.772154	2.294468	-0.054044
1055	5.2700e-01	-2.1208	-9.044224	0.000606	6.064615	2.054747	-0.048397
1056	5.2750e-01	-2.1545	-9.334607	0.000728	7.277538	2.465697	-0.058077
1057	5.2800e-01	-2.1914	-9.701619	0.000920	9.198000	3.116367	-0.073402
1058	5.2850e-01	-2.2363	-10.032333	0.000829	8.288308	2.808155	-0.066143
1059	5.2900e-01	-2.2700	-10.294484	0.000657	6.570000	2.225976	-0.052430
1060	5.2950e-01	-2.3165	-10.588900	0.000738	7.378615	2.499943	-0.058883
1061	5.3000e-01	-2.3598	-10.968012	0.000950	9.501231	3.219104	-0.075822
1062	5.3050e-01	-2.3999	-11.335024	0.000920	9.198000	3.116367	-0.073402
1063	5.3100e-01	-2.4304	-11.661705	0.000819	8.187231	2.773909	-0.065336
1064	5.3150e-01	-2.4753	-11.871426	0.000526	5.256000	1.780781	-0.041944
1065	5.3200e-01	-2.5235	-12.165842	0.000738	7.378615	2.499943	-0.058883
1066	5.3250e-01	-2.5588	-12.367497	0.000505	5.053846	1.712289	-0.040331
1067	5.3300e-01	-2.6069	-12.778873	0.001031	10.309846	3.493070	-0.082275
1068	5.3350e-01	-2.6342	-13.145885	0.000920	9.198000	3.116367	-0.073402
1069	5.3400e-01	-2.6807	-13.496764	0.000879	8.793692	2.979384	-0.070176
1070	5.3450e-01	-2.7208	-13.803280	0.000768	7.681846	2.602680	-0.061303
1071	5.3500e-01	-2.7625	-13.988803	0.000465	4.649538	1.575306	-0.037105
1072	5.3550e-01	-2.7946	-14.311450	0.000809	8.086154	2.739663	-0.064530
1073	5.3600e-01	-2.8379	-14.690562	0.000950	9.501231	3.219104	-0.075822
1074	5.3650e-01	-2.8764	-14.948680	0.000647	6.468923	2.191730	-0.051624
1075	5.3700e-01	-2.9197	-15.239063	0.000728	7.277538	2.465697	-0.058077
1076	5.3750e-01	-2.9630	-15.481049	0.000606	6.064615	2.054747	-0.048397
1077	5.3800e-01	-2.9967	-15.888392	0.001021	10.208769	3.458825	-0.081469
1078	5.3850e-01	-3.0400	-16.243305	0.000889	8.894769	3.013629	-0.070983
1079	5.3900e-01	-3.0769	-16.424794	0.000455	4.548462	1.541060	-0.036298
1080	5.3950e-01	-3.1170	-16.771641	0.000869	8.692615	2.945138	-0.069369
1081	5.4000e-01	-3.1555	-17.053957	0.000708	7.075385	2.397205	-0.056463
1082	5.4050e-01	-3.1972	-17.554062	0.001253	12.533538	4.246478	-0.100021
1083	5.4100e-01	-3.2406	-17.755717	0.000505	5.053846	1.712289	-0.040331
1084	5.4150e-01	-3.2742	-18.038033	0.000708	7.075385	2.397205	-0.056463
1085	5.4200e-01	-3.3159	-18.360681	0.000809	8.086154	2.739663	-0.064530
1086	5.4250e-01	-3.3593	-18.655098	0.000738	7.378615	2.499943	-0.058883
1087	5.4300e-01	-3.3897	-18.973712	0.000799	7.985077	2.705417	-0.063723
1088	5.4350e-01	-3.4298	-19.288294	0.000788	7.884000	2.671172	-0.062916
1089	5.4400e-01	-3.4716	-19.667405	0.000950	9.501231	3.219104	-0.075822
1090	5.4450e-01	-3.5181	-19.913424	0.000617	6.165692	2.088993	-0.049204
1091	5.4500e-01	-3.5502	-20.280436	0.000920	9.198000	3.116367	-0.073402
1092	5.4550e-01	-3.5983	-20.502257	0.000556	5.559231	1.883518	-0.044364
1093	5.4600e-01	-3.6368	-20.780541	0.000697	6.974308	2.362959	-0.055657
1094	5.4650e-01	-3.6801	-21.095122	0.000788	7.884000	2.671172	-0.062916
1095	5.4700e-01	-3.7170	-21.490366	0.000991	9.905538	3.356087	-0.079049
1096	5.4750e-01	-3.7587	-21.776716	0.000718	7.176462	2.431451	-0.057270
1097	5.4800e-01	-3.7988	-22.143728	0.000920	9.198000	3.116367	-0.073402
1098	5.4850e-01	-3.8421	-22.413945	0.000677	6.772154	2.294468	-0.054044
1099	5.4900e-01	-3.8710	-22.728527	0.000788	7.884000	2.671172	-0.062916
1100	5.4950e-01	-3.9175	-23.018910	0.000728	7.277538	2.465697	-0.058077
1101	5.5000e-01	-3.9576	-23.293161	0.000687	6.873231	2.328714	-0.054850
1102	5.5050e-01	-4.0010	-23.571445	0.000697	6.974308	2.362959	-0.055657
1103	5.5100e-01	-4.0395	-23.914258	0.000859	8.591538	2.910892	-0.068563
1104	5.5150e-01	-4.0812	-24.249005	0.000839	8.389385	2.842400	-0.066949
1105	5.5200e-01	-4.1277	-24.462760	0.000536	5.357077	1.815027	-0.042751
1106	5.5250e-01	-4.1518	-24.801540	0.000849	8.490462	2.876646	-0.067756
1107	5.5300e-01	-4.1951	-25.164519	0.000910	9.096923	3.082121	-0.072596
1108	5.5350e-01	-4.2400	-25.483134	0.000799	7.985077	2.705417	-0.063723
1109	5.5400e-01	-4.2817	-25.789649	0.000768	7.681846	2.602680	-0.061303
1110	5.5450e-01	-4.3170	-25.983238	0.000485	4.851692	1.643798	-0.038718
1111	5.5500e-01	-4.3651	-26.330084	0.000869	8.692615	2.945138	-0.069369
1112	5.5550e-01	-4.3860	-26.636600	0.000768	7.681846	2.602680	-0.061303
1113	5.5600e-01	-4.4421	-27.003612	0.000920	9.198000	3.116367	-0.073402
1114	5.5650e-01	-4.4726	-27.298028	0.000738	7.378615	2.499943	-0.058883
1115	5.5700e-01	-4.5191	-27.592444	0.000738	7.378615	2.499943	-0.058883
1116	5.5750e-01	-4.5480	-27.850562	0.000647	6.468923	2.191730	-0.051624
1117	5.5800e-01	-4.6009	-28.209508	0.000900	8.995846	3.047875	-0.071789
1118	5.5850e-01	-4.6378	-28.572487	0.000910	9.096923	3.082121	-0.072596
1119	5.5900e-01	-4.6779	-28.870936	0.000748	7.479692	2.534188	-0.059690
1120	5.5950e-01	-4.7164	-29.201650	0.000829	8.288308	2.808155	-0.066143
1121	5.6000e-01	-4.7598	-29.467835	0.000667	6.671077	2.260222	-0.053237
1122	5.6050e-01	-4.7951	-29.734019	0.000667	6.671077	2.260222	-0.053237
1123	5.6100e-01	-4.8416	-29.984072	0.000627	6.266769	2.123239	-0.050010
1124	5.6150e-01	-4.8801	-30.383348	0.001001	10.006615	3.390333	-0.079855
1125	5.6200e-01	-4.9186	-30.689864	0.000768	7.681846	2.602680	-0.061303
1126	5.6250e-01	-4.9523	-30.980247	0.000728	7.277538	2.465697	-0.058077
1127	5.6300e-01	-5.0004	-31.214167	0.000586	5.862462	1.986256	-0.046784
1128	5.6350e-01	-5.0373	-31.524715	0.000778	7.782923	2.636926	-0.062110
1129	5.6400e-01	-5.0742	-31.887694	0.000910	9.096923	3.082121	-0.072596
1130	5.6450e-01	-5.1111	-32.242607	0.000889	8.894769	3.013629	-0.070983
1131	5.6500e-01	-5.1560	-32.545089	0.000758	7.580769	2.568434	-0.060496
1132	5.6550e-01	-5.1977	-32.770943	0.000566	5.660308	1.917764	-0.045171
1133	5.6600e-01	-5.2394	-33.105690	0.000839	8.389385	2.842400	-0.066949
1134	5.6650e-01	-5.2811	-33.404139	0.000748	7.479692	2.534188	-0.059690
1135	5.6700e-01	-5.3116	-33.742919	0.000849	8.490462	2.876646	-0.067756
1136	5.6750e-01	-5.3662	-33.992972	0.000627	6.266769	2.123239	-0.050010
1137	5.6800e-01	-5.4031	-34.311586	0.000799	7.985077	2.705417	-0.063723
1138	5.6850e-01	-5.4383	-34.791525	0.001203	12.028154	4.075249	-0.095988
1139	5.6900e-01	-5.4801	-34.936717	0.000364	3.638769	1.232848	-0.029038
1140	5.6950e-01	-5.5186	-35.158537	0.000556	5.559231	1.883518	-0.044364
1141	5.7000e-01	-5.5587	-35.537648	0.000950	9.501231	3.219104	-0.075822
1142	5.7050e-01	-5.5988	-35.876429	0.000849	8.490462	2.876646	-0.067756
1143	5.7100e-01	-5.6293	-36.166812	0.000728	7.277538	2.465697	-0.058077
1144	5.7150e-01	-5.6742	-36.453162	0.000718	7.176462	2.431451	-0.057270
1145	5.7200e-01	-5.7143	-36.840339	0.000970	9.703385	3.287596	-0.077435
1146	5.7250e-01	-5.7608	-37.179119	0.000849	8.490462	2.876646	-0.067756
1147	5.7300e-01	-5.7897	-37.364642	0.000465	4.649538	1.575306	-0.037105
1148	5.7350e-01	-5.8378	-37.767952	0.001011	10.107692	3.424579	-0.080662
1149	5.7400e-01	-5.8811	-38.026070	0.000647	6.468923	2.191730	-0.051624
1150	5.7450e-01	-5.9196	-38.280155	0.000637	6.367846	2.157485	-0.050817
1151	5.7500e-01	-5.9581	-38.703631	0.001061	10.613077	3.595808	-0.084695
1152	5.7550e-01	-5.9998	-38.929484	0.000566	5.660308	1.917764	-0.045171
1153	5.7600e-01	-6.0383	-39.248099	0.000799	7.985077	2.705417	-0.063723
1154	5.7650e-01	-6.0672	-39.538482	0.000728	7.277538	2.465697	-0.058077
1155	5.7700e-01	-6.1234	-39.881296	0.000859	8.591538	2.910892	-0.068563
1156	5.7750e-01	-6.1570	-40.167646	0.000718	7.176462	2.431451	-0.057270
1157	5.7800e-01	-6.2004	-40.445929	0.000697	6.974308	2.362959	-0.055657
1158	5.7850e-01	-6.2244	-40.712114	0.000667	6.671077	2.260222	-0.053237
1159	5.7900e-01	-6.2758	-40.994431	0.000708	7.075385	2.397205	-0.056463
1160	5.7950e-01	-6.3111	-41.256582	0.000657	6.570000	2.225976	-0.052430
1161	5.8000e-01	-6.3544	-41.555031	0.000748	7.479692	2.534188	-0.059690
1162	5.8050e-01	-6.3993	-41.853481	0.000748	7.479692	2.534188	-0.059690
1163	5.8100e-01	-6.4346	-42.337453	0.001213	12.129231	4.109495	-0.096794
1164	5.8150e-01	-6.4635	-42.652034	0.000788	7.884000	2.671172	-0.062916
1165	5.8200e-01	-6.5132	-42.869822	0.000546	5.458154	1.849273	-0.043557
1166	5.8250e-01	-6.5437	-43.176337	0.000768	7.681846	2.602680	-0.061303
1167	5.8300e-01	-6.5886	-43.458654	0.000708	7.075385	2.397205	-0.056463
1168	5.8350e-01	-6.6287	-43.761136	0.000758	7.580769	2.568434	-0.060496
1169	5.8400e-01	-6.6720	-44.075718	0.000788	7.884000	2.671172	-0.062916
1170	5.8450e-01	-6.7169	-44.305605	0.000576	5.761385	1.952010	-0.045977
1171	5.8500e-01	-6.7586	-44.547591	0.000606	6.064615	2.054747	-0.048397
1172	5.8550e-01	-6.7907	-44.898470	0.000879	8.793692	2.979384	-0.070176
1173	5.8600e-01	-6.8356	-45.229184	0.000829	8.288308	2.808155	-0.066143
1174	5.8650e-01	-6.8806	-45.442939	0.000536	5.357077	1.815027	-0.042751
1175	5.8700e-01	-6.8966	-45.785752	0.000859	8.591538	2.910892	-0.068563
1176	5.8750e-01	-6.9608	-46.197128	0.001031	10.309846	3.493070	-0.082275
1177	5.8800e-01	-6.9993	-46.427015	0.000576	5.761385	1.952010	-0.045977
1178	5.8850e-01	-7.0330	-46.685133	0.000647	6.468923	2.191730	-0.051624
1179	5.8900e-01	-7.0731	-47.080377	0.000991	9.905538	3.356087	-0.079049
1180	5.8950e-01	-7.1019	-47.407058	0.000819	8.187231	2.773909	-0.065336
1181	5.9000e-01	-7.1517	-47.649043	0.000606	6.064615	2.054747	-0.048397
1182	5.9050e-01	-7.1886	-47.846665	0.000495	4.952769	1.678044	-0.039524
1183	5.9100e-01	-7.2335	-48.221743	0.000940	9.400154	3.184858	-0.075016
1184	5.9150e-01	-7.2736	-48.504060	0.000708	7.075385	2.397205	-0.056463
1185	5.9200e-01	-7.3169	-48.810576	0.000768	7.681846	2.602680	-0.061303
1186	5.9250e-01	-7.3506	-49.133224	0.000809	8.086154	2.739663	-0.064530
1187	5.9300e-01	-7.4019	-49.459905	0.000819	8.187231	2.773909	-0.065336
1188	5.9350e-01	-7.4372	-49.762387	0.000758	7.580769	2.568434	-0.060496
1189	5.9400e-01	-7.4805	-50.076969	0.000788	7.884000	2.671172	-0.062916
1190	5.9450e-01	-7.5174	-50.403650	0.000819	8.187231	2.773909	-0.065336
1191	5.9500e-01	-7.5495	-50.649669	0.000617	6.165692	2.088993	-0.049204
1192	5.9550e-01	-7.5880	-50.903754	0.000637	6.367846	2.157485	-0.050817
1193	5.9600e-01	-7.6410	-51.234468	0.000829	8.288308	2.808155	-0.066143
1194	5.9650e-01	-7.6698	-51.553083	0.000799	7.985077	2.705417	-0.063723
1195	5.9700e-01	-7.7083	-51.799102	0.000617	6.165692	2.088993	-0.049204
1196	5.9750e-01	-7.7484	-52.093518	0.000738	7.378615	2.499943	-0.058883
1197	5.9800e-01	-7.7869	-52.367769	0.000687	6.873231	2.328714	-0.054850
1198	5.9850e-01	-7.8399	-52.658152	0.000728	7.277538	2.465697	-0.058077
1199	5.9900e-01	-7.8784	-52.992899	0.000839	8.389385	2.842400	-0.066949
1200	5.9950e-01	-7.9137	-53.299415	0.000768	7.681846	2.602680	-0.061303
1201	6.0000e-01	-7.9458	-53.565599	0.000667	6.671077	2.260222	-0.053237
1202	6.0050e-01	-7.9907	-53.944710	0.000950	9.501231	3.219104	-0.075822
1203	6.0100e-01	-8.0404	-54.235093	0.000728	7.277538	2.465697	-0.058077
1204	6.0150e-01	-8.0773	-54.521443	0.000718	7.176462	2.431451	-0.057270
1205	6.0200e-01	-8.1222	-54.759396	0.000596	5.963538	2.020502	-0.047591
1206	6.0250e-01	-8.1543	-55.130441	0.000930	9.299077	3.150613	-0.074209
1207	6.0300e-01	-8.1976	-55.396626	0.000667	6.671077	2.260222	-0.053237
1208	6.0350e-01	-8.2377	-55.666843	0.000677	6.772154	2.294468	-0.054044
1209	6.0400e-01	-8.2682	-56.029822	0.000910	9.096923	3.082121	-0.072596
1210	6.0450e-01	-8.3179	-56.271808	0.000606	6.064615	2.054747	-0.048397
1211	6.0500e-01	-8.3564	-56.562191	0.000728	7.277538	2.465697	-0.058077
1212	6.0550e-01	-8.3966	-56.775946	0.000536	5.357077	1.815027	-0.042751
1213	6.0600e-01	-8.4367	-57.122792	0.000869	8.692615	2.945138	-0.069369
1214	6.0650e-01	-8.4768	-57.493837	0.000930	9.299077	3.150613	-0.074209
1215	6.0700e-01	-8.5121	-57.707591	0.000536	5.357077	1.815027	-0.042751
1216	6.0750e-01	-8.5586	-58.026206	0.000799	7.985077	2.705417	-0.063723
1217	6.0800e-01	-8.5875	-58.324655	0.000748	7.479692	2.534188	-0.059690
1218	6.0850e-01	-8.6276	-58.611005	0.000718	7.176462	2.431451	-0.057270
1219	6.0900e-01	-8.6709	-58.877190	0.000667	6.671077	2.260222	-0.053237
1220	6.0950e-01	-8.7174	-59.236136	0.000900	8.995846	3.047875	-0.071789
1221	6.1000e-01	-8.7495	-59.506353	0.000677	6.772154	2.294468	-0.054044
1222	6.1050e-01	-8.7944	-59.760439	0.000637	6.367846	2.157485	-0.050817
1223	6.1100e-01	-8.8345	-60.070987	0.000778	7.782923	2.636926	-0.062110
1224	6.1150e-01	-8.8682	-60.312973	0.000606	6.064615	2.054747	-0.048397
1225	6.1200e-01	-8.9131	-60.684018	0.000930	9.299077	3.150613	-0.074209
1226	6.1250e-01	-8.9532	-61.006666	0.000809	8.086154	2.739663	-0.064530
1227	6.1300e-01	-8.9981	-61.208321	0.000505	5.053846	1.712289	-0.040331
1228	6.1350e-01	-9.0366	-61.639862	0.001082	10.815231	3.664299	-0.086308
1229	6.1400e-01	-9.0687	-61.902014	0.000657	6.570000	2.225976	-0.052430
1230	6.1450e-01	-9.1056	-62.115768	0.000536	5.357077	1.815027	-0.042751
1231	6.1500e-01	-9.1570	-62.398085	0.000708	7.075385	2.397205	-0.056463
1232	6.1550e-01	-9.1939	-62.724766	0.000819	8.187231	2.773909	-0.065336
1233	6.1600e-01	-9.2372	-63.027248	0.000758	7.580769	2.568434	-0.060496
1234	6.1650e-01	-9.2677	-63.313598	0.000718	7.176462	2.431451	-0.057270
1235	6.1700e-01	-9.3158	-63.583816	0.000677	6.772154	2.294468	-0.054044
1236	6.1750e-01	-9.3543	-63.825802	0.000606	6.064615	2.054747	-0.048397
1237	6.1800e-01	-9.3992	-64.128284	0.000758	7.580769	2.568434	-0.060496
1238	6.1850e-01	-9.4281	-64.475131	0.000869	8.692615	2.945138	-0.069369
1239	6.1900e-01	-9.4794	-64.809878	0.000839	8.389385	2.842400	-0.066949
1240	6.1950e-01	-9.5179	-65.067996	0.000647	6.468923	2.191730	-0.051624
1241	6.2000e-01	-9.5660	-65.358379	0.000728	7.277538	2.465697	-0.058077
1242	6.2050e-01	-9.5981	-65.685060	0.000819	8.187231	2.773909	-0.065336
1243	6.2100e-01	-9.6366	-65.999642	0.000788	7.884000	2.671172	-0.062916
1244	6.2150e-01	-9.6655	-66.330356	0.000829	8.288308	2.808155	-0.066143
1245	6.2200e-01	-9.7056	-66.540077	0.000526	5.256000	1.780781	-0.041944
1246	6.2250e-01	-9.7489	-66.862725	0.000809	8.086154	2.739663	-0.064530
1247	6.2300e-01	-9.7858	-67.080513	0.000546	5.458154	1.849273	-0.043557
1248	6.2350e-01	-9.8275	-67.399127	0.000799	7.985077	2.705417	-0.063723
1249	6.2400e-01	-9.8660	-67.693543	0.000738	7.378615	2.499943	-0.058883
1250	6.2450e-01	-9.9093	-67.895198	0.000505	5.053846	1.712289	-0.040331
1251	6.2500e-01	-9.9462	-68.306574	0.001031	10.309846	3.493070	-0.082275
1252	6.2550e-01	-9.9880	-68.540494	0.000586	5.862462	1.986256	-0.046784
1253	6.2600e-01	-10.0232	-68.891374	0.000879	8.793692	2.979384	-0.070176
1254	6.2650e-01	-10.0617	-69.209989	0.000799	7.985077	2.705417	-0.063723
1255	6.2700e-01	-10.1131	-69.383412	0.000435	4.346308	1.472569	-0.034685
1256	6.2750e-01	-10.1516	-69.734291	0.000879	8.793692	2.979384	-0.070176
1257	6.2800e-01	-10.1949	-69.980310	0.000617	6.165692	2.088993	-0.049204
1258	6.2850e-01	-10.2286	-70.371521	0.000980	9.804462	3.321841	-0.078242
1259	6.2900e-01	-10.2751	-70.593341	0.000556	5.559231	1.883518	-0.044364
1260	6.2950e-01	-10.3088	-70.819195	0.000566	5.660308	1.917764	-0.045171
1261	6.3000e-01	-10.3649	-71.069247	0.000627	6.266769	2.123239	-0.050010
1262	6.3050e-01	-10.3922	-71.355597	0.000718	7.176462	2.431451	-0.057270
1263	6.3100e-01	-10.4323	-71.670179	0.000788	7.884000	2.671172	-0.062916
1264	6.3150e-01	-10.4660	-72.041224	0.000930	9.299077	3.150613	-0.074209
1265	6.3200e-01	-10.5077	-72.371938	0.000829	8.288308	2.808155	-0.066143
1266	6.3250e-01	-10.5478	-72.557460	0.000465	4.649538	1.575306	-0.037105
1267	6.3300e-01	-10.5895	-72.775248	0.000546	5.458154	1.849273	-0.043557
1268	6.3350e-01	-10.6296	-73.109995	0.000839	8.389385	2.842400	-0.066949
1269	6.3400e-01	-10.6698	-73.481040	0.000930	9.299077	3.150613	-0.074209
1270	6.3450e-01	-10.7083	-73.751258	0.000677	6.772154	2.294468	-0.054044
1271	6.3500e-01	-10.7484	-73.936780	0.000465	4.649538	1.575306	-0.037105
1272	6.3550e-01	-10.7804	-74.311858	0.000940	9.400154	3.184858	-0.075016
1273	6.3600e-01	-10.8382	-74.493348	0.000455	4.548462	1.541060	-0.036298
1274	6.3650e-01	-10.8751	-74.856327	0.000910	9.096923	3.082121	-0.072596
1275	6.3700e-01	-10.9216	-75.191074	0.000839	8.389385	2.842400	-0.066949
1276	6.3750e-01	-10.9521	-75.408861	0.000546	5.458154	1.849273	-0.043557
1277	6.3800e-01	-10.9890	-75.699244	0.000728	7.277538	2.465697	-0.058077
1278	6.3850e-01	-11.0307	-75.997694	0.000748	7.479692	2.534188	-0.059690
1279	6.3900e-01	-11.0708	-76.288077	0.000728	7.277538	2.465697	-0.058077
1280	6.3950e-01	-11.1045	-76.606691	0.000799	7.985077	2.705417	-0.063723
1281	6.4000e-01	-11.1558	-76.860777	0.000637	6.367846	2.157485	-0.050817
1282	6.4050e-01	-11.1847	-77.231822	0.000930	9.299077	3.150613	-0.074209
1283	6.4100e-01	-11.2393	-77.457675	0.000566	5.660308	1.917764	-0.045171
1284	6.4150e-01	-11.2762	-77.667396	0.000526	5.256000	1.780781	-0.041944
1285	6.4200e-01	-11.3147	-77.998110	0.000829	8.288308	2.808155	-0.066143
1286	6.4250e-01	-11.3516	-78.248163	0.000627	6.266769	2.123239	-0.050010
1287	6.4300e-01	-11.3917	-78.482082	0.000586	5.862462	1.986256	-0.046784
1288	6.4350e-01	-11.4366	-78.812796	0.000829	8.288308	2.808155	-0.066143
1289	6.4400e-01	-11.4687	-79.107213	0.000738	7.378615	2.499943	-0.058883
1290	6.4450e-01	-11.5152	-79.329033	0.000556	5.559231	1.883518	-0.044364
1291	6.4500e-01	-11.5585	-79.631515	0.000758	7.580769	2.568434	-0.060496
1292	6.4550e-01	-11.6018	-79.966263	0.000839	8.389385	2.842400	-0.066949
1293	6.4600e-01	-11.6323	-80.244546	0.000697	6.974308	2.362959	-0.055657
1294	6.4650e-01	-11.6804	-80.510731	0.000667	6.671077	2.260222	-0.053237
1295	6.4700e-01	-11.7157	-80.784982	0.000687	6.873231	2.328714	-0.054850
1296	6.4750e-01	-11.7494	-81.099563	0.000788	7.884000	2.671172	-0.062916
1297	6.4800e-01	-11.7943	-81.325417	0.000566	5.660308	1.917764	-0.045171
1298	6.4850e-01	-11.8296	-81.611767	0.000718	7.176462	2.431451	-0.057270
1299	6.4900e-01	-11.8681	-81.998944	0.000970	9.703385	3.287596	-0.077435
1300	6.4950e-01	-11.9066	-82.236897	0.000596	5.963538	2.020502	-0.047591
1301	6.5000e-01	-11.9628	-82.599876	0.000910	9.096923	3.082121	-0.072596
1302	6.5050e-01	-11.9884	-82.833796	0.000586	5.862462	1.986256	-0.046784
1303	6.5100e-01	-12.0366	-83.087881	0.000637	6.367846	2.157485	-0.050817
1304	6.5150e-01	-12.0719	-83.345999	0.000647	6.468923	2.191730	-0.051624
1305	6.5200e-01	-12.1168	-83.543621	0.000495	4.952769	1.678044	-0.039524
1306	6.5250e-01	-12.1505	-83.906600	0.000910	9.096923	3.082121	-0.072596
1307	6.5300e-01	-12.1874	-84.205049	0.000748	7.479692	2.534188	-0.059690
1308	6.5350e-01	-12.2307	-84.342175	0.000344	3.436615	1.164357	-0.027425
1309	6.5400e-01	-12.2708	-84.725319	0.000960	9.602308	3.253350	-0.076629
1310	6.5450e-01	-12.3125	-84.963272	0.000596	5.963538	2.020502	-0.047591
1311	6.5500e-01	-12.3510	-85.346416	0.000960	9.602308	3.253350	-0.076629
1312	6.5550e-01	-12.3975	-85.608567	0.000657	6.570000	2.225976	-0.052430
1313	6.5600e-01	-12.4344	-85.838454	0.000576	5.761385	1.952010	-0.045977
1314	6.5650e-01	-12.4697	-86.092539	0.000637	6.367846	2.157485	-0.050817
1315	6.5700e-01	-12.5082	-86.431320	0.000849	8.490462	2.876646	-0.067756
1316	6.5750e-01	-12.5563	-86.705570	0.000687	6.873231	2.328714	-0.054850
1317	6.5800e-01	-12.5852	-86.903192	0.000495	4.952769	1.678044	-0.039524
1318	6.5850e-01	-12.6285	-87.274237	0.000930	9.299077	3.150613	-0.074209
1319	6.5900e-01	-12.6654	-87.532356	0.000647	6.468923	2.191730	-0.051624
1320	6.5950e-01	-12.7119	-87.729977	0.000495	4.952769	1.678044	-0.039524
1321	6.6000e-01	-12.7537	-88.044559	0.000788	7.884000	2.671172	-0.062916
1322	6.6050e-01	-12.7857	-88.326876	0.000708	7.075385	2.397205	-0.056463
1323	6.6100e-01	-12.8290	-88.609193	0.000708	7.075385	2.397205	-0.056463
1324	6.6150e-01	-12.8676	-88.996370	0.000970	9.703385	3.287596	-0.077435
1325	6.6200e-01	-12.9125	-89.242389	0.000617	6.165692	2.088993	-0.049204
1326	6.6250e-01	-12.9478	-89.456144	0.000536	5.357077	1.815027	-0.042751
1327	6.6300e-01	-12.9959	-89.726361	0.000677	6.772154	2.294468	-0.054044
1328	6.6350e-01	-13.0328	-90.077241	0.000879	8.793692	2.979384	-0.070176
1329	6.6400e-01	-13.0793	-90.282929	0.000515	5.154923	1.746535	-0.041138
1330	6.6450e-01	-13.1130	-90.541047	0.000647	6.468923	2.191730	-0.051624
1331	6.6500e-01	-13.1467	-90.819331	0.000697	6.974308	2.362959	-0.055657
1332	6.6550e-01	-13.1900	-91.069383	0.000627	6.266769	2.123239	-0.050010
1333	6.6600e-01	-13.2317	-91.392031	0.000809	8.086154	2.739663	-0.064530
1334	6.6650e-01	-13.2702	-91.674348	0.000708	7.075385	2.397205	-0.056463
1335	6.6700e-01	-13.3055	-91.863903	0.000475	4.750615	1.609552	-0.037911
1336	6.6750e-01	-13.3488	-92.146220	0.000708	7.075385	2.397205	-0.056463
1337	6.6800e-01	-13.3857	-92.412405	0.000667	6.671077	2.260222	-0.053237
1338	6.6850e-01	-13.4258	-92.706821	0.000738	7.378615	2.499943	-0.058883
1339	6.6900e-01	-13.4707	-92.936708	0.000576	5.761385	1.952010	-0.045977
1340	6.6950e-01	-13.5108	-93.223058	0.000718	7.176462	2.431451	-0.057270
1341	6.7000e-01	-13.5445	-93.549739	0.000819	8.187231	2.773909	-0.065336
1342	6.7050e-01	-13.5927	-93.932883	0.000960	9.602308	3.253350	-0.076629
1343	6.7100e-01	-13.6312	-94.057909	0.000313	3.133385	1.061619	-0.025005
1344	6.7150e-01	-13.6713	-94.380557	0.000809	8.086154	2.739663	-0.064530
1345	6.7200e-01	-13.7066	-94.642708	0.000657	6.570000	2.225976	-0.052430
1346	6.7250e-01	-13.7563	-95.046018	0.001011	10.107692	3.424579	-0.080662
1347	6.7300e-01	-13.7852	-95.304137	0.000647	6.468923	2.191730	-0.051624
1348	6.7350e-01	-13.8317	-95.441262	0.000344	3.436615	1.164357	-0.027425
1349	6.7400e-01	-13.8782	-95.735678	0.000738	7.378615	2.499943	-0.058883
1350	6.7450e-01	-13.9135	-96.022028	0.000718	7.176462	2.431451	-0.057270
1351	6.7500e-01	-13.9488	-96.268047	0.000617	6.165692	2.088993	-0.049204
1352	6.7550e-01	-13.9825	-96.514066	0.000617	6.165692	2.088993	-0.049204
1353	6.7600e-01	-14.0194	-96.764118	0.000627	6.266769	2.123239	-0.050010
1354	6.7650e-01	-14.0723	-97.062568	0.000748	7.479692	2.534188	-0.059690
1355	6.7700e-01	-14.1140	-97.381182	0.000799	7.985077	2.705417	-0.063723
1356	6.7750e-01	-14.1574	-97.671565	0.000728	7.277538	2.465697	-0.058077
1357	6.7800e-01	-14.1846	-97.921618	0.000627	6.266769	2.123239	-0.050010
1358	6.7850e-01	-14.2344	-98.147471	0.000566	5.660308	1.917764	-0.045171
1359	6.7900e-01	-14.2713	-98.433821	0.000718	7.176462	2.431451	-0.057270
1360	6.7950e-01	-14.3017	-98.732270	0.000748	7.479692	2.534188	-0.059690
1361	6.8000e-01	-14.3563	-99.034753	0.000758	7.580769	2.568434	-0.060496
1362	6.8050e-01	-14.3900	-99.292871	0.000647	6.468923	2.191730	-0.051624
1363	6.8100e-01	-14.4204	-99.494526	0.000505	5.053846	1.712289	-0.040331
1364	6.8150e-01	-14.4638	-99.877670	0.000960	9.602308	3.253350	-0.076629
1365	6.8200e-01	-14.5087	-99.974465	0.000243	2.425846	0.821899	-0.019359
1366	6.8250e-01	-14.5488	-100.369708	0.000991	9.905538	3.356087	-0.079049
1367	6.8300e-01	-14.5873	-100.611694	0.000606	6.064615	2.054747	-0.048397
1368	6.8350e-01	-14.6258	-100.849647	0.000596	5.963538	2.020502	-0.047591
1369	6.8400e-01	-14.6659	-101.087600	0.000596	5.963538	2.020502	-0.047591
1370	6.8450e-01	-14.7092	-101.349751	0.000657	6.570000	2.225976	-0.052430
1371	6.8500e-01	-14.7429	-101.720796	0.000930	9.299077	3.150613	-0.074209
1372	6.8550e-01	-14.7862	-101.954716	0.000586	5.862462	1.986256	-0.046784
1373	6.8600e-01	-14.8392	-102.212834	0.000647	6.468923	2.191730	-0.051624
1374	6.8650e-01	-14.8761	-102.446754	0.000586	5.862462	1.986256	-0.046784
1375	6.8700e-01	-14.9129	-102.753270	0.000768	7.681846	2.602680	-0.061303
1376	6.8750e-01	-14.9579	-103.007355	0.000637	6.367846	2.157485	-0.050817
1377	6.8800e-01	-14.9964	-103.273539	0.000667	6.671077	2.260222	-0.053237
1378	6.8850e-01	-15.0301	-103.479227	0.000515	5.154923	1.746535	-0.041138
1379	6.8900e-01	-15.0702	-103.854306	0.000940	9.400154	3.184858	-0.075016
1380	6.8950e-01	-15.1103	-104.132589	0.000697	6.974308	2.362959	-0.055657
1381	6.9000e-01	-15.1488	-104.301980	0.000425	4.245231	1.438323	-0.033878
1382	6.9050e-01	-15.1841	-104.701256	0.001001	10.006615	3.390333	-0.079855
1383	6.9100e-01	-15.2290	-104.898878	0.000495	4.952769	1.678044	-0.039524
1384	6.9150e-01	-15.2707	-105.165063	0.000667	6.671077	2.260222	-0.053237
1385	6.9200e-01	-15.3108	-105.358651	0.000485	4.851692	1.643798	-0.038718
1386	6.9250e-01	-15.3445	-105.636935	0.000697	6.974308	2.362959	-0.055657
1387	6.9300e-01	-15.3846	-105.967649	0.000829	8.288308	2.808155	-0.066143
1388	6.9350e-01	-15.4263	-106.209635	0.000606	6.064615	2.054747	-0.048397
1389	6.9400e-01	-15.4728	-106.475820	0.000667	6.671077	2.260222	-0.053237
1390	6.9450e-01	-15.5129	-106.806534	0.000829	8.288308	2.808155	-0.066143
1391	6.9500e-01	-15.5514	-107.036420	0.000576	5.761385	1.952010	-0.045977
1392	6.9550e-01	-15.5899	-107.250175	0.000536	5.357077	1.815027	-0.042751
1393	6.9600e-01	-15.6316	-107.588955	0.000849	8.490462	2.876646	-0.067756
1394	6.9650e-01	-15.6669	-107.802709	0.000536	5.357077	1.815027	-0.042751
1395	6.9700e-01	-15.7119	-108.117291	0.000788	7.884000	2.671172	-0.062916
1396	6.9750e-01	-15.7488	-108.306846	0.000475	4.750615	1.609552	-0.037911
1397	6.9800e-01	-15.7824	-108.601263	0.000738	7.378615	2.499943	-0.058883
1398	6.9850e-01	-15.8338	-108.911811	0.000778	7.782923	2.636926	-0.062110
1399	6.9900e-01	-15.8787	-109.101367	0.000475	4.750615	1.609552	-0.037911
1400	6.9950e-01	-15.9076	-109.383684	0.000708	7.075385	2.397205	-0.056463
1401	7.0000e-01	-15.9477	-109.670034	0.000718	7.176462	2.431451	-0.057270
1402	7.0050e-01	-15.9830	-109.976549	0.000768	7.681846	2.602680	-0.061303
1403	7.0100e-01	-16.0375	-110.194337	0.000546	5.458154	1.849273	-0.043557
1404	7.0150e-01	-16.0648	-110.476653	0.000708	7.075385	2.397205	-0.056463
1405	7.0200e-01	-16.1129	-110.811401	0.000839	8.389385	2.842400	-0.066949
1406	7.0250e-01	-16.1594	-110.928361	0.000293	2.931231	0.993128	-0.023392
1407	7.0300e-01	-16.1851	-111.226810	0.000748	7.479692	2.534188	-0.059690
1408	7.0350e-01	-16.2300	-111.492994	0.000667	6.671077	2.260222	-0.053237
1409	7.0400e-01	-16.2685	-111.694649	0.000505	5.053846	1.712289	-0.040331
1410	7.0450e-01	-16.3022	-112.001165	0.000768	7.681846	2.602680	-0.061303
1411	7.0500e-01	-16.3407	-112.267349	0.000667	6.671077	2.260222	-0.053237
1412	7.0550e-01	-16.3904	-112.553699	0.000718	7.176462	2.431451	-0.057270
1413	7.0600e-01	-16.4306	-112.787619	0.000586	5.862462	1.986256	-0.046784
1414	7.0650e-01	-16.4610	-113.078002	0.000728	7.277538	2.465697	-0.058077
1415	7.0700e-01	-16.5076	-113.315955	0.000596	5.963538	2.020502	-0.047591
1416	7.0750e-01	-16.5605	-113.582139	0.000667	6.671077	2.260222	-0.053237
1417	7.0800e-01	-16.5910	-113.904787	0.000809	8.086154	2.739663	-0.064530
1418	7.0850e-01	-16.6343	-114.138707	0.000586	5.862462	1.986256	-0.046784
1419	7.0900e-01	-16.6776	-114.388759	0.000627	6.266769	2.123239	-0.050010
1420	7.0950e-01	-16.7081	-114.731572	0.000859	8.591538	2.910892	-0.068563
1421	7.1000e-01	-16.7418	-115.013889	0.000708	7.075385	2.397205	-0.056463
1422	7.1050e-01	-16.7883	-115.179246	0.000414	4.144154	1.404077	-0.033071
1423	7.1100e-01	-16.8364	-115.445431	0.000667	6.671077	2.260222	-0.053237
1424	7.1150e-01	-16.8717	-115.659185	0.000536	5.357077	1.815027	-0.042751
1425	7.1200e-01	-16.9118	-115.973767	0.000788	7.884000	2.671172	-0.062916
1426	7.1250e-01	-16.9487	-116.248018	0.000687	6.873231	2.328714	-0.054850
1427	7.1300e-01	-16.9888	-116.526301	0.000697	6.974308	2.362959	-0.055657
1428	7.1350e-01	-17.0386	-116.715857	0.000475	4.750615	1.609552	-0.037911
1429	7.1400e-01	-17.0626	-117.070770	0.000889	8.894769	3.013629	-0.070983
1430	7.1450e-01	-17.1156	-117.377285	0.000768	7.681846	2.602680	-0.061303
1431	7.1500e-01	-17.1492	-117.570874	0.000485	4.851692	1.643798	-0.038718
1432	7.1550e-01	-17.1878	-117.845125	0.000687	6.873231	2.328714	-0.054850
1433	7.1600e-01	-17.2343	-118.127442	0.000708	7.075385	2.397205	-0.056463
1434	7.1650e-01	-17.2728	-118.393626	0.000667	6.671077	2.260222	-0.053237
1435	7.1700e-01	-17.3065	-118.635612	0.000606	6.064615	2.054747	-0.048397
1436	7.1750e-01	-17.3498	-118.986492	0.000879	8.793692	2.979384	-0.070176
1437	7.1800e-01	-17.3947	-119.200246	0.000536	5.357077	1.815027	-0.042751
1438	7.1850e-01	-17.4268	-119.389801	0.000475	4.750615	1.609552	-0.037911
1439	7.1900e-01	-17.4781	-119.716482	0.000819	8.187231	2.773909	-0.065336
1440	7.1950e-01	-17.5054	-119.978634	0.000657	6.570000	2.225976	-0.052430
1441	7.2000e-01	-17.5471	-120.192388	0.000536	5.357077	1.815027	-0.042751
1442	7.2050e-01	-17.5952	-120.502937	0.000778	7.782923	2.636926	-0.062110
1443	7.2100e-01	-17.6353	-120.752989	0.000627	6.266769	2.123239	-0.050010
1444	7.2150e-01	-17.6690	-121.003041	0.000627	6.266769	2.123239	-0.050010
1445	7.2200e-01	-17.7123	-121.281325	0.000697	6.974308	2.362959	-0.055657
1446	7.2250e-01	-17.7364	-121.547509	0.000667	6.671077	2.260222	-0.053237
1447	7.2300e-01	-17.7909	-121.805627	0.000647	6.468923	2.191730	-0.051624
1448	7.2350e-01	-17.8278	-122.035514	0.000576	5.761385	1.952010	-0.045977
1449	7.2400e-01	-17.8728	-122.285566	0.000627	6.266769	2.123239	-0.050010
1450	7.2450e-01	-17.9145	-122.527552	0.000606	6.064615	2.054747	-0.048397
1451	7.2500e-01	-17.9514	-122.918763	0.000980	9.804462	3.321841	-0.078242
1452	7.2550e-01	-17.9899	-123.108318	0.000475	4.750615	1.609552	-0.037911
1453	7.2600e-01	-18.0364	-123.330139	0.000556	5.559231	1.883518	-0.044364
1454	7.2650e-01	-18.0669	-123.531794	0.000505	5.053846	1.712289	-0.040331
1455	7.2700e-01	-18.1102	-123.862508	0.000829	8.288308	2.808155	-0.066143
1456	7.2750e-01	-18.1567	-124.100461	0.000596	5.963538	2.020502	-0.047591
1457	7.2800e-01	-18.1952	-124.354546	0.000637	6.367846	2.157485	-0.050817
1458	7.2850e-01	-18.2369	-124.640896	0.000718	7.176462	2.431451	-0.057270
1459	7.2900e-01	-18.2674	-124.858683	0.000546	5.458154	1.849273	-0.043557
1460	7.2950e-01	-18.3091	-125.141000	0.000708	7.075385	2.397205	-0.056463
1461	7.3000e-01	-18.3637	-125.427350	0.000718	7.176462	2.431451	-0.057270
1462	7.3050e-01	-18.3957	-125.754031	0.000819	8.187231	2.773909	-0.065336
1463	7.3100e-01	-18.4391	-125.939554	0.000465	4.649538	1.575306	-0.037105
1464	7.3150e-01	-18.4695	-126.185573	0.000617	6.165692	2.088993	-0.049204
1465	7.3200e-01	-18.5209	-126.383194	0.000495	4.952769	1.678044	-0.039524
1466	7.3250e-01	-18.5497	-126.713908	0.000829	8.288308	2.808155	-0.066143
1467	7.3300e-01	-18.5915	-127.040589	0.000819	8.187231	2.773909	-0.065336
1468	7.3350e-01	-18.6380	-127.250311	0.000526	5.256000	1.780781	-0.041944
1469	7.3400e-01	-18.6685	-127.621356	0.000930	9.299077	3.150613	-0.074209
1470	7.3450e-01	-18.7102	-127.831077	0.000526	5.256000	1.780781	-0.041944
1471	7.3500e-01	-18.7551	-128.048864	0.000546	5.458154	1.849273	-0.043557
1472	7.3550e-01	-18.7856	-128.355380	0.000768	7.681846	2.602680	-0.061303
1473	7.3600e-01	-18.8209	-128.641730	0.000718	7.176462	2.431451	-0.057270
1474	7.3650e-01	-18.8674	-128.839351	0.000495	4.952769	1.678044	-0.039524
1475	7.3700e-01	-18.9091	-129.137801	0.000748	7.479692	2.534188	-0.059690
1476	7.3750e-01	-18.9572	-129.403985	0.000667	6.671077	2.260222	-0.053237
1477	7.3800e-01	-18.9893	-129.641938	0.000596	5.963538	2.020502	-0.047591
1478	7.3850e-01	-19.0326	-129.952487	0.000778	7.782923	2.636926	-0.062110
1479	7.3900e-01	-19.0759	-130.230770	0.000697	6.974308	2.362959	-0.055657
1480	7.3950e-01	-19.1096	-130.513087	0.000708	7.075385	2.397205	-0.056463
1481	7.4000e-01	-19.1481	-130.706676	0.000485	4.851692	1.643798	-0.038718
1482	7.4050e-01	-19.1914	-131.021258	0.000788	7.884000	2.671172	-0.062916
1483	7.4100e-01	-19.2396	-131.251144	0.000576	5.761385	1.952010	-0.045977
1484	7.4150e-01	-19.2700	-131.561693	0.000778	7.782923	2.636926	-0.062110
1485	7.4200e-01	-19.3166	-131.892407	0.000829	8.288308	2.808155	-0.066143
1486	7.4250e-01	-19.3422	-132.065830	0.000435	4.346308	1.472569	-0.034685
1487	7.4300e-01	-19.3904	-132.332015	0.000667	6.671077	2.260222	-0.053237
1488	7.4350e-01	-19.4289	-132.578034	0.000617	6.165692	2.088993	-0.049204
1489	7.4400e-01	-19.4770	-132.811954	0.000586	5.862462	1.986256	-0.046784
1490	7.4450e-01	-19.5075	-133.122502	0.000778	7.782923	2.636926	-0.062110
1491	7.4500e-01	-19.5524	-133.352389	0.000576	5.761385	1.952010	-0.045977
1492	7.4550e-01	-19.5877	-133.646805	0.000738	7.378615	2.499943	-0.058883
1493	7.4600e-01	-19.6342	-133.917023	0.000677	6.772154	2.294468	-0.054044
1494	7.4650e-01	-19.6679	-134.154975	0.000596	5.963538	2.020502	-0.047591
1495	7.4700e-01	-19.7064	-134.497789	0.000859	8.591538	2.910892	-0.068563
1496	7.4750e-01	-19.7497	-134.776073	0.000697	6.974308	2.362959	-0.055657
1497	7.4800e-01	-19.7914	-134.961595	0.000465	4.649538	1.575306	-0.037105
1498	7.4850e-01	-19.8203	-135.300375	0.000849	8.490462	2.876646	-0.067756
1499	7.4900e-01	-19.8700	-135.506063	0.000515	5.154923	1.746535	-0.041138
1500	7.4950e-01	-19.9085	-135.731917	0.000566	5.660308	1.917764	-0.045171
1501	7.5000e-01	-19.9438	-135.994068	0.000657	6.570000	2.225976	-0.052430
1502	7.5050e-01	-19.9470	-136.215889	0.000556	5.559231	1.883518	-0.044364
1503	7.5100e-01	-19.9342	-136.357047	-0.000354	-3.537692	-1.198603	-0.028232
1504	7.5150e-01	-19.8877	-136.369146	-0.000030	-0.303231	-0.102737	-0.002420
1505	7.5200e-01	-19.8524	-136.316716	0.000131	1.314000	0.445195	0.010486
1506	7.5250e-01	-19.8171	-136.284451	0.000081	0.808615	0.273966	0.006453
1507	7.5300e-01	-19.7866	-136.215889	0.000172	1.718308	0.582178	0.013713
1508	7.5350e-01	-19.7369	-136.147326	0.000172	1.718308	0.582178	0.013713
1509	7.5400e-01	-19.7000	-136.078763	0.000172	1.718308	0.582178	0.013713
1510	7.5450e-01	-19.6599	-135.909373	0.000425	4.245231	1.438323	0.033878
1511	7.5500e-01	-19.6069	-135.865009	0.000111	1.111846	0.376704	0.008873
1512	7.5550e-01	-19.5845	-135.752082	0.000283	2.830154	0.958882	0.022585
1513	7.5600e-01	-19.5347	-135.667387	0.000212	2.122615	0.719162	0.016939
1514	7.5650e-01	-19.4930	-135.546394	0.000303	3.032308	1.027374	0.024199
1515	7.5700e-01	-19.4545	-135.489931	0.000142	1.415077	0.479441	0.011293
1516	7.5750e-01	-19.4160	-135.397170	0.000232	2.324769	0.787653	0.018552
1517	7.5800e-01	-19.3759	-135.292309	0.000263	2.628000	0.890391	0.020972
1518	7.5850e-01	-19.3294	-134.957562	0.000839	8.389385	2.842400	0.066949
1519	7.5900e-01	-19.2989	-135.058389	-0.000253	-2.526923	-0.856145	-0.020165
1520	7.5950e-01	-19.2508	-134.973694	0.000212	2.122615	0.719162	0.016939
1521	7.6000e-01	-19.2171	-134.784139	0.000475	4.750615	1.609552	0.037911
1522	7.6050e-01	-19.1738	-134.707510	0.000192	1.920462	0.650670	0.015326
1523	7.6100e-01	-19.1417	-134.526020	0.000455	4.548462	1.541060	0.036298
1524	7.6150e-01	-19.0936	-134.461491	0.000162	1.617231	0.547933	0.012906
1525	7.6200e-01	-19.0535	-134.356630	0.000263	2.628000	0.890391	0.020972
1526	7.6250e-01	-19.0166	-134.247737	0.000273	2.729077	0.924636	0.021779
1527	7.6300e-01	-18.9829	-134.134810	0.000283	2.830154	0.958882	0.022585
1528	7.6350e-01	-18.9380	-134.054148	0.000202	2.021538	0.684916	0.016132
1529	7.6400e-01	-18.8866	-133.880725	0.000435	4.346308	1.472569	0.034685
1530	7.6450e-01	-18.8562	-133.711335	0.000425	4.245231	1.438323	0.033878
1531	7.6500e-01	-18.8160	-133.505646	0.000515	5.154923	1.746535	0.041138
1532	7.6550e-01	-18.7743	-133.473382	0.000081	0.808615	0.273966	0.006453
1533	7.6600e-01	-18.7342	-133.348356	0.000313	3.133385	1.061619	0.025005
1534	7.6650e-01	-18.6941	-133.267694	0.000202	2.021538	0.684916	0.016132
1535	7.6700e-01	-18.6540	-133.070072	0.000495	4.952769	1.678044	0.039524
1536	7.6750e-01	-18.6139	-132.928913	0.000354	3.537692	1.198603	0.028232
1537	7.6800e-01	-18.5818	-132.860351	0.000172	1.718308	0.582178	0.013713
1538	7.6850e-01	-18.5353	-132.715159	0.000364	3.638769	1.232848	0.029038
1539	7.6900e-01	-18.5000	-132.537703	0.000445	4.447385	1.506815	0.035491
1540	7.6950e-01	-18.4599	-132.396544	0.000354	3.537692	1.198603	0.028232
1541	7.7000e-01	-18.4182	-132.247320	0.000374	3.739846	1.267094	0.029845
1542	7.7050e-01	-18.3781	-132.130360	0.000293	2.931231	0.993128	0.023392
1543	7.7100e-01	-18.3332	-131.977102	0.000384	3.840923	1.301340	0.030652
1544	7.7150e-01	-18.2915	-131.791580	0.000465	4.649538	1.575306	0.037105
1545	7.7200e-01	-18.2594	-131.702851	0.000222	2.223692	0.753407	0.017746
1546	7.7250e-01	-18.2161	-131.541527	0.000404	4.043077	1.369832	0.032265
1547	7.7300e-01	-18.1792	-131.432634	0.000273	2.729077	0.924636	0.021779
1548	7.7350e-01	-18.1294	-131.335839	0.000243	2.425846	0.821899	0.019359
1549	7.7400e-01	-18.0925	-131.134185	0.000505	5.053846	1.712289	0.040331
1550	7.7450e-01	-18.0508	-131.013192	0.000303	3.032308	1.027374	0.024199
1551	7.7500e-01	-18.0171	-130.823636	0.000475	4.750615	1.609552	0.037911
1552	7.7550e-01	-17.9722	-130.670378	0.000384	3.840923	1.301340	0.030652
1553	7.7600e-01	-17.9369	-130.569551	0.000253	2.526923	0.856145	0.020165
1554	7.7650e-01	-17.9016	-130.396127	0.000435	4.346308	1.472569	0.034685
1555	7.7700e-01	-17.8583	-130.263035	0.000334	3.335538	1.130111	0.026618
1556	7.7750e-01	-17.8134	-130.138009	0.000313	3.133385	1.061619	0.025005
1557	7.7800e-01	-17.7781	-130.037182	0.000253	2.526923	0.856145	0.020165
1558	7.7850e-01	-17.7444	-129.738732	0.000748	7.479692	2.534188	0.059690
1559	7.7900e-01	-17.7043	-129.613706	0.000313	3.133385	1.061619	0.025005
1560	7.7950e-01	-17.6562	-129.496746	0.000293	2.931231	0.993128	0.023392
1561	7.8000e-01	-17.6129	-129.291058	0.000515	5.154923	1.746535	0.041138
1562	7.8050e-01	-17.5888	-129.097470	0.000485	4.851692	1.643798	0.038718
1563	7.8100e-01	-17.5455	-128.956311	0.000354	3.537692	1.198603	0.028232
1564	7.8150e-01	-17.5086	-128.807087	0.000374	3.739846	1.267094	0.029845
1565	7.8200e-01	-17.4637	-128.645763	0.000404	4.043077	1.369832	0.032265
1566	7.8250e-01	-17.4188	-128.504604	0.000354	3.537692	1.198603	0.028232
1567	7.8300e-01	-17.3819	-128.266651	0.000596	5.963538	2.020502	0.047591
1568	7.8350e-01	-17.3385	-128.202122	0.000162	1.617231	0.547933	0.012906
1569	7.8400e-01	-17.3049	-128.048864	0.000384	3.840923	1.301340	0.030652
1570	7.8450e-01	-17.2567	-127.887540	0.000404	4.043077	1.369832	0.032265
1571	7.8500e-01	-17.2198	-127.625389	0.000657	6.570000	2.225976	0.052430
1572	7.8550e-01	-17.1797	-127.536661	0.000222	2.223692	0.753407	0.017746
1573	7.8600e-01	-17.1332	-127.375337	0.000404	4.043077	1.369832	0.032265
1574	7.8650e-01	-17.0963	-127.137384	0.000596	5.963538	2.020502	0.047591
1575	7.8700e-01	-17.0514	-127.016391	0.000303	3.032308	1.027374	0.024199
1576	7.8750e-01	-17.0225	-126.851034	0.000414	4.144154	1.404077	0.033071
1577	7.8800e-01	-16.9792	-126.653412	0.000495	4.952769	1.678044	0.039524
1578	7.8850e-01	-16.9391	-126.556618	0.000243	2.425846	0.821899	0.019359
1579	7.8900e-01	-16.8942	-126.403360	0.000384	3.840923	1.301340	0.030652
1580	7.8950e-01	-16.8589	-126.189606	0.000536	5.357077	1.815027	0.042751
1581	7.9000e-01	-16.8204	-125.991984	0.000495	4.952769	1.678044	0.039524
1582	7.9050e-01	-16.7819	-125.879057	0.000283	2.830154	0.958882	0.022585
1583	7.9100e-01	-16.7338	-125.701601	0.000445	4.447385	1.506815	0.035491
1584	7.9150e-01	-16.7017	-125.520111	0.000455	4.548462	1.541060	0.036298
1585	7.9200e-01	-16.6487	-125.338622	0.000455	4.548462	1.541060	0.036298
1586	7.9250e-01	-16.6134	-125.124868	0.000536	5.357077	1.815027	0.042751
1587	7.9300e-01	-16.5830	-124.987742	0.000344	3.436615	1.164357	0.027425
1588	7.9350e-01	-16.5332	-124.834484	0.000384	3.840923	1.301340	0.030652
1589	7.9400e-01	-16.4931	-124.640896	0.000485	4.851692	1.643798	0.038718
1590	7.9450e-01	-16.4514	-124.499737	0.000354	3.537692	1.198603	0.028232
1591	7.9500e-01	-16.4177	-124.318248	0.000455	4.548462	1.541060	0.036298
1592	7.9550e-01	-16.3840	-124.124659	0.000485	4.851692	1.643798	0.038718
1593	7.9600e-01	-16.3423	-123.866541	0.000647	6.468923	2.191730	0.051624
1594	7.9650e-01	-16.2958	-123.689084	0.000445	4.447385	1.506815	0.035491
1595	7.9700e-01	-16.2605	-123.588257	0.000253	2.526923	0.856145	0.020165
1596	7.9750e-01	-16.2172	-123.406768	0.000455	4.548462	1.541060	0.036298
1597	7.9800e-01	-16.1755	-123.378536	0.000071	0.707538	0.239721	0.005646
1598	7.9850e-01	-16.1386	-123.031689	0.000869	8.692615	2.945138	0.069369
1599	7.9900e-01	-16.0969	-122.874399	0.000394	3.942000	1.335586	0.031458
1600	7.9950e-01	-16.0552	-122.725174	0.000374	3.739846	1.267094	0.029845
1601	8.0000e-01	-16.0183	-122.588049	0.000344	3.436615	1.164357	0.027425
1602	8.0050e-01	-15.9733	-122.342030	0.000617	6.165692	2.088993	0.049204
1603	8.0100e-01	-15.9445	-122.172639	0.000425	4.245231	1.438323	0.033878
1604	8.0150e-01	-15.9012	-121.962918	0.000526	5.256000	1.780781	0.041944
1605	8.0200e-01	-15.8610	-121.761263	0.000505	5.053846	1.712289	0.040331
1606	8.0250e-01	-15.8193	-121.632204	0.000323	3.234462	1.095865	0.025812
1607	8.0300e-01	-15.7728	-121.442649	0.000475	4.750615	1.609552	0.037911
1608	8.0350e-01	-15.7423	-121.285358	0.000394	3.942000	1.335586	0.031458
1609	8.0400e-01	-15.6990	-121.115968	0.000425	4.245231	1.438323	0.033878
1610	8.0450e-01	-15.6589	-120.934478	0.000455	4.548462	1.541060	0.036298
1611	8.0500e-01	-15.6204	-120.664261	0.000677	6.772154	2.294468	0.054044
1612	8.0550e-01	-15.5771	-120.478738	0.000465	4.649538	1.575306	0.037105
1613	8.0600e-01	-15.5354	-120.345646	0.000334	3.335538	1.130111	0.026618
1614	8.0650e-01	-15.5017	-120.123825	0.000556	5.559231	1.883518	0.044364
1615	8.0700e-01	-15.4664	-119.998799	0.000313	3.133385	1.061619	0.025005
1616	8.0750e-01	-15.4103	-119.744714	0.000637	6.367846	2.157485	0.050817
1617	8.0800e-01	-15.3814	-119.530960	0.000536	5.357077	1.815027	0.042751
1618	8.0850e-01	-15.3429	-119.373669	0.000394	3.942000	1.335586	0.031458
1619	8.0900e-01	-15.2964	-119.240577	0.000334	3.335538	1.130111	0.026618
1620	8.0950e-01	-15.2643	-119.091352	0.000374	3.739846	1.267094	0.029845
1621	8.1000e-01	-15.2242	-118.821134	0.000677	6.772154	2.294468	0.054044
1622	8.1050e-01	-15.1825	-118.591248	0.000576	5.761385	1.952010	0.045977
1623	8.1100e-01	-15.1424	-118.454122	0.000344	3.436615	1.164357	0.027425
1624	8.1150e-01	-15.1006	-118.280699	0.000435	4.346308	1.472569	0.034685
1625	8.1200e-01	-15.0573	-118.014515	0.000667	6.671077	2.260222	0.053237
1626	8.1250e-01	-15.0236	-117.881422	0.000334	3.335538	1.130111	0.026618
1627	8.1300e-01	-14.9707	-117.687834	0.000485	4.851692	1.643798	0.038718
1628	8.1350e-01	-14.9402	-117.502311	0.000465	4.649538	1.575306	0.037105
1629	8.1400e-01	-14.8985	-117.361153	0.000354	3.537692	1.198603	0.028232
1630	8.1450e-01	-14.8584	-117.167564	0.000485	4.851692	1.643798	0.038718
1631	8.1500e-01	-14.8087	-116.913479	0.000637	6.367846	2.157485	0.050817
1632	8.1550e-01	-14.7798	-116.719890	0.000485	4.851692	1.643798	0.038718
1633	8.1600e-01	-14.7413	-116.582765	0.000344	3.436615	1.164357	0.027425
1634	8.1650e-01	-14.6996	-116.364977	0.000546	5.458154	1.849273	0.043557
1635	8.1700e-01	-14.6611	-116.155256	0.000526	5.256000	1.780781	0.041944
1636	8.1750e-01	-14.6130	-115.917303	0.000596	5.963538	2.020502	0.047591
1637	8.1800e-01	-14.5777	-115.683384	0.000586	5.862462	1.986256	0.046784
1638	8.1850e-01	-14.5376	-115.550292	0.000334	3.335538	1.130111	0.026618
1639	8.1900e-01	-14.4975	-115.344603	0.000515	5.154923	1.746535	0.041138
1640	8.1950e-01	-14.4638	-115.098584	0.000617	6.165692	2.088993	0.049204
1641	8.2000e-01	-14.4172	-114.917095	0.000455	4.548462	1.541060	0.036298
1642	8.2050e-01	-14.3836	-114.703341	0.000536	5.357077	1.815027	0.042751
1643	8.2100e-01	-14.3402	-114.566215	0.000344	3.436615	1.164357	0.027425
1644	8.2150e-01	-14.3049	-114.312130	0.000637	6.367846	2.157485	0.050817
1645	8.2200e-01	-14.2568	-114.122575	0.000475	4.750615	1.609552	0.037911
1646	8.2250e-01	-14.2119	-113.920920	0.000505	5.053846	1.712289	0.040331
1647	8.2300e-01	-14.1846	-113.775728	0.000364	3.638769	1.232848	0.029038
1648	8.2350e-01	-14.1445	-113.590206	0.000465	4.649538	1.575306	0.037105
1649	8.2400e-01	-14.0932	-113.461146	0.000323	3.234462	1.095865	0.025812
1650	8.2450e-01	-14.0547	-113.235293	0.000566	5.660308	1.917764	0.045171
1651	8.2500e-01	-14.0194	-112.944910	0.000728	7.277538	2.465697	0.058077
1652	8.2550e-01	-13.9697	-112.823917	0.000303	3.032308	1.027374	0.024199
1653	8.2600e-01	-13.9376	-112.545633	0.000697	6.974308	2.362959	0.055657
1654	8.2650e-01	-13.8959	-112.279449	0.000667	6.671077	2.260222	0.053237
1655	8.2700e-01	-13.8558	-112.142323	0.000344	3.436615	1.164357	0.027425
1656	8.2750e-01	-13.8189	-112.009231	0.000334	3.335538	1.130111	0.026618
1657	8.2800e-01	-13.7755	-111.787411	0.000556	5.559231	1.883518	0.044364
1658	8.2850e-01	-13.7386	-111.480895	0.000768	7.681846	2.602680	0.061303
1659	8.2900e-01	-13.7082	-111.343770	0.000344	3.436615	1.164357	0.027425
1660	8.2950e-01	-13.6600	-111.085651	0.000647	6.468923	2.191730	0.051624
1661	8.3000e-01	-13.6183	-110.920294	0.000414	4.144154	1.404077	0.033071
1662	8.3050e-01	-13.5734	-110.738805	0.000455	4.548462	1.541060	0.036298
1663	8.3100e-01	-13.5317	-110.585547	0.000384	3.840923	1.301340	0.030652
1664	8.3150e-01	-13.4868	-110.363727	0.000556	5.559231	1.883518	0.044364
1665	8.3200e-01	-13.4547	-110.178204	0.000465	4.649538	1.575306	0.037105
1666	8.3250e-01	-13.4178	-109.879755	0.000748	7.479692	2.534188	0.059690
1667	8.3300e-01	-13.3841	-109.621637	0.000647	6.468923	2.191730	0.051624
1668	8.3350e-01	-13.3344	-109.460313	0.000404	4.043077	1.369832	0.032265
1669	8.3400e-01	-13.3023	-109.258658	0.000505	5.053846	1.712289	0.040331
1670	8.3450e-01	-13.2638	-109.016672	0.000606	6.064615	2.054747	0.048397
1671	8.3500e-01	-13.2221	-108.895679	0.000303	3.032308	1.027374	0.024199
1672	8.3550e-01	-13.1788	-108.681925	0.000536	5.357077	1.815027	0.042751
1673	8.3600e-01	-13.1419	-108.375409	0.000768	7.681846	2.602680	0.061303
1674	8.3650e-01	-13.1018	-108.137456	0.000596	5.963538	2.020502	0.047591
1675	8.3700e-01	-13.0569	-107.984199	0.000384	3.840923	1.301340	0.030652
1676	8.3750e-01	-13.0119	-107.826908	0.000394	3.942000	1.335586	0.031458
1677	8.3800e-01	-12.9782	-107.576856	0.000627	6.266769	2.123239	0.050010
1678	8.3850e-01	-12.9462	-107.387300	0.000475	4.750615	1.609552	0.037911
1679	8.3900e-01	-12.8916	-107.125149	0.000657	6.570000	2.225976	0.052430
1680	8.3950e-01	-12.8611	-106.891229	0.000586	5.862462	1.986256	0.046784
1681	8.4000e-01	-12.8146	-106.806534	0.000212	2.122615	0.719162	0.016939
1682	8.4050e-01	-12.7745	-106.520184	0.000718	7.176462	2.431451	0.057270
1683	8.4100e-01	-12.7360	-106.282231	0.000596	5.963538	2.020502	0.047591
1684	8.4150e-01	-12.7055	-106.108808	0.000435	4.346308	1.472569	0.034685
1685	8.4200e-01	-12.6638	-105.882954	0.000566	5.660308	1.917764	0.045171
1686	8.4250e-01	-12.6205	-105.733730	0.000374	3.739846	1.267094	0.029845
1687	8.4300e-01	-12.5740	-105.519975	0.000536	5.357077	1.815027	0.042751
1688	8.4350e-01	-12.5371	-105.334453	0.000465	4.649538	1.575306	0.037105
1689	8.4400e-01	-12.5018	-105.096500	0.000596	5.963538	2.020502	0.047591
1690	8.4450e-01	-12.4617	-104.777885	0.000799	7.985077	2.705417	0.063723
1691	8.4500e-01	-12.4152	-104.604462	0.000435	4.346308	1.472569	0.034685
1692	8.4550e-01	-12.3767	-104.507668	0.000243	2.425846	0.821899	0.019359
1693	8.4600e-01	-12.3366	-104.217284	0.000728	7.277538	2.465697	0.058077
1694	8.4650e-01	-12.2932	-103.975299	0.000606	6.064615	2.054747	0.048397
1695	8.4700e-01	-12.2531	-103.813975	0.000404	4.043077	1.369832	0.032265
1696	8.4750e-01	-12.2194	-103.547790	0.000667	6.671077	2.260222	0.053237
1697	8.4800e-01	-12.1809	-103.285639	0.000657	6.570000	2.225976	0.052430
1698	8.4850e-01	-12.1328	-103.100116	0.000465	4.649538	1.575306	0.037105
1699	8.4900e-01	-12.0927	-102.862163	0.000596	5.963538	2.020502	0.047591
1700	8.4950e-01	-12.0590	-102.616144	0.000617	6.165692	2.088993	0.049204
1701	8.5000e-01	-12.0253	-102.479019	0.000344	3.436615	1.164357	0.027425
1702	8.5050e-01	-11.9724	-102.204768	0.000687	6.873231	2.328714	0.054850
1703	8.5100e-01	-11.9387	-102.047477	0.000394	3.942000	1.335586	0.031458
1704	8.5150e-01	-11.9002	-101.785326	0.000657	6.570000	2.225976	0.052430
1705	8.5200e-01	-11.8569	-101.527208	0.000647	6.468923	2.191730	0.051624
1706	8.5250e-01	-11.8248	-101.382016	0.000364	3.638769	1.232848	0.029038
1707	8.5300e-01	-11.7959	-101.127931	0.000637	6.367846	2.157485	0.050817
1708	8.5350e-01	-11.7350	-100.962574	0.000414	4.144154	1.404077	0.033071
1709	8.5400e-01	-11.7045	-100.704456	0.000647	6.468923	2.191730	0.051624
1710	8.5450e-01	-11.6580	-100.482635	0.000556	5.559231	1.883518	0.044364
1711	8.5500e-01	-11.6179	-100.280980	0.000505	5.053846	1.712289	0.040331
1712	8.5550e-01	-11.5810	-100.063193	0.000546	5.458154	1.849273	0.043557
1713	8.5600e-01	-11.5409	-99.857505	0.000515	5.154923	1.746535	0.041138
1714	8.5650e-01	-11.5007	-99.639718	0.000546	5.458154	1.849273	0.043557
1715	8.5700e-01	-11.4655	-99.329169	0.000778	7.782923	2.636926	0.062110
1716	8.5750e-01	-11.4125	-99.075084	0.000637	6.367846	2.157485	0.050817
1717	8.5800e-01	-11.3852	-98.889561	0.000465	4.649538	1.575306	0.037105
1718	8.5850e-01	-11.3355	-98.740337	0.000374	3.739846	1.267094	0.029845
1719	8.5900e-01	-11.3002	-98.421722	0.000799	7.985077	2.705417	0.063723
1720	8.5950e-01	-11.2633	-98.268464	0.000384	3.840923	1.301340	0.030652
1721	8.6000e-01	-11.2184	-98.054710	0.000536	5.357077	1.815027	0.042751
1722	8.6050e-01	-11.1831	-97.740128	0.000788	7.884000	2.671172	0.062916
1723	8.6100e-01	-11.1398	-97.477977	0.000657	6.570000	2.225976	0.052430
1724	8.6150e-01	-11.1077	-97.300520	0.000445	4.447385	1.506815	0.035491
1725	8.6200e-01	-11.0628	-97.050468	0.000627	6.266769	2.123239	0.050010
1726	8.6250e-01	-11.0291	-96.889144	0.000404	4.043077	1.369832	0.032265
1727	8.6300e-01	-10.9810	-96.679423	0.000526	5.256000	1.780781	0.041944
1728	8.6350e-01	-10.9328	-96.264014	0.001041	10.410923	3.527316	0.083082
1729	8.6400e-01	-10.8895	-96.175286	0.000222	2.223692	0.753407	0.017746
1730	8.6450e-01	-10.8591	-95.860704	0.000788	7.884000	2.671172	0.062916
1731	8.6500e-01	-10.8077	-95.759877	0.000253	2.526923	0.856145	0.020165
1732	8.6550e-01	-10.7837	-95.534023	0.000566	5.660308	1.917764	0.045171
1733	8.6600e-01	-10.7307	-95.296070	0.000596	5.963538	2.020502	0.047591
1734	8.6650e-01	-10.6954	-94.981489	0.000788	7.884000	2.671172	0.062916
1735	8.6700e-01	-10.6553	-94.787900	0.000485	4.851692	1.643798	0.038718
1736	8.6750e-01	-10.6248	-94.642708	0.000364	3.638769	1.232848	0.029038
1737	8.6800e-01	-10.5767	-94.344259	0.000748	7.479692	2.534188	0.059690
1738	8.6850e-01	-10.5414	-94.053876	0.000728	7.277538	2.465697	0.058077
1739	8.6900e-01	-10.5013	-93.912718	0.000354	3.537692	1.198603	0.028232
1740	8.6950e-01	-10.4532	-93.666698	0.000617	6.165692	2.088993	0.049204
1741	8.7000e-01	-10.4147	-93.501341	0.000414	4.144154	1.404077	0.033071
1742	8.7050e-01	-10.3746	-93.174660	0.000819	8.187231	2.773909	0.065336
1743	8.7100e-01	-10.3361	-92.908476	0.000667	6.671077	2.260222	0.053237
1744	8.7150e-01	-10.3008	-92.714887	0.000485	4.851692	1.643798	0.038718
1745	8.7200e-01	-10.2559	-92.541464	0.000435	4.346308	1.472569	0.034685
1746	8.7250e-01	-10.2238	-92.275279	0.000667	6.671077	2.260222	0.053237
1747	8.7300e-01	-10.1789	-92.081691	0.000485	4.851692	1.643798	0.038718
1748	8.7350e-01	-10.1420	-91.835672	0.000617	6.165692	2.088993	0.049204
1749	8.7400e-01	-10.1002	-91.609818	0.000566	5.660308	1.917764	0.045171
1750	8.7450e-01	-10.0585	-91.303303	0.000768	7.681846	2.602680	0.061303
1751	8.7500e-01	-10.0200	-91.170210	0.000334	3.335538	1.130111	0.026618
1752	8.7550e-01	-9.9783	-90.928225	0.000606	6.064615	2.054747	0.048397
1753	8.7600e-01	-9.9478	-90.662040	0.000667	6.671077	2.260222	0.053237
1754	8.7650e-01	-9.8997	-90.375690	0.000718	7.176462	2.431451	0.057270
1755	8.7700e-01	-9.8612	-90.121605	0.000637	6.367846	2.157485	0.050817
1756	8.7750e-01	-9.8179	-89.891718	0.000576	5.761385	1.952010	0.045977
1757	8.7800e-01	-9.7794	-89.681997	0.000526	5.256000	1.780781	0.041944
1758	8.7850e-01	-9.7425	-89.484375	0.000495	4.952769	1.678044	0.039524
1759	8.7900e-01	-9.6976	-89.310952	0.000435	4.346308	1.472569	0.034685
1760	8.7950e-01	-9.6559	-89.016536	0.000738	7.378615	2.499943	0.058883
1761	8.8000e-01	-9.6238	-88.738252	0.000697	6.974308	2.362959	0.055657
1762	8.8050e-01	-9.5837	-88.520465	0.000546	5.458154	1.849273	0.043557
1763	8.8100e-01	-9.5324	-88.266379	0.000637	6.367846	2.157485	0.050817
1764	8.8150e-01	-9.4987	-88.060691	0.000515	5.154923	1.746535	0.041138
1765	8.8200e-01	-9.4570	-87.814672	0.000617	6.165692	2.088993	0.049204
1766	8.8250e-01	-9.4201	-87.564620	0.000627	6.266769	2.123239	0.050010
1767	8.8300e-01	-9.3832	-87.237939	0.000819	8.187231	2.773909	0.065336
1768	8.8350e-01	-9.3302	-87.233906	0.000010	0.101077	0.034246	0.000807
1769	8.8400e-01	-9.3013	-86.959656	0.000687	6.873231	2.328714	0.054850
1770	8.8450e-01	-9.2548	-86.560379	0.001001	10.006615	3.390333	0.079855
1771	8.8500e-01	-9.2115	-86.322426	0.000596	5.963538	2.020502	0.047591
1772	8.8550e-01	-9.1762	-86.072374	0.000627	6.266769	2.123239	0.050010
1773	8.8600e-01	-9.1457	-85.850553	0.000556	5.559231	1.883518	0.044364
1774	8.8650e-01	-9.0992	-85.592435	0.000647	6.468923	2.191730	0.051624
1775	8.8700e-01	-9.0559	-85.443210	0.000374	3.739846	1.267094	0.029845
1776	8.8750e-01	-9.0174	-85.209291	0.000586	5.862462	1.986256	0.046784
1777	8.8800e-01	-8.9773	-84.906808	0.000758	7.580769	2.568434	0.060496
1778	8.8850e-01	-8.9516	-84.664822	0.000606	6.064615	2.054747	0.048397
1779	8.8900e-01	-8.8891	-84.592227	0.000182	1.819385	0.616424	0.014519
1780	8.8950e-01	-8.8634	-84.253446	0.000849	8.490462	2.876646	0.067756
1781	8.9000e-01	-8.8104	-83.942898	0.000778	7.782923	2.636926	0.062110
1782	8.9050e-01	-8.7800	-83.684779	0.000647	6.468923	2.191730	0.051624
1783	8.9100e-01	-8.7415	-83.394396	0.000728	7.277538	2.465697	0.058077
1784	8.9150e-01	-8.6965	-83.265337	0.000323	3.234462	1.095865	0.025812
1785	8.9200e-01	-8.6532	-83.043517	0.000556	5.559231	1.883518	0.044364
1786	8.9250e-01	-8.6211	-82.745067	0.000748	7.479692	2.534188	0.059690
1787	8.9300e-01	-8.5810	-82.446618	0.000748	7.479692	2.534188	0.059690
1788	8.9350e-01	-8.5441	-82.216732	0.000576	5.761385	1.952010	0.045977
1789	8.9400e-01	-8.4992	-82.002977	0.000536	5.357077	1.815027	0.042751
1790	8.9450e-01	-8.4479	-81.821488	0.000455	4.548462	1.541060	0.036298
1791	8.9500e-01	-8.4222	-81.494807	0.000819	8.187231	2.773909	0.065336
1792	8.9550e-01	-8.3757	-81.289119	0.000515	5.154923	1.746535	0.041138
1793	8.9600e-01	-8.3388	-81.010835	0.000697	6.974308	2.362959	0.055657
1794	8.9650e-01	-8.2987	-80.696253	0.000788	7.884000	2.671172	0.062916
1795	8.9700e-01	-8.2538	-80.575260	0.000303	3.032308	1.027374	0.024199
1796	8.9750e-01	-8.2201	-80.309076	0.000667	6.671077	2.260222	0.053237
1797	8.9800e-01	-8.1816	-79.970296	0.000849	8.490462	2.876646	0.067756
1798	8.9850e-01	-8.1447	-79.776707	0.000485	4.851692	1.643798	0.038718
1799	8.9900e-01	-8.1046	-79.474225	0.000758	7.580769	2.568434	0.060496
1800	8.9950e-01	-8.0549	-79.256437	0.000546	5.458154	1.849273	0.043557
1801	9.0000e-01	-8.0228	-79.034617	0.000556	5.559231	1.883518	0.044364
1802	9.0050e-01	-7.9746	-78.756333	0.000697	6.974308	2.362959	0.055657
1803	9.0100e-01	-7.9426	-78.546612	0.000526	5.256000	1.780781	0.041944
1804	9.0150e-01	-7.8976	-78.365122	0.000455	4.548462	1.541060	0.036298
1805	9.0200e-01	-7.8607	-78.030375	0.000839	8.389385	2.842400	0.066949
1806	9.0250e-01	-7.8190	-77.788389	0.000606	6.064615	2.054747	0.048397
1807	9.0300e-01	-7.7661	-77.566569	0.000556	5.559231	1.883518	0.044364
1808	9.0350e-01	-7.7404	-77.264086	0.000758	7.580769	2.568434	0.060496
1809	9.0400e-01	-7.7019	-77.046299	0.000546	5.458154	1.849273	0.043557
1810	9.0450e-01	-7.6634	-76.820446	0.000566	5.660308	1.917764	0.045171
1811	9.0500e-01	-7.6185	-76.586526	0.000586	5.862462	1.986256	0.046784
1812	9.0550e-01	-7.5736	-76.360672	0.000566	5.660308	1.917764	0.045171
1813	9.0600e-01	-7.5431	-76.082389	0.000697	6.974308	2.362959	0.055657
1814	9.0650e-01	-7.4966	-75.856535	0.000566	5.660308	1.917764	0.045171
1815	9.0700e-01	-7.4501	-75.513722	0.000859	8.591538	2.910892	0.068563
1816	9.0750e-01	-7.4196	-75.219305	0.000738	7.378615	2.499943	0.058883
1817	9.0800e-01	-7.3763	-75.033783	0.000465	4.649538	1.575306	0.037105
1818	9.0850e-01	-7.3394	-74.731301	0.000758	7.580769	2.568434	0.060496
1819	9.0900e-01	-7.2977	-74.533679	0.000495	4.952769	1.678044	0.039524
1820	9.0950e-01	-7.2527	-74.251362	0.000708	7.075385	2.397205	0.056463
1821	9.1000e-01	-7.2174	-73.932747	0.000799	7.985077	2.705417	0.063723
1822	9.1050e-01	-7.1757	-73.739158	0.000485	4.851692	1.643798	0.038718
1823	9.1100e-01	-7.1420	-73.505239	0.000586	5.862462	1.986256	0.046784
1824	9.1150e-01	-7.0987	-73.226955	0.000697	6.974308	2.362959	0.055657
1825	9.1200e-01	-7.0570	-72.997068	0.000576	5.761385	1.952010	0.045977
1826	9.1250e-01	-7.0153	-72.682486	0.000788	7.884000	2.671172	0.062916
1827	9.1300e-01	-6.9832	-72.488898	0.000485	4.851692	1.643798	0.038718
1828	9.1350e-01	-6.9351	-72.178349	0.000778	7.782923	2.636926	0.062110
1829	9.1400e-01	-6.8950	-72.041224	0.000344	3.436615	1.164357	0.027425
1830	9.1450e-01	-6.8565	-71.734708	0.000768	7.681846	2.602680	0.061303
1831	9.1500e-01	-6.8132	-71.444325	0.000728	7.277538	2.465697	0.058077
1832	9.1550e-01	-6.7779	-71.234604	0.000526	5.256000	1.780781	0.041944
1833	9.1600e-01	-6.7330	-70.907923	0.000819	8.187231	2.773909	0.065336
1834	9.1650e-01	-6.6993	-70.694169	0.000536	5.357077	1.815027	0.042751
1835	9.1700e-01	-6.6560	-70.399753	0.000738	7.378615	2.499943	0.058883
1836	9.1750e-01	-6.6191	-70.226329	0.000435	4.346308	1.472569	0.034685
1837	9.1800e-01	-6.5725	-69.911748	0.000788	7.884000	2.671172	0.062916
1838	9.1850e-01	-6.5292	-69.645563	0.000667	6.671077	2.260222	0.053237
1839	9.1900e-01	-6.5036	-69.395511	0.000627	6.266769	2.123239	0.050010
1840	9.1950e-01	-6.4554	-69.084963	0.000778	7.782923	2.636926	0.062110
1841	9.2000e-01	-6.4217	-68.871208	0.000536	5.357077	1.815027	0.042751
1842	9.2050e-01	-6.3848	-68.572759	0.000748	7.479692	2.534188	0.059690
1843	9.2100e-01	-6.3367	-68.326740	0.000617	6.165692	2.088993	0.049204
1844	9.2150e-01	-6.3094	-68.080721	0.000617	6.165692	2.088993	0.049204
1845	9.2200e-01	-6.2597	-67.758073	0.000809	8.086154	2.739663	0.064530
1846	9.2250e-01	-6.2212	-67.544319	0.000536	5.357077	1.815027	0.042751
1847	9.2300e-01	-6.1811	-67.362829	0.000455	4.548462	1.541060	0.036298
1848	9.2350e-01	-6.1426	-67.040182	0.000809	8.086154	2.739663	0.064530
1849	9.2400e-01	-6.0961	-66.830460	0.000526	5.256000	1.780781	0.041944
1850	9.2450e-01	-6.0640	-66.552177	0.000697	6.974308	2.362959	0.055657
1851	9.2500e-01	-6.0207	-66.237595	0.000788	7.884000	2.671172	0.062916
1852	9.2550e-01	-5.9822	-66.007708	0.000576	5.761385	1.952010	0.045977
1853	9.2600e-01	-5.9389	-65.745557	0.000657	6.570000	2.225976	0.052430
1854	9.2650e-01	-5.8972	-65.539869	0.000515	5.154923	1.746535	0.041138
1855	9.2700e-01	-5.8603	-65.156724	0.000960	9.602308	3.253350	0.076629
1856	9.2750e-01	-5.8202	-65.003467	0.000384	3.840923	1.301340	0.030652
1857	9.2800e-01	-5.7849	-64.668720	0.000839	8.389385	2.842400	0.066949
1858	9.2850e-01	-5.7335	-64.402535	0.000667	6.671077	2.260222	0.053237
1859	9.2900e-01	-5.7063	-64.350105	0.000131	1.314000	0.445195	0.010486
1860	9.2950e-01	-5.6581	-63.850001	0.001253	12.533538	4.246478	0.100021
1861	9.3000e-01	-5.6180	-63.660445	0.000475	4.750615	1.609552	0.037911
1862	9.3050e-01	-5.5843	-63.378128	0.000708	7.075385	2.397205	0.056463
1863	9.3100e-01	-5.5378	-63.019182	0.000900	8.995846	3.047875	0.071789
1864	9.3150e-01	-5.5025	-62.833660	0.000465	4.649538	1.575306	0.037105
1865	9.3200e-01	-5.4640	-62.712667	0.000303	3.032308	1.027374	0.024199
1866	9.3250e-01	-5.4175	-62.301291	0.001031	10.309846	3.493070	0.082275
1867	9.3300e-01	-5.3854	-62.018974	0.000708	7.075385	2.397205	0.056463
1868	9.3350e-01	-5.3389	-61.760855	0.000647	6.468923	2.191730	0.051624
1869	9.3400e-01	-5.3052	-61.397877	0.000910	9.096923	3.082121	0.072596
1870	9.3450e-01	-5.2635	-61.224453	0.000435	4.346308	1.472569	0.034685
1871	9.3500e-01	-5.2266	-60.881640	0.000859	8.591538	2.910892	0.068563
1872	9.3550e-01	-5.1833	-60.639654	0.000606	6.064615	2.054747	0.048397
1873	9.3600e-01	-5.1384	-60.373470	0.000667	6.671077	2.260222	0.053237
1874	9.3650e-01	-5.1079	-60.159715	0.000536	5.357077	1.815027	0.042751
1875	9.3700e-01	-5.0710	-59.873365	0.000718	7.176462	2.431451	0.057270
1876	9.3750e-01	-5.0164	-59.607181	0.000667	6.671077	2.260222	0.053237
1877	9.3800e-01	-4.9747	-59.349062	0.000647	6.468923	2.191730	0.051624
1878	9.3850e-01	-4.9346	-59.127242	0.000556	5.559231	1.883518	0.044364
1879	9.3900e-01	-4.9025	-58.780396	0.000869	8.692615	2.945138	0.069369
1880	9.3950e-01	-4.8592	-58.518244	0.000657	6.570000	2.225976	0.052430
1881	9.4000e-01	-4.8223	-58.268192	0.000627	6.266769	2.123239	0.050010
1882	9.4050e-01	-4.7742	-57.977809	0.000728	7.277538	2.465697	0.058077
1883	9.4100e-01	-4.7405	-57.735823	0.000606	6.064615	2.054747	0.048397
1884	9.4150e-01	-4.7004	-57.421241	0.000788	7.884000	2.671172	0.062916
1885	9.4200e-01	-4.6683	-57.227653	0.000485	4.851692	1.643798	0.038718
1886	9.4250e-01	-4.6218	-57.009865	0.000546	5.458154	1.849273	0.043557
1887	9.4300e-01	-4.5769	-56.691251	0.000799	7.985077	2.705417	0.063723
1888	9.4350e-01	-4.5368	-56.384735	0.000768	7.681846	2.602680	0.061303
1889	9.4400e-01	-4.4983	-56.094352	0.000728	7.277538	2.465697	0.058077
1890	9.4450e-01	-4.4598	-55.840267	0.000637	6.367846	2.157485	0.050817
1891	9.4500e-01	-4.4181	-55.578115	0.000657	6.570000	2.225976	0.052430
1892	9.4550e-01	-4.3796	-55.360328	0.000546	5.458154	1.849273	0.043557
1893	9.4600e-01	-4.3411	-55.049779	0.000778	7.782923	2.636926	0.062110
1894	9.4650e-01	-4.2945	-54.702933	0.000869	8.692615	2.945138	0.069369
1895	9.4700e-01	-4.2641	-54.537576	0.000414	4.144154	1.404077	0.033071
1896	9.4750e-01	-4.2255	-54.214928	0.000809	8.086154	2.739663	0.064530
1897	9.4800e-01	-4.1838	-53.956810	0.000647	6.468923	2.191730	0.051624
1898	9.4850e-01	-4.1437	-53.622062	0.000839	8.389385	2.842400	0.066949
1899	9.4900e-01	-4.0972	-53.319580	0.000758	7.580769	2.568434	0.060496
1900	9.4950e-01	-4.0555	-53.109859	0.000526	5.256000	1.780781	0.041944
1901	9.5000e-01	-4.0170	-52.892072	0.000546	5.458154	1.849273	0.043557
1902	9.5050e-01	-3.9737	-52.609755	0.000708	7.075385	2.397205	0.056463
1903	9.5100e-01	-3.9416	-52.335504	0.000687	6.873231	2.328714	0.054850
1904	9.5150e-01	-3.8983	-51.944293	0.000980	9.804462	3.321841	0.078242
1905	9.5200e-01	-3.8630	-51.690208	0.000637	6.367846	2.157485	0.050817
1906	9.5250e-01	-3.8149	-51.448222	0.000606	6.064615	2.054747	0.048397
1907	9.5300e-01	-3.7860	-51.190104	0.000647	6.468923	2.191730	0.051624
1908	9.5350e-01	-3.7427	-50.936019	0.000637	6.367846	2.157485	0.050817
1909	9.5400e-01	-3.7090	-50.637570	0.000748	7.479692	2.534188	0.059690
1910	9.5450e-01	-3.6528	-50.375418	0.000657	6.570000	2.225976	0.052430
1911	9.5500e-01	-3.6288	-50.109234	0.000667	6.671077	2.260222	0.053237
1912	9.5550e-01	-3.5790	-49.742222	0.000920	9.198000	3.116367	0.073402
1913	9.5600e-01	-3.5373	-49.508302	0.000586	5.862462	1.986256	0.046784
1914	9.5650e-01	-3.5085	-49.254217	0.000637	6.367846	2.157485	0.050817
1915	9.5700e-01	-3.4651	-48.939635	0.000788	7.884000	2.671172	0.062916
1916	9.5750e-01	-3.4170	-48.709748	0.000576	5.761385	1.952010	0.045977
1917	9.5800e-01	-3.3769	-48.383067	0.000819	8.187231	2.773909	0.065336
1918	9.5850e-01	-3.3368	-48.112850	0.000677	6.772154	2.294468	0.054044
1919	9.5900e-01	-3.3015	-47.790202	0.000809	8.086154	2.739663	0.064530
1920	9.5950e-01	-3.2550	-47.540150	0.000627	6.266769	2.123239	0.050010
1921	9.6000e-01	-3.2245	-47.245734	0.000738	7.378615	2.499943	0.058883
1922	9.6050e-01	-3.1892	-46.967450	0.000697	6.974308	2.362959	0.055657
1923	9.6100e-01	-3.1411	-46.685133	0.000708	7.075385	2.397205	0.056463
1924	9.6150e-01	-3.1010	-46.382650	0.000758	7.580769	2.568434	0.060496
1925	9.6200e-01	-3.0641	-45.963208	0.001051	10.512000	3.561562	0.083888
1926	9.6250e-01	-3.0240	-45.842215	0.000303	3.032308	1.027374	0.024199
1927	9.6300e-01	-2.9855	-45.555865	0.000718	7.176462	2.431451	0.057270
1928	9.6350e-01	-2.9438	-45.285648	0.000677	6.772154	2.294468	0.054044
1929	9.6400e-01	-2.8988	-45.051728	0.000586	5.862462	1.986256	0.046784
1930	9.6450e-01	-2.8603	-44.729080	0.000809	8.086154	2.739663	0.064530
1931	9.6500e-01	-2.8218	-44.458862	0.000677	6.772154	2.294468	0.054044
1932	9.6550e-01	-2.7769	-44.204777	0.000637	6.367846	2.157485	0.050817
1933	9.6600e-01	-2.7416	-43.833732	0.000930	9.299077	3.150613	0.074209
1934	9.6650e-01	-2.6999	-43.547382	0.000718	7.176462	2.431451	0.057270
1935	9.6700e-01	-2.6534	-43.333628	0.000536	5.357077	1.815027	0.042751
1936	9.6750e-01	-2.6245	-43.023079	0.000778	7.782923	2.636926	0.062110
1937	9.6800e-01	-2.5924	-42.680266	0.000859	8.591538	2.910892	0.068563
1938	9.6850e-01	-2.5379	-42.522975	0.000394	3.942000	1.335586	0.031458
1939	9.6900e-01	-2.5074	-42.220493	0.000758	7.580769	2.568434	0.060496
1940	9.6950e-01	-2.4641	-41.922043	0.000748	7.479692	2.534188	0.059690
1941	9.7000e-01	-2.4256	-41.607462	0.000788	7.884000	2.671172	0.062916
1942	9.7050e-01	-2.3839	-41.240450	0.000920	9.198000	3.116367	0.073402
1943	9.7100e-01	-2.3438	-41.038795	0.000505	5.053846	1.712289	0.040331
1944	9.7150e-01	-2.3021	-40.748412	0.000728	7.277538	2.465697	0.058077
1945	9.7200e-01	-2.2604	-40.449962	0.000748	7.479692	2.534188	0.059690
1946	9.7250e-01	-2.2187	-40.212010	0.000596	5.963538	2.020502	0.047591
1947	9.7300e-01	-2.1769	-39.889362	0.000809	8.086154	2.739663	0.064530
1948	9.7350e-01	-2.1417	-39.643343	0.000617	6.165692	2.088993	0.049204
1949	9.7400e-01	-2.0967	-39.332794	0.000778	7.782923	2.636926	0.062110
1950	9.7450e-01	-2.0614	-39.050477	0.000708	7.075385	2.397205	0.056463
1951	9.7500e-01	-2.0165	-38.772193	0.000697	6.974308	2.362959	0.055657
1952	9.7550e-01	-1.9748	-38.514075	0.000647	6.468923	2.191730	0.051624
1953	9.7600e-01	-1.9459	-38.231758	0.000708	7.075385	2.397205	0.056463
1954	9.7650e-01	-1.8994	-37.868779	0.000910	9.096923	3.082121	0.072596
1955	9.7700e-01	-1.8625	-37.614694	0.000637	6.367846	2.157485	0.050817
1956	9.7750e-01	-1.8208	-37.312212	0.000758	7.580769	2.568434	0.060496
1957	9.7800e-01	-1.7775	-37.025862	0.000718	7.176462	2.431451	0.057270
1958	9.7850e-01	-1.7358	-36.759677	0.000667	6.671077	2.260222	0.053237
1959	9.7900e-01	-1.7101	-36.445096	0.000788	7.884000	2.671172	0.062916
1960	9.7950e-01	-1.6620	-36.078084	0.000920	9.198000	3.116367	0.073402
1961	9.8000e-01	-1.6187	-35.908693	0.000425	4.245231	1.438323	0.033878
1962	9.8050e-01	-1.5770	-35.618310	0.000728	7.277538	2.465697	0.058077
1963	9.8100e-01	-1.5417	-35.239199	0.000950	9.501231	3.219104	0.075822
1964	9.8150e-01	-1.4967	-34.948816	0.000728	7.277538	2.465697	0.058077
1965	9.8200e-01	-1.4615	-34.634234	0.000788	7.884000	2.671172	0.062916
1966	9.8250e-01	-1.4149	-34.468877	0.000414	4.144154	1.404077	0.033071
1967	9.8300e-01	-1.3828	-34.186560	0.000708	7.075385	2.397205	0.056463
1968	9.8350e-01	-1.3379	-33.839714	0.000869	8.692615	2.945138	0.069369
1969	9.8400e-01	-1.3074	-33.597728	0.000606	6.064615	2.054747	0.048397
1970	9.8450e-01	-1.2513	-33.291212	0.000768	7.681846	2.602680	0.061303
1971	9.8500e-01	-1.2224	-32.952432	0.000849	8.490462	2.876646	0.067756
1972	9.8550e-01	-1.1823	-32.553155	0.001001	10.006615	3.390333	0.079855
1973	9.8600e-01	-1.1422	-32.295037	0.000647	6.468923	2.191730	0.051624
1974	9.8650e-01	-1.0973	-32.044985	0.000627	6.266769	2.123239	0.050010
1975	9.8700e-01	-1.0524	-31.702172	0.000859	8.591538	2.910892	0.068563
1976	9.8750e-01	-1.0171	-31.492450	0.000526	5.256000	1.780781	0.041944
1977	9.8800e-01	-0.9834	-31.254498	0.000596	5.963538	2.020502	0.047591
1978	9.8850e-01	-0.9401	-31.024611	0.000576	5.761385	1.952010	0.045977
1979	9.8900e-01	-0.9048	-30.633400	0.000980	9.804462	3.321841	0.078242
1980	9.8950e-01	-0.8615	-30.383348	0.000627	6.266769	2.123239	0.050010
1981	9.9000e-01	-0.8166	-30.076833	0.000768	7.681846	2.602680	0.061303
1982	9.9050e-01	-0.7732	-29.758218	0.000799	7.985077	2.705417	0.063723
1983	9.9100e-01	-0.7396	-29.459769	0.000748	7.479692	2.534188	0.059690
1984	9.9150e-01	-0.7059	-29.165353	0.000738	7.378615	2.499943	0.058883
1985	9.9200e-01	-0.6625	-28.850771	0.000788	7.884000	2.671172	0.062916
1986	9.9250e-01	-0.6257	-28.580553	0.000677	6.772154	2.294468	0.054044
1987	9.9300e-01	-0.5807	-28.318402	0.000657	6.570000	2.225976	0.052430
1988	9.9350e-01	-0.5503	-27.999787	0.000799	7.985077	2.705417	0.063723
1989	9.9400e-01	-0.5053	-27.737636	0.000657	6.570000	2.225976	0.052430
1990	9.9450e-01	-0.4588	-27.499683	0.000596	5.963538	2.020502	0.047591
1991	9.9500e-01	-0.4203	-27.068141	0.001082	10.815231	3.664299	0.086308
1992	9.9550e-01	-0.3770	-26.765659	0.000758	7.580769	2.568434	0.060496
1993	9.9600e-01	-0.3449	-26.511574	0.000637	6.367846	2.157485	0.050817
1994	9.9650e-01	-0.3080	-26.148595	0.000910	9.096923	3.082121	0.072596
1995	9.9700e-01	-0.2743	-25.934841	0.000536	5.357077	1.815027	0.042751
1996	9.9750e-01	-0.2230	-25.620259	0.000788	7.884000	2.671172	0.062916
1997	9.9800e-01	-0.1749	-25.277445	0.000859	8.591538	2.910892	0.068563
1998	9.9850e-01	-0.1380	-24.918500	0.000900	8.995846	3.047875	0.071789
1999	9.9900e-01	-0.0995	-24.708779	0.000526	5.256000	1.780781	0.041944
2000	9.9950e-01	-0.0561	-24.422429	0.000718	7.176462	2.431451	0.057270
2001	1.0000e+00	-0.0241	-24.144145	0.000718	7.176462	2.431451	0.055657

PMax (uC/cm2):	1.45e+02
Pr (uC/cm2):	1.61e+01
-Pr (uC/cm2):	-1.53e+01
PLoss (uC/cm2):	-1.53e+01
-Vc:	-2.08e+00
C (Max-Eff) (nF):	7.27e-01
K (Eff):	2.46e+03
Vert. (+/-Pr) Shift (uC/cm2):	3.81e-01
Offset (uC/cm2):	8.82e+00

A (Loop Area - uC/cm2·Volts):	-2.62e-01



Hysteresis Version: 5.48.1 - Radiant Technologies, Inc., 1999 - 9/12/24

