»»»»»»»»»»»»»»»»»»»»»»»»»»»»»»»»»»»» Hysteresis ««««««««««««««««««««««««««««««««««««
»»»  Executed Version:	5.48.1
»»»  Vision Version:	5.48.4 (R)
»»»  Vision Compiled:	9/18/24
»»»  Driver Version:	5.47.0
»»»  Windows Version:	Windows 8 or 8.1
»»»  Processor Information:	x86 (AMD or Intel) - 32 Processors
»»»  Tester Name:	PMF21124-494 (100V)
»»»  Tester S/N:	PMF21124-494
»»»  Internal Amp Type:	100V RevK 270k
»»»  Internal Amp S/N:	iAB2-596/K     
»»»  Execution Count:	1
»»»»»»»»»»»»»»»»»»»»»»»»»»»»»»»»»»»»»»»»»»««««««««««««««««««««««««««««««««««««««««««

Stored:	6/6/2025 - 15:1:39
Configured:	06/06/25 01:57:07 PM
Executed:	06/06/25 03:01:13 PM

»»»»»»»»»»»»»»»»»»»»»»»»»»»»»»»»»»» Sample Info ««««««««««««««««««««««««««««««««««««
Sample Name:	
Lot Name:	
Wafer Name:	
Die Row/Column:	0/0
Capacitor Number:	0
Sample Area (cm2):	1.00e-04
Sample Thickness (microns):	3.00e-01

Amplifier:	Internal

»»»»»»»»»»»»»»»»»»»»»»»»»»»»»»»»»»» Tester Info «««««««««««««««««««««««««««««««««««
Tester Name:	PMF21124-494 (100V)
Tester Serial Number:	PMF21124-494
Return Signal Amp. Level:	0.19 [Index: 3]

»»»»»»»»»»»»»»»»»»»»»»»»»»»»»»»» Hysteresis Info ««««««««««««««««««««««««««««««««««
Task Name:	Hyst-501
Volts:	20.00
Field:	666.67 (kV/cm)
DCBias:	0.00
DCField:	0.00 (kV/cm)
Hysteresis Period (ms):	2.00e+02
Preset:	Enabled
Preset Delay (ms):	1.00e+03
Profile:	Standard Bipolar

»»»»»»»»»»»»»»»»»»»»»»»»»»»»»»»»»»»»»» Data «««««««««««««««««««««««««««««««««««««««
Points:	2009

Valid Data

Point	Time (ms)	Drive Voltage	Measured Polarization (uC/cm2)	Capacitance (uF)	Normalized Capacitance (uF/cm2)	Dielectric Constant	Instantaneous Current (mA)
   1	0.0000e+00	0.0000	-3.278154	0.000203	2.027987	0.687101	0.000081
   2	9.9500e-02	0.0337	-3.197412	0.000203	2.027987	0.687101	0.000081
   3	1.9900e-01	0.0658	-3.084372	0.000284	2.839182	0.961941	0.000114
   4	2.9850e-01	0.1011	-2.910775	0.000436	4.360172	1.477266	0.000174
   5	3.9800e-01	0.1572	-2.850218	0.000152	1.520990	0.515325	0.000061
   6	4.9750e-01	0.1909	-2.737178	0.000284	2.839182	0.961941	0.000114
   7	5.9700e-01	0.2390	-2.616064	0.000304	3.041981	1.030651	0.000122
   8	6.9650e-01	0.2631	-2.458616	0.000395	3.954575	1.339846	0.000158
   9	7.9600e-01	0.3192	-2.349613	0.000274	2.737783	0.927586	0.000110
  10	8.9550e-01	0.3481	-2.248685	0.000253	2.534984	0.858876	0.000101
  11	9.9500e-01	0.3946	-2.171979	0.000193	1.926588	0.652746	0.000077
  12	1.0945e+00	0.4315	-2.038754	0.000335	3.346179	1.133716	0.000134
  13	1.1940e+00	0.4636	-1.901491	0.000345	3.447578	1.168071	0.000138
  14	1.2935e+00	0.5085	-1.768265	0.000335	3.346179	1.133716	0.000134
  15	1.3930e+00	0.5470	-1.643114	0.000314	3.143380	1.065006	0.000126
  16	1.4925e+00	0.5823	-1.509889	0.000335	3.346179	1.133716	0.000134
  17	1.5920e+00	0.6176	-1.364552	0.000365	3.650377	1.236781	0.000146
  18	1.6915e+00	0.6706	-1.283809	0.000203	2.027987	0.687101	0.000081
  19	1.7910e+00	0.7091	-1.150584	0.000335	3.346179	1.133716	0.000134
  20	1.8905e+00	0.7524	-1.017358	0.000335	3.346179	1.133716	0.000134
  21	1.9900e+00	0.7861	-0.924504	0.000233	2.332185	0.790166	0.000093
  22	2.0895e+00	0.8342	-0.742833	0.000456	4.562971	1.545976	0.000183
  23	2.1890e+00	0.8695	-0.641905	0.000253	2.534984	0.858876	0.000101
  24	2.2885e+00	0.9000	-0.516753	0.000314	3.143380	1.065006	0.000126
  25	2.3880e+00	0.9385	-0.407751	0.000274	2.737783	0.927586	0.000110
  26	2.4875e+00	0.9930	-0.246265	0.000406	4.055974	1.374201	0.000162
  27	2.5870e+00	1.0283	-0.125151	0.000304	3.041981	1.030651	0.000122
  28	2.6865e+00	1.0620	-0.004037	0.000304	3.041981	1.030651	0.000122
  29	2.7860e+00	1.1037	0.149374	0.000385	3.853176	1.305491	0.000154
  30	2.8855e+00	1.1438	0.266451	0.000294	2.940581	0.996296	0.000118
  31	2.9850e+00	1.1839	0.415825	0.000375	3.751776	1.271136	0.000150
  32	3.0845e+00	1.2240	0.536939	0.000304	3.041981	1.030651	0.000122
  33	3.1840e+00	1.2673	0.625756	0.000223	2.230786	0.755811	0.000089
  34	3.2835e+00	1.3026	0.754944	0.000324	3.244779	1.099361	0.000130
  35	3.3830e+00	1.3443	0.900281	0.000365	3.650377	1.236781	0.000146
  36	3.4825e+00	1.3909	1.021395	0.000304	3.041981	1.030651	0.000122
  37	3.5820e+00	1.4310	1.174806	0.000385	3.853176	1.305491	0.000154
  38	3.6815e+00	1.4647	1.287846	0.000284	2.839182	0.961941	0.000114
  39	3.7810e+00	1.5016	1.368589	0.000203	2.027987	0.687101	0.000081
  40	3.8805e+00	1.5465	1.509889	0.000355	3.548978	1.202426	0.000142
  41	3.9800e+00	1.5866	1.659263	0.000375	3.751776	1.271136	0.000150
  42	4.0795e+00	1.6299	1.808637	0.000375	3.751776	1.271136	0.000150
  43	4.1790e+00	1.6620	1.897454	0.000223	2.230786	0.755811	0.000089
  44	4.2785e+00	1.6989	2.022605	0.000314	3.143380	1.065006	0.000126
  45	4.3780e+00	1.7454	2.196202	0.000436	4.360172	1.477266	0.000174
  46	4.4775e+00	1.7807	2.276945	0.000203	2.027987	0.687101	0.000081
  47	4.5770e+00	1.8304	2.446504	0.000426	4.258773	1.442911	0.000170
  48	4.6765e+00	1.8673	2.583767	0.000345	3.447578	1.168071	0.000138
  49	4.7760e+00	1.9042	2.696807	0.000284	2.839182	0.961941	0.000114
  50	4.8755e+00	1.9427	2.830032	0.000335	3.346179	1.133716	0.000134
  51	4.9750e+00	1.9828	2.930961	0.000253	2.534984	0.858876	0.000101
  52	5.0745e+00	2.0245	3.076297	0.000365	3.650377	1.236781	0.000146
  53	5.1740e+00	2.0598	3.193374	0.000294	2.940581	0.996296	0.000118
  54	5.2735e+00	2.1064	3.334674	0.000355	3.548978	1.202426	0.000142
  55	5.3730e+00	2.1352	3.447714	0.000284	2.839182	0.961941	0.000114
  56	5.4725e+00	2.1882	3.568828	0.000304	3.041981	1.030651	0.000122
  57	5.5720e+00	2.2219	3.730313	0.000406	4.055974	1.374201	0.000162
  58	5.6715e+00	2.2604	3.823168	0.000233	2.332185	0.790166	0.000093
  59	5.7710e+00	2.2989	3.976579	0.000385	3.853176	1.305491	0.000154
  60	5.8705e+00	2.3374	4.061359	0.000213	2.129387	0.721456	0.000085
  61	5.9700e+00	2.3839	4.206695	0.000365	3.650377	1.236781	0.000146
  62	6.0695e+00	2.4192	4.356069	0.000375	3.751776	1.271136	0.000150
  63	6.1690e+00	2.4593	4.509481	0.000385	3.853176	1.305491	0.000154
  64	6.2685e+00	2.5058	4.622520	0.000284	2.839182	0.961941	0.000114
  65	6.3680e+00	2.5443	4.767857	0.000365	3.650377	1.236781	0.000146
  66	6.4675e+00	2.5860	4.893009	0.000314	3.143380	1.065006	0.000126
  67	6.5670e+00	2.6197	5.014123	0.000304	3.041981	1.030651	0.000122
  68	6.6665e+00	2.6646	5.123125	0.000274	2.737783	0.927586	0.000110
  69	6.7660e+00	2.6983	5.256351	0.000335	3.346179	1.133716	0.000134
  70	6.8655e+00	2.7432	5.397650	0.000355	3.548978	1.202426	0.000142
  71	6.9650e+00	2.7721	5.518765	0.000304	3.041981	1.030651	0.000122
  72	7.0645e+00	2.8154	5.631804	0.000284	2.839182	0.961941	0.000114
  73	7.1640e+00	2.8555	5.760993	0.000324	3.244779	1.099361	0.000130
  74	7.2635e+00	2.9037	5.886144	0.000314	3.143380	1.065006	0.000126
  75	7.3630e+00	2.9422	6.031481	0.000365	3.650377	1.236781	0.000146
  76	7.4625e+00	2.9823	6.136446	0.000264	2.636383	0.893231	0.000105
  77	7.5620e+00	3.0176	6.306006	0.000426	4.258773	1.442911	0.000170
  78	7.6615e+00	3.0625	6.402897	0.000243	2.433585	0.824521	0.000097
  79	7.7610e+00	3.1026	6.544197	0.000355	3.548978	1.202426	0.000142
  80	7.8605e+00	3.1459	6.677423	0.000335	3.346179	1.133716	0.000134
  81	7.9600e+00	3.1748	6.814685	0.000345	3.447578	1.168071	0.000138
  82	8.0595e+00	3.2197	6.899465	0.000213	2.129387	0.721456	0.000085
  83	8.1590e+00	3.2614	7.048839	0.000375	3.751776	1.271136	0.000150
  84	8.2585e+00	3.3015	7.202250	0.000385	3.853176	1.305491	0.000154
  85	8.3580e+00	3.3336	7.299141	0.000243	2.433585	0.824521	0.000097
  86	8.4575e+00	3.3881	7.464664	0.000416	4.157374	1.408556	0.000166
  87	8.5570e+00	3.4218	7.557518	0.000233	2.332185	0.790166	0.000093
  88	8.6565e+00	3.4555	7.666521	0.000274	2.737783	0.927586	0.000110
  89	8.7560e+00	3.5036	7.836080	0.000426	4.258773	1.442911	0.000170
  90	8.8555e+00	3.5486	7.973343	0.000345	3.447578	1.168071	0.000138
  91	8.9550e+00	3.5855	8.066197	0.000233	2.332185	0.790166	0.000093
  92	9.0545e+00	3.6191	8.227683	0.000406	4.055974	1.374201	0.000162
  93	9.1540e+00	3.6593	8.348797	0.000304	3.041981	1.030651	0.000122
  94	9.2535e+00	3.6945	8.453762	0.000264	2.636383	0.893231	0.000105
  95	9.3530e+00	3.7347	8.595062	0.000355	3.548978	1.202426	0.000142
  96	9.4525e+00	3.7716	8.760585	0.000416	4.157374	1.408556	0.000166
  97	9.5520e+00	3.8149	8.837290	0.000193	1.926588	0.652746	0.000077
  98	9.6515e+00	3.8550	8.986664	0.000375	3.751776	1.271136	0.000150
  99	9.7510e+00	3.8871	9.095667	0.000274	2.737783	0.927586	0.000110
 100	9.8505e+00	3.9304	9.196595	0.000253	2.534984	0.858876	0.000101
 101	9.9500e+00	3.9673	9.382303	0.000466	4.664371	1.580332	0.000187
 102	1.0050e+01	4.0202	9.495343	0.000284	2.839182	0.961941	0.000114
 103	1.0149e+01	4.0539	9.620494	0.000314	3.143380	1.065006	0.000126
 104	1.0248e+01	4.0988	9.717386	0.000243	2.433585	0.824521	0.000097
 105	1.0348e+01	4.1389	9.878871	0.000406	4.055974	1.374201	0.000162
 106	1.0447e+01	4.1806	9.967688	0.000223	2.230786	0.755811	0.000089
 107	1.0547e+01	4.2159	10.096876	0.000324	3.244779	1.099361	0.000130
 108	1.0646e+01	4.2576	10.234139	0.000345	3.447578	1.168071	0.000138
 109	1.0746e+01	4.2961	10.322956	0.000223	2.230786	0.755811	0.000089
 110	1.0845e+01	4.3394	10.456182	0.000335	3.346179	1.133716	0.000134
 111	1.0945e+01	4.3747	10.597481	0.000355	3.548978	1.202426	0.000142
 112	1.1044e+01	4.4197	10.686298	0.000223	2.230786	0.755811	0.000089
 113	1.1144e+01	4.4517	10.819524	0.000335	3.346179	1.133716	0.000134
 114	1.1243e+01	4.4967	10.928526	0.000274	2.737783	0.927586	0.000110
 115	1.1343e+01	4.5336	11.077900	0.000375	3.751776	1.271136	0.000150
 116	1.1443e+01	4.5721	11.182866	0.000264	2.636383	0.893231	0.000105
 117	1.1542e+01	4.6025	11.303980	0.000304	3.041981	1.030651	0.000122
 118	1.1642e+01	4.6651	11.425094	0.000304	3.041981	1.030651	0.000122
 119	1.1741e+01	4.6924	11.558320	0.000335	3.346179	1.133716	0.000134
 120	1.1841e+01	4.7293	11.671359	0.000284	2.839182	0.961941	0.000114
 121	1.1940e+01	4.7662	11.796511	0.000314	3.143380	1.065006	0.000126
 122	1.2040e+01	4.8159	11.893402	0.000243	2.433585	0.824521	0.000097
 123	1.2139e+01	4.8496	12.018553	0.000314	3.143380	1.065006	0.000126
 124	1.2239e+01	4.8817	12.167927	0.000375	3.751776	1.271136	0.000150
 125	1.2338e+01	4.9410	12.280967	0.000284	2.839182	0.961941	0.000114
 126	1.2438e+01	4.9731	12.422267	0.000355	3.548978	1.202426	0.000142
 127	1.2537e+01	5.0196	12.531269	0.000274	2.737783	0.927586	0.000110
 128	1.2636e+01	5.0437	12.636235	0.000264	2.636383	0.893231	0.000105
 129	1.2736e+01	5.0950	12.757349	0.000304	3.041981	1.030651	0.000122
 130	1.2835e+01	5.1368	12.866352	0.000274	2.737783	0.927586	0.000110
 131	1.2935e+01	5.1672	13.007651	0.000355	3.548978	1.202426	0.000142
 132	1.3034e+01	5.2105	13.144914	0.000345	3.447578	1.168071	0.000138
 133	1.3134e+01	5.2587	13.261991	0.000294	2.940581	0.996296	0.000118
 134	1.3233e+01	5.2988	13.354845	0.000233	2.332185	0.790166	0.000093
 135	1.3333e+01	5.3357	13.504219	0.000375	3.751776	1.271136	0.000150
 136	1.3432e+01	5.3710	13.633407	0.000324	3.244779	1.099361	0.000130
 137	1.3532e+01	5.4127	13.742410	0.000274	2.737783	0.927586	0.000110
 138	1.3632e+01	5.4432	13.863524	0.000304	3.041981	1.030651	0.000122
 139	1.3731e+01	5.4929	13.988675	0.000314	3.143380	1.065006	0.000126
 140	1.3831e+01	5.5298	14.065381	0.000193	1.926588	0.652746	0.000077
 141	1.3930e+01	5.5747	14.267238	0.000507	5.069968	1.717752	0.000203
 142	1.4030e+01	5.6036	14.315683	0.000122	1.216792	0.412260	0.000049
 143	1.4129e+01	5.6437	14.452946	0.000345	3.447578	1.168071	0.000138
 144	1.4229e+01	5.6950	14.574060	0.000304	3.041981	1.030651	0.000122
 145	1.4328e+01	5.7223	14.739583	0.000416	4.157374	1.408556	0.000166
 146	1.4428e+01	5.7688	14.836474	0.000243	2.433585	0.824521	0.000097
 147	1.4527e+01	5.8137	14.913179	0.000193	1.926588	0.652746	0.000077
 148	1.4627e+01	5.8538	15.066591	0.000385	3.853176	1.305491	0.000154
 149	1.4726e+01	5.8875	15.179630	0.000284	2.839182	0.961941	0.000114
 150	1.4825e+01	5.9308	15.308819	0.000324	3.244779	1.099361	0.000130
 151	1.4925e+01	5.9774	15.425896	0.000294	2.940581	0.996296	0.000118
 152	1.5024e+01	6.0095	15.518750	0.000233	2.332185	0.790166	0.000093
 153	1.5124e+01	6.0544	15.627752	0.000274	2.737783	0.927586	0.000110
 154	1.5223e+01	6.0881	15.756941	0.000324	3.244779	1.099361	0.000130
 155	1.5323e+01	6.1218	15.894203	0.000345	3.447578	1.168071	0.000138
 156	1.5422e+01	6.1603	16.023392	0.000324	3.244779	1.099361	0.000130
 157	1.5522e+01	6.2036	16.164691	0.000355	3.548978	1.202426	0.000142
 158	1.5621e+01	6.2517	16.289843	0.000314	3.143380	1.065006	0.000126
 159	1.5721e+01	6.2902	16.358474	0.000172	1.723789	0.584036	0.000069
 160	1.5820e+01	6.3207	16.511885	0.000385	3.853176	1.305491	0.000154
 161	1.5920e+01	6.3640	16.584554	0.000183	1.825188	0.618391	0.000073
 162	1.6020e+01	6.4057	16.742002	0.000395	3.954575	1.339846	0.000158
 163	1.6119e+01	6.4410	16.863116	0.000304	3.041981	1.030651	0.000122
 164	1.6218e+01	6.4891	16.947896	0.000213	2.129387	0.721456	0.000085
 165	1.6318e+01	6.5308	17.060936	0.000284	2.839182	0.961941	0.000114
 166	1.6418e+01	6.5661	17.190124	0.000324	3.244779	1.099361	0.000130
 167	1.6517e+01	6.6159	17.315275	0.000314	3.143380	1.065006	0.000126
 168	1.6616e+01	6.6463	17.440426	0.000314	3.143380	1.065006	0.000126
 169	1.6716e+01	6.6864	17.549429	0.000274	2.737783	0.927586	0.000110
 170	1.6816e+01	6.7201	17.650357	0.000253	2.534984	0.858876	0.000101
 171	1.6915e+01	6.7602	17.791657	0.000355	3.548978	1.202426	0.000142
 172	1.7015e+01	6.8036	17.884511	0.000233	2.332185	0.790166	0.000093
 173	1.7114e+01	6.8404	17.985440	0.000253	2.534984	0.858876	0.000101
 174	1.7213e+01	6.8806	18.142888	0.000395	3.954575	1.339846	0.000158
 175	1.7313e+01	6.9271	18.231705	0.000223	2.230786	0.755811	0.000089
 176	1.7413e+01	6.9560	18.336671	0.000264	2.636383	0.893231	0.000105
 177	1.7512e+01	6.9993	18.473933	0.000345	3.447578	1.168071	0.000138
 178	1.7611e+01	7.0394	18.586973	0.000284	2.839182	0.961941	0.000114
 179	1.7711e+01	7.0779	18.720198	0.000335	3.346179	1.133716	0.000134
 180	1.7811e+01	7.1212	18.833238	0.000284	2.839182	0.961941	0.000114
 181	1.7910e+01	7.1565	18.950315	0.000294	2.940581	0.996296	0.000118
 182	1.8009e+01	7.2014	19.035095	0.000213	2.129387	0.721456	0.000085
 183	1.8109e+01	7.2415	19.168320	0.000335	3.346179	1.133716	0.000134
 184	1.8209e+01	7.2816	19.297509	0.000324	3.244779	1.099361	0.000130
 185	1.8308e+01	7.3249	19.430734	0.000335	3.346179	1.133716	0.000134
 186	1.8407e+01	7.3698	19.503403	0.000183	1.825188	0.618391	0.000073
 187	1.8507e+01	7.4051	19.628554	0.000314	3.143380	1.065006	0.000126
 188	1.8607e+01	7.4388	19.733519	0.000264	2.636383	0.893231	0.000105
 189	1.8706e+01	7.4854	19.882894	0.000375	3.751776	1.271136	0.000150
 190	1.8805e+01	7.5190	20.012082	0.000324	3.244779	1.099361	0.000130
 191	1.8905e+01	7.5624	20.121085	0.000274	2.737783	0.927586	0.000110
 192	1.9005e+01	7.6073	20.217976	0.000243	2.433585	0.824521	0.000097
 193	1.9104e+01	7.6474	20.322941	0.000264	2.636383	0.893231	0.000105
 194	1.9203e+01	7.6763	20.460204	0.000345	3.447578	1.168071	0.000138
 195	1.9303e+01	7.7180	20.573244	0.000284	2.839182	0.961941	0.000114
 196	1.9402e+01	7.7613	20.714543	0.000355	3.548978	1.202426	0.000142
 197	1.9502e+01	7.7998	20.799323	0.000213	2.129387	0.721456	0.000085
 198	1.9602e+01	7.8415	20.960809	0.000406	4.055974	1.374201	0.000162
 199	1.9701e+01	7.8736	21.089997	0.000324	3.244779	1.099361	0.000130
 200	1.9800e+01	7.9153	21.158628	0.000172	1.723789	0.584036	0.000069
 201	1.9900e+01	7.9490	21.332225	0.000436	4.360172	1.477266	0.000174
 202	2.0000e+01	7.9971	21.400857	0.000172	1.723789	0.584036	0.000069
 203	2.0099e+01	8.0436	21.542156	0.000355	3.548978	1.202426	0.000142
 204	2.0198e+01	8.0789	21.655196	0.000284	2.839182	0.961941	0.000114
 205	2.0298e+01	8.1142	21.780347	0.000314	3.143380	1.065006	0.000126
 206	2.0398e+01	8.1527	21.897424	0.000294	2.940581	0.996296	0.000118
 207	2.0497e+01	8.1944	21.966056	0.000172	1.723789	0.584036	0.000069
 208	2.0596e+01	8.2393	22.127541	0.000406	4.055974	1.374201	0.000162
 209	2.0696e+01	8.2762	22.192135	0.000162	1.622390	0.549681	0.000065
 210	2.0796e+01	8.3147	22.365732	0.000436	4.360172	1.477266	0.000174
 211	2.0895e+01	8.3500	22.446475	0.000203	2.027987	0.687101	0.000081
 212	2.0994e+01	8.4046	22.587774	0.000355	3.548978	1.202426	0.000142
 213	2.1094e+01	8.4431	22.692740	0.000264	2.636383	0.893231	0.000105
 214	2.1194e+01	8.4687	22.781557	0.000223	2.230786	0.755811	0.000089
 215	2.1293e+01	8.5105	22.918820	0.000345	3.447578	1.168071	0.000138
 216	2.1392e+01	8.5586	23.003599	0.000213	2.129387	0.721456	0.000085
 217	2.1492e+01	8.5971	23.120676	0.000294	2.940581	0.996296	0.000118
 218	2.1591e+01	8.6388	23.286199	0.000416	4.157374	1.408556	0.000166
 219	2.1691e+01	8.6773	23.346756	0.000152	1.520990	0.515325	0.000061
 220	2.1791e+01	8.7190	23.488056	0.000355	3.548978	1.202426	0.000142
 221	2.1890e+01	8.7495	23.584947	0.000243	2.433585	0.824521	0.000097
 222	2.1989e+01	8.7928	23.718172	0.000335	3.346179	1.133716	0.000134
 223	2.2089e+01	8.8377	23.770655	0.000132	1.318192	0.446615	0.000053
 224	2.2189e+01	8.8810	23.972512	0.000507	5.069968	1.717752	0.000203
 225	2.2288e+01	8.9179	24.065366	0.000233	2.332185	0.790166	0.000093
 226	2.2387e+01	8.9596	24.166295	0.000253	2.534984	0.858876	0.000101
 227	2.2487e+01	8.9917	24.275297	0.000274	2.737783	0.927586	0.000110
 228	2.2587e+01	9.0334	24.392374	0.000294	2.940581	0.996296	0.000118
 229	2.2686e+01	9.0719	24.493303	0.000253	2.534984	0.858876	0.000101
 230	2.2785e+01	9.1249	24.598268	0.000264	2.636383	0.893231	0.000105
 231	2.2885e+01	9.1521	24.739568	0.000355	3.548978	1.202426	0.000142
 232	2.2985e+01	9.2083	24.832422	0.000233	2.332185	0.790166	0.000093
 233	2.3084e+01	9.2292	24.921239	0.000223	2.230786	0.755811	0.000089
 234	2.3183e+01	9.2789	25.070613	0.000375	3.751776	1.271136	0.000150
 235	2.3283e+01	9.3078	25.167504	0.000243	2.433585	0.824521	0.000097
 236	2.3383e+01	9.3559	25.268433	0.000253	2.534984	0.858876	0.000101
 237	2.3482e+01	9.3928	25.361287	0.000233	2.332185	0.790166	0.000093
 238	2.3581e+01	9.4345	25.522772	0.000406	4.055974	1.374201	0.000162
 239	2.3681e+01	9.4842	25.599478	0.000193	1.926588	0.652746	0.000077
 240	2.3780e+01	9.4987	25.692332	0.000233	2.332185	0.790166	0.000093
 241	2.3880e+01	9.5612	25.849780	0.000395	3.954575	1.339846	0.000158
 242	2.3980e+01	9.5917	25.962820	0.000284	2.839182	0.961941	0.000114
 243	2.4079e+01	9.6398	26.047600	0.000213	2.129387	0.721456	0.000085
 244	2.4178e+01	9.6735	26.140454	0.000233	2.332185	0.790166	0.000093
 245	2.4278e+01	9.7104	26.281754	0.000355	3.548978	1.202426	0.000142
 246	2.4378e+01	9.7457	26.402868	0.000304	3.041981	1.030651	0.000122
 247	2.4477e+01	9.7938	26.511870	0.000274	2.737783	0.927586	0.000110
 248	2.4576e+01	9.8356	26.596650	0.000213	2.129387	0.721456	0.000085
 249	2.4676e+01	9.8692	26.713727	0.000294	2.940581	0.996296	0.000118
 250	2.4776e+01	9.9126	26.834841	0.000304	3.041981	1.030651	0.000122
 251	2.4875e+01	9.9607	26.931733	0.000243	2.433585	0.824521	0.000097
 252	2.4974e+01	9.9928	27.040735	0.000274	2.737783	0.927586	0.000110
 253	2.5074e+01	10.0377	27.173961	0.000335	3.346179	1.133716	0.000134
 254	2.5174e+01	10.0794	27.246629	0.000183	1.825188	0.618391	0.000073
 255	2.5273e+01	10.1083	27.383892	0.000345	3.447578	1.168071	0.000138
 256	2.5372e+01	10.1596	27.521154	0.000345	3.447578	1.168071	0.000138
 257	2.5472e+01	10.1869	27.593823	0.000183	1.825188	0.618391	0.000073
 258	2.5572e+01	10.2334	27.723011	0.000324	3.244779	1.099361	0.000130
 259	2.5671e+01	10.2719	27.803754	0.000203	2.027987	0.687101	0.000081
 260	2.5770e+01	10.3072	27.941016	0.000345	3.447578	1.168071	0.000138
 261	2.5870e+01	10.3473	28.062131	0.000304	3.041981	1.030651	0.000122
 262	2.5970e+01	10.3778	28.159022	0.000243	2.433585	0.824521	0.000097
 263	2.6069e+01	10.4243	28.255913	0.000243	2.433585	0.824521	0.000097
 264	2.6169e+01	10.4740	28.368953	0.000284	2.839182	0.961941	0.000114
 265	2.6268e+01	10.5174	28.461807	0.000233	2.332185	0.790166	0.000093
 266	2.6367e+01	10.5478	28.570810	0.000274	2.737783	0.927586	0.000110
 267	2.6467e+01	10.5927	28.687887	0.000294	2.940581	0.996296	0.000118
 268	2.6567e+01	10.6232	28.813038	0.000314	3.143380	1.065006	0.000126
 269	2.6666e+01	10.6730	28.861483	0.000122	1.216792	0.412260	0.000049
 270	2.6765e+01	10.7163	29.006820	0.000365	3.650377	1.236781	0.000146
 271	2.6865e+01	10.7435	29.095637	0.000223	2.230786	0.755811	0.000089
 272	2.6965e+01	10.7965	29.236937	0.000355	3.548978	1.202426	0.000142
 273	2.7064e+01	10.8334	29.313643	0.000193	1.926588	0.652746	0.000077
 274	2.7163e+01	10.8719	29.426682	0.000284	2.839182	0.961941	0.000114
 275	2.7263e+01	10.9072	29.523574	0.000243	2.433585	0.824521	0.000097
 276	2.7363e+01	10.9473	29.640651	0.000294	2.940581	0.996296	0.000118
 277	2.7462e+01	10.9842	29.701208	0.000152	1.520990	0.515325	0.000061
 278	2.7561e+01	11.0371	29.838470	0.000345	3.447578	1.168071	0.000138
 279	2.7661e+01	11.0692	29.943436	0.000264	2.636383	0.893231	0.000105
 280	2.7761e+01	11.1093	30.056476	0.000284	2.839182	0.961941	0.000114
 281	2.7860e+01	11.1478	30.125107	0.000172	1.723789	0.584036	0.000069
 282	2.7959e+01	11.1847	30.270444	0.000365	3.650377	1.236781	0.000146
 283	2.8059e+01	11.2232	30.343112	0.000183	1.825188	0.618391	0.000073
 284	2.8159e+01	11.2649	30.431929	0.000223	2.230786	0.755811	0.000089
 285	2.8258e+01	11.3114	30.573229	0.000355	3.548978	1.202426	0.000142
 286	2.8358e+01	11.3483	30.658009	0.000213	2.129387	0.721456	0.000085
 287	2.8457e+01	11.3981	30.762974	0.000264	2.636383	0.893231	0.000105
 288	2.8556e+01	11.4286	30.880051	0.000294	2.940581	0.996296	0.000118
 289	2.8656e+01	11.4671	30.952720	0.000183	1.825188	0.618391	0.000073
 290	2.8756e+01	11.5007	31.053648	0.000253	2.534984	0.858876	0.000101
 291	2.8855e+01	11.5457	31.223208	0.000426	4.258773	1.442911	0.000170
 292	2.8954e+01	11.5874	31.279728	0.000142	1.419591	0.480970	0.000057
 293	2.9054e+01	11.6275	31.328173	0.000122	1.216792	0.412260	0.000049
 294	2.9154e+01	11.6660	31.505807	0.000446	4.461572	1.511621	0.000179
 295	2.9253e+01	11.6997	31.582513	0.000193	1.926588	0.652746	0.000077
 296	2.9352e+01	11.7414	31.675367	0.000233	2.332185	0.790166	0.000093
 297	2.9452e+01	11.7911	31.788407	0.000284	2.839182	0.961941	0.000114
 298	2.9552e+01	11.8264	31.877224	0.000223	2.230786	0.755811	0.000089
 299	2.9651e+01	11.8665	31.990264	0.000284	2.839182	0.961941	0.000114
 300	2.9750e+01	11.8986	32.103303	0.000284	2.839182	0.961941	0.000114
 301	2.9850e+01	11.9483	32.180009	0.000193	1.926588	0.652746	0.000077
 302	2.9950e+01	11.9820	32.297086	0.000294	2.940581	0.996296	0.000118
 303	3.0049e+01	12.0237	32.393977	0.000243	2.433585	0.824521	0.000097
 304	3.0148e+01	12.0638	32.507017	0.000284	2.839182	0.961941	0.000114
 305	3.0248e+01	12.1120	32.575648	0.000172	1.723789	0.584036	0.000069
 306	3.0348e+01	12.1424	32.716948	0.000355	3.548978	1.202426	0.000142
 307	3.0447e+01	12.1922	32.801728	0.000213	2.129387	0.721456	0.000085
 308	3.0547e+01	12.2259	32.878433	0.000193	1.926588	0.652746	0.000077
 309	3.0646e+01	12.2563	33.039919	0.000406	4.055974	1.374201	0.000162
 310	3.0745e+01	12.3061	33.108550	0.000172	1.723789	0.584036	0.000069
 311	3.0845e+01	12.3462	33.193330	0.000213	2.129387	0.721456	0.000085
 312	3.0945e+01	12.3847	33.350778	0.000395	3.954575	1.339846	0.000158
 313	3.1044e+01	12.4264	33.431521	0.000203	2.027987	0.687101	0.000081
 314	3.1143e+01	12.4665	33.516301	0.000213	2.129387	0.721456	0.000085
 315	3.1243e+01	12.5082	33.601081	0.000213	2.129387	0.721456	0.000085
 316	3.1343e+01	12.5467	33.718158	0.000294	2.940581	0.996296	0.000118
 317	3.1442e+01	12.5884	33.847346	0.000324	3.244779	1.099361	0.000130
 318	3.1541e+01	12.6173	33.920014	0.000183	1.825188	0.618391	0.000073
 319	3.1641e+01	12.6590	34.081500	0.000406	4.055974	1.374201	0.000162
 320	3.1741e+01	12.7071	34.125908	0.000112	1.115393	0.377905	0.000045
 321	3.1840e+01	12.7392	34.275282	0.000375	3.751776	1.271136	0.000150
 322	3.1939e+01	12.7922	34.343914	0.000172	1.723789	0.584036	0.000069
 323	3.2039e+01	12.8242	34.432731	0.000223	2.230786	0.755811	0.000089
 324	3.2139e+01	12.8563	34.537696	0.000264	2.636383	0.893231	0.000105
 325	3.2238e+01	12.9012	34.638625	0.000253	2.534984	0.858876	0.000101
 326	3.2337e+01	12.9381	34.747627	0.000274	2.737783	0.927586	0.000110
 327	3.2437e+01	12.9831	34.848556	0.000253	2.534984	0.858876	0.000101
 328	3.2536e+01	13.0232	34.945447	0.000243	2.433585	0.824521	0.000097
 329	3.2636e+01	13.0552	35.014078	0.000172	1.723789	0.584036	0.000069
 330	3.2736e+01	13.1050	35.147304	0.000335	3.346179	1.133716	0.000134
 331	3.2835e+01	13.1339	35.240158	0.000233	2.332185	0.790166	0.000093
 332	3.2934e+01	13.1836	35.328975	0.000223	2.230786	0.755811	0.000089
 333	3.3034e+01	13.2189	35.450089	0.000304	3.041981	1.030651	0.000122
 334	3.3133e+01	13.2526	35.518720	0.000172	1.723789	0.584036	0.000069
 335	3.3233e+01	13.2959	35.647909	0.000324	3.244779	1.099361	0.000130
 336	3.3333e+01	13.3344	35.756911	0.000274	2.737783	0.927586	0.000110
 337	3.3432e+01	13.3761	35.829580	0.000183	1.825188	0.618391	0.000073
 338	3.3532e+01	13.4210	35.918397	0.000223	2.230786	0.755811	0.000089
 339	3.3631e+01	13.4659	36.027399	0.000274	2.737783	0.927586	0.000110
 340	3.3730e+01	13.4948	36.124291	0.000243	2.433585	0.824521	0.000097
 341	3.3830e+01	13.5397	36.209070	0.000213	2.129387	0.721456	0.000085
 342	3.3929e+01	13.5734	36.338259	0.000324	3.244779	1.099361	0.000130
 343	3.4029e+01	13.6103	36.394779	0.000142	1.419591	0.480970	0.000057
 344	3.4129e+01	13.6568	36.491670	0.000243	2.433585	0.824521	0.000097
 345	3.4228e+01	13.6953	36.584524	0.000233	2.332185	0.790166	0.000093
 346	3.4328e+01	13.7354	36.681415	0.000243	2.433585	0.824521	0.000097
 347	3.4427e+01	13.7772	36.790418	0.000274	2.737783	0.927586	0.000110
 348	3.4526e+01	13.8157	36.903458	0.000284	2.839182	0.961941	0.000114
 349	3.4626e+01	13.8574	36.980163	0.000193	1.926588	0.652746	0.000077
 350	3.4725e+01	13.8959	37.052832	0.000183	1.825188	0.618391	0.000073
 351	3.4825e+01	13.9263	37.186057	0.000335	3.346179	1.133716	0.000134
 352	3.4925e+01	13.9777	37.274874	0.000223	2.230786	0.755811	0.000089
 353	3.5024e+01	14.0242	37.395988	0.000304	3.041981	1.030651	0.000122
 354	3.5123e+01	14.0531	37.496917	0.000253	2.534984	0.858876	0.000101
 355	3.5223e+01	14.0980	37.597845	0.000253	2.534984	0.858876	0.000101
 356	3.5322e+01	14.1397	37.718959	0.000304	3.041981	1.030651	0.000122
 357	3.5422e+01	14.1766	37.836036	0.000294	2.940581	0.996296	0.000118
 358	3.5522e+01	14.2167	37.900630	0.000162	1.622390	0.549681	0.000065
 359	3.5621e+01	14.2488	38.005596	0.000264	2.636383	0.893231	0.000105
 360	3.5721e+01	14.3001	38.098450	0.000233	2.332185	0.790166	0.000093
 361	3.5820e+01	14.3386	38.231675	0.000335	3.346179	1.133716	0.000134
 362	3.5919e+01	14.3675	38.296270	0.000162	1.622390	0.549681	0.000065
 363	3.6019e+01	14.4060	38.393161	0.000243	2.433585	0.824521	0.000097
 364	3.6118e+01	14.4477	38.481978	0.000223	2.230786	0.755811	0.000089
 365	3.6218e+01	14.4878	38.599055	0.000294	2.940581	0.996296	0.000118
 366	3.6318e+01	14.5343	38.699983	0.000253	2.534984	0.858876	0.000101
 367	3.6417e+01	14.5777	38.804949	0.000264	2.636383	0.893231	0.000105
 368	3.6517e+01	14.6097	38.897803	0.000233	2.332185	0.790166	0.000093
 369	3.6616e+01	14.6418	39.002768	0.000264	2.636383	0.893231	0.000105
 370	3.6715e+01	14.6900	39.103697	0.000253	2.534984	0.858876	0.000101
 371	3.6815e+01	14.7349	39.176365	0.000183	1.825188	0.618391	0.000073
 372	3.6914e+01	14.7734	39.269219	0.000233	2.332185	0.790166	0.000093
 373	3.7014e+01	14.8135	39.386296	0.000294	2.940581	0.996296	0.000118
 374	3.7114e+01	14.8616	39.491262	0.000264	2.636383	0.893231	0.000105
 375	3.7213e+01	14.8905	39.555856	0.000162	1.622390	0.549681	0.000065
 376	3.7313e+01	14.9354	39.672933	0.000294	2.940581	0.996296	0.000118
 377	3.7412e+01	14.9707	39.781936	0.000274	2.737783	0.927586	0.000110
 378	3.7511e+01	15.0092	39.862678	0.000203	2.027987	0.687101	0.000081
 379	3.7611e+01	15.0573	39.975718	0.000284	2.839182	0.961941	0.000114
 380	3.7711e+01	15.0910	40.112981	0.000345	3.447578	1.168071	0.000138
 381	3.7810e+01	15.1343	40.169501	0.000142	1.419591	0.480970	0.000057
 382	3.7910e+01	15.1696	40.246206	0.000193	1.926588	0.652746	0.000077
 383	3.8009e+01	15.2065	40.339060	0.000233	2.332185	0.790166	0.000093
 384	3.8108e+01	15.2530	40.492471	0.000385	3.853176	1.305491	0.000154
 385	3.8208e+01	15.2867	40.553028	0.000152	1.520990	0.515325	0.000061
 386	3.8307e+01	15.3317	40.637808	0.000213	2.129387	0.721456	0.000085
 387	3.8407e+01	15.3814	40.771034	0.000335	3.346179	1.133716	0.000134
 388	3.8507e+01	15.4071	40.847739	0.000193	1.926588	0.652746	0.000077
 389	3.8606e+01	15.4472	40.948668	0.000253	2.534984	0.858876	0.000101
 390	3.8706e+01	15.4889	41.077856	0.000324	3.244779	1.099361	0.000130
 391	3.8805e+01	15.5322	41.098042	0.000051	0.506997	0.171775	0.000020
 392	3.8904e+01	15.5771	41.239342	0.000355	3.548978	1.202426	0.000142
 393	3.9004e+01	15.6044	41.316047	0.000193	1.926588	0.652746	0.000077
 394	3.9103e+01	15.6397	41.400827	0.000213	2.129387	0.721456	0.000085
 395	3.9203e+01	15.6782	41.530015	0.000324	3.244779	1.099361	0.000130
 396	3.9303e+01	15.7343	41.598647	0.000172	1.723789	0.584036	0.000069
 397	3.9402e+01	15.7696	41.707649	0.000274	2.737783	0.927586	0.000110
 398	3.9502e+01	15.8033	41.788392	0.000203	2.027987	0.687101	0.000081
 399	3.9601e+01	15.8418	41.877209	0.000223	2.230786	0.755811	0.000089
 400	3.9700e+01	15.8787	41.998323	0.000304	3.041981	1.030651	0.000122
 401	3.9800e+01	15.9236	42.062917	0.000162	1.622390	0.549681	0.000065
 402	3.9900e+01	15.9717	42.179994	0.000294	2.940581	0.996296	0.000118
 403	3.9999e+01	16.0054	42.276885	0.000243	2.433585	0.824521	0.000097
 404	4.0099e+01	16.0439	42.345517	0.000172	1.723789	0.584036	0.000069
 405	4.0198e+01	16.0905	42.450482	0.000264	2.636383	0.893231	0.000105
 406	4.0297e+01	16.1290	42.539299	0.000223	2.230786	0.755811	0.000089
 407	4.0397e+01	16.1659	42.628116	0.000223	2.230786	0.755811	0.000089
 408	4.0496e+01	16.2092	42.720970	0.000233	2.332185	0.790166	0.000093
 409	4.0596e+01	16.2477	42.809787	0.000223	2.230786	0.755811	0.000089
 410	4.0696e+01	16.2733	42.951087	0.000355	3.548978	1.202426	0.000142
 411	4.0795e+01	16.3311	43.015681	0.000162	1.622390	0.549681	0.000065
 412	4.0895e+01	16.3696	43.100461	0.000213	2.129387	0.721456	0.000085
 413	4.0994e+01	16.4017	43.205427	0.000264	2.636383	0.893231	0.000105
 414	4.1093e+01	16.4530	43.290207	0.000213	2.129387	0.721456	0.000085
 415	4.1193e+01	16.4819	43.419395	0.000324	3.244779	1.099361	0.000130
 416	4.1292e+01	16.5236	43.483989	0.000162	1.622390	0.549681	0.000065
 417	4.1392e+01	16.5605	43.617215	0.000335	3.346179	1.133716	0.000134
 418	4.1492e+01	16.6054	43.673734	0.000142	1.419591	0.480970	0.000057
 419	4.1591e+01	16.6439	43.782737	0.000274	2.737783	0.927586	0.000110
 420	4.1691e+01	16.6792	43.895777	0.000284	2.839182	0.961941	0.000114
 421	4.1790e+01	16.7161	43.964408	0.000172	1.723789	0.584036	0.000069
 422	4.1889e+01	16.7706	44.057262	0.000233	2.332185	0.790166	0.000093
 423	4.1989e+01	16.8140	44.162228	0.000264	2.636383	0.893231	0.000105
 424	4.2089e+01	16.8412	44.259119	0.000243	2.433585	0.824521	0.000097
 425	4.2188e+01	16.8829	44.356010	0.000243	2.433585	0.824521	0.000097
 426	4.2288e+01	16.9198	44.440790	0.000213	2.129387	0.721456	0.000085
 427	4.2387e+01	16.9664	44.545756	0.000264	2.636383	0.893231	0.000105
 428	4.2486e+01	17.0097	44.622461	0.000193	1.926588	0.652746	0.000077
 429	4.2586e+01	17.0353	44.731464	0.000274	2.737783	0.927586	0.000110
 430	4.2685e+01	17.0867	44.844504	0.000284	2.839182	0.961941	0.000114
 431	4.2785e+01	17.1236	44.905061	0.000152	1.520990	0.515325	0.000061
 432	4.2885e+01	17.1637	45.034249	0.000324	3.244779	1.099361	0.000130
 433	4.2984e+01	17.2070	45.082695	0.000122	1.216792	0.412260	0.000049
 434	4.3084e+01	17.2455	45.167475	0.000213	2.129387	0.721456	0.000085
 435	4.3183e+01	17.2840	45.276477	0.000274	2.737783	0.927586	0.000110
 436	4.3282e+01	17.3161	45.357220	0.000203	2.027987	0.687101	0.000081
 437	4.3382e+01	17.3626	45.446037	0.000223	2.230786	0.755811	0.000089
 438	4.3481e+01	17.4059	45.551003	0.000264	2.636383	0.893231	0.000105
 439	4.3581e+01	17.4476	45.639820	0.000223	2.230786	0.755811	0.000089
 440	4.3681e+01	17.4877	45.716525	0.000193	1.926588	0.652746	0.000077
 441	4.3780e+01	17.5198	45.817453	0.000253	2.534984	0.858876	0.000101
 442	4.3880e+01	17.5615	45.918382	0.000253	2.534984	0.858876	0.000101
 443	4.3979e+01	17.5968	45.982976	0.000162	1.622390	0.549681	0.000065
 444	4.4078e+01	17.6369	46.079867	0.000243	2.433585	0.824521	0.000097
 445	4.4178e+01	17.6899	46.160610	0.000203	2.027987	0.687101	0.000081
 446	4.4278e+01	17.7236	46.253464	0.000233	2.332185	0.790166	0.000093
 447	4.4377e+01	17.7653	46.362467	0.000274	2.737783	0.927586	0.000110
 448	4.4477e+01	17.8006	46.435135	0.000183	1.825188	0.618391	0.000073
 449	4.4576e+01	17.8391	46.519915	0.000213	2.129387	0.721456	0.000085
 450	4.4675e+01	17.8808	46.596621	0.000193	1.926588	0.652746	0.000077
 451	4.4775e+01	17.9225	46.689475	0.000233	2.332185	0.790166	0.000093
 452	4.4874e+01	17.9610	46.806552	0.000294	2.940581	0.996296	0.000118
 453	4.4974e+01	17.9963	46.846923	0.000101	1.013994	0.343550	0.000041
 454	4.5074e+01	18.0412	46.947851	0.000253	2.534984	0.858876	0.000101
 455	4.5173e+01	18.0813	47.028594	0.000203	2.027987	0.687101	0.000081
 456	4.5273e+01	18.1214	47.121448	0.000233	2.332185	0.790166	0.000093
 457	4.5372e+01	18.1535	47.218340	0.000243	2.433585	0.824521	0.000097
 458	4.5471e+01	18.2016	47.339454	0.000304	3.041981	1.030651	0.000122
 459	4.5571e+01	18.2257	47.420196	0.000203	2.027987	0.687101	0.000081
 460	4.5670e+01	18.2818	47.500939	0.000203	2.027987	0.687101	0.000081
 461	4.5770e+01	18.3187	47.585719	0.000213	2.129387	0.721456	0.000085
 462	4.5870e+01	18.3604	47.666462	0.000203	2.027987	0.687101	0.000081
 463	4.5969e+01	18.4118	47.767390	0.000253	2.534984	0.858876	0.000101
 464	4.6069e+01	18.4407	47.831984	0.000162	1.622390	0.549681	0.000065
 465	4.6168e+01	18.4840	47.977321	0.000365	3.650377	1.236781	0.000146
 466	4.6267e+01	18.5161	48.045952	0.000172	1.723789	0.584036	0.000069
 467	4.6367e+01	18.5674	48.138807	0.000233	2.332185	0.790166	0.000093
 468	4.6467e+01	18.6075	48.175141	0.000091	0.912594	0.309195	0.000037
 469	4.6566e+01	18.6428	48.360849	0.000466	4.664371	1.580332	0.000187
 470	4.6666e+01	18.6829	48.405257	0.000112	1.115393	0.377905	0.000045
 471	4.6765e+01	18.7182	48.461777	0.000142	1.419591	0.480970	0.000057
 472	4.6864e+01	18.7551	48.570780	0.000274	2.737783	0.927586	0.000110
 473	4.6964e+01	18.8048	48.651523	0.000203	2.027987	0.687101	0.000081
 474	4.7063e+01	18.8385	48.752451	0.000253	2.534984	0.858876	0.000101
 475	4.7163e+01	18.8802	48.873565	0.000304	3.041981	1.030651	0.000122
 476	4.7263e+01	18.9203	48.926048	0.000132	1.318192	0.446615	0.000053
 477	4.7362e+01	18.9604	49.035051	0.000274	2.737783	0.927586	0.000110
 478	4.7462e+01	18.9989	49.099645	0.000162	1.622390	0.549681	0.000065
 479	4.7561e+01	19.0374	49.228833	0.000324	3.244779	1.099361	0.000130
 480	4.7660e+01	19.0807	49.301502	0.000183	1.825188	0.618391	0.000073
 481	4.7760e+01	19.1176	49.422616	0.000304	3.041981	1.030651	0.000122
 482	4.7859e+01	19.1577	49.475098	0.000132	1.318192	0.446615	0.000053
 483	4.7959e+01	19.2075	49.588138	0.000284	2.839182	0.961941	0.000114
 484	4.8059e+01	19.2380	49.685030	0.000243	2.433585	0.824521	0.000097
 485	4.8158e+01	19.2765	49.733475	0.000122	1.216792	0.412260	0.000049
 486	4.8258e+01	19.3198	49.834404	0.000253	2.534984	0.858876	0.000101
 487	4.8357e+01	19.3487	49.927258	0.000233	2.332185	0.790166	0.000093
 488	4.8456e+01	19.4032	50.048372	0.000304	3.041981	1.030651	0.000122
 489	4.8556e+01	19.4401	50.108929	0.000152	1.520990	0.515325	0.000061
 490	4.8656e+01	19.4722	50.177560	0.000172	1.723789	0.584036	0.000069
 491	4.8755e+01	19.5235	50.282526	0.000264	2.636383	0.893231	0.000105
 492	4.8855e+01	19.5524	50.367305	0.000213	2.129387	0.721456	0.000085
 493	4.8954e+01	19.5893	50.435937	0.000172	1.723789	0.584036	0.000069
 494	4.9053e+01	19.6422	50.561088	0.000314	3.143380	1.065006	0.000126
 495	4.9153e+01	19.6679	50.645868	0.000213	2.129387	0.721456	0.000085
 496	4.9252e+01	19.7112	50.754870	0.000274	2.737783	0.927586	0.000110
 497	4.9352e+01	19.7561	50.839650	0.000213	2.129387	0.721456	0.000085
 498	4.9452e+01	19.7914	50.900207	0.000152	1.520990	0.515325	0.000061
 499	4.9551e+01	19.8347	51.001136	0.000253	2.534984	0.858876	0.000101
 500	4.9651e+01	19.8716	51.057656	0.000142	1.419591	0.480970	0.000057
 501	4.9750e+01	19.9182	51.174733	0.000294	2.940581	0.996296	0.000118
 502	4.9849e+01	19.9406	51.279698	0.000264	2.636383	0.893231	0.000105
 503	4.9949e+01	19.9759	51.376589	0.000243	2.433585	0.824521	0.000097
 504	5.0048e+01	19.9551	51.316032	0.000152	1.520990	0.515325	-0.000061
 505	5.0148e+01	19.9198	51.239327	0.000193	1.926588	0.652746	-0.000077
 506	5.0248e+01	19.8700	51.162621	0.000193	1.926588	0.652746	-0.000077
 507	5.0347e+01	19.8315	51.118213	0.000112	1.115393	0.377905	-0.000045
 508	5.0447e+01	19.7946	51.025359	0.000233	2.332185	0.790166	-0.000093
 509	5.0546e+01	19.7609	50.960764	0.000162	1.622390	0.549681	-0.000065
 510	5.0645e+01	19.7128	50.896170	0.000162	1.622390	0.549681	-0.000065
 511	5.0745e+01	19.6727	50.847725	0.000122	1.216792	0.412260	-0.000049
 512	5.0844e+01	19.6406	50.762945	0.000213	2.129387	0.721456	-0.000085
 513	5.0944e+01	19.5909	50.694313	0.000172	1.723789	0.584036	-0.000069
 514	5.1044e+01	19.5508	50.653942	0.000101	1.013994	0.343550	-0.000041
 515	5.1143e+01	19.5171	50.561088	0.000233	2.332185	0.790166	-0.000093
 516	5.1242e+01	19.4802	50.480345	0.000203	2.027987	0.687101	-0.000081
 517	5.1342e+01	19.4305	50.448048	0.000081	0.811195	0.274840	-0.000032
 518	5.1441e+01	19.3952	50.359231	0.000223	2.230786	0.755811	-0.000089
 519	5.1541e+01	19.3454	50.286563	0.000183	1.825188	0.618391	-0.000073
 520	5.1641e+01	19.3182	50.234080	0.000132	1.318192	0.446615	-0.000053
 521	5.1740e+01	19.2765	50.125077	0.000274	2.737783	0.927586	-0.000110
 522	5.1840e+01	19.2444	50.052409	0.000183	1.825188	0.618391	-0.000073
 523	5.1939e+01	19.2011	50.003963	0.000122	1.216792	0.412260	-0.000049
 524	5.2038e+01	19.1594	49.971666	0.000081	0.811195	0.274840	-0.000032
 525	5.2138e+01	19.1209	49.862664	0.000274	2.737783	0.927586	-0.000110
 526	5.2237e+01	19.0727	49.830366	0.000081	0.811195	0.274840	-0.000032
 527	5.2337e+01	19.0374	49.705215	0.000314	3.143380	1.065006	-0.000126
 528	5.2437e+01	19.0021	49.664844	0.000101	1.013994	0.343550	-0.000041
 529	5.2536e+01	18.9556	49.580064	0.000213	2.129387	0.721456	-0.000085
 530	5.2636e+01	18.9123	49.511433	0.000172	1.723789	0.584036	-0.000069
 531	5.2735e+01	18.8674	49.479136	0.000081	0.811195	0.274840	-0.000032
 532	5.2834e+01	18.8433	49.402430	0.000193	1.926588	0.652746	-0.000077
 533	5.2934e+01	18.7984	49.341873	0.000152	1.520990	0.515325	-0.000061
 534	5.3033e+01	18.7615	49.273242	0.000172	1.723789	0.584036	-0.000069
 535	5.3133e+01	18.7230	49.152128	0.000304	3.041981	1.030651	-0.000122
 536	5.3233e+01	18.6845	49.127905	0.000061	0.608396	0.206130	-0.000024
 537	5.3332e+01	18.6332	49.055236	0.000183	1.825188	0.618391	-0.000073
 538	5.3431e+01	18.6027	48.970457	0.000213	2.129387	0.721456	-0.000085
 539	5.3531e+01	18.5594	48.913937	0.000142	1.419591	0.480970	-0.000057
 540	5.3630e+01	18.5145	48.817045	0.000243	2.433585	0.824521	-0.000097
 541	5.3730e+01	18.4856	48.760525	0.000142	1.419591	0.480970	-0.000057
 542	5.3830e+01	18.4374	48.679783	0.000203	2.027987	0.687101	-0.000081
 543	5.3929e+01	18.3925	48.590966	0.000223	2.230786	0.755811	-0.000089
 544	5.4029e+01	18.3669	48.506186	0.000213	2.129387	0.721456	-0.000085
 545	5.4128e+01	18.3187	48.433517	0.000183	1.825188	0.618391	-0.000073
 546	5.4227e+01	18.2883	48.332589	0.000253	2.534984	0.858876	-0.000101
 547	5.4327e+01	18.2465	48.340663	-0.000020	-0.202799	-0.068710	0.000008
 548	5.4426e+01	18.2032	48.199364	0.000355	3.548978	1.202426	-0.000142
 549	5.4526e+01	18.1599	48.110547	0.000223	2.230786	0.755811	-0.000089
 550	5.4626e+01	18.1198	48.082287	0.000071	0.709796	0.240485	-0.000028
 551	5.4725e+01	18.0829	47.989433	0.000233	2.332185	0.790166	-0.000093
 552	5.4825e+01	18.0428	47.924838	0.000162	1.622390	0.549681	-0.000065
 553	5.4924e+01	18.0091	47.815836	0.000274	2.737783	0.927586	-0.000110
 554	5.5023e+01	17.9674	47.771427	0.000112	1.115393	0.377905	-0.000045
 555	5.5123e+01	17.9193	47.694722	0.000193	1.926588	0.652746	-0.000077
 556	5.5222e+01	17.8792	47.585719	0.000274	2.737783	0.927586	-0.000110
 557	5.5322e+01	17.8455	47.541310	0.000112	1.115393	0.377905	-0.000045
 558	5.5422e+01	17.7974	47.464605	0.000193	1.926588	0.652746	-0.000077
 559	5.5521e+01	17.7653	47.400011	0.000162	1.622390	0.549681	-0.000065
 560	5.5620e+01	17.7268	47.355602	0.000112	1.115393	0.377905	-0.000045
 561	5.5720e+01	17.6851	47.234488	0.000304	3.041981	1.030651	-0.000122
 562	5.5819e+01	17.6385	47.141634	0.000233	2.332185	0.790166	-0.000093
 563	5.5919e+01	17.6000	47.089151	0.000132	1.318192	0.446615	-0.000053
 564	5.6019e+01	17.5663	47.024557	0.000162	1.622390	0.549681	-0.000065
 565	5.6118e+01	17.5182	46.919592	0.000264	2.636383	0.893231	-0.000105
 566	5.6218e+01	17.4829	46.838849	0.000203	2.027987	0.687101	-0.000081
 567	5.6317e+01	17.4444	46.766180	0.000183	1.825188	0.618391	-0.000073
 568	5.6416e+01	17.4091	46.689475	0.000193	1.926588	0.652746	-0.000077
 569	5.6516e+01	17.3594	46.584509	0.000264	2.636383	0.893231	-0.000105
 570	5.6615e+01	17.3289	46.556249	0.000071	0.709796	0.240485	-0.000028
 571	5.6715e+01	17.2888	46.467432	0.000223	2.230786	0.755811	-0.000089
 572	5.6815e+01	17.2391	46.390727	0.000193	1.926588	0.652746	-0.000077
 573	5.6914e+01	17.2006	46.281724	0.000274	2.737783	0.927586	-0.000110
 574	5.7014e+01	17.1589	46.229241	0.000132	1.318192	0.446615	-0.000053
 575	5.7113e+01	17.1172	46.156573	0.000183	1.825188	0.618391	-0.000073
 576	5.7212e+01	17.0835	46.075830	0.000203	2.027987	0.687101	-0.000081
 577	5.7312e+01	17.0466	45.974902	0.000253	2.534984	0.858876	-0.000101
 578	5.7411e+01	17.0017	45.898196	0.000193	1.926588	0.652746	-0.000077
 579	5.7511e+01	16.9616	45.797268	0.000253	2.534984	0.858876	-0.000101
 580	5.7611e+01	16.9279	45.720562	0.000193	1.926588	0.652746	-0.000077
 581	5.7710e+01	16.8926	45.647894	0.000183	1.825188	0.618391	-0.000073
 582	5.7809e+01	16.8412	45.583300	0.000162	1.622390	0.549681	-0.000065
 583	5.7909e+01	16.7963	45.482371	0.000253	2.534984	0.858876	-0.000101
 584	5.8008e+01	16.7658	45.446037	0.000091	0.912594	0.309195	-0.000037
 585	5.8108e+01	16.7289	45.369331	0.000193	1.926588	0.652746	-0.000077
 586	5.8208e+01	16.6840	45.284552	0.000213	2.129387	0.721456	-0.000085
 587	5.8307e+01	16.6407	45.187660	0.000243	2.433585	0.824521	-0.000097
 588	5.8407e+01	16.6102	45.123066	0.000162	1.622390	0.549681	-0.000065
 589	5.8506e+01	16.5589	45.022138	0.000253	2.534984	0.858876	-0.000101
 590	5.8605e+01	16.5300	44.937358	0.000213	2.129387	0.721456	-0.000085
 591	5.8705e+01	16.4867	44.844504	0.000233	2.332185	0.790166	-0.000093
 592	5.8804e+01	16.4498	44.812207	0.000081	0.811195	0.274840	-0.000032
 593	5.8904e+01	16.4193	44.715315	0.000243	2.433585	0.824521	-0.000097
 594	5.9004e+01	16.3680	44.650721	0.000162	1.622390	0.549681	-0.000065
 595	5.9103e+01	16.3247	44.545756	0.000264	2.636383	0.893231	-0.000105
 596	5.9203e+01	16.2782	44.469050	0.000193	1.926588	0.652746	-0.000077
 597	5.9302e+01	16.2477	44.412530	0.000142	1.419591	0.480970	-0.000057
 598	5.9401e+01	16.2092	44.319676	0.000233	2.332185	0.790166	-0.000093
 599	5.9501e+01	16.1626	44.242971	0.000193	1.926588	0.652746	-0.000077
 600	5.9600e+01	16.1225	44.121856	0.000304	3.041981	1.030651	-0.000122
 601	5.9700e+01	16.0889	44.073411	0.000122	1.216792	0.412260	-0.000049
 602	5.9800e+01	16.0503	43.980557	0.000233	2.332185	0.790166	-0.000093
 603	5.9899e+01	16.0086	43.879628	0.000253	2.534984	0.858876	-0.000101
 604	5.9998e+01	15.9669	43.839257	0.000101	1.013994	0.343550	-0.000041
 605	6.0098e+01	15.9332	43.750440	0.000223	2.230786	0.755811	-0.000089
 606	6.0197e+01	15.8979	43.641437	0.000274	2.737783	0.927586	-0.000110
 607	6.0297e+01	15.8546	43.568769	0.000183	1.825188	0.618391	-0.000073
 608	6.0397e+01	15.8065	43.459766	0.000274	2.737783	0.927586	-0.000110
 609	6.0496e+01	15.7696	43.419395	0.000101	1.013994	0.343550	-0.000041
 610	6.0596e+01	15.7215	43.314429	0.000264	2.636383	0.893231	-0.000105
 611	6.0695e+01	15.6814	43.229649	0.000213	2.129387	0.721456	-0.000085
 612	6.0794e+01	15.6573	43.128721	0.000253	2.534984	0.858876	-0.000101
 613	6.0894e+01	15.6124	43.060090	0.000172	1.723789	0.584036	-0.000069
 614	6.0993e+01	15.5739	42.943013	0.000294	2.940581	0.996296	-0.000118
 615	6.1093e+01	15.5306	42.898604	0.000112	1.115393	0.377905	-0.000045
 616	6.1193e+01	15.4953	42.842084	0.000142	1.419591	0.480970	-0.000057
 617	6.1292e+01	15.4488	42.704822	0.000345	3.447578	1.168071	-0.000138
 618	6.1392e+01	15.4022	42.636191	0.000172	1.723789	0.584036	-0.000069
 619	6.1491e+01	15.3718	42.551411	0.000213	2.129387	0.721456	-0.000085
 620	6.1590e+01	15.3365	42.442408	0.000274	2.737783	0.927586	-0.000110
 621	6.1690e+01	15.2899	42.341480	0.000253	2.534984	0.858876	-0.000101
 622	6.1789e+01	15.2482	42.276885	0.000162	1.622390	0.549681	-0.000065
 623	6.1889e+01	15.2178	42.175957	0.000253	2.534984	0.858876	-0.000101
 624	6.1989e+01	15.1696	42.079066	0.000243	2.433585	0.824521	-0.000097
 625	6.2088e+01	15.1279	42.030620	0.000122	1.216792	0.412260	-0.000049
 626	6.2188e+01	15.0894	41.913543	0.000294	2.940581	0.996296	-0.000118
 627	6.2287e+01	15.0541	41.861060	0.000132	1.318192	0.446615	-0.000053
 628	6.2386e+01	15.0108	41.752058	0.000274	2.737783	0.927586	-0.000110
 629	6.2486e+01	14.9691	41.675352	0.000193	1.926588	0.652746	-0.000077
 630	6.2586e+01	14.9322	41.606721	0.000172	1.723789	0.584036	-0.000069
 631	6.2685e+01	14.8937	41.477533	0.000324	3.244779	1.099361	-0.000130
 632	6.2785e+01	14.8472	41.437161	0.000101	1.013994	0.343550	-0.000041
 633	6.2884e+01	14.8087	41.352381	0.000213	2.129387	0.721456	-0.000085
 634	6.2983e+01	14.7686	41.251453	0.000253	2.534984	0.858876	-0.000101
 635	6.3083e+01	14.7365	41.186859	0.000162	1.622390	0.549681	-0.000065
 636	6.3182e+01	14.6980	41.102079	0.000213	2.129387	0.721456	-0.000085
 637	6.3282e+01	14.6579	41.037485	0.000162	1.622390	0.549681	-0.000065
 638	6.3382e+01	14.6210	40.875999	0.000406	4.055974	1.374201	-0.000162
 639	6.3481e+01	14.5664	40.827554	0.000122	1.216792	0.412260	-0.000049
 640	6.3581e+01	14.5279	40.730662	0.000243	2.433585	0.824521	-0.000097
 641	6.3680e+01	14.4910	40.645883	0.000213	2.129387	0.721456	-0.000085
 642	6.3779e+01	14.4557	40.577251	0.000172	1.723789	0.584036	-0.000069
 643	6.3879e+01	14.4140	40.496509	0.000203	2.027987	0.687101	-0.000081
 644	6.3978e+01	14.3723	40.399617	0.000243	2.433585	0.824521	-0.000097
 645	6.4078e+01	14.3386	40.306763	0.000233	2.332185	0.790166	-0.000093
 646	6.4177e+01	14.2969	40.238132	0.000172	1.723789	0.584036	-0.000069
 647	6.4277e+01	14.2584	40.181612	0.000142	1.419591	0.480970	-0.000057
 648	6.4376e+01	14.2151	40.008015	0.000436	4.360172	1.477266	-0.000174
 649	6.4476e+01	14.1750	39.947458	0.000152	1.520990	0.515325	-0.000061
 650	6.4576e+01	14.1397	39.862678	0.000213	2.129387	0.721456	-0.000085
 651	6.4675e+01	14.0980	39.761750	0.000253	2.534984	0.858876	-0.000101
 652	6.4775e+01	14.0531	39.693119	0.000172	1.723789	0.584036	-0.000069
 653	6.4874e+01	14.0210	39.608339	0.000213	2.129387	0.721456	-0.000085
 654	6.4974e+01	13.9697	39.523559	0.000213	2.129387	0.721456	-0.000085
 655	6.5073e+01	13.9312	39.463002	0.000152	1.520990	0.515325	-0.000061
 656	6.5172e+01	13.9087	39.386296	0.000193	1.926588	0.652746	-0.000077
 657	6.5272e+01	13.8622	39.257108	0.000324	3.244779	1.099361	-0.000130
 658	6.5371e+01	13.8157	39.176365	0.000203	2.027987	0.687101	-0.000081
 659	6.5471e+01	13.7707	39.095622	0.000203	2.027987	0.687101	-0.000081
 660	6.5570e+01	13.7370	39.047177	0.000122	1.216792	0.412260	-0.000049
 661	6.5670e+01	13.6889	38.926063	0.000304	3.041981	1.030651	-0.000122
 662	6.5769e+01	13.6568	38.821097	0.000264	2.636383	0.893231	-0.000105
 663	6.5869e+01	13.6199	38.748429	0.000183	1.825188	0.618391	-0.000073
 664	6.5969e+01	13.5718	38.651538	0.000243	2.433585	0.824521	-0.000097
 665	6.6068e+01	13.5429	38.542535	0.000274	2.737783	0.927586	-0.000110
 666	6.6168e+01	13.4996	38.469866	0.000183	1.825188	0.618391	-0.000073
 667	6.6267e+01	13.4563	38.368938	0.000253	2.534984	0.858876	-0.000101
 668	6.6367e+01	13.4194	38.296270	0.000183	1.825188	0.618391	-0.000073
 669	6.6466e+01	13.3729	38.203415	0.000233	2.332185	0.790166	-0.000093
 670	6.6566e+01	13.3392	38.102487	0.000253	2.534984	0.858876	-0.000101
 671	6.6665e+01	13.2927	38.009633	0.000233	2.332185	0.790166	-0.000093
 672	6.6764e+01	13.2574	37.961187	0.000122	1.216792	0.412260	-0.000049
 673	6.6864e+01	13.2189	37.868333	0.000233	2.332185	0.790166	-0.000093
 674	6.6963e+01	13.1740	37.735108	0.000335	3.346179	1.133716	-0.000134
 675	6.7063e+01	13.1306	37.646291	0.000223	2.230786	0.755811	-0.000089
 676	6.7162e+01	13.0905	37.553437	0.000233	2.332185	0.790166	-0.000093
 677	6.7262e+01	13.0585	37.472694	0.000203	2.027987	0.687101	-0.000081
 678	6.7362e+01	13.0296	37.359654	0.000284	2.839182	0.961941	-0.000114
 679	6.7461e+01	12.9718	37.282949	0.000193	1.926588	0.652746	-0.000077
 680	6.7561e+01	12.9413	37.210280	0.000183	1.825188	0.618391	-0.000073
 681	6.7660e+01	12.9028	37.101277	0.000274	2.737783	0.927586	-0.000110
 682	6.7760e+01	12.8611	37.044758	0.000142	1.419591	0.480970	-0.000057
 683	6.7859e+01	12.8146	36.923643	0.000304	3.041981	1.030651	-0.000122
 684	6.7959e+01	12.7793	36.859049	0.000162	1.622390	0.549681	-0.000065
 685	6.8058e+01	12.7424	36.729861	0.000324	3.244779	1.099361	-0.000130
 686	6.8157e+01	12.7007	36.681415	0.000122	1.216792	0.412260	-0.000049
 687	6.8257e+01	12.6606	36.568376	0.000284	2.839182	0.961941	-0.000114
 688	6.8356e+01	12.6221	36.540116	0.000071	0.709796	0.240485	-0.000028
 689	6.8456e+01	12.5852	36.419001	0.000304	3.041981	1.030651	-0.000122
 690	6.8555e+01	12.5467	36.350370	0.000172	1.723789	0.584036	-0.000069
 691	6.8655e+01	12.5082	36.237330	0.000284	2.839182	0.961941	-0.000114
 692	6.8754e+01	12.4681	36.124291	0.000284	2.839182	0.961941	-0.000114
 693	6.8854e+01	12.4264	36.051622	0.000183	1.825188	0.618391	-0.000073
 694	6.8954e+01	12.3831	35.970879	0.000203	2.027987	0.687101	-0.000081
 695	6.9053e+01	12.3366	35.857840	0.000284	2.839182	0.961941	-0.000114
 696	6.9153e+01	12.2980	35.797283	0.000152	1.520990	0.515325	-0.000061
 697	6.9252e+01	12.2628	35.720577	0.000193	1.926588	0.652746	-0.000077
 698	6.9352e+01	12.2243	35.599463	0.000304	3.041981	1.030651	-0.000122
 699	6.9451e+01	12.1809	35.563129	0.000091	0.912594	0.309195	-0.000037
 700	6.9550e+01	12.1505	35.417792	0.000365	3.650377	1.236781	-0.000146
 701	6.9650e+01	12.1087	35.345123	0.000183	1.825188	0.618391	-0.000073
 702	6.9749e+01	12.0686	35.248232	0.000243	2.433585	0.824521	-0.000097
 703	6.9849e+01	12.0205	35.139229	0.000274	2.737783	0.927586	-0.000110
 704	6.9948e+01	11.9900	35.066561	0.000183	1.825188	0.618391	-0.000073
 705	7.0048e+01	11.9499	35.034264	0.000081	0.811195	0.274840	-0.000032
 706	7.0147e+01	11.8954	34.905076	0.000324	3.244779	1.099361	-0.000130
 707	7.0247e+01	11.8697	34.832407	0.000183	1.825188	0.618391	-0.000073
 708	7.0347e+01	11.8296	34.751664	0.000203	2.027987	0.687101	-0.000081
 709	7.0446e+01	11.7783	34.654773	0.000243	2.433585	0.824521	-0.000097
 710	7.0546e+01	11.7382	34.533659	0.000304	3.041981	1.030651	-0.000122
 711	7.0645e+01	11.7061	34.432731	0.000253	2.534984	0.858876	-0.000101
 712	7.0745e+01	11.6708	34.343914	0.000223	2.230786	0.755811	-0.000089
 713	7.0844e+01	11.6275	34.271245	0.000183	1.825188	0.618391	-0.000073
 714	7.0944e+01	11.5874	34.182428	0.000223	2.230786	0.755811	-0.000089
 715	7.1043e+01	11.5473	34.097648	0.000213	2.129387	0.721456	-0.000085
 716	7.1142e+01	11.5072	33.980572	0.000294	2.940581	0.996296	-0.000118
 717	7.1242e+01	11.4671	33.899829	0.000203	2.027987	0.687101	-0.000081
 718	7.1341e+01	11.4253	33.815049	0.000213	2.129387	0.721456	-0.000085
 719	7.1441e+01	11.3965	33.714121	0.000253	2.534984	0.858876	-0.000101
 720	7.1540e+01	11.3499	33.669712	0.000112	1.115393	0.377905	-0.000045
 721	7.1640e+01	11.3082	33.528412	0.000355	3.548978	1.202426	-0.000142
 722	7.1740e+01	11.2697	33.451707	0.000193	1.926588	0.652746	-0.000077
 723	7.1839e+01	11.2296	33.346741	0.000264	2.636383	0.893231	-0.000105
 724	7.1939e+01	11.1847	33.286184	0.000152	1.520990	0.515325	-0.000061
 725	7.2038e+01	11.1510	33.152959	0.000335	3.346179	1.133716	-0.000134
 726	7.2138e+01	11.1141	33.068179	0.000213	2.129387	0.721456	-0.000085
 727	7.2237e+01	11.0724	32.975325	0.000233	2.332185	0.790166	-0.000093
 728	7.2337e+01	11.0291	32.866322	0.000274	2.737783	0.927586	-0.000110
 729	7.2436e+01	10.9858	32.797691	0.000172	1.723789	0.584036	-0.000069
 730	7.2535e+01	10.9489	32.704837	0.000233	2.332185	0.790166	-0.000093
 731	7.2635e+01	10.9040	32.603908	0.000253	2.534984	0.858876	-0.000101
 732	7.2734e+01	10.8703	32.502980	0.000253	2.534984	0.858876	-0.000101
 733	7.2834e+01	10.8270	32.418200	0.000213	2.129387	0.721456	-0.000085
 734	7.2933e+01	10.7933	32.313234	0.000264	2.636383	0.893231	-0.000105
 735	7.3033e+01	10.7484	32.220380	0.000233	2.332185	0.790166	-0.000093
 736	7.3132e+01	10.7131	32.143675	0.000193	1.926588	0.652746	-0.000077
 737	7.3232e+01	10.6778	32.075043	0.000172	1.723789	0.584036	-0.000069
 738	7.3332e+01	10.6345	31.990264	0.000213	2.129387	0.721456	-0.000085
 739	7.3431e+01	10.5927	31.877224	0.000284	2.839182	0.961941	-0.000114
 740	7.3531e+01	10.5591	31.735924	0.000355	3.548978	1.202426	-0.000142
 741	7.3630e+01	10.5174	31.639033	0.000243	2.433585	0.824521	-0.000097
 742	7.3730e+01	10.4708	31.558290	0.000203	2.027987	0.687101	-0.000081
 743	7.3829e+01	10.4291	31.493696	0.000162	1.622390	0.549681	-0.000065
 744	7.3928e+01	10.3906	31.368545	0.000314	3.143380	1.065006	-0.000126
 745	7.4028e+01	10.3489	31.287802	0.000203	2.027987	0.687101	-0.000081
 746	7.4127e+01	10.3072	31.162651	0.000314	3.143380	1.065006	-0.000126
 747	7.4227e+01	10.2575	31.098057	0.000162	1.622390	0.549681	-0.000065
 748	7.4326e+01	10.2366	30.976943	0.000304	3.041981	1.030651	-0.000122
 749	7.4426e+01	10.1949	30.900237	0.000193	1.926588	0.652746	-0.000077
 750	7.4525e+01	10.1548	30.787197	0.000284	2.839182	0.961941	-0.000114
 751	7.4625e+01	10.1131	30.718566	0.000172	1.723789	0.584036	-0.000069
 752	7.4725e+01	10.0617	30.569192	0.000375	3.751776	1.271136	-0.000150
 753	7.4824e+01	10.0329	30.516709	0.000132	1.318192	0.446615	-0.000053
 754	7.4924e+01	9.9944	30.423855	0.000233	2.332185	0.790166	-0.000093
 755	7.5023e+01	9.9591	30.371372	0.000132	1.318192	0.446615	-0.000053
 756	7.5123e+01	9.9142	30.250258	0.000304	3.041981	1.030651	-0.000122
 757	7.5222e+01	9.8757	30.133181	0.000294	2.940581	0.996296	-0.000118
 758	7.5322e+01	9.8388	30.044364	0.000223	2.230786	0.755811	-0.000089
 759	7.5421e+01	9.7906	29.975733	0.000172	1.723789	0.584036	-0.000069
 760	7.5520e+01	9.7569	29.858656	0.000294	2.940581	0.996296	-0.000118
 761	7.5620e+01	9.7152	29.741579	0.000294	2.940581	0.996296	-0.000118
 762	7.5719e+01	9.6623	29.632576	0.000274	2.737783	0.927586	-0.000110
 763	7.5819e+01	9.6430	29.600279	0.000081	0.811195	0.274840	-0.000032
 764	7.5918e+01	9.5917	29.463017	0.000345	3.447578	1.168071	-0.000138
 765	7.6018e+01	9.5580	29.378237	0.000213	2.129387	0.721456	-0.000085
 766	7.6118e+01	9.5211	29.305568	0.000183	1.825188	0.618391	-0.000073
 767	7.6217e+01	9.4762	29.192529	0.000284	2.839182	0.961941	-0.000114
 768	7.6317e+01	9.4265	29.095637	0.000243	2.433585	0.824521	-0.000097
 769	7.6416e+01	9.3944	29.010857	0.000213	2.129387	0.721456	-0.000085
 770	7.6516e+01	9.3607	28.869558	0.000355	3.548978	1.202426	-0.000142
 771	7.6615e+01	9.3126	28.760555	0.000274	2.737783	0.927586	-0.000110
 772	7.6715e+01	9.2805	28.671738	0.000223	2.230786	0.755811	-0.000089
 773	7.6814e+01	9.2372	28.574847	0.000243	2.433585	0.824521	-0.000097
 774	7.6913e+01	9.1874	28.502178	0.000183	1.825188	0.618391	-0.000073
 775	7.7013e+01	9.1634	28.389139	0.000284	2.839182	0.961941	-0.000114
 776	7.7112e+01	9.1136	28.272062	0.000294	2.940581	0.996296	-0.000118
 777	7.7212e+01	9.0800	28.191319	0.000203	2.027987	0.687101	-0.000081
 778	7.7311e+01	9.0415	28.025796	0.000416	4.157374	1.408556	-0.000166
 779	7.7411e+01	8.9965	27.924868	0.000253	2.534984	0.858876	-0.000101
 780	7.7510e+01	8.9516	27.868348	0.000142	1.419591	0.480970	-0.000057
 781	7.7610e+01	8.9227	27.743197	0.000314	3.143380	1.065006	-0.000126
 782	7.7710e+01	8.8794	27.662454	0.000203	2.027987	0.687101	-0.000081
 783	7.7809e+01	8.8393	27.545377	0.000294	2.940581	0.996296	-0.000118
 784	7.7909e+01	8.7976	27.428300	0.000294	2.940581	0.996296	-0.000118
 785	7.8008e+01	8.7591	27.335446	0.000233	2.332185	0.790166	-0.000093
 786	7.8108e+01	8.7238	27.230481	0.000264	2.636383	0.893231	-0.000105
 787	7.8207e+01	8.6709	27.101292	0.000324	3.244779	1.099361	-0.000130
 788	7.8306e+01	8.6340	27.012475	0.000223	2.230786	0.755811	-0.000089
 789	7.8406e+01	8.6019	26.907510	0.000264	2.636383	0.893231	-0.000105
 790	7.8505e+01	8.5618	26.822730	0.000213	2.129387	0.721456	-0.000085
 791	7.8605e+01	8.5265	26.741987	0.000203	2.027987	0.687101	-0.000081
 792	7.8704e+01	8.4800	26.624910	0.000294	2.940581	0.996296	-0.000118
 793	7.8804e+01	8.4335	26.515908	0.000274	2.737783	0.927586	-0.000110
 794	7.8903e+01	8.3982	26.402868	0.000284	2.839182	0.961941	-0.000114
 795	7.9003e+01	8.3629	26.285791	0.000294	2.940581	0.996296	-0.000118
 796	7.9103e+01	8.3228	26.217159	0.000172	1.723789	0.584036	-0.000069
 797	7.9202e+01	8.2746	26.100083	0.000294	2.940581	0.996296	-0.000118
 798	7.9302e+01	8.2345	26.019340	0.000203	2.027987	0.687101	-0.000081
 799	7.9401e+01	8.2024	25.922449	0.000243	2.433585	0.824521	-0.000097
 800	7.9501e+01	8.1623	25.765000	0.000395	3.954575	1.339846	-0.000158
 801	7.9600e+01	8.1206	25.684258	0.000203	2.027987	0.687101	-0.000081
 802	7.9700e+01	8.0757	25.583329	0.000253	2.534984	0.858876	-0.000101
 803	7.9799e+01	8.0468	25.490475	0.000233	2.332185	0.790166	-0.000093
 804	7.9898e+01	8.0003	25.401658	0.000223	2.230786	0.755811	-0.000089
 805	7.9998e+01	7.9522	25.280544	0.000304	3.041981	1.030651	-0.000122
 806	8.0097e+01	7.9185	25.139244	0.000355	3.548978	1.202426	-0.000142
 807	8.0197e+01	7.8832	25.070613	0.000172	1.723789	0.584036	-0.000069
 808	8.0296e+01	7.8367	25.006019	0.000162	1.622390	0.549681	-0.000065
 809	8.0396e+01	7.7998	24.832422	0.000436	4.360172	1.477266	-0.000174
 810	8.0496e+01	7.7581	24.755716	0.000193	1.926588	0.652746	-0.000077
 811	8.0595e+01	7.7260	24.642677	0.000284	2.839182	0.961941	-0.000114
 812	8.0695e+01	7.6811	24.541748	0.000253	2.534984	0.858876	-0.000101
 813	8.0794e+01	7.6361	24.424671	0.000294	2.940581	0.996296	-0.000118
 814	8.0894e+01	7.5993	24.335854	0.000223	2.230786	0.755811	-0.000089
 815	8.0993e+01	7.5640	24.202629	0.000335	3.346179	1.133716	-0.000134
 816	8.1093e+01	7.5222	24.081515	0.000304	3.041981	1.030651	-0.000122
 817	8.1192e+01	7.4837	24.000772	0.000203	2.027987	0.687101	-0.000081
 818	8.1291e+01	7.4404	23.932141	0.000172	1.723789	0.584036	-0.000069
 819	8.1391e+01	7.4035	23.782767	0.000375	3.751776	1.271136	-0.000150
 820	8.1490e+01	7.3714	23.657615	0.000314	3.143380	1.065006	-0.000126
 821	8.1590e+01	7.3217	23.568798	0.000223	2.230786	0.755811	-0.000089
 822	8.1689e+01	7.2848	23.479981	0.000223	2.230786	0.755811	-0.000089
 823	8.1789e+01	7.2431	23.395202	0.000213	2.129387	0.721456	-0.000085
 824	8.1888e+01	7.2062	23.290236	0.000264	2.636383	0.893231	-0.000105
 825	8.1988e+01	7.1581	23.181233	0.000274	2.737783	0.927586	-0.000110
 826	8.2088e+01	7.1148	23.048008	0.000335	3.346179	1.133716	-0.000134
 827	8.2187e+01	7.0843	22.939005	0.000274	2.737783	0.927586	-0.000110
 828	8.2287e+01	7.0378	22.862300	0.000193	1.926588	0.652746	-0.000077
 829	8.2386e+01	6.9961	22.745223	0.000294	2.940581	0.996296	-0.000118
 830	8.2486e+01	6.9624	22.636220	0.000274	2.737783	0.927586	-0.000110
 831	8.2585e+01	6.9158	22.515106	0.000304	3.041981	1.030651	-0.000122
 832	8.2684e+01	6.8790	22.385918	0.000324	3.244779	1.099361	-0.000130
 833	8.2784e+01	6.8404	22.325361	0.000152	1.520990	0.515325	-0.000061
 834	8.2883e+01	6.8068	22.184061	0.000355	3.548978	1.202426	-0.000142
 835	8.2983e+01	6.7779	22.091207	0.000233	2.332185	0.790166	-0.000093
 836	8.3082e+01	6.7265	21.933758	0.000395	3.954575	1.339846	-0.000158
 837	8.3182e+01	6.6897	21.869164	0.000162	1.622390	0.549681	-0.000065
 838	8.3281e+01	6.6447	21.735939	0.000335	3.346179	1.133716	-0.000134
 839	8.3381e+01	6.5902	21.647122	0.000223	2.230786	0.755811	-0.000089
 840	8.3481e+01	6.5597	21.517933	0.000324	3.244779	1.099361	-0.000130
 841	8.3580e+01	6.5324	21.437191	0.000203	2.027987	0.687101	-0.000081
 842	8.3680e+01	6.4795	21.328188	0.000274	2.737783	0.927586	-0.000110
 843	8.3779e+01	6.4570	21.215148	0.000284	2.839182	0.961941	-0.000114
 844	8.3879e+01	6.4073	21.094034	0.000304	3.041981	1.030651	-0.000122
 845	8.3978e+01	6.3720	20.956772	0.000345	3.447578	1.168071	-0.000138
 846	8.4078e+01	6.3255	20.876029	0.000203	2.027987	0.687101	-0.000081
 847	8.4177e+01	6.2806	20.787212	0.000223	2.230786	0.755811	-0.000089
 848	8.4276e+01	6.2533	20.678209	0.000274	2.737783	0.927586	-0.000110
 849	8.4376e+01	6.1955	20.544984	0.000335	3.346179	1.133716	-0.000134
 850	8.4475e+01	6.1747	20.419833	0.000314	3.143380	1.065006	-0.000126
 851	8.4575e+01	6.1250	20.331016	0.000223	2.230786	0.755811	-0.000089
 852	8.4674e+01	6.0849	20.258347	0.000183	1.825188	0.618391	-0.000073
 853	8.4774e+01	6.0431	20.117047	0.000355	3.548978	1.202426	-0.000142
 854	8.4874e+01	6.0127	20.032268	0.000213	2.129387	0.721456	-0.000085
 855	8.4973e+01	5.9694	19.886931	0.000365	3.650377	1.236781	-0.000146
 856	8.5073e+01	5.9244	19.790039	0.000243	2.433585	0.824521	-0.000097
 857	8.5172e+01	5.8875	19.725445	0.000162	1.622390	0.549681	-0.000065
 858	8.5272e+01	5.8506	19.600294	0.000314	3.143380	1.065006	-0.000126
 859	8.5371e+01	5.8025	19.467069	0.000335	3.346179	1.133716	-0.000134
 860	8.5471e+01	5.7672	19.345954	0.000304	3.041981	1.030651	-0.000122
 861	8.5570e+01	5.7367	19.228878	0.000294	2.940581	0.996296	-0.000118
 862	8.5669e+01	5.6790	19.148135	0.000203	2.027987	0.687101	-0.000081
 863	8.5769e+01	5.6517	19.031058	0.000294	2.940581	0.996296	-0.000118
 864	8.5868e+01	5.6084	18.901870	0.000324	3.244779	1.099361	-0.000130
 865	8.5968e+01	5.5699	18.829201	0.000183	1.825188	0.618391	-0.000073
 866	8.6067e+01	5.5266	18.679827	0.000375	3.751776	1.271136	-0.000150
 867	8.6167e+01	5.4897	18.578899	0.000253	2.534984	0.858876	-0.000101
 868	8.6266e+01	5.4464	18.482007	0.000243	2.433585	0.824521	-0.000097
 869	8.6366e+01	5.4111	18.393190	0.000223	2.230786	0.755811	-0.000089
 870	8.6466e+01	5.3726	18.259965	0.000335	3.346179	1.133716	-0.000134
 871	8.6565e+01	5.3389	18.146925	0.000284	2.839182	0.961941	-0.000114
 872	8.6665e+01	5.2892	18.058108	0.000223	2.230786	0.755811	-0.000089
 873	8.6764e+01	5.2539	17.932957	0.000314	3.143380	1.065006	-0.000126
 874	8.6864e+01	5.2138	17.819917	0.000284	2.839182	0.961941	-0.000114
 875	8.6963e+01	5.1720	17.714952	0.000264	2.636383	0.893231	-0.000105
 876	8.7063e+01	5.1319	17.634209	0.000203	2.027987	0.687101	-0.000081
 877	8.7162e+01	5.0838	17.464649	0.000426	4.258773	1.442911	-0.000170
 878	8.7261e+01	5.0485	17.387944	0.000193	1.926588	0.652746	-0.000077
 879	8.7361e+01	5.0100	17.254718	0.000335	3.346179	1.133716	-0.000134
 880	8.7460e+01	4.9731	17.137641	0.000294	2.940581	0.996296	-0.000118
 881	8.7560e+01	4.9362	17.040750	0.000243	2.433585	0.824521	-0.000097
 882	8.7659e+01	4.8993	16.935784	0.000264	2.636383	0.893231	-0.000105
 883	8.7759e+01	4.8496	16.794485	0.000355	3.548978	1.202426	-0.000142
 884	8.7859e+01	4.8159	16.713742	0.000203	2.027987	0.687101	-0.000081
 885	8.7958e+01	4.7710	16.572442	0.000355	3.548978	1.202426	-0.000142
 886	8.8058e+01	4.7277	16.463440	0.000274	2.737783	0.927586	-0.000110
 887	8.8157e+01	4.6924	16.382697	0.000203	2.027987	0.687101	-0.000081
 888	8.8257e+01	4.6587	16.257546	0.000314	3.143380	1.065006	-0.000126
 889	8.8356e+01	4.6138	16.124320	0.000335	3.346179	1.133716	-0.000134
 890	8.8456e+01	4.5785	15.999169	0.000314	3.143380	1.065006	-0.000126
 891	8.8555e+01	4.5384	15.918426	0.000203	2.027987	0.687101	-0.000081
 892	8.8654e+01	4.5015	15.817498	0.000253	2.534984	0.858876	-0.000101
 893	8.8754e+01	4.4485	15.631790	0.000466	4.664371	1.580332	-0.000187
 894	8.8853e+01	4.4132	15.547010	0.000213	2.129387	0.721456	-0.000085
 895	8.8953e+01	4.3747	15.429933	0.000294	2.940581	0.996296	-0.000118
 896	8.9052e+01	4.3378	15.316893	0.000284	2.839182	0.961941	-0.000114
 897	8.9152e+01	4.2993	15.203853	0.000284	2.839182	0.961941	-0.000114
 898	8.9251e+01	4.2673	15.102925	0.000253	2.534984	0.858876	-0.000101
 899	8.9351e+01	4.2175	14.977774	0.000314	3.143380	1.065006	-0.000126
 900	8.9451e+01	4.1710	14.888957	0.000223	2.230786	0.755811	-0.000089
 901	8.9550e+01	4.1293	14.731508	0.000395	3.954575	1.339846	-0.000158
 902	8.9650e+01	4.1068	14.590209	0.000355	3.548978	1.202426	-0.000142
 903	8.9749e+01	4.0427	14.477169	0.000284	2.839182	0.961941	-0.000114
 904	8.9849e+01	4.0250	14.388352	0.000223	2.230786	0.755811	-0.000089
 905	8.9948e+01	3.9753	14.275312	0.000284	2.839182	0.961941	-0.000114
 906	9.0047e+01	3.9384	14.129975	0.000365	3.650377	1.236781	-0.000146
 907	9.0147e+01	3.8951	14.041158	0.000223	2.230786	0.755811	-0.000089
 908	9.0246e+01	3.8534	13.928118	0.000284	2.839182	0.961941	-0.000114
 909	9.0346e+01	3.8165	13.811041	0.000294	2.940581	0.996296	-0.000118
 910	9.0445e+01	3.7796	13.657630	0.000385	3.853176	1.305491	-0.000154
 911	9.0545e+01	3.7443	13.536516	0.000304	3.041981	1.030651	-0.000122
 912	9.0644e+01	3.6929	13.455773	0.000203	2.027987	0.687101	-0.000081
 913	9.0744e+01	3.6625	13.338696	0.000294	2.940581	0.996296	-0.000118
 914	9.0844e+01	3.6159	13.177211	0.000406	4.055974	1.374201	-0.000162
 915	9.0943e+01	3.5694	13.060134	0.000294	2.940581	0.996296	-0.000118
 916	9.1043e+01	3.5438	12.943057	0.000294	2.940581	0.996296	-0.000118
 917	9.1142e+01	3.4972	12.854240	0.000223	2.230786	0.755811	-0.000089
 918	9.1242e+01	3.4603	12.761386	0.000233	2.332185	0.790166	-0.000093
 919	9.1341e+01	3.4090	12.636235	0.000314	3.143380	1.065006	-0.000126
 920	9.1441e+01	3.3817	12.458601	0.000446	4.461572	1.511621	-0.000179
 921	9.1540e+01	3.3400	12.369784	0.000223	2.230786	0.755811	-0.000089
 922	9.1639e+01	3.2999	12.264818	0.000264	2.636383	0.893231	-0.000105
 923	9.1739e+01	3.2598	12.147741	0.000294	2.940581	0.996296	-0.000118
 924	9.1838e+01	3.2213	12.014516	0.000335	3.346179	1.133716	-0.000134
 925	9.1938e+01	3.1684	11.913588	0.000253	2.534984	0.858876	-0.000101
 926	9.2037e+01	3.1363	11.788436	0.000314	3.143380	1.065006	-0.000126
 927	9.2137e+01	3.1026	11.626951	0.000406	4.055974	1.374201	-0.000162
 928	9.2237e+01	3.0641	11.526023	0.000253	2.534984	0.858876	-0.000101
 929	9.2336e+01	3.0192	11.380686	0.000365	3.650377	1.236781	-0.000146
 930	9.2436e+01	2.9807	11.291869	0.000223	2.230786	0.755811	-0.000089
 931	9.2535e+01	2.9422	11.182866	0.000274	2.737783	0.927586	-0.000110
 932	9.2635e+01	2.9005	11.061752	0.000304	3.041981	1.030651	-0.000122
 933	9.2734e+01	2.8603	10.912378	0.000375	3.751776	1.271136	-0.000150
 934	9.2834e+01	2.8170	10.803375	0.000274	2.737783	0.927586	-0.000110
 935	9.2933e+01	2.7753	10.686298	0.000294	2.940581	0.996296	-0.000118
 936	9.3032e+01	2.7416	10.593444	0.000233	2.332185	0.790166	-0.000093
 937	9.3132e+01	2.7015	10.423884	0.000426	4.258773	1.442911	-0.000170
 938	9.3231e+01	2.6614	10.282585	0.000355	3.548978	1.202426	-0.000142
 939	9.3331e+01	2.6229	10.201842	0.000203	2.027987	0.687101	-0.000081
 940	9.3430e+01	2.5796	10.072654	0.000324	3.244779	1.099361	-0.000130
 941	9.3530e+01	2.5475	9.927317	0.000365	3.650377	1.236781	-0.000146
 942	9.3629e+01	2.4914	9.786017	0.000355	3.548978	1.202426	-0.000142
 943	9.3729e+01	2.4609	9.660866	0.000314	3.143380	1.065006	-0.000126
 944	9.3829e+01	2.4224	9.511492	0.000375	3.751776	1.271136	-0.000150
 945	9.3928e+01	2.3855	9.426712	0.000213	2.129387	0.721456	-0.000085
 946	9.4028e+01	2.3358	9.293486	0.000335	3.346179	1.133716	-0.000134
 947	9.4127e+01	2.3005	9.144112	0.000375	3.751776	1.271136	-0.000150
 948	9.4227e+01	2.2620	9.035110	0.000274	2.737783	0.927586	-0.000110
 949	9.4326e+01	2.2219	8.930144	0.000264	2.636383	0.893231	-0.000105
 950	9.4425e+01	2.1785	8.796919	0.000335	3.346179	1.133716	-0.000134
 951	9.4525e+01	2.1368	8.615248	0.000456	4.562971	1.545976	-0.000183
 952	9.4624e+01	2.1048	8.506245	0.000274	2.737783	0.927586	-0.000110
 953	9.4724e+01	2.0598	8.413391	0.000233	2.332185	0.790166	-0.000093
 954	9.4823e+01	2.0245	8.268054	0.000365	3.650377	1.236781	-0.000146
 955	9.4923e+01	1.9892	8.126754	0.000355	3.548978	1.202426	-0.000142
 956	9.5022e+01	1.9459	8.001603	0.000314	3.143380	1.065006	-0.000126
 957	9.5122e+01	1.9058	7.872415	0.000324	3.244779	1.099361	-0.000130
 958	9.5222e+01	1.8641	7.759375	0.000284	2.839182	0.961941	-0.000114
 959	9.5321e+01	1.8176	7.642298	0.000294	2.940581	0.996296	-0.000118
 960	9.5421e+01	1.7855	7.500998	0.000355	3.548978	1.202426	-0.000142
 961	9.5520e+01	1.7342	7.367773	0.000335	3.346179	1.133716	-0.000134
 962	9.5620e+01	1.7053	7.214362	0.000385	3.853176	1.305491	-0.000154
 963	9.5719e+01	1.6636	7.101322	0.000284	2.839182	0.961941	-0.000114
 964	9.5819e+01	1.6219	6.972133	0.000324	3.244779	1.099361	-0.000130
 965	9.5918e+01	1.5834	6.855056	0.000294	2.940581	0.996296	-0.000118
 966	9.6017e+01	1.5401	6.721831	0.000335	3.346179	1.133716	-0.000134
 967	9.6117e+01	1.5016	6.620903	0.000253	2.534984	0.858876	-0.000101
 968	9.6216e+01	1.4663	6.467491	0.000385	3.853176	1.305491	-0.000154
 969	9.6316e+01	1.4230	6.346377	0.000304	3.041981	1.030651	-0.000122
 970	9.6415e+01	1.3925	6.180855	0.000416	4.157374	1.408556	-0.000166
 971	9.6515e+01	1.3524	6.079926	0.000253	2.534984	0.858876	-0.000101
 972	9.6615e+01	1.2946	5.966887	0.000284	2.839182	0.961941	-0.000114
 973	9.6714e+01	1.2754	5.801364	0.000416	4.157374	1.408556	-0.000166
 974	9.6814e+01	1.2256	5.676213	0.000314	3.143380	1.065006	-0.000126
 975	9.6913e+01	1.1952	5.547025	0.000324	3.244779	1.099361	-0.000130
 976	9.7013e+01	1.1438	5.425910	0.000304	3.041981	1.030651	-0.000122
 977	9.7112e+01	1.1021	5.312871	0.000284	2.839182	0.961941	-0.000114
 978	9.7212e+01	1.0652	5.191757	0.000304	3.041981	1.030651	-0.000122
 979	9.7311e+01	1.0331	5.030271	0.000406	4.055974	1.374201	-0.000162
 980	9.7410e+01	0.9882	4.909157	0.000304	3.041981	1.030651	-0.000122
 981	9.7510e+01	0.9433	4.784006	0.000314	3.143380	1.065006	-0.000126
 982	9.7609e+01	0.9016	4.658855	0.000314	3.143380	1.065006	-0.000126
 983	9.7709e+01	0.8679	4.537741	0.000304	3.041981	1.030651	-0.000122
 984	9.7808e+01	0.8246	4.388367	0.000375	3.751776	1.271136	-0.000150
 985	9.7908e+01	0.7781	4.251104	0.000345	3.447578	1.168071	-0.000138
 986	9.8007e+01	0.7492	4.170361	0.000203	2.027987	0.687101	-0.000081
 987	9.8107e+01	0.7059	3.964467	0.000517	5.171367	1.752107	-0.000207
 988	9.8207e+01	0.6770	3.891799	0.000183	1.825188	0.618391	-0.000073
 989	9.8306e+01	0.6240	3.738388	0.000385	3.853176	1.305491	-0.000154
 990	9.8406e+01	0.5871	3.597088	0.000355	3.548978	1.202426	-0.000142
 991	9.8505e+01	0.5551	3.488085	0.000274	2.737783	0.927586	-0.000110
 992	9.8605e+01	0.5085	3.354860	0.000335	3.346179	1.133716	-0.000134
 993	9.8704e+01	0.4620	3.201449	0.000385	3.853176	1.305491	-0.000154
 994	9.8803e+01	0.4315	3.076297	0.000314	3.143380	1.065006	-0.000126
 995	9.8903e+01	0.3818	2.955183	0.000304	3.041981	1.030651	-0.000122
 996	9.9002e+01	0.3449	2.797735	0.000395	3.954575	1.339846	-0.000158
 997	9.9102e+01	0.3080	2.676621	0.000304	3.041981	1.030651	-0.000122
 998	9.9201e+01	0.2727	2.587804	0.000223	2.230786	0.755811	-0.000089
 999	9.9301e+01	0.2310	2.466690	0.000304	3.041981	1.030651	-0.000122
1000	9.9400e+01	0.1909	2.297130	0.000426	4.258773	1.442911	-0.000170
1001	9.9500e+01	0.1492	2.184090	0.000284	2.839182	0.961941	-0.000114
1002	9.9600e+01	0.1107	2.006456	0.000446	4.461572	1.511621	-0.000179
1003	9.9699e+01	0.0722	1.881305	0.000314	3.143380	1.065006	-0.000126
1004	9.9799e+01	0.0257	1.727894	0.000385	3.853176	1.305491	-0.000154
1005	9.9898e+01	-0.0048	1.667337	0.000152	1.520990	0.515325	-0.000061
1006	9.9998e+01	-0.0481	1.501814	0.000416	4.157374	1.408556	-0.000166
1007	1.0010e+02	-0.0818	1.384738	0.000294	2.940581	0.996296	-0.000118
1008	1.0020e+02	-0.1299	1.247475	0.000345	3.447578	1.168071	-0.000138
1009	1.0030e+02	-0.1620	1.154621	0.000233	2.332185	0.790166	-0.000093
1010	1.0040e+02	-0.2037	1.005247	0.000375	3.751776	1.271136	-0.000150
1011	1.0050e+02	-0.2454	0.851836	0.000385	3.853176	1.305491	-0.000154
1012	1.0059e+02	-0.2807	0.690350	0.000406	4.055974	1.374201	-0.000162
1013	1.0069e+02	-0.3225	0.601533	0.000223	2.230786	0.755811	-0.000089
1014	1.0079e+02	-0.3658	0.452159	0.000375	3.751776	1.271136	-0.000150
1015	1.0089e+02	-0.4139	0.351231	0.000253	2.534984	0.858876	-0.000101
1016	1.0099e+02	-0.4364	0.213968	0.000345	3.447578	1.168071	-0.000138
1017	1.0109e+02	-0.4797	0.096891	0.000294	2.940581	0.996296	-0.000118
1018	1.0119e+02	-0.5294	-0.036334	0.000335	3.346179	1.133716	-0.000134
1019	1.0129e+02	-0.5599	-0.181671	0.000365	3.650377	1.236781	-0.000146
1020	1.0139e+02	-0.6016	-0.306822	0.000314	3.143380	1.065006	-0.000126
1021	1.0149e+02	-0.6417	-0.460233	0.000385	3.853176	1.305491	-0.000154
1022	1.0159e+02	-0.6690	-0.589422	0.000324	3.244779	1.099361	-0.000130
1023	1.0169e+02	-0.7155	-0.722647	0.000335	3.346179	1.133716	-0.000134
1024	1.0179e+02	-0.7652	-0.783204	0.000152	1.520990	0.515325	-0.000061
1025	1.0189e+02	-0.7989	-0.972950	0.000477	4.765770	1.614687	-0.000191
1026	1.0199e+02	-0.8390	-1.118287	0.000365	3.650377	1.236781	-0.000146
1027	1.0209e+02	-0.8903	-1.219215	0.000253	2.534984	0.858876	-0.000101
1028	1.0219e+02	-0.9128	-1.324181	0.000264	2.636383	0.893231	-0.000105
1029	1.0229e+02	-0.9593	-1.445295	0.000304	3.041981	1.030651	-0.000122
1030	1.0239e+02	-1.0026	-1.550260	0.000264	2.636383	0.893231	-0.000105
1031	1.0248e+02	-1.0411	-1.715783	0.000416	4.157374	1.408556	-0.000166
1032	1.0258e+02	-1.0732	-1.844971	0.000324	3.244779	1.099361	-0.000130
1033	1.0268e+02	-1.1214	-1.962048	0.000294	2.940581	0.996296	-0.000118
1034	1.0278e+02	-1.1599	-2.099311	0.000345	3.447578	1.168071	-0.000138
1035	1.0288e+02	-1.2000	-2.184090	0.000213	2.129387	0.721456	-0.000085
1036	1.0298e+02	-1.2417	-2.337502	0.000385	3.853176	1.305491	-0.000154
1037	1.0308e+02	-1.2786	-2.458616	0.000304	3.041981	1.030651	-0.000122
1038	1.0318e+02	-1.3251	-2.571655	0.000284	2.839182	0.961941	-0.000114
1039	1.0328e+02	-1.3636	-2.716992	0.000365	3.650377	1.236781	-0.000146
1040	1.0338e+02	-1.4005	-2.838106	0.000304	3.041981	1.030651	-0.000122
1041	1.0348e+02	-1.4374	-2.939035	0.000253	2.534984	0.858876	-0.000101
1042	1.0358e+02	-1.4759	-3.112632	0.000436	4.360172	1.477266	-0.000174
1043	1.0368e+02	-1.5176	-3.189337	0.000193	1.926588	0.652746	-0.000077
1044	1.0378e+02	-1.5561	-3.326600	0.000345	3.447578	1.168071	-0.000138
1045	1.0388e+02	-1.5898	-3.459825	0.000335	3.346179	1.133716	-0.000134
1046	1.0398e+02	-1.6315	-3.580939	0.000304	3.041981	1.030651	-0.000122
1047	1.0408e+02	-1.6764	-3.738388	0.000395	3.954575	1.339846	-0.000158
1048	1.0418e+02	-1.7229	-3.827205	0.000223	2.230786	0.755811	-0.000089
1049	1.0428e+02	-1.7631	-3.948319	0.000304	3.041981	1.030651	-0.000122
1050	1.0438e+02	-1.7903	-4.101730	0.000385	3.853176	1.305491	-0.000154
1051	1.0447e+02	-1.8401	-4.202658	0.000253	2.534984	0.858876	-0.000101
1052	1.0457e+02	-1.8737	-4.315698	0.000284	2.839182	0.961941	-0.000114
1053	1.0467e+02	-1.9122	-4.481221	0.000416	4.157374	1.408556	-0.000166
1054	1.0477e+02	-1.9636	-4.578112	0.000243	2.433585	0.824521	-0.000097
1055	1.0487e+02	-1.9989	-4.711337	0.000335	3.346179	1.133716	-0.000134
1056	1.0497e+02	-2.0342	-4.824377	0.000284	2.839182	0.961941	-0.000114
1057	1.0507e+02	-2.0823	-4.989900	0.000416	4.157374	1.408556	-0.000166
1058	1.0517e+02	-2.1112	-5.070642	0.000203	2.027987	0.687101	-0.000081
1059	1.0527e+02	-2.1561	-5.215979	0.000365	3.650377	1.236781	-0.000146
1060	1.0537e+02	-2.2010	-5.365353	0.000375	3.751776	1.271136	-0.000150
1061	1.0547e+02	-2.2347	-5.446096	0.000203	2.027987	0.687101	-0.000081
1062	1.0557e+02	-2.2732	-5.603544	0.000395	3.954575	1.339846	-0.000158
1063	1.0567e+02	-2.3117	-5.720621	0.000294	2.940581	0.996296	-0.000118
1064	1.0577e+02	-2.3454	-5.833661	0.000284	2.839182	0.961941	-0.000114
1065	1.0587e+02	-2.3919	-5.934590	0.000253	2.534984	0.858876	-0.000101
1066	1.0597e+02	-2.4336	-6.075889	0.000355	3.548978	1.202426	-0.000142
1067	1.0607e+02	-2.4769	-6.197003	0.000304	3.041981	1.030651	-0.000122
1068	1.0617e+02	-2.5202	-6.318117	0.000304	3.041981	1.030651	-0.000122
1069	1.0627e+02	-2.5620	-6.455380	0.000345	3.447578	1.168071	-0.000138
1070	1.0637e+02	-2.5940	-6.536123	0.000203	2.027987	0.687101	-0.000081
1071	1.0647e+02	-2.6293	-6.713757	0.000446	4.461572	1.511621	-0.000179
1072	1.0656e+02	-2.6727	-6.790462	0.000193	1.926588	0.652746	-0.000077
1073	1.0666e+02	-2.7144	-6.976171	0.000466	4.664371	1.580332	-0.000187
1074	1.0676e+02	-2.7481	-7.052876	0.000193	1.926588	0.652746	-0.000077
1075	1.0686e+02	-2.7849	-7.210324	0.000395	3.954575	1.339846	-0.000158
1076	1.0696e+02	-2.8315	-7.319327	0.000274	2.737783	0.927586	-0.000110
1077	1.0706e+02	-2.8732	-7.436404	0.000294	2.940581	0.996296	-0.000118
1078	1.0716e+02	-2.9069	-7.529258	0.000233	2.332185	0.790166	-0.000093
1079	1.0726e+02	-2.9534	-7.658446	0.000324	3.244779	1.099361	-0.000130
1080	1.0736e+02	-2.9967	-7.803783	0.000365	3.650377	1.236781	-0.000146
1081	1.0746e+02	-3.0352	-7.920860	0.000294	2.940581	0.996296	-0.000118
1082	1.0756e+02	-3.0657	-8.058123	0.000345	3.447578	1.168071	-0.000138
1083	1.0766e+02	-3.1090	-8.122717	0.000162	1.622390	0.549681	-0.000065
1084	1.0776e+02	-3.1459	-8.300351	0.000446	4.461572	1.511621	-0.000179
1085	1.0786e+02	-3.1972	-8.381094	0.000203	2.027987	0.687101	-0.000081
1086	1.0796e+02	-3.2357	-8.518356	0.000345	3.447578	1.168071	-0.000138
1087	1.0806e+02	-3.2791	-8.643508	0.000314	3.143380	1.065006	-0.000126
1088	1.0816e+02	-3.3159	-8.736362	0.000233	2.332185	0.790166	-0.000093
1089	1.0826e+02	-3.3496	-8.857476	0.000304	3.041981	1.030651	-0.000122
1090	1.0836e+02	-3.3881	-8.978590	0.000304	3.041981	1.030651	-0.000122
1091	1.0845e+02	-3.4266	-9.095667	0.000294	2.940581	0.996296	-0.000118
1092	1.0855e+02	-3.4716	-9.212744	0.000294	2.940581	0.996296	-0.000118
1093	1.0865e+02	-3.5101	-9.341932	0.000324	3.244779	1.099361	-0.000130
1094	1.0875e+02	-3.5534	-9.442860	0.000253	2.534984	0.858876	-0.000101
1095	1.0885e+02	-3.5903	-9.592235	0.000375	3.751776	1.271136	-0.000150
1096	1.0895e+02	-3.6240	-9.681051	0.000223	2.230786	0.755811	-0.000089
1097	1.0905e+02	-3.6673	-9.802166	0.000304	3.041981	1.030651	-0.000122
1098	1.0915e+02	-3.7026	-9.878871	0.000193	1.926588	0.652746	-0.000077
1099	1.0925e+02	-3.7491	-10.032282	0.000385	3.853176	1.305491	-0.000154
1100	1.0935e+02	-3.7924	-10.137248	0.000264	2.636383	0.893231	-0.000105
1101	1.0945e+02	-3.8261	-10.294696	0.000395	3.954575	1.339846	-0.000158
1102	1.0955e+02	-3.8614	-10.391587	0.000243	2.433585	0.824521	-0.000097
1103	1.0965e+02	-3.9063	-10.516739	0.000314	3.143380	1.065006	-0.000126
1104	1.0975e+02	-3.9496	-10.649964	0.000335	3.346179	1.133716	-0.000134
1105	1.0985e+02	-3.9961	-10.779152	0.000324	3.244779	1.099361	-0.000130
1106	1.0995e+02	-4.0346	-10.863932	0.000213	2.129387	0.721456	-0.000085
1107	1.1005e+02	-4.0699	-11.017343	0.000385	3.853176	1.305491	-0.000154
1108	1.1015e+02	-4.1068	-11.138458	0.000304	3.041981	1.030651	-0.000122
1109	1.1025e+02	-4.1502	-11.243423	0.000264	2.636383	0.893231	-0.000105
1110	1.1035e+02	-4.1870	-11.380686	0.000345	3.447578	1.168071	-0.000138
1111	1.1044e+02	-4.2272	-11.457391	0.000193	1.926588	0.652746	-0.000077
1112	1.1054e+02	-4.2689	-11.635025	0.000446	4.461572	1.511621	-0.000179
1113	1.1064e+02	-4.3106	-11.735954	0.000253	2.534984	0.858876	-0.000101
1114	1.1074e+02	-4.3507	-11.848993	0.000284	2.839182	0.961941	-0.000114
1115	1.1084e+02	-4.3876	-11.949922	0.000253	2.534984	0.858876	-0.000101
1116	1.1094e+02	-4.4373	-12.099296	0.000375	3.751776	1.271136	-0.000150
1117	1.1104e+02	-4.4694	-12.220410	0.000304	3.041981	1.030651	-0.000122
1118	1.1114e+02	-4.5079	-12.321338	0.000253	2.534984	0.858876	-0.000101
1119	1.1124e+02	-4.5432	-12.454564	0.000335	3.346179	1.133716	-0.000134
1120	1.1134e+02	-4.5993	-12.571641	0.000294	2.940581	0.996296	-0.000118
1121	1.1144e+02	-4.6186	-12.708903	0.000345	3.447578	1.168071	-0.000138
1122	1.1154e+02	-4.6635	-12.817906	0.000274	2.737783	0.927586	-0.000110
1123	1.1164e+02	-4.7020	-12.926909	0.000274	2.737783	0.927586	-0.000110
1124	1.1174e+02	-4.7566	-13.027837	0.000253	2.534984	0.858876	-0.000101
1125	1.1184e+02	-4.7758	-13.132803	0.000264	2.636383	0.893231	-0.000105
1126	1.1194e+02	-4.8127	-13.274102	0.000355	3.548978	1.202426	-0.000142
1127	1.1204e+02	-4.8608	-13.391179	0.000294	2.940581	0.996296	-0.000118
1128	1.1214e+02	-4.9106	-13.500182	0.000274	2.737783	0.927586	-0.000110
1129	1.1224e+02	-4.9475	-13.605147	0.000264	2.636383	0.893231	-0.000105
1130	1.1234e+02	-4.9940	-13.718187	0.000284	2.839182	0.961941	-0.000114
1131	1.1244e+02	-5.0196	-13.855450	0.000345	3.447578	1.168071	-0.000138
1132	1.1253e+02	-5.0646	-13.980601	0.000314	3.143380	1.065006	-0.000126
1133	1.1263e+02	-5.1047	-14.085567	0.000264	2.636383	0.893231	-0.000105
1134	1.1273e+02	-5.1384	-14.182458	0.000243	2.433585	0.824521	-0.000097
1135	1.1283e+02	-5.1897	-14.291461	0.000274	2.737783	0.927586	-0.000110
1136	1.1293e+02	-5.2234	-14.420649	0.000324	3.244779	1.099361	-0.000130
1137	1.1303e+02	-5.2731	-14.586171	0.000416	4.157374	1.408556	-0.000166
1138	1.1313e+02	-5.2908	-14.683063	0.000243	2.433585	0.824521	-0.000097
1139	1.1323e+02	-5.3485	-14.808214	0.000314	3.143380	1.065006	-0.000126
1140	1.1333e+02	-5.3886	-14.864734	0.000142	1.419591	0.480970	-0.000057
1141	1.1343e+02	-5.4223	-15.022182	0.000395	3.954575	1.339846	-0.000158
1142	1.1353e+02	-5.4624	-15.135222	0.000284	2.839182	0.961941	-0.000114
1143	1.1363e+02	-5.5073	-15.228076	0.000233	2.332185	0.790166	-0.000093
1144	1.1373e+02	-5.5394	-15.353227	0.000314	3.143380	1.065006	-0.000126
1145	1.1383e+02	-5.5827	-15.466267	0.000284	2.839182	0.961941	-0.000114
1146	1.1393e+02	-5.6164	-15.559121	0.000233	2.332185	0.790166	-0.000093
1147	1.1403e+02	-5.6597	-15.676198	0.000294	2.940581	0.996296	-0.000118
1148	1.1413e+02	-5.6998	-15.825572	0.000375	3.751776	1.271136	-0.000150
1149	1.1423e+02	-5.7367	-15.914389	0.000223	2.230786	0.755811	-0.000089
1150	1.1433e+02	-5.7784	-16.015317	0.000253	2.534984	0.858876	-0.000101
1151	1.1442e+02	-5.8202	-16.156617	0.000355	3.548978	1.202426	-0.000142
1152	1.1452e+02	-5.8667	-16.281768	0.000314	3.143380	1.065006	-0.000126
1153	1.1462e+02	-5.9084	-16.366548	0.000213	2.129387	0.721456	-0.000085
1154	1.1472e+02	-5.9373	-16.447291	0.000203	2.027987	0.687101	-0.000081
1155	1.1482e+02	-5.9886	-16.596665	0.000375	3.751776	1.271136	-0.000150
1156	1.1492e+02	-6.0223	-16.717779	0.000304	3.041981	1.030651	-0.000122
1157	1.1502e+02	-6.0544	-16.846967	0.000324	3.244779	1.099361	-0.000130
1158	1.1512e+02	-6.1041	-16.960007	0.000284	2.839182	0.961941	-0.000114
1159	1.1522e+02	-6.1442	-17.052861	0.000233	2.332185	0.790166	-0.000093
1160	1.1532e+02	-6.1811	-17.149753	0.000243	2.433585	0.824521	-0.000097
1161	1.1542e+02	-6.2212	-17.287015	0.000345	3.447578	1.168071	-0.000138
1162	1.1552e+02	-6.2645	-17.371795	0.000213	2.129387	0.721456	-0.000085
1163	1.1562e+02	-6.2950	-17.505021	0.000335	3.346179	1.133716	-0.000134
1164	1.1572e+02	-6.3335	-17.597875	0.000233	2.332185	0.790166	-0.000093
1165	1.1582e+02	-6.3784	-17.731100	0.000335	3.346179	1.133716	-0.000134
1166	1.1592e+02	-6.4233	-17.811843	0.000203	2.027987	0.687101	-0.000081
1167	1.1602e+02	-6.4586	-17.953143	0.000355	3.548978	1.202426	-0.000142
1168	1.1612e+02	-6.5020	-18.090405	0.000345	3.447578	1.168071	-0.000138
1169	1.1622e+02	-6.5356	-18.163074	0.000183	1.825188	0.618391	-0.000073
1170	1.1632e+02	-6.5790	-18.288225	0.000314	3.143380	1.065006	-0.000126
1171	1.1642e+02	-6.6110	-18.381079	0.000233	2.332185	0.790166	-0.000093
1172	1.1651e+02	-6.6495	-18.490082	0.000274	2.737783	0.927586	-0.000110
1173	1.1661e+02	-6.6913	-18.607159	0.000294	2.940581	0.996296	-0.000118
1174	1.1671e+02	-6.7362	-18.708087	0.000253	2.534984	0.858876	-0.000101
1175	1.1681e+02	-6.7747	-18.829201	0.000304	3.041981	1.030651	-0.000122
1176	1.1691e+02	-6.8196	-18.966464	0.000345	3.447578	1.168071	-0.000138
1177	1.1701e+02	-6.8485	-19.039132	0.000183	1.825188	0.618391	-0.000073
1178	1.1711e+02	-6.9062	-19.180432	0.000355	3.548978	1.202426	-0.000142
1179	1.1721e+02	-6.9287	-19.293472	0.000284	2.839182	0.961941	-0.000114
1180	1.1731e+02	-6.9736	-19.386326	0.000233	2.332185	0.790166	-0.000093
1181	1.1741e+02	-7.0025	-19.503403	0.000294	2.940581	0.996296	-0.000118
1182	1.1751e+02	-7.0538	-19.608368	0.000264	2.636383	0.893231	-0.000105
1183	1.1761e+02	-7.1132	-19.729482	0.000304	3.041981	1.030651	-0.000122
1184	1.1771e+02	-7.1292	-19.838485	0.000274	2.737783	0.927586	-0.000110
1185	1.1781e+02	-7.1757	-19.951525	0.000284	2.839182	0.961941	-0.000114
1186	1.1791e+02	-7.2078	-20.068602	0.000294	2.940581	0.996296	-0.000118
1187	1.1801e+02	-7.2575	-20.133196	0.000162	1.622390	0.549681	-0.000065
1188	1.1811e+02	-7.2944	-20.246236	0.000284	2.839182	0.961941	-0.000114
1189	1.1821e+02	-7.3346	-20.375424	0.000324	3.244779	1.099361	-0.000130
1190	1.1831e+02	-7.3682	-20.456167	0.000203	2.027987	0.687101	-0.000081
1191	1.1841e+02	-7.4132	-20.625726	0.000426	4.258773	1.442911	-0.000170
1192	1.1850e+02	-7.4501	-20.694358	0.000172	1.723789	0.584036	-0.000069
1193	1.1860e+02	-7.4902	-20.799323	0.000264	2.636383	0.893231	-0.000105
1194	1.1870e+02	-7.5335	-20.924475	0.000314	3.143380	1.065006	-0.000126
1195	1.1880e+02	-7.5720	-21.013292	0.000223	2.230786	0.755811	-0.000089
1196	1.1890e+02	-7.6121	-21.134406	0.000304	3.041981	1.030651	-0.000122
1197	1.1900e+02	-7.6410	-21.215148	0.000203	2.027987	0.687101	-0.000081
1198	1.1910e+02	-7.6939	-21.332225	0.000294	2.940581	0.996296	-0.000118
1199	1.1920e+02	-7.7356	-21.433154	0.000253	2.534984	0.858876	-0.000101
1200	1.1930e+02	-7.7693	-21.542156	0.000274	2.737783	0.927586	-0.000110
1201	1.1940e+02	-7.8126	-21.610788	0.000172	1.723789	0.584036	-0.000069
1202	1.1950e+02	-7.8527	-21.719790	0.000274	2.737783	0.927586	-0.000110
1203	1.1960e+02	-7.8752	-21.853016	0.000335	3.346179	1.133716	-0.000134
1204	1.1970e+02	-7.9249	-21.941833	0.000223	2.230786	0.755811	-0.000089
1205	1.1980e+02	-7.9795	-22.054873	0.000284	2.839182	0.961941	-0.000114
1206	1.1990e+02	-8.0131	-22.200209	0.000365	3.650377	1.236781	-0.000146
1207	1.2000e+02	-8.0468	-22.272878	0.000183	1.825188	0.618391	-0.000073
1208	1.2010e+02	-8.0998	-22.373806	0.000253	2.534984	0.858876	-0.000101
1209	1.2020e+02	-8.1303	-22.450512	0.000193	1.926588	0.652746	-0.000077
1210	1.2030e+02	-8.1688	-22.599886	0.000375	3.751776	1.271136	-0.000150
1211	1.2039e+02	-8.2057	-22.684666	0.000213	2.129387	0.721456	-0.000085
1212	1.2049e+02	-8.2442	-22.773483	0.000223	2.230786	0.755811	-0.000089
1213	1.2059e+02	-8.2907	-22.914782	0.000355	3.548978	1.202426	-0.000142
1214	1.2069e+02	-8.3372	-23.019748	0.000264	2.636383	0.893231	-0.000105
1215	1.2079e+02	-8.3757	-23.136825	0.000294	2.940581	0.996296	-0.000118
1216	1.2089e+02	-8.4110	-23.205456	0.000172	1.723789	0.584036	-0.000069
1217	1.2099e+02	-8.4495	-23.326570	0.000304	3.041981	1.030651	-0.000122
1218	1.2109e+02	-8.4960	-23.423462	0.000243	2.433585	0.824521	-0.000097
1219	1.2119e+02	-8.5313	-23.544576	0.000304	3.041981	1.030651	-0.000122
1220	1.2129e+02	-8.5650	-23.629355	0.000213	2.129387	0.721456	-0.000085
1221	1.2139e+02	-8.6115	-23.726247	0.000243	2.433585	0.824521	-0.000097
1222	1.2149e+02	-8.6532	-23.839287	0.000284	2.839182	0.961941	-0.000114
1223	1.2159e+02	-8.6853	-23.944252	0.000264	2.636383	0.893231	-0.000105
1224	1.2169e+02	-8.7350	-24.069403	0.000314	3.143380	1.065006	-0.000126
1225	1.2179e+02	-8.7655	-24.146109	0.000193	1.926588	0.652746	-0.000077
1226	1.2189e+02	-8.8008	-24.243000	0.000243	2.433585	0.824521	-0.000097
1227	1.2199e+02	-8.8506	-24.319706	0.000193	1.926588	0.652746	-0.000077
1228	1.2209e+02	-8.8778	-24.485228	0.000416	4.157374	1.408556	-0.000166
1229	1.2219e+02	-8.9356	-24.582120	0.000243	2.433585	0.824521	-0.000097
1230	1.2229e+02	-8.9693	-24.679011	0.000243	2.433585	0.824521	-0.000097
1231	1.2239e+02	-9.0110	-24.731494	0.000132	1.318192	0.446615	-0.000053
1232	1.2248e+02	-9.0415	-24.876830	0.000365	3.650377	1.236781	-0.000146
1233	1.2258e+02	-9.0767	-24.993907	0.000294	2.940581	0.996296	-0.000118
1234	1.2268e+02	-9.1185	-25.110984	0.000294	2.940581	0.996296	-0.000118
1235	1.2278e+02	-9.1650	-25.179616	0.000172	1.723789	0.584036	-0.000069
1236	1.2288e+02	-9.2051	-25.312841	0.000335	3.346179	1.133716	-0.000134
1237	1.2298e+02	-9.2500	-25.425881	0.000284	2.839182	0.961941	-0.000114
1238	1.2308e+02	-9.2869	-25.490475	0.000162	1.622390	0.549681	-0.000065
1239	1.2318e+02	-9.3254	-25.635812	0.000365	3.650377	1.236781	-0.000146
1240	1.2328e+02	-9.3655	-25.736740	0.000253	2.534984	0.858876	-0.000101
1241	1.2338e+02	-9.4024	-25.809409	0.000183	1.825188	0.618391	-0.000073
1242	1.2348e+02	-9.4505	-25.906300	0.000243	2.433585	0.824521	-0.000097
1243	1.2358e+02	-9.4858	-25.983006	0.000193	1.926588	0.652746	-0.000077
1244	1.2368e+02	-9.5291	-26.124305	0.000355	3.548978	1.202426	-0.000142
1245	1.2378e+02	-9.5709	-26.225234	0.000253	2.534984	0.858876	-0.000101
1246	1.2388e+02	-9.6158	-26.334236	0.000274	2.737783	0.927586	-0.000110
1247	1.2398e+02	-9.6511	-26.419016	0.000213	2.129387	0.721456	-0.000085
1248	1.2408e+02	-9.6783	-26.511870	0.000233	2.332185	0.790166	-0.000093
1249	1.2418e+02	-9.7361	-26.657207	0.000365	3.650377	1.236781	-0.000146
1250	1.2428e+02	-9.7618	-26.758136	0.000253	2.534984	0.858876	-0.000101
1251	1.2438e+02	-9.8163	-26.850990	0.000233	2.332185	0.790166	-0.000093
1252	1.2447e+02	-9.8388	-26.951918	0.000253	2.534984	0.858876	-0.000101
1253	1.2457e+02	-9.8837	-27.012475	0.000152	1.520990	0.515325	-0.000061
1254	1.2467e+02	-9.9270	-27.157812	0.000365	3.650377	1.236781	-0.000146
1255	1.2477e+02	-9.9591	-27.234518	0.000193	1.926588	0.652746	-0.000077
1256	1.2487e+02	-10.0024	-27.339483	0.000264	2.636383	0.893231	-0.000105
1257	1.2497e+02	-10.0409	-27.460597	0.000304	3.041981	1.030651	-0.000122
1258	1.2507e+02	-10.0890	-27.577674	0.000294	2.940581	0.996296	-0.000118
1259	1.2517e+02	-10.1275	-27.658417	0.000203	2.027987	0.687101	-0.000081
1260	1.2527e+02	-10.1580	-27.755308	0.000243	2.433585	0.824521	-0.000097
1261	1.2537e+02	-10.1965	-27.880459	0.000314	3.143380	1.065006	-0.000126
1262	1.2547e+02	-10.2430	-27.949091	0.000172	1.723789	0.584036	-0.000069
1263	1.2557e+02	-10.2799	-28.074242	0.000314	3.143380	1.065006	-0.000126
1264	1.2567e+02	-10.3248	-28.142873	0.000172	1.723789	0.584036	-0.000069
1265	1.2577e+02	-10.3617	-28.231690	0.000223	2.230786	0.755811	-0.000089
1266	1.2587e+02	-10.3922	-28.348767	0.000294	2.940581	0.996296	-0.000118
1267	1.2597e+02	-10.4403	-28.421436	0.000183	1.825188	0.618391	-0.000073
1268	1.2607e+02	-10.4853	-28.518327	0.000243	2.433585	0.824521	-0.000097
1269	1.2617e+02	-10.5141	-28.619255	0.000253	2.534984	0.858876	-0.000101
1270	1.2627e+02	-10.5639	-28.740369	0.000304	3.041981	1.030651	-0.000122
1271	1.2636e+02	-10.6008	-28.845335	0.000264	2.636383	0.893231	-0.000105
1272	1.2646e+02	-10.6473	-28.966449	0.000304	3.041981	1.030651	-0.000122
1273	1.2656e+02	-10.6858	-29.059303	0.000233	2.332185	0.790166	-0.000093
1274	1.2666e+02	-10.7227	-29.160231	0.000253	2.534984	0.858876	-0.000101
1275	1.2676e+02	-10.7676	-29.249048	0.000223	2.230786	0.755811	-0.000089
1276	1.2686e+02	-10.7949	-29.370162	0.000304	3.041981	1.030651	-0.000122
1277	1.2696e+02	-10.8350	-29.483202	0.000284	2.839182	0.961941	-0.000114
1278	1.2706e+02	-10.8719	-29.555871	0.000183	1.825188	0.618391	-0.000073
1279	1.2716e+02	-10.9264	-29.664873	0.000274	2.737783	0.927586	-0.000110
1280	1.2726e+02	-10.9537	-29.790025	0.000314	3.143380	1.065006	-0.000126
1281	1.2736e+02	-11.0050	-29.874804	0.000213	2.129387	0.721456	-0.000085
1282	1.2746e+02	-11.0451	-29.963621	0.000223	2.230786	0.755811	-0.000089
1283	1.2756e+02	-11.0788	-30.084736	0.000304	3.041981	1.030651	-0.000122
1284	1.2766e+02	-11.1109	-30.205850	0.000304	3.041981	1.030651	-0.000122
1285	1.2776e+02	-11.1574	-30.258332	0.000132	1.318192	0.446615	-0.000053
1286	1.2786e+02	-11.2056	-30.387521	0.000324	3.244779	1.099361	-0.000130
1287	1.2796e+02	-11.2296	-30.516709	0.000324	3.244779	1.099361	-0.000130
1288	1.2806e+02	-11.2778	-30.597452	0.000203	2.027987	0.687101	-0.000081
1289	1.2816e+02	-11.3339	-30.674157	0.000193	1.926588	0.652746	-0.000077
1290	1.2826e+02	-11.3644	-30.807383	0.000335	3.346179	1.133716	-0.000134
1291	1.2835e+02	-11.4029	-30.908311	0.000253	2.534984	0.858876	-0.000101
1292	1.2845e+02	-11.4350	-31.017314	0.000274	2.737783	0.927586	-0.000110
1293	1.2855e+02	-11.4751	-31.142465	0.000314	3.143380	1.065006	-0.000126
1294	1.2865e+02	-11.5168	-31.203022	0.000152	1.520990	0.515325	-0.000061
1295	1.2875e+02	-11.5537	-31.332210	0.000324	3.244779	1.099361	-0.000130
1296	1.2885e+02	-11.6018	-31.421027	0.000223	2.230786	0.755811	-0.000089
1297	1.2895e+02	-11.6371	-31.509844	0.000223	2.230786	0.755811	-0.000089
1298	1.2905e+02	-11.6724	-31.590587	0.000203	2.027987	0.687101	-0.000081
1299	1.2915e+02	-11.7061	-31.719775	0.000324	3.244779	1.099361	-0.000130
1300	1.2925e+02	-11.7446	-31.792444	0.000183	1.825188	0.618391	-0.000073
1301	1.2935e+02	-11.7943	-31.901447	0.000274	2.737783	0.927586	-0.000110
1302	1.2945e+02	-11.8376	-32.010449	0.000274	2.737783	0.927586	-0.000110
1303	1.2955e+02	-11.8809	-32.123489	0.000284	2.839182	0.961941	-0.000114
1304	1.2965e+02	-11.9066	-32.204232	0.000203	2.027987	0.687101	-0.000081
1305	1.2975e+02	-11.9580	-32.284974	0.000203	2.027987	0.687101	-0.000081
1306	1.2985e+02	-11.9965	-32.410126	0.000314	3.143380	1.065006	-0.000126
1307	1.2995e+02	-12.0398	-32.490868	0.000203	2.027987	0.687101	-0.000081
1308	1.3005e+02	-12.0799	-32.595834	0.000264	2.636383	0.893231	-0.000105
1309	1.3015e+02	-12.1184	-32.725022	0.000324	3.244779	1.099361	-0.000130
1310	1.3025e+02	-12.1569	-32.781542	0.000142	1.419591	0.480970	-0.000057
1311	1.3034e+02	-12.1970	-32.910731	0.000324	3.244779	1.099361	-0.000130
1312	1.3044e+02	-12.2371	-32.971288	0.000152	1.520990	0.515325	-0.000061
1313	1.3054e+02	-12.2772	-33.056067	0.000213	2.129387	0.721456	-0.000085
1314	1.3064e+02	-12.3141	-33.165070	0.000274	2.737783	0.927586	-0.000110
1315	1.3074e+02	-12.3510	-33.265998	0.000253	2.534984	0.858876	-0.000101
1316	1.3084e+02	-12.4007	-33.370964	0.000264	2.636383	0.893231	-0.000105
1317	1.3094e+02	-12.4440	-33.488041	0.000294	2.940581	0.996296	-0.000118
1318	1.3104e+02	-12.4761	-33.572821	0.000213	2.129387	0.721456	-0.000085
1319	1.3114e+02	-12.5210	-33.677786	0.000264	2.636383	0.893231	-0.000105
1320	1.3124e+02	-12.5595	-33.726232	0.000122	1.216792	0.412260	-0.000049
1321	1.3134e+02	-12.5980	-33.875606	0.000375	3.751776	1.271136	-0.000150
1322	1.3144e+02	-12.6381	-33.976534	0.000253	2.534984	0.858876	-0.000101
1323	1.3154e+02	-12.6815	-34.041129	0.000162	1.622390	0.549681	-0.000065
1324	1.3164e+02	-12.7135	-34.142057	0.000253	2.534984	0.858876	-0.000101
1325	1.3174e+02	-12.7537	-34.263171	0.000304	3.041981	1.030651	-0.000122
1326	1.3184e+02	-12.7986	-34.360062	0.000243	2.433585	0.824521	-0.000097
1327	1.3194e+02	-12.8307	-34.400434	0.000101	1.013994	0.343550	-0.000041
1328	1.3204e+02	-12.8756	-34.553845	0.000385	3.853176	1.305491	-0.000154
1329	1.3214e+02	-12.9125	-34.622476	0.000172	1.723789	0.584036	-0.000069
1330	1.3224e+02	-12.9590	-34.703219	0.000203	2.027987	0.687101	-0.000081
1331	1.3234e+02	-12.9927	-34.828370	0.000314	3.143380	1.065006	-0.000126
1332	1.3243e+02	-13.0280	-34.953521	0.000314	3.143380	1.065006	-0.000126
1333	1.3253e+02	-13.0665	-34.993893	0.000101	1.013994	0.343550	-0.000041
1334	1.3263e+02	-13.1178	-35.098858	0.000264	2.636383	0.893231	-0.000105
1335	1.3273e+02	-13.1515	-35.195749	0.000243	2.433585	0.824521	-0.000097
1336	1.3283e+02	-13.1900	-35.308789	0.000284	2.839182	0.961941	-0.000114
1337	1.3293e+02	-13.2349	-35.413755	0.000264	2.636383	0.893231	-0.000105
1338	1.3303e+02	-13.2670	-35.522757	0.000274	2.737783	0.927586	-0.000110
1339	1.3313e+02	-13.3087	-35.607537	0.000213	2.129387	0.721456	-0.000085
1340	1.3323e+02	-13.3392	-35.704428	0.000243	2.433585	0.824521	-0.000097
1341	1.3333e+02	-13.3873	-35.813431	0.000274	2.737783	0.927586	-0.000110
1342	1.3343e+02	-13.4322	-35.918397	0.000264	2.636383	0.893231	-0.000105
1343	1.3353e+02	-13.4691	-35.987028	0.000172	1.723789	0.584036	-0.000069
1344	1.3363e+02	-13.5108	-36.055659	0.000172	1.723789	0.584036	-0.000069
1345	1.3373e+02	-13.5510	-36.160625	0.000264	2.636383	0.893231	-0.000105
1346	1.3383e+02	-13.5862	-36.285776	0.000314	3.143380	1.065006	-0.000126
1347	1.3393e+02	-13.6360	-36.390742	0.000264	2.636383	0.893231	-0.000105
1348	1.3403e+02	-13.6633	-36.487633	0.000243	2.433585	0.824521	-0.000097
1349	1.3413e+02	-13.6969	-36.588561	0.000253	2.534984	0.858876	-0.000101
1350	1.3423e+02	-13.7579	-36.657193	0.000172	1.723789	0.584036	-0.000069
1351	1.3432e+02	-13.7836	-36.770232	0.000284	2.839182	0.961941	-0.000114
1352	1.3442e+02	-13.8333	-36.842901	0.000183	1.825188	0.618391	-0.000073
1353	1.3452e+02	-13.8686	-36.959978	0.000294	2.940581	0.996296	-0.000118
1354	1.3462e+02	-13.9071	-37.004386	0.000112	1.115393	0.377905	-0.000045
1355	1.3472e+02	-13.9488	-37.117426	0.000284	2.839182	0.961941	-0.000114
1356	1.3482e+02	-13.9841	-37.218354	0.000253	2.534984	0.858876	-0.000101
1357	1.3492e+02	-14.0258	-37.299097	0.000203	2.027987	0.687101	-0.000081
1358	1.3502e+02	-14.0691	-37.404063	0.000264	2.636383	0.893231	-0.000105
1359	1.3512e+02	-14.1124	-37.541325	0.000345	3.447578	1.168071	-0.000138
1360	1.3522e+02	-14.1541	-37.613994	0.000183	1.825188	0.618391	-0.000073
1361	1.3532e+02	-14.1846	-37.686662	0.000183	1.825188	0.618391	-0.000073
1362	1.3542e+02	-14.2279	-37.771442	0.000213	2.129387	0.721456	-0.000085
1363	1.3552e+02	-14.2616	-37.880445	0.000274	2.737783	0.927586	-0.000110
1364	1.3562e+02	-14.3130	-37.977336	0.000243	2.433585	0.824521	-0.000097
1365	1.3572e+02	-14.3483	-38.029819	0.000132	1.318192	0.446615	-0.000053
1366	1.3582e+02	-14.3980	-38.110561	0.000203	2.027987	0.687101	-0.000081
1367	1.3592e+02	-14.4237	-38.215527	0.000264	2.636383	0.893231	-0.000105
1368	1.3602e+02	-14.4541	-38.312418	0.000243	2.433585	0.824521	-0.000097
1369	1.3612e+02	-14.4991	-38.421421	0.000274	2.737783	0.927586	-0.000110
1370	1.3622e+02	-14.5488	-38.486015	0.000162	1.622390	0.549681	-0.000065
1371	1.3631e+02	-14.5937	-38.599055	0.000284	2.839182	0.961941	-0.000114
1372	1.3641e+02	-14.6258	-38.639426	0.000101	1.013994	0.343550	-0.000041
1373	1.3651e+02	-14.6707	-38.748429	0.000274	2.737783	0.927586	-0.000110
1374	1.3661e+02	-14.7092	-38.833209	0.000213	2.129387	0.721456	-0.000085
1375	1.3671e+02	-14.7429	-38.905877	0.000183	1.825188	0.618391	-0.000073
1376	1.3681e+02	-14.7830	-39.059288	0.000385	3.853176	1.305491	-0.000154
1377	1.3691e+02	-14.8215	-39.107734	0.000122	1.216792	0.412260	-0.000049
1378	1.3701e+02	-14.8600	-39.204625	0.000243	2.433585	0.824521	-0.000097
1379	1.3711e+02	-14.8969	-39.309591	0.000264	2.636383	0.893231	-0.000105
1380	1.3721e+02	-14.9402	-39.414556	0.000264	2.636383	0.893231	-0.000105
1381	1.3731e+02	-14.9787	-39.487225	0.000183	1.825188	0.618391	-0.000073
1382	1.3741e+02	-15.0220	-39.555856	0.000172	1.723789	0.584036	-0.000069
1383	1.3751e+02	-15.0605	-39.693119	0.000345	3.447578	1.168071	-0.000138
1384	1.3761e+02	-15.1039	-39.769824	0.000193	1.926588	0.652746	-0.000077
1385	1.3771e+02	-15.1440	-39.854604	0.000213	2.129387	0.721456	-0.000085
1386	1.3781e+02	-15.1905	-39.975718	0.000304	3.041981	1.030651	-0.000122
1387	1.3791e+02	-15.2258	-40.036275	0.000152	1.520990	0.515325	-0.000061
1388	1.3801e+02	-15.2579	-40.153352	0.000294	2.940581	0.996296	-0.000118
1389	1.3811e+02	-15.2964	-40.209872	0.000142	1.419591	0.480970	-0.000057
1390	1.3821e+02	-15.3413	-40.282540	0.000183	1.825188	0.618391	-0.000073
1391	1.3831e+02	-15.3862	-40.375395	0.000233	2.332185	0.790166	-0.000093
1392	1.3840e+02	-15.4311	-40.492471	0.000294	2.940581	0.996296	-0.000118
1393	1.3850e+02	-15.4584	-40.565140	0.000183	1.825188	0.618391	-0.000073
1394	1.3860e+02	-15.5017	-40.678180	0.000284	2.839182	0.961941	-0.000114
1395	1.3870e+02	-15.5402	-40.730662	0.000132	1.318192	0.446615	-0.000053
1396	1.3880e+02	-15.5707	-40.847739	0.000294	2.940581	0.996296	-0.000118
1397	1.3890e+02	-15.6236	-40.960779	0.000284	2.839182	0.961941	-0.000114
1398	1.3900e+02	-15.6589	-41.057670	0.000243	2.433585	0.824521	-0.000097
1399	1.3910e+02	-15.6910	-41.154562	0.000243	2.433585	0.824521	-0.000097
1400	1.3920e+02	-15.7455	-41.211082	0.000142	1.419591	0.480970	-0.000057
1401	1.3930e+02	-15.7792	-41.324121	0.000284	2.839182	0.961941	-0.000114
1402	1.3940e+02	-15.8225	-41.392753	0.000172	1.723789	0.584036	-0.000069
1403	1.3950e+02	-15.8643	-41.485607	0.000233	2.332185	0.790166	-0.000093
1404	1.3960e+02	-15.9060	-41.558275	0.000183	1.825188	0.618391	-0.000073
1405	1.3970e+02	-15.9429	-41.683426	0.000314	3.143380	1.065006	-0.000126
1406	1.3980e+02	-15.9766	-41.760132	0.000193	1.926588	0.652746	-0.000077
1407	1.3990e+02	-16.0086	-41.852986	0.000233	2.332185	0.790166	-0.000093
1408	1.4000e+02	-16.0632	-41.966026	0.000284	2.839182	0.961941	-0.000114
1409	1.4010e+02	-16.1033	-42.050806	0.000213	2.129387	0.721456	-0.000085
1410	1.4020e+02	-16.1418	-42.147697	0.000243	2.433585	0.824521	-0.000097
1411	1.4029e+02	-16.1755	-42.212291	0.000162	1.622390	0.549681	-0.000065
1412	1.4039e+02	-16.2172	-42.297071	0.000213	2.129387	0.721456	-0.000085
1413	1.4049e+02	-16.2557	-42.426259	0.000324	3.244779	1.099361	-0.000130
1414	1.4059e+02	-16.2926	-42.498928	0.000183	1.825188	0.618391	-0.000073
1415	1.4069e+02	-16.3391	-42.603893	0.000264	2.636383	0.893231	-0.000105
1416	1.4079e+02	-16.3760	-42.692710	0.000223	2.230786	0.755811	-0.000089
1417	1.4089e+02	-16.4225	-42.765379	0.000183	1.825188	0.618391	-0.000073
1418	1.4099e+02	-16.4530	-42.858233	0.000233	2.332185	0.790166	-0.000093
1419	1.4109e+02	-16.4995	-42.955124	0.000243	2.433585	0.824521	-0.000097
1420	1.4119e+02	-16.5396	-43.035867	0.000203	2.027987	0.687101	-0.000081
1421	1.4129e+02	-16.5830	-43.124684	0.000223	2.230786	0.755811	-0.000089
1422	1.4139e+02	-16.6327	-43.209464	0.000213	2.129387	0.721456	-0.000085
1423	1.4149e+02	-16.6584	-43.318466	0.000274	2.737783	0.927586	-0.000110
1424	1.4159e+02	-16.6856	-43.395172	0.000193	1.926588	0.652746	-0.000077
1425	1.4169e+02	-16.7338	-43.427469	0.000081	0.811195	0.274840	-0.000032
1426	1.4179e+02	-16.7787	-43.597029	0.000426	4.258773	1.442911	-0.000170
1427	1.4189e+02	-16.8156	-43.657586	0.000152	1.520990	0.515325	-0.000061
1428	1.4199e+02	-16.8541	-43.722180	0.000162	1.622390	0.549681	-0.000065
1429	1.4209e+02	-16.9006	-43.847331	0.000314	3.143380	1.065006	-0.000126
1430	1.4219e+02	-16.9247	-43.940185	0.000233	2.332185	0.790166	-0.000093
1431	1.4228e+02	-16.9744	-43.988631	0.000122	1.216792	0.412260	-0.000049
1432	1.4238e+02	-17.0257	-44.113782	0.000314	3.143380	1.065006	-0.000126
1433	1.4248e+02	-17.0578	-44.182414	0.000172	1.723789	0.584036	-0.000069
1434	1.4258e+02	-17.1043	-44.307565	0.000314	3.143380	1.065006	-0.000126
1435	1.4268e+02	-17.1476	-44.351973	0.000112	1.115393	0.377905	-0.000045
1436	1.4278e+02	-17.1733	-44.481162	0.000324	3.244779	1.099361	-0.000130
1437	1.4288e+02	-17.2182	-44.582090	0.000253	2.534984	0.858876	-0.000101
1438	1.4298e+02	-17.2567	-44.626498	0.000112	1.115393	0.377905	-0.000045
1439	1.4308e+02	-17.3000	-44.763761	0.000345	3.447578	1.168071	-0.000138
1440	1.4318e+02	-17.3353	-44.836430	0.000183	1.825188	0.618391	-0.000073
1441	1.4328e+02	-17.3803	-44.937358	0.000253	2.534984	0.858876	-0.000101
1442	1.4338e+02	-17.4204	-45.070583	0.000335	3.346179	1.133716	-0.000134
1443	1.4348e+02	-17.4653	-45.143252	0.000183	1.825188	0.618391	-0.000073
1444	1.4358e+02	-17.4893	-45.223995	0.000203	2.027987	0.687101	-0.000081
1445	1.4368e+02	-17.5295	-45.320886	0.000243	2.433585	0.824521	-0.000097
1446	1.4378e+02	-17.5712	-45.409703	0.000223	2.230786	0.755811	-0.000089
1447	1.4388e+02	-17.6177	-45.534854	0.000314	3.143380	1.065006	-0.000126
1448	1.4398e+02	-17.6482	-45.587337	0.000132	1.318192	0.446615	-0.000053
1449	1.4408e+02	-17.7011	-45.688265	0.000253	2.534984	0.858876	-0.000101
1450	1.4418e+02	-17.7396	-45.817453	0.000324	3.244779	1.099361	-0.000130
1451	1.4428e+02	-17.7701	-45.898196	0.000203	2.027987	0.687101	-0.000081
1452	1.4437e+02	-17.8102	-45.995087	0.000243	2.433585	0.824521	-0.000097
1453	1.4447e+02	-17.8455	-46.083904	0.000223	2.230786	0.755811	-0.000089
1454	1.4457e+02	-17.8888	-46.164647	0.000203	2.027987	0.687101	-0.000081
1455	1.4467e+02	-17.9305	-46.314021	0.000375	3.751776	1.271136	-0.000150
1456	1.4477e+02	-17.9754	-46.374578	0.000152	1.520990	0.515325	-0.000061
1457	1.4487e+02	-18.0155	-46.487618	0.000284	2.839182	0.961941	-0.000114
1458	1.4497e+02	-18.0476	-46.596621	0.000274	2.737783	0.927586	-0.000110
1459	1.4507e+02	-18.0893	-46.673326	0.000193	1.926588	0.652746	-0.000077
1460	1.4517e+02	-18.1278	-46.745995	0.000183	1.825188	0.618391	-0.000073
1461	1.4527e+02	-18.1695	-46.814626	0.000172	1.723789	0.584036	-0.000069
1462	1.4537e+02	-18.2145	-46.939777	0.000314	3.143380	1.065006	-0.000126
1463	1.4547e+02	-18.2514	-47.056854	0.000294	2.940581	0.996296	-0.000118
1464	1.4557e+02	-18.2899	-47.125485	0.000172	1.723789	0.584036	-0.000069
1465	1.4567e+02	-18.3364	-47.218340	0.000233	2.332185	0.790166	-0.000093
1466	1.4577e+02	-18.3749	-47.295045	0.000193	1.926588	0.652746	-0.000077
1467	1.4587e+02	-18.4054	-47.391936	0.000243	2.433585	0.824521	-0.000097
1468	1.4597e+02	-18.4503	-47.525162	0.000335	3.346179	1.133716	-0.000134
1469	1.4607e+02	-18.4840	-47.618016	0.000233	2.332185	0.790166	-0.000093
1470	1.4617e+02	-18.5289	-47.702796	0.000213	2.129387	0.721456	-0.000085
1471	1.4626e+02	-18.5754	-47.823910	0.000304	3.041981	1.030651	-0.000122
1472	1.4636e+02	-18.6123	-47.920801	0.000243	2.433585	0.824521	-0.000097
1473	1.4646e+02	-18.6540	-48.017692	0.000243	2.433585	0.824521	-0.000097
1474	1.4656e+02	-18.6813	-48.074212	0.000142	1.419591	0.480970	-0.000057
1475	1.4666e+02	-18.7294	-48.183215	0.000274	2.737783	0.927586	-0.000110
1476	1.4676e+02	-18.7775	-48.320478	0.000345	3.447578	1.168071	-0.000138
1477	1.4686e+02	-18.8064	-48.397183	0.000193	1.926588	0.652746	-0.000077
1478	1.4696e+02	-18.8545	-48.530409	0.000335	3.346179	1.133716	-0.000134
1479	1.4706e+02	-18.8898	-48.550594	0.000051	0.506997	0.171775	-0.000020
1480	1.4716e+02	-18.9380	-48.716117	0.000416	4.157374	1.408556	-0.000166
1481	1.4726e+02	-18.9668	-48.788785	0.000183	1.825188	0.618391	-0.000073
1482	1.4736e+02	-19.0102	-48.825120	0.000091	0.912594	0.309195	-0.000037
1483	1.4746e+02	-19.0519	-48.966419	0.000355	3.548978	1.202426	-0.000142
1484	1.4756e+02	-19.0968	-49.091571	0.000314	3.143380	1.065006	-0.000126
1485	1.4766e+02	-19.1209	-49.176350	0.000213	2.129387	0.721456	-0.000085
1486	1.4776e+02	-19.1658	-49.228833	0.000132	1.318192	0.446615	-0.000053
1487	1.4786e+02	-19.2075	-49.370133	0.000355	3.548978	1.202426	-0.000142
1488	1.4796e+02	-19.2444	-49.467024	0.000243	2.433585	0.824521	-0.000097
1489	1.4806e+02	-19.2941	-49.539693	0.000183	1.825188	0.618391	-0.000073
1490	1.4816e+02	-19.3246	-49.668881	0.000324	3.244779	1.099361	-0.000130
1491	1.4825e+02	-19.3727	-49.753661	0.000213	2.129387	0.721456	-0.000085
1492	1.4835e+02	-19.4048	-49.862664	0.000274	2.737783	0.927586	-0.000110
1493	1.4845e+02	-19.4497	-49.955518	0.000233	2.332185	0.790166	-0.000093
1494	1.4855e+02	-19.4818	-50.028186	0.000183	1.825188	0.618391	-0.000073
1495	1.4865e+02	-19.5219	-50.145263	0.000294	2.940581	0.996296	-0.000118
1496	1.4875e+02	-19.5668	-50.221969	0.000193	1.926588	0.652746	-0.000077
1497	1.4885e+02	-19.6101	-50.318860	0.000243	2.433585	0.824521	-0.000097
1498	1.4895e+02	-19.6374	-50.468234	0.000375	3.751776	1.271136	-0.000150
1499	1.4905e+02	-19.6887	-50.544939	0.000193	1.926588	0.652746	-0.000077
1500	1.4915e+02	-19.7289	-50.617608	0.000183	1.825188	0.618391	-0.000073
1501	1.4925e+02	-19.7577	-50.775056	0.000395	3.954575	1.339846	-0.000158
1502	1.4935e+02	-19.7994	-50.863873	0.000223	2.230786	0.755811	-0.000089
1503	1.4945e+02	-19.8444	-50.972876	0.000274	2.737783	0.927586	-0.000110
1504	1.4955e+02	-19.8877	-51.057656	0.000213	2.129387	0.721456	-0.000085
1505	1.4965e+02	-19.9246	-51.186844	0.000324	3.244779	1.099361	-0.000130
1506	1.4975e+02	-19.9695	-51.251438	0.000162	1.622390	0.549681	-0.000065
1507	1.4985e+02	-19.9984	-51.376589	0.000314	3.143380	1.065006	-0.000126
1508	1.4995e+02	-19.9599	-51.328144	0.000122	1.216792	0.412260	0.000049
1509	1.5005e+02	-19.9101	-51.303921	0.000061	0.608396	0.206130	0.000024
1510	1.5015e+02	-19.8748	-51.259512	0.000112	1.115393	0.377905	0.000045
1511	1.5025e+02	-19.8379	-51.198955	0.000152	1.520990	0.515325	0.000061
1512	1.5034e+02	-19.8043	-51.170695	0.000071	0.709796	0.240485	0.000028
1513	1.5044e+02	-19.7593	-51.098027	0.000183	1.825188	0.618391	0.000073
1514	1.5054e+02	-19.7208	-51.057656	0.000101	1.013994	0.343550	0.000041
1515	1.5064e+02	-19.6823	-51.009210	0.000122	1.216792	0.412260	0.000049
1516	1.5074e+02	-19.6406	-50.972876	0.000091	0.912594	0.309195	0.000037
1517	1.5084e+02	-19.6117	-50.936542	0.000091	0.912594	0.309195	0.000037
1518	1.5094e+02	-19.5604	-50.843687	0.000233	2.332185	0.790166	0.000093
1519	1.5104e+02	-19.5235	-50.791205	0.000132	1.318192	0.446615	0.000053
1520	1.5114e+02	-19.4866	-50.714499	0.000193	1.926588	0.652746	0.000077
1521	1.5124e+02	-19.4481	-50.678165	0.000091	0.912594	0.309195	0.000037
1522	1.5134e+02	-19.4064	-50.637794	0.000101	1.013994	0.343550	0.000041
1523	1.5144e+02	-19.3631	-50.553014	0.000213	2.129387	0.721456	0.000085
1524	1.5154e+02	-19.3214	-50.488420	0.000162	1.622390	0.549681	0.000065
1525	1.5164e+02	-19.2845	-50.399603	0.000223	2.230786	0.755811	0.000089
1526	1.5174e+02	-19.2524	-50.367305	0.000081	0.811195	0.274840	0.000032
1527	1.5184e+02	-19.2091	-50.339046	0.000071	0.709796	0.240485	0.000028
1528	1.5194e+02	-19.1738	-50.270414	0.000172	1.723789	0.584036	0.000069
1529	1.5204e+02	-19.1128	-50.181597	0.000223	2.230786	0.755811	0.000089
1530	1.5214e+02	-19.0920	-50.145263	0.000091	0.912594	0.309195	0.000037
1531	1.5224e+02	-19.0471	-50.064520	0.000203	2.027987	0.687101	0.000081
1532	1.5233e+02	-19.0070	-50.012038	0.000132	1.318192	0.446615	0.000053
1533	1.5243e+02	-18.9668	-49.927258	0.000213	2.129387	0.721456	0.000085
1534	1.5253e+02	-18.9316	-49.862664	0.000162	1.622390	0.549681	0.000065
1535	1.5263e+02	-18.8866	-49.781921	0.000203	2.027987	0.687101	0.000081
1536	1.5273e+02	-18.8481	-49.733475	0.000122	1.216792	0.412260	0.000049
1537	1.5283e+02	-18.8160	-49.640621	0.000233	2.332185	0.790166	0.000093
1538	1.5293e+02	-18.7631	-49.547767	0.000233	2.332185	0.790166	0.000093
1539	1.5303e+02	-18.7423	-49.535656	0.000030	0.304198	0.103065	0.000012
1540	1.5313e+02	-18.6909	-49.458950	0.000193	1.926588	0.652746	0.000077
1541	1.5323e+02	-18.6540	-49.353984	0.000264	2.636383	0.893231	0.000105
1542	1.5333e+02	-18.6075	-49.309576	0.000112	1.115393	0.377905	0.000045
1543	1.5343e+02	-18.5738	-49.240945	0.000172	1.723789	0.584036	0.000069
1544	1.5353e+02	-18.5337	-49.152128	0.000223	2.230786	0.755811	0.000089
1545	1.5363e+02	-18.4920	-49.103682	0.000122	1.216792	0.412260	0.000049
1546	1.5373e+02	-18.4503	-49.014865	0.000223	2.230786	0.755811	0.000089
1547	1.5383e+02	-18.4086	-48.986605	0.000071	0.709796	0.240485	0.000028
1548	1.5393e+02	-18.3765	-48.893751	0.000233	2.332185	0.790166	0.000093
1549	1.5403e+02	-18.3332	-48.825120	0.000172	1.723789	0.584036	0.000069
1550	1.5413e+02	-18.2786	-48.768600	0.000142	1.419591	0.480970	0.000057
1551	1.5422e+02	-18.2578	-48.671708	0.000243	2.433585	0.824521	0.000097
1552	1.5432e+02	-18.2145	-48.647486	0.000061	0.608396	0.206130	0.000024
1553	1.5442e+02	-18.1695	-48.554632	0.000233	2.332185	0.790166	0.000093
1554	1.5452e+02	-18.1342	-48.510223	0.000112	1.115393	0.377905	0.000045
1555	1.5462e+02	-18.0877	-48.421406	0.000223	2.230786	0.755811	0.000089
1556	1.5472e+02	-18.0508	-48.336626	0.000213	2.129387	0.721456	0.000085
1557	1.5482e+02	-18.0123	-48.288181	0.000122	1.216792	0.412260	0.000049
1558	1.5492e+02	-17.9610	-48.191289	0.000243	2.433585	0.824521	0.000097
1559	1.5502e+02	-17.9321	-48.118621	0.000183	1.825188	0.618391	0.000073
1560	1.5512e+02	-17.8936	-48.066138	0.000132	1.318192	0.446615	0.000053
1561	1.5522e+02	-17.8535	-48.001544	0.000162	1.622390	0.549681	0.000065
1562	1.5532e+02	-17.8182	-47.916764	0.000213	2.129387	0.721456	0.000085
1563	1.5542e+02	-17.7749	-47.856207	0.000152	1.520990	0.515325	0.000061
1564	1.5552e+02	-17.7300	-47.775464	0.000203	2.027987	0.687101	0.000081
1565	1.5562e+02	-17.7011	-47.694722	0.000203	2.027987	0.687101	0.000081
1566	1.5572e+02	-17.6546	-47.650313	0.000112	1.115393	0.377905	0.000045
1567	1.5582e+02	-17.6129	-47.537273	0.000284	2.839182	0.961941	0.000114
1568	1.5592e+02	-17.5712	-47.480753	0.000142	1.419591	0.480970	0.000057
1569	1.5602e+02	-17.5375	-47.416159	0.000162	1.622390	0.549681	0.000065
1570	1.5612e+02	-17.5038	-47.343491	0.000183	1.825188	0.618391	0.000073
1571	1.5622e+02	-17.4621	-47.258711	0.000213	2.129387	0.721456	0.000085
1572	1.5631e+02	-17.4123	-47.214302	0.000112	1.115393	0.377905	0.000045
1573	1.5641e+02	-17.3722	-47.113374	0.000253	2.534984	0.858876	0.000101
1574	1.5651e+02	-17.3305	-47.077040	0.000091	0.912594	0.309195	0.000037
1575	1.5661e+02	-17.2968	-46.980149	0.000243	2.433585	0.824521	0.000097
1576	1.5671e+02	-17.2503	-46.919592	0.000152	1.520990	0.515325	0.000061
1577	1.5681e+02	-17.2166	-46.798477	0.000304	3.041981	1.030651	0.000122
1578	1.5691e+02	-17.1861	-46.754069	0.000112	1.115393	0.377905	0.000045
1579	1.5701e+02	-17.1316	-46.689475	0.000162	1.622390	0.549681	0.000065
1580	1.5711e+02	-17.0963	-46.628918	0.000152	1.520990	0.515325	0.000061
1581	1.5721e+02	-17.0530	-46.548175	0.000203	2.027987	0.687101	0.000081
1582	1.5731e+02	-17.0161	-46.459358	0.000223	2.230786	0.755811	0.000089
1583	1.5741e+02	-16.9792	-46.406875	0.000132	1.318192	0.446615	0.000053
1584	1.5751e+02	-16.9375	-46.342281	0.000162	1.622390	0.549681	0.000065
1585	1.5761e+02	-16.8990	-46.213093	0.000324	3.244779	1.099361	0.000130
1586	1.5771e+02	-16.8605	-46.160610	0.000132	1.318192	0.446615	0.000053
1587	1.5781e+02	-16.8204	-46.124276	0.000091	0.912594	0.309195	0.000037
1588	1.5791e+02	-16.7739	-45.999125	0.000314	3.143380	1.065006	0.000126
1589	1.5801e+02	-16.7289	-45.946642	0.000132	1.318192	0.446615	0.000053
1590	1.5811e+02	-16.6969	-45.857825	0.000223	2.230786	0.755811	0.000089
1591	1.5821e+02	-16.6632	-45.789194	0.000172	1.723789	0.584036	0.000069
1592	1.5830e+02	-16.6263	-45.688265	0.000253	2.534984	0.858876	0.000101
1593	1.5840e+02	-16.5733	-45.643857	0.000112	1.115393	0.377905	0.000045
1594	1.5850e+02	-16.5332	-45.522743	0.000304	3.041981	1.030651	0.000122
1595	1.5860e+02	-16.5011	-45.502557	0.000051	0.506997	0.171775	0.000020
1596	1.5870e+02	-16.4530	-45.433926	0.000172	1.723789	0.584036	0.000069
1597	1.5880e+02	-16.4113	-45.288589	0.000365	3.650377	1.236781	0.000146
1598	1.5890e+02	-16.3856	-45.223995	0.000162	1.622390	0.549681	0.000065
1599	1.5900e+02	-16.3455	-45.167475	0.000142	1.419591	0.480970	0.000057
1600	1.5910e+02	-16.2990	-45.110955	0.000142	1.419591	0.480970	0.000057
1601	1.5920e+02	-16.2589	-45.018101	0.000233	2.332185	0.790166	0.000093
1602	1.5930e+02	-16.2204	-44.945432	0.000183	1.825188	0.618391	0.000073
1603	1.5940e+02	-16.1787	-44.848541	0.000243	2.433585	0.824521	0.000097
1604	1.5950e+02	-16.1338	-44.787984	0.000152	1.520990	0.515325	0.000061
1605	1.5960e+02	-16.0969	-44.699167	0.000223	2.230786	0.755811	0.000089
1606	1.5970e+02	-16.0632	-44.687055	0.000030	0.304198	0.103065	0.000012
1607	1.5980e+02	-16.0247	-44.574016	0.000284	2.839182	0.961941	0.000114
1608	1.5990e+02	-15.9782	-44.469050	0.000264	2.636383	0.893231	0.000105
1609	1.6000e+02	-15.9461	-44.376196	0.000233	2.332185	0.790166	0.000093
1610	1.6010e+02	-15.8915	-44.319676	0.000142	1.419591	0.480970	0.000057
1611	1.6019e+02	-15.8659	-44.299490	0.000051	0.506997	0.171775	0.000020
1612	1.6029e+02	-15.8145	-44.210673	0.000223	2.230786	0.755811	0.000089
1613	1.6039e+02	-15.7760	-44.129931	0.000203	2.027987	0.687101	0.000081
1614	1.6049e+02	-15.7439	-44.069374	0.000152	1.520990	0.515325	0.000061
1615	1.6059e+02	-15.7022	-43.952297	0.000294	2.940581	0.996296	0.000118
1616	1.6069e+02	-15.6637	-43.899814	0.000132	1.318192	0.446615	0.000053
1617	1.6079e+02	-15.6220	-43.843294	0.000142	1.419591	0.480970	0.000057
1618	1.6089e+02	-15.5755	-43.754477	0.000223	2.230786	0.755811	0.000089
1619	1.6099e+02	-15.5418	-43.681809	0.000183	1.825188	0.618391	0.000073
1620	1.6109e+02	-15.5001	-43.629326	0.000132	1.318192	0.446615	0.000053
1621	1.6119e+02	-15.4584	-43.564732	0.000162	1.622390	0.549681	0.000065
1622	1.6129e+02	-15.4263	-43.467840	0.000243	2.433585	0.824521	0.000097
1623	1.6139e+02	-15.3814	-43.374986	0.000233	2.332185	0.790166	0.000093
1624	1.6149e+02	-15.3397	-43.334615	0.000101	1.013994	0.343550	0.000041
1625	1.6159e+02	-15.3028	-43.249835	0.000213	2.129387	0.721456	0.000085
1626	1.6169e+02	-15.2579	-43.173130	0.000193	1.926588	0.652746	0.000077
1627	1.6179e+02	-15.2274	-43.076238	0.000243	2.433585	0.824521	0.000097
1628	1.6189e+02	-15.1728	-43.031830	0.000112	1.115393	0.377905	0.000045
1629	1.6199e+02	-15.1407	-42.947050	0.000213	2.129387	0.721456	0.000085
1630	1.6209e+02	-15.1022	-42.858233	0.000223	2.230786	0.755811	0.000089
1631	1.6219e+02	-15.0654	-42.777490	0.000203	2.027987	0.687101	0.000081
1632	1.6228e+02	-15.0156	-42.725008	0.000132	1.318192	0.446615	0.000053
1633	1.6238e+02	-14.9803	-42.644265	0.000203	2.027987	0.687101	0.000081
1634	1.6248e+02	-14.9482	-42.535262	0.000274	2.737783	0.927586	0.000110
1635	1.6258e+02	-14.9049	-42.470668	0.000162	1.622390	0.549681	0.000065
1636	1.6268e+02	-14.8584	-42.422222	0.000122	1.216792	0.412260	0.000049
1637	1.6278e+02	-14.8231	-42.353591	0.000172	1.723789	0.584036	0.000069
1638	1.6288e+02	-14.7734	-42.280923	0.000183	1.825188	0.618391	0.000073
1639	1.6298e+02	-14.7365	-42.175957	0.000264	2.636383	0.893231	0.000105
1640	1.6308e+02	-14.7028	-42.070992	0.000264	2.636383	0.893231	0.000105
1641	1.6318e+02	-14.6723	-42.042732	0.000071	0.709796	0.240485	0.000028
1642	1.6328e+02	-14.6226	-41.941803	0.000253	2.534984	0.858876	0.000101
1643	1.6338e+02	-14.5905	-41.836838	0.000264	2.636383	0.893231	0.000105
1644	1.6348e+02	-14.5536	-41.780318	0.000142	1.419591	0.480970	0.000057
1645	1.6358e+02	-14.5119	-41.699575	0.000203	2.027987	0.687101	0.000081
1646	1.6368e+02	-14.4734	-41.618832	0.000203	2.027987	0.687101	0.000081
1647	1.6378e+02	-14.4269	-41.509830	0.000274	2.737783	0.927586	0.000110
1648	1.6388e+02	-14.3852	-41.441198	0.000172	1.723789	0.584036	0.000069
1649	1.6398e+02	-14.3515	-41.368530	0.000183	1.825188	0.618391	0.000073
1650	1.6408e+02	-14.2985	-41.279713	0.000223	2.230786	0.755811	0.000089
1651	1.6418e+02	-14.2664	-41.207044	0.000183	1.825188	0.618391	0.000073
1652	1.6427e+02	-14.2295	-41.154562	0.000132	1.318192	0.446615	0.000053
1653	1.6437e+02	-14.1814	-41.061708	0.000233	2.332185	0.790166	0.000093
1654	1.6447e+02	-14.1445	-41.005188	0.000142	1.419591	0.480970	0.000057
1655	1.6457e+02	-14.0980	-40.932519	0.000183	1.825188	0.618391	0.000073
1656	1.6467e+02	-14.0643	-40.815442	0.000294	2.940581	0.996296	0.000118
1657	1.6477e+02	-14.0338	-40.726625	0.000223	2.230786	0.755811	0.000089
1658	1.6487e+02	-13.9873	-40.662031	0.000162	1.622390	0.549681	0.000065
1659	1.6497e+02	-13.9456	-40.617623	0.000112	1.115393	0.377905	0.000045
1660	1.6507e+02	-13.9007	-40.480360	0.000345	3.447578	1.168071	0.000138
1661	1.6517e+02	-13.8686	-40.435952	0.000112	1.115393	0.377905	0.000045
1662	1.6527e+02	-13.8269	-40.375395	0.000152	1.520990	0.515325	0.000061
1663	1.6537e+02	-13.7884	-40.238132	0.000345	3.447578	1.168071	0.000138
1664	1.6547e+02	-13.7403	-40.157389	0.000203	2.027987	0.687101	0.000081
1665	1.6557e+02	-13.7130	-40.092795	0.000162	1.622390	0.549681	0.000065
1666	1.6567e+02	-13.6697	-40.028201	0.000162	1.622390	0.549681	0.000065
1667	1.6577e+02	-13.6344	-39.923235	0.000264	2.636383	0.893231	0.000105
1668	1.6587e+02	-13.5959	-39.830381	0.000233	2.332185	0.790166	0.000093
1669	1.6597e+02	-13.5445	-39.753676	0.000193	1.926588	0.652746	0.000077
1670	1.6607e+02	-13.5189	-39.725416	0.000071	0.709796	0.240485	0.000028
1671	1.6616e+02	-13.4740	-39.596227	0.000324	3.244779	1.099361	0.000130
1672	1.6626e+02	-13.4242	-39.559893	0.000091	0.912594	0.309195	0.000037
1673	1.6636e+02	-13.3841	-39.450890	0.000274	2.737783	0.927586	0.000110
1674	1.6646e+02	-13.3504	-39.394371	0.000142	1.419591	0.480970	0.000057
1675	1.6656e+02	-13.3135	-39.293442	0.000253	2.534984	0.858876	0.000101
1676	1.6666e+02	-13.2686	-39.249034	0.000112	1.115393	0.377905	0.000045
1677	1.6676e+02	-13.2365	-39.156180	0.000233	2.332185	0.790166	0.000093
1678	1.6686e+02	-13.1932	-39.059288	0.000243	2.433585	0.824521	0.000097
1679	1.6696e+02	-13.1467	-38.970471	0.000223	2.230786	0.755811	0.000089
1680	1.6706e+02	-13.1162	-38.893766	0.000193	1.926588	0.652746	0.000077
1681	1.6716e+02	-13.0729	-38.821097	0.000183	1.825188	0.618391	0.000073
1682	1.6726e+02	-13.0248	-38.744392	0.000193	1.926588	0.652746	0.000077
1683	1.6736e+02	-12.9927	-38.651538	0.000233	2.332185	0.790166	0.000093
1684	1.6746e+02	-12.9494	-38.566758	0.000213	2.129387	0.721456	0.000085
1685	1.6756e+02	-12.9012	-38.469866	0.000243	2.433585	0.824521	0.000097
1686	1.6766e+02	-12.8788	-38.393161	0.000193	1.926588	0.652746	0.000077
1687	1.6776e+02	-12.8290	-38.320492	0.000183	1.825188	0.618391	0.000073
1688	1.6786e+02	-12.7938	-38.243787	0.000193	1.926588	0.652746	0.000077
1689	1.6796e+02	-12.7569	-38.163044	0.000203	2.027987	0.687101	0.000081
1690	1.6806e+02	-12.7151	-38.110561	0.000132	1.318192	0.446615	0.000053
1691	1.6816e+02	-12.6702	-38.009633	0.000253	2.534984	0.858876	0.000101
1692	1.6825e+02	-12.6365	-37.916779	0.000233	2.332185	0.790166	0.000093
1693	1.6835e+02	-12.5948	-37.775479	0.000355	3.548978	1.202426	0.000142
1694	1.6845e+02	-12.5595	-37.718959	0.000142	1.419591	0.480970	0.000057
1695	1.6855e+02	-12.5146	-37.634179	0.000213	2.129387	0.721456	0.000085
1696	1.6865e+02	-12.4681	-37.569585	0.000162	1.622390	0.549681	0.000065
1697	1.6875e+02	-12.4360	-37.492880	0.000193	1.926588	0.652746	0.000077
1698	1.6885e+02	-12.3943	-37.408100	0.000213	2.129387	0.721456	0.000085
1699	1.6895e+02	-12.3542	-37.286986	0.000304	3.041981	1.030651	0.000122
1700	1.6905e+02	-12.3205	-37.194132	0.000233	2.332185	0.790166	0.000093
1701	1.6915e+02	-12.2676	-37.117426	0.000193	1.926588	0.652746	0.000077
1702	1.6925e+02	-12.2355	-37.060906	0.000142	1.419591	0.480970	0.000057
1703	1.6935e+02	-12.1938	-36.959978	0.000253	2.534984	0.858876	0.000101
1704	1.6945e+02	-12.1521	-36.863086	0.000243	2.433585	0.824521	0.000097
1705	1.6955e+02	-12.1071	-36.754084	0.000274	2.737783	0.927586	0.000110
1706	1.6965e+02	-12.0847	-36.661230	0.000233	2.332185	0.790166	0.000093
1707	1.6975e+02	-12.0317	-36.612784	0.000122	1.216792	0.412260	0.000049
1708	1.6985e+02	-11.9948	-36.495707	0.000294	2.940581	0.996296	0.000118
1709	1.6995e+02	-11.9547	-36.447261	0.000122	1.216792	0.412260	0.000049
1710	1.7005e+02	-11.9243	-36.358444	0.000223	2.230786	0.755811	0.000089
1711	1.7015e+02	-11.8874	-36.253479	0.000264	2.636383	0.893231	0.000105
1712	1.7024e+02	-11.8392	-36.144476	0.000274	2.737783	0.927586	0.000110
1713	1.7034e+02	-11.8039	-36.104105	0.000101	1.013994	0.343550	0.000041
1714	1.7044e+02	-11.7622	-36.003177	0.000253	2.534984	0.858876	0.000101
1715	1.7054e+02	-11.7125	-35.898211	0.000264	2.636383	0.893231	0.000105
1716	1.7064e+02	-11.6772	-35.829580	0.000172	1.723789	0.584036	0.000069
1717	1.7074e+02	-11.6307	-35.724614	0.000264	2.636383	0.893231	0.000105
1718	1.7084e+02	-11.5922	-35.635797	0.000223	2.230786	0.755811	0.000089
1719	1.7094e+02	-11.5633	-35.546980	0.000223	2.230786	0.755811	0.000089
1720	1.7104e+02	-11.5200	-35.462200	0.000213	2.129387	0.721456	0.000085
1721	1.7114e+02	-11.4879	-35.421829	0.000101	1.013994	0.343550	0.000041
1722	1.7124e+02	-11.4430	-35.288603	0.000335	3.346179	1.133716	0.000134
1723	1.7134e+02	-11.3901	-35.203824	0.000213	2.129387	0.721456	0.000085
1724	1.7144e+02	-11.3596	-35.110970	0.000233	2.332185	0.790166	0.000093
1725	1.7154e+02	-11.3179	-35.034264	0.000193	1.926588	0.652746	0.000077
1726	1.7164e+02	-11.2745	-34.925261	0.000274	2.737783	0.927586	0.000110
1727	1.7174e+02	-11.2360	-34.844519	0.000203	2.027987	0.687101	0.000081
1728	1.7184e+02	-11.1927	-34.727442	0.000294	2.940581	0.996296	0.000118
1729	1.7194e+02	-11.1494	-34.678996	0.000122	1.216792	0.412260	0.000049
1730	1.7204e+02	-11.1157	-34.594216	0.000213	2.129387	0.721456	0.000085
1731	1.7213e+02	-11.0756	-34.497325	0.000243	2.433585	0.824521	0.000097
1732	1.7223e+02	-11.0403	-34.420619	0.000193	1.926588	0.652746	0.000077
1733	1.7233e+02	-11.0050	-34.307580	0.000284	2.839182	0.961941	0.000114
1734	1.7243e+02	-10.9601	-34.247022	0.000152	1.520990	0.515325	0.000061
1735	1.7253e+02	-10.9216	-34.109760	0.000345	3.447578	1.168071	0.000138
1736	1.7263e+02	-10.8799	-34.004794	0.000264	2.636383	0.893231	0.000105
1737	1.7273e+02	-10.8366	-33.956349	0.000122	1.216792	0.412260	0.000049
1738	1.7283e+02	-10.7997	-33.891755	0.000162	1.622390	0.549681	0.000065
1739	1.7293e+02	-10.7612	-33.766603	0.000314	3.143380	1.065006	0.000126
1740	1.7303e+02	-10.7163	-33.697972	0.000172	1.723789	0.584036	0.000069
1741	1.7313e+02	-10.6842	-33.641452	0.000142	1.419591	0.480970	0.000057
1742	1.7323e+02	-10.6457	-33.508227	0.000335	3.346179	1.133716	0.000134
1743	1.7333e+02	-10.6008	-33.419410	0.000223	2.230786	0.755811	0.000089
1744	1.7343e+02	-10.5607	-33.318481	0.000253	2.534984	0.858876	0.000101
1745	1.7353e+02	-10.5125	-33.233701	0.000213	2.129387	0.721456	0.000085
1746	1.7363e+02	-10.4853	-33.181219	0.000132	1.318192	0.446615	0.000053
1747	1.7373e+02	-10.4387	-33.043956	0.000345	3.447578	1.168071	0.000138
1748	1.7383e+02	-10.3986	-33.015696	0.000071	0.709796	0.240485	0.000028
1749	1.7393e+02	-10.3633	-32.906693	0.000274	2.737783	0.927586	0.000110
1750	1.7403e+02	-10.3329	-32.809802	0.000243	2.433585	0.824521	0.000097
1751	1.7413e+02	-10.2799	-32.688688	0.000304	3.041981	1.030651	0.000122
1752	1.7422e+02	-10.2414	-32.632168	0.000142	1.419591	0.480970	0.000057
1753	1.7432e+02	-10.1917	-32.507017	0.000314	3.143380	1.065006	0.000126
1754	1.7442e+02	-10.1644	-32.418200	0.000223	2.230786	0.755811	0.000089
1755	1.7452e+02	-10.1227	-32.329383	0.000223	2.230786	0.755811	0.000089
1756	1.7462e+02	-10.0842	-32.236529	0.000233	2.332185	0.790166	0.000093
1757	1.7472e+02	-10.0409	-32.167898	0.000172	1.723789	0.584036	0.000069
1758	1.7482e+02	-10.0056	-32.099266	0.000172	1.723789	0.584036	0.000069
1759	1.7492e+02	-9.9671	-31.986226	0.000284	2.839182	0.961941	0.000114
1760	1.7502e+02	-9.9222	-31.853001	0.000335	3.346179	1.133716	0.000134
1761	1.7512e+02	-9.8837	-31.804555	0.000122	1.216792	0.412260	0.000049
1762	1.7522e+02	-9.8452	-31.711701	0.000233	2.332185	0.790166	0.000093
1763	1.7532e+02	-9.7970	-31.602699	0.000274	2.737783	0.927586	0.000110
1764	1.7542e+02	-9.7585	-31.509844	0.000233	2.332185	0.790166	0.000093
1765	1.7552e+02	-9.7217	-31.433139	0.000193	1.926588	0.652746	0.000077
1766	1.7562e+02	-9.6783	-31.356433	0.000193	1.926588	0.652746	0.000077
1767	1.7572e+02	-9.6350	-31.243393	0.000284	2.839182	0.961941	0.000114
1768	1.7582e+02	-9.6029	-31.142465	0.000253	2.534984	0.858876	0.000101
1769	1.7592e+02	-9.5725	-31.061722	0.000203	2.027987	0.687101	0.000081
1770	1.7602e+02	-9.5243	-30.989054	0.000183	1.825188	0.618391	0.000073
1771	1.7612e+02	-9.4874	-30.835643	0.000385	3.853176	1.305491	0.000154
1772	1.7621e+02	-9.4473	-30.767011	0.000172	1.723789	0.584036	0.000069
1773	1.7631e+02	-9.4008	-30.710492	0.000142	1.419591	0.480970	0.000057
1774	1.7641e+02	-9.3703	-30.581303	0.000324	3.244779	1.099361	0.000130
1775	1.7651e+02	-9.3334	-30.496523	0.000213	2.129387	0.721456	0.000085
1776	1.7661e+02	-9.2837	-30.468263	0.000071	0.709796	0.240485	0.000028
1777	1.7671e+02	-9.2468	-30.322927	0.000365	3.650377	1.236781	0.000146
1778	1.7681e+02	-9.1971	-30.234110	0.000223	2.230786	0.755811	0.000089
1779	1.7691e+02	-9.1634	-30.161441	0.000183	1.825188	0.618391	0.000073
1780	1.7701e+02	-9.1297	-30.092810	0.000172	1.723789	0.584036	0.000069
1781	1.7711e+02	-9.0960	-29.979770	0.000284	2.839182	0.961941	0.000114
1782	1.7721e+02	-9.0463	-29.882879	0.000243	2.433585	0.824521	0.000097
1783	1.7731e+02	-9.0078	-29.810210	0.000183	1.825188	0.618391	0.000073
1784	1.7741e+02	-8.9757	-29.709282	0.000253	2.534984	0.858876	0.000101
1785	1.7751e+02	-8.9260	-29.608354	0.000253	2.534984	0.858876	0.000101
1786	1.7761e+02	-8.8810	-29.499351	0.000274	2.737783	0.927586	0.000110
1787	1.7771e+02	-8.8473	-29.463017	0.000091	0.912594	0.309195	0.000037
1788	1.7781e+02	-8.8088	-29.325754	0.000345	3.447578	1.168071	0.000138
1789	1.7791e+02	-8.7687	-29.281346	0.000112	1.115393	0.377905	0.000045
1790	1.7801e+02	-8.7367	-29.184454	0.000243	2.433585	0.824521	0.000097
1791	1.7810e+02	-8.6789	-29.091600	0.000233	2.332185	0.790166	0.000093
1792	1.7820e+02	-8.6500	-28.982597	0.000274	2.737783	0.927586	0.000110
1793	1.7830e+02	-8.5971	-28.905892	0.000193	1.926588	0.652746	0.000077
1794	1.7840e+02	-8.5746	-28.800926	0.000264	2.636383	0.893231	0.000105
1795	1.7850e+02	-8.5313	-28.708072	0.000233	2.332185	0.790166	0.000093
1796	1.7860e+02	-8.4912	-28.651552	0.000142	1.419591	0.480970	0.000057
1797	1.7870e+02	-8.4495	-28.502178	0.000375	3.751776	1.271136	0.000150
1798	1.7880e+02	-8.4126	-28.429510	0.000183	1.825188	0.618391	0.000073
1799	1.7890e+02	-8.3645	-28.316470	0.000284	2.839182	0.961941	0.000114
1800	1.7900e+02	-8.3340	-28.235727	0.000203	2.027987	0.687101	0.000081
1801	1.7910e+02	-8.2971	-28.146910	0.000223	2.230786	0.755811	0.000089
1802	1.7920e+02	-8.2442	-28.029833	0.000294	2.940581	0.996296	0.000118
1803	1.7930e+02	-8.2137	-27.973314	0.000142	1.419591	0.480970	0.000057
1804	1.7940e+02	-8.1704	-27.852199	0.000304	3.041981	1.030651	0.000122
1805	1.7950e+02	-8.1303	-27.807791	0.000112	1.115393	0.377905	0.000045
1806	1.7960e+02	-8.0918	-27.682640	0.000314	3.143380	1.065006	0.000126
1807	1.7970e+02	-8.0500	-27.589786	0.000233	2.332185	0.790166	0.000093
1808	1.7980e+02	-8.0083	-27.533266	0.000142	1.419591	0.480970	0.000057
1809	1.7990e+02	-7.9698	-27.396003	0.000345	3.447578	1.168071	0.000138
1810	1.8000e+02	-7.9329	-27.307186	0.000223	2.230786	0.755811	0.000089
1811	1.8009e+02	-7.8912	-27.177998	0.000324	3.244779	1.099361	0.000130
1812	1.8019e+02	-7.8463	-27.125515	0.000132	1.318192	0.446615	0.000053
1813	1.8029e+02	-7.8110	-26.996327	0.000324	3.244779	1.099361	0.000130
1814	1.8039e+02	-7.7805	-26.935770	0.000152	1.520990	0.515325	0.000061
1815	1.8049e+02	-7.7292	-26.806581	0.000324	3.244779	1.099361	0.000130
1816	1.8059e+02	-7.6875	-26.737950	0.000172	1.723789	0.584036	0.000069
1817	1.8069e+02	-7.6538	-26.649133	0.000223	2.230786	0.755811	0.000089
1818	1.8079e+02	-7.6121	-26.548205	0.000253	2.534984	0.858876	0.000101
1819	1.8089e+02	-7.5704	-26.447276	0.000253	2.534984	0.858876	0.000101
1820	1.8099e+02	-7.5367	-26.334236	0.000284	2.839182	0.961941	0.000114
1821	1.8109e+02	-7.4966	-26.237345	0.000243	2.433585	0.824521	0.000097
1822	1.8119e+02	-7.4485	-26.144491	0.000233	2.332185	0.790166	0.000093
1823	1.8129e+02	-7.4083	-26.075860	0.000172	1.723789	0.584036	0.000069
1824	1.8139e+02	-7.3747	-25.958783	0.000294	2.940581	0.996296	0.000118
1825	1.8149e+02	-7.3313	-25.837669	0.000304	3.041981	1.030651	0.000122
1826	1.8159e+02	-7.2961	-25.736740	0.000253	2.534984	0.858876	0.000101
1827	1.8169e+02	-7.2447	-25.631775	0.000264	2.636383	0.893231	0.000105
1828	1.8179e+02	-7.2126	-25.551032	0.000203	2.027987	0.687101	0.000081
1829	1.8189e+02	-7.1757	-25.466252	0.000213	2.129387	0.721456	0.000085
1830	1.8199e+02	-7.1404	-25.373398	0.000233	2.332185	0.790166	0.000093
1831	1.8209e+02	-7.0891	-25.280544	0.000233	2.332185	0.790166	0.000093
1832	1.8218e+02	-7.0586	-25.143281	0.000345	3.447578	1.168071	0.000138
1833	1.8228e+02	-7.0137	-25.094836	0.000122	1.216792	0.412260	0.000049
1834	1.8238e+02	-6.9752	-24.945462	0.000375	3.751776	1.271136	0.000150
1835	1.8248e+02	-6.9271	-24.848570	0.000243	2.433585	0.824521	0.000097
1836	1.8258e+02	-6.8950	-24.763791	0.000213	2.129387	0.721456	0.000085
1837	1.8268e+02	-6.8565	-24.711308	0.000132	1.318192	0.446615	0.000053
1838	1.8278e+02	-6.8148	-24.586157	0.000314	3.143380	1.065006	0.000126
1839	1.8288e+02	-6.7715	-24.517525	0.000172	1.723789	0.584036	0.000069
1840	1.8298e+02	-6.7346	-24.372188	0.000365	3.650377	1.236781	0.000146
1841	1.8308e+02	-6.7009	-24.299520	0.000183	1.825188	0.618391	0.000073
1842	1.8318e+02	-6.6624	-24.178406	0.000304	3.041981	1.030651	0.000122
1843	1.8328e+02	-6.6175	-24.117849	0.000152	1.520990	0.515325	0.000061
1844	1.8338e+02	-6.5838	-24.012883	0.000264	2.636383	0.893231	0.000105
1845	1.8348e+02	-6.5324	-23.887732	0.000314	3.143380	1.065006	0.000126
1846	1.8358e+02	-6.5020	-23.798915	0.000223	2.230786	0.755811	0.000089
1847	1.8368e+02	-6.4506	-23.697987	0.000253	2.534984	0.858876	0.000101
1848	1.8378e+02	-6.4153	-23.572836	0.000314	3.143380	1.065006	0.000126
1849	1.8388e+02	-6.3865	-23.520353	0.000132	1.318192	0.446615	0.000053
1850	1.8398e+02	-6.3415	-23.403276	0.000294	2.940581	0.996296	0.000118
1851	1.8407e+02	-6.2934	-23.322533	0.000203	2.027987	0.687101	0.000081
1852	1.8417e+02	-6.2693	-23.217568	0.000264	2.636383	0.893231	0.000105
1853	1.8427e+02	-6.2180	-23.108565	0.000274	2.737783	0.927586	0.000110
1854	1.8437e+02	-6.1843	-22.995525	0.000284	2.839182	0.961941	0.000114
1855	1.8447e+02	-6.1346	-22.918820	0.000193	1.926588	0.652746	0.000077
1856	1.8457e+02	-6.1041	-22.817891	0.000253	2.534984	0.858876	0.000101
1857	1.8467e+02	-6.0656	-22.696777	0.000304	3.041981	1.030651	0.000122
1858	1.8477e+02	-6.0223	-22.607960	0.000223	2.230786	0.755811	0.000089
1859	1.8487e+02	-5.9806	-22.474735	0.000335	3.346179	1.133716	0.000134
1860	1.8497e+02	-5.9389	-22.389955	0.000213	2.129387	0.721456	0.000085
1861	1.8507e+02	-5.9052	-22.301138	0.000223	2.230786	0.755811	0.000089
1862	1.8517e+02	-5.8554	-22.180024	0.000304	3.041981	1.030651	0.000122
1863	1.8527e+02	-5.8169	-22.091207	0.000223	2.230786	0.755811	0.000089
1864	1.8537e+02	-5.7736	-21.974130	0.000294	2.940581	0.996296	0.000118
1865	1.8547e+02	-5.7351	-21.861090	0.000284	2.839182	0.961941	0.000114
1866	1.8557e+02	-5.6966	-21.731902	0.000324	3.244779	1.099361	0.000130
1867	1.8567e+02	-5.6469	-21.655196	0.000193	1.926588	0.652746	0.000077
1868	1.8577e+02	-5.6228	-21.550231	0.000264	2.636383	0.893231	0.000105
1869	1.8587e+02	-5.5908	-21.473525	0.000193	1.926588	0.652746	0.000077
1870	1.8597e+02	-5.5362	-21.328188	0.000365	3.650377	1.236781	0.000146
1871	1.8606e+02	-5.5057	-21.247445	0.000203	2.027987	0.687101	0.000081
1872	1.8616e+02	-5.4608	-21.118257	0.000324	3.244779	1.099361	0.000130
1873	1.8626e+02	-5.4319	-21.017329	0.000253	2.534984	0.858876	0.000101
1874	1.8636e+02	-5.3838	-20.884103	0.000335	3.346179	1.133716	0.000134
1875	1.8646e+02	-5.3437	-20.799323	0.000213	2.129387	0.721456	0.000085
1876	1.8656e+02	-5.3004	-20.674172	0.000314	3.143380	1.065006	0.000126
1877	1.8666e+02	-5.2651	-20.577281	0.000243	2.433585	0.824521	0.000097
1878	1.8676e+02	-5.2250	-20.456167	0.000304	3.041981	1.030651	0.000122
1879	1.8686e+02	-5.1961	-20.407721	0.000122	1.216792	0.412260	0.000049
1880	1.8696e+02	-5.1480	-20.254310	0.000385	3.853176	1.305491	0.000154
1881	1.8706e+02	-5.0999	-20.177604	0.000193	1.926588	0.652746	0.000077
1882	1.8716e+02	-5.0646	-20.096862	0.000203	2.027987	0.687101	0.000081
1883	1.8726e+02	-5.0245	-19.939413	0.000395	3.954575	1.339846	0.000158
1884	1.8736e+02	-4.9795	-19.826374	0.000284	2.839182	0.961941	0.000114
1885	1.8746e+02	-4.9410	-19.729482	0.000243	2.433585	0.824521	0.000097
1886	1.8756e+02	-4.9073	-19.652777	0.000193	1.926588	0.652746	0.000077
1887	1.8766e+02	-4.8576	-19.523588	0.000324	3.244779	1.099361	0.000130
1888	1.8776e+02	-4.8255	-19.438809	0.000213	2.129387	0.721456	0.000085
1889	1.8786e+02	-4.7870	-19.309620	0.000324	3.244779	1.099361	0.000130
1890	1.8796e+02	-4.7453	-19.228878	0.000203	2.027987	0.687101	0.000081
1891	1.8806e+02	-4.7116	-19.083541	0.000365	3.650377	1.236781	0.000146
1892	1.8815e+02	-4.6747	-18.978575	0.000264	2.636383	0.893231	0.000105
1893	1.8825e+02	-4.6298	-18.889758	0.000223	2.230786	0.755811	0.000089
1894	1.8835e+02	-4.5961	-18.760570	0.000324	3.244779	1.099361	0.000130
1895	1.8845e+02	-4.5528	-18.627344	0.000335	3.346179	1.133716	0.000134
1896	1.8855e+02	-4.5079	-18.558713	0.000172	1.723789	0.584036	0.000069
1897	1.8865e+02	-4.4678	-18.453747	0.000264	2.636383	0.893231	0.000105
1898	1.8875e+02	-4.4261	-18.316485	0.000345	3.447578	1.168071	0.000138
1899	1.8885e+02	-4.3860	-18.227668	0.000223	2.230786	0.755811	0.000089
1900	1.8895e+02	-4.3459	-18.090405	0.000345	3.447578	1.168071	0.000138
1901	1.8905e+02	-4.3074	-18.070220	0.000051	0.506997	0.171775	0.000020
1902	1.8915e+02	-4.2608	-17.888548	0.000456	4.562971	1.545976	0.000183
1903	1.8925e+02	-4.2223	-17.787620	0.000253	2.534984	0.858876	0.000101
1904	1.8935e+02	-4.1887	-17.682655	0.000264	2.636383	0.893231	0.000105
1905	1.8945e+02	-4.1485	-17.561540	0.000304	3.041981	1.030651	0.000122
1906	1.8955e+02	-4.1052	-17.464649	0.000243	2.433585	0.824521	0.000097
1907	1.8965e+02	-4.0715	-17.359684	0.000264	2.636383	0.893231	0.000105
1908	1.8975e+02	-4.0379	-17.254718	0.000264	2.636383	0.893231	0.000105
1909	1.8985e+02	-3.9881	-17.133604	0.000304	3.041981	1.030651	0.000122
1910	1.8995e+02	-3.9560	-17.020564	0.000284	2.839182	0.961941	0.000114
1911	1.9004e+02	-3.9127	-16.903487	0.000294	2.940581	0.996296	0.000118
1912	1.9014e+02	-3.8582	-16.762188	0.000355	3.548978	1.202426	0.000142
1913	1.9024e+02	-3.8357	-16.681445	0.000203	2.027987	0.687101	0.000081
1914	1.9034e+02	-3.7876	-16.588591	0.000233	2.332185	0.790166	0.000093
1915	1.9044e+02	-3.7443	-16.503811	0.000213	2.129387	0.721456	0.000085
1916	1.9054e+02	-3.7090	-16.358474	0.000365	3.650377	1.236781	0.000146
1917	1.9064e+02	-3.6689	-16.217174	0.000355	3.548978	1.202426	0.000142
1918	1.9074e+02	-3.6336	-16.144506	0.000183	1.825188	0.618391	0.000073
1919	1.9084e+02	-3.5903	-15.999169	0.000365	3.650377	1.236781	0.000146
1920	1.9094e+02	-3.5566	-15.926500	0.000183	1.825188	0.618391	0.000073
1921	1.9104e+02	-3.5149	-15.769052	0.000395	3.954575	1.339846	0.000158
1922	1.9114e+02	-3.4603	-15.619678	0.000375	3.751776	1.271136	0.000150
1923	1.9124e+02	-3.4363	-15.551047	0.000172	1.723789	0.584036	0.000069
1924	1.9134e+02	-3.3897	-15.433970	0.000294	2.940581	0.996296	0.000118
1925	1.9144e+02	-3.3512	-15.329004	0.000264	2.636383	0.893231	0.000105
1926	1.9154e+02	-3.3063	-15.207890	0.000304	3.041981	1.030651	0.000122
1927	1.9164e+02	-3.2646	-15.119073	0.000223	2.230786	0.755811	0.000089
1928	1.9174e+02	-3.2261	-14.989885	0.000324	3.244779	1.099361	0.000130
1929	1.9184e+02	-3.1908	-14.868771	0.000304	3.041981	1.030651	0.000122
1930	1.9194e+02	-3.1523	-14.755731	0.000284	2.839182	0.961941	0.000114
1931	1.9203e+02	-3.1154	-14.646728	0.000274	2.737783	0.927586	0.000110
1932	1.9213e+02	-3.0689	-14.525614	0.000304	3.041981	1.030651	0.000122
1933	1.9223e+02	-3.0304	-14.404500	0.000304	3.041981	1.030651	0.000122
1934	1.9233e+02	-2.9919	-14.319720	0.000213	2.129387	0.721456	0.000085
1935	1.9243e+02	-2.9534	-14.142086	0.000446	4.461572	1.511621	0.000179
1936	1.9253e+02	-2.9117	-14.077492	0.000162	1.622390	0.549681	0.000065
1937	1.9263e+02	-2.8716	-13.944267	0.000335	3.346179	1.133716	0.000134
1938	1.9273e+02	-2.8315	-13.819116	0.000314	3.143380	1.065006	0.000126
1939	1.9283e+02	-2.7946	-13.730299	0.000223	2.230786	0.755811	0.000089
1940	1.9293e+02	-2.7545	-13.597073	0.000335	3.346179	1.133716	0.000134
1941	1.9303e+02	-2.7176	-13.500182	0.000243	2.433585	0.824521	0.000097
1942	1.9313e+02	-2.6598	-13.383105	0.000294	2.940581	0.996296	0.000118
1943	1.9323e+02	-2.6277	-13.270065	0.000284	2.839182	0.961941	0.000114
1944	1.9333e+02	-2.5989	-13.136840	0.000335	3.346179	1.133716	0.000134
1945	1.9343e+02	-2.5588	-13.048023	0.000223	2.230786	0.755811	0.000089
1946	1.9353e+02	-2.5090	-12.955169	0.000233	2.332185	0.790166	0.000093
1947	1.9363e+02	-2.4785	-12.821943	0.000335	3.346179	1.133716	0.000134
1948	1.9373e+02	-2.4304	-12.704866	0.000294	2.940581	0.996296	0.000118
1949	1.9383e+02	-2.3967	-12.607975	0.000243	2.433585	0.824521	0.000097
1950	1.9393e+02	-2.3598	-12.462638	0.000365	3.650377	1.236781	0.000146
1951	1.9403e+02	-2.3181	-12.329413	0.000335	3.346179	1.133716	0.000134
1952	1.9412e+02	-2.2732	-12.232521	0.000243	2.433585	0.824521	0.000097
1953	1.9422e+02	-2.2315	-12.119481	0.000284	2.839182	0.961941	0.000114
1954	1.9432e+02	-2.1898	-12.038739	0.000203	2.027987	0.687101	0.000081
1955	1.9442e+02	-2.1481	-11.857068	0.000456	4.562971	1.545976	0.000183
1956	1.9452e+02	-2.1224	-11.739991	0.000294	2.940581	0.996296	0.000118
1957	1.9462e+02	-2.0791	-11.667322	0.000183	1.825188	0.618391	0.000073
1958	1.9472e+02	-2.0261	-11.542171	0.000314	3.143380	1.065006	0.000126
1959	1.9482e+02	-1.9925	-11.445280	0.000243	2.433585	0.824521	0.000097
1960	1.9492e+02	-1.9524	-11.324166	0.000304	3.041981	1.030651	0.000122
1961	1.9502e+02	-1.9171	-11.190940	0.000335	3.346179	1.133716	0.000134
1962	1.9512e+02	-1.8721	-11.094049	0.000243	2.433585	0.824521	0.000097
1963	1.9522e+02	-1.8497	-10.976972	0.000294	2.940581	0.996296	0.000118
1964	1.9532e+02	-1.7887	-10.819524	0.000395	3.954575	1.339846	0.000158
1965	1.9542e+02	-1.7470	-10.730707	0.000223	2.230786	0.755811	0.000089
1966	1.9552e+02	-1.7149	-10.585370	0.000365	3.650377	1.236781	0.000146
1967	1.9562e+02	-1.6652	-10.480404	0.000264	2.636383	0.893231	0.000105
1968	1.9572e+02	-1.6347	-10.335067	0.000365	3.650377	1.236781	0.000146
1969	1.9582e+02	-1.6090	-10.238176	0.000243	2.433585	0.824521	0.000097
1970	1.9592e+02	-1.5561	-10.133211	0.000264	2.636383	0.893231	0.000105
1971	1.9601e+02	-1.5192	-9.983837	0.000375	3.751776	1.271136	0.000150
1972	1.9611e+02	-1.4679	-9.919243	0.000162	1.622390	0.549681	0.000065
1973	1.9621e+02	-1.4390	-9.769868	0.000375	3.751776	1.271136	0.000150
1974	1.9631e+02	-1.3925	-9.632606	0.000345	3.447578	1.168071	0.000138
1975	1.9641e+02	-1.3556	-9.523603	0.000274	2.737783	0.927586	0.000110
1976	1.9651e+02	-1.3123	-9.398452	0.000314	3.143380	1.065006	0.000126
1977	1.9661e+02	-1.2738	-9.273301	0.000314	3.143380	1.065006	0.000126
1978	1.9671e+02	-1.2417	-9.144112	0.000324	3.244779	1.099361	0.000130
1979	1.9681e+02	-1.1984	-9.055295	0.000223	2.230786	0.755811	0.000089
1980	1.9691e+02	-1.1550	-8.926107	0.000324	3.244779	1.099361	0.000130
1981	1.9701e+02	-1.1182	-8.804993	0.000304	3.041981	1.030651	0.000122
1982	1.9711e+02	-1.0780	-8.671768	0.000335	3.346179	1.133716	0.000134
1983	1.9721e+02	-1.0315	-8.542579	0.000324	3.244779	1.099361	0.000130
1984	1.9731e+02	-0.9946	-8.397242	0.000365	3.650377	1.236781	0.000146
1985	1.9741e+02	-0.9577	-8.292277	0.000264	2.636383	0.893231	0.000105
1986	1.9751e+02	-0.9176	-8.150977	0.000355	3.548978	1.202426	0.000142
1987	1.9761e+02	-0.8807	-8.074271	0.000193	1.926588	0.652746	0.000077
1988	1.9771e+02	-0.8326	-7.945083	0.000324	3.244779	1.099361	0.000130
1989	1.9781e+02	-0.8053	-7.771486	0.000436	4.360172	1.477266	0.000174
1990	1.9791e+02	-0.7556	-7.642298	0.000324	3.244779	1.099361	0.000130
1991	1.9800e+02	-0.7123	-7.541370	0.000253	2.534984	0.858876	0.000101
1992	1.9810e+02	-0.6786	-7.440441	0.000253	2.534984	0.858876	0.000101
1993	1.9820e+02	-0.6401	-7.299141	0.000355	3.548978	1.202426	0.000142
1994	1.9830e+02	-0.6016	-7.218399	0.000203	2.027987	0.687101	0.000081
1995	1.9840e+02	-0.5486	-7.056913	0.000406	4.055974	1.374201	0.000162
1996	1.9850e+02	-0.5246	-6.915614	0.000355	3.548978	1.202426	0.000142
1997	1.9860e+02	-0.4829	-6.774314	0.000355	3.548978	1.202426	0.000142
1998	1.9870e+02	-0.4444	-6.653200	0.000304	3.041981	1.030651	0.000122
1999	1.9880e+02	-0.3978	-6.560346	0.000233	2.332185	0.790166	0.000093
2000	1.9890e+02	-0.3610	-6.402897	0.000395	3.954575	1.339846	0.000158
2001	1.9900e+02	-0.3225	-6.221226	0.000456	4.562971	1.545976	0.000183
2002	1.9910e+02	-0.2807	-6.128372	0.000233	2.332185	0.790166	0.000093
2003	1.9920e+02	-0.2422	-6.015332	0.000284	2.839182	0.961941	0.000114
2004	1.9930e+02	-0.2021	-5.886144	0.000324	3.244779	1.099361	0.000130
2005	1.9940e+02	-0.1588	-5.781178	0.000264	2.636383	0.893231	0.000105
2006	1.9950e+02	-0.1251	-5.651990	0.000324	3.244779	1.099361	0.000130
2007	1.9960e+02	-0.0754	-5.530876	0.000304	3.041981	1.030651	0.000122
2008	1.9970e+02	-0.0417	-5.373428	0.000395	3.954575	1.339846	0.000158
2009	1.9980e+02	-0.0016	-5.252314	0.000395	3.954575	1.339846	0.000122

Center data before PMax,+/-Pr and +/-Vc Calc.

PMax (uC/cm2):	5.14e+01
Pr (uC/cm2):	1.68e+00
-Pr (uC/cm2):	-5.25e+00
PLoss (uC/cm2):	-1.97e+00
Vc:	1.06e+00
-Vc:	-5.16e-01
C (Max-Eff) (nF):	2.57e-01
K (Eff):	8.71e+02
Vert. (+/-Pr) Shift (uC/cm2):	-1.79e+00
Horiz. Shift (+/-Vc):	2.74e-01
Offset (uC/cm2):	3.25e+00

A (Loop Area - uC/cm2·Volts):	3.67e-03



Hysteresis Version: 5.48.1 - Radiant Technologies, Inc., 1999 - 9/12/24

