»»»»»»»»»»»»»»»»»»»»»»»»»»»»»»»»»»»» Hysteresis ««««««««««««««««««««««««««««««««««««
»»»  Executed Version:	5.48.1
»»»  Vision Version:	5.48.4 (R)
»»»  Vision Compiled:	9/18/24
»»»  Driver Version:	5.47.0
»»»  Windows Version:	Windows 8 or 8.1
»»»  Processor Information:	x86 (AMD or Intel) - 32 Processors
»»»  Tester Name:	PMF21124-494 (100V)
»»»  Tester S/N:	PMF21124-494
»»»  Internal Amp Type:	100V RevK 270k
»»»  Internal Amp S/N:	iAB2-596/K     
»»»  Execution Count:	1
»»»»»»»»»»»»»»»»»»»»»»»»»»»»»»»»»»»»»»»»»»««««««««««««««««««««««««««««««««««««««««««

Stored:	6/6/2025 - 14:4:0
Configured:	06/06/25 01:57:07 PM
Executed:	06/06/25 02:02:39 PM

»»»»»»»»»»»»»»»»»»»»»»»»»»»»»»»»»»» Sample Info ««««««««««««««««««««««««««««««««««««
Sample Name:	
Lot Name:	
Wafer Name:	
Die Row/Column:	0/0
Capacitor Number:	0
Sample Area (cm2):	1.00e-04
Sample Thickness (microns):	3.00e-01

Amplifier:	Internal

»»»»»»»»»»»»»»»»»»»»»»»»»»»»»»»»»»» Tester Info «««««««««««««««««««««««««««««««««««
Tester Name:	PMF21124-494 (100V)
Tester Serial Number:	PMF21124-494
Return Signal Amp. Level:	1.9 [Index: 2]

»»»»»»»»»»»»»»»»»»»»»»»»»»»»»»»» Hysteresis Info ««««««««««««««««««««««««««««««««««
Task Name:	Hyst-501
Volts:	20.00
Field:	666.67 (kV/cm)
DCBias:	0.00
DCField:	0.00 (kV/cm)
Hysteresis Period (ms):	2.00e+02
Preset:	Enabled
Preset Delay (ms):	1.00e+03
Profile:	Standard Bipolar

»»»»»»»»»»»»»»»»»»»»»»»»»»»»»»»»»»»»»» Data «««««««««««««««««««««««««««««««««««««««
Points:	2009

Valid Data

Point	Time (ms)	Drive Voltage	Measured Polarization (uC/cm2)	Capacitance (uF)	Normalized Capacitance (uF/cm2)	Dielectric Constant	Instantaneous Current (mA)
   1	0.0000e+00	0.0064	-3.403143	0.000160	1.598556	0.541605	0.000064
   2	9.9500e-02	0.0353	-3.339191	0.000160	1.598556	0.541605	0.000064
   3	1.9900e-01	0.0818	-3.244280	0.000237	2.372379	0.803784	0.000095
   4	2.9850e-01	0.1123	-3.149369	0.000237	2.372379	0.803784	0.000095
   5	3.9800e-01	0.1492	-3.052829	0.000241	2.413106	0.817582	0.000097
   6	4.9750e-01	0.2037	-2.963213	0.000224	2.240014	0.758937	0.000090
   7	5.9700e-01	0.2246	-2.861378	0.000255	2.545471	0.862429	0.000102
   8	6.9650e-01	0.2711	-2.760764	0.000251	2.514925	0.852080	0.000101
   9	7.9600e-01	0.3208	-2.667483	0.000233	2.331651	0.789985	0.000094
  10	8.9550e-01	0.3674	-2.574609	0.000232	2.321469	0.786535	0.000093
  11	9.9500e-01	0.3786	-2.473180	0.000254	2.535289	0.858979	0.000102
  12	1.0945e+00	0.4428	-2.373381	0.000249	2.494561	0.845180	0.000100
  13	1.1940e+00	0.4925	-2.275212	0.000245	2.453834	0.831381	0.000099
  14	1.2935e+00	0.5166	-2.168895	0.000266	2.657471	0.900376	0.000107
  15	1.3930e+00	0.5679	-2.075614	0.000233	2.331651	0.789985	0.000094
  16	1.4925e+00	0.5839	-1.970112	0.000264	2.637108	0.893476	0.000106
  17	1.5920e+00	0.6433	-1.873165	0.000242	2.423288	0.821032	0.000097
  18	1.6915e+00	0.6674	-1.774995	0.000245	2.453834	0.831381	0.000099
  19	1.7910e+00	0.7010	-1.673160	0.000255	2.545471	0.862429	0.000102
  20	1.8905e+00	0.7572	-1.573768	0.000248	2.484379	0.841730	0.000100
  21	1.9900e+00	0.7748	-1.465822	0.000270	2.698199	0.914175	0.000108
  22	2.0895e+00	0.8390	-1.359913	0.000265	2.647289	0.896926	0.000106
  23	2.1890e+00	0.8567	-1.265410	0.000236	2.362197	0.800334	0.000095
  24	2.2885e+00	0.9272	-1.163981	0.000254	2.535289	0.858979	0.000102
  25	2.3880e+00	0.9481	-1.058887	0.000263	2.626926	0.890027	0.000106
  26	2.4875e+00	0.9850	-0.950534	0.000271	2.708381	0.917624	0.000109
  27	2.5870e+00	1.0331	-0.853586	0.000242	2.423288	0.821032	0.000097
  28	2.6865e+00	1.0476	-0.749307	0.000261	2.606562	0.883127	0.000105
  29	2.7860e+00	1.1101	-0.646656	0.000257	2.565834	0.869328	0.000103
  30	2.8855e+00	1.1486	-0.543191	0.000259	2.586198	0.876228	0.000104
  31	2.9850e+00	1.1871	-0.434838	0.000271	2.708381	0.917624	0.000109
  32	3.0845e+00	1.2128	-0.337076	0.000244	2.443652	0.827932	0.000098
  33	3.1840e+00	1.2689	-0.228723	0.000271	2.708381	0.917624	0.000109
  34	3.2835e+00	1.3123	-0.125258	0.000259	2.586198	0.876228	0.000104
  35	3.3830e+00	1.3636	-0.021793	0.000259	2.586198	0.876228	0.000104
  36	3.4825e+00	1.3828	0.079228	0.000253	2.525107	0.855529	0.000102
  37	3.5820e+00	1.4342	0.183915	0.000262	2.616744	0.886577	0.000105
  38	3.6815e+00	1.4759	0.287788	0.000260	2.596380	0.879677	0.000104
  39	3.7810e+00	1.5192	0.388401	0.000251	2.514925	0.852080	0.000101
  40	3.8805e+00	1.5433	0.493496	0.000263	2.626926	0.890027	0.000106
  41	3.9800e+00	1.5882	0.595738	0.000256	2.555652	0.865879	0.000103
  42	4.0795e+00	1.6556	0.703277	0.000269	2.688017	0.910725	0.000108
  43	4.1790e+00	1.6812	0.807557	0.000261	2.606562	0.883127	0.000105
  44	4.2785e+00	1.7101	0.915095	0.000269	2.688017	0.910725	0.000108
  45	4.3780e+00	1.7454	1.018967	0.000260	2.596380	0.879677	0.000104
  46	4.4775e+00	1.7791	1.119988	0.000253	2.525107	0.855529	0.000102
  47	4.5770e+00	1.8240	1.226712	0.000267	2.667653	0.903825	0.000107
  48	4.6765e+00	1.8545	1.331806	0.000263	2.626926	0.890027	0.000106
  49	4.7760e+00	1.8866	1.440567	0.000272	2.718563	0.921074	0.000109
  50	4.8755e+00	1.9315	1.541995	0.000254	2.535289	0.858979	0.000102
  51	4.9750e+00	1.9812	1.648312	0.000266	2.657471	0.900376	0.000107
  52	5.0745e+00	2.0342	1.753406	0.000263	2.626926	0.890027	0.000106
  53	5.1740e+00	2.0727	1.860537	0.000268	2.677835	0.907275	0.000108
  54	5.2735e+00	2.0951	1.969298	0.000272	2.718563	0.921074	0.000109
  55	5.3730e+00	2.1513	2.077651	0.000271	2.708381	0.917624	0.000109
  56	5.4725e+00	2.1978	2.185189	0.000269	2.688017	0.910725	0.000108
  57	5.5720e+00	2.2331	2.291506	0.000266	2.657471	0.900376	0.000107
  58	5.6715e+00	2.2748	2.398637	0.000268	2.677835	0.907275	0.000108
  59	5.7710e+00	2.3053	2.496399	0.000244	2.443652	0.827932	0.000098
  60	5.8705e+00	2.3438	2.612084	0.000289	2.891655	0.979719	0.000116
  61	5.9700e+00	2.3598	2.712290	0.000250	2.504743	0.848630	0.000101
  62	6.0695e+00	2.4352	2.826754	0.000286	2.861109	0.969370	0.000115
  63	6.1690e+00	2.4769	2.931441	0.000262	2.616744	0.886577	0.000105
  64	6.2685e+00	2.4882	3.046719	0.000288	2.881473	0.976269	0.000116
  65	6.3680e+00	2.5523	3.148554	0.000255	2.545471	0.862429	0.000102
  66	6.4675e+00	2.5812	3.261388	0.000282	2.820381	0.955571	0.000113
  67	6.5670e+00	2.6486	3.364853	0.000259	2.586198	0.876228	0.000104
  68	6.6665e+00	2.6598	3.471577	0.000267	2.667653	0.903825	0.000107
  69	6.7660e+00	2.7256	3.577079	0.000264	2.637108	0.893476	0.000106
  70	6.8655e+00	2.7464	3.691542	0.000286	2.861109	0.969370	0.000115
  71	6.9650e+00	2.7785	3.801117	0.000274	2.738926	0.927973	0.000110
  72	7.0645e+00	2.8218	3.903360	0.000256	2.555652	0.865879	0.000103
  73	7.1640e+00	2.8636	4.015787	0.000281	2.810200	0.952121	0.000113
  74	7.2635e+00	2.8988	4.128620	0.000282	2.820381	0.955571	0.000113
  75	7.3630e+00	2.9566	4.232900	0.000261	2.606562	0.883127	0.000105
  76	7.4625e+00	2.9935	4.345327	0.000281	2.810200	0.952121	0.000113
  77	7.5620e+00	3.0368	4.452865	0.000269	2.688017	0.910725	0.000108
  78	7.6615e+00	3.0705	4.570180	0.000293	2.932382	0.993518	0.000118
  79	7.7610e+00	3.0962	4.683014	0.000282	2.820381	0.955571	0.000113
  80	7.8605e+00	3.1507	4.794626	0.000279	2.789836	0.945222	0.000112
  81	7.9600e+00	3.1988	4.905423	0.000277	2.769472	0.938323	0.000111
  82	8.0595e+00	3.2454	5.014590	0.000273	2.728744	0.924524	0.000110
  83	8.1590e+00	3.2598	5.128239	0.000284	2.840745	0.962471	0.000114
  84	8.2585e+00	3.2983	5.232111	0.000260	2.596380	0.879677	0.000104
  85	8.3580e+00	3.3336	5.346575	0.000286	2.861109	0.969370	0.000115
  86	8.4575e+00	3.3817	5.456964	0.000276	2.759290	0.934873	0.000111
  87	8.5570e+00	3.4218	5.571020	0.000285	2.850927	0.965920	0.000115
  88	8.6565e+00	3.4619	5.682225	0.000278	2.779654	0.941772	0.000112
  89	8.7560e+00	3.4988	5.797503	0.000288	2.881473	0.976269	0.000116
  90	8.8555e+00	3.5582	5.907078	0.000274	2.738926	0.927973	0.000110
  91	8.9550e+00	3.5678	6.018690	0.000279	2.789836	0.945222	0.000112
  92	9.0545e+00	3.6272	6.129487	0.000277	2.769472	0.938323	0.000111
  93	9.1540e+00	3.6673	6.243950	0.000286	2.861109	0.969370	0.000115
  94	9.2535e+00	3.6962	6.353118	0.000273	2.728744	0.924524	0.000110
  95	9.3530e+00	3.7411	6.462286	0.000273	2.728744	0.924524	0.000110
  96	9.4525e+00	3.7732	6.571861	0.000274	2.738926	0.927973	0.000110
  97	9.5520e+00	3.8052	6.690805	0.000297	2.973110	1.007317	0.000120
  98	9.6515e+00	3.8678	6.793455	0.000257	2.565834	0.869328	0.000103
  99	9.7510e+00	3.8855	6.909548	0.000290	2.901836	0.983169	0.000117
 100	9.8505e+00	3.9496	7.021975	0.000281	2.810200	0.952121	0.000113
 101	9.9500e+00	3.9801	7.133994	0.000280	2.800018	0.948672	0.000113
 102	1.0050e+01	4.0154	7.246420	0.000281	2.810200	0.952121	0.000113
 103	1.0149e+01	4.0411	7.355588	0.000273	2.728744	0.924524	0.000110
 104	1.0248e+01	4.0972	7.464349	0.000272	2.718563	0.921074	0.000109
 105	1.0348e+01	4.1213	7.580441	0.000290	2.901836	0.983169	0.000117
 106	1.0447e+01	4.1887	7.687572	0.000268	2.677835	0.907275	0.000108
 107	1.0547e+01	4.2063	7.799184	0.000279	2.789836	0.945222	0.000112
 108	1.0646e+01	4.2592	7.913647	0.000286	2.861109	0.969370	0.000115
 109	1.0746e+01	4.2993	8.021186	0.000269	2.688017	0.910725	0.000108
 110	1.0845e+01	4.3282	8.135242	0.000285	2.850927	0.965920	0.000115
 111	1.0945e+01	4.3828	8.248483	0.000283	2.830563	0.959021	0.000114
 112	1.1044e+01	4.4197	8.356429	0.000270	2.698199	0.914175	0.000108
 113	1.1144e+01	4.4341	8.466411	0.000275	2.749108	0.931423	0.000111
 114	1.1243e+01	4.4967	8.577616	0.000278	2.779654	0.941772	0.000112
 115	1.1343e+01	4.5352	8.686784	0.000273	2.728744	0.924524	0.000110
 116	1.1443e+01	4.5833	8.798395	0.000279	2.789836	0.945222	0.000112
 117	1.1542e+01	4.6346	8.911229	0.000282	2.820381	0.955571	0.000113
 118	1.1642e+01	4.6715	9.021212	0.000275	2.749108	0.931423	0.000111
 119	1.1741e+01	4.7100	9.132009	0.000277	2.769472	0.938323	0.000111
 120	1.1841e+01	4.7405	9.246065	0.000285	2.850927	0.965920	0.000115
 121	1.1940e+01	4.7614	9.360121	0.000285	2.850927	0.965920	0.000115
 122	1.2040e+01	4.8111	9.470103	0.000275	2.749108	0.931423	0.000111
 123	1.2139e+01	4.8528	9.583752	0.000284	2.840745	0.962471	0.000114
 124	1.2239e+01	4.9073	9.694142	0.000276	2.759290	0.934873	0.000111
 125	1.2338e+01	4.9603	9.802087	0.000270	2.698199	0.914175	0.000108
 126	1.2438e+01	4.9876	9.915329	0.000283	2.830563	0.959021	0.000114
 127	1.2537e+01	5.0020	10.024497	0.000273	2.728744	0.924524	0.000110
 128	1.2636e+01	5.0710	10.140182	0.000289	2.891655	0.979719	0.000116
 129	1.2736e+01	5.1095	10.248535	0.000271	2.708381	0.917624	0.000109
 130	1.2835e+01	5.1496	10.357703	0.000273	2.728744	0.924524	0.000110
 131	1.2935e+01	5.1720	10.472573	0.000287	2.871291	0.972820	0.000115
 132	1.3034e+01	5.2105	10.582148	0.000274	2.738926	0.927973	0.000110
 133	1.3134e+01	5.2571	10.696612	0.000286	2.861109	0.969370	0.000115
 134	1.3233e+01	5.3004	10.800484	0.000260	2.596380	0.879677	0.000104
 135	1.3333e+01	5.3485	10.912911	0.000281	2.810200	0.952121	0.000113
 136	1.3432e+01	5.3678	11.023708	0.000277	2.769472	0.938323	0.000111
 137	1.3532e+01	5.4271	11.133690	0.000275	2.749108	0.931423	0.000111
 138	1.3632e+01	5.4512	11.239599	0.000265	2.647289	0.896926	0.000106
 139	1.3731e+01	5.4977	11.352841	0.000283	2.830563	0.959021	0.000114
 140	1.3831e+01	5.5426	11.463230	0.000276	2.759290	0.934873	0.000111
 141	1.3930e+01	5.6020	11.574435	0.000278	2.779654	0.941772	0.000112
 142	1.4030e+01	5.6132	11.676271	0.000255	2.545471	0.862429	0.000102
 143	1.4129e+01	5.6517	11.791956	0.000289	2.891655	0.979719	0.000116
 144	1.4229e+01	5.6966	11.897050	0.000263	2.626926	0.890027	0.000106
 145	1.4328e+01	5.7030	12.009884	0.000282	2.820381	0.955571	0.000113
 146	1.4428e+01	5.7817	12.112942	0.000258	2.576016	0.872778	0.000104
 147	1.4527e+01	5.7945	12.218036	0.000263	2.626926	0.890027	0.000106
 148	1.4627e+01	5.8378	12.326797	0.000272	2.718563	0.921074	0.000109
 149	1.4726e+01	5.8972	12.440038	0.000283	2.830563	0.959021	0.000114
 150	1.4825e+01	5.9308	12.545947	0.000265	2.647289	0.896926	0.000106
 151	1.4925e+01	5.9870	12.652671	0.000267	2.667653	0.903825	0.000107
 152	1.5024e+01	6.0175	12.758172	0.000264	2.637108	0.893476	0.000106
 153	1.5124e+01	6.0512	12.869377	0.000278	2.779654	0.941772	0.000112
 154	1.5223e+01	6.0961	12.973249	0.000260	2.596380	0.879677	0.000104
 155	1.5323e+01	6.1282	13.083639	0.000276	2.759290	0.934873	0.000111
 156	1.5422e+01	6.1651	13.180587	0.000242	2.423288	0.821032	0.000097
 157	1.5522e+01	6.2148	13.291384	0.000277	2.769472	0.938323	0.000111
 158	1.5621e+01	6.2437	13.398922	0.000269	2.688017	0.910725	0.000108
 159	1.5721e+01	6.2838	13.498721	0.000249	2.494561	0.845180	0.000100
 160	1.5820e+01	6.3175	13.607889	0.000273	2.728744	0.924524	0.000110
 161	1.5920e+01	6.3656	13.711354	0.000259	2.586198	0.876228	0.000104
 162	1.6020e+01	6.4185	13.815226	0.000260	2.596380	0.879677	0.000104
 163	1.6119e+01	6.4554	13.916655	0.000254	2.535289	0.858979	0.000102
 164	1.6218e+01	6.4907	14.012380	0.000239	2.392742	0.810683	0.000096
 165	1.6318e+01	6.5324	14.111772	0.000248	2.484379	0.841730	0.000100
 166	1.6418e+01	6.5629	14.220125	0.000271	2.708381	0.917624	0.000109
 167	1.6517e+01	6.6143	14.320331	0.000250	2.504743	0.848630	0.000101
 168	1.6616e+01	6.6624	14.419315	0.000247	2.474197	0.838281	0.000099
 169	1.6716e+01	6.6640	14.521151	0.000255	2.545471	0.862429	0.000102
 170	1.6816e+01	6.7265	14.623394	0.000256	2.555652	0.865879	0.000103
 171	1.6915e+01	6.7634	14.724415	0.000253	2.525107	0.855529	0.000102
 172	1.7015e+01	6.8052	14.827473	0.000258	2.576016	0.872778	0.000104
 173	1.7114e+01	6.8260	14.926049	0.000246	2.464016	0.834831	0.000099
 174	1.7213e+01	6.8934	15.023812	0.000244	2.443652	0.827932	0.000098
 175	1.7313e+01	6.9142	15.122796	0.000247	2.474197	0.838281	0.000099
 176	1.7413e+01	6.9736	15.225854	0.000258	2.576016	0.872778	0.000104
 177	1.7512e+01	7.0057	15.328097	0.000256	2.555652	0.865879	0.000103
 178	1.7611e+01	7.0554	15.425451	0.000243	2.433470	0.824482	0.000098
 179	1.7711e+01	7.0859	15.526880	0.000254	2.535289	0.858979	0.000102
 180	1.7811e+01	7.1308	15.623420	0.000241	2.413106	0.817582	0.000097
 181	1.7910e+01	7.1757	15.722811	0.000248	2.484379	0.841730	0.000100
 182	1.8009e+01	7.1998	15.821796	0.000247	2.474197	0.838281	0.000099
 183	1.8109e+01	7.2223	15.924446	0.000257	2.565834	0.869328	0.000103
 184	1.8209e+01	7.2784	16.022208	0.000244	2.443652	0.827932	0.000098
 185	1.8308e+01	7.3490	16.126488	0.000261	2.606562	0.883127	0.000105
 186	1.8407e+01	7.3538	16.220177	0.000234	2.341833	0.793434	0.000094
 187	1.8507e+01	7.4019	16.322012	0.000255	2.545471	0.862429	0.000102
 188	1.8607e+01	7.4902	16.416923	0.000237	2.372379	0.803784	0.000095
 189	1.8706e+01	7.4950	16.519574	0.000257	2.565834	0.869328	0.000103
 190	1.8805e+01	7.5110	16.613262	0.000234	2.341833	0.793434	0.000094
 191	1.8905e+01	7.5688	16.713876	0.000251	2.514925	0.852080	0.000101
 192	1.9005e+01	7.6009	16.802677	0.000222	2.219650	0.752038	0.000089
 193	1.9104e+01	7.6378	16.908993	0.000266	2.657471	0.900376	0.000107
 194	1.9203e+01	7.6763	17.007977	0.000247	2.474197	0.838281	0.000099
 195	1.9303e+01	7.7196	17.105332	0.000243	2.433470	0.824482	0.000098
 196	1.9402e+01	7.7581	17.199836	0.000236	2.362197	0.800334	0.000095
 197	1.9502e+01	7.8126	17.301264	0.000254	2.535289	0.858979	0.000102
 198	1.9602e+01	7.8591	17.390472	0.000223	2.229832	0.755488	0.000090
 199	1.9701e+01	7.8896	17.491493	0.000253	2.525107	0.855529	0.000102
 200	1.9800e+01	7.9297	17.584367	0.000232	2.321469	0.786535	0.000093
 201	1.9900e+01	7.9618	17.681314	0.000242	2.423288	0.821032	0.000097
 202	2.0000e+01	8.0067	17.779891	0.000246	2.464016	0.834831	0.000099
 203	2.0099e+01	8.0372	17.872765	0.000232	2.321469	0.786535	0.000093
 204	2.0198e+01	8.0709	17.961973	0.000223	2.229832	0.755488	0.000090
 205	2.0298e+01	8.1174	18.058514	0.000241	2.413106	0.817582	0.000097
 206	2.0398e+01	8.1848	18.150573	0.000230	2.301105	0.779636	0.000093
 207	2.0497e+01	8.2024	18.246299	0.000239	2.392742	0.810683	0.000096
 208	2.0596e+01	8.2377	18.337136	0.000227	2.270560	0.769286	0.000091
 209	2.0696e+01	8.2794	18.432861	0.000239	2.392742	0.810683	0.000096
 210	2.0796e+01	8.3420	18.530216	0.000243	2.433470	0.824482	0.000098
 211	2.0895e+01	8.3645	18.625127	0.000237	2.372379	0.803784	0.000095
 212	2.0994e+01	8.4046	18.720853	0.000239	2.392742	0.810683	0.000096
 213	2.1094e+01	8.4254	18.814541	0.000234	2.341833	0.793434	0.000094
 214	2.1194e+01	8.4896	18.905379	0.000227	2.270560	0.769286	0.000091
 215	2.1293e+01	8.5297	18.997846	0.000231	2.311287	0.783085	0.000093
 216	2.1392e+01	8.5714	19.093164	0.000238	2.382560	0.807233	0.000096
 217	2.1492e+01	8.5859	19.184001	0.000227	2.270560	0.769286	0.000091
 218	2.1591e+01	8.6548	19.276468	0.000231	2.311287	0.783085	0.000093
 219	2.1691e+01	8.6821	19.370971	0.000236	2.362197	0.800334	0.000095
 220	2.1791e+01	8.7158	19.466290	0.000238	2.382560	0.807233	0.000096
 221	2.1890e+01	8.7591	19.559164	0.000232	2.321469	0.786535	0.000093
 222	2.1989e+01	8.7896	19.654889	0.000239	2.392742	0.810683	0.000096
 223	2.2089e+01	8.8249	19.742875	0.000220	2.199287	0.745138	0.000088
 224	2.2189e+01	8.8907	19.836971	0.000235	2.352015	0.796884	0.000095
 225	2.2288e+01	8.9195	19.927401	0.000226	2.260378	0.765837	0.000091
 226	2.2387e+01	8.9757	20.023941	0.000241	2.413106	0.817582	0.000097
 227	2.2487e+01	9.0110	20.111520	0.000219	2.189105	0.741689	0.000088
 228	2.2587e+01	9.0318	20.213356	0.000255	2.545471	0.862429	0.000102
 229	2.2686e+01	9.0944	20.298898	0.000214	2.138195	0.724440	0.000086
 230	2.2785e+01	9.1265	20.394216	0.000238	2.382560	0.807233	0.000096
 231	2.2885e+01	9.1794	20.488312	0.000235	2.352015	0.796884	0.000095
 232	2.2985e+01	9.2051	20.581593	0.000233	2.331651	0.789985	0.000094
 233	2.3084e+01	9.2372	20.672838	0.000228	2.280742	0.772736	0.000092
 234	2.3183e+01	9.2821	20.768564	0.000239	2.392742	0.810683	0.000096
 235	2.3283e+01	9.3094	20.860623	0.000230	2.301105	0.779636	0.000093
 236	2.3383e+01	9.3735	20.952682	0.000230	2.301105	0.779636	0.000093
 237	2.3482e+01	9.4136	21.046779	0.000235	2.352015	0.796884	0.000095
 238	2.3581e+01	9.4634	21.137616	0.000227	2.270560	0.769286	0.000091
 239	2.3681e+01	9.4906	21.230897	0.000233	2.331651	0.789985	0.000094
 240	2.3780e+01	9.5163	21.323772	0.000232	2.321469	0.786535	0.000093
 241	2.3880e+01	9.5580	21.417868	0.000235	2.352015	0.796884	0.000095
 242	2.3980e+01	9.5917	21.510742	0.000232	2.321469	0.786535	0.000093
 243	2.4079e+01	9.6350	21.605653	0.000237	2.372379	0.803784	0.000095
 244	2.4178e+01	9.6559	21.697712	0.000230	2.301105	0.779636	0.000093
 245	2.4278e+01	9.7297	21.796289	0.000246	2.464016	0.834831	0.000099
 246	2.4378e+01	9.7762	21.887534	0.000228	2.280742	0.772736	0.000092
 247	2.4477e+01	9.7890	21.986111	0.000246	2.464016	0.834831	0.000099
 248	2.4576e+01	9.8548	22.074911	0.000222	2.219650	0.752038	0.000089
 249	2.4676e+01	9.8757	22.171859	0.000242	2.423288	0.821032	0.000097
 250	2.4776e+01	9.9190	22.266770	0.000237	2.372379	0.803784	0.000095
 251	2.4875e+01	9.9623	22.364939	0.000245	2.453834	0.831381	0.000099
 252	2.4974e+01	10.0168	22.454962	0.000225	2.250196	0.762387	0.000090
 253	2.5074e+01	10.0136	22.552724	-0.000244	-2.443652	-0.827932	0.000098
 254	2.5174e+01	10.0682	22.643154	0.000226	2.260378	0.765837	0.000091
 255	2.5273e+01	10.1275	22.744175	0.000253	2.525107	0.855529	0.000102
 256	2.5372e+01	10.1404	22.836642	0.000231	2.311287	0.783085	0.000093
 257	2.5472e+01	10.1789	22.932367	0.000239	2.392742	0.810683	0.000096
 258	2.5572e+01	10.2334	23.022797	0.000226	2.260378	0.765837	0.000091
 259	2.5671e+01	10.2895	23.125448	0.000257	2.565834	0.869328	0.000103
 260	2.5770e+01	10.3120	23.219544	0.000235	2.352015	0.796884	0.000095
 261	2.5870e+01	10.3569	23.310789	0.000228	2.280742	0.772736	0.000092
 262	2.5970e+01	10.3970	23.406107	0.000238	2.382560	0.807233	0.000096
 263	2.6069e+01	10.4436	23.501017	0.000237	2.372379	0.803784	0.000095
 264	2.6169e+01	10.4660	23.597965	0.000242	2.423288	0.821032	0.000097
 265	2.6268e+01	10.5350	23.692468	0.000236	2.362197	0.800334	0.000095
 266	2.6367e+01	10.5510	23.784121	0.000229	2.290924	0.776186	0.000092
 267	2.6467e+01	10.5767	23.880253	0.000240	2.402924	0.814133	0.000097
 268	2.6567e+01	10.6313	23.974757	0.000236	2.362197	0.800334	0.000095
 269	2.6666e+01	10.6617	24.072519	0.000244	2.443652	0.827932	0.000098
 270	2.6765e+01	10.7323	24.165801	0.000233	2.331651	0.789985	0.000094
 271	2.6865e+01	10.7435	24.258675	0.000232	2.321469	0.786535	0.000093
 272	2.6965e+01	10.7933	24.353993	0.000238	2.382560	0.807233	0.000096
 273	2.7064e+01	10.8382	24.447274	0.000233	2.331651	0.789985	0.000094
 274	2.7163e+01	10.8863	24.540556	0.000233	2.331651	0.789985	0.000094
 275	2.7263e+01	10.9120	24.632615	0.000230	2.301105	0.779636	0.000093
 276	2.7363e+01	10.9473	24.729155	0.000241	2.413106	0.817582	0.000097
 277	2.7462e+01	10.9970	24.822029	0.000232	2.321469	0.786535	0.000093
 278	2.7561e+01	11.0179	24.917348	0.000238	2.382560	0.807233	0.000096
 279	2.7661e+01	11.0660	25.014295	0.000242	2.423288	0.821032	0.000097
 280	2.7761e+01	11.1334	25.109206	0.000237	2.372379	0.803784	0.000095
 281	2.7860e+01	11.1318	25.203302	-0.000235	-2.352015	-0.796884	0.000095
 282	2.7959e+01	11.1735	25.299842	0.000241	2.413106	0.817582	0.000097
 283	2.8059e+01	11.2377	25.391087	0.000228	2.280742	0.772736	0.000092
 284	2.8159e+01	11.2729	25.488034	0.000242	2.423288	0.821032	0.000097
 285	2.8258e+01	11.3147	25.582945	0.000237	2.372379	0.803784	0.000095
 286	2.8358e+01	11.3403	25.679078	0.000240	2.402924	0.814133	0.000097
 287	2.8457e+01	11.3997	25.771545	0.000231	2.311287	0.783085	0.000093
 288	2.8556e+01	11.4350	25.864826	0.000233	2.331651	0.789985	0.000094
 289	2.8656e+01	11.4671	25.960959	0.000240	2.402924	0.814133	0.000097
 290	2.8756e+01	11.5120	26.056277	0.000238	2.382560	0.807233	0.000096
 291	2.8855e+01	11.5457	26.156076	0.000249	2.494561	0.845180	0.000100
 292	2.8954e+01	11.5906	26.250172	0.000235	2.352015	0.796884	0.000095
 293	2.9054e+01	11.6307	26.345898	0.000239	2.392742	0.810683	0.000096
 294	2.9154e+01	11.6740	26.439179	0.000233	2.331651	0.789985	0.000094
 295	2.9253e+01	11.7398	26.539793	0.000251	2.514925	0.852080	0.000101
 296	2.9352e+01	11.7510	26.629408	0.000224	2.240014	0.758937	0.000090
 297	2.9452e+01	11.7799	26.725948	0.000241	2.413106	0.817582	0.000097
 298	2.9552e+01	11.8376	26.815971	0.000225	2.250196	0.762387	0.000090
 299	2.9651e+01	11.8633	26.914955	0.000247	2.474197	0.838281	0.000099
 300	2.9750e+01	11.9082	27.007015	0.000230	2.301105	0.779636	0.000093
 301	2.9850e+01	11.9580	27.101926	0.000237	2.372379	0.803784	0.000095
 302	2.9950e+01	12.0125	27.198058	0.000240	2.402924	0.814133	0.000097
 303	3.0049e+01	12.0398	27.290118	0.000230	2.301105	0.779636	0.000093
 304	3.0148e+01	12.0783	27.380955	0.000227	2.270560	0.769286	0.000091
 305	3.0248e+01	12.0927	27.473422	0.000231	2.311287	0.783085	0.000093
 306	3.0348e+01	12.1601	27.571184	0.000244	2.443652	0.827932	0.000098
 307	3.0447e+01	12.1874	27.668132	0.000242	2.423288	0.821032	0.000097
 308	3.0547e+01	12.2194	27.757340	0.000223	2.229832	0.755488	0.000090
 309	3.0646e+01	12.2515	27.852658	0.000238	2.382560	0.807233	0.000096
 310	3.0745e+01	12.3045	27.943495	0.000227	2.270560	0.769286	0.000091
 311	3.0845e+01	12.3542	28.037591	0.000235	2.352015	0.796884	0.000095
 312	3.0945e+01	12.4103	28.131280	0.000234	2.341833	0.793434	0.000094
 313	3.1044e+01	12.4392	28.224969	0.000234	2.341833	0.793434	0.000094
 314	3.1143e+01	12.4424	28.314584	0.000224	2.240014	0.758937	0.000090
 315	3.1243e+01	12.5130	28.407866	0.000233	2.331651	0.789985	0.000094
 316	3.1343e+01	12.5515	28.501147	0.000233	2.331651	0.789985	0.000094
 317	3.1442e+01	12.5932	28.591577	0.000226	2.260378	0.765837	0.000091
 318	3.1541e+01	12.6381	28.683637	0.000230	2.301105	0.779636	0.000093
 319	3.1641e+01	12.6638	28.776511	0.000232	2.321469	0.786535	0.000093
 320	3.1741e+01	12.7200	28.870607	0.000235	2.352015	0.796884	0.000095
 321	3.1840e+01	12.7392	28.960630	0.000225	2.250196	0.762387	0.000090
 322	3.1939e+01	12.8258	29.056763	0.000240	2.402924	0.814133	0.000097
 323	3.2039e+01	12.8258	29.141897	-0.000213	-2.128013	-0.720990	0.000086
 324	3.2139e+01	12.8595	29.231513	0.000224	2.240014	0.758937	0.000090
 325	3.2238e+01	12.9109	29.323165	0.000229	2.290924	0.776186	0.000092
 326	3.2337e+01	12.9462	29.409114	0.000215	2.148377	0.727890	0.000086
 327	3.2437e+01	12.9975	29.493841	0.000212	2.117832	0.717541	0.000085
 328	3.2536e+01	13.0232	29.586715	0.000232	2.321469	0.786535	0.000093
 329	3.2636e+01	13.0536	29.674701	0.000220	2.199287	0.745138	0.000088
 330	3.2736e+01	13.1002	29.760243	0.000214	2.138195	0.724440	0.000086
 331	3.2835e+01	13.1339	29.844156	0.000210	2.097468	0.710641	0.000084
 332	3.2934e+01	13.1740	29.932549	0.000221	2.209468	0.748588	0.000089
 333	3.3034e+01	13.2269	30.024201	0.000229	2.290924	0.776186	0.000092
 334	3.3133e+01	13.2542	30.110150	0.000215	2.148377	0.727890	0.000086
 335	3.3233e+01	13.2975	30.197729	0.000219	2.189105	0.741689	0.000088
 336	3.3333e+01	13.3376	30.284493	0.000217	2.168741	0.734789	0.000087
 337	3.3432e+01	13.3713	30.374516	0.000225	2.250196	0.762387	0.000090
 338	3.3532e+01	13.4146	30.455984	0.000204	2.036376	0.689943	0.000082
 339	3.3631e+01	13.4547	30.542341	0.000216	2.158559	0.731340	0.000087
 340	3.3730e+01	13.4900	30.627883	0.000214	2.138195	0.724440	0.000086
 341	3.3830e+01	13.5397	30.717498	0.000224	2.240014	0.758937	0.000090
 342	3.3929e+01	13.5798	30.798152	0.000202	2.016013	0.683044	0.000081
 343	3.4029e+01	13.6167	30.888582	0.000226	2.260378	0.765837	0.000091
 344	3.4129e+01	13.6584	30.971680	0.000208	2.077104	0.703742	0.000084
 345	3.4228e+01	13.7098	31.055592	0.000210	2.097468	0.710641	0.000084
 346	3.4328e+01	13.7579	31.139098	0.000209	2.087286	0.707192	0.000084
 347	3.4427e+01	13.7900	31.228306	0.000223	2.229832	0.755488	0.000090
 348	3.4526e+01	13.8140	31.312626	0.000211	2.107650	0.714091	0.000085
 349	3.4626e+01	13.8509	31.399797	0.000218	2.178923	0.738239	0.000088
 350	3.4725e+01	13.8975	31.483709	0.000210	2.097468	0.710641	0.000084
 351	3.4825e+01	13.9456	31.567622	0.000210	2.097468	0.710641	0.000084
 352	3.4925e+01	13.9761	31.653571	0.000215	2.148377	0.727890	0.000086
 353	3.5024e+01	14.0322	31.741150	0.000219	2.189105	0.741689	0.000088
 354	3.5123e+01	14.0595	31.819360	0.000195	1.954921	0.662345	0.000079
 355	3.5223e+01	14.0996	31.905309	0.000215	2.148377	0.727890	0.000086
 356	3.5322e+01	14.1349	31.990444	0.000213	2.128013	0.720990	0.000086
 357	3.5422e+01	14.1670	32.075986	0.000214	2.138195	0.724440	0.000086
 358	3.5522e+01	14.2167	32.153381	0.000193	1.934558	0.655446	0.000078
 359	3.5621e+01	14.2568	32.237701	0.000211	2.107650	0.714091	0.000085
 360	3.5721e+01	14.2841	32.323650	0.000215	2.148377	0.727890	0.000086
 361	3.5820e+01	14.3290	32.409599	0.000215	2.148377	0.727890	0.000086
 362	3.5919e+01	14.3755	32.493104	0.000209	2.087286	0.707192	0.000084
 363	3.6019e+01	14.3980	32.573351	0.000201	2.005831	0.679594	0.000081
 364	3.6118e+01	14.4638	32.657263	0.000210	2.097468	0.710641	0.000084
 365	3.6218e+01	14.4862	32.738325	0.000203	2.026195	0.686493	0.000081
 366	3.6318e+01	14.5408	32.825088	0.000217	2.168741	0.734789	0.000087
 367	3.6417e+01	14.5793	32.899632	0.000186	1.863284	0.631298	0.000075
 368	3.6517e+01	14.6354	32.984359	0.000212	2.117832	0.717541	0.000085
 369	3.6616e+01	14.6723	33.066643	0.000206	2.056740	0.696842	0.000083
 370	3.6715e+01	14.7092	33.152185	0.000214	2.138195	0.724440	0.000086
 371	3.6815e+01	14.6948	33.232024	-0.000200	-1.995649	-0.676144	0.000080
 372	3.6914e+01	14.7830	33.310641	0.000197	1.965103	0.665795	0.000079
 373	3.7014e+01	14.8183	33.388443	0.000194	1.944740	0.658896	0.000078
 374	3.7114e+01	14.8600	33.472763	0.000211	2.107650	0.714091	0.000085
 375	3.7213e+01	14.8889	33.550158	0.000193	1.934558	0.655446	0.000078
 376	3.7313e+01	14.9290	33.629590	0.000199	1.985467	0.672694	0.000080
 377	3.7412e+01	14.9547	33.708207	0.000197	1.965103	0.665795	0.000079
 378	3.7511e+01	15.0188	33.795378	0.000218	2.178923	0.738239	0.000088
 379	3.7611e+01	15.0654	33.867885	0.000181	1.812375	0.614049	0.000073
 380	3.7711e+01	15.1022	33.950169	0.000206	2.056740	0.696842	0.000083
 381	3.7810e+01	15.1295	34.029600	0.000199	1.985467	0.672694	0.000080
 382	3.7910e+01	15.1648	34.109440	0.000200	1.995649	0.676144	0.000080
 383	3.8009e+01	15.2306	34.191723	0.000206	2.056740	0.696842	0.000083
 384	3.8108e+01	15.2627	34.267896	0.000190	1.904012	0.645097	0.000077
 385	3.8208e+01	15.2803	34.344476	0.000191	1.914194	0.648546	0.000077
 386	3.8307e+01	15.3365	34.430833	0.000216	2.158559	0.731340	0.000087
 387	3.8407e+01	15.3782	34.510265	0.000199	1.985467	0.672694	0.000080
 388	3.8507e+01	15.4456	34.591733	0.000204	2.036376	0.689943	0.000082
 389	3.8606e+01	15.4504	34.667906	0.000190	1.904012	0.645097	0.000077
 390	3.8706e+01	15.5001	34.748153	0.000201	2.005831	0.679594	0.000081
 391	3.8805e+01	15.5210	34.831251	0.000208	2.077104	0.703742	0.000084
 392	3.8904e+01	15.5659	34.906609	0.000188	1.883648	0.638197	0.000076
 393	3.9004e+01	15.6108	34.984004	0.000193	1.934558	0.655446	0.000078
 394	3.9103e+01	15.6413	35.063436	0.000199	1.985467	0.672694	0.000080
 395	3.9203e+01	15.6878	35.143275	0.000200	1.995649	0.676144	0.000080
 396	3.9303e+01	15.7183	35.224336	0.000203	2.026195	0.686493	0.000081
 397	3.9402e+01	15.7857	35.307434	0.000208	2.077104	0.703742	0.000084
 398	3.9502e+01	15.8113	35.380756	0.000183	1.832739	0.620949	0.000074
 399	3.9601e+01	15.8482	35.466705	0.000215	2.148377	0.727890	0.000086
 400	3.9700e+01	15.8979	35.542471	0.000189	1.893830	0.641647	0.000076
 401	3.9800e+01	15.9621	35.624347	0.000205	2.046558	0.693393	0.000082
 402	3.9900e+01	15.9782	35.696039	0.000179	1.792011	0.607150	0.000072
 403	3.9999e+01	15.9990	35.782395	0.000216	2.158559	0.731340	0.000087
 404	4.0099e+01	16.0487	35.860605	0.000195	1.954921	0.662345	0.000079
 405	4.0198e+01	16.1049	35.942481	0.000205	2.046558	0.693393	0.000082
 406	4.0297e+01	16.1241	36.013766	0.000178	1.781829	0.603700	0.000072
 407	4.0397e+01	16.1867	36.095235	0.000204	2.036376	0.689943	0.000082
 408	4.0496e+01	16.2028	36.180369	0.000213	2.128013	0.720990	0.000086
 409	4.0596e+01	16.2717	36.256135	0.000189	1.893830	0.641647	0.000076
 410	4.0696e+01	16.2974	36.338825	0.000207	2.066922	0.700292	0.000083
 411	4.0795e+01	16.3439	36.422738	0.000210	2.097468	0.710641	0.000084
 412	4.0895e+01	16.3776	36.500133	0.000193	1.934558	0.655446	0.000078
 413	4.0994e+01	16.4177	36.582824	0.000207	2.066922	0.700292	0.000083
 414	4.1093e+01	16.4434	36.666736	0.000210	2.097468	0.710641	0.000084
 415	4.1193e+01	16.4947	36.746575	0.000200	1.995649	0.676144	0.000080
 416	4.1292e+01	16.5268	36.829673	0.000208	2.077104	0.703742	0.000084
 417	4.1392e+01	16.5685	36.914808	0.000213	2.128013	0.720990	0.000086
 418	4.1492e+01	16.6022	36.993832	0.000198	1.975285	0.669245	0.000079
 419	4.1591e+01	16.6519	37.078967	0.000213	2.128013	0.720990	0.000086
 420	4.1691e+01	16.6808	37.156362	0.000193	1.934558	0.655446	0.000078
 421	4.1790e+01	16.7370	37.237830	0.000204	2.036376	0.689943	0.000082
 422	4.1889e+01	16.7819	37.322150	0.000211	2.107650	0.714091	0.000085
 423	4.1989e+01	16.8075	37.406878	0.000212	2.117832	0.717541	0.000085
 424	4.2089e+01	16.8653	37.488346	0.000204	2.036376	0.689943	0.000082
 425	4.2188e+01	16.8717	37.570222	0.000205	2.046558	0.693393	0.000082
 426	4.2288e+01	16.9375	37.653727	0.000209	2.087286	0.707192	0.000084
 427	4.2387e+01	16.9840	37.737640	0.000210	2.097468	0.710641	0.000084
 428	4.2486e+01	16.9872	37.816664	0.000198	1.975285	0.669245	0.000079
 429	4.2586e+01	17.0514	37.894467	0.000194	1.944740	0.658896	0.000078
 430	4.2685e+01	17.0915	37.980823	0.000216	2.158559	0.731340	0.000087
 431	4.2785e+01	17.1332	38.066772	0.000215	2.148377	0.727890	0.000086
 432	4.2885e+01	17.1845	38.146204	0.000199	1.985467	0.672694	0.000080
 433	4.2984e+01	17.1974	38.221970	0.000189	1.893830	0.641647	0.000076
 434	4.3084e+01	17.2551	38.311178	0.000223	2.229832	0.755488	0.000090
 435	4.3183e+01	17.3033	38.392239	0.000203	2.026195	0.686493	0.000081
 436	4.3282e+01	17.3353	38.476152	0.000210	2.097468	0.710641	0.000084
 437	4.3382e+01	17.3642	38.553547	0.000193	1.934558	0.655446	0.000078
 438	4.3481e+01	17.3899	38.641125	0.000219	2.189105	0.741689	0.000088
 439	4.3581e+01	17.4573	38.722594	0.000204	2.036376	0.689943	0.000082
 440	4.3681e+01	17.4990	38.803248	0.000202	2.016013	0.683044	0.000081
 441	4.3780e+01	17.5343	38.890419	0.000218	2.178923	0.738239	0.000088
 442	4.3880e+01	17.5519	38.966592	0.000190	1.904012	0.645097	0.000077
 443	4.3979e+01	17.5952	39.053356	0.000217	2.168741	0.734789	0.000087
 444	4.4078e+01	17.6434	39.133603	0.000201	2.005831	0.679594	0.000081
 445	4.4178e+01	17.6867	39.221996	0.000221	2.209468	0.748588	0.000089
 446	4.4278e+01	17.7316	39.295725	0.000184	1.842921	0.624398	0.000074
 447	4.4377e+01	17.7637	39.378823	0.000208	2.077104	0.703742	0.000084
 448	4.4477e+01	17.8182	39.458255	0.000199	1.985467	0.672694	0.000080
 449	4.4576e+01	17.8583	39.543797	0.000214	2.138195	0.724440	0.000086
 450	4.4675e+01	17.8856	39.624858	0.000203	2.026195	0.686493	0.000081
 451	4.4775e+01	17.9097	39.711622	0.000217	2.168741	0.734789	0.000087
 452	4.4874e+01	17.9466	39.790239	0.000197	1.965103	0.665795	0.000079
 453	4.4974e+01	17.9899	39.876188	0.000215	2.148377	0.727890	0.000086
 454	4.5074e+01	18.0572	39.963767	0.000219	2.189105	0.741689	0.000088
 455	4.5173e+01	18.1038	40.045235	0.000204	2.036376	0.689943	0.000082
 456	4.5273e+01	18.1230	40.127926	0.000207	2.066922	0.700292	0.000083
 457	4.5372e+01	18.1615	40.214690	0.000217	2.168741	0.734789	0.000087
 458	4.5471e+01	18.2080	40.294122	0.000199	1.985467	0.672694	0.000080
 459	4.5571e+01	18.2449	40.379663	0.000214	2.138195	0.724440	0.000086
 460	4.5670e+01	18.2866	40.463576	0.000210	2.097468	0.710641	0.000084
 461	4.5770e+01	18.3284	40.545045	0.000204	2.036376	0.689943	0.000082
 462	4.5870e+01	18.3588	40.628957	0.000210	2.097468	0.710641	0.000084
 463	4.5969e+01	18.3989	40.713684	0.000212	2.117832	0.717541	0.000085
 464	4.6069e+01	18.4423	40.799634	0.000215	2.148377	0.727890	0.000086
 465	4.6168e+01	18.4824	40.883954	0.000211	2.107650	0.714091	0.000085
 466	4.6267e+01	18.5530	40.966644	0.000207	2.066922	0.700292	0.000083
 467	4.6367e+01	18.5610	41.052186	0.000214	2.138195	0.724440	0.000086
 468	4.6467e+01	18.6139	41.135284	0.000208	2.077104	0.703742	0.000084
 469	4.6566e+01	18.6348	41.216752	0.000204	2.036376	0.689943	0.000082
 470	4.6666e+01	18.6877	41.302294	0.000214	2.138195	0.724440	0.000086
 471	4.6765e+01	18.7246	41.386614	0.000211	2.107650	0.714091	0.000085
 472	4.6864e+01	18.7759	41.466046	0.000199	1.985467	0.672694	0.000080
 473	4.6964e+01	18.7888	41.548329	0.000206	2.056740	0.696842	0.000083
 474	4.7063e+01	18.8369	41.629390	0.000203	2.026195	0.686493	0.000081
 475	4.7163e+01	18.8818	41.715747	0.000216	2.158559	0.731340	0.000087
 476	4.7263e+01	18.9396	41.802104	0.000216	2.158559	0.731340	0.000087
 477	4.7362e+01	18.9492	41.881943	0.000200	1.995649	0.676144	0.000080
 478	4.7462e+01	18.9877	41.964633	0.000207	2.066922	0.700292	0.000083
 479	4.7561e+01	19.0278	42.045287	0.000202	2.016013	0.683044	0.000081
 480	4.7660e+01	19.0888	42.134088	0.000222	2.219650	0.752038	0.000089
 481	4.7760e+01	19.1225	42.212298	0.000195	1.954921	0.662345	0.000079
 482	4.7859e+01	19.1401	42.295803	0.000209	2.087286	0.707192	0.000084
 483	4.7959e+01	19.1946	42.373198	0.000193	1.934558	0.655446	0.000078
 484	4.8059e+01	19.2283	42.458332	0.000213	2.128013	0.720990	0.000086
 485	4.8158e+01	19.2813	42.540208	0.000205	2.046558	0.693393	0.000082
 486	4.8258e+01	19.3214	42.623714	0.000209	2.087286	0.707192	0.000084
 487	4.8357e+01	19.3535	42.704367	0.000202	2.016013	0.683044	0.000081
 488	4.8456e+01	19.4112	42.785021	0.000202	2.016013	0.683044	0.000081
 489	4.8556e+01	19.4353	42.867304	0.000206	2.056740	0.696842	0.000083
 490	4.8656e+01	19.4882	42.950402	0.000208	2.077104	0.703742	0.000084
 491	4.8755e+01	19.5171	43.031463	0.000203	2.026195	0.686493	0.000081
 492	4.8855e+01	19.5588	43.112525	0.000203	2.026195	0.686493	0.000081
 493	4.8954e+01	19.5941	43.192364	0.000200	1.995649	0.676144	0.000080
 494	4.9053e+01	19.6454	43.266500	0.000185	1.853103	0.627848	0.000075
 495	4.9153e+01	19.6695	43.350820	0.000211	2.107650	0.714091	0.000085
 496	4.9252e+01	19.7224	43.426586	0.000189	1.893830	0.641647	0.000076
 497	4.9352e+01	19.7497	43.507647	0.000203	2.026195	0.686493	0.000081
 498	4.9452e+01	19.7882	43.587486	0.000200	1.995649	0.676144	0.000080
 499	4.9551e+01	19.8395	43.664474	0.000192	1.924376	0.651996	0.000077
 500	4.9651e+01	19.8780	43.741462	0.000192	1.924376	0.651996	0.000077
 501	4.9750e+01	19.9133	43.824152	0.000207	2.066922	0.700292	0.000083
 502	4.9849e+01	19.9502	43.901547	0.000193	1.934558	0.655446	0.000078
 503	4.9949e+01	20.0128	43.979350	0.000194	1.944740	0.658896	0.000078
 504	5.0048e+01	19.9663	43.945540	0.000085	0.845096	0.286326	-0.000034
 505	5.0148e+01	19.9133	43.905213	0.000101	1.008006	0.341522	-0.000041
 506	5.0248e+01	19.8732	43.863257	0.000105	1.048734	0.355321	-0.000042
 507	5.0347e+01	19.8428	43.831077	0.000080	0.804369	0.272527	-0.000032
 508	5.0447e+01	19.8139	43.784233	0.000117	1.170916	0.396717	-0.000047
 509	5.0546e+01	19.7465	43.743498	0.000102	1.018188	0.344972	-0.000041
 510	5.0645e+01	19.7128	43.699098	0.000111	1.109825	0.376019	-0.000045
 511	5.0745e+01	19.6631	43.655512	0.000109	1.089461	0.369120	-0.000044
 512	5.0844e+01	19.6326	43.608668	0.000117	1.170916	0.396717	-0.000047
 513	5.0944e+01	19.6069	43.567119	0.000104	1.038552	0.351871	-0.000042
 514	5.1044e+01	19.5476	43.522719	0.000111	1.109825	0.376019	-0.000045
 515	5.1143e+01	19.5219	43.472615	0.000125	1.252372	0.424315	-0.000050
 516	5.1242e+01	19.4738	43.422512	0.000125	1.252372	0.424315	-0.000050
 517	5.1342e+01	19.4465	43.377705	0.000112	1.120007	0.379469	-0.000045
 518	5.1441e+01	19.3936	43.326787	0.000127	1.272735	0.431214	-0.000051
 519	5.1541e+01	19.3551	43.278313	0.000121	1.211644	0.410516	-0.000049
 520	5.1641e+01	19.3294	43.234320	0.000110	1.099643	0.372569	-0.000044
 521	5.1740e+01	19.2797	43.180551	0.000134	1.344008	0.455362	-0.000054
 522	5.1840e+01	19.2380	43.142668	0.000095	0.946915	0.320824	-0.000038
 523	5.1939e+01	19.1786	43.079937	0.000157	1.568010	0.531256	-0.000063
 524	5.2038e+01	19.1513	43.027797	0.000130	1.303281	0.441564	-0.000052
 525	5.2138e+01	19.1160	42.974436	0.000133	1.333827	0.451913	-0.000054
 526	5.2237e+01	19.1048	42.923518	0.000127	1.272735	0.431214	-0.000051
 527	5.2337e+01	19.0471	42.871378	0.000130	1.303281	0.441564	-0.000052
 528	5.2437e+01	19.0005	42.816794	0.000136	1.364372	0.462262	-0.000055
 529	5.2536e+01	18.9572	42.762617	0.000135	1.354190	0.458812	-0.000054
 530	5.2636e+01	18.9299	42.712107	0.000126	1.262553	0.427765	-0.000051
 531	5.2735e+01	18.8770	42.655894	0.000141	1.405100	0.476061	-0.000056
 532	5.2834e+01	18.8337	42.605383	0.000126	1.262553	0.427765	-0.000051
 533	5.2934e+01	18.8128	42.547133	0.000146	1.456009	0.493309	-0.000059
 534	5.3033e+01	18.7711	42.490105	0.000143	1.425464	0.482960	-0.000057
 535	5.3133e+01	18.7134	42.436743	0.000133	1.333827	0.451913	-0.000054
 536	5.3233e+01	18.7021	42.384196	0.000131	1.313463	0.445013	-0.000053
 537	5.3332e+01	18.6508	42.323095	0.000153	1.527282	0.517457	-0.000061
 538	5.3431e+01	18.5995	42.267289	0.000139	1.394918	0.472611	-0.000056
 539	5.3531e+01	18.5513	42.204965	0.000156	1.557828	0.527806	-0.000063
 540	5.3630e+01	18.5465	42.147123	0.000145	1.445827	0.489860	-0.000058
 541	5.3730e+01	18.4792	42.087243	0.000150	1.496737	0.507108	-0.000060
 542	5.3830e+01	18.4407	42.026142	0.000153	1.527282	0.517457	-0.000061
 543	5.3929e+01	18.4166	41.970743	0.000138	1.384736	0.469161	-0.000056
 544	5.4029e+01	18.3476	41.910864	0.000150	1.496737	0.507108	-0.000060
 545	5.4128e+01	18.3187	41.850985	0.000150	1.496737	0.507108	-0.000060
 546	5.4227e+01	18.2883	41.791920	0.000148	1.476373	0.500209	-0.000059
 547	5.4327e+01	18.2498	41.732041	0.000150	1.496737	0.507108	-0.000060
 548	5.4426e+01	18.1984	41.670532	0.000154	1.537464	0.520907	-0.000062
 549	5.4526e+01	18.1599	41.608616	0.000155	1.547646	0.524357	-0.000062
 550	5.4626e+01	18.1198	41.545478	0.000158	1.578192	0.534706	-0.000063
 551	5.4725e+01	18.0717	41.484376	0.000153	1.527282	0.517457	-0.000061
 552	5.4825e+01	18.0508	41.424497	0.000150	1.496737	0.507108	-0.000060
 553	5.4924e+01	18.0091	41.361359	0.000158	1.578192	0.534706	-0.000063
 554	5.5023e+01	17.9867	41.298628	0.000157	1.568010	0.531256	-0.000063
 555	5.5123e+01	17.9048	41.242008	0.000142	1.415282	0.479510	-0.000057
 556	5.5222e+01	17.8760	41.183758	0.000146	1.456009	0.493309	-0.000059
 557	5.5322e+01	17.8519	41.125100	0.000147	1.466191	0.496759	-0.000059
 558	5.5422e+01	17.8070	41.055445	0.000174	1.741102	0.589901	-0.000070
 559	5.5521e+01	17.7861	40.994751	0.000152	1.517100	0.514008	-0.000061
 560	5.5620e+01	17.7220	40.932835	0.000155	1.547646	0.524357	-0.000062
 561	5.5720e+01	17.7011	40.872141	0.000152	1.517100	0.514008	-0.000061
 562	5.5819e+01	17.6177	40.805336	0.000167	1.669829	0.565753	-0.000067
 563	5.5919e+01	17.6032	40.745864	0.000149	1.486555	0.503658	-0.000060
 564	5.6019e+01	17.5680	40.681504	0.000161	1.608737	0.545055	-0.000065
 565	5.6118e+01	17.5327	40.626513	0.000137	1.374554	0.465712	-0.000055
 566	5.6218e+01	17.4877	40.560116	0.000166	1.659647	0.562304	-0.000067
 567	5.6317e+01	17.4460	40.498607	0.000154	1.537464	0.520907	-0.000062
 568	5.6416e+01	17.3995	40.432211	0.000166	1.659647	0.562304	-0.000067
 569	5.6516e+01	17.3674	40.367851	0.000161	1.608737	0.545055	-0.000065
 570	5.6615e+01	17.3369	40.307564	0.000151	1.506919	0.510558	-0.000061
 571	5.6715e+01	17.3065	40.238316	0.000173	1.730920	0.586452	-0.000070
 572	5.6815e+01	17.2519	40.178844	0.000149	1.486555	0.503658	-0.000060
 573	5.6914e+01	17.2022	40.116113	0.000157	1.568010	0.531256	-0.000063
 574	5.7014e+01	17.1605	40.056233	0.000150	1.496737	0.507108	-0.000060
 575	5.7113e+01	17.1236	39.989429	0.000167	1.669829	0.565753	-0.000067
 576	5.7212e+01	17.0867	39.929143	0.000151	1.506919	0.510558	-0.000061
 577	5.7312e+01	17.0482	39.864782	0.000161	1.608737	0.545055	-0.000065
 578	5.7411e+01	17.0097	39.805718	0.000148	1.476373	0.500209	-0.000059
 579	5.7511e+01	16.9888	39.743394	0.000156	1.557828	0.527806	-0.000063
 580	5.7611e+01	16.9198	39.681886	0.000154	1.537464	0.520907	-0.000062
 581	5.7710e+01	16.9054	39.619155	0.000157	1.568010	0.531256	-0.000063
 582	5.7809e+01	16.8493	39.555609	0.000159	1.588374	0.538156	-0.000064
 583	5.7909e+01	16.7963	39.496137	0.000149	1.486555	0.503658	-0.000060
 584	5.8008e+01	16.7755	39.435036	0.000153	1.527282	0.517457	-0.000061
 585	5.8108e+01	16.7049	39.373935	0.000153	1.527282	0.517457	-0.000061
 586	5.8208e+01	16.6969	39.309167	0.000162	1.618919	0.548505	-0.000065
 587	5.8307e+01	16.6567	39.245214	0.000160	1.598556	0.541605	-0.000064
 588	5.8407e+01	16.6182	39.184520	0.000152	1.517100	0.514008	-0.000061
 589	5.8506e+01	16.5733	39.124234	0.000151	1.506919	0.510558	-0.000061
 590	5.8605e+01	16.5172	39.067613	0.000142	1.415282	0.479510	-0.000057
 591	5.8705e+01	16.4867	39.006104	0.000154	1.537464	0.520907	-0.000062
 592	5.8804e+01	16.4514	38.942152	0.000160	1.598556	0.541605	-0.000064
 593	5.8904e+01	16.4225	38.878606	0.000159	1.588374	0.538156	-0.000064
 594	5.9004e+01	16.3760	38.811395	0.000168	1.680011	0.569203	-0.000068
 595	5.9103e+01	16.3102	38.749479	0.000155	1.547646	0.524357	-0.000062
 596	5.9203e+01	16.2942	38.686340	0.000158	1.578192	0.534706	-0.000063
 597	5.9302e+01	16.2461	38.624017	0.000156	1.557828	0.527806	-0.000063
 598	5.9401e+01	16.2076	38.562916	0.000153	1.527282	0.517457	-0.000061
 599	5.9501e+01	16.1771	38.502629	0.000151	1.506919	0.510558	-0.000061
 600	5.9600e+01	16.1257	38.438269	0.000161	1.608737	0.545055	-0.000065
 601	5.9700e+01	16.0824	38.379204	0.000148	1.476373	0.500209	-0.000059
 602	5.9800e+01	16.0584	38.318917	0.000151	1.506919	0.510558	-0.000061
 603	5.9899e+01	16.0022	38.252928	0.000165	1.649465	0.558854	-0.000066
 604	5.9998e+01	15.9717	38.187346	0.000164	1.639283	0.555404	-0.000066
 605	6.0098e+01	15.9284	38.125430	0.000155	1.547646	0.524357	-0.000062
 606	6.0197e+01	15.8996	38.064328	0.000153	1.527282	0.517457	-0.000061
 607	6.0297e+01	15.8594	38.002005	0.000156	1.557828	0.527806	-0.000063
 608	6.0397e+01	15.8129	37.937645	0.000161	1.608737	0.545055	-0.000065
 609	6.0496e+01	15.7857	37.874914	0.000157	1.568010	0.531256	-0.000063
 610	6.0596e+01	15.7263	37.809332	0.000164	1.639283	0.555404	-0.000066
 611	6.0695e+01	15.7022	37.752304	0.000143	1.425464	0.482960	-0.000057
 612	6.0794e+01	15.6846	37.689573	0.000157	1.568010	0.531256	-0.000063
 613	6.0894e+01	15.6012	37.618288	0.000178	1.781829	0.603700	-0.000072
 614	6.0993e+01	15.5771	37.557187	0.000153	1.527282	0.517457	-0.000061
 615	6.1093e+01	15.5530	37.494456	0.000157	1.568010	0.531256	-0.000063
 616	6.1193e+01	15.4905	37.429689	0.000162	1.618919	0.548505	-0.000065
 617	6.1292e+01	15.4648	37.365736	0.000160	1.598556	0.541605	-0.000064
 618	6.1392e+01	15.4071	37.304227	0.000154	1.537464	0.520907	-0.000062
 619	6.1491e+01	15.3669	37.242718	0.000154	1.537464	0.520907	-0.000062
 620	6.1590e+01	15.3397	37.176729	0.000165	1.649465	0.558854	-0.000066
 621	6.1690e+01	15.2932	37.113591	0.000158	1.578192	0.534706	-0.000063
 622	6.1789e+01	15.2402	37.050860	0.000157	1.568010	0.531256	-0.000063
 623	6.1889e+01	15.2049	36.987315	0.000159	1.588374	0.538156	-0.000064
 624	6.1989e+01	15.1664	36.927843	0.000149	1.486555	0.503658	-0.000060
 625	6.2088e+01	15.1263	36.864297	0.000159	1.588374	0.538156	-0.000064
 626	6.2188e+01	15.0878	36.804011	0.000151	1.506919	0.510558	-0.000061
 627	6.2287e+01	15.0670	36.741280	0.000157	1.568010	0.531256	-0.000063
 628	6.2386e+01	15.0092	36.676920	0.000161	1.608737	0.545055	-0.000065
 629	6.2486e+01	14.9803	36.605635	0.000178	1.781829	0.603700	-0.000072
 630	6.2586e+01	14.9482	36.547792	0.000145	1.445827	0.489860	-0.000058
 631	6.2685e+01	14.9049	36.489949	0.000145	1.445827	0.489860	-0.000058
 632	6.2785e+01	14.8488	36.426404	0.000159	1.588374	0.538156	-0.000064
 633	6.2884e+01	14.8023	36.357563	0.000172	1.720738	0.583002	-0.000069
 634	6.2983e+01	14.8151	36.294425	-0.000158	-1.578192	-0.534706	-0.000063
 635	6.3083e+01	14.7301	36.230880	0.000159	1.588374	0.538156	-0.000064
 636	6.3182e+01	14.6916	36.169778	0.000153	1.527282	0.517457	-0.000061
 637	6.3282e+01	14.6579	36.103381	0.000166	1.659647	0.562304	-0.000067
 638	6.3382e+01	14.6162	36.042280	0.000153	1.527282	0.517457	-0.000061
 639	6.3481e+01	14.5873	35.970995	0.000178	1.781829	0.603700	-0.000072
 640	6.3581e+01	14.5279	35.907857	0.000158	1.578192	0.534706	-0.000063
 641	6.3680e+01	14.4830	35.844719	0.000158	1.578192	0.534706	-0.000063
 642	6.3779e+01	14.4670	35.780359	0.000161	1.608737	0.545055	-0.000065
 643	6.3879e+01	14.4397	35.712740	0.000169	1.690192	0.572653	-0.000068
 644	6.3978e+01	14.3771	35.654083	0.000147	1.466191	0.496759	-0.000059
 645	6.4078e+01	14.3450	35.587686	0.000166	1.659647	0.562304	-0.000067
 646	6.4177e+01	14.3065	35.521696	0.000165	1.649465	0.558854	-0.000066
 647	6.4277e+01	14.2825	35.454077	0.000169	1.690192	0.572653	-0.000068
 648	6.4376e+01	14.2231	35.388088	0.000165	1.649465	0.558854	-0.000066
 649	6.4476e+01	14.1943	35.324135	0.000160	1.598556	0.541605	-0.000064
 650	6.4576e+01	14.1156	35.255294	0.000172	1.720738	0.583002	-0.000069
 651	6.4675e+01	14.1060	35.186046	0.000173	1.730920	0.586452	-0.000070
 652	6.4775e+01	14.0435	35.122093	0.000160	1.598556	0.541605	-0.000064
 653	6.4874e+01	14.0146	35.059770	0.000156	1.557828	0.527806	-0.000063
 654	6.4974e+01	13.9809	34.990929	0.000172	1.720738	0.583002	-0.000069
 655	6.5073e+01	13.9360	34.918829	0.000180	1.802193	0.610600	-0.000072
 656	6.5172e+01	13.8975	34.852025	0.000167	1.669829	0.565753	-0.000067
 657	6.5272e+01	13.8878	34.789294	0.000157	1.568010	0.531256	-0.000063
 658	6.5371e+01	13.8108	34.720453	0.000172	1.720738	0.583002	-0.000069
 659	6.5471e+01	13.7836	34.655279	0.000163	1.629101	0.551954	-0.000066
 660	6.5570e+01	13.7531	34.579513	0.000189	1.893830	0.641647	-0.000076
 661	6.5670e+01	13.7018	34.514338	0.000163	1.629101	0.551954	-0.000066
 662	6.5769e+01	13.6536	34.445090	0.000173	1.730920	0.586452	-0.000070
 663	6.5869e+01	13.6071	34.377471	0.000169	1.690192	0.572653	-0.000068
 664	6.5969e+01	13.5782	34.303335	0.000185	1.853103	0.627848	-0.000075
 665	6.6068e+01	13.5092	34.235716	0.000169	1.690192	0.572653	-0.000068
 666	6.6168e+01	13.5044	34.156691	0.000198	1.975285	0.669245	-0.000079
 667	6.6267e+01	13.4804	34.094368	0.000156	1.557828	0.527806	-0.000063
 668	6.6367e+01	13.4210	34.018195	0.000190	1.904012	0.645097	-0.000077
 669	6.6466e+01	13.3681	33.942836	0.000188	1.883648	0.638197	-0.000076
 670	6.6566e+01	13.3232	33.873181	0.000174	1.741102	0.589901	-0.000070
 671	6.6665e+01	13.2847	33.798637	0.000186	1.863284	0.631298	-0.000075
 672	6.6764e+01	13.2510	33.727760	0.000177	1.771648	0.600250	-0.000071
 673	6.6864e+01	13.2173	33.651587	0.000190	1.904012	0.645097	-0.000077
 674	6.6963e+01	13.1900	33.579487	0.000180	1.802193	0.610600	-0.000072
 675	6.7063e+01	13.1451	33.508202	0.000178	1.781829	0.603700	-0.000072
 676	6.7162e+01	13.1066	33.431214	0.000192	1.924376	0.651996	-0.000077
 677	6.7262e+01	13.0536	33.359115	0.000180	1.802193	0.610600	-0.000072
 678	6.7362e+01	13.0039	33.282942	0.000190	1.904012	0.645097	-0.000077
 679	6.7461e+01	12.9606	33.213286	0.000174	1.741102	0.589901	-0.000070
 680	6.7561e+01	12.9478	33.135484	0.000194	1.944740	0.658896	-0.000078
 681	6.7660e+01	12.9028	33.070716	0.000162	1.618919	0.548505	-0.000065
 682	6.7760e+01	12.8643	32.993321	0.000193	1.934558	0.655446	-0.000078
 683	6.7859e+01	12.8194	32.917963	0.000188	1.883648	0.638197	-0.000076
 684	6.7959e+01	12.7905	32.847900	0.000175	1.751284	0.593351	-0.000070
 685	6.8058e+01	12.7809	32.770912	0.000192	1.924376	0.651996	-0.000077
 686	6.8157e+01	12.7039	32.697183	0.000184	1.842921	0.624398	-0.000074
 687	6.8257e+01	12.6574	32.621825	0.000188	1.883648	0.638197	-0.000076
 688	6.8356e+01	12.6205	32.546874	0.000187	1.873466	0.634748	-0.000075
 689	6.8456e+01	12.6093	32.473145	0.000184	1.842921	0.624398	-0.000074
 690	6.8555e+01	12.5387	32.398194	0.000187	1.873466	0.634748	-0.000075
 691	6.8655e+01	12.5098	32.320391	0.000194	1.944740	0.658896	-0.000078
 692	6.8754e+01	12.4681	32.245033	0.000188	1.883648	0.638197	-0.000076
 693	6.8854e+01	12.4344	32.166008	0.000198	1.975285	0.669245	-0.000079
 694	6.8954e+01	12.4087	32.093909	0.000180	1.802193	0.610600	-0.000072
 695	6.9053e+01	12.3398	32.016106	0.000194	1.944740	0.658896	-0.000078
 696	6.9153e+01	12.2997	31.938711	0.000193	1.934558	0.655446	-0.000078
 697	6.9252e+01	12.2884	31.865797	0.000182	1.822557	0.617499	-0.000073
 698	6.9352e+01	12.2210	31.785958	0.000200	1.995649	0.676144	-0.000080
 699	6.9451e+01	12.1906	31.710192	0.000189	1.893830	0.641647	-0.000076
 700	6.9550e+01	12.1456	31.633204	0.000192	1.924376	0.651996	-0.000077
 701	6.9650e+01	12.1104	31.557031	0.000190	1.904012	0.645097	-0.000077
 702	6.9749e+01	12.0622	31.476377	0.000202	2.016013	0.683044	-0.000081
 703	6.9849e+01	12.0301	31.399390	0.000192	1.924376	0.651996	-0.000077
 704	6.9948e+01	11.9948	31.319958	0.000199	1.985467	0.672694	-0.000080
 705	7.0048e+01	11.9644	31.242563	0.000193	1.934558	0.655446	-0.000078
 706	7.0147e+01	11.9002	31.157428	0.000213	2.128013	0.720990	-0.000086
 707	7.0247e+01	11.8681	31.080848	0.000191	1.914194	0.648546	-0.000077
 708	7.0347e+01	11.8280	30.998157	0.000207	2.066922	0.700292	-0.000083
 709	7.0446e+01	11.7927	30.919540	0.000197	1.965103	0.665795	-0.000079
 710	7.0546e+01	11.7526	30.838072	0.000204	2.036376	0.689943	-0.000082
 711	7.0645e+01	11.7285	30.760676	0.000193	1.934558	0.655446	-0.000078
 712	7.0745e+01	11.6724	30.677579	0.000208	2.077104	0.703742	-0.000084
 713	7.0844e+01	11.6291	30.599369	0.000195	1.954921	0.662345	-0.000079
 714	7.0944e+01	11.5906	30.519530	0.000200	1.995649	0.676144	-0.000080
 715	7.1043e+01	11.5376	30.438468	0.000203	2.026195	0.686493	-0.000081
 716	7.1142e+01	11.5023	30.356593	0.000205	2.046558	0.693393	-0.000082
 717	7.1242e+01	11.4671	30.276753	0.000200	1.995649	0.676144	-0.000080
 718	7.1341e+01	11.4270	30.192434	0.000211	2.107650	0.714091	-0.000085
 719	7.1441e+01	11.3949	30.113409	0.000198	1.975285	0.669245	-0.000079
 720	7.1540e+01	11.3435	30.034385	0.000198	1.975285	0.669245	-0.000079
 721	7.1640e+01	11.3018	29.950472	0.000210	2.097468	0.710641	-0.000084
 722	7.1740e+01	11.2858	29.872670	0.000194	1.944740	0.658896	-0.000078
 723	7.1839e+01	11.2280	29.788350	0.000211	2.107650	0.714091	-0.000085
 724	7.1939e+01	11.1943	29.710955	0.000193	1.934558	0.655446	-0.000078
 725	7.2038e+01	11.1526	29.629486	0.000204	2.036376	0.689943	-0.000082
 726	7.2138e+01	11.1221	29.540278	0.000223	2.229832	0.755488	-0.000090
 727	7.2237e+01	11.0676	29.462883	0.000193	1.934558	0.655446	-0.000078
 728	7.2337e+01	11.0227	29.385488	0.000193	1.934558	0.655446	-0.000078
 729	7.2436e+01	10.9874	29.301575	0.000210	2.097468	0.710641	-0.000084
 730	7.2535e+01	10.9489	29.216848	0.000212	2.117832	0.717541	-0.000085
 731	7.2635e+01	10.9072	29.135380	0.000204	2.036376	0.689943	-0.000082
 732	7.2734e+01	10.8767	29.054726	0.000202	2.016013	0.683044	-0.000081
 733	7.2834e+01	10.8350	28.974887	0.000200	1.995649	0.676144	-0.000080
 734	7.2933e+01	10.7820	28.893826	0.000203	2.026195	0.686493	-0.000081
 735	7.3033e+01	10.7708	28.812357	0.000204	2.036376	0.689943	-0.000082
 736	7.3132e+01	10.7179	28.728852	0.000209	2.087286	0.707192	-0.000084
 737	7.3232e+01	10.6681	28.642495	0.000216	2.158559	0.731340	-0.000087
 738	7.3332e+01	10.6409	28.561841	0.000202	2.016013	0.683044	-0.000081
 739	7.3431e+01	10.6024	28.480373	0.000204	2.036376	0.689943	-0.000082
 740	7.3531e+01	10.5494	28.397682	0.000207	2.066922	0.700292	-0.000083
 741	7.3630e+01	10.5318	28.314992	0.000207	2.066922	0.700292	-0.000083
 742	7.3730e+01	10.4788	28.232301	0.000207	2.066922	0.700292	-0.000083
 743	7.3829e+01	10.4307	28.149203	0.000208	2.077104	0.703742	-0.000084
 744	7.3928e+01	10.3906	28.070179	0.000198	1.975285	0.669245	-0.000079
 745	7.4028e+01	10.3521	27.989525	0.000202	2.016013	0.683044	-0.000081
 746	7.4127e+01	10.3168	27.910093	0.000199	1.985467	0.672694	-0.000080
 747	7.4227e+01	10.2639	27.824959	0.000213	2.128013	0.720990	-0.000086
 748	7.4326e+01	10.2478	27.747564	0.000193	1.934558	0.655446	-0.000078
 749	7.4426e+01	10.2029	27.662022	0.000214	2.138195	0.724440	-0.000086
 750	7.4525e+01	10.1580	27.585849	0.000190	1.904012	0.645097	-0.000077
 751	7.4625e+01	10.1131	27.506417	0.000199	1.985467	0.672694	-0.000080
 752	7.4725e+01	10.0698	27.423319	0.000208	2.077104	0.703742	-0.000084
 753	7.4824e+01	10.0297	27.345109	0.000195	1.954921	0.662345	-0.000079
 754	7.4924e+01	9.9847	27.259567	0.000214	2.138195	0.724440	-0.000086
 755	7.5023e+01	9.9623	27.182579	0.000192	1.924376	0.651996	-0.000077
 756	7.5123e+01	9.9174	27.105184	0.000193	1.934558	0.655446	-0.000078
 757	7.5222e+01	9.9029	27.021272	0.000210	2.097468	0.710641	-0.000084
 758	7.5322e+01	9.8291	26.939396	0.000205	2.046558	0.693393	-0.000082
 759	7.5421e+01	9.7794	26.862001	0.000193	1.934558	0.655446	-0.000078
 760	7.5520e+01	9.7585	26.781347	0.000202	2.016013	0.683044	-0.000081
 761	7.5620e+01	9.7088	26.699879	0.000204	2.036376	0.689943	-0.000082
 762	7.5719e+01	9.6799	26.618817	0.000203	2.026195	0.686493	-0.000081
 763	7.5819e+01	9.6382	26.543052	0.000189	1.893830	0.641647	-0.000076
 764	7.5918e+01	9.6029	26.456288	0.000217	2.168741	0.734789	-0.000087
 765	7.6018e+01	9.5644	26.379300	0.000192	1.924376	0.651996	-0.000077
 766	7.6118e+01	9.5195	26.297831	0.000204	2.036376	0.689943	-0.000082
 767	7.6217e+01	9.4810	26.215141	0.000207	2.066922	0.700292	-0.000083
 768	7.6317e+01	9.4345	26.135709	0.000199	1.985467	0.672694	-0.000080
 769	7.6416e+01	9.4056	26.050982	0.000212	2.117832	0.717541	-0.000085
 770	7.6516e+01	9.3703	25.971143	0.000200	1.995649	0.676144	-0.000080
 771	7.6615e+01	9.3270	25.888860	0.000206	2.056740	0.696842	-0.000083
 772	7.6715e+01	9.2789	25.811872	0.000192	1.924376	0.651996	-0.000077
 773	7.6814e+01	9.2211	25.727145	0.000212	2.117832	0.717541	-0.000085
 774	7.6913e+01	9.1762	25.643232	0.000210	2.097468	0.710641	-0.000084
 775	7.7013e+01	9.1698	25.560134	0.000208	2.077104	0.703742	-0.000084
 776	7.7112e+01	9.1104	25.481924	0.000195	1.954921	0.662345	-0.000079
 777	7.7212e+01	9.0703	25.400456	0.000204	2.036376	0.689943	-0.000082
 778	7.7311e+01	9.0399	25.317765	0.000207	2.066922	0.700292	-0.000083
 779	7.7411e+01	8.9853	25.238741	0.000198	1.975285	0.669245	-0.000079
 780	7.7510e+01	8.9532	25.153606	0.000213	2.128013	0.720990	-0.000086
 781	7.7610e+01	8.9179	25.075396	0.000195	1.954921	0.662345	-0.000079
 782	7.7710e+01	8.8939	24.990669	0.000212	2.117832	0.717541	-0.000085
 783	7.7809e+01	8.8441	24.908386	0.000206	2.056740	0.696842	-0.000083
 784	7.7909e+01	8.7960	24.824473	0.000210	2.097468	0.710641	-0.000084
 785	7.8008e+01	8.7511	24.742598	0.000205	2.046558	0.693393	-0.000082
 786	7.8108e+01	8.7030	24.668054	0.000186	1.863284	0.631298	-0.000075
 787	7.8207e+01	8.6725	24.581290	0.000217	2.168741	0.734789	-0.000087
 788	7.8306e+01	8.6372	24.497785	0.000209	2.087286	0.707192	-0.000084
 789	7.8406e+01	8.6035	24.413057	0.000212	2.117832	0.717541	-0.000085
 790	7.8505e+01	8.5474	24.337292	0.000189	1.893830	0.641647	-0.000076
 791	7.8605e+01	8.5313	24.253379	0.000210	2.097468	0.710641	-0.000084
 792	7.8704e+01	8.5024	24.176799	0.000191	1.914194	0.648546	-0.000077
 793	7.8804e+01	8.4206	24.094923	0.000205	2.046558	0.693393	-0.000082
 794	7.8903e+01	8.4014	24.017528	0.000193	1.934558	0.655446	-0.000078
 795	7.9003e+01	8.3629	23.932393	0.000213	2.128013	0.720990	-0.000086
 796	7.9103e+01	8.3340	23.849703	0.000207	2.066922	0.700292	-0.000083
 797	7.9202e+01	8.2730	23.764975	0.000212	2.117832	0.717541	-0.000085
 798	7.9302e+01	8.2522	23.681470	0.000209	2.087286	0.707192	-0.000084
 799	7.9401e+01	8.2057	23.604890	0.000191	1.914194	0.648546	-0.000077
 800	7.9501e+01	8.1880	23.520163	0.000212	2.117832	0.717541	-0.000085
 801	7.9600e+01	8.1142	23.435843	0.000211	2.107650	0.714091	-0.000085
 802	7.9700e+01	8.0693	23.352337	0.000209	2.087286	0.707192	-0.000084
 803	7.9799e+01	8.0532	23.273313	0.000198	1.975285	0.669245	-0.000079
 804	7.9898e+01	8.0019	23.187771	0.000214	2.138195	0.724440	-0.000086
 805	7.9998e+01	7.9891	23.106710	0.000203	2.026195	0.686493	-0.000081
 806	8.0097e+01	7.9185	23.024019	0.000207	2.066922	0.700292	-0.000083
 807	8.0197e+01	7.8800	22.941736	0.000206	2.056740	0.696842	-0.000083
 808	8.0296e+01	7.8271	22.853343	0.000221	2.209468	0.748588	-0.000089
 809	8.0396e+01	7.8254	22.771874	0.000204	2.036376	0.689943	-0.000082
 810	8.0496e+01	7.7725	22.685110	0.000217	2.168741	0.734789	-0.000087
 811	8.0595e+01	7.7436	22.607715	0.000193	1.934558	0.655446	-0.000078
 812	8.0695e+01	7.6891	22.525839	0.000205	2.046558	0.693393	-0.000082
 813	8.0794e+01	7.6490	22.439890	0.000215	2.148377	0.727890	-0.000086
 814	8.0894e+01	7.6009	22.351089	0.000222	2.219650	0.752038	-0.000089
 815	8.0993e+01	7.5784	22.266770	0.000211	2.107650	0.714091	-0.000085
 816	8.1093e+01	7.5126	22.180413	0.000216	2.158559	0.731340	-0.000087
 817	8.1192e+01	7.4837	22.096093	0.000211	2.107650	0.714091	-0.000085
 818	8.1291e+01	7.4356	22.011773	0.000211	2.107650	0.714091	-0.000085
 819	8.1391e+01	7.3939	21.921750	0.000225	2.250196	0.762387	-0.000090
 820	8.1490e+01	7.3634	21.835801	0.000215	2.148377	0.727890	-0.000086
 821	8.1590e+01	7.3346	21.753111	0.000207	2.066922	0.700292	-0.000083
 822	8.1689e+01	7.2896	21.670420	0.000207	2.066922	0.700292	-0.000083
 823	8.1789e+01	7.2495	21.579990	0.000226	2.260378	0.765837	-0.000091
 824	8.1888e+01	7.2030	21.491597	0.000221	2.209468	0.748588	-0.000089
 825	8.1988e+01	7.1645	21.406462	0.000213	2.128013	0.720990	-0.000086
 826	8.2088e+01	7.1196	21.321328	0.000213	2.128013	0.720990	-0.000086
 827	8.2187e+01	7.0763	21.229675	0.000229	2.290924	0.776186	-0.000092
 828	8.2287e+01	7.0346	21.142911	0.000217	2.168741	0.734789	-0.000087
 829	8.2386e+01	6.9880	21.053703	0.000223	2.229832	0.755488	-0.000090
 830	8.2486e+01	6.9560	20.968162	0.000214	2.138195	0.724440	-0.000086
 831	8.2585e+01	6.9142	20.872843	0.000238	2.382560	0.807233	-0.000096
 832	8.2684e+01	6.8902	20.784450	0.000221	2.209468	0.748588	-0.000089
 833	8.2784e+01	6.8437	20.692798	0.000229	2.290924	0.776186	-0.000092
 834	8.2883e+01	6.8084	20.603590	0.000223	2.229832	0.755488	-0.000090
 835	8.2983e+01	6.7827	20.515604	0.000220	2.199287	0.745138	-0.000088
 836	8.3082e+01	6.7394	20.420286	0.000238	2.382560	0.807233	-0.000096
 837	8.3182e+01	6.6816	20.327819	0.000231	2.311287	0.783085	-0.000093
 838	8.3281e+01	6.6431	20.237796	0.000225	2.250196	0.762387	-0.000090
 839	8.3381e+01	6.6046	20.144515	0.000233	2.331651	0.789985	-0.000094
 840	8.3481e+01	6.5741	20.051233	0.000233	2.331651	0.789985	-0.000094
 841	8.3580e+01	6.5324	19.955508	0.000239	2.392742	0.810683	-0.000096
 842	8.3680e+01	6.4731	19.861819	0.000234	2.341833	0.793434	-0.000094
 843	8.3779e+01	6.4715	19.775870	0.000215	2.148377	0.727890	-0.000086
 844	8.3879e+01	6.4089	19.685032	0.000227	2.270560	0.769286	-0.000091
 845	8.3978e+01	6.3608	19.591751	0.000233	2.331651	0.789985	-0.000094
 846	8.4078e+01	6.3127	19.494396	0.000243	2.433470	0.824482	-0.000098
 847	8.4177e+01	6.2902	19.404373	0.000225	2.250196	0.762387	-0.000090
 848	8.4276e+01	6.2437	19.313129	0.000228	2.280742	0.772736	-0.000092
 849	8.4376e+01	6.2052	19.214144	0.000247	2.474197	0.838281	-0.000099
 850	8.4475e+01	6.1683	19.114346	0.000249	2.494561	0.845180	-0.000100
 851	8.4575e+01	6.1282	19.027989	0.000216	2.158559	0.731340	-0.000087
 852	8.4674e+01	6.1025	18.932671	0.000238	2.382560	0.807233	-0.000096
 853	8.4774e+01	6.0624	18.836538	0.000240	2.402924	0.814133	-0.000097
 854	8.4874e+01	6.0062	18.737146	0.000248	2.484379	0.841730	-0.000100
 855	8.4973e+01	5.9774	18.644272	0.000232	2.321469	0.786535	-0.000093
 856	8.5073e+01	5.9549	18.550176	0.000235	2.352015	0.796884	-0.000095
 857	8.5172e+01	5.9004	18.456895	0.000233	2.331651	0.789985	-0.000094
 858	8.5272e+01	5.8314	18.356281	0.000251	2.514925	0.852080	-0.000101
 859	8.5371e+01	5.8234	18.261778	0.000236	2.362197	0.800334	-0.000095
 860	8.5471e+01	5.7881	18.161979	0.000249	2.494561	0.845180	-0.000100
 861	8.5570e+01	5.7255	18.070734	0.000228	2.280742	0.772736	-0.000092
 862	8.5669e+01	5.7127	17.968898	0.000255	2.545471	0.862429	-0.000102
 863	8.5769e+01	5.6421	17.872765	0.000240	2.402924	0.814133	-0.000097
 864	8.5868e+01	5.6276	17.774596	0.000245	2.453834	0.831381	-0.000099
 865	8.5968e+01	5.5795	17.682536	0.000230	2.301105	0.779636	-0.000093
 866	8.6067e+01	5.5250	17.583552	0.000247	2.474197	0.838281	-0.000099
 867	8.6167e+01	5.5025	17.485383	0.000245	2.453834	0.831381	-0.000099
 868	8.6266e+01	5.4367	17.387213	0.000245	2.453834	0.831381	-0.000099
 869	8.6366e+01	5.4255	17.289451	0.000244	2.443652	0.827932	-0.000098
 870	8.6466e+01	5.3710	17.186801	0.000257	2.565834	0.869328	-0.000103
 871	8.6565e+01	5.3325	17.091890	0.000237	2.372379	0.803784	-0.000095
 872	8.6665e+01	5.2956	16.991276	0.000251	2.514925	0.852080	-0.000101
 873	8.6764e+01	5.2571	16.895551	0.000239	2.392742	0.810683	-0.000096
 874	8.6864e+01	5.2009	16.788420	0.000268	2.677835	0.907275	-0.000108
 875	8.6963e+01	5.1785	16.684955	0.000259	2.586198	0.876228	-0.000104
 876	8.7063e+01	5.1271	16.583526	0.000254	2.535289	0.858979	-0.000102
 877	8.7162e+01	5.0902	16.480469	0.000258	2.576016	0.872778	-0.000104
 878	8.7261e+01	5.0646	16.383114	0.000243	2.433470	0.824482	-0.000098
 879	8.7361e+01	5.0068	16.278834	0.000261	2.606562	0.883127	-0.000105
 880	8.7460e+01	4.9667	16.182294	0.000241	2.413106	0.817582	-0.000097
 881	8.7560e+01	4.9362	16.076792	0.000264	2.637108	0.893476	-0.000106
 882	8.7659e+01	4.9057	15.980252	0.000241	2.413106	0.817582	-0.000097
 883	8.7759e+01	4.8688	15.870677	0.000274	2.738926	0.927973	-0.000110
 884	8.7859e+01	4.8127	15.770878	0.000249	2.494561	0.845180	-0.000100
 885	8.7958e+01	4.7774	15.668635	0.000256	2.555652	0.865879	-0.000103
 886	8.8058e+01	4.7293	15.565577	0.000258	2.576016	0.872778	-0.000104
 887	8.8157e+01	4.7052	15.464556	0.000253	2.525107	0.855529	-0.000102
 888	8.8257e+01	4.6443	15.359055	0.000264	2.637108	0.893476	-0.000106
 889	8.8356e+01	4.5977	15.257626	0.000254	2.535289	0.858979	-0.000102
 890	8.8456e+01	4.5913	15.155791	0.000255	2.545471	0.862429	-0.000102
 891	8.8555e+01	4.5448	15.050289	0.000264	2.637108	0.893476	-0.000106
 892	8.8654e+01	4.4983	14.951305	0.000247	2.474197	0.838281	-0.000099
 893	8.8754e+01	4.4437	14.842544	0.000272	2.718563	0.921074	-0.000109
 894	8.8853e+01	4.4165	14.740709	0.000255	2.545471	0.862429	-0.000102
 895	8.8953e+01	4.3651	14.638466	0.000256	2.555652	0.865879	-0.000103
 896	8.9052e+01	4.3266	14.530520	0.000270	2.698199	0.914175	-0.000108
 897	8.9152e+01	4.3090	14.425425	0.000263	2.626926	0.890027	-0.000106
 898	8.9251e+01	4.2544	14.322775	0.000257	2.565834	0.869328	-0.000103
 899	8.9351e+01	4.2191	14.215644	0.000268	2.677835	0.907275	-0.000108
 900	8.9451e+01	4.1822	14.116660	0.000247	2.474197	0.838281	-0.000099
 901	8.9550e+01	4.1421	14.011565	0.000263	2.626926	0.890027	-0.000106
 902	8.9650e+01	4.0972	13.903620	0.000270	2.698199	0.914175	-0.000108
 903	8.9749e+01	4.0603	13.800969	0.000257	2.565834	0.869328	-0.000103
 904	8.9849e+01	4.0170	13.697504	0.000259	2.586198	0.876228	-0.000104
 905	8.9948e+01	3.9689	13.589559	0.000270	2.698199	0.914175	-0.000108
 906	9.0047e+01	3.9368	13.484871	0.000262	2.616744	0.886577	-0.000105
 907	9.0147e+01	3.9063	13.380999	0.000260	2.596380	0.879677	-0.000104
 908	9.0246e+01	3.8550	13.272239	0.000272	2.718563	0.921074	-0.000109
 909	9.0346e+01	3.8133	13.172032	0.000250	2.504743	0.848630	-0.000101
 910	9.0445e+01	3.7796	13.062050	0.000275	2.749108	0.931423	-0.000111
 911	9.0545e+01	3.7491	12.961436	0.000251	2.514925	0.852080	-0.000101
 912	9.0644e+01	3.7010	12.856749	0.000262	2.616744	0.886577	-0.000105
 913	9.0744e+01	3.6641	12.753284	0.000259	2.586198	0.876228	-0.000104
 914	9.0844e+01	3.6031	12.649412	0.000260	2.596380	0.879677	-0.000104
 915	9.0943e+01	3.5742	12.545947	0.000259	2.586198	0.876228	-0.000104
 916	9.1043e+01	3.5421	12.440445	0.000264	2.637108	0.893476	-0.000106
 917	9.1142e+01	3.5004	12.341868	0.000246	2.464016	0.834831	-0.000099
 918	9.1242e+01	3.4331	12.235959	0.000265	2.647289	0.896926	-0.000106
 919	9.1341e+01	3.4234	12.130865	0.000263	2.626926	0.890027	-0.000106
 920	9.1441e+01	3.3865	12.023734	0.000268	2.677835	0.907275	-0.000108
 921	9.1540e+01	3.3528	11.919047	0.000262	2.616744	0.886577	-0.000105
 922	9.1639e+01	3.2983	11.818840	0.000250	2.504743	0.848630	-0.000101
 923	9.1739e+01	3.2630	11.714561	0.000261	2.606562	0.883127	-0.000105
 924	9.1838e+01	3.2165	11.611910	0.000257	2.565834	0.869328	-0.000103
 925	9.1938e+01	3.1860	11.506816	0.000263	2.626926	0.890027	-0.000106
 926	9.2037e+01	3.1539	11.399278	0.000269	2.688017	0.910725	-0.000108
 927	9.2137e+01	3.1186	11.294183	0.000263	2.626926	0.890027	-0.000106
 928	9.2237e+01	3.0561	11.193977	0.000250	2.504743	0.848630	-0.000101
 929	9.2336e+01	3.0063	11.080736	0.000283	2.830563	0.959021	-0.000114
 930	9.2436e+01	2.9935	10.976456	0.000261	2.606562	0.883127	-0.000105
 931	9.2535e+01	2.9277	10.873806	0.000257	2.565834	0.869328	-0.000103
 932	9.2635e+01	2.9037	10.770341	0.000259	2.586198	0.876228	-0.000104
 933	9.2734e+01	2.8475	10.661173	0.000273	2.728744	0.924524	-0.000110
 934	9.2834e+01	2.8251	10.556486	0.000262	2.616744	0.886577	-0.000105
 935	9.2933e+01	2.7817	10.448947	0.000269	2.688017	0.910725	-0.000108
 936	9.3032e+01	2.7320	10.345890	0.000258	2.576016	0.872778	-0.000104
 937	9.3132e+01	2.7112	10.240388	0.000264	2.637108	0.893476	-0.000106
 938	9.3231e+01	2.6646	10.132035	0.000271	2.708381	0.917624	-0.000109
 939	9.3331e+01	2.6245	10.023682	0.000271	2.708381	0.917624	-0.000109
 940	9.3430e+01	2.5844	9.922661	0.000253	2.525107	0.855529	-0.000102
 941	9.3530e+01	2.5411	9.814308	0.000271	2.708381	0.917624	-0.000109
 942	9.3629e+01	2.5122	9.705955	0.000271	2.708381	0.917624	-0.000109
 943	9.3729e+01	2.4769	9.596787	0.000273	2.728744	0.924524	-0.000110
 944	9.3829e+01	2.4224	9.492100	0.000262	2.616744	0.886577	-0.000105
 945	9.3928e+01	2.3775	9.384154	0.000270	2.698199	0.914175	-0.000108
 946	9.4028e+01	2.3518	9.277023	0.000268	2.677835	0.907275	-0.000108
 947	9.4127e+01	2.3069	9.168670	0.000271	2.708381	0.917624	-0.000109
 948	9.4227e+01	2.2844	9.061946	0.000267	2.667653	0.903825	-0.000107
 949	9.4326e+01	2.2363	8.954408	0.000269	2.688017	0.910725	-0.000108
 950	9.4425e+01	2.1882	8.848906	0.000264	2.637108	0.893476	-0.000106
 951	9.4525e+01	2.1529	8.736887	0.000280	2.800018	0.948672	-0.000113
 952	9.4624e+01	2.1224	8.625682	0.000278	2.779654	0.941772	-0.000112
 953	9.4724e+01	2.0679	8.522625	0.000258	2.576016	0.872778	-0.000104
 954	9.4823e+01	2.0181	8.410605	0.000280	2.800018	0.948672	-0.000113
 955	9.4923e+01	1.9909	8.300216	0.000276	2.759290	0.934873	-0.000111
 956	9.5022e+01	1.9524	8.194714	0.000264	2.637108	0.893476	-0.000106
 957	9.5122e+01	1.9074	8.087583	0.000268	2.677835	0.907275	-0.000108
 958	9.5222e+01	1.8609	7.980859	0.000267	2.667653	0.903825	-0.000107
 959	9.5321e+01	1.8192	7.875357	0.000264	2.637108	0.893476	-0.000106
 960	9.5421e+01	1.7839	7.762931	0.000281	2.810200	0.952121	-0.000113
 961	9.5520e+01	1.7566	7.661095	0.000255	2.545471	0.862429	-0.000102
 962	9.5620e+01	1.7053	7.548668	0.000281	2.810200	0.952121	-0.000113
 963	9.5719e+01	1.6732	7.442352	0.000266	2.657471	0.900376	-0.000107
 964	9.5819e+01	1.6379	7.330740	0.000279	2.789836	0.945222	-0.000112
 965	9.5918e+01	1.5625	7.225646	0.000263	2.626926	0.890027	-0.000106
 966	9.6017e+01	1.5288	7.114849	0.000277	2.769472	0.938323	-0.000111
 967	9.6117e+01	1.5096	7.005681	0.000273	2.728744	0.924524	-0.000110
 968	9.6216e+01	1.4518	6.894069	0.000279	2.789836	0.945222	-0.000112
 969	9.6316e+01	1.4406	6.788567	0.000264	2.637108	0.893476	-0.000106
 970	9.6415e+01	1.3780	6.678992	0.000274	2.738926	0.927973	-0.000110
 971	9.6515e+01	1.3556	6.567788	0.000278	2.779654	0.941772	-0.000112
 972	9.6615e+01	1.3107	6.453732	0.000285	2.850927	0.965920	-0.000115
 973	9.6714e+01	1.2786	6.345786	0.000270	2.698199	0.914175	-0.000108
 974	9.6814e+01	1.2112	6.232545	0.000283	2.830563	0.959021	-0.000114
 975	9.6913e+01	1.1647	6.123377	0.000273	2.728744	0.924524	-0.000110
 976	9.7013e+01	1.1390	6.011358	0.000280	2.800018	0.948672	-0.000113
 977	9.7112e+01	1.1053	5.899339	0.000280	2.800018	0.948672	-0.000113
 978	9.7212e+01	1.0556	5.787319	0.000280	2.800018	0.948672	-0.000113
 979	9.7311e+01	1.0379	5.676115	0.000278	2.779654	0.941772	-0.000112
 980	9.7410e+01	0.9802	5.565318	0.000277	2.769472	0.938323	-0.000111
 981	9.7510e+01	0.9417	5.449225	0.000290	2.901836	0.983169	-0.000117
 982	9.7609e+01	0.9016	5.341687	0.000269	2.688017	0.910725	-0.000108
 983	9.7709e+01	0.8663	5.230889	0.000277	2.769472	0.938323	-0.000111
 984	9.7808e+01	0.8294	5.113982	0.000292	2.922200	0.990068	-0.000117
 985	9.7908e+01	0.7941	4.998297	0.000289	2.891655	0.979719	-0.000116
 986	9.8007e+01	0.7492	4.885870	0.000281	2.810200	0.952121	-0.000113
 987	9.8107e+01	0.7091	4.770185	0.000289	2.891655	0.979719	-0.000116
 988	9.8207e+01	0.6866	4.661017	0.000273	2.728744	0.924524	-0.000110
 989	9.8306e+01	0.6321	4.544517	0.000291	2.912018	0.986619	-0.000117
 990	9.8406e+01	0.5920	4.434535	0.000275	2.749108	0.931423	-0.000111
 991	9.8505e+01	0.5679	4.321701	0.000282	2.820381	0.955571	-0.000113
 992	9.8605e+01	0.5069	4.206830	0.000287	2.871291	0.972820	-0.000115
 993	9.8704e+01	0.4668	4.087479	0.000298	2.983292	1.010767	-0.000120
 994	9.8803e+01	0.4380	3.971386	0.000290	2.901836	0.983169	-0.000117
 995	9.8903e+01	0.3946	3.853664	0.000294	2.942564	0.996968	-0.000118
 996	9.9002e+01	0.3706	3.737979	0.000289	2.891655	0.979719	-0.000116
 997	9.9102e+01	0.3064	3.621479	0.000291	2.912018	0.986619	-0.000117
 998	9.9201e+01	0.2888	3.507016	0.000286	2.861109	0.969370	-0.000115
 999	9.9301e+01	0.2567	3.384406	0.000306	3.064747	1.038364	-0.000123
1000	9.9400e+01	0.2021	3.267498	0.000292	2.922200	0.990068	-0.000117
1001	9.9500e+01	0.1332	3.151813	0.000289	2.891655	0.979719	-0.000116
1002	9.9600e+01	0.1348	3.025944	-0.000315	-3.146202	-1.065962	-0.000127
1003	9.9699e+01	0.0770	2.911481	0.000286	2.861109	0.969370	-0.000115
1004	9.9799e+01	0.0305	2.786834	0.000312	3.115656	1.055613	-0.000125
1005	9.9898e+01	-0.0064	2.699663	0.000218	2.178923	0.738239	-0.000088
1006	9.9998e+01	-0.0513	2.575016	0.000312	3.115656	1.055613	-0.000125
1007	1.0010e+02	-0.0578	2.455665	0.000298	2.983292	1.010767	-0.000120
1008	1.0020e+02	-0.1043	2.334276	0.000303	3.034201	1.028015	-0.000122
1009	1.0030e+02	-0.1524	2.217369	0.000292	2.922200	0.990068	-0.000117
1010	1.0040e+02	-0.2069	2.093130	0.000311	3.105474	1.052163	-0.000125
1011	1.0050e+02	-0.2406	1.976630	0.000291	2.912018	0.986619	-0.000117
1012	1.0059e+02	-0.2872	1.853205	0.000309	3.085110	1.045264	-0.000124
1013	1.0069e+02	-0.3208	1.728965	0.000311	3.105474	1.052163	-0.000125
1014	1.0079e+02	-0.3658	1.612873	0.000290	2.901836	0.983169	-0.000117
1015	1.0089e+02	-0.4027	1.495151	0.000294	2.942564	0.996968	-0.000118
1016	1.0099e+02	-0.4380	1.375392	0.000299	2.993473	1.014216	-0.000120
1017	1.0109e+02	-0.4684	1.253597	0.000304	3.044383	1.031465	-0.000122
1018	1.0119e+02	-0.5182	1.128543	0.000313	3.125838	1.059063	-0.000126
1019	1.0129e+02	-0.5615	1.014079	0.000286	2.861109	0.969370	-0.000115
1020	1.0139e+02	-0.6080	0.892284	0.000304	3.044383	1.031465	-0.000122
1021	1.0149e+02	-0.6305	0.771303	0.000302	3.024019	1.024565	-0.000122
1022	1.0159e+02	-0.6914	0.643805	0.000319	3.186929	1.079761	-0.000128
1023	1.0169e+02	-0.7155	0.532193	0.000279	2.789836	0.945222	-0.000112
1024	1.0179e+02	-0.7444	0.409990	0.000305	3.054565	1.034915	-0.000123
1025	1.0189e+02	-0.7813	0.288602	0.000303	3.034201	1.028015	-0.000122
1026	1.0199e+02	-0.8454	0.163141	0.000314	3.136020	1.062512	-0.000126
1027	1.0209e+02	-0.8968	0.047863	0.000288	2.881473	0.976269	-0.000116
1028	1.0219e+02	-0.9048	-0.074747	0.000306	3.064747	1.038364	-0.000123
1029	1.0229e+02	-0.9657	-0.196135	0.000303	3.034201	1.028015	-0.000122
1030	1.0239e+02	-0.9898	-0.318338	0.000305	3.054565	1.034915	-0.000123
1031	1.0248e+02	-1.0299	-0.445022	0.000317	3.166565	1.072861	-0.000127
1032	1.0258e+02	-1.0893	-0.558670	0.000284	2.840745	0.962471	-0.000114
1033	1.0268e+02	-1.1053	-0.682502	0.000310	3.095292	1.048713	-0.000124
1034	1.0278e+02	-1.1550	-0.801446	0.000297	2.973110	1.007317	-0.000120
1035	1.0288e+02	-1.2112	-0.923649	0.000305	3.054565	1.034915	-0.000123
1036	1.0298e+02	-1.2369	-1.041779	0.000295	2.952746	1.000417	-0.000119
1037	1.0308e+02	-1.2754	-1.163981	0.000305	3.054565	1.034915	-0.000123
1038	1.0318e+02	-1.3058	-1.287813	0.000310	3.095292	1.048713	-0.000124
1039	1.0328e+02	-1.3347	-1.405943	0.000295	2.952746	1.000417	-0.000119
1040	1.0338e+02	-1.4037	-1.530997	0.000313	3.125838	1.059063	-0.000126
1041	1.0348e+02	-1.4486	-1.649941	0.000297	2.973110	1.007317	-0.000120
1042	1.0358e+02	-1.4903	-1.772958	0.000307	3.074928	1.041814	-0.000124
1043	1.0368e+02	-1.5176	-1.896791	0.000310	3.095292	1.048713	-0.000124
1044	1.0378e+02	-1.5705	-2.020623	0.000310	3.095292	1.048713	-0.000124
1045	1.0388e+02	-1.5898	-2.140381	0.000299	2.993473	1.014216	-0.000120
1046	1.0398e+02	-1.6411	-2.257696	0.000293	2.932382	0.993518	-0.000118
1047	1.0408e+02	-1.6893	-2.386009	0.000321	3.207293	1.086660	-0.000129
1048	1.0418e+02	-1.7069	-2.498436	0.000281	2.810200	0.952121	-0.000113
1049	1.0428e+02	-1.7647	-2.622675	0.000311	3.105474	1.052163	-0.000125
1050	1.0438e+02	-1.7903	-2.744470	0.000304	3.044383	1.031465	-0.000122
1051	1.0447e+02	-1.8336	-2.869525	0.000313	3.125838	1.059063	-0.000126
1052	1.0457e+02	-1.8625	-2.988469	0.000297	2.973110	1.007317	-0.000120
1053	1.0467e+02	-1.9187	-3.109449	0.000302	3.024019	1.024565	-0.000122
1054	1.0477e+02	-1.9443	-3.229208	0.000299	2.993473	1.014216	-0.000120
1055	1.0487e+02	-1.9957	-3.345708	0.000291	2.912018	0.986619	-0.000117
1056	1.0497e+02	-2.0422	-3.469948	0.000311	3.105474	1.052163	-0.000125
1057	1.0507e+02	-2.0743	-3.590521	0.000301	3.013837	1.021116	-0.000121
1058	1.0517e+02	-2.1064	-3.707021	0.000291	2.912018	0.986619	-0.000117
1059	1.0527e+02	-2.1593	-3.828002	0.000302	3.024019	1.024565	-0.000122
1060	1.0537e+02	-2.1785	-3.949390	0.000303	3.034201	1.028015	-0.000122
1061	1.0547e+02	-2.2106	-4.067519	0.000295	2.952746	1.000417	-0.000119
1062	1.0557e+02	-2.2443	-4.187685	0.000300	3.003655	1.017666	-0.000121
1063	1.0567e+02	-2.3021	-4.302148	0.000286	2.861109	0.969370	-0.000115
1064	1.0577e+02	-2.3502	-4.423129	0.000302	3.024019	1.024565	-0.000122
1065	1.0587e+02	-2.3967	-4.540444	0.000293	2.932382	0.993518	-0.000118
1066	1.0597e+02	-2.4336	-4.659795	0.000298	2.983292	1.010767	-0.000120
1067	1.0607e+02	-2.4721	-4.771407	0.000279	2.789836	0.945222	-0.000112
1068	1.0617e+02	-2.4994	-4.892795	0.000303	3.034201	1.028015	-0.000122
1069	1.0627e+02	-2.5571	-5.004407	0.000279	2.789836	0.945222	-0.000112
1070	1.0637e+02	-2.5844	-5.128646	0.000311	3.105474	1.052163	-0.000125
1071	1.0647e+02	-2.6358	-5.236592	0.000270	2.698199	0.914175	-0.000108
1072	1.0656e+02	-2.6727	-5.359202	0.000306	3.064747	1.038364	-0.000123
1073	1.0666e+02	-2.7320	-5.476517	0.000293	2.932382	0.993518	-0.000118
1074	1.0676e+02	-2.7497	-5.593424	0.000292	2.922200	0.990068	-0.000117
1075	1.0686e+02	-2.7801	-5.710739	0.000293	2.932382	0.993518	-0.000118
1076	1.0696e+02	-2.8411	-5.824387	0.000284	2.840745	0.962471	-0.000114
1077	1.0706e+02	-2.8443	-5.932741	0.000271	2.708381	0.917624	-0.000109
1078	1.0716e+02	-2.9181	-6.054943	0.000305	3.054565	1.034915	-0.000123
1079	1.0726e+02	-2.9374	-6.171851	0.000292	2.922200	0.990068	-0.000117
1080	1.0736e+02	-2.9919	-6.276538	0.000262	2.616744	0.886577	-0.000105
1081	1.0746e+02	-3.0272	-6.388557	0.000280	2.800018	0.948672	-0.000113
1082	1.0756e+02	-3.0673	-6.499354	0.000277	2.769472	0.938323	-0.000111
1083	1.0766e+02	-3.0946	-6.616669	0.000293	2.932382	0.993518	-0.000118
1084	1.0776e+02	-3.1411	-6.720948	0.000261	2.606562	0.883127	-0.000105
1085	1.0786e+02	-3.2069	-6.835819	0.000287	2.871291	0.972820	-0.000115
1086	1.0796e+02	-3.2261	-6.946209	0.000276	2.759290	0.934873	-0.000111
1087	1.0806e+02	-3.2662	-7.054969	0.000272	2.718563	0.921074	-0.000109
1088	1.0816e+02	-3.2919	-7.163730	0.000272	2.718563	0.921074	-0.000109
1089	1.0826e+02	-3.3673	-7.273305	0.000274	2.738926	0.927973	-0.000110
1090	1.0836e+02	-3.3881	-7.378807	0.000264	2.637108	0.893476	-0.000106
1091	1.0845e+02	-3.4266	-7.491233	0.000281	2.810200	0.952121	-0.000113
1092	1.0855e+02	-3.4684	-7.597957	0.000267	2.667653	0.903825	-0.000107
1093	1.0865e+02	-3.5229	-7.705088	0.000268	2.677835	0.907275	-0.000108
1094	1.0875e+02	-3.5325	-7.813441	0.000271	2.708381	0.917624	-0.000109
1095	1.0885e+02	-3.5935	-7.921387	0.000270	2.698199	0.914175	-0.000108
1096	1.0895e+02	-3.6384	-8.028111	0.000267	2.667653	0.903825	-0.000107
1097	1.0905e+02	-3.6641	-8.138093	0.000275	2.749108	0.931423	-0.000111
1098	1.0915e+02	-3.7282	-8.244817	0.000267	2.667653	0.903825	-0.000107
1099	1.0925e+02	-3.7491	-8.353985	0.000273	2.728744	0.924524	-0.000110
1100	1.0935e+02	-3.7924	-8.455820	0.000255	2.545471	0.862429	-0.000102
1101	1.0945e+02	-3.8213	-8.566618	0.000277	2.769472	0.938323	-0.000111
1102	1.0955e+02	-3.8726	-8.671712	0.000263	2.626926	0.890027	-0.000106
1103	1.0965e+02	-3.8935	-8.775992	0.000261	2.606562	0.883127	-0.000105
1104	1.0975e+02	-3.9560	-8.885159	0.000273	2.728744	0.924524	-0.000110
1105	1.0985e+02	-3.9817	-8.991883	0.000267	2.667653	0.903825	-0.000107
1106	1.0995e+02	-4.0042	-9.094533	0.000257	2.565834	0.869328	-0.000103
1107	1.1005e+02	-4.0667	-9.196776	0.000256	2.555652	0.865879	-0.000103
1108	1.1015e+02	-4.1036	-9.305944	0.000273	2.728744	0.924524	-0.000110
1109	1.1025e+02	-4.1502	-9.405743	0.000249	2.494561	0.845180	-0.000100
1110	1.1035e+02	-4.1742	-9.515726	0.000275	2.749108	0.931423	-0.000111
1111	1.1044e+02	-4.2207	-9.619191	0.000259	2.586198	0.876228	-0.000104
1112	1.1054e+02	-4.2624	-9.720619	0.000254	2.535289	0.858979	-0.000102
1113	1.1064e+02	-4.2961	-9.822047	0.000254	2.535289	0.858979	-0.000102
1114	1.1074e+02	-4.3170	-9.929993	0.000270	2.698199	0.914175	-0.000108
1115	1.1084e+02	-4.3796	-10.030199	0.000250	2.504743	0.848630	-0.000101
1116	1.1094e+02	-4.4277	-10.133257	0.000258	2.576016	0.872778	-0.000104
1117	1.1104e+02	-4.4614	-10.237129	0.000260	2.596380	0.879677	-0.000104
1118	1.1114e+02	-4.5047	-10.343038	0.000265	2.647289	0.896926	-0.000106
1119	1.1124e+02	-4.5432	-10.443245	0.000250	2.504743	0.848630	-0.000101
1120	1.1134e+02	-4.5705	-10.542229	0.000247	2.474197	0.838281	-0.000099
1121	1.1144e+02	-4.6106	-10.640398	0.000245	2.453834	0.831381	-0.000099
1122	1.1154e+02	-4.6635	-10.748752	0.000271	2.708381	0.917624	-0.000109
1123	1.1164e+02	-4.6876	-10.849365	0.000251	2.514925	0.852080	-0.000101
1124	1.1174e+02	-4.7373	-10.945498	0.000240	2.402924	0.814133	-0.000097
1125	1.1184e+02	-4.7774	-11.043668	0.000245	2.453834	0.831381	-0.000099
1126	1.1194e+02	-4.8159	-11.146725	0.000258	2.576016	0.872778	-0.000104
1127	1.1204e+02	-4.8721	-11.245709	0.000247	2.474197	0.838281	-0.000099
1128	1.1214e+02	-4.9090	-11.346730	0.000253	2.525107	0.855529	-0.000102
1129	1.1224e+02	-4.9250	-11.440827	0.000235	2.352015	0.796884	-0.000095
1130	1.1234e+02	-4.9731	-11.539403	0.000246	2.464016	0.834831	-0.000099
1131	1.1244e+02	-5.0341	-11.641239	0.000255	2.545471	0.862429	-0.000102
1132	1.1253e+02	-5.0678	-11.738187	0.000242	2.423288	0.821032	-0.000097
1133	1.1263e+02	-5.0999	-11.837578	0.000248	2.484379	0.841730	-0.000100
1134	1.1273e+02	-5.1608	-11.933711	0.000240	2.402924	0.814133	-0.000097
1135	1.1283e+02	-5.1993	-12.033917	0.000250	2.504743	0.848630	-0.000101
1136	1.1293e+02	-5.2250	-12.131272	0.000243	2.433470	0.824482	-0.000098
1137	1.1303e+02	-5.2587	-12.226998	0.000239	2.392742	0.810683	-0.000096
1138	1.1313e+02	-5.2715	-12.323131	0.000240	2.402924	0.814133	-0.000097
1139	1.1323e+02	-5.3630	-12.423744	0.000251	2.514925	0.852080	-0.000101
1140	1.1333e+02	-5.3549	-12.522321	-0.000246	-2.464016	-0.834831	-0.000099
1141	1.1343e+02	-5.4191	-12.623749	0.000254	2.535289	0.858979	-0.000102
1142	1.1353e+02	-5.4720	-12.712550	0.000222	2.219650	0.752038	-0.000089
1143	1.1363e+02	-5.4993	-12.815608	0.000258	2.576016	0.872778	-0.000104
1144	1.1373e+02	-5.5458	-12.908482	0.000232	2.321469	0.786535	-0.000093
1145	1.1383e+02	-5.5811	-13.004207	0.000239	2.392742	0.810683	-0.000096
1146	1.1393e+02	-5.6341	-13.101155	0.000242	2.423288	0.821032	-0.000097
1147	1.1403e+02	-5.6694	-13.203805	0.000257	2.565834	0.869328	-0.000103
1148	1.1413e+02	-5.6742	-13.295457	0.000229	2.290924	0.776186	-0.000092
1149	1.1423e+02	-5.7528	-13.395256	0.000249	2.494561	0.845180	-0.000100
1150	1.1433e+02	-5.7480	-13.493018	-0.000244	-2.443652	-0.827932	-0.000098
1151	1.1442e+02	-5.8202	-13.586707	0.000234	2.341833	0.793434	-0.000094
1152	1.1452e+02	-5.8490	-13.686913	0.000250	2.504743	0.848630	-0.000101
1153	1.1462e+02	-5.9084	-13.785898	0.000247	2.474197	0.838281	-0.000099
1154	1.1472e+02	-5.9453	-13.879586	0.000234	2.341833	0.793434	-0.000094
1155	1.1482e+02	-5.9806	-13.970016	0.000226	2.260378	0.765837	-0.000091
1156	1.1492e+02	-6.0159	-14.069408	0.000248	2.484379	0.841730	-0.000100
1157	1.1502e+02	-6.0704	-14.167578	0.000245	2.453834	0.831381	-0.000099
1158	1.1512e+02	-6.1073	-14.259637	0.000230	2.301105	0.779636	-0.000093
1159	1.1522e+02	-6.1570	-14.354141	0.000236	2.362197	0.800334	-0.000095
1160	1.1532e+02	-6.1715	-14.453532	0.000248	2.484379	0.841730	-0.000100
1161	1.1542e+02	-6.2148	-14.551294	0.000244	2.443652	0.827932	-0.000098
1162	1.1552e+02	-6.2613	-14.642946	0.000229	2.290924	0.776186	-0.000092
1163	1.1562e+02	-6.2902	-14.745189	0.000256	2.555652	0.865879	-0.000103
1164	1.1572e+02	-6.3512	-14.836841	0.000229	2.290924	0.776186	-0.000092
1165	1.1582e+02	-6.3800	-14.937862	0.000253	2.525107	0.855529	-0.000102
1166	1.1592e+02	-6.4233	-15.038476	0.000251	2.514925	0.852080	-0.000101
1167	1.1602e+02	-6.4394	-15.127684	0.000223	2.229832	0.755488	-0.000090
1168	1.1612e+02	-6.4907	-15.218114	0.000226	2.260378	0.765837	-0.000091
1169	1.1622e+02	-6.5228	-15.317506	0.000248	2.484379	0.841730	-0.000100
1170	1.1632e+02	-6.5693	-15.415675	0.000245	2.453834	0.831381	-0.000099
1171	1.1642e+02	-6.6367	-15.513845	0.000245	2.453834	0.831381	-0.000099
1172	1.1651e+02	-6.6544	-15.612422	0.000246	2.464016	0.834831	-0.000099
1173	1.1661e+02	-6.6993	-15.708147	0.000239	2.392742	0.810683	-0.000096
1174	1.1671e+02	-6.7474	-15.808353	0.000250	2.504743	0.848630	-0.000101
1175	1.1681e+02	-6.7843	-15.904079	0.000239	2.392742	0.810683	-0.000096
1176	1.1691e+02	-6.8308	-16.007544	0.000259	2.586198	0.876228	-0.000104
1177	1.1701e+02	-6.8453	-16.097974	0.000226	2.260378	0.765837	-0.000091
1178	1.1711e+02	-6.8934	-16.198180	0.000250	2.504743	0.848630	-0.000101
1179	1.1721e+02	-6.9367	-16.300831	0.000257	2.565834	0.869328	-0.000103
1180	1.1731e+02	-6.9640	-16.398593	0.000244	2.443652	0.827932	-0.000098
1181	1.1741e+02	-7.0233	-16.496355	0.000244	2.443652	0.827932	-0.000098
1182	1.1751e+02	-7.0394	-16.595339	0.000247	2.474197	0.838281	-0.000099
1183	1.1761e+02	-7.0923	-16.687399	0.000230	2.301105	0.779636	-0.000093
1184	1.1771e+02	-7.1436	-16.786790	0.000248	2.484379	0.841730	-0.000100
1185	1.1781e+02	-7.1838	-16.883738	0.000242	2.423288	0.821032	-0.000097
1186	1.1791e+02	-7.1966	-16.979871	0.000240	2.402924	0.814133	-0.000097
1187	1.1801e+02	-7.2575	-17.074374	0.000236	2.362197	0.800334	-0.000095
1188	1.1811e+02	-7.2977	-17.171322	0.000242	2.423288	0.821032	-0.000097
1189	1.1821e+02	-7.3474	-17.272750	0.000254	2.535289	0.858979	-0.000102
1190	1.1831e+02	-7.3779	-17.365624	0.000232	2.321469	0.786535	-0.000093
1191	1.1841e+02	-7.3843	-17.464608	0.000247	2.474197	0.838281	-0.000099
1192	1.1850e+02	-7.4565	-17.564814	0.000250	2.504743	0.848630	-0.000101
1193	1.1860e+02	-7.4805	-17.660133	0.000238	2.382560	0.807233	-0.000096
1194	1.1870e+02	-7.5206	-17.757895	0.000244	2.443652	0.827932	-0.000098
1195	1.1880e+02	-7.5672	-17.855657	0.000244	2.443652	0.827932	-0.000098
1196	1.1890e+02	-7.5928	-17.945272	0.000224	2.240014	0.758937	-0.000090
1197	1.1900e+02	-7.6426	-18.049552	0.000261	2.606562	0.883127	-0.000105
1198	1.1910e+02	-7.6827	-18.146092	0.000241	2.413106	0.817582	-0.000097
1199	1.1920e+02	-7.7132	-18.241003	0.000237	2.372379	0.803784	-0.000095
1200	1.1930e+02	-7.7549	-18.335099	0.000235	2.352015	0.796884	-0.000095
1201	1.1940e+02	-7.8078	-18.433269	0.000245	2.453834	0.831381	-0.000099
1202	1.1950e+02	-7.8575	-18.526550	0.000233	2.331651	0.789985	-0.000094
1203	1.1960e+02	-7.8768	-18.624720	0.000245	2.453834	0.831381	-0.000099
1204	1.1970e+02	-7.9329	-18.718816	0.000235	2.352015	0.796884	-0.000095
1205	1.1980e+02	-7.9474	-18.817800	0.000247	2.474197	0.838281	-0.000099
1206	1.1990e+02	-7.9987	-18.913118	0.000238	2.382560	0.807233	-0.000096
1207	1.2000e+02	-8.0581	-19.011695	0.000246	2.464016	0.834831	-0.000099
1208	1.2010e+02	-8.0821	-19.107828	0.000240	2.402924	0.814133	-0.000097
1209	1.2020e+02	-8.1319	-19.204368	0.000241	2.413106	0.817582	-0.000097
1210	1.2030e+02	-8.1655	-19.306611	0.000256	2.555652	0.865879	-0.000103
1211	1.2039e+02	-8.2057	-19.404781	0.000245	2.453834	0.831381	-0.000099
1212	1.2049e+02	-8.2490	-19.500099	0.000238	2.382560	0.807233	-0.000096
1213	1.2059e+02	-8.2762	-19.598676	0.000246	2.464016	0.834831	-0.000099
1214	1.2069e+02	-8.3276	-19.696438	0.000244	2.443652	0.827932	-0.000098
1215	1.2079e+02	-8.3709	-19.791756	0.000238	2.382560	0.807233	-0.000096
1216	1.2089e+02	-8.4158	-19.887482	0.000239	2.392742	0.810683	-0.000096
1217	1.2099e+02	-8.4591	-19.983615	0.000240	2.402924	0.814133	-0.000097
1218	1.2109e+02	-8.4816	-20.084228	0.000251	2.514925	0.852080	-0.000101
1219	1.2119e+02	-8.5281	-20.180361	0.000240	2.402924	0.814133	-0.000097
1220	1.2129e+02	-8.5457	-20.274050	0.000234	2.341833	0.793434	-0.000094
1221	1.2139e+02	-8.6115	-20.371812	0.000244	2.443652	0.827932	-0.000098
1222	1.2149e+02	-8.6436	-20.469982	0.000245	2.453834	0.831381	-0.000099
1223	1.2159e+02	-8.6885	-20.567744	0.000244	2.443652	0.827932	-0.000098
1224	1.2169e+02	-8.7350	-20.662655	0.000237	2.372379	0.803784	-0.000095
1225	1.2179e+02	-8.7543	-20.753899	0.000228	2.280742	0.772736	-0.000092
1226	1.2189e+02	-8.7944	-20.854920	0.000253	2.525107	0.855529	-0.000102
1227	1.2199e+02	-8.8425	-20.949016	0.000235	2.352015	0.796884	-0.000095
1228	1.2209e+02	-8.8874	-21.050037	0.000253	2.525107	0.855529	-0.000102
1229	1.2219e+02	-8.9324	-21.143319	0.000233	2.331651	0.789985	-0.000094
1230	1.2229e+02	-8.9725	-21.236600	0.000233	2.331651	0.789985	-0.000094
1231	1.2239e+02	-8.9933	-21.331918	0.000238	2.382560	0.807233	-0.000096
1232	1.2248e+02	-9.0543	-21.428051	0.000240	2.402924	0.814133	-0.000097
1233	1.2258e+02	-9.0784	-21.529887	0.000255	2.545471	0.862429	-0.000102
1234	1.2268e+02	-9.1201	-21.614614	0.000212	2.117832	0.717541	-0.000085
1235	1.2278e+02	-9.1618	-21.713598	0.000247	2.474197	0.838281	-0.000099
1236	1.2288e+02	-9.1939	-21.808509	0.000237	2.372379	0.803784	-0.000095
1237	1.2298e+02	-9.2548	-21.901791	0.000233	2.331651	0.789985	-0.000094
1238	1.2308e+02	-9.2981	-21.996294	0.000236	2.362197	0.800334	-0.000095
1239	1.2318e+02	-9.3382	-22.089983	0.000234	2.341833	0.793434	-0.000094
1240	1.2328e+02	-9.3527	-22.183264	0.000233	2.331651	0.789985	-0.000094
1241	1.2338e+02	-9.4008	-22.282249	0.000247	2.474197	0.838281	-0.000099
1242	1.2348e+02	-9.4329	-22.371864	0.000224	2.240014	0.758937	-0.000090
1243	1.2358e+02	-9.4698	-22.465145	0.000233	2.331651	0.789985	-0.000094
1244	1.2368e+02	-9.5372	-22.558834	0.000234	2.341833	0.793434	-0.000094
1245	1.2378e+02	-9.5596	-22.653338	0.000236	2.362197	0.800334	-0.000095
1246	1.2388e+02	-9.5885	-22.745804	0.000231	2.311287	0.783085	-0.000093
1247	1.2398e+02	-9.6527	-22.834605	0.000222	2.219650	0.752038	-0.000089
1248	1.2408e+02	-9.6928	-22.923813	0.000223	2.229832	0.755488	-0.000090
1249	1.2418e+02	-9.7217	-23.014243	0.000226	2.260378	0.765837	-0.000091
1250	1.2428e+02	-9.7505	-23.101414	0.000218	2.178923	0.738239	-0.000088
1251	1.2438e+02	-9.8083	-23.196325	0.000237	2.372379	0.803784	-0.000095
1252	1.2447e+02	-9.8500	-23.289199	0.000232	2.321469	0.786535	-0.000093
1253	1.2457e+02	-9.9045	-23.379629	0.000226	2.260378	0.765837	-0.000091
1254	1.2467e+02	-9.9254	-23.470059	0.000226	2.260378	0.765837	-0.000091
1255	1.2477e+02	-9.9430	-23.557231	0.000218	2.178923	0.738239	-0.000088
1256	1.2487e+02	-9.9928	-23.641551	0.000211	2.107650	0.714091	-0.000085
1257	1.2497e+02	-10.0601	-23.735239	0.000234	2.341833	0.793434	-0.000094
1258	1.2507e+02	-10.0810	-23.827299	0.000230	2.301105	0.779636	-0.000093
1259	1.2517e+02	-10.1307	-23.913655	0.000216	2.158559	0.731340	-0.000087
1260	1.2527e+02	-10.1580	-24.005715	0.000230	2.301105	0.779636	-0.000093
1261	1.2537e+02	-10.1949	-24.085554	0.000200	1.995649	0.676144	-0.000080
1262	1.2547e+02	-10.2270	-24.177206	0.000229	2.290924	0.776186	-0.000092
1263	1.2557e+02	-10.2831	-24.256638	0.000199	1.985467	0.672694	-0.000080
1264	1.2567e+02	-10.3104	-24.352363	0.000239	2.392742	0.810683	-0.000096
1265	1.2577e+02	-10.3633	-24.435869	0.000209	2.087286	0.707192	-0.000084
1266	1.2587e+02	-10.4051	-24.525484	0.000224	2.240014	0.758937	-0.000090
1267	1.2597e+02	-10.4548	-24.611433	0.000215	2.148377	0.727890	-0.000086
1268	1.2607e+02	-10.4756	-24.702271	0.000227	2.270560	0.769286	-0.000091
1269	1.2617e+02	-10.5125	-24.788220	0.000215	2.148377	0.727890	-0.000086
1270	1.2627e+02	-10.5687	-24.877835	0.000224	2.240014	0.758937	-0.000090
1271	1.2636e+02	-10.5944	-24.963785	0.000215	2.148377	0.727890	-0.000086
1272	1.2646e+02	-10.6264	-25.050141	0.000216	2.158559	0.731340	-0.000087
1273	1.2656e+02	-10.6826	-25.140164	0.000225	2.250196	0.762387	-0.000090
1274	1.2666e+02	-10.6890	-25.226113	0.000215	2.148377	0.727890	-0.000086
1275	1.2676e+02	-10.7869	-25.311248	0.000213	2.128013	0.720990	-0.000086
1276	1.2686e+02	-10.8238	-25.398419	0.000218	2.178923	0.738239	-0.000088
1277	1.2696e+02	-10.8029	-25.482739	-0.000211	-2.107650	-0.714091	-0.000085
1278	1.2706e+02	-10.8719	-25.566244	0.000209	2.087286	0.707192	-0.000084
1279	1.2716e+02	-10.9248	-25.652601	0.000216	2.158559	0.731340	-0.000087
1280	1.2726e+02	-10.9569	-25.738957	0.000216	2.158559	0.731340	-0.000087
1281	1.2736e+02	-10.9938	-25.824499	0.000214	2.138195	0.724440	-0.000086
1282	1.2746e+02	-11.0371	-25.910856	0.000216	2.158559	0.731340	-0.000087
1283	1.2756e+02	-11.0548	-25.990695	0.000200	1.995649	0.676144	-0.000080
1284	1.2766e+02	-11.1238	-26.080718	0.000225	2.250196	0.762387	-0.000090
1285	1.2776e+02	-11.1639	-26.167889	0.000218	2.178923	0.738239	-0.000088
1286	1.2786e+02	-11.2024	-26.251802	0.000210	2.097468	0.710641	-0.000084
1287	1.2796e+02	-11.2553	-26.341824	0.000225	2.250196	0.762387	-0.000090
1288	1.2806e+02	-11.3018	-26.420849	0.000198	1.975285	0.669245	-0.000079
1289	1.2816e+02	-11.3002	-26.511279	-0.000226	-2.260378	-0.765837	-0.000091
1290	1.2826e+02	-11.3676	-26.589896	0.000197	1.965103	0.665795	-0.000079
1291	1.2835e+02	-11.3820	-26.675845	0.000215	2.148377	0.727890	-0.000086
1292	1.2845e+02	-11.4237	-26.756092	0.000201	2.005831	0.679594	-0.000081
1293	1.2855e+02	-11.4783	-26.840004	0.000210	2.097468	0.710641	-0.000084
1294	1.2865e+02	-11.5120	-26.919029	0.000198	1.975285	0.669245	-0.000079
1295	1.2875e+02	-11.5553	-27.002534	0.000209	2.087286	0.707192	-0.000084
1296	1.2885e+02	-11.5986	-27.081966	0.000199	1.985467	0.672694	-0.000080
1297	1.2895e+02	-11.6179	-27.168322	0.000216	2.158559	0.731340	-0.000087
1298	1.2905e+02	-11.6788	-27.249791	0.000204	2.036376	0.689943	-0.000082
1299	1.2915e+02	-11.7237	-27.333704	0.000210	2.097468	0.710641	-0.000084
1300	1.2925e+02	-11.7462	-27.413950	0.000201	2.005831	0.679594	-0.000081
1301	1.2935e+02	-11.7863	-27.495419	0.000204	2.036376	0.689943	-0.000082
1302	1.2945e+02	-11.8120	-27.574850	0.000199	1.985467	0.672694	-0.000080
1303	1.2955e+02	-11.8585	-27.659170	0.000211	2.107650	0.714091	-0.000085
1304	1.2965e+02	-11.9243	-27.741453	0.000206	2.056740	0.696842	-0.000083
1305	1.2975e+02	-11.9515	-27.822515	0.000203	2.026195	0.686493	-0.000081
1306	1.2985e+02	-12.0029	-27.904798	0.000206	2.056740	0.696842	-0.000083
1307	1.2995e+02	-12.0446	-27.986266	0.000204	2.036376	0.689943	-0.000082
1308	1.3005e+02	-12.0879	-28.068957	0.000207	2.066922	0.700292	-0.000083
1309	1.3015e+02	-12.1248	-28.152462	0.000209	2.087286	0.707192	-0.000084
1310	1.3025e+02	-12.1617	-28.234338	0.000205	2.046558	0.693393	-0.000082
1311	1.3034e+02	-12.1906	-28.311733	0.000193	1.934558	0.655446	-0.000078
1312	1.3044e+02	-12.2339	-28.400534	0.000222	2.219650	0.752038	-0.000089
1313	1.3054e+02	-12.2579	-28.472226	0.000179	1.792011	0.607150	-0.000072
1314	1.3064e+02	-12.3205	-28.555731	0.000209	2.087286	0.707192	-0.000084
1315	1.3074e+02	-12.3478	-28.638829	0.000208	2.077104	0.703742	-0.000084
1316	1.3084e+02	-12.4023	-28.722334	0.000209	2.087286	0.707192	-0.000084
1317	1.3094e+02	-12.4152	-28.803395	0.000203	2.026195	0.686493	-0.000081
1318	1.3104e+02	-12.4601	-28.884864	0.000204	2.036376	0.689943	-0.000082
1319	1.3114e+02	-12.5002	-28.967147	0.000206	2.056740	0.696842	-0.000083
1320	1.3124e+02	-12.5403	-29.051467	0.000211	2.107650	0.714091	-0.000085
1321	1.3134e+02	-12.5836	-29.126825	0.000188	1.883648	0.638197	-0.000076
1322	1.3144e+02	-12.6045	-29.209923	0.000208	2.077104	0.703742	-0.000084
1323	1.3154e+02	-12.6783	-29.288133	0.000195	1.954921	0.662345	-0.000079
1324	1.3164e+02	-12.7200	-29.369602	0.000204	2.036376	0.689943	-0.000082
1325	1.3174e+02	-12.7472	-29.453514	0.000210	2.097468	0.710641	-0.000084
1326	1.3184e+02	-12.8098	-29.532539	0.000198	1.975285	0.669245	-0.000079
1327	1.3194e+02	-12.8451	-29.612378	0.000200	1.995649	0.676144	-0.000080
1328	1.3204e+02	-12.8708	-29.694254	0.000205	2.046558	0.693393	-0.000082
1329	1.3214e+02	-12.9028	-29.778166	0.000210	2.097468	0.710641	-0.000084
1330	1.3224e+02	-12.9510	-29.859227	0.000203	2.026195	0.686493	-0.000081
1331	1.3234e+02	-12.9847	-29.939474	0.000201	2.005831	0.679594	-0.000081
1332	1.3243e+02	-13.0200	-30.023794	0.000211	2.107650	0.714091	-0.000085
1333	1.3253e+02	-13.0617	-30.105262	0.000204	2.036376	0.689943	-0.000082
1334	1.3263e+02	-13.1098	-30.191619	0.000216	2.158559	0.731340	-0.000087
1335	1.3273e+02	-13.1435	-30.276753	0.000213	2.128013	0.720990	-0.000086
1336	1.3283e+02	-13.1724	-30.354556	0.000194	1.944740	0.658896	-0.000078
1337	1.3293e+02	-13.2253	-30.441727	0.000218	2.178923	0.738239	-0.000088
1338	1.3303e+02	-13.2590	-30.526862	0.000213	2.128013	0.720990	-0.000086
1339	1.3313e+02	-13.3087	-30.608330	0.000204	2.036376	0.689943	-0.000082
1340	1.3323e+02	-13.3488	-30.695502	0.000218	2.178923	0.738239	-0.000088
1341	1.3333e+02	-13.3825	-30.774526	0.000198	1.975285	0.669245	-0.000079
1342	1.3343e+02	-13.4274	-30.856402	0.000205	2.046558	0.693393	-0.000082
1343	1.3353e+02	-13.4804	-30.946425	0.000225	2.250196	0.762387	-0.000090
1344	1.3363e+02	-13.5173	-31.025042	0.000197	1.965103	0.665795	-0.000079
1345	1.3373e+02	-13.5461	-31.116286	0.000228	2.280742	0.772736	-0.000092
1346	1.3383e+02	-13.5814	-31.196126	0.000200	1.995649	0.676144	-0.000080
1347	1.3393e+02	-13.6296	-31.282482	0.000216	2.158559	0.731340	-0.000087
1348	1.3403e+02	-13.6616	-31.368839	0.000216	2.158559	0.731340	-0.000087
1349	1.3413e+02	-13.7018	-31.449085	0.000201	2.005831	0.679594	-0.000081
1350	1.3423e+02	-13.7435	-31.532998	0.000210	2.097468	0.710641	-0.000084
1351	1.3432e+02	-13.7900	-31.620984	0.000220	2.199287	0.745138	-0.000088
1352	1.3442e+02	-13.8413	-31.704082	0.000208	2.077104	0.703742	-0.000084
1353	1.3452e+02	-13.8429	-31.782292	0.000195	1.954921	0.662345	-0.000079
1354	1.3462e+02	-13.9007	-31.865389	0.000208	2.077104	0.703742	-0.000084
1355	1.3472e+02	-13.9472	-31.950931	0.000214	2.138195	0.724440	-0.000086
1356	1.3482e+02	-13.9697	-32.034844	0.000210	2.097468	0.710641	-0.000084
1357	1.3492e+02	-14.0162	-32.117942	0.000208	2.077104	0.703742	-0.000084
1358	1.3502e+02	-14.0531	-32.203484	0.000214	2.138195	0.724440	-0.000086
1359	1.3512e+02	-14.1156	-32.288211	0.000212	2.117832	0.717541	-0.000085
1360	1.3522e+02	-14.1365	-32.373753	0.000214	2.138195	0.724440	-0.000086
1361	1.3532e+02	-14.1606	-32.456036	0.000206	2.056740	0.696842	-0.000083
1362	1.3542e+02	-14.2151	-32.541578	0.000214	2.138195	0.724440	-0.000086
1363	1.3552e+02	-14.2793	-32.620195	0.000197	1.965103	0.665795	-0.000079
1364	1.3562e+02	-14.2937	-32.709403	0.000223	2.229832	0.755488	-0.000090
1365	1.3572e+02	-14.3450	-32.793316	0.000210	2.097468	0.710641	-0.000084
1366	1.3582e+02	-14.3755	-32.875192	0.000205	2.046558	0.693393	-0.000082
1367	1.3592e+02	-14.4365	-32.952179	0.000192	1.924376	0.651996	-0.000077
1368	1.3602e+02	-14.4670	-33.041387	0.000223	2.229832	0.755488	-0.000090
1369	1.3612e+02	-14.5039	-33.127337	0.000215	2.148377	0.727890	-0.000086
1370	1.3622e+02	-14.5696	-33.207990	0.000202	2.016013	0.683044	-0.000081
1371	1.3631e+02	-14.5552	-33.289459	-0.000204	-2.036376	-0.689943	-0.000082
1372	1.3641e+02	-14.6290	-33.376223	0.000217	2.168741	0.734789	-0.000087
1373	1.3651e+02	-14.6274	-33.459321	-0.000208	-2.077104	-0.703742	-0.000084
1374	1.3661e+02	-14.6964	-33.540382	0.000203	2.026195	0.686493	-0.000081
1375	1.3671e+02	-14.7702	-33.627961	0.000219	2.189105	0.741689	-0.000088
1376	1.3681e+02	-14.7734	-33.713910	0.000215	2.148377	0.727890	-0.000086
1377	1.3691e+02	-14.8151	-33.799452	0.000214	2.138195	0.724440	-0.000086
1378	1.3701e+02	-14.8584	-33.884179	0.000212	2.117832	0.717541	-0.000085
1379	1.3711e+02	-14.8857	-33.965648	0.000204	2.036376	0.689943	-0.000082
1380	1.3721e+02	-14.9402	-34.054041	0.000221	2.209468	0.748588	-0.000089
1381	1.3731e+02	-14.9723	-34.137546	0.000209	2.087286	0.707192	-0.000084
1382	1.3741e+02	-15.0156	-34.225940	0.000221	2.209468	0.748588	-0.000089
1383	1.3751e+02	-15.0654	-34.311889	0.000215	2.148377	0.727890	-0.000086
1384	1.3761e+02	-15.1119	-34.390099	0.000195	1.954921	0.662345	-0.000079
1385	1.3771e+02	-15.1375	-34.476048	0.000215	2.148377	0.727890	-0.000086
1386	1.3781e+02	-15.1873	-34.566478	0.000226	2.260378	0.765837	-0.000091
1387	1.3791e+02	-15.2290	-34.646724	0.000201	2.005831	0.679594	-0.000081
1388	1.3801e+02	-15.2546	-34.733488	0.000217	2.168741	0.734789	-0.000087
1389	1.3811e+02	-15.2996	-34.820252	0.000217	2.168741	0.734789	-0.000087
1390	1.3821e+02	-15.3493	-34.898462	0.000195	1.954921	0.662345	-0.000079
1391	1.3831e+02	-15.3734	-34.988485	0.000225	2.250196	0.762387	-0.000090
1392	1.3840e+02	-15.4295	-35.069953	0.000204	2.036376	0.689943	-0.000082
1393	1.3850e+02	-15.4680	-35.154273	0.000211	2.107650	0.714091	-0.000085
1394	1.3860e+02	-15.4937	-35.232890	0.000197	1.965103	0.665795	-0.000079
1395	1.3870e+02	-15.5498	-35.320469	0.000219	2.189105	0.741689	-0.000088
1396	1.3880e+02	-15.5643	-35.402752	0.000206	2.056740	0.696842	-0.000083
1397	1.3890e+02	-15.6252	-35.485850	0.000208	2.077104	0.703742	-0.000084
1398	1.3900e+02	-15.6621	-35.575058	0.000223	2.229832	0.755488	-0.000090
1399	1.3910e+02	-15.7167	-35.657749	0.000207	2.066922	0.700292	-0.000083
1400	1.3920e+02	-15.7375	-35.738402	0.000202	2.016013	0.683044	-0.000081
1401	1.3930e+02	-15.7937	-35.822315	0.000210	2.097468	0.710641	-0.000084
1402	1.3940e+02	-15.8225	-35.902969	0.000202	2.016013	0.683044	-0.000081
1403	1.3950e+02	-15.8610	-35.981179	0.000195	1.954921	0.662345	-0.000079
1404	1.3960e+02	-15.8899	-36.068757	0.000219	2.189105	0.741689	-0.000088
1405	1.3970e+02	-15.9364	-36.151855	0.000208	2.077104	0.703742	-0.000084
1406	1.3980e+02	-15.9653	-36.232916	0.000203	2.026195	0.686493	-0.000081
1407	1.3990e+02	-16.0295	-36.320495	0.000219	2.189105	0.741689	-0.000088
1408	1.4000e+02	-16.0728	-36.402778	0.000206	2.056740	0.696842	-0.000083
1409	1.4010e+02	-16.0905	-36.481803	0.000198	1.975285	0.669245	-0.000079
1410	1.4020e+02	-16.1402	-36.560827	0.000198	1.975285	0.669245	-0.000079
1411	1.4029e+02	-16.1707	-36.646369	0.000214	2.138195	0.724440	-0.000086
1412	1.4039e+02	-16.2188	-36.729874	0.000209	2.087286	0.707192	-0.000084
1413	1.4049e+02	-16.2493	-36.810121	0.000201	2.005831	0.679594	-0.000081
1414	1.4059e+02	-16.3006	-36.888330	0.000195	1.954921	0.662345	-0.000079
1415	1.4069e+02	-16.3359	-36.970206	0.000205	2.046558	0.693393	-0.000082
1416	1.4079e+02	-16.3728	-37.049231	0.000198	1.975285	0.669245	-0.000079
1417	1.4089e+02	-16.4241	-37.126626	0.000193	1.934558	0.655446	-0.000078
1418	1.4099e+02	-16.4434	-37.207687	0.000203	2.026195	0.686493	-0.000081
1419	1.4109e+02	-16.5060	-37.287933	0.000201	2.005831	0.679594	-0.000081
1420	1.4119e+02	-16.5300	-37.361662	0.000184	1.842921	0.624398	-0.000074
1421	1.4129e+02	-16.5717	-37.441909	0.000201	2.005831	0.679594	-0.000081
1422	1.4139e+02	-16.6279	-37.522155	0.000201	2.005831	0.679594	-0.000081
1423	1.4149e+02	-16.6487	-37.600365	0.000195	1.954921	0.662345	-0.000079
1424	1.4159e+02	-16.7049	-37.678982	0.000197	1.965103	0.665795	-0.000079
1425	1.4169e+02	-16.7338	-37.759229	0.000201	2.005831	0.679594	-0.000081
1426	1.4179e+02	-16.7883	-37.837846	0.000197	1.965103	0.665795	-0.000079
1427	1.4189e+02	-16.8220	-37.914834	0.000192	1.924376	0.651996	-0.000077
1428	1.4199e+02	-16.8621	-37.991414	0.000191	1.914194	0.648546	-0.000077
1429	1.4209e+02	-16.8990	-38.062699	0.000178	1.781829	0.603700	-0.000072
1430	1.4219e+02	-16.9263	-38.149056	0.000216	2.158559	0.731340	-0.000087
1431	1.4228e+02	-16.9985	-38.221155	0.000180	1.802193	0.610600	-0.000072
1432	1.4238e+02	-17.0065	-38.294477	0.000183	1.832739	0.620949	-0.000074
1433	1.4248e+02	-17.0610	-38.371465	0.000192	1.924376	0.651996	-0.000077
1434	1.4258e+02	-17.0867	-38.454563	0.000208	2.077104	0.703742	-0.000084
1435	1.4268e+02	-17.1460	-38.525440	0.000177	1.771648	0.600250	-0.000071
1436	1.4278e+02	-17.1797	-38.606094	0.000202	2.016013	0.683044	-0.000081
1437	1.4288e+02	-17.2118	-38.688785	0.000207	2.066922	0.700292	-0.000083
1438	1.4298e+02	-17.2359	-38.761292	0.000181	1.812375	0.614049	-0.000073
1439	1.4308e+02	-17.3033	-38.840723	0.000199	1.985467	0.672694	-0.000080
1440	1.4318e+02	-17.3049	-38.915674	0.000187	1.873466	0.634748	-0.000075
1441	1.4328e+02	-17.3931	-38.992255	0.000191	1.914194	0.648546	-0.000077
1442	1.4338e+02	-17.4139	-39.068020	0.000189	1.893830	0.641647	-0.000076
1443	1.4348e+02	-17.4428	-39.145008	0.000192	1.924376	0.651996	-0.000077
1444	1.4358e+02	-17.4974	-39.223625	0.000197	1.965103	0.665795	-0.000079
1445	1.4368e+02	-17.5359	-39.299798	0.000190	1.904012	0.645097	-0.000077
1446	1.4378e+02	-17.5680	-39.374749	0.000187	1.873466	0.634748	-0.000075
1447	1.4388e+02	-17.6129	-39.449700	0.000187	1.873466	0.634748	-0.000075
1448	1.4398e+02	-17.6482	-39.525466	0.000189	1.893830	0.641647	-0.000076
1449	1.4408e+02	-17.6851	-39.603676	0.000195	1.954921	0.662345	-0.000079
1450	1.4418e+02	-17.7316	-39.677405	0.000184	1.842921	0.624398	-0.000074
1451	1.4428e+02	-17.7573	-39.752763	0.000188	1.883648	0.638197	-0.000076
1452	1.4437e+02	-17.8166	-39.831380	0.000197	1.965103	0.665795	-0.000079
1453	1.4447e+02	-17.8439	-39.904702	0.000183	1.832739	0.620949	-0.000074
1454	1.4457e+02	-17.9000	-39.981282	0.000191	1.914194	0.648546	-0.000077
1455	1.4467e+02	-17.9225	-40.055011	0.000184	1.842921	0.624398	-0.000074
1456	1.4477e+02	-17.9466	-40.129962	0.000187	1.873466	0.634748	-0.000075
1457	1.4487e+02	-17.9947	-40.210209	0.000201	2.005831	0.679594	-0.000081
1458	1.4497e+02	-18.0588	-40.282309	0.000180	1.802193	0.610600	-0.000072
1459	1.4507e+02	-18.0845	-40.358889	0.000191	1.914194	0.648546	-0.000077
1460	1.4517e+02	-18.1262	-40.429359	0.000176	1.761466	0.596801	-0.000071
1461	1.4527e+02	-18.1711	-40.505940	0.000191	1.914194	0.648546	-0.000077
1462	1.4537e+02	-18.2337	-40.579669	0.000184	1.842921	0.624398	-0.000074
1463	1.4547e+02	-18.2514	-40.651361	0.000179	1.792011	0.607150	-0.000072
1464	1.4557e+02	-18.2834	-40.722646	0.000178	1.781829	0.603700	-0.000072
1465	1.4567e+02	-18.3123	-40.795560	0.000182	1.822557	0.617499	-0.000073
1466	1.4577e+02	-18.3637	-40.874992	0.000199	1.985467	0.672694	-0.000080
1467	1.4587e+02	-18.3925	-40.944240	0.000173	1.730920	0.586452	-0.000070
1468	1.4597e+02	-18.4230	-41.025301	0.000203	2.026195	0.686493	-0.000081
1469	1.4607e+02	-18.4952	-41.090884	0.000164	1.639283	0.555404	-0.000066
1470	1.4617e+02	-18.5161	-41.171945	0.000203	2.026195	0.686493	-0.000081
1471	1.4626e+02	-18.5690	-41.242008	0.000175	1.751284	0.593351	-0.000070
1472	1.4636e+02	-18.5995	-41.319403	0.000193	1.934558	0.655446	-0.000078
1473	1.4646e+02	-18.6364	-41.393539	0.000185	1.853103	0.627848	-0.000075
1474	1.4656e+02	-18.6845	-41.466861	0.000183	1.832739	0.620949	-0.000074
1475	1.4666e+02	-18.7310	-41.536109	0.000173	1.730920	0.586452	-0.000070
1476	1.4676e+02	-18.7679	-41.615948	0.000200	1.995649	0.676144	-0.000080
1477	1.4686e+02	-18.7856	-41.691306	0.000188	1.883648	0.638197	-0.000076
1478	1.4696e+02	-18.8578	-41.761777	0.000176	1.761466	0.596801	-0.000071
1479	1.4706e+02	-18.8706	-41.838357	0.000191	1.914194	0.648546	-0.000077
1480	1.4716e+02	-18.8947	-41.914530	0.000190	1.904012	0.645097	-0.000077
1481	1.4726e+02	-18.9636	-41.988667	0.000185	1.853103	0.627848	-0.000075
1482	1.4736e+02	-19.0118	-42.065247	0.000191	1.914194	0.648546	-0.000077
1483	1.4746e+02	-19.0262	-42.135310	0.000175	1.751284	0.593351	-0.000070
1484	1.4756e+02	-19.1048	-42.210261	0.000187	1.873466	0.634748	-0.000075
1485	1.4766e+02	-19.1417	-42.286841	0.000191	1.914194	0.648546	-0.000077
1486	1.4776e+02	-19.1497	-42.358941	0.000180	1.802193	0.610600	-0.000072
1487	1.4786e+02	-19.2123	-42.435929	0.000192	1.924376	0.651996	-0.000077
1488	1.4796e+02	-19.2299	-42.517397	0.000204	2.036376	0.689943	-0.000082
1489	1.4806e+02	-19.2797	-42.585016	0.000169	1.690192	0.572653	-0.000068
1490	1.4816e+02	-19.3246	-42.659967	0.000187	1.873466	0.634748	-0.000075
1491	1.4825e+02	-19.3695	-42.733289	0.000183	1.832739	0.620949	-0.000074
1492	1.4835e+02	-19.3920	-42.811091	0.000194	1.944740	0.658896	-0.000078
1493	1.4845e+02	-19.4449	-42.885227	0.000185	1.853103	0.627848	-0.000075
1494	1.4855e+02	-19.4770	-42.960586	0.000188	1.883648	0.638197	-0.000076
1495	1.4865e+02	-19.5203	-43.036352	0.000189	1.893830	0.641647	-0.000076
1496	1.4875e+02	-19.5668	-43.113747	0.000193	1.934558	0.655446	-0.000078
1497	1.4885e+02	-19.6053	-43.190734	0.000192	1.924376	0.651996	-0.000077
1498	1.4895e+02	-19.6374	-43.268944	0.000195	1.954921	0.662345	-0.000079
1499	1.4905e+02	-19.6470	-43.348783	0.000200	1.995649	0.676144	-0.000080
1500	1.4915e+02	-19.7256	-43.424549	0.000189	1.893830	0.641647	-0.000076
1501	1.4925e+02	-19.7834	-43.503981	0.000199	1.985467	0.672694	-0.000080
1502	1.4935e+02	-19.8187	-43.587486	0.000209	2.087286	0.707192	-0.000084
1503	1.4945e+02	-19.8363	-43.664066	0.000191	1.914194	0.648546	-0.000077
1504	1.4955e+02	-19.8845	-43.739832	0.000189	1.893830	0.641647	-0.000076
1505	1.4965e+02	-19.9294	-43.824152	0.000211	2.107650	0.714091	-0.000085
1506	1.4975e+02	-19.9743	-43.898696	0.000186	1.863284	0.631298	-0.000075
1507	1.4985e+02	-19.9952	-43.979350	0.000202	2.016013	0.683044	-0.000081
1508	1.4995e+02	-19.9438	-43.954094	0.000063	0.631277	0.213882	0.000025
1509	1.5005e+02	-19.9198	-43.928024	0.000065	0.651640	0.220782	0.000026
1510	1.5015e+02	-19.8893	-43.895844	0.000080	0.804369	0.272527	0.000032
1511	1.5025e+02	-19.8395	-43.863257	0.000081	0.814551	0.275977	0.000033
1512	1.5034e+02	-19.8187	-43.834743	0.000071	0.712732	0.241480	0.000029
1513	1.5044e+02	-19.7802	-43.800119	0.000087	0.865460	0.293226	0.000035
1514	1.5054e+02	-19.7128	-43.769976	0.000075	0.753459	0.255279	0.000030
1515	1.5064e+02	-19.6887	-43.734944	0.000088	0.875642	0.296676	0.000035
1516	1.5074e+02	-19.6342	-43.695839	0.000098	0.977461	0.331173	0.000039
1517	1.5084e+02	-19.6005	-43.662030	0.000085	0.845096	0.286326	0.000034
1518	1.5094e+02	-19.5957	-43.622518	0.000099	0.987643	0.334622	0.000040
1519	1.5104e+02	-19.4866	-43.585857	0.000092	0.916369	0.310474	0.000037
1520	1.5114e+02	-19.4914	-43.542271	-0.000109	-1.089461	-0.369120	0.000044
1521	1.5124e+02	-19.4385	-43.506018	0.000091	0.906188	0.307025	0.000036
1522	1.5134e+02	-19.4032	-43.469764	0.000091	0.906188	0.307025	0.000036
1523	1.5144e+02	-19.3631	-43.425771	0.000110	1.099643	0.372569	0.000044
1524	1.5154e+02	-19.3021	-43.389110	0.000092	0.916369	0.310474	0.000037
1525	1.5164e+02	-19.2749	-43.349191	0.000100	0.997824	0.338072	0.000040
1526	1.5174e+02	-19.2524	-43.310493	0.000097	0.967279	0.327723	0.000039
1527	1.5184e+02	-19.2107	-43.262834	0.000119	1.191280	0.403617	0.000048
1528	1.5194e+02	-19.1754	-43.222100	0.000102	1.018188	0.344972	0.000041
1529	1.5204e+02	-19.1305	-43.181773	0.000101	1.008006	0.341522	0.000041
1530	1.5214e+02	-19.0567	-43.143075	0.000097	0.967279	0.327723	0.000039
1531	1.5224e+02	-19.0471	-43.092972	0.000125	1.252372	0.424315	0.000050
1532	1.5233e+02	-18.9973	-43.055089	0.000095	0.946915	0.320824	0.000038
1533	1.5243e+02	-18.9652	-43.013948	0.000103	1.028370	0.348421	0.000041
1534	1.5253e+02	-18.9524	-42.970769	0.000108	1.079280	0.365670	0.000043
1535	1.5263e+02	-18.8866	-42.924740	0.000115	1.150553	0.389818	0.000046
1536	1.5273e+02	-18.8401	-42.879932	0.000112	1.120007	0.379469	0.000045
1537	1.5283e+02	-18.8369	-42.835939	0.000110	1.099643	0.372569	0.000044
1538	1.5293e+02	-18.7856	-42.788280	0.000119	1.191280	0.403617	0.000048
1539	1.5303e+02	-18.7326	-42.746731	0.000104	1.038552	0.351871	0.000042
1540	1.5313e+02	-18.6588	-42.697850	0.000122	1.221826	0.413966	0.000049
1541	1.5323e+02	-18.6588	-42.658745	-0.000098	-0.977461	-0.331173	0.000039
1542	1.5333e+02	-18.6075	-42.608235	0.000126	1.262553	0.427765	0.000051
1543	1.5343e+02	-18.5578	-42.568722	0.000099	0.987643	0.334622	0.000040
1544	1.5353e+02	-18.5321	-42.523507	0.000113	1.130189	0.382918	0.000045
1545	1.5363e+02	-18.4888	-42.478700	0.000112	1.120007	0.379469	0.000045
1546	1.5373e+02	-18.4262	-42.436336	0.000106	1.058916	0.358770	0.000043
1547	1.5383e+02	-18.4134	-42.393565	0.000107	1.069098	0.362220	0.000043
1548	1.5393e+02	-18.3620	-42.349165	0.000111	1.109825	0.376019	0.000045
1549	1.5403e+02	-18.3300	-42.296210	0.000132	1.323645	0.448463	0.000053
1550	1.5413e+02	-18.2786	-42.256291	0.000100	0.997824	0.338072	0.000040
1551	1.5422e+02	-18.2465	-42.203336	0.000132	1.323645	0.448463	0.000053
1552	1.5432e+02	-18.2161	-42.163416	0.000100	0.997824	0.338072	0.000040
1553	1.5442e+02	-18.1872	-42.118609	0.000112	1.120007	0.379469	0.000045
1554	1.5452e+02	-18.1294	-42.071357	0.000118	1.181098	0.400167	0.000047
1555	1.5462e+02	-18.0909	-42.020439	0.000127	1.272735	0.431214	0.000051
1556	1.5472e+02	-18.0476	-41.978076	0.000106	1.058916	0.358770	0.000043
1557	1.5482e+02	-18.0171	-41.929195	0.000122	1.221826	0.413966	0.000049
1558	1.5492e+02	-17.9770	-41.883165	0.000115	1.150553	0.389818	0.000046
1559	1.5502e+02	-17.9353	-41.837950	0.000113	1.130189	0.382918	0.000045
1560	1.5512e+02	-17.8856	-41.787439	0.000126	1.262553	0.427765	0.000051
1561	1.5522e+02	-17.8551	-41.740595	0.000117	1.170916	0.396717	0.000047
1562	1.5532e+02	-17.8054	-41.692121	0.000121	1.211644	0.410516	0.000049
1563	1.5542e+02	-17.7829	-41.641611	0.000126	1.262553	0.427765	0.000051
1564	1.5552e+02	-17.7284	-41.594766	0.000117	1.170916	0.396717	0.000047
1565	1.5562e+02	-17.6899	-41.550366	0.000111	1.109825	0.376019	0.000045
1566	1.5572e+02	-17.6401	-41.500263	0.000125	1.252372	0.424315	0.000050
1567	1.5582e+02	-17.6353	-41.449752	0.000126	1.262553	0.427765	0.000051
1568	1.5592e+02	-17.5680	-41.400464	0.000123	1.232008	0.417416	0.000050
1569	1.5602e+02	-17.5343	-41.349139	0.000128	1.282917	0.434664	0.000052
1570	1.5612e+02	-17.4861	-41.303109	0.000115	1.150553	0.389818	0.000046
1571	1.5622e+02	-17.4428	-41.247303	0.000139	1.394918	0.472611	0.000056
1572	1.5631e+02	-17.4316	-41.193941	0.000133	1.333827	0.451913	0.000054
1573	1.5641e+02	-17.3626	-41.145060	0.000122	1.221826	0.413966	0.000049
1574	1.5651e+02	-17.3434	-41.097808	0.000118	1.181098	0.400167	0.000047
1575	1.5661e+02	-17.2840	-41.045669	0.000130	1.303281	0.441564	0.000052
1576	1.5671e+02	-17.2648	-40.994343	0.000128	1.282917	0.434664	0.000052
1577	1.5681e+02	-17.2295	-40.951165	0.000108	1.079280	0.365670	0.000043
1578	1.5691e+02	-17.1492	-40.895359	0.000139	1.394918	0.472611	0.000056
1579	1.5701e+02	-17.1124	-40.842812	0.000131	1.313463	0.445013	0.000053
1580	1.5711e+02	-17.0963	-40.790672	0.000130	1.303281	0.441564	0.000052
1581	1.5721e+02	-17.0386	-40.729978	0.000152	1.517100	0.514008	0.000061
1582	1.5731e+02	-17.0193	-40.682726	0.000118	1.181098	0.400167	0.000047
1583	1.5741e+02	-16.9904	-40.624069	0.000147	1.466191	0.496759	0.000059
1584	1.5751e+02	-16.9214	-40.575595	0.000121	1.211644	0.410516	0.000049
1585	1.5761e+02	-16.9054	-40.517345	0.000146	1.456009	0.493309	0.000059
1586	1.5771e+02	-16.8412	-40.457059	0.000151	1.506919	0.510558	0.000061
1587	1.5781e+02	-16.8027	-40.408992	0.000120	1.201462	0.407066	0.000048
1588	1.5791e+02	-16.7851	-40.355630	0.000133	1.333827	0.451913	0.000054
1589	1.5801e+02	-16.7113	-40.292899	0.000157	1.568010	0.531256	0.000063
1590	1.5811e+02	-16.7113	-40.234650	-0.000146	-1.456009	-0.493309	0.000059
1591	1.5821e+02	-16.6503	-40.182917	0.000129	1.293099	0.438114	0.000052
1592	1.5830e+02	-16.6215	-40.127111	0.000139	1.394918	0.472611	0.000056
1593	1.5840e+02	-16.5878	-40.067639	0.000149	1.486555	0.503658	0.000060
1594	1.5850e+02	-16.5220	-40.012648	0.000137	1.374554	0.465712	0.000055
1595	1.5860e+02	-16.4819	-39.948288	0.000161	1.608737	0.545055	0.000065
1596	1.5870e+02	-16.4530	-39.896555	0.000129	1.293099	0.438114	0.000052
1597	1.5880e+02	-16.4306	-39.833417	0.000158	1.578192	0.534706	0.000063
1598	1.5890e+02	-16.3535	-39.775167	0.000146	1.456009	0.493309	0.000059
1599	1.5900e+02	-16.3375	-39.716510	0.000147	1.466191	0.496759	0.000059
1600	1.5910e+02	-16.2942	-39.662741	0.000134	1.344008	0.455362	0.000054
1601	1.5920e+02	-16.2477	-39.598380	0.000161	1.608737	0.545055	0.000065
1602	1.5930e+02	-16.2188	-39.539316	0.000148	1.476373	0.500209	0.000059
1603	1.5940e+02	-16.1675	-39.485139	0.000135	1.354190	0.458812	0.000054
1604	1.5950e+02	-16.1306	-39.425260	0.000150	1.496737	0.507108	0.000060
1605	1.5960e+02	-16.0921	-39.367010	0.000146	1.456009	0.493309	0.000059
1606	1.5970e+02	-16.0728	-39.310797	0.000141	1.405100	0.476061	0.000056
1607	1.5980e+02	-16.0199	-39.245214	0.000164	1.639283	0.555404	0.000066
1608	1.5990e+02	-15.9717	-39.186150	0.000148	1.476373	0.500209	0.000059
1609	1.6000e+02	-15.9332	-39.128714	0.000144	1.435645	0.486410	0.000058
1610	1.6010e+02	-15.8867	-39.068020	0.000152	1.517100	0.514008	0.000061
1611	1.6019e+02	-15.8386	-39.008956	0.000148	1.476373	0.500209	0.000059
1612	1.6029e+02	-15.7921	-38.949076	0.000150	1.496737	0.507108	0.000060
1613	1.6039e+02	-15.7776	-38.886346	0.000157	1.568010	0.531256	0.000063
1614	1.6049e+02	-15.7327	-38.824430	0.000155	1.547646	0.524357	0.000062
1615	1.6059e+02	-15.6910	-38.767809	0.000142	1.415282	0.479510	0.000057
1616	1.6069e+02	-15.6557	-38.703042	0.000162	1.618919	0.548505	0.000065
1617	1.6079e+02	-15.6092	-38.640718	0.000156	1.557828	0.527806	0.000063
1618	1.6089e+02	-15.5755	-38.580839	0.000150	1.496737	0.507108	0.000060
1619	1.6099e+02	-15.5226	-38.520145	0.000152	1.517100	0.514008	0.000061
1620	1.6109e+02	-15.4985	-38.454970	0.000163	1.629101	0.551954	0.000066
1621	1.6119e+02	-15.4696	-38.393461	0.000154	1.537464	0.520907	0.000062
1622	1.6129e+02	-15.4295	-38.333989	0.000149	1.486555	0.503658	0.000060
1623	1.6139e+02	-15.3621	-38.273295	0.000152	1.517100	0.514008	0.000061
1624	1.6149e+02	-15.3172	-38.203640	0.000174	1.741102	0.589901	0.000070
1625	1.6159e+02	-15.2996	-38.147834	0.000139	1.394918	0.472611	0.000056
1626	1.6169e+02	-15.2546	-38.076956	0.000177	1.771648	0.600250	0.000071
1627	1.6179e+02	-15.2386	-38.011781	0.000163	1.629101	0.551954	0.000066
1628	1.6189e+02	-15.1536	-37.945792	0.000165	1.649465	0.558854	0.000066
1629	1.6199e+02	-15.1616	-37.882654	-0.000158	-1.578192	-0.534706	0.000063
1630	1.6209e+02	-15.0958	-37.812183	0.000176	1.761466	0.596801	0.000071
1631	1.6219e+02	-15.0589	-37.751897	0.000151	1.506919	0.510558	0.000061
1632	1.6228e+02	-14.9996	-37.685500	0.000166	1.659647	0.562304	0.000067
1633	1.6238e+02	-14.9723	-37.620325	0.000163	1.629101	0.551954	0.000066
1634	1.6248e+02	-14.9498	-37.554743	0.000164	1.639283	0.555404	0.000066
1635	1.6258e+02	-14.8793	-37.490790	0.000160	1.598556	0.541605	0.000064
1636	1.6268e+02	-14.8728	-37.428059	0.000157	1.568010	0.531256	0.000063
1637	1.6278e+02	-14.8151	-37.356774	0.000178	1.781829	0.603700	0.000072
1638	1.6288e+02	-14.7830	-37.291192	0.000164	1.639283	0.555404	0.000066
1639	1.6298e+02	-14.7220	-37.228869	0.000156	1.557828	0.527806	0.000063
1640	1.6308e+02	-14.7012	-37.159621	0.000173	1.730920	0.586452	0.000070
1641	1.6318e+02	-14.6707	-37.094038	0.000164	1.639283	0.555404	0.000066
1642	1.6328e+02	-14.6226	-37.026420	0.000169	1.690192	0.572653	0.000068
1643	1.6338e+02	-14.5809	-36.961652	0.000162	1.618919	0.548505	0.000065
1644	1.6348e+02	-14.5343	-36.900143	0.000154	1.537464	0.520907	0.000062
1645	1.6358e+02	-14.4942	-36.832932	0.000168	1.680011	0.569203	0.000068
1646	1.6368e+02	-14.4541	-36.766128	0.000167	1.669829	0.565753	0.000067
1647	1.6378e+02	-14.4269	-36.699731	0.000166	1.659647	0.562304	0.000067
1648	1.6388e+02	-14.3884	-36.636185	0.000159	1.588374	0.538156	0.000064
1649	1.6398e+02	-14.3402	-36.565308	0.000177	1.771648	0.600250	0.000071
1650	1.6408e+02	-14.2921	-36.497689	0.000169	1.690192	0.572653	0.000068
1651	1.6418e+02	-14.2841	-36.427219	0.000176	1.761466	0.596801	0.000071
1652	1.6427e+02	-14.2199	-36.365303	0.000155	1.547646	0.524357	0.000062
1653	1.6437e+02	-14.1959	-36.296054	0.000173	1.730920	0.586452	0.000070
1654	1.6447e+02	-14.1381	-36.234953	0.000153	1.527282	0.517457	0.000061
1655	1.6457e+02	-14.0980	-36.162446	0.000181	1.812375	0.614049	0.000073
1656	1.6467e+02	-14.0306	-36.094827	0.000169	1.690192	0.572653	0.000068
1657	1.6477e+02	-14.0130	-36.027208	0.000169	1.690192	0.572653	0.000068
1658	1.6487e+02	-13.9841	-35.964478	0.000157	1.568010	0.531256	0.000063
1659	1.6497e+02	-13.9536	-35.890749	0.000184	1.842921	0.624398	0.000074
1660	1.6507e+02	-13.9087	-35.826388	0.000161	1.608737	0.545055	0.000065
1661	1.6517e+02	-13.8542	-35.755918	0.000176	1.761466	0.596801	0.000071
1662	1.6527e+02	-13.8076	-35.691965	0.000160	1.598556	0.541605	0.000064
1663	1.6537e+02	-13.7643	-35.625161	0.000167	1.669829	0.565753	0.000067
1664	1.6547e+02	-13.7403	-35.558764	0.000166	1.659647	0.562304	0.000067
1665	1.6557e+02	-13.6985	-35.494404	0.000161	1.608737	0.545055	0.000065
1666	1.6567e+02	-13.6633	-35.427193	0.000168	1.680011	0.569203	0.000068
1667	1.6577e+02	-13.6247	-35.362425	0.000162	1.618919	0.548505	0.000065
1668	1.6587e+02	-13.5830	-35.296028	0.000166	1.659647	0.562304	0.000067
1669	1.6597e+02	-13.5494	-35.233298	0.000157	1.568010	0.531256	0.000063
1670	1.6607e+02	-13.4980	-35.162420	0.000177	1.771648	0.600250	0.000071
1671	1.6616e+02	-13.4531	-35.101726	0.000152	1.517100	0.514008	0.000061
1672	1.6626e+02	-13.4226	-35.038995	0.000157	1.568010	0.531256	0.000063
1673	1.6636e+02	-13.3777	-34.974228	0.000162	1.618919	0.548505	0.000065
1674	1.6646e+02	-13.3504	-34.904572	0.000174	1.741102	0.589901	0.000070
1675	1.6656e+02	-13.2991	-34.840619	0.000160	1.598556	0.541605	0.000064
1676	1.6666e+02	-13.2638	-34.771371	0.000173	1.730920	0.586452	0.000070
1677	1.6676e+02	-13.2317	-34.710270	0.000153	1.527282	0.517457	0.000061
1678	1.6686e+02	-13.1740	-34.642651	0.000169	1.690192	0.572653	0.000068
1679	1.6696e+02	-13.1579	-34.577883	0.000162	1.618919	0.548505	0.000065
1680	1.6706e+02	-13.1114	-34.512301	0.000164	1.639283	0.555404	0.000066
1681	1.6716e+02	-13.0841	-34.449571	0.000157	1.568010	0.531256	0.000063
1682	1.6726e+02	-13.0312	-34.387655	0.000155	1.547646	0.524357	0.000062
1683	1.6736e+02	-12.9622	-34.315962	0.000179	1.792011	0.607150	0.000072
1684	1.6746e+02	-12.9526	-34.258527	0.000144	1.435645	0.486410	0.000058
1685	1.6756e+02	-12.9205	-34.195796	0.000157	1.568010	0.531256	0.000063
1686	1.6766e+02	-12.8563	-34.123289	0.000181	1.812375	0.614049	0.000073
1687	1.6776e+02	-12.8403	-34.060558	0.000157	1.568010	0.531256	0.000063
1688	1.6786e+02	-12.7922	-33.998235	0.000156	1.557828	0.527806	0.000063
1689	1.6796e+02	-12.7520	-33.931024	0.000168	1.680011	0.569203	0.000068
1690	1.6806e+02	-12.7007	-33.862997	0.000170	1.700374	0.576102	0.000068
1691	1.6816e+02	-12.6750	-33.794971	0.000170	1.700374	0.576102	0.000068
1692	1.6825e+02	-12.6253	-33.733870	0.000153	1.527282	0.517457	0.000061
1693	1.6835e+02	-12.5884	-33.665029	0.000172	1.720738	0.583002	0.000069
1694	1.6845e+02	-12.5611	-33.599447	0.000164	1.639283	0.555404	0.000066
1695	1.6855e+02	-12.5307	-33.531013	0.000171	1.710556	0.579552	0.000069
1696	1.6865e+02	-12.4713	-33.467875	0.000158	1.578192	0.534706	0.000063
1697	1.6875e+02	-12.4472	-33.401478	0.000166	1.659647	0.562304	0.000067
1698	1.6885e+02	-12.3879	-33.340784	0.000152	1.517100	0.514008	0.000061
1699	1.6895e+02	-12.3799	-33.266648	0.000185	1.853103	0.627848	0.000075
1700	1.6905e+02	-12.3189	-33.203102	0.000159	1.588374	0.538156	0.000064
1701	1.6915e+02	-12.2708	-33.135484	0.000169	1.690192	0.572653	0.000068
1702	1.6925e+02	-12.2499	-33.073160	0.000156	1.557828	0.527806	0.000063
1703	1.6935e+02	-12.1938	-33.007985	0.000163	1.629101	0.551954	0.000066
1704	1.6945e+02	-12.1585	-32.937922	0.000175	1.751284	0.593351	0.000070
1705	1.6955e+02	-12.1104	-32.869489	0.000171	1.710556	0.579552	0.000069
1706	1.6965e+02	-12.0686	-32.808795	0.000152	1.517100	0.514008	0.000061
1707	1.6975e+02	-12.0189	-32.739547	0.000173	1.730920	0.586452	0.000070
1708	1.6985e+02	-11.9868	-32.673150	0.000166	1.659647	0.562304	0.000067
1709	1.6995e+02	-11.9547	-32.608790	0.000161	1.608737	0.545055	0.000065
1710	1.7005e+02	-11.9339	-32.541985	0.000167	1.669829	0.565753	0.000067
1711	1.7015e+02	-11.8809	-32.475996	0.000165	1.649465	0.558854	0.000066
1712	1.7024e+02	-11.8328	-32.412043	0.000160	1.598556	0.541605	0.000064
1713	1.7034e+02	-11.8023	-32.346461	0.000164	1.639283	0.555404	0.000066
1714	1.7044e+02	-11.7542	-32.283730	0.000157	1.568010	0.531256	0.000063
1715	1.7054e+02	-11.7141	-32.222629	0.000153	1.527282	0.517457	0.000061
1716	1.7064e+02	-11.6628	-32.148900	0.000184	1.842921	0.624398	0.000074
1717	1.7074e+02	-11.6211	-32.087798	0.000153	1.527282	0.517457	0.000061
1718	1.7084e+02	-11.5842	-32.018958	0.000172	1.720738	0.583002	0.000069
1719	1.7094e+02	-11.5617	-31.950931	0.000170	1.700374	0.576102	0.000068
1720	1.7104e+02	-11.4943	-31.882905	0.000170	1.700374	0.576102	0.000068
1721	1.7114e+02	-11.4815	-31.825063	0.000145	1.445827	0.489860	0.000058
1722	1.7124e+02	-11.4221	-31.752148	0.000182	1.822557	0.617499	0.000073
1723	1.7134e+02	-11.4029	-31.690232	0.000155	1.547646	0.524357	0.000062
1724	1.7144e+02	-11.3403	-31.623021	0.000168	1.680011	0.569203	0.000068
1725	1.7154e+02	-11.3098	-31.559475	0.000159	1.588374	0.538156	0.000064
1726	1.7164e+02	-11.2874	-31.490227	0.000173	1.730920	0.586452	0.000070
1727	1.7174e+02	-11.2393	-31.423015	0.000168	1.680011	0.569203	0.000068
1728	1.7184e+02	-11.1911	-31.356619	0.000166	1.659647	0.562304	0.000067
1729	1.7194e+02	-11.1606	-31.294703	0.000155	1.547646	0.524357	0.000062
1730	1.7204e+02	-11.1270	-31.219344	0.000188	1.883648	0.638197	0.000076
1731	1.7213e+02	-11.0981	-31.152947	0.000166	1.659647	0.562304	0.000067
1732	1.7223e+02	-11.0259	-31.088995	0.000160	1.598556	0.541605	0.000064
1733	1.7233e+02	-10.9906	-31.017710	0.000178	1.781829	0.603700	0.000072
1734	1.7243e+02	-10.9601	-30.953757	0.000160	1.598556	0.541605	0.000064
1735	1.7253e+02	-10.9168	-30.877584	0.000190	1.904012	0.645097	0.000077
1736	1.7263e+02	-10.8751	-30.814446	0.000158	1.578192	0.534706	0.000063
1737	1.7273e+02	-10.8350	-30.743568	0.000177	1.771648	0.600250	0.000071
1738	1.7283e+02	-10.8125	-30.673098	0.000176	1.761466	0.596801	0.000071
1739	1.7293e+02	-10.7596	-30.603850	0.000173	1.730920	0.586452	0.000070
1740	1.7303e+02	-10.7195	-30.535416	0.000171	1.710556	0.579552	0.000069
1741	1.7313e+02	-10.6874	-30.471871	0.000159	1.588374	0.538156	0.000064
1742	1.7323e+02	-10.6457	-30.398956	0.000182	1.822557	0.617499	0.000073
1743	1.7333e+02	-10.5815	-30.331337	0.000169	1.690192	0.572653	0.000068
1744	1.7343e+02	-10.5607	-30.260052	0.000178	1.781829	0.603700	0.000072
1745	1.7353e+02	-10.5238	-30.187138	0.000182	1.822557	0.617499	0.000073
1746	1.7363e+02	-10.4724	-30.119519	0.000169	1.690192	0.572653	0.000068
1747	1.7373e+02	-10.4403	-30.044976	0.000186	1.863284	0.631298	0.000075
1748	1.7383e+02	-10.3874	-29.975727	0.000173	1.730920	0.586452	0.000070
1749	1.7393e+02	-10.3425	-29.908516	0.000168	1.680011	0.569203	0.000068
1750	1.7403e+02	-10.3377	-29.841304	0.000168	1.680011	0.569203	0.000068
1751	1.7413e+02	-10.2992	-29.759428	0.000205	2.046558	0.693393	0.000082
1752	1.7422e+02	-10.2462	-29.688551	0.000177	1.771648	0.600250	0.000071
1753	1.7432e+02	-10.2109	-29.614822	0.000184	1.842921	0.624398	0.000074
1754	1.7442e+02	-10.1708	-29.543944	0.000177	1.771648	0.600250	0.000071
1755	1.7452e+02	-10.1211	-29.466142	0.000194	1.944740	0.658896	0.000078
1756	1.7462e+02	-10.0826	-29.394450	0.000179	1.792011	0.607150	0.000072
1757	1.7472e+02	-10.0457	-29.316240	0.000195	1.954921	0.662345	0.000079
1758	1.7482e+02	-10.0104	-29.240474	0.000189	1.893830	0.641647	0.000076
1759	1.7492e+02	-9.9655	-29.172855	0.000169	1.690192	0.572653	0.000068
1760	1.7502e+02	-9.8965	-29.096275	0.000191	1.914194	0.648546	0.000077
1761	1.7512e+02	-9.8757	-29.020102	0.000190	1.904012	0.645097	0.000077
1762	1.7522e+02	-9.8468	-28.943521	0.000191	1.914194	0.648546	0.000077
1763	1.7532e+02	-9.8051	-28.866534	0.000192	1.924376	0.651996	0.000077
1764	1.7542e+02	-9.7505	-28.791990	0.000186	1.863284	0.631298	0.000075
1765	1.7552e+02	-9.7120	-28.717039	0.000187	1.873466	0.634748	0.000075
1766	1.7562e+02	-9.6783	-28.636385	0.000202	2.016013	0.683044	0.000081
1767	1.7572e+02	-9.6591	-28.563878	0.000181	1.812375	0.614049	0.000073
1768	1.7582e+02	-9.6206	-28.490964	0.000182	1.822557	0.617499	0.000073
1769	1.7592e+02	-9.5580	-28.412754	0.000195	1.954921	0.662345	0.000079
1770	1.7602e+02	-9.5452	-28.334137	0.000197	1.965103	0.665795	0.000079
1771	1.7612e+02	-9.4890	-28.257964	0.000190	1.904012	0.645097	0.000077
1772	1.7621e+02	-9.4409	-28.185864	0.000180	1.802193	0.610600	0.000072
1773	1.7631e+02	-9.4104	-28.103174	0.000207	2.066922	0.700292	0.000083
1774	1.7641e+02	-9.3591	-28.027815	0.000188	1.883648	0.638197	0.000076
1775	1.7651e+02	-9.3222	-27.950828	0.000192	1.924376	0.651996	0.000077
1776	1.7661e+02	-9.2709	-27.872618	0.000195	1.954921	0.662345	0.000079
1777	1.7671e+02	-9.2404	-27.793593	0.000198	1.975285	0.669245	0.000079
1778	1.7681e+02	-9.1923	-27.717420	0.000190	1.904012	0.645097	0.000077
1779	1.7691e+02	-9.1586	-27.638396	0.000198	1.975285	0.669245	0.000079
1780	1.7701e+02	-9.1313	-27.561408	0.000192	1.924376	0.651996	0.000077
1781	1.7711e+02	-9.0848	-27.482791	0.000197	1.965103	0.665795	0.000079
1782	1.7721e+02	-9.0543	-27.403766	0.000198	1.975285	0.669245	0.000079
1783	1.7731e+02	-8.9853	-27.328815	0.000187	1.873466	0.634748	0.000075
1784	1.7741e+02	-8.9661	-27.244088	0.000212	2.117832	0.717541	0.000085
1785	1.7751e+02	-8.9388	-27.165064	0.000198	1.975285	0.669245	0.000079
1786	1.7761e+02	-8.8794	-27.086447	0.000197	1.965103	0.665795	0.000079
1787	1.7771e+02	-8.8441	-27.004571	0.000205	2.046558	0.693393	0.000082
1788	1.7781e+02	-8.7928	-26.928398	0.000190	1.904012	0.645097	0.000077
1789	1.7791e+02	-8.7527	-26.843263	0.000213	2.128013	0.720990	0.000086
1790	1.7801e+02	-8.7415	-26.766683	0.000191	1.914194	0.648546	0.000077
1791	1.7810e+02	-8.6821	-26.688473	0.000195	1.954921	0.662345	0.000079
1792	1.7820e+02	-8.6340	-26.603746	0.000212	2.117832	0.717541	0.000085
1793	1.7830e+02	-8.6003	-26.524314	0.000199	1.985467	0.672694	0.000080
1794	1.7840e+02	-8.5538	-26.439179	0.000213	2.128013	0.720990	0.000086
1795	1.7850e+02	-8.5121	-26.358525	0.000202	2.016013	0.683044	0.000081
1796	1.7860e+02	-8.4800	-26.274613	0.000210	2.097468	0.710641	0.000084
1797	1.7870e+02	-8.4318	-26.187849	0.000217	2.168741	0.734789	0.000087
1798	1.7880e+02	-8.4094	-26.107602	0.000201	2.005831	0.679594	0.000081
1799	1.7890e+02	-8.3757	-26.028985	0.000197	1.965103	0.665795	0.000079
1800	1.7900e+02	-8.3324	-25.943036	0.000215	2.148377	0.727890	0.000086
1801	1.7910e+02	-8.2843	-25.857901	0.000213	2.128013	0.720990	0.000086
1802	1.7920e+02	-8.2442	-25.781321	0.000191	1.914194	0.648546	0.000077
1803	1.7930e+02	-8.2105	-25.697409	0.000210	2.097468	0.710641	0.000084
1804	1.7940e+02	-8.1511	-25.613496	0.000210	2.097468	0.710641	0.000084
1805	1.7950e+02	-8.1142	-25.524288	0.000223	2.229832	0.755488	0.000090
1806	1.7960e+02	-8.0821	-25.443227	0.000203	2.026195	0.686493	0.000081
1807	1.7970e+02	-8.0388	-25.360944	0.000206	2.056740	0.696842	0.000083
1808	1.7980e+02	-8.0115	-25.275809	0.000213	2.128013	0.720990	0.000086
1809	1.7990e+02	-7.9923	-25.189860	0.000215	2.148377	0.727890	0.000086
1810	1.8000e+02	-7.9233	-25.109206	0.000202	2.016013	0.683044	0.000081
1811	1.8009e+02	-7.8864	-25.026515	0.000207	2.066922	0.700292	0.000083
1812	1.8019e+02	-7.8254	-24.941788	0.000212	2.117832	0.717541	0.000085
1813	1.8029e+02	-7.8174	-24.852580	0.000223	2.229832	0.755488	0.000090
1814	1.8039e+02	-7.7597	-24.767038	0.000214	2.138195	0.724440	0.000086
1815	1.8049e+02	-7.7356	-24.683533	0.000209	2.087286	0.707192	0.000084
1816	1.8059e+02	-7.6939	-24.602472	0.000203	2.026195	0.686493	0.000081
1817	1.8069e+02	-7.6297	-24.520189	0.000206	2.056740	0.696842	0.000083
1818	1.8079e+02	-7.6025	-24.429351	0.000227	2.270560	0.769286	0.000091
1819	1.8089e+02	-7.5784	-24.347475	0.000205	2.046558	0.693393	0.000082
1820	1.8099e+02	-7.5222	-24.265192	0.000206	2.056740	0.696842	0.000083
1821	1.8109e+02	-7.4886	-24.179650	0.000214	2.138195	0.724440	0.000086
1822	1.8119e+02	-7.4356	-24.095330	0.000211	2.107650	0.714091	0.000085
1823	1.8129e+02	-7.4003	-24.006122	0.000223	2.229832	0.755488	0.000090
1824	1.8139e+02	-7.3618	-23.923024	0.000208	2.077104	0.703742	0.000084
1825	1.8149e+02	-7.3297	-23.838704	0.000211	2.107650	0.714091	0.000085
1826	1.8159e+02	-7.3089	-23.750311	0.000221	2.209468	0.748588	0.000089
1827	1.8169e+02	-7.2447	-23.665584	0.000212	2.117832	0.717541	0.000085
1828	1.8179e+02	-7.2014	-23.577598	0.000220	2.199287	0.745138	0.000088
1829	1.8189e+02	-7.1773	-23.496944	0.000202	2.016013	0.683044	0.000081
1830	1.8199e+02	-7.1340	-23.404477	0.000231	2.311287	0.783085	0.000093
1831	1.8209e+02	-7.0971	-23.319750	0.000212	2.117832	0.717541	0.000085
1832	1.8218e+02	-7.0474	-23.235430	0.000211	2.107650	0.714091	0.000085
1833	1.8228e+02	-7.0281	-23.153554	0.000205	2.046558	0.693393	0.000082
1834	1.8238e+02	-6.9768	-23.068827	0.000212	2.117832	0.717541	0.000085
1835	1.8248e+02	-6.9223	-22.985729	0.000208	2.077104	0.703742	0.000084
1836	1.8258e+02	-6.9046	-22.901002	0.000212	2.117832	0.717541	0.000085
1837	1.8268e+02	-6.8485	-22.815460	0.000214	2.138195	0.724440	0.000086
1838	1.8278e+02	-6.7891	-22.735621	0.000200	1.995649	0.676144	0.000080
1839	1.8288e+02	-6.7715	-22.650079	0.000214	2.138195	0.724440	0.000086
1840	1.8298e+02	-6.7330	-22.566166	0.000210	2.097468	0.710641	0.000084
1841	1.8308e+02	-6.7121	-22.479402	0.000217	2.168741	0.734789	0.000087
1842	1.8318e+02	-6.6495	-22.401193	0.000195	1.954921	0.662345	0.000079
1843	1.8328e+02	-6.6094	-22.315243	0.000215	2.148377	0.727890	0.000086
1844	1.8338e+02	-6.5581	-22.231331	0.000210	2.097468	0.710641	0.000084
1845	1.8348e+02	-6.5036	-22.145381	0.000215	2.148377	0.727890	0.000086
1846	1.8358e+02	-6.4875	-22.061062	0.000211	2.107650	0.714091	0.000085
1847	1.8368e+02	-6.4522	-21.980815	0.000201	2.005831	0.679594	0.000081
1848	1.8378e+02	-6.4330	-21.909123	0.000179	1.792011	0.607150	0.000072
1849	1.8388e+02	-6.3832	-21.821544	0.000219	2.189105	0.741689	0.000088
1850	1.8398e+02	-6.3287	-21.736002	0.000214	2.138195	0.724440	0.000086
1851	1.8407e+02	-6.3046	-21.653719	0.000206	2.056740	0.696842	0.000083
1852	1.8417e+02	-6.2517	-21.569806	0.000210	2.097468	0.710641	0.000084
1853	1.8427e+02	-6.2260	-21.479784	0.000225	2.250196	0.762387	0.000090
1854	1.8437e+02	-6.1683	-21.398723	0.000203	2.026195	0.686493	0.000081
1855	1.8447e+02	-6.1314	-21.311551	0.000218	2.178923	0.738239	0.000088
1856	1.8457e+02	-6.1009	-21.227231	0.000211	2.107650	0.714091	0.000085
1857	1.8467e+02	-6.0415	-21.142911	0.000211	2.107650	0.714091	0.000085
1858	1.8477e+02	-6.0303	-21.056962	0.000215	2.148377	0.727890	0.000086
1859	1.8487e+02	-5.9726	-20.970606	0.000216	2.158559	0.731340	0.000087
1860	1.8497e+02	-5.9325	-20.886693	0.000210	2.097468	0.710641	0.000084
1861	1.8507e+02	-5.8988	-20.803595	0.000208	2.077104	0.703742	0.000084
1862	1.8517e+02	-5.8314	-20.712758	0.000227	2.270560	0.769286	0.000091
1863	1.8527e+02	-5.8282	-20.633326	0.000199	1.985467	0.672694	0.000080
1864	1.8537e+02	-5.7833	-20.544933	0.000221	2.209468	0.748588	0.000089
1865	1.8547e+02	-5.7448	-20.460613	0.000211	2.107650	0.714091	0.000085
1866	1.8557e+02	-5.6902	-20.371812	0.000222	2.219650	0.752038	0.000089
1867	1.8567e+02	-5.6742	-20.284641	0.000218	2.178923	0.738239	0.000088
1868	1.8577e+02	-5.6228	-20.207653	0.000192	1.924376	0.651996	0.000077
1869	1.8587e+02	-5.5843	-20.116816	0.000227	2.270560	0.769286	0.000091
1870	1.8597e+02	-5.5089	-20.030459	0.000216	2.158559	0.731340	0.000087
1871	1.8606e+02	-5.5105	-19.947768	-0.000207	-2.066922	-0.700292	0.000083
1872	1.8616e+02	-5.4624	-19.857338	0.000226	2.260378	0.765837	0.000091
1873	1.8626e+02	-5.4191	-19.770982	0.000216	2.158559	0.731340	0.000087
1874	1.8636e+02	-5.3950	-19.686662	0.000211	2.107650	0.714091	0.000085
1875	1.8646e+02	-5.3373	-19.600305	0.000216	2.158559	0.731340	0.000087
1876	1.8656e+02	-5.2940	-19.509468	0.000227	2.270560	0.769286	0.000091
1877	1.8666e+02	-5.2795	-19.423111	0.000216	2.158559	0.731340	0.000087
1878	1.8676e+02	-5.2073	-19.344901	0.000195	1.954921	0.662345	0.000079
1879	1.8686e+02	-5.1881	-19.258952	0.000215	2.148377	0.727890	0.000086
1880	1.8696e+02	-5.1239	-19.168522	0.000226	2.260378	0.765837	0.000091
1881	1.8706e+02	-5.1063	-19.082573	0.000215	2.148377	0.727890	0.000086
1882	1.8716e+02	-5.0630	-19.000697	0.000205	2.046558	0.693393	0.000082
1883	1.8726e+02	-5.0261	-18.920858	0.000200	1.995649	0.676144	0.000080
1884	1.8736e+02	-4.9763	-18.827169	0.000234	2.341833	0.793434	0.000094
1885	1.8746e+02	-4.9282	-18.733888	0.000233	2.331651	0.789985	0.000094
1886	1.8756e+02	-4.9090	-18.654048	0.000200	1.995649	0.676144	0.000080
1887	1.8766e+02	-4.8817	-18.570951	0.000208	2.077104	0.703742	0.000084
1888	1.8776e+02	-4.8175	-18.480113	0.000227	2.270560	0.769286	0.000091
1889	1.8786e+02	-4.7742	-18.390905	0.000223	2.229832	0.755488	0.000090
1890	1.8796e+02	-4.7261	-18.305363	0.000214	2.138195	0.724440	0.000086
1891	1.8806e+02	-4.7164	-18.219007	0.000216	2.158559	0.731340	0.000087
1892	1.8815e+02	-4.6683	-18.137945	0.000203	2.026195	0.686493	0.000081
1893	1.8825e+02	-4.6250	-18.042627	0.000238	2.382560	0.807233	0.000096
1894	1.8835e+02	-4.6009	-17.955456	0.000218	2.178923	0.738239	0.000088
1895	1.8845e+02	-4.5287	-17.865841	0.000224	2.240014	0.758937	0.000090
1896	1.8855e+02	-4.5015	-17.781113	0.000212	2.117832	0.717541	0.000085
1897	1.8865e+02	-4.4694	-17.690683	0.000226	2.260378	0.765837	0.000091
1898	1.8875e+02	-4.4181	-17.596995	0.000234	2.341833	0.793434	0.000094
1899	1.8885e+02	-4.3780	-17.510231	0.000217	2.168741	0.734789	0.000087
1900	1.8895e+02	-4.3427	-17.430391	0.000200	1.995649	0.676144	0.000080
1901	1.8905e+02	-4.2897	-17.332222	0.000245	2.453834	0.831381	0.000099
1902	1.8915e+02	-4.2753	-17.246680	0.000214	2.138195	0.724440	0.000086
1903	1.8925e+02	-4.2207	-17.154621	0.000230	2.301105	0.779636	0.000093
1904	1.8935e+02	-4.1983	-17.063783	0.000227	2.270560	0.769286	0.000091
1905	1.8945e+02	-4.1405	-16.975797	0.000220	2.199287	0.745138	0.000088
1906	1.8955e+02	-4.1149	-16.879664	0.000240	2.402924	0.814133	0.000097
1907	1.8965e+02	-4.0651	-16.787605	0.000230	2.301105	0.779636	0.000093
1908	1.8975e+02	-3.9977	-16.696360	0.000228	2.280742	0.772736	0.000092
1909	1.8985e+02	-3.9865	-16.608782	0.000219	2.189105	0.741689	0.000088
1910	1.8995e+02	-3.9432	-16.516315	0.000231	2.311287	0.783085	0.000093
1911	1.9004e+02	-3.8806	-16.423441	0.000232	2.321469	0.786535	0.000093
1912	1.9014e+02	-3.8630	-16.327308	0.000240	2.402924	0.814133	0.000097
1913	1.9024e+02	-3.8389	-16.242173	0.000213	2.128013	0.720990	0.000086
1914	1.9034e+02	-3.7860	-16.146448	0.000239	2.392742	0.810683	0.000096
1915	1.9044e+02	-3.7443	-16.053574	0.000232	2.321469	0.786535	0.000093
1916	1.9054e+02	-3.7154	-15.953367	0.000250	2.504743	0.848630	0.000101
1917	1.9064e+02	-3.6801	-15.865381	0.000220	2.199287	0.745138	0.000088
1918	1.9074e+02	-3.6288	-15.765175	0.000250	2.504743	0.848630	0.000101
1919	1.9084e+02	-3.5919	-15.670264	0.000237	2.372379	0.803784	0.000095
1920	1.9094e+02	-3.5454	-15.571280	0.000247	2.474197	0.838281	0.000099
1921	1.9104e+02	-3.5069	-15.477999	0.000233	2.331651	0.789985	0.000094
1922	1.9114e+02	-3.4764	-15.380236	0.000244	2.443652	0.827932	0.000098
1923	1.9124e+02	-3.4347	-15.283696	0.000241	2.413106	0.817582	0.000097
1924	1.9134e+02	-3.3930	-15.184305	0.000248	2.484379	0.841730	0.000100
1925	1.9144e+02	-3.3561	-15.088986	0.000238	2.382560	0.807233	0.000096
1926	1.9154e+02	-3.3063	-14.991632	0.000243	2.433470	0.824482	0.000098
1927	1.9164e+02	-3.2630	-14.889389	0.000256	2.555652	0.865879	0.000103
1928	1.9174e+02	-3.2229	-14.787960	0.000254	2.535289	0.858979	0.000102
1929	1.9184e+02	-3.1828	-14.692642	0.000238	2.382560	0.807233	0.000096
1930	1.9194e+02	-3.1523	-14.595287	0.000243	2.433470	0.824482	0.000098
1931	1.9203e+02	-3.1138	-14.497525	0.000244	2.443652	0.827932	0.000098
1932	1.9213e+02	-3.0769	-14.387543	0.000275	2.749108	0.931423	0.000111
1933	1.9223e+02	-3.0400	-14.294261	0.000233	2.331651	0.789985	0.000094
1934	1.9233e+02	-2.9839	-14.188759	0.000264	2.637108	0.893476	0.000106
1935	1.9243e+02	-2.9518	-14.092627	0.000240	2.402924	0.814133	0.000097
1936	1.9253e+02	-2.9069	-13.988754	0.000260	2.596380	0.879677	0.000104
1937	1.9263e+02	-2.8475	-13.881623	0.000268	2.677835	0.907275	0.000108
1938	1.9273e+02	-2.8154	-13.786712	0.000237	2.372379	0.803784	0.000095
1939	1.9283e+02	-2.8122	-13.685691	0.000253	2.525107	0.855529	0.000102
1940	1.9293e+02	-2.7657	-13.577338	0.000271	2.708381	0.917624	0.000109
1941	1.9303e+02	-2.7079	-13.476317	0.000253	2.525107	0.855529	0.000102
1942	1.9313e+02	-2.6855	-13.372038	0.000261	2.606562	0.883127	0.000105
1943	1.9323e+02	-2.6261	-13.268165	0.000260	2.596380	0.879677	0.000104
1944	1.9333e+02	-2.5940	-13.170810	0.000243	2.433470	0.824482	0.000098
1945	1.9343e+02	-2.5491	-13.064901	0.000265	2.647289	0.896926	0.000106
1946	1.9353e+02	-2.5026	-12.965917	0.000247	2.474197	0.838281	0.000099
1947	1.9363e+02	-2.4641	-12.854713	0.000278	2.779654	0.941772	0.000112
1948	1.9373e+02	-2.4288	-12.752877	0.000255	2.545471	0.862429	0.000102
1949	1.9383e+02	-2.3983	-12.645338	0.000269	2.688017	0.910725	0.000108
1950	1.9393e+02	-2.3518	-12.545947	0.000248	2.484379	0.841730	0.000100
1951	1.9403e+02	-2.3197	-12.433113	0.000282	2.820381	0.955571	0.000113
1952	1.9412e+02	-2.2924	-12.329648	0.000259	2.586198	0.876228	0.000104
1953	1.9422e+02	-2.2395	-12.223739	0.000265	2.647289	0.896926	0.000106
1954	1.9432e+02	-2.1802	-12.121903	0.000255	2.545471	0.862429	0.000102
1955	1.9442e+02	-2.1384	-12.011106	0.000277	2.769472	0.938323	0.000111
1956	1.9452e+02	-2.0999	-11.903975	0.000268	2.677835	0.907275	0.000108
1957	1.9462e+02	-2.0839	-11.795215	0.000272	2.718563	0.921074	0.000109
1958	1.9472e+02	-2.0117	-11.692564	0.000257	2.565834	0.869328	0.000103
1959	1.9482e+02	-1.9828	-11.576879	0.000289	2.891655	0.979719	0.000116
1960	1.9492e+02	-1.9395	-11.473821	0.000258	2.576016	0.872778	0.000104
1961	1.9502e+02	-1.9187	-11.365468	0.000271	2.708381	0.917624	0.000109
1962	1.9512e+02	-1.8834	-11.251005	0.000286	2.861109	0.969370	0.000115
1963	1.9522e+02	-1.8304	-11.140208	0.000277	2.769472	0.938323	0.000111
1964	1.9532e+02	-1.7887	-11.029003	0.000278	2.779654	0.941772	0.000112
1965	1.9542e+02	-1.7518	-10.916577	0.000281	2.810200	0.952121	0.000113
1966	1.9552e+02	-1.7117	-10.806187	0.000276	2.759290	0.934873	0.000111
1967	1.9562e+02	-1.6941	-10.695797	0.000276	2.759290	0.934873	0.000111
1968	1.9572e+02	-1.6508	-10.582148	0.000284	2.840745	0.962471	0.000114
1969	1.9582e+02	-1.5866	-10.473795	0.000271	2.708381	0.917624	0.000109
1970	1.9592e+02	-1.5561	-10.361369	0.000281	2.810200	0.952121	0.000113
1971	1.9601e+02	-1.5240	-10.250572	0.000277	2.769472	0.938323	0.000111
1972	1.9611e+02	-1.4823	-10.132442	0.000295	2.952746	1.000417	0.000119
1973	1.9621e+02	-1.4390	-10.023274	0.000273	2.728744	0.924524	0.000110
1974	1.9631e+02	-1.3748	-9.905552	0.000294	2.942564	0.996968	0.000118
1975	1.9641e+02	-1.3395	-9.790682	0.000287	2.871291	0.972820	0.000115
1976	1.9651e+02	-1.3058	-9.678663	0.000280	2.800018	0.948672	0.000113
1977	1.9661e+02	-1.2481	-9.566643	0.000280	2.800018	0.948672	0.000113
1978	1.9671e+02	-1.2369	-9.448514	0.000295	2.952746	1.000417	0.000119
1979	1.9681e+02	-1.1968	-9.339754	0.000272	2.718563	0.921074	0.000109
1980	1.9691e+02	-1.1567	-9.222032	0.000294	2.942564	0.996968	0.000118
1981	1.9701e+02	-1.1069	-9.107976	0.000285	2.850927	0.965920	0.000115
1982	1.9711e+02	-1.0829	-8.990254	0.000294	2.942564	0.996968	0.000118
1983	1.9721e+02	-1.0363	-8.881901	0.000271	2.708381	0.917624	0.000109
1984	1.9731e+02	-0.9866	-8.760105	0.000304	3.044383	1.031465	0.000122
1985	1.9741e+02	-0.9497	-8.645642	0.000286	2.861109	0.969370	0.000115
1986	1.9751e+02	-0.9096	-8.528735	0.000292	2.922200	0.990068	0.000117
1987	1.9761e+02	-0.8679	-8.410605	0.000295	2.952746	1.000417	0.000119
1988	1.9771e+02	-0.8374	-8.298179	0.000281	2.810200	0.952121	0.000113
1989	1.9781e+02	-0.7861	-8.180864	0.000293	2.932382	0.993518	0.000118
1990	1.9791e+02	-0.7604	-8.062735	0.000295	2.952746	1.000417	0.000119
1991	1.9800e+02	-0.7251	-7.943791	0.000297	2.973110	1.007317	0.000120
1992	1.9810e+02	-0.6609	-7.831772	0.000280	2.800018	0.948672	0.000113
1993	1.9820e+02	-0.6305	-7.715272	0.000291	2.912018	0.986619	0.000117
1994	1.9830e+02	-0.6064	-7.595920	0.000298	2.983292	1.010767	0.000120
1995	1.9840e+02	-0.5615	-7.472903	0.000307	3.074928	1.041814	0.000124
1996	1.9850e+02	-0.5230	-7.362513	0.000276	2.759290	0.934873	0.000111
1997	1.9860e+02	-0.4845	-7.239903	0.000306	3.064747	1.038364	0.000123
1998	1.9870e+02	-0.4331	-7.121773	0.000295	2.952746	1.000417	0.000119
1999	1.9880e+02	-0.4075	-7.002422	0.000298	2.983292	1.010767	0.000120
2000	1.9890e+02	-0.3593	-6.886330	0.000290	2.901836	0.983169	0.000117
2001	1.9900e+02	-0.3225	-6.771459	0.000287	2.871291	0.972820	0.000115
2002	1.9910e+02	-0.2567	-6.654959	0.000291	2.912018	0.986619	0.000117
2003	1.9920e+02	-0.2294	-6.538052	0.000292	2.922200	0.990068	0.000117
2004	1.9930e+02	-0.2150	-6.421552	0.000291	2.912018	0.986619	0.000117
2005	1.9940e+02	-0.1668	-6.302608	0.000297	2.973110	1.007317	0.000120
2006	1.9950e+02	-0.1315	-6.184071	0.000296	2.962928	1.003867	0.000119
2007	1.9960e+02	-0.0850	-6.066349	0.000294	2.942564	0.996968	0.000118
2008	1.9970e+02	-0.0481	-5.944146	0.000305	3.054565	1.034915	0.000123
2009	1.9980e+02	0.0048	-5.829276	0.000305	3.054565	1.034915	0.000115

Center data before PMax,+/-Pr and +/-Vc Calc.

PMax (uC/cm2):	4.40e+01
Pr (uC/cm2):	2.71e+00
-Pr (uC/cm2):	-5.83e+00
PLoss (uC/cm2):	-2.43e+00
Vc:	1.37e+00
-Vc:	-9.00e-01
C (Max-Eff) (nF):	2.20e-01
K (Eff):	7.45e+02
Vert. (+/-Pr) Shift (uC/cm2):	-1.56e+00
Horiz. Shift (+/-Vc):	2.34e-01
Offset (uC/cm2):	3.40e+00

A (Loop Area - uC/cm2·Volts):	2.22e-02



Hysteresis Version: 5.48.1 - Radiant Technologies, Inc., 1999 - 9/12/24

