»»»»»»»»»»»»»»»»»»»»»»»»»»»»»»»»»»»» Hysteresis ««««««««««««««««««««««««««««««««««««
»»»  Executed Version:	5.48.1
»»»  Vision Version:	5.48.4 (R)
»»»  Vision Compiled:	9/18/24
»»»  Driver Version:	5.47.0
»»»  Windows Version:	Windows 8 or 8.1
»»»  Processor Information:	x86 (AMD or Intel) - 32 Processors
»»»  Tester Name:	PMF21124-494 (100V)
»»»  Tester S/N:	PMF21124-494
»»»  Internal Amp Type:	100V RevK 270k
»»»  Internal Amp S/N:	iAB2-596/K     
»»»  Execution Count:	1
»»»»»»»»»»»»»»»»»»»»»»»»»»»»»»»»»»»»»»»»»»««««««««««««««««««««««««««««««««««««««««««

Stored:	6/6/2025 - 16:45:42
Configured:	06/06/25 01:57:07 PM
Executed:	06/06/25 04:45:12 PM

»»»»»»»»»»»»»»»»»»»»»»»»»»»»»»»»»»» Sample Info ««««««««««««««««««««««««««««««««««««
Sample Name:	
Lot Name:	
Wafer Name:	
Die Row/Column:	0/0
Capacitor Number:	0
Sample Area (cm2):	1.00e-04
Sample Thickness (microns):	3.00e-01

Amplifier:	Internal

»»»»»»»»»»»»»»»»»»»»»»»»»»»»»»»»»»» Tester Info «««««««««««««««««««««««««««««««««««
Tester Name:	PMF21124-494 (100V)
Tester Serial Number:	PMF21124-494
Return Signal Amp. Level:	0.19 [Index: 3]

»»»»»»»»»»»»»»»»»»»»»»»»»»»»»»»» Hysteresis Info ««««««««««««««««««««««««««««««««««
Task Name:	Hyst-501
Volts:	20.00
Field:	666.67 (kV/cm)
DCBias:	0.00
DCField:	0.00 (kV/cm)
Hysteresis Period (ms):	2.00e+02
Preset:	Enabled
Preset Delay (ms):	1.00e+03
Profile:	Standard Bipolar

»»»»»»»»»»»»»»»»»»»»»»»»»»»»»»»»»»»»»» Data «««««««««««««««««««««««««««««««««««««««
Points:	2009

Valid Data

Point	Time (ms)	Drive Voltage	Measured Polarization (uC/cm2)	Capacitance (uF)	Normalized Capacitance (uF/cm2)	Dielectric Constant	Instantaneous Current (mA)
   1	0.0000e+00	-0.0016	-2.821958	0.000304	3.040943	1.030300	0.000122
   2	9.9500e-02	0.0241	-2.700844	0.000304	3.040943	1.030300	0.000122
   3	1.9900e-01	0.0674	-2.595878	0.000264	2.635484	0.892926	0.000105
   4	2.9850e-01	0.1107	-2.418244	0.000446	4.460050	1.511106	0.000179
   5	3.9800e-01	0.1556	-2.272907	0.000365	3.649132	1.236359	0.000146
   6	4.9750e-01	0.1909	-2.196202	0.000193	1.925931	0.652523	0.000077
   7	5.9700e-01	0.2310	-2.091236	0.000264	2.635484	0.892926	0.000105
   8	6.9650e-01	0.2695	-1.945899	0.000365	3.649132	1.236359	0.000146
   9	7.9600e-01	0.3112	-1.812674	0.000335	3.345038	1.133329	0.000134
  10	8.9550e-01	0.3529	-1.651189	0.000405	4.054591	1.373733	0.000162
  11	9.9500e-01	0.3946	-1.566409	0.000213	2.128660	0.721210	0.000085
  12	1.0945e+00	0.4396	-1.429146	0.000345	3.446403	1.167673	0.000138
  13	1.1940e+00	0.4636	-1.287846	0.000355	3.547767	1.202016	0.000142
  14	1.2935e+00	0.5150	-1.174806	0.000284	2.838214	0.961613	0.000114
  15	1.3930e+00	0.5486	-1.045618	0.000324	3.243673	1.098986	0.000130
  16	1.4925e+00	0.5904	-0.908356	0.000345	3.446403	1.167673	0.000138
  17	1.5920e+00	0.6240	-0.803390	0.000264	2.635484	0.892926	0.000105
  18	1.6915e+00	0.6674	-0.678239	0.000314	3.142308	1.064643	0.000126
  19	1.7910e+00	0.7059	-0.585385	0.000233	2.331390	0.789896	0.000093
  20	1.8905e+00	0.7476	-0.423899	0.000405	4.054591	1.373733	0.000162
  21	1.9900e+00	0.7829	-0.266451	0.000395	3.953226	1.339389	0.000158
  22	2.0895e+00	0.8342	-0.100928	0.000416	4.155956	1.408076	0.000166
  23	2.1890e+00	0.8679	-0.016149	0.000213	2.128660	0.721210	0.000085
  24	2.2885e+00	0.9016	0.117077	0.000335	3.345038	1.133329	0.000134
  25	2.3880e+00	0.9465	0.226080	0.000274	2.736849	0.927270	0.000110
  26	2.4875e+00	0.9850	0.359305	0.000335	3.345038	1.133329	0.000134
  27	2.5870e+00	1.0251	0.472345	0.000284	2.838214	0.961613	0.000114
  28	2.6865e+00	1.0716	0.585385	0.000284	2.838214	0.961613	0.000114
  29	2.7860e+00	1.1101	0.742833	0.000395	3.953226	1.339389	0.000158
  30	2.8855e+00	1.1374	0.867984	0.000314	3.142308	1.064643	0.000126
  31	2.9850e+00	1.1871	1.013321	0.000365	3.649132	1.236359	0.000146
  32	3.0845e+00	1.2160	1.106175	0.000233	2.331390	0.789896	0.000093
  33	3.1840e+00	1.2706	1.227289	0.000304	3.040943	1.030300	0.000122
  34	3.2835e+00	1.2946	1.368589	0.000355	3.547767	1.202016	0.000142
  35	3.3830e+00	1.3379	1.546223	0.000446	4.460050	1.511106	0.000179
  36	3.4825e+00	1.3861	1.626966	0.000203	2.027296	0.686866	0.000081
  37	3.5820e+00	1.4294	1.792488	0.000416	4.155956	1.408076	0.000166
  38	3.6815e+00	1.4695	1.937825	0.000365	3.649132	1.236359	0.000146
  39	3.7810e+00	1.4967	2.042791	0.000264	2.635484	0.892926	0.000105
  40	3.8805e+00	1.5465	2.155830	0.000284	2.838214	0.961613	0.000114
  41	3.9800e+00	1.5834	2.301167	0.000365	3.649132	1.236359	0.000146
  42	4.0795e+00	1.6315	2.418244	0.000294	2.939579	0.995956	0.000118
  43	4.1790e+00	1.6652	2.527247	0.000274	2.736849	0.927270	0.000110
  44	4.2785e+00	1.7005	2.680658	0.000385	3.851862	1.305046	0.000154
  45	4.3780e+00	1.7390	2.809846	0.000324	3.243673	1.098986	0.000130
  46	4.4775e+00	1.7903	2.943072	0.000335	3.345038	1.133329	0.000134
  47	4.5770e+00	1.8272	3.084372	0.000355	3.547767	1.202016	0.000142
  48	4.6765e+00	1.8657	3.181263	0.000243	2.432755	0.824240	0.000097
  49	4.7760e+00	1.9026	3.326600	0.000365	3.649132	1.236359	0.000146
  50	4.8755e+00	1.9459	3.475974	0.000375	3.750497	1.270703	0.000150
  51	4.9750e+00	1.9828	3.589014	0.000284	2.838214	0.961613	0.000114
  52	5.0745e+00	2.0294	3.722239	0.000335	3.345038	1.133329	0.000134
  53	5.1740e+00	2.0679	3.847390	0.000314	3.142308	1.064643	0.000126
  54	5.2735e+00	2.1015	4.025024	0.000446	4.460050	1.511106	0.000179
  55	5.3730e+00	2.1384	4.105767	0.000203	2.027296	0.686866	0.000081
  56	5.4725e+00	2.1785	4.234955	0.000324	3.243673	1.098986	0.000130
  57	5.5720e+00	2.2267	4.396441	0.000405	4.054591	1.373733	0.000162
  58	5.6715e+00	2.2636	4.517555	0.000304	3.040943	1.030300	0.000122
  59	5.7710e+00	2.2924	4.638669	0.000304	3.040943	1.030300	0.000122
  60	5.8705e+00	2.3470	4.800154	0.000405	4.054591	1.373733	0.000162
  61	5.9700e+00	2.3823	4.925306	0.000314	3.142308	1.064643	0.000126
  62	6.0695e+00	2.4192	5.018160	0.000233	2.331390	0.789896	0.000093
  63	6.1690e+00	2.4545	5.183682	0.000416	4.155956	1.408076	0.000166
  64	6.2685e+00	2.5010	5.284611	0.000253	2.534120	0.858583	0.000101
  65	6.3680e+00	2.5331	5.446096	0.000405	4.054591	1.373733	0.000162
  66	6.4675e+00	2.5828	5.575284	0.000324	3.243673	1.098986	0.000130
  67	6.5670e+00	2.6229	5.700436	0.000314	3.142308	1.064643	0.000126
  68	6.6665e+00	2.6582	5.825587	0.000314	3.142308	1.064643	0.000126
  69	6.7660e+00	2.7095	5.958812	0.000335	3.345038	1.133329	0.000134
  70	6.8655e+00	2.7448	6.164706	0.000517	5.169604	1.751509	0.000207
  71	6.9650e+00	2.7801	6.201040	0.000091	0.912283	0.309090	0.000037
  72	7.0645e+00	2.8186	6.362526	0.000405	4.054591	1.373733	0.000162
  73	7.1640e+00	2.8603	6.507863	0.000365	3.649132	1.236359	0.000146
  74	7.2635e+00	2.8972	6.673385	0.000416	4.155956	1.408076	0.000166
  75	7.3630e+00	2.9390	6.774314	0.000253	2.534120	0.858583	0.000101
  76	7.4625e+00	2.9839	6.895428	0.000304	3.040943	1.030300	0.000122
  77	7.5620e+00	3.0160	7.000393	0.000264	2.635484	0.892926	0.000105
  78	7.6615e+00	3.0625	7.182064	0.000456	4.561415	1.545449	0.000183
  79	7.7610e+00	3.1026	7.307216	0.000314	3.142308	1.064643	0.000126
  80	7.8605e+00	3.1331	7.448515	0.000355	3.547767	1.202016	0.000142
  81	7.9600e+00	3.1700	7.605964	0.000395	3.953226	1.339389	0.000158
  82	8.0595e+00	3.2181	7.694781	0.000223	2.230025	0.755553	0.000089
  83	8.1590e+00	3.2614	7.807821	0.000284	2.838214	0.961613	0.000114
  84	8.2585e+00	3.2919	7.973343	0.000416	4.155956	1.408076	0.000166
  85	8.3580e+00	3.3416	8.106569	0.000335	3.345038	1.133329	0.000134
  86	8.4575e+00	3.3753	8.207497	0.000253	2.534120	0.858583	0.000101
  87	8.5570e+00	3.4138	8.364945	0.000395	3.953226	1.339389	0.000158
  88	8.6565e+00	3.4587	8.445688	0.000203	2.027296	0.686866	0.000081
  89	8.7560e+00	3.4956	8.603136	0.000395	3.953226	1.339389	0.000158
  90	8.8555e+00	3.5389	8.740399	0.000345	3.446403	1.167673	0.000138
  91	8.9550e+00	3.5758	8.845364	0.000264	2.635484	0.892926	0.000105
  92	9.0545e+00	3.6143	9.006850	0.000405	4.054591	1.373733	0.000162
  93	9.1540e+00	3.6577	9.123927	0.000294	2.939579	0.995956	0.000118
  94	9.2535e+00	3.6881	9.265227	0.000355	3.547767	1.202016	0.000142
  95	9.3530e+00	3.7330	9.390378	0.000314	3.142308	1.064643	0.000126
  96	9.4525e+00	3.7716	9.539752	0.000375	3.750497	1.270703	0.000150
  97	9.5520e+00	3.8197	9.681051	0.000355	3.547767	1.202016	0.000142
  98	9.6515e+00	3.8550	9.810240	0.000324	3.243673	1.098986	0.000130
  99	9.7510e+00	3.9015	9.919243	0.000274	2.736849	0.927270	0.000110
 100	9.8505e+00	3.9320	10.080728	0.000405	4.054591	1.373733	0.000162
 101	9.9500e+00	3.9817	10.165508	0.000213	2.128660	0.721210	0.000085
 102	1.0050e+01	4.0170	10.302770	0.000345	3.446403	1.167673	0.000138
 103	1.0149e+01	4.0587	10.452144	0.000375	3.750497	1.270703	0.000150
 104	1.0248e+01	4.0924	10.577296	0.000314	3.142308	1.064643	0.000126
 105	1.0348e+01	4.1325	10.706484	0.000324	3.243673	1.098986	0.000130
 106	1.0447e+01	4.1806	10.839709	0.000335	3.345038	1.133329	0.000134
 107	1.0547e+01	4.2159	10.993121	0.000385	3.851862	1.305046	0.000154
 108	1.0646e+01	4.2592	11.081938	0.000223	2.230025	0.755553	0.000089
 109	1.0746e+01	4.2929	11.251497	0.000426	4.257321	1.442419	0.000170
 110	1.0845e+01	4.3314	11.372611	0.000304	3.040943	1.030300	0.000122
 111	1.0945e+01	4.3780	11.489688	0.000294	2.939579	0.995956	0.000118
 112	1.1044e+01	4.4148	11.626951	0.000345	3.446403	1.167673	0.000138
 113	1.1144e+01	4.4566	11.800548	0.000436	4.358686	1.476763	0.000174
 114	1.1243e+01	4.4919	11.881290	0.000203	2.027296	0.686866	0.000081
 115	1.1343e+01	4.5384	12.026627	0.000365	3.649132	1.236359	0.000146
 116	1.1443e+01	4.5705	12.139667	0.000284	2.838214	0.961613	0.000114
 117	1.1542e+01	4.6122	12.285004	0.000365	3.649132	1.236359	0.000146
 118	1.1642e+01	4.6555	12.422267	0.000345	3.446403	1.167673	0.000138
 119	1.1741e+01	4.6940	12.551455	0.000324	3.243673	1.098986	0.000130
 120	1.1841e+01	4.7405	12.704866	0.000385	3.851862	1.305046	0.000154
 121	1.1940e+01	4.7726	12.809832	0.000264	2.635484	0.892926	0.000105
 122	1.2040e+01	4.8095	12.939020	0.000324	3.243673	1.098986	0.000130
 123	1.2139e+01	4.8544	13.076283	0.000345	3.446403	1.167673	0.000138
 124	1.2239e+01	4.8945	13.185285	0.000274	2.736849	0.927270	0.000110
 125	1.2338e+01	4.9282	13.318511	0.000335	3.345038	1.133329	0.000134
 126	1.2438e+01	4.9683	13.451736	0.000335	3.345038	1.133329	0.000134
 127	1.2537e+01	5.0164	13.544590	0.000233	2.331390	0.789896	0.000093
 128	1.2636e+01	5.0630	13.689927	0.000365	3.649132	1.236359	0.000146
 129	1.2736e+01	5.0934	13.807004	0.000294	2.939579	0.995956	0.000118
 130	1.2835e+01	5.1303	13.984638	0.000446	4.460050	1.511106	0.000179
 131	1.2935e+01	5.1833	14.089604	0.000264	2.635484	0.892926	0.000105
 132	1.3034e+01	5.2041	14.243015	0.000385	3.851862	1.305046	0.000154
 133	1.3134e+01	5.2474	14.343943	0.000253	2.534120	0.858583	0.000101
 134	1.3233e+01	5.2892	14.440835	0.000243	2.432755	0.824240	0.000097
 135	1.3333e+01	5.3341	14.586171	0.000365	3.649132	1.236359	0.000146
 136	1.3432e+01	5.3726	14.695174	0.000274	2.736849	0.927270	0.000110
 137	1.3532e+01	5.4079	14.844548	0.000375	3.750497	1.270703	0.000150
 138	1.3632e+01	5.4528	14.933365	0.000223	2.230025	0.755553	0.000089
 139	1.3731e+01	5.4945	15.070628	0.000345	3.446403	1.167673	0.000138
 140	1.3831e+01	5.5218	15.211927	0.000355	3.547767	1.202016	0.000142
 141	1.3930e+01	5.5635	15.345153	0.000335	3.345038	1.133329	0.000134
 142	1.4030e+01	5.6084	15.474341	0.000324	3.243673	1.098986	0.000130
 143	1.4129e+01	5.6501	15.599492	0.000314	3.142308	1.064643	0.000126
 144	1.4229e+01	5.6838	15.700421	0.000253	2.534120	0.858583	0.000101
 145	1.4328e+01	5.7271	15.829609	0.000324	3.243673	1.098986	0.000130
 146	1.4428e+01	5.7624	15.942649	0.000284	2.838214	0.961613	0.000114
 147	1.4527e+01	5.8057	16.079912	0.000345	3.446403	1.167673	0.000138
 148	1.4627e+01	5.8426	16.184877	0.000264	2.635484	0.892926	0.000105
 149	1.4726e+01	5.8907	16.301954	0.000294	2.939579	0.995956	0.000118
 150	1.4825e+01	5.9292	16.447291	0.000365	3.649132	1.236359	0.000146
 151	1.4925e+01	5.9774	16.576479	0.000324	3.243673	1.098986	0.000130
 152	1.5024e+01	6.0079	16.661259	0.000213	2.128660	0.721210	0.000085
 153	1.5124e+01	6.0415	16.746039	0.000213	2.128660	0.721210	0.000085
 154	1.5223e+01	6.0849	16.923673	0.000446	4.460050	1.511106	0.000179
 155	1.5323e+01	6.1298	17.052861	0.000324	3.243673	1.098986	0.000130
 156	1.5422e+01	6.1586	17.125530	0.000182	1.824566	0.618180	0.000073
 157	1.5522e+01	6.2004	17.246644	0.000304	3.040943	1.030300	0.000122
 158	1.5621e+01	6.2389	17.396018	0.000375	3.750497	1.270703	0.000150
 159	1.5721e+01	6.2886	17.488872	0.000233	2.331390	0.789896	0.000093
 160	1.5820e+01	6.3271	17.605949	0.000294	2.939579	0.995956	0.000118
 161	1.5920e+01	6.3656	17.771472	0.000416	4.155956	1.408076	0.000166
 162	1.6020e+01	6.4041	17.844140	0.000182	1.824566	0.618180	0.000073
 163	1.6119e+01	6.4490	17.965254	0.000304	3.040943	1.030300	0.000122
 164	1.6218e+01	6.4843	18.090405	0.000314	3.142308	1.064643	0.000126
 165	1.6318e+01	6.5260	18.199408	0.000274	2.736849	0.927270	0.000110
 166	1.6418e+01	6.5661	18.344745	0.000365	3.649132	1.236359	0.000146
 167	1.6517e+01	6.6094	18.473933	0.000324	3.243673	1.098986	0.000130
 168	1.6616e+01	6.6479	18.558713	0.000213	2.128660	0.721210	0.000085
 169	1.6716e+01	6.6832	18.675790	0.000294	2.939579	0.995956	0.000118
 170	1.6816e+01	6.7201	18.784793	0.000274	2.736849	0.927270	0.000110
 171	1.6915e+01	6.7554	18.901870	0.000294	2.939579	0.995956	0.000118
 172	1.7015e+01	6.8084	19.051244	0.000375	3.750497	1.270703	0.000150
 173	1.7114e+01	6.8469	19.119875	0.000172	1.723201	0.583836	0.000069
 174	1.7213e+01	6.8918	19.273286	0.000385	3.851862	1.305046	0.000154
 175	1.7313e+01	6.9239	19.386326	0.000284	2.838214	0.961613	0.000114
 176	1.7413e+01	6.9656	19.499366	0.000284	2.838214	0.961613	0.000114
 177	1.7512e+01	7.0025	19.592220	0.000233	2.331390	0.789896	0.000093
 178	1.7611e+01	7.0458	19.705260	0.000284	2.838214	0.961613	0.000114
 179	1.7711e+01	7.0731	19.830411	0.000314	3.142308	1.064643	0.000126
 180	1.7811e+01	7.1196	19.963636	0.000335	3.345038	1.133329	0.000134
 181	1.7910e+01	7.1661	20.040342	0.000193	1.925931	0.652523	0.000077
 182	1.8009e+01	7.2094	20.217976	0.000446	4.460050	1.511106	0.000179
 183	1.8109e+01	7.2415	20.322941	0.000264	2.635484	0.892926	0.000105
 184	1.8209e+01	7.2816	20.444055	0.000304	3.040943	1.030300	0.000122
 185	1.8308e+01	7.3281	20.557095	0.000284	2.838214	0.961613	0.000114
 186	1.8407e+01	7.3586	20.666098	0.000274	2.736849	0.927270	0.000110
 187	1.8507e+01	7.4116	20.730692	0.000162	1.621836	0.549493	0.000065
 188	1.8607e+01	7.4356	20.876029	0.000365	3.649132	1.236359	0.000146
 189	1.8706e+01	7.4741	20.989069	0.000284	2.838214	0.961613	0.000114
 190	1.8805e+01	7.5206	21.098071	0.000274	2.736849	0.927270	0.000110
 191	1.8905e+01	7.5624	21.219185	0.000304	3.040943	1.030300	0.000122
 192	1.9005e+01	7.6057	21.356448	0.000345	3.446403	1.167673	0.000138
 193	1.9104e+01	7.6458	21.429116	0.000182	1.824566	0.618180	0.000073
 194	1.9203e+01	7.6843	21.578491	0.000375	3.750497	1.270703	0.000150
 195	1.9303e+01	7.7228	21.651159	0.000182	1.824566	0.618180	0.000073
 196	1.9402e+01	7.7581	21.792459	0.000355	3.547767	1.202016	0.000142
 197	1.9502e+01	7.7950	21.897424	0.000264	2.635484	0.892926	0.000105
 198	1.9602e+01	7.8463	21.949907	0.000132	1.317742	0.446463	0.000053
 199	1.9701e+01	7.8816	22.123504	0.000436	4.358686	1.476763	0.000174
 200	1.9800e+01	7.9281	22.236544	0.000284	2.838214	0.961613	0.000114
 201	1.9900e+01	7.9650	22.293064	0.000142	1.419107	0.480806	0.000057
 202	2.0000e+01	8.0003	22.494920	0.000507	5.068239	1.717166	0.000203
 203	2.0099e+01	8.0404	22.559515	0.000162	1.621836	0.549493	0.000065
 204	2.0198e+01	8.0789	22.664480	0.000264	2.635484	0.892926	0.000105
 205	2.0298e+01	8.1222	22.753297	0.000223	2.230025	0.755553	0.000089
 206	2.0398e+01	8.1559	22.878448	0.000314	3.142308	1.064643	0.000126
 207	2.0497e+01	8.1912	22.987451	0.000274	2.736849	0.927270	0.000110
 208	2.0596e+01	8.2474	23.084342	0.000243	2.432755	0.824240	0.000097
 209	2.0696e+01	8.2875	23.217568	0.000335	3.345038	1.133329	0.000134
 210	2.0796e+01	8.3147	23.350793	0.000335	3.345038	1.133329	0.000134
 211	2.0895e+01	8.3581	23.459796	0.000274	2.736849	0.927270	0.000110
 212	2.0994e+01	8.3933	23.588984	0.000324	3.243673	1.098986	0.000130
 213	2.1094e+01	8.4447	23.669727	0.000203	2.027296	0.686866	0.000081
 214	2.1194e+01	8.4768	23.815064	0.000365	3.649132	1.236359	0.000146
 215	2.1293e+01	8.5185	23.903881	0.000223	2.230025	0.755553	0.000089
 216	2.1392e+01	8.5634	23.992698	0.000223	2.230025	0.755553	0.000089
 217	2.1492e+01	8.6019	24.142072	0.000375	3.750497	1.270703	0.000150
 218	2.1591e+01	8.6420	24.247037	0.000264	2.635484	0.892926	0.000105
 219	2.1691e+01	8.6853	24.311631	0.000162	1.621836	0.549493	0.000065
 220	2.1791e+01	8.7174	24.448894	0.000345	3.446403	1.167673	0.000138
 221	2.1890e+01	8.7607	24.557897	0.000274	2.736849	0.927270	0.000110
 222	2.1989e+01	8.7976	24.695159	0.000345	3.446403	1.167673	0.000138
 223	2.2089e+01	8.8409	24.779939	0.000213	2.128660	0.721210	0.000085
 224	2.2189e+01	8.8826	24.872793	0.000233	2.331390	0.789896	0.000093
 225	2.2288e+01	8.9227	24.973722	0.000253	2.534120	0.858583	0.000101
 226	2.2387e+01	8.9532	25.151356	0.000446	4.460050	1.511106	0.000179
 227	2.2487e+01	8.9869	25.207876	0.000142	1.419107	0.480806	0.000057
 228	2.2587e+01	9.0415	25.328990	0.000304	3.040943	1.030300	0.000122
 229	2.2686e+01	9.0784	25.462215	0.000335	3.345038	1.133329	0.000134
 230	2.2785e+01	9.1088	25.583329	0.000304	3.040943	1.030300	0.000122
 231	2.2885e+01	9.1441	25.668109	0.000213	2.128660	0.721210	0.000085
 232	2.2985e+01	9.1906	25.769037	0.000253	2.534120	0.858583	0.000101
 233	2.3084e+01	9.2324	25.882077	0.000284	2.838214	0.961613	0.000114
 234	2.3183e+01	9.2837	26.003191	0.000304	3.040943	1.030300	0.000122
 235	2.3283e+01	9.3222	26.116231	0.000284	2.838214	0.961613	0.000114
 236	2.3383e+01	9.3431	26.217159	0.000253	2.534120	0.858583	0.000101
 237	2.3482e+01	9.3960	26.314051	0.000243	2.432755	0.824240	0.000097
 238	2.3581e+01	9.4329	26.435165	0.000304	3.040943	1.030300	0.000122
 239	2.3681e+01	9.4762	26.528019	0.000233	2.331390	0.789896	0.000093
 240	2.3780e+01	9.5099	26.620873	0.000233	2.331390	0.789896	0.000093
 241	2.3880e+01	9.5580	26.770247	0.000375	3.750497	1.270703	0.000150
 242	2.3980e+01	9.5981	26.879250	0.000274	2.736849	0.927270	0.000110
 243	2.4079e+01	9.6366	26.972104	0.000233	2.331390	0.789896	0.000093
 244	2.4178e+01	9.6687	27.085144	0.000284	2.838214	0.961613	0.000114
 245	2.4278e+01	9.7040	27.190109	0.000264	2.635484	0.892926	0.000105
 246	2.4378e+01	9.7521	27.319298	0.000324	3.243673	1.098986	0.000130
 247	2.4477e+01	9.7938	27.428300	0.000274	2.736849	0.927270	0.000110
 248	2.4576e+01	9.8259	27.521154	0.000233	2.331390	0.789896	0.000093
 249	2.4676e+01	9.8789	27.605934	0.000213	2.128660	0.721210	0.000085
 250	2.4776e+01	9.9110	27.702825	0.000243	2.432755	0.824240	0.000097
 251	2.4875e+01	9.9575	27.827977	0.000314	3.142308	1.064643	0.000126
 252	2.4974e+01	9.9960	27.957165	0.000324	3.243673	1.098986	0.000130
 253	2.5074e+01	10.0313	28.005611	0.000122	1.216377	0.412120	0.000049
 254	2.5174e+01	10.0714	28.138836	0.000335	3.345038	1.133329	0.000134
 255	2.5273e+01	10.1131	28.288210	0.000375	3.750497	1.270703	0.000150
 256	2.5372e+01	10.1500	28.328581	0.000101	1.013648	0.343433	0.000041
 257	2.5472e+01	10.1949	28.494104	0.000416	4.155956	1.408076	0.000166
 258	2.5572e+01	10.2286	28.607144	0.000284	2.838214	0.961613	0.000114
 259	2.5671e+01	10.2799	28.712109	0.000264	2.635484	0.892926	0.000105
 260	2.5770e+01	10.3136	28.817075	0.000264	2.635484	0.892926	0.000105
 261	2.5870e+01	10.3489	28.913966	0.000243	2.432755	0.824240	0.000097
 262	2.5970e+01	10.3970	29.043154	0.000324	3.243673	1.098986	0.000130
 263	2.6069e+01	10.4275	29.184454	0.000355	3.547767	1.202016	0.000142
 264	2.6169e+01	10.4724	29.289420	0.000264	2.635484	0.892926	0.000105
 265	2.6268e+01	10.5093	29.438794	0.000375	3.750497	1.270703	0.000150
 266	2.6367e+01	10.5494	29.507425	0.000172	1.723201	0.583836	0.000069
 267	2.6467e+01	10.5911	29.584131	0.000193	1.925931	0.652523	0.000077
 268	2.6567e+01	10.6345	29.676985	0.000233	2.331390	0.789896	0.000093
 269	2.6666e+01	10.6762	29.842507	0.000416	4.155956	1.408076	0.000166
 270	2.6765e+01	10.7034	29.947473	0.000264	2.635484	0.892926	0.000105
 271	2.6865e+01	10.7484	30.068587	0.000304	3.040943	1.030300	0.000122
 272	2.6965e+01	10.7917	30.193738	0.000314	3.142308	1.064643	0.000126
 273	2.7064e+01	10.8318	30.306778	0.000284	2.838214	0.961613	0.000114
 274	2.7163e+01	10.8703	30.403669	0.000243	2.432755	0.824240	0.000097
 275	2.7263e+01	10.9168	30.516709	0.000284	2.838214	0.961613	0.000114
 276	2.7363e+01	10.9553	30.629749	0.000284	2.838214	0.961613	0.000114
 277	2.7462e+01	10.9874	30.702417	0.000182	1.824566	0.618180	0.000073
 278	2.7561e+01	11.0307	30.871977	0.000426	4.257321	1.442419	0.000170
 279	2.7661e+01	11.0740	30.948683	0.000193	1.925931	0.652523	0.000077
 280	2.7761e+01	11.1141	31.061722	0.000284	2.838214	0.961613	0.000114
 281	2.7860e+01	11.1510	31.134391	0.000182	1.824566	0.618180	0.000073
 282	2.7959e+01	11.1831	31.279728	0.000365	3.649132	1.236359	0.000146
 283	2.8059e+01	11.2216	31.400842	0.000304	3.040943	1.030300	0.000122
 284	2.8159e+01	11.2649	31.469473	0.000172	1.723201	0.583836	0.000069
 285	2.8258e+01	11.3050	31.550216	0.000203	2.027296	0.686866	0.000081
 286	2.8358e+01	11.3451	31.639033	0.000223	2.230025	0.755553	0.000089
 287	2.8457e+01	11.3884	31.743998	0.000264	2.635484	0.892926	0.000105
 288	2.8556e+01	11.4334	31.901447	0.000395	3.953226	1.339389	0.000158
 289	2.8656e+01	11.4783	31.982189	0.000203	2.027296	0.686866	0.000081
 290	2.8756e+01	11.5088	32.139638	0.000395	3.953226	1.339389	0.000158
 291	2.8855e+01	11.5505	32.244603	0.000264	2.635484	0.892926	0.000105
 292	2.8954e+01	11.5842	32.329383	0.000213	2.128660	0.721210	0.000085
 293	2.9054e+01	11.6227	32.422237	0.000233	2.331390	0.789896	0.000093
 294	2.9154e+01	11.6596	32.571611	0.000375	3.750497	1.270703	0.000150
 295	2.9253e+01	11.7045	32.708874	0.000345	3.446403	1.167673	0.000138
 296	2.9352e+01	11.7366	32.805765	0.000243	2.432755	0.824240	0.000097
 297	2.9452e+01	11.7815	32.930916	0.000314	3.142308	1.064643	0.000126
 298	2.9552e+01	11.8344	33.007622	0.000193	1.925931	0.652523	0.000077
 299	2.9651e+01	11.8649	33.116624	0.000274	2.736849	0.927270	0.000110
 300	2.9750e+01	11.9098	33.257924	0.000355	3.547767	1.202016	0.000142
 301	2.9850e+01	11.9499	33.326556	0.000172	1.723201	0.583836	0.000069
 302	2.9950e+01	11.9916	33.395187	0.000172	1.723201	0.583836	0.000069
 303	3.0049e+01	12.0221	33.475930	0.000203	2.027296	0.686866	0.000081
 304	3.0148e+01	12.0622	33.536487	0.000152	1.520472	0.515150	0.000061
 305	3.0248e+01	12.1023	33.685861	0.000375	3.750497	1.270703	0.000150
 306	3.0348e+01	12.1505	33.875606	0.000476	4.764145	1.614136	0.000191
 307	3.0447e+01	12.1858	33.988646	0.000284	2.838214	0.961613	0.000114
 308	3.0547e+01	12.2275	34.125908	0.000345	3.446403	1.167673	0.000138
 309	3.0646e+01	12.2579	34.210688	0.000213	2.128660	0.721210	0.000085
 310	3.0745e+01	12.3045	34.299505	0.000223	2.230025	0.755553	0.000089
 311	3.0845e+01	12.3349	34.416582	0.000294	2.939579	0.995956	0.000118
 312	3.0945e+01	12.3927	34.533659	0.000294	2.939579	0.995956	0.000118
 313	3.1044e+01	12.4184	34.618439	0.000213	2.128660	0.721210	0.000085
 314	3.1143e+01	12.4569	34.719367	0.000253	2.534120	0.858583	0.000101
 315	3.1243e+01	12.4986	34.856630	0.000345	3.446403	1.167673	0.000138
 316	3.1343e+01	12.5483	34.957558	0.000253	2.534120	0.858583	0.000101
 317	3.1442e+01	12.5804	35.074635	0.000294	2.939579	0.995956	0.000118
 318	3.1541e+01	12.6189	35.171527	0.000243	2.432755	0.824240	0.000097
 319	3.1641e+01	12.6590	35.252269	0.000203	2.027296	0.686866	0.000081
 320	3.1741e+01	12.6943	35.373383	0.000304	3.040943	1.030300	0.000122
 321	3.1840e+01	12.7472	35.450089	0.000193	1.925931	0.652523	0.000077
 322	3.1939e+01	12.7793	35.583314	0.000335	3.345038	1.133329	0.000134
 323	3.2039e+01	12.8178	35.660020	0.000193	1.925931	0.652523	0.000077
 324	3.2139e+01	12.8595	35.781134	0.000304	3.040943	1.030300	0.000122
 325	3.2238e+01	12.9061	35.882062	0.000253	2.534120	0.858583	0.000101
 326	3.2337e+01	12.9365	35.982991	0.000253	2.534120	0.858583	0.000101
 327	3.2437e+01	12.9734	36.039511	0.000142	1.419107	0.480806	0.000057
 328	3.2536e+01	13.0200	36.184848	0.000365	3.649132	1.236359	0.000146
 329	3.2636e+01	13.0488	36.289813	0.000264	2.635484	0.892926	0.000105
 330	3.2736e+01	13.0970	36.362482	0.000182	1.824566	0.618180	0.000073
 331	3.2835e+01	13.1419	36.459373	0.000243	2.432755	0.824240	0.000097
 332	3.2934e+01	13.1804	36.560301	0.000253	2.534120	0.858583	0.000101
 333	3.3034e+01	13.2221	36.681415	0.000304	3.040943	1.030300	0.000122
 334	3.3133e+01	13.2494	36.774269	0.000233	2.331390	0.789896	0.000093
 335	3.3233e+01	13.2911	36.859049	0.000213	2.128660	0.721210	0.000085
 336	3.3333e+01	13.3328	36.968052	0.000274	2.736849	0.927270	0.000110
 337	3.3432e+01	13.3729	37.044758	0.000193	1.925931	0.652523	0.000077
 338	3.3532e+01	13.4162	37.186057	0.000355	3.547767	1.202016	0.000142
 339	3.3631e+01	13.4675	37.262763	0.000193	1.925931	0.652523	0.000077
 340	3.3730e+01	13.4916	37.359654	0.000243	2.432755	0.824240	0.000097
 341	3.3830e+01	13.5333	37.432323	0.000182	1.824566	0.618180	0.000073
 342	3.3929e+01	13.5718	37.537288	0.000264	2.635484	0.892926	0.000105
 343	3.4029e+01	13.6135	37.654365	0.000294	2.939579	0.995956	0.000118
 344	3.4129e+01	13.6568	37.803739	0.000375	3.750497	1.270703	0.000150
 345	3.4228e+01	13.6937	37.831999	0.000071	0.709553	0.240403	0.000028
 346	3.4328e+01	13.7354	37.924853	0.000233	2.331390	0.789896	0.000093
 347	3.4427e+01	13.7739	38.033856	0.000274	2.736849	0.927270	0.000110
 348	3.4526e+01	13.8108	38.146896	0.000284	2.838214	0.961613	0.000114
 349	3.4626e+01	13.8526	38.215527	0.000172	1.723201	0.583836	0.000069
 350	3.4725e+01	13.9023	38.312418	0.000243	2.432755	0.824240	0.000097
 351	3.4825e+01	13.9360	38.457755	0.000365	3.649132	1.236359	0.000146
 352	3.4925e+01	13.9793	38.510238	0.000132	1.317742	0.446463	0.000053
 353	3.5024e+01	14.0146	38.635389	0.000314	3.142308	1.064643	0.000126
 354	3.5123e+01	14.0563	38.699983	0.000162	1.621836	0.549493	0.000065
 355	3.5223e+01	14.0980	38.800912	0.000253	2.534120	0.858583	0.000101
 356	3.5322e+01	14.1253	38.917989	0.000294	2.939579	0.995956	0.000118
 357	3.5422e+01	14.1766	38.974508	0.000142	1.419107	0.480806	0.000057
 358	3.5522e+01	14.2199	39.067363	0.000233	2.331390	0.789896	0.000093
 359	3.5621e+01	14.2568	39.140031	0.000182	1.824566	0.618180	0.000073
 360	3.5721e+01	14.2937	39.184439	0.000112	1.115013	0.377776	0.000045
 361	3.5820e+01	14.3354	39.329776	0.000365	3.649132	1.236359	0.000146
 362	3.5919e+01	14.3723	39.406482	0.000193	1.925931	0.652523	0.000077
 363	3.6019e+01	14.4124	39.495299	0.000223	2.230025	0.755553	0.000089
 364	3.6118e+01	14.4525	39.612376	0.000294	2.939579	0.995956	0.000118
 365	3.6218e+01	14.5007	39.685044	0.000182	1.824566	0.618180	0.000073
 366	3.6318e+01	14.5263	39.814233	0.000324	3.243673	1.098986	0.000130
 367	3.6417e+01	14.5680	39.866715	0.000132	1.317742	0.446463	0.000053
 368	3.6517e+01	14.6162	39.971681	0.000264	2.635484	0.892926	0.000105
 369	3.6616e+01	14.6531	40.072609	0.000253	2.534120	0.858583	0.000101
 370	3.6715e+01	14.6948	40.177575	0.000264	2.635484	0.892926	0.000105
 371	3.6815e+01	14.7269	40.266392	0.000223	2.230025	0.755553	0.000089
 372	3.6914e+01	14.7654	40.359246	0.000233	2.331390	0.789896	0.000093
 373	3.7014e+01	14.8183	40.435952	0.000193	1.925931	0.652523	0.000077
 374	3.7114e+01	14.8488	40.548991	0.000284	2.838214	0.961613	0.000114
 375	3.7213e+01	14.8953	40.637808	0.000223	2.230025	0.755553	0.000089
 376	3.7313e+01	14.9354	40.726625	0.000223	2.230025	0.755553	0.000089
 377	3.7412e+01	14.9627	40.819479	0.000233	2.331390	0.789896	0.000093
 378	3.7511e+01	15.0220	40.940594	0.000304	3.040943	1.030300	0.000122
 379	3.7611e+01	15.0509	41.009225	0.000172	1.723201	0.583836	0.000069
 380	3.7711e+01	15.0750	41.114190	0.000264	2.635484	0.892926	0.000105
 381	3.7810e+01	15.1199	41.227230	0.000284	2.838214	0.961613	0.000114
 382	3.7910e+01	15.1632	41.283750	0.000142	1.419107	0.480806	0.000057
 383	3.8009e+01	15.2145	41.392753	0.000274	2.736849	0.927270	0.000110
 384	3.8108e+01	15.2530	41.489644	0.000243	2.432755	0.824240	0.000097
 385	3.8208e+01	15.2867	41.590572	0.000253	2.534120	0.858583	0.000101
 386	3.8307e+01	15.3284	41.659204	0.000172	1.723201	0.583836	0.000069
 387	3.8407e+01	15.3750	41.756095	0.000243	2.432755	0.824240	0.000097
 388	3.8507e+01	15.4022	41.848949	0.000233	2.331390	0.789896	0.000093
 389	3.8606e+01	15.4520	41.921618	0.000182	1.824566	0.618180	0.000073
 390	3.8706e+01	15.4905	41.998323	0.000193	1.925931	0.652523	0.000077
 391	3.8805e+01	15.5290	42.127511	0.000324	3.243673	1.098986	0.000130
 392	3.8904e+01	15.5659	42.204217	0.000193	1.925931	0.652523	0.000077
 393	3.9004e+01	15.6124	42.297071	0.000233	2.331390	0.789896	0.000093
 394	3.9103e+01	15.6477	42.361665	0.000162	1.621836	0.549493	0.000065
 395	3.9203e+01	15.6910	42.498928	0.000345	3.446403	1.167673	0.000138
 396	3.9303e+01	15.7279	42.555448	0.000142	1.419107	0.480806	0.000057
 397	3.9402e+01	15.7648	42.700785	0.000365	3.649132	1.236359	0.000146
 398	3.9502e+01	15.7985	42.757305	0.000142	1.419107	0.480806	0.000057
 399	3.9601e+01	15.8418	42.890530	0.000335	3.345038	1.133329	0.000134
 400	3.9700e+01	15.8867	42.991458	0.000253	2.534120	0.858583	0.000101
 401	3.9800e+01	15.9268	43.060090	0.000172	1.723201	0.583836	0.000069
 402	3.9900e+01	15.9766	43.152944	0.000233	2.331390	0.789896	0.000093
 403	3.9999e+01	15.9990	43.241761	0.000223	2.230025	0.755553	0.000089
 404	4.0099e+01	16.0439	43.370949	0.000324	3.243673	1.098986	0.000130
 405	4.0198e+01	16.0937	43.463803	0.000233	2.331390	0.789896	0.000093
 406	4.0297e+01	16.1290	43.544546	0.000203	2.027296	0.686866	0.000081
 407	4.0397e+01	16.1626	43.637400	0.000233	2.331390	0.789896	0.000093
 408	4.0496e+01	16.2060	43.738329	0.000253	2.534120	0.858583	0.000101
 409	4.0596e+01	16.2525	43.835220	0.000243	2.432755	0.824240	0.000097
 410	4.0696e+01	16.2942	43.944223	0.000274	2.736849	0.927270	0.000110
 411	4.0795e+01	16.3247	44.041114	0.000243	2.432755	0.824240	0.000097
 412	4.0895e+01	16.3728	44.138005	0.000243	2.432755	0.824240	0.000097
 413	4.0994e+01	16.4097	44.210673	0.000182	1.824566	0.618180	0.000073
 414	4.1093e+01	16.4418	44.335825	0.000314	3.142308	1.064643	0.000126
 415	4.1193e+01	16.4883	44.420605	0.000213	2.128660	0.721210	0.000085
 416	4.1292e+01	16.5188	44.541719	0.000304	3.040943	1.030300	0.000122
 417	4.1392e+01	16.5685	44.622461	0.000203	2.027296	0.686866	0.000081
 418	4.1492e+01	16.6054	44.723390	0.000253	2.534120	0.858583	0.000101
 419	4.1591e+01	16.6519	44.812207	0.000223	2.230025	0.755553	0.000089
 420	4.1691e+01	16.6856	44.892949	0.000203	2.027296	0.686866	0.000081
 421	4.1790e+01	16.7289	44.997915	0.000264	2.635484	0.892926	0.000105
 422	4.1889e+01	16.7690	45.090769	0.000233	2.331390	0.789896	0.000093
 423	4.1989e+01	16.8075	45.171512	0.000203	2.027296	0.686866	0.000081
 424	4.2089e+01	16.8477	45.312812	0.000355	3.547767	1.202016	0.000142
 425	4.2188e+01	16.8846	45.389517	0.000193	1.925931	0.652523	0.000077
 426	4.2288e+01	16.9295	45.482371	0.000233	2.331390	0.789896	0.000093
 427	4.2387e+01	16.9583	45.575225	0.000233	2.331390	0.789896	0.000093
 428	4.2486e+01	17.0081	45.651931	0.000193	1.925931	0.652523	0.000077
 429	4.2586e+01	17.0562	45.809379	0.000395	3.953226	1.339389	0.000158
 430	4.2685e+01	17.0771	45.857825	0.000122	1.216377	0.412120	0.000049
 431	4.2785e+01	17.1172	45.934530	0.000193	1.925931	0.652523	0.000077
 432	4.2885e+01	17.1541	46.043533	0.000274	2.736849	0.927270	0.000110
 433	4.2984e+01	17.2006	46.112164	0.000172	1.723201	0.583836	0.000069
 434	4.3084e+01	17.2375	46.249427	0.000345	3.446403	1.167673	0.000138
 435	4.3183e+01	17.2920	46.330170	0.000203	2.027296	0.686866	0.000081
 436	4.3282e+01	17.3321	46.439172	0.000274	2.736849	0.927270	0.000110
 437	4.3382e+01	17.3562	46.495692	0.000142	1.419107	0.480806	0.000057
 438	4.3481e+01	17.4027	46.641029	0.000365	3.649132	1.236359	0.000146
 439	4.3581e+01	17.4492	46.754069	0.000284	2.838214	0.961613	0.000114
 440	4.3681e+01	17.4797	46.830775	0.000193	1.925931	0.652523	0.000077
 441	4.3780e+01	17.5214	46.903443	0.000182	1.824566	0.618180	0.000073
 442	4.3880e+01	17.5551	47.004371	0.000253	2.534120	0.858583	0.000101
 443	4.3979e+01	17.5984	47.125485	0.000304	3.040943	1.030300	0.000122
 444	4.4078e+01	17.6369	47.206228	0.000203	2.027296	0.686866	0.000081
 445	4.4178e+01	17.6851	47.291008	0.000213	2.128660	0.721210	0.000085
 446	4.4278e+01	17.7236	47.424234	0.000335	3.345038	1.133329	0.000134
 447	4.4377e+01	17.7717	47.504976	0.000203	2.027296	0.686866	0.000081
 448	4.4477e+01	17.8054	47.593793	0.000223	2.230025	0.755553	0.000089
 449	4.4576e+01	17.8455	47.739130	0.000365	3.649132	1.236359	0.000146
 450	4.4675e+01	17.8760	47.779501	0.000101	1.013648	0.343433	0.000041
 451	4.4775e+01	17.9177	47.852170	0.000182	1.824566	0.618180	0.000073
 452	4.4874e+01	17.9658	47.965210	0.000284	2.838214	0.961613	0.000114
 453	4.4974e+01	18.0027	48.058064	0.000233	2.331390	0.789896	0.000093
 454	4.5074e+01	18.0380	48.167066	0.000274	2.736849	0.927270	0.000110
 455	4.5173e+01	18.0797	48.255883	0.000223	2.230025	0.755553	0.000089
 456	4.5273e+01	18.1150	48.376998	0.000304	3.040943	1.030300	0.000122
 457	4.5372e+01	18.1631	48.413332	0.000091	0.912283	0.309090	0.000037
 458	4.5471e+01	18.1952	48.534446	0.000304	3.040943	1.030300	0.000122
 459	4.5571e+01	18.2289	48.679783	0.000365	3.649132	1.236359	0.000146
 460	4.5670e+01	18.2786	48.708043	0.000071	0.709553	0.240403	0.000028
 461	4.5770e+01	18.3123	48.817045	0.000274	2.736849	0.927270	0.000110
 462	4.5870e+01	18.3685	48.922011	0.000264	2.635484	0.892926	0.000105
 463	4.5969e+01	18.3925	49.002754	0.000203	2.027296	0.686866	0.000081
 464	4.6069e+01	18.4374	49.099645	0.000243	2.432755	0.824240	0.000097
 465	4.6168e+01	18.4759	49.204610	0.000264	2.635484	0.892926	0.000105
 466	4.6267e+01	18.5289	49.317650	0.000284	2.838214	0.961613	0.000114
 467	4.6367e+01	18.5546	49.406467	0.000223	2.230025	0.755553	0.000089
 468	4.6467e+01	18.5979	49.511433	0.000264	2.635484	0.892926	0.000105
 469	4.6566e+01	18.6267	49.555841	0.000112	1.115013	0.377776	0.000045
 470	4.6666e+01	18.6749	49.668881	0.000284	2.838214	0.961613	0.000114
 471	4.6765e+01	18.7166	49.745587	0.000193	1.925931	0.652523	0.000077
 472	4.6864e+01	18.7567	49.806144	0.000152	1.520472	0.515150	0.000061
 473	4.6964e+01	18.7872	49.971666	0.000416	4.155956	1.408076	0.000166
 474	4.7063e+01	18.8385	50.028186	0.000142	1.419107	0.480806	0.000057
 475	4.7163e+01	18.8754	50.104892	0.000193	1.925931	0.652523	0.000077
 476	4.7263e+01	18.9187	50.217931	0.000284	2.838214	0.961613	0.000114
 477	4.7362e+01	18.9652	50.290600	0.000182	1.824566	0.618180	0.000073
 478	4.7462e+01	19.0005	50.415751	0.000314	3.142308	1.064643	0.000126
 479	4.7561e+01	19.0310	50.484382	0.000172	1.723201	0.583836	0.000069
 480	4.7660e+01	19.0904	50.609534	0.000314	3.142308	1.064643	0.000126
 481	4.7760e+01	19.1176	50.674128	0.000162	1.621836	0.549493	0.000065
 482	4.7859e+01	19.1481	50.762945	0.000223	2.230025	0.755553	0.000089
 483	4.7959e+01	19.1962	50.847725	0.000213	2.128660	0.721210	0.000085
 484	4.8059e+01	19.2380	50.952690	0.000264	2.635484	0.892926	0.000105
 485	4.8158e+01	19.2781	51.077841	0.000314	3.142308	1.064643	0.000126
 486	4.8258e+01	19.3182	51.130324	0.000132	1.317742	0.446463	0.000053
 487	4.8357e+01	19.3454	51.211067	0.000203	2.027296	0.686866	0.000081
 488	4.8456e+01	19.3968	51.328144	0.000294	2.939579	0.995956	0.000118
 489	4.8556e+01	19.4321	51.380627	0.000132	1.317742	0.446463	0.000053
 490	4.8656e+01	19.4722	51.473481	0.000233	2.331390	0.789896	0.000093
 491	4.8755e+01	19.5139	51.590558	0.000294	2.939579	0.995956	0.000118
 492	4.8855e+01	19.5396	51.679375	0.000223	2.230025	0.755553	0.000089
 493	4.8954e+01	19.5941	51.752043	0.000182	1.824566	0.618180	0.000073
 494	4.9053e+01	19.6310	51.857009	0.000264	2.635484	0.892926	0.000105
 495	4.9153e+01	19.6663	51.949863	0.000233	2.331390	0.789896	0.000093
 496	4.9252e+01	19.7064	52.038680	0.000223	2.230025	0.755553	0.000089
 497	4.9352e+01	19.7561	52.119422	0.000203	2.027296	0.686866	0.000081
 498	4.9452e+01	19.8026	52.188054	0.000172	1.723201	0.583836	0.000069
 499	4.9551e+01	19.8315	52.297056	0.000274	2.736849	0.927270	0.000110
 500	4.9651e+01	19.8636	52.329353	0.000081	0.810918	0.274747	0.000032
 501	4.9750e+01	19.9005	52.462579	0.000335	3.345038	1.133329	0.000134
 502	4.9849e+01	19.9551	52.543322	0.000203	2.027296	0.686866	0.000081
 503	4.9949e+01	19.9919	52.583693	0.000101	1.013648	0.343433	0.000041
 504	5.0048e+01	19.9551	52.599842	-0.000041	-0.405459	-0.137373	0.000016
 505	5.0148e+01	19.9182	52.515062	0.000213	2.128660	0.721210	-0.000085
 506	5.0248e+01	19.8684	52.414133	0.000253	2.534120	0.858583	-0.000101
 507	5.0347e+01	19.8347	52.397985	0.000041	0.405459	0.137373	-0.000016
 508	5.0447e+01	19.7930	52.272834	0.000314	3.142308	1.064643	-0.000126
 509	5.0546e+01	19.7545	52.224388	0.000122	1.216377	0.412120	-0.000049
 510	5.0645e+01	19.7144	52.127497	0.000243	2.432755	0.824240	-0.000097
 511	5.0745e+01	19.6775	52.050791	0.000193	1.925931	0.652523	-0.000077
 512	5.0844e+01	19.6262	52.042717	0.000020	0.202730	0.068687	-0.000008
 513	5.0944e+01	19.5909	51.953900	0.000223	2.230025	0.755553	-0.000089
 514	5.1044e+01	19.5540	51.861046	0.000233	2.331390	0.789896	-0.000093
 515	5.1143e+01	19.5059	51.780303	0.000203	2.027296	0.686866	-0.000081
 516	5.1242e+01	19.4658	51.707635	0.000182	1.824566	0.618180	-0.000073
 517	5.1342e+01	19.4385	51.630929	0.000193	1.925931	0.652523	-0.000077
 518	5.1441e+01	19.4000	51.542112	0.000223	2.230025	0.755553	-0.000089
 519	5.1541e+01	19.3599	51.465406	0.000193	1.925931	0.652523	-0.000077
 520	5.1641e+01	19.3102	51.404849	0.000152	1.520472	0.515150	-0.000061
 521	5.1740e+01	19.2749	51.320070	0.000213	2.128660	0.721210	-0.000085
 522	5.1840e+01	19.2444	51.255475	0.000162	1.621836	0.549493	-0.000065
 523	5.1939e+01	19.1995	51.186844	0.000172	1.723201	0.583836	-0.000069
 524	5.2038e+01	19.1545	51.085916	0.000253	2.534120	0.858583	-0.000101
 525	5.2138e+01	19.1064	50.997099	0.000223	2.230025	0.755553	-0.000089
 526	5.2237e+01	19.0791	50.940579	0.000142	1.419107	0.480806	-0.000057
 527	5.2337e+01	19.0342	50.843687	0.000243	2.432755	0.824240	-0.000097
 528	5.2437e+01	18.9909	50.762945	0.000203	2.027296	0.686866	-0.000081
 529	5.2536e+01	18.9508	50.694313	0.000172	1.723201	0.583836	-0.000069
 530	5.2636e+01	18.9187	50.621645	0.000182	1.824566	0.618180	-0.000073
 531	5.2735e+01	18.8738	50.569162	0.000132	1.317742	0.446463	-0.000053
 532	5.2834e+01	18.8433	50.427863	0.000355	3.547767	1.202016	-0.000142
 533	5.2934e+01	18.7904	50.375380	0.000132	1.317742	0.446463	-0.000053
 534	5.3033e+01	18.7551	50.298674	0.000193	1.925931	0.652523	-0.000077
 535	5.3133e+01	18.7182	50.205820	0.000233	2.331390	0.789896	-0.000093
 536	5.3233e+01	18.6733	50.133152	0.000182	1.824566	0.618180	-0.000073
 537	5.3332e+01	18.6332	50.036260	0.000243	2.432755	0.824240	-0.000097
 538	5.3431e+01	18.5979	49.939369	0.000243	2.432755	0.824240	-0.000097
 539	5.3531e+01	18.5578	49.882849	0.000142	1.419107	0.480806	-0.000057
 540	5.3630e+01	18.5177	49.773847	0.000274	2.736849	0.927270	-0.000110
 541	5.3730e+01	18.4695	49.737512	0.000091	0.912283	0.309090	-0.000037
 542	5.3830e+01	18.4407	49.644658	0.000233	2.331390	0.789896	-0.000093
 543	5.3929e+01	18.3925	49.580064	0.000162	1.621836	0.549493	-0.000065
 544	5.4029e+01	18.3524	49.491247	0.000223	2.230025	0.755553	-0.000089
 545	5.4128e+01	18.3171	49.394356	0.000243	2.432755	0.824240	-0.000097
 546	5.4227e+01	18.2770	49.232870	0.000405	4.054591	1.373733	-0.000162
 547	5.4327e+01	18.2369	49.188462	0.000112	1.115013	0.377776	-0.000045
 548	5.4426e+01	18.2048	49.119831	0.000172	1.723201	0.583836	-0.000069
 549	5.4526e+01	18.1567	49.059273	0.000152	1.520472	0.515150	-0.000061
 550	5.4626e+01	18.1182	48.958345	0.000253	2.534120	0.858583	-0.000101
 551	5.4725e+01	18.0829	48.897788	0.000152	1.520472	0.515150	-0.000061
 552	5.4825e+01	18.0364	48.825120	0.000182	1.824566	0.618180	-0.000073
 553	5.4924e+01	17.9883	48.720154	0.000264	2.635484	0.892926	-0.000105
 554	5.5023e+01	17.9642	48.643449	0.000193	1.925931	0.652523	-0.000077
 555	5.5123e+01	17.9305	48.586929	0.000142	1.419107	0.480806	-0.000057
 556	5.5222e+01	17.8840	48.498112	0.000223	2.230025	0.755553	-0.000089
 557	5.5322e+01	17.8439	48.429480	0.000172	1.723201	0.583836	-0.000069
 558	5.5422e+01	17.7877	48.267995	0.000405	4.054591	1.373733	-0.000162
 559	5.5521e+01	17.7621	48.211475	0.000142	1.419107	0.480806	-0.000057
 560	5.5620e+01	17.7123	48.187252	0.000061	0.608189	0.206060	-0.000024
 561	5.5720e+01	17.6931	48.062101	0.000314	3.142308	1.064643	-0.000126
 562	5.5819e+01	17.6417	47.973284	0.000223	2.230025	0.755553	-0.000089
 563	5.5919e+01	17.5968	47.896578	0.000193	1.925931	0.652523	-0.000077
 564	5.6019e+01	17.5696	47.795650	0.000253	2.534120	0.858583	-0.000101
 565	5.6118e+01	17.5198	47.743167	0.000132	1.317742	0.446463	-0.000053
 566	5.6218e+01	17.4797	47.642239	0.000253	2.534120	0.858583	-0.000101
 567	5.6317e+01	17.4444	47.577645	0.000162	1.621836	0.549493	-0.000065
 568	5.6416e+01	17.4027	47.488828	0.000223	2.230025	0.755553	-0.000089
 569	5.6516e+01	17.3642	47.404048	0.000213	2.128660	0.721210	-0.000085
 570	5.6615e+01	17.3305	47.299082	0.000264	2.635484	0.892926	-0.000105
 571	5.6715e+01	17.2776	47.222377	0.000193	1.925931	0.652523	-0.000077
 572	5.6815e+01	17.2407	47.190080	0.000081	0.810918	0.274747	-0.000032
 573	5.6914e+01	17.2038	47.044743	0.000365	3.649132	1.236359	-0.000146
 574	5.7014e+01	17.1669	47.000334	0.000112	1.115013	0.377776	-0.000045
 575	5.7113e+01	17.1220	46.911517	0.000223	2.230025	0.755553	-0.000089
 576	5.7212e+01	17.0787	46.854997	0.000142	1.419107	0.480806	-0.000057
 577	5.7312e+01	17.0450	46.762143	0.000233	2.331390	0.789896	-0.000093
 578	5.7411e+01	16.9985	46.641029	0.000304	3.040943	1.030300	-0.000122
 579	5.7511e+01	16.9712	46.620844	0.000051	0.506824	0.171717	-0.000020
 580	5.7611e+01	16.9182	46.487618	0.000335	3.345038	1.133329	-0.000134
 581	5.7710e+01	16.8749	46.414950	0.000182	1.824566	0.618180	-0.000073
 582	5.7809e+01	16.8477	46.338244	0.000193	1.925931	0.652523	-0.000077
 583	5.7909e+01	16.7995	46.285761	0.000132	1.317742	0.446463	-0.000053
 584	5.8008e+01	16.7690	46.200981	0.000213	2.128660	0.721210	-0.000085
 585	5.8108e+01	16.7321	46.116202	0.000213	2.128660	0.721210	-0.000085
 586	5.8208e+01	16.6856	46.015273	0.000253	2.534120	0.858583	-0.000101
 587	5.8307e+01	16.6487	45.942605	0.000182	1.824566	0.618180	-0.000073
 588	5.8407e+01	16.6086	45.865899	0.000193	1.925931	0.652523	-0.000077
 589	5.8506e+01	16.5621	45.773045	0.000233	2.331390	0.789896	-0.000093
 590	5.8605e+01	16.5236	45.676154	0.000243	2.432755	0.824240	-0.000097
 591	5.8705e+01	16.4803	45.619634	0.000142	1.419107	0.480806	-0.000057
 592	5.8804e+01	16.4434	45.526780	0.000233	2.331390	0.789896	-0.000093
 593	5.8904e+01	16.4017	45.433926	0.000233	2.331390	0.789896	-0.000093
 594	5.9004e+01	16.3632	45.365294	0.000172	1.723201	0.583836	-0.000069
 595	5.9103e+01	16.3247	45.272440	0.000233	2.331390	0.789896	-0.000093
 596	5.9203e+01	16.2878	45.207846	0.000162	1.621836	0.549493	-0.000065
 597	5.9302e+01	16.2477	45.127103	0.000203	2.027296	0.686866	-0.000081
 598	5.9401e+01	16.2156	45.026175	0.000253	2.534120	0.858583	-0.000101
 599	5.9501e+01	16.1642	44.929284	0.000243	2.432755	0.824240	-0.000097
 600	5.9600e+01	16.1306	44.860652	0.000172	1.723201	0.583836	-0.000069
 601	5.9700e+01	16.0840	44.787984	0.000182	1.824566	0.618180	-0.000073
 602	5.9800e+01	16.0487	44.687055	0.000253	2.534120	0.858583	-0.000101
 603	5.9899e+01	16.0038	44.586127	0.000253	2.534120	0.858583	-0.000101
 604	5.9998e+01	15.9733	44.529607	0.000142	1.419107	0.480806	-0.000057
 605	6.0098e+01	15.9188	44.424642	0.000264	2.635484	0.892926	-0.000105
 606	6.0197e+01	15.8867	44.416567	0.000020	0.202730	0.068687	-0.000008
 607	6.0297e+01	15.8514	44.291416	0.000314	3.142308	1.064643	-0.000126
 608	6.0397e+01	15.8065	44.194525	0.000243	2.432755	0.824240	-0.000097
 609	6.0496e+01	15.7712	44.170302	0.000061	0.608189	0.206060	-0.000024
 610	6.0596e+01	15.7343	44.049188	0.000304	3.040943	1.030300	-0.000122
 611	6.0695e+01	15.6910	43.964408	0.000213	2.128660	0.721210	-0.000085
 612	6.0794e+01	15.6557	43.867517	0.000243	2.432755	0.824240	-0.000097
 613	6.0894e+01	15.6044	43.823108	0.000112	1.115013	0.377776	-0.000045
 614	6.0993e+01	15.5691	43.697957	0.000314	3.142308	1.064643	-0.000126
 615	6.1093e+01	15.5258	43.613177	0.000213	2.128660	0.721210	-0.000085
 616	6.1193e+01	15.4921	43.532435	0.000203	2.027296	0.686866	-0.000081
 617	6.1292e+01	15.4472	43.443618	0.000223	2.230025	0.755553	-0.000089
 618	6.1392e+01	15.4103	43.391135	0.000132	1.317742	0.446463	-0.000053
 619	6.1491e+01	15.3718	43.314429	0.000193	1.925931	0.652523	-0.000077
 620	6.1590e+01	15.3236	43.217538	0.000243	2.432755	0.824240	-0.000097
 621	6.1690e+01	15.2867	43.144870	0.000182	1.824566	0.618180	-0.000073
 622	6.1789e+01	15.2482	43.060090	0.000213	2.128660	0.721210	-0.000085
 623	6.1889e+01	15.2161	42.947050	0.000284	2.838214	0.961613	-0.000114
 624	6.1989e+01	15.1680	42.906679	0.000101	1.013648	0.343433	-0.000041
 625	6.2088e+01	15.1375	42.809787	0.000243	2.432755	0.824240	-0.000097
 626	6.2188e+01	15.0862	42.668488	0.000355	3.547767	1.202016	-0.000142
 627	6.2287e+01	15.0429	42.632153	0.000091	0.912283	0.309090	-0.000037
 628	6.2386e+01	15.0108	42.559485	0.000182	1.824566	0.618180	-0.000073
 629	6.2486e+01	14.9691	42.450482	0.000274	2.736849	0.927270	-0.000110
 630	6.2586e+01	14.9354	42.398000	0.000132	1.317742	0.446463	-0.000053
 631	6.2685e+01	14.8953	42.301108	0.000243	2.432755	0.824240	-0.000097
 632	6.2785e+01	14.8600	42.220366	0.000203	2.027296	0.686866	-0.000081
 633	6.2884e+01	14.8103	42.159809	0.000152	1.520472	0.515150	-0.000061
 634	6.2983e+01	14.7654	42.050806	0.000274	2.736849	0.927270	-0.000110
 635	6.3083e+01	14.7365	41.957952	0.000233	2.331390	0.789896	-0.000093
 636	6.3182e+01	14.6916	41.897395	0.000152	1.520472	0.515150	-0.000061
 637	6.3282e+01	14.6515	41.784355	0.000284	2.838214	0.961613	-0.000114
 638	6.3382e+01	14.6162	41.707649	0.000193	1.925931	0.652523	-0.000077
 639	6.3481e+01	14.5825	41.614795	0.000233	2.331390	0.789896	-0.000093
 640	6.3581e+01	14.5327	41.521941	0.000233	2.331390	0.789896	-0.000093
 641	6.3680e+01	14.4991	41.433124	0.000223	2.230025	0.755553	-0.000089
 642	6.3779e+01	14.4590	41.352381	0.000203	2.027296	0.686866	-0.000081
 643	6.3879e+01	14.4156	41.275676	0.000193	1.925931	0.652523	-0.000077
 644	6.3978e+01	14.3707	41.215119	0.000152	1.520472	0.515150	-0.000061
 645	6.4078e+01	14.3322	41.110153	0.000264	2.635484	0.892926	-0.000105
 646	6.4177e+01	14.2873	41.033448	0.000193	1.925931	0.652523	-0.000077
 647	6.4277e+01	14.2504	40.952705	0.000203	2.027296	0.686866	-0.000081
 648	6.4376e+01	14.2071	40.819479	0.000335	3.345038	1.133329	-0.000134
 649	6.4476e+01	14.1782	40.775071	0.000112	1.115013	0.377776	-0.000045
 650	6.4576e+01	14.1317	40.670105	0.000264	2.635484	0.892926	-0.000105
 651	6.4675e+01	14.0836	40.573214	0.000243	2.432755	0.824240	-0.000097
 652	6.4775e+01	14.0547	40.448063	0.000314	3.142308	1.064643	-0.000126
 653	6.4874e+01	14.0114	40.407692	0.000101	1.013648	0.343433	-0.000041
 654	6.4974e+01	13.9729	40.306763	0.000253	2.534120	0.858583	-0.000101
 655	6.5073e+01	13.9328	40.274466	0.000081	0.810918	0.274747	-0.000032
 656	6.5172e+01	13.8846	40.137204	0.000345	3.446403	1.167673	-0.000138
 657	6.5272e+01	13.8606	40.060498	0.000193	1.925931	0.652523	-0.000077
 658	6.5371e+01	13.8189	39.939384	0.000304	3.040943	1.030300	-0.000122
 659	6.5471e+01	13.7739	39.878827	0.000152	1.520472	0.515150	-0.000061
 660	6.5570e+01	13.7338	39.753676	0.000314	3.142308	1.064643	-0.000126
 661	6.5670e+01	13.6889	39.693119	0.000152	1.520472	0.515150	-0.000061
 662	6.5769e+01	13.6568	39.563930	0.000324	3.243673	1.098986	-0.000130
 663	6.5869e+01	13.6199	39.479150	0.000213	2.128660	0.721210	-0.000085
 664	6.5969e+01	13.5846	39.394371	0.000213	2.128660	0.721210	-0.000085
 665	6.6068e+01	13.5365	39.329776	0.000162	1.621836	0.549493	-0.000065
 666	6.6168e+01	13.5012	39.228848	0.000253	2.534120	0.858583	-0.000101
 667	6.6267e+01	13.4515	39.131957	0.000243	2.432755	0.824240	-0.000097
 668	6.6367e+01	13.4082	39.039103	0.000233	2.331390	0.789896	-0.000093
 669	6.6466e+01	13.3761	38.958360	0.000203	2.027296	0.686866	-0.000081
 670	6.6566e+01	13.3312	38.837246	0.000304	3.040943	1.030300	-0.000122
 671	6.6665e+01	13.2975	38.756503	0.000203	2.027296	0.686866	-0.000081
 672	6.6764e+01	13.2590	38.699983	0.000142	1.419107	0.480806	-0.000057
 673	6.6864e+01	13.2221	38.599055	0.000253	2.534120	0.858583	-0.000101
 674	6.6963e+01	13.1756	38.486015	0.000284	2.838214	0.961613	-0.000114
 675	6.7063e+01	13.1355	38.389124	0.000243	2.432755	0.824240	-0.000097
 676	6.7162e+01	13.0921	38.304344	0.000213	2.128660	0.721210	-0.000085
 677	6.7262e+01	13.0488	38.231675	0.000182	1.824566	0.618180	-0.000073
 678	6.7362e+01	13.0119	38.114599	0.000294	2.939579	0.995956	-0.000118
 679	6.7461e+01	12.9654	38.009633	0.000264	2.635484	0.892926	-0.000105
 680	6.7561e+01	12.9365	37.932927	0.000193	1.925931	0.652523	-0.000077
 681	6.7660e+01	12.9028	37.848148	0.000213	2.128660	0.721210	-0.000085
 682	6.7760e+01	12.8627	37.743182	0.000264	2.635484	0.892926	-0.000105
 683	6.7859e+01	12.8242	37.662439	0.000203	2.027296	0.686866	-0.000081
 684	6.7959e+01	12.7841	37.569585	0.000233	2.331390	0.789896	-0.000093
 685	6.8058e+01	12.7424	37.464620	0.000264	2.635484	0.892926	-0.000105
 686	6.8157e+01	12.6975	37.383877	0.000203	2.027296	0.686866	-0.000081
 687	6.8257e+01	12.6670	37.282949	0.000253	2.534120	0.858583	-0.000101
 688	6.8356e+01	12.6221	37.165872	0.000294	2.939579	0.995956	-0.000118
 689	6.8456e+01	12.5852	37.093203	0.000182	1.824566	0.618180	-0.000073
 690	6.8555e+01	12.5435	37.016498	0.000193	1.925931	0.652523	-0.000077
 691	6.8655e+01	12.5034	36.863086	0.000385	3.851862	1.305046	-0.000154
 692	6.8754e+01	12.4649	36.798492	0.000162	1.621836	0.549493	-0.000065
 693	6.8854e+01	12.4232	36.697564	0.000253	2.534120	0.858583	-0.000101
 694	6.8954e+01	12.3767	36.592598	0.000264	2.635484	0.892926	-0.000105
 695	6.9053e+01	12.3462	36.523967	0.000172	1.723201	0.583836	-0.000069
 696	6.9153e+01	12.3045	36.414964	0.000274	2.736849	0.927270	-0.000110
 697	6.9252e+01	12.2628	36.330185	0.000213	2.128660	0.721210	-0.000085
 698	6.9352e+01	12.2178	36.196959	0.000335	3.345038	1.133329	-0.000134
 699	6.9451e+01	12.1825	36.116216	0.000203	2.027296	0.686866	-0.000081
 700	6.9550e+01	12.1489	36.011251	0.000264	2.635484	0.892926	-0.000105
 701	6.9650e+01	12.1023	35.918397	0.000233	2.331390	0.789896	-0.000093
 702	6.9749e+01	12.0558	35.821505	0.000243	2.432755	0.824240	-0.000097
 703	6.9849e+01	12.0301	35.736726	0.000213	2.128660	0.721210	-0.000085
 704	6.9948e+01	11.9884	35.603500	0.000335	3.345038	1.133329	-0.000134
 705	7.0048e+01	11.9451	35.526794	0.000193	1.925931	0.652523	-0.000077
 706	7.0147e+01	11.9018	35.437978	0.000223	2.230025	0.755553	-0.000089
 707	7.0247e+01	11.8745	35.333012	0.000264	2.635484	0.892926	-0.000105
 708	7.0347e+01	11.8248	35.272455	0.000152	1.520472	0.515150	-0.000061
 709	7.0446e+01	11.7735	35.131155	0.000355	3.547767	1.202016	-0.000142
 710	7.0546e+01	11.7414	35.066561	0.000162	1.621836	0.549493	-0.000065
 711	7.0645e+01	11.7045	34.957558	0.000274	2.736849	0.927270	-0.000110
 712	7.0745e+01	11.6724	34.848556	0.000274	2.736849	0.927270	-0.000110
 713	7.0844e+01	11.6307	34.767813	0.000203	2.027296	0.686866	-0.000081
 714	7.0944e+01	11.5922	34.678996	0.000223	2.230025	0.755553	-0.000089
 715	7.1043e+01	11.5425	34.610365	0.000172	1.723201	0.583836	-0.000069
 716	7.1142e+01	11.5088	34.452916	0.000395	3.953226	1.339389	-0.000158
 717	7.1242e+01	11.4606	34.364099	0.000223	2.230025	0.755553	-0.000089
 718	7.1341e+01	11.4286	34.279320	0.000213	2.128660	0.721210	-0.000085
 719	7.1441e+01	11.3804	34.174354	0.000264	2.635484	0.892926	-0.000105
 720	7.1540e+01	11.3451	34.081500	0.000233	2.331390	0.789896	-0.000093
 721	7.1640e+01	11.2970	33.952312	0.000324	3.243673	1.098986	-0.000130
 722	7.1740e+01	11.2585	33.895792	0.000142	1.419107	0.480806	-0.000057
 723	7.1839e+01	11.2232	33.770640	0.000314	3.142308	1.064643	-0.000126
 724	7.1939e+01	11.1879	33.673749	0.000243	2.432755	0.824240	-0.000097
 725	7.2038e+01	11.1446	33.584932	0.000223	2.230025	0.755553	-0.000089
 726	7.2138e+01	11.0949	33.516301	0.000172	1.723201	0.583836	-0.000069
 727	7.2237e+01	11.0756	33.391150	0.000314	3.142308	1.064643	-0.000126
 728	7.2337e+01	11.0355	33.302333	0.000223	2.230025	0.755553	-0.000089
 729	7.2436e+01	10.9874	33.261961	0.000101	1.013648	0.343433	-0.000041
 730	7.2535e+01	10.9441	33.136810	0.000314	3.142308	1.064643	-0.000126
 731	7.2635e+01	10.9024	33.011659	0.000314	3.142308	1.064643	-0.000126
 732	7.2734e+01	10.8831	32.963213	0.000122	1.216377	0.412120	-0.000049
 733	7.2834e+01	10.8302	32.846136	0.000294	2.939579	0.995956	-0.000118
 734	7.2933e+01	10.8029	32.745208	0.000253	2.534120	0.858583	-0.000101
 735	7.3033e+01	10.7419	32.648317	0.000243	2.432755	0.824240	-0.000097
 736	7.3132e+01	10.7034	32.555463	0.000233	2.331390	0.789896	-0.000093
 737	7.3232e+01	10.6730	32.450497	0.000264	2.635484	0.892926	-0.000105
 738	7.3332e+01	10.6329	32.357643	0.000233	2.331390	0.789896	-0.000093
 739	7.3431e+01	10.5815	32.272863	0.000213	2.128660	0.721210	-0.000085
 740	7.3531e+01	10.5510	32.083118	0.000476	4.764145	1.614136	-0.000191
 741	7.3630e+01	10.5045	32.018524	0.000162	1.621836	0.549493	-0.000065
 742	7.3730e+01	10.4708	31.941818	0.000193	1.925931	0.652523	-0.000077
 743	7.3829e+01	10.4259	31.824741	0.000294	2.939579	0.995956	-0.000118
 744	7.3928e+01	10.3890	31.715738	0.000274	2.736849	0.927270	-0.000110
 745	7.4028e+01	10.3425	31.634996	0.000203	2.027296	0.686866	-0.000081
 746	7.4127e+01	10.2976	31.530030	0.000264	2.635484	0.892926	-0.000105
 747	7.4227e+01	10.2687	31.449287	0.000203	2.027296	0.686866	-0.000081
 748	7.4326e+01	10.2270	31.312025	0.000345	3.446403	1.167673	-0.000138
 749	7.4426e+01	10.1853	31.231282	0.000203	2.027296	0.686866	-0.000081
 750	7.4525e+01	10.1516	31.102094	0.000324	3.243673	1.098986	-0.000130
 751	7.4625e+01	10.1147	31.013277	0.000223	2.230025	0.755553	-0.000089
 752	7.4725e+01	10.0746	30.944645	0.000172	1.723201	0.583836	-0.000069
 753	7.4824e+01	10.0345	30.839680	0.000264	2.635484	0.892926	-0.000105
 754	7.4924e+01	9.9880	30.758937	0.000203	2.027296	0.686866	-0.000081
 755	7.5023e+01	9.9543	30.649935	0.000274	2.736849	0.927270	-0.000110
 756	7.5123e+01	9.9142	30.520746	0.000324	3.243673	1.098986	-0.000130
 757	7.5222e+01	9.8660	30.464226	0.000142	1.419107	0.480806	-0.000057
 758	7.5322e+01	9.8339	30.363298	0.000253	2.534120	0.858583	-0.000101
 759	7.5421e+01	9.7938	30.266407	0.000243	2.432755	0.824240	-0.000097
 760	7.5520e+01	9.7569	30.157404	0.000274	2.736849	0.927270	-0.000110
 761	7.5620e+01	9.7136	30.012067	0.000365	3.649132	1.236359	-0.000146
 762	7.5719e+01	9.6767	29.943436	0.000172	1.723201	0.583836	-0.000069
 763	7.5819e+01	9.6270	29.858656	0.000213	2.128660	0.721210	-0.000085
 764	7.5918e+01	9.5949	29.802136	0.000142	1.419107	0.480806	-0.000057
 765	7.6018e+01	9.5596	29.644688	0.000395	3.953226	1.339389	-0.000158
 766	7.6118e+01	9.5163	29.531648	0.000284	2.838214	0.961613	-0.000114
 767	7.6217e+01	9.4746	29.467054	0.000162	1.621836	0.549493	-0.000065
 768	7.6317e+01	9.4297	29.402460	0.000162	1.621836	0.549493	-0.000065
 769	7.6416e+01	9.3976	29.273271	0.000324	3.243673	1.098986	-0.000130
 770	7.6516e+01	9.3527	29.188491	0.000213	2.128660	0.721210	-0.000085
 771	7.6615e+01	9.3190	29.079489	0.000274	2.736849	0.927270	-0.000110
 772	7.6715e+01	9.2805	28.962412	0.000294	2.939579	0.995956	-0.000118
 773	7.6814e+01	9.2308	28.893780	0.000172	1.723201	0.583836	-0.000069
 774	7.6913e+01	9.1858	28.744406	0.000375	3.750497	1.270703	-0.000150
 775	7.7013e+01	9.1554	28.679812	0.000162	1.621836	0.549493	-0.000065
 776	7.7112e+01	9.1217	28.578884	0.000253	2.534120	0.858583	-0.000101
 777	7.7212e+01	9.0784	28.518327	0.000152	1.520472	0.515150	-0.000061
 778	7.7311e+01	9.0399	28.364916	0.000385	3.851862	1.305046	-0.000154
 779	7.7411e+01	8.9917	28.288210	0.000193	1.925931	0.652523	-0.000077
 780	7.7510e+01	8.9564	28.163059	0.000314	3.142308	1.064643	-0.000126
 781	7.7610e+01	8.9083	28.082316	0.000203	2.027296	0.686866	-0.000081
 782	7.7710e+01	8.8762	27.977351	0.000264	2.635484	0.892926	-0.000105
 783	7.7809e+01	8.8233	27.912756	0.000162	1.621836	0.549493	-0.000065
 784	7.7909e+01	8.7992	27.799717	0.000284	2.838214	0.961613	-0.000114
 785	7.8008e+01	8.7623	27.682640	0.000294	2.939579	0.995956	-0.000118
 786	7.8108e+01	8.7094	27.585748	0.000243	2.432755	0.824240	-0.000097
 787	7.8207e+01	8.6805	27.500969	0.000213	2.128660	0.721210	-0.000085
 788	7.8306e+01	8.6356	27.391966	0.000274	2.736849	0.927270	-0.000110
 789	7.8406e+01	8.6003	27.266815	0.000314	3.142308	1.064643	-0.000126
 790	7.8505e+01	8.5554	27.202221	0.000162	1.621836	0.549493	-0.000065
 791	7.8605e+01	8.5185	27.097255	0.000264	2.635484	0.892926	-0.000105
 792	7.8704e+01	8.4864	26.964030	0.000335	3.345038	1.133329	-0.000134
 793	7.8804e+01	8.4351	26.879250	0.000213	2.128660	0.721210	-0.000085
 794	7.8903e+01	8.4094	26.737950	0.000355	3.547767	1.202016	-0.000142
 795	7.9003e+01	8.3645	26.685467	0.000132	1.317742	0.446463	-0.000053
 796	7.9103e+01	8.3212	26.616836	0.000172	1.723201	0.583836	-0.000069
 797	7.9202e+01	8.2762	26.523982	0.000233	2.331390	0.789896	-0.000093
 798	7.9302e+01	8.2490	26.390756	0.000335	3.345038	1.133329	-0.000134
 799	7.9401e+01	8.2008	26.253494	0.000345	3.446403	1.167673	-0.000138
 800	7.9501e+01	8.1543	26.196974	0.000142	1.419107	0.480806	-0.000057
 801	7.9600e+01	8.1222	26.063748	0.000335	3.345038	1.133329	-0.000134
 802	7.9700e+01	8.0853	25.987043	0.000193	1.925931	0.652523	-0.000077
 803	7.9799e+01	8.0420	25.849780	0.000345	3.446403	1.167673	-0.000138
 804	7.9898e+01	8.0051	25.785186	0.000162	1.621836	0.549493	-0.000065
 805	7.9998e+01	7.9554	25.664072	0.000304	3.040943	1.030300	-0.000122
 806	8.0097e+01	7.9249	25.538921	0.000314	3.142308	1.064643	-0.000126
 807	8.0197e+01	7.8736	25.486438	0.000132	1.317742	0.446463	-0.000053
 808	8.0296e+01	7.8415	25.341101	0.000365	3.649132	1.236359	-0.000146
 809	8.0396e+01	7.7998	25.252284	0.000223	2.230025	0.755553	-0.000089
 810	8.0496e+01	7.7741	25.159430	0.000233	2.331390	0.789896	-0.000093
 811	8.0595e+01	7.7180	25.046390	0.000284	2.838214	0.961613	-0.000114
 812	8.0695e+01	7.6827	24.933350	0.000284	2.838214	0.961613	-0.000114
 813	8.0794e+01	7.6442	24.868756	0.000162	1.621836	0.549493	-0.000065
 814	8.0894e+01	7.5993	24.735531	0.000335	3.345038	1.133329	-0.000134
 815	8.0993e+01	7.5543	24.610379	0.000314	3.142308	1.064643	-0.000126
 816	8.1093e+01	7.5239	24.565971	0.000112	1.115013	0.377776	-0.000045
 817	8.1192e+01	7.4741	24.404486	0.000405	4.054591	1.373733	-0.000162
 818	8.1291e+01	7.4404	24.291446	0.000284	2.838214	0.961613	-0.000114
 819	8.1391e+01	7.3875	24.202629	0.000223	2.230025	0.755553	-0.000089
 820	8.1490e+01	7.3586	24.089589	0.000284	2.838214	0.961613	-0.000114
 821	8.1590e+01	7.3217	24.020958	0.000172	1.723201	0.583836	-0.000069
 822	8.1689e+01	7.2768	23.903881	0.000294	2.939579	0.995956	-0.000118
 823	8.1789e+01	7.2447	23.762581	0.000355	3.547767	1.202016	-0.000142
 824	8.1888e+01	7.1886	23.653578	0.000274	2.736849	0.927270	-0.000110
 825	8.1988e+01	7.1645	23.536501	0.000294	2.939579	0.995956	-0.000118
 826	8.2088e+01	7.1180	23.467870	0.000172	1.723201	0.583836	-0.000069
 827	8.2187e+01	7.0795	23.346756	0.000304	3.040943	1.030300	-0.000122
 828	8.2287e+01	7.0394	23.245828	0.000253	2.534120	0.858583	-0.000101
 829	8.2386e+01	7.0073	23.104528	0.000355	3.547767	1.202016	-0.000142
 830	8.2486e+01	6.9624	22.991488	0.000284	2.838214	0.961613	-0.000114
 831	8.2585e+01	6.9239	22.898634	0.000233	2.331390	0.789896	-0.000093
 832	8.2684e+01	6.8741	22.785594	0.000284	2.838214	0.961613	-0.000114
 833	8.2784e+01	6.8404	22.664480	0.000304	3.040943	1.030300	-0.000122
 834	8.2883e+01	6.8019	22.579700	0.000213	2.128660	0.721210	-0.000085
 835	8.2983e+01	6.7602	22.442438	0.000345	3.446403	1.167673	-0.000138
 836	8.3082e+01	6.7314	22.341509	0.000253	2.534120	0.858583	-0.000101
 837	8.3182e+01	6.6752	22.252692	0.000223	2.230025	0.755553	-0.000089
 838	8.3281e+01	6.6511	22.127541	0.000314	3.142308	1.064643	-0.000126
 839	8.3381e+01	6.6078	22.026613	0.000253	2.534120	0.858583	-0.000101
 840	8.3481e+01	6.5661	21.901461	0.000314	3.142308	1.064643	-0.000126
 841	8.3580e+01	6.5244	21.804570	0.000243	2.432755	0.824240	-0.000097
 842	8.3680e+01	6.4843	21.679419	0.000314	3.142308	1.064643	-0.000126
 843	8.3779e+01	6.4362	21.562342	0.000294	2.939579	0.995956	-0.000118
 844	8.3879e+01	6.4121	21.477562	0.000213	2.128660	0.721210	-0.000085
 845	8.3978e+01	6.3656	21.384708	0.000233	2.331390	0.789896	-0.000093
 846	8.4078e+01	6.3271	21.223223	0.000405	4.054591	1.373733	-0.000162
 847	8.4177e+01	6.2886	21.089997	0.000335	3.345038	1.133329	-0.000134
 848	8.4276e+01	6.2469	21.005217	0.000213	2.128660	0.721210	-0.000085
 849	8.4376e+01	6.2116	20.944660	0.000152	1.520472	0.515150	-0.000061
 850	8.4475e+01	6.1586	20.750878	0.000487	4.865509	1.648479	-0.000195
 851	8.4575e+01	6.1218	20.658024	0.000233	2.331390	0.789896	-0.000093
 852	8.4674e+01	6.0961	20.524798	0.000335	3.345038	1.133329	-0.000134
 853	8.4774e+01	6.0512	20.411758	0.000284	2.838214	0.961613	-0.000114
 854	8.4874e+01	6.0111	20.310830	0.000253	2.534120	0.858583	-0.000101
 855	8.4973e+01	5.9581	20.197790	0.000284	2.838214	0.961613	-0.000114
 856	8.5073e+01	5.9325	20.084750	0.000284	2.838214	0.961613	-0.000114
 857	8.5172e+01	5.8923	19.987859	0.000243	2.432755	0.824240	-0.000097
 858	8.5272e+01	5.8522	19.846559	0.000355	3.547767	1.202016	-0.000142
 859	8.5371e+01	5.8073	19.705260	0.000355	3.547767	1.202016	-0.000142
 860	8.5471e+01	5.7752	19.600294	0.000264	2.635484	0.892926	-0.000105
 861	8.5570e+01	5.7335	19.507440	0.000233	2.331390	0.789896	-0.000093
 862	8.5669e+01	5.6902	19.398437	0.000274	2.736849	0.927270	-0.000110
 863	8.5769e+01	5.6453	19.277323	0.000304	3.040943	1.030300	-0.000122
 864	8.5868e+01	5.6084	19.136023	0.000355	3.547767	1.202016	-0.000142
 865	8.5968e+01	5.5747	19.014909	0.000304	3.040943	1.030300	-0.000122
 866	8.6067e+01	5.5378	18.938204	0.000193	1.925931	0.652523	-0.000077
 867	8.6167e+01	5.4833	18.796904	0.000355	3.547767	1.202016	-0.000142
 868	8.6266e+01	5.4480	18.643493	0.000385	3.851862	1.305046	-0.000154
 869	8.6366e+01	5.4143	18.554676	0.000223	2.230025	0.755553	-0.000089
 870	8.6466e+01	5.3726	18.437599	0.000294	2.939579	0.995956	-0.000118
 871	8.6565e+01	5.3261	18.304373	0.000335	3.345038	1.133329	-0.000134
 872	8.6665e+01	5.2892	18.167111	0.000345	3.446403	1.167673	-0.000138
 873	8.6764e+01	5.2555	18.094442	0.000182	1.824566	0.618180	-0.000073
 874	8.6864e+01	5.2122	17.977365	0.000294	2.939579	0.995956	-0.000118
 875	8.6963e+01	5.1656	17.848177	0.000324	3.243673	1.098986	-0.000130
 876	8.7063e+01	5.1368	17.723026	0.000314	3.142308	1.064643	-0.000126
 877	8.7162e+01	5.0902	17.585763	0.000345	3.446403	1.167673	-0.000138
 878	8.7261e+01	5.0517	17.517132	0.000172	1.723201	0.583836	-0.000069
 879	8.7361e+01	5.0068	17.383906	0.000335	3.345038	1.133329	-0.000134
 880	8.7460e+01	4.9699	17.242607	0.000355	3.547767	1.202016	-0.000142
 881	8.7560e+01	4.9394	17.125530	0.000294	2.939579	0.995956	-0.000118
 882	8.7659e+01	4.8913	17.004416	0.000304	3.040943	1.030300	-0.000122
 883	8.7759e+01	4.8528	16.899450	0.000264	2.635484	0.892926	-0.000105
 884	8.7859e+01	4.8191	16.762188	0.000345	3.446403	1.167673	-0.000138
 885	8.7958e+01	4.7790	16.649148	0.000284	2.838214	0.961613	-0.000114
 886	8.8058e+01	4.7389	16.511885	0.000345	3.446403	1.167673	-0.000138
 887	8.8157e+01	4.6940	16.443254	0.000172	1.723201	0.583836	-0.000069
 888	8.8257e+01	4.6507	16.301954	0.000355	3.547767	1.202016	-0.000142
 889	8.8356e+01	4.6106	16.132394	0.000426	4.257321	1.442419	-0.000170
 890	8.8456e+01	4.5817	16.031466	0.000253	2.534120	0.858583	-0.000101
 891	8.8555e+01	4.5304	15.946686	0.000213	2.128660	0.721210	-0.000085
 892	8.8654e+01	4.4870	15.841721	0.000264	2.635484	0.892926	-0.000105
 893	8.8754e+01	4.4517	15.700421	0.000355	3.547767	1.202016	-0.000142
 894	8.8853e+01	4.4213	15.559121	0.000355	3.547767	1.202016	-0.000142
 895	8.8953e+01	4.3763	15.433970	0.000314	3.142308	1.064643	-0.000126
 896	8.9052e+01	4.3346	15.337079	0.000243	2.432755	0.824240	-0.000097
 897	8.9152e+01	4.2897	15.179630	0.000395	3.953226	1.339389	-0.000158
 898	8.9251e+01	4.2544	15.123110	0.000142	1.419107	0.480806	-0.000057
 899	8.9351e+01	4.1999	14.953551	0.000426	4.257321	1.442419	-0.000170
 900	8.9451e+01	4.1742	14.836474	0.000294	2.939579	0.995956	-0.000118
 901	8.9550e+01	4.1389	14.687100	0.000375	3.750497	1.270703	-0.000150
 902	8.9650e+01	4.0988	14.598283	0.000223	2.230025	0.755553	-0.000089
 903	8.9749e+01	4.0491	14.521577	0.000193	1.925931	0.652523	-0.000077
 904	8.9849e+01	4.0170	14.364129	0.000395	3.953226	1.339389	-0.000158
 905	8.9948e+01	3.9753	14.230903	0.000335	3.345038	1.133329	-0.000134
 906	9.0047e+01	3.9352	14.097678	0.000335	3.345038	1.133329	-0.000134
 907	9.0147e+01	3.8967	13.976564	0.000304	3.040943	1.030300	-0.000122
 908	9.0246e+01	3.8486	13.843338	0.000335	3.345038	1.133329	-0.000134
 909	9.0346e+01	3.8213	13.778744	0.000162	1.621836	0.549493	-0.000065
 910	9.0445e+01	3.7796	13.629370	0.000375	3.750497	1.270703	-0.000150
 911	9.0545e+01	3.7314	13.516330	0.000284	2.838214	0.961613	-0.000114
 912	9.0644e+01	3.6994	13.375031	0.000355	3.547767	1.202016	-0.000142
 913	9.0744e+01	3.6625	13.282177	0.000233	2.331390	0.789896	-0.000093
 914	9.0844e+01	3.6240	13.128765	0.000385	3.851862	1.305046	-0.000154
 915	9.0943e+01	3.5855	13.027837	0.000253	2.534120	0.858583	-0.000101
 916	9.1043e+01	3.5325	12.939020	0.000223	2.230025	0.755553	-0.000089
 917	9.1142e+01	3.4924	12.793683	0.000365	3.649132	1.236359	-0.000146
 918	9.1242e+01	3.4539	12.603938	0.000476	4.764145	1.614136	-0.000191
 919	9.1341e+01	3.4074	12.539344	0.000162	1.621836	0.549493	-0.000065
 920	9.1441e+01	3.3817	12.422267	0.000294	2.939579	0.995956	-0.000118
 921	9.1540e+01	3.3464	12.256744	0.000416	4.155956	1.408076	-0.000166
 922	9.1639e+01	3.2919	12.188113	0.000172	1.723201	0.583836	-0.000069
 923	9.1739e+01	3.2550	12.034702	0.000385	3.851862	1.305046	-0.000154
 924	9.1838e+01	3.2213	11.925699	0.000274	2.736849	0.927270	-0.000110
 925	9.1938e+01	3.1844	11.816696	0.000274	2.736849	0.927270	-0.000110
 926	9.2037e+01	3.1427	11.683471	0.000335	3.345038	1.133329	-0.000134
 927	9.2137e+01	3.0994	11.562357	0.000304	3.040943	1.030300	-0.000122
 928	9.2237e+01	3.0529	11.461428	0.000253	2.534120	0.858583	-0.000101
 929	9.2336e+01	3.0256	11.320129	0.000355	3.547767	1.202016	-0.000142
 930	9.2436e+01	2.9823	11.182866	0.000345	3.446403	1.167673	-0.000138
 931	9.2535e+01	2.9438	11.094049	0.000223	2.230025	0.755553	-0.000089
 932	9.2635e+01	2.9085	10.948712	0.000365	3.649132	1.236359	-0.000146
 933	9.2734e+01	2.8539	10.795301	0.000385	3.851862	1.305046	-0.000154
 934	9.2834e+01	2.8299	10.702447	0.000233	2.331390	0.789896	-0.000093
 935	9.2933e+01	2.7689	10.561147	0.000355	3.547767	1.202016	-0.000142
 936	9.3032e+01	2.7497	10.444070	0.000294	2.939579	0.995956	-0.000118
 937	9.3132e+01	2.6999	10.335067	0.000274	2.736849	0.927270	-0.000110
 938	9.3231e+01	2.6614	10.189731	0.000365	3.649132	1.236359	-0.000146
 939	9.3331e+01	2.6197	10.068617	0.000304	3.040943	1.030300	-0.000122
 940	9.3430e+01	2.5860	9.931354	0.000345	3.446403	1.167673	-0.000138
 941	9.3530e+01	2.5379	9.830426	0.000253	2.534120	0.858583	-0.000101
 942	9.3629e+01	2.4978	9.733534	0.000243	2.432755	0.824240	-0.000097
 943	9.3729e+01	2.4609	9.580123	0.000385	3.851862	1.305046	-0.000154
 944	9.3829e+01	2.4192	9.471120	0.000274	2.736849	0.927270	-0.000110
 945	9.3928e+01	2.3775	9.337895	0.000335	3.345038	1.133329	-0.000134
 946	9.4028e+01	2.3518	9.176410	0.000405	4.054591	1.373733	-0.000162
 947	9.4127e+01	2.2973	9.055295	0.000304	3.040943	1.030300	-0.000122
 948	9.4227e+01	2.2539	8.918033	0.000345	3.446403	1.167673	-0.000138
 949	9.4326e+01	2.2203	8.849402	0.000172	1.723201	0.583836	-0.000069
 950	9.4425e+01	2.1898	8.663693	0.000466	4.662780	1.579793	-0.000187
 951	9.4525e+01	2.1417	8.570839	0.000233	2.331390	0.789896	-0.000093
 952	9.4624e+01	2.1160	8.433577	0.000345	3.446403	1.167673	-0.000138
 953	9.4724e+01	2.0695	8.340722	0.000233	2.331390	0.789896	-0.000093
 954	9.4823e+01	2.0165	8.195386	0.000365	3.649132	1.236359	-0.000146
 955	9.4923e+01	1.9844	8.070234	0.000314	3.142308	1.064643	-0.000126
 956	9.5022e+01	1.9443	7.945083	0.000314	3.142308	1.064643	-0.000126
 957	9.5122e+01	1.9026	7.828006	0.000294	2.939579	0.995956	-0.000118
 958	9.5222e+01	1.8657	7.678632	0.000375	3.750497	1.270703	-0.000150
 959	9.5321e+01	1.8304	7.525221	0.000385	3.851862	1.305046	-0.000154
 960	9.5421e+01	1.7775	7.440441	0.000213	2.128660	0.721210	-0.000085
 961	9.5520e+01	1.7374	7.307216	0.000335	3.345038	1.133329	-0.000134
 962	9.5620e+01	1.7101	7.190139	0.000294	2.939579	0.995956	-0.000118
 963	9.5719e+01	1.6604	7.048839	0.000355	3.547767	1.202016	-0.000142
 964	9.5819e+01	1.6283	6.919651	0.000324	3.243673	1.098986	-0.000130
 965	9.5918e+01	1.5850	6.814685	0.000264	2.635484	0.892926	-0.000105
 966	9.6017e+01	1.5545	6.689534	0.000314	3.142308	1.064643	-0.000126
 967	9.6117e+01	1.5016	6.588606	0.000253	2.534120	0.858583	-0.000101
 968	9.6216e+01	1.4631	6.415009	0.000436	4.358686	1.476763	-0.000174
 969	9.6316e+01	1.4117	6.306006	0.000274	2.736849	0.927270	-0.000110
 970	9.6415e+01	1.3893	6.160669	0.000365	3.649132	1.236359	-0.000146
 971	9.6515e+01	1.3460	6.047629	0.000284	2.838214	0.961613	-0.000114
 972	9.6615e+01	1.3058	5.841735	0.000517	5.169604	1.751509	-0.000207
 973	9.6714e+01	1.2577	5.760993	0.000203	2.027296	0.686866	-0.000081
 974	9.6814e+01	1.2240	5.615656	0.000365	3.649132	1.236359	-0.000146
 975	9.6913e+01	1.1871	5.514727	0.000253	2.534120	0.858583	-0.000101
 976	9.7013e+01	1.1486	5.373428	0.000355	3.547767	1.202016	-0.000142
 977	9.7112e+01	1.1085	5.244239	0.000324	3.243673	1.098986	-0.000130
 978	9.7212e+01	1.0620	5.115051	0.000324	3.243673	1.098986	-0.000130
 979	9.7311e+01	1.0363	4.973751	0.000355	3.547767	1.202016	-0.000142
 980	9.7410e+01	0.9882	4.876860	0.000243	2.432755	0.824240	-0.000097
 981	9.7510e+01	0.9401	4.731523	0.000365	3.649132	1.236359	-0.000146
 982	9.7609e+01	0.9048	4.594260	0.000345	3.446403	1.167673	-0.000138
 983	9.7709e+01	0.8663	4.428738	0.000416	4.155956	1.408076	-0.000166
 984	9.7808e+01	0.8262	4.283401	0.000365	3.649132	1.236359	-0.000146
 985	9.7908e+01	0.7797	4.210733	0.000182	1.824566	0.618180	-0.000073
 986	9.8007e+01	0.7492	4.041173	0.000426	4.257321	1.442419	-0.000170
 987	9.8107e+01	0.6994	3.895836	0.000365	3.649132	1.236359	-0.000146
 988	9.8207e+01	0.6658	3.782796	0.000284	2.838214	0.961613	-0.000114
 989	9.8306e+01	0.6273	3.637459	0.000365	3.649132	1.236359	-0.000146
 990	9.8406e+01	0.5888	3.516345	0.000304	3.040943	1.030300	-0.000122
 991	9.8505e+01	0.5422	3.362934	0.000385	3.851862	1.305046	-0.000154
 992	9.8605e+01	0.5118	3.201449	0.000405	4.054591	1.373733	-0.000162
 993	9.8704e+01	0.4716	3.104557	0.000243	2.432755	0.824240	-0.000097
 994	9.8803e+01	0.4347	2.967295	0.000345	3.446403	1.167673	-0.000138
 995	9.8903e+01	0.3866	2.821958	0.000365	3.649132	1.236359	-0.000146
 996	9.9002e+01	0.3513	2.704881	0.000294	2.939579	0.995956	-0.000118
 997	9.9102e+01	0.3112	2.535321	0.000426	4.257321	1.442419	-0.000170
 998	9.9201e+01	0.2663	2.377873	0.000395	3.953226	1.339389	-0.000158
 999	9.9301e+01	0.2230	2.264833	0.000284	2.838214	0.961613	-0.000114
1000	9.9400e+01	0.1925	2.103348	0.000405	4.054591	1.373733	-0.000162
1001	9.9500e+01	0.1412	2.022605	0.000203	2.027296	0.686866	-0.000081
1002	9.9600e+01	0.1091	1.853045	0.000426	4.257321	1.442419	-0.000170
1003	9.9699e+01	0.0690	1.735968	0.000294	2.939579	0.995956	-0.000118
1004	9.9799e+01	0.0176	1.606780	0.000324	3.243673	1.098986	-0.000130
1005	9.9898e+01	-0.0080	1.509889	0.000243	2.432755	0.824240	-0.000097
1006	9.9998e+01	-0.0417	1.344366	0.000416	4.155956	1.408076	-0.000166
1007	1.0010e+02	-0.0786	1.239401	0.000264	2.635484	0.892926	-0.000105
1008	1.0020e+02	-0.1251	1.057730	0.000456	4.561415	1.545449	-0.000183
1009	1.0030e+02	-0.1652	0.944690	0.000284	2.838214	0.961613	-0.000114
1010	1.0040e+02	-0.1989	0.815501	0.000324	3.243673	1.098986	-0.000130
1011	1.0050e+02	-0.2454	0.641905	0.000436	4.358686	1.476763	-0.000174
1012	1.0059e+02	-0.2856	0.532902	0.000274	2.736849	0.927270	-0.000110
1013	1.0069e+02	-0.3176	0.419862	0.000284	2.838214	0.961613	-0.000114
1014	1.0079e+02	-0.3593	0.266451	0.000385	3.851862	1.305046	-0.000154
1015	1.0089e+02	-0.3962	0.109003	0.000395	3.953226	1.339389	-0.000158
1016	1.0099e+02	-0.4476	-0.008074	0.000294	2.939579	0.995956	-0.000118
1017	1.0109e+02	-0.4813	-0.137263	0.000324	3.243673	1.098986	-0.000130
1018	1.0119e+02	-0.5262	-0.294711	0.000395	3.953226	1.339389	-0.000158
1019	1.0129e+02	-0.5583	-0.427936	0.000335	3.345038	1.133329	-0.000134
1020	1.0139e+02	-0.6096	-0.561162	0.000335	3.345038	1.133329	-0.000134
1021	1.0149e+02	-0.6513	-0.714573	0.000385	3.851862	1.305046	-0.000154
1022	1.0159e+02	-0.6850	-0.835687	0.000304	3.040943	1.030300	-0.000122
1023	1.0169e+02	-0.7123	-0.948727	0.000284	2.838214	0.961613	-0.000114
1024	1.0179e+02	-0.7636	-1.126361	0.000446	4.460050	1.511106	-0.000179
1025	1.0189e+02	-0.8021	-1.203066	0.000193	1.925931	0.652523	-0.000077
1026	1.0199e+02	-0.8438	-1.380700	0.000446	4.460050	1.511106	-0.000179
1027	1.0209e+02	-0.8807	-1.526037	0.000365	3.649132	1.236359	-0.000146
1028	1.0219e+02	-0.9160	-1.655226	0.000324	3.243673	1.098986	-0.000130
1029	1.0229e+02	-0.9625	-1.792488	0.000345	3.446403	1.167673	-0.000138
1030	1.0239e+02	-1.0026	-1.945899	0.000385	3.851862	1.305046	-0.000154
1031	1.0248e+02	-1.0444	-2.050865	0.000264	2.635484	0.892926	-0.000105
1032	1.0258e+02	-1.0716	-2.208313	0.000395	3.953226	1.339389	-0.000158
1033	1.0268e+02	-1.1214	-2.345576	0.000345	3.446403	1.167673	-0.000138
1034	1.0278e+02	-1.1583	-2.474764	0.000324	3.243673	1.098986	-0.000130
1035	1.0288e+02	-1.2000	-2.616064	0.000355	3.547767	1.202016	-0.000142
1036	1.0298e+02	-1.2369	-2.749289	0.000335	3.345038	1.133329	-0.000134
1037	1.0308e+02	-1.2786	-2.894626	0.000365	3.649132	1.236359	-0.000146
1038	1.0318e+02	-1.3203	-3.011703	0.000294	2.939579	0.995956	-0.000118
1039	1.0328e+02	-1.3588	-3.165114	0.000385	3.851862	1.305046	-0.000154
1040	1.0338e+02	-1.3973	-3.306414	0.000355	3.547767	1.202016	-0.000142
1041	1.0348e+02	-1.4262	-3.423491	0.000294	2.939579	0.995956	-0.000118
1042	1.0358e+02	-1.4743	-3.520382	0.000243	2.432755	0.824240	-0.000097
1043	1.0368e+02	-1.5096	-3.714165	0.000487	4.865509	1.648479	-0.000195
1044	1.0378e+02	-1.5673	-3.819130	0.000264	2.635484	0.892926	-0.000105
1045	1.0388e+02	-1.6010	-3.944282	0.000314	3.142308	1.064643	-0.000126
1046	1.0398e+02	-1.6347	-4.069433	0.000314	3.142308	1.064643	-0.000126
1047	1.0408e+02	-1.6844	-4.243030	0.000436	4.358686	1.476763	-0.000174
1048	1.0418e+02	-1.7117	-4.368181	0.000314	3.142308	1.064643	-0.000126
1049	1.0428e+02	-1.7534	-4.469109	0.000253	2.534120	0.858583	-0.000101
1050	1.0438e+02	-1.7871	-4.618483	0.000375	3.750497	1.270703	-0.000150
1051	1.0447e+02	-1.8417	-4.743634	0.000314	3.142308	1.064643	-0.000126
1052	1.0457e+02	-1.8753	-4.868786	0.000314	3.142308	1.064643	-0.000126
1053	1.0467e+02	-1.9267	-5.014123	0.000365	3.649132	1.236359	-0.000146
1054	1.0477e+02	-1.9636	-5.127162	0.000284	2.838214	0.961613	-0.000114
1055	1.0487e+02	-1.9876	-5.236165	0.000274	2.736849	0.927270	-0.000110
1056	1.0497e+02	-2.0422	-5.446096	0.000527	5.270969	1.785853	-0.000211
1057	1.0507e+02	-2.0711	-5.534913	0.000223	2.230025	0.755553	-0.000089
1058	1.0517e+02	-2.1224	-5.684287	0.000375	3.750497	1.270703	-0.000150
1059	1.0527e+02	-2.1513	-5.801364	0.000294	2.939579	0.995956	-0.000118
1060	1.0537e+02	-2.1882	-5.934590	0.000335	3.345038	1.133329	-0.000134
1061	1.0547e+02	-2.2331	-6.063778	0.000324	3.243673	1.098986	-0.000130
1062	1.0557e+02	-2.2716	-6.225263	0.000405	4.054591	1.373733	-0.000162
1063	1.0567e+02	-2.3165	-6.342340	0.000294	2.939579	0.995956	-0.000118
1064	1.0577e+02	-2.3534	-6.467491	0.000314	3.142308	1.064643	-0.000126
1065	1.0587e+02	-2.3983	-6.612828	0.000365	3.649132	1.236359	-0.000146
1066	1.0597e+02	-2.4288	-6.697608	0.000213	2.128660	0.721210	-0.000085
1067	1.0607e+02	-2.4657	-6.826797	0.000324	3.243673	1.098986	-0.000130
1068	1.0617e+02	-2.5074	-6.915614	0.000223	2.230025	0.755553	-0.000089
1069	1.0627e+02	-2.5507	-7.073062	0.000395	3.953226	1.339389	-0.000158
1070	1.0637e+02	-2.6021	-7.206287	0.000335	3.345038	1.133329	-0.000134
1071	1.0647e+02	-2.6374	-7.351624	0.000365	3.649132	1.236359	-0.000146
1072	1.0656e+02	-2.6727	-7.472738	0.000304	3.040943	1.030300	-0.000122
1073	1.0666e+02	-2.7144	-7.614038	0.000355	3.547767	1.202016	-0.000142
1074	1.0676e+02	-2.7545	-7.727078	0.000284	2.838214	0.961613	-0.000114
1075	1.0686e+02	-2.7930	-7.832043	0.000264	2.635484	0.892926	-0.000105
1076	1.0696e+02	-2.8315	-7.965269	0.000335	3.345038	1.133329	-0.000134
1077	1.0706e+02	-2.8668	-8.106569	0.000355	3.547767	1.202016	-0.000142
1078	1.0716e+02	-2.9117	-8.199423	0.000233	2.331390	0.789896	-0.000093
1079	1.0726e+02	-2.9566	-8.373020	0.000436	4.358686	1.476763	-0.000174
1080	1.0736e+02	-2.9887	-8.453762	0.000203	2.027296	0.686866	-0.000081
1081	1.0746e+02	-3.0400	-8.603136	0.000375	3.750497	1.270703	-0.000150
1082	1.0756e+02	-3.0705	-8.712139	0.000274	2.736849	0.927270	-0.000110
1083	1.0766e+02	-3.1058	-8.845364	0.000335	3.345038	1.133329	-0.000134
1084	1.0776e+02	-3.1427	-8.942256	0.000243	2.432755	0.824240	-0.000097
1085	1.0786e+02	-3.1828	-9.067407	0.000314	3.142308	1.064643	-0.000126
1086	1.0796e+02	-3.2229	-9.196595	0.000324	3.243673	1.098986	-0.000130
1087	1.0806e+02	-3.2694	-9.317709	0.000304	3.040943	1.030300	-0.000122
1088	1.0816e+02	-3.3192	-9.430749	0.000284	2.838214	0.961613	-0.000114
1089	1.0826e+02	-3.3577	-9.576086	0.000365	3.649132	1.236359	-0.000146
1090	1.0836e+02	-3.3817	-9.689126	0.000284	2.838214	0.961613	-0.000114
1091	1.0845e+02	-3.4282	-9.806203	0.000294	2.939579	0.995956	-0.000118
1092	1.0855e+02	-3.4667	-9.931354	0.000314	3.142308	1.064643	-0.000126
1093	1.0865e+02	-3.5036	-10.028245	0.000243	2.432755	0.824240	-0.000097
1094	1.0875e+02	-3.5470	-10.161471	0.000335	3.345038	1.133329	-0.000134
1095	1.0885e+02	-3.5887	-10.310845	0.000375	3.750497	1.270703	-0.000150
1096	1.0895e+02	-3.6368	-10.391587	0.000203	2.027296	0.686866	-0.000081
1097	1.0905e+02	-3.6625	-10.553073	0.000405	4.054591	1.373733	-0.000162
1098	1.0915e+02	-3.7106	-10.662075	0.000274	2.736849	0.927270	-0.000110
1099	1.0925e+02	-3.7587	-10.742818	0.000203	2.027296	0.686866	-0.000081
1100	1.0935e+02	-3.7940	-10.912378	0.000426	4.257321	1.442419	-0.000170
1101	1.0945e+02	-3.8277	-11.021381	0.000274	2.736849	0.927270	-0.000110
1102	1.0955e+02	-3.8758	-11.146532	0.000314	3.142308	1.064643	-0.000126
1103	1.0965e+02	-3.9047	-11.251497	0.000264	2.635484	0.892926	-0.000105
1104	1.0975e+02	-3.9448	-11.368574	0.000294	2.939579	0.995956	-0.000118
1105	1.0985e+02	-3.9801	-11.513911	0.000365	3.649132	1.236359	-0.000146
1106	1.0995e+02	-4.0250	-11.635025	0.000304	3.040943	1.030300	-0.000122
1107	1.1005e+02	-4.0635	-11.699619	0.000162	1.621836	0.549493	-0.000065
1108	1.1015e+02	-4.1004	-11.865142	0.000416	4.155956	1.408076	-0.000166
1109	1.1025e+02	-4.1534	-11.978182	0.000284	2.838214	0.961613	-0.000114
1110	1.1035e+02	-4.1887	-12.062962	0.000213	2.128660	0.721210	-0.000085
1111	1.1044e+02	-4.2304	-12.163890	0.000253	2.534120	0.858583	-0.000101
1112	1.1054e+02	-4.2608	-12.317301	0.000385	3.851862	1.305046	-0.000154
1113	1.1064e+02	-4.3106	-12.442452	0.000314	3.142308	1.064643	-0.000126
1114	1.1074e+02	-4.3539	-12.523195	0.000203	2.027296	0.686866	-0.000081
1115	1.1084e+02	-4.3876	-12.607975	0.000213	2.128660	0.721210	-0.000085
1116	1.1094e+02	-4.4229	-12.757349	0.000375	3.750497	1.270703	-0.000150
1117	1.1104e+02	-4.4630	-12.898649	0.000355	3.547767	1.202016	-0.000142
1118	1.1114e+02	-4.5031	-13.007651	0.000274	2.736849	0.927270	-0.000110
1119	1.1124e+02	-4.5480	-13.132803	0.000314	3.142308	1.064643	-0.000126
1120	1.1134e+02	-4.5833	-13.197397	0.000162	1.621836	0.549493	-0.000065
1121	1.1144e+02	-4.6298	-13.350808	0.000385	3.851862	1.305046	-0.000154
1122	1.1154e+02	-4.6667	-13.471922	0.000304	3.040943	1.030300	-0.000122
1123	1.1164e+02	-4.7100	-13.584962	0.000284	2.838214	0.961613	-0.000114
1124	1.1174e+02	-4.7469	-13.689927	0.000264	2.635484	0.892926	-0.000105
1125	1.1184e+02	-4.7790	-13.786819	0.000243	2.432755	0.824240	-0.000097
1126	1.1194e+02	-4.8191	-13.932155	0.000365	3.649132	1.236359	-0.000146
1127	1.1204e+02	-4.8688	-14.041158	0.000274	2.736849	0.927270	-0.000110
1128	1.1214e+02	-4.9122	-14.150161	0.000274	2.736849	0.927270	-0.000110
1129	1.1224e+02	-4.9442	-14.230903	0.000203	2.027296	0.686866	-0.000081
1130	1.1234e+02	-4.9715	-14.372203	0.000355	3.547767	1.202016	-0.000142
1131	1.1244e+02	-5.0261	-14.469094	0.000243	2.432755	0.824240	-0.000097
1132	1.1253e+02	-5.0646	-14.614431	0.000365	3.649132	1.236359	-0.000146
1133	1.1263e+02	-5.1031	-14.699211	0.000213	2.128660	0.721210	-0.000085
1134	1.1273e+02	-5.1512	-14.828400	0.000324	3.243673	1.098986	-0.000130
1135	1.1283e+02	-5.1769	-14.933365	0.000264	2.635484	0.892926	-0.000105
1136	1.1293e+02	-5.2282	-15.070628	0.000345	3.446403	1.167673	-0.000138
1137	1.1303e+02	-5.2715	-15.179630	0.000274	2.736849	0.927270	-0.000110
1138	1.1313e+02	-5.2956	-15.296707	0.000294	2.939579	0.995956	-0.000118
1139	1.1323e+02	-5.3405	-15.409747	0.000284	2.838214	0.961613	-0.000114
1140	1.1333e+02	-5.3966	-15.522787	0.000284	2.838214	0.961613	-0.000114
1141	1.1343e+02	-5.4207	-15.660050	0.000345	3.446403	1.167673	-0.000138
1142	1.1353e+02	-5.4624	-15.708495	0.000122	1.216377	0.412120	-0.000049
1143	1.1363e+02	-5.5137	-15.849795	0.000355	3.547767	1.202016	-0.000142
1144	1.1373e+02	-5.5442	-15.934575	0.000213	2.128660	0.721210	-0.000085
1145	1.1383e+02	-5.5875	-16.075875	0.000355	3.547767	1.202016	-0.000142
1146	1.1393e+02	-5.6180	-16.164691	0.000223	2.230025	0.755553	-0.000089
1147	1.1403e+02	-5.6645	-16.265620	0.000253	2.534120	0.858583	-0.000101
1148	1.1413e+02	-5.7014	-16.419031	0.000385	3.851862	1.305046	-0.000154
1149	1.1423e+02	-5.7383	-16.487662	0.000172	1.723201	0.583836	-0.000069
1150	1.1433e+02	-5.7801	-16.628962	0.000355	3.547767	1.202016	-0.000142
1151	1.1442e+02	-5.8202	-16.754113	0.000314	3.142308	1.064643	-0.000126
1152	1.1452e+02	-5.8635	-16.851005	0.000243	2.432755	0.824240	-0.000097
1153	1.1462e+02	-5.9036	-17.016527	0.000416	4.155956	1.408076	-0.000166
1154	1.1472e+02	-5.9485	-17.097270	0.000203	2.027296	0.686866	-0.000081
1155	1.1482e+02	-5.9742	-17.218384	0.000304	3.040943	1.030300	-0.000122
1156	1.1492e+02	-6.0223	-17.307201	0.000223	2.230025	0.755553	-0.000089
1157	1.1502e+02	-6.0608	-17.476761	0.000426	4.257321	1.442419	-0.000170
1158	1.1512e+02	-6.1025	-17.545392	0.000172	1.723201	0.583836	-0.000069
1159	1.1522e+02	-6.1362	-17.690729	0.000365	3.649132	1.236359	-0.000146
1160	1.1532e+02	-6.1795	-17.783583	0.000233	2.331390	0.789896	-0.000093
1161	1.1542e+02	-6.2260	-17.908734	0.000314	3.142308	1.064643	-0.000126
1162	1.1552e+02	-6.2645	-17.997551	0.000223	2.230025	0.755553	-0.000089
1163	1.1562e+02	-6.2982	-18.122702	0.000314	3.142308	1.064643	-0.000126
1164	1.1572e+02	-6.3399	-18.231705	0.000274	2.736849	0.927270	-0.000110
1165	1.1582e+02	-6.3704	-18.352819	0.000304	3.040943	1.030300	-0.000122
1166	1.1592e+02	-6.4137	-18.461822	0.000274	2.736849	0.927270	-0.000110
1167	1.1602e+02	-6.4651	-18.514304	0.000132	1.317742	0.446463	-0.000053
1168	1.1612e+02	-6.5068	-18.728273	0.000537	5.372333	1.820196	-0.000215
1169	1.1622e+02	-6.5292	-18.796904	0.000172	1.723201	0.583836	-0.000069
1170	1.1632e+02	-6.5758	-18.922055	0.000314	3.142308	1.064643	-0.000126
1171	1.1642e+02	-6.6110	-18.994724	0.000182	1.824566	0.618180	-0.000073
1172	1.1651e+02	-6.6592	-19.156209	0.000405	4.054591	1.373733	-0.000162
1173	1.1661e+02	-6.6961	-19.305583	0.000375	3.750497	1.270703	-0.000150
1174	1.1671e+02	-6.7458	-19.394400	0.000223	2.230025	0.755553	-0.000089
1175	1.1681e+02	-6.7683	-19.495328	0.000253	2.534120	0.858583	-0.000101
1176	1.1691e+02	-6.8180	-19.592220	0.000243	2.432755	0.824240	-0.000097
1177	1.1701e+02	-6.8533	-19.725445	0.000335	3.345038	1.133329	-0.000134
1178	1.1711e+02	-6.8934	-19.814262	0.000223	2.230025	0.755553	-0.000089
1179	1.1721e+02	-6.9367	-19.939413	0.000314	3.142308	1.064643	-0.000126
1180	1.1731e+02	-6.9720	-20.052453	0.000284	2.838214	0.961613	-0.000114
1181	1.1741e+02	-7.0057	-20.153382	0.000253	2.534120	0.858583	-0.000101
1182	1.1751e+02	-7.0522	-20.270459	0.000294	2.939579	0.995956	-0.000118
1183	1.1761e+02	-7.0955	-20.387535	0.000294	2.939579	0.995956	-0.000118
1184	1.1771e+02	-7.1324	-20.472315	0.000213	2.128660	0.721210	-0.000085
1185	1.1781e+02	-7.1773	-20.641875	0.000426	4.257321	1.442419	-0.000170
1186	1.1791e+02	-7.2078	-20.718581	0.000193	1.925931	0.652523	-0.000077
1187	1.1801e+02	-7.2592	-20.839695	0.000304	3.040943	1.030300	-0.000122
1188	1.1811e+02	-7.2896	-20.948697	0.000274	2.736849	0.927270	-0.000110
1189	1.1821e+02	-7.3281	-21.085960	0.000345	3.446403	1.167673	-0.000138
1190	1.1831e+02	-7.3747	-21.190925	0.000264	2.635484	0.892926	-0.000105
1191	1.1841e+02	-7.4132	-21.271668	0.000203	2.027296	0.686866	-0.000081
1192	1.1850e+02	-7.4549	-21.400857	0.000324	3.243673	1.098986	-0.000130
1193	1.1860e+02	-7.4982	-21.542156	0.000355	3.547767	1.202016	-0.000142
1194	1.1870e+02	-7.5335	-21.643085	0.000253	2.534120	0.858583	-0.000101
1195	1.1880e+02	-7.5672	-21.772273	0.000324	3.243673	1.098986	-0.000130
1196	1.1890e+02	-7.6121	-21.873201	0.000253	2.534120	0.858583	-0.000101
1197	1.1900e+02	-7.6570	-21.978167	0.000264	2.635484	0.892926	-0.000105
1198	1.1910e+02	-7.6891	-22.071021	0.000233	2.331390	0.789896	-0.000093
1199	1.1920e+02	-7.7260	-22.192135	0.000304	3.040943	1.030300	-0.000122
1200	1.1930e+02	-7.7741	-22.321323	0.000324	3.243673	1.098986	-0.000130
1201	1.1940e+02	-7.8094	-22.377843	0.000142	1.419107	0.480806	-0.000057
1202	1.1950e+02	-7.8575	-22.551440	0.000436	4.358686	1.476763	-0.000174
1203	1.1960e+02	-7.8848	-22.664480	0.000284	2.838214	0.961613	-0.000114
1204	1.1970e+02	-7.9265	-22.757334	0.000233	2.331390	0.789896	-0.000093
1205	1.1980e+02	-7.9714	-22.870374	0.000284	2.838214	0.961613	-0.000114
1206	1.1990e+02	-8.0003	-23.011674	0.000355	3.547767	1.202016	-0.000142
1207	1.2000e+02	-8.0484	-23.096454	0.000213	2.128660	0.721210	-0.000085
1208	1.2010e+02	-8.0918	-23.173159	0.000193	1.925931	0.652523	-0.000077
1209	1.2020e+02	-8.1270	-23.334645	0.000405	4.054591	1.373733	-0.000162
1210	1.2030e+02	-8.1864	-23.427499	0.000233	2.331390	0.789896	-0.000093
1211	1.2039e+02	-8.2073	-23.544576	0.000294	2.939579	0.995956	-0.000118
1212	1.2049e+02	-8.2361	-23.641467	0.000243	2.432755	0.824240	-0.000097
1213	1.2059e+02	-8.2875	-23.774692	0.000335	3.345038	1.133329	-0.000134
1214	1.2069e+02	-8.3228	-23.867546	0.000233	2.331390	0.789896	-0.000093
1215	1.2079e+02	-8.3629	-23.968475	0.000253	2.534120	0.858583	-0.000101
1216	1.2089e+02	-8.4126	-24.093626	0.000314	3.142308	1.064643	-0.000126
1217	1.2099e+02	-8.4543	-24.194554	0.000253	2.534120	0.858583	-0.000101
1218	1.2109e+02	-8.4896	-24.343929	0.000375	3.750497	1.270703	-0.000150
1219	1.2119e+02	-8.5393	-24.404486	0.000152	1.520472	0.515150	-0.000061
1220	1.2129e+02	-8.5698	-24.557897	0.000385	3.851862	1.305046	-0.000154
1221	1.2139e+02	-8.6115	-24.674974	0.000294	2.939579	0.995956	-0.000118
1222	1.2149e+02	-8.6580	-24.788013	0.000284	2.838214	0.961613	-0.000114
1223	1.2159e+02	-8.6885	-24.880868	0.000233	2.331390	0.789896	-0.000093
1224	1.2169e+02	-8.7286	-24.965647	0.000213	2.128660	0.721210	-0.000085
1225	1.2179e+02	-8.7623	-25.102910	0.000345	3.446403	1.167673	-0.000138
1226	1.2189e+02	-8.8153	-25.167504	0.000162	1.621836	0.549493	-0.000065
1227	1.2199e+02	-8.8377	-25.280544	0.000284	2.838214	0.961613	-0.000114
1228	1.2209e+02	-8.8891	-25.417807	0.000345	3.446403	1.167673	-0.000138
1229	1.2219e+02	-8.9227	-25.563143	0.000365	3.649132	1.236359	-0.000146
1230	1.2229e+02	-8.9693	-25.623701	0.000152	1.520472	0.515150	-0.000061
1231	1.2239e+02	-8.9981	-25.728666	0.000264	2.635484	0.892926	-0.000105
1232	1.2248e+02	-9.0479	-25.849780	0.000304	3.040943	1.030300	-0.000122
1233	1.2258e+02	-9.0864	-25.950709	0.000253	2.534120	0.858583	-0.000101
1234	1.2268e+02	-9.1281	-26.067785	0.000294	2.939579	0.995956	-0.000118
1235	1.2278e+02	-9.1634	-26.196974	0.000324	3.243673	1.098986	-0.000130
1236	1.2288e+02	-9.2003	-26.310014	0.000284	2.838214	0.961613	-0.000114
1237	1.2298e+02	-9.2436	-26.406905	0.000243	2.432755	0.824240	-0.000097
1238	1.2308e+02	-9.2885	-26.507833	0.000253	2.534120	0.858583	-0.000101
1239	1.2318e+02	-9.3254	-26.596650	0.000223	2.230025	0.755553	-0.000089
1240	1.2328e+02	-9.3639	-26.741987	0.000365	3.649132	1.236359	-0.000146
1241	1.2338e+02	-9.4104	-26.838878	0.000243	2.432755	0.824240	-0.000097
1242	1.2348e+02	-9.4425	-26.972104	0.000335	3.345038	1.133329	-0.000134
1243	1.2358e+02	-9.4810	-27.040735	0.000172	1.723201	0.583836	-0.000069
1244	1.2368e+02	-9.5179	-27.137626	0.000243	2.432755	0.824240	-0.000097
1245	1.2378e+02	-9.5628	-27.206258	0.000172	1.723201	0.583836	-0.000069
1246	1.2388e+02	-9.6078	-27.331409	0.000314	3.142308	1.064643	-0.000126
1247	1.2398e+02	-9.6479	-27.428300	0.000243	2.432755	0.824240	-0.000097
1248	1.2408e+02	-9.6783	-27.569600	0.000355	3.547767	1.202016	-0.000142
1249	1.2418e+02	-9.7265	-27.658417	0.000223	2.230025	0.755553	-0.000089
1250	1.2428e+02	-9.7666	-27.751271	0.000233	2.331390	0.789896	-0.000093
1251	1.2438e+02	-9.8035	-27.896608	0.000365	3.649132	1.236359	-0.000146
1252	1.2447e+02	-9.8307	-27.997536	0.000253	2.534120	0.858583	-0.000101
1253	1.2457e+02	-9.8885	-28.054056	0.000142	1.419107	0.480806	-0.000057
1254	1.2467e+02	-9.9222	-28.179207	0.000314	3.142308	1.064643	-0.000126
1255	1.2477e+02	-9.9543	-28.276099	0.000243	2.432755	0.824240	-0.000097
1256	1.2487e+02	-10.0008	-28.356841	0.000203	2.027296	0.686866	-0.000081
1257	1.2497e+02	-10.0393	-28.469881	0.000284	2.838214	0.961613	-0.000114
1258	1.2507e+02	-10.0794	-28.578884	0.000274	2.736849	0.927270	-0.000110
1259	1.2517e+02	-10.1259	-28.687887	0.000274	2.736849	0.927270	-0.000110
1260	1.2527e+02	-10.1628	-28.804963	0.000294	2.939579	0.995956	-0.000118
1261	1.2537e+02	-10.2045	-28.869558	0.000162	1.621836	0.549493	-0.000065
1262	1.2547e+02	-10.2494	-28.974523	0.000264	2.635484	0.892926	-0.000105
1263	1.2557e+02	-10.2831	-29.087563	0.000284	2.838214	0.961613	-0.000114
1264	1.2567e+02	-10.3248	-29.180417	0.000233	2.331390	0.789896	-0.000093
1265	1.2577e+02	-10.3601	-29.277308	0.000243	2.432755	0.824240	-0.000097
1266	1.2587e+02	-10.3938	-29.414571	0.000345	3.446403	1.167673	-0.000138
1267	1.2597e+02	-10.4468	-29.503388	0.000223	2.230025	0.755553	-0.000089
1268	1.2607e+02	-10.4821	-29.588168	0.000213	2.128660	0.721210	-0.000085
1269	1.2617e+02	-10.5125	-29.733505	0.000365	3.649132	1.236359	-0.000146
1270	1.2627e+02	-10.5607	-29.794062	0.000152	1.520472	0.515150	-0.000061
1271	1.2636e+02	-10.5927	-29.899027	0.000264	2.635484	0.892926	-0.000105
1272	1.2646e+02	-10.6457	-30.016104	0.000294	2.939579	0.995956	-0.000118
1273	1.2656e+02	-10.6730	-30.125107	0.000274	2.736849	0.927270	-0.000110
1274	1.2666e+02	-10.7131	-30.181627	0.000142	1.419107	0.480806	-0.000057
1275	1.2676e+02	-10.7612	-30.302741	0.000304	3.040943	1.030300	-0.000122
1276	1.2686e+02	-10.7965	-30.407706	0.000264	2.635484	0.892926	-0.000105
1277	1.2696e+02	-10.8382	-30.504598	0.000243	2.432755	0.824240	-0.000097
1278	1.2706e+02	-10.8767	-30.637823	0.000335	3.345038	1.133329	-0.000134
1279	1.2716e+02	-10.9184	-30.726640	0.000223	2.230025	0.755553	-0.000089
1280	1.2726e+02	-10.9505	-30.787197	0.000152	1.520472	0.515150	-0.000061
1281	1.2736e+02	-10.9970	-30.884088	0.000243	2.432755	0.824240	-0.000097
1282	1.2746e+02	-11.0387	-30.993091	0.000274	2.736849	0.927270	-0.000110
1283	1.2756e+02	-11.0901	-31.126317	0.000335	3.345038	1.133329	-0.000134
1284	1.2766e+02	-11.1221	-31.178799	0.000132	1.317742	0.446463	-0.000053
1285	1.2776e+02	-11.1574	-31.307988	0.000324	3.243673	1.098986	-0.000130
1286	1.2786e+02	-11.2056	-31.392767	0.000213	2.128660	0.721210	-0.000085
1287	1.2796e+02	-11.2360	-31.473510	0.000203	2.027296	0.686866	-0.000081
1288	1.2806e+02	-11.2810	-31.574439	0.000253	2.534120	0.858583	-0.000101
1289	1.2816e+02	-11.3130	-31.683441	0.000274	2.736849	0.927270	-0.000110
1290	1.2826e+02	-11.3660	-31.760147	0.000193	1.925931	0.652523	-0.000077
1291	1.2835e+02	-11.3981	-31.853001	0.000233	2.331390	0.789896	-0.000093
1292	1.2845e+02	-11.4430	-31.986226	0.000335	3.345038	1.133329	-0.000134
1293	1.2855e+02	-11.4831	-32.046783	0.000152	1.520472	0.515150	-0.000061
1294	1.2865e+02	-11.5312	-32.196158	0.000375	3.750497	1.270703	-0.000150
1295	1.2875e+02	-11.5537	-32.272863	0.000193	1.925931	0.652523	-0.000077
1296	1.2885e+02	-11.5938	-32.377829	0.000264	2.635484	0.892926	-0.000105
1297	1.2895e+02	-11.6291	-32.494906	0.000294	2.939579	0.995956	-0.000118
1298	1.2905e+02	-11.6692	-32.547388	0.000132	1.317742	0.446463	-0.000053
1299	1.2915e+02	-11.7173	-32.628131	0.000203	2.027296	0.686866	-0.000081
1300	1.2925e+02	-11.7654	-32.761357	0.000335	3.345038	1.133329	-0.000134
1301	1.2935e+02	-11.8007	-32.850174	0.000223	2.230025	0.755553	-0.000089
1302	1.2945e+02	-11.8408	-32.963213	0.000284	2.838214	0.961613	-0.000114
1303	1.2955e+02	-11.8697	-33.076253	0.000284	2.838214	0.961613	-0.000114
1304	1.2965e+02	-11.9194	-33.169107	0.000233	2.331390	0.789896	-0.000093
1305	1.2975e+02	-11.9515	-33.229664	0.000152	1.520472	0.515150	-0.000061
1306	1.2985e+02	-11.9948	-33.375001	0.000365	3.649132	1.236359	-0.000146
1307	1.2995e+02	-12.0350	-33.439595	0.000162	1.621836	0.549493	-0.000065
1308	1.3005e+02	-12.0702	-33.524375	0.000213	2.128660	0.721210	-0.000085
1309	1.3015e+02	-12.1152	-33.661638	0.000345	3.446403	1.167673	-0.000138
1310	1.3025e+02	-12.1489	-33.726232	0.000162	1.621836	0.549493	-0.000065
1311	1.3034e+02	-12.1922	-33.831197	0.000264	2.635484	0.892926	-0.000105
1312	1.3044e+02	-12.2339	-33.960386	0.000324	3.243673	1.098986	-0.000130
1313	1.3054e+02	-12.2740	-34.045166	0.000213	2.128660	0.721210	-0.000085
1314	1.3064e+02	-12.3045	-34.121871	0.000193	1.925931	0.652523	-0.000077
1315	1.3074e+02	-12.3574	-34.198577	0.000193	1.925931	0.652523	-0.000077
1316	1.3084e+02	-12.3959	-34.295468	0.000243	2.432755	0.824240	-0.000097
1317	1.3094e+02	-12.4392	-34.396396	0.000253	2.534120	0.858583	-0.000101
1318	1.3104e+02	-12.4713	-34.525585	0.000324	3.243673	1.098986	-0.000130
1319	1.3114e+02	-12.5066	-34.630550	0.000264	2.635484	0.892926	-0.000105
1320	1.3124e+02	-12.5499	-34.723404	0.000233	2.331390	0.789896	-0.000093
1321	1.3134e+02	-12.5852	-34.820296	0.000243	2.432755	0.824240	-0.000097
1322	1.3144e+02	-12.6301	-34.917187	0.000243	2.432755	0.824240	-0.000097
1323	1.3154e+02	-12.6815	-35.006004	0.000223	2.230025	0.755553	-0.000089
1324	1.3164e+02	-12.7119	-35.094821	0.000223	2.230025	0.755553	-0.000089
1325	1.3174e+02	-12.7488	-35.183638	0.000223	2.230025	0.755553	-0.000089
1326	1.3184e+02	-12.7954	-35.296678	0.000284	2.838214	0.961613	-0.000114
1327	1.3194e+02	-12.8387	-35.357235	0.000152	1.520472	0.515150	-0.000061
1328	1.3204e+02	-12.8692	-35.538906	0.000456	4.561415	1.545449	-0.000183
1329	1.3214e+02	-12.9125	-35.595426	0.000142	1.419107	0.480806	-0.000057
1330	1.3224e+02	-12.9494	-35.716540	0.000304	3.040943	1.030300	-0.000122
1331	1.3234e+02	-12.9911	-35.829580	0.000284	2.838214	0.961613	-0.000114
1332	1.3243e+02	-13.0376	-35.898211	0.000172	1.723201	0.583836	-0.000069
1333	1.3253e+02	-13.0681	-35.991065	0.000233	2.331390	0.789896	-0.000093
1334	1.3263e+02	-13.1082	-36.079882	0.000223	2.230025	0.755553	-0.000089
1335	1.3273e+02	-13.1515	-36.168699	0.000223	2.230025	0.755553	-0.000089
1336	1.3283e+02	-13.1932	-36.241368	0.000182	1.824566	0.618180	-0.000073
1337	1.3293e+02	-13.2349	-36.398816	0.000395	3.953226	1.339389	-0.000158
1338	1.3303e+02	-13.2638	-36.479559	0.000203	2.027296	0.686866	-0.000081
1339	1.3313e+02	-13.3103	-36.616821	0.000345	3.446403	1.167673	-0.000138
1340	1.3323e+02	-13.3472	-36.681415	0.000162	1.621836	0.549493	-0.000065
1341	1.3333e+02	-13.3889	-36.798492	0.000294	2.939579	0.995956	-0.000118
1342	1.3343e+02	-13.4290	-36.863086	0.000162	1.621836	0.549493	-0.000065
1343	1.3353e+02	-13.4547	-36.984200	0.000304	3.040943	1.030300	-0.000122
1344	1.3363e+02	-13.5076	-37.040720	0.000142	1.419107	0.480806	-0.000057
1345	1.3373e+02	-13.5461	-37.202206	0.000405	4.054591	1.373733	-0.000162
1346	1.3383e+02	-13.5879	-37.262763	0.000152	1.520472	0.515150	-0.000061
1347	1.3393e+02	-13.6296	-37.379840	0.000294	2.939579	0.995956	-0.000118
1348	1.3403e+02	-13.6761	-37.480768	0.000253	2.534120	0.858583	-0.000101
1349	1.3413e+02	-13.7082	-37.545362	0.000162	1.621836	0.549493	-0.000065
1350	1.3423e+02	-13.7435	-37.670514	0.000314	3.142308	1.064643	-0.000126
1351	1.3432e+02	-13.7852	-37.751256	0.000203	2.027296	0.686866	-0.000081
1352	1.3442e+02	-13.8253	-37.848148	0.000243	2.432755	0.824240	-0.000097
1353	1.3452e+02	-13.8670	-37.961187	0.000284	2.838214	0.961613	-0.000114
1354	1.3462e+02	-13.9039	-38.090376	0.000324	3.243673	1.098986	-0.000130
1355	1.3472e+02	-13.9472	-38.142858	0.000132	1.317742	0.446463	-0.000053
1356	1.3482e+02	-13.9889	-38.259935	0.000294	2.939579	0.995956	-0.000118
1357	1.3492e+02	-14.0258	-38.336641	0.000193	1.925931	0.652523	-0.000077
1358	1.3502e+02	-14.0691	-38.453718	0.000294	2.939579	0.995956	-0.000118
1359	1.3512e+02	-14.1060	-38.546572	0.000233	2.331390	0.789896	-0.000093
1360	1.3522e+02	-14.1413	-38.643463	0.000243	2.432755	0.824240	-0.000097
1361	1.3532e+02	-14.1814	-38.724206	0.000203	2.027296	0.686866	-0.000081
1362	1.3542e+02	-14.2263	-38.845320	0.000304	3.040943	1.030300	-0.000122
1363	1.3552e+02	-14.2680	-38.954323	0.000274	2.736849	0.927270	-0.000110
1364	1.3562e+02	-14.3130	-39.022954	0.000172	1.723201	0.583836	-0.000069
1365	1.3572e+02	-14.3450	-39.140031	0.000294	2.939579	0.995956	-0.000118
1366	1.3582e+02	-14.3900	-39.232885	0.000233	2.331390	0.789896	-0.000093
1367	1.3592e+02	-14.4269	-39.309591	0.000193	1.925931	0.652523	-0.000077
1368	1.3602e+02	-14.4670	-39.442816	0.000335	3.345038	1.133329	-0.000134
1369	1.3612e+02	-14.5135	-39.531633	0.000223	2.230025	0.755553	-0.000089
1370	1.3622e+02	-14.5520	-39.652747	0.000304	3.040943	1.030300	-0.000122
1371	1.3631e+02	-14.5777	-39.765787	0.000284	2.838214	0.961613	-0.000114
1372	1.3641e+02	-14.6322	-39.814233	0.000122	1.216377	0.412120	-0.000049
1373	1.3651e+02	-14.6579	-39.907087	0.000233	2.331390	0.789896	-0.000093
1374	1.3661e+02	-14.7044	-40.016089	0.000274	2.736849	0.927270	-0.000110
1375	1.3671e+02	-14.7493	-40.189686	0.000436	4.358686	1.476763	-0.000174
1376	1.3681e+02	-14.7830	-40.242169	0.000132	1.317742	0.446463	-0.000053
1377	1.3691e+02	-14.8311	-40.322912	0.000203	2.027296	0.686866	-0.000081
1378	1.3701e+02	-14.8648	-40.439989	0.000294	2.939579	0.995956	-0.000118
1379	1.3711e+02	-14.9065	-40.480360	0.000101	1.013648	0.343433	-0.000041
1380	1.3721e+02	-14.9402	-40.605511	0.000314	3.142308	1.064643	-0.000126
1381	1.3731e+02	-14.9819	-40.718551	0.000284	2.838214	0.961613	-0.000114
1382	1.3741e+02	-15.0236	-40.811405	0.000233	2.331390	0.789896	-0.000093
1383	1.3751e+02	-15.0637	-40.904259	0.000233	2.331390	0.789896	-0.000093
1384	1.3761e+02	-15.1006	-41.021336	0.000294	2.939579	0.995956	-0.000118
1385	1.3771e+02	-15.1440	-41.094005	0.000182	1.824566	0.618180	-0.000073
1386	1.3781e+02	-15.1841	-41.215119	0.000304	3.040943	1.030300	-0.000122
1387	1.3791e+02	-15.2258	-41.275676	0.000152	1.520472	0.515150	-0.000061
1388	1.3801e+02	-15.2627	-41.408901	0.000335	3.345038	1.133329	-0.000134
1389	1.3811e+02	-15.2996	-41.489644	0.000203	2.027296	0.686866	-0.000081
1390	1.3821e+02	-15.3509	-41.586535	0.000243	2.432755	0.824240	-0.000097
1391	1.3831e+02	-15.3734	-41.715724	0.000324	3.243673	1.098986	-0.000130
1392	1.3840e+02	-15.4167	-41.816652	0.000253	2.534120	0.858583	-0.000101
1393	1.3850e+02	-15.4536	-41.897395	0.000203	2.027296	0.686866	-0.000081
1394	1.3860e+02	-15.5017	-41.990249	0.000233	2.331390	0.789896	-0.000093
1395	1.3870e+02	-15.5450	-42.075029	0.000213	2.128660	0.721210	-0.000085
1396	1.3880e+02	-15.5867	-42.167883	0.000233	2.331390	0.789896	-0.000093
1397	1.3890e+02	-15.6236	-42.264774	0.000243	2.432755	0.824240	-0.000097
1398	1.3900e+02	-15.6621	-42.329368	0.000162	1.621836	0.549493	-0.000065
1399	1.3910e+02	-15.6958	-42.523151	0.000487	4.865509	1.648479	-0.000195
1400	1.3920e+02	-15.7455	-42.563522	0.000101	1.013648	0.343433	-0.000041
1401	1.3930e+02	-15.7728	-42.632153	0.000172	1.723201	0.583836	-0.000069
1402	1.3940e+02	-15.8274	-42.773453	0.000355	3.547767	1.202016	-0.000142
1403	1.3950e+02	-15.8562	-42.866307	0.000233	2.331390	0.789896	-0.000093
1404	1.3960e+02	-15.9012	-42.930901	0.000162	1.621836	0.549493	-0.000065
1405	1.3970e+02	-15.9364	-43.007607	0.000193	1.925931	0.652523	-0.000077
1406	1.3980e+02	-15.9750	-43.116610	0.000274	2.736849	0.927270	-0.000110
1407	1.3990e+02	-16.0167	-43.209464	0.000233	2.331390	0.789896	-0.000093
1408	1.4000e+02	-16.0568	-43.322504	0.000284	2.838214	0.961613	-0.000114
1409	1.4010e+02	-16.0937	-43.395172	0.000182	1.824566	0.618180	-0.000073
1410	1.4020e+02	-16.1434	-43.496100	0.000253	2.534120	0.858583	-0.000101
1411	1.4029e+02	-16.1787	-43.580880	0.000213	2.128660	0.721210	-0.000085
1412	1.4039e+02	-16.2284	-43.689883	0.000274	2.736849	0.927270	-0.000110
1413	1.4049e+02	-16.2669	-43.762551	0.000182	1.824566	0.618180	-0.000073
1414	1.4059e+02	-16.3006	-43.875591	0.000284	2.838214	0.961613	-0.000114
1415	1.4069e+02	-16.3391	-43.936148	0.000152	1.520472	0.515150	-0.000061
1416	1.4079e+02	-16.3728	-44.016891	0.000203	2.027296	0.686866	-0.000081
1417	1.4089e+02	-16.4113	-44.194525	0.000446	4.460050	1.511106	-0.000179
1418	1.4099e+02	-16.4562	-44.210673	0.000041	0.405459	0.137373	-0.000016
1419	1.4109e+02	-16.4915	-44.299490	0.000223	2.230025	0.755553	-0.000089
1420	1.4119e+02	-16.5364	-44.428679	0.000324	3.243673	1.098986	-0.000130
1421	1.4129e+02	-16.5765	-44.509422	0.000203	2.027296	0.686866	-0.000081
1422	1.4139e+02	-16.6054	-44.594201	0.000213	2.128660	0.721210	-0.000085
1423	1.4149e+02	-16.6487	-44.723390	0.000324	3.243673	1.098986	-0.000130
1424	1.4159e+02	-16.6969	-44.804132	0.000203	2.027296	0.686866	-0.000081
1425	1.4169e+02	-16.7289	-44.892949	0.000223	2.230025	0.755553	-0.000089
1426	1.4179e+02	-16.7819	-44.949469	0.000142	1.419107	0.480806	-0.000057
1427	1.4189e+02	-16.8220	-45.066546	0.000294	2.939579	0.995956	-0.000118
1428	1.4199e+02	-16.8557	-45.183623	0.000294	2.939579	0.995956	-0.000118
1429	1.4209e+02	-16.8910	-45.252254	0.000172	1.723201	0.583836	-0.000069
1430	1.4219e+02	-16.9279	-45.296663	0.000112	1.115013	0.377776	-0.000045
1431	1.4228e+02	-16.9728	-45.417777	0.000304	3.040943	1.030300	-0.000122
1432	1.4238e+02	-17.0113	-45.514668	0.000243	2.432755	0.824240	-0.000097
1433	1.4248e+02	-17.0514	-45.611560	0.000243	2.432755	0.824240	-0.000097
1434	1.4258e+02	-17.0835	-45.668079	0.000142	1.419107	0.480806	-0.000057
1435	1.4268e+02	-17.1380	-45.797268	0.000324	3.243673	1.098986	-0.000130
1436	1.4278e+02	-17.1749	-45.926456	0.000324	3.243673	1.098986	-0.000130
1437	1.4288e+02	-17.2166	-45.970865	0.000112	1.115013	0.377776	-0.000045
1438	1.4298e+02	-17.2503	-46.104090	0.000335	3.345038	1.133329	-0.000134
1439	1.4308e+02	-17.3000	-46.172721	0.000172	1.723201	0.583836	-0.000069
1440	1.4318e+02	-17.3353	-46.265576	0.000233	2.331390	0.789896	-0.000093
1441	1.4328e+02	-17.3738	-46.334207	0.000172	1.723201	0.583836	-0.000069
1442	1.4338e+02	-17.4139	-46.431098	0.000243	2.432755	0.824240	-0.000097
1443	1.4348e+02	-17.4589	-46.527989	0.000243	2.432755	0.824240	-0.000097
1444	1.4358e+02	-17.4893	-46.632955	0.000264	2.635484	0.892926	-0.000105
1445	1.4368e+02	-17.5407	-46.721772	0.000223	2.230025	0.755553	-0.000089
1446	1.4378e+02	-17.5680	-46.794440	0.000182	1.824566	0.618180	-0.000073
1447	1.4388e+02	-17.6129	-46.875183	0.000203	2.027296	0.686866	-0.000081
1448	1.4398e+02	-17.6562	-46.972074	0.000243	2.432755	0.824240	-0.000097
1449	1.4408e+02	-17.6995	-47.073003	0.000253	2.534120	0.858583	-0.000101
1450	1.4418e+02	-17.7252	-47.177968	0.000264	2.635484	0.892926	-0.000105
1451	1.4428e+02	-17.7765	-47.254674	0.000193	1.925931	0.652523	-0.000077
1452	1.4437e+02	-17.8118	-47.351565	0.000243	2.432755	0.824240	-0.000097
1453	1.4447e+02	-17.8535	-47.428271	0.000193	1.925931	0.652523	-0.000077
1454	1.4457e+02	-17.8872	-47.504976	0.000193	1.925931	0.652523	-0.000077
1455	1.4467e+02	-17.9305	-47.589756	0.000213	2.128660	0.721210	-0.000085
1456	1.4477e+02	-17.9722	-47.739130	0.000375	3.750497	1.270703	-0.000150
1457	1.4487e+02	-18.0155	-47.799687	0.000152	1.520472	0.515150	-0.000061
1458	1.4497e+02	-18.0492	-47.868318	0.000172	1.723201	0.583836	-0.000069
1459	1.4507e+02	-18.0925	-47.969247	0.000253	2.534120	0.858583	-0.000101
1460	1.4517e+02	-18.1310	-48.041915	0.000182	1.824566	0.618180	-0.000073
1461	1.4527e+02	-18.1824	-48.154955	0.000284	2.838214	0.961613	-0.000114
1462	1.4537e+02	-18.2096	-48.235698	0.000203	2.027296	0.686866	-0.000081
1463	1.4547e+02	-18.2546	-48.340663	0.000264	2.635484	0.892926	-0.000105
1464	1.4557e+02	-18.2818	-48.461777	0.000304	3.040943	1.030300	-0.000122
1465	1.4567e+02	-18.3268	-48.506186	0.000112	1.115013	0.377776	-0.000045
1466	1.4577e+02	-18.3669	-48.615189	0.000274	2.736849	0.927270	-0.000110
1467	1.4587e+02	-18.4182	-48.683820	0.000172	1.723201	0.583836	-0.000069
1468	1.4597e+02	-18.4439	-48.800897	0.000294	2.939579	0.995956	-0.000118
1469	1.4607e+02	-18.4936	-48.901825	0.000253	2.534120	0.858583	-0.000101
1470	1.4617e+02	-18.5273	-49.006791	0.000264	2.635484	0.892926	-0.000105
1471	1.4626e+02	-18.5610	-49.071385	0.000162	1.621836	0.549493	-0.000065
1472	1.4636e+02	-18.6043	-49.184425	0.000284	2.838214	0.961613	-0.000114
1473	1.4646e+02	-18.6428	-49.273242	0.000223	2.230025	0.755553	-0.000089
1474	1.4656e+02	-18.6909	-49.378207	0.000264	2.635484	0.892926	-0.000105
1475	1.4666e+02	-18.7214	-49.446839	0.000172	1.723201	0.583836	-0.000069
1476	1.4676e+02	-18.7711	-49.547767	0.000253	2.534120	0.858583	-0.000101
1477	1.4686e+02	-18.8064	-49.632547	0.000213	2.128660	0.721210	-0.000085
1478	1.4696e+02	-18.8497	-49.729438	0.000243	2.432755	0.824240	-0.000097
1479	1.4706e+02	-18.8866	-49.818255	0.000223	2.230025	0.755553	-0.000089
1480	1.4716e+02	-18.9267	-49.935332	0.000294	2.939579	0.995956	-0.000118
1481	1.4726e+02	-18.9668	-50.036260	0.000253	2.534120	0.858583	-0.000101
1482	1.4736e+02	-18.9941	-50.133152	0.000243	2.432755	0.824240	-0.000097
1483	1.4746e+02	-19.0471	-50.213894	0.000203	2.027296	0.686866	-0.000081
1484	1.4756e+02	-19.0872	-50.339046	0.000314	3.142308	1.064643	-0.000126
1485	1.4766e+02	-19.1225	-50.387491	0.000122	1.216377	0.412120	-0.000049
1486	1.4776e+02	-19.1754	-50.532828	0.000365	3.649132	1.236359	-0.000146
1487	1.4786e+02	-19.2059	-50.601459	0.000172	1.723201	0.583836	-0.000069
1488	1.4796e+02	-19.2460	-50.698351	0.000243	2.432755	0.824240	-0.000097
1489	1.4806e+02	-19.2829	-50.807353	0.000274	2.736849	0.927270	-0.000110
1490	1.4816e+02	-19.3310	-50.892133	0.000213	2.128660	0.721210	-0.000085
1491	1.4825e+02	-19.3631	-51.017284	0.000314	3.142308	1.064643	-0.000126
1492	1.4835e+02	-19.4016	-51.085916	0.000172	1.723201	0.583836	-0.000069
1493	1.4845e+02	-19.4529	-51.162621	0.000193	1.925931	0.652523	-0.000077
1494	1.4855e+02	-19.4850	-51.263550	0.000253	2.534120	0.858583	-0.000101
1495	1.4865e+02	-19.5267	-51.368515	0.000264	2.635484	0.892926	-0.000105
1496	1.4875e+02	-19.5652	-51.469444	0.000253	2.534120	0.858583	-0.000101
1497	1.4885e+02	-19.6069	-51.606706	0.000345	3.446403	1.167673	-0.000138
1498	1.4895e+02	-19.6438	-51.699560	0.000233	2.331390	0.789896	-0.000093
1499	1.4905e+02	-19.6887	-51.756080	0.000142	1.419107	0.480806	-0.000057
1500	1.4915e+02	-19.7192	-51.861046	0.000264	2.635484	0.892926	-0.000105
1501	1.4925e+02	-19.7625	-51.986197	0.000314	3.142308	1.064643	-0.000126
1502	1.4935e+02	-19.7994	-52.079051	0.000233	2.331390	0.789896	-0.000093
1503	1.4945e+02	-19.8492	-52.208239	0.000324	3.243673	1.098986	-0.000130
1504	1.4955e+02	-19.8877	-52.252648	0.000112	1.115013	0.377776	-0.000045
1505	1.4965e+02	-19.9246	-52.389910	0.000345	3.446403	1.167673	-0.000138
1506	1.4975e+02	-19.9647	-52.490839	0.000253	2.534120	0.858583	-0.000101
1507	1.4985e+02	-19.9984	-52.599842	0.000274	2.736849	0.927270	-0.000110
1508	1.4995e+02	-19.9631	-52.531210	0.000172	1.723201	0.583836	0.000069
1509	1.5005e+02	-19.9149	-52.527173	0.000010	0.101365	0.034343	0.000004
1510	1.5015e+02	-19.8764	-52.506987	0.000051	0.506824	0.171717	0.000020
1511	1.5025e+02	-19.8347	-52.393948	0.000284	2.838214	0.961613	0.000114
1512	1.5034e+02	-19.8091	-52.373762	0.000051	0.506824	0.171717	0.000020
1513	1.5044e+02	-19.7674	-52.280908	0.000233	2.331390	0.789896	0.000093
1514	1.5054e+02	-19.7208	-52.252648	0.000071	0.709553	0.240403	0.000028
1515	1.5064e+02	-19.6759	-52.184017	0.000172	1.723201	0.583836	0.000069
1516	1.5074e+02	-19.6406	-52.103274	0.000203	2.027296	0.686866	0.000081
1517	1.5084e+02	-19.6053	-52.111348	-0.000020	-0.202730	-0.068687	-0.000008
1518	1.5094e+02	-19.5524	-52.006383	0.000264	2.635484	0.892926	0.000105
1519	1.5104e+02	-19.5235	-51.945826	0.000152	1.520472	0.515150	0.000061
1520	1.5114e+02	-19.4850	-51.893343	0.000132	1.317742	0.446463	0.000053
1521	1.5124e+02	-19.4433	-51.857009	0.000091	0.912283	0.309090	0.000037
1522	1.5134e+02	-19.4032	-51.764154	0.000233	2.331390	0.789896	0.000093
1523	1.5144e+02	-19.3727	-51.723783	0.000101	1.013648	0.343433	0.000041
1524	1.5154e+02	-19.3214	-51.699560	0.000061	0.608189	0.206060	0.000024
1525	1.5164e+02	-19.2829	-51.630929	0.000172	1.723201	0.583836	0.000069
1526	1.5174e+02	-19.2476	-51.570372	0.000152	1.520472	0.515150	0.000061
1527	1.5184e+02	-19.2155	-51.485592	0.000213	2.128660	0.721210	0.000085
1528	1.5194e+02	-19.1658	-51.469444	0.000041	0.405459	0.137373	0.000016
1529	1.5204e+02	-19.1337	-51.348329	0.000304	3.040943	1.030300	0.000122
1530	1.5214e+02	-19.0872	-51.324107	0.000061	0.608189	0.206060	0.000024
1531	1.5224e+02	-19.0471	-51.275661	0.000122	1.216377	0.412120	0.000049
1532	1.5233e+02	-19.0037	-51.178770	0.000243	2.432755	0.824240	0.000097
1533	1.5243e+02	-18.9765	-51.138398	0.000101	1.013648	0.343433	0.000041
1534	1.5253e+02	-18.9235	-51.053619	0.000213	2.128660	0.721210	0.000085
1535	1.5263e+02	-18.8979	-51.025359	0.000071	0.709553	0.240403	0.000028
1536	1.5273e+02	-18.8497	-50.932504	0.000233	2.331390	0.789896	0.000093
1537	1.5283e+02	-18.8016	-50.884059	0.000122	1.216377	0.412120	0.000049
1538	1.5293e+02	-18.7647	-50.811390	0.000182	1.824566	0.618180	0.000073
1539	1.5303e+02	-18.7278	-50.746796	0.000162	1.621836	0.549493	0.000065
1540	1.5313e+02	-18.6781	-50.694313	0.000132	1.317742	0.446463	0.000053
1541	1.5323e+02	-18.6476	-50.589348	0.000264	2.635484	0.892926	0.000105
1542	1.5333e+02	-18.6027	-50.516679	0.000182	1.824566	0.618180	0.000073
1543	1.5343e+02	-18.5610	-50.492457	0.000061	0.608189	0.206060	0.000024
1544	1.5353e+02	-18.5337	-50.427863	0.000162	1.621836	0.549493	0.000065
1545	1.5363e+02	-18.4952	-50.363268	0.000162	1.621836	0.549493	0.000065
1546	1.5373e+02	-18.4503	-50.286563	0.000193	1.925931	0.652523	0.000077
1547	1.5383e+02	-18.4070	-50.209857	0.000193	1.925931	0.652523	0.000077
1548	1.5393e+02	-18.3765	-50.149300	0.000152	1.520472	0.515150	0.000061
1549	1.5403e+02	-18.3348	-50.048372	0.000253	2.534120	0.858583	0.000101
1550	1.5413e+02	-18.2818	-50.032223	0.000041	0.405459	0.137373	0.000016
1551	1.5422e+02	-18.2578	-49.959555	0.000182	1.824566	0.618180	0.000073
1552	1.5432e+02	-18.2048	-49.866701	0.000233	2.331390	0.789896	0.000093
1553	1.5442e+02	-18.1744	-49.838441	0.000071	0.709553	0.240403	0.000028
1554	1.5452e+02	-18.1294	-49.737512	0.000253	2.534120	0.858583	0.000101
1555	1.5462e+02	-18.0797	-49.660807	0.000193	1.925931	0.652523	0.000077
1556	1.5472e+02	-18.0556	-49.576027	0.000213	2.128660	0.721210	0.000085
1557	1.5482e+02	-18.0203	-49.515470	0.000152	1.520472	0.515150	0.000061
1558	1.5492e+02	-17.9722	-49.475098	0.000101	1.013648	0.343433	0.000041
1559	1.5502e+02	-17.9225	-49.345910	0.000324	3.243673	1.098986	0.000130
1560	1.5512e+02	-17.8872	-49.293427	0.000132	1.317742	0.446463	0.000053
1561	1.5522e+02	-17.8535	-49.269205	0.000061	0.608189	0.206060	0.000024
1562	1.5532e+02	-17.8070	-49.188462	0.000203	2.027296	0.686866	0.000081
1563	1.5542e+02	-17.7701	-49.075422	0.000284	2.838214	0.961613	0.000114
1564	1.5552e+02	-17.7300	-49.026976	0.000122	1.216377	0.412120	0.000049
1565	1.5562e+02	-17.6963	-48.962382	0.000162	1.621836	0.549493	0.000065
1566	1.5572e+02	-17.6498	-48.845305	0.000294	2.939579	0.995956	0.000118
1567	1.5582e+02	-17.6161	-48.817045	0.000071	0.709553	0.240403	0.000028
1568	1.5592e+02	-17.5696	-48.736303	0.000203	2.027296	0.686866	0.000081
1569	1.5602e+02	-17.5278	-48.675746	0.000152	1.520472	0.515150	0.000061
1570	1.5612e+02	-17.4910	-48.562706	0.000284	2.838214	0.961613	0.000114
1571	1.5622e+02	-17.4492	-48.546557	0.000041	0.405459	0.137373	0.000016
1572	1.5631e+02	-17.4139	-48.449666	0.000243	2.432755	0.824240	0.000097
1573	1.5641e+02	-17.3803	-48.385072	0.000162	1.621836	0.549493	0.000065
1574	1.5651e+02	-17.3385	-48.288181	0.000243	2.432755	0.824240	0.000097
1575	1.5661e+02	-17.2968	-48.231661	0.000142	1.419107	0.480806	0.000057
1576	1.5671e+02	-17.2567	-48.102472	0.000324	3.243673	1.098986	0.000130
1577	1.5681e+02	-17.2166	-48.049990	0.000132	1.317742	0.446463	0.000053
1578	1.5691e+02	-17.1701	-48.013655	0.000091	0.912283	0.309090	0.000037
1579	1.5701e+02	-17.1348	-47.916764	0.000243	2.432755	0.824240	0.000097
1580	1.5711e+02	-17.0867	-47.852170	0.000162	1.621836	0.549493	0.000065
1581	1.5721e+02	-17.0514	-47.751242	0.000253	2.534120	0.858583	0.000101
1582	1.5731e+02	-17.0145	-47.662425	0.000223	2.230025	0.755553	0.000089
1583	1.5741e+02	-16.9664	-47.601867	0.000152	1.520472	0.515150	0.000061
1584	1.5751e+02	-16.9343	-47.513051	0.000223	2.230025	0.755553	0.000089
1585	1.5761e+02	-16.8846	-47.448456	0.000162	1.621836	0.549493	0.000065
1586	1.5771e+02	-16.8509	-47.367714	0.000203	2.027296	0.686866	0.000081
1587	1.5781e+02	-16.8156	-47.266785	0.000253	2.534120	0.858583	0.000101
1588	1.5791e+02	-16.7819	-47.238525	0.000071	0.709553	0.240403	0.000028
1589	1.5801e+02	-16.7434	-47.117411	0.000304	3.040943	1.030300	0.000122
1590	1.5811e+02	-16.6920	-47.040706	0.000193	1.925931	0.652523	0.000077
1591	1.5821e+02	-16.6503	-46.964000	0.000193	1.925931	0.652523	0.000077
1592	1.5830e+02	-16.6215	-46.891332	0.000182	1.824566	0.618180	0.000073
1593	1.5840e+02	-16.5846	-46.786366	0.000264	2.635484	0.892926	0.000105
1594	1.5850e+02	-16.5364	-46.745995	0.000101	1.013648	0.343433	0.000041
1595	1.5860e+02	-16.4931	-46.636992	0.000274	2.736849	0.927270	0.000110
1596	1.5870e+02	-16.4610	-46.588546	0.000122	1.216377	0.412120	0.000049
1597	1.5880e+02	-16.4161	-46.511841	0.000193	1.925931	0.652523	0.000077
1598	1.5890e+02	-16.3728	-46.382652	0.000324	3.243673	1.098986	0.000130
1599	1.5900e+02	-16.3311	-46.305947	0.000193	1.925931	0.652523	0.000077
1600	1.5910e+02	-16.3054	-46.245390	0.000152	1.520472	0.515150	0.000061
1601	1.5920e+02	-16.2573	-46.160610	0.000213	2.128660	0.721210	0.000085
1602	1.5930e+02	-16.2108	-46.096016	0.000162	1.621836	0.549493	0.000065
1603	1.5940e+02	-16.1771	-45.987013	0.000274	2.736849	0.927270	0.000110
1604	1.5950e+02	-16.1354	-45.946642	0.000101	1.013648	0.343433	0.000041
1605	1.5960e+02	-16.1017	-45.837639	0.000274	2.736849	0.927270	0.000110
1606	1.5970e+02	-16.0632	-45.793231	0.000112	1.115013	0.377776	0.000045
1607	1.5980e+02	-16.0151	-45.704414	0.000223	2.230025	0.755553	0.000089
1608	1.5990e+02	-15.9798	-45.571188	0.000335	3.345038	1.133329	0.000134
1609	1.6000e+02	-15.9445	-45.526780	0.000112	1.115013	0.377776	0.000045
1610	1.6010e+02	-15.8979	-45.437963	0.000223	2.230025	0.755553	0.000089
1611	1.6019e+02	-15.8578	-45.353183	0.000213	2.128660	0.721210	0.000085
1612	1.6029e+02	-15.8225	-45.284552	0.000172	1.723201	0.583836	0.000069
1613	1.6039e+02	-15.7776	-45.155363	0.000324	3.243673	1.098986	0.000130
1614	1.6049e+02	-15.7391	-45.114992	0.000101	1.013648	0.343433	0.000041
1615	1.6059e+02	-15.7022	-45.010026	0.000264	2.635484	0.892926	0.000105
1616	1.6069e+02	-15.6637	-44.945432	0.000162	1.621836	0.549493	0.000065
1617	1.6079e+02	-15.6236	-44.876801	0.000172	1.723201	0.583836	0.000069
1618	1.6089e+02	-15.5883	-44.792021	0.000213	2.128660	0.721210	0.000085
1619	1.6099e+02	-15.5466	-44.699167	0.000233	2.331390	0.789896	0.000093
1620	1.6109e+02	-15.5017	-44.606313	0.000233	2.331390	0.789896	0.000093
1621	1.6119e+02	-15.4600	-44.485199	0.000304	3.040943	1.030300	0.000122
1622	1.6129e+02	-15.4199	-44.432716	0.000132	1.317742	0.446463	0.000053
1623	1.6139e+02	-15.3798	-44.319676	0.000284	2.838214	0.961613	0.000114
1624	1.6149e+02	-15.3413	-44.218748	0.000253	2.534120	0.858583	0.000101
1625	1.6159e+02	-15.2964	-44.142042	0.000193	1.925931	0.652523	0.000077
1626	1.6169e+02	-15.2595	-44.085522	0.000142	1.419107	0.480806	0.000057
1627	1.6179e+02	-15.2178	-44.029002	0.000142	1.419107	0.480806	0.000057
1628	1.6189e+02	-15.1809	-43.887703	0.000355	3.547767	1.202016	0.000142
1629	1.6199e+02	-15.1488	-43.843294	0.000112	1.115013	0.377776	0.000045
1630	1.6209e+02	-15.0958	-43.758514	0.000213	2.128660	0.721210	0.000085
1631	1.6219e+02	-15.0718	-43.665660	0.000233	2.331390	0.789896	0.000093
1632	1.6228e+02	-15.0220	-43.564732	0.000253	2.534120	0.858583	0.000101
1633	1.6238e+02	-14.9787	-43.492063	0.000182	1.824566	0.618180	0.000073
1634	1.6248e+02	-14.9450	-43.415358	0.000193	1.925931	0.652523	0.000077
1635	1.6258e+02	-14.9017	-43.298281	0.000294	2.939579	0.995956	0.000118
1636	1.6268e+02	-14.8600	-43.237724	0.000152	1.520472	0.515150	0.000061
1637	1.6278e+02	-14.8295	-43.140832	0.000243	2.432755	0.824240	0.000097
1638	1.6288e+02	-14.7798	-43.080275	0.000152	1.520472	0.515150	0.000061
1639	1.6298e+02	-14.7477	-43.011644	0.000172	1.723201	0.583836	0.000069
1640	1.6308e+02	-14.6964	-42.886493	0.000314	3.142308	1.064643	0.000126
1641	1.6318e+02	-14.6675	-42.846122	0.000101	1.013648	0.343433	0.000041
1642	1.6328e+02	-14.6338	-42.725008	0.000304	3.040943	1.030300	0.000122
1643	1.6338e+02	-14.5841	-42.620042	0.000264	2.635484	0.892926	0.000105
1644	1.6348e+02	-14.5408	-42.523151	0.000243	2.432755	0.824240	0.000097
1645	1.6358e+02	-14.5087	-42.458557	0.000162	1.621836	0.549493	0.000065
1646	1.6368e+02	-14.4702	-42.381851	0.000193	1.925931	0.652523	0.000077
1647	1.6378e+02	-14.4269	-42.321294	0.000152	1.520472	0.515150	0.000061
1648	1.6388e+02	-14.3819	-42.224403	0.000243	2.432755	0.824240	0.000097
1649	1.6398e+02	-14.3418	-42.099251	0.000314	3.142308	1.064643	0.000126
1650	1.6408e+02	-14.3130	-42.050806	0.000122	1.216377	0.412120	0.000049
1651	1.6418e+02	-14.2680	-41.945840	0.000264	2.635484	0.892926	0.000105
1652	1.6427e+02	-14.2247	-41.857023	0.000223	2.230025	0.755553	0.000089
1653	1.6437e+02	-14.1894	-41.816652	0.000101	1.013648	0.343433	0.000041
1654	1.6447e+02	-14.1541	-41.723798	0.000233	2.331390	0.789896	0.000093
1655	1.6457e+02	-14.1076	-41.618832	0.000264	2.635484	0.892926	0.000105
1656	1.6467e+02	-14.0723	-41.513867	0.000264	2.635484	0.892926	0.000105
1657	1.6477e+02	-14.0242	-41.416976	0.000243	2.432755	0.824240	0.000097
1658	1.6487e+02	-13.9953	-41.340270	0.000193	1.925931	0.652523	0.000077
1659	1.6497e+02	-13.9552	-41.275676	0.000162	1.621836	0.549493	0.000065
1660	1.6507e+02	-13.9071	-41.190896	0.000213	2.128660	0.721210	0.000085
1661	1.6517e+02	-13.8686	-41.122265	0.000172	1.723201	0.583836	0.000069
1662	1.6527e+02	-13.8269	-41.025373	0.000243	2.432755	0.824240	0.000097
1663	1.6537e+02	-13.7804	-40.948668	0.000193	1.925931	0.652523	0.000077
1664	1.6547e+02	-13.7451	-40.884074	0.000162	1.621836	0.549493	0.000065
1665	1.6557e+02	-13.7114	-40.762960	0.000304	3.040943	1.030300	0.000122
1666	1.6567e+02	-13.6616	-40.653957	0.000274	2.736849	0.927270	0.000110
1667	1.6577e+02	-13.6312	-40.601474	0.000132	1.317742	0.446463	0.000053
1668	1.6587e+02	-13.5895	-40.544954	0.000142	1.419107	0.480806	0.000057
1669	1.6597e+02	-13.5526	-40.448063	0.000243	2.432755	0.824240	0.000097
1670	1.6607e+02	-13.5108	-40.367320	0.000203	2.027296	0.686866	0.000081
1671	1.6616e+02	-13.4659	-40.278503	0.000223	2.230025	0.755553	0.000089
1672	1.6626e+02	-13.4226	-40.213909	0.000162	1.621836	0.549493	0.000065
1673	1.6636e+02	-13.3873	-40.088758	0.000314	3.142308	1.064643	0.000126
1674	1.6646e+02	-13.3601	-40.008015	0.000203	2.027296	0.686866	0.000081
1675	1.6656e+02	-13.3055	-39.915161	0.000233	2.331390	0.789896	0.000093
1676	1.6666e+02	-13.2718	-39.838455	0.000193	1.925931	0.652523	0.000077
1677	1.6676e+02	-13.2317	-39.745601	0.000233	2.331390	0.789896	0.000093
1678	1.6686e+02	-13.1900	-39.689081	0.000142	1.419107	0.480806	0.000057
1679	1.6696e+02	-13.1467	-39.576042	0.000284	2.838214	0.961613	0.000114
1680	1.6706e+02	-13.1066	-39.515485	0.000152	1.520472	0.515150	0.000061
1681	1.6716e+02	-13.0793	-39.422630	0.000233	2.331390	0.789896	0.000093
1682	1.6726e+02	-13.0264	-39.321702	0.000253	2.534120	0.858583	0.000101
1683	1.6736e+02	-12.9927	-39.261145	0.000152	1.520472	0.515150	0.000061
1684	1.6746e+02	-12.9462	-39.164254	0.000243	2.432755	0.824240	0.000097
1685	1.6756e+02	-12.9109	-39.059288	0.000264	2.635484	0.892926	0.000105
1686	1.6766e+02	-12.8708	-39.014880	0.000112	1.115013	0.377776	0.000045
1687	1.6776e+02	-12.8290	-38.922026	0.000233	2.331390	0.789896	0.000093
1688	1.6786e+02	-12.7857	-38.817060	0.000264	2.635484	0.892926	0.000105
1689	1.6796e+02	-12.7617	-38.756503	0.000152	1.520472	0.515150	0.000061
1690	1.6806e+02	-12.7055	-38.675760	0.000203	2.027296	0.686866	0.000081
1691	1.6816e+02	-12.6654	-38.574832	0.000253	2.534120	0.858583	0.000101
1692	1.6825e+02	-12.6414	-38.510238	0.000162	1.621836	0.549493	0.000065
1693	1.6835e+02	-12.5980	-38.356827	0.000385	3.851862	1.305046	0.000154
1694	1.6845e+02	-12.5467	-38.296270	0.000152	1.520472	0.515150	0.000061
1695	1.6855e+02	-12.5114	-38.272047	0.000061	0.608189	0.206060	0.000024
1696	1.6865e+02	-12.4729	-38.163044	0.000274	2.736849	0.927270	0.000110
1697	1.6875e+02	-12.4360	-38.090376	0.000182	1.824566	0.618180	0.000073
1698	1.6885e+02	-12.3943	-37.973299	0.000294	2.939579	0.995956	0.000118
1699	1.6895e+02	-12.3606	-37.896593	0.000193	1.925931	0.652523	0.000077
1700	1.6905e+02	-12.3173	-37.819888	0.000193	1.925931	0.652523	0.000077
1701	1.6915e+02	-12.2708	-37.751256	0.000172	1.723201	0.583836	0.000069
1702	1.6925e+02	-12.2339	-37.634179	0.000294	2.939579	0.995956	0.000118
1703	1.6935e+02	-12.1906	-37.569585	0.000162	1.621836	0.549493	0.000065
1704	1.6945e+02	-12.1473	-37.488842	0.000203	2.027296	0.686866	0.000081
1705	1.6955e+02	-12.1168	-37.379840	0.000274	2.736849	0.927270	0.000110
1706	1.6965e+02	-12.0751	-37.307171	0.000182	1.824566	0.618180	0.000073
1707	1.6975e+02	-12.0350	-37.246614	0.000152	1.520472	0.515150	0.000061
1708	1.6985e+02	-11.9868	-37.145686	0.000253	2.534120	0.858583	0.000101
1709	1.6995e+02	-11.9515	-37.060906	0.000213	2.128660	0.721210	0.000085
1710	1.7005e+02	-11.9114	-36.935755	0.000314	3.142308	1.064643	0.000126
1711	1.7015e+02	-11.8713	-36.891346	0.000112	1.115013	0.377776	0.000045
1712	1.7024e+02	-11.8296	-36.818678	0.000182	1.824566	0.618180	0.000073
1713	1.7034e+02	-11.8007	-36.697564	0.000304	3.040943	1.030300	0.000122
1714	1.7044e+02	-11.7558	-36.596635	0.000253	2.534120	0.858583	0.000101
1715	1.7054e+02	-11.7205	-36.556264	0.000101	1.013648	0.343433	0.000041
1716	1.7064e+02	-11.6708	-36.459373	0.000243	2.432755	0.824240	0.000097
1717	1.7074e+02	-11.6419	-36.374593	0.000213	2.128660	0.721210	0.000085
1718	1.7084e+02	-11.6002	-36.269627	0.000264	2.635484	0.892926	0.000105
1719	1.7094e+02	-11.5649	-36.176773	0.000233	2.331390	0.789896	0.000093
1720	1.7104e+02	-11.5152	-36.087956	0.000223	2.230025	0.755553	0.000089
1721	1.7114e+02	-11.4767	-36.031436	0.000142	1.419107	0.480806	0.000057
1722	1.7124e+02	-11.4414	-35.898211	0.000335	3.345038	1.133329	0.000134
1723	1.7134e+02	-11.3868	-35.849765	0.000122	1.216377	0.412120	0.000049
1724	1.7144e+02	-11.3596	-35.752874	0.000243	2.432755	0.824240	0.000097
1725	1.7154e+02	-11.3163	-35.651946	0.000253	2.534120	0.858583	0.000101
1726	1.7164e+02	-11.2681	-35.571203	0.000203	2.027296	0.686866	0.000081
1727	1.7174e+02	-11.2360	-35.462200	0.000274	2.736849	0.927270	0.000110
1728	1.7184e+02	-11.1927	-35.385495	0.000193	1.925931	0.652523	0.000077
1729	1.7194e+02	-11.1606	-35.333012	0.000132	1.317742	0.446463	0.000053
1730	1.7204e+02	-11.1189	-35.244195	0.000223	2.230025	0.755553	0.000089
1731	1.7213e+02	-11.0836	-35.155378	0.000223	2.230025	0.755553	0.000089
1732	1.7223e+02	-11.0403	-35.062524	0.000233	2.331390	0.789896	0.000093
1733	1.7233e+02	-10.9954	-34.941410	0.000304	3.040943	1.030300	0.000122
1734	1.7243e+02	-10.9521	-34.868741	0.000182	1.824566	0.618180	0.000073
1735	1.7253e+02	-10.9168	-34.743590	0.000314	3.142308	1.064643	0.000126
1736	1.7263e+02	-10.8815	-34.678996	0.000162	1.621836	0.549493	0.000065
1737	1.7273e+02	-10.8350	-34.618439	0.000152	1.520472	0.515150	0.000061
1738	1.7283e+02	-10.8077	-34.525585	0.000233	2.331390	0.789896	0.000093
1739	1.7293e+02	-10.7612	-34.420619	0.000264	2.635484	0.892926	0.000105
1740	1.7303e+02	-10.7275	-34.323728	0.000243	2.432755	0.824240	0.000097
1741	1.7313e+02	-10.6826	-34.214725	0.000274	2.736849	0.927270	0.000110
1742	1.7323e+02	-10.6345	-34.138020	0.000193	1.925931	0.652523	0.000077
1743	1.7333e+02	-10.5895	-34.045166	0.000233	2.331390	0.789896	0.000093
1744	1.7343e+02	-10.5591	-33.948274	0.000243	2.432755	0.824240	0.000097
1745	1.7353e+02	-10.5222	-33.815049	0.000335	3.345038	1.133329	0.000134
1746	1.7363e+02	-10.4821	-33.758529	0.000142	1.419107	0.480806	0.000057
1747	1.7373e+02	-10.4387	-33.677786	0.000203	2.027296	0.686866	0.000081
1748	1.7383e+02	-10.4099	-33.576858	0.000253	2.534120	0.858583	0.000101
1749	1.7393e+02	-10.3521	-33.471892	0.000264	2.635484	0.892926	0.000105
1750	1.7403e+02	-10.3136	-33.350778	0.000304	3.040943	1.030300	0.000122
1751	1.7413e+02	-10.2783	-33.274073	0.000193	1.925931	0.652523	0.000077
1752	1.7422e+02	-10.2382	-33.173144	0.000253	2.534120	0.858583	0.000101
1753	1.7432e+02	-10.2013	-33.136810	0.000091	0.912283	0.309090	0.000037
1754	1.7442e+02	-10.1628	-33.003585	0.000335	3.345038	1.133329	0.000134
1755	1.7452e+02	-10.1227	-32.902656	0.000253	2.534120	0.858583	0.000101
1756	1.7462e+02	-10.0858	-32.801728	0.000253	2.534120	0.858583	0.000101
1757	1.7472e+02	-10.0393	-32.737134	0.000162	1.621836	0.549493	0.000065
1758	1.7482e+02	-9.9992	-32.632168	0.000264	2.635484	0.892926	0.000105
1759	1.7492e+02	-9.9703	-32.551425	0.000203	2.027296	0.686866	0.000081
1760	1.7502e+02	-9.9142	-32.446460	0.000264	2.635484	0.892926	0.000105
1761	1.7512e+02	-9.8837	-32.377829	0.000172	1.723201	0.583836	0.000069
1762	1.7522e+02	-9.8356	-32.212306	0.000416	4.155956	1.408076	0.000166
1763	1.7532e+02	-9.8099	-32.131563	0.000203	2.027296	0.686866	0.000081
1764	1.7542e+02	-9.7746	-32.042746	0.000223	2.230025	0.755553	0.000089
1765	1.7552e+02	-9.7184	-31.974115	0.000172	1.723201	0.583836	0.000069
1766	1.7562e+02	-9.6912	-31.869150	0.000264	2.635484	0.892926	0.000105
1767	1.7572e+02	-9.6479	-31.739961	0.000324	3.243673	1.098986	0.000130
1768	1.7582e+02	-9.6126	-31.683441	0.000142	1.419107	0.480806	0.000057
1769	1.7592e+02	-9.5644	-31.570401	0.000284	2.838214	0.961613	0.000114
1770	1.7602e+02	-9.5259	-31.477547	0.000233	2.331390	0.789896	0.000093
1771	1.7612e+02	-9.4890	-31.364508	0.000284	2.838214	0.961613	0.000114
1772	1.7621e+02	-9.4521	-31.275691	0.000223	2.230025	0.755553	0.000089
1773	1.7631e+02	-9.4136	-31.146502	0.000324	3.243673	1.098986	0.000130
1774	1.7641e+02	-9.3639	-31.077871	0.000172	1.723201	0.583836	0.000069
1775	1.7651e+02	-9.3286	-30.972905	0.000264	2.635484	0.892926	0.000105
1776	1.7661e+02	-9.2805	-30.888126	0.000213	2.128660	0.721210	0.000085
1777	1.7671e+02	-9.2468	-30.799309	0.000223	2.230025	0.755553	0.000089
1778	1.7681e+02	-9.2019	-30.682232	0.000294	2.939579	0.995956	0.000118
1779	1.7691e+02	-9.1618	-30.593415	0.000223	2.230025	0.755553	0.000089
1780	1.7701e+02	-9.1233	-30.484412	0.000274	2.736849	0.927270	0.000110
1781	1.7711e+02	-9.0864	-30.423855	0.000152	1.520472	0.515150	0.000061
1782	1.7721e+02	-9.0543	-30.339075	0.000213	2.128660	0.721210	0.000085
1783	1.7731e+02	-9.0014	-30.201812	0.000345	3.446403	1.167673	0.000138
1784	1.7741e+02	-8.9596	-30.092810	0.000274	2.736849	0.927270	0.000110
1785	1.7751e+02	-8.9324	-29.987844	0.000264	2.635484	0.892926	0.000105
1786	1.7761e+02	-8.8955	-29.903064	0.000213	2.128660	0.721210	0.000085
1787	1.7771e+02	-8.8489	-29.781950	0.000304	3.040943	1.030300	0.000122
1788	1.7781e+02	-8.7976	-29.717356	0.000162	1.621836	0.549493	0.000065
1789	1.7791e+02	-8.7575	-29.567982	0.000375	3.750497	1.270703	0.000150
1790	1.7801e+02	-8.7318	-29.483202	0.000213	2.128660	0.721210	0.000085
1791	1.7810e+02	-8.6901	-29.402460	0.000203	2.027296	0.686866	0.000081
1792	1.7820e+02	-8.6548	-29.257123	0.000365	3.649132	1.236359	0.000146
1793	1.7830e+02	-8.5923	-29.172343	0.000213	2.128660	0.721210	0.000085
1794	1.7840e+02	-8.5634	-29.083526	0.000223	2.230025	0.755553	0.000089
1795	1.7850e+02	-8.5329	-28.978560	0.000264	2.635484	0.892926	0.000105
1796	1.7860e+02	-8.4992	-28.857446	0.000304	3.040943	1.030300	0.000122
1797	1.7870e+02	-8.4527	-28.788815	0.000172	1.723201	0.583836	0.000069
1798	1.7880e+02	-8.4110	-28.675775	0.000284	2.838214	0.961613	0.000114
1799	1.7890e+02	-8.3741	-28.534475	0.000355	3.547767	1.202016	0.000142
1800	1.7900e+02	-8.3308	-28.477955	0.000142	1.419107	0.480806	0.000057
1801	1.7910e+02	-8.2907	-28.368953	0.000274	2.736849	0.927270	0.000110
1802	1.7920e+02	-8.2474	-28.288210	0.000203	2.027296	0.686866	0.000081
1803	1.7930e+02	-8.2153	-28.142873	0.000365	3.649132	1.236359	0.000146
1804	1.7940e+02	-8.1655	-28.058093	0.000213	2.128660	0.721210	0.000085
1805	1.7950e+02	-8.1319	-27.957165	0.000253	2.534120	0.858583	0.000101
1806	1.7960e+02	-8.1014	-27.844125	0.000284	2.838214	0.961613	0.000114
1807	1.7970e+02	-8.0468	-27.739160	0.000264	2.635484	0.892926	0.000105
1808	1.7980e+02	-8.0083	-27.666491	0.000182	1.824566	0.618180	0.000073
1809	1.7990e+02	-7.9682	-27.569600	0.000243	2.432755	0.824240	0.000097
1810	1.8000e+02	-7.9426	-27.452523	0.000294	2.939579	0.995956	0.000118
1811	1.8009e+02	-7.8960	-27.355632	0.000243	2.432755	0.824240	0.000097
1812	1.8019e+02	-7.8479	-27.198183	0.000395	3.953226	1.339389	0.000158
1813	1.8029e+02	-7.8206	-27.137626	0.000152	1.520472	0.515150	0.000061
1814	1.8039e+02	-7.7629	-27.012475	0.000314	3.142308	1.064643	0.000126
1815	1.8049e+02	-7.7308	-26.931733	0.000203	2.027296	0.686866	0.000081
1816	1.8059e+02	-7.6939	-26.855027	0.000193	1.925931	0.652523	0.000077
1817	1.8069e+02	-7.6474	-26.709690	0.000365	3.649132	1.236359	0.000146
1818	1.8079e+02	-7.5976	-26.620873	0.000223	2.230025	0.755553	0.000089
1819	1.8089e+02	-7.5672	-26.552242	0.000172	1.723201	0.583836	0.000069
1820	1.8099e+02	-7.5335	-26.423053	0.000324	3.243673	1.098986	0.000130
1821	1.8109e+02	-7.4854	-26.338274	0.000213	2.128660	0.721210	0.000085
1822	1.8119e+02	-7.4549	-26.221197	0.000294	2.939579	0.995956	0.000118
1823	1.8129e+02	-7.4132	-26.104120	0.000294	2.939579	0.995956	0.000118
1824	1.8139e+02	-7.3747	-26.027414	0.000193	1.925931	0.652523	0.000077
1825	1.8149e+02	-7.3362	-25.930523	0.000243	2.432755	0.824240	0.000097
1826	1.8159e+02	-7.2993	-25.789223	0.000355	3.547767	1.202016	0.000142
1827	1.8169e+02	-7.2527	-25.781149	0.000020	0.202730	0.068687	0.000008
1828	1.8179e+02	-7.2110	-25.603515	0.000446	4.460050	1.511106	0.000179
1829	1.8189e+02	-7.1677	-25.514698	0.000223	2.230025	0.755553	0.000089
1830	1.8199e+02	-7.1260	-25.377435	0.000345	3.446403	1.167673	0.000138
1831	1.8209e+02	-7.0971	-25.304767	0.000182	1.824566	0.618180	0.000073
1832	1.8218e+02	-7.0522	-25.228061	0.000193	1.925931	0.652523	0.000077
1833	1.8228e+02	-7.0105	-25.090799	0.000345	3.446403	1.167673	0.000138
1834	1.8238e+02	-6.9704	-25.026204	0.000162	1.621836	0.549493	0.000065
1835	1.8248e+02	-6.9351	-24.937387	0.000223	2.230025	0.755553	0.000089
1836	1.8258e+02	-6.8886	-24.816273	0.000304	3.040943	1.030300	0.000122
1837	1.8268e+02	-6.8517	-24.691122	0.000314	3.142308	1.064643	0.000126
1838	1.8278e+02	-6.8164	-24.590194	0.000253	2.534120	0.858583	0.000101
1839	1.8288e+02	-6.7763	-24.545785	0.000112	1.115013	0.377776	0.000045
1840	1.8298e+02	-6.7378	-24.388337	0.000395	3.953226	1.339389	0.000158
1841	1.8308e+02	-6.6864	-24.263186	0.000314	3.142308	1.064643	0.000126
1842	1.8318e+02	-6.6528	-24.210703	0.000132	1.317742	0.446463	0.000053
1843	1.8328e+02	-6.6094	-24.089589	0.000304	3.040943	1.030300	0.000122
1844	1.8338e+02	-6.5725	-23.988661	0.000253	2.534120	0.858583	0.000101
1845	1.8348e+02	-6.5324	-23.883695	0.000264	2.635484	0.892926	0.000105
1846	1.8358e+02	-6.4987	-23.790841	0.000233	2.331390	0.789896	0.000093
1847	1.8368e+02	-6.4586	-23.689913	0.000253	2.534120	0.858583	0.000101
1848	1.8378e+02	-6.4105	-23.584947	0.000264	2.635484	0.892926	0.000105
1849	1.8388e+02	-6.3816	-23.475944	0.000274	2.736849	0.927270	0.000110
1850	1.8398e+02	-6.3383	-23.407313	0.000172	1.723201	0.583836	0.000069
1851	1.8407e+02	-6.2934	-23.290236	0.000294	2.939579	0.995956	0.000118
1852	1.8417e+02	-6.2501	-23.181233	0.000274	2.736849	0.927270	0.000110
1853	1.8427e+02	-6.2180	-23.043971	0.000345	3.446403	1.167673	0.000138
1854	1.8437e+02	-6.1875	-22.975339	0.000172	1.723201	0.583836	0.000069
1855	1.8447e+02	-6.1394	-22.838077	0.000345	3.446403	1.167673	0.000138
1856	1.8457e+02	-6.1057	-22.773483	0.000162	1.621836	0.549493	0.000065
1857	1.8467e+02	-6.0592	-22.664480	0.000274	2.736849	0.927270	0.000110
1858	1.8477e+02	-6.0239	-22.527217	0.000345	3.446403	1.167673	0.000138
1859	1.8487e+02	-5.9806	-22.438400	0.000223	2.230025	0.755553	0.000089
1860	1.8497e+02	-5.9437	-22.305175	0.000335	3.345038	1.133329	0.000134
1861	1.8507e+02	-5.9036	-22.264804	0.000101	1.013648	0.343433	0.000041
1862	1.8517e+02	-5.8587	-22.107355	0.000395	3.953226	1.339389	0.000158
1863	1.8527e+02	-5.8266	-22.026613	0.000203	2.027296	0.686866	0.000081
1864	1.8537e+02	-5.7833	-21.929721	0.000243	2.432755	0.824240	0.000097
1865	1.8547e+02	-5.7367	-21.820719	0.000274	2.736849	0.927270	0.000110
1866	1.8557e+02	-5.7014	-21.719790	0.000253	2.534120	0.858583	0.000101
1867	1.8567e+02	-5.6645	-21.651159	0.000172	1.723201	0.583836	0.000069
1868	1.8577e+02	-5.6196	-21.485636	0.000416	4.155956	1.408076	0.000166
1869	1.8587e+02	-5.5763	-21.417005	0.000172	1.723201	0.583836	0.000069
1870	1.8597e+02	-5.5394	-21.316077	0.000253	2.534120	0.858583	0.000101
1871	1.8606e+02	-5.5009	-21.295891	0.000051	0.506824	0.171717	0.000020
1872	1.8616e+02	-5.4656	-21.126331	0.000426	4.257321	1.442419	0.000170
1873	1.8626e+02	-5.4303	-21.013292	0.000284	2.838214	0.961613	0.000114
1874	1.8636e+02	-5.3838	-20.888140	0.000314	3.142308	1.064643	0.000126
1875	1.8646e+02	-5.3437	-20.779138	0.000274	2.736849	0.927270	0.000110
1876	1.8656e+02	-5.3020	-20.718581	0.000152	1.520472	0.515150	0.000061
1877	1.8666e+02	-5.2587	-20.617652	0.000253	2.534120	0.858583	0.000101
1878	1.8676e+02	-5.2186	-20.500575	0.000294	2.939579	0.995956	0.000118
1879	1.8686e+02	-5.1897	-20.367350	0.000335	3.345038	1.133329	0.000134
1880	1.8696e+02	-5.1384	-20.262384	0.000264	2.635484	0.892926	0.000105
1881	1.8706e+02	-5.1079	-20.121085	0.000355	3.547767	1.202016	0.000142
1882	1.8716e+02	-5.0646	-20.044379	0.000193	1.925931	0.652523	0.000077
1883	1.8726e+02	-5.0196	-19.927302	0.000294	2.939579	0.995956	0.000118
1884	1.8736e+02	-4.9844	-19.810225	0.000294	2.939579	0.995956	0.000118
1885	1.8746e+02	-4.9507	-19.701222	0.000274	2.736849	0.927270	0.000110
1886	1.8756e+02	-4.9138	-19.632591	0.000172	1.723201	0.583836	0.000069
1887	1.8766e+02	-4.8721	-19.531663	0.000253	2.534120	0.858583	0.000101
1888	1.8776e+02	-4.8175	-19.406511	0.000314	3.142308	1.064643	0.000126
1889	1.8786e+02	-4.7854	-19.345954	0.000152	1.520472	0.515150	0.000061
1890	1.8796e+02	-4.7405	-19.180432	0.000416	4.155956	1.408076	0.000166
1891	1.8806e+02	-4.7004	-19.099689	0.000203	2.027296	0.686866	0.000081
1892	1.8815e+02	-4.6651	-18.990687	0.000274	2.736849	0.927270	0.000110
1893	1.8825e+02	-4.6218	-18.853424	0.000345	3.446403	1.167673	0.000138
1894	1.8835e+02	-4.5897	-18.776718	0.000193	1.925931	0.652523	0.000077
1895	1.8845e+02	-4.5464	-18.708087	0.000172	1.723201	0.583836	0.000069
1896	1.8855e+02	-4.5031	-18.582936	0.000314	3.142308	1.064643	0.000126
1897	1.8865e+02	-4.4662	-18.433562	0.000375	3.750497	1.270703	0.000150
1898	1.8875e+02	-4.4309	-18.312448	0.000304	3.040943	1.030300	0.000122
1899	1.8885e+02	-4.3844	-18.251891	0.000152	1.520472	0.515150	0.000061
1900	1.8895e+02	-4.3523	-18.126739	0.000314	3.142308	1.064643	0.000126
1901	1.8905e+02	-4.3138	-18.054071	0.000182	1.824566	0.618180	0.000073
1902	1.8915e+02	-4.2624	-17.949105	0.000264	2.635484	0.892926	0.000105
1903	1.8925e+02	-4.2223	-17.848177	0.000253	2.534120	0.858583	0.000101
1904	1.8935e+02	-4.1903	-17.731100	0.000294	2.939579	0.995956	0.000118
1905	1.8945e+02	-4.1389	-17.630172	0.000253	2.534120	0.858583	0.000101
1906	1.8955e+02	-4.1052	-17.480798	0.000375	3.750497	1.270703	0.000150
1907	1.8965e+02	-4.0635	-17.379869	0.000253	2.534120	0.858583	0.000101
1908	1.8975e+02	-4.0346	-17.254718	0.000314	3.142308	1.064643	0.000126
1909	1.8985e+02	-3.9737	-17.129567	0.000314	3.142308	1.064643	0.000126
1910	1.8995e+02	-3.9480	-17.020564	0.000274	2.736849	0.927270	0.000110
1911	1.9004e+02	-3.9047	-16.899450	0.000304	3.040943	1.030300	0.000122
1912	1.9014e+02	-3.8678	-16.750076	0.000375	3.750497	1.270703	0.000150
1913	1.9024e+02	-3.8309	-16.624925	0.000314	3.142308	1.064643	0.000126
1914	1.9034e+02	-3.7876	-16.556294	0.000172	1.723201	0.583836	0.000069
1915	1.9044e+02	-3.7491	-16.427105	0.000324	3.243673	1.098986	0.000130
1916	1.9054e+02	-3.7026	-16.314066	0.000284	2.838214	0.961613	0.000114
1917	1.9064e+02	-3.6673	-16.209100	0.000264	2.635484	0.892926	0.000105
1918	1.9074e+02	-3.6304	-16.047615	0.000405	4.054591	1.373733	0.000162
1919	1.9084e+02	-3.5935	-15.970909	0.000193	1.925931	0.652523	0.000077
1920	1.9094e+02	-3.5486	-15.829609	0.000355	3.547767	1.202016	0.000142
1921	1.9104e+02	-3.5149	-15.736755	0.000233	2.331390	0.789896	0.000093
1922	1.9114e+02	-3.4732	-15.575270	0.000405	4.054591	1.373733	0.000162
1923	1.9124e+02	-3.4331	-15.470304	0.000264	2.635484	0.892926	0.000105
1924	1.9134e+02	-3.3930	-15.333042	0.000345	3.446403	1.167673	0.000138
1925	1.9144e+02	-3.3512	-15.260373	0.000182	1.824566	0.618180	0.000073
1926	1.9154e+02	-3.3159	-15.155408	0.000264	2.635484	0.892926	0.000105
1927	1.9164e+02	-3.2678	-15.038331	0.000294	2.939579	0.995956	0.000118
1928	1.9174e+02	-3.2341	-14.892994	0.000365	3.649132	1.236359	0.000146
1929	1.9184e+02	-3.1924	-14.747657	0.000365	3.649132	1.236359	0.000146
1930	1.9194e+02	-3.1475	-14.638654	0.000274	2.736849	0.927270	0.000110
1931	1.9203e+02	-3.1090	-14.553874	0.000213	2.128660	0.721210	0.000085
1932	1.9213e+02	-3.0689	-14.428723	0.000314	3.142308	1.064643	0.000126
1933	1.9223e+02	-3.0432	-14.311646	0.000294	2.939579	0.995956	0.000118
1934	1.9233e+02	-2.9887	-14.190532	0.000304	3.040943	1.030300	0.000122
1935	1.9243e+02	-2.9470	-14.089604	0.000253	2.534120	0.858583	0.000101
1936	1.9253e+02	-2.9101	-13.924081	0.000416	4.155956	1.408076	0.000166
1937	1.9263e+02	-2.8732	-13.859487	0.000162	1.621836	0.549493	0.000065
1938	1.9273e+02	-2.8395	-13.706076	0.000385	3.851862	1.305046	0.000154
1939	1.9283e+02	-2.7898	-13.572850	0.000335	3.345038	1.133329	0.000134
1940	1.9293e+02	-2.7545	-13.443662	0.000324	3.243673	1.098986	0.000130
1941	1.9303e+02	-2.7128	-13.383105	0.000152	1.520472	0.515150	0.000061
1942	1.9313e+02	-2.6775	-13.270065	0.000284	2.838214	0.961613	0.000114
1943	1.9323e+02	-2.6406	-13.116654	0.000385	3.851862	1.305046	0.000154
1944	1.9333e+02	-2.5973	-13.027837	0.000223	2.230025	0.755553	0.000089
1945	1.9343e+02	-2.5459	-12.862314	0.000416	4.155956	1.408076	0.000166
1946	1.9353e+02	-2.5090	-12.793683	0.000172	1.723201	0.583836	0.000069
1947	1.9363e+02	-2.4769	-12.680643	0.000284	2.838214	0.961613	0.000114
1948	1.9373e+02	-2.4336	-12.523195	0.000395	3.953226	1.339389	0.000158
1949	1.9383e+02	-2.4015	-12.389970	0.000335	3.345038	1.133329	0.000134
1950	1.9393e+02	-2.3470	-12.268856	0.000304	3.040943	1.030300	0.000122
1951	1.9403e+02	-2.3101	-12.087184	0.000456	4.561415	1.545449	0.000183
1952	1.9412e+02	-2.2732	-12.022590	0.000162	1.621836	0.549493	0.000065
1953	1.9422e+02	-2.2331	-11.893402	0.000324	3.243673	1.098986	0.000130
1954	1.9432e+02	-2.1850	-11.760176	0.000335	3.345038	1.133329	0.000134
1955	1.9442e+02	-2.1513	-11.675397	0.000213	2.128660	0.721210	0.000085
1956	1.9452e+02	-2.1256	-11.509874	0.000416	4.155956	1.408076	0.000166
1957	1.9462e+02	-2.0759	-11.396834	0.000284	2.838214	0.961613	0.000114
1958	1.9472e+02	-2.0390	-11.263609	0.000335	3.345038	1.133329	0.000134
1959	1.9482e+02	-2.0021	-11.106160	0.000395	3.953226	1.339389	0.000158
1960	1.9492e+02	-1.9588	-10.993121	0.000284	2.838214	0.961613	0.000114
1961	1.9502e+02	-1.9090	-10.892192	0.000253	2.534120	0.858583	0.000101
1962	1.9512e+02	-1.8753	-10.771078	0.000304	3.040943	1.030300	0.000122
1963	1.9522e+02	-1.8368	-10.629778	0.000355	3.547767	1.202016	0.000142
1964	1.9532e+02	-1.7999	-10.500590	0.000324	3.243673	1.098986	0.000130
1965	1.9542e+02	-1.7502	-10.363327	0.000345	3.446403	1.167673	0.000138
1966	1.9552e+02	-1.7165	-10.278548	0.000213	2.128660	0.721210	0.000085
1967	1.9562e+02	-1.6796	-10.121099	0.000395	3.953226	1.339389	0.000158
1968	1.9572e+02	-1.6379	-10.012097	0.000274	2.736849	0.927270	0.000110
1969	1.9582e+02	-1.5962	-9.850611	0.000405	4.054591	1.373733	0.000162
1970	1.9592e+02	-1.5641	-9.721423	0.000324	3.243673	1.098986	0.000130
1971	1.9601e+02	-1.5112	-9.612420	0.000274	2.736849	0.927270	0.000110
1972	1.9611e+02	-1.4775	-9.459009	0.000385	3.851862	1.305046	0.000154
1973	1.9621e+02	-1.4422	-9.305598	0.000385	3.851862	1.305046	0.000154
1974	1.9631e+02	-1.3973	-9.180447	0.000314	3.142308	1.064643	0.000126
1975	1.9641e+02	-1.3588	-9.063370	0.000294	2.939579	0.995956	0.000118
1976	1.9651e+02	-1.3187	-8.958404	0.000264	2.635484	0.892926	0.000105
1977	1.9661e+02	-1.2673	-8.821142	0.000345	3.446403	1.167673	0.000138
1978	1.9671e+02	-1.2353	-8.687916	0.000335	3.345038	1.133329	0.000134
1979	1.9681e+02	-1.2032	-8.611211	0.000193	1.925931	0.652523	0.000077
1980	1.9691e+02	-1.1663	-8.413391	0.000497	4.966874	1.682823	0.000199
1981	1.9701e+02	-1.1214	-8.348797	0.000162	1.621836	0.549493	0.000065
1982	1.9711e+02	-1.0716	-8.171163	0.000446	4.460050	1.511106	0.000179
1983	1.9721e+02	-1.0363	-8.046012	0.000314	3.142308	1.064643	0.000126
1984	1.9731e+02	-0.9946	-7.892600	0.000385	3.851862	1.305046	0.000154
1985	1.9741e+02	-0.9593	-7.751301	0.000355	3.547767	1.202016	0.000142
1986	1.9751e+02	-0.9192	-7.618075	0.000335	3.345038	1.133329	0.000134
1987	1.9761e+02	-0.8791	-7.480813	0.000345	3.446403	1.167673	0.000138
1988	1.9771e+02	-0.8374	-7.375847	0.000264	2.635484	0.892926	0.000105
1989	1.9781e+02	-0.7973	-7.274919	0.000253	2.534120	0.858583	0.000101
1990	1.9791e+02	-0.7556	-7.109396	0.000416	4.155956	1.408076	0.000166
1991	1.9800e+02	-0.7203	-6.980208	0.000324	3.243673	1.098986	0.000130
1992	1.9810e+02	-0.6850	-6.859094	0.000304	3.040943	1.030300	0.000122
1993	1.9820e+02	-0.6369	-6.709720	0.000375	3.750497	1.270703	0.000150
1994	1.9830e+02	-0.5984	-6.612828	0.000243	2.432755	0.824240	0.000097
1995	1.9840e+02	-0.5583	-6.435194	0.000446	4.460050	1.511106	0.000179
1996	1.9850e+02	-0.5230	-6.326192	0.000274	2.736849	0.927270	0.000110
1997	1.9860e+02	-0.4893	-6.180855	0.000365	3.649132	1.236359	0.000146
1998	1.9870e+02	-0.4380	-6.071852	0.000274	2.736849	0.927270	0.000110
1999	1.9880e+02	-0.4011	-5.926515	0.000365	3.649132	1.236359	0.000146
2000	1.9890e+02	-0.3626	-5.789253	0.000345	3.446403	1.167673	0.000138
2001	1.9900e+02	-0.3225	-5.643916	0.000365	3.649132	1.236359	0.000146
2002	1.9910e+02	-0.2759	-5.547025	0.000243	2.432755	0.824240	0.000097
2003	1.9920e+02	-0.2326	-5.433985	0.000284	2.838214	0.961613	0.000114
2004	1.9930e+02	-0.2053	-5.264425	0.000426	4.257321	1.442419	0.000170
2005	1.9940e+02	-0.1717	-5.139274	0.000314	3.142308	1.064643	0.000126
2006	1.9950e+02	-0.1139	-5.018160	0.000304	3.040943	1.030300	0.000122
2007	1.9960e+02	-0.0834	-4.860711	0.000395	3.953226	1.339389	0.000158
2008	1.9970e+02	-0.0337	-4.727486	0.000335	3.345038	1.133329	0.000134
2009	1.9980e+02	-0.0080	-4.602335	0.000335	3.345038	1.133329	0.000126

Center data before PMax,+/-Pr and +/-Vc Calc.

PMax (uC/cm2):	5.26e+01
Pr (uC/cm2):	1.54e+00
-Pr (uC/cm2):	-4.60e+00
PLoss (uC/cm2):	-1.78e+00
Vc:	8.72e-01
-Vc:	-4.44e-01
C (Max-Eff) (nF):	2.63e-01
K (Eff):	8.91e+02
Vert. (+/-Pr) Shift (uC/cm2):	-1.53e+00
Horiz. Shift (+/-Vc):	2.14e-01
Offset (uC/cm2):	2.76e+00

A (Loop Area - uC/cm2·Volts):	3.05e-03



Hysteresis Version: 5.48.1 - Radiant Technologies, Inc., 1999 - 9/12/24

