»»»»»»»»»»»»»»»»»»»»»»»»»»»»»»»»»»»» Hysteresis ««««««««««««««««««««««««««««««««««««
»»»  Executed Version:	5.48.1
»»»  Vision Version:	5.48.4 (R)
»»»  Vision Compiled:	9/18/24
»»»  Driver Version:	5.47.0
»»»  Windows Version:	Windows 8 or 8.1
»»»  Processor Information:	x86 (AMD or Intel) - 32 Processors
»»»  Tester Name:	PMF21124-494 (100V)
»»»  Tester S/N:	PMF21124-494
»»»  Internal Amp Type:	100V RevK 270k
»»»  Internal Amp S/N:	iAB2-596/K     
»»»  Execution Count:	1
»»»»»»»»»»»»»»»»»»»»»»»»»»»»»»»»»»»»»»»»»»««««««««««««««««««««««««««««««««««««««««««

Stored:	6/6/2025 - 15:50:41
Configured:	06/06/25 01:57:07 PM
Executed:	06/06/25 03:50:15 PM

»»»»»»»»»»»»»»»»»»»»»»»»»»»»»»»»»»» Sample Info ««««««««««««««««««««««««««««««««««««
Sample Name:	
Lot Name:	
Wafer Name:	
Die Row/Column:	0/0
Capacitor Number:	0
Sample Area (cm2):	1.00e-04
Sample Thickness (microns):	3.00e-01

Amplifier:	Internal

»»»»»»»»»»»»»»»»»»»»»»»»»»»»»»»»»»» Tester Info «««««««««««««««««««««««««««««««««««
Tester Name:	PMF21124-494 (100V)
Tester Serial Number:	PMF21124-494
Return Signal Amp. Level:	1.79 [Index: 2]

»»»»»»»»»»»»»»»»»»»»»»»»»»»»»»»» Hysteresis Info ««««««««««««««««««««««««««««««««««
Task Name:	Hyst-501
Volts:	20.00
Field:	666.67 (kV/cm)
DCBias:	0.00
DCField:	0.00 (kV/cm)
Hysteresis Period (ms):	1.00e+00
Preset:	Enabled
Preset Delay (ms):	1.00e+03
Profile:	Standard Bipolar

»»»»»»»»»»»»»»»»»»»»»»»»»»»»»»»»»»»»»» Data «««««««««««««««««««««««««««««««««««««««
Points:	2001

Valid Data

Point	Time (ms)	Drive Voltage	Measured Polarization (uC/cm2)	Capacitance (uF)	Normalized Capacitance (uF/cm2)	Dielectric Constant	Instantaneous Current (mA)
   1	0.0000e+00	0.0449	-0.992091	-0.000736	-7.362232	-2.494392	0.059012
   2	5.0000e-04	0.0385	-0.697029	-0.000736	-7.362232	-2.494392	0.059012
   3	1.0000e-03	0.1123	-0.974130	-0.000691	-6.914096	-2.342559	-0.055420
   4	1.5000e-03	0.1556	-0.658543	0.000787	7.874387	2.667914	0.063117
   5	2.0000e-03	0.2037	-0.640155	0.000046	0.458806	0.155448	0.003678
   6	2.5000e-03	0.2230	-0.375883	0.000659	6.593999	2.234107	0.052854
   7	3.0000e-03	0.2679	-0.323285	0.000131	1.312398	0.444652	0.010520
   8	3.5000e-03	0.3112	-0.393415	-0.000175	-1.749864	-0.592870	-0.014026
   9	4.0000e-03	0.3642	-0.184734	0.000521	5.206912	1.764149	0.041736
  10	4.5000e-03	0.3946	-0.080821	0.000259	2.592786	0.878460	0.020783
  11	5.0000e-03	0.4235	0.087663	0.000420	4.203941	1.424334	0.033697
  12	5.5000e-03	0.4765	-0.018816	-0.000266	-2.656805	-0.900150	-0.021296
  13	6.0000e-03	0.5134	0.343811	0.000905	9.048076	3.065571	0.072525
  14	6.5000e-03	0.5486	0.387856	0.000110	1.099000	0.372351	0.008809
  15	7.0000e-03	0.6000	0.563610	0.000439	4.385329	1.485790	0.035151
  16	7.5000e-03	0.6433	0.694463	0.000326	3.264990	1.106208	0.026171
  17	8.0000e-03	0.6754	0.580715	-0.000284	-2.838194	-0.961606	-0.022750
  18	8.5000e-03	0.7075	0.638445	0.000144	1.440437	0.488033	0.011546
  19	9.0000e-03	0.7524	0.924098	0.000713	7.127494	2.414860	0.057131
  20	9.5000e-03	0.8069	1.001926	0.000194	1.941922	0.657941	0.015566
  21	1.0000e-02	0.8198	0.968999	-0.000082	-0.821582	-0.278360	-0.006585
  22	1.0500e-02	0.8631	1.235409	0.000665	6.647348	2.252183	0.053282
  23	1.1000e-02	0.9208	1.214456	-0.000052	-0.522825	-0.177138	-0.004191
  24	1.1500e-02	0.9449	1.290573	0.000190	1.899242	0.643481	0.015223
  25	1.2000e-02	0.9770	1.505669	0.000537	5.366960	1.818375	0.043019
  26	1.2500e-02	1.0203	1.765665	0.000649	6.487300	2.197957	0.051999
  27	1.3000e-02	1.0845	1.650634	-0.000287	-2.870203	-0.972451	-0.023006
  28	1.3500e-02	1.1037	1.661324	0.000027	0.266748	0.090377	0.002138
  29	1.4000e-02	1.1422	1.948261	0.000716	7.159504	2.425705	0.057387
  30	1.4500e-02	1.1887	2.002997	0.000137	1.365747	0.462728	0.010947
  31	1.5000e-02	1.2032	2.245033	0.000604	6.039164	2.046124	0.048407
  32	1.5500e-02	1.2513	2.493911	0.000621	6.209882	2.103965	0.049776
  33	1.6000e-02	1.3074	2.436609	-0.000143	-1.429767	-0.484418	-0.011460
  34	1.6500e-02	1.3620	2.507595	0.000177	1.771204	0.600100	0.014197
  35	1.7000e-02	1.4165	2.503318	-0.000011	-0.106699	-0.036151	-0.000855
  36	1.7500e-02	1.4358	2.682066	0.000446	4.460019	1.511095	0.035749
  37	1.8000e-02	1.4855	2.747065	0.000162	1.621825	0.549489	0.013000
  38	1.8500e-02	1.5032	2.936503	0.000473	4.726766	1.601472	0.037888
  39	1.9000e-02	1.5449	3.156730	0.000549	5.494999	1.861756	0.044045
  40	1.9500e-02	1.5786	3.088737	-0.000170	-1.696514	-0.574795	-0.013598
  41	2.0000e-02	1.6331	3.320938	0.000579	5.793756	1.962978	0.046440
  42	2.0500e-02	1.6812	3.288011	-0.000082	-0.821582	-0.278360	-0.006585
  43	2.1000e-02	1.7197	3.512086	0.000559	5.591028	1.894292	0.044815
  44	2.1500e-02	1.7406	3.546724	0.000086	0.864262	0.292820	0.006928
  45	2.2000e-02	1.7967	3.664321	0.000293	2.934223	0.994142	0.023519
  46	2.2500e-02	1.8352	3.862311	0.000494	4.940164	1.673773	0.039598
  47	2.3000e-02	1.8898	3.796030	-0.000165	-1.653835	-0.560334	-0.013256
  48	2.3500e-02	1.8978	3.905502	0.000273	2.731495	0.925455	0.021894
  49	2.4000e-02	1.9652	4.124018	0.000545	5.452319	1.847296	0.043703
  50	2.4500e-02	1.9828	4.018395	-0.000264	-2.635466	-0.892920	-0.021125
  51	2.5000e-02	2.0278	4.526414	0.001268	12.675842	4.294692	0.101604
  52	2.5500e-02	2.0711	4.318160	-0.000520	-5.196242	-1.760534	-0.041651
  53	2.6000e-02	2.0983	4.511447	0.000482	4.822795	1.634007	0.038657
  54	2.6500e-02	2.1449	4.626050	0.000286	2.859533	0.968836	0.022921
  55	2.7000e-02	2.1978	4.614504	-0.000029	-0.288087	-0.097607	-0.002309
  56	2.7500e-02	2.2379	4.742792	0.000320	3.200970	1.084518	0.025658
  57	2.8000e-02	2.2475	5.108412	0.000912	9.122765	3.090877	0.073124
  58	2.8500e-02	2.3213	5.039991	-0.000171	-1.707184	-0.578410	-0.013684
  59	2.9000e-02	2.3582	5.158444	0.000296	2.955563	1.001372	0.023690
  60	2.9500e-02	2.3807	5.287159	0.000321	3.211640	1.088133	0.025743
  61	3.0000e-02	2.4449	5.414164	0.000317	3.168961	1.073673	0.025401
  62	3.0500e-02	2.4801	5.456071	0.000105	1.045650	0.354276	0.008381
  63	3.1000e-02	2.5154	5.642088	0.000464	4.641407	1.572551	0.037203
  64	3.1500e-02	2.5491	5.672877	0.000077	0.768233	0.260284	0.006158
  65	3.2000e-02	2.5924	5.818697	0.000364	3.638436	1.232736	0.029164
  66	3.2500e-02	2.6374	5.911919	0.000233	2.326038	0.788083	0.018644
  67	3.3000e-02	2.6759	5.895670	-0.000041	-0.405456	-0.137372	-0.003250
  68	3.3500e-02	2.6999	6.164218	0.000670	6.700698	2.270258	0.053710
  69	3.4000e-02	2.7705	6.028233	-0.000339	-3.393028	-1.149589	-0.027197
  70	3.4500e-02	2.8026	6.141554	0.000283	2.827524	0.957991	0.022664
  71	3.5000e-02	2.8363	6.516154	0.000935	9.346833	3.166793	0.074920
  72	3.5500e-02	2.8620	6.486648	-0.000074	-0.736223	-0.249439	-0.005901
  73	3.6000e-02	2.9213	6.527272	0.000101	1.013641	0.343431	0.008125
  74	3.6500e-02	2.9646	6.655560	0.000320	3.200970	1.084518	0.025658
  75	3.7000e-02	2.9839	6.825327	0.000424	4.235951	1.435179	0.033953
  76	3.7500e-02	3.0208	6.821051	-0.000011	-0.106699	-0.036151	-0.000855
  77	3.8000e-02	3.0529	6.862103	0.000102	1.024310	0.347046	0.008210
  78	3.8500e-02	3.1042	7.160585	0.000745	7.447591	2.523312	0.059696
  79	3.9000e-02	3.1475	7.326931	0.000415	4.150591	1.406258	0.033269
  80	3.9500e-02	3.1972	7.361141	0.000085	0.853592	0.289205	0.006842
  81	4.0000e-02	3.2325	7.319662	-0.000103	-1.034980	-0.350661	-0.008296
  82	4.0500e-02	3.2839	7.464627	0.000362	3.617096	1.225505	0.028993
  83	4.1000e-02	3.3224	7.673736	0.000522	5.217582	1.767764	0.041822
  84	4.1500e-02	3.3464	7.708373	0.000086	0.864262	0.292820	0.006928
  85	4.2000e-02	3.4026	7.663900	-0.000111	-1.109670	-0.375966	-0.008895
  86	4.2500e-02	3.4379	7.699821	0.000090	0.896272	0.303665	0.007184
  87	4.3000e-02	3.4908	8.072710	0.000930	9.304154	3.152333	0.074578
  88	4.3500e-02	3.5181	8.201425	0.000321	3.211640	1.088133	0.025743
  89	4.4000e-02	3.5614	8.195438	-0.000015	-0.149379	-0.050611	-0.001197
  90	4.4500e-02	3.5967	8.180472	-0.000037	-0.373447	-0.126527	-0.002993
  91	4.5000e-02	3.6304	8.404975	0.000560	5.601698	1.897907	0.044901
  92	4.5500e-02	3.6609	8.493493	0.000221	2.208669	0.748317	0.017704
  93	4.6000e-02	3.7122	8.670530	0.000442	4.417339	1.496635	0.035407
  94	4.6500e-02	3.7491	8.672668	0.000005	0.053350	0.018075	0.000428
  95	4.7000e-02	3.8036	8.854409	0.000453	4.534708	1.536401	0.036348
  96	4.7500e-02	3.8309	8.912566	0.000145	1.451107	0.491648	0.011631
  97	4.8000e-02	3.8646	9.177266	0.000660	6.604669	2.237722	0.052940
  98	4.8500e-02	3.8951	9.085754	-0.000228	-2.283359	-0.773623	-0.018302
  99	4.9000e-02	3.9625	9.183253	0.000243	2.432737	0.824234	0.019500
 100	4.9500e-02	3.9881	9.201213	0.000045	0.448136	0.151833	0.003592
 101	5.0000e-02	4.0523	9.490288	0.000721	7.212853	2.443781	0.057815
 102	5.0500e-02	4.0667	9.432986	-0.000143	-1.429767	-0.484418	-0.011460
 103	5.1000e-02	4.1229	9.578379	0.000363	3.627766	1.229120	0.029079
 104	5.1500e-02	4.1502	9.816566	0.000594	5.943135	2.013589	0.047637
 105	5.2000e-02	4.2127	9.580089	-0.000590	-5.900455	-1.999128	-0.047295
 106	5.2500e-02	4.2272	9.833671	0.000633	6.327251	2.143731	0.050716
 107	5.3000e-02	4.2608	9.988899	0.000387	3.873174	1.312267	0.031046
 108	5.3500e-02	4.3058	9.931169	-0.000144	-1.440437	-0.488033	-0.011546
 109	5.4000e-02	4.3459	10.160804	0.000573	5.729737	1.941287	0.045927
 110	5.4500e-02	4.3828	10.422938	0.000654	6.540649	2.216032	0.052427
 111	5.5000e-02	4.4341	10.221527	-0.000503	-5.025523	-1.702693	-0.040282
 112	5.5500e-02	4.4790	10.477674	0.000639	6.391271	2.165421	0.051230
 113	5.6000e-02	4.5271	10.588857	0.000277	2.774174	0.939916	0.022237
 114	5.6500e-02	4.5432	10.579877	-0.000022	-0.224068	-0.075916	-0.001796
 115	5.7000e-02	4.5865	10.731256	0.000378	3.777145	1.279731	0.030276
 116	5.7500e-02	4.6346	10.737671	0.000016	0.160049	0.054226	0.001283
 117	5.8000e-02	4.6587	11.167006	0.001071	10.712581	3.629521	0.085867
 118	5.8500e-02	4.7325	10.911714	-0.000637	-6.369931	-2.158191	-0.051058
 119	5.9000e-02	4.7549	11.134935	0.000557	5.569688	1.887061	0.044644
 120	5.9500e-02	4.8063	11.320952	0.000464	4.641407	1.572551	0.037203
 121	6.0000e-02	4.8255	11.175987	-0.000362	-3.617096	-1.225505	-0.028993
 122	6.0500e-02	4.8640	11.658348	0.001204	12.035648	4.077788	0.096472
 123	6.1000e-02	4.9041	11.610454	-0.000120	-1.195029	-0.404887	-0.009579
 124	6.1500e-02	4.9555	11.485160	-0.000313	-3.126281	-1.059213	-0.025059
 125	6.2000e-02	4.9892	11.649795	0.000411	4.107912	1.391798	0.032927
 126	6.2500e-02	5.0389	11.893542	0.000608	6.081844	2.060584	0.048749
 127	6.3000e-02	5.0662	11.881568	-0.000030	-0.298757	-0.101222	-0.002395
 128	6.3500e-02	5.0999	12.050053	0.000420	4.203941	1.424334	0.033697
 129	6.4000e-02	5.1753	12.003014	-0.000117	-1.173689	-0.397657	-0.009408
 130	6.4500e-02	5.1945	12.248898	0.000614	6.135193	2.078660	0.049177
 131	6.5000e-02	5.2298	12.301924	0.000132	1.323068	0.448267	0.010605
 132	6.5500e-02	5.2539	12.390442	0.000221	2.208669	0.748317	0.017704
 133	6.6000e-02	5.3100	12.583729	0.000482	4.822795	1.634007	0.038657
 134	6.6500e-02	5.3533	12.636754	0.000132	1.323068	0.448267	0.010605
 135	6.7000e-02	5.3918	12.516164	-0.000301	-3.008912	-1.019447	-0.024118
 136	6.7500e-02	5.4255	12.989545	0.001181	11.811580	4.001872	0.094676
 137	6.8000e-02	5.4592	12.923263	-0.000165	-1.653835	-0.560334	-0.013256
 138	6.8500e-02	5.5121	12.919415	-0.000010	-0.096029	-0.032536	-0.000770
 139	6.9000e-02	5.5747	13.087472	0.000419	4.193271	1.420719	0.033611
 140	6.9500e-02	5.5843	13.145201	0.000144	1.440437	0.488033	0.011546
 141	7.0000e-02	5.6180	13.392796	0.000618	6.177873	2.093120	0.049519
 142	7.0500e-02	5.6662	13.214049	-0.000446	-4.460019	-1.511095	-0.035749
 143	7.1000e-02	5.7175	13.553583	0.000847	8.471901	2.870358	0.067907
 144	7.1500e-02	5.7448	13.680160	0.000316	3.158291	1.070058	0.025315
 145	7.2000e-02	5.8009	13.646378	-0.000084	-0.842922	-0.285590	-0.006756
 146	7.2500e-02	5.8346	13.834105	0.000468	4.684086	1.587011	0.037545
 147	7.3000e-02	5.8715	13.921341	0.000218	2.176660	0.737472	0.017447
 148	7.3500e-02	5.9196	13.796474	-0.000312	-3.115611	-1.055598	-0.024973
 149	7.4000e-02	5.9565	14.014991	0.000545	5.452319	1.847296	0.043703
 150	7.4500e-02	5.9838	14.082556	0.000169	1.685844	0.571180	0.013513
 151	7.5000e-02	6.0512	14.064168	-0.000046	-0.458806	-0.155448	-0.003678
 152	7.5500e-02	6.0608	14.280118	0.000539	5.388300	1.825605	0.043190
 153	7.6000e-02	6.1025	14.414820	0.000336	3.361019	1.138744	0.026940
 154	7.6500e-02	6.1651	14.427649	0.000032	0.320097	0.108452	0.002566
 155	7.7000e-02	6.1972	14.591002	0.000408	4.075902	1.380953	0.032671
 156	7.7500e-02	6.2437	14.575607	-0.000038	-0.384116	-0.130142	-0.003079
 157	7.8000e-02	6.2758	14.806098	0.000575	5.751077	1.948517	0.046098
 158	7.8500e-02	6.3127	14.800538	-0.000014	-0.138709	-0.046996	-0.001112
 159	7.9000e-02	6.3560	14.980996	0.000450	4.502698	1.525555	0.036092
 160	7.9500e-02	6.4137	15.056258	0.000188	1.877903	0.636251	0.015052
 161	8.0000e-02	6.4282	15.108001	0.000129	1.291058	0.437422	0.010349
 162	8.0500e-02	6.4763	15.170434	0.000156	1.557806	0.527799	0.012487
 163	8.1000e-02	6.4779	15.510824	0.000849	8.493241	2.877588	0.068078
 164	8.1500e-02	6.5421	15.378260	-0.000331	-3.307669	-1.120669	-0.026513
 165	8.2000e-02	6.6078	15.461219	0.000207	2.069961	0.701322	0.016592
 166	8.2500e-02	6.6383	15.709670	0.000620	6.199212	2.100350	0.049690
 167	8.3000e-02	6.6736	15.696413	-0.000033	-0.330767	-0.112067	-0.002651
 168	8.3500e-02	6.7201	15.670328	-0.000065	-0.650864	-0.220519	-0.005217
 169	8.4000e-02	6.7490	15.864042	0.000483	4.833465	1.637622	0.038743
 170	8.4500e-02	6.7683	15.965390	0.000253	2.528767	0.856769	0.020269
 171	8.5000e-02	6.8276	16.095815	0.000325	3.254320	1.102593	0.026085
 172	8.5500e-02	6.8757	16.146275	0.000126	1.259048	0.426577	0.010092
 173	8.6000e-02	6.9207	16.079138	-0.000168	-1.675174	-0.567564	-0.013427
 174	8.6500e-02	6.9287	16.279694	0.000500	5.004184	1.695463	0.040111
 175	8.7000e-02	6.9736	16.460152	0.000450	4.502698	1.525555	0.036092
 176	8.7500e-02	7.0265	16.564920	0.000261	2.614126	0.885690	0.020954
 177	8.8000e-02	7.0731	16.532421	-0.000081	-0.810912	-0.274745	-0.006500
 178	8.8500e-02	7.1035	16.792417	0.000649	6.487300	2.197957	0.051999
 179	8.9000e-02	7.1533	16.789851	-0.000006	-0.064019	-0.021690	-0.000513
 180	8.9500e-02	7.1966	16.785147	-0.000012	-0.117369	-0.039766	-0.000941
 181	9.0000e-02	7.2126	17.048992	0.000658	6.583329	2.230492	0.052769
 182	9.0500e-02	7.2688	17.040867	-0.000020	-0.202728	-0.068686	-0.001625
 183	9.1000e-02	7.3073	17.109715	0.000172	1.717854	0.582025	0.013770
 184	9.1500e-02	7.3426	17.297442	0.000468	4.684086	1.587011	0.037545
 185	9.2000e-02	7.4132	17.297870	0.000001	0.010670	0.003615	0.000086
 186	9.2500e-02	7.4260	17.618589	0.000800	8.002426	2.711295	0.064144
 187	9.3000e-02	7.4725	17.383823	-0.000586	-5.857776	-1.984668	-0.046953
 188	9.3500e-02	7.5046	17.536485	0.000381	3.809155	1.290577	0.030532
 189	9.4000e-02	7.5463	17.638687	0.000255	2.550106	0.863999	0.020440
 190	9.4500e-02	7.6057	17.699410	0.000152	1.515126	0.513339	0.012145
 191	9.5000e-02	7.6169	17.779376	0.000200	1.995271	0.676016	0.015993
 192	9.5500e-02	7.6859	17.808027	0.000071	0.714883	0.242209	0.005730
 193	9.6000e-02	7.7244	18.083418	0.000687	6.871416	2.328099	0.055078
 194	9.6500e-02	7.7372	18.098384	0.000037	0.373447	0.126527	0.002993
 195	9.7000e-02	7.7805	18.299368	0.000501	5.014853	1.699078	0.040197
 196	9.7500e-02	7.8447	18.389597	0.000225	2.251349	0.762778	0.018046
 197	9.8000e-02	7.8768	18.400288	0.000027	0.266748	0.090377	0.002138
 198	9.8500e-02	7.9025	18.496931	0.000241	2.411398	0.817004	0.019329
 199	9.9000e-02	7.9506	18.727849	0.000576	5.761746	1.952133	0.046184
 200	9.9500e-02	7.9971	18.694494	-0.000083	-0.832252	-0.281975	-0.006671
 201	1.0000e-01	8.0228	18.734691	0.000100	1.002971	0.339816	0.008039
 202	1.0050e-01	8.0725	18.952780	0.000544	5.441649	1.843681	0.043618
 203	1.0100e-01	8.1094	18.949786	-0.000007	-0.074689	-0.025305	-0.000599
 204	1.0150e-01	8.1688	19.094324	0.000361	3.606427	1.221890	0.028907
 205	1.0200e-01	8.1784	19.290176	0.000489	4.886815	1.655698	0.039170
 206	1.0250e-01	8.2217	19.261953	-0.000070	-0.704213	-0.238594	-0.005645
 207	1.0300e-01	8.2714	19.391523	0.000323	3.232980	1.095363	0.025914
 208	1.0350e-01	8.3196	19.365011	-0.000066	-0.661534	-0.224134	-0.005303
 209	1.0400e-01	8.3629	19.342346	-0.000057	-0.565505	-0.191598	-0.004533
 210	1.0450e-01	8.3933	19.591224	0.000621	6.209882	2.103965	0.049776
 211	1.0500e-01	8.4142	19.770399	0.000447	4.470688	1.514710	0.035835
 212	1.0550e-01	8.4671	19.734906	-0.000089	-0.885602	-0.300050	-0.007099
 213	1.0600e-01	8.5024	19.929904	0.000487	4.865475	1.648467	0.038999
 214	1.0650e-01	8.5618	19.802899	-0.000317	-3.168961	-1.073673	-0.025401
 215	1.0700e-01	8.6276	19.941022	0.000345	3.446378	1.167664	0.027625
 216	1.0750e-01	8.6276	20.159966	-0.000546	-5.462989	-1.850911	0.043789
 217	1.0800e-01	8.6709	20.273714	0.000284	2.838194	0.961606	0.022750
 218	1.0850e-01	8.7270	20.175788	-0.000244	-2.443407	-0.827849	-0.019585
 219	1.0900e-01	8.7639	20.293813	0.000294	2.944893	0.997757	0.023605
 220	1.0950e-01	8.8056	20.291247	-0.000006	-0.064019	-0.021690	-0.000513
 221	1.1000e-01	8.8249	20.427232	0.000339	3.393028	1.149589	0.027197
 222	1.1050e-01	8.8666	20.655584	0.000570	5.697727	1.930442	0.045670
 223	1.1100e-01	8.9147	20.663709	0.000020	0.202728	0.068686	0.001625
 224	1.1150e-01	8.9548	20.868541	0.000511	5.110883	1.731614	0.040967
 225	1.1200e-01	8.9901	21.040874	0.000430	4.299970	1.456869	0.034467
 226	1.1250e-01	9.0302	21.080216	0.000098	0.981631	0.332586	0.007868
 227	1.1300e-01	9.0623	21.095610	0.000038	0.384116	0.130142	0.003079
 228	1.1350e-01	9.1024	21.099031	0.000009	0.085359	0.028920	0.000684
 229	1.1400e-01	9.1570	21.245279	0.000365	3.649106	1.236351	0.029250
 230	1.1450e-01	9.1842	21.406066	0.000401	4.011883	1.359263	0.032157
 231	1.1500e-01	9.2356	21.340639	-0.000163	-1.632495	-0.553104	-0.013085
 232	1.1550e-01	9.2837	21.462085	0.000303	3.030252	1.026677	0.024289
 233	1.1600e-01	9.2901	21.631425	0.000423	4.225281	1.431564	0.033868
 234	1.1650e-01	9.3414	21.734910	0.000258	2.582116	0.874845	0.020697
 235	1.1700e-01	9.3992	21.908098	0.000432	4.321310	1.464099	0.034638
 236	1.1750e-01	9.4393	21.902539	-0.000014	-0.138709	-0.046996	-0.001112
 237	1.1800e-01	9.4762	21.898263	-0.000011	-0.106699	-0.036151	-0.000855
 238	1.1850e-01	9.5211	21.943163	0.000112	1.120340	0.379581	0.008980
 239	1.1900e-01	9.5709	21.953854	0.000027	0.266748	0.090377	0.002138
 240	1.1950e-01	9.5885	22.144575	0.000476	4.758776	1.612317	0.038144
 241	1.2000e-01	9.6222	22.381052	0.000590	5.900455	1.999128	0.047295
 242	1.2050e-01	9.6751	22.287402	-0.000234	-2.336708	-0.791698	-0.018730
 243	1.2100e-01	9.7377	22.520885	0.000583	5.825766	1.973823	0.046697
 244	1.2150e-01	9.7505	22.476840	-0.000110	-1.099000	-0.372351	-0.008809
 245	1.2200e-01	9.8051	22.572628	0.000239	2.390058	0.809774	0.019158
 246	1.2250e-01	9.8227	22.678679	0.000265	2.646135	0.896535	0.021210
 247	1.2300e-01	9.8869	22.628647	-0.000125	-1.248378	-0.422962	-0.010006
 248	1.2350e-01	9.9093	22.834334	0.000513	5.132222	1.738844	0.041138
 249	1.2400e-01	9.9478	22.941668	0.000268	2.678145	0.907380	0.021467
 250	1.2450e-01	9.9880	23.041305	0.000249	2.486087	0.842309	0.019927
 251	1.2500e-01	10.0345	23.055844	0.000036	0.362777	0.122912	0.002908
 252	1.2550e-01	10.0794	23.125547	0.000174	1.739194	0.589255	0.013941
 253	1.2600e-01	10.1179	23.275216	0.000373	3.734465	1.265271	0.029934
 254	1.2650e-01	10.1420	23.381695	0.000266	2.656805	0.900150	0.021296
 255	1.2700e-01	10.1901	23.461661	0.000200	1.995271	0.676016	0.015993
 256	1.2750e-01	10.2254	23.568995	0.000268	2.678145	0.907380	0.021467
 257	1.2800e-01	10.2719	23.660934	0.000229	2.294029	0.777238	0.018388
 258	1.2850e-01	10.2912	23.719946	0.000147	1.472446	0.498878	0.011802
 259	1.2900e-01	10.3505	23.821294	0.000253	2.528767	0.856769	0.020269
 260	1.2950e-01	10.3938	23.832412	0.000028	0.277417	0.093992	0.002224
 261	1.3000e-01	10.4355	23.997048	0.000411	4.107912	1.391798	0.032927
 262	1.3050e-01	10.4997	24.003034	0.000015	0.149379	0.050611	0.001197
 263	1.3100e-01	10.5109	24.295102	0.000729	7.287542	2.469086	0.058414
 264	1.3150e-01	10.5591	24.211715	-0.000208	-2.080631	-0.704937	-0.016677
 265	1.3200e-01	10.5719	24.446909	0.000587	5.868445	1.988283	0.047039
 266	1.3250e-01	10.6409	24.407995	-0.000097	-0.970961	-0.328970	-0.007783
 267	1.3300e-01	10.6826	24.458455	0.000126	1.259048	0.426577	0.010092
 268	1.3350e-01	10.7131	24.571776	0.000283	2.827524	0.957991	0.022664
 269	1.3400e-01	10.7243	24.685524	0.000284	2.838194	0.961606	0.022750
 270	1.3450e-01	10.7965	24.803549	0.000294	2.944893	0.997757	0.023605
 271	1.3500e-01	10.8542	24.766345	-0.000093	-0.928281	-0.314510	-0.007441
 272	1.3550e-01	10.8639	24.827923	0.000154	1.536466	0.520569	0.012316
 273	1.3600e-01	10.9088	24.924139	0.000240	2.400728	0.813389	0.019243
 274	1.3650e-01	10.9649	25.149070	0.000561	5.612368	1.901522	0.044986
 275	1.3700e-01	10.9842	25.148215	-0.000002	-0.021340	-0.007230	-0.000171
 276	1.3750e-01	11.0275	25.290614	0.000355	3.553077	1.203815	0.028480
 277	1.3800e-01	11.0708	25.224332	-0.000165	-1.653835	-0.560334	-0.013256
 278	1.3850e-01	11.1189	25.459954	0.000588	5.879115	1.991898	0.047124
 279	1.3900e-01	11.1526	25.446270	-0.000034	-0.341437	-0.115682	-0.002737
 280	1.3950e-01	11.1975	25.639984	0.000483	4.833465	1.637622	0.038743
 281	1.4000e-01	11.2377	25.630576	-0.000023	-0.234738	-0.079531	-0.001882
 282	1.4050e-01	11.2713	25.652385	0.000054	0.544165	0.184368	0.004362
 283	1.4100e-01	11.2938	25.864487	0.000529	5.292271	1.793070	0.042420
 284	1.4150e-01	11.3596	26.060339	0.000489	4.886815	1.655698	0.039170
 285	1.4200e-01	11.3949	25.961130	-0.000248	-2.475417	-0.838694	-0.019842
 286	1.4250e-01	11.4221	25.992775	0.000079	0.789573	0.267514	0.006329
 287	1.4300e-01	11.4863	26.065471	0.000181	1.813883	0.614560	0.014539
 288	1.4350e-01	11.5104	26.292968	0.000568	5.676387	1.923212	0.045499
 289	1.4400e-01	11.5521	26.366092	0.000182	1.824553	0.618175	0.014625
 290	1.4450e-01	11.5906	26.348559	-0.000044	-0.437466	-0.148217	-0.003507
 291	1.4500e-01	11.6211	26.467011	0.000296	2.955563	1.001372	0.023690
 292	1.4550e-01	11.6820	26.635495	0.000420	4.203941	1.424334	0.033697
 293	1.4600e-01	11.7173	26.566220	-0.000173	-1.728524	-0.585640	-0.013855
 294	1.4650e-01	11.7414	26.836479	0.000674	6.743377	2.284718	0.054052
 295	1.4700e-01	11.7863	26.786875	-0.000124	-1.237709	-0.419347	-0.009921
 296	1.4750e-01	11.8392	26.963056	0.000440	4.395999	1.489405	0.035236
 297	1.4800e-01	11.8858	26.773618	-0.000473	-4.726766	-1.601472	-0.037888
 298	1.4850e-01	11.9178	27.040029	0.000665	6.647348	2.252183	0.053282
 299	1.4900e-01	11.9515	27.001115	-0.000097	-0.970961	-0.328970	-0.007783
 300	1.4950e-01	11.9836	27.180290	0.000447	4.470688	1.514710	0.035835
 301	1.5000e-01	11.9981	27.368873	0.000471	4.705426	1.594242	0.037717
 302	1.5050e-01	12.0799	27.467654	0.000246	2.464747	0.835079	0.019756
 303	1.5100e-01	12.0959	27.353051	-0.000286	-2.859533	-0.968836	-0.022921
 304	1.5150e-01	12.1473	27.463378	0.000275	2.752834	0.932686	0.022065
 305	1.5200e-01	12.1809	27.616040	0.000381	3.809155	1.290577	0.030532
 306	1.5250e-01	12.2467	27.655809	0.000099	0.992301	0.336201	0.007954
 307	1.5300e-01	12.2884	27.681895	0.000065	0.650864	0.220519	0.005217
 308	1.5350e-01	12.2964	27.895707	0.000533	5.334950	1.807530	0.042763
 309	1.5400e-01	12.3542	27.899556	0.000010	0.096029	0.032536	0.000770
 310	1.5450e-01	12.3783	27.989357	0.000224	2.240679	0.759163	0.017960
 311	1.5500e-01	12.4360	28.050080	0.000152	1.515126	0.513339	0.012145
 312	1.5550e-01	12.4569	28.224123	0.000434	4.342650	1.471330	0.034809
 313	1.5600e-01	12.5050	28.227117	0.000007	0.074689	0.025305	0.000599
 314	1.5650e-01	12.5387	28.446061	0.000546	5.462989	1.850911	0.043789
 315	1.5700e-01	12.5964	28.421259	-0.000062	-0.618854	-0.209673	-0.004960
 316	1.5750e-01	12.6510	28.455041	0.000084	0.842922	0.285590	0.006756
 317	1.5800e-01	12.6718	28.542277	0.000218	2.176660	0.737472	0.017447
 318	1.5850e-01	12.7103	28.672275	0.000324	3.243650	1.098978	0.026000
 319	1.5900e-01	12.7633	28.623098	-0.000123	-1.227039	-0.415732	-0.009835
 320	1.5950e-01	12.7873	28.871976	0.000621	6.209882	2.103965	0.049776
 321	1.6000e-01	12.8290	29.025066	0.000382	3.819825	1.294192	0.030618
 322	1.6050e-01	12.8579	28.945955	-0.000197	-1.973932	-0.668786	-0.015822
 323	1.6100e-01	12.9269	28.986152	0.000100	1.002971	0.339816	0.008039
 324	1.6150e-01	12.9253	29.249141	-0.000656	-6.561989	-2.223262	0.052598
 325	1.6200e-01	12.9766	29.216214	-0.000082	-0.821582	-0.278360	-0.006585
 326	1.6250e-01	13.0344	29.264963	0.000122	1.216369	0.412117	0.009750
 327	1.6300e-01	13.0665	29.409928	0.000362	3.617096	1.225505	0.028993
 328	1.6350e-01	13.1194	29.417198	0.000018	0.181388	0.061456	0.001454
 329	1.6400e-01	13.1595	29.716963	0.000748	7.479601	2.534157	0.059953
 330	1.6450e-01	13.1868	29.570715	-0.000365	-3.649106	-1.236351	-0.029250
 331	1.6500e-01	13.2510	29.699858	0.000322	3.222310	1.091748	0.025829
 332	1.6550e-01	13.2670	29.805482	0.000264	2.635466	0.892920	0.021125
 333	1.6600e-01	13.3183	29.613906	-0.000478	-4.780116	-1.619547	-0.038315
 334	1.6650e-01	13.3488	29.934624	0.000800	8.002426	2.711295	0.064144
 335	1.6700e-01	13.3986	30.006038	0.000178	1.781873	0.603715	0.014283
 336	1.6750e-01	13.4451	30.091991	0.000214	2.144650	0.726627	0.017191
 337	1.6800e-01	13.4756	30.239521	0.000368	3.681116	1.247196	0.029506
 338	1.6850e-01	13.5044	30.295113	0.000139	1.387087	0.469958	0.011118
 339	1.6900e-01	13.5670	30.338730	0.000109	1.088330	0.368736	0.008724
 340	1.6950e-01	13.5911	30.277152	-0.000154	-1.536466	-0.520569	-0.012316
 341	1.7000e-01	13.6312	30.427676	0.000376	3.755805	1.272501	0.030105
 342	1.7050e-01	13.6713	30.492675	0.000162	1.621825	0.549489	0.013000
 343	1.7100e-01	13.7178	30.607707	0.000287	2.870203	0.972451	0.023006
 344	1.7150e-01	13.7595	30.653035	0.000113	1.131009	0.383196	0.009066
 345	1.7200e-01	13.7868	30.785599	0.000331	3.307669	1.120669	0.026513
 346	1.7250e-01	13.8317	30.891650	0.000265	2.646135	0.896535	0.021210
 347	1.7300e-01	13.8766	30.946386	0.000137	1.365747	0.462728	0.010947
 348	1.7350e-01	13.9151	30.985727	0.000098	0.981631	0.332586	0.007868
 349	1.7400e-01	13.9456	31.128127	0.000355	3.553077	1.203815	0.028480
 350	1.7450e-01	13.9969	31.190988	0.000157	1.568475	0.531414	0.012572
 351	1.7500e-01	14.0386	31.364603	0.000433	4.331980	1.467714	0.034723
 352	1.7550e-01	14.0675	31.379998	0.000038	0.384116	0.130142	0.003079
 353	1.7600e-01	14.1205	31.399669	0.000049	0.490815	0.166293	0.003934
 354	1.7650e-01	14.1493	31.603646	0.000509	5.089543	1.724384	0.040795
 355	1.7700e-01	14.1991	31.564732	-0.000097	-0.970961	-0.328970	-0.007783
 356	1.7750e-01	14.2520	31.646408	0.000204	2.037951	0.690477	0.016335
 357	1.7800e-01	14.2616	31.705848	0.000148	1.483116	0.502493	0.011888
 358	1.7850e-01	14.3226	31.779400	0.000184	1.835223	0.621790	0.014710
 359	1.7900e-01	14.3595	31.850813	0.000178	1.781873	0.603715	0.014283
 360	1.7950e-01	14.3916	31.867918	0.000043	0.426796	0.144602	0.003421
 361	1.8000e-01	14.4445	32.053080	0.000462	4.620067	1.565321	0.037032
 362	1.8050e-01	14.4573	32.210874	0.000394	3.937193	1.333957	0.031559
 363	1.8100e-01	14.5071	32.169822	-0.000102	-1.024310	-0.347046	-0.008210
 364	1.8150e-01	14.5616	32.275018	0.000262	2.624796	0.889305	0.021039
 365	1.8200e-01	14.5873	32.251926	-0.000058	-0.576175	-0.195213	-0.004618
 366	1.8250e-01	14.6322	32.322056	0.000175	1.749864	0.592870	0.014026
 367	1.8300e-01	14.6787	32.673137	0.000876	8.759989	2.967964	0.070216
 368	1.8350e-01	14.7204	32.485837	-0.000467	-4.673417	-1.583396	-0.037460
 369	1.8400e-01	14.7557	32.603434	0.000293	2.934223	0.994142	0.023519
 370	1.8450e-01	14.7830	32.764221	0.000401	4.011883	1.359263	0.032157
 371	1.8500e-01	14.8295	32.883528	0.000298	2.976902	1.008602	0.023861
 372	1.8550e-01	14.8600	33.035763	0.000380	3.798485	1.286961	0.030447
 373	1.8600e-01	14.9274	32.945534	-0.000225	-2.251349	-0.762778	-0.018046
 374	1.8650e-01	14.9723	33.008395	0.000157	1.568475	0.531414	0.012572
 375	1.8700e-01	14.9883	32.984876	-0.000059	-0.586845	-0.198828	-0.004704
 376	1.8750e-01	15.0365	33.212372	0.000568	5.676387	1.923212	0.045499
 377	1.8800e-01	15.0654	33.245727	0.000083	0.832252	0.281975	0.006671
 378	1.8850e-01	15.1167	33.435165	0.000473	4.726766	1.601472	0.037888
 379	1.8900e-01	15.1552	33.420626	-0.000036	-0.362777	-0.122912	-0.002908
 380	1.8950e-01	15.2210	33.410790	-0.000025	-0.245408	-0.083146	-0.001967
 381	1.9000e-01	15.2258	33.494177	0.000208	2.080631	0.704937	0.016677
 382	1.9050e-01	15.2723	33.699010	0.000511	5.110883	1.731614	0.040967
 383	1.9100e-01	15.3124	33.650260	-0.000122	-1.216369	-0.412117	-0.009750
 384	1.9150e-01	15.3734	33.777693	0.000318	3.179630	1.077288	0.025486
 385	1.9200e-01	15.3862	33.837560	0.000149	1.493786	0.506108	0.011974
 386	1.9250e-01	15.4632	34.013742	0.000440	4.395999	1.489405	0.035236
 387	1.9300e-01	15.4712	34.115944	0.000255	2.550106	0.863999	0.020440
 388	1.9350e-01	15.5161	34.050945	-0.000162	-1.621825	-0.549489	-0.013000
 389	1.9400e-01	15.5370	34.222423	0.000428	4.278630	1.449639	0.034296
 390	1.9450e-01	15.6092	34.473867	0.000627	6.273902	2.125655	0.050289
 391	1.9500e-01	15.6284	34.421696	-0.000130	-1.301728	-0.441037	-0.010434
 392	1.9550e-01	15.6685	34.570510	0.000371	3.713126	1.258041	0.029763
 393	1.9600e-01	15.7086	34.487978	-0.000206	-2.059291	-0.697707	-0.016506
 394	1.9650e-01	15.7616	34.585905	0.000244	2.443407	0.827849	0.019585
 395	1.9700e-01	15.7969	34.704784	0.000297	2.966232	1.004987	0.023776
 396	1.9750e-01	15.8466	34.777908	0.000182	1.824553	0.618175	0.014625
 397	1.9800e-01	15.8851	34.762941	-0.000037	-0.373447	-0.126527	-0.002993
 398	1.9850e-01	15.9188	34.976326	0.000532	5.324281	1.803915	0.042677
 399	1.9900e-01	15.9509	34.908334	-0.000170	-1.696514	-0.574795	-0.013598
 400	1.9950e-01	15.9750	34.939551	0.000078	0.778903	0.263899	0.006243
 401	2.0000e-01	16.0343	35.215797	0.000689	6.892756	2.335329	0.055249
 402	2.0050e-01	16.0744	35.067411	-0.000370	-3.702456	-1.254426	-0.029677
 403	2.0100e-01	16.1225	35.302605	0.000587	5.868445	1.988283	0.047039
 404	2.0150e-01	16.1482	35.289348	-0.000033	-0.330767	-0.112067	-0.002651
 405	2.0200e-01	16.1819	35.525825	0.000590	5.900455	1.999128	0.047295
 406	2.0250e-01	16.2396	35.500595	-0.000063	-0.629524	-0.213289	-0.005046
 407	2.0300e-01	16.2814	35.545496	0.000112	1.120340	0.379581	0.008980
 408	2.0350e-01	16.3134	35.561745	0.000041	0.405456	0.137372	0.003250
 409	2.0400e-01	16.3519	35.716973	0.000387	3.873174	1.312267	0.031046
 410	2.0450e-01	16.3953	35.929503	0.000530	5.302941	1.796685	0.042506
 411	2.0500e-01	16.4386	35.856807	-0.000181	-1.813883	-0.614560	-0.014539
 412	2.0550e-01	16.4578	36.110389	0.000633	6.327251	2.143731	0.050716
 413	2.0600e-01	16.5188	36.026574	-0.000209	-2.091301	-0.708552	-0.016763
 414	2.0650e-01	16.5493	36.027429	0.000002	0.021340	0.007230	0.000171
 415	2.0700e-01	16.5974	36.163414	0.000339	3.393028	1.149589	0.027197
 416	2.0750e-01	16.6423	36.248084	0.000211	2.112640	0.715782	0.016934
 417	2.0800e-01	16.6567	36.303248	0.000138	1.376417	0.466343	0.011033
 418	2.0850e-01	16.7081	36.644065	0.000850	8.503911	2.881203	0.068163
 419	2.0900e-01	16.7402	36.524758	-0.000298	-2.976902	-1.008602	-0.023861
 420	2.0950e-01	16.7995	36.566237	0.000103	1.034980	0.350661	0.008296
 421	2.1000e-01	16.8589	36.650479	0.000210	2.101970	0.712167	0.016848
 422	2.1050e-01	16.8717	36.689393	0.000097	0.970961	0.328970	0.007783
 423	2.1100e-01	16.9198	36.712057	0.000057	0.565505	0.191598	0.004533
 424	2.1150e-01	16.9487	36.985310	0.000682	6.818067	2.310024	0.054651
 425	2.1200e-01	17.0049	36.942120	-0.000108	-1.077660	-0.365121	-0.008638
 426	2.1250e-01	17.0241	36.897219	-0.000112	-1.120340	-0.379581	-0.008980
 427	2.1300e-01	17.0674	36.970343	0.000182	1.824553	0.618175	0.014625
 428	2.1350e-01	17.1172	37.173038	0.000506	5.057533	1.713539	0.040539
 429	2.1400e-01	17.1557	37.280371	0.000268	2.678145	0.907380	0.021467
 430	2.1450e-01	17.1861	37.220932	-0.000148	-1.483116	-0.502493	-0.011888
 431	2.1500e-01	17.2343	37.405238	0.000460	4.598727	1.558091	0.036861
 432	2.1550e-01	17.2696	37.385140	-0.000050	-0.501485	-0.169908	-0.004020
 433	2.1600e-01	17.3161	37.496322	0.000277	2.774174	0.939916	0.022237
 434	2.1650e-01	17.3594	37.538657	0.000106	1.056320	0.357891	0.008467
 435	2.1700e-01	17.3899	37.722964	0.000460	4.598727	1.558091	0.036861
 436	2.1750e-01	17.4284	37.750332	0.000068	0.682874	0.231364	0.005474
 437	2.1800e-01	17.4733	37.747338	-0.000007	-0.074689	-0.025305	-0.000599
 438	2.1850e-01	17.5166	37.792239	0.000112	1.120340	0.379581	0.008980
 439	2.1900e-01	17.5407	37.914967	0.000306	3.062262	1.037522	0.024546
 440	2.1950e-01	17.5920	38.024867	0.000274	2.742165	0.929070	0.021980
 441	2.2000e-01	17.6466	38.121938	0.000242	2.422068	0.820619	0.019414
 442	2.2050e-01	17.6883	38.142892	0.000052	0.522825	0.177138	0.004191
 443	2.2100e-01	17.7188	38.213450	0.000176	1.760534	0.596485	0.014112
 444	2.2150e-01	17.7605	38.252791	0.000098	0.981631	0.332586	0.007868
 445	2.2200e-01	17.7925	38.235259	-0.000044	-0.437466	-0.148217	-0.003507
 446	2.2250e-01	17.8423	38.419993	0.000461	4.609397	1.561706	0.036947
 447	2.2300e-01	17.8599	38.662884	0.000606	6.060504	2.053354	0.048578
 448	2.2350e-01	17.9145	38.546998	-0.000289	-2.891543	-0.979681	-0.023177
 449	2.2400e-01	17.9530	38.583773	0.000092	0.917611	0.310895	0.007355
 450	2.2450e-01	17.9786	38.586767	0.000007	0.074689	0.025305	0.000599
 451	2.2500e-01	18.0252	38.879262	0.000730	7.298212	2.472701	0.058499
 452	2.2550e-01	18.0797	38.943406	0.000160	1.600485	0.542259	0.012829
 453	2.2600e-01	18.1102	38.877124	-0.000165	-1.653835	-0.560334	-0.013256
 454	2.2650e-01	18.1599	38.978471	0.000253	2.528767	0.856769	0.020269
 455	2.2700e-01	18.1952	39.092220	0.000284	2.838194	0.961606	0.022750
 456	2.2750e-01	18.2305	39.113173	0.000052	0.522825	0.177138	0.004191
 457	2.2800e-01	18.2754	39.261987	0.000371	3.713126	1.258041	0.029763
 458	2.2850e-01	18.3187	39.306032	0.000110	1.099000	0.372351	0.008809
 459	2.2900e-01	18.3733	39.421064	0.000287	2.870203	0.972451	0.023006
 460	2.2950e-01	18.4006	39.375308	-0.000114	-1.141679	-0.386811	-0.009151
 461	2.3000e-01	18.4262	39.527542	0.000380	3.798485	1.286961	0.030447
 462	2.3050e-01	18.4679	39.669514	0.000354	3.542407	1.200200	0.028394
 463	2.3100e-01	18.5128	39.665665	-0.000010	-0.096029	-0.032536	-0.000770
 464	2.3150e-01	18.5674	39.737506	0.000179	1.792543	0.607330	0.014368
 465	2.3200e-01	18.5995	39.798657	0.000153	1.525796	0.516954	0.012230
 466	2.3250e-01	18.6316	39.892734	0.000235	2.347378	0.795313	0.018816
 467	2.3300e-01	18.6685	39.850399	-0.000106	-1.056320	-0.357891	-0.008467
 468	2.3350e-01	18.7278	40.074903	0.000560	5.601698	1.897907	0.044901
 469	2.3400e-01	18.7519	40.230131	0.000387	3.873174	1.312267	0.031046
 470	2.3450e-01	18.7920	40.204901	-0.000063	-0.629524	-0.213289	-0.005046
 471	2.3500e-01	18.8417	40.224144	0.000048	0.480146	0.162678	0.003849
 472	2.3550e-01	18.8626	40.342168	0.000294	2.944893	0.997757	0.023605
 473	2.3600e-01	18.9251	40.387924	0.000114	1.141679	0.386811	0.009151
 474	2.3650e-01	18.9380	40.389207	0.000003	0.032010	0.010845	0.000257
 475	2.3700e-01	18.9893	40.482002	0.000232	2.315368	0.784468	0.018559
 476	2.3750e-01	19.0422	40.652624	0.000426	4.257290	1.442409	0.034124
 477	2.3800e-01	19.0551	40.741570	0.000222	2.219339	0.751933	0.017789
 478	2.3850e-01	19.1273	40.848904	0.000268	2.678145	0.907380	0.021467
 479	2.3900e-01	19.1674	40.628250	-0.000551	-5.505669	-1.865371	-0.044131
 480	2.3950e-01	19.1850	41.027652	0.000997	9.965687	3.376466	0.079880
 481	2.4000e-01	19.2107	41.011402	-0.000041	-0.405456	-0.137372	-0.003250
 482	2.4050e-01	19.2540	41.202978	0.000478	4.780116	1.619547	0.038315
 483	2.4100e-01	19.2989	41.215379	0.000031	0.309427	0.104837	0.002480
 484	2.4150e-01	19.3519	41.214524	-0.000002	-0.021340	-0.007230	-0.000171
 485	2.4200e-01	19.3984	41.230346	0.000039	0.394786	0.133757	0.003164
 486	2.4250e-01	19.4337	41.388140	0.000394	3.937193	1.333957	0.031559
 487	2.4300e-01	19.4850	41.470244	0.000205	2.048621	0.694092	0.016421
 488	2.4350e-01	19.5155	41.395837	-0.000186	-1.856563	-0.629020	-0.014881
 489	2.4400e-01	19.5412	41.630603	0.000586	5.857776	1.984668	0.046953
 490	2.4450e-01	19.5925	41.663103	0.000081	0.810912	0.274745	0.006500
 491	2.4500e-01	19.6182	41.817476	0.000385	3.851834	1.305037	0.030875
 492	2.4550e-01	19.6855	41.818758	0.000003	0.032010	0.010845	0.000257
 493	2.4600e-01	19.7048	41.596393	-0.000555	-5.548348	-1.879831	-0.044473
 494	2.4650e-01	19.7625	41.720405	0.000309	3.094271	1.048367	0.024802
 495	2.4700e-01	19.8059	41.820897	0.000251	2.507427	0.849539	0.020098
 496	2.4750e-01	19.8412	41.862376	0.000103	1.034980	0.350661	0.008296
 497	2.4800e-01	19.8748	42.078755	0.000540	5.398970	1.829221	0.043276
 498	2.4850e-01	19.9117	42.155727	0.000192	1.920582	0.650711	0.015395
 499	2.4900e-01	19.9454	42.321218	0.000413	4.129252	1.399028	0.033098
 500	2.4950e-01	20.0096	42.314804	-0.000016	-0.160049	-0.054226	-0.001283
 501	2.5000e-01	20.0208	42.277173	-0.000094	-0.938951	-0.318125	-0.007526
 502	2.5050e-01	19.9936	42.093722	0.000458	4.577387	1.550861	-0.036690
 503	2.5100e-01	19.9390	42.179247	-0.000213	-2.133980	-0.723012	0.017105
 504	2.5150e-01	19.9101	42.137339	0.000105	1.045650	0.354276	-0.008381
 505	2.5200e-01	19.8604	42.006914	0.000325	3.254320	1.102593	-0.026085
 506	2.5250e-01	19.8235	41.880764	0.000315	3.147621	1.066443	-0.025230
 507	2.5300e-01	19.7834	42.021025	-0.000350	-3.499727	-1.185740	0.028052
 508	2.5350e-01	19.7481	41.759746	0.000652	6.519309	2.208802	-0.052256
 509	2.5400e-01	19.6920	41.737937	0.000054	0.544165	0.184368	-0.004362
 510	2.5450e-01	19.6663	41.849120	-0.000277	-2.774174	-0.939916	0.022237
 511	2.5500e-01	19.6326	41.731095	0.000294	2.944893	0.997757	-0.023605
 512	2.5550e-01	19.5877	41.588268	0.000356	3.563747	1.207430	-0.028565
 513	2.5600e-01	19.5267	41.657544	-0.000173	-1.728524	-0.585640	0.013855
 514	2.5650e-01	19.5107	41.616492	0.000102	1.024310	0.347046	-0.008210
 515	2.5700e-01	19.4609	41.456988	0.000398	3.979873	1.348417	-0.031901
 516	2.5750e-01	19.4289	41.415508	0.000103	1.034980	0.350661	-0.008296
 517	2.5800e-01	19.4096	41.187584	0.000569	5.687057	1.926827	-0.045585
 518	2.5850e-01	19.3390	41.149953	0.000094	0.938951	0.318125	-0.007526
 519	2.5900e-01	19.3053	41.166630	-0.000042	-0.416126	-0.140987	0.003335
 520	2.5950e-01	19.2749	41.012257	0.000385	3.851834	1.305037	-0.030875
 521	2.6000e-01	19.2251	41.162781	-0.000376	-3.755805	-1.272501	0.030105
 522	2.6050e-01	19.1706	40.991304	0.000428	4.278630	1.449639	-0.034296
 523	2.6100e-01	19.1417	41.028935	-0.000094	-0.938951	-0.318125	0.007526
 524	2.6150e-01	19.1080	40.790747	0.000594	5.943135	2.013589	-0.047637
 525	2.6200e-01	19.0759	40.800583	-0.000025	-0.245408	-0.083146	0.001967
 526	2.6250e-01	19.0182	40.711209	0.000223	2.230009	0.755548	-0.017875
 527	2.6300e-01	18.9829	40.648348	0.000157	1.568475	0.531414	-0.012572
 528	2.6350e-01	18.9364	40.591474	0.000142	1.419097	0.480803	-0.011375
 529	2.6400e-01	18.8995	40.423845	0.000418	4.182601	1.417104	-0.033526
 530	2.6450e-01	18.8545	40.406740	0.000043	0.426796	0.144602	-0.003421
 531	2.6500e-01	18.8305	40.426411	-0.000049	-0.490815	-0.166293	0.003934
 532	2.6550e-01	18.7791	40.439239	-0.000032	-0.320097	-0.108452	0.002566
 533	2.6600e-01	18.7711	40.303682	0.000338	3.382359	1.145974	-0.027111
 534	2.6650e-01	18.7021	40.245953	0.000144	1.440437	0.488033	-0.011546
 535	2.6700e-01	18.6669	40.114244	0.000329	3.286329	1.113439	-0.026342
 536	2.6750e-01	18.6300	39.972273	0.000354	3.542407	1.200200	-0.028394
 537	2.6800e-01	18.5674	39.876484	0.000239	2.390058	0.809774	-0.019158
 538	2.6850e-01	18.5417	39.957306	-0.000202	-2.016611	-0.683246	0.016164
 539	2.6900e-01	18.4920	39.952174	0.000013	0.128039	0.043381	-0.001026
 540	2.6950e-01	18.4679	39.998785	-0.000116	-1.163019	-0.394042	0.009322
 541	2.7000e-01	18.3957	39.786683	0.000529	5.292271	1.793070	-0.042420
 542	2.7050e-01	18.3877	39.840564	-0.000134	-1.344408	-0.455498	0.010776
 543	2.7100e-01	18.3572	39.589120	0.000627	6.273902	2.125655	-0.050289
 544	2.7150e-01	18.2883	39.485207	0.000259	2.592786	0.878460	-0.020783
 545	2.7200e-01	18.2770	39.510865	-0.000064	-0.640194	-0.216904	0.005132
 546	2.7250e-01	18.2449	39.239323	0.000678	6.775387	2.295563	-0.054308
 547	2.7300e-01	18.1744	39.299618	-0.000150	-1.504456	-0.509724	0.012059
 548	2.7350e-01	18.1487	39.287644	0.000030	0.298757	0.101222	-0.002395
 549	2.7400e-01	18.1086	39.214521	0.000182	1.824553	0.618175	-0.014625
 550	2.7450e-01	18.0605	39.327841	-0.000283	-2.827524	-0.957991	0.022664
 551	2.7500e-01	18.0011	39.049457	0.000695	6.946105	2.353404	-0.055677
 552	2.7550e-01	17.9786	39.042615	0.000017	0.170718	0.057841	-0.001368
 553	2.7600e-01	17.9321	38.972485	0.000175	1.749864	0.592870	-0.014026
 554	2.7650e-01	17.9016	38.913900	0.000146	1.461776	0.495263	-0.011717
 555	2.7700e-01	17.8695	38.904492	0.000023	0.234738	0.079531	-0.001882
 556	2.7750e-01	17.8327	38.842059	0.000156	1.557806	0.527799	-0.012487
 557	2.7800e-01	17.7733	38.671009	0.000427	4.267960	1.446024	-0.034210
 558	2.7850e-01	17.7460	38.688969	-0.000045	-0.448136	-0.151833	0.003592
 559	2.7900e-01	17.7011	38.483281	0.000513	5.132222	1.738844	-0.041138
 560	2.7950e-01	17.6626	38.465321	0.000045	0.448136	0.151833	-0.003592
 561	2.8000e-01	17.6161	38.350718	0.000286	2.859533	0.968836	-0.022921
 562	2.8050e-01	17.5888	38.356277	-0.000014	-0.138709	-0.046996	0.001112
 563	2.8100e-01	17.5439	38.290850	0.000163	1.632495	0.553104	-0.013085
 564	2.8150e-01	17.4861	38.302823	-0.000030	-0.298757	-0.101222	0.002395
 565	2.8200e-01	17.4573	38.273745	0.000073	0.725553	0.245824	-0.005816
 566	2.8250e-01	17.4252	38.135622	0.000345	3.446378	1.167664	-0.027625
 567	2.8300e-01	17.3787	37.992368	0.000357	3.574417	1.211045	-0.028651
 568	2.8350e-01	17.3546	37.877336	0.000287	2.870203	0.972451	-0.023006
 569	2.8400e-01	17.2968	37.859804	0.000044	0.437466	0.148217	-0.003507
 570	2.8450e-01	17.2567	37.855955	0.000010	0.096029	0.032536	-0.000770
 571	2.8500e-01	17.2230	37.645991	0.000524	5.238921	1.774995	-0.041993
 572	2.8550e-01	17.2070	37.683622	-0.000094	-0.938951	-0.318125	0.007526
 573	2.8600e-01	17.1348	37.567736	0.000289	2.891543	0.979681	-0.023177
 574	2.8650e-01	17.1172	37.599380	-0.000079	-0.789573	-0.267514	0.006329
 575	2.8700e-01	17.0690	37.532243	0.000168	1.675174	0.567564	-0.013427
 576	2.8750e-01	17.0113	37.467671	0.000161	1.611155	0.545874	-0.012914
 577	2.8800e-01	16.9776	37.472375	-0.000012	-0.117369	-0.039766	0.000941
 578	2.8850e-01	16.9487	37.315437	0.000392	3.915854	1.326727	-0.031388
 579	2.8900e-01	16.9054	37.186294	0.000322	3.222310	1.091748	-0.025829
 580	2.8950e-01	16.8525	37.140966	0.000113	1.131009	0.383196	-0.009066
 581	2.9000e-01	16.8380	37.233333	-0.000230	-2.304699	-0.780853	0.018473
 582	2.9050e-01	16.7899	36.889522	0.000858	8.578600	2.906508	-0.068762
 583	2.9100e-01	16.7321	36.787320	0.000255	2.550106	0.863999	-0.020440
 584	2.9150e-01	16.6953	36.836924	-0.000124	-1.237709	-0.419347	0.009921
 585	2.9200e-01	16.6840	36.773208	0.000159	1.589815	0.538644	-0.012743
 586	2.9250e-01	16.6199	36.571796	0.000503	5.025523	1.702693	-0.040282
 587	2.9300e-01	16.5669	36.663308	-0.000228	-2.283359	-0.773623	0.018302
 588	2.9350e-01	16.5412	36.448213	0.000537	5.366960	1.818375	-0.043019
 589	2.9400e-01	16.4995	36.391338	0.000142	1.419097	0.480803	-0.011375
 590	2.9450e-01	16.4723	36.401174	-0.000025	-0.245408	-0.083146	0.001967
 591	2.9500e-01	16.4209	36.443936	-0.000107	-1.066990	-0.361506	0.008553
 592	2.9550e-01	16.3664	36.121507	0.000805	8.045105	2.725755	-0.064486
 593	2.9600e-01	16.3744	36.130915	0.000023	0.234738	0.079531	0.001882
 594	2.9650e-01	16.2990	36.012890	0.000294	2.944893	0.997757	-0.023605
 595	2.9700e-01	16.2557	36.100553	-0.000219	-2.187330	-0.741087	0.017533
 596	2.9750e-01	16.1915	36.050094	0.000126	1.259048	0.426577	-0.010092
 597	2.9800e-01	16.1771	36.048383	0.000004	0.042680	0.014460	-0.000342
 598	2.9850e-01	16.1578	35.927365	0.000302	3.019582	1.023062	-0.024204
 599	2.9900e-01	16.1001	35.834570	0.000232	2.315368	0.784468	-0.018559
 600	2.9950e-01	16.0552	35.784538	0.000125	1.248378	0.422962	-0.010006
 601	3.0000e-01	16.0343	35.539937	0.000610	6.103183	2.067814	-0.048920
 602	3.0050e-01	15.9589	35.607929	-0.000170	-1.696514	-0.574795	0.013598
 603	3.0100e-01	15.9332	35.382570	0.000562	5.623038	1.905137	-0.045072
 604	3.0150e-01	15.9028	35.522404	-0.000349	-3.489058	-1.182125	0.027967
 605	3.0200e-01	15.8643	35.442866	0.000198	1.984602	0.672401	-0.015908
 606	3.0250e-01	15.8033	35.319282	0.000308	3.083601	1.044752	-0.024717
 607	3.0300e-01	15.7824	35.385991	-0.000166	-1.664505	-0.563949	0.013342
 608	3.0350e-01	15.7536	35.188001	0.000494	4.940164	1.673773	-0.039598
 609	3.0400e-01	15.7022	35.160205	0.000069	0.693544	0.234979	-0.005559
 610	3.0450e-01	15.6766	34.989583	0.000426	4.257290	1.442409	-0.034124
 611	3.0500e-01	15.6156	35.009254	-0.000049	-0.490815	-0.166293	0.003934
 612	3.0550e-01	15.5723	35.040470	-0.000078	-0.778903	-0.263899	0.006243
 613	3.0600e-01	15.5562	34.714192	0.000814	8.141134	2.758291	-0.065256
 614	3.0650e-01	15.5129	34.579063	0.000337	3.371689	1.142359	-0.027026
 615	3.0700e-01	15.4568	34.617976	-0.000097	-0.970961	-0.328970	0.007783
 616	3.0750e-01	15.4199	34.490972	0.000317	3.168961	1.073673	-0.025401
 617	3.0800e-01	15.3942	34.622680	-0.000329	-3.286329	-1.113439	0.026342
 618	3.0850e-01	15.3333	34.363539	0.000647	6.465960	2.190727	-0.051828
 619	3.0900e-01	15.2964	34.540149	-0.000441	-4.406669	-1.493020	0.035322
 620	3.0950e-01	15.2899	34.094563	0.001112	11.118037	3.766893	-0.089117
 621	3.1000e-01	15.1985	34.382355	-0.000718	-7.180843	-2.432936	0.057558
 622	3.1050e-01	15.1776	34.206601	0.000439	4.385329	1.485790	-0.035151
 623	3.1100e-01	15.1568	34.143740	0.000157	1.568475	0.531414	-0.012572
 624	3.1150e-01	15.1103	33.964993	0.000446	4.460019	1.511095	-0.035749
 625	3.1200e-01	15.0766	33.856376	0.000271	2.710155	0.918225	-0.021723
 626	3.1250e-01	15.0188	33.776838	0.000198	1.984602	0.672401	-0.015908
 627	3.1300e-01	14.9723	33.848251	-0.000178	-1.781873	-0.603715	0.014283
 628	3.1350e-01	14.9434	33.696444	0.000379	3.787815	1.283346	-0.030361
 629	3.1400e-01	14.8969	33.793087	-0.000241	-2.411398	-0.817004	0.019329
 630	3.1450e-01	14.8696	33.662662	0.000325	3.254320	1.102593	-0.026085
 631	3.1500e-01	14.8311	33.554045	0.000271	2.710155	0.918225	-0.021723
 632	3.1550e-01	14.7782	33.434737	0.000298	2.976902	1.008602	-0.023861
 633	3.1600e-01	14.7525	33.287207	0.000368	3.681116	1.247196	-0.029506
 634	3.1650e-01	14.7140	33.341515	-0.000136	-1.355077	-0.459113	0.010862
 635	3.1700e-01	14.6675	33.151649	0.000474	4.737436	1.605087	-0.037973
 636	3.1750e-01	14.6194	33.069118	0.000206	2.059291	0.697707	-0.016506
 637	3.1800e-01	14.5777	33.173031	-0.000259	-2.592786	-0.878460	0.020783
 638	3.1850e-01	14.5440	33.035763	0.000343	3.425038	1.160434	-0.027454
 639	3.1900e-01	14.5087	32.935271	0.000251	2.507427	0.849539	-0.020098
 640	3.1950e-01	14.4590	32.869844	0.000163	1.632495	0.553104	-0.013085
 641	3.2000e-01	14.4301	32.698367	0.000428	4.278630	1.449639	-0.034296
 642	3.2050e-01	14.3852	32.708630	-0.000026	-0.256078	-0.086761	0.002053
 643	3.2100e-01	14.3274	32.552546	0.000389	3.894514	1.319497	-0.031217
 644	3.2150e-01	14.3114	32.424259	0.000320	3.200970	1.084518	-0.025658
 645	3.2200e-01	14.2472	32.575638	-0.000378	-3.777145	-1.279731	0.030276
 646	3.2250e-01	14.2279	32.434522	0.000352	3.521067	1.192970	-0.028223
 647	3.2300e-01	14.1702	32.296399	0.000345	3.446378	1.167664	-0.027625
 648	3.2350e-01	14.1269	32.305807	-0.000023	-0.234738	-0.079531	0.001882
 649	3.2400e-01	14.0932	32.272452	0.000083	0.832252	0.281975	-0.006671
 650	3.2450e-01	14.0643	32.139033	0.000333	3.329009	1.127899	-0.026684
 651	3.2500e-01	14.0082	32.182223	-0.000108	-1.077660	-0.365121	0.008638
 652	3.2550e-01	13.9857	32.069330	0.000282	2.816854	0.954376	-0.022579
 653	3.2600e-01	13.9488	31.961141	0.000270	2.699485	0.914610	-0.021638
 654	3.2650e-01	13.9103	31.885451	0.000189	1.888572	0.639866	-0.015138
 655	3.2700e-01	13.8782	31.613054	0.000680	6.796727	2.302793	-0.054479
 656	3.2750e-01	13.8189	31.543351	0.000174	1.739194	0.589255	-0.013941
 657	3.2800e-01	13.7900	31.802919	-0.000648	-6.476630	-2.194342	0.051914
 658	3.2850e-01	13.7451	31.447563	0.000887	8.866688	3.004115	-0.071071
 659	3.2900e-01	13.7050	31.495457	-0.000120	-1.195029	-0.404887	0.009579
 660	3.2950e-01	13.6633	31.293618	0.000504	5.036193	1.706308	-0.040368
 661	3.3000e-01	13.6103	31.313288	-0.000049	-0.490815	-0.166293	0.003934
 662	3.3050e-01	13.5911	31.380426	-0.000168	-1.675174	-0.567564	0.013427
 663	3.3100e-01	13.5349	31.051582	0.000821	8.205154	2.779981	-0.065769
 664	3.3150e-01	13.5141	31.033621	0.000045	0.448136	0.151833	-0.003592
 665	3.3200e-01	13.4579	31.198685	-0.000412	-4.118582	-1.395413	0.033013
 666	3.3250e-01	13.4435	30.975037	0.000558	5.580358	1.890677	-0.044730
 667	3.3300e-01	13.3777	30.852308	0.000306	3.062262	1.037522	-0.024546
 668	3.3350e-01	13.3568	30.747112	0.000262	2.624796	0.889305	-0.021039
 669	3.3400e-01	13.2895	30.503794	0.000607	6.071174	2.056969	-0.048664
 670	3.3450e-01	13.2622	30.754382	-0.000625	-6.252562	-2.118425	0.050118
 671	3.3500e-01	13.2205	30.642344	0.000280	2.795514	0.947146	-0.022408
 672	3.3550e-01	13.1467	30.568365	0.000185	1.845893	0.625405	-0.014796
 673	3.3600e-01	13.1451	30.478991	0.000223	2.230009	0.755548	-0.017875
 674	3.3650e-01	13.0986	30.343434	0.000338	3.382359	1.145974	-0.027111
 675	3.3700e-01	13.0472	30.265179	0.000195	1.952592	0.661556	-0.015651
 676	3.3750e-01	13.0280	30.234390	0.000077	0.768233	0.260284	-0.006158
 677	3.3800e-01	12.9815	30.095412	0.000347	3.467718	1.174895	-0.027796
 678	3.3850e-01	12.9413	29.857224	0.000594	5.943135	2.013589	-0.047637
 679	3.3900e-01	12.9044	29.936763	-0.000198	-1.984602	-0.672401	0.015908
 680	3.3950e-01	12.8435	29.814889	0.000304	3.040922	1.030292	-0.024375
 681	3.4000e-01	12.8290	29.890579	-0.000189	-1.888572	-0.639866	0.015138
 682	3.4050e-01	12.7841	29.870908	0.000049	0.490815	0.166293	-0.003934
 683	3.4100e-01	12.7360	29.696865	0.000434	4.342650	1.471330	-0.034809
 684	3.4150e-01	12.6815	29.653675	0.000108	1.077660	0.365121	-0.008638
 685	3.4200e-01	12.6670	29.600649	0.000132	1.323068	0.448267	-0.010605
 686	3.4250e-01	12.6398	29.377429	0.000557	5.569688	1.887061	-0.044644
 687	3.4300e-01	12.5868	29.337232	0.000100	1.002971	0.339816	-0.008039
 688	3.4350e-01	12.5275	29.208517	0.000321	3.211640	1.088133	-0.025743
 689	3.4400e-01	12.5066	29.239306	-0.000077	-0.768233	-0.260284	0.006158
 690	3.4450e-01	12.4649	29.049868	0.000473	4.726766	1.601472	-0.037888
 691	3.4500e-01	12.4136	28.967764	0.000205	2.048621	0.694092	-0.016421
 692	3.4550e-01	12.3895	29.184142	-0.000540	-5.398970	-1.829221	0.043276
 693	3.4600e-01	12.3430	28.789016	0.000986	9.858988	3.340316	-0.079025
 694	3.4650e-01	12.2997	28.811253	-0.000055	-0.554835	-0.187983	0.004447
 695	3.4700e-01	12.2644	28.761648	0.000124	1.237709	0.419347	-0.009921
 696	3.4750e-01	12.1986	28.833062	-0.000178	-1.781873	-0.603715	0.014283
 697	3.4800e-01	12.1890	28.653459	0.000448	4.481358	1.518325	-0.035921
 698	3.4850e-01	12.1424	28.458890	0.000485	4.854805	1.644852	-0.038914
 699	3.4900e-01	12.1280	28.392180	0.000166	1.664505	0.563949	-0.013342
 700	3.4950e-01	12.0719	28.283563	0.000271	2.710155	0.918225	-0.021723
 701	3.5000e-01	12.0301	28.220275	0.000158	1.579145	0.535029	-0.012658
 702	3.5050e-01	11.9981	28.186065	0.000085	0.853592	0.289205	-0.006842
 703	3.5100e-01	11.9419	28.233104	-0.000117	-1.173689	-0.397657	0.009408
 704	3.5150e-01	11.9050	28.087711	0.000363	3.627766	1.229120	-0.029079
 705	3.5200e-01	11.8874	27.799491	0.000719	7.191513	2.436551	-0.057644
 706	3.5250e-01	11.8344	27.866201	-0.000166	-1.664505	-0.563949	0.013342
 707	3.5300e-01	11.7735	27.853800	0.000031	0.309427	0.104837	-0.002480
 708	3.5350e-01	11.7478	27.580547	0.000682	6.818067	2.310024	-0.054651
 709	3.5400e-01	11.7045	27.621599	-0.000102	-1.024310	-0.347046	0.008210
 710	3.5450e-01	11.6548	27.478345	0.000357	3.574417	1.211045	-0.028651
 711	3.5500e-01	11.6227	27.441569	0.000092	0.917611	0.310895	-0.007355
 712	3.5550e-01	11.5826	27.474924	-0.000083	-0.832252	-0.281975	0.006671
 713	3.5600e-01	11.5344	27.313282	0.000403	4.033223	1.366493	-0.032328
 714	3.5650e-01	11.4975	27.147363	0.000414	4.139922	1.402643	-0.033184
 715	3.5700e-01	11.4478	27.191408	-0.000110	-1.099000	-0.372351	0.008809
 716	3.5750e-01	11.4302	27.197823	-0.000016	-0.160049	-0.054226	0.001283
 717	3.5800e-01	11.3772	27.006247	0.000478	4.780116	1.619547	-0.038315
 718	3.5850e-01	11.3708	26.769770	0.000590	5.900455	1.999128	-0.047295
 719	3.5900e-01	11.3050	26.883946	-0.000285	-2.848864	-0.965221	0.022835
 720	3.5950e-01	11.2745	26.836907	0.000117	1.173689	0.397657	-0.009408
 721	3.6000e-01	11.2184	26.689804	0.000367	3.670446	1.243581	-0.029421
 722	3.6050e-01	11.1895	26.650462	0.000098	0.981631	0.332586	-0.007868
 723	3.6100e-01	11.1446	26.540563	0.000274	2.742165	0.929070	-0.021980
 724	3.6150e-01	11.1238	26.238232	0.000754	7.543620	2.555848	-0.060466
 725	3.6200e-01	11.0612	26.436650	-0.000495	-4.950834	-1.677388	0.039684
 726	3.6250e-01	11.0211	26.245501	0.000477	4.769446	1.615932	-0.038230
 727	3.6300e-01	10.9697	26.275007	-0.000074	-0.736223	-0.249439	0.005901
 728	3.6350e-01	10.9617	26.142871	0.000330	3.296999	1.117054	-0.026427
 729	3.6400e-01	10.9040	26.006886	0.000339	3.393028	1.149589	-0.027197
 730	3.6450e-01	10.8607	26.047083	-0.000100	-1.002971	-0.339816	0.008039
 731	3.6500e-01	10.8157	25.928631	0.000296	2.955563	1.001372	-0.023690
 732	3.6550e-01	10.7837	25.863632	0.000162	1.621825	0.549489	-0.013000
 733	3.6600e-01	10.7500	25.695575	0.000419	4.193271	1.420719	-0.033611
 734	3.6650e-01	10.7002	25.661793	0.000084	0.842922	0.285590	-0.006756
 735	3.6700e-01	10.6569	25.499295	0.000405	4.054562	1.373723	-0.032500
 736	3.6750e-01	10.6505	25.475348	0.000060	0.597514	0.202443	-0.004789
 737	3.6800e-01	10.5976	25.417619	0.000144	1.440437	0.488033	-0.011546
 738	3.6850e-01	10.5591	25.141800	0.000688	6.882086	2.331714	-0.055164
 739	3.6900e-01	10.4965	25.109729	0.000080	0.800243	0.271130	-0.006414
 740	3.6950e-01	10.4628	25.321403	-0.000528	-5.281601	-1.789455	0.042335
 741	3.7000e-01	10.4516	25.072953	0.000620	6.199212	2.100350	-0.049690
 742	3.7050e-01	10.3858	25.074663	-0.000004	-0.042680	-0.014460	0.000342
 743	3.7100e-01	10.3505	24.928843	0.000364	3.638436	1.232736	-0.029164
 744	3.7150e-01	10.3040	24.839042	0.000224	2.240679	0.759163	-0.017960
 745	3.7200e-01	10.2655	24.686807	0.000380	3.798485	1.286961	-0.030447
 746	3.7250e-01	10.2045	24.677827	0.000022	0.224068	0.075916	-0.001796
 747	3.7300e-01	10.1949	24.700063	-0.000055	-0.554835	-0.187983	0.004447
 748	3.7350e-01	10.1371	24.588026	0.000280	2.795514	0.947146	-0.022408
 749	3.7400e-01	10.1035	24.486678	0.000253	2.528767	0.856769	-0.020269
 750	3.7450e-01	10.0601	24.424673	0.000155	1.547136	0.524184	-0.012401
 751	3.7500e-01	10.0313	24.296385	0.000320	3.200970	1.084518	-0.025658
 752	3.7550e-01	9.9831	24.146289	0.000375	3.745135	1.268886	-0.030019
 753	3.7600e-01	9.9414	24.117210	0.000073	0.725553	0.245824	-0.005816
 754	3.7650e-01	9.9029	24.127046	-0.000025	-0.245408	-0.083146	0.001967
 755	3.7700e-01	9.8596	23.857214	0.000673	6.732707	2.281103	-0.053966
 756	3.7750e-01	9.8259	23.890141	-0.000082	-0.821582	-0.278360	0.006585
 757	3.7800e-01	9.7858	23.771689	0.000296	2.955563	1.001372	-0.023690
 758	3.7850e-01	9.7489	23.672480	0.000248	2.475417	0.838694	-0.019842
 759	3.7900e-01	9.7120	23.577547	0.000237	2.368718	0.802543	-0.018987
 760	3.7950e-01	9.6767	23.458240	0.000298	2.976902	1.008602	-0.023861
 761	3.8000e-01	9.6238	23.390675	0.000169	1.685844	0.571180	-0.013513
 762	3.8050e-01	9.5757	23.400938	-0.000026	-0.256078	-0.086761	0.002053
 763	3.8100e-01	9.5340	23.354327	0.000116	1.163019	0.394042	-0.009322
 764	3.8150e-01	9.4826	23.134100	0.000549	5.494999	1.861756	-0.044045
 765	3.8200e-01	9.4794	22.971602	0.000405	4.054562	1.373723	-0.032500
 766	3.8250e-01	9.4265	23.098607	-0.000317	-3.168961	-1.073673	0.025401
 767	3.8300e-01	9.3848	22.932261	0.000415	4.150591	1.406258	-0.033269
 768	3.8350e-01	9.3559	22.914728	0.000044	0.437466	0.148217	-0.003507
 769	3.8400e-01	9.3174	22.763349	0.000378	3.777145	1.279731	-0.030276
 770	3.8450e-01	9.2532	22.653449	0.000274	2.742165	0.929070	-0.021980
 771	3.8500e-01	9.2404	22.611542	0.000105	1.045650	0.354276	-0.008381
 772	3.8550e-01	9.1955	22.466149	0.000363	3.627766	1.229120	-0.029079
 773	3.8600e-01	9.1313	22.596575	-0.000325	-3.254320	-1.102593	0.026085
 774	3.8650e-01	9.0928	22.405854	0.000476	4.758776	1.612317	-0.038144
 775	3.8700e-01	9.0703	22.354111	0.000129	1.291058	0.437422	-0.010349
 776	3.8750e-01	9.0238	22.159542	0.000485	4.854805	1.644852	-0.038914
 777	3.8800e-01	8.9869	22.024840	0.000336	3.361019	1.138744	-0.026940
 778	3.8850e-01	8.9260	22.057339	-0.000081	-0.810912	-0.274745	0.006500
 779	3.8900e-01	8.9308	21.988064	-0.000173	-1.728524	-0.585640	-0.013855
 780	3.8950e-01	8.8570	21.755436	0.000580	5.804426	1.966593	-0.046526
 781	3.9000e-01	8.8233	21.796060	-0.000101	-1.013641	-0.343431	0.008125
 782	3.9050e-01	8.7880	21.675042	0.000302	3.019582	1.023062	-0.024204
 783	3.9100e-01	8.7286	21.628004	0.000117	1.173689	0.397657	-0.009408
 784	3.9150e-01	8.6885	21.365869	0.000654	6.540649	2.216032	-0.052427
 785	3.9200e-01	8.6580	21.380836	-0.000037	-0.373447	-0.126527	0.002993
 786	3.9250e-01	8.6340	21.334225	0.000116	1.163019	0.394042	-0.009322
 787	3.9300e-01	8.5842	21.258963	0.000188	1.877903	0.636251	-0.015052
 788	3.9350e-01	8.5425	21.116136	0.000356	3.563747	1.207430	-0.028565
 789	3.9400e-01	8.4864	21.052420	0.000159	1.589815	0.538644	-0.012743
 790	3.9450e-01	8.4639	20.979724	0.000181	1.813883	0.614560	-0.014539
 791	3.9500e-01	8.4254	20.882653	0.000242	2.422068	0.820619	-0.019414
 792	3.9550e-01	8.3661	20.973309	-0.000226	-2.262019	-0.766393	0.018131
 793	3.9600e-01	8.3228	20.888212	0.000212	2.123310	0.719397	-0.017019
 794	3.9650e-01	8.3067	20.672689	0.000538	5.377630	1.821990	-0.043105
 795	3.9700e-01	8.2442	20.593150	0.000198	1.984602	0.672401	-0.015908
 796	3.9750e-01	8.2089	20.626933	-0.000084	-0.842922	-0.285590	0.006756
 797	3.9800e-01	8.1752	20.456310	0.000426	4.257290	1.442409	-0.034124
 798	3.9850e-01	8.1431	20.311773	0.000361	3.606427	1.221890	-0.028907
 799	3.9900e-01	8.1030	20.080000	0.000578	5.783086	1.959363	-0.046355
 800	3.9950e-01	8.0613	20.142861	-0.000157	-1.568475	-0.531414	0.012572
 801	4.0000e-01	8.0292	20.073158	0.000174	1.739194	0.589255	-0.013941
 802	4.0050e-01	7.9891	19.852931	0.000549	5.494999	1.861756	-0.044045
 803	4.0100e-01	7.9602	19.791781	0.000153	1.525796	0.516954	-0.012230
 804	4.0150e-01	7.9057	19.655368	0.000340	3.403698	1.153204	-0.027282
 805	4.0200e-01	7.8495	19.788787	-0.000333	-3.329009	-1.127899	0.026684
 806	4.0250e-01	7.8030	19.849510	-0.000152	-1.515126	-0.513339	0.012145
 807	4.0300e-01	7.8078	19.602770	-0.000616	-6.156533	-2.085890	-0.049348
 808	4.0350e-01	7.7372	19.392806	0.000524	5.238921	1.774995	-0.041993
 809	4.0400e-01	7.7099	19.363300	0.000074	0.736223	0.249439	-0.005901
 810	4.0450e-01	7.6666	19.280341	0.000207	2.069961	0.701322	-0.016592
 811	4.0500e-01	7.6265	19.195671	0.000211	2.112640	0.715782	-0.016934
 812	4.0550e-01	7.5768	19.241427	-0.000114	-1.141679	-0.386811	0.009151
 813	4.0600e-01	7.5367	19.014358	0.000567	5.665717	1.919597	-0.045414
 814	4.0650e-01	7.5142	18.776171	0.000594	5.943135	2.013589	-0.047637
 815	4.0700e-01	7.4661	18.991694	-0.000538	-5.377630	-1.821990	0.043105
 816	4.0750e-01	7.4420	18.759493	0.000579	5.793756	1.962978	-0.046440
 817	4.0800e-01	7.3827	18.576470	0.000457	4.566718	1.547246	-0.036605
 818	4.0850e-01	7.3522	18.728704	-0.000380	-3.798485	-1.286961	0.030447
 819	4.0900e-01	7.2848	18.657718	0.000177	1.771204	0.600100	-0.014197
 820	4.0950e-01	7.2640	18.558937	0.000246	2.464747	0.835079	-0.019756
 821	4.1000e-01	7.2383	18.351111	0.000519	5.185572	1.756919	-0.041565
 822	4.1050e-01	7.1773	18.399860	-0.000122	-1.216369	-0.412117	0.009750
 823	4.1100e-01	7.1581	18.129174	0.000675	6.754047	2.288333	-0.054137
 824	4.1150e-01	7.0827	18.304928	-0.000439	-4.385329	-1.485790	0.035151
 825	4.1200e-01	7.0506	18.013287	0.000728	7.276872	2.465471	-0.058328
 826	4.1250e-01	7.0121	17.941446	0.000179	1.792543	0.607330	-0.014368
 827	4.1300e-01	6.9848	17.584807	0.000890	8.898697	3.014960	-0.071328
 828	4.1350e-01	6.9511	17.854210	-0.000672	-6.722038	-2.277488	0.053881
 829	4.1400e-01	6.8950	17.526650	0.000817	8.173144	2.769136	-0.065512
 830	4.1450e-01	6.8517	17.625003	-0.000245	-2.454077	-0.831464	0.019671
 831	4.1500e-01	6.8501	17.367145	0.000643	6.433950	2.179881	-0.051572
 832	4.1550e-01	6.7859	17.341488	0.000064	0.640194	0.216904	-0.005132
 833	4.1600e-01	6.7618	17.124682	0.000541	5.409640	1.832836	-0.043361
 834	4.1650e-01	6.6977	17.141787	-0.000043	-0.426796	-0.144602	0.003421
 835	4.1700e-01	6.6656	17.146918	-0.000013	-0.128039	-0.043381	0.001026
 836	4.1750e-01	6.6223	16.950211	0.000491	4.908154	1.662928	-0.039342
 837	4.1800e-01	6.5709	16.883073	0.000168	1.675174	0.567564	-0.013427
 838	4.1850e-01	6.5372	16.913435	-0.000076	-0.757563	-0.256669	0.006072
 839	4.1900e-01	6.5180	16.686793	0.000566	5.655047	1.915982	-0.045328
 840	4.1950e-01	6.4907	16.295944	0.000975	9.752289	3.304165	-0.078170
 841	4.2000e-01	6.4025	16.494790	-0.000496	-4.961504	-1.681003	0.039769
 842	4.2050e-01	6.3704	16.672682	-0.000444	-4.438679	-1.503865	0.035578
 843	4.2100e-01	6.3287	16.448606	0.000559	5.591028	1.894292	-0.044815
 844	4.2150e-01	6.2998	16.229234	0.000547	5.473659	1.854526	-0.043874
 845	4.2200e-01	6.2677	16.157821	0.000178	1.781873	0.603715	-0.014283
 846	4.2250e-01	6.2228	16.010290	0.000368	3.681116	1.247196	-0.029506
 847	4.2300e-01	6.2004	16.215978	-0.000513	-5.132222	-1.738844	0.041138
 848	4.2350e-01	6.1298	16.078710	0.000343	3.425038	1.160434	-0.027454
 849	4.2400e-01	6.1121	15.743024	0.000838	8.375872	2.837822	-0.067137
 850	4.2450e-01	6.0736	15.623717	0.000298	2.976902	1.008602	-0.023861
 851	4.2500e-01	6.0367	15.630559	-0.000017	-0.170718	-0.057841	0.001368
 852	4.2550e-01	5.9886	15.532633	0.000244	2.443407	0.827849	-0.019585
 853	4.2600e-01	5.9405	15.411187	0.000303	3.030252	1.026677	-0.024289
 854	4.2650e-01	5.8988	15.395793	0.000038	0.384116	0.130142	-0.003079
 855	4.2700e-01	5.8522	15.252538	0.000357	3.574417	1.211045	-0.028651
 856	4.2750e-01	5.8282	15.419312	-0.000416	-4.161261	-1.409874	0.033355
 857	4.2800e-01	5.8041	14.963464	0.001137	11.374114	3.853654	-0.091170
 858	4.2850e-01	5.7496	15.087047	-0.000308	-3.083601	-1.044752	0.024717
 859	4.2900e-01	5.6950	14.821920	0.000662	6.615339	2.241337	-0.053026
 860	4.2950e-01	5.6678	14.810801	0.000028	0.277417	0.093992	-0.002224
 861	4.3000e-01	5.6341	14.740243	0.000176	1.760534	0.596485	-0.014112
 862	4.3050e-01	5.5699	14.674389	0.000164	1.643165	0.556719	-0.013171
 863	4.3100e-01	5.5571	14.416103	0.000644	6.444620	2.183496	-0.051657
 864	4.3150e-01	5.5073	14.363078	0.000132	1.323068	0.448267	-0.010605
 865	4.3200e-01	5.4624	14.433208	-0.000175	-1.749864	-0.592870	0.014026
 866	4.3250e-01	5.4319	14.332716	0.000251	2.507427	0.849539	-0.020098
 867	4.3300e-01	5.3902	14.137719	0.000487	4.865475	1.648467	-0.038999
 868	4.3350e-01	5.3373	14.004300	0.000333	3.329009	1.127899	-0.026684
 869	4.3400e-01	5.3068	13.956834	0.000118	1.184359	0.401272	-0.009493
 870	4.3450e-01	5.2555	13.936308	0.000051	0.512155	0.173523	-0.004105
 871	4.3500e-01	5.2298	13.626279	0.000774	7.735678	2.620919	-0.062006
 872	4.3550e-01	5.1865	13.509538	0.000291	2.912883	0.986911	-0.023348
 873	4.3600e-01	5.1287	13.695127	-0.000463	-4.630737	-1.568936	0.037118
 874	4.3650e-01	5.1015	13.418881	0.000689	6.892756	2.335329	-0.055249
 875	4.3700e-01	5.0870	13.473617	-0.000137	-1.365747	-0.462728	0.010947
 876	4.3750e-01	5.0293	13.314968	0.000396	3.958533	1.341187	-0.031730
 877	4.3800e-01	4.9924	13.171286	0.000359	3.585087	1.214660	-0.028736
 878	4.3850e-01	4.9426	13.028459	0.000356	3.563747	1.207430	-0.028565
 879	4.3900e-01	4.9057	13.009216	0.000048	0.480146	0.162678	-0.003849
 880	4.3950e-01	4.8753	12.963033	0.000115	1.152349	0.390427	-0.009237
 881	4.4000e-01	4.8271	12.712872	0.000624	6.241892	2.114810	-0.050032
 882	4.4050e-01	4.7790	12.766753	-0.000134	-1.344408	-0.455498	0.010776
 883	4.4100e-01	4.7405	12.687642	0.000197	1.973932	0.668786	-0.015822
 884	4.4150e-01	4.6892	12.486658	0.000501	5.014853	1.699078	-0.040197
 885	4.4200e-01	4.6426	12.392153	0.000236	2.358048	0.798928	-0.018901
 886	4.4250e-01	4.6250	12.444751	-0.000131	-1.312398	-0.444652	0.010520
 887	4.4300e-01	4.5673	12.421659	0.000058	0.576175	0.195213	-0.004618
 888	4.4350e-01	4.5320	12.245905	0.000439	4.385329	1.485790	-0.035151
 889	4.4400e-01	4.5079	12.056039	0.000474	4.737436	1.605087	-0.037973
 890	4.4450e-01	4.4790	11.913640	0.000355	3.553077	1.203815	-0.028480
 891	4.4500e-01	4.4293	11.865746	0.000120	1.195029	0.404887	-0.009579
 892	4.4550e-01	4.3988	11.705814	0.000399	3.990543	1.352033	-0.031986
 893	4.4600e-01	4.3330	11.537758	0.000419	4.193271	1.420719	-0.033611
 894	4.4650e-01	4.3026	11.722064	-0.000460	-4.598727	-1.558091	0.036861
 895	4.4700e-01	4.2737	11.509107	0.000531	5.313611	1.800300	-0.042591
 896	4.4750e-01	4.2288	11.369701	0.000348	3.478388	1.178510	-0.027881
 897	4.4800e-01	4.1726	11.305129	0.000161	1.611155	0.545874	-0.012914
 898	4.4850e-01	4.1502	11.162303	0.000356	3.563747	1.207430	-0.028565
 899	4.4900e-01	4.1149	11.032304	0.000324	3.243650	1.098978	-0.026000
 900	4.4950e-01	4.0828	10.962602	0.000174	1.739194	0.589255	-0.013941
 901	4.5000e-01	4.0202	10.963457	-0.000002	-0.021340	-0.007230	0.000171
 902	4.5050e-01	3.9881	10.796255	0.000417	4.171931	1.413489	-0.033440
 903	4.5100e-01	3.9576	10.800532	-0.000011	-0.106699	-0.036151	0.000855
 904	4.5150e-01	3.9079	10.536259	0.000659	6.593999	2.234107	-0.052854
 905	4.5200e-01	3.8518	10.469122	0.000168	1.675174	0.567564	-0.013427
 906	4.5250e-01	3.8341	10.387446	0.000204	2.037951	0.690477	-0.016335
 907	4.5300e-01	3.7844	10.333565	0.000134	1.344408	0.455498	-0.010776
 908	4.5350e-01	3.7443	10.290802	0.000107	1.066990	0.361506	-0.008553
 909	4.5400e-01	3.6897	10.180903	0.000274	2.742165	0.929070	-0.021980
 910	4.5450e-01	3.6512	9.952123	0.000571	5.708397	1.934057	-0.045756
 911	4.5500e-01	3.6288	9.747291	0.000511	5.110883	1.731614	-0.040967
 912	4.5550e-01	3.5839	9.915347	-0.000419	-4.193271	-1.420719	0.033611
 913	4.5600e-01	3.5438	9.595056	0.000799	7.991756	2.707680	-0.064058
 914	4.5650e-01	3.4988	9.608740	-0.000034	-0.341437	-0.115682	0.002737
 915	4.5700e-01	3.4619	9.577951	0.000077	0.768233	0.260284	-0.006158
 916	4.5750e-01	3.4138	9.294863	0.000706	7.063474	2.393170	-0.056618
 917	4.5800e-01	3.3833	9.489860	-0.000487	-4.865475	-1.648467	0.038999
 918	4.5850e-01	3.3400	9.128517	0.000902	9.016066	3.054726	-0.072269
 919	4.5900e-01	3.2999	9.097728	0.000077	0.768233	0.260284	-0.006158
 920	4.5950e-01	3.2742	8.991677	0.000265	2.646135	0.896535	-0.021210
 921	4.6000e-01	3.2053	8.766746	0.000561	5.612368	1.901522	-0.044986
 922	4.6050e-01	3.1892	8.801811	-0.000087	-0.874932	-0.296435	0.007013
 923	4.6100e-01	3.1427	8.782568	0.000048	0.480146	0.162678	-0.003849
 924	4.6150e-01	3.0914	8.589281	0.000482	4.822795	1.634007	-0.038657
 925	4.6200e-01	3.0609	8.501618	0.000219	2.187330	0.741087	-0.017533
 926	4.6250e-01	3.0031	8.587571	-0.000214	-2.144650	-0.726627	0.017191
 927	4.6300e-01	2.9887	8.245471	0.000854	8.535921	2.892048	-0.068420
 928	4.6350e-01	2.9422	8.159090	0.000216	2.155320	0.730242	-0.017276
 929	4.6400e-01	2.9069	8.094091	0.000162	1.621825	0.549489	-0.013000
 930	4.6450e-01	2.8668	8.037217	0.000142	1.419097	0.480803	-0.011375
 931	4.6500e-01	2.8138	7.917910	0.000298	2.976902	1.008602	-0.023861
 932	4.6550e-01	2.7801	7.860608	0.000143	1.429767	0.484418	-0.011460
 933	4.6600e-01	2.7320	7.579658	0.000701	7.010125	2.375095	-0.056190
 934	4.6650e-01	2.7015	7.539034	0.000101	1.013641	0.343431	-0.008125
 935	4.6700e-01	2.6678	7.491995	0.000117	1.173689	0.397657	-0.009408
 936	4.6750e-01	2.6390	7.335484	0.000391	3.905184	1.323112	-0.031302
 937	4.6800e-01	2.5844	7.161868	0.000433	4.331980	1.467714	-0.034723
 938	4.6850e-01	2.5251	7.262788	-0.000252	-2.518097	-0.853154	0.020184
 939	4.6900e-01	2.4994	7.014765	0.000619	6.188543	2.096735	-0.049605
 940	4.6950e-01	2.4545	7.054962	-0.000100	-1.002971	-0.339816	0.008039
 941	4.7000e-01	2.4144	6.718848	0.000839	8.386542	2.841437	-0.067223
 942	4.7050e-01	2.3999	6.709441	0.000023	0.234738	0.079531	-0.001882
 943	4.7100e-01	2.3390	6.525989	0.000458	4.577387	1.550861	-0.036690
 944	4.7150e-01	2.2892	6.608093	-0.000205	-2.048621	-0.694092	0.016421
 945	4.7200e-01	2.2588	6.360498	0.000618	6.177873	2.093120	-0.049519
 946	4.7250e-01	2.2363	6.326716	0.000084	0.842922	0.285590	-0.006756
 947	4.7300e-01	2.1914	6.193297	0.000333	3.329009	1.127899	-0.026684
 948	4.7350e-01	2.1449	6.030372	0.000407	4.065232	1.377338	-0.032585
 949	4.7400e-01	2.0967	5.869585	0.000401	4.011883	1.359263	-0.032157
 950	4.7450e-01	2.0614	5.925603	-0.000140	-1.397757	-0.473573	0.011204
 951	4.7500e-01	2.0181	5.762251	0.000408	4.075902	1.380953	-0.032671
 952	4.7550e-01	1.9844	5.763533	-0.000003	-0.032010	-0.010845	0.000257
 953	4.7600e-01	1.9347	5.472321	0.000727	7.266203	2.461856	-0.058243
 954	4.7650e-01	1.9106	5.520642	-0.000121	-1.205699	-0.408502	0.009664
 955	4.7700e-01	1.8721	5.271764	0.000621	6.209882	2.103965	-0.049776
 956	4.7750e-01	1.8272	5.482584	-0.000526	-5.260261	-1.782225	0.042164
 957	4.7800e-01	1.7775	5.154595	0.000818	8.183814	2.772751	-0.065598
 958	4.7850e-01	1.7534	5.024169	0.000325	3.254320	1.102593	-0.026085
 959	4.7900e-01	1.6941	4.994236	0.000075	0.746893	0.253054	-0.005987
 960	4.7950e-01	1.6524	4.890750	0.000258	2.582116	0.874845	-0.020697
 961	4.8000e-01	1.6235	4.692760	0.000494	4.940164	1.673773	-0.039598
 962	4.8050e-01	1.5705	4.754338	-0.000154	-1.536466	-0.520569	0.012316
 963	4.8100e-01	1.5433	4.530262	0.000559	5.591028	1.894292	-0.044815
 964	4.8150e-01	1.4775	4.602103	-0.000179	-1.792543	-0.607330	0.014368
 965	4.8200e-01	1.4486	4.277108	0.000811	8.109125	2.747446	-0.064999
 966	4.8250e-01	1.4069	4.222800	0.000136	1.355077	0.459113	-0.010862
 967	4.8300e-01	1.3700	3.947409	0.000687	6.871416	2.328099	-0.055078
 968	4.8350e-01	1.3331	4.006421	-0.000147	-1.472446	-0.498878	0.011802
 969	4.8400e-01	1.3219	3.834088	0.000430	4.299970	1.456869	-0.034467
 970	4.8450e-01	1.2609	3.704945	0.000322	3.222310	1.091748	-0.025829
 971	4.8500e-01	1.2112	3.658762	0.000115	1.152349	0.390427	-0.009237
 972	4.8550e-01	1.1775	3.483435	0.000437	4.374659	1.482175	-0.035065
 973	4.8600e-01	1.1534	3.314951	0.000420	4.203941	1.424334	-0.033697
 974	4.8650e-01	1.1069	3.390641	-0.000189	-1.888572	-0.639866	0.015138
 975	4.8700e-01	1.0668	3.132783	0.000643	6.433950	2.179881	-0.051572
 976	4.8750e-01	1.0187	3.093014	0.000099	0.992301	0.336201	-0.007954
 977	4.8800e-01	0.9786	2.889036	0.000509	5.089543	1.724384	-0.040795
 978	4.8850e-01	0.9240	2.877063	0.000030	0.298757	0.101222	-0.002395
 979	4.8900e-01	0.8968	2.735519	0.000353	3.531737	1.196585	-0.028309
 980	4.8950e-01	0.8663	2.551640	0.000459	4.588057	1.554476	-0.036776
 981	4.9000e-01	0.8069	2.506312	0.000113	1.131009	0.383196	-0.009066
 982	4.9050e-01	0.7684	2.471674	0.000086	0.864262	0.292820	-0.006928
 983	4.9100e-01	0.7396	2.097502	0.000934	9.336163	3.163178	-0.074834
 984	4.9150e-01	0.6882	2.160363	-0.000157	-1.568475	-0.531414	0.012572
 985	4.9200e-01	0.6545	2.020102	0.000350	3.499727	1.185740	-0.028052
 986	4.9250e-01	0.6465	1.844348	0.000439	4.385329	1.485790	-0.035151
 987	4.9300e-01	0.5984	1.754974	0.000223	2.230009	0.755548	-0.017875
 988	4.9350e-01	0.5454	1.627542	0.000318	3.179630	1.077288	-0.025486
 989	4.9400e-01	0.4925	1.630535	-0.000007	-0.074689	-0.025305	0.000599
 990	4.9450e-01	0.4620	1.468038	0.000405	4.054562	1.373723	-0.032500
 991	4.9500e-01	0.4203	1.365408	0.000256	2.560776	0.867614	-0.020526
 992	4.9550e-01	0.3818	1.312382	0.000132	1.323068	0.448267	-0.010605
 993	4.9600e-01	0.3449	1.149884	0.000405	4.054562	1.373723	-0.032500
 994	4.9650e-01	0.2904	1.065215	0.000211	2.112640	0.715782	-0.016934
 995	4.9700e-01	0.2856	0.901862	0.000408	4.075902	1.380953	-0.032671
 996	4.9750e-01	0.2246	0.742357	0.000398	3.979873	1.348417	-0.031901
 997	4.9800e-01	0.1797	0.789396	-0.000117	-1.173689	-0.397657	0.009408
 998	4.9850e-01	0.1396	0.561044	0.000570	5.697727	1.930442	-0.045670
 999	4.9900e-01	0.1059	0.495618	0.000163	1.632495	0.553104	-0.013085
1000	4.9950e-01	0.0465	0.322857	0.000431	4.310640	1.460484	-0.034552
1001	5.0000e-01	0.0594	-0.014967	-0.000843	-8.429222	-2.855898	-0.067565
1002	5.0050e-01	0.0048	-0.026085	0.000028	0.277417	0.093992	-0.002224
1003	5.0100e-01	-0.0513	0.005987	-0.000080	-0.800243	-0.271130	0.006414
1004	5.0150e-01	-0.0946	-0.047894	0.000134	1.344408	0.455498	-0.010776
1005	5.0200e-01	-0.1508	-0.095360	0.000118	1.184359	0.401272	-0.009493
1006	5.0250e-01	-0.1845	-0.266411	0.000427	4.267960	1.446024	-0.034210
1007	5.0300e-01	-0.2166	-0.375883	0.000273	2.731495	0.925455	-0.021894
1008	5.0350e-01	-0.2679	-0.516571	0.000351	3.510397	1.189355	-0.028138
1009	5.0400e-01	-0.2888	-0.661964	0.000363	3.627766	1.229120	-0.029079
1010	5.0450e-01	-0.3433	-0.672655	0.000027	0.266748	0.090377	-0.002138
1011	5.0500e-01	-0.3674	-0.875777	0.000507	5.068203	1.717154	-0.040624
1012	5.0550e-01	-0.4059	-0.861665	-0.000035	-0.352107	-0.119297	0.002822
1013	5.0600e-01	-0.4524	-0.997222	0.000338	3.382359	1.145974	-0.027111
1014	5.0650e-01	-0.4909	-1.083175	0.000214	2.144650	0.726627	-0.017191
1015	5.0700e-01	-0.5230	-1.239258	0.000389	3.894514	1.319497	-0.031217
1016	5.0750e-01	-0.5888	-1.582214	0.000856	8.557261	2.899278	-0.068591
1017	5.0800e-01	-0.6273	-1.367973	-0.000535	-5.345620	-1.811145	0.042848
1018	5.0850e-01	-0.6609	-1.507807	0.000349	3.489058	1.182125	-0.027967
1019	5.0900e-01	-0.6834	-1.769941	0.000654	6.540649	2.216032	-0.052427
1020	5.0950e-01	-0.7476	-1.729744	-0.000100	-1.002971	-0.339816	0.008039
1021	5.1000e-01	-0.7861	-2.014970	0.000712	7.116824	2.411245	-0.057045
1022	5.1050e-01	-0.8166	-2.144968	0.000324	3.243650	1.098978	-0.026000
1023	5.1100e-01	-0.8358	-2.360919	0.000539	5.388300	1.825605	-0.043190
1024	5.1150e-01	-0.8679	-2.351511	-0.000023	-0.234738	-0.079531	0.001882
1025	5.1200e-01	-0.9321	-2.474240	0.000306	3.062262	1.037522	-0.024546
1026	5.1250e-01	-0.9802	-2.409668	-0.000161	-1.611155	-0.545874	0.012914
1027	5.1300e-01	-1.0107	-2.730387	0.000800	8.002426	2.711295	-0.064144
1028	5.1350e-01	-1.0476	-2.830879	0.000251	2.507427	0.849539	-0.020098
1029	5.1400e-01	-1.0700	-2.893313	0.000156	1.557806	0.527799	-0.012487
1030	5.1450e-01	-1.1358	-3.026304	0.000332	3.318339	1.124284	-0.026598
1031	5.1500e-01	-1.1984	-3.041271	0.000037	0.373447	0.126527	-0.002993
1032	5.1550e-01	-1.2128	-3.200348	0.000397	3.969203	1.344802	-0.031815
1033	5.1600e-01	-1.2561	-3.409456	0.000522	5.217582	1.767764	-0.041822
1034	5.1650e-01	-1.2866	-3.286728	-0.000306	-3.062262	-1.037522	0.024546
1035	5.1700e-01	-1.3219	-3.572382	0.000713	7.127494	2.414860	-0.057131
1036	5.1750e-01	-1.3716	-3.613861	0.000103	1.034980	0.350661	-0.008296
1037	5.1800e-01	-1.4133	-3.807575	0.000483	4.833465	1.637622	-0.038743
1038	5.1850e-01	-1.4518	-3.908067	0.000251	2.507427	0.849539	-0.020098
1039	5.1900e-01	-1.4855	-3.942277	0.000085	0.853592	0.289205	-0.006842
1040	5.1950e-01	-1.5417	-4.026947	0.000211	2.112640	0.715782	-0.016934
1041	5.2000e-01	-1.5754	-4.149248	0.000305	3.051592	1.033907	-0.024460
1042	5.2050e-01	-1.6074	-4.345100	0.000489	4.886815	1.655698	-0.039170
1043	5.2100e-01	-1.6572	-4.539242	0.000484	4.844135	1.641237	-0.038828
1044	5.2150e-01	-1.6957	-4.490065	-0.000123	-1.227039	-0.415732	0.009835
1045	5.2200e-01	-1.7133	-4.661971	0.000429	4.289300	1.453254	-0.034381
1046	5.2250e-01	-1.7903	-4.968150	0.000764	7.639649	2.588383	-0.061236
1047	5.2300e-01	-1.8208	-4.921539	-0.000116	-1.163019	-0.394042	0.009322
1048	5.2350e-01	-1.8449	-4.924960	0.000009	0.085359	0.028920	-0.000684
1049	5.2400e-01	-1.8882	-5.273475	0.000870	8.695969	2.946274	-0.069703
1050	5.2450e-01	-1.9042	-5.324790	0.000128	1.280388	0.433807	-0.010263
1051	5.2500e-01	-1.9411	-5.288014	-0.000092	-0.917611	-0.310895	0.007355
1052	5.2550e-01	-2.0069	-5.593766	0.000763	7.628979	2.584768	-0.061150
1053	5.2600e-01	-2.0743	-5.518077	-0.000189	-1.888572	-0.639866	0.015138
1054	5.2650e-01	-2.0967	-5.601463	0.000208	2.080631	0.704937	-0.016677
1055	5.2700e-01	-2.1256	-5.779356	0.000444	4.438679	1.503865	-0.035578
1056	5.2750e-01	-2.1705	-5.729323	-0.000125	-1.248378	-0.422962	0.010006
1057	5.2800e-01	-2.2106	-5.943564	0.000535	5.345620	1.811145	-0.042848
1058	5.2850e-01	-2.2363	-6.101785	0.000395	3.947863	1.337572	-0.031644
1059	5.2900e-01	-2.2796	-6.165501	0.000159	1.589815	0.538644	-0.012743
1060	5.2950e-01	-2.3310	-6.240336	0.000187	1.867233	0.632636	-0.014967
1061	5.3000e-01	-2.3759	-6.241191	0.000002	0.021340	0.007230	-0.000171
1062	5.3050e-01	-2.3999	-6.435333	0.000484	4.844135	1.641237	-0.038828
1063	5.3100e-01	-2.4641	-6.608949	0.000433	4.331980	1.467714	-0.034723
1064	5.3150e-01	-2.4978	-6.713717	0.000261	2.614126	0.885690	-0.020954
1065	5.3200e-01	-2.5090	-6.909997	0.000490	4.897485	1.659313	-0.039256
1066	5.3250e-01	-2.5748	-6.819768	-0.000225	-2.251349	-0.762778	0.018046
1067	5.3300e-01	-2.6037	-6.817202	-0.000006	-0.064019	-0.021690	0.000513
1068	5.3350e-01	-2.6566	-6.878780	0.000154	1.536466	0.520569	-0.012316
1069	5.3400e-01	-2.7063	-7.147329	0.000670	6.700698	2.270258	-0.053710
1070	5.3450e-01	-2.7192	-7.255518	0.000270	2.699485	0.914610	-0.021638
1071	5.3500e-01	-2.7609	-7.367128	0.000278	2.784844	0.943531	-0.022322
1072	5.3550e-01	-2.8026	-7.605316	0.000594	5.943135	2.013589	-0.047637
1073	5.3600e-01	-2.8539	-7.443673	-0.000403	-4.033223	-1.366493	0.032328
1074	5.3650e-01	-2.9069	-7.775083	0.000827	8.269173	2.801672	-0.066282
1075	5.3700e-01	-2.9309	-7.954685	0.000448	4.481358	1.518325	-0.035921
1076	5.3750e-01	-2.9710	-7.990606	0.000090	0.896272	0.303665	-0.007184
1077	5.3800e-01	-3.0192	-7.820411	-0.000425	-4.246621	-1.438794	0.034039
1078	5.3850e-01	-3.0561	-7.988895	0.000420	4.203941	1.424334	-0.033697
1079	5.3900e-01	-3.0865	-8.235635	0.000616	6.156533	2.085890	-0.049348
1080	5.3950e-01	-3.1363	-8.144551	-0.000227	-2.272689	-0.770008	0.018217
1081	5.4000e-01	-3.1812	-8.529414	0.000960	9.602911	3.253554	-0.076973
1082	5.4050e-01	-3.2020	-8.522144	-0.000018	-0.181388	-0.061456	0.001454
1083	5.4100e-01	-3.2486	-8.752634	0.000575	5.751077	1.948517	-0.046098
1084	5.4150e-01	-3.2855	-8.635465	-0.000292	-2.923553	-0.990527	0.023434
1085	5.4200e-01	-3.3256	-8.799245	0.000409	4.086572	1.384568	-0.032756
1086	5.4250e-01	-3.3897	-8.940789	0.000353	3.531737	1.196585	-0.028309
1087	5.4300e-01	-3.4042	-8.903158	-0.000094	-0.938951	-0.318125	0.007526
1088	5.4350e-01	-3.4427	-9.123385	0.000549	5.494999	1.861756	-0.044045
1089	5.4400e-01	-3.4844	-9.105853	-0.000044	-0.437466	-0.148217	0.003507
1090	5.4450e-01	-3.5133	-9.342757	0.000591	5.911125	2.002743	-0.047381
1091	5.4500e-01	-3.5726	-9.542458	0.000498	4.982844	1.688233	-0.039940
1092	5.4550e-01	-3.6127	-9.504399	-0.000095	-0.949621	-0.321740	0.007612
1093	5.4600e-01	-3.6496	-9.681864	0.000443	4.428009	1.500250	-0.035493
1094	5.4650e-01	-3.7026	-9.747718	0.000164	1.643165	0.556719	-0.013171
1095	5.4700e-01	-3.7427	-9.700252	-0.000118	-1.184359	-0.401272	0.009493
1096	5.4750e-01	-3.7732	-9.927321	0.000567	5.665717	1.919597	-0.045414
1097	5.4800e-01	-3.8213	-10.010280	0.000207	2.069961	0.701322	-0.016592
1098	5.4850e-01	-3.8630	-9.970511	-0.000099	-0.992301	-0.336201	0.007954
1099	5.4900e-01	-3.8774	-10.316887	0.000864	8.642620	2.928199	-0.069275
1100	5.4950e-01	-3.9304	-10.319026	0.000005	0.053350	0.018075	-0.000428
1101	5.5000e-01	-3.9737	-10.528134	0.000522	5.217582	1.767764	-0.041822
1102	5.5050e-01	-4.0106	-10.418662	-0.000273	-2.731495	-0.925455	0.021894
1103	5.5100e-01	-4.0619	-10.737243	0.000795	7.949076	2.693220	-0.063716
1104	5.5150e-01	-4.1116	-10.732539	-0.000012	-0.117369	-0.039766	0.000941
1105	5.5200e-01	-4.1758	-10.589712	-0.000356	-3.563747	-1.207430	0.028565
1106	5.5250e-01	-4.1903	-10.761618	0.000429	4.289300	1.453254	-0.034381
1107	5.5300e-01	-4.2159	-11.031022	0.000672	6.722038	2.277488	-0.053881
1108	5.5350e-01	-4.2657	-11.103290	0.000180	1.803213	0.610945	-0.014454
1109	5.5400e-01	-4.3202	-11.233716	0.000325	3.254320	1.102593	-0.026085
1110	5.5450e-01	-4.3234	-11.316248	0.000206	2.059291	0.697707	-0.016506
1111	5.5500e-01	-4.3731	-11.396641	0.000201	2.005941	0.679631	-0.016079
1112	5.5550e-01	-4.4325	-11.423154	0.000066	0.661534	0.224134	-0.005303
1113	5.5600e-01	-4.4582	-11.631835	0.000521	5.206912	1.764149	-0.041736
1114	5.5650e-01	-4.4951	-11.722492	0.000226	2.262019	0.766393	-0.018131
1115	5.5700e-01	-4.5287	-11.808444	0.000214	2.144650	0.726627	-0.017191
1116	5.5750e-01	-4.5592	-11.881141	0.000181	1.813883	0.614560	-0.014539
1117	5.5800e-01	-4.6041	-11.971370	0.000225	2.251349	0.762778	-0.018046
1118	5.5850e-01	-4.6651	-12.019691	0.000121	1.205699	0.408502	-0.009664
1119	5.5900e-01	-4.6908	-12.133867	0.000285	2.848864	0.965221	-0.022835
1120	5.5950e-01	-4.7325	-12.095809	-0.000095	-0.949621	-0.321740	0.007612
1121	5.6000e-01	-4.7694	-12.463139	0.000917	9.165445	3.105337	-0.073466
1122	5.6050e-01	-4.8191	-12.401988	-0.000153	-1.525796	-0.516954	0.012230
1123	5.6100e-01	-4.8544	-12.561065	0.000397	3.969203	1.344802	-0.031815
1124	5.6150e-01	-4.8993	-12.581591	0.000051	0.512155	0.173523	-0.004105
1125	5.6200e-01	-4.9330	-12.995532	0.001033	10.328464	3.499378	-0.082788
1126	5.6250e-01	-4.9763	-12.647445	-0.000869	-8.685299	-2.942659	0.069617
1127	5.6300e-01	-5.0180	-12.860403	0.000531	5.313611	1.800300	-0.042591
1128	5.6350e-01	-5.0469	-13.057965	0.000493	4.929494	1.670158	-0.039513
1129	5.6400e-01	-5.0983	-13.096452	0.000096	0.960291	0.325355	-0.007697
1130	5.6450e-01	-5.1191	-13.202503	0.000265	2.646135	0.896535	-0.021210
1131	5.6500e-01	-5.1704	-13.325659	0.000307	3.072931	1.041137	-0.024631
1132	5.6550e-01	-5.2025	-13.346612	0.000052	0.522825	0.177138	-0.004191
1133	5.6600e-01	-5.2410	-13.539899	0.000482	4.822795	1.634007	-0.038657
1134	5.6650e-01	-5.2972	-13.519801	-0.000050	-0.501485	-0.169908	0.004020
1135	5.6700e-01	-5.3116	-13.812296	0.000730	7.298212	2.472701	-0.058499
1136	5.6750e-01	-5.3774	-13.772100	-0.000100	-1.002971	-0.339816	0.008039
1137	5.6800e-01	-5.4191	-13.938873	0.000416	4.161261	1.409874	-0.033355
1138	5.6850e-01	-5.4544	-13.991471	0.000131	1.312398	0.444652	-0.010520
1139	5.6900e-01	-5.4993	-14.149265	0.000394	3.937193	1.333957	-0.031559
1140	5.6950e-01	-5.5587	-14.137292	-0.000030	-0.298757	-0.101222	0.002395
1141	5.7000e-01	-5.5715	-14.116766	-0.000051	-0.512155	-0.173523	0.004105
1142	5.7050e-01	-5.6084	-14.270283	0.000383	3.830494	1.297807	-0.030703
1143	5.7100e-01	-5.6549	-14.411399	0.000352	3.521067	1.192970	-0.028223
1144	5.7150e-01	-5.6774	-14.573469	0.000404	4.043892	1.370108	-0.032414
1145	5.7200e-01	-5.7319	-14.591002	0.000044	0.437466	0.148217	-0.003507
1146	5.7250e-01	-5.7752	-14.567910	-0.000058	-0.576175	-0.195213	0.004618
1147	5.7300e-01	-5.8057	-14.815078	0.000617	6.167203	2.089505	-0.049433
1148	5.7350e-01	-5.8474	-14.882642	0.000169	1.685844	0.571180	-0.013513
1149	5.7400e-01	-5.9116	-14.973299	0.000226	2.262019	0.766393	-0.018131
1150	5.7450e-01	-5.9373	-14.912576	-0.000152	-1.515126	-0.513339	0.012145
1151	5.7500e-01	-5.9806	-15.193526	0.000701	7.010125	2.375095	-0.056190
1152	5.7550e-01	-6.0014	-15.265367	0.000179	1.792543	0.607330	-0.014368
1153	5.7600e-01	-6.0512	-15.322669	0.000143	1.429767	0.484418	-0.011460
1154	5.7650e-01	-6.0768	-15.444970	0.000305	3.051592	1.033907	-0.024460
1155	5.7700e-01	-6.1105	-15.415036	-0.000075	-0.746893	-0.253054	0.005987
1156	5.7750e-01	-6.1635	-15.551021	0.000339	3.393028	1.149589	-0.027197
1157	5.7800e-01	-6.1939	-15.559573	0.000021	0.213398	0.072301	-0.001711
1158	5.7850e-01	-6.2742	-15.721216	0.000403	4.033223	1.366493	-0.032328
1159	5.7900e-01	-6.2838	-15.748156	0.000067	0.672204	0.227749	-0.005388
1160	5.7950e-01	-6.3431	-15.938022	0.000474	4.737436	1.605087	-0.037973
1161	5.8000e-01	-6.3688	-16.057757	0.000299	2.987572	1.012217	-0.023947
1162	5.8050e-01	-6.4105	-16.215550	0.000394	3.937193	1.333957	-0.031559
1163	5.8100e-01	-6.4201	-16.530283	0.000785	7.853047	2.660684	-0.062946
1164	5.8150e-01	-6.4763	-16.407127	-0.000307	-3.072931	-1.041137	0.024631
1165	5.8200e-01	-6.5533	-16.308773	-0.000245	-2.454077	-0.831464	0.019671
1166	5.8250e-01	-6.5645	-16.294661	-0.000035	-0.352107	-0.119297	0.002822
1167	5.8300e-01	-6.6110	-16.558934	0.000659	6.593999	2.234107	-0.052854
1168	5.8350e-01	-6.6447	-16.584163	0.000063	0.629524	0.213289	-0.005046
1169	5.8400e-01	-6.6913	-16.823634	0.000598	5.975145	2.024434	-0.047894
1170	5.8450e-01	-6.7346	-16.870245	0.000116	1.163019	0.394042	-0.009322
1171	5.8500e-01	-6.7602	-16.920704	0.000126	1.259048	0.426577	-0.010092
1172	5.8550e-01	-6.8003	-17.226457	0.000763	7.628979	2.584768	-0.061150
1173	5.8600e-01	-6.8597	-17.163596	-0.000157	-1.568475	-0.531414	0.012572
1174	5.8650e-01	-6.9062	-17.180273	0.000042	0.416126	0.140987	-0.003335
1175	5.8700e-01	-6.9271	-17.257673	0.000193	1.931252	0.654326	-0.015480
1176	5.8750e-01	-6.9736	-17.225601	-0.000080	-0.800243	-0.271130	0.006414
1177	5.8800e-01	-6.9864	-17.463361	0.000593	5.932465	2.009974	-0.047552
1178	5.8850e-01	-7.0522	-17.496716	0.000083	0.832252	0.281975	-0.006671
1179	5.8900e-01	-7.0939	-17.682305	0.000463	4.630737	1.568936	-0.037118
1180	5.8950e-01	-7.1019	-17.764409	0.000205	2.048621	0.694092	-0.016421
1181	5.9000e-01	-7.1741	-17.785363	0.000052	0.522825	0.177138	-0.004191
1182	5.9050e-01	-7.2142	-17.939736	0.000385	3.851834	1.305037	-0.030875
1183	5.9100e-01	-7.2335	-17.910657	-0.000073	-0.725553	-0.245824	0.005816
1184	5.9150e-01	-7.2864	-18.099240	0.000471	4.705426	1.594242	-0.037717
1185	5.9200e-01	-7.3137	-18.251474	0.000380	3.798485	1.286961	-0.030447
1186	5.9250e-01	-7.3875	-18.194600	-0.000142	-1.419097	-0.480803	0.011375
1187	5.9300e-01	-7.4180	-18.160818	-0.000084	-0.842922	-0.285590	0.006756
1188	5.9350e-01	-7.4404	-18.414400	0.000633	6.327251	2.143731	-0.050716
1189	5.9400e-01	-7.4886	-18.427228	0.000032	0.320097	0.108452	-0.002566
1190	5.9450e-01	-7.5511	-18.612390	0.000462	4.620067	1.565321	-0.037032
1191	5.9500e-01	-7.5672	-18.733836	0.000303	3.030252	1.026677	-0.024289
1192	5.9550e-01	-7.6025	-18.701764	-0.000080	-0.800243	-0.271130	0.006414
1193	5.9600e-01	-7.6361	-18.887781	0.000464	4.641407	1.572551	-0.037203
1194	5.9650e-01	-7.6939	-18.822354	-0.000163	-1.632495	-0.553104	0.013085
1195	5.9700e-01	-7.7292	-18.912155	0.000224	2.240679	0.759163	-0.017960
1196	5.9750e-01	-7.7549	-18.940806	0.000071	0.714883	0.242209	-0.005730
1197	5.9800e-01	-7.8319	-19.084916	0.000360	3.595757	1.218275	-0.028822
1198	5.9850e-01	-7.8463	-19.272216	0.000467	4.673417	1.583396	-0.037460
1199	5.9900e-01	-7.8816	-19.367149	0.000237	2.368718	0.802543	-0.018987
1200	5.9950e-01	-7.9265	-19.459516	0.000230	2.304699	0.780853	-0.018473
1201	6.0000e-01	-7.9811	-19.481752	0.000055	0.554835	0.187983	-0.004447
1202	6.0050e-01	-8.0196	-19.518956	0.000093	0.928281	0.314510	-0.007441
1203	6.0100e-01	-8.0324	-19.707538	0.000471	4.705426	1.594242	-0.037717
1204	6.0150e-01	-8.0869	-19.850793	0.000357	3.574417	1.211045	-0.028651
1205	6.0200e-01	-8.1254	-19.896121	0.000113	1.131009	0.383196	-0.009066
1206	6.0250e-01	-8.1768	-19.951285	0.000138	1.376417	0.466343	-0.011033
1207	6.0300e-01	-8.1944	-20.030823	0.000198	1.984602	0.672401	-0.015908
1208	6.0350e-01	-8.2490	-20.138157	0.000268	2.678145	0.907380	-0.021467
1209	6.0400e-01	-8.2843	-20.204439	0.000165	1.653835	0.560334	-0.013256
1210	6.0450e-01	-8.3372	-20.161676	-0.000107	-1.066990	-0.361506	0.008553
1211	6.0500e-01	-8.3773	-20.438778	0.000691	6.914096	2.342559	-0.055420
1212	6.0550e-01	-8.4078	-20.407561	-0.000078	-0.778903	-0.263899	0.006243
1213	6.0600e-01	-8.4351	-20.671406	0.000658	6.583329	2.230492	-0.052769
1214	6.0650e-01	-8.4944	-20.504204	-0.000417	-4.171931	-1.413489	0.033440
1215	6.0700e-01	-8.5377	-20.612393	0.000270	2.699485	0.914610	-0.021638
1216	6.0750e-01	-8.5746	-20.796272	0.000459	4.588057	1.554476	-0.036776
1217	6.0800e-01	-8.6051	-20.654301	-0.000354	-3.542407	-1.200200	0.028394
1218	6.0850e-01	-8.6548	-21.026762	0.000929	9.293484	3.148718	-0.074492
1219	6.0900e-01	-8.7046	-21.092189	0.000163	1.632495	0.553104	-0.013085
1220	6.0950e-01	-8.7415	-21.040874	-0.000128	-1.280388	-0.433807	0.010263
1221	6.1000e-01	-8.7816	-21.084492	0.000109	1.088330	0.368736	-0.008724
1222	6.1050e-01	-8.8249	-21.310278	0.000563	5.633708	1.908752	-0.045157
1223	6.1100e-01	-8.8473	-21.347054	0.000092	0.917611	0.310895	-0.007355
1224	6.1150e-01	-8.8794	-21.494584	0.000368	3.681116	1.247196	-0.029506
1225	6.1200e-01	-8.9468	-21.501426	0.000017	0.170718	0.057841	-0.001368
1226	6.1250e-01	-8.9741	-21.513400	0.000030	0.298757	0.101222	-0.002395
1227	6.1300e-01	-9.0046	-21.640405	0.000317	3.168961	1.073673	-0.025401
1228	6.1350e-01	-9.0463	-21.829415	0.000472	4.716096	1.597857	-0.037802
1229	6.1400e-01	-9.0735	-21.851652	0.000055	0.554835	0.187983	-0.004447
1230	6.1450e-01	-9.1153	-22.044938	0.000482	4.822795	1.634007	-0.038657
1231	6.1500e-01	-9.1538	-21.887572	-0.000393	-3.926524	-1.330342	0.031473
1232	6.1550e-01	-9.2115	-22.249343	0.000903	9.026736	3.058341	-0.072354
1233	6.1600e-01	-9.2596	-22.149279	-0.000250	-2.496757	-0.845924	0.020013
1234	6.1650e-01	-9.3013	-22.287829	0.000346	3.457048	1.171280	-0.027710
1235	6.1700e-01	-9.3398	-22.333158	0.000113	1.131009	0.383196	-0.009066
1236	6.1750e-01	-9.3559	-22.478123	0.000362	3.617096	1.225505	-0.028993
1237	6.1800e-01	-9.3976	-22.734698	0.000640	6.401941	2.169036	-0.051315
1238	6.1850e-01	-9.4441	-22.591443	-0.000357	-3.574417	-1.211045	0.028651
1239	6.1900e-01	-9.4955	-22.884367	0.000731	7.308882	2.476316	-0.058585
1240	6.1950e-01	-9.5388	-22.665422	-0.000546	-5.462989	-1.850911	0.043789
1241	6.2000e-01	-9.5741	-22.899333	0.000584	5.836436	1.977438	-0.046782
1242	6.2050e-01	-9.6206	-22.786440	-0.000282	-2.816854	-0.954376	0.022579
1243	6.2100e-01	-9.6398	-23.001536	0.000537	5.366960	1.818375	-0.043019
1244	6.2150e-01	-9.7040	-23.241006	0.000598	5.975145	2.024434	-0.047894
1245	6.2200e-01	-9.7537	-23.129823	-0.000277	-2.774174	-0.939916	0.022237
1246	6.2250e-01	-9.7698	-23.430444	0.000750	7.500940	2.541387	-0.060124
1247	6.2300e-01	-9.8211	-23.437286	0.000017	0.170718	0.057841	-0.001368
1248	6.2350e-01	-9.8596	-23.353471	-0.000209	-2.091301	-0.708552	0.016763
1249	6.2400e-01	-9.9174	-23.554028	0.000500	5.004184	1.695463	-0.040111
1250	6.2450e-01	-9.9238	-23.703269	0.000372	3.723795	1.261656	-0.029848
1251	6.2500e-01	-9.9671	-23.743893	0.000101	1.013641	0.343431	-0.008125
1252	6.2550e-01	-10.0072	-23.704124	-0.000099	-0.992301	-0.336201	0.007954
1253	6.2600e-01	-10.0521	-23.715670	0.000029	0.288087	0.097607	-0.002309
1254	6.2650e-01	-10.0698	-23.958134	0.000605	6.049834	2.049739	-0.048493
1255	6.2700e-01	-10.1436	-24.054777	0.000241	2.411398	0.817004	-0.019329
1256	6.2750e-01	-10.1853	-24.017574	-0.000093	-0.928281	-0.314510	0.007441
1257	6.2800e-01	-10.2158	-24.078724	0.000153	1.525796	0.516954	-0.012230
1258	6.2850e-01	-10.2559	-24.275004	0.000490	4.897485	1.659313	-0.039256
1259	6.2900e-01	-10.2703	-24.341714	0.000166	1.664505	0.563949	-0.013342
1260	6.2950e-01	-10.3569	-24.479836	0.000345	3.446378	1.167664	-0.027625
1261	6.3000e-01	-10.3585	-24.407995	-0.000179	-1.792543	-0.607330	0.014368
1262	6.3050e-01	-10.4099	-24.595723	0.000468	4.684086	1.587011	-0.037545
1263	6.3100e-01	-10.4644	-24.671413	0.000189	1.888572	0.639866	-0.015138
1264	6.3150e-01	-10.4805	-24.817233	0.000364	3.638436	1.232736	-0.029164
1265	6.3200e-01	-10.5302	-24.888219	0.000177	1.771204	0.600100	-0.014197
1266	6.3250e-01	-10.5767	-24.758221	-0.000324	-3.243650	-1.098978	0.026000
1267	6.3300e-01	-10.6040	-25.021210	0.000656	6.561989	2.223262	-0.052598
1268	6.3350e-01	-10.6521	-25.000684	-0.000051	-0.512155	-0.173523	0.004105
1269	6.3400e-01	-10.6858	-25.163609	0.000407	4.065232	1.377338	-0.032585
1270	6.3450e-01	-10.7339	-25.181997	0.000046	0.458806	0.155448	-0.003678
1271	6.3500e-01	-10.7820	-25.263246	0.000203	2.027281	0.686861	-0.016250
1272	6.3550e-01	-10.8061	-25.235023	-0.000070	-0.704213	-0.238594	0.005645
1273	6.3600e-01	-10.8494	-25.400086	0.000412	4.118582	1.395413	-0.033013
1274	6.3650e-01	-10.9072	-25.486466	0.000216	2.155320	0.730242	-0.017276
1275	6.3700e-01	-10.9425	-25.639129	0.000381	3.809155	1.290577	-0.030532
1276	6.3750e-01	-10.9649	-25.718667	0.000198	1.984602	0.672401	-0.015908
1277	6.3800e-01	-11.0115	-25.878171	0.000398	3.979873	1.348417	-0.031901
1278	6.3850e-01	-11.0451	-25.845672	-0.000081	-0.810912	-0.274745	0.006500
1279	6.3900e-01	-11.0836	-26.003038	0.000393	3.926524	1.330342	-0.031473
1280	6.3950e-01	-11.1398	-25.953861	-0.000123	-1.227039	-0.415732	0.009835
1281	6.4000e-01	-11.1735	-26.054353	0.000251	2.507427	0.849539	-0.020098
1282	6.4050e-01	-11.2056	-26.144154	0.000224	2.240679	0.759163	-0.017960
1283	6.4100e-01	-11.2601	-26.281849	0.000344	3.435708	1.164049	-0.027539
1284	6.4150e-01	-11.2762	-26.354973	0.000182	1.824553	0.618175	-0.014625
1285	6.4200e-01	-11.3371	-26.493524	0.000346	3.457048	1.171280	-0.027710
1286	6.4250e-01	-11.3724	-26.331026	-0.000405	-4.054562	-1.373723	0.032500
1287	6.4300e-01	-11.4093	-26.541846	0.000526	5.260261	1.782225	-0.042164
1288	6.4350e-01	-11.4414	-26.514050	-0.000069	-0.693544	-0.234979	0.005559
1289	6.4400e-01	-11.4879	-26.616252	0.000255	2.550106	0.863999	-0.020440
1290	6.4450e-01	-11.5360	-26.718455	0.000255	2.550106	0.863999	-0.020440
1291	6.4500e-01	-11.5681	-26.880525	0.000404	4.043892	1.370108	-0.032414
1292	6.4550e-01	-11.6146	-26.826216	-0.000136	-1.355077	-0.459113	0.010862
1293	6.4600e-01	-11.6660	-27.054996	0.000571	5.708397	1.934057	-0.045756
1294	6.4650e-01	-11.6692	-27.208086	0.000382	3.819825	1.294192	-0.030618
1295	6.4700e-01	-11.7414	-27.190125	-0.000045	-0.448136	-0.151833	0.003592
1296	6.4750e-01	-11.7510	-27.346636	0.000391	3.905184	1.323112	-0.031302
1297	6.4800e-01	-11.8296	-27.349202	0.000006	0.064019	0.021690	-0.000513
1298	6.4850e-01	-11.8328	-27.400089	0.000127	1.269718	0.430192	-0.010177
1299	6.4900e-01	-11.8938	-27.453543	0.000133	1.333738	0.451883	-0.010691
1300	6.4950e-01	-11.9291	-27.545482	0.000229	2.294029	0.777238	-0.018388
1301	6.5000e-01	-11.9580	-27.779821	0.000585	5.847106	1.981053	-0.046868
1302	6.5050e-01	-12.0205	-27.628869	-0.000377	-3.766475	-1.276116	0.030190
1303	6.5100e-01	-12.0430	-27.693868	0.000162	1.621825	0.549489	-0.013000
1304	6.5150e-01	-12.1007	-27.943601	0.000623	6.231222	2.111195	-0.049947
1305	6.5200e-01	-12.1408	-27.775117	-0.000420	-4.203941	-1.424334	0.033697
1306	6.5250e-01	-12.1793	-27.980377	0.000512	5.121552	1.735229	-0.041052
1307	6.5300e-01	-12.2066	-28.149289	0.000421	4.214611	1.427949	-0.033782
1308	6.5350e-01	-12.2451	-28.252347	0.000257	2.571446	0.871230	-0.020612
1309	6.5400e-01	-12.2932	-28.266031	0.000034	0.341437	0.115682	-0.002737
1310	6.5450e-01	-12.3173	-28.466587	0.000500	5.004184	1.695463	-0.040111
1311	6.5500e-01	-12.3670	-28.380634	-0.000214	-2.144650	-0.726627	0.017191
1312	6.5550e-01	-12.4184	-28.397739	0.000043	0.426796	0.144602	-0.003421
1313	6.5600e-01	-12.4633	-28.597013	0.000497	4.972174	1.684618	-0.039855
1314	6.5650e-01	-12.4793	-28.569645	-0.000068	-0.682874	-0.231364	0.005474
1315	6.5700e-01	-12.5178	-28.838621	0.000671	6.711368	2.273873	-0.053795
1316	6.5750e-01	-12.5788	-28.820233	-0.000046	-0.458806	-0.155448	0.003678
1317	6.5800e-01	-12.6093	-28.930988	0.000276	2.763504	0.936301	-0.022151
1318	6.5850e-01	-12.6462	-29.111446	0.000450	4.502698	1.525555	-0.036092
1319	6.5900e-01	-12.7023	-28.976744	-0.000336	-3.361019	-1.138744	0.026940
1320	6.5950e-01	-12.7264	-29.132399	0.000388	3.883844	1.315882	-0.031131
1321	6.6000e-01	-12.7729	-29.158057	0.000064	0.640194	0.216904	-0.005132
1322	6.6050e-01	-12.8034	-29.269240	0.000277	2.774174	0.939916	-0.022237
1323	6.6100e-01	-12.8659	-29.264108	-0.000013	-0.128039	-0.043381	0.001026
1324	6.6150e-01	-12.8692	-29.569005	0.000761	7.607639	2.577538	-0.060979
1325	6.6200e-01	-12.9494	-29.355192	-0.000533	-5.334950	-1.807530	0.042763
1326	6.6250e-01	-12.9750	-29.573281	0.000544	5.441649	1.843681	-0.043618
1327	6.6300e-01	-13.0200	-29.696865	0.000308	3.083601	1.044752	-0.024717
1328	6.6350e-01	-13.0424	-29.778969	0.000205	2.048621	0.694092	-0.016421
1329	6.6400e-01	-13.0681	-29.958571	0.000448	4.481358	1.518325	-0.035921
1330	6.6450e-01	-13.1531	-29.905974	-0.000131	-1.312398	-0.444652	0.010520
1331	6.6500e-01	-13.1595	-30.042814	0.000341	3.414368	1.156819	-0.027368
1332	6.6550e-01	-13.2109	-29.977815	-0.000162	-1.621825	-0.549489	0.013000
1333	6.6600e-01	-13.2429	-30.160411	0.000456	4.556048	1.543631	-0.036519
1334	6.6650e-01	-13.2991	-30.091991	-0.000171	-1.707184	-0.578410	0.013684
1335	6.6700e-01	-13.3151	-30.129194	0.000093	0.928281	0.314510	-0.007441
1336	6.6750e-01	-13.3472	-30.293830	0.000411	4.107912	1.391798	-0.032927
1337	6.6800e-01	-13.4050	-30.326757	0.000082	0.821582	0.278360	-0.006585
1338	6.6850e-01	-13.4707	-30.591457	0.000660	6.604669	2.237722	-0.052940
1339	6.6900e-01	-13.4932	-30.525175	-0.000165	-1.653835	-0.560334	0.013256
1340	6.6950e-01	-13.5381	-30.656028	0.000326	3.264990	1.106208	-0.026171
1341	6.7000e-01	-13.5654	-30.751389	0.000238	2.379388	0.806158	-0.019072
1342	6.7050e-01	-13.6007	-30.890795	0.000348	3.478388	1.178510	-0.027881
1343	6.7100e-01	-13.6472	-30.723593	-0.000417	-4.171931	-1.413489	0.033440
1344	6.7150e-01	-13.7001	-30.762507	0.000097	0.970961	0.328970	-0.007783
1345	6.7200e-01	-13.7451	-31.003688	0.000602	6.017824	2.038894	-0.048236
1346	6.7250e-01	-13.7916	-31.068687	0.000162	1.621825	0.549489	-0.013000
1347	6.7300e-01	-13.8221	-31.110166	0.000103	1.034980	0.350661	-0.008296
1348	6.7350e-01	-13.8381	-31.193981	0.000209	2.091301	0.708552	-0.016763
1349	6.7400e-01	-13.8959	-31.278223	0.000210	2.101970	0.712167	-0.016848
1350	6.7450e-01	-13.9456	-31.314999	0.000092	0.917611	0.310895	-0.007355
1351	6.7500e-01	-13.9697	-31.425326	0.000275	2.752834	0.932686	-0.022065
1352	6.7550e-01	-14.0130	-31.496312	0.000177	1.771204	0.600100	-0.014197
1353	6.7600e-01	-14.0547	-31.572857	0.000191	1.909912	0.647096	-0.015309
1354	6.7650e-01	-14.0884	-31.672066	0.000248	2.475417	0.838694	-0.019842
1355	6.7700e-01	-14.1381	-31.725947	0.000134	1.344408	0.455498	-0.010776
1356	6.7750e-01	-14.1541	-31.749894	0.000060	0.597514	0.202443	-0.004789
1357	6.7800e-01	-14.2023	-31.949167	0.000497	4.972174	1.684618	-0.039855
1358	6.7850e-01	-14.2504	-31.953871	0.000012	0.117369	0.039766	-0.000941
1359	6.7900e-01	-14.2921	-32.110809	0.000392	3.915854	1.326727	-0.031388
1360	6.7950e-01	-14.3226	-32.083014	-0.000069	-0.693544	-0.234979	0.005559
1361	6.8000e-01	-14.3643	-32.238242	0.000387	3.873174	1.312267	-0.031046
1362	6.8050e-01	-14.4124	-32.177519	-0.000152	-1.515126	-0.513339	0.012145
1363	6.8100e-01	-14.4461	-32.486692	0.000771	7.714338	2.613689	-0.061835
1364	6.8150e-01	-14.4718	-32.452910	-0.000084	-0.842922	-0.285590	0.006756
1365	6.8200e-01	-14.5376	-32.555112	0.000255	2.550106	0.863999	-0.020440
1366	6.8250e-01	-14.5680	-32.606855	0.000129	1.291058	0.437422	-0.010349
1367	6.8300e-01	-14.6226	-32.580342	-0.000066	-0.661534	-0.224134	0.005303
1368	6.8350e-01	-14.6354	-32.670571	0.000225	2.251349	0.762778	-0.018046
1369	6.8400e-01	-14.7012	-32.803562	0.000332	3.318339	1.124284	-0.026598
1370	6.8450e-01	-14.7220	-32.819385	0.000039	0.394786	0.133757	-0.003164
1371	6.8500e-01	-14.7814	-32.920732	0.000253	2.528767	0.856769	-0.020269
1372	6.8550e-01	-14.8215	-33.002408	0.000204	2.037951	0.690477	-0.016335
1373	6.8600e-01	-14.8295	-33.096058	0.000234	2.336708	0.791698	-0.018730
1374	6.8650e-01	-14.8712	-33.212372	0.000290	2.902213	0.983296	-0.023263
1375	6.8700e-01	-14.9450	-33.104611	-0.000269	-2.688815	-0.910995	0.021552
1376	6.8750e-01	-14.9691	-33.341943	0.000592	5.921795	2.006358	-0.047466
1377	6.8800e-01	-15.0204	-33.398389	0.000141	1.408427	0.477188	-0.011289
1378	6.8850e-01	-15.0637	-33.403948	0.000014	0.138709	0.046996	-0.001112
1379	6.8900e-01	-15.1055	-33.489473	0.000213	2.133980	0.723012	-0.017105
1380	6.8950e-01	-15.1135	-33.560887	0.000178	1.781873	0.603715	-0.014283
1381	6.9000e-01	-15.1760	-33.742200	0.000452	4.524038	1.532786	-0.036263
1382	6.9050e-01	-15.2274	-33.742200	-0.000000	-0.000000	-0.000000	0.000000
1383	6.9100e-01	-15.2723	-33.769140	0.000067	0.672204	0.227749	-0.005388
1384	6.9150e-01	-15.2723	-33.861080	0.000229	2.294029	0.777238	-0.018388
1385	6.9200e-01	-15.3445	-33.859369	-0.000004	-0.042680	-0.014460	0.000342
1386	6.9250e-01	-15.3605	-33.998347	0.000347	3.467718	1.174895	-0.027796
1387	6.9300e-01	-15.4119	-34.102688	0.000260	2.603456	0.882075	-0.020868
1388	6.9350e-01	-15.4504	-34.157424	0.000137	1.365747	0.462728	-0.010947
1389	6.9400e-01	-15.5033	-34.381500	0.000559	5.591028	1.894292	-0.044815
1390	6.9450e-01	-15.5065	-34.274593	-0.000267	-2.667475	-0.903765	0.021381
1391	6.9500e-01	-15.5883	-34.345579	0.000177	1.771204	0.600100	-0.014197
1392	6.9550e-01	-15.6188	-34.436663	0.000227	2.272689	0.770008	-0.018217
1393	6.9600e-01	-15.6589	-34.467452	0.000077	0.768233	0.260284	-0.006158
1394	6.9650e-01	-15.6894	-34.726593	0.000647	6.465960	2.190727	-0.051828
1395	6.9700e-01	-15.7375	-34.712054	-0.000036	-0.362777	-0.122912	0.002908
1396	6.9750e-01	-15.7712	-34.577780	-0.000335	-3.350349	-1.135129	0.026855
1397	6.9800e-01	-15.8274	-34.860012	0.000704	7.042135	2.385940	-0.056447
1398	6.9850e-01	-15.8610	-34.816395	-0.000109	-1.088330	-0.368736	0.008724
1399	6.9900e-01	-15.8979	-34.795869	-0.000051	-0.512155	-0.173523	0.004105
1400	6.9950e-01	-15.9284	-34.997280	0.000503	5.025523	1.702693	-0.040282
1401	7.0000e-01	-15.9621	-35.165764	0.000420	4.203941	1.424334	-0.033697
1402	7.0050e-01	-16.0295	-35.030207	-0.000338	-3.382359	-1.145974	0.027111
1403	7.0100e-01	-16.0648	-35.326979	0.000740	7.404911	2.508852	-0.059354
1404	7.0150e-01	-16.0905	-35.188856	-0.000345	-3.446378	-1.167664	0.027625
1405	7.0200e-01	-16.1209	-35.435596	0.000616	6.156533	2.085890	-0.049348
1406	7.0250e-01	-16.1771	-35.512996	0.000193	1.931252	0.654326	-0.015480
1407	7.0300e-01	-16.2108	-35.541647	0.000071	0.714883	0.242209	-0.005730
1408	7.0350e-01	-16.2557	-35.580133	0.000096	0.960291	0.325355	-0.007697
1409	7.0400e-01	-16.3006	-35.760164	0.000449	4.492028	1.521940	-0.036006
1410	7.0450e-01	-16.3118	-35.715691	-0.000111	-1.109670	-0.375966	0.008895
1411	7.0500e-01	-16.3937	-35.725526	0.000025	0.245408	0.083146	-0.001967
1412	7.0550e-01	-16.4065	-35.901280	0.000439	4.385329	1.485790	-0.035151
1413	7.0600e-01	-16.4418	-35.925655	0.000061	0.608184	0.206058	-0.004875
1414	7.0650e-01	-16.5043	-36.094567	0.000421	4.214611	1.427949	-0.033782
1415	7.0700e-01	-16.5268	-36.158283	0.000159	1.589815	0.538644	-0.012743
1416	7.0750e-01	-16.5926	-36.221571	0.000158	1.579145	0.535029	-0.012658
1417	7.0800e-01	-16.6086	-36.110816	-0.000276	-2.763504	-0.936301	0.022151
1418	7.0850e-01	-16.6519	-36.318215	0.000517	5.174902	1.753304	-0.041480
1419	7.0900e-01	-16.6985	-36.415286	0.000242	2.422068	0.820619	-0.019414
1420	7.0950e-01	-16.7450	-36.383214	-0.000080	-0.800243	-0.271130	0.006414
1421	7.1000e-01	-16.7835	-36.426831	0.000109	1.088330	0.368736	-0.008724
1422	7.1050e-01	-16.8092	-36.715478	0.000720	7.202183	2.440166	-0.057729
1423	7.1100e-01	-16.8396	-36.779195	0.000159	1.589815	0.538644	-0.012743
1424	7.1150e-01	-16.9038	-36.862154	0.000207	2.069961	0.701322	-0.016592
1425	7.1200e-01	-16.9343	-36.751827	-0.000275	-2.752834	-0.932686	0.022065
1426	7.1250e-01	-16.9712	-36.782616	0.000077	0.768233	0.260284	-0.006158
1427	7.1300e-01	-17.0193	-36.969915	0.000467	4.673417	1.583396	-0.037460
1428	7.1350e-01	-17.0658	-37.114453	0.000361	3.606427	1.221890	-0.028907
1429	7.1400e-01	-17.0995	-37.102479	-0.000030	-0.298757	-0.101222	0.002395
1430	7.1450e-01	-17.1444	-37.263266	0.000401	4.011883	1.359263	-0.032157
1431	7.1500e-01	-17.1749	-37.277806	0.000036	0.362777	0.122912	-0.002908
1432	7.1550e-01	-17.2182	-37.256852	-0.000052	-0.522825	-0.177138	0.004191
1433	7.1600e-01	-17.2519	-37.489908	0.000582	5.815096	1.970208	-0.046611
1434	7.1650e-01	-17.2824	-37.354778	-0.000337	-3.371689	-1.142359	0.027026
1435	7.1700e-01	-17.3241	-37.733654	0.000945	9.453532	3.202943	-0.075775
1436	7.1750e-01	-17.3787	-37.608788	-0.000312	-3.115611	-1.055598	0.024973
1437	7.1800e-01	-17.4348	-37.675925	0.000168	1.675174	0.567564	-0.013427
1438	7.1850e-01	-17.4428	-37.766581	0.000226	2.262019	0.766393	-0.018131
1439	7.1900e-01	-17.5038	-37.775134	0.000021	0.213398	0.072301	-0.001711
1440	7.1950e-01	-17.5423	-37.864080	0.000222	2.219339	0.751933	-0.017789
1441	7.2000e-01	-17.5760	-37.847403	-0.000042	-0.416126	-0.140987	0.003335
1442	7.2050e-01	-17.5952	-38.193351	0.000863	8.631950	2.924584	-0.069190
1443	7.2100e-01	-17.6642	-38.118089	-0.000188	-1.877903	-0.636251	0.015052
1444	7.2150e-01	-17.6931	-38.120227	0.000005	0.053350	0.018075	-0.000428
1445	7.2200e-01	-17.7396	-38.282297	0.000404	4.043892	1.370108	-0.032414
1446	7.2250e-01	-17.7605	-38.364829	0.000206	2.059291	0.697707	-0.016506
1447	7.2300e-01	-17.8182	-38.318218	-0.000116	-1.163019	-0.394042	0.009322
1448	7.2350e-01	-17.8455	-38.510649	0.000480	4.801455	1.626777	-0.038486
1449	7.2400e-01	-17.8888	-38.554695	0.000110	1.099000	0.372351	-0.008809
1450	7.2450e-01	-17.9273	-38.574793	0.000050	0.501485	0.169908	-0.004020
1451	7.2500e-01	-17.9578	-38.764659	0.000474	4.737436	1.605087	-0.037973
1452	7.2550e-01	-18.0075	-38.783474	0.000047	0.469476	0.159063	-0.003763
1453	7.2600e-01	-18.0621	-38.821533	0.000095	0.949621	0.321740	-0.007612
1454	7.2650e-01	-18.0909	-38.848473	0.000067	0.672204	0.227749	-0.005388
1455	7.2700e-01	-18.1294	-39.050740	0.000505	5.046863	1.709924	-0.040453
1456	7.2750e-01	-18.1872	-38.983603	-0.000168	-1.675174	-0.567564	0.013427
1457	7.2800e-01	-18.1936	-39.061003	0.000193	1.931252	0.654326	-0.015480
1458	7.2850e-01	-18.2706	-39.203830	0.000356	3.563747	1.207430	-0.028565
1459	7.2900e-01	-18.2979	-39.202119	-0.000004	-0.042680	-0.014460	0.000342
1460	7.2950e-01	-18.3268	-39.437741	0.000588	5.879115	1.991898	-0.047124
1461	7.3000e-01	-18.3893	-39.439024	0.000003	0.032010	0.010845	-0.000257
1462	7.3050e-01	-18.4118	-39.585272	0.000365	3.649106	1.236351	-0.029250
1463	7.3100e-01	-18.4567	-39.634449	0.000123	1.227039	0.415732	-0.009835
1464	7.3150e-01	-18.4743	-39.604515	-0.000075	-0.746893	-0.253054	0.005987
1465	7.3200e-01	-18.5449	-39.771716	0.000417	4.171931	1.413489	-0.033440
1466	7.3250e-01	-18.5738	-39.797801	0.000065	0.650864	0.220519	-0.005217
1467	7.3300e-01	-18.6171	-39.790104	-0.000019	-0.192058	-0.065071	0.001539
1468	7.3350e-01	-18.6556	-39.878623	0.000221	2.208669	0.748317	-0.017704
1469	7.3400e-01	-18.6845	-39.886747	0.000020	0.202728	0.068686	-0.001625
1470	7.3450e-01	-18.7262	-40.050956	0.000410	4.097242	1.388183	-0.032842
1471	7.3500e-01	-18.7743	-40.131777	0.000202	2.016611	0.683246	-0.016164
1472	7.3550e-01	-18.8209	-40.175395	0.000109	1.088330	0.368736	-0.008724
1473	7.3600e-01	-18.8481	-40.169408	-0.000015	-0.149379	-0.050611	0.001197
1474	7.3650e-01	-18.8834	-40.398615	0.000572	5.719067	1.937672	-0.045841
1475	7.3700e-01	-18.9299	-40.414865	0.000041	0.405456	0.137372	-0.003250
1476	7.3750e-01	-18.9749	-40.350293	-0.000161	-1.611155	-0.545874	0.012914
1477	7.3800e-01	-19.0070	-40.632954	0.000705	7.052805	2.389555	-0.056532
1478	7.3850e-01	-19.0791	-40.573941	-0.000147	-1.472446	-0.498878	0.011802
1479	7.3900e-01	-19.0840	-40.616704	0.000107	1.066990	0.361506	-0.008553
1480	7.3950e-01	-19.1192	-40.754399	0.000344	3.435708	1.164049	-0.027539
1481	7.4000e-01	-19.1754	-41.105052	0.000875	8.749319	2.964349	-0.070131
1482	7.4050e-01	-19.2203	-41.012257	-0.000232	-2.315368	-0.784468	0.018559
1483	7.4100e-01	-19.2540	-40.962653	-0.000124	-1.237709	-0.419347	0.009921
1484	7.4150e-01	-19.3037	-40.987027	0.000061	0.608184	0.206058	-0.004875
1485	7.4200e-01	-19.3166	-41.195281	0.000520	5.196242	1.760534	-0.041651
1486	7.4250e-01	-19.3759	-41.064855	-0.000325	-3.254320	-1.102593	0.026085
1487	7.4300e-01	-19.4000	-41.335542	0.000675	6.754047	2.288333	-0.054137
1488	7.4350e-01	-19.4561	-41.427481	0.000229	2.294029	0.777238	-0.018388
1489	7.4400e-01	-19.4946	-41.342384	-0.000212	-2.123310	-0.719397	0.017019
1490	7.4450e-01	-19.5380	-41.672083	0.000823	8.226494	2.787211	-0.065940
1491	7.4500e-01	-19.5620	-41.533532	-0.000346	-3.457048	-1.171280	0.027710
1492	7.4550e-01	-19.5989	-41.725109	0.000478	4.780116	1.619547	-0.038315
1493	7.4600e-01	-19.6663	-41.692181	-0.000082	-0.821582	-0.278360	0.006585
1494	7.4650e-01	-19.6904	-41.730240	0.000095	0.949621	0.321740	-0.007612
1495	7.4700e-01	-19.7321	-41.906849	0.000441	4.406669	1.493020	-0.035322
1496	7.4750e-01	-19.7690	-41.980828	0.000185	1.845893	0.625405	-0.014796
1497	7.4800e-01	-19.8043	-42.068492	0.000219	2.187330	0.741087	-0.017533
1498	7.4850e-01	-19.8652	-42.020170	-0.000121	-1.205699	-0.408502	0.009664
1499	7.4900e-01	-19.8909	-42.135629	0.000288	2.880873	0.976066	-0.023092
1500	7.4950e-01	-19.9470	-42.241680	0.000265	2.646135	0.896535	-0.021210
1501	7.5000e-01	-19.9679	-42.272469	0.000077	0.768233	0.260284	-0.006158
1502	7.5050e-01	-19.9053	-42.321218	-0.000122	-1.216369	-0.412117	-0.009750
1503	7.5100e-01	-19.8909	-42.177536	0.000359	3.585087	1.214660	0.028736
1504	7.5150e-01	-19.8428	-42.145892	0.000079	0.789573	0.267514	0.006329
1505	7.5200e-01	-19.8075	-41.993230	0.000381	3.809155	1.290577	0.030532
1506	7.5250e-01	-19.7641	-42.009052	-0.000039	-0.394786	-0.133757	-0.003164
1507	7.5300e-01	-19.7160	-41.948329	0.000152	1.515126	0.513339	0.012145
1508	7.5350e-01	-19.6743	-41.897442	0.000127	1.269718	0.430192	0.010177
1509	7.5400e-01	-19.6326	-41.952605	-0.000138	-1.376417	-0.466343	-0.011033
1510	7.5450e-01	-19.5925	-41.834581	0.000294	2.944893	0.997757	0.023605
1511	7.5500e-01	-19.5636	-41.873495	-0.000097	-0.970961	-0.328970	-0.007783
1512	7.5550e-01	-19.5235	-41.492908	0.000950	9.496212	3.217404	0.076117
1513	7.5600e-01	-19.4850	-41.542940	-0.000125	-1.248378	-0.422962	-0.010006
1514	7.5650e-01	-19.4417	-41.661820	-0.000297	-2.966232	-1.004987	-0.023776
1515	7.5700e-01	-19.4032	-41.391561	0.000674	6.743377	2.284718	0.054052
1516	7.5750e-01	-19.3679	-41.554914	-0.000408	-4.075902	-1.380953	-0.032671
1517	7.5800e-01	-19.3198	-41.356068	0.000496	4.961504	1.681003	0.039769
1518	7.5850e-01	-19.3134	-41.236760	0.000298	2.976902	1.008602	0.023861
1519	7.5900e-01	-19.2364	-41.261135	-0.000061	-0.608184	-0.206058	-0.004875
1520	7.5950e-01	-19.1946	-41.152518	0.000271	2.710155	0.918225	0.021723
1521	7.6000e-01	-19.1802	-41.189722	-0.000093	-0.928281	-0.314510	-0.007441
1522	7.6050e-01	-19.1192	-41.138407	0.000128	1.280388	0.433807	0.010263
1523	7.6100e-01	-19.0823	-41.106762	0.000079	0.789573	0.267514	0.006329
1524	7.6150e-01	-19.0390	-41.098638	0.000020	0.202728	0.068686	0.001625
1525	7.6200e-01	-19.0246	-40.870713	0.000569	5.687057	1.926827	0.045585
1526	7.6250e-01	-18.9508	-40.686407	0.000460	4.598727	1.558091	0.036861
1527	7.6300e-01	-18.9444	-40.870286	-0.000459	-4.588057	-1.554476	-0.036776
1528	7.6350e-01	-18.8898	-40.549994	0.000799	7.991756	2.707680	0.064058
1529	7.6400e-01	-18.8193	-40.726604	-0.000441	-4.406669	-1.493020	-0.035322
1530	7.6450e-01	-18.7952	-40.755254	-0.000071	-0.714883	-0.242209	-0.005730
1531	7.6500e-01	-18.7455	-40.567527	0.000468	4.684086	1.587011	0.037545
1532	7.6550e-01	-18.7198	-40.346445	0.000552	5.516339	1.868986	0.044216
1533	7.6600e-01	-18.7086	-40.287432	0.000147	1.472446	0.498878	0.011802
1534	7.6650e-01	-18.6396	-40.278025	0.000023	0.234738	0.079531	0.001882
1535	7.6700e-01	-18.6027	-40.380655	-0.000256	-2.560776	-0.867614	-0.020526
1536	7.6750e-01	-18.5690	-40.399470	-0.000047	-0.469476	-0.159063	-0.003763
1537	7.6800e-01	-18.5096	-40.148454	0.000626	6.263232	2.122040	0.050203
1538	7.6850e-01	-18.4920	-40.195065	-0.000116	-1.163019	-0.394042	-0.009322
1539	7.6900e-01	-18.4374	-40.110396	0.000211	2.112640	0.715782	0.016934
1540	7.6950e-01	-18.4134	-39.988095	0.000305	3.051592	1.033907	0.024460
1541	7.7000e-01	-18.3556	-39.897866	0.000225	2.251349	0.762778	0.018046
1542	7.7050e-01	-18.3252	-39.824314	0.000184	1.835223	0.621790	0.014710
1543	7.7100e-01	-18.2947	-39.837571	-0.000033	-0.330767	-0.112067	-0.002651
1544	7.7150e-01	-18.2465	-39.747342	0.000225	2.251349	0.762778	0.018046
1545	7.7200e-01	-18.2080	-39.697737	0.000124	1.237709	0.419347	0.009921
1546	7.7250e-01	-18.1551	-39.558759	0.000347	3.467718	1.174895	0.027796
1547	7.7300e-01	-18.1423	-39.409518	0.000372	3.723795	1.261656	0.029848
1548	7.7350e-01	-18.0605	-39.541226	-0.000329	-3.286329	-1.113439	-0.026342
1549	7.7400e-01	-18.0540	-39.389847	0.000378	3.777145	1.279731	0.030276
1550	7.7450e-01	-17.9947	-39.370604	0.000048	0.480146	0.162678	0.003849
1551	7.7500e-01	-17.9738	-39.424057	-0.000133	-1.333738	-0.451883	-0.010691
1552	7.7550e-01	-17.9081	-39.204258	0.000548	5.484329	1.858141	0.043960
1553	7.7600e-01	-17.8824	-39.291065	-0.000217	-2.165990	-0.733857	-0.017362
1554	7.7650e-01	-17.8391	-39.131989	0.000397	3.969203	1.344802	0.031815
1555	7.7700e-01	-17.8054	-39.006695	0.000313	3.126281	1.059213	0.025059
1556	7.7750e-01	-17.7653	-39.159785	-0.000382	-3.819825	-1.294192	-0.030618
1557	7.7800e-01	-17.7236	-38.891663	0.000669	6.690028	2.266643	0.053624
1558	7.7850e-01	-17.6883	-38.804428	0.000218	2.176660	0.737472	0.017447
1559	7.7900e-01	-17.6498	-38.901499	-0.000242	-2.422068	-0.820619	-0.019414
1560	7.7950e-01	-17.5984	-38.695811	0.000513	5.132222	1.738844	0.041138
1561	7.8000e-01	-17.5712	-38.760810	-0.000162	-1.621825	-0.549489	-0.013000
1562	7.8050e-01	-17.5246	-38.662029	0.000246	2.464747	0.835079	0.019756
1563	7.8100e-01	-17.4797	-38.387066	0.000686	6.860746	2.324484	0.054993
1564	7.8150e-01	-17.4412	-38.468314	-0.000203	-2.027281	-0.686861	-0.016250
1565	7.8200e-01	-17.4027	-38.473874	-0.000014	-0.138709	-0.046996	-0.001112
1566	7.8250e-01	-17.3787	-38.286574	0.000467	4.673417	1.583396	0.037460
1567	7.8300e-01	-17.3145	-38.236114	0.000126	1.259048	0.426577	0.010092
1568	7.8350e-01	-17.2615	-38.189503	0.000116	1.163019	0.394042	0.009322
1569	7.8400e-01	-17.2471	-38.310093	-0.000301	-3.008912	-1.019447	-0.024118
1570	7.8450e-01	-17.1926	-38.038551	0.000678	6.775387	2.295563	0.054308
1571	7.8500e-01	-17.1557	-38.035130	0.000009	0.085359	0.028920	0.000684
1572	7.8550e-01	-17.1220	-37.969703	0.000163	1.632495	0.553104	0.013085
1573	7.8600e-01	-17.0787	-37.953026	0.000042	0.416126	0.140987	0.003335
1574	7.8650e-01	-17.0386	-37.886744	0.000165	1.653835	0.560334	0.013256
1575	7.8700e-01	-17.0065	-37.847403	0.000098	0.981631	0.332586	0.007868
1576	7.8750e-01	-16.9423	-37.678063	0.000423	4.225281	1.431564	0.033868
1577	7.8800e-01	-16.9182	-37.710562	-0.000081	-0.810912	-0.274745	-0.006500
1578	7.8850e-01	-16.8942	-37.543361	0.000417	4.171931	1.413489	0.033440
1579	7.8900e-01	-16.8332	-37.601946	-0.000146	-1.461776	-0.495263	-0.011717
1580	7.8950e-01	-16.7803	-37.329121	0.000681	6.807397	2.306408	0.054565
1581	7.9000e-01	-16.7530	-37.347936	-0.000047	-0.469476	-0.159063	-0.003763
1582	7.9050e-01	-16.7241	-37.387705	-0.000099	-0.992301	-0.336201	-0.007954
1583	7.9100e-01	-16.6920	-37.167478	0.000549	5.494999	1.861756	0.044045
1584	7.9150e-01	-16.6407	-37.173893	-0.000016	-0.160049	-0.054226	-0.001283
1585	7.9200e-01	-16.5974	-37.123433	0.000126	1.259048	0.426577	0.010092
1586	7.9250e-01	-16.5605	-37.085802	0.000094	0.938951	0.318125	0.007526
1587	7.9300e-01	-16.5348	-36.980606	0.000262	2.624796	0.889305	0.021039
1588	7.9350e-01	-16.4819	-36.839490	0.000352	3.521067	1.192970	0.028223
1589	7.9400e-01	-16.4402	-36.767649	0.000179	1.792543	0.607330	0.014368
1590	7.9450e-01	-16.3904	-36.879259	-0.000278	-2.784844	-0.943531	-0.022322
1591	7.9500e-01	-16.3856	-36.597882	0.000702	7.020795	2.378710	0.056275
1592	7.9550e-01	-16.3134	-36.750971	-0.000382	-3.819825	-1.294192	-0.030618
1593	7.9600e-01	-16.2862	-36.599164	0.000379	3.787815	1.283346	0.030361
1594	7.9650e-01	-16.2429	-36.586336	0.000032	0.320097	0.108452	0.002566
1595	7.9700e-01	-16.1915	-36.417424	0.000421	4.214611	1.427949	0.033782
1596	7.9750e-01	-16.1354	-36.561106	-0.000359	-3.585087	-1.214660	-0.028736
1597	7.9800e-01	-16.1274	-36.491403	0.000174	1.739194	0.589255	0.013941
1598	7.9850e-01	-16.0921	-36.387917	0.000258	2.582116	0.874845	0.020697
1599	7.9900e-01	-16.0423	-36.171111	0.000541	5.409640	1.832836	0.043361
1600	7.9950e-01	-15.9814	-36.277163	-0.000265	-2.646135	-0.896535	-0.021210
1601	8.0000e-01	-15.9653	-35.974404	0.000755	7.554290	2.559463	0.060552
1602	8.0050e-01	-15.9172	-35.983384	-0.000022	-0.224068	-0.075916	-0.001796
1603	8.0100e-01	-15.8627	-36.027002	-0.000109	-1.088330	-0.368736	-0.008724
1604	8.0150e-01	-15.8466	-35.817038	0.000524	5.238921	1.774995	0.041993
1605	8.0200e-01	-15.7873	-35.751611	0.000163	1.632495	0.553104	0.013085
1606	8.0250e-01	-15.7680	-35.884175	-0.000331	-3.307669	-1.120669	-0.026513
1607	8.0300e-01	-15.7295	-35.722533	0.000403	4.033223	1.366493	0.032328
1608	8.0350e-01	-15.6942	-35.384281	0.000844	8.439892	2.859513	0.067650
1609	8.0400e-01	-15.6413	-35.663093	-0.000696	-6.956775	-2.357019	-0.055762
1610	8.0450e-01	-15.5915	-35.442866	0.000549	5.494999	1.861756	0.044045
1611	8.0500e-01	-15.5611	-35.477503	-0.000086	-0.864262	-0.292820	-0.006928
1612	8.0550e-01	-15.5193	-35.440728	0.000092	0.917611	0.310895	0.007355
1613	8.0600e-01	-15.4760	-35.328262	0.000281	2.806184	0.950761	0.022493
1614	8.0650e-01	-15.4391	-35.213231	0.000287	2.870203	0.972451	0.023006
1615	8.0700e-01	-15.3782	-35.273954	-0.000152	-1.515126	-0.513339	-0.012145
1616	8.0750e-01	-15.3637	-35.050306	0.000558	5.580358	1.890677	0.044730
1617	8.0800e-01	-15.3204	-35.030207	0.000050	0.501485	0.169908	0.004020
1618	8.0850e-01	-15.2932	-34.757810	0.000680	6.796727	2.302793	0.054479
1619	8.0900e-01	-15.2466	-34.802711	-0.000112	-1.120340	-0.379581	-0.008980
1620	8.0950e-01	-15.1969	-34.723600	0.000197	1.973932	0.668786	0.015822
1621	8.1000e-01	-15.1632	-34.703502	0.000050	0.501485	0.169908	0.004020
1622	8.1050e-01	-15.1215	-34.664160	0.000098	0.981631	0.332586	0.007868
1623	8.1100e-01	-15.0702	-34.653469	0.000027	0.266748	0.090377	0.002138
1624	8.1150e-01	-15.0333	-34.471729	0.000453	4.534708	1.536401	0.036348
1625	8.1200e-01	-15.0044	-34.400743	0.000177	1.771204	0.600100	0.014197
1626	8.1250e-01	-14.9643	-34.402881	-0.000005	-0.053350	-0.018075	-0.000428
1627	8.1300e-01	-14.9194	-34.271172	0.000329	3.286329	1.113439	0.026342
1628	8.1350e-01	-14.8857	-34.108675	0.000405	4.054562	1.373723	0.032500
1629	8.1400e-01	-14.8359	-34.180088	-0.000178	-1.781873	-0.603715	-0.014283
1630	8.1450e-01	-14.7990	-34.033840	0.000365	3.649106	1.236351	0.029250
1631	8.1500e-01	-14.7638	-33.939763	0.000235	2.347378	0.795313	0.018816
1632	8.1550e-01	-14.7317	-34.060353	-0.000301	-3.008912	-1.019447	-0.024118
1633	8.1600e-01	-14.6739	-33.874764	0.000463	4.630737	1.568936	0.037118
1634	8.1650e-01	-14.6531	-33.850817	0.000060	0.597514	0.202443	0.004789
1635	8.1700e-01	-14.6033	-33.731082	0.000299	2.987572	1.012217	0.023947
1636	8.1750e-01	-14.5745	-33.619044	0.000280	2.795514	0.947146	0.022408
1637	8.1800e-01	-14.5279	-33.586972	0.000080	0.800243	0.271130	0.006414
1638	8.1850e-01	-14.4830	-33.605787	-0.000047	-0.469476	-0.159063	-0.003763
1639	8.1900e-01	-14.4525	-33.446711	0.000397	3.969203	1.344802	0.031815
1640	8.1950e-01	-14.3948	-33.455691	-0.000022	-0.224068	-0.075916	-0.001796
1641	8.2000e-01	-14.3659	-33.328259	0.000318	3.179630	1.077288	0.025486
1642	8.2050e-01	-14.3033	-33.292766	0.000089	0.885602	0.300050	0.007099
1643	8.2100e-01	-14.2873	-33.260694	0.000080	0.800243	0.271130	0.006414
1644	8.2150e-01	-14.2360	-33.089216	0.000428	4.278630	1.449639	0.034296
1645	8.2200e-01	-14.2039	-32.979744	0.000273	2.731495	0.925455	0.021894
1646	8.2250e-01	-14.1445	-33.010105	-0.000076	-0.757563	-0.256669	-0.006072
1647	8.2300e-01	-14.1253	-32.842904	0.000417	4.171931	1.413489	0.033440
1648	8.2350e-01	-14.0755	-32.823233	0.000049	0.490815	0.166293	0.003934
1649	8.2400e-01	-14.0242	-32.884384	-0.000153	-1.525796	-0.516954	-0.012230
1650	8.2450e-01	-13.9985	-32.692380	0.000479	4.790786	1.623162	0.038401
1651	8.2500e-01	-13.9745	-32.699650	-0.000018	-0.181388	-0.061456	-0.001454
1652	8.2550e-01	-13.9071	-32.480278	0.000547	5.473659	1.854526	0.043874
1653	8.2600e-01	-13.8991	-32.416134	0.000160	1.600485	0.542259	0.012829
1654	8.2650e-01	-13.8301	-32.343865	0.000180	1.803213	0.610945	0.014454
1655	8.2700e-01	-13.8108	-32.429818	-0.000214	-2.144650	-0.726627	-0.017191
1656	8.2750e-01	-13.7659	-32.213012	0.000541	5.409640	1.832836	0.043361
1657	8.2800e-01	-13.7210	-32.139460	0.000184	1.835223	0.621790	0.014710
1658	8.2850e-01	-13.6873	-32.293833	-0.000385	-3.851834	-1.305037	-0.030875
1659	8.2900e-01	-13.6183	-32.106106	0.000468	4.684086	1.587011	0.037545
1660	8.2950e-01	-13.5895	-32.095415	0.000027	0.266748	0.090377	0.002138
1661	8.3000e-01	-13.5461	-31.933773	0.000403	4.033223	1.366493	0.032328
1662	8.3050e-01	-13.5269	-31.805913	0.000319	3.190300	1.080903	0.025572
1663	8.3100e-01	-13.4852	-31.805057	0.000002	0.021340	0.007230	0.000171
1664	8.3150e-01	-13.4467	-31.843544	-0.000096	-0.960291	-0.325355	-0.007697
1665	8.3200e-01	-13.4082	-31.737493	0.000265	2.646135	0.896535	0.021210
1666	8.3250e-01	-13.3601	-31.504437	0.000582	5.815096	1.970208	0.046611
1667	8.3300e-01	-13.3151	-31.620751	-0.000290	-2.902213	-0.983296	-0.023263
1668	8.3350e-01	-13.2863	-31.271381	0.000872	8.717309	2.953504	0.069874
1669	8.3400e-01	-13.2510	-31.433023	-0.000403	-4.033223	-1.366493	-0.032328
1670	8.3450e-01	-13.1740	-31.258980	0.000434	4.342650	1.471330	0.034809
1671	8.3500e-01	-13.1627	-31.226908	0.000080	0.800243	0.271130	0.006414
1672	8.3550e-01	-13.1066	-31.100759	0.000315	3.147621	1.066443	0.025230
1673	8.3600e-01	-13.0937	-31.034904	0.000164	1.643165	0.556719	0.013171
1674	8.3650e-01	-13.0328	-30.961353	0.000184	1.835223	0.621790	0.014710
1675	8.3700e-01	-13.0055	-30.922439	0.000097	0.970961	0.328970	0.007783
1676	8.3750e-01	-12.9558	-30.795434	0.000317	3.168961	1.073673	0.025401
1677	8.3800e-01	-12.8948	-30.806125	-0.000027	-0.266748	-0.090377	-0.002138
1678	8.3850e-01	-12.8836	-30.705205	0.000252	2.518097	0.853154	0.020184
1679	8.3900e-01	-12.8772	-30.482412	0.000556	5.559018	1.883446	0.044559
1680	8.3950e-01	-12.7857	-30.428959	0.000133	1.333738	0.451883	0.010691
1681	8.4000e-01	-12.7585	-30.482412	-0.000133	-1.333738	-0.451883	-0.010691
1682	8.4050e-01	-12.7055	-30.535010	-0.000131	-1.312398	-0.444652	-0.010520
1683	8.4100e-01	-12.6766	-30.412282	0.000306	3.062262	1.037522	0.024546
1684	8.4150e-01	-12.6430	-30.243370	0.000421	4.214611	1.427949	0.033782
1685	8.4200e-01	-12.5996	-30.209160	0.000085	0.853592	0.289205	0.006842
1686	8.4250e-01	-12.5531	-30.052221	0.000392	3.915854	1.326727	0.031388
1687	8.4300e-01	-12.5210	-29.946598	0.000264	2.635466	0.892920	0.021125
1688	8.4350e-01	-12.4857	-29.870481	0.000190	1.899242	0.643481	0.015223
1689	8.4400e-01	-12.4360	-29.837126	0.000083	0.832252	0.281975	0.006671
1690	8.4450e-01	-12.3927	-29.808475	0.000071	0.714883	0.242209	0.005730
1691	8.4500e-01	-12.3670	-29.749035	0.000148	1.483116	0.502493	0.011888
1692	8.4550e-01	-12.3157	-29.705417	0.000109	1.088330	0.368736	0.008724
1693	8.4600e-01	-12.2820	-29.560452	0.000362	3.617096	1.225505	0.028993
1694	8.4650e-01	-12.2451	-29.257694	0.000755	7.554290	2.559463	0.060552
1695	8.4700e-01	-12.2050	-29.542064	-0.000710	-7.095484	-2.404015	-0.056874
1696	8.4750e-01	-12.1617	-29.445421	0.000241	2.411398	0.817004	0.019329
1697	8.4800e-01	-12.1360	-29.387264	0.000145	1.451107	0.491648	0.011631
1698	8.4850e-01	-12.0831	-29.246575	0.000351	3.510397	1.189355	0.028138
1699	8.4900e-01	-12.0285	-29.113584	0.000332	3.318339	1.124284	0.026598
1700	8.4950e-01	-12.0029	-29.010099	0.000258	2.582116	0.874845	0.020697
1701	8.5000e-01	-11.9708	-29.115722	-0.000264	-2.635466	-0.892920	-0.021125
1702	8.5050e-01	-11.9291	-29.010526	0.000262	2.624796	0.889305	0.021039
1703	8.5100e-01	-11.8922	-28.610269	0.000999	9.987027	3.383696	0.080051
1704	8.5150e-01	-11.8328	-28.856154	-0.000614	-6.135193	-2.078660	-0.049177
1705	8.5200e-01	-11.8232	-28.679972	0.000440	4.395999	1.489405	0.035236
1706	8.5250e-01	-11.7526	-28.611552	0.000171	1.707184	0.578410	0.013684
1707	8.5300e-01	-11.7093	-28.649183	-0.000094	-0.938951	-0.318125	-0.007526
1708	8.5350e-01	-11.6804	-28.589743	0.000148	1.483116	0.502493	0.011888
1709	8.5400e-01	-11.6435	-28.363957	0.000563	5.633708	1.908752	0.045157
1710	8.5450e-01	-11.5858	-28.294254	0.000174	1.739194	0.589255	0.013941
1711	8.5500e-01	-11.5713	-28.226689	0.000169	1.685844	0.571180	0.013513
1712	8.5550e-01	-11.5264	-28.212150	0.000036	0.362777	0.122912	0.002908
1713	8.5600e-01	-11.4847	-28.136888	0.000188	1.877903	0.636251	0.015052
1714	8.5650e-01	-11.4414	-28.026133	0.000276	2.763504	0.936301	0.022151
1715	8.5700e-01	-11.3901	-27.957713	0.000171	1.707184	0.578410	0.013684
1716	8.5750e-01	-11.3676	-28.006890	-0.000123	-1.227039	-0.415732	-0.009835
1717	8.5800e-01	-11.3580	-27.817452	0.000473	4.726766	1.601472	0.037888
1718	8.5850e-01	-11.2649	-27.657092	0.000400	4.001213	1.355648	0.032072
1719	8.5900e-01	-11.2505	-27.559594	0.000243	2.432737	0.824234	0.019500
1720	8.5950e-01	-11.2088	-27.552324	0.000018	0.181388	0.061456	0.001454
1721	8.6000e-01	-11.1510	-27.522818	0.000074	0.736223	0.249439	0.005901
1722	8.6050e-01	-11.1205	-27.542489	-0.000049	-0.490815	-0.166293	-0.003934
1723	8.6100e-01	-11.1093	-27.261539	0.000701	7.010125	2.375095	0.056190
1724	8.6150e-01	-11.0484	-27.294894	-0.000083	-0.832252	-0.281975	-0.006671
1725	8.6200e-01	-10.9938	-27.254697	0.000100	1.002971	0.339816	0.008039
1726	8.6250e-01	-10.9633	-27.128547	0.000315	3.147621	1.066443	0.025230
1727	8.6300e-01	-10.9248	-27.057989	0.000176	1.760534	0.596485	0.014112
1728	8.6350e-01	-10.8992	-27.073811	-0.000039	-0.394786	-0.133757	-0.003164
1729	8.6400e-01	-10.8318	-26.971181	0.000256	2.560776	0.867614	0.020526
1730	8.6450e-01	-10.8109	-26.867268	0.000259	2.592786	0.878460	0.020783
1731	8.6500e-01	-10.7628	-26.767632	0.000249	2.486087	0.842309	0.019927
1732	8.6550e-01	-10.7275	-26.595726	0.000429	4.289300	1.453254	0.034381
1733	8.6600e-01	-10.6714	-26.742829	-0.000367	-3.670446	-1.243581	-0.029421
1734	8.6650e-01	-10.6409	-26.526451	0.000540	5.398970	1.829221	0.043276
1735	8.6700e-01	-10.6120	-26.470432	0.000140	1.397757	0.473573	0.011204
1736	8.6750e-01	-10.5575	-26.440071	0.000076	0.757563	0.256669	0.006072
1737	8.6800e-01	-10.5286	-26.347704	0.000230	2.304699	0.780853	0.018473
1738	8.6850e-01	-10.4692	-26.126621	0.000552	5.516339	1.868986	0.044216
1739	8.6900e-01	-10.4387	-26.121918	0.000012	0.117369	0.039766	0.000941
1740	8.6950e-01	-10.4099	-26.001755	0.000300	2.998242	1.015832	0.024033
1741	8.7000e-01	-10.3585	-26.024847	-0.000058	-0.576175	-0.195213	-0.004618
1742	8.7050e-01	-10.2944	-25.956427	0.000171	1.707184	0.578410	0.013684
1743	8.7100e-01	-10.2847	-25.901691	0.000137	1.365747	0.462728	0.010947
1744	8.7150e-01	-10.2671	-25.666497	0.000587	5.868445	1.988283	0.047039
1745	8.7200e-01	-10.1949	-25.521532	0.000362	3.617096	1.225505	0.028993
1746	8.7250e-01	-10.1307	-25.596366	-0.000187	-1.867233	-0.632636	-0.014967
1747	8.7300e-01	-10.1339	-25.399658	-0.000491	-4.908154	-1.662928	0.039342
1748	8.7350e-01	-10.0682	-25.320548	0.000197	1.973932	0.668786	0.015822
1749	8.7400e-01	-10.0441	-25.509131	-0.000471	-4.705426	-1.594242	-0.037717
1750	8.7450e-01	-10.0072	-25.239299	0.000673	6.732707	2.281103	0.053966
1751	8.7500e-01	-9.9960	-25.120847	0.000296	2.955563	1.001372	0.023690
1752	8.7550e-01	-9.9126	-25.071242	0.000124	1.237709	0.419347	0.009921
1753	8.7600e-01	-9.8853	-25.064828	0.000016	0.160049	0.054226	0.001283
1754	8.7650e-01	-9.8420	-24.982296	0.000206	2.059291	0.697707	0.016506
1755	8.7700e-01	-9.8163	-24.951507	0.000077	0.768233	0.260284	0.006158
1756	8.7750e-01	-9.7553	-24.897199	0.000136	1.355077	0.459113	0.010862
1757	8.7800e-01	-9.7104	-24.811674	0.000213	2.133980	0.723012	0.017105
1758	8.7850e-01	-9.6976	-24.562368	0.000622	6.220552	2.107580	0.049861
1759	8.7900e-01	-9.6318	-24.653025	-0.000226	-2.262019	-0.766393	-0.018131
1760	8.7950e-01	-9.6094	-24.518750	0.000335	3.350349	1.135129	0.026855
1761	8.8000e-01	-9.5628	-24.337010	0.000453	4.534708	1.536401	0.036348
1762	8.8050e-01	-9.5372	-24.272438	0.000161	1.611155	0.545874	0.012914
1763	8.8100e-01	-9.4682	-24.214709	0.000144	1.440437	0.488033	0.011546
1764	8.8150e-01	-9.4489	-24.142440	0.000180	1.803213	0.610945	0.014454
1765	8.8200e-01	-9.3992	-24.168953	-0.000066	-0.661534	-0.224134	-0.005303
1766	8.8250e-01	-9.3623	-24.127473	0.000103	1.034980	0.350661	0.008296
1767	8.8300e-01	-9.3158	-24.102243	0.000063	0.629524	0.213289	0.005046
1768	8.8350e-01	-9.2789	-23.965831	0.000340	3.403698	1.153204	0.027282
1769	8.8400e-01	-9.2404	-23.807610	0.000395	3.947863	1.337572	0.031644
1770	8.8450e-01	-9.1987	-23.683171	0.000310	3.104941	1.051983	0.024888
1771	8.8500e-01	-9.1473	-23.681888	0.000003	0.032010	0.010845	0.000257
1772	8.8550e-01	-9.1185	-23.489456	0.000480	4.801455	1.626777	0.038486
1773	8.8600e-01	-9.0751	-23.523239	-0.000084	-0.842922	-0.285590	-0.006756
1774	8.8650e-01	-9.0495	-23.426168	0.000242	2.422068	0.820619	0.019414
1775	8.8700e-01	-9.0030	-23.291038	0.000337	3.371689	1.142359	0.027026
1776	8.8750e-01	-8.9661	-23.280348	0.000027	0.266748	0.090377	0.002138
1777	8.8800e-01	-8.9243	-23.093903	0.000465	4.652077	1.576166	0.037289
1778	8.8850e-01	-8.8891	-23.067390	0.000066	0.661534	0.224134	0.005303
1779	8.8900e-01	-8.8506	-23.015220	0.000130	1.301728	0.441037	0.010434
1780	8.8950e-01	-8.8056	-22.968609	0.000116	1.163019	0.394042	0.009322
1781	8.9000e-01	-8.7463	-22.925419	0.000108	1.077660	0.365121	0.008638
1782	8.9050e-01	-8.7222	-22.757789	0.000418	4.182601	1.417104	0.033526
1783	8.9100e-01	-8.6629	-22.704336	0.000133	1.333738	0.451883	0.010691
1784	8.9150e-01	-8.6452	-22.708185	-0.000010	-0.096029	-0.032536	-0.000770
1785	8.9200e-01	-8.6099	-22.488813	0.000547	5.473659	1.854526	0.043874
1786	8.9250e-01	-8.5650	-22.558944	-0.000175	-1.749864	-0.592870	-0.014026
1787	8.9300e-01	-8.5281	-22.340855	0.000544	5.441649	1.843681	0.043618
1788	8.9350e-01	-8.4912	-22.322895	0.000045	0.448136	0.151833	0.003592
1789	8.9400e-01	-8.4639	-22.246777	0.000190	1.899242	0.643481	0.015223
1790	8.9450e-01	-8.3901	-21.970104	0.000690	6.903426	2.338944	0.055335
1791	8.9500e-01	-8.3741	-21.965400	0.000012	0.117369	0.039766	0.000941
1792	8.9550e-01	-8.3212	-21.997899	-0.000081	-0.810912	-0.274745	-0.006500
1793	8.9600e-01	-8.3179	-21.879875	0.000294	2.944893	0.997757	0.023605
1794	8.9650e-01	-8.2425	-21.726785	0.000382	3.819825	1.294192	0.030618
1795	8.9700e-01	-8.2153	-21.707542	0.000048	0.480146	0.162678	0.003849
1796	8.9750e-01	-8.1559	-21.673759	0.000084	0.842922	0.285590	0.006756
1797	8.9800e-01	-8.1078	-21.479190	0.000485	4.854805	1.644852	0.038914
1798	8.9850e-01	-8.0741	-21.588234	-0.000272	-2.720825	-0.921840	-0.021809
1799	8.9900e-01	-8.0388	-21.474058	0.000285	2.848864	0.965221	0.022835
1800	8.9950e-01	-8.0099	-21.146925	0.000816	8.162474	2.765521	0.065427
1801	9.0000e-01	-7.9666	-21.204227	-0.000143	-1.429767	-0.484418	-0.011460
1802	9.0050e-01	-7.9410	-21.158471	0.000114	1.141679	0.386811	0.009151
1803	9.0100e-01	-7.8816	-20.985283	0.000432	4.321310	1.464099	0.034638
1804	9.0150e-01	-7.8639	-20.904462	0.000202	2.016611	0.683246	0.016164
1805	9.0200e-01	-7.8014	-20.818936	0.000213	2.133980	0.723012	0.017105
1806	9.0250e-01	-7.7565	-20.761207	0.000144	1.440437	0.488033	0.011546
1807	9.0300e-01	-7.7148	-20.730418	0.000077	0.768233	0.260284	0.006158
1808	9.0350e-01	-7.6891	-20.813805	-0.000208	-2.080631	-0.704937	-0.016677
1809	9.0400e-01	-7.6442	-20.426376	0.000967	9.666930	3.275245	0.077486
1810	9.0450e-01	-7.5784	-20.520026	-0.000234	-2.336708	-0.791698	-0.018730
1811	9.0500e-01	-7.5559	-20.521309	-0.000003	-0.032010	-0.010845	-0.000257
1812	9.0550e-01	-7.5174	-20.290819	0.000575	5.751077	1.948517	0.046098
1813	9.0600e-01	-7.4837	-20.157400	0.000333	3.329009	1.127899	0.026684
1814	9.0650e-01	-7.4260	-20.106513	0.000127	1.269718	0.430192	0.010177
1815	9.0700e-01	-7.3891	-20.256609	-0.000375	-3.745135	-1.268886	-0.030019
1816	9.0750e-01	-7.3650	-19.908522	0.000869	8.685299	2.942659	0.069617
1817	9.0800e-01	-7.3362	-19.838819	0.000174	1.739194	0.589255	0.013941
1818	9.0850e-01	-7.3041	-19.863622	-0.000062	-0.618854	-0.209673	-0.004960
1819	9.0900e-01	-7.2239	-19.714380	0.000372	3.723795	1.261656	0.029848
1820	9.0950e-01	-7.2158	-19.523232	0.000477	4.769446	1.615932	0.038230
1821	9.1000e-01	-7.1549	-19.716946	-0.000483	-4.833465	-1.637622	-0.038743
1822	9.1050e-01	-7.1212	-19.434286	0.000705	7.052805	2.389555	0.056532
1823	9.1100e-01	-7.0875	-19.468496	-0.000085	-0.853592	-0.289205	-0.006842
1824	9.1150e-01	-7.0458	-19.294880	0.000433	4.331980	1.467714	0.034723
1825	9.1200e-01	-7.0105	-19.101593	0.000482	4.822795	1.634007	0.038657
1826	9.1250e-01	-6.9495	-19.065245	0.000091	0.906942	0.307280	0.007270
1827	9.1300e-01	-6.9175	-19.158468	-0.000233	-2.326038	-0.788083	-0.018644
1828	9.1350e-01	-6.8790	-18.985707	0.000431	4.310640	1.460484	0.034552
1829	9.1400e-01	-6.8212	-18.810381	0.000437	4.374659	1.482175	0.035065
1830	9.1450e-01	-6.7843	-18.824920	-0.000036	-0.362777	-0.122912	-0.002908
1831	9.1500e-01	-6.7667	-18.819788	0.000013	0.128039	0.043381	0.001026
1832	9.1550e-01	-6.7265	-18.712027	0.000269	2.688815	0.910995	0.021552
1833	9.1600e-01	-6.6752	-18.513181	0.000496	4.961504	1.681003	0.039769
1834	9.1650e-01	-6.6447	-18.426801	0.000216	2.155320	0.730242	0.017276
1835	9.1700e-01	-6.6175	-18.385321	0.000103	1.034980	0.350661	0.008296
1836	9.1750e-01	-6.5517	-18.269435	0.000289	2.891543	0.979681	0.023177
1837	9.1800e-01	-6.5100	-18.183054	0.000216	2.155320	0.730242	0.017276
1838	9.1850e-01	-6.4651	-18.087694	0.000238	2.379388	0.806158	0.019072
1839	9.1900e-01	-6.4378	-18.083845	0.000010	0.096029	0.032536	0.000770
1840	9.1950e-01	-6.4330	-17.855493	0.000570	5.697727	1.930442	0.045670
1841	9.2000e-01	-6.3784	-17.933749	-0.000195	-1.952592	-0.661556	-0.015651
1842	9.2050e-01	-6.3479	-17.675035	0.000646	6.455290	2.187111	0.051743
1843	9.2100e-01	-6.2838	-17.606188	0.000172	1.717854	0.582025	0.013770
1844	9.2150e-01	-6.2437	-17.618161	-0.000030	-0.298757	-0.101222	-0.002395
1845	9.2200e-01	-6.2324	-17.589938	0.000070	0.704213	0.238594	0.005645
1846	9.2250e-01	-6.1747	-17.492439	0.000243	2.432737	0.824234	0.019500
1847	9.2300e-01	-6.1250	-17.356882	0.000338	3.382359	1.145974	0.027111
1848	9.2350e-01	-6.1009	-17.367145	-0.000026	-0.256078	-0.086761	-0.002053
1849	9.2400e-01	-6.0768	-17.221325	0.000364	3.638436	1.232736	0.029164
1850	9.2450e-01	-6.0014	-17.120833	0.000251	2.507427	0.849539	0.020098
1851	9.2500e-01	-5.9549	-16.938665	0.000455	4.545378	1.540016	0.036434
1852	9.2550e-01	-5.9228	-16.796693	0.000354	3.542407	1.200200	0.028394
1853	9.2600e-01	-5.8859	-16.839883	-0.000108	-1.077660	-0.365121	-0.008638
1854	9.2650e-01	-5.8458	-16.832614	0.000018	0.181388	0.061456	0.001454
1855	9.2700e-01	-5.8089	-16.701333	0.000328	3.275660	1.109824	0.026256
1856	9.2750e-01	-5.7592	-16.529855	0.000428	4.278630	1.449639	0.034296
1857	9.2800e-01	-5.7030	-16.531565	-0.000004	-0.042680	-0.014460	-0.000342
1858	9.2850e-01	-5.6838	-16.477685	0.000134	1.344408	0.455498	0.010776
1859	9.2900e-01	-5.6325	-16.289102	0.000471	4.705426	1.594242	0.037717
1860	9.2950e-01	-5.5988	-16.224531	0.000161	1.611155	0.545874	0.012914
1861	9.3000e-01	-5.5827	-16.106934	0.000293	2.934223	0.994142	0.023519
1862	9.3050e-01	-5.5266	-15.991902	0.000287	2.870203	0.972451	0.023006
1863	9.3100e-01	-5.4977	-15.858911	0.000332	3.318339	1.124284	0.026598
1864	9.3150e-01	-5.4464	-15.793912	0.000162	1.621825	0.549489	0.013000
1865	9.3200e-01	-5.4111	-15.844799	-0.000127	-1.269718	-0.430192	-0.010177
1866	9.3250e-01	-5.3662	-15.740031	0.000261	2.614126	0.885690	0.020954
1867	9.3300e-01	-5.3325	-15.551021	0.000472	4.716096	1.597857	0.037802
1868	9.3350e-01	-5.2731	-15.447535	0.000258	2.582116	0.874845	0.020697
1869	9.3400e-01	-5.2362	-15.527074	-0.000198	-1.984602	-0.672401	-0.015908
1870	9.3450e-01	-5.2057	-15.341912	0.000462	4.620067	1.565321	0.037032
1871	9.3500e-01	-5.1704	-15.188822	0.000382	3.819825	1.294192	0.030618
1872	9.3550e-01	-5.1143	-15.219611	-0.000077	-0.768233	-0.260284	-0.006158
1873	9.3600e-01	-5.0854	-15.121685	0.000244	2.443407	0.827849	0.019585
1874	9.3650e-01	-5.0533	-14.891195	0.000575	5.751077	1.948517	0.046098
1875	9.3700e-01	-5.0116	-14.993825	-0.000256	-2.560776	-0.867614	-0.020526
1876	9.3750e-01	-4.9683	-14.718434	0.000687	6.871416	2.328099	0.055078
1877	9.3800e-01	-4.9250	-14.696625	0.000054	0.544165	0.184368	0.004362
1878	9.3850e-01	-4.8881	-14.541397	0.000387	3.873174	1.312267	0.031046
1879	9.3900e-01	-4.8576	-14.463997	0.000193	1.931252	0.654326	0.015480
1880	9.3950e-01	-4.8095	-14.369920	0.000235	2.347378	0.795313	0.018816
1881	9.4000e-01	-4.7886	-14.416531	-0.000116	-1.163019	-0.394042	-0.009322
1882	9.4050e-01	-4.7261	-14.184758	0.000578	5.783086	1.959363	0.046355
1883	9.4100e-01	-4.6924	-14.183475	0.000003	0.032010	0.010845	0.000257
1884	9.4150e-01	-4.6539	-14.181337	0.000005	0.053350	0.018075	0.000428
1885	9.4200e-01	-4.6090	-13.867032	0.000784	7.842377	2.657069	0.062861
1886	9.4250e-01	-4.5640	-13.915354	-0.000121	-1.205699	-0.408502	-0.009664
1887	9.4300e-01	-4.5416	-13.832395	0.000207	2.069961	0.701322	0.016592
1888	9.4350e-01	-4.4806	-13.734469	0.000244	2.443407	0.827849	0.019585
1889	9.4400e-01	-4.4485	-13.505689	0.000571	5.708397	1.934057	0.045756
1890	9.4450e-01	-4.4052	-13.581379	-0.000189	-1.888572	-0.639866	-0.015138
1891	9.4500e-01	-4.3667	-13.414605	0.000416	4.161261	1.409874	0.033355
1892	9.4550e-01	-4.3378	-13.353454	0.000153	1.525796	0.516954	0.012230
1893	9.4600e-01	-4.2753	-13.119116	0.000585	5.847106	1.981053	0.046868
1894	9.4650e-01	-4.2432	-13.119971	-0.000002	-0.021340	-0.007230	-0.000171
1895	9.4700e-01	-4.2063	-13.010927	0.000272	2.720825	0.921840	0.021809
1896	9.4750e-01	-4.1742	-12.960894	0.000125	1.248378	0.422962	0.010006
1897	9.4800e-01	-4.1309	-12.862113	0.000246	2.464747	0.835079	0.019756
1898	9.4850e-01	-4.0860	-12.764187	0.000244	2.443407	0.827849	0.019585
1899	9.4900e-01	-4.0058	-12.824482	-0.000150	-1.504456	-0.509724	-0.012059
1900	9.4950e-01	-4.0138	-12.629057	-0.000488	-4.876145	-1.652083	0.039085
1901	9.5000e-01	-3.9737	-12.407975	0.000552	5.516339	1.868986	0.044216
1902	9.5050e-01	-3.9496	-12.433632	-0.000064	-0.640194	-0.216904	-0.005132
1903	9.5100e-01	-3.8903	-12.394291	0.000098	0.981631	0.332586	0.007868
1904	9.5150e-01	-3.8486	-12.187320	0.000516	5.164232	1.749689	0.041394
1905	9.5200e-01	-3.8133	-12.180906	0.000016	0.160049	0.054226	0.001283
1906	9.5250e-01	-3.7363	-12.002586	0.000445	4.449349	1.507480	0.035664
1907	9.5300e-01	-3.7234	-12.031665	-0.000073	-0.725553	-0.245824	-0.005816
1908	9.5350e-01	-3.6769	-11.783214	0.000620	6.199212	2.100350	0.049690
1909	9.5400e-01	-3.6416	-11.696834	0.000216	2.155320	0.730242	0.017276
1910	9.5450e-01	-3.6111	-11.569829	0.000317	3.168961	1.073673	0.025401
1911	9.5500e-01	-3.5566	-11.678874	-0.000272	-2.720825	-0.921840	-0.021809
1912	9.5550e-01	-3.5181	-11.353023	0.000813	8.130464	2.754676	0.065170
1913	9.5600e-01	-3.5133	-11.131086	0.000554	5.537679	1.876216	0.044388
1914	9.5650e-01	-3.4315	-11.427858	-0.000740	-7.404911	-2.508852	-0.059354
1915	9.5700e-01	-3.4090	-11.096876	0.000826	8.258503	2.798057	0.066196
1916	9.5750e-01	-3.3705	-11.099014	-0.000005	-0.053350	-0.018075	-0.000428
1917	9.5800e-01	-3.3272	-10.935234	0.000409	4.086572	1.384568	0.032756
1918	9.5850e-01	-3.2823	-10.862110	0.000182	1.824553	0.618175	0.014625
1919	9.5900e-01	-3.2373	-10.682079	0.000449	4.492028	1.521940	0.036006
1920	9.5950e-01	-3.1860	-10.829610	-0.000368	-3.681116	-1.247196	-0.029506
1921	9.6000e-01	-3.1876	-10.348104	-0.001201	-12.014308	-4.070558	0.096301
1922	9.6050e-01	-3.1331	-10.403695	-0.000139	-1.387087	-0.469958	-0.011118
1923	9.6100e-01	-3.0673	-10.256592	0.000367	3.670446	1.243581	0.029421
1924	9.6150e-01	-3.0432	-10.330999	-0.000186	-1.856563	-0.629020	-0.014881
1925	9.6200e-01	-3.0095	-10.133009	0.000494	4.940164	1.673773	0.039598
1926	9.6250e-01	-2.9742	-10.117614	0.000038	0.384116	0.130142	0.003079
1927	9.6300e-01	-2.9390	-9.895249	0.000555	5.548348	1.879831	0.044473
1928	9.6350e-01	-2.8844	-9.885841	0.000023	0.234738	0.079531	0.001882
1929	9.6400e-01	-2.8443	-9.795612	0.000225	2.251349	0.762778	0.018046
1930	9.6450e-01	-2.8170	-9.626700	0.000421	4.214611	1.427949	0.033782
1931	9.6500e-01	-2.7641	-9.665614	-0.000097	-0.970961	-0.328970	-0.007783
1932	9.6550e-01	-2.7272	-9.579234	0.000216	2.155320	0.730242	0.017276
1933	9.6600e-01	-2.6823	-9.390223	0.000472	4.716096	1.597857	0.037802
1934	9.6650e-01	-2.6374	-9.304271	0.000214	2.144650	0.726627	0.017191
1935	9.6700e-01	-2.6069	-9.112695	0.000478	4.780116	1.619547	0.038315
1936	9.6750e-01	-2.5668	-9.100721	0.000030	0.298757	0.101222	0.002395
1937	9.6800e-01	-2.5363	-8.955329	0.000363	3.627766	1.229120	0.029079
1938	9.6850e-01	-2.4914	-8.952763	0.000006	0.064019	0.021690	0.000513
1939	9.6900e-01	-2.4449	-8.756910	0.000489	4.886815	1.655698	0.039170
1940	9.6950e-01	-2.4144	-8.691484	0.000163	1.632495	0.553104	0.013085
1941	9.7000e-01	-2.3759	-8.502473	0.000472	4.716096	1.597857	0.037802
1942	9.7050e-01	-2.3197	-8.517440	-0.000037	-0.373447	-0.126527	-0.002993
1943	9.7100e-01	-2.3021	-8.523855	-0.000016	-0.160049	-0.054226	-0.001283
1944	9.7150e-01	-2.2299	-8.278398	0.000612	6.124523	2.075045	0.049091
1945	9.7200e-01	-2.2122	-8.221951	0.000141	1.408427	0.477188	0.011289
1946	9.7250e-01	-2.1545	-8.030375	0.000478	4.780116	1.619547	0.038315
1947	9.7300e-01	-2.1080	-7.964948	0.000163	1.632495	0.553104	0.013085
1948	9.7350e-01	-2.0614	-8.003007	-0.000095	-0.949621	-0.321740	-0.007612
1949	9.7400e-01	-2.0422	-7.873437	0.000323	3.232980	1.095363	0.025914
1950	9.7450e-01	-2.0133	-7.585645	0.000718	7.180843	2.432936	0.057558
1951	9.7500e-01	-1.9668	-7.500547	0.000212	2.123310	0.719397	0.017019
1952	9.7550e-01	-1.9475	-7.453509	0.000117	1.173689	0.397657	0.009408
1953	9.7600e-01	-1.8962	-7.404759	0.000122	1.216369	0.412117	0.009750
1954	9.7650e-01	-1.8577	-7.227295	0.000443	4.428009	1.500250	0.035493
1955	9.7700e-01	-1.7983	-7.252097	-0.000062	-0.618854	-0.209673	-0.004960
1956	9.7750e-01	-1.7486	-7.112264	0.000349	3.489058	1.182125	0.027967
1957	9.7800e-01	-1.7149	-7.080192	0.000080	0.800243	0.271130	0.006414
1958	9.7850e-01	-1.6893	-6.799669	0.000700	6.999455	2.371480	0.056104
1959	9.7900e-01	-1.6347	-6.904438	-0.000261	-2.614126	-0.885690	-0.020954
1960	9.7950e-01	-1.5834	-6.706875	0.000493	4.929494	1.670158	0.039513
1961	9.8000e-01	-1.5449	-6.622205	0.000211	2.112640	0.715782	0.016934
1962	9.8050e-01	-1.5016	-6.484510	0.000344	3.435708	1.164049	0.027539
1963	9.8100e-01	-1.4823	-6.390432	0.000235	2.347378	0.795313	0.018816
1964	9.8150e-01	-1.4711	-6.296355	0.000235	2.347378	0.795313	0.018816
1965	9.8200e-01	-1.4053	-6.060733	0.000588	5.879115	1.991898	0.047124
1966	9.8250e-01	-1.3716	-5.971359	0.000223	2.230009	0.755548	0.017875
1967	9.8300e-01	-1.3251	-5.927742	0.000109	1.088330	0.368736	0.008724
1968	9.8350e-01	-1.2962	-5.699817	0.000569	5.687057	1.926827	0.045585
1969	9.8400e-01	-1.2369	-5.744718	-0.000112	-1.120340	-0.379581	-0.008980
1970	9.8450e-01	-1.1952	-5.621562	0.000307	3.072931	1.041137	0.024631
1971	9.8500e-01	-1.1887	-5.510807	0.000276	2.763504	0.936301	0.022151
1972	9.8550e-01	-1.1374	-5.277324	0.000583	5.825766	1.973823	0.046697
1973	9.8600e-01	-1.0861	-5.231568	0.000114	1.141679	0.386811	0.009151
1974	9.8650e-01	-1.0411	-5.113971	0.000293	2.934223	0.994142	0.023519
1975	9.8700e-01	-0.9946	-5.050682	0.000158	1.579145	0.535029	0.012658
1976	9.8750e-01	-0.9802	-4.729108	0.000802	8.023765	2.718525	0.064315
1977	9.8800e-01	-0.9353	-4.848843	-0.000299	-2.987572	-1.012217	-0.023947
1978	9.8850e-01	-0.8791	-4.681642	0.000417	4.171931	1.413489	0.033440
1979	9.8900e-01	-0.8374	-4.827889	-0.000365	-3.649106	-1.236351	-0.029250
1980	9.8950e-01	-0.8230	-4.434902	0.000981	9.805639	3.322240	0.078598
1981	9.9000e-01	-0.7732	-4.302338	0.000331	3.307669	1.120669	0.026513
1982	9.9050e-01	-0.7187	-4.303621	-0.000003	-0.032010	-0.010845	-0.000257
1983	9.9100e-01	-0.6754	-4.189445	0.000285	2.848864	0.965221	0.022835
1984	9.9150e-01	-0.6337	-4.266845	-0.000193	-1.931252	-0.654326	-0.015480
1985	9.9200e-01	-0.6016	-3.943560	0.000807	8.066445	2.732986	0.064657
1986	9.9250e-01	-0.5663	-3.922607	0.000052	0.522825	0.177138	0.004191
1987	9.9300e-01	-0.5118	-3.779780	0.000356	3.563747	1.207430	0.028565
1988	9.9350e-01	-0.4716	-3.515080	0.000660	6.604669	2.237722	0.052940
1989	9.9400e-01	-0.4636	-3.505244	0.000025	0.245408	0.083146	0.001967
1990	9.9450e-01	-0.4235	-3.326925	0.000445	4.449349	1.507480	0.035664
1991	9.9500e-01	-0.3561	-3.075053	0.000628	6.284572	2.129271	0.050374
1992	9.9550e-01	-0.3144	-3.329918	-0.000636	-6.359261	-2.154576	-0.050973
1993	9.9600e-01	-0.2839	-3.169131	0.000401	4.011883	1.359263	0.032157
1994	9.9650e-01	-0.2326	-2.962588	0.000515	5.153562	1.746074	0.041309
1995	9.9700e-01	-0.2118	-2.718414	0.000609	6.092513	2.064199	0.048835
1996	9.9750e-01	-0.1845	-2.869366	-0.000377	-3.766475	-1.276116	-0.030190
1997	9.9800e-01	-0.1364	-2.767163	0.000255	2.550106	0.863999	0.020440
1998	9.9850e-01	-0.0770	-2.510588	0.000640	6.401941	2.169036	0.051315
1999	9.9900e-01	-0.0449	-2.530686	-0.000050	-0.501485	-0.169908	-0.004020
2000	9.9950e-01	0.0064	-2.532397	-0.000004	-0.042680	-0.014460	-0.000342
2001	1.0000e+00	0.0401	-2.095364	-0.000004	-0.042680	-0.014460	0.087407

Center data before PMax,+/-Pr and +/-Vc Calc.

PMax (uC/cm2):	4.23e+01
Pr (uC/cm2):	-2.33e-02
-Pr (uC/cm2):	-2.10e+00
PLoss (uC/cm2):	-1.10e+00
Vc:	4.08e-01
-Vc:	4.67e-01
C (Max-Eff) (nF):	2.11e-01
K (Eff):	7.15e+02
Vert. (+/-Pr) Shift (uC/cm2):	-1.06e+00
Horiz. Shift (+/-Vc):	4.38e-01
Offset (uC/cm2):	9.83e-01

A (Loop Area - uC/cm2·Volts):	1.57e-01



Hysteresis Version: 5.48.1 - Radiant Technologies, Inc., 1999 - 9/12/24

