»»»»»»»»»»»»»»»»»»»»»»»»»»»»»»»»»»»» Hysteresis ««««««««««««««««««««««««««««««««««««
»»»  Executed Version:	5.48.1
»»»  Vision Version:	5.48.4 (R)
»»»  Vision Compiled:	9/18/24
»»»  Driver Version:	5.47.0
»»»  Windows Version:	Windows 8 or 8.1
»»»  Processor Information:	x86 (AMD or Intel) - 32 Processors
»»»  Tester Name:	PMF21124-494 (100V)
»»»  Tester S/N:	PMF21124-494
»»»  Internal Amp Type:	100V RevK 270k
»»»  Internal Amp S/N:	iAB2-596/K     
»»»  Execution Count:	1
»»»»»»»»»»»»»»»»»»»»»»»»»»»»»»»»»»»»»»»»»»««««««««««««««««««««««««««««««««««««««««««

Stored:	6/9/2025 - 12:21:27
Configured:	06/09/25 11:17:29 AM
Executed:	06/09/25 12:20:56 PM

»»»»»»»»»»»»»»»»»»»»»»»»»»»»»»»»»»» Sample Info ««««««««««««««««««««««««««««««««««««
Sample Name:	
Lot Name:	
Wafer Name:	
Die Row/Column:	0/0
Capacitor Number:	0
Sample Area (cm2):	1.00e-04
Sample Thickness (microns):	3.00e-01

Amplifier:	Internal

»»»»»»»»»»»»»»»»»»»»»»»»»»»»»»»»»»» Tester Info «««««««««««««««««««««««««««««««««««
Tester Name:	PMF21124-494 (100V)
Tester Serial Number:	PMF21124-494
Return Signal Amp. Level:	1.79 [Index: 2]

»»»»»»»»»»»»»»»»»»»»»»»»»»»»»»»» Hysteresis Info ««««««««««««««««««««««««««««««««««
Task Name:	Hyst-785
Volts:	20.00
Field:	666.67 (kV/cm)
DCBias:	0.00
DCField:	0.00 (kV/cm)
Hysteresis Period (ms):	1.00e+00
Preset:	Enabled
Preset Delay (ms):	1.00e+03
Profile:	Standard Bipolar

»»»»»»»»»»»»»»»»»»»»»»»»»»»»»»»»»»»»»» Data «««««««««««««««««««««««««««««««««««««««
Points:	2001

Valid Data

Point	Time (ms)	Drive Voltage	Measured Polarization (uC/cm2)	Capacitance (uF)	Normalized Capacitance (uF/cm2)	Dielectric Constant	Instantaneous Current (mA)
   1	0.0000e+00	0.0385	-0.763097	0.000801	8.010602	2.714065	0.064315
   2	5.0000e-04	0.0561	-0.441523	0.000801	8.010602	2.714065	0.064315
   3	1.0000e-03	0.1107	-0.663461	-0.000553	-5.528594	-1.873138	-0.044388
   4	1.5000e-03	0.1572	-0.432971	0.000574	5.741642	1.945321	0.046098
   5	2.0000e-03	0.1684	-0.336755	0.000240	2.396789	0.812054	0.019243
   6	2.5000e-03	0.2535	-0.380373	-0.000109	-1.086544	-0.368131	-0.008724
   7	3.0000e-03	0.2872	-0.298269	0.000205	2.045260	0.692953	0.016421
   8	3.5000e-03	0.3225	-0.145606	0.000380	3.802905	1.288459	0.030532
   9	4.0000e-03	0.3529	0.081035	0.000565	5.645770	1.912839	0.045328
  10	4.5000e-03	0.4251	0.190935	0.000274	2.737666	0.927546	0.021980
  11	5.0000e-03	0.4219	0.413300	-0.000554	-5.539246	-1.876747	0.044473
  12	5.5000e-03	0.4684	0.363695	-0.000124	-1.235678	-0.418659	-0.009921
  13	6.0000e-03	0.5118	0.486851	0.000307	3.067890	1.039429	0.024631
  14	6.5000e-03	0.5567	0.653625	0.000415	4.154435	1.407561	0.033355
  15	7.0000e-03	0.5823	0.966219	0.000779	7.786902	2.638274	0.062519
  16	7.5000e-03	0.6160	0.932437	-0.000084	-0.841539	-0.285121	-0.006756
  17	8.0000e-03	0.6577	1.073981	0.000353	3.525943	1.194622	0.028309
  18	8.5000e-03	0.7187	1.175328	0.000252	2.524618	0.855364	0.020269
  19	9.0000e-03	0.7428	1.431048	0.000637	6.370133	2.158259	0.051144
  20	9.5000e-03	0.7652	1.440028	0.000022	0.223700	0.075792	0.001796
  21	1.0000e-02	0.8198	1.457133	0.000043	0.426096	0.144365	0.003421
  22	1.0500e-02	0.8775	1.615782	0.000395	3.952039	1.338987	0.031730
  23	1.1000e-02	0.9016	1.784694	0.000421	4.207697	1.425606	0.033782
  24	1.1500e-02	0.9593	1.827884	0.000108	1.075892	0.364522	0.008638
  25	1.2000e-02	0.9850	1.999362	0.000427	4.271611	1.447261	0.034296
  26	1.2500e-02	1.0363	1.996796	-0.000006	-0.063914	-0.021655	-0.000513
  27	1.3000e-02	1.0588	2.117387	0.000300	3.003976	1.017775	0.024118
  28	1.3500e-02	1.1005	2.344883	0.000567	5.667075	1.920057	0.045499
  29	1.4000e-02	1.1342	2.497973	0.000381	3.813558	1.292068	0.030618
  30	1.4500e-02	1.1903	2.415014	-0.000207	-2.066565	-0.700171	-0.016592
  31	1.5000e-02	1.2160	2.765239	0.000872	8.724312	2.955877	0.070045
  32	1.5500e-02	1.2850	2.827672	0.000156	1.555250	0.526933	0.012487
  33	1.6000e-02	1.3203	2.874283	0.000116	1.161111	0.393395	0.009322
  34	1.6500e-02	1.3476	3.063721	0.000472	4.719012	1.598844	0.037888
  35	1.7000e-02	1.3748	3.086813	0.000058	0.575229	0.194893	0.004618
  36	1.7500e-02	1.4390	3.160365	0.000183	1.832212	0.620770	0.014710
  37	1.8000e-02	1.4791	3.270692	0.000275	2.748318	0.931155	0.022065
  38	1.8500e-02	1.5064	3.413519	0.000356	3.557900	1.205449	0.028565
  39	1.9000e-02	1.5561	3.425920	0.000031	0.308919	0.104665	0.002480
  40	1.9500e-02	1.6106	3.777855	0.000877	8.766922	2.970314	0.070387
  41	2.0000e-02	1.6235	3.830026	0.000130	1.299592	0.440314	0.010434
  42	2.0500e-02	1.6540	3.853118	0.000058	0.575229	0.194893	0.004618
  43	2.1000e-02	1.7037	3.990385	0.000342	3.419419	1.158531	0.027454
  44	2.1500e-02	1.7438	4.268342	0.000692	6.924058	2.345934	0.055591
  45	2.2000e-02	1.7951	4.269197	0.000002	0.021305	0.007218	0.000171
  46	2.2500e-02	1.8449	4.292716	0.000059	0.585882	0.198502	0.004704
  47	2.3000e-02	1.8705	4.594620	0.000752	7.520592	2.548045	0.060381
  48	2.3500e-02	1.8994	4.727184	0.000330	3.302243	1.118830	0.026513
  49	2.4000e-02	1.9540	4.843498	0.000290	2.897452	0.981683	0.023263
  50	2.4500e-02	1.9748	4.871721	0.000070	0.703058	0.238203	0.005645
  51	2.5000e-02	2.0149	4.980765	0.000272	2.716361	0.920328	0.021809
  52	2.5500e-02	2.0614	5.234347	0.000632	6.316871	2.140214	0.050716
  53	2.6000e-02	2.0855	5.230926	-0.000009	-0.085219	-0.028873	-0.000684
  54	2.6500e-02	2.1481	5.286090	0.000137	1.374159	0.465578	0.011033
  55	2.7000e-02	2.1834	5.491350	0.000511	5.113150	1.732382	0.041052
  56	2.7500e-02	2.2299	5.523849	0.000081	0.809582	0.274294	0.006500
  57	2.8000e-02	2.3069	5.688058	0.000409	4.090520	1.385906	0.032842
  58	2.8500e-02	2.3165	5.609375	-0.000196	-1.960041	-0.664080	-0.015737
  59	2.9000e-02	2.3470	5.957462	0.000867	8.671051	2.937831	0.069617
  60	2.9500e-02	2.4272	5.792826	-0.000410	-4.101173	-1.389515	-0.032927
  61	3.0000e-02	2.4400	6.122097	0.000820	8.202345	2.779030	0.065854
  62	3.0500e-02	2.4577	6.211043	0.000222	2.215698	0.750699	0.017789
  63	3.1000e-02	2.5122	6.500118	0.000720	7.201020	2.439772	0.057815
  64	3.1500e-02	2.5732	6.291437	-0.000520	-5.198369	-1.761255	-0.041736
  65	3.2000e-02	2.5876	6.553144	0.000652	6.519266	2.208787	0.052341
  66	3.2500e-02	2.6277	6.672023	0.000296	2.961366	1.003338	0.023776
  67	3.3000e-02	2.6614	6.838797	0.000415	4.154435	1.407561	0.033355
  68	3.3500e-02	2.6999	6.870869	0.000080	0.798930	0.270685	0.006414
  69	3.4000e-02	2.7432	7.056031	0.000461	4.612488	1.562753	0.037032
  70	3.4500e-02	2.7930	7.234778	0.000445	4.452702	1.508616	0.035749
  71	3.5000e-02	2.8491	7.227936	-0.000017	-0.170438	-0.057746	-0.001368
  72	3.5500e-02	2.8828	7.211686	-0.000040	-0.404791	-0.137147	-0.003250
  73	3.6000e-02	2.9037	7.531978	0.000798	7.978645	2.703238	0.064058
  74	3.6500e-02	2.9646	7.516156	-0.000039	-0.394139	-0.133538	-0.003164
  75	3.7000e-02	2.9935	7.844572	0.000818	8.181040	2.771811	0.065683
  76	3.7500e-02	3.0288	7.936084	0.000228	2.279613	0.772354	0.018302
  77	3.8000e-02	3.0432	8.173416	0.000591	5.912080	2.003067	0.047466
  78	3.8500e-02	3.0914	8.103285	-0.000175	-1.746993	-0.591897	-0.014026
  79	3.9000e-02	3.1395	8.372261	0.000670	6.700357	2.270142	0.053795
  80	3.9500e-02	3.1956	8.341900	-0.000076	-0.756320	-0.256248	-0.006072
  81	4.0000e-02	3.2277	8.371406	0.000074	0.735015	0.249030	0.005901
  82	4.0500e-02	3.2550	8.554857	0.000457	4.569878	1.548317	0.036690
  83	4.1000e-02	3.3063	8.594199	0.000098	0.980020	0.332040	0.007868
  84	4.1500e-02	3.3480	8.931168	0.000839	8.394088	2.843994	0.067394
  85	4.2000e-02	3.3833	8.806729	-0.000310	-3.099847	-1.050257	-0.024888
  86	4.2500e-02	3.4138	9.026100	0.000546	5.464679	1.851483	0.043874
  87	4.3000e-02	3.4684	9.085540	0.000148	1.480683	0.501669	0.011888
  88	4.3500e-02	3.4940	9.075277	-0.000026	-0.255658	-0.086619	-0.002053
  89	4.4000e-02	3.5229	9.457147	0.000951	9.512590	3.222953	0.076374
  90	4.4500e-02	3.5823	9.541817	0.000211	2.109174	0.714608	0.016934
  91	4.5000e-02	3.6416	9.586717	0.000112	1.118502	0.378959	0.008980
  92	4.5500e-02	3.6737	9.591849	0.000013	0.127829	0.043310	0.001026
  93	4.6000e-02	3.7106	9.677801	0.000214	2.141132	0.725435	0.017191
  94	4.6500e-02	3.7667	9.797964	0.000299	2.993323	1.014165	0.024033
  95	4.7000e-02	3.7988	9.875792	0.000194	1.938736	0.656862	0.015566
  96	4.7500e-02	3.8534	10.046414	0.000425	4.250306	1.440043	0.034124
  97	4.8000e-02	3.8838	10.291444	0.000610	6.103823	2.068031	0.049006
  98	4.8500e-02	3.9240	10.072500	-0.000545	-5.454027	-1.847874	-0.043789
  99	4.9000e-02	3.9352	10.506967	0.001082	10.822835	3.666876	0.086893
 100	4.9500e-02	3.9897	10.450093	-0.000142	-1.416769	-0.480014	-0.011375
 101	5.0000e-02	4.0202	10.715648	0.000662	6.615138	2.241269	0.053111
 102	5.0500e-02	4.0731	10.521934	-0.000483	-4.825535	-1.634936	-0.038743
 103	5.1000e-02	4.1149	10.828541	0.000764	7.637768	2.587746	0.061321
 104	5.1500e-02	4.1758	10.957256	0.000321	3.206371	1.086348	0.025743
 105	5.2000e-02	4.2015	11.020545	0.000158	1.576555	0.534151	0.012658
 106	5.2500e-02	4.2239	11.378039	0.000891	8.905403	3.017232	0.071499
 107	5.3000e-02	4.2753	11.156957	-0.000551	-5.507289	-1.865920	-0.044216
 108	5.3500e-02	4.3138	11.335705	0.000445	4.452702	1.508616	0.035749
 109	5.4000e-02	4.3459	11.656424	0.000799	7.989297	2.706847	0.064144
 110	5.4500e-02	4.4020	11.576458	-0.000199	-1.991998	-0.674907	-0.015993
 111	5.5000e-02	4.4277	11.819349	0.000605	6.050561	2.049986	0.048578
 112	5.5500e-02	4.4742	11.789843	-0.000074	-0.735015	-0.249030	-0.005901
 113	5.6000e-02	4.5031	12.187534	0.000991	9.906728	3.356490	0.079538
 114	5.6500e-02	4.5480	12.148193	-0.000098	-0.980020	-0.332040	-0.007868
 115	5.7000e-02	4.5897	12.234145	0.000214	2.141132	0.725435	0.017191
 116	5.7500e-02	4.6266	12.409899	0.000438	4.378135	1.483352	0.035151
 117	5.8000e-02	4.6731	12.453517	0.000109	1.086544	0.368131	0.008724
 118	5.8500e-02	4.7100	12.460787	0.000018	0.181091	0.061355	0.001454
 119	5.9000e-02	4.7533	12.656639	0.000488	4.878797	1.652981	0.039170
 120	5.9500e-02	4.7790	12.789203	0.000330	3.302243	1.118830	0.026513
 121	6.0000e-02	4.8464	12.834531	0.000113	1.129154	0.382568	0.009066
 122	6.0500e-02	4.8721	12.932457	0.000244	2.439399	0.826491	0.019585
 123	6.1000e-02	4.9154	13.176204	0.000607	6.071866	2.057204	0.048749
 124	6.1500e-02	4.9571	13.195019	0.000047	0.468705	0.158802	0.003763
 125	6.2000e-02	4.9827	13.241203	0.000115	1.150459	0.389786	0.009237
 126	6.2500e-02	5.0245	13.354951	0.000283	2.833537	0.960028	0.022750
 127	6.3000e-02	5.0742	13.552514	0.000492	4.921407	1.667418	0.039513
 128	6.3500e-02	5.1047	13.517021	-0.000088	-0.884149	-0.299558	-0.007099
 129	6.4000e-02	5.1255	13.769748	0.000630	6.295566	2.132996	0.050545
 130	6.4500e-02	5.1833	13.903594	0.000333	3.334200	1.129658	0.026769
 131	6.5000e-02	5.2474	13.902311	-0.000003	-0.031957	-0.010827	-0.000257
 132	6.5500e-02	5.2811	14.101585	0.000496	4.964017	1.681854	0.039855
 133	6.6000e-02	5.3228	14.090039	-0.000029	-0.287615	-0.097446	-0.002309
 134	6.6500e-02	5.3517	14.307700	0.000542	5.422070	1.837047	0.043532
 135	6.7000e-02	5.4159	14.223030	-0.000211	-2.109174	-0.714608	-0.016934
 136	6.7500e-02	5.4448	14.511250	0.000718	7.179715	2.432553	0.057644
 137	6.8000e-02	5.4624	14.525789	0.000036	0.362181	0.122710	0.002908
 138	6.8500e-02	5.5186	14.670326	0.000360	3.600510	1.219886	0.028907
 139	6.9000e-02	5.5715	14.715227	0.000112	1.118502	0.378959	0.008980
 140	6.9500e-02	5.6132	14.759273	0.000110	1.097197	0.371740	0.008809
 141	7.0000e-02	5.6341	15.036801	0.000691	6.913405	2.342325	0.055506
 142	7.0500e-02	5.6581	15.176207	0.000347	3.472681	1.176576	0.027881
 143	7.1000e-02	5.6982	15.286962	0.000276	2.758971	0.934765	0.022151
 144	7.1500e-02	5.7335	15.533274	0.000614	6.135780	2.078859	0.049262
 145	7.2000e-02	5.8041	15.392158	-0.000352	-3.515291	-1.191013	-0.028223
 146	7.2500e-02	5.8250	15.555511	0.000407	4.069215	1.378687	0.032671
 147	7.3000e-02	5.8779	15.776165	0.000550	5.496636	1.862311	0.044131
 148	7.3500e-02	5.9148	15.961755	0.000462	4.623140	1.566362	0.037118
 149	7.4000e-02	5.9485	15.796691	-0.000411	-4.111825	-1.393124	-0.033013
 150	7.4500e-02	5.9902	15.909157	0.000280	2.801580	0.949201	0.022493
 151	7.5000e-02	6.0319	16.148199	0.000595	5.954689	2.017503	0.047809
 152	7.5500e-02	6.0865	16.295303	0.000366	3.664424	1.241541	0.029421
 153	7.6000e-02	6.1298	16.313690	0.000046	0.458053	0.155193	0.003678
 154	7.6500e-02	6.1474	16.418886	0.000262	2.620489	0.887846	0.021039
 155	7.7000e-02	6.1923	16.389808	-0.000072	-0.724363	-0.245421	-0.005816
 156	7.7500e-02	6.2469	16.651514	0.000652	6.519266	2.208787	0.052341
 157	7.8000e-02	6.2774	16.733618	0.000205	2.045260	0.692953	0.016421
 158	7.8500e-02	6.2934	17.006871	0.000681	6.806881	2.306234	0.054651
 159	7.9000e-02	6.3720	16.937596	-0.000173	-1.725688	-0.584679	-0.013855
 160	7.9500e-02	6.3945	17.051344	0.000283	2.833537	0.960028	0.022750
 161	8.0000e-02	6.4346	17.219828	0.000420	4.197044	1.421997	0.033697
 162	8.0500e-02	6.4651	17.241210	0.000053	0.532620	0.180456	0.004276
 163	8.1000e-02	6.4923	17.477686	0.000589	5.890775	1.995849	0.047295
 164	8.1500e-02	6.5549	17.320748	-0.000391	-3.909429	-1.324551	-0.031388
 165	8.2000e-02	6.5982	17.437917	0.000292	2.918757	0.988901	0.023434
 166	8.2500e-02	6.6062	17.809096	0.000925	9.246280	3.132724	0.074236
 167	8.3000e-02	6.6704	17.839885	0.000077	0.766973	0.259857	0.006158
 168	8.3500e-02	6.7073	17.946791	0.000266	2.663099	0.902282	0.021381
 169	8.4000e-02	6.7650	17.966462	0.000049	0.490010	0.166020	0.003934
 170	8.4500e-02	6.8036	18.000672	0.000085	0.852192	0.288730	0.006842
 171	8.5000e-02	6.8100	18.248695	0.000618	6.178390	2.093295	0.049605
 172	8.5500e-02	6.8613	18.350897	0.000255	2.545923	0.862582	0.020440
 173	8.6000e-02	6.8918	18.465073	0.000284	2.844190	0.963638	0.022835
 174	8.6500e-02	6.9672	18.343628	-0.000303	-3.025281	-1.024993	-0.024289
 175	8.7000e-02	6.9864	18.467639	0.000309	3.089195	1.046648	0.024802
 176	8.7500e-02	7.0105	18.717800	0.000623	6.231652	2.111341	0.050032
 177	8.8000e-02	7.0426	18.905955	0.000469	4.687054	1.588017	0.037631
 178	8.8500e-02	7.1100	18.883291	-0.000056	-0.564577	-0.191284	-0.004533
 179	8.9000e-02	7.1517	19.115491	0.000578	5.784251	1.959757	0.046440
 180	8.9500e-02	7.1822	19.113781	-0.000004	-0.042610	-0.014437	-0.000342
 181	9.0000e-02	7.2062	19.362231	0.000619	6.189042	2.096904	0.049690
 182	9.0500e-02	7.2720	19.241641	-0.000300	-3.003976	-1.017775	-0.024118
 183	9.1000e-02	7.3185	19.541406	0.000747	7.467330	2.530000	0.059953
 184	9.1500e-02	7.3490	19.517887	-0.000059	-0.585882	-0.198502	-0.004704
 185	9.2000e-02	7.3859	19.697489	0.000447	4.474006	1.515834	0.035921
 186	9.2500e-02	7.4533	19.670549	-0.000067	-0.671101	-0.227375	-0.005388
 187	9.3000e-02	7.4854	19.881796	0.000526	5.262284	1.782910	0.042249
 188	9.3500e-02	7.5174	19.972880	0.000227	2.268960	0.768745	0.018217
 189	9.4000e-02	7.5607	20.050280	0.000193	1.928084	0.653252	0.015480
 190	9.4500e-02	7.5800	20.200804	0.000375	3.749643	1.270414	0.030105
 191	9.5000e-02	7.6345	20.093470	-0.000267	-2.673751	-0.905892	-0.021467
 192	9.5500e-02	7.6987	20.365012	0.000676	6.764272	2.291797	0.054308
 193	9.6000e-02	7.7051	20.404781	0.000099	0.990673	0.335649	0.007954
 194	9.6500e-02	7.7533	20.580535	0.000438	4.378135	1.483352	0.035151
 195	9.7000e-02	7.8030	20.722507	0.000354	3.536596	1.198231	0.028394
 196	9.7500e-02	7.8351	20.842242	0.000298	2.982671	1.010556	0.023947
 197	9.8000e-02	7.8639	21.003457	0.000402	4.015953	1.360642	0.032243
 198	9.8500e-02	7.9073	20.898261	-0.000262	-2.620489	-0.887846	-0.021039
 199	9.9000e-02	7.9458	21.118916	0.000550	5.496636	1.862311	0.044131
 200	9.9500e-02	7.9811	21.277565	0.000395	3.952039	1.338987	0.031730
 201	1.0000e-01	8.0420	21.248058	-0.000074	-0.735015	-0.249030	-0.005901
 202	1.0050e-01	8.0741	21.301084	0.000132	1.320897	0.447532	0.010605
 203	1.0100e-01	8.1142	21.659434	0.000893	8.926708	3.024451	0.071670
 204	1.0150e-01	8.1623	21.593152	-0.000165	-1.651121	-0.559415	-0.013256
 205	1.0200e-01	8.1976	21.834333	0.000601	6.007951	2.035549	0.048236
 206	1.0250e-01	8.2506	21.718446	-0.000289	-2.886799	-0.978074	-0.023177
 207	1.0300e-01	8.2682	22.002389	0.000707	7.073191	2.396462	0.056789
 208	1.0350e-01	8.2843	22.068244	0.000164	1.640469	0.555806	0.013171
 209	1.0400e-01	8.3436	22.190545	0.000305	3.046585	1.032211	0.024460
 210	1.0450e-01	8.3982	22.130677	-0.000149	-1.491335	-0.505278	-0.011974
 211	1.0500e-01	8.4126	22.270938	0.000349	3.493986	1.183794	0.028052
 212	1.0550e-01	8.4752	22.443699	0.000430	4.303568	1.458088	0.034552
 213	1.0600e-01	8.5169	22.545901	0.000255	2.545923	0.862582	0.020440
 214	1.0650e-01	8.5457	22.716524	0.000425	4.250306	1.440043	0.034124
 215	1.0700e-01	8.5875	22.867475	0.000376	3.760296	1.274023	0.030190
 216	1.0750e-01	8.6548	22.832410	-0.000087	-0.873496	-0.295949	-0.007013
 217	1.0800e-01	8.6741	23.027835	0.000487	4.868145	1.649372	0.039085
 218	1.0850e-01	8.7206	23.032966	0.000013	0.127829	0.043310	0.001026
 219	1.0900e-01	8.7350	23.222404	0.000472	4.719012	1.598844	0.037888
 220	1.0950e-01	8.7784	23.287403	0.000162	1.619164	0.548588	0.013000
 221	1.1000e-01	8.8217	23.358817	0.000178	1.778950	0.602725	0.014283
 222	1.1050e-01	8.8730	23.341284	-0.000044	-0.436748	-0.147974	-0.003507
 223	1.1100e-01	8.9211	23.406711	0.000163	1.629817	0.552197	0.013085
 224	1.1150e-01	8.9484	23.787725	0.000949	9.491285	3.215734	0.076203
 225	1.1200e-01	8.9757	23.912592	0.000311	3.110500	1.053866	0.024973
 226	1.1250e-01	9.0318	23.874533	-0.000095	-0.948063	-0.321213	-0.007612
 227	1.1300e-01	9.0735	23.886079	0.000029	0.287615	0.097446	0.002309
 228	1.1350e-01	9.1153	24.117424	0.000576	5.762946	1.952539	0.046269
 229	1.1400e-01	9.1554	24.208081	0.000226	2.258308	0.765135	0.018131
 230	1.1450e-01	9.1955	24.163180	-0.000112	-1.118502	-0.378959	-0.008980
 231	1.1500e-01	9.2324	24.298310	0.000337	3.366157	1.140485	0.027026
 232	1.1550e-01	9.2773	24.385545	0.000217	2.173089	0.736262	0.017447
 233	1.1600e-01	9.3222	24.437288	0.000129	1.288940	0.436705	0.010349
 234	1.1650e-01	9.3591	24.626726	0.000472	4.719012	1.598844	0.037888
 235	1.1700e-01	9.3816	24.816591	0.000473	4.729664	1.602454	0.037973
 236	1.1750e-01	9.4201	24.945307	0.000321	3.206371	1.086348	0.025743
 237	1.1800e-01	9.4794	24.859782	-0.000213	-2.130479	-0.721826	-0.017105
 238	1.1850e-01	9.5003	25.103956	0.000608	6.082518	2.060813	0.048835
 239	1.1900e-01	9.5468	25.010733	-0.000232	-2.322222	-0.786790	-0.018644
 240	1.1950e-01	9.5901	25.288262	0.000691	6.913405	2.342325	0.055506
 241	1.2000e-01	9.6414	25.245500	-0.000107	-1.065240	-0.360913	-0.008553
 242	1.2050e-01	9.6703	25.440069	0.000485	4.846840	1.642154	0.038914
 243	1.2100e-01	9.6960	25.502502	0.000156	1.555250	0.526933	0.012487
 244	1.2150e-01	9.7409	25.710756	0.000519	5.187717	1.757646	0.041651
 245	1.2200e-01	9.8019	25.813814	0.000257	2.567227	0.869800	0.020612
 246	1.2250e-01	9.8564	25.725295	-0.000221	-2.205046	-0.747090	-0.017704
 247	1.2300e-01	9.8708	26.125552	0.000997	9.970643	3.378145	0.080051
 248	1.2350e-01	9.9142	25.904470	-0.000551	-5.507289	-1.865920	-0.044216
 249	1.2400e-01	9.9783	26.124697	0.000549	5.485984	1.858702	0.044045
 250	1.2450e-01	9.9847	26.209367	0.000211	2.109174	0.714608	0.016934
 251	1.2500e-01	10.0329	26.190979	-0.000046	-0.458053	-0.155193	-0.003678
 252	1.2550e-01	10.0778	26.382128	0.000476	4.761621	1.613281	0.038230
 253	1.2600e-01	10.1051	26.453541	0.000178	1.778950	0.602725	0.014283
 254	1.2650e-01	10.1628	26.501863	0.000120	1.203721	0.407832	0.009664
 255	1.2700e-01	10.1885	26.713109	0.000526	5.262284	1.782910	0.042249
 256	1.2750e-01	10.2366	26.808898	0.000239	2.386137	0.808445	0.019158
 257	1.2800e-01	10.2815	26.902120	0.000232	2.322222	0.786790	0.018644
 258	1.2850e-01	10.3120	27.010309	0.000270	2.695056	0.913110	0.021638
 259	1.2900e-01	10.3377	27.110373	0.000249	2.492661	0.844536	0.020013
 260	1.2950e-01	10.3906	27.034256	-0.000190	-1.896127	-0.642425	-0.015223
 261	1.3000e-01	10.4628	27.283989	0.000622	6.220999	2.107732	0.049947
 262	1.3050e-01	10.4628	27.407145	-0.000307	-3.067890	-1.039429	0.024631
 263	1.3100e-01	10.5141	27.519611	0.000280	2.801580	0.949201	0.022493
 264	1.3150e-01	10.5623	27.524742	0.000013	0.127829	0.043310	0.001026
 265	1.3200e-01	10.6056	27.635497	0.000276	2.758971	0.934765	0.022151
 266	1.3250e-01	10.6329	27.648326	0.000032	0.319572	0.108274	0.002566
 267	1.3300e-01	10.6665	27.818521	0.000424	4.239654	1.436434	0.034039
 268	1.3350e-01	10.7099	27.945953	0.000317	3.174414	1.075521	0.025486
 269	1.3400e-01	10.7387	27.880526	-0.000163	-1.629817	-0.552197	-0.013085
 270	1.3450e-01	10.7981	28.205949	0.000811	8.106474	2.746548	0.065085
 271	1.3500e-01	10.8526	28.233317	0.000068	0.681753	0.230984	0.005474
 272	1.3550e-01	10.8655	28.443709	0.000524	5.240979	1.775692	0.042078
 273	1.3600e-01	10.9264	28.382131	-0.000153	-1.533945	-0.519715	-0.012316
 274	1.3650e-01	10.9713	28.509136	0.000316	3.163762	1.071911	0.025401
 275	1.3700e-01	10.9842	28.922222	0.001029	10.290215	3.486419	0.082617
 276	1.3750e-01	11.0371	28.648969	-0.000681	-6.806881	-2.306234	-0.054651
 277	1.3800e-01	11.0788	28.749033	0.000249	2.492661	0.844536	0.020013
 278	1.3850e-01	11.1157	28.950445	0.000502	5.017279	1.699900	0.040282
 279	1.3900e-01	11.1799	28.980379	0.000075	0.745668	0.252639	0.005987
 280	1.3950e-01	11.2104	29.082581	0.000255	2.545923	0.862582	0.020440
 281	1.4000e-01	11.2264	29.354978	0.000679	6.785576	2.299016	0.054479
 282	1.4050e-01	11.2665	29.318630	-0.000091	-0.905454	-0.306776	-0.007270
 283	1.4100e-01	11.3066	29.427675	0.000272	2.716361	0.920328	0.021809
 284	1.4150e-01	11.3339	29.673559	0.000613	6.125128	2.075249	0.049177
 285	1.4200e-01	11.3852	29.597014	-0.000191	-1.906779	-0.646034	-0.015309
 286	1.4250e-01	11.4366	29.715894	0.000296	2.961366	1.003338	0.023776
 287	1.4300e-01	11.4542	29.942536	0.000565	5.645770	1.912839	0.045328
 288	1.4350e-01	11.5184	29.880530	-0.000154	-1.544597	-0.523324	-0.012401
 289	1.4400e-01	11.5296	29.898063	0.000044	0.436748	0.147974	0.003507
 290	1.4450e-01	11.5745	30.161907	0.000657	6.572528	2.226833	0.052769
 291	1.4500e-01	11.6291	30.194407	0.000081	0.809582	0.274294	0.006500
 292	1.4550e-01	11.6884	30.172598	-0.000054	-0.543272	-0.184066	-0.004362
 293	1.4600e-01	11.7093	30.450127	0.000691	6.913405	2.342325	0.055506
 294	1.4650e-01	11.7430	30.521113	0.000177	1.768298	0.599116	0.014197
 295	1.4700e-01	11.8088	30.609631	0.000221	2.205046	0.747090	0.017704
 296	1.4750e-01	11.8264	30.689169	0.000198	1.981346	0.671298	0.015908
 297	1.4800e-01	11.8569	30.684465	-0.000012	-0.117176	-0.039700	-0.000941
 298	1.4850e-01	11.9194	30.836700	0.000379	3.792253	1.284850	0.030447
 299	1.4900e-01	11.9596	30.953869	0.000292	2.918757	0.988901	0.023434
 300	1.4950e-01	11.9981	31.097551	0.000358	3.579205	1.212668	0.028736
 301	1.5000e-01	12.0350	31.184359	0.000216	2.162436	0.732653	0.017362
 302	1.5050e-01	12.0654	31.289128	0.000261	2.609837	0.884237	0.020954
 303	1.5100e-01	12.1440	31.341725	0.000131	1.310245	0.443923	0.010520
 304	1.5150e-01	12.1521	31.375508	0.000084	0.841539	0.285121	0.006756
 305	1.5200e-01	12.1890	31.492677	0.000292	2.918757	0.988901	0.023434
 306	1.5250e-01	12.2226	31.640636	0.000369	3.685729	1.248759	0.029592
 307	1.5300e-01	12.2708	31.659879	0.000048	0.479358	0.162411	0.003849
 308	1.5350e-01	12.3061	31.783890	0.000309	3.089195	1.046648	0.024802
 309	1.5400e-01	12.3526	31.904908	0.000301	3.014628	1.021384	0.024204
 310	1.5450e-01	12.3975	32.055004	0.000374	3.738991	1.266804	0.030019
 311	1.5500e-01	12.4296	32.108458	0.000133	1.331550	0.451141	0.010691
 312	1.5550e-01	12.4665	32.218785	0.000275	2.748318	0.931155	0.022065
 313	1.5600e-01	12.5307	32.141385	-0.000193	-1.928084	-0.653252	-0.015480
 314	1.5650e-01	12.5676	32.425756	0.000708	7.083843	2.400071	0.056874
 315	1.5700e-01	12.6061	32.362039	-0.000159	-1.587207	-0.537760	-0.012743
 316	1.5750e-01	12.6381	32.600654	0.000594	5.944037	2.013894	0.047723
 317	1.5800e-01	12.6606	32.587398	-0.000033	-0.330224	-0.111883	-0.002651
 318	1.5850e-01	12.7264	32.663088	0.000189	1.885474	0.638816	0.015138
 319	1.5900e-01	12.7649	32.829861	0.000415	4.154435	1.407561	0.033355
 320	1.5950e-01	12.8018	32.763152	-0.000166	-1.661774	-0.563024	-0.013342
 321	1.6000e-01	12.8258	32.956438	0.000481	4.814883	1.631327	0.038657
 322	1.6050e-01	12.8724	33.193771	0.000591	5.912080	2.003067	0.047466
 323	1.6100e-01	12.9173	33.121929	-0.000179	-1.789603	-0.606334	-0.014368
 324	1.6150e-01	12.9494	33.394327	0.000679	6.785576	2.299016	0.054479
 325	1.6200e-01	12.9766	33.476858	0.000206	2.055912	0.696562	0.016506
 326	1.6250e-01	13.0312	33.381498	-0.000238	-2.375484	-0.804836	-0.019072
 327	1.6300e-01	13.0697	33.470016	0.000221	2.205046	0.747090	0.017704
 328	1.6350e-01	13.1098	33.705638	0.000587	5.869470	1.988630	0.047124
 329	1.6400e-01	13.1451	33.684257	-0.000053	-0.532620	-0.180456	-0.004276
 330	1.6450e-01	13.1996	33.768071	0.000209	2.087870	0.707389	0.016763
 331	1.6500e-01	13.2301	33.924154	0.000389	3.888125	1.317332	0.031217
 332	1.6550e-01	13.2814	34.071258	0.000366	3.664424	1.241541	0.029421
 333	1.6600e-01	13.3023	34.131125	0.000149	1.491335	0.505278	0.011974
 334	1.6650e-01	13.3633	34.089218	-0.000104	-1.043935	-0.353695	-0.008381
 335	1.6700e-01	13.3905	34.377437	0.000718	7.179715	2.432553	0.057644
 336	1.6750e-01	13.4338	34.351352	-0.000065	-0.649796	-0.220157	-0.005217
 337	1.6800e-01	13.4820	34.484771	0.000332	3.323548	1.126048	0.026684
 338	1.6850e-01	13.5157	34.595526	0.000276	2.758971	0.934765	0.022151
 339	1.6900e-01	13.5494	34.645986	0.000126	1.256983	0.425877	0.010092
 340	1.6950e-01	13.6087	34.865358	0.000546	5.464679	1.851483	0.043874
 341	1.7000e-01	13.6504	34.826016	-0.000098	-0.980020	-0.332040	-0.007868
 342	1.7050e-01	13.6857	34.782826	-0.000108	-1.075892	-0.364522	-0.008638
 343	1.7100e-01	13.6905	34.880752	0.000244	2.439399	0.826491	0.019585
 344	1.7150e-01	13.7403	35.164695	0.000707	7.073191	2.396462	0.056789
 345	1.7200e-01	13.7788	35.329759	0.000411	4.111825	1.393124	0.033013
 346	1.7250e-01	13.8365	35.271602	-0.000145	-1.448726	-0.490842	-0.011631
 347	1.7300e-01	13.8702	35.517486	0.000613	6.125128	2.075249	0.049177
 348	1.7350e-01	13.9231	35.373804	-0.000358	-3.579205	-1.212668	-0.028736
 349	1.7400e-01	13.9504	35.482849	0.000272	2.716361	0.920328	0.021809
 350	1.7450e-01	13.9905	35.730444	0.000617	6.167737	2.089686	0.049519
 351	1.7500e-01	14.0178	35.791594	0.000152	1.523293	0.516106	0.012230
 352	1.7550e-01	14.0691	35.806989	0.000038	0.383486	0.129929	0.003079
 353	1.7600e-01	14.0916	35.977611	0.000425	4.250306	1.440043	0.034124
 354	1.7650e-01	14.1445	36.106326	0.000321	3.206371	1.086348	0.025743
 355	1.7700e-01	14.1991	36.162773	0.000141	1.406116	0.476405	0.011289
 356	1.7750e-01	14.2536	36.309876	0.000366	3.664424	1.241541	0.029421
 357	1.7800e-01	14.2504	36.088366	0.000552	5.517941	1.869529	-0.044302
 358	1.7850e-01	14.3162	36.434315	0.000862	8.617789	2.919786	0.069190
 359	1.7900e-01	14.3370	36.409513	-0.000062	-0.617839	-0.209330	-0.004960
 360	1.7950e-01	14.3803	36.489478	0.000199	1.991998	0.674907	0.015993
 361	1.8000e-01	14.4349	36.826875	0.000840	8.404741	2.847603	0.067479
 362	1.8050e-01	14.4686	36.640858	-0.000463	-4.633792	-1.569971	-0.037203
 363	1.8100e-01	14.5071	36.894867	0.000633	6.327523	2.143823	0.050802
 364	1.8150e-01	14.5424	36.910689	0.000039	0.394139	0.133538	0.003164
 365	1.8200e-01	14.5712	37.128778	0.000543	5.432722	1.840656	0.043618
 366	1.8250e-01	14.6097	37.160423	0.000079	0.788277	0.267076	0.006329
 367	1.8300e-01	14.6611	37.168120	0.000019	0.191743	0.064964	0.001539
 368	1.8350e-01	14.7092	37.159567	-0.000021	-0.213048	-0.072183	-0.001711
 369	1.8400e-01	14.7509	37.441800	0.000703	7.030581	2.382025	0.056447
 370	1.8450e-01	14.7750	37.378084	-0.000159	-1.587207	-0.537760	-0.012743
 371	1.8500e-01	14.8247	37.536305	0.000394	3.941387	1.335378	0.031644
 372	1.8550e-01	14.8793	37.542720	0.000016	0.159786	0.054137	0.001283
 373	1.8600e-01	14.9162	37.704790	0.000404	4.037258	1.367860	0.032414
 374	1.8650e-01	14.9354	37.753966	0.000123	1.225026	0.415050	0.009835
 375	1.8700e-01	14.9835	37.943404	0.000472	4.719012	1.598844	0.037888
 376	1.8750e-01	15.0477	37.886530	-0.000142	-1.416769	-0.480014	-0.011375
 377	1.8800e-01	15.0686	37.962220	0.000189	1.885474	0.638816	0.015138
 378	1.8850e-01	15.1167	38.183730	0.000552	5.517941	1.869529	0.044302
 379	1.8900e-01	15.1472	38.119586	-0.000160	-1.597859	-0.541369	-0.012829
 380	1.8950e-01	15.1889	38.202973	0.000208	2.077217	0.703780	0.016677
 381	1.9000e-01	15.2482	38.441160	0.000593	5.933385	2.010285	0.047637
 382	1.9050e-01	15.2691	38.507870	0.000166	1.661774	0.563024	0.013342
 383	1.9100e-01	15.3060	38.650269	0.000355	3.547248	1.201840	0.028480
 384	1.9150e-01	15.3493	38.728097	0.000194	1.938736	0.656862	0.015566
 385	1.9200e-01	15.3894	38.671650	-0.000141	-1.406116	-0.476405	-0.011289
 386	1.9250e-01	15.4504	38.777274	0.000263	2.631142	0.891455	0.021125
 387	1.9300e-01	15.4600	38.971843	0.000485	4.846840	1.642154	0.038914
 388	1.9350e-01	15.5177	39.216017	0.000608	6.082518	2.060813	0.048835
 389	1.9400e-01	15.5434	39.175393	-0.000101	-1.011978	-0.342867	-0.008125
 390	1.9450e-01	15.6044	39.250227	0.000186	1.864169	0.631598	0.014967
 391	1.9500e-01	15.6300	39.324206	0.000184	1.842865	0.624379	0.014796
 392	1.9550e-01	15.6894	39.384074	0.000149	1.491335	0.505278	0.011974
 393	1.9600e-01	15.7247	39.423843	0.000099	0.990673	0.335649	0.007954
 394	1.9650e-01	15.7423	39.453349	0.000074	0.735015	0.249030	0.005901
 395	1.9700e-01	15.8001	39.732161	0.000695	6.945362	2.353152	0.055762
 396	1.9750e-01	15.8482	39.716766	-0.000038	-0.383486	-0.129929	-0.003079
 397	1.9800e-01	15.8643	40.048176	0.000826	8.255607	2.797075	0.066282
 398	1.9850e-01	15.9204	39.909198	-0.000346	-3.462029	-1.172967	-0.027796
 399	1.9900e-01	15.9493	40.124293	0.000536	5.358155	1.815392	0.043019
 400	1.9950e-01	15.9878	40.062715	-0.000153	-1.533945	-0.519715	-0.012316
 401	2.0000e-01	16.0391	40.182023	0.000297	2.972019	1.006947	0.023861
 402	2.0050e-01	16.0471	40.231627	0.000124	1.235678	0.418659	0.009921
 403	2.0100e-01	16.1241	40.267975	0.000091	0.905454	0.306776	0.007270
 404	2.0150e-01	16.1562	40.331264	0.000158	1.576555	0.534151	0.012658
 405	2.0200e-01	16.1835	40.636588	0.000761	7.605811	2.576918	0.061065
 406	2.0250e-01	16.2300	40.629746	-0.000017	-0.170438	-0.057746	-0.001368
 407	2.0300e-01	16.2733	40.718265	0.000221	2.205046	0.747090	0.017704
 408	2.0350e-01	16.3054	40.856388	0.000344	3.440724	1.165749	0.027625
 409	2.0400e-01	16.3471	41.074477	0.000543	5.432722	1.840656	0.043618
 410	2.0450e-01	16.3808	40.802079	-0.000679	-6.785576	-2.299016	-0.054479
 411	2.0500e-01	16.4306	41.227994	0.001061	10.609787	3.594693	0.085183
 412	2.0550e-01	16.4658	41.345163	0.000292	2.918757	0.988901	0.023434
 413	2.0600e-01	16.5252	41.100134	-0.000610	-6.103823	-2.068031	-0.049006
 414	2.0650e-01	16.5445	41.289145	0.000471	4.708359	1.595235	0.037802
 415	2.0700e-01	16.6022	41.562397	0.000681	6.806881	2.306234	0.054651
 416	2.0750e-01	16.6279	41.419998	-0.000355	-3.547248	-1.201840	-0.028480
 417	2.0800e-01	16.6840	41.566246	0.000364	3.643120	1.234322	0.029250
 418	2.0850e-01	16.7177	41.483286	-0.000207	-2.066565	-0.700171	-0.016592
 419	2.0900e-01	16.7594	41.716342	0.000581	5.805556	1.966976	0.046611
 420	2.0950e-01	16.7915	41.849334	0.000331	3.312895	1.122439	0.026598
 421	2.1000e-01	16.8268	41.929300	0.000199	1.991998	0.674907	0.015993
 422	2.1050e-01	16.8669	42.048607	0.000297	2.972019	1.006947	0.023861
 423	2.1100e-01	16.9263	42.083672	0.000087	0.873496	0.295949	0.007013
 424	2.1150e-01	16.9423	42.282946	0.000496	4.964017	1.681854	0.039855
 425	2.1200e-01	16.9968	42.283801	0.000002	0.021305	0.007218	0.000171
 426	2.1250e-01	17.0450	42.284656	0.000002	0.021305	0.007218	0.000171
 427	2.1300e-01	17.0787	42.465542	0.000451	4.505964	1.526662	0.036177
 428	2.1350e-01	17.1027	42.323570	-0.000354	-3.536596	-1.198231	-0.028394
 429	2.1400e-01	17.1669	42.582711	0.000646	6.455352	2.187132	0.051828
 430	2.1450e-01	17.1878	42.669091	0.000215	2.151784	0.729044	0.017276
 431	2.1500e-01	17.2439	42.866227	0.000491	4.910755	1.663809	0.039427
 432	2.1550e-01	17.2712	42.964580	0.000245	2.450051	0.830100	0.019671
 433	2.1600e-01	17.3065	42.960304	-0.000011	-0.106524	-0.036091	-0.000855
 434	2.1650e-01	17.3562	43.088592	0.000320	3.195719	1.082739	0.025658
 435	2.1700e-01	17.3963	43.148032	0.000148	1.480683	0.501669	0.011888
 436	2.1750e-01	17.4332	43.327207	0.000446	4.463354	1.512225	0.035835
 437	2.1800e-01	17.4765	43.218590	-0.000271	-2.705709	-0.916719	-0.021723
 438	2.1850e-01	17.5166	43.264346	0.000114	1.139806	0.386177	0.009151
 439	2.1900e-01	17.5567	43.300694	0.000091	0.905454	0.306776	0.007270
 440	2.1950e-01	17.5792	43.637663	0.000839	8.394088	2.843994	0.067394
 441	2.2000e-01	17.6337	43.538881	-0.000246	-2.460704	-0.833709	-0.019756
 442	2.2050e-01	17.6819	43.874995	0.000837	8.372783	2.836776	0.067223
 443	2.2100e-01	17.7139	43.775786	-0.000247	-2.471356	-0.837318	-0.019842
 444	2.2150e-01	17.7476	43.882692	0.000266	2.663099	0.902282	0.021381
 445	2.2200e-01	17.7877	44.019960	0.000342	3.419419	1.158531	0.027454
 446	2.2250e-01	17.8182	43.947691	-0.000180	-1.800255	-0.609943	-0.014454
 447	2.2300e-01	17.8808	44.148675	0.000501	5.006626	1.696291	0.040197
 448	2.2350e-01	17.8888	44.235483	0.000216	2.162436	0.732653	0.017362
 449	2.2400e-01	17.9449	44.220943	-0.000036	-0.362181	-0.122710	-0.002908
 450	2.2450e-01	17.9931	44.179891	-0.000102	-1.022630	-0.346476	-0.008210
 451	2.2500e-01	18.0252	44.524985	0.000860	8.596484	2.912568	0.069019
 452	2.2550e-01	18.0733	44.409526	-0.000288	-2.876147	-0.974465	-0.023092
 453	2.2600e-01	18.1150	44.734521	0.000810	8.095821	2.742938	0.064999
 454	2.2650e-01	18.1519	44.551070	-0.000457	-4.569878	-1.548317	-0.036690
 455	2.2700e-01	18.2080	44.725114	0.000434	4.335525	1.468916	0.034809
 456	2.2750e-01	18.2337	44.886756	0.000403	4.026606	1.364251	0.032328
 457	2.2800e-01	18.2706	45.250238	0.000905	9.054537	3.067760	0.072696
 458	2.2850e-01	18.3219	44.885901	-0.000908	-9.075842	-3.074978	-0.072867
 459	2.2900e-01	18.3444	45.089023	0.000506	5.059888	1.714337	0.040624
 460	2.2950e-01	18.3909	45.192936	0.000259	2.588532	0.877018	0.020783
 461	2.3000e-01	18.4455	45.324644	0.000328	3.280938	1.111612	0.026342
 462	2.3050e-01	18.4599	45.355006	0.000076	0.756320	0.256248	0.006072
 463	2.3100e-01	18.5064	45.514082	0.000396	3.962691	1.342596	0.031815
 464	2.3150e-01	18.5513	45.375532	-0.000345	-3.451376	-1.169358	-0.027710
 465	2.3200e-01	18.5866	45.690692	0.000785	7.850816	2.659928	0.063032
 466	2.3250e-01	18.6348	45.739013	0.000120	1.203721	0.407832	0.009664
 467	2.3300e-01	18.6765	45.747566	0.000021	0.213048	0.072183	0.001711
 468	2.3350e-01	18.7134	45.967793	0.000549	5.485984	1.858702	0.044045
 469	2.3400e-01	18.7471	45.859604	-0.000270	-2.695056	-0.913110	-0.021638
 470	2.3450e-01	18.7904	46.149533	0.000722	7.222325	2.446990	0.057986
 471	2.3500e-01	18.8289	46.083679	-0.000164	-1.640469	-0.555806	-0.013171
 472	2.3550e-01	18.8706	46.203414	0.000298	2.982671	1.010556	0.023947
 473	2.3600e-01	18.9043	46.327426	0.000309	3.089195	1.046648	0.024802
 474	2.3650e-01	18.9556	46.488213	0.000401	4.005301	1.357033	0.032157
 475	2.3700e-01	19.0021	46.291933	-0.000489	-4.889450	-1.656590	-0.039256
 476	2.3750e-01	19.0406	46.655842	0.000907	9.065189	3.071369	0.072782
 477	2.3800e-01	19.0711	46.572027	-0.000209	-2.087870	-0.707389	-0.016763
 478	2.3850e-01	19.1225	46.524133	-0.000119	-1.193068	-0.404223	-0.009579
 479	2.3900e-01	19.1465	46.802517	0.000693	6.934710	2.349543	0.055677
 480	2.3950e-01	19.1898	46.975278	0.000430	4.303568	1.458088	0.034552
 481	2.4000e-01	19.2331	46.757617	-0.000542	-5.422070	-1.837047	-0.043532
 482	2.4050e-01	19.2813	47.139486	0.000951	9.512590	3.222953	0.076374
 483	2.4100e-01	19.3198	47.136065	-0.000009	-0.085219	-0.028873	-0.000684
 484	2.4150e-01	19.3599	47.153170	0.000043	0.426096	0.144365	0.003421
 485	2.4200e-01	19.3968	47.287017	0.000333	3.334200	1.129658	0.026769
 486	2.4250e-01	19.4176	47.379384	0.000230	2.300918	0.779572	0.018473
 487	2.4300e-01	19.4850	47.452508	0.000182	1.821560	0.617161	0.014625
 488	2.4350e-01	19.5171	47.568822	0.000290	2.897452	0.981683	0.023263
 489	2.4400e-01	19.5540	47.603887	0.000087	0.873496	0.295949	0.007013
 490	2.4450e-01	19.6117	47.663327	0.000148	1.480683	0.501669	0.011888
 491	2.4500e-01	19.6342	47.777930	0.000285	2.854842	0.967247	0.022921
 492	2.4550e-01	19.6663	47.916481	0.000345	3.451376	1.169358	0.027710
 493	2.4600e-01	19.7256	47.903225	-0.000033	-0.330224	-0.111883	-0.002651
 494	2.4650e-01	19.7577	48.032795	0.000323	3.227676	1.093566	0.025914
 495	2.4700e-01	19.7994	48.215391	0.000455	4.548573	1.541098	0.036519
 496	2.4750e-01	19.8347	48.179471	-0.000089	-0.894801	-0.303167	-0.007184
 497	2.4800e-01	19.8780	48.348383	0.000421	4.207697	1.425606	0.033782
 498	2.4850e-01	19.9262	48.199569	-0.000371	-3.707034	-1.255977	-0.029763
 499	2.4900e-01	19.9438	48.494630	0.000735	7.350153	2.490299	0.059012
 500	2.4950e-01	20.0080	48.507887	0.000033	0.330224	0.111883	0.002651
 501	2.5000e-01	20.0192	48.538676	0.000077	0.766973	0.259857	0.006158
 502	2.5050e-01	19.9919	48.293219	0.000611	6.114475	2.071640	-0.049091
 503	2.5100e-01	19.9615	48.488644	-0.000487	-4.868145	-1.649372	0.039085
 504	2.5150e-01	19.9101	48.221806	0.000665	6.647095	2.252097	-0.053368
 505	2.5200e-01	19.8684	48.267561	-0.000114	-1.139806	-0.386177	0.009151
 506	2.5250e-01	19.8331	48.103353	0.000409	4.090520	1.385906	-0.032842
 507	2.5300e-01	19.7786	48.030229	0.000182	1.821560	0.617161	-0.014625
 508	2.5350e-01	19.7449	48.055032	-0.000062	-0.617839	-0.209330	0.004960
 509	2.5400e-01	19.7016	48.118748	-0.000159	-1.587207	-0.537760	0.012743
 510	2.5450e-01	19.6599	47.922468	0.000489	4.889450	1.656590	-0.039256
 511	2.5500e-01	19.6342	47.913488	0.000022	0.223700	0.075792	-0.001796
 512	2.5550e-01	19.5989	47.743293	0.000424	4.239654	1.436434	-0.034039
 513	2.5600e-01	19.5428	47.603887	0.000347	3.472681	1.176576	-0.027881
 514	2.5650e-01	19.4898	47.715497	-0.000278	-2.780275	-0.941983	0.022322
 515	2.5700e-01	19.4609	47.567539	0.000369	3.685729	1.248759	-0.029592
 516	2.5750e-01	19.4305	47.329352	0.000593	5.933385	2.010285	-0.047637
 517	2.5800e-01	19.3984	47.358002	-0.000071	-0.713711	-0.241812	0.005730
 518	2.5850e-01	19.3567	47.464054	-0.000264	-2.641794	-0.895064	0.021210
 519	2.5900e-01	19.3118	47.157019	0.000765	7.648420	2.591355	-0.061407
 520	2.5950e-01	19.2733	47.293859	-0.000341	-3.408767	-1.154921	0.027368
 521	2.6000e-01	19.2091	47.197643	0.000240	2.396789	0.812054	-0.019243
 522	2.6050e-01	19.1898	46.913700	0.000707	7.073191	2.396462	-0.056789
 523	2.6100e-01	19.1401	47.105276	-0.000477	-4.772274	-1.616890	0.038315
 524	2.6150e-01	19.0888	46.967581	0.000343	3.430072	1.162140	-0.027539
 525	2.6200e-01	19.0583	46.990245	-0.000056	-0.564577	-0.191284	0.004533
 526	2.6250e-01	19.0230	46.700742	0.000721	7.211672	2.443381	-0.057900
 527	2.6300e-01	18.9925	46.612224	0.000221	2.205046	0.747090	-0.017704
 528	2.6350e-01	18.9348	46.575876	0.000091	0.905454	0.306776	-0.007270
 529	2.6400e-01	18.9059	46.513015	0.000157	1.565902	0.530542	-0.012572
 530	2.6450e-01	18.8545	46.341110	0.000428	4.282263	1.450870	-0.034381
 531	2.6500e-01	18.8241	46.333412	0.000019	0.191743	0.064964	-0.001539
 532	2.6550e-01	18.7711	46.164500	0.000421	4.207697	1.425606	-0.033782
 533	2.6600e-01	18.7487	46.225651	-0.000152	-1.523293	-0.516106	0.012230
 534	2.6650e-01	18.7021	46.102495	0.000307	3.067890	1.039429	-0.024631
 535	2.6700e-01	18.6620	46.206835	-0.000260	-2.599185	-0.880628	0.020868
 536	2.6750e-01	18.6123	45.913057	0.000732	7.318196	2.479472	-0.058756
 537	2.6800e-01	18.5674	45.958385	-0.000113	-1.129154	-0.382568	0.009066
 538	2.6850e-01	18.5497	45.669310	0.000720	7.201020	2.439772	-0.057815
 539	2.6900e-01	18.5193	45.682139	-0.000032	-0.319572	-0.108274	0.002566
 540	2.6950e-01	18.4824	45.719342	-0.000093	-0.926758	-0.313994	0.007441
 541	2.7000e-01	18.4198	45.573522	0.000363	3.632467	1.230713	-0.029164
 542	2.7050e-01	18.3572	45.601745	-0.000070	-0.703058	-0.238203	0.005645
 543	2.7100e-01	18.3412	45.437965	0.000408	4.079868	1.382297	-0.032756
 544	2.7150e-01	18.3027	45.287441	0.000375	3.749643	1.270414	-0.030105
 545	2.7200e-01	18.2337	45.294283	-0.000017	-0.170438	-0.057746	0.001368
 546	2.7250e-01	18.2129	45.330631	-0.000091	-0.905454	-0.306776	0.007270
 547	2.7300e-01	18.1904	45.110404	0.000549	5.485984	1.858702	-0.044045
 548	2.7350e-01	18.1663	45.018892	0.000228	2.279613	0.772354	-0.018302
 549	2.7400e-01	18.1118	44.883335	0.000338	3.376810	1.144094	-0.027111
 550	2.7450e-01	18.0588	44.795244	0.000219	2.194394	0.743481	-0.017618
 551	2.7500e-01	18.0412	44.759751	0.000088	0.884149	0.299558	-0.007099
 552	2.7550e-01	17.9818	44.887184	-0.000317	-3.174414	-1.075521	0.025486
 553	2.7600e-01	17.9401	44.590412	0.000739	7.392763	2.504736	-0.059354
 554	2.7650e-01	17.9145	44.504887	0.000213	2.130479	0.721826	-0.017105
 555	2.7700e-01	17.8728	44.428769	0.000190	1.896127	0.642425	-0.015223
 556	2.7750e-01	17.8327	44.291929	0.000341	3.408767	1.154921	-0.027368
 557	2.7800e-01	17.7845	44.482650	-0.000475	-4.750969	-1.609672	0.038144
 558	2.7850e-01	17.7556	44.064860	0.001041	10.407391	3.526120	-0.083558
 559	2.7900e-01	17.7011	44.169201	-0.000260	-2.599185	-0.880628	0.020868
 560	2.7950e-01	17.6770	44.036637	0.000330	3.302243	1.118830	-0.026513
 561	2.8000e-01	17.6289	43.919040	0.000293	2.929409	0.992511	-0.023519
 562	2.8050e-01	17.5792	43.868580	0.000126	1.256983	0.425877	-0.010092
 563	2.8100e-01	17.5535	43.718056	0.000375	3.749643	1.270414	-0.030105
 564	2.8150e-01	17.5118	43.724471	-0.000016	-0.159786	-0.054137	0.001283
 565	2.8200e-01	17.4541	43.781345	-0.000142	-1.416769	-0.480014	0.011375
 566	2.8250e-01	17.4332	43.530756	0.000624	6.242304	2.114950	-0.050118
 567	2.8300e-01	17.3787	43.327207	0.000507	5.070541	1.717946	-0.040710
 568	2.8350e-01	17.3369	43.503388	-0.000439	-4.388787	-1.486961	0.035236
 569	2.8400e-01	17.3113	43.334049	0.000422	4.218349	1.429215	-0.033868
 570	2.8450e-01	17.2824	43.175400	0.000395	3.952039	1.338987	-0.031730
 571	2.8500e-01	17.2102	43.066783	0.000271	2.705709	0.916719	-0.021723
 572	2.8550e-01	17.1894	43.125368	-0.000146	-1.459378	-0.494451	0.011717
 573	2.8600e-01	17.1396	43.111256	0.000035	0.351529	0.119101	-0.002822
 574	2.8650e-01	17.1043	42.888463	0.000555	5.549898	1.880356	-0.044559
 575	2.8700e-01	17.0514	42.935074	-0.000116	-1.161111	-0.393395	0.009322
 576	2.8750e-01	17.0289	42.843135	0.000229	2.290265	0.775963	-0.018388
 577	2.8800e-01	16.9872	42.566034	0.000690	6.902753	2.338716	-0.055420
 578	2.8850e-01	16.9455	42.589553	-0.000059	-0.585882	-0.198502	0.004704
 579	2.8900e-01	16.8974	42.457844	0.000328	3.280938	1.111612	-0.026342
 580	2.8950e-01	16.8685	42.392845	0.000162	1.619164	0.548588	-0.013000
 581	2.9000e-01	16.8348	42.352221	0.000101	1.011978	0.342867	-0.008125
 582	2.9050e-01	16.7915	42.300051	0.000130	1.299592	0.440314	-0.010434
 583	2.9100e-01	16.7466	42.256433	0.000109	1.086544	0.368131	-0.008724
 584	2.9150e-01	16.7001	42.046897	0.000522	5.219674	1.768473	-0.041907
 585	2.9200e-01	16.6439	42.105481	-0.000146	-1.459378	-0.494451	0.011717
 586	2.9250e-01	16.6375	42.090514	0.000037	0.372834	0.126320	-0.002993
 587	2.9300e-01	16.5894	41.916043	0.000435	4.346178	1.472525	-0.034894
 588	2.9350e-01	16.5509	41.769795	0.000364	3.643120	1.234322	-0.029250
 589	2.9400e-01	16.5011	41.600456	0.000422	4.218349	1.429215	-0.033868
 590	2.9450e-01	16.4787	41.672297	-0.000179	-1.789603	-0.606334	0.014368
 591	2.9500e-01	16.4273	41.561114	0.000277	2.769623	0.938374	-0.022237
 592	2.9550e-01	16.3808	41.444373	0.000291	2.908104	0.985292	-0.023348
 593	2.9600e-01	16.3327	41.373387	0.000177	1.768298	0.599116	-0.014197
 594	2.9650e-01	16.3086	41.354571	0.000047	0.468705	0.158802	-0.003763
 595	2.9700e-01	16.2717	41.349012	0.000014	0.138481	0.046919	-0.001112
 596	2.9750e-01	16.2204	41.052668	0.000738	7.382111	2.501127	-0.059269
 597	2.9800e-01	16.1707	41.022734	0.000075	0.745668	0.252639	-0.005987
 598	2.9850e-01	16.1546	40.967570	0.000137	1.374159	0.465578	-0.011033
 599	2.9900e-01	16.1113	40.797803	0.000423	4.229001	1.432824	-0.033953
 600	2.9950e-01	16.0536	40.727245	0.000176	1.757645	0.595506	-0.014112
 601	3.0000e-01	16.0102	40.761027	-0.000084	-0.841539	-0.285121	0.006756
 602	3.0050e-01	15.9782	40.668660	0.000230	2.300918	0.779572	-0.018473
 603	3.0100e-01	15.9397	40.547642	0.000301	3.014628	1.021384	-0.024204
 604	3.0150e-01	15.9028	40.525833	0.000054	0.543272	0.184066	-0.004362
 605	3.0200e-01	15.8643	40.217516	0.000768	7.680378	2.602182	-0.061664
 606	3.0250e-01	15.8322	40.383007	-0.000412	-4.122477	-1.396733	0.033098
 607	3.0300e-01	15.7889	40.270541	0.000280	2.801580	0.949201	-0.022493
 608	3.0350e-01	15.7552	40.124721	0.000363	3.632467	1.230713	-0.029164
 609	3.0400e-01	15.7231	40.086662	0.000095	0.948063	0.321213	-0.007612
 610	3.0450e-01	15.6525	39.770220	0.000788	7.882773	2.670756	-0.063289
 611	3.0500e-01	15.6108	40.014394	-0.000608	-6.082518	-2.060813	0.048835
 612	3.0550e-01	15.5883	39.969493	0.000112	1.118502	0.378959	-0.008980
 613	3.0600e-01	15.5418	39.763805	0.000512	5.123803	1.735991	-0.041138
 614	3.0650e-01	15.4937	39.671011	0.000231	2.311570	0.783181	-0.018559
 615	3.0700e-01	15.4568	39.485421	0.000462	4.623140	1.566362	-0.037118
 616	3.0750e-01	15.4199	39.357561	0.000319	3.185066	1.079130	-0.025572
 617	3.0800e-01	15.3878	39.340884	0.000042	0.415443	0.140756	-0.003335
 618	3.0850e-01	15.3493	39.331476	0.000023	0.234353	0.079401	-0.001882
 619	3.0900e-01	15.2964	39.242102	0.000223	2.226351	0.754308	-0.017875
 620	3.0950e-01	15.2611	38.888884	0.000880	8.798879	2.981141	-0.070644
 621	3.1000e-01	15.2258	39.243813	-0.000884	-8.841489	-2.995578	0.070986
 622	3.1050e-01	15.1857	38.850825	0.000979	9.789552	3.316790	-0.078598
 623	3.1100e-01	15.1327	38.936778	-0.000214	-2.141132	-0.725435	0.017191
 624	3.1150e-01	15.1022	38.781122	0.000388	3.877472	1.313723	-0.031131
 625	3.1200e-01	15.0573	38.721255	0.000149	1.491335	0.505278	-0.011974
 626	3.1250e-01	15.0156	39.000494	-0.000696	-6.956015	-2.356762	0.055848
 627	3.1300e-01	14.9996	38.409088	0.001473	14.732264	4.991426	-0.118281
 628	3.1350e-01	14.9434	38.403529	0.000014	0.138481	0.046919	-0.001112
 629	3.1400e-01	14.9033	38.205539	0.000493	4.932059	1.671027	-0.039598
 630	3.1450e-01	14.8777	38.239749	-0.000085	-0.852192	-0.288730	0.006842
 631	3.1500e-01	14.8215	38.228203	0.000029	0.287615	0.097446	-0.002309
 632	3.1550e-01	14.7798	38.169618	0.000146	1.459378	0.494451	-0.011717
 633	3.1600e-01	14.7605	37.952385	0.000541	5.411417	1.833438	-0.043447
 634	3.1650e-01	14.7028	37.951102	0.000003	0.031957	0.010827	-0.000257
 635	3.1700e-01	14.6659	38.021232	-0.000175	-1.746993	-0.591897	0.014026
 636	3.1750e-01	14.6354	37.645777	0.000935	9.352804	3.168816	-0.075091
 637	3.1800e-01	14.5857	37.688967	-0.000108	-1.075892	-0.364522	0.008638
 638	3.1850e-01	14.5504	37.628672	0.000150	1.501988	0.508887	-0.012059
 639	3.1900e-01	14.4942	37.591896	0.000092	0.916106	0.310385	-0.007355
 640	3.1950e-01	14.4622	37.612422	-0.000051	-0.511315	-0.173238	0.004105
 641	3.2000e-01	14.4285	37.376373	0.000588	5.880123	1.992240	-0.047210
 642	3.2050e-01	14.3964	37.200619	0.000438	4.378135	1.483352	-0.035151
 643	3.2100e-01	14.3386	37.287855	-0.000217	-2.173089	-0.736262	0.017447
 644	3.2150e-01	14.3098	37.032135	0.000637	6.370133	2.158259	-0.051144
 645	3.2200e-01	14.2697	37.015458	0.000042	0.415443	0.140756	-0.003335
 646	3.2250e-01	14.2311	36.934209	0.000202	2.023955	0.685735	-0.016250
 647	3.2300e-01	14.1846	36.746481	0.000468	4.676402	1.584408	-0.037545
 648	3.2350e-01	14.1622	36.757172	-0.000027	-0.266310	-0.090228	0.002138
 649	3.2400e-01	14.0980	36.541221	0.000538	5.379460	1.822610	-0.043190
 650	3.2450e-01	14.0659	36.769573	-0.000569	-5.688380	-1.927275	0.045670
 651	3.2500e-01	14.0226	36.391125	0.000943	9.427371	3.194080	-0.075690
 652	3.2550e-01	13.9889	36.391980	-0.000002	-0.021305	-0.007218	0.000171
 653	3.2600e-01	13.9408	36.200404	0.000477	4.772274	1.616890	-0.038315
 654	3.2650e-01	13.8911	36.328264	-0.000319	-3.185066	-1.079130	0.025572
 655	3.2700e-01	13.8654	36.114024	0.000534	5.336850	1.808174	-0.042848
 656	3.2750e-01	13.8349	36.120010	-0.000015	-0.149134	-0.050528	0.001197
 657	3.2800e-01	13.7739	35.965638	0.000385	3.845515	1.302896	-0.030875
 658	3.2850e-01	13.7499	35.778765	0.000466	4.655097	1.577190	-0.037374
 659	3.2900e-01	13.6953	35.724457	0.000135	1.352854	0.458359	-0.010862
 660	3.2950e-01	13.6552	35.687681	0.000092	0.916106	0.310385	-0.007355
 661	3.3000e-01	13.6247	35.587617	0.000249	2.492661	0.844536	-0.020013
 662	3.3050e-01	13.5734	35.700082	-0.000280	-2.801580	-0.949201	0.022493
 663	3.3100e-01	13.5381	35.480283	0.000548	5.475332	1.855093	-0.043960
 664	3.3150e-01	13.5044	35.380219	0.000249	2.492661	0.844536	-0.020013
 665	3.3200e-01	13.4659	35.283148	0.000242	2.418094	0.819272	-0.019414
 666	3.3250e-01	13.4130	35.124499	0.000395	3.952039	1.338987	-0.031730
 667	3.3300e-01	13.3857	35.147590	-0.000058	-0.575229	-0.194893	0.004618
 668	3.3350e-01	13.3215	35.168116	-0.000051	-0.511315	-0.173238	0.004105
 669	3.3400e-01	13.3199	34.799076	0.000919	9.193018	3.114679	-0.073808
 670	3.3450e-01	13.2654	34.897430	-0.000245	-2.450051	-0.830100	0.019671
 671	3.3500e-01	13.2365	34.795227	0.000255	2.545923	0.862582	-0.020440
 672	3.3550e-01	13.1820	34.624605	0.000425	4.250306	1.440043	-0.034124
 673	3.3600e-01	13.1499	34.507008	0.000293	2.929409	0.992511	-0.023519
 674	3.3650e-01	13.0841	34.431318	0.000189	1.885474	0.638816	-0.015138
 675	3.3700e-01	13.0456	34.533520	-0.000255	-2.545923	-0.862582	0.020440
 676	3.3750e-01	13.0039	34.504442	0.000072	0.724363	0.245421	-0.005816
 677	3.3800e-01	12.9734	34.327405	0.000441	4.410092	1.494180	-0.035407
 678	3.3850e-01	12.9574	34.107606	0.000548	5.475332	1.855093	-0.043960
 679	3.3900e-01	12.9301	33.987015	0.000300	3.003976	1.017775	-0.024118
 680	3.3950e-01	12.8595	34.014811	-0.000069	-0.692406	-0.234593	0.005559
 681	3.4000e-01	12.8226	33.833070	0.000453	4.527268	1.533880	-0.036348
 682	3.4050e-01	12.7922	33.873267	-0.000100	-1.001325	-0.339258	0.008039
 683	3.4100e-01	12.7456	33.772348	0.000251	2.513966	0.851755	-0.020184
 684	3.4150e-01	12.6911	33.535443	0.000590	5.901427	1.999458	-0.047381
 685	3.4200e-01	12.6638	33.679553	-0.000359	-3.589858	-1.216277	0.028822
 686	3.4250e-01	12.6349	33.426826	0.000630	6.295566	2.132996	-0.050545
 687	3.4300e-01	12.5772	33.585903	-0.000396	-3.962691	-1.342596	0.031815
 688	3.4350e-01	12.5355	33.249789	0.000837	8.372783	2.836776	-0.067223
 689	3.4400e-01	12.5146	33.218573	0.000078	0.777625	0.263466	-0.006243
 690	3.4450e-01	12.4745	32.931636	0.000715	7.147758	2.421726	-0.057387
 691	3.4500e-01	12.4232	32.973543	-0.000104	-1.043935	-0.353695	0.008381
 692	3.4550e-01	12.3863	32.948314	0.000063	0.628491	0.212939	-0.005046
 693	3.4600e-01	12.3702	32.711837	0.000589	5.890775	1.995849	-0.047295
 694	3.4650e-01	12.3205	32.664798	0.000117	1.171764	0.397004	-0.009408
 695	3.4700e-01	12.2563	32.722100	-0.000143	-1.427421	-0.483623	0.011460
 696	3.4750e-01	12.2098	32.548484	0.000432	4.324873	1.465307	-0.034723
 697	3.4800e-01	12.1841	32.444999	0.000258	2.577880	0.873409	-0.020697
 698	3.4850e-01	12.1489	32.344507	0.000250	2.503313	0.848145	-0.020098
 699	3.4900e-01	12.1023	32.243587	0.000251	2.513966	0.851755	-0.020184
 700	3.4950e-01	12.0558	32.295757	-0.000130	-1.299592	-0.440314	0.010434
 701	3.5000e-01	12.0253	32.083228	0.000529	5.294241	1.793737	-0.042506
 702	3.5050e-01	11.9997	31.941256	0.000354	3.536596	1.198231	-0.028394
 703	3.5100e-01	11.9451	31.788166	0.000381	3.813558	1.292068	-0.030618
 704	3.5150e-01	11.9018	31.753956	0.000085	0.852192	0.288730	-0.006842
 705	3.5200e-01	11.8729	31.791587	-0.000094	-0.937411	-0.317603	0.007526
 706	3.5250e-01	11.8152	31.771916	0.000049	0.490010	0.166020	-0.003934
 707	3.5300e-01	11.7863	31.574781	0.000491	4.910755	1.663809	-0.039427
 708	3.5350e-01	11.7350	31.613267	-0.000096	-0.958716	-0.324822	0.007697
 709	3.5400e-01	11.6981	31.341725	0.000676	6.764272	2.291797	-0.054308
 710	3.5450e-01	11.6756	31.329324	0.000031	0.308919	0.104665	-0.002480
 711	3.5500e-01	11.6403	31.186925	0.000355	3.547248	1.201840	-0.028480
 712	3.5550e-01	11.5794	31.085150	0.000254	2.535270	0.858973	-0.020355
 713	3.5600e-01	11.5328	31.182649	-0.000243	-2.428746	-0.822882	0.019500
 714	3.5650e-01	11.5040	30.866634	0.000787	7.872121	2.667147	-0.063203
 715	3.5700e-01	11.4638	30.917521	-0.000127	-1.267635	-0.429486	0.010177
 716	3.5750e-01	11.4334	30.731077	0.000464	4.644445	1.573580	-0.037289
 717	3.5800e-01	11.3901	30.616901	0.000284	2.844190	0.963638	-0.022835
 718	3.5850e-01	11.3467	30.492462	0.000310	3.099847	1.050257	-0.024888
 719	3.5900e-01	11.3227	30.286346	0.000513	5.134455	1.739600	-0.041223
 720	3.5950e-01	11.2537	30.263255	0.000058	0.575229	0.194893	-0.004618
 721	3.6000e-01	11.2360	30.306017	-0.000107	-1.065240	-0.360913	0.008553
 722	3.6050e-01	11.1799	30.141809	0.000409	4.090520	1.385906	-0.032842
 723	3.6100e-01	11.1462	29.940397	0.000502	5.017279	1.699900	-0.040282
 724	3.6150e-01	11.1109	30.004114	-0.000159	-1.587207	-0.537760	0.012743
 725	3.6200e-01	11.0756	29.857438	0.000365	3.653772	1.237931	-0.029335
 726	3.6250e-01	11.0243	29.833919	0.000059	0.585882	0.198502	-0.004704
 727	3.6300e-01	10.9826	29.767209	0.000166	1.661774	0.563024	-0.013342
 728	3.6350e-01	10.9601	29.573067	0.000484	4.836188	1.638545	-0.038828
 729	3.6400e-01	10.9040	29.589317	-0.000040	-0.404791	-0.137147	0.003250
 730	3.6450e-01	10.8430	29.429813	0.000397	3.973344	1.346205	-0.031901
 731	3.6500e-01	10.8302	29.323334	0.000265	2.652447	0.898673	-0.021296
 732	3.6550e-01	10.7869	29.109522	0.000533	5.326198	1.804565	-0.042763
 733	3.6600e-01	10.7339	29.041957	0.000168	1.683079	0.570242	-0.013513
 734	3.6650e-01	10.6874	29.166396	-0.000310	-3.099847	-1.050257	0.024888
 735	3.6700e-01	10.6617	29.051792	0.000285	2.854842	0.967247	-0.022921
 736	3.6750e-01	10.6232	28.873472	0.000444	4.442049	1.505007	-0.035664
 737	3.6800e-01	10.5895	28.836269	0.000093	0.926758	0.313994	-0.007441
 738	3.6850e-01	10.5494	28.690876	0.000362	3.621815	1.227104	-0.029079
 739	3.6900e-01	10.5093	28.484333	0.000515	5.145107	1.743210	-0.041309
 740	3.6950e-01	10.4644	28.542490	-0.000145	-1.448726	-0.490842	0.011631
 741	3.7000e-01	10.4179	28.571569	-0.000072	-0.724363	-0.245421	0.005816
 742	3.7050e-01	10.3810	28.397525	0.000434	4.335525	1.468916	-0.034809
 743	3.7100e-01	10.3281	28.115293	0.000703	7.030581	2.382025	-0.056447
 744	3.7150e-01	10.3120	28.211508	-0.000240	-2.396789	-0.812054	0.019243
 745	3.7200e-01	10.2655	28.105030	0.000265	2.652447	0.898673	-0.021296
 746	3.7250e-01	10.2270	27.797567	0.000766	7.659073	2.594964	-0.061493
 747	3.7300e-01	10.1805	27.878816	-0.000202	-2.023955	-0.685735	0.016250
 748	3.7350e-01	10.1388	27.728292	0.000375	3.749643	1.270414	-0.030105
 749	3.7400e-01	10.0986	27.595728	0.000330	3.302243	1.118830	-0.026513
 750	3.7450e-01	10.0682	27.533295	0.000156	1.555250	0.526933	-0.012487
 751	3.7500e-01	10.0072	27.489249	0.000110	1.097197	0.371740	-0.008809
 752	3.7550e-01	9.9815	27.345995	0.000357	3.568553	1.209058	-0.028651
 753	3.7600e-01	9.9478	27.031690	0.000783	7.829511	2.652710	-0.062861
 754	3.7650e-01	9.8901	27.217707	-0.000463	-4.633792	-1.569971	0.037203
 755	3.7700e-01	9.8612	27.095834	0.000304	3.035933	1.028602	-0.024375
 756	3.7750e-01	9.8291	27.015441	0.000200	2.002650	0.678516	-0.016079
 757	3.7800e-01	9.7874	26.856792	0.000395	3.952039	1.338987	-0.031730
 758	3.7850e-01	9.7505	26.705412	0.000377	3.770948	1.277632	-0.030276
 759	3.7900e-01	9.7104	26.630150	0.000187	1.874822	0.635207	-0.015052
 760	3.7950e-01	9.6591	26.681893	-0.000129	-1.288940	-0.436705	0.010349
 761	3.8000e-01	9.5965	26.583539	0.000245	2.450051	0.830100	-0.019671
 762	3.8050e-01	9.5869	26.538211	0.000113	1.129154	0.382568	-0.009066
 763	3.8100e-01	9.5500	26.272655	0.000662	6.615138	2.241269	-0.053111
 764	3.8150e-01	9.5195	26.064402	0.000519	5.187717	1.757646	-0.041651
 765	3.8200e-01	9.4666	26.259827	-0.000487	-4.868145	-1.649372	0.039085
 766	3.8250e-01	9.4152	25.967331	0.000729	7.286239	2.468645	-0.058499
 767	3.8300e-01	9.3848	25.979732	-0.000031	-0.308919	-0.104665	0.002480
 768	3.8350e-01	9.3254	25.888648	0.000227	2.268960	0.768745	-0.018217
 769	3.8400e-01	9.2965	25.747959	0.000350	3.504638	1.187404	-0.028138
 770	3.8450e-01	9.2709	25.745393	0.000006	0.063914	0.021655	-0.000513
 771	3.8500e-01	9.2179	25.532436	0.000530	5.304893	1.797347	-0.042591
 772	3.8550e-01	9.1778	25.410563	0.000304	3.035933	1.028602	-0.024375
 773	3.8600e-01	9.1634	25.207441	0.000506	5.059888	1.714337	-0.040624
 774	3.8650e-01	9.1104	25.316485	-0.000272	-2.716361	-0.920328	0.021809
 775	3.8700e-01	9.0671	24.978234	0.000843	8.426045	2.854821	-0.067650
 776	3.8750e-01	9.0206	25.182211	-0.000508	-5.081193	-1.721555	0.040795
 777	3.8800e-01	8.9789	24.893136	0.000720	7.201020	2.439772	-0.057815
 778	3.8850e-01	8.9324	24.990635	-0.000243	-2.428746	-0.822882	0.019500
 779	3.8900e-01	8.8955	24.533931	0.001138	11.376759	3.854550	-0.091341
 780	3.8950e-01	8.8634	24.666067	-0.000329	-3.291590	-1.115221	0.026427
 781	3.9000e-01	8.8297	24.545477	0.000300	3.003976	1.017775	-0.024118
 782	3.9050e-01	8.7719	24.705836	-0.000399	-3.994649	-1.353424	0.032072
 783	3.9100e-01	8.7495	24.285908	0.001046	10.460653	3.544165	-0.083986
 784	3.9150e-01	8.6982	24.385117	-0.000247	-2.471356	-0.837318	0.019842
 785	3.9200e-01	8.6709	23.984860	0.000997	9.970643	3.378145	-0.080051
 786	3.9250e-01	8.6003	24.072523	-0.000218	-2.183741	-0.739872	0.017533
 787	3.9300e-01	8.5794	23.954926	0.000293	2.929409	0.992511	-0.023519
 788	3.9350e-01	8.5265	23.973742	-0.000047	-0.468705	-0.158802	0.003763
 789	3.9400e-01	8.4976	23.944236	0.000074	0.735015	0.249030	-0.005901
 790	3.9450e-01	8.4495	23.669700	0.000684	6.838838	2.317061	-0.054907
 791	3.9500e-01	8.4302	23.518749	0.000376	3.760296	1.274023	-0.030190
 792	3.9550e-01	8.3853	23.405856	0.000281	2.812233	0.952810	-0.022579
 793	3.9600e-01	8.3340	23.244213	0.000403	4.026606	1.364251	-0.032328
 794	3.9650e-01	8.3019	23.291680	-0.000118	-1.182416	-0.400613	0.009493
 795	3.9700e-01	8.2666	23.254476	0.000093	0.926758	0.313994	-0.007441
 796	3.9750e-01	8.2217	22.982079	0.000679	6.785576	2.299016	-0.054479
 797	3.9800e-01	8.1768	22.954711	0.000068	0.681753	0.230984	-0.005474
 798	3.9850e-01	8.1495	22.943165	0.000029	0.287615	0.097446	-0.002309
 799	3.9900e-01	8.1158	22.714813	0.000569	5.688380	1.927275	-0.045670
 800	3.9950e-01	8.0693	22.706261	0.000021	0.213048	0.072183	-0.001711
 801	4.0000e-01	8.0212	22.536066	0.000424	4.239654	1.436434	-0.034039
 802	4.0050e-01	7.9795	22.552316	-0.000040	-0.404791	-0.137147	0.003250
 803	4.0100e-01	7.9586	22.349194	0.000506	5.059888	1.714337	-0.040624
 804	4.0150e-01	7.9089	22.201235	0.000369	3.685729	1.248759	-0.029592
 805	4.0200e-01	7.8623	22.243570	-0.000105	-1.054587	-0.357304	0.008467
 806	4.0250e-01	7.8014	22.309424	-0.000164	-1.640469	-0.555806	0.013171
 807	4.0300e-01	7.7853	21.949364	0.000897	8.969318	3.038887	-0.072012
 808	4.0350e-01	7.7292	22.091336	-0.000354	-3.536596	-1.198231	0.028394
 809	4.0400e-01	7.6987	21.923706	0.000418	4.175739	1.414779	-0.033526
 810	4.0450e-01	7.6746	21.558087	0.000911	9.107799	3.085806	-0.073124
 811	4.0500e-01	7.5960	21.541409	0.000042	0.415443	0.140756	-0.003335
 812	4.0550e-01	7.5672	21.603843	-0.000156	-1.555250	-0.526933	0.012487
 813	4.0600e-01	7.5399	21.389602	0.000534	5.336850	1.808174	-0.042848
 814	4.0650e-01	7.4934	21.380195	0.000023	0.234353	0.079401	-0.001882
 815	4.0700e-01	7.4677	21.104804	0.000686	6.860143	2.324279	-0.055078
 816	4.0750e-01	7.4244	21.044081	0.000151	1.512640	0.512496	-0.012145
 817	4.0800e-01	7.3763	20.928622	0.000288	2.876147	0.974465	-0.023092
 818	4.0850e-01	7.3394	21.026549	-0.000244	-2.439399	-0.826491	0.019585
 819	4.0900e-01	7.3105	20.756289	0.000673	6.732314	2.280970	-0.054052
 820	4.0950e-01	7.2688	20.664350	0.000229	2.290265	0.775963	-0.018388
 821	4.1000e-01	7.2239	20.633561	0.000077	0.766973	0.259857	-0.006158
 822	4.1050e-01	7.1725	20.489879	0.000358	3.579205	1.212668	-0.028736
 823	4.1100e-01	7.1436	20.514253	-0.000061	-0.607187	-0.205720	0.004875
 824	4.1150e-01	7.0875	20.400078	0.000284	2.844190	0.963638	-0.022835
 825	4.1200e-01	7.0586	20.146068	0.000633	6.327523	2.143823	-0.050802
 826	4.1250e-01	7.0249	20.025050	0.000301	3.014628	1.021384	-0.024204
 827	4.1300e-01	6.9929	19.884361	0.000350	3.504638	1.187404	-0.028138
 828	4.1350e-01	6.9736	19.820645	0.000159	1.587207	0.537760	-0.012743
 829	4.1400e-01	6.9030	19.567491	0.000631	6.306219	2.136605	-0.050631
 830	4.1450e-01	6.8597	19.759923	-0.000479	-4.793578	-1.624108	0.038486
 831	4.1500e-01	6.8196	19.462723	0.000740	7.403415	2.508345	-0.059440
 832	4.1550e-01	6.7907	19.388744	0.000184	1.842865	0.624379	-0.014796
 833	4.1600e-01	6.7330	19.436638	-0.000119	-1.193068	-0.404223	0.009579
 834	4.1650e-01	6.7121	19.258318	0.000444	4.442049	1.505007	-0.035664
 835	4.1700e-01	6.6672	19.043223	0.000536	5.358155	1.815392	-0.043019
 836	4.1750e-01	6.6110	19.099241	-0.000140	-1.395464	-0.472796	0.011204
 837	4.1800e-01	6.5934	18.812305	0.000715	7.147758	2.421726	-0.057387
 838	4.1850e-01	6.5372	18.954704	-0.000355	-3.547248	-1.201840	0.028480
 839	4.1900e-01	6.5036	18.787075	0.000418	4.175739	1.414779	-0.033526
 840	4.1950e-01	6.4891	18.337641	0.001120	11.195668	3.793195	-0.089887
 841	4.2000e-01	6.4233	18.635268	-0.000741	-7.414068	-2.511954	0.059525
 842	4.2050e-01	6.3720	18.228169	0.001014	10.141081	3.435891	-0.081420
 843	4.2100e-01	6.3319	18.317970	-0.000224	-2.237003	-0.757917	0.017960
 844	4.2150e-01	6.2950	18.207643	0.000275	2.748318	0.931155	-0.022065
 845	4.2200e-01	6.2742	18.100736	0.000266	2.663099	0.902282	-0.021381
 846	4.2250e-01	6.2052	18.032744	0.000169	1.693731	0.573852	-0.013598
 847	4.2300e-01	6.1683	17.904029	0.000321	3.206371	1.086348	-0.025743
 848	4.2350e-01	6.1362	17.849720	0.000135	1.352854	0.458359	-0.010862
 849	4.2400e-01	6.1137	17.690644	0.000396	3.962691	1.342596	-0.031815
 850	4.2450e-01	6.0528	17.662848	0.000069	0.692406	0.234593	-0.005559
 851	4.2500e-01	6.0046	17.537982	0.000311	3.110500	1.053866	-0.024973
 852	4.2550e-01	5.9677	17.360945	0.000441	4.410092	1.494180	-0.035407
 853	4.2600e-01	5.9357	17.233085	0.000319	3.185066	1.079130	-0.025572
 854	4.2650e-01	5.8956	17.109073	0.000309	3.089195	1.046648	-0.024802
 855	4.2700e-01	5.8603	17.152264	-0.000108	-1.075892	-0.364522	0.008638
 856	4.2750e-01	5.7993	17.020555	0.000328	3.280938	1.111612	-0.026342
 857	4.2800e-01	5.7688	17.019700	0.000002	0.021305	0.007218	-0.000171
 858	4.2850e-01	5.7448	16.588226	0.001075	10.748268	3.641612	-0.086295
 859	4.2900e-01	5.7175	16.504411	0.000209	2.087870	0.707389	-0.016763
 860	4.2950e-01	5.6581	16.311552	0.000480	4.804231	1.627717	-0.038572
 861	4.3000e-01	5.6196	16.464642	-0.000381	-3.813558	-1.292068	0.030618
 862	4.3050e-01	5.5859	16.263231	0.000502	5.017279	1.699900	-0.040282
 863	4.3100e-01	5.5474	16.235007	0.000070	0.703058	0.238203	-0.005645
 864	4.3150e-01	5.5041	16.119976	0.000287	2.865495	0.970856	-0.023006
 865	4.3200e-01	5.4736	15.986985	0.000331	3.312895	1.122439	-0.026598
 866	4.3250e-01	5.4512	15.753074	0.000583	5.826861	1.974194	-0.046782
 867	4.3300e-01	5.3950	15.787711	-0.000086	-0.862844	-0.292339	0.006928
 868	4.3350e-01	5.3469	15.570478	0.000541	5.411417	1.833438	-0.043447
 869	4.3400e-01	5.2843	15.630345	-0.000149	-1.491335	-0.505278	0.011974
 870	4.3450e-01	5.2507	15.536268	0.000234	2.343527	0.794008	-0.018816
 871	4.3500e-01	5.2089	15.420381	0.000289	2.886799	0.978074	-0.023177
 872	4.3550e-01	5.1945	15.245482	0.000436	4.356830	1.476134	-0.034980
 873	4.3600e-01	5.1416	15.182622	0.000157	1.565902	0.530542	-0.012572
 874	4.3650e-01	5.1127	14.949138	0.000582	5.816208	1.970585	-0.046697
 875	4.3700e-01	5.0565	14.962822	-0.000034	-0.340877	-0.115492	0.002737
 876	4.3750e-01	5.0453	14.729339	0.000582	5.816208	1.970585	-0.046697
 877	4.3800e-01	4.9763	14.604472	0.000311	3.110500	1.053866	-0.024973
 878	4.3850e-01	4.9442	14.598913	0.000014	0.138481	0.046919	-0.001112
 879	4.3900e-01	4.8977	14.631413	-0.000081	-0.809582	-0.274294	0.006500
 880	4.3950e-01	4.8592	14.450527	0.000451	4.505964	1.526662	-0.036177
 881	4.4000e-01	4.8111	14.434277	0.000040	0.404791	0.137147	-0.003250
 882	4.4050e-01	4.7646	14.246550	0.000468	4.676402	1.584408	-0.037545
 883	4.4100e-01	4.7485	14.035303	0.000526	5.262284	1.782910	-0.042249
 884	4.4150e-01	4.6940	14.031454	0.000010	0.095872	0.032482	-0.000770
 885	4.4200e-01	4.6699	13.824056	0.000517	5.166412	1.750428	-0.041480
 886	4.4250e-01	4.6346	13.782149	0.000104	1.043935	0.353695	-0.008381
 887	4.4300e-01	4.5769	13.675670	0.000265	2.652447	0.898673	-0.021296
 888	4.4350e-01	4.5368	13.550804	0.000311	3.110500	1.053866	-0.024973
 889	4.4400e-01	4.5015	13.310478	0.000599	5.986647	2.028331	-0.048065
 890	4.4450e-01	4.4630	13.275840	0.000086	0.862844	0.292339	-0.006928
 891	4.4500e-01	4.4309	13.051765	0.000558	5.581856	1.891184	-0.044815
 892	4.4550e-01	4.3892	13.046206	0.000014	0.138481	0.046919	-0.001112
 893	4.4600e-01	4.3539	12.916635	0.000323	3.227676	1.093566	-0.025914
 894	4.4650e-01	4.3058	12.909366	0.000018	0.181091	0.061355	-0.001454
 895	4.4700e-01	4.2560	12.757559	0.000378	3.781601	1.281241	-0.030361
 896	4.4750e-01	4.2352	12.617725	0.000348	3.483334	1.180185	-0.027967
 897	4.4800e-01	4.1919	12.404768	0.000530	5.304893	1.797347	-0.042591
 898	4.4850e-01	4.1598	12.519799	-0.000287	-2.865495	-0.970856	0.023006
 899	4.4900e-01	4.1100	12.303848	0.000538	5.379460	1.822610	-0.043190
 900	4.4950e-01	4.0956	12.020760	0.000705	7.051886	2.389244	-0.056618
 901	4.5000e-01	4.0314	12.069510	-0.000121	-1.214373	-0.411441	0.009750
 902	4.5050e-01	3.9961	11.978425	0.000227	2.268960	0.768745	-0.018217
 903	4.5100e-01	3.9496	11.827046	0.000377	3.770948	1.277632	-0.030276
 904	4.5150e-01	3.8903	11.727409	0.000248	2.482008	0.840927	-0.019927
 905	4.5200e-01	3.8582	11.777869	-0.000126	-1.256983	-0.425877	0.010092
 906	4.5250e-01	3.8293	11.440045	0.000842	8.415393	2.851212	-0.067565
 907	4.5300e-01	3.7876	11.451591	-0.000029	-0.287615	-0.097446	0.002309
 908	4.5350e-01	3.7411	11.249752	0.000503	5.027931	1.703509	-0.040368
 909	4.5400e-01	3.7042	11.295080	-0.000113	-1.129154	-0.382568	0.009066
 910	4.5450e-01	3.6448	11.104787	0.000474	4.740316	1.606063	-0.038059
 911	4.5500e-01	3.6288	10.974789	0.000324	3.238328	1.097175	-0.026000
 912	4.5550e-01	3.5903	10.834100	0.000350	3.504638	1.187404	-0.028138
 913	4.5600e-01	3.5454	10.725911	0.000270	2.695056	0.913110	-0.021638
 914	4.5650e-01	3.5149	10.643807	0.000205	2.045260	0.692953	-0.016421
 915	4.5700e-01	3.4411	10.588216	0.000138	1.384812	0.469187	-0.011118
 916	4.5750e-01	3.4234	10.311114	0.000690	6.902753	2.338716	-0.055420
 917	4.5800e-01	3.3817	10.157169	0.000383	3.834863	1.299287	-0.030789
 918	4.5850e-01	3.3528	10.114834	0.000105	1.054587	0.357304	-0.008467
 919	4.5900e-01	3.2999	10.087894	0.000067	0.671101	0.227375	-0.005388
 920	4.5950e-01	3.2582	9.964310	0.000308	3.078543	1.043038	-0.024717
 921	4.6000e-01	3.2486	9.665828	0.000744	7.435373	2.519172	-0.059696
 922	4.6050e-01	3.1796	9.703459	-0.000094	-0.937411	-0.317603	0.007526
 923	4.6100e-01	3.1202	9.669677	0.000084	0.841539	0.285121	-0.006756
 924	4.6150e-01	3.1186	9.573461	0.000240	2.396789	0.812054	-0.019243
 925	4.6200e-01	3.0577	9.330997	0.000604	6.039909	2.046376	-0.048493
 926	4.6250e-01	3.0272	9.369056	-0.000095	-0.948063	-0.321213	0.007612
 927	4.6300e-01	2.9807	9.054751	0.000783	7.829511	2.652710	-0.062861
 928	4.6350e-01	2.9374	9.091527	-0.000092	-0.916106	-0.310385	0.007355
 929	4.6400e-01	2.9037	8.985048	0.000265	2.652447	0.898673	-0.021296
 930	4.6450e-01	2.8700	8.709230	0.000687	6.870796	2.327889	-0.055164
 931	4.6500e-01	2.8170	8.672027	0.000093	0.926758	0.313994	-0.007441
 932	4.6550e-01	2.7849	8.539035	0.000331	3.312895	1.122439	-0.026598
 933	4.6600e-01	2.7384	8.464201	0.000186	1.864169	0.631598	-0.014967
 934	4.6650e-01	2.7047	8.255092	0.000521	5.209022	1.764864	-0.041822
 935	4.6700e-01	2.6775	8.262362	-0.000018	-0.181091	-0.061355	0.001454
 936	4.6750e-01	2.6342	8.040852	0.000552	5.517941	1.869529	-0.044302
 937	4.6800e-01	2.5973	7.924965	0.000289	2.886799	0.978074	-0.023177
 938	4.6850e-01	2.5315	7.990392	-0.000163	-1.629817	-0.552197	0.013085
 939	4.6900e-01	2.4914	7.871940	0.000295	2.950714	0.999729	-0.023690
 940	4.6950e-01	2.4593	7.710725	0.000402	4.015953	1.360642	-0.032243
 941	4.7000e-01	2.4047	7.564477	0.000364	3.643120	1.234322	-0.029250
 942	4.7050e-01	2.3983	7.284810	0.000697	6.966667	2.360371	-0.055933
 943	4.7100e-01	2.3422	7.292508	-0.000019	-0.191743	-0.064964	0.001539
 944	4.7150e-01	2.3085	7.023531	0.000670	6.700357	2.270142	-0.053795
 945	4.7200e-01	2.2764	6.981624	0.000104	1.043935	0.353695	-0.008381
 946	4.7250e-01	2.2170	6.938006	0.000109	1.086544	0.368131	-0.008724
 947	4.7300e-01	2.1930	6.666892	0.000675	6.753619	2.288188	-0.054223
 948	4.7350e-01	2.1769	6.524493	0.000355	3.547248	1.201840	-0.028480
 949	4.7400e-01	2.0919	6.551433	-0.000067	-0.671101	-0.227375	0.005388
 950	4.7450e-01	2.0550	6.421435	0.000324	3.238328	1.097175	-0.026000
 951	4.7500e-01	2.0278	6.255516	0.000413	4.133130	1.400342	-0.033184
 952	4.7550e-01	1.9764	6.135781	0.000298	2.982671	1.010556	-0.023947
 953	4.7600e-01	1.9363	6.083183	0.000131	1.310245	0.443923	-0.010520
 954	4.7650e-01	1.8914	6.021178	0.000154	1.544597	0.523324	-0.012401
 955	4.7700e-01	1.8657	5.939501	0.000203	2.034608	0.689344	-0.016335
 956	4.7750e-01	1.8272	5.689340	0.000623	6.231652	2.111341	-0.050032
 957	4.7800e-01	1.7855	5.557632	0.000328	3.280938	1.111612	-0.026342
 958	4.7850e-01	1.7246	5.520856	0.000092	0.916106	0.310385	-0.007355
 959	4.7900e-01	1.6893	5.425068	0.000239	2.386137	0.808445	-0.019158
 960	4.7950e-01	1.6492	5.404970	0.000050	0.500663	0.169629	-0.004020
 961	4.8000e-01	1.6187	5.138131	0.000665	6.647095	2.252097	-0.053368
 962	4.8050e-01	1.5818	5.097079	0.000102	1.022630	0.346476	-0.008210
 963	4.8100e-01	1.5320	4.835800	0.000651	6.508614	2.205178	-0.052256
 964	4.8150e-01	1.5144	4.782775	0.000132	1.320897	0.447532	-0.010605
 965	4.8200e-01	1.4470	4.787479	-0.000012	-0.117176	-0.039700	0.000941
 966	4.8250e-01	1.4374	4.562120	0.000561	5.613813	1.902011	-0.045072
 967	4.8300e-01	1.3732	4.518502	0.000109	1.086544	0.368131	-0.008724
 968	4.8350e-01	1.3427	4.312815	0.000512	5.123803	1.735991	-0.041138
 969	4.8400e-01	1.3187	4.077193	0.000587	5.869470	1.988630	-0.047124
 970	4.8450e-01	1.2657	3.938215	0.000346	3.462029	1.172967	-0.027796
 971	4.8500e-01	1.2208	3.979267	-0.000102	-1.022630	-0.346476	0.008210
 972	4.8550e-01	1.1759	3.930518	0.000121	1.214373	0.411441	-0.009750
 973	4.8600e-01	1.1406	3.548648	0.000951	9.512590	3.222953	-0.076374
 974	4.8650e-01	1.0893	3.581575	-0.000082	-0.820235	-0.277903	0.006585
 975	4.8700e-01	1.0668	3.353224	0.000569	5.688380	1.927275	-0.045670
 976	4.8750e-01	1.0299	3.326711	0.000066	0.660449	0.223766	-0.005303
 977	4.8800e-01	1.0139	3.090234	0.000589	5.890775	1.995849	-0.047295
 978	4.8850e-01	0.9513	3.158226	-0.000169	-1.693731	-0.573852	0.013598
 979	4.8900e-01	0.9080	2.832376	0.000812	8.117126	2.750157	-0.065170
 980	4.8950e-01	0.8727	2.860599	-0.000070	-0.703058	-0.238203	0.005645
 981	4.9000e-01	0.8390	2.624978	0.000587	5.869470	1.988630	-0.047124
 982	4.9050e-01	0.7764	2.591195	0.000084	0.841539	0.285121	-0.006756
 983	4.9100e-01	0.7363	2.474454	0.000291	2.908104	0.985292	-0.023348
 984	4.9150e-01	0.7123	2.243964	0.000574	5.741642	1.945321	-0.046098
 985	4.9200e-01	0.6674	2.293996	-0.000125	-1.246330	-0.422268	0.010006
 986	4.9250e-01	0.6240	2.061368	0.000579	5.794904	1.963366	-0.046526
 987	4.9300e-01	0.5823	1.895877	0.000412	4.122477	1.396733	-0.033098
 988	4.9350e-01	0.5246	1.911699	-0.000039	-0.394139	-0.133538	0.003164
 989	4.9400e-01	0.4813	1.779990	0.000328	3.280938	1.111612	-0.026342
 990	4.9450e-01	0.4460	1.546507	0.000582	5.816208	1.970585	-0.046697
 991	4.9500e-01	0.4107	1.383154	0.000407	4.069215	1.378687	-0.032671
 992	4.9550e-01	0.3866	1.254439	0.000321	3.206371	1.086348	-0.025743
 993	4.9600e-01	0.3593	1.247169	0.000018	0.181091	0.061355	-0.001454
 994	4.9650e-01	0.2984	1.270689	-0.000059	-0.585882	-0.198502	0.004704
 995	4.9700e-01	0.2422	1.089803	0.000451	4.505964	1.526662	-0.036177
 996	4.9750e-01	0.2246	0.920891	0.000421	4.207697	1.425606	-0.033782
 997	4.9800e-01	0.1877	0.975199	-0.000135	-1.352854	-0.458359	0.010862
 998	4.9850e-01	0.1652	0.590337	0.000959	9.587157	3.248217	-0.076973
 999	4.9900e-01	0.1187	0.545864	0.000111	1.107849	0.375349	-0.008895
1000	4.9950e-01	0.0658	0.397478	0.000370	3.696381	1.252368	-0.029677
1001	5.0000e-01	0.0513	0.154587	0.000605	6.050561	2.049986	-0.048578
1002	5.0050e-01	-0.0080	0.235835	-0.000202	-2.023955	-0.685735	0.016250
1003	5.0100e-01	-0.0337	-0.020740	0.000639	6.391438	2.165478	-0.051315
1004	5.0150e-01	-0.0979	-0.022878	0.000005	0.053262	0.018046	-0.000428
1005	5.0200e-01	-0.1364	-0.197777	0.000436	4.356830	1.476134	-0.034980
1006	5.0250e-01	-0.1540	-0.358991	0.000402	4.015953	1.360642	-0.032243
1007	5.0300e-01	-0.2198	-0.483858	0.000311	3.110500	1.053866	-0.024973
1008	5.0350e-01	-0.2599	-0.655336	0.000427	4.271611	1.447261	-0.034296
1009	5.0400e-01	-0.2968	-0.688691	0.000083	0.830887	0.281512	-0.006671
1010	5.0450e-01	-0.3257	-0.765663	0.000192	1.917431	0.649643	-0.015395
1011	5.0500e-01	-0.3754	-0.932437	0.000415	4.154435	1.407561	-0.033355
1012	5.0550e-01	-0.4107	-1.150953	0.000544	5.443374	1.844265	-0.043703
1013	5.0600e-01	-0.4588	-1.071415	-0.000198	-1.981346	-0.671298	0.015908
1014	5.0650e-01	-0.5053	-1.129572	0.000145	1.448726	0.490842	-0.011631
1015	5.0700e-01	-0.5342	-1.409239	0.000697	6.966667	2.360371	-0.055933
1016	5.0750e-01	-0.5503	-1.414798	0.000014	0.138481	0.046919	-0.001112
1017	5.0800e-01	-0.5984	-1.584565	0.000423	4.229001	1.432824	-0.033953
1018	5.0850e-01	-0.6369	-1.786405	0.000503	5.027931	1.703509	-0.040368
1019	5.0900e-01	-0.6994	-1.832160	0.000114	1.139806	0.386177	-0.009151
1020	5.0950e-01	-0.7267	-1.968573	0.000340	3.398114	1.151312	-0.027282
1021	5.1000e-01	-0.7492	-2.172123	0.000507	5.070541	1.717946	-0.040710
1022	5.1050e-01	-0.8262	-2.144327	-0.000069	-0.692406	-0.234593	0.005559
1023	5.1100e-01	-0.8615	-2.309818	0.000412	4.122477	1.396733	-0.033098
1024	5.1150e-01	-0.8823	-2.482151	0.000429	4.292916	1.454479	-0.034467
1025	5.1200e-01	-0.9289	-2.528334	0.000115	1.150459	0.389786	-0.009237
1026	5.1250e-01	-0.9754	-2.683562	0.000387	3.866820	1.310114	-0.031046
1027	5.1300e-01	-1.0331	-2.791324	0.000268	2.684404	0.909501	-0.021552
1028	5.1350e-01	-1.0524	-2.993591	0.000504	5.038583	1.707118	-0.040453
1029	5.1400e-01	-1.0909	-2.999150	0.000014	0.138481	0.046919	-0.001112
1030	5.1450e-01	-1.1278	-3.263422	0.000658	6.583181	2.230442	-0.052854
1031	5.1500e-01	-1.1663	-3.327138	0.000159	1.587207	0.537760	-0.012743
1032	5.1550e-01	-1.2112	-3.289507	-0.000094	-0.937411	-0.317603	0.007526
1033	5.1600e-01	-1.2625	-3.510590	0.000551	5.507289	1.865920	-0.044216
1034	5.1650e-01	-1.2898	-3.632891	0.000305	3.046585	1.032211	-0.024460
1035	5.1700e-01	-1.3347	-3.688054	0.000137	1.374159	0.465578	-0.011033
1036	5.1750e-01	-1.3845	-4.020319	0.000828	8.276912	2.804294	-0.066453
1037	5.1800e-01	-1.4230	-4.026306	0.000015	0.149134	0.050528	-0.001197
1038	5.1850e-01	-1.4566	-4.190086	0.000408	4.079868	1.382297	-0.032756
1039	5.1900e-01	-1.4615	-4.331630	0.000353	3.525943	1.194622	-0.028309
1040	5.1950e-01	-1.5096	-4.515509	0.000458	4.580530	1.551926	-0.036776
1041	5.2000e-01	-1.5449	-4.507812	-0.000019	-0.191743	-0.064964	0.001539
1042	5.2050e-01	-1.5946	-4.630540	0.000306	3.057238	1.035820	-0.024546
1043	5.2100e-01	-1.6508	-4.647218	0.000042	0.415443	0.140756	-0.003335
1044	5.2150e-01	-1.7037	-4.867445	0.000549	5.485984	1.858702	-0.044045
1045	5.2200e-01	-1.7310	-5.047475	0.000448	4.484659	1.519444	-0.036006
1046	5.2250e-01	-1.7727	-5.151388	0.000259	2.588532	0.877018	-0.020783
1047	5.2300e-01	-1.8144	-5.029515	-0.000304	-3.035933	-1.028602	0.024375
1048	5.2350e-01	-1.8368	-5.280958	0.000626	6.263609	2.122168	-0.050289
1049	5.2400e-01	-1.8882	-5.450298	0.000422	4.218349	1.429215	-0.033868
1050	5.2450e-01	-1.9395	-5.526415	0.000190	1.896127	0.642425	-0.015223
1051	5.2500e-01	-1.9925	-5.452008	-0.000185	-1.853517	-0.627989	0.014881
1052	5.2550e-01	-2.0117	-5.786839	0.000834	8.340826	2.825948	-0.066966
1053	5.2600e-01	-2.0550	-5.834305	0.000118	1.182416	0.400613	-0.009493
1054	5.2650e-01	-2.0727	-6.111407	0.000690	6.902753	2.338716	-0.055420
1055	5.2700e-01	-2.1288	-6.093874	-0.000044	-0.436748	-0.147974	0.003507
1056	5.2750e-01	-2.1721	-6.395350	0.000751	7.509939	2.544436	-0.060295
1057	5.2800e-01	-2.2170	-6.465480	0.000175	1.746993	0.591897	-0.014026
1058	5.2850e-01	-2.2539	-6.624129	0.000395	3.952039	1.338987	-0.031730
1059	5.2900e-01	-2.2796	-6.563834	-0.000150	-1.501988	-0.508887	0.012059
1060	5.2950e-01	-2.3277	-6.850771	0.000715	7.147758	2.421726	-0.057387
1061	5.3000e-01	-2.3791	-6.731463	-0.000297	-2.972019	-1.006947	0.023861
1062	5.3050e-01	-2.4015	-6.976065	0.000609	6.093171	2.064422	-0.048920
1063	5.3100e-01	-2.4465	-7.079978	0.000259	2.588532	0.877018	-0.020783
1064	5.3150e-01	-2.4850	-7.135142	0.000137	1.374159	0.465578	-0.011033
1065	5.3200e-01	-2.5283	-7.390861	0.000637	6.370133	2.158259	-0.051144
1066	5.3250e-01	-2.5828	-7.546945	0.000389	3.888125	1.317332	-0.031217
1067	5.3300e-01	-2.6261	-7.675232	0.000320	3.195719	1.082739	-0.025658
1068	5.3350e-01	-2.6582	-7.676087	0.000002	0.021305	0.007218	-0.000171
1069	5.3400e-01	-2.6759	-7.953616	0.000691	6.913405	2.342325	-0.055506
1070	5.3450e-01	-2.7416	-7.794112	-0.000397	-3.973344	-1.346205	0.031901
1071	5.3500e-01	-2.7769	-8.004931	0.000525	5.251631	1.779301	-0.042164
1072	5.3550e-01	-2.8170	-8.059240	0.000135	1.352854	0.458359	-0.010862
1073	5.3600e-01	-2.8443	-8.254664	0.000487	4.868145	1.649372	-0.039085
1074	5.3650e-01	-2.8876	-8.337196	0.000206	2.055912	0.696562	-0.016506
1075	5.3700e-01	-2.9598	-8.406471	0.000173	1.725688	0.584679	-0.013855
1076	5.3750e-01	-2.9662	-8.741302	0.000834	8.340826	2.825948	-0.066966
1077	5.3800e-01	-3.0224	-8.434267	-0.000765	-7.648420	-2.591355	0.061407
1078	5.3850e-01	-3.0272	-8.878997	0.001108	11.078492	3.753495	-0.088946
1079	5.3900e-01	-3.1106	-8.735743	-0.000357	-3.568553	-1.209058	0.028651
1080	5.3950e-01	-3.1555	-8.988897	0.000631	6.306219	2.136605	-0.050631
1081	5.4000e-01	-3.1924	-9.065870	0.000192	1.917431	0.649643	-0.015395
1082	5.4050e-01	-3.1603	-9.488363	-0.001052	-10.524567	-3.565820	-0.084499
1083	5.4100e-01	-3.2438	-9.352379	-0.000339	-3.387462	-1.147703	0.027197
1084	5.4150e-01	-3.2999	-9.387016	0.000086	0.862844	0.292339	-0.006928
1085	5.4200e-01	-3.3336	-9.740662	0.000881	8.809532	2.984750	-0.070729
1086	5.4250e-01	-3.3657	-9.658558	-0.000205	-2.045260	-0.692953	0.016421
1087	5.4300e-01	-3.3913	-9.898028	0.000597	5.965342	2.021113	-0.047894
1088	5.4350e-01	-3.4603	-10.016053	0.000294	2.940061	0.996120	-0.023605
1089	5.4400e-01	-3.4924	-10.057960	0.000104	1.043935	0.353695	-0.008381
1090	5.4450e-01	-3.5357	-10.132367	0.000185	1.853517	0.627989	-0.014881
1091	5.4500e-01	-3.5823	-10.258517	0.000314	3.142457	1.064693	-0.025230
1092	5.4550e-01	-3.5887	-10.328647	0.000175	1.746993	0.591897	-0.014026
1093	5.4600e-01	-3.6657	-10.472757	0.000359	3.589858	1.216277	-0.028822
1094	5.4650e-01	-3.6962	-10.679300	0.000515	5.145107	1.743210	-0.041309
1095	5.4700e-01	-3.7459	-10.718214	0.000097	0.969368	0.328431	-0.007783
1096	5.4750e-01	-3.7780	-10.797752	0.000198	1.981346	0.671298	-0.015908
1097	5.4800e-01	-3.8036	-10.852488	0.000136	1.363507	0.461969	-0.010947
1098	5.4850e-01	-3.8534	-10.907652	0.000137	1.374159	0.465578	-0.011033
1099	5.4900e-01	-3.8983	-11.055182	0.000368	3.675077	1.245150	-0.029506
1100	5.4950e-01	-3.9272	-11.454157	0.000994	9.938686	3.367318	-0.079795
1101	5.5000e-01	-3.9817	-11.298501	-0.000388	-3.877472	-1.313723	0.031131
1102	5.5050e-01	-3.9961	-11.496919	0.000494	4.942712	1.674636	-0.039684
1103	5.5100e-01	-4.0475	-11.605109	0.000270	2.695056	0.913110	-0.021638
1104	5.5150e-01	-4.0844	-11.694910	0.000224	2.237003	0.757917	-0.017960
1105	5.5200e-01	-4.1469	-11.781718	0.000216	2.162436	0.732653	-0.017362
1106	5.5250e-01	-4.1822	-12.055398	0.000682	6.817534	2.309843	-0.054736
1107	5.5300e-01	-4.2175	-12.166581	0.000277	2.769623	0.938374	-0.022237
1108	5.5350e-01	-4.2576	-12.087897	-0.000196	-1.960041	-0.664080	0.015737
1109	5.5400e-01	-4.2833	-12.146482	0.000146	1.459378	0.494451	-0.011717
1110	5.5450e-01	-4.3202	-12.347894	0.000502	5.017279	1.699900	-0.040282
1111	5.5500e-01	-4.3635	-12.468912	0.000301	3.014628	1.021384	-0.024204
1112	5.5550e-01	-4.4052	-12.473615	0.000012	0.117176	0.039700	-0.000941
1113	5.5600e-01	-4.4678	-12.875583	0.001001	10.013252	3.392582	-0.080394
1114	5.5650e-01	-4.5111	-12.771243	-0.000260	-2.599185	-0.880628	0.020868
1115	5.5700e-01	-4.5721	-12.694270	-0.000192	-1.917431	-0.649643	0.015395
1116	5.5750e-01	-4.5897	-13.074857	0.000948	9.480633	3.212125	-0.076117
1117	5.5800e-01	-4.5897	-13.130020	0.000137	1.374159	0.465578	-0.011033
1118	5.5850e-01	-4.6491	-13.263439	0.000332	3.323548	1.126048	-0.026684
1119	5.5900e-01	-4.7116	-13.415246	0.000378	3.781601	1.281241	-0.030361
1120	5.5950e-01	-4.7389	-13.607678	0.000479	4.793578	1.624108	-0.038486
1121	5.6000e-01	-4.7838	-13.472120	-0.000338	-3.376810	-1.144094	0.027111
1122	5.6050e-01	-4.8223	-13.604257	0.000329	3.291590	1.115221	-0.026427
1123	5.6100e-01	-4.8576	-13.734682	0.000325	3.248981	1.100785	-0.026085
1124	5.6150e-01	-4.8849	-13.987837	0.000631	6.306219	2.136605	-0.050631
1125	5.6200e-01	-4.9282	-14.065664	0.000194	1.938736	0.656862	-0.015566
1126	5.6250e-01	-4.9811	-14.026323	-0.000098	-0.980020	-0.332040	0.007868
1127	5.6300e-01	-5.0309	-14.150334	0.000309	3.089195	1.046648	-0.024802
1128	5.6350e-01	-5.0501	-14.296582	0.000364	3.643120	1.234322	-0.029250
1129	5.6400e-01	-5.0598	-14.645524	0.000869	8.692355	2.945050	-0.069788
1130	5.6450e-01	-5.1255	-14.579670	-0.000164	-1.640469	-0.555806	0.013171
1131	5.6500e-01	-5.1881	-14.477895	-0.000254	-2.535270	-0.858973	0.020355
1132	5.6550e-01	-5.2122	-14.861047	0.000954	9.544547	3.233780	-0.076630
1133	5.6600e-01	-5.2458	-14.782364	-0.000196	-1.960041	-0.664080	0.015737
1134	5.6650e-01	-5.3020	-14.902099	0.000298	2.982671	1.010556	-0.023947
1135	5.6700e-01	-5.3357	-15.086406	0.000459	4.591183	1.555535	-0.036861
1136	5.6750e-01	-5.3758	-15.130879	0.000111	1.107849	0.375349	-0.008895
1137	5.6800e-01	-5.4063	-15.236930	0.000264	2.641794	0.895064	-0.021210
1138	5.6850e-01	-5.4319	-15.470413	0.000582	5.816208	1.970585	-0.046697
1139	5.6900e-01	-5.4881	-15.587583	0.000292	2.918757	0.988901	-0.023434
1140	5.6950e-01	-5.5154	-15.611530	0.000060	0.596534	0.202111	-0.004789
1141	5.7000e-01	-5.5635	-15.700476	0.000222	2.215698	0.750699	-0.017789
1142	5.7050e-01	-5.6260	-15.903598	0.000506	5.059888	1.714337	-0.040624
1143	5.7100e-01	-5.6645	-15.896756	-0.000017	-0.170438	-0.057746	0.001368
1144	5.7150e-01	-5.6918	-15.881361	-0.000038	-0.383486	-0.129929	0.003079
1145	5.7200e-01	-5.7271	-16.238428	0.000889	8.894751	3.013623	-0.071413
1146	5.7250e-01	-5.7656	-16.126391	-0.000279	-2.790928	-0.945592	0.022408
1147	5.7300e-01	-5.8218	-16.473195	0.000864	8.639093	2.927004	-0.069361
1148	5.7350e-01	-5.8554	-16.320105	-0.000381	-3.813558	-1.292068	0.030618
1149	5.7400e-01	-5.8843	-16.427439	0.000267	2.673751	0.905892	-0.021467
1150	5.7450e-01	-5.9212	-16.689145	0.000652	6.519266	2.208787	-0.052341
1151	5.7500e-01	-5.9758	-16.637403	-0.000129	-1.288940	-0.436705	0.010349
1152	5.7550e-01	-6.0319	-16.844373	0.000516	5.155760	1.746819	-0.041394
1153	5.7600e-01	-6.0688	-16.828551	-0.000039	-0.394139	-0.133538	0.003164
1154	5.7650e-01	-6.0961	-17.070160	0.000602	6.018604	2.039158	-0.048322
1155	5.7700e-01	-6.1185	-17.303643	0.000582	5.816208	1.970585	-0.046697
1156	5.7750e-01	-6.1490	-17.298511	-0.000013	-0.127829	-0.043310	0.001026
1157	5.7800e-01	-6.2068	-17.224532	-0.000184	-1.842865	-0.624379	0.014796
1158	5.7850e-01	-6.2357	-17.499495	0.000685	6.849491	2.320670	-0.054993
1159	5.7900e-01	-6.2790	-17.541830	0.000105	1.054587	0.357304	-0.008467
1160	5.7950e-01	-6.3159	-17.654723	0.000281	2.812233	0.952810	-0.022579
1161	5.8000e-01	-6.3752	-17.755215	0.000250	2.503313	0.848145	-0.020098
1162	5.8050e-01	-6.4185	-17.901463	0.000364	3.643120	1.234322	-0.029250
1163	5.8100e-01	-6.4442	-18.088335	0.000466	4.655097	1.577190	-0.037374
1164	5.8150e-01	-6.4891	-18.058829	-0.000074	-0.735015	-0.249030	0.005901
1165	5.8200e-01	-6.5276	-18.276918	0.000543	5.432722	1.840656	-0.043618
1166	5.8250e-01	-6.5806	-18.367575	0.000226	2.258308	0.765135	-0.018131
1167	5.8300e-01	-6.6207	-18.231162	-0.000340	-3.398114	-1.151312	0.027282
1168	5.8350e-01	-6.6511	-18.430863	0.000497	4.974669	1.685463	-0.039940
1169	5.8400e-01	-6.6913	-18.616453	0.000462	4.623140	1.566362	-0.037118
1170	5.8450e-01	-6.7586	-18.701550	0.000212	2.119827	0.718217	-0.017019
1171	5.8500e-01	-6.7891	-18.889277	0.000468	4.676402	1.584408	-0.037545
1172	5.8550e-01	-6.7843	-18.905527	-0.000040	-0.404791	-0.137147	-0.003250
1173	5.8600e-01	-6.8228	-18.919211	0.000034	0.340877	0.115492	-0.002737
1174	5.8650e-01	-6.8838	-19.206148	0.000715	7.147758	2.421726	-0.057387
1175	5.8700e-01	-6.9319	-19.156116	-0.000125	-1.246330	-0.422268	0.010006
1176	5.8750e-01	-6.9736	-19.270292	0.000284	2.844190	0.963638	-0.022835
1177	5.8800e-01	-7.0169	-19.525156	0.000635	6.348828	2.151041	-0.050973
1178	5.8850e-01	-7.0570	-19.532426	0.000018	0.181091	0.061355	-0.001454
1179	5.8900e-01	-7.1003	-19.625648	0.000232	2.322222	0.786790	-0.018644
1180	5.8950e-01	-7.1244	-19.776172	0.000375	3.749643	1.270414	-0.030105
1181	5.9000e-01	-7.1613	-19.942518	0.000414	4.143782	1.403951	-0.033269
1182	5.9050e-01	-7.2110	-19.903605	-0.000097	-0.969368	-0.328431	0.007783
1183	5.9100e-01	-7.2752	-19.985709	0.000205	2.045260	0.692953	-0.016421
1184	5.9150e-01	-7.3121	-20.020346	0.000086	0.862844	0.292339	-0.006928
1185	5.9200e-01	-7.3426	-20.345769	0.000811	8.106474	2.746548	-0.065085
1186	5.9250e-01	-7.3827	-20.094753	-0.000625	-6.252957	-2.118559	0.050203
1187	5.9300e-01	-7.3955	-20.487313	0.000978	9.778900	3.313181	-0.078512
1188	5.9350e-01	-7.4388	-20.425735	-0.000153	-1.533945	-0.519715	0.012316
1189	5.9400e-01	-7.4854	-20.698988	0.000681	6.806881	2.306234	-0.054651
1190	5.9450e-01	-7.5142	-20.864479	0.000412	4.122477	1.396733	-0.033098
1191	5.9500e-01	-7.5736	-20.793920	-0.000176	-1.757645	-0.595506	0.014112
1192	5.9550e-01	-7.5976	-20.967109	0.000431	4.314220	1.461697	-0.034638
1193	5.9600e-01	-7.6442	-21.082140	0.000287	2.865495	0.970856	-0.023006
1194	5.9650e-01	-7.6875	-21.247203	0.000411	4.111825	1.393124	-0.033013
1195	5.9700e-01	-7.7420	-21.163389	-0.000209	-2.087870	-0.707389	0.016763
1196	5.9750e-01	-7.7629	-21.412267	0.000620	6.199695	2.100513	-0.049776
1197	5.9800e-01	-7.8190	-21.527725	0.000288	2.876147	0.974465	-0.023092
1198	5.9850e-01	-7.8543	-21.534567	0.000017	0.170438	0.057746	-0.001368
1199	5.9900e-01	-7.8896	-21.735551	0.000501	5.006626	1.696291	-0.040197
1200	5.9950e-01	-7.9361	-21.859135	0.000308	3.078543	1.043038	-0.024717
1201	6.0000e-01	-8.0019	-21.779597	-0.000198	-1.981346	-0.671298	0.015908
1202	6.0050e-01	-8.0196	-21.945088	0.000412	4.122477	1.396733	-0.033098
1203	6.0100e-01	-8.0484	-21.942094	-0.000007	-0.074567	-0.025264	0.000599
1204	6.0150e-01	-8.0966	-21.979725	0.000094	0.937411	0.317603	-0.007526
1205	6.0200e-01	-8.1286	-22.277352	0.000741	7.414068	2.511954	-0.059525
1206	6.0250e-01	-8.1832	-22.256826	-0.000051	-0.511315	-0.173238	0.004105
1207	6.0300e-01	-8.2024	-22.440278	0.000457	4.569878	1.548317	-0.036690
1208	6.0350e-01	-8.2377	-22.482185	0.000104	1.043935	0.353695	-0.008381
1209	6.0400e-01	-8.2923	-22.672478	0.000474	4.740316	1.606063	-0.038059
1210	6.0450e-01	-8.3420	-22.657084	-0.000038	-0.383486	-0.129929	0.003079
1211	6.0500e-01	-8.3757	-22.655801	-0.000003	-0.031957	-0.010827	0.000257
1212	6.0550e-01	-8.3982	-22.930336	0.000684	6.838838	2.317061	-0.054907
1213	6.0600e-01	-8.4527	-22.961981	0.000079	0.788277	0.267076	-0.006329
1214	6.0650e-01	-8.4784	-23.188622	0.000565	5.645770	1.912839	-0.045328
1215	6.0700e-01	-8.5281	-23.257897	0.000173	1.725688	0.584679	-0.013855
1216	6.0750e-01	-8.5650	-23.339146	0.000202	2.023955	0.685735	-0.016250
1217	6.0800e-01	-8.6147	-23.295956	-0.000108	-1.075892	-0.364522	0.008638
1218	6.0850e-01	-8.6468	-23.652595	0.000888	8.884098	3.010014	-0.071328
1219	6.0900e-01	-8.6821	-23.756508	0.000259	2.588532	0.877018	-0.020783
1220	6.0950e-01	-8.7479	-23.734699	-0.000054	-0.543272	-0.184066	0.004362
1221	6.1000e-01	-8.7848	-23.794139	0.000148	1.480683	0.501669	-0.011888
1222	6.1050e-01	-8.8137	-24.035320	0.000601	6.007951	2.035549	-0.048236
1223	6.1100e-01	-8.8570	-23.922855	-0.000280	-2.801580	-0.949201	0.022493
1224	6.1150e-01	-8.8971	-24.006241	0.000208	2.077217	0.703780	-0.016677
1225	6.1200e-01	-8.9260	-24.284198	0.000692	6.924058	2.345934	-0.055591
1226	6.1250e-01	-8.9789	-24.245712	-0.000096	-0.958716	-0.324822	0.007697
1227	6.1300e-01	-9.0302	-24.371861	0.000314	3.142457	1.064693	-0.025230
1228	6.1350e-01	-9.0687	-24.394525	0.000056	0.564577	0.191284	-0.004533
1229	6.1400e-01	-9.0816	-24.549326	0.000386	3.856167	1.306505	-0.030960
1230	6.1450e-01	-9.1265	-24.782809	0.000582	5.816208	1.970585	-0.046697
1231	6.1500e-01	-9.1778	-24.764421	-0.000046	-0.458053	-0.155193	0.003678
1232	6.1550e-01	-9.2179	-24.840538	0.000190	1.896127	0.642425	-0.015223
1233	6.1600e-01	-9.2580	-24.944451	0.000259	2.588532	0.877018	-0.020783
1234	6.1650e-01	-9.3110	-24.958991	0.000036	0.362181	0.122710	-0.002908
1235	6.1700e-01	-9.3366	-25.175797	0.000540	5.400765	1.829829	-0.043361
1236	6.1750e-01	-9.3687	-25.360958	0.000461	4.612488	1.562753	-0.037032
1237	6.1800e-01	-9.4185	-25.365662	0.000012	0.117176	0.039700	-0.000941
1238	6.1850e-01	-9.4570	-25.496088	0.000325	3.248981	1.100785	-0.026085
1239	6.1900e-01	-9.5099	-25.725295	0.000571	5.709684	1.934493	-0.045841
1240	6.1950e-01	-9.5243	-25.616678	-0.000271	-2.705709	-0.916719	0.021723
1241	6.2000e-01	-9.5869	-25.725295	0.000271	2.705709	0.916719	-0.021723
1242	6.2050e-01	-9.6238	-25.907036	0.000453	4.527268	1.533880	-0.036348
1243	6.2100e-01	-9.6318	-26.024205	0.000292	2.918757	0.988901	-0.023434
1244	6.2150e-01	-9.6944	-25.845030	-0.000446	-4.463354	-1.512225	0.035835
1245	6.2200e-01	-9.7297	-26.057988	0.000530	5.304893	1.797347	-0.042591
1246	6.2250e-01	-9.7521	-26.253840	0.000488	4.878797	1.652981	-0.039170
1247	6.2300e-01	-9.7874	-26.430877	0.000441	4.410092	1.494180	-0.035407
1248	6.2350e-01	-9.8291	-26.554888	0.000309	3.089195	1.046648	-0.024802
1249	6.2400e-01	-9.8773	-26.543770	-0.000028	-0.276962	-0.093837	0.002224
1250	6.2450e-01	-9.9222	-26.602782	0.000147	1.470031	0.498060	-0.011802
1251	6.2500e-01	-9.9815	-26.718669	0.000289	2.886799	0.978074	-0.023177
1252	6.2550e-01	-10.0056	-26.801628	0.000207	2.066565	0.700171	-0.016592
1253	6.2600e-01	-10.0505	-26.814457	0.000032	0.319572	0.108274	-0.002566
1254	6.2650e-01	-10.0874	-27.070177	0.000637	6.370133	2.158259	-0.051144
1255	6.2700e-01	-10.1195	-27.130044	0.000149	1.491335	0.505278	-0.011974
1256	6.2750e-01	-10.1773	-27.251062	0.000301	3.014628	1.021384	-0.024204
1257	6.2800e-01	-10.2045	-27.248496	-0.000006	-0.063914	-0.021655	0.000513
1258	6.2850e-01	-10.2414	-27.358824	0.000275	2.748318	0.931155	-0.022065
1259	6.2900e-01	-10.2960	-27.458888	0.000249	2.492661	0.844536	-0.020013
1260	6.2950e-01	-10.3264	-27.448625	-0.000026	-0.255658	-0.086619	0.002053
1261	6.3000e-01	-10.3601	-27.696648	0.000618	6.178390	2.093295	-0.049605
1262	6.3050e-01	-10.4163	-27.804409	0.000268	2.684404	0.909501	-0.021552
1263	6.3100e-01	-10.4355	-27.895921	0.000228	2.279613	0.772354	-0.018302
1264	6.3150e-01	-10.4853	-27.891645	-0.000011	-0.106524	-0.036091	0.000855
1265	6.3200e-01	-10.5174	-27.982729	0.000227	2.268960	0.768745	-0.018217
1266	6.3250e-01	-10.5719	-28.231179	0.000619	6.189042	2.096904	-0.049690
1267	6.3300e-01	-10.6072	-28.123418	-0.000268	-2.684404	-0.909501	0.021552
1268	6.3350e-01	-10.6377	-28.367592	0.000608	6.082518	2.060813	-0.048835
1269	6.3400e-01	-10.6874	-28.557030	0.000472	4.719012	1.598844	-0.037888
1270	6.3450e-01	-10.7403	-28.438150	-0.000296	-2.961366	-1.003338	0.023776
1271	6.3500e-01	-10.7756	-28.682751	0.000609	6.093171	2.064422	-0.048920
1272	6.3550e-01	-10.8109	-28.676337	-0.000016	-0.159786	-0.054137	0.001283
1273	6.3600e-01	-10.8478	-28.737488	0.000152	1.523293	0.516106	-0.012230
1274	6.3650e-01	-10.8847	-28.880314	0.000356	3.557900	1.205449	-0.028565
1275	6.3700e-01	-10.9264	-28.950445	0.000175	1.746993	0.591897	-0.014026
1276	6.3750e-01	-10.9842	-28.908110	-0.000105	-1.054587	-0.357304	0.008467
1277	6.3800e-01	-11.0323	-29.118074	0.000523	5.230327	1.772083	-0.041993
1278	6.3850e-01	-11.0580	-29.155277	0.000093	0.926758	0.313994	-0.007441
1279	6.3900e-01	-11.0965	-29.315637	0.000399	3.994649	1.353424	-0.032072
1280	6.3950e-01	-11.1398	-29.387050	0.000178	1.778950	0.602725	-0.014283
1281	6.4000e-01	-11.1751	-29.522608	0.000338	3.376810	1.144094	-0.027111
1282	6.4050e-01	-11.2104	-29.723164	0.000500	4.995974	1.692682	-0.040111
1283	6.4100e-01	-11.2537	-29.493529	-0.000572	-5.720337	-1.938103	0.045927
1284	6.4150e-01	-11.2922	-29.721026	0.000567	5.667075	1.920057	-0.045499
1285	6.4200e-01	-11.3355	-29.951088	0.000573	5.730989	1.941712	-0.046012
1286	6.4250e-01	-11.3660	-29.921582	-0.000074	-0.735015	-0.249030	0.005901
1287	6.4300e-01	-11.4045	-30.089639	0.000419	4.186392	1.418388	-0.033611
1288	6.4350e-01	-11.4558	-30.099474	0.000025	0.245005	0.083010	-0.001967
1289	6.4400e-01	-11.4975	-30.379569	0.000698	6.977320	2.363980	-0.056019
1290	6.4450e-01	-11.5232	-30.274373	-0.000262	-2.620489	-0.887846	0.021039
1291	6.4500e-01	-11.5697	-30.472363	0.000493	4.932059	1.671027	-0.039598
1292	6.4550e-01	-11.6114	-30.460390	-0.000030	-0.298267	-0.101056	0.002395
1293	6.4600e-01	-11.6612	-30.690025	0.000572	5.720337	1.938103	-0.045927
1294	6.4650e-01	-11.6900	-30.625881	-0.000160	-1.597859	-0.541369	0.012829
1295	6.4700e-01	-11.7318	-30.852522	0.000565	5.645770	1.912839	-0.045328
1296	6.4750e-01	-11.7638	-30.885022	0.000081	0.809582	0.274294	-0.006500
1297	6.4800e-01	-11.7975	-30.979954	0.000236	2.364832	0.801227	-0.018987
1298	6.4850e-01	-11.8761	-31.139031	0.000396	3.962691	1.342596	-0.031815
1299	6.4900e-01	-11.8858	-31.154426	0.000038	0.383486	0.129929	-0.003079
1300	6.4950e-01	-11.9243	-31.247648	0.000232	2.322222	0.786790	-0.018644
1301	6.5000e-01	-11.9708	-31.338304	0.000226	2.258308	0.765135	-0.018131
1302	6.5050e-01	-12.0301	-31.328041	-0.000026	-0.255658	-0.086619	0.002053
1303	6.5100e-01	-12.0542	-31.435375	0.000267	2.673751	0.905892	-0.021467
1304	6.5150e-01	-12.0975	-31.757805	0.000803	8.031907	2.721284	-0.064486
1305	6.5200e-01	-12.1232	-31.725733	-0.000080	-0.798930	-0.270685	0.006414
1306	6.5250e-01	-12.1697	-31.892079	0.000414	4.143782	1.403951	-0.033269
1307	6.5300e-01	-12.2226	-31.948098	0.000140	1.395464	0.472796	-0.011204
1308	6.5350e-01	-12.2579	-32.037044	0.000222	2.215698	0.750699	-0.017789
1309	6.5400e-01	-12.2836	-32.134970	0.000244	2.439399	0.826491	-0.019585
1310	6.5450e-01	-12.3333	-32.301317	0.000414	4.143782	1.403951	-0.033269
1311	6.5500e-01	-12.3847	-32.285494	-0.000039	-0.394139	-0.133538	0.003164
1312	6.5550e-01	-12.4216	-32.183292	-0.000255	-2.545923	-0.862582	0.020440
1313	6.5600e-01	-12.4761	-32.355625	0.000429	4.292916	1.454479	-0.034467
1314	6.5650e-01	-12.4986	-32.601937	0.000614	6.135780	2.078859	-0.049262
1315	6.5700e-01	-12.5515	-32.558747	-0.000108	-1.075892	-0.364522	0.008638
1316	6.5750e-01	-12.5611	-32.707561	0.000371	3.707034	1.255977	-0.029763
1317	6.5800e-01	-12.6141	-32.844828	0.000342	3.419419	1.158531	-0.027454
1318	6.5850e-01	-12.6574	-32.969267	0.000310	3.099847	1.050257	-0.024888
1319	6.5900e-01	-12.6943	-32.842690	-0.000315	-3.153109	-1.068302	0.025315
1320	6.5950e-01	-12.6975	-33.179659	0.000839	8.394088	2.843994	-0.067394
1321	6.6000e-01	-12.7649	-33.239526	0.000149	1.491335	0.505278	-0.011974
1322	6.6050e-01	-12.8034	-33.200613	-0.000097	-0.969368	-0.328431	0.007783
1323	6.6100e-01	-12.8483	-33.230119	0.000074	0.735015	0.249030	-0.005901
1324	6.6150e-01	-12.8740	-33.593173	0.000904	9.043884	3.064151	-0.072611
1325	6.6200e-01	-12.9365	-33.546561	-0.000116	-1.161111	-0.393395	0.009322
1326	6.6250e-01	-12.9847	-33.503799	-0.000107	-1.065240	-0.360913	0.008553
1327	6.6300e-01	-13.0103	-33.495246	-0.000021	-0.213048	-0.072183	0.001711
1328	6.6350e-01	-13.0569	-33.761229	0.000663	6.625790	2.244879	-0.053197
1329	6.6400e-01	-13.0729	-33.964779	0.000507	5.070541	1.717946	-0.040710
1330	6.6450e-01	-13.1146	-33.823235	-0.000353	-3.525943	-1.194622	0.028309
1331	6.6500e-01	-13.1740	-34.063133	0.000598	5.975994	2.024722	-0.047980
1332	6.6550e-01	-13.2093	-34.143526	0.000200	2.002650	0.678516	-0.016079
1333	6.6600e-01	-13.2782	-34.149085	0.000014	0.138481	0.046919	-0.001112
1334	6.6650e-01	-13.2927	-34.248294	0.000247	2.471356	0.837318	-0.019842
1335	6.6700e-01	-13.3264	-34.459114	0.000525	5.251631	1.779301	-0.042164
1336	6.6750e-01	-13.3713	-34.504014	0.000112	1.118502	0.378959	-0.008980
1337	6.6800e-01	-13.4146	-34.458686	-0.000113	-1.129154	-0.382568	0.009066
1338	6.6850e-01	-13.4659	-34.718255	0.000647	6.466004	2.190742	-0.051914
1339	6.6900e-01	-13.4932	-34.792234	0.000184	1.842865	0.624379	-0.014796
1340	6.6950e-01	-13.5365	-34.909403	0.000292	2.918757	0.988901	-0.023434
1341	6.7000e-01	-13.5702	-34.993645	0.000210	2.098522	0.710999	-0.016848
1342	6.7050e-01	-13.6376	-35.018020	0.000061	0.607187	0.205720	-0.004875
1343	6.7100e-01	-13.6633	-35.205747	0.000468	4.676402	1.584408	-0.037545
1344	6.7150e-01	-13.6857	-35.245944	0.000100	1.001325	0.339258	-0.008039
1345	6.7200e-01	-13.7130	-35.322489	0.000191	1.906779	0.646034	-0.015309
1346	6.7250e-01	-13.7691	-35.412718	0.000225	2.247656	0.761526	-0.018046
1347	6.7300e-01	-13.8285	-35.467454	0.000136	1.363507	0.461969	-0.010947
1348	6.7350e-01	-13.8574	-35.569229	0.000254	2.535270	0.858973	-0.020355
1349	6.7400e-01	-13.8846	-35.632090	0.000157	1.565902	0.530542	-0.012572
1350	6.7450e-01	-13.9568	-35.679984	0.000119	1.193068	0.404223	-0.009579
1351	6.7500e-01	-13.9697	-35.885244	0.000511	5.113150	1.732382	-0.041052
1352	6.7550e-01	-14.0114	-35.980177	0.000236	2.364832	0.801227	-0.018987
1353	6.7600e-01	-14.0435	-36.022512	0.000105	1.054587	0.357304	-0.008467
1354	6.7650e-01	-14.0948	-36.043465	0.000052	0.521967	0.176847	-0.004191
1355	6.7700e-01	-14.1461	-36.192279	0.000371	3.707034	1.255977	-0.029763
1356	6.7750e-01	-14.1798	-36.285929	0.000233	2.332875	0.790399	-0.018730
1357	6.7800e-01	-14.2055	-36.488196	0.000504	5.038583	1.707118	-0.040453
1358	6.7850e-01	-14.2793	-36.507439	0.000048	0.479358	0.162411	-0.003849
1359	6.7900e-01	-14.2985	-36.320994	-0.000464	-4.644445	-1.573580	0.037289
1360	6.7950e-01	-14.3322	-36.612635	0.000726	7.264934	2.461426	-0.058328
1361	6.8000e-01	-14.3659	-36.585694	-0.000067	-0.671101	-0.227375	0.005388
1362	6.8050e-01	-14.4076	-36.759310	0.000432	4.324873	1.465307	-0.034723
1363	6.8100e-01	-14.4461	-36.884604	0.000312	3.121152	1.057475	-0.025059
1364	6.8150e-01	-14.4734	-36.948748	0.000160	1.597859	0.541369	-0.012829
1365	6.8200e-01	-14.5279	-36.987662	0.000097	0.969368	0.328431	-0.007783
1366	6.8250e-01	-14.5616	-37.195060	0.000517	5.166412	1.750428	-0.041480
1367	6.8300e-01	-14.6114	-37.304105	0.000272	2.716361	0.920328	-0.021809
1368	6.8350e-01	-14.6563	-37.300684	-0.000009	-0.085219	-0.028873	0.000684
1369	6.8400e-01	-14.7012	-37.441800	0.000352	3.515291	1.191013	-0.028223
1370	6.8450e-01	-14.7365	-37.479431	0.000094	0.937411	0.317603	-0.007526
1371	6.8500e-01	-14.7958	-37.555976	0.000191	1.906779	0.646034	-0.015309
1372	6.8550e-01	-14.8087	-37.584199	0.000070	0.703058	0.238203	-0.005645
1373	6.8600e-01	-14.8664	-37.741993	0.000393	3.930734	1.331769	-0.031559
1374	6.8650e-01	-14.8937	-37.845051	0.000257	2.567227	0.869800	-0.020612
1375	6.8700e-01	-14.9595	-37.839491	-0.000014	-0.138481	-0.046919	0.001112
1376	6.8750e-01	-14.9643	-37.961365	0.000304	3.035933	1.028602	-0.024375
1377	6.8800e-01	-15.0268	-38.121297	0.000398	3.983996	1.349814	-0.031986
1378	6.8850e-01	-15.0493	-38.206394	0.000212	2.119827	0.718217	-0.017019
1379	6.8900e-01	-15.0766	-38.142250	-0.000160	-1.597859	-0.541369	0.012829
1380	6.8950e-01	-15.1311	-38.311162	0.000421	4.207697	1.425606	-0.033782
1381	6.9000e-01	-15.1760	-38.311162	-0.000000	-0.000000	-0.000000	0.000000
1382	6.9050e-01	-15.2210	-38.546784	0.000587	5.869470	1.988630	-0.047124
1383	6.9100e-01	-15.2627	-38.445009	-0.000254	-2.535270	-0.858973	0.020355
1384	6.9150e-01	-15.2643	-38.669085	0.000558	5.581856	1.891184	-0.044815
1385	6.9200e-01	-15.3445	-38.786254	0.000292	2.918757	0.988901	-0.023434
1386	6.9250e-01	-15.3942	-38.872634	0.000215	2.151784	0.729044	-0.017276
1387	6.9300e-01	-15.4087	-38.885463	0.000032	0.319572	0.108274	-0.002566
1388	6.9350e-01	-15.4407	-39.113815	0.000569	5.688380	1.927275	-0.045670
1389	6.9400e-01	-15.4792	-39.108256	-0.000014	-0.138481	-0.046919	0.001112
1390	6.9450e-01	-15.5418	-38.982534	-0.000313	-3.131804	-1.061084	0.025144
1391	6.9500e-01	-15.5707	-39.302398	0.000797	7.967992	2.699629	-0.063973
1392	6.9550e-01	-15.6028	-39.311805	0.000023	0.234353	0.079401	-0.001882
1393	6.9600e-01	-15.6669	-39.457198	0.000362	3.621815	1.227104	-0.029079
1394	6.9650e-01	-15.6734	-39.658182	0.000501	5.006626	1.696291	-0.040197
1395	6.9700e-01	-15.7439	-39.666734	0.000021	0.213048	0.072183	-0.001711
1396	6.9750e-01	-15.7744	-39.658609	-0.000020	-0.202396	-0.068573	0.001625
1397	6.9800e-01	-15.8017	-39.694530	0.000089	0.894801	0.303167	-0.007184
1398	6.9850e-01	-15.8514	-39.873277	0.000445	4.452702	1.508616	-0.035749
1399	6.9900e-01	-15.8803	-39.990874	0.000293	2.929409	0.992511	-0.023519
1400	6.9950e-01	-15.9204	-39.904922	-0.000214	-2.141132	-0.725435	0.017191
1401	7.0000e-01	-15.9830	-40.164062	0.000646	6.455352	2.187132	-0.051828
1402	7.0050e-01	-16.0118	-40.233765	0.000174	1.736341	0.588288	-0.013941
1403	7.0100e-01	-16.0423	-40.361198	0.000317	3.174414	1.075521	-0.025486
1404	7.0150e-01	-16.1097	-40.319290	-0.000104	-1.043935	-0.353695	0.008381
1405	7.0200e-01	-16.1065	-40.668233	-0.000869	-8.692355	-2.945050	-0.069788
1406	7.0250e-01	-16.1723	-40.657542	-0.000027	-0.266310	-0.090228	0.002138
1407	7.0300e-01	-16.2108	-40.614352	-0.000108	-1.075892	-0.364522	0.008638
1408	7.0350e-01	-16.2782	-40.631457	0.000043	0.426096	0.144365	-0.003421
1409	7.0400e-01	-16.3134	-40.838428	0.000516	5.155760	1.746819	-0.041394
1410	7.0450e-01	-16.3407	-40.780271	-0.000145	-1.448726	-0.490842	0.011631
1411	7.0500e-01	-16.3728	-41.036418	0.000638	6.380785	2.161869	-0.051230
1412	7.0550e-01	-16.4370	-40.897012	-0.000347	-3.472681	-1.176576	0.027881
1413	7.0600e-01	-16.4546	-41.173258	0.000688	6.881448	2.331498	-0.055249
1414	7.0650e-01	-16.4883	-41.301973	0.000321	3.206371	1.086348	-0.025743
1415	7.0700e-01	-16.5428	-41.309243	0.000018	0.181091	0.061355	-0.001454
1416	7.0750e-01	-16.5990	-41.373387	0.000160	1.597859	0.541369	-0.012829
1417	7.0800e-01	-16.6166	-41.540588	0.000417	4.165087	1.411170	-0.033440
1418	7.0850e-01	-16.6519	-41.316085	-0.000559	-5.592508	-1.894793	0.044901
1419	7.0900e-01	-16.6760	-41.755684	0.001095	10.950663	3.710185	-0.087920
1420	7.0950e-01	-16.7450	-41.755256	-0.000001	-0.010652	-0.003609	0.000086
1421	7.1000e-01	-16.7835	-41.798874	0.000109	1.086544	0.368131	-0.008724
1422	7.1050e-01	-16.8043	-42.054594	0.000637	6.370133	2.158259	-0.051144
1423	7.1100e-01	-16.8477	-42.027226	-0.000068	-0.681753	-0.230984	0.005474
1424	7.1150e-01	-16.8910	-42.156796	0.000323	3.227676	1.093566	-0.025914
1425	7.1200e-01	-16.9487	-42.049890	-0.000266	-2.663099	-0.902282	0.021381
1426	7.1250e-01	-16.9632	-42.209822	0.000398	3.983996	1.349814	-0.031986
1427	7.1300e-01	-17.0209	-42.182026	-0.000069	-0.692406	-0.234593	0.005559
1428	7.1350e-01	-17.0482	-42.436463	0.000634	6.338176	2.147432	-0.050887
1429	7.1400e-01	-17.0851	-42.548501	0.000279	2.790928	0.945592	-0.022408
1430	7.1450e-01	-17.1557	-42.530113	-0.000046	-0.458053	-0.155193	0.003678
1431	7.1500e-01	-17.1653	-42.607086	0.000192	1.917431	0.649643	-0.015395
1432	7.1550e-01	-17.2134	-42.849977	0.000605	6.050561	2.049986	-0.048578
1433	7.1600e-01	-17.2648	-42.710571	-0.000347	-3.472681	-1.176576	0.027881
1434	7.1650e-01	-17.2968	-42.968001	0.000641	6.412743	2.172696	-0.051486
1435	7.1700e-01	-17.3337	-42.970995	0.000007	0.074567	0.025264	-0.000599
1436	7.1750e-01	-17.3642	-43.005205	0.000085	0.852192	0.288730	-0.006842
1437	7.1800e-01	-17.4043	-43.219873	0.000535	5.347503	1.811783	-0.042934
1438	7.1850e-01	-17.4653	-43.191649	-0.000070	-0.703058	-0.238203	0.005645
1439	7.1900e-01	-17.4958	-43.225004	0.000083	0.830887	0.281512	-0.006671
1440	7.1950e-01	-17.5022	-43.388357	0.000407	4.069215	1.378687	-0.032671
1441	7.2000e-01	-17.5776	-43.381943	-0.000016	-0.159786	-0.054137	0.001283
1442	7.2050e-01	-17.6209	-43.603453	0.000552	5.517941	1.869529	-0.044302
1443	7.2100e-01	-17.6658	-43.722760	0.000297	2.972019	1.006947	-0.023861
1444	7.2150e-01	-17.6835	-43.746707	0.000060	0.596534	0.202111	-0.004789
1445	7.2200e-01	-17.7188	-43.861311	0.000285	2.854842	0.967247	-0.022921
1446	7.2250e-01	-17.7829	-43.945980	0.000211	2.109174	0.714608	-0.016934
1447	7.2300e-01	-17.8070	-43.901935	-0.000110	-1.097197	-0.371740	0.008809
1448	7.2350e-01	-17.8631	-43.858745	-0.000108	-1.075892	-0.364522	0.008638
1449	7.2400e-01	-17.9048	-44.078117	0.000546	5.464679	1.851483	-0.043874
1450	7.2450e-01	-17.9289	-44.269265	0.000476	4.761621	1.613281	-0.038230
1451	7.2500e-01	-17.9754	-44.295350	0.000065	0.649796	0.220157	-0.005217
1452	7.2550e-01	-18.0155	-44.257292	-0.000095	-0.948063	-0.321213	0.007612
1453	7.2600e-01	-18.0492	-44.364626	0.000267	2.673751	0.905892	-0.021467
1454	7.2650e-01	-18.0941	-44.551070	0.000464	4.644445	1.573580	-0.037289
1455	7.2700e-01	-18.1118	-44.764455	0.000532	5.315546	1.800956	-0.042677
1456	7.2750e-01	-18.1808	-44.681068	-0.000208	-2.077217	-0.703780	0.016677
1457	7.2800e-01	-18.2225	-44.832020	0.000376	3.760296	1.274023	-0.030190
1458	7.2850e-01	-18.2610	-44.739653	-0.000230	-2.300918	-0.779572	0.018473
1459	7.2900e-01	-18.2947	-44.998366	0.000644	6.444700	2.183523	-0.051743
1460	7.2950e-01	-18.3252	-45.063793	0.000163	1.629817	0.552197	-0.013085
1461	7.3000e-01	-18.3653	-45.092871	0.000072	0.724363	0.245421	-0.005816
1462	7.3050e-01	-18.4150	-45.287013	0.000484	4.836188	1.638545	-0.038828
1463	7.3100e-01	-18.4407	-45.289151	0.000005	0.053262	0.018046	-0.000428
1464	7.3150e-01	-18.5016	-45.409742	0.000300	3.003976	1.017775	-0.024118
1465	7.3200e-01	-18.5289	-45.479017	0.000173	1.725688	0.584679	-0.013855
1466	7.3250e-01	-18.5738	-45.586779	0.000268	2.684404	0.909501	-0.021552
1467	7.3300e-01	-18.6348	-45.619706	0.000082	0.820235	0.277903	-0.006585
1468	7.3350e-01	-18.6540	-45.590200	-0.000074	-0.735015	-0.249030	0.005901
1469	7.3400e-01	-18.6813	-45.731744	0.000353	3.525943	1.194622	-0.028309
1470	7.3450e-01	-18.7326	-45.941708	0.000523	5.230327	1.772083	-0.041993
1471	7.3500e-01	-18.7695	-45.921182	-0.000051	-0.511315	-0.173238	0.004105
1472	7.3550e-01	-18.8193	-46.205980	0.000709	7.094496	2.403680	-0.056960
1473	7.3600e-01	-18.8642	-46.146112	-0.000149	-1.491335	-0.505278	0.011974
1474	7.3650e-01	-18.8963	-46.308610	0.000405	4.047911	1.371469	-0.032500
1475	7.3700e-01	-18.9203	-46.300485	-0.000020	-0.202396	-0.068573	0.001625
1476	7.3750e-01	-18.9733	-46.370188	0.000174	1.736341	0.588288	-0.013941
1477	7.3800e-01	-19.0053	-46.482654	0.000280	2.801580	0.949201	-0.022493
1478	7.3850e-01	-19.0487	-46.639592	0.000391	3.909429	1.324551	-0.031388
1479	7.3900e-01	-19.0775	-46.716137	0.000191	1.906779	0.646034	-0.015309
1480	7.3950e-01	-19.1305	-46.919687	0.000507	5.070541	1.717946	-0.040710
1481	7.4000e-01	-19.1738	-46.888898	-0.000077	-0.766973	-0.259857	0.006158
1482	7.4050e-01	-19.2091	-46.784129	-0.000261	-2.609837	-0.884237	0.020954
1483	7.4100e-01	-19.2572	-46.992810	0.000520	5.198369	1.761255	-0.041736
1484	7.4150e-01	-19.2909	-47.118960	0.000314	3.142457	1.064693	-0.025230
1485	7.4200e-01	-19.3198	-47.375963	0.000640	6.402090	2.169087	-0.051401
1486	7.4250e-01	-19.3663	-47.299418	-0.000191	-1.906779	-0.646034	0.015309
1487	7.4300e-01	-19.4257	-47.134782	-0.000410	-4.101173	-1.389515	0.032927
1488	7.4350e-01	-19.4658	-47.454218	0.000796	7.957340	2.696020	-0.063887
1489	7.4400e-01	-19.4866	-47.387081	-0.000167	-1.672426	-0.566633	0.013427
1490	7.4450e-01	-19.5347	-47.609019	0.000553	5.528594	1.873138	-0.044388
1491	7.4500e-01	-19.5765	-47.661616	0.000131	1.310245	0.443923	-0.010520
1492	7.4550e-01	-19.6069	-47.792470	0.000326	3.259633	1.104394	-0.026171
1493	7.4600e-01	-19.6535	-47.839509	0.000117	1.171764	0.397004	-0.009408
1494	7.4650e-01	-19.7032	-48.014835	0.000437	4.367482	1.479743	-0.035065
1495	7.4700e-01	-19.7321	-47.932303	-0.000206	-2.055912	-0.696562	0.016506
1496	7.4750e-01	-19.7738	-48.002006	0.000174	1.736341	0.588288	-0.013941
1497	7.4800e-01	-19.8075	-48.031512	0.000074	0.735015	0.249030	-0.005901
1498	7.4850e-01	-19.8428	-48.330422	0.000745	7.446025	2.522782	-0.059782
1499	7.4900e-01	-19.8909	-48.447592	0.000292	2.918757	0.988901	-0.023434
1500	7.4950e-01	-19.9262	-48.538676	0.000227	2.268960	0.768745	-0.018217
1501	7.5000e-01	-19.9855	-48.441605	-0.000242	-2.418094	-0.819272	0.019414
1502	7.5050e-01	-19.9246	-48.242332	0.000496	4.964017	1.681854	0.039855
1503	7.5100e-01	-19.8909	-48.378316	-0.000339	-3.387462	-1.147703	-0.027197
1504	7.5150e-01	-19.8395	-48.211115	0.000417	4.165087	1.411170	0.033440
1505	7.5200e-01	-19.8059	-48.206839	0.000011	0.106524	0.036091	0.000855
1506	7.5250e-01	-19.7722	-48.113616	0.000232	2.322222	0.786790	0.018644
1507	7.5300e-01	-19.7160	-48.078123	0.000088	0.884149	0.299558	0.007099
1508	7.5350e-01	-19.6535	-48.132859	-0.000136	-1.363507	-0.461969	-0.010947
1509	7.5400e-01	-19.6551	-47.987895	-0.000361	-3.611162	-1.223495	0.028993
1510	7.5450e-01	-19.6150	-47.847206	0.000350	3.504638	1.187404	0.028138
1511	7.5500e-01	-19.5572	-47.831811	0.000038	0.383486	0.129929	0.003079
1512	7.5550e-01	-19.5347	-47.933586	-0.000254	-2.535270	-0.858973	-0.020355
1513	7.5600e-01	-19.4706	-47.686846	0.000615	6.146433	2.082468	0.049348
1514	7.5650e-01	-19.4465	-47.636814	0.000125	1.246330	0.422268	0.010006
1515	7.5700e-01	-19.4160	-47.469185	0.000418	4.175739	1.414779	0.033526
1516	7.5750e-01	-19.3519	-47.475599	-0.000016	-0.159786	-0.054137	-0.001283
1517	7.5800e-01	-19.3134	-47.401620	0.000184	1.842865	0.624379	0.014796
1518	7.5850e-01	-19.3037	-47.199354	0.000504	5.038583	1.707118	0.040453
1519	7.5900e-01	-19.2267	-47.203630	-0.000011	-0.106524	-0.036091	-0.000855
1520	7.5950e-01	-19.2155	-47.312674	-0.000272	-2.716361	-0.920328	-0.021809
1521	7.6000e-01	-19.1690	-47.119815	0.000480	4.804231	1.627717	0.038572
1522	7.6050e-01	-19.1160	-47.018468	0.000252	2.524618	0.855364	0.020269
1523	7.6100e-01	-19.0807	-47.059520	-0.000102	-1.022630	-0.346476	-0.008210
1524	7.6150e-01	-19.0567	-46.899161	0.000399	3.994649	1.353424	0.032072
1525	7.6200e-01	-19.0182	-46.875641	0.000059	0.585882	0.198502	0.004704
1526	7.6250e-01	-18.9877	-46.613079	0.000654	6.540571	2.216006	0.052512
1527	7.6300e-01	-18.9283	-46.664822	-0.000129	-1.288940	-0.436705	-0.010349
1528	7.6350e-01	-18.8722	-46.668671	-0.000010	-0.095872	-0.032482	-0.000770
1529	7.6400e-01	-18.8578	-46.569461	0.000247	2.471356	0.837318	0.019842
1530	7.6450e-01	-18.8096	-46.378313	0.000476	4.761621	1.613281	0.038230
1531	7.6500e-01	-18.7647	-46.250453	0.000319	3.185066	1.079130	0.025572
1532	7.6550e-01	-18.7374	-46.457424	-0.000516	-5.155760	-1.746819	-0.041394
1533	7.6600e-01	-18.6765	-46.329991	0.000317	3.174414	1.075521	0.025486
1534	7.6650e-01	-18.6412	-46.317163	0.000032	0.319572	0.108274	0.002566
1535	7.6700e-01	-18.5786	-46.084962	0.000578	5.784251	1.959757	0.046440
1536	7.6750e-01	-18.5417	-46.121310	-0.000091	-0.905454	-0.306776	-0.007270
1537	7.6800e-01	-18.5273	-45.991312	0.000324	3.238328	1.097175	0.026000
1538	7.6850e-01	-18.4904	-45.712928	0.000693	6.934710	2.349543	0.055677
1539	7.6900e-01	-18.4246	-45.757401	-0.000111	-1.107849	-0.375349	-0.008895
1540	7.6950e-01	-18.4214	-45.783059	-0.000064	-0.639144	-0.216548	-0.005132
1541	7.7000e-01	-18.3797	-45.611153	0.000428	4.282263	1.450870	0.034381
1542	7.7050e-01	-18.3155	-45.525201	0.000214	2.141132	0.725435	0.017191
1543	7.7100e-01	-18.2706	-45.558128	-0.000082	-0.820235	-0.277903	-0.006585
1544	7.7150e-01	-18.2433	-45.349019	0.000521	5.209022	1.764864	0.041822
1545	7.7200e-01	-18.2129	-45.229284	0.000298	2.982671	1.010556	0.023947
1546	7.7250e-01	-18.1840	-45.314809	-0.000213	-2.130479	-0.721826	-0.017105
1547	7.7300e-01	-18.1166	-45.100569	0.000534	5.336850	1.808174	0.042848
1548	7.7350e-01	-18.0941	-45.120667	-0.000050	-0.500663	-0.169629	-0.004020
1549	7.7400e-01	-18.0605	-44.977413	0.000357	3.568553	1.209058	0.028651
1550	7.7450e-01	-17.9995	-44.960308	0.000043	0.426096	0.144365	0.003421
1551	7.7500e-01	-17.9610	-44.896591	0.000159	1.587207	0.537760	0.012743
1552	7.7550e-01	-17.9353	-44.824750	0.000179	1.789603	0.606334	0.014368
1553	7.7600e-01	-17.8968	-44.882480	-0.000144	-1.438073	-0.487232	-0.011546
1554	7.7650e-01	-17.8503	-44.665674	0.000540	5.400765	1.829829	0.043361
1555	7.7700e-01	-17.8086	-44.580149	0.000213	2.130479	0.721826	0.017105
1556	7.7750e-01	-17.7605	-44.625477	-0.000113	-1.129154	-0.382568	-0.009066
1557	7.7800e-01	-17.7428	-44.388145	0.000591	5.912080	2.003067	0.047466
1558	7.7850e-01	-17.7011	-44.205121	0.000456	4.559226	1.544707	0.036605
1559	7.7900e-01	-17.6674	-44.323146	-0.000294	-2.940061	-0.996120	-0.023605
1560	7.7950e-01	-17.6129	-44.203411	0.000298	2.982671	1.010556	0.023947
1561	7.8000e-01	-17.5744	-44.010979	0.000479	4.793578	1.624108	0.038486
1562	7.8050e-01	-17.5343	-44.226503	-0.000537	-5.368808	-1.819001	-0.043105
1563	7.8100e-01	-17.4765	-43.824962	0.001000	10.002600	3.388973	0.080308
1564	7.8150e-01	-17.4428	-43.965651	-0.000350	-3.504638	-1.187404	-0.028138
1565	7.8200e-01	-17.3979	-43.867725	0.000244	2.439399	0.826491	0.019585
1566	7.8250e-01	-17.3658	-43.760819	0.000266	2.663099	0.902282	0.021381
1567	7.8300e-01	-17.3273	-43.628682	0.000329	3.291590	1.115221	0.026427
1568	7.8350e-01	-17.3033	-43.507237	0.000303	3.025281	1.024993	0.024289
1569	7.8400e-01	-17.2375	-43.494836	0.000031	0.308919	0.104665	0.002480
1570	7.8450e-01	-17.1942	-43.459343	0.000088	0.884149	0.299558	0.007099
1571	7.8500e-01	-17.1573	-43.418718	0.000101	1.011978	0.342867	0.008125
1572	7.8550e-01	-17.1396	-43.151453	0.000666	6.657748	2.255706	0.053453
1573	7.8600e-01	-17.0835	-43.192932	-0.000103	-1.033282	-0.350086	-0.008296
1574	7.8650e-01	-17.0402	-43.301549	-0.000271	-2.705709	-0.916719	-0.021723
1575	7.8700e-01	-17.0193	-42.936785	0.000909	9.086494	3.078587	0.072953
1576	7.8750e-01	-16.9664	-42.984251	-0.000118	-1.182416	-0.400613	-0.009493
1577	7.8800e-01	-16.9295	-42.989810	-0.000014	-0.138481	-0.046919	-0.001112
1578	7.8850e-01	-16.8717	-42.804649	0.000461	4.612488	1.562753	0.037032
1579	7.8900e-01	-16.8573	-42.701591	0.000257	2.567227	0.869800	0.020612
1580	7.8950e-01	-16.7739	-42.711426	-0.000025	-0.245005	-0.083010	-0.001967
1581	7.9000e-01	-16.7739	-42.511298	-0.000499	-4.985321	-1.689073	0.040026
1582	7.9050e-01	-16.7370	-42.447581	0.000159	1.587207	0.537760	0.012743
1583	7.9100e-01	-16.6904	-42.403536	0.000110	1.097197	0.371740	0.008809
1584	7.9150e-01	-16.6471	-42.286367	0.000292	2.918757	0.988901	0.023434
1585	7.9200e-01	-16.5733	-42.302616	-0.000040	-0.404791	-0.137147	-0.003250
1586	7.9250e-01	-16.5557	-42.291071	0.000029	0.287615	0.097446	0.002309
1587	7.9300e-01	-16.5252	-42.136698	0.000385	3.845515	1.302896	0.030875
1588	7.9350e-01	-16.4803	-42.060581	0.000190	1.896127	0.642425	0.015223
1589	7.9400e-01	-16.4498	-41.942556	0.000294	2.940061	0.996120	0.023605
1590	7.9450e-01	-16.4001	-41.719763	0.000555	5.549898	1.880356	0.044559
1591	7.9500e-01	-16.3696	-41.737723	-0.000045	-0.447401	-0.151583	-0.003592
1592	7.9550e-01	-16.3247	-41.756111	-0.000046	-0.458053	-0.155193	-0.003678
1593	7.9600e-01	-16.2798	-41.655192	0.000251	2.513966	0.851755	0.020184
1594	7.9650e-01	-16.2413	-41.575226	0.000199	1.991998	0.674907	0.015993
1595	7.9700e-01	-16.2092	-41.432827	0.000355	3.547248	1.201840	0.028480
1596	7.9750e-01	-16.1739	-41.341315	0.000228	2.279613	0.772354	0.018302
1597	7.9800e-01	-16.1418	-41.202764	0.000345	3.451376	1.169358	0.027710
1598	7.9850e-01	-16.0937	-41.136482	0.000165	1.651121	0.559415	0.013256
1599	7.9900e-01	-16.0471	-41.168554	-0.000080	-0.798930	-0.270685	-0.006414
1600	7.9950e-01	-15.9990	-41.093292	0.000187	1.874822	0.635207	0.015052
1601	8.0000e-01	-15.9669	-40.973130	0.000299	2.993323	1.014165	0.024033
1602	8.0050e-01	-15.9316	-40.840138	0.000331	3.312895	1.122439	0.026598
1603	8.0100e-01	-15.8771	-41.006057	-0.000413	-4.133130	-1.400342	-0.033184
1604	8.0150e-01	-15.8386	-40.864085	0.000354	3.536596	1.198231	0.028394
1605	8.0200e-01	-15.8113	-40.602806	0.000651	6.508614	2.205178	0.052256
1606	8.0250e-01	-15.7664	-40.565603	0.000093	0.926758	0.313994	0.007441
1607	8.0300e-01	-15.7263	-40.407381	0.000394	3.941387	1.335378	0.031644
1608	8.0350e-01	-15.6766	-40.442874	-0.000088	-0.884149	-0.299558	-0.007099
1609	8.0400e-01	-15.6413	-40.394553	0.000120	1.203721	0.407832	0.009664
1610	8.0450e-01	-15.5964	-40.236331	0.000394	3.941387	1.335378	0.031644
1611	8.0500e-01	-15.5675	-40.235048	0.000003	0.031957	0.010827	0.000257
1612	8.0550e-01	-15.5193	-40.084952	0.000374	3.738991	1.266804	0.030019
1613	8.0600e-01	-15.4792	-40.055873	0.000072	0.724363	0.245421	0.005816
1614	8.0650e-01	-15.4343	-39.926730	0.000322	3.217024	1.089957	0.025829
1615	8.0700e-01	-15.4087	-39.905349	0.000053	0.532620	0.180456	0.004276
1616	8.0750e-01	-15.3605	-39.744562	0.000401	4.005301	1.357033	0.032157
1617	8.0800e-01	-15.3188	-39.707786	0.000092	0.916106	0.310385	0.007355
1618	8.0850e-01	-15.2948	-39.591045	0.000291	2.908104	0.985292	0.023348
1619	8.0900e-01	-15.2386	-39.606012	-0.000037	-0.372834	-0.126320	-0.002993
1620	8.0950e-01	-15.1889	-39.564532	0.000103	1.033282	0.350086	0.008296
1621	8.1000e-01	-15.1648	-39.363120	0.000502	5.017279	1.699900	0.040282
1622	8.1050e-01	-15.1504	-39.172399	0.000475	4.750969	1.609672	0.038144
1623	8.1100e-01	-15.0894	-39.066348	0.000264	2.641794	0.895064	0.021210
1624	8.1150e-01	-15.0236	-39.254931	-0.000470	-4.697707	-1.591626	-0.037717
1625	8.1200e-01	-15.0108	-39.072763	0.000454	4.537921	1.537489	0.036434
1626	8.1250e-01	-14.9450	-38.947896	0.000311	3.110500	1.053866	0.024973
1627	8.1300e-01	-14.9065	-38.835858	0.000279	2.790928	0.945592	0.022408
1628	8.1350e-01	-14.8889	-38.792668	0.000108	1.075892	0.364522	0.008638
1629	8.1400e-01	-14.8375	-38.775991	0.000042	0.415443	0.140756	0.003335
1630	8.1450e-01	-14.7958	-38.713985	0.000154	1.544597	0.523324	0.012401
1631	8.1500e-01	-14.7750	-38.509580	0.000509	5.091845	1.725164	0.040881
1632	8.1550e-01	-14.7269	-38.442871	0.000166	1.661774	0.563024	0.013342
1633	8.1600e-01	-14.6948	-38.267972	0.000436	4.356830	1.476134	0.034980
1634	8.1650e-01	-14.6322	-38.322280	-0.000135	-1.352854	-0.458359	-0.010862
1635	8.1700e-01	-14.6017	-38.255999	0.000165	1.651121	0.559415	0.013256
1636	8.1750e-01	-14.5632	-38.176460	0.000198	1.981346	0.671298	0.015908
1637	8.1800e-01	-14.5520	-37.958799	0.000542	5.422070	1.837047	0.043532
1638	8.1850e-01	-14.5007	-37.907056	0.000129	1.288940	0.436705	0.010349
1639	8.1900e-01	-14.4638	-37.892945	0.000035	0.351529	0.119101	0.002822
1640	8.1950e-01	-14.4156	-37.805709	0.000217	2.173089	0.736262	0.017447
1641	8.2000e-01	-14.3483	-37.602587	0.000506	5.059888	1.714337	0.040624
1642	8.2050e-01	-14.3322	-37.564528	0.000095	0.948063	0.321213	0.007612
1643	8.2100e-01	-14.2985	-37.414432	0.000374	3.738991	1.266804	0.030019
1644	8.2150e-01	-14.2552	-37.457622	-0.000108	-1.075892	-0.364522	-0.008638
1645	8.2200e-01	-14.2231	-37.183942	0.000682	6.817534	2.309843	0.054736
1646	8.2250e-01	-14.1558	-37.442228	-0.000643	-6.434047	-2.179914	-0.051657
1647	8.2300e-01	-14.1429	-37.149732	0.000729	7.286239	2.468645	0.058499
1648	8.2350e-01	-14.0739	-37.070621	0.000197	1.970693	0.667689	0.015822
1649	8.2400e-01	-14.0386	-37.071476	-0.000002	-0.021305	-0.007218	-0.000171
1650	8.2450e-01	-14.0114	-36.903847	0.000418	4.175739	1.414779	0.033526
1651	8.2500e-01	-13.9793	-36.881183	0.000056	0.564577	0.191284	0.004533
1652	8.2550e-01	-13.9312	-36.796086	0.000212	2.119827	0.718217	0.017019
1653	8.2600e-01	-13.8846	-36.671647	0.000310	3.099847	1.050257	0.024888
1654	8.2650e-01	-13.8429	-36.693028	-0.000053	-0.532620	-0.180456	-0.004276
1655	8.2700e-01	-13.7964	-36.476650	0.000539	5.390112	1.826220	0.043276
1656	8.2750e-01	-13.7916	-36.370171	0.000265	2.652447	0.898673	0.021296
1657	8.2800e-01	-13.7322	-36.241456	0.000321	3.206371	1.086348	0.025743
1658	8.2850e-01	-13.6777	-36.331685	-0.000225	-2.247656	-0.761526	-0.018046
1659	8.2900e-01	-13.6440	-36.215798	0.000289	2.886799	0.978074	0.023177
1660	8.2950e-01	-13.6055	-36.231193	-0.000038	-0.383486	-0.129929	-0.003079
1661	8.3000e-01	-13.5670	-35.968631	0.000654	6.540571	2.216006	0.052512
1662	8.3050e-01	-13.5205	-35.962644	0.000015	0.149134	0.050528	0.001197
1663	8.3100e-01	-13.4788	-35.856593	0.000264	2.641794	0.895064	0.021210
1664	8.3150e-01	-13.4531	-35.732582	0.000309	3.089195	1.046648	0.024802
1665	8.3200e-01	-13.4050	-35.832646	-0.000249	-2.492661	-0.844536	-0.020013
1666	8.3250e-01	-13.3761	-35.586762	0.000613	6.125128	2.075249	0.049177
1667	8.3300e-01	-13.3376	-35.603011	-0.000040	-0.404791	-0.137147	-0.003250
1668	8.3350e-01	-13.2879	-35.213017	0.000971	9.714985	3.291526	0.077999
1669	8.3400e-01	-13.2397	-35.296404	-0.000208	-2.077217	-0.703780	-0.016677
1670	8.3450e-01	-13.2060	-35.275450	0.000052	0.521967	0.176847	0.004191
1671	8.3500e-01	-13.1643	-35.073184	0.000504	5.038583	1.707118	0.040453
1672	8.3550e-01	-13.1210	-35.080881	-0.000019	-0.191743	-0.064964	-0.001539
1673	8.3600e-01	-13.0697	-35.129630	-0.000121	-1.214373	-0.411441	-0.009750
1674	8.3650e-01	-13.0376	-35.004764	0.000311	3.110500	1.053866	0.024973
1675	8.3700e-01	-13.0200	-34.665657	0.000845	8.447350	2.862040	0.067821
1676	8.3750e-01	-12.9558	-34.738353	-0.000181	-1.810907	-0.613552	-0.014539
1677	8.3800e-01	-12.9269	-34.643848	0.000235	2.354180	0.797618	0.018901
1678	8.3850e-01	-12.8932	-34.560889	0.000207	2.066565	0.700171	0.016592
1679	8.3900e-01	-12.8756	-34.365464	0.000487	4.868145	1.649372	0.039085
1680	8.3950e-01	-12.8178	-34.372733	-0.000018	-0.181091	-0.061355	-0.001454
1681	8.4000e-01	-12.7649	-34.279511	0.000232	2.322222	0.786790	0.018644
1682	8.4050e-01	-12.7087	-34.212802	0.000166	1.661774	0.563024	0.013342
1683	8.4100e-01	-12.6943	-34.167901	0.000112	1.118502	0.378959	0.008980
1684	8.4150e-01	-12.6462	-34.167901	0.000000	0.000000	0.000000	0.000000
1685	8.4200e-01	-12.5980	-34.056718	0.000277	2.769623	0.938374	0.022237
1686	8.4250e-01	-12.5660	-33.951950	0.000261	2.609837	0.884237	0.020954
1687	8.4300e-01	-12.5130	-33.854024	0.000244	2.439399	0.826491	0.019585
1688	8.4350e-01	-12.4713	-33.801854	0.000130	1.299592	0.440314	0.010434
1689	8.4400e-01	-12.4488	-33.694520	0.000267	2.673751	0.905892	0.021467
1690	8.4450e-01	-12.3911	-33.512351	0.000454	4.537921	1.537489	0.036434
1691	8.4500e-01	-12.3574	-33.616692	-0.000260	-2.599185	-0.880628	-0.020868
1692	8.4550e-01	-12.3366	-33.248934	0.000916	9.161061	3.103851	0.073552
1693	8.4600e-01	-12.2884	-33.327190	-0.000195	-1.949389	-0.660471	-0.015651
1694	8.4650e-01	-12.2355	-33.362255	-0.000087	-0.873496	-0.295949	-0.007013
1695	8.4700e-01	-12.2002	-33.008609	0.000881	8.809532	2.984750	0.070729
1696	8.4750e-01	-12.1809	-33.053937	-0.000113	-1.129154	-0.382568	-0.009066
1697	8.4800e-01	-12.1328	-32.989793	0.000160	1.597859	0.541369	0.012829
1698	8.4850e-01	-12.0654	-32.882032	0.000268	2.684404	0.909501	0.021552
1699	8.4900e-01	-12.0334	-32.633581	0.000619	6.189042	2.096904	0.049690
1700	8.4950e-01	-12.0093	-32.702857	-0.000173	-1.725688	-0.584679	-0.013855
1701	8.5000e-01	-11.9692	-32.500162	0.000505	5.049236	1.710727	0.040539
1702	8.5050e-01	-11.9162	-32.523254	-0.000058	-0.575229	-0.194893	-0.004618
1703	8.5100e-01	-11.9018	-32.347072	0.000439	4.388787	1.486961	0.035236
1704	8.5150e-01	-11.8489	-32.215792	0.000327	3.270286	1.108003	0.026256
1705	8.5200e-01	-11.8039	-32.225199	-0.000023	-0.234353	-0.079401	-0.001882
1706	8.5250e-01	-11.7703	-32.226910	-0.000004	-0.042610	-0.014437	-0.000342
1707	8.5300e-01	-11.7398	-31.929283	0.000741	7.414068	2.511954	0.059525
1708	8.5350e-01	-11.6852	-31.979742	-0.000126	-1.256983	-0.425877	-0.010092
1709	8.5400e-01	-11.6403	-31.839054	0.000350	3.504638	1.187404	0.028138
1710	8.5450e-01	-11.6098	-31.792015	0.000117	1.171764	0.397004	0.009408
1711	8.5500e-01	-11.5713	-31.621392	0.000425	4.250306	1.440043	0.034124
1712	8.5550e-01	-11.5280	-31.530736	0.000226	2.258308	0.765135	0.018131
1713	8.5600e-01	-11.4815	-31.572215	-0.000103	-1.033282	-0.350086	-0.008296
1714	8.5650e-01	-11.4526	-31.260477	0.000777	7.765597	2.631055	0.062348
1715	8.5700e-01	-11.4061	-31.230543	0.000075	0.745668	0.252639	0.005987
1716	8.5750e-01	-11.3740	-31.327186	-0.000241	-2.407442	-0.815663	-0.019329
1717	8.5800e-01	-11.3387	-31.108670	0.000544	5.443374	1.844265	0.043703
1718	8.5850e-01	-11.2665	-31.148866	-0.000100	-1.001325	-0.339258	-0.008039
1719	8.5900e-01	-11.2505	-30.882884	0.000663	6.625790	2.244879	0.053197
1720	8.5950e-01	-11.2008	-31.018013	-0.000337	-3.366157	-1.140485	-0.027026
1721	8.6000e-01	-11.1639	-30.784102	0.000583	5.826861	1.974194	0.046782
1722	8.6050e-01	-11.1141	-30.711833	0.000180	1.800255	0.609943	0.014454
1723	8.6100e-01	-11.0901	-30.628874	0.000207	2.066565	0.700171	0.016592
1724	8.6150e-01	-11.0339	-30.599796	0.000072	0.724363	0.245421	0.005816
1725	8.6200e-01	-10.9954	-30.611769	-0.000030	-0.298267	-0.101056	-0.002395
1726	8.6250e-01	-10.9569	-30.352201	0.000647	6.466004	2.190742	0.051914
1727	8.6300e-01	-10.9489	-30.210657	0.000353	3.525943	1.194622	0.028309
1728	8.6350e-01	-10.9008	-30.123849	0.000216	2.162436	0.732653	0.017362
1729	8.6400e-01	-10.8510	-30.046876	0.000192	1.917431	0.649643	0.015395
1730	8.6450e-01	-10.8077	-29.998554	0.000120	1.203721	0.407832	0.009664
1731	8.6500e-01	-10.7820	-30.006679	-0.000020	-0.202396	-0.068573	-0.001625
1732	8.6550e-01	-10.7131	-29.755663	0.000625	6.252957	2.118559	0.050203
1733	8.6600e-01	-10.6842	-29.609415	0.000364	3.643120	1.234322	0.029250
1734	8.6650e-01	-10.6601	-29.644481	-0.000087	-0.873496	-0.295949	-0.007013
1735	8.6700e-01	-10.6200	-29.482411	0.000404	4.037258	1.367860	0.032414
1736	8.6750e-01	-10.5655	-29.439221	0.000108	1.075892	0.364522	0.008638
1737	8.6800e-01	-10.5414	-29.388761	0.000126	1.256983	0.425877	0.010092
1738	8.6850e-01	-10.5174	-29.133896	0.000635	6.348828	2.151041	0.050973
1739	8.6900e-01	-10.4548	-29.339584	-0.000512	-5.123803	-1.735991	-0.041138
1740	8.6950e-01	-10.3938	-29.213862	0.000313	3.131804	1.061084	0.025144
1741	8.7000e-01	-10.3473	-29.133041	0.000201	2.013303	0.682125	0.016164
1742	8.7050e-01	-10.3088	-28.907255	0.000562	5.624465	1.905620	0.045157
1743	8.7100e-01	-10.2687	-28.725514	0.000453	4.527268	1.533880	0.036348
1744	8.7150e-01	-10.2158	-28.868768	-0.000357	-3.568553	-1.209058	-0.028651
1745	8.7200e-01	-10.1901	-28.628443	0.000599	5.986647	2.028331	0.048065
1746	8.7250e-01	-10.1436	-28.630581	-0.000005	-0.053262	-0.018046	-0.000428
1747	8.7300e-01	-10.1179	-28.520254	0.000275	2.748318	0.931155	0.022065
1748	8.7350e-01	-10.1002	-28.280784	0.000597	5.965342	2.021113	0.047894
1749	8.7400e-01	-10.0409	-28.344928	-0.000160	-1.597859	-0.541369	-0.012829
1750	8.7450e-01	-10.0056	-28.056708	0.000718	7.179715	2.432553	0.057644
1751	8.7500e-01	-9.9543	-28.258975	-0.000504	-5.038583	-1.707118	-0.040453
1752	8.7550e-01	-9.9350	-27.945526	0.000781	7.808206	2.645492	0.062690
1753	8.7600e-01	-9.8741	-28.058846	-0.000282	-2.822885	-0.956419	-0.022664
1754	8.7650e-01	-9.8516	-27.755232	0.000756	7.563201	2.562482	0.060723
1755	8.7700e-01	-9.8051	-27.721022	0.000085	0.852192	0.288730	0.006842
1756	8.7750e-01	-9.7762	-27.692371	0.000071	0.713711	0.241812	0.005730
1757	8.7800e-01	-9.7184	-27.473855	0.000544	5.443374	1.844265	0.043703
1758	8.7850e-01	-9.6992	-27.531584	-0.000144	-1.438073	-0.487232	-0.011546
1759	8.7900e-01	-9.6623	-27.168958	0.000903	9.033232	3.060542	0.072525
1760	8.7950e-01	-9.6254	-27.224122	-0.000137	-1.374159	-0.465578	-0.011033
1761	8.8000e-01	-9.5853	-27.133037	0.000227	2.268960	0.768745	0.018217
1762	8.8050e-01	-9.5163	-27.242510	-0.000273	-2.727013	-0.923937	-0.021894
1763	8.8100e-01	-9.4666	-26.960277	0.000703	7.030581	2.382025	0.056447
1764	8.8150e-01	-9.4120	-27.085999	-0.000313	-3.131804	-1.061084	-0.025144
1765	8.8200e-01	-9.4056	-26.737912	0.000867	8.671051	2.937831	0.069617
1766	8.8250e-01	-9.3671	-26.705412	0.000081	0.809582	0.274294	0.006500
1767	8.8300e-01	-9.3174	-26.400515	0.000760	7.595158	2.573309	0.060979
1768	8.8350e-01	-9.2773	-26.528803	-0.000320	-3.195719	-1.082739	-0.025658
1769	8.8400e-01	-9.2275	-26.498442	0.000076	0.756320	0.256248	0.006072
1770	8.8450e-01	-9.1955	-26.297458	0.000501	5.006626	1.696291	0.040197
1771	8.8500e-01	-9.1618	-26.189269	0.000270	2.695056	0.913110	0.021638
1772	8.8550e-01	-9.1377	-26.043876	0.000362	3.621815	1.227104	0.029079
1773	8.8600e-01	-9.0719	-26.076375	-0.000081	-0.809582	-0.274294	-0.006500
1774	8.8650e-01	-9.0318	-26.019501	0.000142	1.416769	0.480014	0.011375
1775	8.8700e-01	-9.0190	-25.824077	0.000487	4.868145	1.649372	0.039085
1776	8.8750e-01	-8.9773	-25.712894	0.000277	2.769623	0.938374	0.022237
1777	8.8800e-01	-8.9308	-25.862563	-0.000373	-3.728339	-1.263195	-0.029934
1778	8.8850e-01	-8.8746	-25.559804	0.000754	7.541897	2.555264	0.060552
1779	8.8900e-01	-8.8345	-25.634211	-0.000185	-1.853517	-0.627989	-0.014881
1780	8.8950e-01	-8.8185	-25.319906	0.000783	7.829511	2.652710	0.062861
1781	8.9000e-01	-8.7495	-25.375070	-0.000137	-1.374159	-0.465578	-0.011033
1782	8.9050e-01	-8.7222	-25.147146	0.000568	5.677727	1.923666	0.045585
1783	8.9100e-01	-8.6805	-25.061193	0.000214	2.141132	0.725435	0.017191
1784	8.9150e-01	-8.6468	-24.977378	0.000209	2.087870	0.707389	0.016763
1785	8.9200e-01	-8.6163	-25.001753	-0.000061	-0.607187	-0.205720	-0.004875
1786	8.9250e-01	-8.5682	-24.768270	0.000582	5.816208	1.970585	0.046697
1787	8.9300e-01	-8.5249	-24.681462	0.000216	2.162436	0.732653	0.017362
1788	8.9350e-01	-8.4896	-24.722514	-0.000102	-1.022630	-0.346476	-0.008210
1789	8.9400e-01	-8.4752	-24.499293	0.000556	5.560551	1.883966	0.044644
1790	8.9450e-01	-8.4030	-24.413341	0.000214	2.141132	0.725435	0.017191
1791	8.9500e-01	-8.3548	-24.400084	0.000033	0.330224	0.111883	0.002651
1792	8.9550e-01	-8.3292	-24.196962	0.000506	5.059888	1.714337	0.040624
1793	8.9600e-01	-8.2939	-24.075089	0.000304	3.035933	1.028602	0.024375
1794	8.9650e-01	-8.2442	-24.053708	0.000053	0.532620	0.180456	0.004276
1795	8.9700e-01	-8.1832	-24.084925	-0.000078	-0.777625	-0.263466	-0.006243
1796	8.9750e-01	-8.1944	-23.802264	-0.000704	-7.041234	-2.385635	0.056532
1797	8.9800e-01	-8.1190	-23.729996	0.000180	1.800255	0.609943	0.014454
1798	8.9850e-01	-8.0853	-23.767627	-0.000094	-0.937411	-0.317603	-0.007526
1799	8.9900e-01	-8.0581	-23.448190	0.000796	7.957340	2.696020	0.063887
1800	8.9950e-01	-8.0003	-23.505920	-0.000144	-1.438073	-0.487232	-0.011546
1801	9.0000e-01	-7.9506	-23.414836	0.000227	2.268960	0.768745	0.018217
1802	9.0050e-01	-7.9121	-23.239937	0.000436	4.356830	1.476134	0.034980
1803	9.0100e-01	-7.8864	-23.159116	0.000201	2.013303	0.682125	0.016164
1804	9.0150e-01	-7.8335	-23.218556	-0.000148	-1.480683	-0.501669	-0.011888
1805	9.0200e-01	-7.8303	-23.054348	0.000409	4.090520	1.385906	0.032842
1806	9.0250e-01	-7.7645	-22.824713	0.000572	5.720337	1.938103	0.045927
1807	9.0300e-01	-7.7148	-22.766128	0.000146	1.459378	0.494451	0.011717
1808	9.0350e-01	-7.6779	-22.764845	0.000003	0.031957	0.010827	0.000257
1809	9.0400e-01	-7.6378	-22.624157	0.000350	3.504638	1.187404	0.028138
1810	9.0450e-01	-7.5912	-22.574552	0.000124	1.235678	0.418659	0.009921
1811	9.0500e-01	-7.5672	-22.445837	0.000321	3.206371	1.086348	0.025743
1812	9.0550e-01	-7.5287	-22.226037	0.000548	5.475332	1.855093	0.043960
1813	9.0600e-01	-7.4982	-22.226465	-0.000001	-0.010652	-0.003609	-0.000086
1814	9.0650e-01	-7.4356	-22.169163	0.000143	1.427421	0.483623	0.011460
1815	9.0700e-01	-7.4003	-22.138802	0.000076	0.756320	0.256248	0.006072
1816	9.0750e-01	-7.3458	-21.879233	0.000647	6.466004	2.190742	0.051914
1817	9.0800e-01	-7.3217	-21.883937	-0.000012	-0.117176	-0.039700	-0.000941
1818	9.0850e-01	-7.2880	-21.700914	0.000456	4.559226	1.544707	0.036605
1819	9.0900e-01	-7.2720	-21.741966	-0.000102	-1.022630	-0.346476	-0.008210
1820	9.0950e-01	-7.1950	-21.662427	0.000198	1.981346	0.671298	0.015908
1821	9.1000e-01	-7.1565	-21.431937	0.000574	5.741642	1.945321	0.046098
1822	9.1050e-01	-7.1084	-21.352399	0.000198	1.981346	0.671298	0.015908
1823	9.1100e-01	-7.0779	-21.118060	0.000584	5.837513	1.977803	0.046868
1824	9.1150e-01	-7.0169	-21.252762	-0.000336	-3.355505	-1.136876	-0.026940
1825	9.1200e-01	-6.9929	-21.114639	0.000344	3.440724	1.165749	0.027625
1826	9.1250e-01	-6.9592	-20.825565	0.000720	7.201020	2.439772	0.057815
1827	9.1300e-01	-6.9126	-20.784085	0.000103	1.033282	0.350086	0.008296
1828	9.1350e-01	-6.8918	-20.747309	0.000092	0.916106	0.310385	0.007355
1829	9.1400e-01	-6.8453	-20.671620	0.000189	1.885474	0.638816	0.015138
1830	9.1450e-01	-6.8100	-20.509977	0.000403	4.026606	1.364251	0.032328
1831	9.1500e-01	-6.7618	-20.429584	0.000200	2.002650	0.678516	0.016079
1832	9.1550e-01	-6.7105	-20.392808	0.000092	0.916106	0.310385	0.007355
1833	9.1600e-01	-6.6897	-20.171298	0.000552	5.517941	1.869529	0.044302
1834	9.1650e-01	-6.6335	-20.190969	-0.000049	-0.490010	-0.166020	-0.003934
1835	9.1700e-01	-6.6159	-19.969031	0.000553	5.528594	1.873138	0.044388
1836	9.1750e-01	-6.5758	-20.152055	-0.000456	-4.559226	-1.544707	-0.036605
1837	9.1800e-01	-6.5340	-19.687226	0.001158	11.579155	3.923124	0.092966
1838	9.1850e-01	-6.4827	-19.705614	-0.000046	-0.458053	-0.155193	-0.003678
1839	9.1900e-01	-6.4378	-19.625648	0.000199	1.991998	0.674907	0.015993
1840	9.1950e-01	-6.4153	-19.378481	0.000616	6.157085	2.086077	0.049433
1841	9.2000e-01	-6.3640	-19.522163	-0.000358	-3.579205	-1.212668	-0.028736
1842	9.2050e-01	-6.3367	-19.200161	0.000802	8.021254	2.717675	0.064400
1843	9.2100e-01	-6.2790	-19.130030	0.000175	1.746993	0.591897	0.014026
1844	9.2150e-01	-6.2116	-19.283120	-0.000381	-3.813558	-1.292068	-0.030618
1845	9.2200e-01	-6.1939	-19.042795	0.000599	5.986647	2.028331	0.048065
1846	9.2250e-01	-6.1811	-18.847370	0.000487	4.868145	1.649372	0.039085
1847	9.2300e-01	-6.1330	-18.800331	0.000117	1.171764	0.397004	0.009408
1848	9.2350e-01	-6.0865	-18.670333	0.000324	3.238328	1.097175	0.026000
1849	9.2400e-01	-6.0480	-18.829838	-0.000397	-3.973344	-1.346205	-0.031901
1850	9.2450e-01	-6.0079	-18.433429	0.000987	9.874771	3.345663	0.079282
1851	9.2500e-01	-5.9437	-18.648952	-0.000537	-5.368808	-1.819001	-0.043105
1852	9.2550e-01	-5.9228	-18.318398	0.000823	8.234302	2.789857	0.066111
1853	9.2600e-01	-5.8907	-18.179847	0.000345	3.451376	1.169358	0.027710
1854	9.2650e-01	-5.8442	-18.184123	-0.000011	-0.106524	-0.036091	-0.000855
1855	9.2700e-01	-5.8169	-17.995113	0.000471	4.708359	1.595235	0.037802
1856	9.2750e-01	-5.7576	-17.969028	0.000065	0.649796	0.220157	0.005217
1857	9.2800e-01	-5.7175	-17.859556	0.000273	2.727013	0.923937	0.021894
1858	9.2850e-01	-5.6742	-17.823635	0.000089	0.894801	0.303167	0.007184
1859	9.2900e-01	-5.6309	-17.695775	0.000319	3.185066	1.079130	0.025572
1860	9.2950e-01	-5.6212	-17.579461	0.000290	2.897452	0.981683	0.023263
1861	9.3000e-01	-5.5715	-17.357096	0.000554	5.539246	1.876747	0.044473
1862	9.3050e-01	-5.5137	-17.352392	0.000012	0.117176	0.039700	0.000941
1863	9.3100e-01	-5.4785	-17.267722	0.000211	2.109174	0.714608	0.016934
1864	9.3150e-01	-5.4448	-17.038088	0.000572	5.720337	1.938103	0.045927
1865	9.3200e-01	-5.4079	-16.913221	0.000311	3.110500	1.053866	0.024973
1866	9.3250e-01	-5.3742	-17.046213	-0.000331	-3.312895	-1.122439	-0.026598
1867	9.3300e-01	-5.3293	-16.850788	0.000487	4.868145	1.649372	0.039085
1868	9.3350e-01	-5.2795	-16.710527	0.000349	3.493986	1.183794	0.028052
1869	9.3400e-01	-5.2507	-16.601910	0.000271	2.705709	0.916719	0.021723
1870	9.3450e-01	-5.2250	-16.463359	0.000345	3.451376	1.169358	0.027710
1871	9.3500e-01	-5.1656	-16.440267	0.000058	0.575229	0.194893	0.004618
1872	9.3550e-01	-5.1223	-16.310269	0.000324	3.238328	1.097175	0.026000
1873	9.3600e-01	-5.0822	-16.223461	0.000216	2.162436	0.732653	0.017362
1874	9.3650e-01	-5.0517	-16.033168	0.000474	4.740316	1.606063	0.038059
1875	9.3700e-01	-5.0100	-16.018201	0.000037	0.372834	0.126320	0.002993
1876	9.3750e-01	-4.9587	-15.938235	0.000199	1.991998	0.674907	0.015993
1877	9.3800e-01	-4.9090	-15.784718	0.000382	3.824210	1.295678	0.030703
1878	9.3850e-01	-4.8817	-15.662417	0.000305	3.046585	1.032211	0.024460
1879	9.3900e-01	-4.8464	-15.570905	0.000228	2.279613	0.772354	0.018302
1880	9.3950e-01	-4.7918	-15.526005	0.000112	1.118502	0.378959	0.008980
1881	9.4000e-01	-4.7822	-15.348113	0.000443	4.431397	1.501398	0.035578
1882	9.4050e-01	-4.7020	-15.269002	0.000197	1.970693	0.667689	0.015822
1883	9.4100e-01	-4.6860	-15.127458	0.000353	3.525943	1.194622	0.028309
1884	9.4150e-01	-4.6747	-15.069301	0.000145	1.448726	0.490842	0.011631
1885	9.4200e-01	-4.6009	-15.020124	0.000123	1.225026	0.415050	0.009835
1886	9.4250e-01	-4.5737	-14.704964	0.000785	7.850816	2.659928	0.063032
1887	9.4300e-01	-4.5304	-14.558716	0.000364	3.643120	1.234322	0.029250
1888	9.4350e-01	-4.4902	-14.678451	-0.000298	-2.982671	-1.010556	-0.023947
1889	9.4400e-01	-4.4517	-14.452238	0.000564	5.635118	1.909230	0.045243
1890	9.4450e-01	-4.4165	-14.446678	0.000014	0.138481	0.046919	0.001112
1891	9.4500e-01	-4.3651	-14.294016	0.000380	3.802905	1.288459	0.030532
1892	9.4550e-01	-4.3266	-14.301286	-0.000018	-0.181091	-0.061355	-0.001454
1893	9.4600e-01	-4.2817	-14.046849	0.000634	6.338176	2.147432	0.050887
1894	9.4650e-01	-4.2416	-13.962607	0.000210	2.098522	0.710999	0.016848
1895	9.4700e-01	-4.2111	-13.940798	0.000054	0.543272	0.184066	0.004362
1896	9.4750e-01	-4.1694	-13.785997	0.000386	3.856167	1.306505	0.030960
1897	9.4800e-01	-4.1165	-13.676098	0.000274	2.737666	0.927546	0.021980
1898	9.4850e-01	-4.0828	-13.565770	0.000275	2.748318	0.931155	0.022065
1899	9.4900e-01	-4.0202	-13.593138	-0.000068	-0.681753	-0.230984	-0.005474
1900	9.4950e-01	-3.9913	-13.542251	0.000127	1.267635	0.429486	0.010177
1901	9.5000e-01	-3.9737	-13.277123	0.000660	6.604486	2.237660	0.053026
1902	9.5050e-01	-3.9352	-13.118902	0.000394	3.941387	1.335378	0.031644
1903	9.5100e-01	-3.8630	-13.053048	0.000164	1.640469	0.555806	0.013171
1904	9.5150e-01	-3.8373	-12.922194	0.000326	3.259633	1.104394	0.026171
1905	9.5200e-01	-3.8149	-12.828972	0.000232	2.322222	0.786790	0.018644
1906	9.5250e-01	-3.7780	-12.633547	0.000487	4.868145	1.649372	0.039085
1907	9.5300e-01	-3.7234	-12.599337	0.000085	0.852192	0.288730	0.006842
1908	9.5350e-01	-3.6609	-12.578384	0.000052	0.521967	0.176847	0.004191
1909	9.5400e-01	-3.6448	-12.254671	0.000806	8.063864	2.732111	0.064742
1910	9.5450e-01	-3.5999	-12.301282	-0.000116	-1.161111	-0.393395	-0.009322
1911	9.5500e-01	-3.5630	-12.231580	0.000174	1.736341	0.588288	0.013941
1912	9.5550e-01	-3.5261	-12.045563	0.000463	4.633792	1.569971	0.037203
1913	9.5600e-01	-3.5036	-11.951913	0.000233	2.332875	0.790399	0.018730
1914	9.5650e-01	-3.4411	-11.711587	0.000599	5.986647	2.028331	0.048065
1915	9.5700e-01	-3.4042	-11.734251	-0.000056	-0.564577	-0.191284	-0.004533
1916	9.5750e-01	-3.3512	-11.688923	0.000113	1.129154	0.382568	0.009066
1917	9.5800e-01	-3.3336	-11.491360	0.000492	4.921407	1.667418	0.039513
1918	9.5850e-01	-3.2823	-11.362217	0.000322	3.217024	1.089957	0.025829
1919	9.5900e-01	-3.2502	-11.184325	0.000443	4.431397	1.501398	0.035578
1920	9.5950e-01	-3.2053	-11.157812	0.000066	0.660449	0.223766	0.005303
1921	9.6000e-01	-3.1684	-10.957684	0.000499	4.985321	1.689073	0.040026
1922	9.6050e-01	-3.1475	-10.909790	0.000119	1.193068	0.404223	0.009579
1923	9.6100e-01	-3.0753	-10.897816	0.000030	0.298267	0.101056	0.002395
1924	9.6150e-01	-3.0529	-10.595058	0.000754	7.541897	2.555264	0.060552
1925	9.6200e-01	-2.9967	-10.651077	-0.000140	-1.395464	-0.472796	-0.011204
1926	9.6250e-01	-2.9823	-10.507394	0.000358	3.579205	1.212668	0.028736
1927	9.6300e-01	-2.9422	-10.241839	0.000662	6.615138	2.241269	0.053111
1928	9.6350e-01	-2.8748	-10.450948	-0.000521	-5.209022	-1.764864	-0.041822
1929	9.6400e-01	-2.8507	-10.329502	0.000303	3.025281	1.024993	0.024289
1930	9.6450e-01	-2.8074	-9.942501	0.000964	9.640419	3.266262	0.077400
1931	9.6500e-01	-2.7673	-10.112696	-0.000424	-4.239654	-1.436434	-0.034039
1932	9.6550e-01	-2.7063	-9.852273	0.000649	6.487309	2.197960	0.052085
1933	9.6600e-01	-2.6630	-9.670532	0.000453	4.527268	1.533880	0.036348
1934	9.6650e-01	-2.6566	-9.630763	0.000099	0.990673	0.335649	0.007954
1935	9.6700e-01	-2.6021	-9.617079	0.000034	0.340877	0.115492	0.002737
1936	9.6750e-01	-2.5700	-9.424647	0.000479	4.793578	1.624108	0.038486
1937	9.6800e-01	-2.5283	-9.366063	0.000146	1.459378	0.494451	0.011717
1938	9.6850e-01	-2.4930	-9.087679	0.000693	6.934710	2.349543	0.055677
1939	9.6900e-01	-2.4481	-8.968371	0.000297	2.972019	1.006947	0.023861
1940	9.6950e-01	-2.4272	-9.094948	-0.000315	-3.153109	-1.068302	-0.025315
1941	9.7000e-01	-2.3727	-8.724625	0.000922	9.224975	3.125506	0.074065
1942	9.7050e-01	-2.3197	-8.686994	0.000094	0.937411	0.317603	0.007526
1943	9.7100e-01	-2.3021	-8.442820	0.000608	6.082518	2.060813	0.048835
1944	9.7150e-01	-2.2475	-8.405616	0.000093	0.926758	0.313994	0.007441
1945	9.7200e-01	-2.1930	-8.375255	0.000076	0.756320	0.256248	0.006072
1946	9.7250e-01	-2.1513	-8.164008	0.000526	5.262284	1.782910	0.042249
1947	9.7300e-01	-2.1368	-8.088318	0.000189	1.885474	0.638816	0.015138
1948	9.7350e-01	-2.0711	-8.131508	-0.000108	-1.075892	-0.364522	-0.008638
1949	9.7400e-01	-2.0422	-8.127232	0.000011	0.106524	0.036091	0.000855
1950	9.7450e-01	-2.0101	-7.791546	0.000836	8.362131	2.833167	0.067137
1951	9.7500e-01	-1.9540	-7.792829	-0.000003	-0.031957	-0.010827	-0.000257
1952	9.7550e-01	-1.9411	-7.546945	0.000613	6.125128	2.075249	0.049177
1953	9.7600e-01	-1.8753	-7.548228	-0.000003	-0.031957	-0.010827	-0.000257
1954	9.7650e-01	-1.8160	-7.342112	0.000513	5.134455	1.739600	0.041223
1955	9.7700e-01	-1.7855	-7.482801	-0.000350	-3.504638	-1.187404	-0.028138
1956	9.7750e-01	-1.7278	-7.208693	0.000683	6.828186	2.313452	0.054822
1957	9.7800e-01	-1.7454	-6.787055	-0.001050	-10.503263	-3.558602	0.084328
1958	9.7850e-01	-1.6748	-6.956822	-0.000423	-4.229001	-1.432824	-0.033953
1959	9.7900e-01	-1.6363	-6.757976	0.000495	4.953364	1.678245	0.039769
1960	9.7950e-01	-1.5866	-6.738305	0.000049	0.490010	0.166020	0.003934
1961	9.8000e-01	-1.5513	-6.500973	0.000591	5.912080	2.003067	0.047466
1962	9.8050e-01	-1.5240	-6.399198	0.000254	2.535270	0.858973	0.020355
1963	9.8100e-01	-1.4935	-6.298279	0.000251	2.513966	0.851755	0.020184
1964	9.8150e-01	-1.4470	-6.229004	0.000173	1.725688	0.584679	0.013855
1965	9.8200e-01	-1.3957	-6.225155	0.000010	0.095872	0.032482	0.000770
1966	9.8250e-01	-1.3379	-6.025454	0.000497	4.974669	1.685463	0.039940
1967	9.8300e-01	-1.3363	-5.917265	0.000270	2.695056	0.913110	0.021638
1968	9.8350e-01	-1.2978	-5.742794	0.000435	4.346178	1.472525	0.034894
1969	9.8400e-01	-1.2513	-5.636743	0.000264	2.641794	0.895064	0.021210
1970	9.8450e-01	-1.1887	-5.576875	0.000149	1.491335	0.505278	0.011974
1971	9.8500e-01	-1.1534	-5.330135	0.000615	6.146433	2.082468	0.049348
1972	9.8550e-01	-1.1262	-5.208690	0.000303	3.025281	1.024993	0.024289
1973	9.8600e-01	-1.0813	-5.167638	0.000102	1.022630	0.346476	0.008210
1974	9.8650e-01	-1.0363	-4.884977	0.000704	7.041234	2.385635	0.056532
1975	9.8700e-01	-0.9914	-4.969647	-0.000211	-2.109174	-0.714608	-0.016934
1976	9.8750e-01	-0.9625	-4.816557	0.000381	3.813558	1.292068	0.030618
1977	9.8800e-01	-0.9337	-4.842642	-0.000065	-0.649796	-0.220157	-0.005217
1978	9.8850e-01	-0.8839	-4.526627	0.000787	7.872121	2.667147	0.063203
1979	9.8900e-01	-0.8262	-4.507812	0.000047	0.468705	0.158802	0.003763
1980	9.8950e-01	-0.7845	-4.294854	0.000530	5.304893	1.797347	0.042591
1981	9.9000e-01	-0.7412	-4.305545	-0.000027	-0.266310	-0.090228	-0.002138
1982	9.9050e-01	-0.7219	-4.145186	0.000399	3.994649	1.353424	0.032072
1983	9.9100e-01	-0.6946	-3.951899	0.000481	4.814883	1.631327	0.038657
1984	9.9150e-01	-0.6353	-3.842427	0.000273	2.727013	0.923937	0.021894
1985	9.9200e-01	-0.5936	-3.658976	0.000457	4.569878	1.548317	0.036690
1986	9.9250e-01	-0.5583	-3.621772	0.000093	0.926758	0.313994	0.007441
1987	9.9300e-01	-0.5198	-3.491347	0.000325	3.248981	1.100785	0.026085
1988	9.9350e-01	-0.4749	-3.406249	0.000212	2.119827	0.718217	0.017019
1989	9.9400e-01	-0.4347	-3.395986	0.000026	0.255658	0.086619	0.002053
1990	9.9450e-01	-0.3914	-3.227502	0.000420	4.197044	1.421997	0.033697
1991	9.9500e-01	-0.3513	-2.893099	0.000833	8.330174	2.822339	0.066881
1992	9.9550e-01	-0.3208	-2.755831	0.000342	3.419419	1.158531	0.027454
1993	9.9600e-01	-0.2936	-2.835797	-0.000199	-1.991998	-0.674907	-0.015993
1994	9.9650e-01	-0.2406	-2.637807	0.000493	4.932059	1.671027	0.039598
1995	9.9700e-01	-0.1989	-2.585209	0.000131	1.310245	0.443923	0.010520
1996	9.9750e-01	-0.1717	-2.288437	0.000739	7.392763	2.504736	0.059354
1997	9.9800e-01	-0.1203	-2.348304	-0.000149	-1.491335	-0.505278	-0.011974
1998	9.9850e-01	-0.0786	-2.334193	0.000035	0.351529	0.119101	0.002822
1999	9.9900e-01	-0.0241	-1.961303	0.000929	9.288889	3.147161	0.074578
2000	9.9950e-01	-0.0209	-1.789398	0.000428	4.282263	1.450870	0.034381
2001	1.0000e+00	0.0417	-1.885186	0.000428	4.282263	1.450870	-0.019158

Center data before PMax,+/-Pr and +/-Vc Calc.

PMax (uC/cm2):	4.85e+01
Pr (uC/cm2):	2.25e-01
-Pr (uC/cm2):	-1.89e+00
PLoss (uC/cm2):	-1.12e+00
Vc:	3.42e-01
-Vc:	-3.16e-02
C (Max-Eff) (nF):	2.42e-01
K (Eff):	8.22e+02
Vert. (+/-Pr) Shift (uC/cm2):	-8.30e-01
Horiz. Shift (+/-Vc):	1.55e-01
Offset (uC/cm2):	7.99e-01

A (Loop Area - uC/cm2·Volts):	-4.54e-02



Hysteresis Version: 5.48.1 - Radiant Technologies, Inc., 1999 - 9/12/24

