»»»»»»»»»»»»»»»»»»»»»»»»»»»»»»»»»»»» Hysteresis ««««««««««««««««««««««««««««««««««««
»»»  Executed Version:	5.48.1
»»»  Vision Version:	5.48.4 (R)
»»»  Vision Compiled:	9/18/24
»»»  Driver Version:	5.47.0
»»»  Windows Version:	Windows 8 or 8.1
»»»  Processor Information:	x86 (AMD or Intel) - 32 Processors
»»»  Tester Name:	PMF21124-494 (100V)
»»»  Tester S/N:	PMF21124-494
»»»  Internal Amp Type:	100V RevK 270k
»»»  Internal Amp S/N:	iAB2-596/K     
»»»  Execution Count:	1
»»»»»»»»»»»»»»»»»»»»»»»»»»»»»»»»»»»»»»»»»»««««««««««««««««««««««««««««««««««««««««««

Stored:	6/4/2025 - 17:29:51
Configured:	06/04/25 04:39:58 PM
Executed:	06/04/25 05:29:13 PM

»»»»»»»»»»»»»»»»»»»»»»»»»»»»»»»»»»» Sample Info ««««««««««««««««««««««««««««««««««««
Sample Name:	
Lot Name:	
Wafer Name:	
Die Row/Column:	0/0
Capacitor Number:	0
Sample Area (cm2):	1.00e-04
Sample Thickness (microns):	3.00e-01

Amplifier:	Internal

»»»»»»»»»»»»»»»»»»»»»»»»»»»»»»»»»»» Tester Info «««««««««««««««««««««««««««««««««««
Tester Name:	PMF21124-494 (100V)
Tester Serial Number:	PMF21124-494
Return Signal Amp. Level:	0.19 [Index: 3]

»»»»»»»»»»»»»»»»»»»»»»»»»»»»»»»» Hysteresis Info ««««««««««««««««««««««««««««««««««
Task Name:	Hyst-147
Volts:	20.00
Field:	666.67 (kV/cm)
DCBias:	0.00
DCField:	0.00 (kV/cm)
Hysteresis Period (ms):	1.00e+00
Preset:	Enabled
Preset Delay (ms):	1.00e+03
Profile:	Standard Bipolar

»»»»»»»»»»»»»»»»»»»»»»»»»»»»»»»»»»»»»» Data «««««««««««««««««««««««««««««««««««««««
Points:	2001

Valid Data

Point	Time (ms)	Drive Voltage	Measured Polarization (uC/cm2)	Capacitance (uF)	Normalized Capacitance (uF/cm2)	Dielectric Constant	Instantaneous Current (mA)
   1	0.0000e+00	0.0096	-2.907864	0.001253	12.525229	4.243663	0.100021
   2	5.0000e-04	0.0273	-2.407760	0.001253	12.525229	4.243663	0.100021
   3	1.0000e-03	0.0594	-2.379528	0.000071	0.707069	0.239562	0.005646
   4	1.5000e-03	0.0898	-2.290800	0.000222	2.222218	0.752908	0.017746
   5	2.0000e-03	0.1267	-2.234337	0.000141	1.414139	0.479123	0.011293
   6	2.5000e-03	0.1717	-2.036715	0.000495	4.949486	1.676931	0.039524
   7	3.0000e-03	0.2102	-1.697935	0.000848	8.484833	2.874739	0.067756
   8	3.5000e-03	0.2422	-1.427717	0.000677	6.767664	2.292947	0.054044
   9	4.0000e-03	0.2872	-1.282525	0.000364	3.636357	1.232031	0.029038
  10	4.5000e-03	0.3208	-0.951811	0.000828	8.282813	2.806293	0.066143
  11	5.0000e-03	0.3577	-0.669494	0.000707	7.070694	2.395616	0.056463
  12	5.5000e-03	0.4027	-0.387177	0.000707	7.070694	2.395616	0.056463
  13	6.0000e-03	0.4412	-0.157291	0.000576	5.757565	1.950716	0.045977
  14	6.5000e-03	0.4845	0.173423	0.000828	8.282813	2.806293	0.066143
  15	7.0000e-03	0.5262	0.459773	0.000717	7.171704	2.429839	0.057270
  16	7.5000e-03	0.5727	0.455740	-0.000010	-0.101010	-0.034223	-0.000807
  17	8.0000e-03	0.6128	0.665461	0.000525	5.252516	1.779600	0.041944
  18	8.5000e-03	0.6497	1.088937	0.001061	10.606041	3.593424	0.084695
  19	9.0000e-03	0.6882	1.322856	0.000586	5.858575	1.984939	0.046784
  20	9.5000e-03	0.7283	1.552743	0.000576	5.757565	1.950716	0.045977
  21	1.0000e-02	0.7652	1.851192	0.000747	7.474734	2.532508	0.059690
  22	1.0500e-02	0.8037	2.052847	0.000505	5.050496	1.711154	0.040331
  23	1.1000e-02	0.8486	2.266601	0.000535	5.353525	1.813824	0.042751
  24	1.1500e-02	0.8871	2.613448	0.000869	8.686853	2.943185	0.069369
  25	1.2000e-02	0.9321	2.682011	0.000172	1.717169	0.581792	0.013713
  26	1.2500e-02	0.9706	2.940129	0.000646	6.464635	2.190277	0.051624
  27	1.3000e-02	1.0075	3.149850	0.000525	5.252516	1.779600	0.041944
  28	1.3500e-02	1.0540	3.577358	0.001071	10.707051	3.627647	0.085502
  29	1.4000e-02	1.0845	3.770947	0.000485	4.848476	1.642708	0.038718
  30	1.4500e-02	1.1294	3.936304	0.000414	4.141406	1.403147	0.033071
  31	1.5000e-02	1.1599	4.359780	0.001061	10.606041	3.593424	0.084695
  32	1.5500e-02	1.2000	4.589666	0.000576	5.757565	1.950716	0.045977
  33	1.6000e-02	1.2465	4.706626	0.000293	2.929288	0.992469	0.023392
  34	1.6500e-02	1.2818	5.162366	0.001141	11.414120	3.867209	0.091148
  35	1.7000e-02	1.3219	5.351922	0.000475	4.747466	1.608485	0.037911
  36	1.7500e-02	1.3620	5.545511	0.000485	4.848476	1.642708	0.038718
  37	1.8000e-02	1.4069	5.779430	0.000586	5.858575	1.984939	0.046784
  38	1.8500e-02	1.4406	6.077880	0.000747	7.474734	2.532508	0.059690
  39	1.9000e-02	1.4887	6.085946	0.000020	0.202020	0.068446	0.001613
  40	1.9500e-02	1.5369	6.444892	0.000899	8.989882	3.045855	0.071789
  41	2.0000e-02	1.5673	6.509421	0.000162	1.616159	0.547569	0.012906
  42	2.0500e-02	1.6139	7.009525	0.001253	12.525229	4.243663	0.100021
  43	2.1000e-02	1.6395	7.344273	0.000838	8.383823	2.840516	0.066949
  44	2.1500e-02	1.6973	7.509630	0.000414	4.141406	1.403147	0.033071
  45	2.2000e-02	1.7262	7.670954	0.000404	4.040397	1.368923	0.032265
  46	2.2500e-02	1.7663	7.904873	0.000586	5.858575	1.984939	0.046784
  47	2.3000e-02	1.8112	8.082330	0.000444	4.444436	1.505816	0.035491
  48	2.3500e-02	1.8449	8.457408	0.000939	9.393922	3.182747	0.075016
  49	2.4000e-02	1.8802	8.586467	0.000323	3.232317	1.095139	0.025812
  50	2.4500e-02	1.9203	8.852651	0.000667	6.666654	2.258724	0.053237
  51	2.5000e-02	1.9636	9.251928	0.001000	9.999982	3.388085	0.079855
  52	2.5500e-02	2.0053	9.336623	0.000212	2.121208	0.718685	0.016939
  53	2.6000e-02	2.0518	9.699602	0.000909	9.090892	3.080078	0.072596
  54	2.6500e-02	2.0855	9.965787	0.000667	6.666654	2.258724	0.053237
  55	2.7000e-02	2.1272	10.215839	0.000626	6.262615	2.121831	0.050010
  56	2.7500e-02	2.1721	10.445725	0.000576	5.757565	1.950716	0.045977
  57	2.8000e-02	2.1994	10.764340	0.000798	7.979783	2.703624	0.063723
  58	2.8500e-02	2.2491	10.905499	0.000354	3.535347	1.197808	0.028232
  59	2.9000e-02	2.2844	11.103120	0.000495	4.949486	1.676931	0.039524
  60	2.9500e-02	2.3277	11.490298	0.000970	9.696952	3.285416	0.077435
  61	3.0000e-02	2.3630	11.611291	0.000303	3.030297	1.026693	0.024199
  62	3.0500e-02	2.4063	11.913773	0.000758	7.575744	2.566731	0.060496
  63	3.1000e-02	2.4432	12.232388	0.000798	7.979783	2.703624	0.063723
  64	3.1500e-02	2.4785	12.458242	0.000566	5.656555	1.916493	0.045171
  65	3.2000e-02	2.5251	12.599400	0.000354	3.535347	1.197808	0.028232
  66	3.2500e-02	2.5620	12.905916	0.000768	7.676754	2.600954	0.061303
  67	3.3000e-02	2.6133	13.143868	0.000596	5.959585	2.019162	0.047591
  68	3.3500e-02	2.6486	13.623807	0.001202	12.020180	4.072547	0.095988
  69	3.4000e-02	2.6791	13.764966	0.000354	3.535347	1.197808	0.028232
  70	3.4500e-02	2.7240	13.910157	0.000364	3.636357	1.232031	0.029038
  71	3.5000e-02	2.7673	14.212639	0.000758	7.575744	2.566731	0.060496
  72	3.5500e-02	2.8090	14.265070	0.000131	1.313129	0.444900	0.010486
  73	3.6000e-02	2.8427	14.680479	0.001040	10.404021	3.524978	0.083082
  74	3.6500e-02	2.8844	14.950697	0.000677	6.767664	2.292947	0.054044
  75	3.7000e-02	2.9277	15.168484	0.000545	5.454535	1.848047	0.043557
  76	3.7500e-02	2.9630	15.422569	0.000636	6.363625	2.156054	0.050817
  77	3.8000e-02	3.0079	15.608092	0.000465	4.646456	1.574262	0.037105
  78	3.8500e-02	3.0384	15.777482	0.000424	4.242416	1.437370	0.033878
  79	3.9000e-02	3.0849	16.156593	0.000949	9.494932	3.216970	0.075822
  80	3.9500e-02	3.1299	16.321950	0.000414	4.141406	1.403147	0.033071
  81	4.0000e-02	3.1635	16.769624	0.001121	11.212101	3.798762	0.089535
  82	4.0500e-02	3.2085	16.846253	0.000192	1.919188	0.650239	0.015326
  83	4.1000e-02	3.2518	17.164868	0.000798	7.979783	2.703624	0.063723
  84	4.1500e-02	3.2919	17.378622	0.000535	5.353525	1.813824	0.042751
  85	4.2000e-02	3.3368	17.604475	0.000566	5.656555	1.916493	0.045171
  86	4.2500e-02	3.3641	17.919057	0.000788	7.878773	2.669401	0.062916
  87	4.3000e-02	3.4074	18.225573	0.000768	7.676754	2.600954	0.061303
  88	4.3500e-02	3.4587	18.467558	0.000606	6.060595	2.053385	0.048397
  89	4.4000e-02	3.4956	18.649048	0.000455	4.545446	1.540039	0.036298
  90	4.4500e-02	3.5309	18.862802	0.000535	5.353525	1.813824	0.042751
  91	4.5000e-02	3.5630	19.068490	0.000515	5.151506	1.745377	0.041138
  92	4.5500e-02	3.6143	19.266112	0.000495	4.949486	1.676931	0.039524
  93	4.6000e-02	3.6432	19.762183	0.001242	12.424219	4.209440	0.099214
  94	4.6500e-02	3.6817	19.863011	0.000253	2.525248	0.855577	0.020165
  95	4.7000e-02	3.7298	19.979970	0.000293	2.929288	0.992469	0.023392
  96	4.7500e-02	3.7603	20.419578	0.001101	11.010081	3.730316	0.087922
  97	4.8000e-02	3.8084	20.689796	0.000677	6.767664	2.292947	0.054044
  98	4.8500e-02	3.8453	20.955980	0.000667	6.666654	2.258724	0.053237
  99	4.9000e-02	3.8822	21.367356	0.001030	10.303011	3.490755	0.082275
 100	4.9500e-02	3.9207	21.387522	0.000051	0.505050	0.171115	0.004033
 101	5.0000e-02	3.9721	21.524647	0.000343	3.434337	1.163585	0.027425
 102	5.0500e-02	4.0106	21.835196	0.000778	7.777763	2.635178	0.062110
 103	5.1000e-02	4.0523	22.186075	0.000879	8.787863	2.977408	0.070176
 104	5.1500e-02	4.0924	22.266737	0.000202	2.020198	0.684462	0.016132
 105	5.2000e-02	4.1277	22.625683	0.000899	8.989882	3.045855	0.071789
 106	5.2500e-02	4.1678	22.883801	0.000646	6.464635	2.190277	0.051624
 107	5.3000e-02	4.2047	23.178218	0.000737	7.373724	2.498285	0.058883
 108	5.3500e-02	4.2496	23.347608	0.000424	4.242416	1.437370	0.033878
 109	5.4000e-02	4.2849	23.662189	0.000788	7.878773	2.669401	0.062916
 110	5.4500e-02	4.3266	23.767050	0.000263	2.626258	0.889800	0.020972
 111	5.5000e-02	4.3651	24.121963	0.000889	8.888872	3.011632	0.070983
 112	5.5500e-02	4.4100	24.246989	0.000313	3.131307	1.060916	0.025005
 113	5.6000e-02	4.4421	24.618034	0.000929	9.292912	3.148524	0.074209
 114	5.6500e-02	4.4902	24.928582	0.000778	7.777763	2.635178	0.062110
 115	5.7000e-02	4.5432	25.065708	0.000343	3.434337	1.163585	0.027425
 116	5.7500e-02	4.5689	25.218966	0.000384	3.838377	1.300477	0.030652
 117	5.8000e-02	4.6154	25.400455	0.000455	4.545446	1.540039	0.036298
 118	5.8500e-02	4.6507	25.694871	0.000737	7.373724	2.498285	0.058883
 119	5.9000e-02	4.6860	26.102214	0.001020	10.202001	3.456532	0.081469
 120	5.9500e-02	4.7277	26.231273	0.000323	3.232317	1.095139	0.025812
 121	6.0000e-02	4.7646	26.707179	0.001192	11.919170	4.038324	0.095181
 122	6.0500e-02	4.8095	26.860437	0.000384	3.838377	1.300477	0.030652
 123	6.1000e-02	4.8448	27.102423	0.000606	6.060595	2.053385	0.048397
 124	6.1500e-02	4.8897	27.300044	0.000495	4.949486	1.676931	0.039524
 125	6.2000e-02	4.9330	27.658990	0.000899	8.989882	3.045855	0.071789
 126	6.2500e-02	4.9731	27.771917	0.000283	2.828278	0.958246	0.022585
 127	6.3000e-02	5.0052	27.957440	0.000465	4.646456	1.574262	0.037105
 128	6.3500e-02	5.0598	28.163128	0.000515	5.151506	1.745377	0.041138
 129	6.4000e-02	5.0950	28.570470	0.001020	10.202001	3.456532	0.081469
 130	6.4500e-02	5.1319	28.703563	0.000333	3.333327	1.129362	0.026618
 131	6.5000e-02	5.1753	28.893118	0.000475	4.747466	1.608485	0.037911
 132	6.5500e-02	5.2073	29.211733	0.000798	7.979783	2.703624	0.063723
 133	6.6000e-02	5.2442	29.364991	0.000384	3.838377	1.300477	0.030652
 134	6.6500e-02	5.2908	29.752168	0.000970	9.696952	3.285416	0.077435
 135	6.7000e-02	5.3212	30.010287	0.000646	6.464635	2.190277	0.051624
 136	6.7500e-02	5.3726	30.413597	0.001010	10.100991	3.422309	0.080662
 137	6.8000e-02	5.4111	30.397464	-0.000040	-0.404040	-0.136892	-0.003226
 138	6.8500e-02	5.4464	30.812873	0.001040	10.404021	3.524978	0.083082
 139	6.9000e-02	5.4961	31.026628	0.000535	5.353525	1.813824	0.042751
 140	6.9500e-02	5.5234	31.155687	0.000323	3.232317	1.095139	0.025812
 141	7.0000e-02	5.5683	31.446070	0.000727	7.272714	2.464062	0.058077
 142	7.0500e-02	5.6020	31.647725	0.000505	5.050496	1.711154	0.040331
 143	7.1000e-02	5.6485	32.022803	0.000939	9.393922	3.182747	0.075016
 144	7.1500e-02	5.6822	32.208325	0.000465	4.646456	1.574262	0.037105
 145	7.2000e-02	5.7335	32.321252	0.000283	2.828278	0.958246	0.022585
 146	7.2500e-02	5.7688	32.635834	0.000788	7.878773	2.669401	0.062916
 147	7.3000e-02	5.8041	32.768926	0.000333	3.333327	1.129362	0.026618
 148	7.3500e-02	5.8474	32.906051	0.000343	3.434337	1.163585	0.027425
 149	7.4000e-02	5.8843	33.418255	0.001283	12.828259	4.346332	0.102441
 150	7.4500e-02	5.9341	33.555380	0.000343	3.434337	1.163585	0.027425
 151	7.5000e-02	5.9710	33.789300	0.000586	5.858575	1.984939	0.046784
 152	7.5500e-02	6.0046	34.140180	0.000879	8.787863	2.977408	0.070176
 153	7.6000e-02	6.0480	34.362000	0.000556	5.555545	1.882270	0.044364
 154	7.6500e-02	6.0977	34.507192	0.000364	3.636357	1.232031	0.029038
 155	7.7000e-02	6.1266	34.890336	0.000960	9.595942	3.251193	0.076629
 156	7.7500e-02	6.1667	35.148454	0.000646	6.464635	2.190277	0.051624
 157	7.8000e-02	6.2132	35.104090	-0.000111	-1.111109	-0.376454	-0.008873
 158	7.8500e-02	6.2453	35.584029	0.001202	12.020180	4.072547	0.095988
 159	7.9000e-02	6.2870	35.745353	0.000404	4.040397	1.368923	0.032265
 160	7.9500e-02	6.3303	36.035736	0.000727	7.272714	2.464062	0.058077
 161	8.0000e-02	6.3720	36.297887	0.000657	6.565644	2.224501	0.052430
 162	8.0500e-02	6.3993	36.455178	0.000394	3.939387	1.334700	0.031458
 163	8.1000e-02	6.4490	36.830256	0.000939	9.393922	3.182747	0.075016
 164	8.1500e-02	6.4827	37.100474	0.000677	6.767664	2.292947	0.054044
 165	8.2000e-02	6.5244	37.273897	0.000434	4.343426	1.471593	0.034685
 166	8.2500e-02	6.5629	37.435221	0.000404	4.040397	1.368923	0.032265
 167	8.3000e-02	6.6014	37.657042	0.000556	5.555545	1.882270	0.044364
 168	8.3500e-02	6.6495	37.967590	0.000778	7.777763	2.635178	0.062110
 169	8.4000e-02	6.6880	38.108749	0.000354	3.535347	1.197808	0.028232
 170	8.4500e-02	6.7217	38.471728	0.000909	9.090892	3.080078	0.072596
 171	8.5000e-02	6.7634	38.645151	0.000434	4.343426	1.471593	0.034685
 172	8.5500e-02	6.8052	38.871004	0.000566	5.656555	1.916493	0.045171
 173	8.6000e-02	6.8469	39.286413	0.001040	10.404021	3.524978	0.083082
 174	8.6500e-02	6.8902	39.451771	0.000414	4.141406	1.403147	0.033071
 175	8.7000e-02	6.9255	39.524366	0.000182	1.818178	0.616016	0.014519
 176	8.7500e-02	6.9543	39.851047	0.000818	8.181803	2.772070	0.065336
 177	8.8000e-02	7.0089	40.060768	0.000525	5.252516	1.779600	0.041944
 178	8.8500e-02	7.0538	40.375350	0.000788	7.878773	2.669401	0.062916
 179	8.9000e-02	7.0875	40.447946	0.000182	1.818178	0.616016	0.014519
 180	8.9500e-02	7.1308	40.677833	0.000576	5.757565	1.950716	0.045977
 181	9.0000e-02	7.1597	41.169871	0.001232	12.323210	4.175216	0.098408
 182	9.0500e-02	7.2062	41.282797	0.000283	2.828278	0.958246	0.022585
 183	9.1000e-02	7.2527	41.504618	0.000556	5.555545	1.882270	0.044364
 184	9.1500e-02	7.2977	41.915994	0.001030	10.303011	3.490755	0.082275
 185	9.2000e-02	7.3249	41.944225	0.000071	0.707069	0.239562	0.005646
 186	9.2500e-02	7.3698	42.311237	0.000919	9.191902	3.114301	0.073402
 187	9.3000e-02	7.4035	42.472561	0.000404	4.040397	1.368923	0.032265
 188	9.3500e-02	7.4517	42.650018	0.000444	4.444436	1.505816	0.035491
 189	9.4000e-02	7.4821	42.791176	0.000354	3.535347	1.197808	0.028232
 190	9.4500e-02	7.5303	43.069460	0.000697	6.969684	2.361393	0.055657
 191	9.5000e-02	7.5656	43.226751	0.000394	3.939387	1.334700	0.031458
 192	9.5500e-02	7.6073	43.444538	0.000545	5.454535	1.848047	0.043557
 193	9.6000e-02	7.6570	43.880113	0.001091	10.909071	3.696093	0.087115
 194	9.6500e-02	7.6923	43.928510	0.000121	1.212119	0.410677	0.009679
 195	9.7000e-02	7.7340	44.202761	0.000687	6.868674	2.327170	0.054850
 196	9.7500e-02	7.7709	44.634302	0.001081	10.808061	3.661870	0.086308
 197	9.8000e-02	7.8062	44.718997	0.000212	2.121208	0.718685	0.016939
 198	9.8500e-02	7.8527	44.920652	0.000505	5.050496	1.711154	0.040331
 199	9.9000e-02	7.8880	45.211035	0.000727	7.272714	2.464062	0.058077
 200	9.9500e-02	7.9281	45.461087	0.000626	6.262615	2.121831	0.050010
 201	1.0000e-01	7.9618	45.642577	0.000455	4.545446	1.540039	0.036298
 202	1.0050e-01	8.0099	45.743404	0.000253	2.525248	0.855577	0.020165
 203	1.0100e-01	8.0484	46.110416	0.000919	9.191902	3.114301	0.073402
 204	1.0150e-01	8.0885	46.352402	0.000606	6.060595	2.053385	0.048397
 205	1.0200e-01	8.1286	46.699249	0.000869	8.686853	2.943185	0.069369
 206	1.0250e-01	8.1720	46.779911	0.000202	2.020198	0.684462	0.016132
 207	1.0300e-01	8.2105	47.203386	0.001061	10.606041	3.593424	0.084695
 208	1.0350e-01	8.2506	47.413107	0.000525	5.252516	1.779600	0.041944
 209	1.0400e-01	8.2875	47.388909	-0.000061	-0.606059	-0.205339	-0.004840
 210	1.0450e-01	8.3244	47.808351	0.001051	10.505031	3.559201	0.083888
 211	1.0500e-01	8.3677	47.969675	0.000404	4.040397	1.368923	0.032265
 212	1.0550e-01	8.4142	48.175363	0.000515	5.151506	1.745377	0.041138
 213	1.0600e-01	8.4415	48.461713	0.000717	7.171704	2.429839	0.057270
 214	1.0650e-01	8.4816	48.683533	0.000556	5.555545	1.882270	0.044364
 215	1.0700e-01	8.5265	48.812592	0.000323	3.232317	1.095139	0.025812
 216	1.0750e-01	8.5714	48.973916	0.000404	4.040397	1.368923	0.032265
 217	1.0800e-01	8.6115	49.203803	0.000576	5.757565	1.950716	0.045977
 218	1.0850e-01	8.6629	49.486120	0.000707	7.070694	2.395616	0.056463
 219	1.0900e-01	8.6885	49.998323	0.001283	12.828259	4.346332	0.102441
 220	1.0950e-01	8.7367	50.091085	0.000232	2.323228	0.787131	0.018552
 221	1.1000e-01	8.7687	50.385501	0.000737	7.373724	2.498285	0.058883
 222	1.1050e-01	8.8072	50.534725	0.000374	3.737367	1.266254	0.029845
 223	1.1100e-01	8.8473	50.817042	0.000707	7.070694	2.395616	0.056463
 224	1.1150e-01	8.8810	51.095326	0.000697	6.969684	2.361393	0.055657
 225	1.1200e-01	8.9276	51.240518	0.000364	3.636357	1.232031	0.029038
 226	1.1250e-01	8.9693	51.381676	0.000354	3.535347	1.197808	0.028232
 227	1.1300e-01	9.0110	51.543000	0.000404	4.040397	1.368923	0.032265
 228	1.1350e-01	9.0495	52.002773	0.001152	11.515130	3.901432	0.091955
 229	1.1400e-01	9.0800	52.067303	0.000162	1.616159	0.547569	0.012906
 230	1.1450e-01	9.1233	52.478679	0.001030	10.303011	3.490755	0.082275
 231	1.1500e-01	9.1650	52.684367	0.000515	5.151506	1.745377	0.041138
 232	1.1550e-01	9.2067	52.857790	0.000434	4.343426	1.471593	0.034685
 233	1.1600e-01	9.2532	52.881989	0.000061	0.606059	0.205339	0.004840
 234	1.1650e-01	9.2853	53.172372	0.000727	7.272714	2.464062	0.058077
 235	1.1700e-01	9.3350	53.228835	0.000141	1.414139	0.479123	0.011293
 236	1.1750e-01	9.3703	53.442590	0.000535	5.353525	1.813824	0.042751
 237	1.1800e-01	9.4088	53.874131	0.001081	10.808061	3.661870	0.086308
 238	1.1850e-01	9.4537	54.039488	0.000414	4.141406	1.403147	0.033071
 239	1.1900e-01	9.4922	54.390368	0.000879	8.787863	2.977408	0.070176
 240	1.1950e-01	9.5372	54.745280	0.000889	8.888872	3.011632	0.070983
 241	1.2000e-01	9.5725	54.680751	-0.000162	-1.616159	-0.547569	-0.012906
 242	1.2050e-01	9.6110	54.813843	0.000333	3.333327	1.129362	0.026618
 243	1.2100e-01	9.6430	55.338146	0.001313	13.131289	4.449001	0.104861
 244	1.2150e-01	9.6944	55.636595	0.000747	7.474734	2.532508	0.059690
 245	1.2200e-01	9.7409	55.507536	-0.000323	-3.232317	-1.095139	-0.025812
 246	1.2250e-01	9.7778	55.539801	0.000081	0.808079	0.273785	0.006453
 247	1.2300e-01	9.8067	55.963276	0.001061	10.606041	3.593424	0.084695
 248	1.2350e-01	9.8548	56.221395	0.000646	6.464635	2.190277	0.051624
 249	1.2400e-01	9.8933	56.548076	0.000818	8.181803	2.772070	0.065336
 250	1.2450e-01	9.9334	56.834426	0.000717	7.171704	2.429839	0.057270
 251	1.2500e-01	9.9719	56.959452	0.000313	3.131307	1.060916	0.025005
 252	1.2550e-01	10.0232	57.108676	0.000374	3.737367	1.266254	0.029845
 253	1.2600e-01	10.0457	57.435357	0.000818	8.181803	2.772070	0.065336
 254	1.2650e-01	10.0986	57.600714	0.000414	4.141406	1.403147	0.033071
 255	1.2700e-01	10.1291	57.689442	0.000222	2.222218	0.752908	0.017746
 256	1.2750e-01	10.1692	58.040322	0.000879	8.787863	2.977408	0.070176
 257	1.2800e-01	10.2045	58.250043	0.000525	5.252516	1.779600	0.041944
 258	1.2850e-01	10.2575	58.387168	0.000343	3.434337	1.163585	0.027425
 259	1.2900e-01	10.2895	58.721916	0.000838	8.383823	2.840516	0.066949
 260	1.2950e-01	10.3216	58.887273	0.000414	4.141406	1.403147	0.033071
 261	1.3000e-01	10.3569	59.193788	0.000768	7.676754	2.600954	0.061303
 262	1.3050e-01	10.4083	59.431741	0.000596	5.959585	2.019162	0.047591
 263	1.3100e-01	10.4532	59.492237	0.000152	1.515149	0.513346	0.012099
 264	1.3150e-01	10.4981	59.673727	0.000455	4.545446	1.540039	0.036298
 265	1.3200e-01	10.5270	60.004441	0.000828	8.282813	2.806293	0.066143
 266	1.3250e-01	10.5687	60.302890	0.000747	7.474734	2.532508	0.059690
 267	1.3300e-01	10.6040	60.512611	0.000525	5.252516	1.779600	0.041944
 268	1.3350e-01	10.6457	60.641671	0.000323	3.232317	1.095139	0.025812
 269	1.3400e-01	10.6890	60.823160	0.000455	4.545446	1.540039	0.036298
 270	1.3450e-01	10.7323	61.105477	0.000707	7.070694	2.395616	0.056463
 271	1.3500e-01	10.7788	61.282933	0.000444	4.444436	1.505816	0.035491
 272	1.3550e-01	10.8125	61.331330	0.000121	1.212119	0.410677	0.009679
 273	1.3600e-01	10.8574	61.787071	0.001141	11.414120	3.867209	0.091148
 274	1.3650e-01	10.8895	62.004858	0.000545	5.454535	1.848047	0.043557
 275	1.3700e-01	10.9345	62.154083	0.000374	3.737367	1.266254	0.029845
 276	1.3750e-01	10.9697	62.355737	0.000505	5.050496	1.711154	0.040331
 277	1.3800e-01	11.0082	62.504962	0.000374	3.737367	1.266254	0.029845
 278	1.3850e-01	11.0532	62.662253	0.000394	3.939387	1.334700	0.031458
 279	1.3900e-01	11.0933	63.045397	0.000960	9.595942	3.251193	0.076629
 280	1.3950e-01	11.1302	63.194622	0.000374	3.737367	1.266254	0.029845
 281	1.4000e-01	11.1687	63.428542	0.000586	5.858575	1.984939	0.046784
 282	1.4050e-01	11.2120	63.589866	0.000404	4.040397	1.368923	0.032265
 283	1.4100e-01	11.2489	63.795554	0.000515	5.151506	1.745377	0.041138
 284	1.4150e-01	11.2906	64.190797	0.000990	9.898972	3.353862	0.079049
 285	1.4200e-01	11.3355	64.267426	0.000192	1.919188	0.650239	0.015326
 286	1.4250e-01	11.3676	64.674769	0.001020	10.202001	3.456532	0.081469
 287	1.4300e-01	11.4093	64.807861	0.000333	3.333327	1.129362	0.026618
 288	1.4350e-01	11.4542	64.896590	0.000222	2.222218	0.752908	0.017746
 289	1.4400e-01	11.4911	65.150675	0.000636	6.363625	2.156054	0.050817
 290	1.4450e-01	11.5248	65.428959	0.000697	6.969684	2.361393	0.055657
 291	1.4500e-01	11.5745	65.537852	0.000273	2.727268	0.924023	0.021779
 292	1.4550e-01	11.6146	65.743540	0.000515	5.151506	1.745377	0.041138
 293	1.4600e-01	11.6499	65.832268	0.000222	2.222218	0.752908	0.017746
 294	1.4650e-01	11.6933	66.094420	0.000657	6.565644	2.224501	0.052430
 295	1.4700e-01	11.7253	66.380770	0.000717	7.171704	2.429839	0.057270
 296	1.4750e-01	11.7735	66.598557	0.000545	5.454535	1.848047	0.043557
 297	1.4800e-01	11.8055	66.828444	0.000576	5.757565	1.950716	0.045977
 298	1.4850e-01	11.8601	66.921205	0.000232	2.323228	0.787131	0.018552
 299	1.4900e-01	11.8858	67.126893	0.000515	5.151506	1.745377	0.041138
 300	1.4950e-01	11.9371	67.372912	0.000616	6.161605	2.087608	0.049204
 301	1.5000e-01	11.9740	67.530203	0.000394	3.939387	1.334700	0.031458
 302	1.5050e-01	12.0109	67.804454	0.000687	6.868674	2.327170	0.054850
 303	1.5100e-01	12.0542	67.994009	0.000475	4.747466	1.608485	0.037911
 304	1.5150e-01	12.0895	68.235995	0.000606	6.060595	2.053385	0.048397
 305	1.5200e-01	12.1264	68.377154	0.000354	3.535347	1.197808	0.028232
 306	1.5250e-01	12.1729	68.675603	0.000747	7.474734	2.532508	0.059690
 307	1.5300e-01	12.2130	68.667537	-0.000020	-0.202020	-0.068446	-0.001613
 308	1.5350e-01	12.2547	69.127310	0.001152	11.515130	3.901432	0.091955
 309	1.5400e-01	12.2868	69.377362	0.000626	6.262615	2.121831	0.050010
 310	1.5450e-01	12.3253	69.579017	0.000505	5.050496	1.711154	0.040331
 311	1.5500e-01	12.3654	69.623381	0.000111	1.111109	0.376454	0.008873
 312	1.5550e-01	12.4119	70.038790	0.001040	10.404021	3.524978	0.083082
 313	1.5600e-01	12.4553	70.192048	0.000384	3.838377	1.300477	0.030652
 314	1.5650e-01	12.4970	70.288842	0.000242	2.424238	0.821354	0.019359
 315	1.5700e-01	12.5323	70.381604	0.000232	2.323228	0.787131	0.018552
 316	1.5750e-01	12.5740	70.708285	0.000818	8.181803	2.772070	0.065336
 317	1.5800e-01	12.6077	70.897840	0.000475	4.747466	1.608485	0.037911
 318	1.5850e-01	12.6430	71.071264	0.000434	4.343426	1.471593	0.034685
 319	1.5900e-01	12.6911	71.486673	0.001040	10.404021	3.524978	0.083082
 320	1.5950e-01	12.7360	71.575401	0.000222	2.222218	0.752908	0.017746
 321	1.6000e-01	12.7793	71.635897	0.000152	1.515149	0.513346	0.012099
 322	1.6050e-01	12.8034	72.099704	0.001162	11.616140	3.935655	0.092761
 323	1.6100e-01	12.8451	72.265061	0.000414	4.141406	1.403147	0.033071
 324	1.6150e-01	12.8964	72.680470	0.001040	10.404021	3.524978	0.083082
 325	1.6200e-01	12.9269	72.724834	0.000111	1.111109	0.376454	0.008873
 326	1.6250e-01	12.9718	72.724834	0.000000	0.000000	0.000000	0.000000
 327	1.6300e-01	13.0135	73.099912	0.000939	9.393922	3.182747	0.075016
 328	1.6350e-01	13.0472	73.087813	-0.000030	-0.303030	-0.102669	-0.002420
 329	1.6400e-01	13.0857	73.325766	0.000596	5.959585	2.019162	0.047591
 330	1.6450e-01	13.1258	73.499189	0.000434	4.343426	1.471593	0.034685
 331	1.6500e-01	13.1643	73.729076	0.000576	5.757565	1.950716	0.045977
 332	1.6550e-01	13.2028	73.987194	0.000646	6.464635	2.190277	0.051624
 333	1.6600e-01	13.2445	73.999293	0.000030	0.303030	0.102669	0.002420
 334	1.6650e-01	13.2830	74.402603	0.001010	10.100991	3.422309	0.080662
 335	1.6700e-01	13.3264	74.721218	0.000798	7.979783	2.703624	0.063723
 336	1.6750e-01	13.3729	74.834145	0.000283	2.828278	0.958246	0.022585
 337	1.6800e-01	13.3986	75.080164	0.000616	6.161605	2.087608	0.049204
 338	1.6850e-01	13.4483	75.197123	0.000293	2.929288	0.992469	0.023392
 339	1.6900e-01	13.4900	75.285852	0.000222	2.222218	0.752908	0.017746
 340	1.6950e-01	13.5205	75.523804	0.000596	5.959585	2.019162	0.047591
 341	1.7000e-01	13.5670	75.745625	0.000556	5.555545	1.882270	0.044364
 342	1.7050e-01	13.6119	76.116670	0.000929	9.292912	3.148524	0.074209
 343	1.7100e-01	13.6504	76.189266	0.000182	1.818178	0.616016	0.014519
 344	1.7150e-01	13.6969	76.241696	0.000131	1.313129	0.444900	0.010486
 345	1.7200e-01	13.7242	76.507880	0.000667	6.666654	2.258724	0.053237
 346	1.7250e-01	13.7723	76.903124	0.000990	9.898972	3.353862	0.079049
 347	1.7300e-01	13.8044	76.979753	0.000192	1.919188	0.650239	0.015326
 348	1.7350e-01	13.8461	77.092680	0.000283	2.828278	0.958246	0.022585
 349	1.7400e-01	13.8911	77.141077	0.000121	1.212119	0.410677	0.009679
 350	1.7450e-01	13.9215	77.548420	0.001020	10.202001	3.456532	0.081469
 351	1.7500e-01	13.9729	77.766207	0.000545	5.454535	1.848047	0.043557
 352	1.7550e-01	13.9953	78.056590	0.000727	7.272714	2.464062	0.058077
 353	1.7600e-01	14.0451	78.129186	0.000182	1.818178	0.616016	0.014519
 354	1.7650e-01	14.0884	78.391338	0.000657	6.565644	2.224501	0.052430
 355	1.7700e-01	14.1285	78.552661	0.000404	4.040397	1.368923	0.032265
 356	1.7750e-01	14.1734	78.742217	0.000475	4.747466	1.608485	0.037911
 357	1.7800e-01	14.2103	78.883376	0.000354	3.535347	1.197808	0.028232
 358	1.7850e-01	14.2520	79.177792	0.000737	7.373724	2.498285	0.058883
 359	1.7900e-01	14.2841	79.282652	0.000263	2.626258	0.889800	0.020972
 360	1.7950e-01	14.3242	79.633532	0.000879	8.787863	2.977408	0.070176
 361	1.8000e-01	14.3627	79.867452	0.000586	5.858575	1.984939	0.046784
 362	1.8050e-01	14.4076	79.960213	0.000232	2.323228	0.787131	0.018552
 363	1.8100e-01	14.4477	80.048941	0.000222	2.222218	0.752908	0.017746
 364	1.8150e-01	14.4878	80.246563	0.000495	4.949486	1.676931	0.039524
 365	1.8200e-01	14.5343	80.500648	0.000636	6.363625	2.156054	0.050817
 366	1.8250e-01	14.5680	80.528880	0.000071	0.707069	0.239562	0.005646
 367	1.8300e-01	14.6114	80.795064	0.000667	6.666654	2.258724	0.053237
 368	1.8350e-01	14.6563	80.952355	0.000394	3.939387	1.334700	0.031458
 369	1.8400e-01	14.6835	81.194341	0.000606	6.060595	2.053385	0.048397
 370	1.8450e-01	14.7333	81.315334	0.000303	3.030297	1.026693	0.024199
 371	1.8500e-01	14.7686	81.488757	0.000434	4.343426	1.471593	0.034685
 372	1.8550e-01	14.8023	82.021126	0.001333	13.333309	4.517447	0.106474
 373	1.8600e-01	14.8375	81.960630	-0.000152	-1.515149	-0.513346	-0.012099
 374	1.8650e-01	14.8857	82.117921	0.000394	3.939387	1.334700	0.031458
 375	1.8700e-01	14.9210	82.384105	0.000667	6.666654	2.258724	0.053237
 376	1.8750e-01	14.9707	82.573661	0.000475	4.747466	1.608485	0.037911
 377	1.8800e-01	14.9948	82.710786	0.000343	3.434337	1.163585	0.027425
 378	1.8850e-01	15.0445	82.847911	0.000343	3.434337	1.163585	0.027425
 379	1.8900e-01	15.0846	83.093931	0.000616	6.161605	2.087608	0.049204
 380	1.8950e-01	15.1263	83.509340	0.001040	10.404021	3.524978	0.083082
 381	1.9000e-01	15.1680	83.416578	-0.000232	-2.323228	-0.787131	-0.018552
 382	1.9050e-01	15.2097	83.775524	0.000899	8.989882	3.045855	0.071789
 383	1.9100e-01	15.2434	84.041709	0.000667	6.666654	2.258724	0.053237
 384	1.9150e-01	15.2835	84.259496	0.000545	5.454535	1.848047	0.043557
 385	1.9200e-01	15.3220	84.271595	0.000030	0.303030	0.102669	0.002420
 386	1.9250e-01	15.3686	84.545846	0.000687	6.868674	2.327170	0.054850
 387	1.9300e-01	15.4087	84.888659	0.000859	8.585843	2.908962	0.068563
 388	1.9350e-01	15.4407	85.009652	0.000303	3.030297	1.026693	0.024199
 389	1.9400e-01	15.4873	85.130645	0.000303	3.030297	1.026693	0.024199
 390	1.9450e-01	15.5386	85.251638	0.000303	3.030297	1.026693	0.024199
 391	1.9500e-01	15.5739	85.437161	0.000465	4.646456	1.574262	0.037105
 392	1.9550e-01	15.6140	85.618650	0.000455	4.545446	1.540039	0.036298
 393	1.9600e-01	15.6557	85.892901	0.000687	6.868674	2.327170	0.054850
 394	1.9650e-01	15.6958	85.965497	0.000182	1.818178	0.616016	0.014519
 395	1.9700e-01	15.7295	86.219582	0.000636	6.363625	2.156054	0.050817
 396	1.9750e-01	15.7776	86.368807	0.000374	3.737367	1.266254	0.029845
 397	1.9800e-01	15.8033	86.554329	0.000465	4.646456	1.574262	0.037105
 398	1.9850e-01	15.8434	86.961672	0.001020	10.202001	3.456532	0.081469
 399	1.9900e-01	15.8915	86.997970	0.000091	0.909089	0.308008	0.007260
 400	1.9950e-01	15.9252	87.179459	0.000455	4.545446	1.540039	0.036298
 401	2.0000e-01	15.9605	87.498074	0.000798	7.979783	2.703624	0.063723
 402	2.0050e-01	16.0038	87.506140	0.000020	0.202020	0.068446	0.001613
 403	2.0100e-01	16.0423	87.756192	0.000626	6.262615	2.121831	0.050010
 404	2.0150e-01	16.0856	87.816689	0.000152	1.515149	0.513346	0.012099
 405	2.0200e-01	16.1225	88.082873	0.000667	6.666654	2.258724	0.053237
 406	2.0250e-01	16.1723	88.280495	0.000495	4.949486	1.676931	0.039524
 407	2.0300e-01	16.2044	88.482150	0.000505	5.050496	1.711154	0.040331
 408	2.0350e-01	16.2477	88.740269	0.000646	6.464635	2.190277	0.051624
 409	2.0400e-01	16.2862	88.841096	0.000253	2.525248	0.855577	0.020165
 410	2.0450e-01	16.3183	89.006453	0.000414	4.141406	1.403147	0.033071
 411	2.0500e-01	16.3680	89.252472	0.000616	6.161605	2.087608	0.049204
 412	2.0550e-01	16.4129	89.417829	0.000414	4.141406	1.403147	0.033071
 413	2.0600e-01	16.4418	89.591252	0.000434	4.343426	1.471593	0.034685
 414	2.0650e-01	16.4851	89.796940	0.000515	5.151506	1.745377	0.041138
 415	2.0700e-01	16.5236	89.994562	0.000495	4.949486	1.676931	0.039524
 416	2.0750e-01	16.5605	90.284945	0.000727	7.272714	2.464062	0.058077
 417	2.0800e-01	16.6006	90.418038	0.000333	3.333327	1.129362	0.026618
 418	2.0850e-01	16.6455	90.454335	0.000091	0.909089	0.308008	0.007260
 419	2.0900e-01	16.6888	90.724553	0.000677	6.767664	2.292947	0.054044
 420	2.0950e-01	16.7370	90.950407	0.000566	5.656555	1.916493	0.045171
 421	2.1000e-01	16.7723	91.115764	0.000414	4.141406	1.403147	0.033071
 422	2.1050e-01	16.8075	91.220624	0.000263	2.626258	0.889800	0.020972
 423	2.1100e-01	16.8428	91.329518	0.000273	2.727268	0.924023	0.021779
 424	2.1150e-01	16.8894	91.539239	0.000525	5.252516	1.779600	0.041944
 425	2.1200e-01	16.9359	91.878019	0.000848	8.484833	2.874739	0.067756
 426	2.1250e-01	16.9648	91.986913	0.000273	2.727268	0.924023	0.021779
 427	2.1300e-01	17.0033	91.962714	-0.000061	-0.606059	-0.205339	-0.004840
 428	2.1350e-01	17.0466	92.240998	0.000697	6.969684	2.361393	0.055657
 429	2.1400e-01	17.0851	92.676573	0.001091	10.909071	3.696093	0.087115
 430	2.1450e-01	17.1220	92.672540	-0.000010	-0.101010	-0.034223	-0.000807
 431	2.1500e-01	17.1701	92.934691	0.000657	6.565644	2.224501	0.052430
 432	2.1550e-01	17.2182	92.954857	0.000051	0.505050	0.171115	0.004033
 433	2.1600e-01	17.2503	93.261372	0.000768	7.676754	2.600954	0.061303
 434	2.1650e-01	17.2808	93.301703	0.000101	1.010099	0.342231	0.008066
 435	2.1700e-01	17.3305	93.656616	0.000889	8.888872	3.011632	0.070983
 436	2.1750e-01	17.3722	93.809873	0.000384	3.838377	1.300477	0.030652
 437	2.1800e-01	17.4139	93.890535	0.000202	2.020198	0.684462	0.016132
 438	2.1850e-01	17.4508	94.156720	0.000667	6.666654	2.258724	0.053237
 439	2.1900e-01	17.5022	94.217216	0.000152	1.515149	0.513346	0.012099
 440	2.1950e-01	17.5246	94.495500	0.000697	6.969684	2.361393	0.055657
 441	2.2000e-01	17.5744	94.672957	0.000444	4.444436	1.505816	0.035491
 442	2.2050e-01	17.6081	94.632626	-0.000101	-1.010099	-0.342231	-0.008066
 443	2.2100e-01	17.6482	95.112564	0.001202	12.020180	4.072547	0.095988
 444	2.2150e-01	17.6947	95.148862	0.000091	0.909089	0.308008	0.007260
 445	2.2200e-01	17.7284	95.318252	0.000424	4.242416	1.437370	0.033878
 446	2.2250e-01	17.7685	95.608635	0.000727	7.272714	2.464062	0.058077
 447	2.2300e-01	17.8166	95.850621	0.000606	6.060595	2.053385	0.048397
 448	2.2350e-01	17.8535	96.056309	0.000515	5.151506	1.745377	0.041138
 449	2.2400e-01	17.8888	96.209567	0.000384	3.838377	1.300477	0.030652
 450	2.2450e-01	17.9289	96.378957	0.000424	4.242416	1.437370	0.033878
 451	2.2500e-01	17.9770	96.217633	-0.000404	-4.040397	-1.368923	-0.032265
 452	2.2550e-01	17.9979	96.645142	0.001071	10.707051	3.627647	0.085502
 453	2.2600e-01	18.0444	96.951657	0.000768	7.676754	2.600954	0.061303
 454	2.2650e-01	18.0893	97.145246	0.000485	4.848476	1.642708	0.038718
 455	2.2700e-01	18.1294	97.270272	0.000313	3.131307	1.060916	0.025005
 456	2.2750e-01	18.1663	97.475960	0.000515	5.151506	1.745377	0.041138
 457	2.2800e-01	18.2161	97.500159	0.000061	0.606059	0.205339	0.004840
 458	2.2850e-01	18.2514	97.734078	0.000586	5.858575	1.984939	0.046784
 459	2.2900e-01	18.2850	98.060759	0.000818	8.181803	2.772070	0.065336
 460	2.2950e-01	18.3396	98.230150	0.000424	4.242416	1.437370	0.033878
 461	2.3000e-01	18.3717	98.161587	-0.000172	-1.717169	-0.581792	-0.013713
 462	2.3050e-01	18.4070	98.476169	0.000788	7.878773	2.669401	0.062916
 463	2.3100e-01	18.4535	98.480202	0.000010	0.101010	0.034223	0.000807
 464	2.3150e-01	18.4920	98.818982	0.000848	8.484833	2.874739	0.067756
 465	2.3200e-01	18.5257	99.105332	0.000717	7.171704	2.429839	0.057270
 466	2.3250e-01	18.5754	99.206159	0.000253	2.525248	0.855577	0.020165
 467	2.3300e-01	18.6155	99.258590	0.000131	1.313129	0.444900	0.010486
 468	2.3350e-01	18.6572	99.472344	0.000535	5.353525	1.813824	0.042751
 469	2.3400e-01	18.6941	99.698197	0.000566	5.656555	1.916493	0.045171
 470	2.3450e-01	18.7310	99.774826	0.000192	1.919188	0.650239	0.015326
 471	2.3500e-01	18.7759	99.932117	0.000394	3.939387	1.334700	0.031458
 472	2.3550e-01	18.8096	100.335427	0.001010	10.100991	3.422309	0.080662
 473	2.3600e-01	18.8513	100.569347	0.000586	5.858575	1.984939	0.046784
 474	2.3650e-01	18.8963	100.524983	-0.000111	-1.111109	-0.376454	-0.008873
 475	2.3700e-01	18.9299	100.847631	0.000808	8.080793	2.737847	0.064530
 476	2.3750e-01	18.9701	101.025087	0.000444	4.444436	1.505816	0.035491
 477	2.3800e-01	19.0086	101.154146	0.000323	3.232317	1.095139	0.025812
 478	2.3850e-01	19.0438	101.363867	0.000525	5.252516	1.779600	0.041944
 479	2.3900e-01	19.0888	101.456628	0.000232	2.323228	0.787131	0.018552
 480	2.3950e-01	19.1353	101.553423	0.000242	2.424238	0.821354	0.019359
 481	2.4000e-01	19.1722	101.912369	0.000899	8.989882	3.045855	0.071789
 482	2.4050e-01	19.2155	101.968832	0.000141	1.414139	0.479123	0.011293
 483	2.4100e-01	19.2508	102.194685	0.000566	5.656555	1.916493	0.045171
 484	2.4150e-01	19.2909	102.517333	0.000808	8.080793	2.737847	0.064530
 485	2.4200e-01	19.3310	102.565731	0.000121	1.212119	0.410677	0.009679
 486	2.4250e-01	19.3679	103.021471	0.001141	11.414120	3.867209	0.091148
 487	2.4300e-01	19.4144	102.803683	-0.000545	-5.454535	-1.848047	-0.043557
 488	2.4350e-01	19.4385	103.033570	0.000576	5.757565	1.950716	0.045977
 489	2.4400e-01	19.4898	103.073901	0.000101	1.010099	0.342231	0.008066
 490	2.4450e-01	19.5412	103.311854	0.000596	5.959585	2.019162	0.047591
 491	2.4500e-01	19.5684	103.614336	0.000758	7.575744	2.566731	0.060496
 492	2.4550e-01	19.6117	103.582071	-0.000081	-0.808079	-0.273785	-0.006453
 493	2.4600e-01	19.6454	103.900686	0.000798	7.979783	2.703624	0.063723
 494	2.4650e-01	19.6807	104.086209	0.000465	4.646456	1.574262	0.037105
 495	2.4700e-01	19.7305	104.219301	0.000333	3.333327	1.129362	0.026618
 496	2.4750e-01	19.7658	104.562114	0.000859	8.585843	2.908962	0.068563
 497	2.4800e-01	19.7978	104.747637	0.000465	4.646456	1.574262	0.037105
 498	2.4850e-01	19.8540	104.683107	-0.000162	-1.616159	-0.547569	-0.012906
 499	2.4900e-01	19.8877	104.852497	0.000424	4.242416	1.437370	0.033878
 500	2.4950e-01	19.9246	105.114649	0.000657	6.565644	2.224501	0.052430
 501	2.5000e-01	19.9695	105.138847	0.000061	0.606059	0.205339	0.004840
 502	2.5050e-01	19.9823	105.062219	-0.000192	-1.919188	-0.650239	-0.015326
 503	2.5100e-01	19.9502	105.122715	-0.000152	-1.515149	-0.513346	0.012099
 504	2.5150e-01	19.9246	104.961391	0.000404	4.040397	1.368923	-0.032265
 505	2.5200e-01	19.8845	104.872663	0.000222	2.222218	0.752908	-0.017746
 506	2.5250e-01	19.8395	104.953325	-0.000202	-2.020198	-0.684462	0.016132
 507	2.5300e-01	19.7946	104.453221	0.001253	12.525229	4.243663	-0.100021
 508	2.5350e-01	19.7497	104.360459	0.000232	2.323228	0.787131	-0.018552
 509	2.5400e-01	19.7160	104.207202	0.000384	3.838377	1.300477	-0.030652
 510	2.5450e-01	19.6743	104.154771	0.000131	1.313129	0.444900	-0.010486
 511	2.5500e-01	19.6342	103.945050	0.000525	5.252516	1.779600	-0.041944
 512	2.5550e-01	19.5925	104.146705	-0.000505	-5.050496	-1.711154	0.040331
 513	2.5600e-01	19.5556	103.719197	0.001071	10.707051	3.627647	-0.085502
 514	2.5650e-01	19.5171	103.602237	0.000293	2.929288	0.992469	-0.023392
 515	2.5700e-01	19.4674	103.646601	-0.000111	-1.111109	-0.376454	0.008873
 516	2.5750e-01	19.4369	103.327986	0.000798	7.979783	2.703624	-0.063723
 517	2.5800e-01	19.3936	102.932743	0.000990	9.898972	3.353862	-0.079049
 518	2.5850e-01	19.3454	102.819816	0.000283	2.828278	0.958246	-0.022585
 519	2.5900e-01	19.3198	102.952908	-0.000333	-3.333327	-1.129362	0.026618
 520	2.5950e-01	19.2700	102.682690	0.000677	6.767664	2.292947	-0.054044
 521	2.6000e-01	19.2267	102.557664	0.000313	3.131307	1.060916	-0.025005
 522	2.6050e-01	19.1866	102.380208	0.000444	4.444436	1.505816	-0.035491
 523	2.6100e-01	19.1561	102.243083	0.000343	3.434337	1.163585	-0.027425
 524	2.6150e-01	19.1112	102.162421	0.000202	2.020198	0.684462	-0.016132
 525	2.6200e-01	19.0759	102.029328	0.000333	3.333327	1.129362	-0.026618
 526	2.6250e-01	19.0262	101.896236	0.000333	3.333327	1.129362	-0.026618
 527	2.6300e-01	18.9893	101.646184	0.000626	6.262615	2.121831	-0.050010
 528	2.6350e-01	18.9588	101.509059	0.000343	3.434337	1.163585	-0.027425
 529	2.6400e-01	18.9107	101.452595	0.000141	1.414139	0.479123	-0.011293
 530	2.6450e-01	18.8690	101.327569	0.000313	3.131307	1.060916	-0.025005
 531	2.6500e-01	18.8337	101.291271	0.000091	0.909089	0.308008	-0.007260
 532	2.6550e-01	18.7984	101.045252	0.000616	6.161605	2.087608	-0.049204
 533	2.6600e-01	18.7487	100.762935	0.000707	7.070694	2.395616	-0.056463
 534	2.6650e-01	18.7214	100.670174	0.000232	2.323228	0.787131	-0.018552
 535	2.6700e-01	18.6749	100.516916	0.000384	3.838377	1.300477	-0.030652
 536	2.6750e-01	18.6348	100.359626	0.000394	3.939387	1.334700	-0.031458
 537	2.6800e-01	18.5995	100.190235	0.000424	4.242416	1.437370	-0.033878
 538	2.6850e-01	18.5562	100.141838	0.000121	1.212119	0.410677	-0.009679
 539	2.6900e-01	18.5145	99.976481	0.000414	4.141406	1.403147	-0.033071
 540	2.6950e-01	18.4776	99.847422	0.000323	3.232317	1.095139	-0.025812
 541	2.7000e-01	18.4407	99.508642	0.000848	8.484833	2.874739	-0.067756
 542	2.7050e-01	18.3973	99.363450	0.000364	3.636357	1.232031	-0.029038
 543	2.7100e-01	18.3620	99.206159	0.000394	3.939387	1.334700	-0.031458
 544	2.7150e-01	18.3171	99.101299	0.000263	2.626258	0.889800	-0.020972
 545	2.7200e-01	18.2754	98.851247	0.000626	6.262615	2.121831	-0.050010
 546	2.7250e-01	18.2353	98.722188	0.000323	3.232317	1.095139	-0.025812
 547	2.7300e-01	18.1968	98.593128	0.000323	3.232317	1.095139	-0.025812
 548	2.7350e-01	18.1535	98.480202	0.000283	2.828278	0.958246	-0.022585
 549	2.7400e-01	18.1166	98.335010	0.000364	3.636357	1.232031	-0.029038
 550	2.7450e-01	18.0781	98.197885	0.000343	3.434337	1.163585	-0.027425
 551	2.7500e-01	18.0332	97.931700	0.000667	6.666654	2.258724	-0.053237
 552	2.7550e-01	17.9867	97.814740	0.000293	2.929288	0.992469	-0.023392
 553	2.7600e-01	17.9578	97.681648	0.000333	3.333327	1.129362	-0.026618
 554	2.7650e-01	17.9177	97.536457	0.000364	3.636357	1.232031	-0.029038
 555	2.7700e-01	17.8728	97.326735	0.000525	5.252516	1.779600	-0.041944
 556	2.7750e-01	17.8375	97.262206	0.000162	1.616159	0.547569	-0.012906
 557	2.7800e-01	17.7925	97.052485	0.000525	5.252516	1.779600	-0.041944
 558	2.7850e-01	17.7460	96.854863	0.000495	4.949486	1.676931	-0.039524
 559	2.7900e-01	17.7107	96.754035	0.000253	2.525248	0.855577	-0.020165
 560	2.7950e-01	17.6658	96.475752	0.000697	6.969684	2.361393	-0.055657
 561	2.8000e-01	17.6321	96.382990	0.000232	2.323228	0.787131	-0.018552
 562	2.8050e-01	17.5920	96.278130	0.000263	2.626258	0.889800	-0.020972
 563	2.8100e-01	17.5615	95.943383	0.000838	8.383823	2.840516	-0.066949
 564	2.8150e-01	17.5086	95.987747	-0.000111	-1.111109	-0.376454	0.008873
 565	2.8200e-01	17.4749	95.721562	0.000667	6.666654	2.258724	-0.053237
 566	2.8250e-01	17.4268	95.523940	0.000495	4.949486	1.676931	-0.039524
 567	2.8300e-01	17.3963	95.548139	-0.000061	-0.606059	-0.205339	0.004840
 568	2.8350e-01	17.3482	95.431179	0.000293	2.929288	0.992469	-0.023392
 569	2.8400e-01	17.3209	95.261789	0.000424	4.242416	1.437370	-0.033878
 570	2.8450e-01	17.2696	94.943174	0.000798	7.979783	2.703624	-0.063723
 571	2.8500e-01	17.2311	94.802016	0.000354	3.535347	1.197808	-0.028232
 572	2.8550e-01	17.1926	94.660857	0.000354	3.535347	1.197808	-0.028232
 573	2.8600e-01	17.1509	94.507600	0.000384	3.838377	1.300477	-0.030652
 574	2.8650e-01	17.1140	94.318044	0.000475	4.747466	1.608485	-0.037911
 575	2.8700e-01	17.0690	94.241415	0.000192	1.919188	0.650239	-0.015326
 576	2.8750e-01	17.0257	94.084124	0.000394	3.939387	1.334700	-0.031458
 577	2.8800e-01	16.9936	93.761476	0.000808	8.080793	2.737847	-0.064530
 578	2.8850e-01	16.9583	93.547722	0.000535	5.353525	1.813824	-0.042751
 579	2.8900e-01	16.9118	93.483193	0.000162	1.616159	0.547569	-0.012906
 580	2.8950e-01	16.8701	93.285571	0.000495	4.949486	1.676931	-0.039524
 581	2.9000e-01	16.8268	93.342034	-0.000141	-1.414139	-0.479123	0.011293
 582	2.9050e-01	16.8011	93.124247	0.000545	5.454535	1.848047	-0.043557
 583	2.9100e-01	16.7530	92.720937	0.001010	10.100991	3.422309	-0.080662
 584	2.9150e-01	16.7145	92.668507	0.000131	1.313129	0.444900	-0.010486
 585	2.9200e-01	16.6776	92.462819	0.000515	5.151506	1.745377	-0.041138
 586	2.9250e-01	16.6391	92.418454	0.000111	1.111109	0.376454	-0.008873
 587	2.9300e-01	16.5894	92.140171	0.000697	6.969684	2.361393	-0.055657
 588	2.9350e-01	16.5557	91.914317	0.000566	5.656555	1.916493	-0.045171
 589	2.9400e-01	16.5140	91.930450	-0.000040	-0.404040	-0.136892	0.003226
 590	2.9450e-01	16.4691	91.704596	0.000566	5.656555	1.916493	-0.045171
 591	2.9500e-01	16.4273	91.615868	0.000222	2.222218	0.752908	-0.017746
 592	2.9550e-01	16.3969	91.478742	0.000343	3.434337	1.163585	-0.027425
 593	2.9600e-01	16.3600	91.313385	0.000414	4.141406	1.403147	-0.033071
 594	2.9650e-01	16.3086	90.986704	0.000818	8.181803	2.772070	-0.065336
 595	2.9700e-01	16.2685	91.091565	-0.000263	-2.626258	-0.889800	0.020972
 596	2.9750e-01	16.2348	90.764884	0.000818	8.181803	2.772070	-0.065336
 597	2.9800e-01	16.1915	90.615659	0.000374	3.737367	1.266254	-0.029845
 598	2.9850e-01	16.1578	90.268813	0.000869	8.686853	2.943185	-0.069369
 599	2.9900e-01	16.1129	90.188151	0.000202	2.020198	0.684462	-0.016132
 600	2.9950e-01	16.0792	90.220416	-0.000081	-0.808079	-0.273785	0.006453
 601	3.0000e-01	16.0231	90.042959	0.000444	4.444436	1.505816	-0.035491
 602	3.0050e-01	15.9926	89.861470	0.000455	4.545446	1.540039	-0.036298
 603	3.0100e-01	15.9461	89.627550	0.000586	5.858575	1.984939	-0.046784
 604	3.0150e-01	15.9220	89.470259	0.000394	3.939387	1.334700	-0.031458
 605	3.0200e-01	15.8771	89.208108	0.000657	6.565644	2.224501	-0.052430
 606	3.0250e-01	15.8338	89.050817	0.000394	3.939387	1.334700	-0.031458
 607	3.0300e-01	15.7985	88.905626	0.000364	3.636357	1.232031	-0.029038
 608	3.0350e-01	15.7520	88.651540	0.000636	6.363625	2.156054	-0.050817
 609	3.0400e-01	15.7086	88.405521	0.000616	6.161605	2.087608	-0.049204
 610	3.0450e-01	15.6734	88.506349	-0.000253	-2.525248	-0.855577	0.020165
 611	3.0500e-01	15.6236	88.139337	0.000919	9.191902	3.114301	-0.073402
 612	3.0550e-01	15.5931	87.986079	0.000384	3.838377	1.300477	-0.030652
 613	3.0600e-01	15.5546	87.877185	0.000273	2.727268	0.924023	-0.021779
 614	3.0650e-01	15.5226	87.675531	0.000505	5.050496	1.711154	-0.040331
 615	3.0700e-01	15.4680	87.522273	0.000384	3.838377	1.300477	-0.030652
 616	3.0750e-01	15.4279	87.405313	0.000293	2.929288	0.992469	-0.023392
 617	3.0800e-01	15.3942	87.131062	0.000687	6.868674	2.327170	-0.054850
 618	3.0850e-01	15.3541	86.989904	0.000354	3.535347	1.197808	-0.028232
 619	3.0900e-01	15.3124	86.760017	0.000576	5.757565	1.950716	-0.045977
 620	3.0950e-01	15.2819	86.610792	0.000374	3.737367	1.266254	-0.029845
 621	3.1000e-01	15.2354	86.372840	0.000596	5.959585	2.019162	-0.047591
 622	3.1050e-01	15.1905	86.348641	0.000061	0.606059	0.205339	-0.004840
 623	3.1100e-01	15.1536	86.167152	0.000455	4.545446	1.540039	-0.036298
 624	3.1150e-01	15.1151	86.021960	0.000364	3.636357	1.232031	-0.029038
 625	3.1200e-01	15.0766	85.699312	0.000808	8.080793	2.737847	-0.064530
 626	3.1250e-01	15.0268	85.477492	0.000556	5.555545	1.882270	-0.044364
 627	3.1300e-01	14.9883	85.558154	-0.000202	-2.020198	-0.684462	0.016132
 628	3.1350e-01	14.9547	85.461359	0.000242	2.424238	0.821354	-0.019359
 629	3.1400e-01	14.9146	85.126612	0.000838	8.383823	2.840516	-0.066949
 630	3.1450e-01	14.8680	84.860428	0.000667	6.666654	2.258724	-0.053237
 631	3.1500e-01	14.8311	84.678938	0.000455	4.545446	1.540039	-0.036298
 632	3.1550e-01	14.7846	84.610376	0.000172	1.717169	0.581792	-0.013713
 633	3.1600e-01	14.7461	84.311926	0.000747	7.474734	2.532508	-0.059690
 634	3.1650e-01	14.7124	84.207066	0.000263	2.626258	0.889800	-0.020972
 635	3.1700e-01	14.6739	84.106238	0.000253	2.525248	0.855577	-0.020165
 636	3.1750e-01	14.6434	83.727127	0.000949	9.494932	3.216970	-0.075822
 637	3.1800e-01	14.5921	83.662597	0.000162	1.616159	0.547569	-0.012906
 638	3.1850e-01	14.5488	83.525472	0.000343	3.434337	1.163585	-0.027425
 639	3.1900e-01	14.5103	83.428678	0.000242	2.424238	0.821354	-0.019359
 640	3.1950e-01	14.4814	83.101997	0.000818	8.181803	2.772070	-0.065336
 641	3.2000e-01	14.4445	82.872110	0.000576	5.757565	1.950716	-0.045977
 642	3.2050e-01	14.3932	82.839845	0.000081	0.808079	0.273785	-0.006453
 643	3.2100e-01	14.3515	82.654323	0.000465	4.646456	1.574262	-0.037105
 644	3.2150e-01	14.3162	82.303443	0.000879	8.787863	2.977408	-0.070176
 645	3.2200e-01	14.2729	82.238914	0.000162	1.616159	0.547569	-0.012906
 646	3.2250e-01	14.2328	82.121954	0.000293	2.929288	0.992469	-0.023392
 647	3.2300e-01	14.1862	82.049358	0.000182	1.818178	0.616016	-0.014519
 648	3.2350e-01	14.1541	81.799306	0.000626	6.262615	2.121831	-0.050010
 649	3.2400e-01	14.1156	81.452459	0.000869	8.686853	2.943185	-0.069369
 650	3.2450e-01	14.0691	81.496823	-0.000111	-1.111109	-0.376454	0.008873
 651	3.2500e-01	14.0338	81.355665	0.000354	3.535347	1.197808	-0.028232
 652	3.2550e-01	13.9889	81.218540	0.000343	3.434337	1.163585	-0.027425
 653	3.2600e-01	13.9504	80.988653	0.000576	5.757565	1.950716	-0.045977
 654	3.2650e-01	13.9151	80.573244	0.001040	10.404021	3.524978	-0.083082
 655	3.2700e-01	13.8798	80.480483	0.000232	2.323228	0.787131	-0.018552
 656	3.2750e-01	13.8333	80.403854	0.000192	1.919188	0.650239	-0.015326
 657	3.2800e-01	13.7948	80.117504	0.000717	7.171704	2.429839	-0.057270
 658	3.2850e-01	13.7547	79.923915	0.000485	4.848476	1.642708	-0.038718
 659	3.2900e-01	13.7178	79.508506	0.001040	10.404021	3.524978	-0.083082
 660	3.2950e-01	13.6697	79.524638	-0.000040	-0.404040	-0.136892	0.003226
 661	3.3000e-01	13.6344	79.375414	0.000374	3.737367	1.266254	-0.029845
 662	3.3050e-01	13.5846	79.230222	0.000364	3.636357	1.232031	-0.029038
 663	3.3100e-01	13.5542	79.153593	0.000192	1.919188	0.650239	-0.015326
 664	3.3150e-01	13.5173	78.766416	0.000970	9.696952	3.285416	-0.077435
 665	3.3200e-01	13.4740	78.693820	0.000182	1.818178	0.616016	-0.014519
 666	3.3250e-01	13.4274	78.451834	0.000606	6.060595	2.053385	-0.048397
 667	3.3300e-01	13.3953	78.278411	0.000434	4.343426	1.471593	-0.034685
 668	3.3350e-01	13.3472	78.189683	0.000222	2.222218	0.752908	-0.017746
 669	3.3400e-01	13.3215	77.814604	0.000939	9.393922	3.182747	-0.075016
 670	3.3450e-01	13.2766	77.596817	0.000545	5.454535	1.848047	-0.043557
 671	3.3500e-01	13.2381	77.443559	0.000384	3.838377	1.300477	-0.030652
 672	3.3550e-01	13.1964	77.407261	0.000091	0.909089	0.308008	-0.007260
 673	3.3600e-01	13.1547	77.153176	0.000636	6.363625	2.156054	-0.050817
 674	3.3650e-01	13.1146	76.947488	0.000515	5.151506	1.745377	-0.041138
 675	3.3700e-01	13.0761	76.878926	0.000172	1.717169	0.581792	-0.013713
 676	3.3750e-01	13.0296	76.713569	0.000414	4.141406	1.403147	-0.033071
 677	3.3800e-01	12.9895	76.322358	0.000980	9.797962	3.319639	-0.078242
 678	3.3850e-01	12.9510	76.269928	0.000131	1.313129	0.444900	-0.010486
 679	3.3900e-01	12.9205	75.858552	0.001030	10.303011	3.490755	-0.082275
 680	3.3950e-01	12.8676	75.878717	-0.000051	-0.505050	-0.171115	0.004033
 681	3.4000e-01	12.8419	75.471374	0.001020	10.202001	3.456532	-0.081469
 682	3.4050e-01	12.7954	75.503639	-0.000081	-0.808079	-0.273785	0.006453
 683	3.4100e-01	12.7488	75.261653	0.000606	6.060595	2.053385	-0.048397
 684	3.4150e-01	12.7184	75.136627	0.000313	3.131307	1.060916	-0.025005
 685	3.4200e-01	12.6783	75.039833	0.000242	2.424238	0.821354	-0.019359
 686	3.4250e-01	12.6398	74.797847	0.000606	6.060595	2.053385	-0.048397
 687	3.4300e-01	12.5916	74.406636	0.000980	9.797962	3.319639	-0.078242
 688	3.4350e-01	12.5499	74.390504	0.000040	0.404040	0.136892	-0.003226
 689	3.4400e-01	12.5130	74.273544	0.000293	2.929288	0.992469	-0.023392
 690	3.4450e-01	12.4777	73.983161	0.000727	7.272714	2.464062	-0.058077
 691	3.4500e-01	12.4328	73.938797	0.000111	1.111109	0.376454	-0.008873
 692	3.4550e-01	12.3879	73.866201	0.000182	1.818178	0.616016	-0.014519
 693	3.4600e-01	12.3526	73.555652	0.000778	7.777763	2.635178	-0.062110
 694	3.4650e-01	12.3157	73.442726	0.000283	2.828278	0.958246	-0.022585
 695	3.4700e-01	12.2772	73.228971	0.000535	5.353525	1.813824	-0.042751
 696	3.4750e-01	12.2339	73.099912	0.000323	3.232317	1.095139	-0.025812
 697	3.4800e-01	12.1970	72.825661	0.000687	6.868674	2.327170	-0.054850
 698	3.4850e-01	12.1585	72.615940	0.000525	5.252516	1.779600	-0.041944
 699	3.4900e-01	12.1120	72.180366	0.001091	10.909071	3.696093	-0.087115
 700	3.4950e-01	12.0638	72.047273	0.000333	3.333327	1.129362	-0.026618
 701	3.5000e-01	12.0269	72.164233	-0.000293	-2.929288	-0.992469	0.023392
 702	3.5050e-01	11.9932	71.720592	0.001111	11.111091	3.764539	-0.088728
 703	3.5100e-01	11.9596	71.482640	0.000596	5.959585	2.019162	-0.047591
 704	3.5150e-01	11.9130	71.268885	0.000535	5.353525	1.813824	-0.042751
 705	3.5200e-01	11.8585	71.256786	0.000030	0.303030	0.102669	-0.002420
 706	3.5250e-01	11.8344	70.817178	0.001101	11.010081	3.730316	-0.087922
 707	3.5300e-01	11.7975	70.692152	0.000313	3.131307	1.060916	-0.025005
 708	3.5350e-01	11.7606	70.559060	0.000333	3.333327	1.129362	-0.026618
 709	3.5400e-01	11.7109	70.357405	0.000505	5.050496	1.711154	-0.040331
 710	3.5450e-01	11.6660	70.147684	0.000525	5.252516	1.779600	-0.041944
 711	3.5500e-01	11.6339	70.135585	0.000030	0.303030	0.102669	-0.002420
 712	3.5550e-01	11.6002	69.825036	0.000778	7.777763	2.635178	-0.062110
 713	3.5600e-01	11.5617	69.599183	0.000566	5.656555	1.916493	-0.045171
 714	3.5650e-01	11.5152	69.453991	0.000364	3.636357	1.232031	-0.029038
 715	3.5700e-01	11.4799	69.171674	0.000707	7.070694	2.395616	-0.056463
 716	3.5750e-01	11.4382	69.018416	0.000384	3.838377	1.300477	-0.030652
 717	3.5800e-01	11.4029	68.933721	0.000212	2.121208	0.718685	-0.016939
 718	3.5850e-01	11.3499	68.639305	0.000737	7.373724	2.498285	-0.058883
 719	3.5900e-01	11.3211	68.409418	0.000576	5.757565	1.950716	-0.045977
 720	3.5950e-01	11.2729	68.300525	0.000273	2.727268	0.924023	-0.021779
 721	3.6000e-01	11.2377	68.086771	0.000535	5.353525	1.813824	-0.042751
 722	3.6050e-01	11.1927	67.994009	0.000232	2.323228	0.787131	-0.018552
 723	3.6100e-01	11.1526	67.635064	0.000899	8.989882	3.045855	-0.071789
 724	3.6150e-01	11.1205	67.461640	0.000434	4.343426	1.471593	-0.034685
 725	3.6200e-01	11.0740	67.247886	0.000535	5.353525	1.813824	-0.042751
 726	3.6250e-01	11.0387	67.086562	0.000404	4.040397	1.368923	-0.032265
 727	3.6300e-01	10.9970	66.933304	0.000384	3.838377	1.300477	-0.030652
 728	3.6350e-01	10.9585	66.671153	0.000657	6.565644	2.224501	-0.052430
 729	3.6400e-01	10.9072	66.570326	0.000253	2.525248	0.855577	-0.020165
 730	3.6450e-01	10.8751	66.332373	0.000596	5.959585	2.019162	-0.047591
 731	3.6500e-01	10.8334	66.106519	0.000566	5.656555	1.916493	-0.045171
 732	3.6550e-01	10.7869	66.106519	-0.000000	-0.000000	-0.000000	0.000000
 733	3.6600e-01	10.7628	65.610448	0.001242	12.424219	4.209440	-0.099214
 734	3.6650e-01	10.7131	65.590283	0.000051	0.505050	0.171115	-0.004033
 735	3.6700e-01	10.6714	65.311999	0.000697	6.969684	2.361393	-0.055657
 736	3.6750e-01	10.6361	65.227304	0.000212	2.121208	0.718685	-0.016939
 737	3.6800e-01	10.5911	64.908689	0.000798	7.979783	2.703624	-0.063723
 738	3.6850e-01	10.5510	64.694935	0.000535	5.353525	1.813824	-0.042751
 739	3.6900e-01	10.5190	64.485214	0.000525	5.252516	1.779600	-0.041944
 740	3.6950e-01	10.4708	64.489247	-0.000010	-0.101010	-0.034223	0.000807
 741	3.7000e-01	10.4355	64.106102	0.000960	9.595942	3.251193	-0.076629
 742	3.7050e-01	10.3986	63.888315	0.000545	5.454535	1.848047	-0.043557
 743	3.7100e-01	10.3489	63.900414	-0.000030	-0.303030	-0.102669	0.002420
 744	3.7150e-01	10.3152	63.755223	0.000364	3.636357	1.232031	-0.029038
 745	3.7200e-01	10.2687	63.323681	0.001081	10.808061	3.661870	-0.086308
 746	3.7250e-01	10.2302	63.130092	0.000485	4.848476	1.642708	-0.038718
 747	3.7300e-01	10.1997	63.061530	0.000172	1.717169	0.581792	-0.013713
 748	3.7350e-01	10.1516	62.831643	0.000576	5.757565	1.950716	-0.045977
 749	3.7400e-01	10.1163	62.500929	0.000828	8.282813	2.806293	-0.066143
 750	3.7450e-01	10.0826	62.210546	0.000727	7.272714	2.464062	-0.058077
 751	3.7500e-01	10.0345	61.984692	0.000566	5.656555	1.916493	-0.045171
 752	3.7550e-01	9.9944	61.952428	0.000081	0.808079	0.273785	-0.006453
 753	3.7600e-01	9.9478	61.690276	0.000657	6.565644	2.224501	-0.052430
 754	3.7650e-01	9.9174	61.355529	0.000838	8.383823	2.840516	-0.066949
 755	3.7700e-01	9.8773	61.214371	0.000354	3.535347	1.197808	-0.028232
 756	3.7750e-01	9.8356	61.085311	0.000323	3.232317	1.095139	-0.025812
 757	3.7800e-01	9.7987	60.677968	0.001020	10.202001	3.456532	-0.081469
 758	3.7850e-01	9.7602	60.734432	-0.000141	-1.414139	-0.479123	0.011293
 759	3.7900e-01	9.7088	60.399685	0.000838	8.383823	2.840516	-0.066949
 760	3.7950e-01	9.6751	60.189964	0.000525	5.252516	1.779600	-0.041944
 761	3.8000e-01	9.6302	60.036706	0.000384	3.838377	1.300477	-0.030652
 762	3.8050e-01	9.6094	59.774554	0.000657	6.565644	2.224501	-0.052430
 763	3.8100e-01	9.5580	59.710025	0.000162	1.616159	0.547569	-0.012906
 764	3.8150e-01	9.5195	59.415609	0.000737	7.373724	2.498285	-0.058883
 765	3.8200e-01	9.4730	59.246218	0.000424	4.242416	1.437370	-0.033878
 766	3.8250e-01	9.4345	59.109093	0.000343	3.434337	1.163585	-0.027425
 767	3.8300e-01	9.3928	58.814677	0.000737	7.373724	2.498285	-0.058883
 768	3.8350e-01	9.3559	58.600923	0.000535	5.353525	1.813824	-0.042751
 769	3.8400e-01	9.3126	58.314573	0.000717	7.171704	2.429839	-0.057270
 770	3.8450e-01	9.2725	58.209712	0.000263	2.626258	0.889800	-0.020972
 771	3.8500e-01	9.2324	57.927395	0.000707	7.070694	2.395616	-0.056463
 772	3.8550e-01	9.1858	57.766071	0.000404	4.040397	1.368923	-0.032265
 773	3.8600e-01	9.1505	57.673310	0.000232	2.323228	0.787131	-0.018552
 774	3.8650e-01	9.1217	57.386960	0.000717	7.171704	2.429839	-0.057270
 775	3.8700e-01	9.0671	57.201437	0.000465	4.646456	1.574262	-0.037105
 776	3.8750e-01	9.0382	57.048180	0.000384	3.838377	1.300477	-0.030652
 777	3.8800e-01	8.9965	56.870723	0.000444	4.444436	1.505816	-0.035491
 778	3.8850e-01	8.9548	56.568241	0.000758	7.575744	2.566731	-0.060496
 779	3.8900e-01	8.9051	56.447248	0.000303	3.030297	1.026693	-0.024199
 780	3.8950e-01	8.8714	56.354487	0.000232	2.323228	0.787131	-0.018552
 781	3.9000e-01	8.8345	55.866482	0.001222	12.222200	4.140993	-0.097601
 782	3.9050e-01	8.7928	55.608364	0.000646	6.464635	2.190277	-0.051624
 783	3.9100e-01	8.7543	55.531735	0.000192	1.919188	0.650239	-0.015326
 784	3.9150e-01	8.7126	55.281683	0.000626	6.262615	2.121831	-0.050010
 785	3.9200e-01	8.6757	55.108259	0.000434	4.343426	1.471593	-0.034685
 786	3.9250e-01	8.6308	54.926770	0.000455	4.545446	1.540039	-0.036298
 787	3.9300e-01	8.5939	54.660585	0.000667	6.666654	2.258724	-0.053237
 788	3.9350e-01	8.5634	54.511361	0.000374	3.737367	1.266254	-0.029845
 789	3.9400e-01	8.5024	54.289540	0.000556	5.555545	1.882270	-0.044364
 790	3.9450e-01	8.4720	54.059654	0.000576	5.757565	1.950716	-0.045977
 791	3.9500e-01	8.4367	53.950760	0.000273	2.727268	0.924023	-0.021779
 792	3.9550e-01	8.3950	53.450656	0.001253	12.525229	4.243663	-0.100021
 793	3.9600e-01	8.3516	53.305464	0.000364	3.636357	1.232031	-0.029038
 794	3.9650e-01	8.3179	53.160273	0.000364	3.636357	1.232031	-0.029038
 795	3.9700e-01	8.2762	52.930386	0.000576	5.757565	1.950716	-0.045977
 796	3.9750e-01	8.2329	52.712599	0.000545	5.454535	1.848047	-0.043557
 797	3.9800e-01	8.1928	52.547242	0.000414	4.141406	1.403147	-0.033071
 798	3.9850e-01	8.1559	52.406083	0.000354	3.535347	1.197808	-0.028232
 799	3.9900e-01	8.1126	52.047137	0.000899	8.989882	3.045855	-0.071789
 800	3.9950e-01	8.0773	51.861615	0.000465	4.646456	1.574262	-0.037105
 801	4.0000e-01	8.0372	51.659960	0.000505	5.050496	1.711154	-0.040331
 802	4.0050e-01	7.9891	51.603497	0.000141	1.414139	0.479123	-0.011293
 803	4.0100e-01	7.9506	51.458305	0.000364	3.636357	1.232031	-0.029038
 804	4.0150e-01	7.9105	51.115492	0.000859	8.585843	2.908962	-0.068563
 805	4.0200e-01	7.8688	50.982399	0.000333	3.333327	1.129362	-0.026618
 806	4.0250e-01	7.8254	50.764612	0.000545	5.454535	1.848047	-0.043557
 807	4.0300e-01	7.7934	50.385501	0.000949	9.494932	3.216970	-0.075822
 808	4.0350e-01	7.7565	50.220144	0.000414	4.141406	1.403147	-0.033071
 809	4.0400e-01	7.7228	50.070919	0.000374	3.737367	1.266254	-0.029845
 810	4.0450e-01	7.6779	49.595014	0.001192	11.919170	4.038324	-0.095181
 811	4.0500e-01	7.6313	49.558716	0.000091	0.909089	0.308008	-0.007260
 812	4.0550e-01	7.5993	49.203803	0.000889	8.888872	3.011632	-0.070983
 813	4.0600e-01	7.5543	49.050545	0.000384	3.838377	1.300477	-0.030652
 814	4.0650e-01	7.5174	49.022314	0.000071	0.707069	0.239562	-0.005646
 815	4.0700e-01	7.4645	48.695633	0.000818	8.181803	2.772070	-0.065336
 816	4.0750e-01	7.4340	48.493978	0.000505	5.050496	1.711154	-0.040331
 817	4.0800e-01	7.3955	48.155197	0.000848	8.484833	2.874739	-0.067756
 818	4.0850e-01	7.3538	48.090668	0.000162	1.616159	0.547569	-0.012906
 819	4.0900e-01	7.3137	47.828516	0.000657	6.565644	2.224501	-0.052430
 820	4.0950e-01	7.2784	47.485703	0.000859	8.585843	2.908962	-0.068563
 821	4.1000e-01	7.2335	47.522001	-0.000091	-0.909089	-0.308008	0.007260
 822	4.1050e-01	7.1966	47.328412	0.000485	4.848476	1.642708	-0.038718
 823	4.1100e-01	7.1549	46.904937	0.001061	10.606041	3.593424	-0.084695
 824	4.1150e-01	7.1228	46.711348	0.000485	4.848476	1.642708	-0.038718
 825	4.1200e-01	7.0650	46.513726	0.000495	4.949486	1.676931	-0.039524
 826	4.1250e-01	7.0394	46.457263	0.000141	1.414139	0.479123	-0.011293
 827	4.1300e-01	6.9848	45.997490	0.001152	11.515130	3.901432	-0.091955
 828	4.1350e-01	6.9576	45.795835	0.000505	5.050496	1.711154	-0.040331
 829	4.1400e-01	6.9126	45.428823	0.000919	9.191902	3.114301	-0.073402
 830	4.1450e-01	6.8693	45.489319	-0.000152	-1.515149	-0.513346	0.012099
 831	4.1500e-01	6.8421	45.251366	0.000596	5.959585	2.019162	-0.047591
 832	4.1550e-01	6.7907	44.977116	0.000687	6.868674	2.327170	-0.054850
 833	4.1600e-01	6.7506	44.638335	0.000848	8.484833	2.874739	-0.067756
 834	4.1650e-01	6.7153	44.416515	0.000556	5.555545	1.882270	-0.044364
 835	4.1700e-01	6.6656	44.166463	0.000626	6.262615	2.121831	-0.050010
 836	4.1750e-01	6.6335	44.122099	0.000111	1.111109	0.376454	-0.008873
 837	4.1800e-01	6.6030	43.779285	0.000859	8.585843	2.908962	-0.068563
 838	4.1850e-01	6.5645	43.408240	0.000929	9.292912	3.148524	-0.074209
 839	4.1900e-01	6.5228	43.154155	0.000636	6.363625	2.156054	-0.050817
 840	4.1950e-01	6.4731	42.835540	0.000798	7.979783	2.703624	-0.063723
 841	4.2000e-01	6.4250	42.960566	-0.000313	-3.131307	-1.060916	0.025005
 842	4.2050e-01	6.3881	42.662117	0.000747	7.474734	2.532508	-0.059690
 843	4.2100e-01	6.3608	42.287039	0.000939	9.393922	3.182747	-0.075016
 844	4.2150e-01	6.3175	42.170079	0.000293	2.929288	0.992469	-0.023392
 845	4.2200e-01	6.2677	42.000689	0.000424	4.242416	1.437370	-0.033878
 846	4.2250e-01	6.2421	41.734504	0.000667	6.666654	2.258724	-0.053237
 847	4.2300e-01	6.1875	41.327161	0.001020	10.202001	3.456532	-0.081469
 848	4.2350e-01	6.1490	41.343294	-0.000040	-0.404040	-0.136892	0.003226
 849	4.2400e-01	6.1105	41.008547	0.000838	8.383823	2.840516	-0.066949
 850	4.2450e-01	6.0720	40.935951	0.000182	1.818178	0.616016	-0.014519
 851	4.2500e-01	6.0335	40.657667	0.000697	6.969684	2.361393	-0.055657
 852	4.2550e-01	5.9982	40.488277	0.000424	4.242416	1.437370	-0.033878
 853	4.2600e-01	5.9501	40.101099	0.000970	9.696952	3.285416	-0.077435
 854	4.2650e-01	5.9132	39.838948	0.000657	6.565644	2.224501	-0.052430
 855	4.2700e-01	5.8763	39.459837	0.000949	9.494932	3.216970	-0.075822
 856	4.2750e-01	5.8314	39.415473	0.000111	1.111109	0.376454	-0.008873
 857	4.2800e-01	5.7833	39.278347	0.000343	3.434337	1.163585	-0.027425
 858	4.2850e-01	5.7528	38.996030	0.000707	7.070694	2.395616	-0.056463
 859	4.2900e-01	5.7079	38.685482	0.000778	7.777763	2.635178	-0.062110
 860	4.2950e-01	5.6678	38.564489	0.000303	3.030297	1.026693	-0.024199
 861	4.3000e-01	5.6405	38.282172	0.000707	7.070694	2.395616	-0.056463
 862	4.3050e-01	5.5924	38.108749	0.000434	4.343426	1.471593	-0.034685
 863	4.3100e-01	5.5522	37.810299	0.000747	7.474734	2.532508	-0.059690
 864	4.3150e-01	5.5089	37.523949	0.000717	7.171704	2.429839	-0.057270
 865	4.3200e-01	5.4704	37.294063	0.000576	5.757565	1.950716	-0.045977
 866	4.3250e-01	5.4335	37.185169	0.000273	2.727268	0.924023	-0.021779
 867	4.3300e-01	5.3950	36.866554	0.000798	7.979783	2.703624	-0.063723
 868	4.3350e-01	5.3613	36.539873	0.000818	8.181803	2.772070	-0.065336
 869	4.3400e-01	5.3196	36.237391	0.000758	7.575744	2.566731	-0.060496
 870	4.3450e-01	5.2779	36.084133	0.000384	3.838377	1.300477	-0.030652
 871	4.3500e-01	5.2362	35.773585	0.000778	7.777763	2.635178	-0.062110
 872	4.3550e-01	5.1929	35.733254	0.000101	1.010099	0.342231	-0.008066
 873	4.3600e-01	5.1496	35.410606	0.000808	8.080793	2.737847	-0.064530
 874	4.3650e-01	5.1079	35.277513	0.000333	3.333327	1.129362	-0.026618
 875	4.3700e-01	5.0678	34.999230	0.000697	6.969684	2.361393	-0.055657
 876	4.3750e-01	5.0325	34.668516	0.000828	8.282813	2.806293	-0.066143
 877	4.3800e-01	4.9892	34.470894	0.000495	4.949486	1.676931	-0.039524
 878	4.3850e-01	4.9651	34.212775	0.000646	6.464635	2.190277	-0.051624
 879	4.3900e-01	4.9138	34.079683	0.000333	3.333327	1.129362	-0.026618
 880	4.3950e-01	4.8801	33.688473	0.000980	9.797962	3.319639	-0.078242
 881	4.4000e-01	4.8384	33.519082	0.000424	4.242416	1.437370	-0.033878
 882	4.4050e-01	4.7999	33.317428	0.000505	5.050496	1.711154	-0.040331
 883	4.4100e-01	4.7533	33.099640	0.000545	5.454535	1.848047	-0.043557
 884	4.4150e-01	4.7197	32.829423	0.000677	6.767664	2.292947	-0.054044
 885	4.4200e-01	4.6699	32.543073	0.000717	7.171704	2.429839	-0.057270
 886	4.4250e-01	4.6346	32.462411	0.000202	2.020198	0.684462	-0.016132
 887	4.4300e-01	4.5849	32.240590	0.000556	5.555545	1.882270	-0.044364
 888	4.4350e-01	4.5560	32.006671	0.000586	5.858575	1.984939	-0.046784
 889	4.4400e-01	4.5111	31.615460	0.000980	9.797962	3.319639	-0.078242
 890	4.4450e-01	4.4646	31.288779	0.000818	8.181803	2.772070	-0.065336
 891	4.4500e-01	4.4405	31.103256	0.000465	4.646456	1.574262	-0.037105
 892	4.4550e-01	4.3924	30.877403	0.000566	5.656555	1.916493	-0.045171
 893	4.4600e-01	4.3555	30.659616	0.000545	5.454535	1.848047	-0.043557
 894	4.4650e-01	4.3090	30.534590	0.000313	3.131307	1.060916	-0.025005
 895	4.4700e-01	4.2737	30.280504	0.000636	6.363625	2.156054	-0.050817
 896	4.4750e-01	4.2352	29.901393	0.000949	9.494932	3.216970	-0.075822
 897	4.4800e-01	4.1935	29.663440	0.000596	5.959585	2.019162	-0.047591
 898	4.4850e-01	4.1598	29.280296	0.000960	9.595942	3.251193	-0.076629
 899	4.4900e-01	4.1100	29.203667	0.000192	1.919188	0.650239	-0.015326
 900	4.4950e-01	4.0780	28.973780	0.000576	5.757565	1.950716	-0.045977
 901	4.5000e-01	4.0282	28.699530	0.000687	6.868674	2.327170	-0.054850
 902	4.5050e-01	3.9945	28.437378	0.000657	6.565644	2.224501	-0.052430
 903	4.5100e-01	3.9560	28.332518	0.000263	2.626258	0.889800	-0.020972
 904	4.5150e-01	3.9127	27.909042	0.001061	10.606041	3.593424	-0.084695
 905	4.5200e-01	3.8742	27.675123	0.000586	5.858575	1.984939	-0.046784
 906	4.5250e-01	3.8277	27.546063	0.000323	3.232317	1.095139	-0.025812
 907	4.5300e-01	3.7844	27.340375	0.000515	5.151506	1.745377	-0.041138
 908	4.5350e-01	3.7587	26.824139	0.001293	12.929269	4.380555	-0.103247
 909	4.5400e-01	3.7138	26.521656	0.000758	7.575744	2.566731	-0.060496
 910	4.5450e-01	3.6657	26.392597	0.000323	3.232317	1.095139	-0.025812
 911	4.5500e-01	3.6384	26.320001	0.000182	1.818178	0.616016	-0.014519
 912	4.5550e-01	3.5903	25.961056	0.000899	8.989882	3.045855	-0.071789
 913	4.5600e-01	3.5486	25.674706	0.000717	7.171704	2.429839	-0.057270
 914	4.5650e-01	3.5101	25.400455	0.000687	6.868674	2.327170	-0.054850
 915	4.5700e-01	3.4780	25.364157	0.000091	0.909089	0.308008	-0.007260
 916	4.5750e-01	3.4347	25.053609	0.000778	7.777763	2.635178	-0.062110
 917	4.5800e-01	3.3930	24.674497	0.000949	9.494932	3.216970	-0.075822
 918	4.5850e-01	3.3512	24.549471	0.000313	3.131307	1.060916	-0.025005
 919	4.5900e-01	3.3111	24.142128	0.001020	10.202001	3.456532	-0.081469
 920	4.5950e-01	3.2758	23.831580	0.000778	7.777763	2.635178	-0.062110
 921	4.6000e-01	3.2309	23.678322	0.000384	3.838377	1.300477	-0.030652
 922	4.6050e-01	3.1940	23.468601	0.000525	5.252516	1.779600	-0.041944
 923	4.6100e-01	3.1523	23.105622	0.000909	9.090892	3.080078	-0.072596
 924	4.6150e-01	3.1122	22.851537	0.000636	6.363625	2.156054	-0.050817
 925	4.6200e-01	3.0705	22.694246	0.000394	3.939387	1.334700	-0.031458
 926	4.6250e-01	3.0320	22.399830	0.000737	7.373724	2.498285	-0.058883
 927	4.6300e-01	2.9983	22.238506	0.000404	4.040397	1.368923	-0.032265
 928	4.6350e-01	2.9566	21.996520	0.000606	6.060595	2.053385	-0.048397
 929	4.6400e-01	2.9133	21.653706	0.000859	8.585843	2.908962	-0.068563
 930	4.6450e-01	2.8796	21.448018	0.000515	5.151506	1.745377	-0.041138
 931	4.6500e-01	2.8411	21.117304	0.000828	8.282813	2.806293	-0.066143
 932	4.6550e-01	2.7994	20.903550	0.000535	5.353525	1.813824	-0.042751
 933	4.6600e-01	2.7721	20.685763	0.000545	5.454535	1.848047	-0.043557
 934	4.6650e-01	2.7144	20.572836	0.000283	2.828278	0.958246	-0.022585
 935	4.6700e-01	2.6775	20.387313	0.000465	4.646456	1.574262	-0.037105
 936	4.6750e-01	2.6406	19.883176	0.001263	12.626239	4.277886	-0.100827
 937	4.6800e-01	2.5908	19.713786	0.000424	4.242416	1.437370	-0.033878
 938	4.6850e-01	2.5604	19.415337	0.000747	7.474734	2.532508	-0.059690
 939	4.6900e-01	2.5074	19.185450	0.000576	5.757565	1.950716	-0.045977
 940	4.6950e-01	2.4801	19.012027	0.000434	4.343426	1.471593	-0.034685
 941	4.7000e-01	2.4256	18.649048	0.000909	9.090892	3.080078	-0.072596
 942	4.7050e-01	2.3887	18.374797	0.000687	6.868674	2.327170	-0.054850
 943	4.7100e-01	2.3566	18.298168	0.000192	1.919188	0.650239	-0.015326
 944	4.7150e-01	2.3101	17.890825	0.001020	10.202001	3.456532	-0.081469
 945	4.7200e-01	2.2684	17.781932	0.000273	2.727268	0.924023	-0.021779
 946	4.7250e-01	2.2331	17.560111	0.000556	5.555545	1.882270	-0.044364
 947	4.7300e-01	2.1978	17.253596	0.000768	7.676754	2.600954	-0.061303
 948	4.7350e-01	2.1465	16.951113	0.000758	7.575744	2.566731	-0.060496
 949	4.7400e-01	2.1160	16.592168	0.000899	8.989882	3.045855	-0.071789
 950	4.7450e-01	2.0727	16.398579	0.000485	4.848476	1.642708	-0.038718
 951	4.7500e-01	2.0358	16.092063	0.000768	7.676754	2.600954	-0.061303
 952	4.7550e-01	1.9828	15.999302	0.000232	2.323228	0.787131	-0.018552
 953	4.7600e-01	1.9524	15.575827	0.001061	10.606041	3.593424	-0.084695
 954	4.7650e-01	1.9138	15.200749	0.000939	9.393922	3.182747	-0.075016
 955	4.7700e-01	1.8721	14.910366	0.000727	7.272714	2.464062	-0.058077
 956	4.7750e-01	1.8368	14.680479	0.000576	5.757565	1.950716	-0.045977
 957	4.7800e-01	1.7967	14.515122	0.000414	4.141406	1.403147	-0.033071
 958	4.7850e-01	1.7518	14.136011	0.000949	9.494932	3.216970	-0.075822
 959	4.7900e-01	1.7085	13.873859	0.000657	6.565644	2.224501	-0.052430
 960	4.7950e-01	1.6620	13.781098	0.000232	2.323228	0.787131	-0.018552
 961	4.8000e-01	1.6315	13.466516	0.000788	7.878773	2.669401	-0.062916
 962	4.8050e-01	1.5866	13.329391	0.000343	3.434337	1.163585	-0.027425
 963	4.8100e-01	1.5481	12.905916	0.001061	10.606041	3.593424	-0.084695
 964	4.8150e-01	1.5176	12.708294	0.000495	4.949486	1.676931	-0.039524
 965	4.8200e-01	1.4647	12.430010	0.000697	6.969684	2.361393	-0.055657
 966	4.8250e-01	1.4326	12.264653	0.000414	4.141406	1.403147	-0.033071
 967	4.8300e-01	1.3957	12.018634	0.000616	6.161605	2.087608	-0.049204
 968	4.8350e-01	1.3556	11.675820	0.000859	8.585843	2.908962	-0.068563
 969	4.8400e-01	1.3155	11.454000	0.000556	5.555545	1.882270	-0.044364
 970	4.8450e-01	1.2689	11.111187	0.000859	8.585843	2.908962	-0.068563
 971	4.8500e-01	1.2337	10.800638	0.000778	7.777763	2.635178	-0.062110
 972	4.8550e-01	1.1887	10.631248	0.000424	4.242416	1.437370	-0.033878
 973	4.8600e-01	1.1534	10.421527	0.000525	5.252516	1.779600	-0.041944
 974	4.8650e-01	1.1101	10.127111	0.000737	7.373724	2.498285	-0.058883
 975	4.8700e-01	1.0796	9.756066	0.000929	9.292912	3.148524	-0.074209
 976	4.8750e-01	1.0299	9.546344	0.000525	5.252516	1.779600	-0.041944
 977	4.8800e-01	0.9866	9.235796	0.000778	7.777763	2.635178	-0.062110
 978	4.8850e-01	0.9529	8.993810	0.000606	6.060595	2.053385	-0.048397
 979	4.8900e-01	0.9096	8.763923	0.000576	5.757565	1.950716	-0.045977
 980	4.8950e-01	0.8695	8.534037	0.000576	5.757565	1.950716	-0.045977
 981	4.9000e-01	0.8326	8.207356	0.000818	8.181803	2.772070	-0.065336
 982	4.9050e-01	0.7861	8.118627	0.000222	2.222218	0.752908	-0.017746
 983	4.9100e-01	0.7556	7.759682	0.000899	8.989882	3.045855	-0.071789
 984	4.9150e-01	0.7139	7.469299	0.000727	7.272714	2.464062	-0.058077
 985	4.9200e-01	0.6658	7.275710	0.000485	4.848476	1.642708	-0.038718
 986	4.9250e-01	0.6353	6.924830	0.000879	8.787863	2.977408	-0.070176
 987	4.9300e-01	0.5904	6.630414	0.000737	7.373724	2.498285	-0.058883
 988	4.9350e-01	0.5519	6.323899	0.000768	7.676754	2.600954	-0.061303
 989	4.9400e-01	0.5118	6.085946	0.000596	5.959585	2.019162	-0.047591
 990	4.9450e-01	0.4684	5.860092	0.000566	5.656555	1.916493	-0.045171
 991	4.9500e-01	0.4315	5.472915	0.000970	9.696952	3.285416	-0.077435
 992	4.9550e-01	0.3914	5.210763	0.000657	6.565644	2.224501	-0.052430
 993	4.9600e-01	0.3513	5.101870	0.000273	2.727268	0.924023	-0.021779
 994	4.9650e-01	0.3064	4.827619	0.000687	6.868674	2.327170	-0.054850
 995	4.9700e-01	0.2711	4.646130	0.000455	4.545446	1.540039	-0.036298
 996	4.9750e-01	0.2230	4.210555	0.001091	10.909071	3.696093	-0.087115
 997	4.9800e-01	0.1877	4.089562	0.000303	3.030297	1.026693	-0.024199
 998	4.9850e-01	0.1556	3.714484	0.000939	9.393922	3.182747	-0.075016
 999	4.9900e-01	0.1107	3.286975	0.001071	10.707051	3.627647	-0.085502
1000	4.9950e-01	0.0690	3.117585	0.000424	4.242416	1.437370	-0.033878
1001	5.0000e-01	0.0417	2.661845	0.001141	11.414120	3.867209	-0.091148
1002	5.0050e-01	0.0064	2.520687	0.000354	3.535347	1.197808	-0.028232
1003	5.0100e-01	-0.0433	2.246436	0.000687	6.868674	2.327170	-0.054850
1004	5.0150e-01	-0.0882	2.177873	0.000172	1.717169	0.581792	-0.013713
1005	5.0200e-01	-0.1219	1.758431	0.001051	10.505031	3.559201	-0.083888
1006	5.0250e-01	-0.1588	1.383353	0.000939	9.393922	3.182747	-0.075016
1007	5.0300e-01	-0.2021	1.290592	0.000232	2.323228	0.787131	-0.018552
1008	5.0350e-01	-0.2406	0.911480	0.000949	9.494932	3.216970	-0.075822
1009	5.0400e-01	-0.2759	0.600932	0.000778	7.777763	2.635178	-0.062110
1010	5.0450e-01	-0.3208	0.532369	0.000172	1.717169	0.581792	-0.013713
1011	5.0500e-01	-0.3577	0.072596	0.001152	11.515130	3.901432	-0.091955
1012	5.0550e-01	-0.3930	-0.197622	0.000677	6.767664	2.292947	-0.054044
1013	5.0600e-01	-0.4444	-0.532369	0.000838	8.383823	2.840516	-0.066949
1014	5.0650e-01	-0.4765	-0.572700	0.000101	1.010099	0.342231	-0.008066
1015	5.0700e-01	-0.5262	-0.855017	0.000707	7.070694	2.395616	-0.056463
1016	5.0750e-01	-0.5583	-1.173632	0.000798	7.979783	2.703624	-0.063723
1017	5.0800e-01	-0.6032	-1.468048	0.000737	7.373724	2.498285	-0.058883
1018	5.0850e-01	-0.6369	-1.726166	0.000646	6.464635	2.190277	-0.051624
1019	5.0900e-01	-0.6802	-2.153675	0.001071	10.707051	3.627647	-0.085502
1020	5.0950e-01	-0.7251	-2.298866	0.000364	3.636357	1.232031	-0.029038
1021	5.1000e-01	-0.7620	-2.399694	0.000253	2.525248	0.855577	-0.020165
1022	5.1050e-01	-0.8037	-2.811070	0.001030	10.303011	3.490755	-0.082275
1023	5.1100e-01	-0.8502	-3.053056	0.000606	6.060595	2.053385	-0.048397
1024	5.1150e-01	-0.8936	-3.242611	0.000475	4.747466	1.608485	-0.037911
1025	5.1200e-01	-0.9272	-3.609623	0.000919	9.191902	3.114301	-0.073402
1026	5.1250e-01	-0.9561	-3.875808	0.000667	6.666654	2.258724	-0.053237
1027	5.1300e-01	-1.0026	-4.182323	0.000768	7.676754	2.600954	-0.061303
1028	5.1350e-01	-1.0460	-4.379945	0.000495	4.949486	1.676931	-0.039524
1029	5.1400e-01	-1.0732	-4.585633	0.000515	5.151506	1.745377	-0.041138
1030	5.1450e-01	-1.1214	-4.952645	0.000919	9.191902	3.114301	-0.073402
1031	5.1500e-01	-1.1631	-5.335789	0.000960	9.595942	3.251193	-0.076629
1032	5.1550e-01	-1.2032	-5.561643	0.000566	5.656555	1.916493	-0.045171
1033	5.1600e-01	-1.2353	-5.904456	0.000859	8.585843	2.908962	-0.068563
1034	5.1650e-01	-1.2850	-6.239204	0.000838	8.383823	2.840516	-0.066949
1035	5.1700e-01	-1.3219	-6.352130	0.000283	2.828278	0.958246	-0.022585
1036	5.1750e-01	-1.3748	-6.541686	0.000475	4.747466	1.608485	-0.037911
1037	5.1800e-01	-1.4021	-6.815937	0.000687	6.868674	2.327170	-0.054850
1038	5.1850e-01	-1.4486	-6.997426	0.000455	4.545446	1.540039	-0.036298
1039	5.1900e-01	-1.4823	-7.287809	0.000727	7.272714	2.464062	-0.058077
1040	5.1950e-01	-1.5288	-7.691119	0.001010	10.100991	3.422309	-0.080662
1041	5.2000e-01	-1.5657	-7.715318	0.000061	0.606059	0.205339	-0.004840
1042	5.2050e-01	-1.6010	-8.203323	0.001222	12.222200	4.140993	-0.097601
1043	5.2100e-01	-1.6459	-8.473540	0.000677	6.767664	2.292947	-0.054044
1044	5.2150e-01	-1.6796	-8.731658	0.000646	6.464635	2.190277	-0.051624
1045	5.2200e-01	-1.7229	-9.098670	0.000919	9.191902	3.114301	-0.073402
1046	5.2250e-01	-1.7534	-9.352756	0.000636	6.363625	2.156054	-0.050817
1047	5.2300e-01	-1.7983	-9.566510	0.000535	5.353525	1.813824	-0.042751
1048	5.2350e-01	-1.8465	-9.868992	0.000758	7.575744	2.566731	-0.060496
1049	5.2400e-01	-1.8834	-10.070647	0.000505	5.050496	1.711154	-0.040331
1050	5.2450e-01	-1.9251	-10.280368	0.000525	5.252516	1.779600	-0.041944
1051	5.2500e-01	-1.9524	-10.574785	0.000737	7.373724	2.498285	-0.058883
1052	5.2550e-01	-2.0053	-10.965995	0.000980	9.797962	3.319639	-0.078242
1053	5.2600e-01	-2.0422	-11.143451	0.000444	4.444436	1.505816	-0.035491
1054	5.2650e-01	-2.0807	-11.445934	0.000758	7.575744	2.566731	-0.060496
1055	5.2700e-01	-2.1176	-11.716151	0.000677	6.767664	2.292947	-0.054044
1056	5.2750e-01	-2.1593	-11.921839	0.000515	5.151506	1.745377	-0.041138
1057	5.2800e-01	-2.2010	-12.313050	0.000980	9.797962	3.319639	-0.078242
1058	5.2850e-01	-2.2363	-12.639731	0.000818	8.181803	2.772070	-0.065336
1059	5.2900e-01	-2.2780	-12.647797	0.000020	0.202020	0.068446	-0.001613
1060	5.2950e-01	-2.3293	-12.938180	0.000727	7.272714	2.464062	-0.058077
1061	5.3000e-01	-2.3518	-13.377788	0.001101	11.010081	3.730316	-0.087922
1062	5.3050e-01	-2.3999	-13.502814	0.000313	3.131307	1.060916	-0.025005
1063	5.3100e-01	-2.4416	-13.885958	0.000960	9.595942	3.251193	-0.076629
1064	5.3150e-01	-2.4817	-14.107779	0.000556	5.555545	1.882270	-0.044364
1065	5.3200e-01	-2.5251	-14.321533	0.000535	5.353525	1.813824	-0.042751
1066	5.3250e-01	-2.5620	-14.482857	0.000404	4.040397	1.368923	-0.032265
1067	5.3300e-01	-2.5973	-15.051524	0.001424	14.242398	4.825455	-0.113733
1068	5.3350e-01	-2.6406	-15.220914	0.000424	4.242416	1.437370	-0.033878
1069	5.3400e-01	-2.6839	-15.402404	0.000455	4.545446	1.540039	-0.036298
1070	5.3450e-01	-2.7256	-15.708919	0.000768	7.676754	2.600954	-0.061303
1071	5.3500e-01	-2.7609	-15.842011	0.000333	3.333327	1.129362	-0.026618
1072	5.3550e-01	-2.8074	-16.164659	0.000808	8.080793	2.737847	-0.064530
1073	5.3600e-01	-2.8475	-16.233222	0.000172	1.717169	0.581792	-0.013713
1074	5.3650e-01	-2.8844	-16.644598	0.001030	10.303011	3.490755	-0.082275
1075	5.3700e-01	-2.9261	-16.979345	0.000838	8.383823	2.840516	-0.066949
1076	5.3750e-01	-2.9614	-17.289894	0.000778	7.777763	2.635178	-0.062110
1077	5.3800e-01	-3.0079	-17.322158	0.000081	0.808079	0.273785	-0.006453
1078	5.3850e-01	-3.0400	-17.681104	0.000899	8.989882	3.045855	-0.071789
1079	5.3900e-01	-3.0881	-17.874693	0.000485	4.848476	1.642708	-0.038718
1080	5.3950e-01	-3.1250	-18.072315	0.000495	4.949486	1.676931	-0.039524
1081	5.4000e-01	-3.1619	-18.358665	0.000717	7.171704	2.429839	-0.057270
1082	5.4050e-01	-3.2053	-18.725677	0.000919	9.191902	3.114301	-0.073402
1083	5.4100e-01	-3.2470	-18.790206	0.000162	1.616159	0.547569	-0.012906
1084	5.4150e-01	-3.2839	-19.185450	0.000990	9.898972	3.353862	-0.079049
1085	5.4200e-01	-3.3240	-19.500032	0.000788	7.878773	2.669401	-0.062916
1086	5.4250e-01	-3.3625	-19.818647	0.000798	7.979783	2.703624	-0.063723
1087	5.4300e-01	-3.4010	-19.951739	0.000333	3.333327	1.129362	-0.026618
1088	5.4350e-01	-3.4411	-20.258254	0.000768	7.676754	2.600954	-0.061303
1089	5.4400e-01	-3.4764	-20.504273	0.000616	6.161605	2.087608	-0.049204
1090	5.4450e-01	-3.5309	-20.786590	0.000707	7.070694	2.395616	-0.056463
1091	5.4500e-01	-3.5582	-21.068907	0.000707	7.070694	2.395616	-0.056463
1092	5.4550e-01	-3.6047	-21.266529	0.000495	4.949486	1.676931	-0.039524
1093	5.4600e-01	-3.6464	-21.310893	0.000111	1.111109	0.376454	-0.008873
1094	5.4650e-01	-3.6785	-21.698070	0.000970	9.696952	3.285416	-0.077435
1095	5.4700e-01	-3.7234	-22.028785	0.000828	8.282813	2.806293	-0.066143
1096	5.4750e-01	-3.7651	-22.186075	0.000394	3.939387	1.334700	-0.031458
1097	5.4800e-01	-3.8101	-22.290936	0.000263	2.626258	0.889800	-0.020972
1098	5.4850e-01	-3.8373	-22.827338	0.001343	13.434319	4.551670	-0.107280
1099	5.4900e-01	-3.8871	-22.940265	0.000283	2.828278	0.958246	-0.022585
1100	5.4950e-01	-3.9223	-23.287111	0.000869	8.686853	2.943185	-0.069369
1101	5.5000e-01	-3.9721	-23.593627	0.000768	7.676754	2.600954	-0.061303
1102	5.5050e-01	-3.9994	-23.888043	0.000737	7.373724	2.498285	-0.058883
1103	5.5100e-01	-4.0411	-24.162294	0.000687	6.868674	2.327170	-0.054850
1104	5.5150e-01	-4.0764	-24.303452	0.000354	3.535347	1.197808	-0.028232
1105	5.5200e-01	-4.1293	-24.436544	0.000333	3.333327	1.129362	-0.026618
1106	5.5250e-01	-4.1646	-24.601901	0.000414	4.141406	1.403147	-0.033071
1107	5.5300e-01	-4.2111	-24.884218	0.000707	7.070694	2.395616	-0.056463
1108	5.5350e-01	-4.2448	-25.251230	0.000919	9.191902	3.114301	-0.073402
1109	5.5400e-01	-4.2769	-25.404488	0.000384	3.838377	1.300477	-0.030652
1110	5.5450e-01	-4.3282	-25.525481	0.000303	3.030297	1.026693	-0.024199
1111	5.5500e-01	-4.3603	-25.872328	0.000869	8.686853	2.943185	-0.069369
1112	5.5550e-01	-4.3972	-26.207075	0.000838	8.383823	2.840516	-0.066949
1113	5.5600e-01	-4.4405	-26.368399	0.000404	4.040397	1.368923	-0.032265
1114	5.5650e-01	-4.4838	-26.703146	0.000838	8.383823	2.840516	-0.066949
1115	5.5700e-01	-4.5255	-27.037893	0.000838	8.383823	2.840516	-0.066949
1116	5.5750e-01	-4.5656	-27.070158	0.000081	0.808079	0.273785	-0.006453
1117	5.5800e-01	-4.5977	-27.384740	0.000788	7.878773	2.669401	-0.062916
1118	5.5850e-01	-4.6410	-27.679156	0.000737	7.373724	2.498285	-0.058883
1119	5.5900e-01	-4.6747	-27.836447	0.000394	3.939387	1.334700	-0.031458
1120	5.5950e-01	-4.7277	-28.142962	0.000768	7.676754	2.600954	-0.061303
1121	5.6000e-01	-4.7614	-28.465610	0.000808	8.080793	2.737847	-0.064530
1122	5.6050e-01	-4.7934	-28.651132	0.000465	4.646456	1.574262	-0.037105
1123	5.6100e-01	-4.8336	-28.997979	0.000869	8.686853	2.943185	-0.069369
1124	5.6150e-01	-4.8817	-29.018144	0.000051	0.505050	0.171115	-0.004033
1125	5.6200e-01	-4.9250	-29.276263	0.000646	6.464635	2.190277	-0.051624
1126	5.6250e-01	-4.9587	-29.631175	0.000889	8.888872	3.011632	-0.070983
1127	5.6300e-01	-5.0004	-29.857029	0.000566	5.656555	1.916493	-0.045171
1128	5.6350e-01	-5.0389	-30.046585	0.000475	4.747466	1.608485	-0.037911
1129	5.6400e-01	-5.0870	-30.300670	0.000636	6.363625	2.156054	-0.050817
1130	5.6450e-01	-5.1335	-30.457961	0.000394	3.939387	1.334700	-0.031458
1131	5.6500e-01	-5.1608	-30.679781	0.000556	5.555545	1.882270	-0.044364
1132	5.6550e-01	-5.2009	-31.050826	0.000929	9.292912	3.148524	-0.074209
1133	5.6600e-01	-5.2426	-31.296845	0.000616	6.161605	2.087608	-0.049204
1134	5.6650e-01	-5.2795	-31.542864	0.000616	6.161605	2.087608	-0.049204
1135	5.6700e-01	-5.3180	-31.809049	0.000667	6.666654	2.258724	-0.053237
1136	5.6750e-01	-5.3581	-32.167994	0.000899	8.989882	3.045855	-0.071789
1137	5.6800e-01	-5.3998	-32.131697	-0.000091	-0.909089	-0.308008	0.007260
1138	5.6850e-01	-5.4464	-32.401914	0.000677	6.767664	2.292947	-0.054044
1139	5.6900e-01	-5.4849	-32.506775	0.000263	2.626258	0.889800	-0.020972
1140	5.6950e-01	-5.5186	-32.760860	0.000636	6.363625	2.156054	-0.050817
1141	5.7000e-01	-5.5731	-33.127872	0.000919	9.191902	3.114301	-0.073402
1142	5.7050e-01	-5.6020	-33.551347	0.001061	10.606041	3.593424	-0.084695
1143	5.7100e-01	-5.6453	-33.599744	0.000121	1.212119	0.410677	-0.009679
1144	5.7150e-01	-5.6806	-33.696539	0.000242	2.424238	0.821354	-0.019359
1145	5.7200e-01	-5.7255	-34.071617	0.000939	9.393922	3.182747	-0.075016
1146	5.7250e-01	-5.7704	-34.329735	0.000646	6.464635	2.190277	-0.051624
1147	5.7300e-01	-5.8121	-34.410397	0.000202	2.020198	0.684462	-0.016132
1148	5.7350e-01	-5.8442	-34.668516	0.000646	6.464635	2.190277	-0.051624
1149	5.7400e-01	-5.8827	-34.958899	0.000727	7.272714	2.464062	-0.058077
1150	5.7450e-01	-5.9260	-35.188785	0.000576	5.757565	1.950716	-0.045977
1151	5.7500e-01	-5.9613	-35.499334	0.000778	7.777763	2.635178	-0.062110
1152	5.7550e-01	-6.0030	-35.777618	0.000697	6.969684	2.361393	-0.055657
1153	5.7600e-01	-6.0431	-35.959107	0.000455	4.545446	1.540039	-0.036298
1154	5.7650e-01	-6.0929	-35.987339	0.000071	0.707069	0.239562	-0.005646
1155	5.7700e-01	-6.1234	-36.241424	0.000636	6.363625	2.156054	-0.050817
1156	5.7750e-01	-6.1683	-36.608436	0.000919	9.191902	3.114301	-0.073402
1157	5.7800e-01	-6.2068	-36.773793	0.000414	4.141406	1.403147	-0.033071
1158	5.7850e-01	-6.2485	-36.983514	0.000525	5.252516	1.779600	-0.041944
1159	5.7900e-01	-6.2854	-37.181136	0.000495	4.949486	1.676931	-0.039524
1160	5.7950e-01	-6.3271	-37.338427	0.000394	3.939387	1.334700	-0.031458
1161	5.8000e-01	-6.3704	-37.741737	0.001010	10.100991	3.422309	-0.080662
1162	5.8050e-01	-6.4009	-37.931292	0.000475	4.747466	1.608485	-0.037911
1163	5.8100e-01	-6.4474	-38.362834	0.001081	10.808061	3.661870	-0.086308
1164	5.8150e-01	-6.4843	-38.467694	0.000263	2.626258	0.889800	-0.020972
1165	5.8200e-01	-6.5212	-38.588687	0.000303	3.030297	1.026693	-0.024199
1166	5.8250e-01	-6.5629	-38.750011	0.000404	4.040397	1.368923	-0.032265
1167	5.8300e-01	-6.5966	-39.028295	0.000697	6.969684	2.361393	-0.055657
1168	5.8350e-01	-6.6399	-39.266248	0.000596	5.959585	2.019162	-0.047591
1169	5.8400e-01	-6.6816	-39.455804	0.000475	4.747466	1.608485	-0.037911
1170	5.8450e-01	-6.7169	-39.762319	0.000768	7.676754	2.600954	-0.061303
1171	5.8500e-01	-6.7586	-40.076901	0.000788	7.878773	2.669401	-0.062916
1172	5.8550e-01	-6.7971	-40.205960	0.000323	3.232317	1.095139	-0.025812
1173	5.8600e-01	-6.8453	-40.379383	0.000434	4.343426	1.471593	-0.034685
1174	5.8650e-01	-6.8741	-40.649601	0.000677	6.767664	2.292947	-0.054044
1175	5.8700e-01	-6.9126	-40.988381	0.000848	8.484833	2.874739	-0.067756
1176	5.8750e-01	-6.9656	-41.081142	0.000232	2.323228	0.787131	-0.018552
1177	5.8800e-01	-7.0073	-41.133573	0.000131	1.313129	0.444900	-0.010486
1178	5.8850e-01	-7.0410	-41.520750	0.000970	9.696952	3.285416	-0.077435
1179	5.8900e-01	-7.0682	-41.879696	0.000899	8.989882	3.045855	-0.071789
1180	5.8950e-01	-7.1244	-42.024887	0.000364	3.636357	1.232031	-0.029038
1181	5.9000e-01	-7.1661	-42.206377	0.000455	4.545446	1.540039	-0.036298
1182	5.9050e-01	-7.2078	-42.516925	0.000778	7.777763	2.635178	-0.062110
1183	5.9100e-01	-7.2415	-42.561290	0.000111	1.111109	0.376454	-0.008873
1184	5.9150e-01	-7.2784	-42.867805	0.000768	7.676754	2.600954	-0.061303
1185	5.9200e-01	-7.3233	-43.129956	0.000657	6.565644	2.224501	-0.052430
1186	5.9250e-01	-7.3618	-43.222718	0.000232	2.323228	0.787131	-0.018552
1187	5.9300e-01	-7.4035	-43.593763	0.000929	9.292912	3.148524	-0.074209
1188	5.9350e-01	-7.4340	-43.706690	0.000283	2.828278	0.958246	-0.022585
1189	5.9400e-01	-7.4870	-43.964808	0.000646	6.464635	2.190277	-0.051624
1190	5.9450e-01	-7.5271	-44.182595	0.000545	5.454535	1.848047	-0.043557
1191	5.9500e-01	-7.5543	-44.416515	0.000586	5.858575	1.984939	-0.046784
1192	5.9550e-01	-7.5976	-44.577839	0.000404	4.040397	1.368923	-0.032265
1193	5.9600e-01	-7.6394	-45.061811	0.001212	12.121190	4.106770	-0.096794
1194	5.9650e-01	-7.6698	-45.182804	0.000303	3.030297	1.026693	-0.024199
1195	5.9700e-01	-7.7212	-45.295730	0.000283	2.828278	0.958246	-0.022585
1196	5.9750e-01	-7.7533	-45.380425	0.000212	2.121208	0.718685	-0.016939
1197	5.9800e-01	-7.8062	-45.682908	0.000758	7.575744	2.566731	-0.060496
1198	5.9850e-01	-7.8431	-45.993456	0.000778	7.777763	2.635178	-0.062110
1199	5.9900e-01	-7.8800	-46.207211	0.000535	5.353525	1.813824	-0.042751
1200	5.9950e-01	-7.9265	-46.187045	-0.000051	-0.505050	-0.171115	0.004033
1201	6.0000e-01	-7.9634	-46.562123	0.000939	9.393922	3.182747	-0.075016
1202	6.0050e-01	-8.0051	-46.872672	0.000778	7.777763	2.635178	-0.062110
1203	6.0100e-01	-8.0420	-47.005764	0.000333	3.333327	1.129362	-0.026618
1204	6.0150e-01	-8.0821	-47.207419	0.000505	5.050496	1.711154	-0.040331
1205	6.0200e-01	-8.1286	-47.368743	0.000404	4.040397	1.368923	-0.032265
1206	6.0250e-01	-8.1559	-47.723656	0.000889	8.888872	3.011632	-0.070983
1207	6.0300e-01	-8.2057	-47.913211	0.000475	4.747466	1.608485	-0.037911
1208	6.0350e-01	-8.2409	-48.199561	0.000717	7.171704	2.429839	-0.057270
1209	6.0400e-01	-8.2746	-48.223760	0.000061	0.606059	0.205339	-0.004840
1210	6.0450e-01	-8.3244	-48.489944	0.000667	6.666654	2.258724	-0.053237
1211	6.0500e-01	-8.3613	-48.780328	0.000727	7.272714	2.464062	-0.058077
1212	6.0550e-01	-8.4030	-48.957784	0.000444	4.444436	1.505816	-0.035491
1213	6.0600e-01	-8.4479	-49.090876	0.000333	3.333327	1.129362	-0.026618
1214	6.0650e-01	-8.4800	-49.441756	0.000879	8.787863	2.977408	-0.070176
1215	6.0700e-01	-8.5169	-49.530484	0.000222	2.222218	0.752908	-0.017746
1216	6.0750e-01	-8.5570	-49.724073	0.000485	4.848476	1.642708	-0.038718
1217	6.0800e-01	-8.6035	-50.030588	0.000768	7.676754	2.600954	-0.061303
1218	6.0850e-01	-8.6452	-50.175780	0.000364	3.636357	1.232031	-0.029038
1219	6.0900e-01	-8.6805	-50.345170	0.000424	4.242416	1.437370	-0.033878
1220	6.0950e-01	-8.7238	-50.772678	0.001071	10.707051	3.627647	-0.085502
1221	6.1000e-01	-8.7671	-51.002565	0.000576	5.757565	1.950716	-0.045977
1222	6.1050e-01	-8.7960	-51.059028	0.000141	1.414139	0.479123	-0.011293
1223	6.1100e-01	-8.8441	-51.401842	0.000859	8.585843	2.908962	-0.068563
1224	6.1150e-01	-8.8826	-51.422007	0.000051	0.505050	0.171115	-0.004033
1225	6.1200e-01	-8.9211	-51.724490	0.000758	7.575744	2.566731	-0.060496
1226	6.1250e-01	-8.9580	-51.974542	0.000626	6.262615	2.121831	-0.050010
1227	6.1300e-01	-8.9981	-52.232660	0.000646	6.464635	2.190277	-0.051624
1228	6.1350e-01	-9.0463	-52.353653	0.000303	3.030297	1.026693	-0.024199
1229	6.1400e-01	-9.0816	-52.510944	0.000394	3.939387	1.334700	-0.031458
1230	6.1450e-01	-9.1297	-52.769062	0.000646	6.464635	2.190277	-0.051624
1231	6.1500e-01	-9.1682	-53.007015	0.000596	5.959585	2.019162	-0.047591
1232	6.1550e-01	-9.2003	-53.261100	0.000636	6.363625	2.156054	-0.050817
1233	6.1600e-01	-9.2372	-53.422424	0.000404	4.040397	1.368923	-0.032265
1234	6.1650e-01	-9.2885	-53.648278	0.000566	5.656555	1.916493	-0.045171
1235	6.1700e-01	-9.3270	-53.805568	0.000394	3.939387	1.334700	-0.031458
1236	6.1750e-01	-9.3687	-54.011256	0.000515	5.151506	1.745377	-0.041138
1237	6.1800e-01	-9.4056	-54.245176	0.000586	5.858575	1.984939	-0.046784
1238	6.1850e-01	-9.4393	-54.511361	0.000667	6.666654	2.258724	-0.053237
1239	6.1900e-01	-9.4826	-54.507328	-0.000010	-0.101010	-0.034223	0.000807
1240	6.1950e-01	-9.5243	-54.817876	0.000778	7.777763	2.635178	-0.062110
1241	6.2000e-01	-9.5564	-55.128425	0.000778	7.777763	2.635178	-0.062110
1242	6.2050e-01	-9.5965	-55.205054	0.000192	1.919188	0.650239	-0.015326
1243	6.2100e-01	-9.6479	-55.664827	0.001152	11.515130	3.901432	-0.091955
1244	6.2150e-01	-9.6799	-55.676926	0.000030	0.303030	0.102669	-0.002420
1245	6.2200e-01	-9.7297	-55.773721	0.000242	2.424238	0.821354	-0.019359
1246	6.2250e-01	-9.7666	-55.886647	0.000283	2.828278	0.958246	-0.022585
1247	6.2300e-01	-9.7970	-56.197196	0.000778	7.777763	2.635178	-0.062110
1248	6.2350e-01	-9.8468	-56.612605	0.001040	10.404021	3.524978	-0.083082
1249	6.2400e-01	-9.8869	-56.818293	0.000515	5.151506	1.745377	-0.041138
1250	6.2450e-01	-9.9254	-56.911054	0.000232	2.323228	0.787131	-0.018552
1251	6.2500e-01	-9.9543	-57.177239	0.000667	6.666654	2.258724	-0.053237
1252	6.2550e-01	-9.9976	-57.193371	0.000040	0.404040	0.136892	-0.003226
1253	6.2600e-01	-10.0425	-57.463589	0.000677	6.767664	2.292947	-0.054044
1254	6.2650e-01	-10.0778	-57.681376	0.000545	5.454535	1.848047	-0.043557
1255	6.2700e-01	-10.1195	-57.826568	0.000364	3.636357	1.232031	-0.029038
1256	6.2750e-01	-10.1692	-58.028223	0.000505	5.050496	1.711154	-0.040331
1257	6.2800e-01	-10.1981	-58.298440	0.000677	6.767664	2.292947	-0.054044
1258	6.2850e-01	-10.2478	-58.532360	0.000586	5.858575	1.984939	-0.046784
1259	6.2900e-01	-10.2815	-58.802578	0.000677	6.767664	2.292947	-0.054044
1260	6.2950e-01	-10.3200	-59.040530	0.000596	5.959585	2.019162	-0.047591
1261	6.3000e-01	-10.3585	-59.129259	0.000222	2.222218	0.752908	-0.017746
1262	6.3050e-01	-10.3986	-59.375278	0.000616	6.161605	2.087608	-0.049204
1263	6.3100e-01	-10.4387	-59.653561	0.000697	6.969684	2.361393	-0.055657
1264	6.3150e-01	-10.4788	-59.887481	0.000586	5.858575	1.984939	-0.046784
1265	6.3200e-01	-10.5254	-59.919746	0.000081	0.808079	0.273785	-0.006453
1266	6.3250e-01	-10.5639	-60.048805	0.000323	3.232317	1.095139	-0.025812
1267	6.3300e-01	-10.6040	-60.468247	0.001051	10.505031	3.559201	-0.083888
1268	6.3350e-01	-10.6409	-60.577141	0.000273	2.727268	0.924023	-0.021779
1269	6.3400e-01	-10.6810	-60.871557	0.000737	7.373724	2.498285	-0.058883
1270	6.3450e-01	-10.7115	-61.012716	0.000354	3.535347	1.197808	-0.028232
1271	6.3500e-01	-10.7676	-61.101444	0.000222	2.222218	0.752908	-0.017746
1272	6.3550e-01	-10.8045	-61.387794	0.000717	7.171704	2.429839	-0.057270
1273	6.3600e-01	-10.8398	-61.766905	0.000949	9.494932	3.216970	-0.075822
1274	6.3650e-01	-10.8799	-62.012924	0.000616	6.161605	2.087608	-0.049204
1275	6.3700e-01	-10.9280	-62.146016	0.000333	3.333327	1.129362	-0.026618
1276	6.3750e-01	-10.9665	-62.271042	0.000313	3.131307	1.060916	-0.025005
1277	6.3800e-01	-11.0018	-62.359771	0.000222	2.222218	0.752908	-0.017746
1278	6.3850e-01	-11.0500	-62.642087	0.000707	7.070694	2.395616	-0.056463
1279	6.3900e-01	-11.0869	-62.835676	0.000485	4.848476	1.642708	-0.038718
1280	6.3950e-01	-11.1270	-62.811478	-0.000061	-0.606059	-0.205339	0.004840
1281	6.4000e-01	-11.1590	-63.295449	0.001212	12.121190	4.106770	-0.096794
1282	6.4050e-01	-11.2008	-63.698759	0.001010	10.100991	3.422309	-0.080662
1283	6.4100e-01	-11.2409	-63.642296	-0.000141	-1.414139	-0.479123	0.011293
1284	6.4150e-01	-11.2794	-63.904447	0.000657	6.565644	2.224501	-0.052430
1285	6.4200e-01	-11.3195	-64.094003	0.000475	4.747466	1.608485	-0.037911
1286	6.4250e-01	-11.3660	-64.198864	0.000263	2.626258	0.889800	-0.020972
1287	6.4300e-01	-11.4077	-64.340022	0.000354	3.535347	1.197808	-0.028232
1288	6.4350e-01	-11.4382	-64.461015	0.000303	3.030297	1.026693	-0.024199
1289	6.4400e-01	-11.4847	-64.715100	0.000636	6.363625	2.156054	-0.050817
1290	6.4450e-01	-11.5280	-64.904656	0.000475	4.747466	1.608485	-0.037911
1291	6.4500e-01	-11.5585	-65.017583	0.000283	2.828278	0.958246	-0.022585
1292	6.4550e-01	-11.5986	-65.392661	0.000939	9.393922	3.182747	-0.075016
1293	6.4600e-01	-11.6467	-65.509621	0.000293	2.929288	0.992469	-0.023392
1294	6.4650e-01	-11.6916	-65.658845	0.000374	3.737367	1.266254	-0.029845
1295	6.4700e-01	-11.7205	-65.961328	0.000758	7.575744	2.566731	-0.060496
1296	6.4750e-01	-11.7638	-66.223479	0.000657	6.565644	2.224501	-0.052430
1297	6.4800e-01	-11.8023	-66.304141	0.000202	2.020198	0.684462	-0.016132
1298	6.4850e-01	-11.8441	-66.477564	0.000434	4.343426	1.471593	-0.034685
1299	6.4900e-01	-11.8906	-66.767947	0.000727	7.272714	2.464062	-0.058077
1300	6.4950e-01	-11.9211	-66.957503	0.000475	4.747466	1.608485	-0.037911
1301	6.5000e-01	-11.9660	-67.215621	0.000646	6.464635	2.190277	-0.051624
1302	6.5050e-01	-12.0029	-67.413243	0.000495	4.949486	1.676931	-0.039524
1303	6.5100e-01	-12.0510	-67.570534	0.000394	3.939387	1.334700	-0.031458
1304	6.5150e-01	-12.0783	-67.792354	0.000556	5.555545	1.882270	-0.044364
1305	6.5200e-01	-12.1200	-67.998042	0.000515	5.151506	1.745377	-0.041138
1306	6.5250e-01	-12.1537	-68.292459	0.000737	7.373724	2.498285	-0.058883
1307	6.5300e-01	-12.1970	-68.477981	0.000465	4.646456	1.574262	-0.037105
1308	6.5350e-01	-12.2451	-68.611073	0.000333	3.333327	1.129362	-0.026618
1309	6.5400e-01	-12.2868	-68.752232	0.000354	3.535347	1.197808	-0.028232
1310	6.5450e-01	-12.3221	-68.824828	0.000182	1.818178	0.616016	-0.014519
1311	6.5500e-01	-12.3702	-69.042615	0.000545	5.454535	1.848047	-0.043557
1312	6.5550e-01	-12.4039	-69.248303	0.000515	5.151506	1.745377	-0.041138
1313	6.5600e-01	-12.4585	-69.312833	0.000162	1.616159	0.547569	-0.012906
1314	6.5650e-01	-12.4793	-69.462057	0.000374	3.737367	1.266254	-0.029845
1315	6.5700e-01	-12.5226	-69.679845	0.000545	5.454535	1.848047	-0.043557
1316	6.5750e-01	-12.5660	-69.897632	0.000545	5.454535	1.848047	-0.043557
1317	6.5800e-01	-12.5980	-70.123485	0.000566	5.656555	1.916493	-0.045171
1318	6.5850e-01	-12.6381	-70.571159	0.001121	11.212101	3.798762	-0.089535
1319	6.5900e-01	-12.6750	-70.780880	0.000525	5.252516	1.779600	-0.041944
1320	6.5950e-01	-12.7232	-70.756682	-0.000061	-0.606059	-0.205339	0.004840
1321	6.6000e-01	-12.7633	-70.986568	0.000576	5.757565	1.950716	-0.045977
1322	6.6050e-01	-12.7986	-71.212422	0.000566	5.656555	1.916493	-0.045171
1323	6.6100e-01	-12.8403	-71.297117	0.000212	2.121208	0.718685	-0.016939
1324	6.6150e-01	-12.8820	-71.946446	0.001626	16.262596	5.509917	-0.129866
1325	6.6200e-01	-12.9253	-71.894016	-0.000131	-1.313129	-0.444900	0.010486
1326	6.6250e-01	-12.9686	-71.857718	-0.000091	-0.909089	-0.308008	0.007260
1327	6.6300e-01	-12.9959	-72.010976	0.000384	3.838377	1.300477	-0.030652
1328	6.6350e-01	-13.0456	-72.180366	0.000424	4.242416	1.437370	-0.033878
1329	6.6400e-01	-13.0825	-72.470749	0.000727	7.272714	2.464062	-0.058077
1330	6.6450e-01	-13.1210	-72.624007	0.000384	3.838377	1.300477	-0.030652
1331	6.6500e-01	-13.1627	-72.825661	0.000505	5.050496	1.711154	-0.040331
1332	6.6550e-01	-13.2012	-72.825661	-0.000000	-0.000000	-0.000000	0.000000
1333	6.6600e-01	-13.2445	-73.075714	0.000626	6.262615	2.121831	-0.050010
1334	6.6650e-01	-13.2847	-73.333832	0.000646	6.464635	2.190277	-0.051624
1335	6.6700e-01	-13.3167	-73.612116	0.000697	6.969684	2.361393	-0.055657
1336	6.6750e-01	-13.3601	-73.805704	0.000485	4.848476	1.642708	-0.038718
1337	6.6800e-01	-13.4130	-74.011392	0.000515	5.151506	1.745377	-0.041138
1338	6.6850e-01	-13.4435	-74.160617	0.000374	3.737367	1.266254	-0.029845
1339	6.6900e-01	-13.4804	-74.503430	0.000859	8.585843	2.908962	-0.068563
1340	6.6950e-01	-13.5205	-74.672821	0.000424	4.242416	1.437370	-0.033878
1341	6.7000e-01	-13.5622	-74.809946	0.000343	3.434337	1.163585	-0.027425
1342	6.7050e-01	-13.6055	-75.116461	0.000768	7.676754	2.600954	-0.061303
1343	6.7100e-01	-13.6504	-74.983369	-0.000333	-3.333327	-1.129362	0.026618
1344	6.7150e-01	-13.6777	-75.326183	0.000859	8.585843	2.908962	-0.068563
1345	6.7200e-01	-13.7146	-75.548003	0.000556	5.555545	1.882270	-0.044364
1346	6.7250e-01	-13.7723	-75.652864	0.000263	2.626258	0.889800	-0.020972
1347	6.7300e-01	-13.8012	-76.003743	0.000879	8.787863	2.977408	-0.070176
1348	6.7350e-01	-13.8397	-76.112637	0.000273	2.727268	0.924023	-0.021779
1349	6.7400e-01	-13.8830	-76.346557	0.000586	5.858575	1.984939	-0.046784
1350	6.7450e-01	-13.9247	-76.419152	0.000182	1.818178	0.616016	-0.014519
1351	6.7500e-01	-13.9665	-76.649039	0.000576	5.757565	1.950716	-0.045977
1352	6.7550e-01	-13.9985	-76.814396	0.000414	4.141406	1.403147	-0.033071
1353	6.7600e-01	-14.0418	-77.133011	0.000798	7.979783	2.703624	-0.063723
1354	6.7650e-01	-14.0836	-77.233838	0.000253	2.525248	0.855577	-0.020165
1355	6.7700e-01	-14.1205	-77.374997	0.000354	3.535347	1.197808	-0.028232
1356	6.7750e-01	-14.1606	-77.653280	0.000697	6.969684	2.361393	-0.055657
1357	6.7800e-01	-14.1959	-77.733942	0.000202	2.020198	0.684462	-0.016132
1358	6.7850e-01	-14.2408	-77.798472	0.000162	1.616159	0.547569	-0.012906
1359	6.7900e-01	-14.2921	-77.895266	0.000242	2.424238	0.821354	-0.019359
1360	6.7950e-01	-14.3242	-78.173550	0.000697	6.969684	2.361393	-0.055657
1361	6.8000e-01	-14.3659	-78.375205	0.000505	5.050496	1.711154	-0.040331
1362	6.8050e-01	-14.3980	-78.681721	0.000768	7.676754	2.600954	-0.061303
1363	6.8100e-01	-14.4397	-78.899508	0.000545	5.454535	1.848047	-0.043557
1364	6.8150e-01	-14.4718	-79.234255	0.000838	8.383823	2.840516	-0.066949
1365	6.8200e-01	-14.5231	-79.355248	0.000303	3.030297	1.026693	-0.024199
1366	6.8250e-01	-14.5552	-79.492373	0.000343	3.434337	1.163585	-0.027425
1367	6.8300e-01	-14.5953	-79.508506	0.000040	0.404040	0.136892	-0.003226
1368	6.8350e-01	-14.6499	-79.710161	0.000505	5.050496	1.711154	-0.040331
1369	6.8400e-01	-14.6884	-79.907783	0.000495	4.949486	1.676931	-0.039524
1370	6.8450e-01	-14.7285	-80.000544	0.000232	2.323228	0.787131	-0.018552
1371	6.8500e-01	-14.7654	-80.230430	0.000576	5.757565	1.950716	-0.045977
1372	6.8550e-01	-14.8039	-80.403854	0.000434	4.343426	1.471593	-0.034685
1373	6.8600e-01	-14.8440	-80.649873	0.000616	6.161605	2.087608	-0.049204
1374	6.8650e-01	-14.8905	-80.778932	0.000323	3.232317	1.095139	-0.025812
1375	6.8700e-01	-14.9194	-81.049150	0.000677	6.767664	2.292947	-0.054044
1376	6.8750e-01	-14.9691	-81.214507	0.000414	4.141406	1.403147	-0.033071
1377	6.8800e-01	-14.9932	-81.577485	0.000909	9.090892	3.080078	-0.072596
1378	6.8850e-01	-15.0493	-81.577485	-0.000000	-0.000000	-0.000000	0.000000
1379	6.8900e-01	-15.0702	-81.831571	0.000636	6.363625	2.156054	-0.050817
1380	6.8950e-01	-15.1263	-82.017093	0.000465	4.646456	1.574262	-0.037105
1381	6.9000e-01	-15.1632	-82.093722	0.000192	1.919188	0.650239	-0.015326
1382	6.9050e-01	-15.2033	-82.351840	0.000646	6.464635	2.190277	-0.051624
1383	6.9100e-01	-15.2466	-82.525264	0.000434	4.343426	1.471593	-0.034685
1384	6.9150e-01	-15.2755	-82.892276	0.000919	9.191902	3.114301	-0.073402
1385	6.9200e-01	-15.3188	-82.864044	-0.000071	-0.707069	-0.239562	0.005646
1386	6.9250e-01	-15.3621	-83.134261	0.000677	6.767664	2.292947	-0.054044
1387	6.9300e-01	-15.4022	-83.206857	0.000182	1.818178	0.616016	-0.014519
1388	6.9350e-01	-15.4391	-83.283486	0.000192	1.919188	0.650239	-0.015326
1389	6.9400e-01	-15.4873	-83.408512	0.000313	3.131307	1.060916	-0.025005
1390	6.9450e-01	-15.5242	-83.650498	0.000606	6.060595	2.053385	-0.048397
1391	6.9500e-01	-15.5643	-83.900550	0.000626	6.262615	2.121831	-0.050010
1392	6.9550e-01	-15.6060	-84.158669	0.000646	6.464635	2.190277	-0.051624
1393	6.9600e-01	-15.6429	-84.283695	0.000313	3.131307	1.060916	-0.025005
1394	6.9650e-01	-15.6782	-84.457118	0.000434	4.343426	1.471593	-0.034685
1395	6.9700e-01	-15.7279	-84.860428	0.001010	10.100991	3.422309	-0.080662
1396	6.9750e-01	-15.7664	-85.126612	0.000667	6.666654	2.258724	-0.053237
1397	6.9800e-01	-15.8065	-85.154844	0.000071	0.707069	0.239562	-0.005646
1398	6.9850e-01	-15.8514	-85.118546	-0.000091	-0.909089	-0.308008	0.007260
1399	6.9900e-01	-15.8883	-85.425061	0.000768	7.676754	2.600954	-0.061303
1400	6.9950e-01	-15.9172	-85.542021	0.000293	2.929288	0.992469	-0.023392
1401	7.0000e-01	-15.9669	-85.731577	0.000475	4.747466	1.608485	-0.037911
1402	7.0050e-01	-16.0022	-85.812239	0.000202	2.020198	0.684462	-0.016132
1403	7.0100e-01	-16.0391	-86.078423	0.000667	6.666654	2.258724	-0.053237
1404	7.0150e-01	-16.0808	-86.356707	0.000697	6.969684	2.361393	-0.055657
1405	7.0200e-01	-16.1257	-86.711620	0.000889	8.888872	3.011632	-0.070983
1406	7.0250e-01	-16.1626	-86.735819	0.000061	0.606059	0.205339	-0.004840
1407	7.0300e-01	-16.2044	-86.739852	0.000010	0.101010	0.034223	-0.000807
1408	7.0350e-01	-16.2380	-87.090731	0.000879	8.787863	2.977408	-0.070176
1409	7.0400e-01	-16.2846	-87.082665	-0.000020	-0.202020	-0.068446	0.001613
1410	7.0450e-01	-16.3231	-87.494041	0.001030	10.303011	3.490755	-0.082275
1411	7.0500e-01	-16.3632	-87.731994	0.000596	5.959585	2.019162	-0.047591
1412	7.0550e-01	-16.4065	-87.828788	0.000242	2.424238	0.821354	-0.019359
1413	7.0600e-01	-16.4418	-88.103039	0.000687	6.868674	2.327170	-0.054850
1414	7.0650e-01	-16.4835	-88.139337	0.000091	0.909089	0.308008	-0.007260
1415	7.0700e-01	-16.5188	-88.320826	0.000455	4.545446	1.540039	-0.036298
1416	7.0750e-01	-16.5493	-88.679772	0.000899	8.989882	3.045855	-0.071789
1417	7.0800e-01	-16.6006	-88.760434	0.000202	2.020198	0.684462	-0.016132
1418	7.0850e-01	-16.6439	-88.889493	0.000323	3.232317	1.095139	-0.025812
1419	7.0900e-01	-16.6824	-89.147612	0.000646	6.464635	2.190277	-0.051624
1420	7.0950e-01	-16.7289	-89.288770	0.000354	3.535347	1.197808	-0.028232
1421	7.1000e-01	-16.7626	-89.312969	0.000061	0.606059	0.205339	-0.004840
1422	7.1050e-01	-16.8124	-89.675947	0.000909	9.090892	3.080078	-0.072596
1423	7.1100e-01	-16.8444	-89.966331	0.000727	7.272714	2.464062	-0.058077
1424	7.1150e-01	-16.8717	-90.127654	0.000404	4.040397	1.368923	-0.032265
1425	7.1200e-01	-16.9295	-90.095390	-0.000081	-0.808079	-0.273785	0.006453
1426	7.1250e-01	-16.9616	-90.397872	0.000758	7.575744	2.566731	-0.060496
1427	7.1300e-01	-17.0113	-90.563229	0.000414	4.141406	1.403147	-0.033071
1428	7.1350e-01	-17.0402	-90.881844	0.000798	7.979783	2.703624	-0.063723
1429	7.1400e-01	-17.0819	-91.047201	0.000414	4.141406	1.403147	-0.033071
1430	7.1450e-01	-17.1252	-91.394047	0.000869	8.686853	2.943185	-0.069369
1431	7.1500e-01	-17.1589	-91.349683	-0.000111	-1.111109	-0.376454	0.008873
1432	7.1550e-01	-17.2022	-91.406147	0.000141	1.414139	0.479123	-0.011293
1433	7.1600e-01	-17.2439	-91.571504	0.000414	4.141406	1.403147	-0.033071
1434	7.1650e-01	-17.2808	-91.914317	0.000859	8.585843	2.908962	-0.068563
1435	7.1700e-01	-17.3193	-92.144204	0.000576	5.757565	1.950716	-0.045977
1436	7.1750e-01	-17.3610	-92.180502	0.000091	0.909089	0.308008	-0.007260
1437	7.1800e-01	-17.4011	-92.422488	0.000606	6.060595	2.053385	-0.048397
1438	7.1850e-01	-17.4541	-92.656407	0.000586	5.858575	1.984939	-0.046784
1439	7.1900e-01	-17.4845	-92.793533	0.000343	3.434337	1.163585	-0.027425
1440	7.1950e-01	-17.5295	-92.946790	0.000384	3.838377	1.300477	-0.030652
1441	7.2000e-01	-17.5583	-93.297670	0.000879	8.787863	2.977408	-0.070176
1442	7.2050e-01	-17.6097	-93.463027	0.000414	4.141406	1.403147	-0.033071
1443	7.2100e-01	-17.6401	-93.579987	0.000293	2.929288	0.992469	-0.023392
1444	7.2150e-01	-17.6819	-93.757443	0.000444	4.444436	1.505816	-0.035491
1445	7.2200e-01	-17.7252	-93.809873	0.000131	1.313129	0.444900	-0.010486
1446	7.2250e-01	-17.7637	-94.072025	0.000657	6.565644	2.224501	-0.052430
1447	7.2300e-01	-17.8022	-94.322077	0.000626	6.262615	2.121831	-0.050010
1448	7.2350e-01	-17.8407	-94.547931	0.000566	5.656555	1.916493	-0.045171
1449	7.2400e-01	-17.8872	-94.701188	0.000384	3.838377	1.300477	-0.030652
1450	7.2450e-01	-17.9145	-94.963340	0.000657	6.565644	2.224501	-0.052430
1451	7.2500e-01	-17.9626	-95.116597	0.000384	3.838377	1.300477	-0.030652
1452	7.2550e-01	-18.0075	-95.366650	0.000626	6.262615	2.121831	-0.050010
1453	7.2600e-01	-18.0428	-95.536040	0.000424	4.242416	1.437370	-0.033878
1454	7.2650e-01	-18.0813	-95.834489	0.000747	7.474734	2.532508	-0.059690
1455	7.2700e-01	-18.1182	-95.919184	0.000212	2.121208	0.718685	-0.016939
1456	7.2750e-01	-18.1695	-96.044210	0.000313	3.131307	1.060916	-0.025005
1457	7.2800e-01	-18.2016	-96.209567	0.000414	4.141406	1.403147	-0.033071
1458	7.2850e-01	-18.2417	-96.435421	0.000566	5.656555	1.916493	-0.045171
1459	7.2900e-01	-18.2899	-96.665307	0.000576	5.757565	1.950716	-0.045977
1460	7.2950e-01	-18.3300	-96.915359	0.000626	6.262615	2.121831	-0.050010
1461	7.3000e-01	-18.3572	-97.068617	0.000384	3.838377	1.300477	-0.030652
1462	7.3050e-01	-18.4022	-97.185577	0.000293	2.929288	0.992469	-0.023392
1463	7.3100e-01	-18.4423	-97.338835	0.000384	3.838377	1.300477	-0.030652
1464	7.3150e-01	-18.4792	-97.721979	0.000960	9.595942	3.251193	-0.076629
1465	7.3200e-01	-18.5193	-97.875237	0.000384	3.838377	1.300477	-0.030652
1466	7.3250e-01	-18.5690	-98.072859	0.000495	4.949486	1.676931	-0.039524
1467	7.3300e-01	-18.6059	-98.306778	0.000586	5.858575	1.984939	-0.046784
1468	7.3350e-01	-18.6524	-98.439871	0.000333	3.333327	1.129362	-0.026618
1469	7.3400e-01	-18.6813	-98.621360	0.000455	4.545446	1.540039	-0.036298
1470	7.3450e-01	-18.7182	-98.895611	0.000687	6.868674	2.327170	-0.054850
1471	7.3500e-01	-18.7599	-99.060968	0.000414	4.141406	1.403147	-0.033071
1472	7.3550e-01	-18.7984	-99.165828	0.000263	2.626258	0.889800	-0.020972
1473	7.3600e-01	-18.8465	-99.181961	0.000040	0.404040	0.136892	-0.003226
1474	7.3650e-01	-18.8818	-99.565105	0.000960	9.595942	3.251193	-0.076629
1475	7.3700e-01	-18.9267	-99.807091	0.000606	6.060595	2.053385	-0.048397
1476	7.3750e-01	-18.9604	-100.020845	0.000535	5.353525	1.813824	-0.042751
1477	7.3800e-01	-18.9925	-100.270897	0.000626	6.262615	2.121831	-0.050010
1478	7.3850e-01	-19.0390	-100.428188	0.000394	3.939387	1.334700	-0.031458
1479	7.3900e-01	-19.0872	-100.678240	0.000626	6.262615	2.121831	-0.050010
1480	7.3950e-01	-19.1273	-100.666141	-0.000030	-0.303030	-0.102669	0.002420
1481	7.4000e-01	-19.1626	-100.956524	0.000727	7.272714	2.464062	-0.058077
1482	7.4050e-01	-19.2139	-101.146080	0.000475	4.747466	1.608485	-0.037911
1483	7.4100e-01	-19.2412	-101.396132	0.000626	6.262615	2.121831	-0.050010
1484	7.4150e-01	-19.2813	-101.533257	0.000343	3.434337	1.163585	-0.027425
1485	7.4200e-01	-19.3230	-101.847839	0.000788	7.878773	2.669401	-0.062916
1486	7.4250e-01	-19.3583	-101.972865	0.000313	3.131307	1.060916	-0.025005
1487	7.4300e-01	-19.4048	-102.085792	0.000283	2.828278	0.958246	-0.022585
1488	7.4350e-01	-19.4321	-102.170487	0.000212	2.121208	0.718685	-0.016939
1489	7.4400e-01	-19.4786	-102.517333	0.000869	8.686853	2.943185	-0.069369
1490	7.4450e-01	-19.5203	-102.839981	0.000808	8.080793	2.737847	-0.064530
1491	7.4500e-01	-19.5604	-103.029537	0.000475	4.747466	1.608485	-0.037911
1492	7.4550e-01	-19.6005	-103.162629	0.000333	3.333327	1.129362	-0.026618
1493	7.4600e-01	-19.6406	-103.291688	0.000323	3.232317	1.095139	-0.025812
1494	7.4650e-01	-19.6775	-103.448979	0.000394	3.939387	1.334700	-0.031458
1495	7.4700e-01	-19.7160	-103.876488	0.001071	10.707051	3.627647	-0.085502
1496	7.4750e-01	-19.7561	-104.078143	0.000505	5.050496	1.711154	-0.040331
1497	7.4800e-01	-19.7930	-104.106374	0.000071	0.707069	0.239562	-0.005646
1498	7.4850e-01	-19.8363	-104.376592	0.000677	6.767664	2.292947	-0.054044
1499	7.4900e-01	-19.8748	-104.638743	0.000657	6.565644	2.224501	-0.052430
1500	7.4950e-01	-19.9198	-104.808133	0.000424	4.242416	1.437370	-0.033878
1501	7.5000e-01	-19.9599	-104.985590	0.000444	4.444436	1.505816	-0.035491
1502	7.5050e-01	-19.9615	-105.138847	0.000384	3.838377	1.300477	-0.030652
1503	7.5100e-01	-19.9438	-104.892828	0.000616	6.161605	2.087608	0.049204
1504	7.5150e-01	-19.9005	-104.824266	0.000172	1.717169	0.581792	0.013713
1505	7.5200e-01	-19.8668	-104.719405	0.000263	2.626258	0.889800	0.020972
1506	7.5250e-01	-19.8315	-104.792001	-0.000182	-1.818178	-0.616016	-0.014519
1507	7.5300e-01	-19.7978	-104.634710	0.000394	3.939387	1.334700	0.031458
1508	7.5350e-01	-19.7481	-104.408857	0.000566	5.656555	1.916493	0.045171
1509	7.5400e-01	-19.7048	-104.441121	-0.000081	-0.808079	-0.273785	-0.006453
1510	7.5450e-01	-19.6631	-104.400790	0.000101	1.010099	0.342231	0.008066
1511	7.5500e-01	-19.6310	-104.279797	0.000303	3.030297	1.026693	0.024199
1512	7.5550e-01	-19.5797	-104.187036	0.000232	2.323228	0.787131	0.018552
1513	7.5600e-01	-19.5476	-104.106374	0.000202	2.020198	0.684462	0.016132
1514	7.5650e-01	-19.5075	-103.908752	0.000495	4.949486	1.676931	0.039524
1515	7.5700e-01	-19.4658	-103.775660	0.000333	3.333327	1.129362	0.026618
1516	7.5750e-01	-19.4257	-103.509476	0.000667	6.666654	2.258724	0.053237
1517	7.5800e-01	-19.3823	-103.731296	-0.000556	-5.555545	-1.882270	-0.044364
1518	7.5850e-01	-19.3470	-103.323953	0.001020	10.202001	3.456532	0.081469
1519	7.5900e-01	-19.2973	-103.364284	-0.000101	-1.010099	-0.342231	-0.008066
1520	7.5950e-01	-19.2733	-103.186828	0.000444	4.444436	1.505816	0.035491
1521	7.6000e-01	-19.2331	-103.150530	0.000091	0.909089	0.308008	0.007260
1522	7.6050e-01	-19.1930	-102.936776	0.000535	5.353525	1.813824	0.042751
1523	7.6100e-01	-19.1417	-102.775452	0.000404	4.040397	1.368923	0.032265
1524	7.6150e-01	-19.1096	-102.493135	0.000707	7.070694	2.395616	0.056463
1525	7.6200e-01	-19.0679	-102.368109	0.000313	3.131307	1.060916	0.025005
1526	7.6250e-01	-19.0310	-102.343910	0.000061	0.606059	0.205339	0.004840
1527	7.6300e-01	-18.9829	-102.331811	0.000030	0.303030	0.102669	0.002420
1528	7.6350e-01	-18.9492	-102.097891	0.000586	5.858575	1.984939	0.046784
1529	7.6400e-01	-18.9091	-102.263248	-0.000414	-4.141406	-1.403147	-0.033071
1530	7.6450e-01	-18.8642	-101.892203	0.000929	9.292912	3.148524	0.074209
1531	7.6500e-01	-18.8369	-101.823640	0.000172	1.717169	0.581792	0.013713
1532	7.6550e-01	-18.7936	-101.734912	0.000222	2.222218	0.752908	0.017746
1533	7.6600e-01	-18.7503	-101.517125	0.000545	5.454535	1.848047	0.043557
1534	7.6650e-01	-18.7134	-101.355801	0.000404	4.040397	1.368923	0.032265
1535	7.6700e-01	-18.6701	-101.174312	0.000455	4.545446	1.540039	0.036298
1536	7.6750e-01	-18.6316	-101.008954	0.000414	4.141406	1.403147	0.033071
1537	7.6800e-01	-18.5915	-101.053319	-0.000111	-1.111109	-0.376454	-0.008873
1538	7.6850e-01	-18.5513	-100.896028	0.000394	3.939387	1.334700	0.031458
1539	7.6900e-01	-18.5080	-100.520950	0.000939	9.393922	3.182747	0.075016
1540	7.6950e-01	-18.4711	-100.516916	0.000010	0.101010	0.034223	0.000807
1541	7.7000e-01	-18.4262	-100.254765	0.000657	6.565644	2.224501	0.052430
1542	7.7050e-01	-18.3845	-100.206368	0.000121	1.212119	0.410677	0.009679
1543	7.7100e-01	-18.3412	-100.137805	0.000172	1.717169	0.581792	0.013713
1544	7.7150e-01	-18.3123	-100.053110	0.000212	2.121208	0.718685	0.016939
1545	7.7200e-01	-18.2642	-99.936150	0.000293	2.929288	0.992469	0.023392
1546	7.7250e-01	-18.2289	-99.577204	0.000899	8.989882	3.045855	0.071789
1547	7.7300e-01	-18.1808	-99.577204	0.000000	0.000000	0.000000	0.000000
1548	7.7350e-01	-18.1487	-99.266656	0.000778	7.777763	2.635178	0.062110
1549	7.7400e-01	-18.1070	-99.157762	0.000273	2.727268	0.924023	0.021779
1550	7.7450e-01	-18.0733	-99.028703	0.000323	3.232317	1.095139	0.025812
1551	7.7500e-01	-18.0332	-98.899644	0.000323	3.232317	1.095139	0.025812
1552	7.7550e-01	-17.9963	-98.750419	0.000374	3.737367	1.266254	0.029845
1553	7.7600e-01	-17.9417	-98.774618	-0.000061	-0.606059	-0.205339	-0.004840
1554	7.7650e-01	-17.9081	-98.734287	0.000101	1.010099	0.342231	0.008066
1555	7.7700e-01	-17.8695	-98.403573	0.000828	8.282813	2.806293	0.066143
1556	7.7750e-01	-17.8278	-98.097057	0.000768	7.676754	2.600954	0.061303
1557	7.7800e-01	-17.7893	-98.076892	0.000051	0.505050	0.171115	0.004033
1558	7.7850e-01	-17.7444	-97.931700	0.000364	3.636357	1.232031	0.029038
1559	7.7900e-01	-17.7123	-97.717946	0.000535	5.353525	1.813824	0.042751
1560	7.7950e-01	-17.6674	-97.435629	0.000707	7.070694	2.395616	0.056463
1561	7.8000e-01	-17.6273	-97.302537	0.000333	3.333327	1.129362	0.026618
1562	7.8050e-01	-17.5920	-97.213809	0.000222	2.222218	0.752908	0.017746
1563	7.8100e-01	-17.5439	-97.310603	-0.000242	-2.424238	-0.821354	-0.019359
1564	7.8150e-01	-17.5054	-96.975856	0.000838	8.383823	2.840516	0.066949
1565	7.8200e-01	-17.4685	-96.834697	0.000354	3.535347	1.197808	0.028232
1566	7.8250e-01	-17.4284	-96.705638	0.000323	3.232317	1.095139	0.025812
1567	7.8300e-01	-17.3899	-96.665307	0.000101	1.010099	0.342231	0.008066
1568	7.8350e-01	-17.3450	-96.616910	0.000121	1.212119	0.410677	0.009679
1569	7.8400e-01	-17.3081	-96.395090	0.000556	5.555545	1.882270	0.044364
1570	7.8450e-01	-17.2696	-96.149071	0.000616	6.161605	2.087608	0.049204
1571	7.8500e-01	-17.2359	-95.915151	0.000586	5.858575	1.984939	0.046784
1572	7.8550e-01	-17.1926	-95.842555	0.000182	1.818178	0.616016	0.014519
1573	7.8600e-01	-17.1412	-95.769959	0.000182	1.818178	0.616016	0.014519
1574	7.8650e-01	-17.1027	-95.588470	0.000455	4.545446	1.540039	0.036298
1575	7.8700e-01	-17.0642	-95.362616	0.000566	5.656555	1.916493	0.045171
1576	7.8750e-01	-17.0321	-95.092399	0.000677	6.767664	2.292947	0.054044
1577	7.8800e-01	-16.9840	-95.100465	-0.000020	-0.202020	-0.068446	-0.001613
1578	7.8850e-01	-16.9455	-95.011737	0.000222	2.222218	0.752908	0.017746
1579	7.8900e-01	-16.9054	-94.890744	0.000303	3.030297	1.026693	0.024199
1580	7.8950e-01	-16.8733	-94.612460	0.000697	6.969684	2.361393	0.055657
1581	7.9000e-01	-16.8204	-94.479368	0.000333	3.333327	1.129362	0.026618
1582	7.9050e-01	-16.7835	-94.382573	0.000242	2.424238	0.821354	0.019359
1583	7.9100e-01	-16.7498	-94.378540	0.000010	0.101010	0.034223	0.000807
1584	7.9150e-01	-16.6969	-93.938933	0.001101	11.010081	3.730316	0.087922
1585	7.9200e-01	-16.6680	-93.805840	0.000333	3.333327	1.129362	0.026618
1586	7.9250e-01	-16.6231	-93.733245	0.000182	1.818178	0.616016	0.014519
1587	7.9300e-01	-16.5830	-93.543689	0.000475	4.747466	1.608485	0.037911
1588	7.9350e-01	-16.5461	-93.575954	-0.000081	-0.808079	-0.273785	-0.006453
1589	7.9400e-01	-16.5027	-93.160545	0.001040	10.404021	3.524978	0.083082
1590	7.9450e-01	-16.4707	-93.128280	0.000081	0.808079	0.273785	0.006453
1591	7.9500e-01	-16.4257	-92.914526	0.000535	5.353525	1.813824	0.042751
1592	7.9550e-01	-16.3904	-92.664473	0.000626	6.262615	2.121831	0.050010
1593	7.9600e-01	-16.3535	-92.700771	-0.000091	-0.909089	-0.308008	-0.007260
1594	7.9650e-01	-16.3006	-92.583812	0.000293	2.929288	0.992469	0.023392
1595	7.9700e-01	-16.2669	-92.442653	0.000354	3.535347	1.197808	0.028232
1596	7.9750e-01	-16.2380	-92.047409	0.000990	9.898972	3.353862	0.079049
1597	7.9800e-01	-16.1931	-91.942549	0.000263	2.626258	0.889800	0.020972
1598	7.9850e-01	-16.1466	-91.853821	0.000222	2.222218	0.752908	0.017746
1599	7.9900e-01	-16.1129	-91.765092	0.000222	2.222218	0.752908	0.017746
1600	7.9950e-01	-16.0616	-91.769126	-0.000010	-0.101010	-0.034223	-0.000807
1601	8.0000e-01	-16.0327	-91.744927	0.000061	0.606059	0.205339	0.004840
1602	8.0050e-01	-15.9878	-91.240790	0.001263	12.626239	4.277886	0.100827
1603	8.0100e-01	-15.9493	-91.252889	-0.000030	-0.303030	-0.102669	-0.002420
1604	8.0150e-01	-15.9092	-91.099631	0.000384	3.838377	1.300477	0.030652
1605	8.0200e-01	-15.8659	-90.797149	0.000758	7.575744	2.566731	0.060496
1606	8.0250e-01	-15.8354	-90.712454	0.000212	2.121208	0.718685	0.016939
1607	8.0300e-01	-15.7921	-90.365607	0.000869	8.686853	2.943185	0.069369
1608	8.0350e-01	-15.7536	-90.204283	0.000404	4.040397	1.368923	0.032265
1609	8.0400e-01	-15.7103	-90.167985	0.000091	0.909089	0.308008	0.007260
1610	8.0450e-01	-15.6669	-89.869536	0.000747	7.474734	2.532508	0.059690
1611	8.0500e-01	-15.6268	-89.756609	0.000283	2.828278	0.958246	0.022585
1612	8.0550e-01	-15.5803	-89.607385	0.000374	3.737367	1.266254	0.029845
1613	8.0600e-01	-15.5498	-89.538822	0.000172	1.717169	0.581792	0.013713
1614	8.0650e-01	-15.5065	-89.345233	0.000485	4.848476	1.642708	0.038718
1615	8.0700e-01	-15.4680	-89.216174	0.000323	3.232317	1.095139	0.025812
1616	8.0750e-01	-15.4231	-89.196009	0.000051	0.505050	0.171115	0.004033
1617	8.0800e-01	-15.3878	-88.889493	0.000768	7.676754	2.600954	0.061303
1618	8.0850e-01	-15.3477	-88.691871	0.000495	4.949486	1.676931	0.039524
1619	8.0900e-01	-15.3012	-88.445852	0.000616	6.161605	2.087608	0.049204
1620	8.0950e-01	-15.2675	-88.401488	0.000111	1.111109	0.376454	0.008873
1621	8.1000e-01	-15.2274	-88.224032	0.000444	4.444436	1.505816	0.035491
1622	8.1050e-01	-15.1825	-88.155469	0.000172	1.717169	0.581792	0.013713
1623	8.1100e-01	-15.1440	-88.135304	0.000051	0.505050	0.171115	0.004033
1624	8.1150e-01	-15.1183	-87.820722	0.000788	7.878773	2.669401	0.062916
1625	8.1200e-01	-15.0718	-87.631166	0.000475	4.747466	1.608485	0.037911
1626	8.1250e-01	-15.0301	-87.409346	0.000556	5.555545	1.882270	0.044364
1627	8.1300e-01	-14.9835	-87.397247	0.000030	0.303030	0.102669	0.002420
1628	8.1350e-01	-14.9450	-87.102831	0.000737	7.373724	2.498285	0.058883
1629	8.1400e-01	-14.9097	-86.816481	0.000717	7.171704	2.429839	0.057270
1630	8.1450e-01	-14.8584	-86.796315	0.000051	0.505050	0.171115	0.004033
1631	8.1500e-01	-14.8295	-86.570461	0.000566	5.656555	1.916493	0.045171
1632	8.1550e-01	-14.7942	-86.332509	0.000596	5.959585	2.019162	0.047591
1633	8.1600e-01	-14.7493	-86.453502	-0.000303	-3.030297	-1.026693	-0.024199
1634	8.1650e-01	-14.7028	-86.259913	0.000485	4.848476	1.642708	0.038718
1635	8.1700e-01	-14.6675	-86.094556	0.000414	4.141406	1.403147	0.033071
1636	8.1750e-01	-14.6274	-85.993728	0.000253	2.525248	0.855577	0.020165
1637	8.1800e-01	-14.5873	-85.800140	0.000485	4.848476	1.642708	0.038718
1638	8.1850e-01	-14.5440	-85.554121	0.000616	6.161605	2.087608	0.049204
1639	8.1900e-01	-14.5135	-85.441194	0.000283	2.828278	0.958246	0.022585
1640	8.1950e-01	-14.4654	-85.150811	0.000727	7.272714	2.464062	0.058077
1641	8.2000e-01	-14.4301	-85.049983	0.000253	2.525248	0.855577	0.020165
1642	8.2050e-01	-14.3884	-84.912858	0.000343	3.434337	1.163585	0.027425
1643	8.2100e-01	-14.3450	-84.513581	0.001000	9.999982	3.388085	0.079855
1644	8.2150e-01	-14.3098	-84.388555	0.000313	3.131307	1.060916	0.025005
1645	8.2200e-01	-14.2664	-84.243364	0.000364	3.636357	1.232031	0.029038
1646	8.2250e-01	-14.2215	-84.041709	0.000505	5.050496	1.711154	0.040331
1647	8.2300e-01	-14.1878	-83.965080	0.000192	1.919188	0.650239	0.015326
1648	8.2350e-01	-14.1493	-83.581935	0.000960	9.595942	3.251193	0.076629
1649	8.2400e-01	-14.1140	-83.585969	-0.000010	-0.101010	-0.034223	-0.000807
1650	8.2450e-01	-14.0659	-83.553704	0.000081	0.808079	0.273785	0.006453
1651	8.2500e-01	-14.0274	-83.319784	0.000586	5.858575	1.984939	0.046784
1652	8.2550e-01	-13.9921	-83.299619	0.000051	0.505050	0.171115	0.004033
1653	8.2600e-01	-13.9472	-82.960838	0.000848	8.484833	2.874739	0.067756
1654	8.2650e-01	-13.9103	-82.843878	0.000293	2.929288	0.992469	0.023392
1655	8.2700e-01	-13.8654	-82.718852	0.000313	3.131307	1.060916	0.025005
1656	8.2750e-01	-13.8365	-82.553495	0.000414	4.141406	1.403147	0.033071
1657	8.2800e-01	-13.7820	-82.388138	0.000414	4.141406	1.403147	0.033071
1658	8.2850e-01	-13.7451	-82.242947	0.000364	3.636357	1.232031	0.029038
1659	8.2900e-01	-13.7050	-82.190516	0.000131	1.313129	0.444900	0.010486
1660	8.2950e-01	-13.6713	-82.093722	0.000242	2.424238	0.821354	0.019359
1661	8.3000e-01	-13.6264	-81.779140	0.000788	7.878773	2.669401	0.062916
1662	8.3050e-01	-13.5895	-81.617816	0.000404	4.040397	1.368923	0.032265
1663	8.3100e-01	-13.5477	-81.319367	0.000747	7.474734	2.532508	0.059690
1664	8.3150e-01	-13.4964	-81.117712	0.000505	5.050496	1.711154	0.040331
1665	8.3200e-01	-13.4691	-80.956388	0.000404	4.040397	1.368923	0.032265
1666	8.3250e-01	-13.4290	-80.831362	0.000313	3.131307	1.060916	0.025005
1667	8.3300e-01	-13.3873	-80.803130	0.000071	0.707069	0.239562	0.005646
1668	8.3350e-01	-13.3488	-80.355457	0.001121	11.212101	3.798762	0.089535
1669	8.3400e-01	-13.3071	-80.210265	0.000364	3.636357	1.232031	0.029038
1670	8.3450e-01	-13.2606	-80.141702	0.000172	1.717169	0.581792	0.013713
1671	8.3500e-01	-13.2285	-79.875518	0.000667	6.666654	2.258724	0.053237
1672	8.3550e-01	-13.1884	-79.746459	0.000323	3.232317	1.095139	0.025812
1673	8.3600e-01	-13.1435	-79.827121	-0.000202	-2.020198	-0.684462	-0.016132
1674	8.3650e-01	-13.1066	-79.419778	0.001020	10.202001	3.456532	0.081469
1675	8.3700e-01	-13.0617	-79.355248	0.000162	1.616159	0.547569	0.012906
1676	8.3750e-01	-13.0232	-79.298785	0.000141	1.414139	0.479123	0.011293
1677	8.3800e-01	-12.9863	-78.955971	0.000859	8.585843	2.908962	0.068563
1678	8.3850e-01	-12.9462	-78.798680	0.000394	3.939387	1.334700	0.031458
1679	8.3900e-01	-12.9028	-78.334874	0.001162	11.616140	3.935655	0.092761
1680	8.3950e-01	-12.8595	-78.242113	0.000232	2.323228	0.787131	0.018552
1681	8.4000e-01	-12.8226	-78.230014	0.000030	0.303030	0.102669	0.002420
1682	8.4050e-01	-12.7873	-78.088855	0.000354	3.535347	1.197808	0.028232
1683	8.4100e-01	-12.7408	-77.975928	0.000283	2.828278	0.958246	0.022585
1684	8.4150e-01	-12.7071	-77.649247	0.000818	8.181803	2.772070	0.065336
1685	8.4200e-01	-12.6622	-77.641181	0.000020	0.202020	0.068446	0.001613
1686	8.4250e-01	-12.6333	-77.342732	0.000747	7.474734	2.532508	0.059690
1687	8.4300e-01	-12.5916	-77.173342	0.000424	4.242416	1.437370	0.033878
1688	8.4350e-01	-12.5467	-76.927323	0.000616	6.161605	2.087608	0.049204
1689	8.4400e-01	-12.5130	-76.786164	0.000354	3.535347	1.197808	0.028232
1690	8.4450e-01	-12.4745	-76.540145	0.000616	6.161605	2.087608	0.049204
1691	8.4500e-01	-12.4280	-76.507880	0.000081	0.808079	0.273785	0.006453
1692	8.4550e-01	-12.3895	-76.398987	0.000273	2.727268	0.924023	0.021779
1693	8.4600e-01	-12.3366	-76.116670	0.000707	7.070694	2.395616	0.056463
1694	8.4650e-01	-12.3141	-75.886783	0.000576	5.757565	1.950716	0.045977
1695	8.4700e-01	-12.2660	-75.806121	0.000202	2.020198	0.684462	0.016132
1696	8.4750e-01	-12.2339	-75.564135	0.000606	6.060595	2.053385	0.048397
1697	8.4800e-01	-12.1922	-75.439109	0.000313	3.131307	1.060916	0.025005
1698	8.4850e-01	-12.1521	-75.350381	0.000222	2.222218	0.752908	0.017746
1699	8.4900e-01	-12.1007	-75.197123	0.000384	3.838377	1.300477	0.030652
1700	8.4950e-01	-12.0606	-74.983369	0.000535	5.353525	1.813824	0.042751
1701	8.5000e-01	-12.0285	-74.801880	0.000455	4.545446	1.540039	0.036298
1702	8.5050e-01	-11.9836	-74.672821	0.000323	3.232317	1.095139	0.025812
1703	8.5100e-01	-11.9483	-74.451000	0.000556	5.555545	1.882270	0.044364
1704	8.5150e-01	-11.9098	-74.221114	0.000576	5.757565	1.950716	0.045977
1705	8.5200e-01	-11.8729	-73.991227	0.000576	5.757565	1.950716	0.045977
1706	8.5250e-01	-11.8280	-73.797638	0.000485	4.848476	1.642708	0.038718
1707	8.5300e-01	-11.7831	-73.737142	0.000152	1.515149	0.513346	0.012099
1708	8.5350e-01	-11.7446	-73.668579	0.000172	1.717169	0.581792	0.013713
1709	8.5400e-01	-11.7109	-73.414494	0.000636	6.363625	2.156054	0.050817
1710	8.5450e-01	-11.6724	-73.265269	0.000374	3.737367	1.266254	0.029845
1711	8.5500e-01	-11.6227	-73.019250	0.000616	6.161605	2.087608	0.049204
1712	8.5550e-01	-11.5826	-72.777264	0.000606	6.060595	2.053385	0.048397
1713	8.5600e-01	-11.5457	-72.704669	0.000182	1.818178	0.616016	0.014519
1714	8.5650e-01	-11.5120	-72.515113	0.000475	4.747466	1.608485	0.037911
1715	8.5700e-01	-11.4751	-72.301359	0.000535	5.353525	1.813824	0.042751
1716	8.5750e-01	-11.4286	-72.010976	0.000727	7.272714	2.464062	0.058077
1717	8.5800e-01	-11.3884	-71.724626	0.000717	7.171704	2.429839	0.057270
1718	8.5850e-01	-11.3467	-71.716559	0.000020	0.202020	0.068446	0.001613
1719	8.5900e-01	-11.3050	-71.676228	0.000101	1.010099	0.342231	0.008066
1720	8.5950e-01	-11.2745	-71.305183	0.000929	9.292912	3.148524	0.074209
1721	8.6000e-01	-11.2312	-71.212422	0.000232	2.323228	0.787131	0.018552
1722	8.6050e-01	-11.1879	-70.966403	0.000616	6.161605	2.087608	0.049204
1723	8.6100e-01	-11.1526	-70.760715	0.000515	5.151506	1.745377	0.041138
1724	8.6150e-01	-11.1093	-70.619557	0.000354	3.535347	1.197808	0.028232
1725	8.6200e-01	-11.0708	-70.506630	0.000283	2.828278	0.958246	0.022585
1726	8.6250e-01	-11.0195	-70.349339	0.000394	3.939387	1.334700	0.031458
1727	8.6300e-01	-10.9826	-70.228346	0.000303	3.030297	1.026693	0.024199
1728	8.6350e-01	-10.9521	-70.002492	0.000566	5.656555	1.916493	0.045171
1729	8.6400e-01	-10.9152	-69.667745	0.000838	8.383823	2.840516	0.066949
1730	8.6450e-01	-10.8655	-69.288634	0.000949	9.494932	3.216970	0.075822
1731	8.6500e-01	-10.8382	-69.256369	0.000081	0.808079	0.273785	0.006453
1732	8.6550e-01	-10.7756	-69.006317	0.000626	6.262615	2.121831	0.050010
1733	8.6600e-01	-10.7468	-69.034549	-0.000071	-0.707069	-0.239562	-0.005646
1734	8.6650e-01	-10.7066	-68.804662	0.000576	5.757565	1.950716	0.045977
1735	8.6700e-01	-10.6746	-68.691735	0.000283	2.828278	0.958246	0.022585
1736	8.6750e-01	-10.6280	-68.389253	0.000758	7.575744	2.566731	0.060496
1737	8.6800e-01	-10.5847	-68.167433	0.000556	5.555545	1.882270	0.044364
1738	8.6850e-01	-10.5510	-67.957711	0.000525	5.252516	1.779600	0.041944
1739	8.6900e-01	-10.5109	-67.796388	0.000404	4.040397	1.368923	0.032265
1740	8.6950e-01	-10.4756	-67.659262	0.000343	3.434337	1.163585	0.027425
1741	8.7000e-01	-10.4323	-67.546335	0.000283	2.828278	0.958246	0.022585
1742	8.7050e-01	-10.3826	-67.409210	0.000343	3.434337	1.163585	0.027425
1743	8.7100e-01	-10.3473	-67.215621	0.000485	4.848476	1.642708	0.038718
1744	8.7150e-01	-10.3024	-66.844576	0.000929	9.292912	3.148524	0.074209
1745	8.7200e-01	-10.2767	-66.703418	0.000354	3.535347	1.197808	0.028232
1746	8.7250e-01	-10.2286	-66.497730	0.000515	5.151506	1.745377	0.041138
1747	8.7300e-01	-10.1853	-66.207347	0.000727	7.272714	2.464062	0.058077
1748	8.7350e-01	-10.1436	-66.203314	0.000010	0.101010	0.034223	0.000807
1749	8.7400e-01	-10.1147	-65.808070	0.000990	9.898972	3.353862	0.079049
1750	8.7450e-01	-10.0762	-65.856467	-0.000121	-1.212119	-0.410677	-0.009679
1751	8.7500e-01	-10.0216	-65.662878	0.000485	4.848476	1.642708	0.038718
1752	8.7550e-01	-9.9863	-65.525753	0.000343	3.434337	1.163585	0.027425
1753	8.7600e-01	-9.9478	-65.251502	0.000687	6.868674	2.327170	0.054850
1754	8.7650e-01	-9.9045	-65.025649	0.000566	5.656555	1.916493	0.045171
1755	8.7700e-01	-9.8757	-64.779630	0.000616	6.161605	2.087608	0.049204
1756	8.7750e-01	-9.8291	-64.690902	0.000222	2.222218	0.752908	0.017746
1757	8.7800e-01	-9.7842	-64.694935	-0.000010	-0.101010	-0.034223	-0.000807
1758	8.7850e-01	-9.7505	-64.307757	0.000970	9.696952	3.285416	0.077435
1759	8.7900e-01	-9.7168	-64.150466	0.000394	3.939387	1.334700	0.031458
1760	8.7950e-01	-9.6655	-63.767322	0.000960	9.595942	3.251193	0.076629
1761	8.8000e-01	-9.6270	-63.743123	0.000061	0.606059	0.205339	0.004840
1762	8.8050e-01	-9.5869	-63.577766	0.000414	4.141406	1.403147	0.033071
1763	8.8100e-01	-9.5516	-63.263185	0.000788	7.878773	2.669401	0.062916
1764	8.8150e-01	-9.5051	-63.130092	0.000333	3.333327	1.129362	0.026618
1765	8.8200e-01	-9.4730	-62.952636	0.000444	4.444436	1.505816	0.035491
1766	8.8250e-01	-9.4233	-62.807445	0.000364	3.636357	1.232031	0.029038
1767	8.8300e-01	-9.3816	-62.605790	0.000505	5.050496	1.711154	0.040331
1768	8.8350e-01	-9.3447	-62.404135	0.000505	5.050496	1.711154	0.040331
1769	8.8400e-01	-9.3094	-62.230711	0.000434	4.343426	1.471593	0.034685
1770	8.8450e-01	-9.2709	-61.964527	0.000667	6.666654	2.258724	0.053237
1771	8.8500e-01	-9.2211	-61.670111	0.000737	7.373724	2.498285	0.058883
1772	8.8550e-01	-9.1842	-61.633813	0.000091	0.909089	0.308008	0.007260
1773	8.8600e-01	-9.1473	-61.496687	0.000343	3.434337	1.163585	0.027425
1774	8.8650e-01	-9.1088	-61.323264	0.000434	4.343426	1.471593	0.034685
1775	8.8700e-01	-9.0703	-60.948186	0.000939	9.393922	3.182747	0.075016
1776	8.8750e-01	-9.0334	-60.661836	0.000717	7.171704	2.429839	0.057270
1777	8.8800e-01	-8.9853	-60.649737	0.000030	0.303030	0.102669	0.002420
1778	8.8850e-01	-8.9452	-60.375486	0.000687	6.868674	2.327170	0.054850
1779	8.8900e-01	-8.9099	-60.068971	0.000768	7.676754	2.600954	0.061303
1780	8.8950e-01	-8.8682	-59.992342	0.000192	1.919188	0.650239	0.015326
1781	8.9000e-01	-8.8233	-59.826985	0.000414	4.141406	1.403147	0.033071
1782	8.9050e-01	-8.7848	-59.605164	0.000556	5.555545	1.882270	0.044364
1783	8.9100e-01	-8.7511	-59.580966	0.000061	0.606059	0.205339	0.004840
1784	8.9150e-01	-8.7014	-59.258318	0.000808	8.080793	2.737847	0.064530
1785	8.9200e-01	-8.6661	-59.113126	0.000364	3.636357	1.232031	0.029038
1786	8.9250e-01	-8.6292	-58.919537	0.000485	4.848476	1.642708	0.038718
1787	8.9300e-01	-8.5907	-58.770313	0.000374	3.737367	1.266254	0.029845
1788	8.9350e-01	-8.5457	-58.447665	0.000808	8.080793	2.737847	0.064530
1789	8.9400e-01	-8.4976	-58.270209	0.000444	4.444436	1.505816	0.035491
1790	8.9450e-01	-8.4720	-58.116951	0.000384	3.838377	1.300477	0.030652
1791	8.9500e-01	-8.4206	-57.883031	0.000586	5.858575	1.984939	0.046784
1792	8.9550e-01	-8.3853	-57.766071	0.000293	2.929288	0.992469	0.023392
1793	8.9600e-01	-8.3420	-57.576516	0.000475	4.747466	1.608485	0.037911
1794	8.9650e-01	-8.3179	-57.378894	0.000495	4.949486	1.676931	0.039524
1795	8.9700e-01	-8.2714	-57.124809	0.000636	6.363625	2.156054	0.050817
1796	8.9750e-01	-8.2249	-56.919121	0.000515	5.151506	1.745377	0.041138
1797	8.9800e-01	-8.1768	-56.757797	0.000404	4.040397	1.368923	0.032265
1798	8.9850e-01	-8.1431	-56.491612	0.000667	6.666654	2.258724	0.053237
1799	8.9900e-01	-8.1014	-56.322222	0.000424	4.242416	1.437370	0.033878
1800	8.9950e-01	-8.0725	-56.088302	0.000586	5.858575	1.984939	0.046784
1801	9.0000e-01	-8.0228	-55.850349	0.000596	5.959585	2.019162	0.047591
1802	9.0050e-01	-7.9891	-55.568033	0.000707	7.070694	2.395616	0.056463
1803	9.0100e-01	-7.9490	-55.559966	0.000020	0.202020	0.068446	0.001613
1804	9.0150e-01	-7.9105	-55.330080	0.000576	5.757565	1.950716	0.045977
1805	9.0200e-01	-7.8688	-55.205054	0.000313	3.131307	1.060916	0.025005
1806	9.0250e-01	-7.8254	-54.963068	0.000606	6.060595	2.053385	0.048397
1807	9.0300e-01	-7.7869	-54.648486	0.000788	7.878773	2.669401	0.062916
1808	9.0350e-01	-7.7436	-54.475063	0.000434	4.343426	1.471593	0.034685
1809	9.0400e-01	-7.7035	-54.200812	0.000687	6.868674	2.327170	0.054850
1810	9.0450e-01	-7.6650	-53.995124	0.000515	5.151506	1.745377	0.041138
1811	9.0500e-01	-7.6265	-53.757171	0.000596	5.959585	2.019162	0.047591
1812	9.0550e-01	-7.5880	-53.628112	0.000323	3.232317	1.095139	0.025812
1813	9.0600e-01	-7.5479	-53.458722	0.000424	4.242416	1.437370	0.033878
1814	9.0650e-01	-7.5158	-53.196571	0.000657	6.565644	2.224501	0.052430
1815	9.0700e-01	-7.4709	-53.043313	0.000384	3.838377	1.300477	0.030652
1816	9.0750e-01	-7.4228	-52.926353	0.000293	2.929288	0.992469	0.023392
1817	9.0800e-01	-7.3859	-52.724698	0.000505	5.050496	1.711154	0.040331
1818	9.0850e-01	-7.3490	-52.345587	0.000949	9.494932	3.216970	0.075822
1819	9.0900e-01	-7.3121	-52.087468	0.000646	6.464635	2.190277	0.051624
1820	9.0950e-01	-7.2656	-51.885814	0.000505	5.050496	1.711154	0.040331
1821	9.1000e-01	-7.2303	-51.805152	0.000202	2.020198	0.684462	0.016132
1822	9.1050e-01	-7.1822	-51.474437	0.000828	8.282813	2.806293	0.066143
1823	9.1100e-01	-7.1453	-51.486537	-0.000030	-0.303030	-0.102669	-0.002420
1824	9.1150e-01	-7.1035	-51.244551	0.000606	6.060595	2.053385	0.048397
1825	9.1200e-01	-7.0731	-50.974333	0.000677	6.767664	2.292947	0.054044
1826	9.1250e-01	-7.0217	-50.966267	0.000020	0.202020	0.068446	0.001613
1827	9.1300e-01	-6.9800	-50.716215	0.000626	6.262615	2.121831	0.050010
1828	9.1350e-01	-6.9511	-50.450030	0.000667	6.666654	2.258724	0.053237
1829	9.1400e-01	-6.9094	-50.216111	0.000586	5.858575	1.984939	0.046784
1830	9.1450e-01	-6.8645	-49.982191	0.000586	5.858575	1.984939	0.046784
1831	9.1500e-01	-6.8260	-49.897496	0.000212	2.121208	0.718685	0.016939
1832	9.1550e-01	-6.7827	-49.655510	0.000606	6.060595	2.053385	0.048397
1833	9.1600e-01	-6.7426	-49.357061	0.000747	7.474734	2.532508	0.059690
1834	9.1650e-01	-6.7025	-49.054578	0.000758	7.575744	2.566731	0.060496
1835	9.1700e-01	-6.6640	-48.852923	0.000505	5.050496	1.711154	0.040331
1836	9.1750e-01	-6.6287	-48.619004	0.000586	5.858575	1.984939	0.046784
1837	9.1800e-01	-6.5854	-48.445580	0.000434	4.343426	1.471593	0.034685
1838	9.1850e-01	-6.5485	-48.284256	0.000404	4.040397	1.368923	0.032265
1839	9.1900e-01	-6.5132	-48.086635	0.000495	4.949486	1.676931	0.039524
1840	9.1950e-01	-6.4699	-47.618795	0.001172	11.717150	3.969878	0.093568
1841	9.2000e-01	-6.4217	-47.663159	-0.000111	-1.111109	-0.376454	-0.008873
1842	9.2050e-01	-6.3929	-47.441339	0.000556	5.555545	1.882270	0.044364
1843	9.2100e-01	-6.3528	-47.308247	0.000333	3.333327	1.129362	0.026618
1844	9.2150e-01	-6.3175	-47.090459	0.000545	5.454535	1.848047	0.043557
1845	9.2200e-01	-6.2677	-47.058194	0.000081	0.808079	0.273785	0.006453
1846	9.2250e-01	-6.2260	-46.679083	0.000949	9.494932	3.216970	0.075822
1847	9.2300e-01	-6.1972	-46.481461	0.000495	4.949486	1.676931	0.039524
1848	9.2350e-01	-6.1474	-46.275773	0.000515	5.151506	1.745377	0.041138
1849	9.2400e-01	-6.1121	-46.053953	0.000556	5.555545	1.882270	0.044364
1850	9.2450e-01	-6.0624	-45.816000	0.000596	5.959585	2.019162	0.047591
1851	9.2500e-01	-6.0175	-45.630478	0.000465	4.646456	1.574262	0.037105
1852	9.2550e-01	-5.9950	-45.372359	0.000646	6.464635	2.190277	0.051624
1853	9.2600e-01	-5.9501	-45.223135	0.000374	3.737367	1.266254	0.029845
1854	9.2650e-01	-5.9004	-44.848056	0.000939	9.393922	3.182747	0.075016
1855	9.2700e-01	-5.8715	-44.634302	0.000535	5.353525	1.813824	0.042751
1856	9.2750e-01	-5.8250	-44.319721	0.000788	7.878773	2.669401	0.062916
1857	9.2800e-01	-5.7977	-44.218893	0.000253	2.525248	0.855577	0.020165
1858	9.2850e-01	-5.7415	-44.114033	0.000263	2.626258	0.889800	0.020972
1859	9.2900e-01	-5.7047	-43.803484	0.000778	7.777763	2.635178	0.062110
1860	9.2950e-01	-5.6694	-43.597796	0.000515	5.151506	1.745377	0.041138
1861	9.3000e-01	-5.6196	-43.448571	0.000374	3.737367	1.266254	0.029845
1862	9.3050e-01	-5.5988	-43.206585	0.000606	6.060595	2.053385	0.048397
1863	9.3100e-01	-5.5474	-43.025096	0.000455	4.545446	1.540039	0.036298
1864	9.3150e-01	-5.5009	-42.746812	0.000697	6.969684	2.361393	0.055657
1865	9.3200e-01	-5.4656	-42.545157	0.000505	5.050496	1.711154	0.040331
1866	9.3250e-01	-5.4287	-42.355602	0.000475	4.747466	1.608485	0.037911
1867	9.3300e-01	-5.3870	-42.085384	0.000677	6.767664	2.292947	0.054044
1868	9.3350e-01	-5.3549	-41.972457	0.000283	2.828278	0.958246	0.022585
1869	9.3400e-01	-5.2972	-41.597379	0.000939	9.393922	3.182747	0.075016
1870	9.3450e-01	-5.2635	-41.496552	0.000253	2.525248	0.855577	0.020165
1871	9.3500e-01	-5.2298	-41.411856	0.000212	2.121208	0.718685	0.016939
1872	9.3550e-01	-5.1801	-41.157771	0.000636	6.363625	2.156054	0.050817
1873	9.3600e-01	-5.1480	-40.823024	0.000838	8.383823	2.840516	0.066949
1874	9.3650e-01	-5.1047	-40.540707	0.000707	7.070694	2.395616	0.056463
1875	9.3700e-01	-5.0662	-40.367284	0.000434	4.343426	1.471593	0.034685
1876	9.3750e-01	-5.0245	-40.250324	0.000293	2.929288	0.992469	0.023392
1877	9.3800e-01	-4.9860	-40.064802	0.000465	4.646456	1.574262	0.037105
1878	9.3850e-01	-4.9426	-39.770385	0.000737	7.373724	2.498285	0.058883
1879	9.3900e-01	-4.9073	-39.738121	0.000081	0.808079	0.273785	0.006453
1880	9.3950e-01	-4.8656	-39.375142	0.000909	9.090892	3.080078	0.072596
1881	9.4000e-01	-4.8336	-39.137189	0.000596	5.959585	2.019162	0.047591
1882	9.4050e-01	-4.7806	-38.709680	0.001071	10.707051	3.627647	0.085502
1883	9.4100e-01	-4.7421	-38.475761	0.000586	5.858575	1.984939	0.046784
1884	9.4150e-01	-4.7084	-38.266040	0.000525	5.252516	1.779600	0.041944
1885	9.4200e-01	-4.6795	-38.173278	0.000232	2.323228	0.787131	0.018552
1886	9.4250e-01	-4.6218	-37.761902	0.001030	10.303011	3.490755	0.082275
1887	9.4300e-01	-4.5785	-37.556214	0.000515	5.151506	1.745377	0.041138
1888	9.4350e-01	-4.5496	-37.463453	0.000232	2.323228	0.787131	0.018552
1889	9.4400e-01	-4.5095	-37.322294	0.000354	3.535347	1.197808	0.028232
1890	9.4450e-01	-4.4662	-37.048044	0.000687	6.868674	2.327170	0.054850
1891	9.4500e-01	-4.4325	-36.769760	0.000697	6.969684	2.361393	0.055657
1892	9.4550e-01	-4.3924	-36.576171	0.000485	4.848476	1.642708	0.038718
1893	9.4600e-01	-4.3507	-36.551973	0.000061	0.606059	0.205339	0.004840
1894	9.4650e-01	-4.3106	-36.100266	0.001131	11.313110	3.832986	0.090341
1895	9.4700e-01	-4.2753	-35.741320	0.000899	8.989882	3.045855	0.071789
1896	9.4750e-01	-4.2320	-35.664691	0.000192	1.919188	0.650239	0.015326
1897	9.4800e-01	-4.1999	-35.249282	0.001040	10.404021	3.524978	0.083082
1898	9.4850e-01	-4.1485	-35.164587	0.000212	2.121208	0.718685	0.016939
1899	9.4900e-01	-4.1020	-34.999230	0.000414	4.141406	1.403147	0.033071
1900	9.4950e-01	-4.0715	-34.777409	0.000556	5.555545	1.882270	0.044364
1901	9.5000e-01	-4.0298	-34.503159	0.000687	6.868674	2.327170	0.054850
1902	9.5050e-01	-3.9865	-34.309570	0.000485	4.848476	1.642708	0.038718
1903	9.5100e-01	-3.9496	-34.176478	0.000333	3.333327	1.129362	0.026618
1904	9.5150e-01	-3.9127	-33.789300	0.000970	9.696952	3.285416	0.077435
1905	9.5200e-01	-3.8662	-33.551347	0.000596	5.959585	2.019162	0.047591
1906	9.5250e-01	-3.8325	-33.454553	0.000242	2.424238	0.821354	0.019359
1907	9.5300e-01	-3.7940	-33.075442	0.000949	9.494932	3.216970	0.075822
1908	9.5350e-01	-3.7459	-33.014945	0.000152	1.515149	0.513346	0.012099
1909	9.5400e-01	-3.7090	-32.692297	0.000808	8.080793	2.737847	0.064530
1910	9.5450e-01	-3.6753	-32.349484	0.000859	8.585843	2.908962	0.068563
1911	9.5500e-01	-3.6320	-32.236557	0.000283	2.828278	0.958246	0.022585
1912	9.5550e-01	-3.5871	-31.926009	0.000778	7.777763	2.635178	0.062110
1913	9.5600e-01	-3.5438	-31.861479	0.000162	1.616159	0.547569	0.012906
1914	9.5650e-01	-3.5020	-31.643692	0.000545	5.454535	1.848047	0.043557
1915	9.5700e-01	-3.4619	-31.272647	0.000929	9.292912	3.148524	0.074209
1916	9.5750e-01	-3.4186	-31.062925	0.000525	5.252516	1.779600	0.041944
1917	9.5800e-01	-3.3849	-30.695913	0.000919	9.191902	3.114301	0.073402
1918	9.5850e-01	-3.3512	-30.550722	0.000364	3.636357	1.232031	0.029038
1919	9.5900e-01	-3.3015	-30.236140	0.000788	7.878773	2.669401	0.062916
1920	9.5950e-01	-3.2662	-30.131280	0.000263	2.626258	0.889800	0.020972
1921	9.6000e-01	-3.2277	-29.691672	0.001101	11.010081	3.730316	0.087922
1922	9.6050e-01	-3.1764	-29.615043	0.000192	1.919188	0.650239	0.015326
1923	9.6100e-01	-3.1539	-29.401289	0.000535	5.353525	1.813824	0.042751
1924	9.6150e-01	-3.1010	-29.199634	0.000505	5.050496	1.711154	0.040331
1925	9.6200e-01	-3.0817	-29.014111	0.000465	4.646456	1.574262	0.037105
1926	9.6250e-01	-3.0320	-28.715662	0.000747	7.474734	2.532508	0.059690
1927	9.6300e-01	-2.9823	-28.421246	0.000737	7.373724	2.498285	0.058883
1928	9.6350e-01	-2.9502	-28.300253	0.000303	3.030297	1.026693	0.024199
1929	9.6400e-01	-2.9053	-27.997770	0.000758	7.575744	2.566731	0.060496
1930	9.6450e-01	-2.8700	-27.784016	0.000535	5.353525	1.813824	0.042751
1931	9.6500e-01	-2.8299	-27.537997	0.000616	6.161605	2.087608	0.049204
1932	9.6550e-01	-2.7833	-27.279879	0.000646	6.464635	2.190277	0.051624
1933	9.6600e-01	-2.7464	-27.058059	0.000556	5.555545	1.882270	0.044364
1934	9.6650e-01	-2.7095	-26.691047	0.000919	9.191902	3.114301	0.073402
1935	9.6700e-01	-2.6582	-26.545855	0.000364	3.636357	1.232031	0.029038
1936	9.6750e-01	-2.6309	-26.223207	0.000808	8.080793	2.737847	0.064530
1937	9.6800e-01	-2.5892	-25.831997	0.000980	9.797962	3.319639	0.078242
1938	9.6850e-01	-2.5411	-25.638408	0.000485	4.848476	1.642708	0.038718
1939	9.6900e-01	-2.5074	-25.581944	0.000141	1.414139	0.479123	0.011293
1940	9.6950e-01	-2.4753	-25.311727	0.000677	6.767664	2.292947	0.054044
1941	9.7000e-01	-2.4336	-25.206866	0.000263	2.626258	0.889800	0.020972
1942	9.7050e-01	-2.3855	-24.976980	0.000576	5.757565	1.950716	0.045977
1943	9.7100e-01	-2.3438	-24.533339	0.001111	11.111091	3.764539	0.088728
1944	9.7150e-01	-2.3037	-24.428478	0.000263	2.626258	0.889800	0.020972
1945	9.7200e-01	-2.2700	-24.033235	0.000990	9.898972	3.353862	0.079049
1946	9.7250e-01	-2.2283	-23.916275	0.000293	2.929288	0.992469	0.023392
1947	9.7300e-01	-2.1785	-23.674289	0.000606	6.060595	2.053385	0.048397
1948	9.7350e-01	-2.1481	-23.440369	0.000586	5.858575	1.984939	0.046784
1949	9.7400e-01	-2.1096	-23.028993	0.001030	10.303011	3.490755	0.082275
1950	9.7450e-01	-2.0711	-22.887835	0.000354	3.535347	1.197808	0.028232
1951	9.7500e-01	-2.0245	-22.649882	0.000596	5.959585	2.019162	0.047591
1952	9.7550e-01	-1.9876	-22.540988	0.000273	2.727268	0.924023	0.021779
1953	9.7600e-01	-1.9507	-21.911825	0.001576	15.757547	5.338801	0.125833
1954	9.7650e-01	-1.9090	-21.633541	0.000697	6.969684	2.361393	0.055657
1955	9.7700e-01	-1.8657	-21.460118	0.000434	4.343426	1.471593	0.034685
1956	9.7750e-01	-1.8240	-21.351224	0.000273	2.727268	0.924023	0.021779
1957	9.7800e-01	-1.7919	-20.992278	0.000899	8.989882	3.045855	0.071789
1958	9.7850e-01	-1.7470	-20.955980	0.000091	0.909089	0.308008	0.007260
1959	9.7900e-01	-1.7005	-20.415545	0.001354	13.535329	4.585893	0.108087
1960	9.7950e-01	-1.6764	-20.286486	0.000323	3.232317	1.095139	0.025812
1961	9.8000e-01	-1.6235	-19.911408	0.000939	9.393922	3.182747	0.075016
1962	9.8050e-01	-1.5802	-20.012235	-0.000253	-2.525248	-0.855577	-0.020165
1963	9.8100e-01	-1.5465	-19.491966	0.001303	13.030279	4.414778	0.104054
1964	9.8150e-01	-1.5128	-19.342741	0.000374	3.737367	1.266254	0.029845
1965	9.8200e-01	-1.4647	-19.068490	0.000687	6.868674	2.327170	0.054850
1966	9.8250e-01	-1.4262	-18.729710	0.000848	8.484833	2.874739	0.067756
1967	9.8300e-01	-1.3812	-18.713578	0.000040	0.404040	0.136892	0.003226
1968	9.8350e-01	-1.3411	-18.245738	0.001172	11.717150	3.969878	0.093568
1969	9.8400e-01	-1.3123	-17.991653	0.000636	6.363625	2.156054	0.050817
1970	9.8450e-01	-1.2657	-17.915024	0.000192	1.919188	0.650239	0.015326
1971	9.8500e-01	-1.2256	-17.652873	0.000657	6.565644	2.224501	0.052430
1972	9.8550e-01	-1.1807	-17.060007	0.001485	14.848457	5.030794	0.118573
1973	9.8600e-01	-1.1502	-17.015643	0.000111	1.111109	0.376454	0.008873
1974	9.8650e-01	-1.1021	-16.951113	0.000162	1.616159	0.547569	0.012906
1975	9.8700e-01	-1.0588	-16.624432	0.000818	8.181803	2.772070	0.065336
1976	9.8750e-01	-1.0187	-16.325983	0.000747	7.474734	2.532508	0.059690
1977	9.8800e-01	-0.9834	-16.015435	0.000778	7.777763	2.635178	0.062110
1978	9.8850e-01	-0.9513	-15.595992	0.001051	10.505031	3.559201	0.083888
1979	9.8900e-01	-0.9048	-15.426602	0.000424	4.242416	1.437370	0.033878
1980	9.8950e-01	-0.8631	-15.333841	0.000232	2.323228	0.787131	0.018552
1981	9.9000e-01	-0.8262	-15.031358	0.000758	7.575744	2.566731	0.060496
1982	9.9050e-01	-0.7893	-14.769207	0.000657	6.565644	2.224501	0.052430
1983	9.9100e-01	-0.7460	-14.426394	0.000859	8.585843	2.908962	0.068563
1984	9.9150e-01	-0.7139	-14.160209	0.000667	6.666654	2.258724	0.053237
1985	9.9200e-01	-0.6690	-13.805297	0.000889	8.888872	3.011632	0.070983
1986	9.9250e-01	-0.6224	-13.627840	0.000444	4.444436	1.505816	0.035491
1987	9.9300e-01	-0.5920	-13.595575	0.000081	0.808079	0.273785	0.006453
1988	9.9350e-01	-0.5470	-13.297126	0.000747	7.474734	2.532508	0.059690
1989	9.9400e-01	-0.5085	-12.825254	0.001182	11.818160	4.004101	0.094375
1990	9.9450e-01	-0.4620	-12.393712	0.001081	10.808061	3.661870	0.086308
1991	9.9500e-01	-0.4299	-12.143660	0.000626	6.262615	2.121831	0.050010
1992	9.9550e-01	-0.3882	-11.929906	0.000535	5.353525	1.813824	0.042751
1993	9.9600e-01	-0.3465	-11.784714	0.000364	3.636357	1.232031	0.029038
1994	9.9650e-01	-0.3096	-11.417702	0.000919	9.191902	3.114301	0.073402
1995	9.9700e-01	-0.2711	-11.244279	0.000434	4.343426	1.471593	0.034685
1996	9.9750e-01	-0.2182	-10.949863	0.000737	7.373724	2.498285	0.058883
1997	9.9800e-01	-0.1845	-10.711910	0.000596	5.959585	2.019162	0.047591
1998	9.9850e-01	-0.1540	-10.469924	0.000606	6.060595	2.053385	0.048397
1999	9.9900e-01	-0.1091	-10.223905	0.000616	6.161605	2.087608	0.049204
2000	9.9950e-01	-0.0690	-9.945621	0.000697	6.969684	2.361393	0.055657
2001	1.0000e+00	-0.0225	-9.586675	0.000697	6.969684	2.361393	0.071789

Center data before PMax,+/-Pr and +/-Vc Calc.

PMax (uC/cm2):	1.05e+02
Pr (uC/cm2):	2.49e+00
-Pr (uC/cm2):	-9.59e+00
PLoss (uC/cm2):	-6.68e+00
Vc:	4.62e-01
-Vc:	-3.67e-01
C (Max-Eff) (nF):	5.26e-01
K (Eff):	1.78e+03
Vert. (+/-Pr) Shift (uC/cm2):	-3.55e+00
Horiz. Shift (+/-Vc):	4.73e-02
Offset (uC/cm2):	2.79e+00

A (Loop Area - uC/cm2·Volts):	-1.29e-01



Hysteresis Version: 5.48.1 - Radiant Technologies, Inc., 1999 - 9/12/24

