»»»»»»»»»»»»»»»»»»»»»»»»»»»»»»»»»»»» Hysteresis ««««««««««««««««««««««««««««««««««««
»»»  Executed Version:	5.48.1
»»»  Vision Version:	5.48.4 (R)
»»»  Vision Compiled:	9/18/24
»»»  Driver Version:	5.47.0
»»»  Windows Version:	Windows 8 or 8.1
»»»  Processor Information:	x86 (AMD or Intel) - 32 Processors
»»»  Tester Name:	PMF21124-494 (100V)
»»»  Tester S/N:	PMF21124-494
»»»  Internal Amp Type:	100V RevK 270k
»»»  Internal Amp S/N:	iAB2-596/K     
»»»  Execution Count:	1
»»»»»»»»»»»»»»»»»»»»»»»»»»»»»»»»»»»»»»»»»»««««««««««««««««««««««««««««««««««««««««««

Stored:	6/5/2025 - 11:16:22
Configured:	06/05/25 10:43:40 AM
Executed:	06/05/25 11:15:44 AM

»»»»»»»»»»»»»»»»»»»»»»»»»»»»»»»»»»» Sample Info ««««««««««««««««««««««««««««««««««««
Sample Name:	
Lot Name:	
Wafer Name:	
Die Row/Column:	0/0
Capacitor Number:	0
Sample Area (cm2):	1.00e-04
Sample Thickness (microns):	3.00e-01

Amplifier:	Internal

»»»»»»»»»»»»»»»»»»»»»»»»»»»»»»»»»»» Tester Info «««««««««««««««««««««««««««««««««««
Tester Name:	PMF21124-494 (100V)
Tester Serial Number:	PMF21124-494
Return Signal Amp. Level:	0.19 [Index: 3]

»»»»»»»»»»»»»»»»»»»»»»»»»»»»»»»» Hysteresis Info ««««««««««««««««««««««««««««««««««
Task Name:	Hyst-187
Volts:	20.00
Field:	666.67 (kV/cm)
DCBias:	0.00
DCField:	0.00 (kV/cm)
Hysteresis Period (ms):	1.00e+00
Preset:	Enabled
Preset Delay (ms):	1.00e+03
Profile:	Standard Bipolar

»»»»»»»»»»»»»»»»»»»»»»»»»»»»»»»»»»»»»» Data «««««««««««««««««««««««««««««««««««««««
Points:	2001

Valid Data

Point	Time (ms)	Drive Voltage	Measured Polarization (uC/cm2)	Capacitance (uF)	Normalized Capacitance (uF/cm2)	Dielectric Constant	Instantaneous Current (mA)
   1	0.0000e+00	0.0000	-0.782421	0.000778	7.777451	2.635072	0.062110
   2	5.0000e-04	0.0241	-0.471873	0.000778	7.777451	2.635072	0.062110
   3	1.0000e-03	0.0513	-0.379111	0.000232	2.323135	0.787099	0.018552
   4	1.5000e-03	0.0834	-0.270218	0.000273	2.727158	0.923986	0.021779
   5	2.0000e-03	0.1283	-0.278284	-0.000020	-0.202012	-0.068443	-0.001613
   6	2.5000e-03	0.1572	0.080662	0.000899	8.989521	3.045732	0.071789
   7	3.0000e-03	0.1973	0.524303	0.001111	11.110644	3.764388	0.088728
   8	3.5000e-03	0.2374	0.887282	0.000909	9.090527	3.079954	0.072596
   9	4.0000e-03	0.2807	1.133301	0.000616	6.161357	2.087524	0.049204
  10	4.5000e-03	0.3192	1.472081	0.000848	8.484492	2.874624	0.067756
  11	5.0000e-03	0.3674	1.964119	0.001232	12.322714	4.175049	0.098408
  12	5.5000e-03	0.4059	2.109311	0.000364	3.636211	1.231982	0.029038
  13	6.0000e-03	0.4508	2.310965	0.000505	5.050293	1.711086	0.040331
  14	6.5000e-03	0.4765	2.722342	0.001030	10.302597	3.490614	0.082275
  15	7.0000e-03	0.5182	2.972394	0.000626	6.262363	2.121746	0.050010
  16	7.5000e-03	0.5631	3.335373	0.000909	9.090527	3.079954	0.072596
  17	8.0000e-03	0.5904	3.730616	0.000990	9.898574	3.353728	0.079049
  18	8.5000e-03	0.6465	3.968569	0.000596	5.959346	2.019081	0.047591
  19	9.0000e-03	0.6738	4.428342	0.001151	11.514668	3.901275	0.091955
  20	9.5000e-03	0.7219	5.029274	0.001505	15.049873	5.099035	0.120186
  21	1.0000e-02	0.7620	5.214796	0.000465	4.646269	1.574199	0.037105
  22	1.0500e-02	0.8021	5.476948	0.000657	6.565381	2.224411	0.052430
  23	1.1000e-02	0.8406	5.614073	0.000343	3.434199	1.163538	0.027425
  24	1.1500e-02	0.8823	6.178707	0.001414	14.140820	4.791039	0.112927
  25	1.2000e-02	0.9208	6.404561	0.000566	5.656328	1.916416	0.045171
  26	1.2500e-02	0.9577	6.707043	0.000758	7.575439	2.566628	0.060496
  27	1.3000e-02	1.0010	7.053889	0.000869	8.686504	2.943067	0.069369
  28	1.3500e-02	1.0540	7.191015	0.000343	3.434199	1.163538	0.027425
  29	1.4000e-02	1.0813	7.594325	0.001010	10.100586	3.422171	0.080662
  30	1.4500e-02	1.1214	8.086363	0.001232	12.322714	4.175049	0.098408
  31	1.5000e-02	1.1583	8.332382	0.000616	6.161357	2.087524	0.049204
  32	1.5500e-02	1.1935	8.485639	0.000384	3.838223	1.300425	0.030652
  33	1.6000e-02	1.2337	9.034141	0.001374	13.736796	4.654153	0.109700
  34	1.6500e-02	1.2770	9.389054	0.000889	8.888515	3.011511	0.070983
  35	1.7000e-02	1.3107	9.836727	0.001121	11.211650	3.798610	0.089535
  36	1.7500e-02	1.3540	10.110978	0.000687	6.868398	2.327076	0.054850
  37	1.8000e-02	1.4021	10.369097	0.000646	6.464375	2.190189	0.051624
  38	1.8500e-02	1.4438	10.518321	0.000374	3.737217	1.266203	0.029845
  39	1.9000e-02	1.4727	10.764340	0.000616	6.161357	2.087524	0.049204
  40	1.9500e-02	1.5272	11.228147	0.001162	11.615673	3.935497	0.092761
  41	2.0000e-02	1.5625	11.353173	0.000313	3.131182	1.060873	0.025005
  42	2.0500e-02	1.5898	11.845211	0.001232	12.322714	4.175049	0.098408
  43	2.1000e-02	1.6363	11.986369	0.000354	3.535205	1.197760	0.028232
  44	2.1500e-02	1.6796	12.317083	0.000828	8.282480	2.806180	0.066143
  45	2.2000e-02	1.7117	12.623599	0.000768	7.676445	2.600850	0.061303
  46	2.2500e-02	1.7663	13.079339	0.001141	11.413662	3.867053	0.091148
  47	2.3000e-02	1.8032	13.414086	0.000838	8.383486	2.840402	0.066949
  48	2.3500e-02	1.8465	13.668171	0.000636	6.363369	2.155968	0.050817
  49	2.4000e-02	1.8834	14.063415	0.000990	9.898574	3.353728	0.079049
  50	2.4500e-02	1.9187	14.498989	0.001091	10.908632	3.695945	0.087115
  51	2.5000e-02	1.9556	14.821637	0.000808	8.080469	2.737737	0.064530
  52	2.5500e-02	2.0021	15.208815	0.000970	9.696562	3.285284	0.077435
  53	2.6000e-02	2.0358	15.604058	0.000990	9.898574	3.353728	0.079049
  54	2.6500e-02	2.0903	15.761349	0.000394	3.939228	1.334647	0.031458
  55	2.7000e-02	2.1240	16.059799	0.000747	7.474433	2.532407	0.059690
  56	2.7500e-02	2.1609	16.390513	0.000828	8.282480	2.806180	0.066143
  57	2.8000e-02	2.2058	16.624432	0.000586	5.858340	1.984859	0.046784
  58	2.8500e-02	2.2459	16.955147	0.000828	8.282480	2.806180	0.066143
  59	2.9000e-02	2.2732	17.237463	0.000707	7.070410	2.395520	0.056463
  60	2.9500e-02	2.3197	17.822263	0.001465	14.645849	4.962148	0.116960
  61	3.0000e-02	2.3614	18.056182	0.000586	5.858340	1.984859	0.046784
  62	3.0500e-02	2.3951	18.358665	0.000758	7.575439	2.566628	0.060496
  63	3.1000e-02	2.4400	18.790206	0.001081	10.807627	3.661723	0.086308
  64	3.1500e-02	2.4930	19.016060	0.000566	5.656328	1.916416	0.045171
  65	3.2000e-02	2.5186	19.249980	0.000586	5.858340	1.984859	0.046784
  66	3.2500e-02	2.5571	19.588760	0.000848	8.484492	2.874624	0.067756
  67	3.3000e-02	2.6069	19.863011	0.000687	6.868398	2.327076	0.054850
  68	3.3500e-02	2.6406	20.476042	0.001535	15.352890	5.201700	0.122606
  69	3.4000e-02	2.6839	20.459909	-0.000040	-0.404023	-0.136887	-0.003226
  70	3.4500e-02	2.7224	20.915649	0.001141	11.413662	3.867053	0.091148
  71	3.5000e-02	2.7673	21.189900	0.000687	6.868398	2.327076	0.054850
  72	3.5500e-02	2.8074	21.742435	0.001384	13.837802	4.688374	0.110507
  73	3.6000e-02	2.8459	21.685971	-0.000141	-1.414082	-0.479104	-0.011293
  74	3.6500e-02	2.8716	22.137678	0.001131	11.312656	3.832832	0.090341
  75	3.7000e-02	2.9261	22.436128	0.000747	7.474433	2.532407	0.059690
  76	3.7500e-02	2.9678	22.734577	0.000747	7.474433	2.532407	0.059690
  77	3.8000e-02	3.0015	23.133854	0.001000	9.999580	3.387949	0.079855
  78	3.8500e-02	3.0513	23.460535	0.000818	8.181474	2.771959	0.065336
  79	3.9000e-02	3.0865	23.726719	0.000667	6.666387	2.258633	0.053237
  80	3.9500e-02	3.1170	24.230856	0.001263	12.625732	4.277714	0.100827
  81	4.0000e-02	3.1635	24.400247	0.000424	4.242246	1.437312	0.033878
  82	4.0500e-02	3.2004	24.823722	0.001061	10.605615	3.593280	0.084695
  83	4.1000e-02	3.2470	24.997145	0.000434	4.343252	1.471534	0.034685
  84	4.1500e-02	3.2807	25.218966	0.000556	5.555322	1.882194	0.044364
  85	4.2000e-02	3.3111	25.771500	0.001384	13.837802	4.688374	0.110507
  86	4.2500e-02	3.3577	26.078016	0.000768	7.676445	2.600850	0.061303
  87	4.3000e-02	3.3978	26.211108	0.000333	3.333193	1.129316	0.026618
  88	4.3500e-02	3.4539	26.481325	0.000677	6.767392	2.292855	0.054044
  89	4.4000e-02	3.4828	26.739444	0.000646	6.464375	2.190189	0.051624
  90	4.4500e-02	3.5213	27.219382	0.001202	12.019697	4.072384	0.095988
  91	4.5000e-02	3.5598	27.691255	0.001182	11.817685	4.003940	0.094375
  92	4.5500e-02	3.5999	27.961473	0.000677	6.767392	2.292855	0.054044
  93	4.6000e-02	3.6416	28.292187	0.000828	8.282480	2.806180	0.066143
  94	4.6500e-02	3.6881	28.457544	0.000414	4.141240	1.403090	0.033071
  95	4.7000e-02	3.7170	28.727761	0.000677	6.767392	2.292855	0.054044
  96	4.7500e-02	3.7651	28.937482	0.000525	5.252305	1.779529	0.041944
  97	4.8000e-02	3.8004	29.409355	0.001182	11.817685	4.003940	0.094375
  98	4.8500e-02	3.8453	29.687639	0.000697	6.969404	2.361298	0.055657
  99	4.9000e-02	3.8838	30.010287	0.000808	8.080469	2.737737	0.064530
 100	4.9500e-02	3.9240	30.401497	0.000980	9.797568	3.319506	0.078242
 101	5.0000e-02	3.9673	30.768509	0.000919	9.191533	3.114176	0.073402
 102	5.0500e-02	4.0042	30.893535	0.000313	3.131182	1.060873	0.025005
 103	5.1000e-02	4.0491	31.337176	0.001111	11.110644	3.764388	0.088728
 104	5.1500e-02	4.0828	31.732420	0.000990	9.898574	3.353728	0.079049
 105	5.2000e-02	4.1181	32.180094	0.001121	11.211650	3.798610	0.089535
 106	5.2500e-02	4.1646	32.397881	0.000545	5.454316	1.847972	0.043557
 107	5.3000e-02	4.2063	32.672132	0.000687	6.868398	2.327076	0.054850
 108	5.3500e-02	4.2480	32.821356	0.000374	3.737217	1.266203	0.029845
 109	5.4000e-02	4.2865	33.039144	0.000545	5.454316	1.847972	0.043557
 110	5.4500e-02	4.3298	33.652175	0.001535	15.352890	5.201700	0.122606
 111	5.5000e-02	4.3635	33.817532	0.000414	4.141240	1.403090	0.033071
 112	5.5500e-02	4.4068	34.071617	0.000636	6.363369	2.155968	0.050817
 113	5.6000e-02	4.4389	34.595920	0.001313	13.130761	4.448822	0.104861
 114	5.6500e-02	4.4902	34.575754	-0.000051	-0.505029	-0.171109	-0.004033
 115	5.7000e-02	4.5239	34.906468	0.000828	8.282480	2.806180	0.066143
 116	5.7500e-02	4.5705	35.370275	0.001162	11.615673	3.935497	0.092761
 117	5.8000e-02	4.6074	35.705022	0.000838	8.383486	2.840402	0.066949
 118	5.8500e-02	4.6426	35.777618	0.000182	1.818105	0.615991	0.014519
 119	5.9000e-02	4.6876	36.225292	0.001121	11.211650	3.798610	0.089535
 120	5.9500e-02	4.7293	36.471311	0.000616	6.161357	2.087524	0.049204
 121	6.0000e-02	4.7678	36.810091	0.000848	8.484492	2.874624	0.067756
 122	6.0500e-02	4.8063	37.116606	0.000768	7.676445	2.600850	0.061303
 123	6.1000e-02	4.8464	37.536049	0.001050	10.504609	3.559058	0.083888
 124	6.1500e-02	4.8849	37.653009	0.000293	2.929170	0.992430	0.023392
 125	6.2000e-02	4.9218	38.096649	0.001111	11.110644	3.764388	0.088728
 126	6.2500e-02	4.9699	38.262006	0.000414	4.141240	1.403090	0.033071
 127	6.3000e-02	4.9908	38.721780	0.001151	11.514668	3.901275	0.091955
 128	6.3500e-02	5.0437	39.032328	0.000778	7.777451	2.635072	0.062110
 129	6.4000e-02	5.0790	39.290447	0.000646	6.464375	2.190189	0.051624
 130	6.4500e-02	5.1303	39.475969	0.000465	4.646269	1.574199	0.037105
 131	6.5000e-02	5.1688	39.758286	0.000707	7.070410	2.395520	0.056463
 132	6.5500e-02	5.2089	39.988173	0.000576	5.757334	1.950637	0.045977
 133	6.6000e-02	5.2426	40.472144	0.001212	12.120703	4.106605	0.096794
 134	6.6500e-02	5.2779	40.823024	0.000879	8.787509	2.977289	0.070176
 135	6.7000e-02	5.3277	41.052911	0.000576	5.757334	1.950637	0.045977
 136	6.7500e-02	5.3630	41.359426	0.000768	7.676445	2.600850	0.061303
 137	6.8000e-02	5.4031	41.536883	0.000444	4.444258	1.505755	0.035491
 138	6.8500e-02	5.4480	41.637710	0.000253	2.525146	0.855543	0.020165
 139	6.9000e-02	5.4817	42.295105	0.001646	16.463955	5.578139	0.131479
 140	6.9500e-02	5.5186	42.480628	0.000465	4.646269	1.574199	0.037105
 141	7.0000e-02	5.5683	42.625819	0.000364	3.636211	1.231982	0.029038
 142	7.0500e-02	5.5988	43.182387	0.001394	13.938808	4.722596	0.111314
 143	7.1000e-02	5.6357	43.509068	0.000818	8.181474	2.771959	0.065336
 144	7.1500e-02	5.6838	43.775252	0.000667	6.666387	2.258633	0.053237
 145	7.2000e-02	5.7207	43.980940	0.000515	5.151299	1.745307	0.041138
 146	7.2500e-02	5.7640	44.194694	0.000535	5.353310	1.813751	0.042751
 147	7.3000e-02	5.7993	44.763361	0.001424	14.241826	4.825261	0.113733
 148	7.3500e-02	5.8538	44.997281	0.000586	5.858340	1.984859	0.046784
 149	7.4000e-02	5.8811	45.219102	0.000556	5.555322	1.882194	0.044364
 150	7.4500e-02	5.9292	45.529650	0.000778	7.777451	2.635072	0.062110
 151	7.5000e-02	5.9677	45.743404	0.000535	5.353310	1.813751	0.042751
 152	7.5500e-02	6.0030	45.900695	0.000394	3.939228	1.334647	0.031458
 153	7.6000e-02	6.0399	46.412899	0.001283	12.827744	4.346157	0.102441
 154	7.6500e-02	6.0816	46.929135	0.001293	12.928750	4.380379	0.103247
 155	7.7000e-02	6.1250	47.005764	0.000192	1.919111	0.650212	0.015326
 156	7.7500e-02	6.1586	47.126757	0.000303	3.030176	1.026651	0.024199
 157	7.8000e-02	6.2052	47.453438	0.000818	8.181474	2.771959	0.065336
 158	7.8500e-02	6.2469	47.699457	0.000616	6.161357	2.087524	0.049204
 159	7.9000e-02	6.2886	47.997906	0.000747	7.474433	2.532407	0.059690
 160	7.9500e-02	6.3303	48.215694	0.000545	5.454316	1.847972	0.043557
 161	8.0000e-02	6.3640	48.739997	0.001313	13.130761	4.448822	0.104861
 162	8.0500e-02	6.4153	48.937618	0.000495	4.949287	1.676864	0.039524
 163	8.1000e-02	6.4442	49.615179	0.001697	16.968984	5.749247	0.135512
 164	8.1500e-02	6.4763	49.764404	0.000374	3.737217	1.266203	0.029845
 165	8.2000e-02	6.5276	49.885397	0.000303	3.030176	1.026651	0.024199
 166	8.2500e-02	6.5661	50.151581	0.000667	6.666387	2.258633	0.053237
 167	8.3000e-02	6.6094	50.345170	0.000485	4.848281	1.642642	0.038718
 168	8.3500e-02	6.6351	50.881572	0.001343	13.433779	4.551487	0.107280
 169	8.4000e-02	6.6961	51.038863	0.000394	3.939228	1.334647	0.031458
 170	8.4500e-02	6.7217	51.220352	0.000455	4.545264	1.539977	0.036298
 171	8.5000e-02	6.7602	51.659960	0.001101	11.009638	3.730166	0.087922
 172	8.5500e-02	6.8132	51.684159	0.000061	0.606035	0.205330	0.004840
 173	8.6000e-02	6.8437	51.998740	0.000788	7.878457	2.669293	0.062916
 174	8.6500e-02	6.8806	52.289123	0.000727	7.272422	2.463963	0.058077
 175	8.7000e-02	6.9191	52.623871	0.000838	8.383486	2.840402	0.066949
 176	8.7500e-02	6.9672	53.007015	0.000960	9.595556	3.251062	0.076629
 177	8.8000e-02	6.9993	53.232868	0.000566	5.656328	1.916416	0.045171
 178	8.8500e-02	7.0378	53.486954	0.000636	6.363369	2.155968	0.050817
 179	8.9000e-02	7.0907	53.753138	0.000667	6.666387	2.258633	0.053237
 180	8.9500e-02	7.1260	54.184680	0.001081	10.807627	3.661723	0.086308
 181	9.0000e-02	7.1613	54.519427	0.000838	8.383486	2.840402	0.066949
 182	9.0500e-02	7.1998	54.769479	0.000626	6.262363	2.121746	0.050010
 183	9.1000e-02	7.2399	54.821909	0.000131	1.313076	0.444882	0.010486
 184	9.1500e-02	7.2784	55.156656	0.000838	8.383486	2.840402	0.066949
 185	9.2000e-02	7.3281	55.418808	0.000657	6.565381	2.224411	0.052430
 186	9.2500e-02	7.3634	55.858416	0.001101	11.009638	3.730166	0.087922
 187	9.3000e-02	7.4035	55.842283	-0.000040	-0.404023	-0.136887	-0.003226
 188	9.3500e-02	7.4436	56.205262	0.000909	9.090527	3.079954	0.072596
 189	9.4000e-02	7.4821	56.592440	0.000970	9.696562	3.285284	0.077435
 190	9.4500e-02	7.5239	56.826359	0.000586	5.858340	1.984859	0.046784
 191	9.5000e-02	7.5575	57.140941	0.000788	7.878457	2.669293	0.062916
 192	9.5500e-02	7.5960	57.624913	0.001212	12.120703	4.106605	0.096794
 193	9.6000e-02	7.6394	57.758005	0.000333	3.333193	1.129316	0.026618
 194	9.6500e-02	7.6859	58.165348	0.001020	10.201591	3.456393	0.081469
 195	9.7000e-02	7.7260	58.354904	0.000475	4.747275	1.608420	0.037911
 196	9.7500e-02	7.7645	58.734015	0.000949	9.494550	3.216841	0.075822
 197	9.8000e-02	7.7998	58.951802	0.000545	5.454316	1.847972	0.043557
 198	9.8500e-02	7.8463	59.282516	0.000828	8.282480	2.806180	0.066143
 199	9.9000e-02	7.8736	59.459973	0.000444	4.444258	1.505755	0.035491
 200	9.9500e-02	7.9265	59.754389	0.000737	7.373428	2.498185	0.058883
 201	1.0000e-01	7.9650	60.028640	0.000687	6.868398	2.327076	0.054850
 202	1.0050e-01	7.9971	60.274659	0.000616	6.161357	2.087524	0.049204
 203	1.0100e-01	8.0452	60.625538	0.000879	8.787509	2.977289	0.070176
 204	1.0150e-01	8.0853	60.879623	0.000636	6.363369	2.155968	0.050817
 205	1.0200e-01	8.1206	61.145808	0.000667	6.666387	2.258633	0.053237
 206	1.0250e-01	8.1623	61.387794	0.000606	6.060351	2.053303	0.048397
 207	1.0300e-01	8.2024	61.585416	0.000495	4.949287	1.676864	0.039524
 208	1.0350e-01	8.2490	61.770938	0.000465	4.646269	1.574199	0.037105
 209	1.0400e-01	8.2698	62.214579	0.001111	11.110644	3.764388	0.088728
 210	1.0450e-01	8.3260	62.577558	0.000909	9.090527	3.079954	0.072596
 211	1.0500e-01	8.3645	62.581591	0.000010	0.101006	0.034222	0.000807
 212	1.0550e-01	8.3998	62.972802	0.000980	9.797568	3.319506	0.078242
 213	1.0600e-01	8.4447	63.279317	0.000768	7.676445	2.600850	0.061303
 214	1.0650e-01	8.4768	63.682627	0.001010	10.100586	3.422171	0.080662
 215	1.0700e-01	8.5281	63.726991	0.000111	1.111064	0.376439	0.008873
 216	1.0750e-01	8.5650	63.872183	0.000364	3.636211	1.231982	0.029038
 217	1.0800e-01	8.6051	64.214996	0.000859	8.585498	2.908845	0.068563
 218	1.0850e-01	8.6468	64.598140	0.000960	9.595556	3.251062	0.076629
 219	1.0900e-01	8.6885	64.840126	0.000606	6.060351	2.053303	0.048397
 220	1.0950e-01	8.7206	65.150675	0.000778	7.777451	2.635072	0.062110
 221	1.1000e-01	8.7655	65.372495	0.000556	5.555322	1.882194	0.044364
 222	1.1050e-01	8.8088	65.473323	0.000253	2.525146	0.855543	0.020165
 223	1.1100e-01	8.8441	65.860500	0.000970	9.696562	3.285284	0.077435
 224	1.1150e-01	8.8810	66.203314	0.000859	8.585498	2.908845	0.068563
 225	1.1200e-01	8.9195	66.505796	0.000758	7.575439	2.566628	0.060496
 226	1.1250e-01	8.9725	66.751815	0.000616	6.161357	2.087524	0.049204
 227	1.1300e-01	9.0062	66.832477	0.000202	2.020117	0.684434	0.016132
 228	1.1350e-01	9.0415	67.147059	0.000788	7.878457	2.669293	0.062916
 229	1.1400e-01	9.0880	67.514071	0.000919	9.191533	3.114176	0.073402
 230	1.1450e-01	9.1281	67.570534	0.000141	1.414082	0.479104	0.011293
 231	1.1500e-01	9.1682	67.885116	0.000788	7.878457	2.669293	0.062916
 232	1.1550e-01	9.2067	68.336823	0.001131	11.312656	3.832832	0.090341
 233	1.1600e-01	9.2468	68.663504	0.000818	8.181474	2.771959	0.065336
 234	1.1650e-01	9.2789	68.873225	0.000525	5.252305	1.779529	0.041944
 235	1.1700e-01	9.3270	69.187807	0.000788	7.878457	2.669293	0.062916
 236	1.1750e-01	9.3607	69.554818	0.000919	9.191533	3.114176	0.073402
 237	1.1800e-01	9.4008	69.651613	0.000242	2.424141	0.821321	0.019359
 238	1.1850e-01	9.4521	69.897632	0.000616	6.161357	2.087524	0.049204
 239	1.1900e-01	9.4762	70.304975	0.001020	10.201591	3.456393	0.081469
 240	1.1950e-01	9.5243	70.409835	0.000263	2.626152	0.889764	0.020972
 241	1.2000e-01	9.5628	70.817178	0.001020	10.201591	3.456393	0.081469
 242	1.2050e-01	9.5997	71.026899	0.000525	5.252305	1.779529	0.041944
 243	1.2100e-01	9.6414	71.216455	0.000475	4.747275	1.608420	0.037911
 244	1.2150e-01	9.6896	71.470540	0.000636	6.363369	2.155968	0.050817
 245	1.2200e-01	9.7217	71.623798	0.000384	3.838223	1.300425	0.030652
 246	1.2250e-01	9.7650	71.982744	0.000899	8.989521	3.045732	0.071789
 247	1.2300e-01	9.8003	72.345723	0.000909	9.090527	3.079954	0.072596
 248	1.2350e-01	9.8388	72.579642	0.000586	5.858340	1.984859	0.046784
 249	1.2400e-01	9.8805	72.624007	0.000111	1.111064	0.376439	0.008873
 250	1.2450e-01	9.9206	72.950688	0.000818	8.181474	2.771959	0.065336
 251	1.2500e-01	9.9623	73.261236	0.000778	7.777451	2.635072	0.062110
 252	1.2550e-01	9.9976	73.487090	0.000566	5.656328	1.916416	0.045171
 253	1.2600e-01	10.0457	73.785539	0.000747	7.474433	2.532407	0.059690
 254	1.2650e-01	10.0874	74.019459	0.000586	5.858340	1.984859	0.046784
 255	1.2700e-01	10.1163	74.281610	0.000657	6.565381	2.224411	0.052430
 256	1.2750e-01	10.1660	74.543761	0.000657	6.565381	2.224411	0.052430
 257	1.2800e-01	10.2061	74.733317	0.000475	4.747275	1.608420	0.037911
 258	1.2850e-01	10.2478	74.878509	0.000364	3.636211	1.231982	0.029038
 259	1.2900e-01	10.2831	75.193090	0.000788	7.878457	2.669293	0.062916
 260	1.2950e-01	10.3264	75.531871	0.000848	8.484492	2.874624	0.067756
 261	1.3000e-01	10.3682	75.923081	0.000980	9.797568	3.319506	0.078242
 262	1.3050e-01	10.4067	76.310259	0.000970	9.696562	3.285284	0.077435
 263	1.3100e-01	10.4468	76.411086	0.000253	2.525146	0.855543	0.020165
 264	1.3150e-01	10.4885	76.596609	0.000465	4.646269	1.574199	0.037105
 265	1.3200e-01	10.5270	77.044283	0.001121	11.211650	3.798610	0.089535
 266	1.3250e-01	10.5607	77.266103	0.000556	5.555322	1.882194	0.044364
 267	1.3300e-01	10.6040	77.217706	-0.000121	-1.212070	-0.410661	-0.009679
 268	1.3350e-01	10.6441	77.459692	0.000606	6.060351	2.053303	0.048397
 269	1.3400e-01	10.6842	77.725876	0.000667	6.666387	2.258633	0.053237
 270	1.3450e-01	10.7227	78.032392	0.000768	7.676445	2.600850	0.061303
 271	1.3500e-01	10.7564	78.258245	0.000566	5.656328	1.916416	0.045171
 272	1.3550e-01	10.8045	78.560728	0.000758	7.575439	2.566628	0.060496
 273	1.3600e-01	10.8446	78.907574	0.000869	8.686504	2.943067	0.069369
 274	1.3650e-01	10.8799	79.048733	0.000354	3.535205	1.197760	0.028232
 275	1.3700e-01	10.9345	79.339116	0.000727	7.272422	2.463963	0.058077
 276	1.3750e-01	10.9633	79.431877	0.000232	2.323135	0.787099	0.018552
 277	1.3800e-01	11.0050	79.726293	0.000737	7.373428	2.498185	0.058883
 278	1.3850e-01	11.0451	80.153802	0.001071	10.706621	3.627501	0.085502
 279	1.3900e-01	11.0885	80.020709	-0.000333	-3.333193	-1.129316	-0.026618
 280	1.3950e-01	11.1254	80.331258	0.000778	7.777451	2.635072	0.062110
 281	1.4000e-01	11.1687	80.867660	0.001343	13.433779	4.551487	0.107280
 282	1.4050e-01	11.2040	81.166109	0.000747	7.474433	2.532407	0.059690
 283	1.4100e-01	11.2473	81.363731	0.000495	4.949287	1.676864	0.039524
 284	1.4150e-01	11.2874	81.702511	0.000848	8.484492	2.874624	0.067756
 285	1.4200e-01	11.3195	81.984828	0.000707	7.070410	2.395520	0.056463
 286	1.4250e-01	11.3596	82.174384	0.000475	4.747275	1.608420	0.037911
 287	1.4300e-01	11.4093	82.303443	0.000323	3.232187	1.095095	0.025812
 288	1.4350e-01	11.4494	82.597859	0.000737	7.373428	2.498185	0.058883
 289	1.4400e-01	11.4863	82.855978	0.000646	6.464375	2.190189	0.051624
 290	1.4450e-01	11.5264	82.843878	-0.000030	-0.303018	-0.102665	-0.002420
 291	1.4500e-01	11.5553	83.142328	0.000747	7.474433	2.532407	0.059690
 292	1.4550e-01	11.6066	83.513373	0.000929	9.292539	3.148397	0.074209
 293	1.4600e-01	11.6467	83.811822	0.000747	7.474433	2.532407	0.059690
 294	1.4650e-01	11.6836	83.900550	0.000222	2.222129	0.752878	0.017746
 295	1.4700e-01	11.7269	84.102205	0.000505	5.050293	1.711086	0.040331
 296	1.4750e-01	11.7606	84.392588	0.000727	7.272422	2.463963	0.058077
 297	1.4800e-01	11.7943	84.586177	0.000485	4.848281	1.642642	0.038718
 298	1.4850e-01	11.8457	84.900759	0.000788	7.878457	2.669293	0.062916
 299	1.4900e-01	11.8842	85.195175	0.000737	7.373428	2.498185	0.058883
 300	1.4950e-01	11.9243	85.453293	0.000646	6.464375	2.190189	0.051624
 301	1.5000e-01	11.9724	85.533955	0.000202	2.020117	0.684434	0.016132
 302	1.5050e-01	12.0029	85.751742	0.000545	5.454316	1.847972	0.043557
 303	1.5100e-01	12.0430	86.211516	0.001151	11.514668	3.901275	0.091955
 304	1.5150e-01	12.0879	86.348641	0.000343	3.434199	1.163538	0.027425
 305	1.5200e-01	12.1248	86.618859	0.000677	6.767392	2.292855	0.054044
 306	1.5250e-01	12.1633	87.026202	0.001020	10.201591	3.456393	0.081469
 307	1.5300e-01	12.2066	87.260121	0.000586	5.858340	1.984859	0.046784
 308	1.5350e-01	12.2419	87.304485	0.000111	1.111064	0.376439	0.008873
 309	1.5400e-01	12.2852	87.659398	0.000889	8.888515	3.011511	0.070983
 310	1.5450e-01	12.3301	87.848954	0.000475	4.747275	1.608420	0.037911
 311	1.5500e-01	12.3638	87.994145	0.000364	3.636211	1.231982	0.029038
 312	1.5550e-01	12.4071	88.139337	0.000364	3.636211	1.231982	0.029038
 313	1.5600e-01	12.4408	88.627342	0.001222	12.221709	4.140827	0.097601
 314	1.5650e-01	12.4873	88.760434	0.000333	3.333193	1.129316	0.026618
 315	1.5700e-01	12.5194	89.054850	0.000737	7.373428	2.498185	0.058883
 316	1.5750e-01	12.5563	89.369432	0.000788	7.878457	2.669293	0.062916
 317	1.5800e-01	12.6077	89.651749	0.000707	7.070410	2.395520	0.056463
 318	1.5850e-01	12.6414	89.805007	0.000384	3.838223	1.300425	0.030652
 319	1.5900e-01	12.6847	89.966331	0.000404	4.040234	1.368868	0.032265
 320	1.5950e-01	12.7248	90.071191	0.000263	2.626152	0.889764	0.020972
 321	1.6000e-01	12.7697	90.345442	0.000687	6.868398	2.327076	0.054850
 322	1.6050e-01	12.8050	90.655990	0.000778	7.777451	2.635072	0.062110
 323	1.6100e-01	12.8403	90.986704	0.000828	8.282480	2.806180	0.066143
 324	1.6150e-01	12.8852	91.293220	0.000768	7.676445	2.600850	0.061303
 325	1.6200e-01	12.9237	91.434378	0.000354	3.535205	1.197760	0.028232
 326	1.6250e-01	12.9686	91.805423	0.000929	9.292539	3.148397	0.074209
 327	1.6300e-01	13.0071	92.023211	0.000545	5.454316	1.847972	0.043557
 328	1.6350e-01	13.0376	91.930450	-0.000232	-2.323135	-0.787099	-0.018552
 329	1.6400e-01	13.0873	92.293428	0.000909	9.090527	3.079954	0.072596
 330	1.6450e-01	13.1194	92.507183	0.000535	5.353310	1.813751	0.042751
 331	1.6500e-01	13.1627	92.632209	0.000313	3.131182	1.060873	0.025005
 332	1.6550e-01	13.1964	92.708838	0.000192	1.919111	0.650212	0.015326
 333	1.6600e-01	13.2397	93.184743	0.001192	11.918691	4.038162	0.095181
 334	1.6650e-01	13.2879	93.442862	0.000646	6.464375	2.190189	0.051624
 335	1.6700e-01	13.3232	93.547722	0.000263	2.626152	0.889764	0.020972
 336	1.6750e-01	13.3601	93.773576	0.000566	5.656328	1.916416	0.045171
 337	1.6800e-01	13.4002	94.156720	0.000960	9.595556	3.251062	0.076629
 338	1.6850e-01	13.4435	94.503566	0.000869	8.686504	2.943067	0.069369
 339	1.6900e-01	13.4820	94.568096	0.000162	1.616094	0.547547	0.012906
 340	1.6950e-01	13.5189	94.753619	0.000465	4.646269	1.574199	0.037105
 341	1.7000e-01	13.5542	95.064167	0.000778	7.777451	2.635072	0.062110
 342	1.7050e-01	13.6071	95.302120	0.000596	5.959346	2.019081	0.047591
 343	1.7100e-01	13.6408	95.342451	0.000101	1.010059	0.342217	0.008066
 344	1.7150e-01	13.6857	95.741728	0.001000	9.999580	3.387949	0.079855
 345	1.7200e-01	13.7210	95.890952	0.000374	3.737217	1.266203	0.029845
 346	1.7250e-01	13.7611	96.290229	0.001000	9.999580	3.387949	0.079855
 347	1.7300e-01	13.7980	96.378957	0.000222	2.222129	0.752878	0.017746
 348	1.7350e-01	13.8413	96.536248	0.000394	3.939228	1.334647	0.031458
 349	1.7400e-01	13.8846	96.750002	0.000535	5.353310	1.813751	0.042751
 350	1.7450e-01	13.9247	96.939558	0.000475	4.747275	1.608420	0.037911
 351	1.7500e-01	13.9616	97.306570	0.000919	9.191533	3.114176	0.073402
 352	1.7550e-01	13.9969	97.435629	0.000323	3.232187	1.095095	0.025812
 353	1.7600e-01	14.0370	97.754244	0.000798	7.979463	2.703515	0.063723
 354	1.7650e-01	14.0771	98.012362	0.000646	6.464375	2.190189	0.051624
 355	1.7700e-01	14.1221	98.169653	0.000394	3.939228	1.334647	0.031458
 356	1.7750e-01	14.1638	98.625393	0.001141	11.413662	3.867053	0.091148
 357	1.7800e-01	14.1943	98.649592	0.000061	0.606035	0.205330	0.004840
 358	1.7850e-01	14.2344	98.847214	0.000495	4.949287	1.676864	0.039524
 359	1.7900e-01	14.2825	99.133564	0.000717	7.171416	2.429741	0.057270
 360	1.7950e-01	14.3210	99.331185	0.000495	4.949287	1.676864	0.039524
 361	1.8000e-01	14.3595	99.601403	0.000677	6.767392	2.292855	0.054044
 362	1.8050e-01	14.4076	99.807091	0.000515	5.151299	1.745307	0.041138
 363	1.8100e-01	14.4333	99.907919	0.000253	2.525146	0.855543	0.020165
 364	1.8150e-01	14.4782	100.202335	0.000737	7.373428	2.498185	0.058883
 365	1.8200e-01	14.5231	100.593545	0.000980	9.797568	3.319506	0.078242
 366	1.8250e-01	14.5600	100.654042	0.000152	1.515088	0.513326	0.012099
 367	1.8300e-01	14.5969	100.912160	0.000646	6.464375	2.190189	0.051624
 368	1.8350e-01	14.6322	100.956524	0.000111	1.111064	0.376439	0.008873
 369	1.8400e-01	14.6803	101.061385	0.000263	2.626152	0.889764	0.020972
 370	1.8450e-01	14.7236	101.371933	0.000778	7.777451	2.635072	0.062110
 371	1.8500e-01	14.7589	101.722813	0.000879	8.787509	2.977289	0.070176
 372	1.8550e-01	14.8007	102.009163	0.000717	7.171416	2.429741	0.057270
 373	1.8600e-01	14.8392	102.271314	0.000657	6.565381	2.224411	0.052430
 374	1.8650e-01	14.8825	102.347943	0.000192	1.919111	0.650212	0.015326
 375	1.8700e-01	14.9242	102.537499	0.000475	4.747275	1.608420	0.037911
 376	1.8750e-01	14.9563	102.969040	0.001081	10.807627	3.661723	0.086308
 377	1.8800e-01	15.0028	103.001305	0.000081	0.808047	0.273774	0.006453
 378	1.8850e-01	15.0397	103.485277	0.001212	12.120703	4.106605	0.096794
 379	1.8900e-01	15.0862	103.646601	0.000404	4.040234	1.368868	0.032265
 380	1.8950e-01	15.1183	103.795826	0.000374	3.737217	1.266203	0.029845
 381	1.9000e-01	15.1648	103.828090	0.000081	0.808047	0.273774	0.006453
 382	1.9050e-01	15.2049	104.332228	0.001263	12.625732	4.277714	0.100827
 383	1.9100e-01	15.2418	104.622611	0.000727	7.272422	2.463963	0.058077
 384	1.9150e-01	15.2819	104.735538	0.000283	2.828164	0.958208	0.022585
 385	1.9200e-01	15.3220	104.840398	0.000263	2.626152	0.889764	0.020972
 386	1.9250e-01	15.3653	105.009788	0.000424	4.242246	1.437312	0.033878
 387	1.9300e-01	15.4103	105.251774	0.000606	6.060351	2.053303	0.048397
 388	1.9350e-01	15.4423	105.409065	0.000394	3.939228	1.334647	0.031458
 389	1.9400e-01	15.4937	105.659117	0.000626	6.262363	2.121746	0.050010
 390	1.9450e-01	15.5242	105.784143	0.000313	3.131182	1.060873	0.025005
 391	1.9500e-01	15.5643	106.086626	0.000758	7.575439	2.566628	0.060496
 392	1.9550e-01	15.6060	106.308446	0.000556	5.555322	1.882194	0.044364
 393	1.9600e-01	15.6461	106.522200	0.000535	5.353310	1.813751	0.042751
 394	1.9650e-01	15.6846	106.667392	0.000364	3.636211	1.231982	0.029038
 395	1.9700e-01	15.7247	106.977940	0.000778	7.777451	2.635072	0.062110
 396	1.9750e-01	15.7616	107.151364	0.000434	4.343252	1.471534	0.034685
 397	1.9800e-01	15.8017	107.546607	0.000990	9.898574	3.353728	0.079049
 398	1.9850e-01	15.8514	107.671633	0.000313	3.131182	1.060873	0.025005
 399	1.9900e-01	15.8851	107.715997	0.000111	1.111064	0.376439	0.008873
 400	1.9950e-01	15.9188	107.917652	0.000505	5.050293	1.711086	0.040331
 401	2.0000e-01	15.9653	108.280631	0.000909	9.090527	3.079954	0.072596
 402	2.0050e-01	16.0006	108.683941	0.001010	10.100586	3.422171	0.080662
 403	2.0100e-01	16.0471	108.885596	0.000505	5.050293	1.711086	0.040331
 404	2.0150e-01	16.0776	109.046920	0.000404	4.040234	1.368868	0.032265
 405	2.0200e-01	16.1225	109.050953	0.000010	0.101006	0.034222	0.000807
 406	2.0250e-01	16.1626	109.163880	0.000283	2.828164	0.958208	0.022585
 407	2.0300e-01	16.2124	109.426031	0.000657	6.565381	2.224411	0.052430
 408	2.0350e-01	16.2396	109.708348	0.000707	7.070410	2.395520	0.056463
 409	2.0400e-01	16.2926	109.910003	0.000505	5.050293	1.711086	0.040331
 410	2.0450e-01	16.3231	110.135857	0.000566	5.656328	1.916416	0.045171
 411	2.0500e-01	16.3568	110.555299	0.001050	10.504609	3.559058	0.083888
 412	2.0550e-01	16.4049	110.607729	0.000131	1.313076	0.444882	0.010486
 413	2.0600e-01	16.4418	110.599663	-0.000020	-0.202012	-0.068443	-0.001613
 414	2.0650e-01	16.4819	111.107833	0.001273	12.726738	4.311936	0.101634
 415	2.0700e-01	16.5220	111.257058	0.000374	3.737217	1.266203	0.029845
 416	2.0750e-01	16.5717	111.559540	0.000758	7.575439	2.566628	0.060496
 417	2.0800e-01	16.5990	111.870089	0.000778	7.777451	2.635072	0.062110
 418	2.0850e-01	16.6407	111.902354	0.000081	0.808047	0.273774	0.006453
 419	2.0900e-01	16.6840	112.200803	0.000747	7.474433	2.532407	0.059690
 420	2.0950e-01	16.7225	112.410524	0.000525	5.252305	1.779529	0.041944
 421	2.1000e-01	16.7642	112.491186	0.000202	2.020117	0.684434	0.016132
 422	2.1050e-01	16.7931	112.749305	0.000646	6.464375	2.190189	0.051624
 423	2.1100e-01	16.8428	113.019522	0.000677	6.767392	2.292855	0.054044
 424	2.1150e-01	16.8829	113.205045	0.000465	4.646269	1.574199	0.037105
 425	2.1200e-01	16.9263	113.414766	0.000525	5.252305	1.779529	0.041944
 426	2.1250e-01	16.9599	113.543825	0.000323	3.232187	1.095095	0.025812
 427	2.1300e-01	17.0033	113.943102	0.001000	9.999580	3.387949	0.079855
 428	2.1350e-01	17.0337	113.943102	0.000000	0.000000	0.000000	0.000000
 429	2.1400e-01	17.0867	114.177021	0.000586	5.858340	1.984859	0.046784
 430	2.1450e-01	17.1316	114.362544	0.000465	4.646269	1.574199	0.037105
 431	2.1500e-01	17.1669	114.729556	0.000919	9.191533	3.114176	0.073402
 432	2.1550e-01	17.2022	114.741655	0.000030	0.303018	0.102665	0.002420
 433	2.1600e-01	17.2503	115.064303	0.000808	8.080469	2.737737	0.064530
 434	2.1650e-01	17.2840	115.245793	0.000455	4.545264	1.539977	0.036298
 435	2.1700e-01	17.3225	115.411150	0.000414	4.141240	1.403090	0.033071
 436	2.1750e-01	17.3658	115.600705	0.000475	4.747275	1.608420	0.037911
 437	2.1800e-01	17.4043	115.870923	0.000677	6.767392	2.292855	0.054044
 438	2.1850e-01	17.4396	116.262133	0.000980	9.797568	3.319506	0.078242
 439	2.1900e-01	17.4910	116.302464	0.000101	1.010059	0.342217	0.008066
 440	2.1950e-01	17.5246	116.492020	0.000475	4.747275	1.608420	0.037911
 441	2.2000e-01	17.5615	116.754171	0.000657	6.565381	2.224411	0.052430
 442	2.2050e-01	17.6097	116.887264	0.000333	3.333193	1.129316	0.026618
 443	2.2100e-01	17.6498	117.036488	0.000374	3.737217	1.266203	0.029845
 444	2.2150e-01	17.6786	117.290574	0.000636	6.363369	2.155968	0.050817
 445	2.2200e-01	17.7284	117.621288	0.000828	8.282480	2.806180	0.066143
 446	2.2250e-01	17.7701	117.943936	0.000808	8.080469	2.737737	0.064530
 447	2.2300e-01	17.8086	117.790678	-0.000384	-3.838223	-1.300425	-0.030652
 448	2.2350e-01	17.8455	118.089127	0.000747	7.474433	2.532407	0.059690
 449	2.2400e-01	17.8856	118.250451	0.000404	4.040234	1.368868	0.032265
 450	2.2450e-01	17.9289	118.335146	0.000212	2.121123	0.718656	0.016939
 451	2.2500e-01	17.9642	118.730390	0.000990	9.898574	3.353728	0.079049
 452	2.2550e-01	18.0139	118.899780	0.000424	4.242246	1.437312	0.033878
 453	2.2600e-01	18.0460	119.266792	0.000919	9.191533	3.114176	0.073402
 454	2.2650e-01	18.0797	119.416017	0.000374	3.737217	1.266203	0.029845
 455	2.2700e-01	18.1310	119.617671	0.000505	5.050293	1.711086	0.040331
 456	2.2750e-01	18.1695	119.726565	0.000273	2.727158	0.923986	0.021779
 457	2.2800e-01	18.2048	119.787062	0.000152	1.515088	0.513326	0.012099
 458	2.2850e-01	18.2481	120.093577	0.000768	7.676445	2.600850	0.061303
 459	2.2900e-01	18.2883	120.347662	0.000636	6.363369	2.155968	0.050817
 460	2.2950e-01	18.3284	120.605781	0.000646	6.464375	2.190189	0.051624
 461	2.3000e-01	18.3717	120.694509	0.000222	2.222129	0.752878	0.017746
 462	2.3050e-01	18.4022	121.126050	0.001081	10.807627	3.661723	0.086308
 463	2.3100e-01	18.4455	121.291407	0.000414	4.141240	1.403090	0.033071
 464	2.3150e-01	18.4872	121.323672	0.000081	0.808047	0.273774	0.006453
 465	2.3200e-01	18.5209	121.489029	0.000414	4.141240	1.403090	0.033071
 466	2.3250e-01	18.5706	121.860074	0.000929	9.292539	3.148397	0.074209
 467	2.3300e-01	18.6139	122.001233	0.000354	3.535205	1.197760	0.028232
 468	2.3350e-01	18.6428	122.170623	0.000424	4.242246	1.437312	0.033878
 469	2.3400e-01	18.6845	122.392443	0.000556	5.555322	1.882194	0.044364
 470	2.3450e-01	18.7278	122.654595	0.000657	6.565381	2.224411	0.052430
 471	2.3500e-01	18.7663	122.888514	0.000586	5.858340	1.984859	0.046784
 472	2.3550e-01	18.8080	123.215195	0.000818	8.181474	2.771959	0.065336
 473	2.3600e-01	18.8401	123.336188	0.000303	3.030176	1.026651	0.024199
 474	2.3650e-01	18.8738	123.509612	0.000434	4.343252	1.471534	0.034685
 475	2.3700e-01	18.9267	123.820160	0.000778	7.777451	2.635072	0.062110
 476	2.3750e-01	18.9572	123.864524	0.000111	1.111064	0.376439	0.008873
 477	2.3800e-01	19.0070	124.070212	0.000515	5.151299	1.745307	0.041138
 478	2.3850e-01	19.0519	124.235569	0.000414	4.141240	1.403090	0.033071
 479	2.3900e-01	19.0856	124.529986	0.000737	7.373428	2.498185	0.058883
 480	2.3950e-01	19.1273	124.715508	0.000465	4.646269	1.574199	0.037105
 481	2.4000e-01	19.1690	125.042189	0.000818	8.181474	2.771959	0.065336
 482	2.4050e-01	19.2075	125.106719	0.000162	1.616094	0.547547	0.012906
 483	2.4100e-01	19.2492	125.421300	0.000788	7.878457	2.669293	0.062916
 484	2.4150e-01	19.2909	125.618922	0.000495	4.949287	1.676864	0.039524
 485	2.4200e-01	19.3262	125.703617	0.000212	2.121123	0.718656	0.016939
 486	2.4250e-01	19.3599	126.078695	0.000939	9.393545	3.182619	0.075016
 487	2.4300e-01	19.4080	126.058530	-0.000051	-0.505029	-0.171109	-0.004033
 488	2.4350e-01	19.4433	126.231953	0.000434	4.343252	1.471534	0.034685
 489	2.4400e-01	19.4802	126.623164	0.000980	9.797568	3.319506	0.078242
 490	2.4450e-01	19.5235	126.558634	-0.000162	-1.616094	-0.547547	-0.012906
 491	2.4500e-01	19.5668	126.889348	0.000828	8.282480	2.806180	0.066143
 492	2.4550e-01	19.5989	126.941779	0.000131	1.313076	0.444882	0.010486
 493	2.4600e-01	19.6422	127.171665	0.000576	5.757334	1.950637	0.045977
 494	2.4650e-01	19.6968	127.357188	0.000465	4.646269	1.574199	0.037105
 495	2.4700e-01	19.7289	127.643538	0.000717	7.171416	2.429741	0.057270
 496	2.4750e-01	19.7770	127.776630	0.000333	3.333193	1.129316	0.026618
 497	2.4800e-01	19.8123	127.954086	0.000444	4.444258	1.505755	0.035491
 498	2.4850e-01	19.8412	128.240436	0.000717	7.171416	2.429741	0.057270
 499	2.4900e-01	19.8845	128.579217	0.000848	8.484492	2.874624	0.067756
 500	2.4950e-01	19.9262	128.712309	0.000333	3.333193	1.129316	0.026618
 501	2.5000e-01	19.9663	128.805070	0.000232	2.323135	0.787099	0.018552
 502	2.5050e-01	19.9695	128.797004	-0.000020	-0.202012	-0.068443	-0.001613
 503	2.5100e-01	19.9486	128.708276	0.000222	2.222129	0.752878	-0.017746
 504	2.5150e-01	19.9149	128.550985	0.000394	3.939228	1.334647	-0.031458
 505	2.5200e-01	19.8652	128.462257	0.000222	2.222129	0.752878	-0.017746
 506	2.5250e-01	19.8347	128.442091	0.000051	0.505029	0.171109	-0.004033
 507	2.5300e-01	19.7866	128.179940	0.000657	6.565381	2.224411	-0.052430
 508	2.5350e-01	19.7561	128.050881	0.000323	3.232187	1.095095	-0.025812
 509	2.5400e-01	19.7160	127.829060	0.000556	5.555322	1.882194	-0.044364
 510	2.5450e-01	19.6679	127.627405	0.000505	5.050293	1.711086	-0.040331
 511	2.5500e-01	19.6326	127.437850	0.000475	4.747275	1.608420	-0.037911
 512	2.5550e-01	19.5957	127.490280	-0.000131	-1.313076	-0.444882	0.010486
 513	2.5600e-01	19.5476	127.296691	0.000485	4.848281	1.642642	-0.038718
 514	2.5650e-01	19.5027	127.070838	0.000566	5.656328	1.916416	-0.045171
 515	2.5700e-01	19.4690	126.857083	0.000535	5.353310	1.813751	-0.042751
 516	2.5750e-01	19.4353	126.772388	0.000212	2.121123	0.718656	-0.016939
 517	2.5800e-01	19.3855	126.429575	0.000859	8.585498	2.908845	-0.068563
 518	2.5850e-01	19.3438	126.397310	0.000081	0.808047	0.273774	-0.006453
 519	2.5900e-01	19.3102	126.312615	0.000212	2.121123	0.718656	-0.016939
 520	2.5950e-01	19.2716	126.074662	0.000596	5.959346	2.019081	-0.047591
 521	2.6000e-01	19.2364	126.070629	0.000010	0.101006	0.034222	-0.000807
 522	2.6050e-01	19.1914	125.776213	0.000737	7.373428	2.498185	-0.058883
 523	2.6100e-01	19.1433	125.804445	-0.000071	-0.707041	-0.239552	0.005646
 524	2.6150e-01	19.1128	125.510029	0.000737	7.373428	2.498185	-0.058883
 525	2.6200e-01	19.0743	125.425333	0.000212	2.121123	0.718656	-0.016939
 526	2.6250e-01	19.0294	125.247877	0.000444	4.444258	1.505755	-0.035491
 527	2.6300e-01	18.9893	125.098652	0.000374	3.737217	1.266203	-0.029845
 528	2.6350e-01	18.9588	124.663078	0.001091	10.908632	3.695945	-0.087115
 529	2.6400e-01	18.9091	124.538052	0.000313	3.131182	1.060873	-0.025005
 530	2.6450e-01	18.8706	124.562250	-0.000061	-0.606035	-0.205330	0.004840
 531	2.6500e-01	18.8369	124.336397	0.000566	5.656328	1.916416	-0.045171
 532	2.6550e-01	18.7968	123.937120	0.001000	9.999580	3.387949	-0.079855
 533	2.6600e-01	18.7567	123.892756	0.000111	1.111064	0.376439	-0.008873
 534	2.6650e-01	18.7102	123.872590	0.000051	0.505029	0.171109	-0.004033
 535	2.6700e-01	18.6701	123.691101	0.000455	4.545264	1.539977	-0.036298
 536	2.6750e-01	18.6332	123.441049	0.000626	6.262363	2.121746	-0.050010
 537	2.6800e-01	18.5898	123.324089	0.000293	2.929170	0.992430	-0.023392
 538	2.6850e-01	18.5465	123.162765	0.000404	4.040234	1.368868	-0.032265
 539	2.6900e-01	18.5161	123.025640	0.000343	3.434199	1.163538	-0.027425
 540	2.6950e-01	18.4727	122.965143	0.000152	1.515088	0.513326	-0.012099
 541	2.7000e-01	18.4391	122.594098	0.000929	9.292539	3.148397	-0.074209
 542	2.7050e-01	18.3957	122.344046	0.000626	6.262363	2.121746	-0.050010
 543	2.7100e-01	18.3508	122.029464	0.000788	7.878457	2.669293	-0.062916
 544	2.7150e-01	18.3139	122.085928	-0.000141	-1.414082	-0.479104	0.011293
 545	2.7200e-01	18.2674	121.892339	0.000485	4.848281	1.642642	-0.038718
 546	2.7250e-01	18.2305	121.771346	0.000303	3.030176	1.026651	-0.024199
 547	2.7300e-01	18.1840	121.670519	0.000253	2.525146	0.855543	-0.020165
 548	2.7350e-01	18.1583	121.210745	0.001151	11.514668	3.901275	-0.091955
 549	2.7400e-01	18.1086	121.130083	0.000202	2.020117	0.684434	-0.016132
 550	2.7450e-01	18.0701	121.041355	0.000222	2.222129	0.752878	-0.017746
 551	2.7500e-01	18.0332	121.065554	-0.000061	-0.606035	-0.205330	0.004840
 552	2.7550e-01	17.9995	120.613847	0.001131	11.312656	3.832832	-0.090341
 553	2.7600e-01	17.9482	120.327497	0.000717	7.171416	2.429741	-0.057270
 554	2.7650e-01	17.9145	120.404126	-0.000192	-1.919111	-0.650212	0.015326
 555	2.7700e-01	17.8679	120.234736	0.000424	4.242246	1.437312	-0.033878
 556	2.7750e-01	17.8310	120.194405	0.000101	1.010059	0.342217	-0.008066
 557	2.7800e-01	17.7942	119.940319	0.000636	6.363369	2.155968	-0.050817
 558	2.7850e-01	17.7476	119.480546	0.001151	11.514668	3.901275	-0.091955
 559	2.7900e-01	17.7123	119.440215	0.000101	1.010059	0.342217	-0.008066
 560	2.7950e-01	17.6722	119.468447	-0.000071	-0.707041	-0.239552	0.005646
 561	2.8000e-01	17.6305	119.129667	0.000848	8.484492	2.874624	-0.067756
 562	2.8050e-01	17.5888	118.919945	0.000525	5.252305	1.779529	-0.041944
 563	2.8100e-01	17.5487	119.089336	-0.000424	-4.242246	-1.437312	0.033878
 564	2.8150e-01	17.5086	118.855416	0.000586	5.858340	1.984859	-0.046784
 565	2.8200e-01	17.4685	118.569066	0.000717	7.171416	2.429741	-0.057270
 566	2.8250e-01	17.4332	118.415808	0.000384	3.838223	1.300425	-0.030652
 567	2.8300e-01	17.3979	117.976200	0.001101	11.009638	3.730166	-0.087922
 568	2.8350e-01	17.3514	117.935869	0.000101	1.010059	0.342217	-0.008066
 569	2.8400e-01	17.3081	117.568857	0.000919	9.191533	3.114176	-0.073402
 570	2.8450e-01	17.2696	117.580957	-0.000030	-0.303018	-0.102665	0.002420
 571	2.8500e-01	17.2263	117.512394	0.000172	1.717100	0.581769	-0.013713
 572	2.8550e-01	17.2038	117.355103	0.000394	3.939228	1.334647	-0.031458
 573	2.8600e-01	17.1525	116.992124	0.000909	9.090527	3.079954	-0.072596
 574	2.8650e-01	17.1107	116.822734	0.000424	4.242246	1.437312	-0.033878
 575	2.8700e-01	17.0658	116.540417	0.000707	7.070410	2.395520	-0.056463
 576	2.8750e-01	17.0241	116.354895	0.000465	4.646269	1.574199	-0.037105
 577	2.8800e-01	16.9952	116.375060	-0.000051	-0.505029	-0.171109	0.004033
 578	2.8850e-01	16.9551	116.060478	0.000788	7.878457	2.669293	-0.062916
 579	2.8900e-01	16.9102	115.794294	0.000667	6.666387	2.258633	-0.053237
 580	2.8950e-01	16.8717	115.749930	0.000111	1.111064	0.376439	-0.008873
 581	2.9000e-01	16.8364	115.572474	0.000444	4.444258	1.505755	-0.035491
 582	2.9050e-01	16.7899	115.350653	0.000556	5.555322	1.882194	-0.044364
 583	2.9100e-01	16.7498	115.092535	0.000646	6.464375	2.190189	-0.051624
 584	2.9150e-01	16.7113	115.116733	-0.000061	-0.606035	-0.205330	0.004840
 585	2.9200e-01	16.6680	114.810218	0.000768	7.676445	2.600850	-0.061303
 586	2.9250e-01	16.6295	114.685192	0.000313	3.131182	1.060873	-0.025005
 587	2.9300e-01	16.5862	114.515802	0.000424	4.242246	1.437312	-0.033878
 588	2.9350e-01	16.5445	114.342378	0.000434	4.343252	1.471534	-0.034685
 589	2.9400e-01	16.5092	114.112492	0.000576	5.757334	1.950637	-0.045977
 590	2.9450e-01	16.4771	113.777745	0.000838	8.383486	2.840402	-0.066949
 591	2.9500e-01	16.4338	113.648686	0.000323	3.232187	1.095095	-0.025812
 592	2.9550e-01	16.3856	113.547858	0.000253	2.525146	0.855543	-0.020165
 593	2.9600e-01	16.3439	113.386534	0.000404	4.040234	1.368868	-0.032265
 594	2.9650e-01	16.3134	113.342170	0.000111	1.111064	0.376439	-0.008873
 595	2.9700e-01	16.2653	113.019522	0.000808	8.080469	2.737737	-0.064530
 596	2.9750e-01	16.2172	112.878364	0.000354	3.535205	1.197760	-0.028232
 597	2.9800e-01	16.1883	112.793669	0.000212	2.121123	0.718656	-0.016939
 598	2.9850e-01	16.1482	112.374226	0.001050	10.504609	3.559058	-0.083888
 599	2.9900e-01	16.1017	112.233068	0.000354	3.535205	1.197760	-0.028232
 600	2.9950e-01	16.0696	112.091909	0.000354	3.535205	1.197760	-0.028232
 601	3.0000e-01	16.0359	111.974950	0.000293	2.929170	0.992430	-0.023392
 602	3.0050e-01	15.9846	111.866056	0.000273	2.727158	0.923986	-0.021779
 603	3.0100e-01	15.9525	111.490978	0.000939	9.393545	3.182619	-0.075016
 604	3.0150e-01	15.9060	111.216727	0.000687	6.868398	2.327076	-0.054850
 605	3.0200e-01	15.8643	111.002973	0.000535	5.353310	1.813751	-0.042751
 606	3.0250e-01	15.8370	110.837616	0.000414	4.141240	1.403090	-0.033071
 607	3.0300e-01	15.7921	110.744855	0.000232	2.323135	0.787099	-0.018552
 608	3.0350e-01	15.7488	110.486736	0.000646	6.464375	2.190189	-0.051624
 609	3.0400e-01	15.7038	110.462538	0.000061	0.606035	0.205330	-0.004840
 610	3.0450e-01	15.6734	110.256850	0.000515	5.151299	1.745307	-0.041138
 611	3.0500e-01	15.6316	110.151989	0.000263	2.626152	0.889764	-0.020972
 612	3.0550e-01	15.5899	109.768845	0.000960	9.595556	3.251062	-0.076629
 613	3.0600e-01	15.5482	109.526859	0.000606	6.060351	2.053303	-0.048397
 614	3.0650e-01	15.5017	109.470395	0.000141	1.414082	0.479104	-0.011293
 615	3.0700e-01	15.4696	109.143714	0.000818	8.181474	2.771959	-0.065336
 616	3.0750e-01	15.4327	108.873497	0.000677	6.767392	2.292855	-0.054044
 617	3.0800e-01	15.3910	108.857364	0.000040	0.404023	0.136887	-0.003226
 618	3.0850e-01	15.3541	108.623445	0.000586	5.858340	1.984859	-0.046784
 619	3.0900e-01	15.3124	108.357260	0.000667	6.666387	2.258633	-0.053237
 620	3.0950e-01	15.2787	108.280631	0.000192	1.919111	0.650212	-0.015326
 621	3.1000e-01	15.2161	108.147539	0.000333	3.333193	1.129316	-0.026618
 622	3.1050e-01	15.1905	107.917652	0.000576	5.757334	1.950637	-0.045977
 623	3.1100e-01	15.1568	107.679700	0.000596	5.959346	2.019081	-0.047591
 624	3.1150e-01	15.1215	107.304621	0.000939	9.393545	3.182619	-0.075016
 625	3.1200e-01	15.0750	107.127165	0.000444	4.444258	1.505755	-0.035491
 626	3.1250e-01	15.0365	107.111033	0.000040	0.404023	0.136887	-0.003226
 627	3.1300e-01	14.9771	106.727888	0.000960	9.595556	3.251062	-0.076629
 628	3.1350e-01	14.9498	106.631094	0.000242	2.424141	0.821321	-0.019359
 629	3.1400e-01	14.9049	106.554465	0.000192	1.919111	0.650212	-0.015326
 630	3.1450e-01	14.8712	106.268115	0.000717	7.171416	2.429741	-0.057270
 631	3.1500e-01	14.8343	105.884971	0.000960	9.595556	3.251062	-0.076629
 632	3.1550e-01	14.7894	105.808342	0.000192	1.919111	0.650212	-0.015326
 633	3.1600e-01	14.7493	105.667183	0.000354	3.535205	1.197760	-0.028232
 634	3.1650e-01	14.7092	105.727680	-0.000152	-1.515088	-0.513326	0.012099
 635	3.1700e-01	14.6755	105.284039	0.001111	11.110644	3.764388	-0.088728
 636	3.1750e-01	14.6306	104.892828	0.000980	9.797568	3.319506	-0.078242
 637	3.1800e-01	14.5905	104.953325	-0.000152	-1.515088	-0.513326	0.012099
 638	3.1850e-01	14.5488	104.683107	0.000677	6.767392	2.292855	-0.054044
 639	3.1900e-01	14.5151	104.465320	0.000545	5.454316	1.847972	-0.043557
 640	3.1950e-01	14.4622	104.275764	0.000475	4.747275	1.608420	-0.037911
 641	3.2000e-01	14.4301	103.912785	0.000909	9.090527	3.079954	-0.072596
 642	3.2050e-01	14.3980	103.799859	0.000283	2.828164	0.958208	-0.022585
 643	3.2100e-01	14.3547	103.719197	0.000202	2.020117	0.684434	-0.016132
 644	3.2150e-01	14.3130	103.586105	0.000333	3.333193	1.129316	-0.026618
 645	3.2200e-01	14.2632	103.477211	0.000273	2.727158	0.923986	-0.021779
 646	3.2250e-01	14.2311	103.279589	0.000495	4.949287	1.676864	-0.039524
 647	3.2300e-01	14.1910	102.952908	0.000818	8.181474	2.771959	-0.065336
 648	3.2350e-01	14.1429	102.638326	0.000788	7.878457	2.669293	-0.062916
 649	3.2400e-01	14.1060	102.396340	0.000606	6.060351	2.053303	-0.048397
 650	3.2450e-01	14.0723	102.202752	0.000485	4.848281	1.642642	-0.038718
 651	3.2500e-01	14.0242	102.053527	0.000374	3.737217	1.266203	-0.029845
 652	3.2550e-01	13.9905	102.057560	-0.000010	-0.101006	-0.034222	0.000807
 653	3.2600e-01	13.9488	101.674416	0.000960	9.595556	3.251062	-0.076629
 654	3.2650e-01	13.9119	101.553423	0.000303	3.030176	1.026651	-0.024199
 655	3.2700e-01	13.8670	101.101716	0.001131	11.312656	3.832832	-0.090341
 656	3.2750e-01	13.8349	100.920226	0.000455	4.545264	1.539977	-0.036298
 657	3.2800e-01	13.7900	100.859730	0.000152	1.515088	0.513326	-0.012099
 658	3.2850e-01	13.7579	100.650009	0.000525	5.252305	1.779529	-0.041944
 659	3.2900e-01	13.7034	100.347526	0.000758	7.575439	2.566628	-0.060496
 660	3.2950e-01	13.6697	100.174103	0.000434	4.343252	1.471534	-0.034685
 661	3.3000e-01	13.6199	100.045044	0.000323	3.232187	1.095095	-0.025812
 662	3.3050e-01	13.5975	99.649800	0.000990	9.898574	3.353728	-0.079049
 663	3.3100e-01	13.5526	99.649800	-0.000000	-0.000000	-0.000000	0.000000
 664	3.3150e-01	13.5076	99.548973	0.000253	2.525146	0.855543	-0.020165
 665	3.3200e-01	13.4691	99.464278	0.000212	2.121123	0.718656	-0.016939
 666	3.3250e-01	13.4274	98.972240	0.001232	12.322714	4.175049	-0.098408
 667	3.3300e-01	13.3809	98.867379	0.000263	2.626152	0.889764	-0.020972
 668	3.3350e-01	13.3536	98.790750	0.000192	1.919111	0.650212	-0.015326
 669	3.3400e-01	13.3055	98.391474	0.001000	9.999580	3.387949	-0.079855
 670	3.3450e-01	13.2734	98.209984	0.000455	4.545264	1.539977	-0.036298
 671	3.3500e-01	13.2365	98.064793	0.000364	3.636211	1.231982	-0.029038
 672	3.3550e-01	13.1868	97.851038	0.000535	5.353310	1.813751	-0.042751
 673	3.3600e-01	13.1579	97.552589	0.000747	7.474433	2.532407	-0.059690
 674	3.3650e-01	13.1162	97.484026	0.000172	1.717100	0.581769	-0.013713
 675	3.3700e-01	13.0649	97.596953	-0.000283	-2.828164	-0.958208	0.022585
 676	3.3750e-01	13.0232	97.217842	0.000949	9.494550	3.216841	-0.075822
 677	3.3800e-01	12.9863	96.689506	0.001323	13.231767	4.483044	-0.105667
 678	3.3850e-01	12.9542	96.705638	-0.000040	-0.404023	-0.136887	0.003226
 679	3.3900e-01	12.9173	96.181335	0.001313	13.130761	4.448822	-0.104861
 680	3.3950e-01	12.8740	96.036144	0.000364	3.636211	1.231982	-0.029038
 681	3.4000e-01	12.8307	96.048243	-0.000030	-0.303018	-0.102665	0.002420
 682	3.4050e-01	12.7873	95.761893	0.000717	7.171416	2.429741	-0.057270
 683	3.4100e-01	12.7520	95.398914	0.000909	9.090527	3.079954	-0.072596
 684	3.4150e-01	12.7184	95.124664	0.000687	6.868398	2.327076	-0.054850
 685	3.4200e-01	12.6783	94.923009	0.000505	5.050293	1.711086	-0.040331
 686	3.4250e-01	12.6301	94.939141	-0.000040	-0.404023	-0.136887	0.003226
 687	3.4300e-01	12.5788	94.745552	0.000485	4.848281	1.642642	-0.038718
 688	3.4350e-01	12.5499	94.495500	0.000626	6.262363	2.121746	-0.050010
 689	3.4400e-01	12.5098	94.301912	0.000485	4.848281	1.642642	-0.038718
 690	3.4450e-01	12.4697	93.991363	0.000778	7.777451	2.635072	-0.062110
 691	3.4500e-01	12.4312	93.963131	0.000071	0.707041	0.239552	-0.005646
 692	3.4550e-01	12.3911	93.636450	0.000818	8.181474	2.771959	-0.065336
 693	3.4600e-01	12.3430	93.410597	0.000566	5.656328	1.916416	-0.045171
 694	3.4650e-01	12.3029	93.305736	0.000263	2.626152	0.889764	-0.020972
 695	3.4700e-01	12.2660	92.966956	0.000848	8.484492	2.874624	-0.067756
 696	3.4750e-01	12.2291	92.724970	0.000606	6.060351	2.053303	-0.048397
 697	3.4800e-01	12.1922	92.519282	0.000515	5.151299	1.745307	-0.041138
 698	3.4850e-01	12.1473	92.499116	0.000051	0.505029	0.171109	-0.004033
 699	3.4900e-01	12.1120	92.208733	0.000727	7.272422	2.463963	-0.058077
 700	3.4950e-01	12.0767	91.813490	0.000990	9.898574	3.353728	-0.079049
 701	3.5000e-01	12.0317	91.861887	-0.000121	-1.212070	-0.410661	0.009679
 702	3.5050e-01	11.9852	91.551338	0.000778	7.777451	2.635072	-0.062110
 703	3.5100e-01	11.9547	91.192392	0.000899	8.989521	3.045732	-0.071789
 704	3.5150e-01	11.9211	91.010903	0.000455	4.545264	1.539977	-0.036298
 705	3.5200e-01	11.8697	90.817314	0.000485	4.848281	1.642642	-0.038718
 706	3.5250e-01	11.8328	90.567262	0.000626	6.262363	2.121746	-0.050010
 707	3.5300e-01	11.7927	90.547097	0.000051	0.505029	0.171109	-0.004033
 708	3.5350e-01	11.7510	90.192184	0.000889	8.888515	3.011511	-0.070983
 709	3.5400e-01	11.7077	90.018761	0.000434	4.343252	1.471534	-0.034685
 710	3.5450e-01	11.6772	89.651749	0.000919	9.191533	3.114176	-0.073402
 711	3.5500e-01	11.6323	89.514623	0.000343	3.434199	1.163538	-0.027425
 712	3.5550e-01	11.5970	89.256505	0.000646	6.464375	2.190189	-0.051624
 713	3.5600e-01	11.5505	89.087115	0.000424	4.242246	1.437312	-0.033878
 714	3.5650e-01	11.5152	89.107281	-0.000051	-0.505029	-0.171109	0.004033
 715	3.5700e-01	11.4735	88.703971	0.001010	10.100586	3.422171	-0.080662
 716	3.5750e-01	11.4286	88.639441	0.000162	1.616094	0.547547	-0.012906
 717	3.5800e-01	11.3788	88.340992	0.000747	7.474433	2.532407	-0.059690
 718	3.5850e-01	11.3516	88.050609	0.000727	7.272422	2.463963	-0.058077
 719	3.5900e-01	11.3098	87.776358	0.000687	6.868398	2.327076	-0.054850
 720	3.5950e-01	11.2697	87.611001	0.000414	4.141240	1.403090	-0.033071
 721	3.6000e-01	11.2280	87.308519	0.000758	7.575439	2.566628	-0.060496
 722	3.6050e-01	11.1879	87.235923	0.000182	1.818105	0.615991	-0.014519
 723	3.6100e-01	11.1430	86.905209	0.000828	8.282480	2.806180	-0.066143
 724	3.6150e-01	11.1093	86.590627	0.000788	7.878457	2.669293	-0.062916
 725	3.6200e-01	11.0692	86.481733	0.000273	2.727158	0.923986	-0.021779
 726	3.6250e-01	11.0259	86.288145	0.000485	4.848281	1.642642	-0.038718
 727	3.6300e-01	10.9922	85.945331	0.000859	8.585498	2.908845	-0.068563
 728	3.6350e-01	10.9505	85.828371	0.000293	2.929170	0.992430	-0.023392
 729	3.6400e-01	10.9072	85.590419	0.000596	5.959346	2.019081	-0.047591
 730	3.6450e-01	10.8703	85.404896	0.000465	4.646269	1.574199	-0.037105
 731	3.6500e-01	10.8238	85.187109	0.000545	5.454316	1.847972	-0.043557
 732	3.6550e-01	10.7885	84.876560	0.000778	7.777451	2.635072	-0.062110
 733	3.6600e-01	10.7468	84.650707	0.000566	5.656328	1.916416	-0.045171
 734	3.6650e-01	10.7147	84.376456	0.000687	6.868398	2.327076	-0.054850
 735	3.6700e-01	10.6714	84.211099	0.000414	4.141240	1.403090	-0.033071
 736	3.6750e-01	10.6313	83.868285	0.000859	8.585498	2.908845	-0.068563
 737	3.6800e-01	10.5927	83.654531	0.000535	5.353310	1.813751	-0.042751
 738	3.6850e-01	10.5414	83.630333	0.000061	0.606035	0.205330	-0.004840
 739	3.6900e-01	10.5061	83.368181	0.000657	6.565381	2.224411	-0.052430
 740	3.6950e-01	10.4740	83.122162	0.000616	6.161357	2.087524	-0.049204
 741	3.7000e-01	10.4339	82.864044	0.000646	6.464375	2.190189	-0.051624
 742	3.7050e-01	10.3970	82.541396	0.000808	8.080469	2.737737	-0.064530
 743	3.7100e-01	10.3473	82.416370	0.000313	3.131182	1.060873	-0.025005
 744	3.7150e-01	10.3152	82.166318	0.000626	6.262363	2.121746	-0.050010
 745	3.7200e-01	10.2607	82.097755	0.000172	1.717100	0.581769	-0.013713
 746	3.7250e-01	10.2318	81.666214	0.001081	10.807627	3.661723	-0.086308
 747	3.7300e-01	10.1789	81.416161	0.000626	6.262363	2.121746	-0.050010
 748	3.7350e-01	10.1516	81.565386	-0.000374	-3.737217	-1.266203	0.029845
 749	3.7400e-01	10.1179	81.008819	0.001394	13.938808	4.722596	-0.111314
 750	3.7450e-01	10.0650	80.750700	0.000646	6.464375	2.190189	-0.051624
 751	3.7500e-01	10.0393	80.726502	0.000061	0.606035	0.205330	-0.004840
 752	3.7550e-01	9.9960	80.339324	0.000970	9.696562	3.285284	-0.077435
 753	3.7600e-01	9.9414	80.343357	-0.000010	-0.101006	-0.034222	0.000807
 754	3.7650e-01	9.9110	80.065073	0.000697	6.969404	2.361298	-0.055657
 755	3.7700e-01	9.8596	79.782757	0.000707	7.070410	2.395520	-0.056463
 756	3.7750e-01	9.8211	79.577069	0.000515	5.151299	1.745307	-0.041138
 757	3.7800e-01	9.7874	79.371380	0.000515	5.151299	1.745307	-0.041138
 758	3.7850e-01	9.7473	79.056799	0.000788	7.878457	2.669293	-0.062916
 759	3.7900e-01	9.7104	78.697853	0.000899	8.989521	3.045732	-0.071789
 760	3.7950e-01	9.6687	78.476033	0.000556	5.555322	1.882194	-0.044364
 761	3.8000e-01	9.6334	78.254212	0.000556	5.555322	1.882194	-0.044364
 762	3.8050e-01	9.5869	78.064657	0.000475	4.747275	1.608420	-0.037911
 763	3.8100e-01	9.5564	77.689578	0.000939	9.393545	3.182619	-0.075016
 764	3.8150e-01	9.5067	77.504056	0.000465	4.646269	1.574199	-0.037105
 765	3.8200e-01	9.4650	77.221739	0.000707	7.070410	2.395520	-0.056463
 766	3.8250e-01	9.4345	76.999919	0.000556	5.555322	1.882194	-0.044364
 767	3.8300e-01	9.3832	76.834561	0.000414	4.141240	1.403090	-0.033071
 768	3.8350e-01	9.3495	76.649039	0.000465	4.646269	1.574199	-0.037105
 769	3.8400e-01	9.3013	76.524013	0.000313	3.131182	1.060873	-0.025005
 770	3.8450e-01	9.2741	76.403020	0.000303	3.030176	1.026651	-0.024199
 771	3.8500e-01	9.2275	75.919048	0.001212	12.120703	4.106605	-0.096794
 772	3.8550e-01	9.1906	75.753691	0.000414	4.141240	1.403090	-0.033071
 773	3.8600e-01	9.1554	75.310050	0.001111	11.110644	3.764388	-0.088728
 774	3.8650e-01	9.1104	75.237454	0.000182	1.818105	0.615991	-0.014519
 775	3.8700e-01	9.0671	74.943038	0.000737	7.373428	2.498185	-0.058883
 776	3.8750e-01	9.0318	74.697019	0.000616	6.161357	2.087524	-0.049204
 777	3.8800e-01	8.9805	74.402603	0.000737	7.373428	2.498185	-0.058883
 778	3.8850e-01	8.9628	74.249345	0.000384	3.838223	1.300425	-0.030652
 779	3.8900e-01	8.9051	73.769407	0.001202	12.019697	4.072384	-0.095988
 780	3.8950e-01	8.8698	73.636314	0.000333	3.333193	1.129316	-0.026618
 781	3.9000e-01	8.8297	73.430626	0.000515	5.151299	1.745307	-0.041138
 782	3.9050e-01	8.7960	73.241071	0.000475	4.747275	1.608420	-0.037911
 783	3.9100e-01	8.7559	72.930522	0.000778	7.777451	2.635072	-0.062110
 784	3.9150e-01	8.7094	72.664338	0.000667	6.666387	2.258633	-0.053237
 785	3.9200e-01	8.6709	72.523179	0.000354	3.535205	1.197760	-0.028232
 786	3.9250e-01	8.6308	71.962578	0.001404	14.039814	4.756818	-0.112120
 787	3.9300e-01	8.5826	71.894016	0.000172	1.717100	0.581769	-0.013713
 788	3.9350e-01	8.5441	71.781089	0.000283	2.828164	0.958208	-0.022585
 789	3.9400e-01	8.5089	71.660096	0.000303	3.030176	1.026651	-0.024199
 790	3.9450e-01	8.4671	71.309216	0.000879	8.787509	2.977289	-0.070176
 791	3.9500e-01	8.4335	70.982535	0.000818	8.181474	2.771959	-0.065336
 792	3.9550e-01	8.3917	70.563093	0.001050	10.504609	3.559058	-0.083888
 793	3.9600e-01	8.3484	70.405802	0.000394	3.939228	1.334647	-0.031458
 794	3.9650e-01	8.3163	70.087188	0.000798	7.979463	2.703515	-0.063723
 795	3.9700e-01	8.2730	69.885533	0.000505	5.050293	1.711086	-0.040331
 796	3.9750e-01	8.2217	69.776639	0.000273	2.727158	0.923986	-0.021779
 797	3.9800e-01	8.1912	69.647580	0.000323	3.232187	1.095095	-0.025812
 798	3.9850e-01	8.1543	69.324932	0.000808	8.080469	2.737737	-0.064530
 799	3.9900e-01	8.1062	69.038582	0.000717	7.171416	2.429741	-0.057270
 800	3.9950e-01	8.0725	68.711901	0.000818	8.181474	2.771959	-0.065336
 801	4.0000e-01	8.0308	68.643338	0.000172	1.717100	0.581769	-0.013713
 802	4.0050e-01	7.9811	68.328757	0.000788	7.878457	2.669293	-0.062916
 803	4.0100e-01	7.9490	67.969811	0.000899	8.989521	3.045732	-0.071789
 804	4.0150e-01	7.9105	67.546335	0.001061	10.605615	3.593280	-0.084695
 805	4.0200e-01	7.8639	67.522137	0.000061	0.606035	0.205330	-0.004840
 806	4.0250e-01	7.8351	67.376945	0.000364	3.636211	1.231982	-0.029038
 807	4.0300e-01	7.7869	67.151092	0.000566	5.656328	1.916416	-0.045171
 808	4.0350e-01	7.7517	66.945404	0.000515	5.151299	1.745307	-0.041138
 809	4.0400e-01	7.7115	66.634855	0.000778	7.777451	2.635072	-0.062110
 810	4.0450e-01	7.6714	66.247678	0.000970	9.696562	3.285284	-0.077435
 811	4.0500e-01	7.6297	66.110552	0.000343	3.434199	1.163538	-0.027425
 812	4.0550e-01	7.5880	65.864533	0.000616	6.161357	2.087524	-0.049204
 813	4.0600e-01	7.5527	65.497521	0.000919	9.191533	3.114176	-0.073402
 814	4.0650e-01	7.5110	65.275701	0.000556	5.555322	1.882194	-0.044364
 815	4.0700e-01	7.4725	65.037748	0.000596	5.959346	2.019081	-0.047591
 816	4.0750e-01	7.4292	64.658637	0.000949	9.494550	3.216841	-0.075822
 817	4.0800e-01	7.3875	64.569909	0.000222	2.222129	0.752878	-0.017746
 818	4.0850e-01	7.3458	64.263393	0.000768	7.676445	2.600850	-0.061303
 819	4.0900e-01	7.3041	63.892348	0.000929	9.292539	3.148397	-0.074209
 820	4.0950e-01	7.2640	63.601965	0.000727	7.272422	2.463963	-0.058077
 821	4.1000e-01	7.2223	63.537435	0.000162	1.616094	0.547547	-0.012906
 822	4.1050e-01	7.1934	63.303516	0.000586	5.858340	1.984859	-0.046784
 823	4.1100e-01	7.1533	63.029265	0.000687	6.868398	2.327076	-0.054850
 824	4.1150e-01	7.1100	62.702584	0.000818	8.181474	2.771959	-0.065336
 825	4.1200e-01	7.0731	62.561426	0.000354	3.535205	1.197760	-0.028232
 826	4.1250e-01	7.0265	62.238778	0.000808	8.080469	2.737737	-0.064530
 827	4.1300e-01	6.9880	61.920163	0.000798	7.979463	2.703515	-0.063723
 828	4.1350e-01	6.9511	61.645912	0.000687	6.868398	2.327076	-0.054850
 829	4.1400e-01	6.9062	61.395860	0.000626	6.262363	2.121746	-0.050010
 830	4.1450e-01	6.8677	60.895756	0.001252	12.524726	4.243492	-0.100021
 831	4.1500e-01	6.8372	60.932054	-0.000091	-0.909053	-0.307995	0.007260
 832	4.1550e-01	6.7907	60.649737	0.000707	7.070410	2.395520	-0.056463
 833	4.1600e-01	6.7442	60.193997	0.001141	11.413662	3.867053	-0.091148
 834	4.1650e-01	6.7041	59.968143	0.000566	5.656328	1.916416	-0.045171
 835	4.1700e-01	6.6784	59.693892	0.000687	6.868398	2.327076	-0.054850
 836	4.1750e-01	6.6351	59.383344	0.000778	7.777451	2.635072	-0.062110
 837	4.1800e-01	6.5822	59.290583	0.000232	2.323135	0.787099	-0.018552
 838	4.1850e-01	6.5501	58.984067	0.000768	7.676445	2.600850	-0.061303
 839	4.1900e-01	6.5036	58.903405	0.000202	2.020117	0.684434	-0.016132
 840	4.1950e-01	6.4731	58.229878	0.001687	16.867978	5.715026	-0.134705
 841	4.2000e-01	6.4266	58.092752	0.000343	3.434199	1.163538	-0.027425
 842	4.2050e-01	6.3913	57.931428	0.000404	4.040234	1.368868	-0.032265
 843	4.2100e-01	6.3479	57.568449	0.000909	9.090527	3.079954	-0.072596
 844	4.2150e-01	6.3078	57.386960	0.000455	4.545264	1.539977	-0.036298
 845	4.2200e-01	6.2758	57.257901	0.000323	3.232187	1.095095	-0.025812
 846	4.2250e-01	6.2405	56.850558	0.001020	10.201591	3.456393	-0.081469
 847	4.2300e-01	6.1875	56.745697	0.000263	2.626152	0.889764	-0.020972
 848	4.2350e-01	6.1522	56.507745	0.000596	5.959346	2.019081	-0.047591
 849	4.2400e-01	6.1121	56.015706	0.001232	12.322714	4.175049	-0.098408
 850	4.2450e-01	6.0704	55.709191	0.000768	7.676445	2.600850	-0.061303
 851	4.2500e-01	6.0319	55.438973	0.000677	6.767392	2.292855	-0.054044
 852	4.2550e-01	5.9982	55.249418	0.000475	4.747275	1.608420	-0.037911
 853	4.2600e-01	5.9549	54.942902	0.000768	7.676445	2.600850	-0.061303
 854	4.2650e-01	5.9116	54.757380	0.000465	4.646269	1.574199	-0.037105
 855	4.2700e-01	5.8651	54.479096	0.000697	6.969404	2.361298	-0.055657
 856	4.2750e-01	5.8314	54.212911	0.000667	6.666387	2.258633	-0.053237
 857	4.2800e-01	5.7945	53.857999	0.000889	8.888515	3.011511	-0.070983
 858	4.2850e-01	5.7544	53.547450	0.000778	7.777451	2.635072	-0.062110
 859	4.2900e-01	5.7095	53.369994	0.000444	4.444258	1.505755	-0.035491
 860	4.2950e-01	5.6678	53.031214	0.000848	8.484492	2.874624	-0.067756
 861	4.3000e-01	5.6228	52.833592	0.000495	4.949287	1.676864	-0.039524
 862	4.3050e-01	5.5827	52.728731	0.000263	2.626152	0.889764	-0.020972
 863	4.3100e-01	5.5522	52.285090	0.001111	11.110644	3.764388	-0.088728
 864	4.3150e-01	5.5057	51.885814	0.001000	9.999580	3.387949	-0.079855
 865	4.3200e-01	5.4688	51.716423	0.000424	4.242246	1.437312	-0.033878
 866	4.3250e-01	5.4303	51.393775	0.000808	8.080469	2.737737	-0.064530
 867	4.3300e-01	5.3966	51.034830	0.000899	8.989521	3.045732	-0.071789
 868	4.3350e-01	5.3581	50.893671	0.000354	3.535205	1.197760	-0.028232
 869	4.3400e-01	5.3180	50.683950	0.000525	5.252305	1.779529	-0.041944
 870	4.3450e-01	5.2731	50.474229	0.000525	5.252305	1.779529	-0.041944
 871	4.3500e-01	5.2394	50.099151	0.000939	9.393545	3.182619	-0.075016
 872	4.3550e-01	5.1865	49.804735	0.000737	7.373428	2.498185	-0.058883
 873	4.3600e-01	5.1464	49.643411	0.000404	4.040234	1.368868	-0.032265
 874	4.3650e-01	5.1095	49.316730	0.000818	8.181474	2.771959	-0.065336
 875	4.3700e-01	5.0694	49.203803	0.000283	2.828164	0.958208	-0.022585
 876	4.3750e-01	5.0196	48.671434	0.001333	13.332773	4.517266	-0.106474
 877	4.3800e-01	4.9811	48.606904	0.000162	1.616094	0.547547	-0.012906
 878	4.3850e-01	4.9394	48.151164	0.001141	11.413662	3.867053	-0.091148
 879	4.3900e-01	4.9073	47.723656	0.001071	10.706621	3.627501	-0.085502
 880	4.3950e-01	4.8688	47.465537	0.000646	6.464375	2.190189	-0.051624
 881	4.4000e-01	4.8287	47.243717	0.000556	5.555322	1.882194	-0.044364
 882	4.4050e-01	4.7886	47.021897	0.000556	5.555322	1.882194	-0.044364
 883	4.4100e-01	4.7517	46.824275	0.000495	4.949287	1.676864	-0.039524
 884	4.4150e-01	4.7148	46.324171	0.001252	12.524726	4.243492	-0.100021
 885	4.4200e-01	4.6699	46.356435	-0.000081	-0.808047	-0.273774	0.006453
 886	4.4250e-01	4.6362	45.848265	0.001273	12.726738	4.311936	-0.101634
 887	4.4300e-01	4.5801	45.690974	0.000394	3.939228	1.334647	-0.031458
 888	4.4350e-01	4.5432	45.323962	0.000919	9.191533	3.114176	-0.073402
 889	4.4400e-01	4.5127	45.041645	0.000707	7.070410	2.395520	-0.056463
 890	4.4450e-01	4.4710	44.557673	0.001212	12.120703	4.106605	-0.096794
 891	4.4500e-01	4.4357	44.384250	0.000434	4.343252	1.471534	-0.034685
 892	4.4550e-01	4.3876	43.989006	0.000990	9.898574	3.353728	-0.079049
 893	4.4600e-01	4.3459	43.763153	0.000566	5.656328	1.916416	-0.045171
 894	4.4650e-01	4.3090	43.496968	0.000667	6.666387	2.258633	-0.053237
 895	4.4700e-01	4.2737	43.162221	0.000838	8.383486	2.840402	-0.066949
 896	4.4750e-01	4.2288	42.952500	0.000525	5.252305	1.779529	-0.041944
 897	4.4800e-01	4.1870	42.613720	0.000848	8.484492	2.874624	-0.067756
 898	4.4850e-01	4.1550	42.311237	0.000758	7.575439	2.566628	-0.060496
 899	4.4900e-01	4.1100	42.041020	0.000677	6.767392	2.292855	-0.054044
 900	4.4950e-01	4.0635	41.726438	0.000788	7.878457	2.669293	-0.062916
 901	4.5000e-01	4.0314	41.516717	0.000525	5.252305	1.779529	-0.041944
 902	4.5050e-01	3.9897	41.210202	0.000768	7.676445	2.600850	-0.061303
 903	4.5100e-01	3.9368	41.052911	0.000394	3.939228	1.334647	-0.031458
 904	4.5150e-01	3.9079	40.472144	0.001454	14.544843	4.927926	-0.116153
 905	4.5200e-01	3.8694	40.016404	0.001141	11.413662	3.867053	-0.091148
 906	4.5250e-01	3.8325	39.794584	0.000556	5.555322	1.882194	-0.044364
 907	4.5300e-01	3.7892	39.677624	0.000293	2.929170	0.992430	-0.023392
 908	4.5350e-01	3.7475	39.488068	0.000475	4.747275	1.608420	-0.037911
 909	4.5400e-01	3.7106	39.117023	0.000929	9.292539	3.148397	-0.074209
 910	4.5450e-01	3.6657	38.850839	0.000667	6.666387	2.258633	-0.053237
 911	4.5500e-01	3.6368	38.471728	0.000949	9.494550	3.216841	-0.075822
 912	4.5550e-01	3.5823	38.032120	0.001101	11.009638	3.730166	-0.087922
 913	4.5600e-01	3.5566	37.592512	0.001101	11.009638	3.730166	-0.087922
 914	4.5650e-01	3.5052	37.576380	0.000040	0.404023	0.136887	-0.003226
 915	4.5700e-01	3.4684	37.398923	0.000444	4.444258	1.505755	-0.035491
 916	4.5750e-01	3.4331	37.068209	0.000828	8.282480	2.806180	-0.066143
 917	4.5800e-01	3.3897	36.709263	0.000899	8.989521	3.045732	-0.071789
 918	4.5850e-01	3.3593	36.414847	0.000737	7.373428	2.498185	-0.058883
 919	4.5900e-01	3.3047	36.273689	0.000354	3.535205	1.197760	-0.028232
 920	4.5950e-01	3.2710	35.660658	0.001535	15.352890	5.201700	-0.122606
 921	4.6000e-01	3.2357	35.305745	0.000889	8.888515	3.011511	-0.070983
 922	4.6050e-01	3.1828	35.172653	0.000333	3.333193	1.129316	-0.026618
 923	4.6100e-01	3.1379	34.962932	0.000525	5.252305	1.779529	-0.041944
 924	4.6150e-01	3.1042	34.737078	0.000566	5.656328	1.916416	-0.045171
 925	4.6200e-01	3.0689	34.349901	0.000970	9.696562	3.285284	-0.077435
 926	4.6250e-01	3.0320	33.805432	0.001364	13.635791	4.619931	-0.108894
 927	4.6300e-01	2.9839	33.636042	0.000424	4.242246	1.437312	-0.033878
 928	4.6350e-01	2.9582	33.297262	0.000848	8.484492	2.874624	-0.067756
 929	4.6400e-01	2.9101	32.897985	0.001000	9.999580	3.387949	-0.079855
 930	4.6450e-01	2.8668	32.877820	0.000051	0.505029	0.171109	-0.004033
 931	4.6500e-01	2.8283	32.583404	0.000737	7.373428	2.498185	-0.058883
 932	4.6550e-01	2.7882	32.047001	0.001343	13.433779	4.551487	-0.107280
 933	4.6600e-01	2.7481	31.635625	0.001030	10.302597	3.490614	-0.082275
 934	4.6650e-01	2.7112	31.377507	0.000646	6.464375	2.190189	-0.051624
 935	4.6700e-01	2.6678	31.070992	0.000768	7.676445	2.600850	-0.061303
 936	4.6750e-01	2.6261	30.699947	0.000929	9.292539	3.148397	-0.074209
 937	4.6800e-01	2.5844	30.538623	0.000404	4.040234	1.368868	-0.032265
 938	4.6850e-01	2.5411	30.248240	0.000727	7.272422	2.463963	-0.058077
 939	4.6900e-01	2.5090	29.949790	0.000747	7.474433	2.532407	-0.059690
 940	4.6950e-01	2.4561	29.639242	0.000778	7.777451	2.635072	-0.062110
 941	4.7000e-01	2.4240	29.211733	0.001071	10.706621	3.627501	-0.085502
 942	4.7050e-01	2.3855	28.848754	0.000909	9.090527	3.079954	-0.072596
 943	4.7100e-01	2.3518	28.647099	0.000505	5.050293	1.711086	-0.040331
 944	4.7150e-01	2.2989	28.461577	0.000465	4.646269	1.574199	-0.037105
 945	4.7200e-01	2.2716	28.130863	0.000828	8.282480	2.806180	-0.066143
 946	4.7250e-01	2.2235	27.784016	0.000869	8.686504	2.943067	-0.069369
 947	4.7300e-01	2.1898	27.332309	0.001131	11.312656	3.832832	-0.090341
 948	4.7350e-01	2.1545	27.025794	0.000768	7.676445	2.600850	-0.061303
 949	4.7400e-01	2.1064	26.799940	0.000566	5.656328	1.916416	-0.045171
 950	4.7450e-01	2.0759	26.231273	0.001424	14.241826	4.825261	-0.113733
 951	4.7500e-01	2.0310	25.957023	0.000687	6.868398	2.327076	-0.054850
 952	4.7550e-01	1.9844	25.577911	0.000949	9.494550	3.216841	-0.075822
 953	4.7600e-01	1.9443	25.686805	-0.000273	-2.727158	-0.923986	0.021779
 954	4.7650e-01	1.9074	25.267363	0.001050	10.504609	3.559058	-0.083888
 955	4.7700e-01	1.8609	24.819689	0.001121	11.211650	3.798610	-0.089535
 956	4.7750e-01	1.8272	24.614001	0.000515	5.151299	1.745307	-0.041138
 957	4.7800e-01	1.7839	24.146161	0.001172	11.716679	3.969718	-0.093568
 958	4.7850e-01	1.7486	23.775116	0.000929	9.292539	3.148397	-0.074209
 959	4.7900e-01	1.7005	23.452468	0.000808	8.080469	2.737737	-0.064530
 960	4.7950e-01	1.6684	23.218549	0.000586	5.858340	1.984859	-0.046784
 961	4.8000e-01	1.6203	22.609551	0.001525	15.251884	5.167478	-0.121800
 962	4.8050e-01	1.5898	22.573253	0.000091	0.909053	0.307995	-0.007260
 963	4.8100e-01	1.5417	22.085248	0.001222	12.221709	4.140827	-0.097601
 964	4.8150e-01	1.5032	21.762600	0.000808	8.080469	2.737737	-0.064530
 965	4.8200e-01	1.4663	21.629508	0.000333	3.333193	1.129316	-0.026618
 966	4.8250e-01	1.4214	21.032609	0.001495	14.948867	5.064813	-0.119380
 967	4.8300e-01	1.3909	20.705928	0.000818	8.181474	2.771959	-0.065336
 968	4.8350e-01	1.3476	20.411512	0.000737	7.373428	2.498185	-0.058883
 969	4.8400e-01	1.3123	20.117096	0.000737	7.373428	2.498185	-0.058883
 970	4.8450e-01	1.2545	19.984004	0.000333	3.333193	1.129316	-0.026618
 971	4.8500e-01	1.2321	19.532297	0.001131	11.312656	3.832832	-0.090341
 972	4.8550e-01	1.1919	19.108821	0.001061	10.605615	3.593280	-0.084695
 973	4.8600e-01	1.1567	18.749875	0.000899	8.989521	3.045732	-0.071789
 974	4.8650e-01	1.1101	18.536121	0.000535	5.353310	1.813751	-0.042751
 975	4.8700e-01	1.0796	18.084414	0.001131	11.312656	3.832832	-0.090341
 976	4.8750e-01	1.0331	17.681104	0.001010	10.100586	3.422171	-0.080662
 977	4.8800e-01	0.9946	17.410887	0.000677	6.767392	2.292855	-0.054044
 978	4.8850e-01	0.9497	17.023709	0.000970	9.696562	3.285284	-0.077435
 979	4.8900e-01	0.9112	16.676863	0.000869	8.686504	2.943067	-0.069369
 980	4.8950e-01	0.8663	16.572002	0.000263	2.626152	0.889764	-0.020972
 981	4.9000e-01	0.8262	16.071898	0.001252	12.524726	4.243492	-0.100021
 982	4.9050e-01	0.7925	15.664555	0.001020	10.201591	3.456393	-0.081469
 983	4.9100e-01	0.7524	15.487099	0.000444	4.444258	1.505755	-0.035491
 984	4.9150e-01	0.7123	15.047491	0.001101	11.009638	3.730166	-0.087922
 985	4.9200e-01	0.6658	14.619982	0.001071	10.706621	3.627501	-0.085502
 986	4.9250e-01	0.6240	14.418328	0.000505	5.050293	1.711086	-0.040331
 987	4.9300e-01	0.5855	13.994852	0.001061	10.605615	3.593280	-0.084695
 988	4.9350e-01	0.5519	13.656072	0.000848	8.484492	2.874624	-0.067756
 989	4.9400e-01	0.5037	13.377788	0.000697	6.969404	2.361298	-0.055657
 990	4.9450e-01	0.4636	12.913982	0.001162	11.615673	3.935497	-0.092761
 991	4.9500e-01	0.4283	12.494539	0.001050	10.504609	3.559058	-0.083888
 992	4.9550e-01	0.3914	12.288851	0.000515	5.151299	1.745307	-0.041138
 993	4.9600e-01	0.3449	11.845211	0.001111	11.110644	3.764388	-0.088728
 994	4.9650e-01	0.3112	11.490298	0.000889	8.888515	3.011511	-0.070983
 995	4.9700e-01	0.2679	11.022458	0.001172	11.716679	3.969718	-0.093568
 996	4.9750e-01	0.2278	10.804671	0.000545	5.454316	1.847972	-0.043557
 997	4.9800e-01	0.1909	10.280368	0.001313	13.130761	4.448822	-0.104861
 998	4.9850e-01	0.1460	10.050482	0.000576	5.757334	1.950637	-0.045977
 999	4.9900e-01	0.1123	9.514080	0.001343	13.433779	4.551487	-0.107280
1000	4.9950e-01	0.0738	9.413252	0.000253	2.525146	0.855543	-0.020165
1001	5.0000e-01	0.0321	8.880883	0.001333	13.332773	4.517266	-0.106474
1002	5.0050e-01	0.0000	8.534037	0.000869	8.686504	2.943067	-0.069369
1003	5.0100e-01	-0.0465	8.187190	0.000869	8.686504	2.943067	-0.069369
1004	5.0150e-01	-0.0930	7.953270	0.000586	5.858340	1.984859	-0.046784
1005	5.0200e-01	-0.1267	7.662887	0.000727	7.272422	2.463963	-0.058077
1006	5.0250e-01	-0.1620	7.178916	0.001212	12.120703	4.106605	-0.096794
1007	5.0300e-01	-0.1989	6.824003	0.000889	8.888515	3.011511	-0.070983
1008	5.0350e-01	-0.2358	6.634447	0.000475	4.747275	1.608420	-0.037911
1009	5.0400e-01	-0.2839	6.465057	0.000424	4.242246	1.437312	-0.033878
1010	5.0450e-01	-0.3241	5.743132	0.001808	18.080048	6.125686	-0.144385
1011	5.0500e-01	-0.3674	5.420485	0.000808	8.080469	2.737737	-0.064530
1012	5.0550e-01	-0.4091	5.069605	0.000879	8.787509	2.977289	-0.070176
1013	5.0600e-01	-0.4540	4.625964	0.001111	11.110644	3.764388	-0.088728
1014	5.0650e-01	-0.4829	4.400111	0.000566	5.656328	1.916416	-0.045171
1015	5.0700e-01	-0.5294	4.206522	0.000485	4.848281	1.642642	-0.038718
1016	5.0750e-01	-0.5727	3.827411	0.000949	9.494550	3.216841	-0.075822
1017	5.0800e-01	-0.6032	3.165982	0.001656	16.564960	5.612361	-0.132286
1018	5.0850e-01	-0.6353	2.742507	0.001061	10.605615	3.593280	-0.084695
1019	5.0900e-01	-0.6834	2.500521	0.000606	6.060351	2.053303	-0.048397
1020	5.0950e-01	-0.7235	2.133509	0.000919	9.191533	3.114176	-0.073402
1021	5.1000e-01	-0.7636	1.399485	0.001838	18.383066	6.228351	-0.146805
1022	5.1050e-01	-0.8133	1.395452	0.000010	0.101006	0.034222	-0.000807
1023	5.1100e-01	-0.8551	0.976010	0.001050	10.504609	3.559058	-0.083888
1024	5.1150e-01	-0.8936	0.717892	0.000646	6.464375	2.190189	-0.051624
1025	5.1200e-01	-0.9272	0.358946	0.000899	8.989521	3.045732	-0.071789
1026	5.1250e-01	-0.9770	0.096794	0.000657	6.565381	2.224411	-0.052430
1027	5.1300e-01	-1.0075	-0.274251	0.000929	9.292539	3.148397	-0.074209
1028	5.1350e-01	-1.0476	-0.790487	0.001293	12.928750	4.380379	-0.103247
1029	5.1400e-01	-1.0861	-1.193797	0.001010	10.100586	3.422171	-0.080662
1030	5.1450e-01	-1.1294	-1.334956	0.000354	3.535205	1.197760	-0.028232
1031	5.1500e-01	-1.1791	-1.681802	0.000869	8.686504	2.943067	-0.069369
1032	5.1550e-01	-1.2080	-2.254502	0.001434	14.342832	4.859483	-0.114540
1033	5.1600e-01	-1.2433	-2.561018	0.000768	7.676445	2.600850	-0.061303
1034	5.1650e-01	-1.2882	-2.940129	0.000949	9.494550	3.216841	-0.075822
1035	5.1700e-01	-1.3283	-3.178082	0.000596	5.959346	2.019081	-0.047591
1036	5.1750e-01	-1.3716	-3.625756	0.001121	11.211650	3.798610	-0.089535
1037	5.1800e-01	-1.3973	-4.186356	0.001404	14.039814	4.756818	-0.112120
1038	5.1850e-01	-1.4422	-4.456574	0.000677	6.767392	2.292855	-0.054044
1039	5.1900e-01	-1.4903	-4.541269	0.000212	2.121123	0.718656	-0.016939
1040	5.1950e-01	-1.5272	-5.222863	0.001707	17.069990	5.783469	-0.136319
1041	5.2000e-01	-1.5738	-5.489047	0.000667	6.666387	2.258633	-0.053237
1042	5.2050e-01	-1.6010	-5.791530	0.000758	7.575439	2.566628	-0.060496
1043	5.2100e-01	-1.6427	-6.287601	0.001242	12.423720	4.209270	-0.099214
1044	5.2150e-01	-1.6877	-6.678811	0.000980	9.797568	3.319506	-0.078242
1045	5.2200e-01	-1.7342	-7.065989	0.000970	9.696562	3.285284	-0.077435
1046	5.2250e-01	-1.7711	-7.332173	0.000667	6.666387	2.258633	-0.053237
1047	5.2300e-01	-1.8112	-7.699185	0.000919	9.191533	3.114176	-0.073402
1048	5.2350e-01	-1.8545	-7.949237	0.000626	6.262363	2.121746	-0.050010
1049	5.2400e-01	-1.8898	-8.304150	0.000889	8.888515	3.011511	-0.070983
1050	5.2450e-01	-1.9267	-8.695361	0.000980	9.797568	3.319506	-0.078242
1051	5.2500e-01	-1.9588	-9.062373	0.000919	9.191533	3.114176	-0.073402
1052	5.2550e-01	-2.0149	-9.437451	0.000939	9.393545	3.182619	-0.075016
1053	5.2600e-01	-2.0422	-9.723801	0.000717	7.171416	2.429741	-0.057270
1054	5.2650e-01	-2.0775	-10.098879	0.000939	9.393545	3.182619	-0.075016
1055	5.2700e-01	-2.1272	-10.486056	0.000970	9.696562	3.285284	-0.077435
1056	5.2750e-01	-2.1657	-11.091021	0.001515	15.150878	5.133257	-0.120993
1057	5.2800e-01	-2.2026	-11.099087	0.000020	0.202012	0.068443	-0.001613
1058	5.2850e-01	-2.2475	-11.639523	0.001353	13.534785	4.585709	-0.108087
1059	5.2900e-01	-2.2957	-11.974270	0.000838	8.383486	2.840402	-0.066949
1060	5.2950e-01	-2.3229	-12.555036	0.001454	14.544843	4.927926	-0.116153
1061	5.3000e-01	-2.3678	-12.788956	0.000586	5.858340	1.984859	-0.046784
1062	5.3050e-01	-2.4080	-13.135802	0.000869	8.686504	2.943067	-0.069369
1063	5.3100e-01	-2.4513	-13.252762	0.000293	2.929170	0.992430	-0.023392
1064	5.3150e-01	-2.4930	-13.660105	0.001020	10.201591	3.456393	-0.081469
1065	5.3200e-01	-2.5299	-14.095680	0.001091	10.908632	3.695945	-0.087115
1066	5.3250e-01	-2.5571	-14.410261	0.000788	7.878457	2.669293	-0.062916
1067	5.3300e-01	-2.6085	-14.785339	0.000939	9.393545	3.182619	-0.075016
1068	5.3350e-01	-2.6454	-15.164451	0.000949	9.494550	3.216841	-0.075822
1069	5.3400e-01	-2.6871	-15.511297	0.000869	8.686504	2.943067	-0.069369
1070	5.3450e-01	-2.7272	-15.878309	0.000919	9.191533	3.114176	-0.073402
1071	5.3500e-01	-2.7705	-16.136428	0.000646	6.464375	2.190189	-0.051624
1072	5.3550e-01	-2.8106	-16.471175	0.000838	8.383486	2.840402	-0.066949
1073	5.3600e-01	-2.8427	-16.834154	0.000909	9.090527	3.079954	-0.072596
1074	5.3650e-01	-2.8844	-17.124537	0.000727	7.272422	2.463963	-0.058077
1075	5.3700e-01	-2.9197	-17.499615	0.000939	9.393545	3.182619	-0.075016
1076	5.3750e-01	-2.9694	-17.878726	0.000949	9.494550	3.216841	-0.075822
1077	5.3800e-01	-3.0047	-18.128778	0.000626	6.262363	2.121746	-0.050010
1078	5.3850e-01	-3.0545	-18.419161	0.000727	7.272422	2.463963	-0.058077
1079	5.3900e-01	-3.0817	-18.810372	0.000980	9.797568	3.319506	-0.078242
1080	5.3950e-01	-3.1218	-19.221748	0.001030	10.302597	3.490614	-0.082275
1081	5.4000e-01	-3.1635	-19.713786	0.001232	12.322714	4.175049	-0.098408
1082	5.4050e-01	-3.2053	-20.032401	0.000798	7.979463	2.703515	-0.063723
1083	5.4100e-01	-3.2502	-20.282453	0.000626	6.262363	2.121746	-0.050010
1084	5.4150e-01	-3.2839	-20.472009	0.000475	4.747275	1.608420	-0.037911
1085	5.4200e-01	-3.3192	-20.782557	0.000778	7.777451	2.635072	-0.062110
1086	5.4250e-01	-3.3801	-21.258463	0.001192	11.918691	4.038162	-0.095181
1087	5.4300e-01	-3.4154	-21.694037	0.001091	10.908632	3.695945	-0.087115
1088	5.4350e-01	-3.4555	-21.847295	0.000384	3.838223	1.300425	-0.030652
1089	5.4400e-01	-3.4860	-21.887626	0.000101	1.010059	0.342217	-0.008066
1090	5.4450e-01	-3.5261	-22.782974	0.002242	22.423300	7.597220	-0.179070
1091	5.4500e-01	-3.5662	-23.000761	0.000545	5.454316	1.847972	-0.043557
1092	5.4550e-01	-3.6079	-23.158052	0.000394	3.939228	1.334647	-0.031458
1093	5.4600e-01	-3.6416	-23.601693	0.001111	11.110644	3.764388	-0.088728
1094	5.4650e-01	-3.6849	-23.642024	0.000101	1.010059	0.342217	-0.008066
1095	5.4700e-01	-3.7266	-24.073566	0.001081	10.807627	3.661723	-0.086308
1096	5.4750e-01	-3.7635	-24.456710	0.000960	9.595556	3.251062	-0.076629
1097	5.4800e-01	-3.8101	-24.730961	0.000687	6.868398	2.327076	-0.054850
1098	5.4850e-01	-3.8421	-25.138304	0.001020	10.201591	3.456393	-0.081469
1099	5.4900e-01	-3.8790	-25.481117	0.000859	8.585498	2.908845	-0.068563
1100	5.4950e-01	-3.9384	-25.606143	0.000313	3.131182	1.060873	-0.025005
1101	5.5000e-01	-3.9609	-25.706970	0.000253	2.525146	0.855543	-0.020165
1102	5.5050e-01	-4.0090	-26.283704	0.001444	14.443837	4.893705	-0.115347
1103	5.5100e-01	-4.0491	-26.666848	0.000960	9.595556	3.251062	-0.076629
1104	5.5150e-01	-4.0940	-26.820106	0.000384	3.838223	1.300425	-0.030652
1105	5.5200e-01	-4.1341	-27.255680	0.001091	10.908632	3.695945	-0.087115
1106	5.5250e-01	-4.1678	-27.554130	0.000747	7.474433	2.532407	-0.059690
1107	5.5300e-01	-4.2063	-27.969539	0.001040	10.403603	3.524836	-0.083082
1108	5.5350e-01	-4.2496	-28.376882	0.001020	10.201591	3.456393	-0.081469
1109	5.5400e-01	-4.2881	-28.618868	0.000606	6.060351	2.053303	-0.048397
1110	5.5450e-01	-4.3330	-28.747927	0.000323	3.232187	1.095095	-0.025812
1111	5.5500e-01	-4.3619	-29.022178	0.000687	6.868398	2.327076	-0.054850
1112	5.5550e-01	-4.4084	-29.590844	0.001424	14.241826	4.825261	-0.113733
1113	5.5600e-01	-4.4501	-29.780400	0.000475	4.747275	1.608420	-0.037911
1114	5.5650e-01	-4.4870	-30.074816	0.000737	7.373428	2.498185	-0.058883
1115	5.5700e-01	-4.5271	-30.558788	0.001212	12.120703	4.106605	-0.096794
1116	5.5750e-01	-4.5640	-30.683814	0.000313	3.131182	1.060873	-0.025005
1117	5.5800e-01	-4.6041	-30.853204	0.000424	4.242246	1.437312	-0.033878
1118	5.5850e-01	-4.6539	-31.175852	0.000808	8.080469	2.737737	-0.064530
1119	5.5900e-01	-4.6779	-31.595294	0.001050	10.504609	3.559058	-0.083888
1120	5.5950e-01	-4.7309	-31.994571	0.001000	9.999580	3.387949	-0.079855
1121	5.6000e-01	-4.7678	-31.974406	-0.000051	-0.505029	-0.171109	0.004033
1122	5.6050e-01	-4.8111	-32.430146	0.001141	11.413662	3.867053	-0.091148
1123	5.6100e-01	-4.8576	-32.805224	0.000939	9.393545	3.182619	-0.075016
1124	5.6150e-01	-4.8817	-33.071409	0.000667	6.666387	2.258633	-0.053237
1125	5.6200e-01	-4.9266	-33.595711	0.001313	13.130761	4.448822	-0.104861
1126	5.6250e-01	-4.9731	-33.728804	0.000333	3.333193	1.129316	-0.026618
1127	5.6300e-01	-5.0052	-33.692506	-0.000091	-0.909053	-0.307995	0.007260
1128	5.6350e-01	-5.0501	-34.067584	0.000939	9.393545	3.182619	-0.075016
1129	5.6400e-01	-5.0854	-34.216809	0.000374	3.737217	1.266203	-0.029845
1130	5.6450e-01	-5.1303	-34.668516	0.001131	11.312656	3.832832	-0.090341
1131	5.6500e-01	-5.1624	-35.212984	0.001364	13.635791	4.619931	-0.108894
1132	5.6550e-01	-5.2089	-35.551764	0.000848	8.484492	2.874624	-0.067756
1133	5.6600e-01	-5.2490	-35.628393	0.000192	1.919111	0.650212	-0.015326
1134	5.6650e-01	-5.2827	-36.027670	0.001000	9.999580	3.387949	-0.079855
1135	5.6700e-01	-5.3212	-36.410814	0.000960	9.595556	3.251062	-0.076629
1136	5.6750e-01	-5.3630	-36.761694	0.000879	8.787509	2.977289	-0.070176
1137	5.6800e-01	-5.4111	-36.866554	0.000263	2.626152	0.889764	-0.020972
1138	5.6850e-01	-5.4528	-37.076275	0.000525	5.252305	1.779529	-0.041944
1139	5.6900e-01	-5.4897	-37.463453	0.000970	9.696562	3.285284	-0.077435
1140	5.6950e-01	-5.5330	-37.608644	0.000364	3.636211	1.231982	-0.029038
1141	5.7000e-01	-5.5667	-37.999855	0.000980	9.797568	3.319506	-0.078242
1142	5.7050e-01	-5.6148	-38.253940	0.000636	6.363369	2.155968	-0.050817
1143	5.7100e-01	-5.6517	-38.407198	0.000384	3.838223	1.300425	-0.030652
1144	5.7150e-01	-5.6934	-38.677416	0.000677	6.767392	2.292855	-0.054044
1145	5.7200e-01	-5.7255	-39.092825	0.001040	10.403603	3.524836	-0.083082
1146	5.7250e-01	-5.7656	-39.492102	0.001000	9.999580	3.387949	-0.079855
1147	5.7300e-01	-5.8057	-39.786518	0.000737	7.373428	2.498185	-0.058883
1148	5.7350e-01	-5.8554	-39.992206	0.000515	5.151299	1.745307	-0.041138
1149	5.7400e-01	-5.8859	-40.145463	0.000384	3.838223	1.300425	-0.030652
1150	5.7450e-01	-5.9148	-40.439880	0.000737	7.373428	2.498185	-0.058883
1151	5.7500e-01	-5.9661	-40.790759	0.000879	8.787509	2.977289	-0.070176
1152	5.7550e-01	-6.0030	-41.117440	0.000818	8.181474	2.771959	-0.065336
1153	5.7600e-01	-6.0512	-41.363459	0.000616	6.161357	2.087524	-0.049204
1154	5.7650e-01	-6.0816	-41.746604	0.000960	9.595556	3.251062	-0.076629
1155	5.7700e-01	-6.1298	-42.049086	0.000758	7.575439	2.566628	-0.060496
1156	5.7750e-01	-6.1667	-42.214443	0.000414	4.141240	1.403090	-0.033071
1157	5.7800e-01	-6.2036	-42.379800	0.000414	4.141240	1.403090	-0.033071
1158	5.7850e-01	-6.2469	-42.621786	0.000606	6.060351	2.053303	-0.048397
1159	5.7900e-01	-6.2854	-43.069460	0.001121	11.211650	3.798610	-0.089535
1160	5.7950e-01	-6.3271	-43.218685	0.000374	3.737217	1.266203	-0.029845
1161	5.8000e-01	-6.3688	-43.492935	0.000687	6.868398	2.327076	-0.054850
1162	5.8050e-01	-6.4105	-43.928510	0.001091	10.908632	3.695945	-0.087115
1163	5.8100e-01	-6.4474	-44.420548	0.001232	12.322714	4.175049	-0.098408
1164	5.8150e-01	-6.4891	-44.710931	0.000727	7.272422	2.463963	-0.058077
1165	5.8200e-01	-6.5212	-44.811759	0.000253	2.525146	0.855543	-0.020165
1166	5.8250e-01	-6.5709	-44.811759	-0.000000	-0.000000	-0.000000	0.000000
1167	5.8300e-01	-6.6126	-45.065844	0.000636	6.363369	2.155968	-0.050817
1168	5.8350e-01	-6.6399	-45.356227	0.000727	7.272422	2.463963	-0.058077
1169	5.8400e-01	-6.6816	-45.731305	0.000939	9.393545	3.182619	-0.075016
1170	5.8450e-01	-6.7265	-46.098317	0.000919	9.191533	3.114176	-0.073402
1171	5.8500e-01	-6.7699	-46.122516	0.000061	0.606035	0.205330	-0.004840
1172	5.8550e-01	-6.8068	-46.574223	0.001131	11.312656	3.832832	-0.090341
1173	5.8600e-01	-6.8453	-46.715381	0.000354	3.535205	1.197760	-0.028232
1174	5.8650e-01	-6.8838	-47.267916	0.001384	13.837802	4.688374	-0.110507
1175	5.8700e-01	-6.9223	-47.598630	0.000828	8.282480	2.806180	-0.066143
1176	5.8750e-01	-6.9640	-47.671225	0.000182	1.818105	0.615991	-0.014519
1177	5.8800e-01	-7.0169	-47.860781	0.000475	4.747275	1.608420	-0.037911
1178	5.8850e-01	-7.0458	-48.264091	0.001010	10.100586	3.422171	-0.080662
1179	5.8900e-01	-7.0795	-48.659335	0.000990	9.898574	3.353728	-0.079049
1180	5.8950e-01	-7.1244	-48.655302	-0.000010	-0.101006	-0.034222	0.000807
1181	5.9000e-01	-7.1677	-48.840824	0.000465	4.646269	1.574199	-0.037105
1182	5.9050e-01	-7.2094	-49.179604	0.000848	8.484492	2.874624	-0.067756
1183	5.9100e-01	-7.2351	-49.643411	0.001162	11.615673	3.935497	-0.092761
1184	5.9150e-01	-7.2832	-49.756337	0.000283	2.828164	0.958208	-0.022585
1185	5.9200e-01	-7.3281	-50.111250	0.000889	8.888515	3.011511	-0.070983
1186	5.9250e-01	-7.3602	-50.216111	0.000263	2.626152	0.889764	-0.020972
1187	5.9300e-01	-7.4100	-50.506494	0.000727	7.272422	2.463963	-0.058077
1188	5.9350e-01	-7.4452	-50.696049	0.000475	4.747275	1.608420	-0.037911
1189	5.9400e-01	-7.4837	-51.006598	0.000778	7.777451	2.635072	-0.062110
1190	5.9450e-01	-7.5303	-51.333279	0.000818	8.181474	2.771959	-0.065336
1191	5.9500e-01	-7.5656	-51.591397	0.000646	6.464375	2.190189	-0.051624
1192	5.9550e-01	-7.6009	-51.873714	0.000707	7.070410	2.395520	-0.056463
1193	5.9600e-01	-7.6506	-52.220561	0.000869	8.686504	2.943067	-0.069369
1194	5.9650e-01	-7.6779	-52.385918	0.000414	4.141240	1.403090	-0.033071
1195	5.9700e-01	-7.7340	-52.724698	0.000848	8.484492	2.874624	-0.067756
1196	5.9750e-01	-7.7645	-52.829559	0.000263	2.626152	0.889764	-0.020972
1197	5.9800e-01	-7.8126	-52.950552	0.000303	3.030176	1.026651	-0.024199
1198	5.9850e-01	-7.8431	-53.386126	0.001091	10.908632	3.695945	-0.087115
1199	5.9900e-01	-7.8912	-53.777337	0.000980	9.797568	3.319506	-0.078242
1200	5.9950e-01	-7.9249	-54.079819	0.000758	7.575439	2.566628	-0.060496
1201	6.0000e-01	-7.9570	-54.104018	0.000061	0.606035	0.205330	-0.004840
1202	6.0050e-01	-8.0067	-54.426666	0.000808	8.080469	2.737737	-0.064530
1203	6.0100e-01	-8.0549	-54.741247	0.000788	7.878457	2.669293	-0.062916
1204	6.0150e-01	-8.0901	-54.902571	0.000404	4.040234	1.368868	-0.032265
1205	6.0200e-01	-8.1174	-55.370411	0.001172	11.716679	3.969718	-0.093568
1206	6.0250e-01	-8.1720	-55.523668	0.000384	3.838223	1.300425	-0.030652
1207	6.0300e-01	-8.2089	-55.620463	0.000242	2.424141	0.821321	-0.019359
1208	6.0350e-01	-8.2425	-56.072170	0.001131	11.312656	3.832832	-0.090341
1209	6.0400e-01	-8.2843	-56.394818	0.000808	8.080469	2.737737	-0.064530
1210	6.0450e-01	-8.3276	-56.487579	0.000232	2.323135	0.787099	-0.018552
1211	6.0500e-01	-8.3693	-56.846525	0.000899	8.989521	3.045732	-0.071789
1212	6.0550e-01	-8.4110	-56.959452	0.000283	2.828164	0.958208	-0.022585
1213	6.0600e-01	-8.4479	-57.193371	0.000586	5.858340	1.984859	-0.046784
1214	6.0650e-01	-8.4896	-57.516019	0.000808	8.080469	2.737737	-0.064530
1215	6.0700e-01	-8.5313	-57.770104	0.000636	6.363369	2.155968	-0.050817
1216	6.0750e-01	-8.5666	-57.895130	0.000313	3.131182	1.060873	-0.025005
1217	6.0800e-01	-8.6067	-58.415400	0.001303	13.029755	4.414601	-0.104054
1218	6.0850e-01	-8.6404	-58.467830	0.000131	1.313076	0.444882	-0.010486
1219	6.0900e-01	-8.6885	-58.645287	0.000444	4.444258	1.505755	-0.035491
1220	6.0950e-01	-8.7270	-59.157490	0.001283	12.827744	4.346157	-0.102441
1221	6.1000e-01	-8.7607	-59.286549	0.000323	3.232187	1.095095	-0.025812
1222	6.1050e-01	-8.7960	-59.403509	0.000293	2.929170	0.992430	-0.023392
1223	6.1100e-01	-8.8457	-59.843117	0.001101	11.009638	3.730166	-0.087922
1224	6.1150e-01	-8.8891	-59.919746	0.000192	1.919111	0.650212	-0.015326
1225	6.1200e-01	-8.9243	-60.081070	0.000404	4.040234	1.368868	-0.032265
1226	6.1250e-01	-8.9693	-60.254493	0.000434	4.343252	1.471534	-0.034685
1227	6.1300e-01	-9.0046	-60.665869	0.001030	10.302597	3.490614	-0.082275
1228	6.1350e-01	-9.0415	-61.044980	0.000949	9.494550	3.216841	-0.075822
1229	6.1400e-01	-9.0816	-61.335364	0.000727	7.272422	2.463963	-0.058077
1230	6.1450e-01	-9.1313	-61.637846	0.000758	7.575439	2.566628	-0.060496
1231	6.1500e-01	-9.1698	-61.694309	0.000141	1.414082	0.479104	-0.011293
1232	6.1550e-01	-9.2147	-61.960494	0.000667	6.666387	2.258633	-0.053237
1233	6.1600e-01	-9.2468	-62.226678	0.000667	6.666387	2.258633	-0.053237
1234	6.1650e-01	-9.2853	-62.388002	0.000404	4.040234	1.368868	-0.032265
1235	6.1700e-01	-9.3222	-62.807445	0.001050	10.504609	3.559058	-0.083888
1236	6.1750e-01	-9.3687	-63.154291	0.000869	8.686504	2.943067	-0.069369
1237	6.1800e-01	-9.4040	-63.311582	0.000394	3.939228	1.334647	-0.031458
1238	6.1850e-01	-9.4393	-63.448707	0.000343	3.434199	1.163538	-0.027425
1239	6.1900e-01	-9.4842	-63.904447	0.001141	11.413662	3.867053	-0.091148
1240	6.1950e-01	-9.5227	-64.110135	0.000515	5.151299	1.745307	-0.041138
1241	6.2000e-01	-9.5725	-64.271459	0.000404	4.040234	1.368868	-0.032265
1242	6.2050e-01	-9.6061	-64.473114	0.000505	5.050293	1.711086	-0.040331
1243	6.2100e-01	-9.6446	-64.961119	0.001222	12.221709	4.140827	-0.097601
1244	6.2150e-01	-9.6880	-65.090178	0.000323	3.232187	1.095095	-0.025812
1245	6.2200e-01	-9.7217	-65.215204	0.000313	3.131182	1.060873	-0.025005
1246	6.2250e-01	-9.7698	-65.316032	0.000253	2.525146	0.855543	-0.020165
1247	6.2300e-01	-9.7987	-65.723375	0.001020	10.201591	3.456393	-0.081469
1248	6.2350e-01	-9.8500	-65.880666	0.000394	3.939228	1.334647	-0.031458
1249	6.2400e-01	-9.8917	-66.187181	0.000768	7.676445	2.600850	-0.061303
1250	6.2450e-01	-9.9222	-66.396902	0.000525	5.252305	1.779529	-0.041944
1251	6.2500e-01	-9.9655	-66.606623	0.000525	5.252305	1.779529	-0.041944
1252	6.2550e-01	-10.0040	-66.872808	0.000667	6.666387	2.258633	-0.053237
1253	6.2600e-01	-10.0441	-67.090595	0.000545	5.454316	1.847972	-0.043557
1254	6.2650e-01	-10.0810	-67.376945	0.000717	7.171416	2.429741	-0.057270
1255	6.2700e-01	-10.1179	-67.719759	0.000859	8.585498	2.908845	-0.068563
1256	6.2750e-01	-10.1628	-67.788321	0.000172	1.717100	0.581769	-0.013713
1257	6.2800e-01	-10.2093	-68.131135	0.000859	8.585498	2.908845	-0.068563
1258	6.2850e-01	-10.2430	-68.352955	0.000556	5.555322	1.882194	-0.044364
1259	6.2900e-01	-10.2879	-68.514279	0.000404	4.040234	1.368868	-0.032265
1260	6.2950e-01	-10.3297	-68.671570	0.000394	3.939228	1.334647	-0.031458
1261	6.3000e-01	-10.3714	-68.990185	0.000798	7.979463	2.703515	-0.063723
1262	6.3050e-01	-10.4099	-69.212005	0.000556	5.555322	1.882194	-0.044364
1263	6.3100e-01	-10.4484	-69.425759	0.000535	5.353310	1.813751	-0.042751
1264	6.3150e-01	-10.4837	-69.740341	0.000788	7.878457	2.669293	-0.062916
1265	6.3200e-01	-10.5222	-70.167849	0.001071	10.706621	3.627501	-0.085502
1266	6.3250e-01	-10.5783	-70.192048	0.000061	0.606035	0.205330	-0.004840
1267	6.3300e-01	-10.6136	-70.518729	0.000818	8.181474	2.771959	-0.065336
1268	6.3350e-01	-10.6457	-70.792980	0.000687	6.868398	2.327076	-0.054850
1269	6.3400e-01	-10.6986	-70.966403	0.000434	4.343252	1.471534	-0.034685
1270	6.3450e-01	-10.7243	-71.212422	0.000616	6.161357	2.087524	-0.049204
1271	6.3500e-01	-10.7612	-71.494739	0.000707	7.070410	2.395520	-0.056463
1272	6.3550e-01	-10.8125	-71.656063	0.000404	4.040234	1.368868	-0.032265
1273	6.3600e-01	-10.8430	-71.906115	0.000626	6.262363	2.121746	-0.050010
1274	6.3650e-01	-10.8767	-72.059373	0.000384	3.838223	1.300425	-0.030652
1275	6.3700e-01	-10.9296	-72.321524	0.000657	6.565381	2.224411	-0.052430
1276	6.3750e-01	-10.9665	-72.567543	0.000616	6.161357	2.087524	-0.049204
1277	6.3800e-01	-11.0066	-72.942621	0.000939	9.393545	3.182619	-0.075016
1278	6.3850e-01	-11.0387	-73.245104	0.000758	7.575439	2.566628	-0.060496
1279	6.3900e-01	-11.0885	-73.370130	0.000313	3.131182	1.060873	-0.025005
1280	6.3950e-01	-11.1286	-73.575818	0.000515	5.151299	1.745307	-0.041138
1281	6.4000e-01	-11.1639	-73.716976	0.000354	3.535205	1.197760	-0.028232
1282	6.4050e-01	-11.2088	-73.934764	0.000545	5.454316	1.847972	-0.043557
1283	6.4100e-01	-11.2553	-74.261445	0.000818	8.181474	2.771959	-0.065336
1284	6.4150e-01	-11.2922	-74.600225	0.000848	8.484492	2.874624	-0.067756
1285	6.4200e-01	-11.3291	-74.826078	0.000566	5.656328	1.916416	-0.045171
1286	6.4250e-01	-11.3596	-74.890608	0.000162	1.616094	0.547547	-0.012906
1287	6.4300e-01	-11.4109	-75.108395	0.000545	5.454316	1.847972	-0.043557
1288	6.4350e-01	-11.4446	-75.334249	0.000566	5.656328	1.916416	-0.045171
1289	6.4400e-01	-11.4847	-75.648830	0.000788	7.878457	2.669293	-0.062916
1290	6.4450e-01	-11.5296	-75.898883	0.000626	6.262363	2.121746	-0.050010
1291	6.4500e-01	-11.5633	-76.108604	0.000525	5.252305	1.779529	-0.041944
1292	6.4550e-01	-11.6114	-76.390921	0.000707	7.070410	2.395520	-0.056463
1293	6.4600e-01	-11.6467	-76.491748	0.000253	2.525146	0.855543	-0.020165
1294	6.4650e-01	-11.6788	-76.745833	0.000636	6.363369	2.155968	-0.050817
1295	6.4700e-01	-11.7269	-76.967654	0.000556	5.555322	1.882194	-0.044364
1296	6.4750e-01	-11.7622	-77.088647	0.000303	3.030176	1.026651	-0.024199
1297	6.4800e-01	-11.8088	-77.491957	0.001010	10.100586	3.422171	-0.080662
1298	6.4850e-01	-11.8392	-77.661347	0.000424	4.242246	1.437312	-0.033878
1299	6.4900e-01	-11.8874	-77.879134	0.000545	5.454316	1.847972	-0.043557
1300	6.4950e-01	-11.9275	-78.189683	0.000778	7.777451	2.635072	-0.062110
1301	6.5000e-01	-11.9724	-78.326808	0.000343	3.434199	1.163538	-0.027425
1302	6.5050e-01	-12.0141	-78.633323	0.000768	7.676445	2.600850	-0.061303
1303	6.5100e-01	-12.0462	-78.847078	0.000535	5.353310	1.813751	-0.042751
1304	6.5150e-01	-12.0863	-79.113262	0.000667	6.666387	2.258633	-0.053237
1305	6.5200e-01	-12.1152	-79.310884	0.000495	4.949287	1.676864	-0.039524
1306	6.5250e-01	-12.1649	-79.548837	0.000596	5.959346	2.019081	-0.047591
1307	6.5300e-01	-12.2082	-79.875518	0.000818	8.181474	2.771959	-0.065336
1308	6.5350e-01	-12.2483	-80.157835	0.000707	7.070410	2.395520	-0.056463
1309	6.5400e-01	-12.2900	-80.242530	0.000212	2.121123	0.718656	-0.016939
1310	6.5450e-01	-12.3317	-80.569211	0.000818	8.181474	2.771959	-0.065336
1311	6.5500e-01	-12.3638	-80.722469	0.000384	3.838223	1.300425	-0.030652
1312	6.5550e-01	-12.4184	-81.008819	0.000717	7.171416	2.429741	-0.057270
1313	6.5600e-01	-12.4569	-81.222573	0.000535	5.353310	1.813751	-0.042751
1314	6.5650e-01	-12.4922	-81.391963	0.000424	4.242246	1.437312	-0.033878
1315	6.5700e-01	-12.5307	-81.710578	0.000798	7.979463	2.703515	-0.063723
1316	6.5750e-01	-12.5708	-81.815438	0.000263	2.626152	0.889764	-0.020972
1317	6.5800e-01	-12.6125	-82.053391	0.000596	5.959346	2.019081	-0.047591
1318	6.5850e-01	-12.6430	-82.287311	0.000586	5.858340	1.984859	-0.046784
1319	6.5900e-01	-12.6943	-82.573661	0.000717	7.171416	2.429741	-0.057270
1320	6.5950e-01	-12.7248	-82.847911	0.000687	6.868398	2.327076	-0.054850
1321	6.6000e-01	-12.7697	-82.908408	0.000152	1.515088	0.513326	-0.012099
1322	6.6050e-01	-12.8082	-83.073765	0.000414	4.141240	1.403090	-0.033071
1323	6.6100e-01	-12.8419	-83.432711	0.000899	8.989521	3.045732	-0.071789
1324	6.6150e-01	-12.8900	-83.815855	0.000960	9.595556	3.251062	-0.076629
1325	6.6200e-01	-12.9221	-84.186900	0.000929	9.292539	3.148397	-0.074209
1326	6.6250e-01	-12.9782	-84.134470	-0.000131	-1.313076	-0.444882	0.010486
1327	6.6300e-01	-13.0103	-84.299827	0.000414	4.141240	1.403090	-0.033071
1328	6.6350e-01	-13.0472	-84.513581	0.000535	5.353310	1.813751	-0.042751
1329	6.6400e-01	-13.0841	-84.896726	0.000960	9.595556	3.251062	-0.076629
1330	6.6450e-01	-13.1306	-85.166943	0.000677	6.767392	2.292855	-0.054044
1331	6.6500e-01	-13.1643	-85.340366	0.000434	4.343252	1.471534	-0.034685
1332	6.6550e-01	-13.2044	-85.654948	0.000788	7.878457	2.669293	-0.062916
1333	6.6600e-01	-13.2462	-85.929199	0.000687	6.868398	2.327076	-0.054850
1334	6.6650e-01	-13.2814	-86.001795	0.000182	1.818105	0.615991	-0.014519
1335	6.6700e-01	-13.3280	-86.046159	0.000111	1.111064	0.376439	-0.008873
1336	6.6750e-01	-13.3633	-86.320409	0.000687	6.868398	2.327076	-0.054850
1337	6.6800e-01	-13.4130	-86.518031	0.000495	4.949287	1.676864	-0.039524
1338	6.6850e-01	-13.4483	-86.772116	0.000636	6.363369	2.155968	-0.050817
1339	6.6900e-01	-13.4804	-87.054433	0.000707	7.070410	2.395520	-0.056463
1340	6.6950e-01	-13.5253	-87.352883	0.000747	7.474433	2.532407	-0.059690
1341	6.7000e-01	-13.5638	-87.558571	0.000515	5.151299	1.745307	-0.041138
1342	6.7050e-01	-13.6103	-87.873152	0.000788	7.878457	2.669293	-0.062916
1343	6.7100e-01	-13.6472	-87.957847	0.000212	2.121123	0.718656	-0.016939
1344	6.7150e-01	-13.6809	-88.268396	0.000778	7.777451	2.635072	-0.062110
1345	6.7200e-01	-13.7258	-88.518448	0.000626	6.262363	2.121746	-0.050010
1346	6.7250e-01	-13.7675	-88.796732	0.000697	6.969404	2.361298	-0.055657
1347	6.7300e-01	-13.8108	-89.091148	0.000737	7.373428	2.498185	-0.058883
1348	6.7350e-01	-13.8397	-89.127446	0.000091	0.909053	0.307995	-0.007260
1349	6.7400e-01	-13.8830	-89.381531	0.000636	6.363369	2.155968	-0.050817
1350	6.7450e-01	-13.9263	-89.663848	0.000707	7.070410	2.395520	-0.056463
1351	6.7500e-01	-13.9648	-89.813073	0.000374	3.737217	1.266203	-0.029845
1352	6.7550e-01	-14.0114	-90.224449	0.001030	10.302597	3.490614	-0.082275
1353	6.7600e-01	-14.0451	-90.522898	0.000747	7.474433	2.532407	-0.059690
1354	6.7650e-01	-14.0868	-90.692288	0.000424	4.242246	1.437312	-0.033878
1355	6.7700e-01	-14.1301	-90.873778	0.000455	4.545264	1.539977	-0.036298
1356	6.7750e-01	-14.1686	-91.135929	0.000657	6.565381	2.224411	-0.052430
1357	6.7800e-01	-14.2119	-91.422279	0.000717	7.171416	2.429741	-0.057270
1358	6.7850e-01	-14.2408	-91.547305	0.000313	3.131182	1.060873	-0.025005
1359	6.7900e-01	-14.2873	-91.660232	0.000283	2.828164	0.958208	-0.022585
1360	6.7950e-01	-14.3338	-91.914317	0.000636	6.363369	2.155968	-0.050817
1361	6.8000e-01	-14.3691	-92.325693	0.001030	10.302597	3.490614	-0.082275
1362	6.8050e-01	-14.4060	-92.539447	0.000535	5.353310	1.813751	-0.042751
1363	6.8100e-01	-14.4413	-92.587845	0.000121	1.212070	0.410661	-0.009679
1364	6.8150e-01	-14.4878	-92.983088	0.000990	9.898574	3.353728	-0.079049
1365	6.8200e-01	-14.5327	-93.015353	0.000081	0.808047	0.273774	-0.006453
1366	6.8250e-01	-14.5568	-93.358166	0.000859	8.585498	2.908845	-0.068563
1367	6.8300e-01	-14.6049	-93.491259	0.000333	3.333193	1.129316	-0.026618
1368	6.8350e-01	-14.6450	-93.870370	0.000949	9.494550	3.216841	-0.075822
1369	6.8400e-01	-14.6964	-93.906668	0.000091	0.909053	0.307995	-0.007260
1370	6.8450e-01	-14.7253	-94.120422	0.000535	5.353310	1.813751	-0.042751
1371	6.8500e-01	-14.7654	-94.447103	0.000818	8.181474	2.771959	-0.065336
1372	6.8550e-01	-14.8071	-94.785883	0.000848	8.484492	2.874624	-0.067756
1373	6.8600e-01	-14.8504	-95.035935	0.000626	6.262363	2.121746	-0.050010
1374	6.8650e-01	-14.8889	-95.265822	0.000576	5.757334	1.950637	-0.045977
1375	6.8700e-01	-14.9322	-95.411014	0.000364	3.636211	1.231982	-0.029038
1376	6.8750e-01	-14.9675	-95.790125	0.000949	9.494550	3.216841	-0.075822
1377	6.8800e-01	-15.0092	-95.810290	0.000051	0.505029	0.171109	-0.004033
1378	6.8850e-01	-15.0445	-96.100673	0.000727	7.272422	2.463963	-0.058077
1379	6.8900e-01	-15.0846	-96.362825	0.000657	6.565381	2.224411	-0.052430
1380	6.8950e-01	-15.1247	-96.588678	0.000566	5.656328	1.916416	-0.045171
1381	6.9000e-01	-15.1712	-96.907293	0.000798	7.979463	2.703515	-0.063723
1382	6.9050e-01	-15.1985	-97.048452	0.000354	3.535205	1.197760	-0.028232
1383	6.9100e-01	-15.2482	-97.322702	0.000687	6.868398	2.327076	-0.054850
1384	6.9150e-01	-15.2899	-97.524357	0.000505	5.050293	1.711086	-0.040331
1385	6.9200e-01	-15.3284	-97.717946	0.000485	4.848281	1.642642	-0.038718
1386	6.9250e-01	-15.3669	-98.205951	0.001222	12.221709	4.140827	-0.097601
1387	6.9300e-01	-15.4151	-98.226116	0.000051	0.505029	0.171109	-0.004033
1388	6.9350e-01	-15.4472	-98.605228	0.000949	9.494550	3.216841	-0.075822
1389	6.9400e-01	-15.4937	-98.613294	0.000020	0.202012	0.068443	-0.001613
1390	6.9450e-01	-15.5274	-98.802850	0.000475	4.747275	1.608420	-0.037911
1391	6.9500e-01	-15.5643	-99.081133	0.000697	6.969404	2.361298	-0.055657
1392	6.9550e-01	-15.6060	-99.464278	0.000960	9.595556	3.251062	-0.076629
1393	6.9600e-01	-15.6461	-99.766760	0.000758	7.575439	2.566628	-0.060496
1394	6.9650e-01	-15.6846	-99.807091	0.000101	1.010059	0.342217	-0.008066
1395	6.9700e-01	-15.7231	-100.174103	0.000919	9.191533	3.114176	-0.073402
1396	6.9750e-01	-15.7664	-100.319295	0.000364	3.636211	1.231982	-0.029038
1397	6.9800e-01	-15.8113	-100.440288	0.000303	3.030176	1.026651	-0.024199
1398	6.9850e-01	-15.8466	-100.964590	0.001313	13.130761	4.448822	-0.104861
1399	6.9900e-01	-15.8851	-101.283205	0.000798	7.979463	2.703515	-0.063723
1400	6.9950e-01	-15.9316	-101.347735	0.000162	1.616094	0.547547	-0.012906
1401	7.0000e-01	-15.9766	-101.605853	0.000646	6.464375	2.190189	-0.051624
1402	7.0050e-01	-16.0102	-101.912369	0.000768	7.676445	2.600850	-0.061303
1403	7.0100e-01	-16.0471	-102.073693	0.000404	4.040234	1.368868	-0.032265
1404	7.0150e-01	-16.0824	-102.432638	0.000899	8.989521	3.045732	-0.071789
1405	7.0200e-01	-16.1370	-102.678657	0.000616	6.161357	2.087524	-0.049204
1406	7.0250e-01	-16.1659	-102.783518	0.000263	2.626152	0.889764	-0.020972
1407	7.0300e-01	-16.2076	-103.057769	0.000687	6.868398	2.327076	-0.054850
1408	7.0350e-01	-16.2493	-103.368317	0.000778	7.777451	2.635072	-0.062110
1409	7.0400e-01	-16.2814	-103.723230	0.000889	8.888515	3.011511	-0.070983
1410	7.0450e-01	-16.3263	-103.832124	0.000273	2.727158	0.923986	-0.021779
1411	7.0500e-01	-16.3680	-104.207202	0.000939	9.393545	3.182619	-0.075016
1412	7.0550e-01	-16.4129	-104.316095	0.000273	2.727158	0.923986	-0.021779
1413	7.0600e-01	-16.4514	-104.562114	0.000616	6.161357	2.087524	-0.049204
1414	7.0650e-01	-16.4947	-104.602445	0.000101	1.010059	0.342217	-0.008066
1415	7.0700e-01	-16.5284	-104.917027	0.000788	7.878457	2.669293	-0.062916
1416	7.0750e-01	-16.5717	-105.239675	0.000808	8.080469	2.737737	-0.064530
1417	7.0800e-01	-16.6006	-105.461495	0.000556	5.555322	1.882194	-0.044364
1418	7.0850e-01	-16.6519	-105.848673	0.000970	9.696562	3.285284	-0.077435
1419	7.0900e-01	-16.6792	-106.114857	0.000667	6.666387	2.258633	-0.053237
1420	7.0950e-01	-16.7305	-106.247950	0.000333	3.333193	1.129316	-0.026618
1421	7.1000e-01	-16.7690	-106.489935	0.000606	6.060351	2.053303	-0.048397
1422	7.1050e-01	-16.8059	-106.816616	0.000818	8.181474	2.771959	-0.065336
1423	7.1100e-01	-16.8444	-107.018271	0.000505	5.050293	1.711086	-0.040331
1424	7.1150e-01	-16.8797	-107.272357	0.000636	6.363369	2.155968	-0.050817
1425	7.1200e-01	-16.9295	-107.522409	0.000626	6.262363	2.121746	-0.050010
1426	7.1250e-01	-16.9728	-107.764395	0.000606	6.060351	2.053303	-0.048397
1427	7.1300e-01	-17.0097	-108.119307	0.000889	8.888515	3.011511	-0.070983
1428	7.1350e-01	-17.0450	-108.248366	0.000323	3.232187	1.095095	-0.025812
1429	7.1400e-01	-17.0851	-108.615378	0.000919	9.191533	3.114176	-0.073402
1430	7.1450e-01	-17.1172	-109.026755	0.001030	10.302597	3.490614	-0.082275
1431	7.1500e-01	-17.1669	-109.139681	0.000283	2.828164	0.958208	-0.022585
1432	7.1550e-01	-17.2054	-109.305038	0.000414	4.141240	1.403090	-0.033071
1433	7.1600e-01	-17.2503	-109.639786	0.000838	8.383486	2.840402	-0.066949
1434	7.1650e-01	-17.2856	-109.861606	0.000556	5.555322	1.882194	-0.044364
1435	7.1700e-01	-17.3369	-110.075360	0.000535	5.353310	1.813751	-0.042751
1436	7.1750e-01	-17.3642	-110.176188	0.000253	2.525146	0.855543	-0.020165
1437	7.1800e-01	-17.4075	-110.422207	0.000616	6.161357	2.087524	-0.049204
1438	7.1850e-01	-17.4444	-110.869881	0.001121	11.211650	3.798610	-0.089535
1439	7.1900e-01	-17.4861	-111.079602	0.000525	5.252305	1.779529	-0.041944
1440	7.1950e-01	-17.5295	-111.273190	0.000485	4.848281	1.642642	-0.038718
1441	7.2000e-01	-17.5663	-111.696666	0.001061	10.605615	3.593280	-0.084695
1442	7.2050e-01	-17.6097	-111.942685	0.000616	6.161357	2.087524	-0.049204
1443	7.2100e-01	-17.6434	-112.212902	0.000677	6.767392	2.292855	-0.054044
1444	7.2150e-01	-17.6819	-112.418590	0.000515	5.151299	1.745307	-0.041138
1445	7.2200e-01	-17.7252	-112.882397	0.001162	11.615673	3.935497	-0.092761
1446	7.2250e-01	-17.7733	-112.926761	0.000111	1.111064	0.376439	-0.008873
1447	7.2300e-01	-17.8182	-113.003390	0.000192	1.919111	0.650212	-0.015326
1448	7.2350e-01	-17.8551	-113.390567	0.000970	9.696562	3.285284	-0.077435
1449	7.2400e-01	-17.8808	-113.753546	0.000909	9.090527	3.079954	-0.072596
1450	7.2450e-01	-17.9321	-114.051995	0.000747	7.474433	2.532407	-0.059690
1451	7.2500e-01	-17.9658	-114.168955	0.000293	2.929170	0.992430	-0.023392
1452	7.2550e-01	-18.0091	-114.257683	0.000222	2.222129	0.752878	-0.017746
1453	7.2600e-01	-18.0428	-114.656960	0.001000	9.999580	3.387949	-0.079855
1454	7.2650e-01	-18.0813	-115.068336	0.001030	10.302597	3.490614	-0.082275
1455	7.2700e-01	-18.1230	-115.374852	0.000768	7.676445	2.600850	-0.061303
1456	7.2750e-01	-18.1631	-115.552308	0.000444	4.444258	1.505755	-0.035491
1457	7.2800e-01	-18.2177	-115.568440	0.000040	0.404023	0.136887	-0.003226
1458	7.2850e-01	-18.2433	-116.120975	0.001384	13.837802	4.688374	-0.110507
1459	7.2900e-01	-18.2899	-116.423457	0.000758	7.575439	2.566628	-0.060496
1460	7.2950e-01	-18.3268	-116.604947	0.000455	4.545264	1.539977	-0.036298
1461	7.3000e-01	-18.3669	-117.036488	0.001081	10.807627	3.661723	-0.086308
1462	7.3050e-01	-18.4198	-117.270408	0.000586	5.858340	1.984859	-0.046784
1463	7.3100e-01	-18.4535	-117.560791	0.000727	7.272422	2.463963	-0.058077
1464	7.3150e-01	-18.4888	-118.068962	0.001273	12.726738	4.311936	-0.101634
1465	7.3200e-01	-18.5289	-118.246418	0.000444	4.444258	1.505755	-0.035491
1466	7.3250e-01	-18.5722	-118.323047	0.000192	1.919111	0.650212	-0.015326
1467	7.3300e-01	-18.6139	-118.625529	0.000758	7.575439	2.566628	-0.060496
1468	7.3350e-01	-18.6380	-118.601331	-0.000061	-0.606035	-0.205330	0.004840
1469	7.3400e-01	-18.6909	-119.169998	0.001424	14.241826	4.825261	-0.113733
1470	7.3450e-01	-18.7326	-119.545076	0.000939	9.393545	3.182619	-0.075016
1471	7.3500e-01	-18.7695	-119.641870	0.000242	2.424141	0.821321	-0.019359
1472	7.3550e-01	-18.8032	-119.976617	0.000838	8.383486	2.840402	-0.066949
1473	7.3600e-01	-18.8513	-120.492854	0.001293	12.928750	4.380379	-0.103247
1474	7.3650e-01	-18.8914	-120.654178	0.000404	4.040234	1.368868	-0.032265
1475	7.3700e-01	-18.9267	-120.888098	0.000586	5.858340	1.984859	-0.046784
1476	7.3750e-01	-18.9636	-121.174448	0.000717	7.171416	2.429741	-0.057270
1477	7.3800e-01	-19.0086	-121.436599	0.000657	6.565381	2.224411	-0.052430
1478	7.3850e-01	-19.0503	-121.589857	0.000384	3.838223	1.300425	-0.030652
1479	7.3900e-01	-19.0888	-121.960902	0.000929	9.292539	3.148397	-0.074209
1480	7.3950e-01	-19.1353	-122.493271	0.001333	13.332773	4.517266	-0.106474
1481	7.4000e-01	-19.1658	-122.533602	0.000101	1.010059	0.342217	-0.008066
1482	7.4050e-01	-19.2043	-122.940945	0.001020	10.201591	3.456393	-0.081469
1483	7.4100e-01	-19.2460	-123.154699	0.000535	5.353310	1.813751	-0.042751
1484	7.4150e-01	-19.2909	-123.432983	0.000697	6.969404	2.361298	-0.055657
1485	7.4200e-01	-19.3278	-123.828226	0.000990	9.898574	3.353728	-0.079049
1486	7.4250e-01	-19.3551	-124.054080	0.000566	5.656328	1.916416	-0.045171
1487	7.4300e-01	-19.4096	-124.336397	0.000707	7.070410	2.395520	-0.056463
1488	7.4350e-01	-19.4369	-124.695343	0.000899	8.989521	3.045732	-0.071789
1489	7.4400e-01	-19.4802	-124.836501	0.000354	3.535205	1.197760	-0.028232
1490	7.4450e-01	-19.5315	-125.376936	0.001353	13.534785	4.585709	-0.108087
1491	7.4500e-01	-19.5684	-125.711683	0.000838	8.383486	2.840402	-0.066949
1492	7.4550e-01	-19.6053	-125.909305	0.000495	4.949287	1.676864	-0.039524
1493	7.4600e-01	-19.6502	-126.151291	0.000606	6.060351	2.053303	-0.048397
1494	7.4650e-01	-19.6823	-126.433608	0.000707	7.070410	2.395520	-0.056463
1495	7.4700e-01	-19.7369	-126.691726	0.000646	6.464375	2.190189	-0.051624
1496	7.4750e-01	-19.7561	-127.070838	0.000949	9.494550	3.216841	-0.075822
1497	7.4800e-01	-19.8059	-127.361221	0.000727	7.272422	2.463963	-0.058077
1498	7.4850e-01	-19.8412	-127.405585	0.000111	1.111064	0.376439	-0.008873
1499	7.4900e-01	-19.8877	-127.885524	0.001202	12.019697	4.072384	-0.095988
1500	7.4950e-01	-19.9262	-128.232370	0.000869	8.686504	2.943067	-0.069369
1501	7.5000e-01	-19.9743	-128.587283	0.000889	8.888515	3.011511	-0.070983
1502	7.5050e-01	-19.9775	-128.780871	0.000485	4.848281	1.642642	-0.038718
1503	7.5100e-01	-19.9438	-128.805070	-0.000061	-0.606035	-0.205330	-0.004840
1504	7.5150e-01	-19.9117	-128.671978	0.000333	3.333193	1.129316	0.026618
1505	7.5200e-01	-19.8732	-128.421926	0.000626	6.262363	2.121746	0.050010
1506	7.5250e-01	-19.8347	-128.567117	-0.000364	-3.636211	-1.231982	-0.029038
1507	7.5300e-01	-19.7962	-128.655845	-0.000222	-2.222129	-0.752878	-0.017746
1508	7.5350e-01	-19.7561	-128.680044	-0.000061	-0.606035	-0.205330	-0.004840
1509	7.5400e-01	-19.7144	-128.409826	0.000677	6.767392	2.292855	0.054044
1510	7.5450e-01	-19.6695	-128.308999	0.000253	2.525146	0.855543	0.020165
1511	7.5500e-01	-19.6406	-128.139609	0.000424	4.242246	1.437312	0.033878
1512	7.5550e-01	-19.5989	-128.232370	-0.000232	-2.323135	-0.787099	-0.018552
1513	7.5600e-01	-19.5524	-128.321098	-0.000222	-2.222129	-0.752878	-0.017746
1514	7.5650e-01	-19.5187	-127.998450	0.000808	8.080469	2.737737	0.064530
1515	7.5700e-01	-19.4738	-127.941987	0.000141	1.414082	0.479104	0.011293
1516	7.5750e-01	-19.4321	-127.893590	0.000121	1.212070	0.410661	0.009679
1517	7.5800e-01	-19.3984	-127.889557	0.000010	0.101006	0.034222	0.000807
1518	7.5850e-01	-19.3551	-127.405585	0.001212	12.120703	4.106605	0.096794
1519	7.5900e-01	-19.3182	-127.510445	-0.000263	-2.626152	-0.889764	-0.020972
1520	7.5950e-01	-19.2765	-127.413651	0.000242	2.424141	0.821321	0.019359
1521	7.6000e-01	-19.2331	-127.433817	-0.000051	-0.505029	-0.171109	-0.004033
1522	7.6050e-01	-19.1930	-127.320890	0.000283	2.828164	0.958208	0.022585
1523	7.6100e-01	-19.1594	-126.925646	0.000990	9.898574	3.353728	0.079049
1524	7.6150e-01	-19.1176	-126.978076	-0.000131	-1.313076	-0.444882	-0.010486
1525	7.6200e-01	-19.0759	-126.913547	0.000162	1.616094	0.547547	0.012906
1526	7.6250e-01	-19.0358	-126.647362	0.000667	6.666387	2.258633	0.053237
1527	7.6300e-01	-18.9909	-126.643329	0.000010	0.101006	0.034222	0.000807
1528	7.6350e-01	-18.9508	-126.602998	0.000101	1.010059	0.342217	0.008066
1529	7.6400e-01	-18.9219	-126.397310	0.000515	5.151299	1.745307	0.041138
1530	7.6450e-01	-18.8738	-126.244052	0.000384	3.838223	1.300425	0.030652
1531	7.6500e-01	-18.8289	-126.219854	0.000061	0.606035	0.205330	0.004840
1532	7.6550e-01	-18.8000	-126.002067	0.000545	5.454316	1.847972	0.043557
1533	7.6600e-01	-18.7615	-125.631021	0.000929	9.292539	3.148397	0.074209
1534	7.6650e-01	-18.7150	-125.703617	-0.000182	-1.818105	-0.615991	-0.014519
1535	7.6700e-01	-18.6669	-125.526161	0.000444	4.444258	1.505755	0.035491
1536	7.6750e-01	-18.6476	-125.352738	0.000434	4.343252	1.471534	0.034685
1537	7.6800e-01	-18.5979	-125.276109	0.000192	1.919111	0.650212	0.015326
1538	7.6850e-01	-18.5562	-125.409201	-0.000333	-3.333193	-1.129316	-0.026618
1539	7.6900e-01	-18.5161	-124.973626	0.001091	10.908632	3.695945	0.087115
1540	7.6950e-01	-18.4824	-124.933295	0.000101	1.010059	0.342217	0.008066
1541	7.7000e-01	-18.4326	-124.921196	0.000030	0.303018	0.102665	0.002420
1542	7.7050e-01	-18.3925	-124.630813	0.000727	7.272422	2.463963	0.058077
1543	7.7100e-01	-18.3460	-124.650979	-0.000051	-0.505029	-0.171109	-0.004033
1544	7.7150e-01	-18.3171	-124.425125	0.000566	5.656328	1.916416	0.045171
1545	7.7200e-01	-18.2818	-124.231536	0.000485	4.848281	1.642642	0.038718
1546	7.7250e-01	-18.2337	-123.993583	0.000596	5.959346	2.019081	0.047591
1547	7.7300e-01	-18.1936	-123.816127	0.000444	4.444258	1.505755	0.035491
1548	7.7350e-01	-18.1599	-123.795962	0.000051	0.505029	0.171109	0.004033
1549	7.7400e-01	-18.1150	-123.517678	0.000697	6.969404	2.361298	0.055657
1550	7.7450e-01	-18.0813	-123.449115	0.000172	1.717100	0.581769	0.013713
1551	7.7500e-01	-18.0316	-123.388619	0.000152	1.515088	0.513326	0.012099
1552	7.7550e-01	-17.9963	-123.299890	0.000222	2.222129	0.752878	0.017746
1553	7.7600e-01	-17.9562	-123.138567	0.000404	4.040234	1.368868	0.032265
1554	7.7650e-01	-17.9177	-122.936912	0.000505	5.050293	1.711086	0.040331
1555	7.7700e-01	-17.8712	-122.678793	0.000646	6.464375	2.190189	0.051624
1556	7.7750e-01	-17.8310	-122.428741	0.000626	6.262363	2.121746	0.050010
1557	7.7800e-01	-17.7974	-122.505370	-0.000192	-1.919111	-0.650212	-0.015326
1558	7.7850e-01	-17.7524	-122.255318	0.000626	6.262363	2.121746	0.050010
1559	7.7900e-01	-17.7123	-122.053663	0.000505	5.050293	1.711086	0.040331
1560	7.7950e-01	-17.6754	-121.936703	0.000293	2.929170	0.992430	0.023392
1561	7.8000e-01	-17.6321	-121.787478	0.000374	3.737217	1.266203	0.029845
1562	7.8050e-01	-17.5952	-121.670519	0.000293	2.929170	0.992430	0.023392
1563	7.8100e-01	-17.5583	-121.396268	0.000687	6.868398	2.327076	0.054850
1564	7.8150e-01	-17.5230	-121.243010	0.000384	3.838223	1.300425	0.030652
1565	7.8200e-01	-17.4749	-121.097819	0.000364	3.636211	1.231982	0.029038
1566	7.8250e-01	-17.4316	-120.674343	0.001061	10.605615	3.593280	0.084695
1567	7.8300e-01	-17.4011	-120.888098	-0.000535	-5.353310	-1.813751	-0.042751
1568	7.8350e-01	-17.3690	-120.791303	0.000242	2.424141	0.821321	0.019359
1569	7.8400e-01	-17.3161	-120.609814	0.000455	4.545264	1.539977	0.036298
1570	7.8450e-01	-17.2792	-120.504953	0.000263	2.626152	0.889764	0.020972
1571	7.8500e-01	-17.2343	-120.133908	0.000929	9.292539	3.148397	0.074209
1572	7.8550e-01	-17.2054	-120.053246	0.000202	2.020117	0.684434	0.016132
1573	7.8600e-01	-17.1589	-119.875790	0.000444	4.444258	1.505755	0.035491
1574	7.8650e-01	-17.1140	-119.597506	0.000697	6.969404	2.361298	0.055657
1575	7.8700e-01	-17.0722	-119.569274	0.000071	0.707041	0.239552	0.005646
1576	7.8750e-01	-17.0353	-119.210328	0.000899	8.989521	3.045732	0.071789
1577	7.8800e-01	-16.9968	-119.016740	0.000485	4.848281	1.642642	0.038718
1578	7.8850e-01	-16.9503	-118.984475	0.000081	0.808047	0.273774	0.006453
1579	7.8900e-01	-16.9150	-118.940111	0.000111	1.111064	0.376439	0.008873
1580	7.8950e-01	-16.8781	-119.028839	-0.000222	-2.222129	-0.752878	-0.017746
1581	7.9000e-01	-16.8412	-118.653761	0.000939	9.393545	3.182619	0.075016
1582	7.9050e-01	-16.7931	-118.460172	0.000485	4.848281	1.642642	0.038718
1583	7.9100e-01	-16.7578	-118.129458	0.000828	8.282480	2.806180	0.066143
1584	7.9150e-01	-16.7193	-117.968134	0.000404	4.040234	1.368868	0.032265
1585	7.9200e-01	-16.6840	-117.879406	0.000222	2.222129	0.752878	0.017746
1586	7.9250e-01	-16.6423	-117.681784	0.000495	4.949287	1.676864	0.039524
1587	7.9300e-01	-16.5910	-117.528526	0.000384	3.838223	1.300425	0.030652
1588	7.9350e-01	-16.5573	-117.431732	0.000242	2.424141	0.821321	0.019359
1589	7.9400e-01	-16.5204	-117.032455	0.001000	9.999580	3.387949	0.079855
1590	7.9450e-01	-16.4691	-116.750138	0.000707	7.070410	2.395520	0.056463
1591	7.9500e-01	-16.4289	-116.967926	-0.000545	-5.454316	-1.847972	-0.043557
1592	7.9550e-01	-16.3872	-116.661410	0.000768	7.676445	2.600850	0.061303
1593	7.9600e-01	-16.3584	-116.693675	-0.000081	-0.808047	-0.273774	-0.006453
1594	7.9650e-01	-16.3134	-116.451689	0.000606	6.060351	2.053303	0.048397
1595	7.9700e-01	-16.2765	-116.108876	0.000859	8.585498	2.908845	0.068563
1596	7.9750e-01	-16.2268	-115.955618	0.000384	3.838223	1.300425	0.030652
1597	7.9800e-01	-16.1979	-115.645069	0.000778	7.777451	2.635072	0.062110
1598	7.9850e-01	-16.1562	-115.511977	0.000333	3.333193	1.129316	0.026618
1599	7.9900e-01	-16.1193	-115.548275	-0.000091	-0.909053	-0.307995	-0.007260
1600	7.9950e-01	-16.0824	-115.511977	0.000091	0.909053	0.307995	0.007260
1601	8.0000e-01	-16.0311	-115.161097	0.000879	8.787509	2.977289	0.070176
1602	8.0050e-01	-15.9990	-114.902979	0.000646	6.464375	2.190189	0.051624
1603	8.0100e-01	-15.9461	-114.822317	0.000202	2.020117	0.684434	0.016132
1604	8.0150e-01	-15.9140	-114.495636	0.000818	8.181474	2.771959	0.065336
1605	8.0200e-01	-15.8739	-114.487570	0.000020	0.202012	0.068443	0.001613
1606	8.0250e-01	-15.8290	-114.419007	0.000172	1.717100	0.581769	0.013713
1607	8.0300e-01	-15.7873	-114.261717	0.000394	3.939228	1.334647	0.031458
1608	8.0350e-01	-15.7616	-114.035863	0.000566	5.656328	1.916416	0.045171
1609	8.0400e-01	-15.7086	-113.801943	0.000586	5.858340	1.984859	0.046784
1610	8.0450e-01	-15.6750	-113.689017	0.000283	2.828164	0.958208	0.022585
1611	8.0500e-01	-15.6316	-113.499461	0.000475	4.747275	1.608420	0.037911
1612	8.0550e-01	-15.5964	-113.156647	0.000859	8.585498	2.908845	0.068563
1613	8.0600e-01	-15.5562	-112.950959	0.000515	5.151299	1.745307	0.041138
1614	8.0650e-01	-15.5161	-112.878364	0.000182	1.818105	0.615991	0.014519
1615	8.0700e-01	-15.4776	-112.640411	0.000596	5.959346	2.019081	0.047591
1616	8.0750e-01	-15.4311	-112.515385	0.000313	3.131182	1.060873	0.025005
1617	8.0800e-01	-15.3926	-112.345995	0.000424	4.242246	1.437312	0.033878
1618	8.0850e-01	-15.3509	-112.285498	0.000152	1.515088	0.513326	0.012099
1619	8.0900e-01	-15.3092	-112.087876	0.000495	4.949287	1.676864	0.039524
1620	8.0950e-01	-15.2723	-111.757162	0.000828	8.282480	2.806180	0.066143
1621	8.1000e-01	-15.2370	-111.519209	0.000596	5.959346	2.019081	0.047591
1622	8.1050e-01	-15.1857	-111.430481	0.000222	2.222129	0.752878	0.017746
1623	8.1100e-01	-15.1504	-111.269157	0.000404	4.040234	1.368868	0.032265
1624	8.1150e-01	-15.1087	-111.220760	0.000121	1.212070	0.410661	0.009679
1625	8.1200e-01	-15.0766	-110.978774	0.000606	6.060351	2.053303	0.048397
1626	8.1250e-01	-15.0365	-110.821483	0.000394	3.939228	1.334647	0.031458
1627	8.1300e-01	-14.9980	-110.724689	0.000242	2.424141	0.821321	0.019359
1628	8.1350e-01	-14.9627	-110.555299	0.000424	4.242246	1.437312	0.033878
1629	8.1400e-01	-14.9274	-110.196353	0.000899	8.989521	3.045732	0.071789
1630	8.1450e-01	-14.8761	-109.893871	0.000758	7.575439	2.566628	0.060496
1631	8.1500e-01	-14.8375	-109.756745	0.000343	3.434199	1.163538	0.027425
1632	8.1550e-01	-14.7958	-109.768845	-0.000030	-0.303018	-0.102665	-0.002420
1633	8.1600e-01	-14.7605	-109.450230	0.000798	7.979463	2.703515	0.063723
1634	8.1650e-01	-14.7269	-109.268740	0.000455	4.545264	1.539977	0.036298
1635	8.1700e-01	-14.6803	-108.966258	0.000758	7.575439	2.566628	0.060496
1636	8.1750e-01	-14.6354	-108.917861	0.000121	1.212070	0.410661	0.009679
1637	8.1800e-01	-14.5937	-108.873497	0.000111	1.111064	0.376439	0.008873
1638	8.1850e-01	-14.5520	-108.566981	0.000768	7.676445	2.600850	0.061303
1639	8.1900e-01	-14.5119	-108.526650	0.000101	1.010059	0.342217	0.008066
1640	8.1950e-01	-14.4750	-108.212069	0.000788	7.878457	2.669293	0.062916
1641	8.2000e-01	-14.4333	-108.131407	0.000202	2.020117	0.684434	0.016132
1642	8.2050e-01	-14.3819	-107.869255	0.000657	6.565381	2.224411	0.052430
1643	8.2100e-01	-14.3563	-107.611137	0.000646	6.464375	2.190189	0.051624
1644	8.2150e-01	-14.3178	-107.582905	0.000071	0.707041	0.239552	0.005646
1645	8.2200e-01	-14.2680	-107.199761	0.000960	9.595556	3.251062	0.076629
1646	8.2250e-01	-14.2392	-107.296555	-0.000242	-2.424141	-0.821321	-0.019359
1647	8.2300e-01	-14.1926	-107.074735	0.000556	5.555322	1.882194	0.044364
1648	8.2350e-01	-14.1509	-106.929543	0.000364	3.636211	1.231982	0.029038
1649	8.2400e-01	-14.1189	-106.445571	0.001212	12.120703	4.106605	0.096794
1650	8.2450e-01	-14.0707	-106.393141	0.000131	1.313076	0.444882	0.010486
1651	8.2500e-01	-14.0370	-105.981765	0.001030	10.302597	3.490614	0.082275
1652	8.2550e-01	-13.9921	-105.925302	0.000141	1.414082	0.479104	0.011293
1653	8.2600e-01	-13.9520	-105.647018	0.000697	6.969404	2.361298	0.055657
1654	8.2650e-01	-13.9231	-105.816408	-0.000424	-4.242246	-1.437312	-0.033878
1655	8.2700e-01	-13.8750	-105.312271	0.001263	12.625732	4.277714	0.100827
1656	8.2750e-01	-13.8333	-105.086417	0.000566	5.656328	1.916416	0.045171
1657	8.2800e-01	-13.7932	-105.130781	-0.000111	-1.111064	-0.376439	-0.008873
1658	8.2850e-01	-13.7370	-104.965424	0.000414	4.141240	1.403090	0.033071
1659	8.2900e-01	-13.7130	-104.723438	0.000606	6.060351	2.053303	0.048397
1660	8.2950e-01	-13.6793	-104.614545	0.000273	2.727158	0.923986	0.021779
1661	8.3000e-01	-13.6376	-104.223334	0.000980	9.797568	3.319506	0.078242
1662	8.3050e-01	-13.5943	-104.126540	0.000242	2.424141	0.821321	0.019359
1663	8.3100e-01	-13.5526	-103.945050	0.000455	4.545264	1.539977	0.036298
1664	8.3150e-01	-13.5108	-103.622402	0.000808	8.080469	2.737737	0.064530
1665	8.3200e-01	-13.4772	-103.380416	0.000606	6.060351	2.053303	0.048397
1666	8.3250e-01	-13.4387	-103.198927	0.000455	4.545264	1.539977	0.036298
1667	8.3300e-01	-13.4002	-103.126331	0.000182	1.818105	0.615991	0.014519
1668	8.3350e-01	-13.3552	-102.852081	0.000687	6.868398	2.327076	0.054850
1669	8.3400e-01	-13.3135	-102.739154	0.000283	2.828164	0.958208	0.022585
1670	8.3450e-01	-13.2718	-102.460870	0.000697	6.969404	2.361298	0.055657
1671	8.3500e-01	-13.2301	-102.323745	0.000343	3.434199	1.163538	0.027425
1672	8.3550e-01	-13.1964	-102.101924	0.000556	5.555322	1.882194	0.044364
1673	8.3600e-01	-13.1563	-102.053527	0.000121	1.212070	0.410661	0.009679
1674	8.3650e-01	-13.1162	-101.726846	0.000818	8.181474	2.771959	0.065336
1675	8.3700e-01	-13.0825	-101.549390	0.000444	4.444258	1.505755	0.035491
1676	8.3750e-01	-13.0280	-101.464695	0.000212	2.121123	0.718656	0.016939
1677	8.3800e-01	-12.9895	-101.146080	0.000798	7.979463	2.703515	0.063723
1678	8.3850e-01	-12.9606	-100.972657	0.000434	4.343252	1.471534	0.034685
1679	8.3900e-01	-12.9189	-100.553214	0.001050	10.504609	3.559058	0.083888
1680	8.3950e-01	-12.8676	-100.710505	-0.000394	-3.939228	-1.334647	-0.031458
1681	8.4000e-01	-12.8387	-100.516916	0.000485	4.848281	1.642642	0.038718
1682	8.4050e-01	-12.7873	-100.282997	0.000586	5.858340	1.984859	0.046784
1683	8.4100e-01	-12.7504	-100.291063	-0.000020	-0.202012	-0.068443	-0.001613
1684	8.4150e-01	-12.7151	-99.851455	0.001101	11.009638	3.730166	0.087922
1685	8.4200e-01	-12.6783	-99.532840	0.000798	7.979463	2.703515	0.063723
1686	8.4250e-01	-12.6365	-99.427980	0.000263	2.626152	0.889764	0.020972
1687	8.4300e-01	-12.5964	-99.500576	-0.000182	-1.818105	-0.615991	-0.014519
1688	8.4350e-01	-12.5547	-98.927876	0.001434	14.342832	4.859483	0.114540
1689	8.4400e-01	-12.5194	-98.875445	0.000131	1.313076	0.444882	0.010486
1690	8.4450e-01	-12.4713	-98.540698	0.000838	8.383486	2.840402	0.066949
1691	8.4500e-01	-12.4408	-98.375341	0.000414	4.141240	1.403090	0.033071
1692	8.4550e-01	-12.4071	-98.197885	0.000444	4.444258	1.505755	0.035491
1693	8.4600e-01	-12.3542	-98.032528	0.000414	4.141240	1.403090	0.033071
1694	8.4650e-01	-12.3109	-97.867171	0.000414	4.141240	1.403090	0.033071
1695	8.4700e-01	-12.2724	-97.794575	0.000182	1.818105	0.615991	0.014519
1696	8.4750e-01	-12.2259	-97.629218	0.000414	4.141240	1.403090	0.033071
1697	8.4800e-01	-12.2034	-97.254140	0.000939	9.393545	3.182619	0.075016
1698	8.4850e-01	-12.1537	-97.177511	0.000192	1.919111	0.650212	0.015326
1699	8.4900e-01	-12.1104	-96.943591	0.000586	5.858340	1.984859	0.046784
1700	8.4950e-01	-12.0686	-96.745969	0.000495	4.949287	1.676864	0.039524
1701	8.5000e-01	-12.0350	-96.503983	0.000606	6.060351	2.053303	0.048397
1702	8.5050e-01	-11.9900	-96.451553	0.000131	1.313076	0.444882	0.010486
1703	8.5100e-01	-11.9499	-96.584645	-0.000333	-3.333193	-1.129316	-0.026618
1704	8.5150e-01	-11.9130	-95.899019	0.001717	17.170996	5.817691	0.137125
1705	8.5200e-01	-11.8826	-95.741728	0.000394	3.939228	1.334647	0.031458
1706	8.5250e-01	-11.8408	-95.544106	0.000495	4.949287	1.676864	0.039524
1707	8.5300e-01	-11.8007	-95.310186	0.000586	5.858340	1.984859	0.046784
1708	8.5350e-01	-11.7494	-95.060134	0.000626	6.262363	2.121746	0.050010
1709	8.5400e-01	-11.7109	-94.842347	0.000545	5.454316	1.847972	0.043557
1710	8.5450e-01	-11.6692	-94.664890	0.000444	4.444258	1.505755	0.035491
1711	8.5500e-01	-11.6355	-94.531798	0.000333	3.333193	1.129316	0.026618
1712	8.5550e-01	-11.5938	-94.386607	0.000364	3.636211	1.231982	0.029038
1713	8.5600e-01	-11.5553	-94.128488	0.000646	6.464375	2.190189	0.051624
1714	8.5650e-01	-11.5040	-94.007495	0.000303	3.030176	1.026651	0.024199
1715	8.5700e-01	-11.4751	-93.866337	0.000354	3.535205	1.197760	0.028232
1716	8.5750e-01	-11.4366	-93.454961	0.001030	10.302597	3.490614	0.082275
1717	8.5800e-01	-11.3933	-93.434795	0.000051	0.505029	0.171109	0.004033
1718	8.5850e-01	-11.3724	-93.051651	0.000960	9.595556	3.251062	0.076629
1719	8.5900e-01	-11.3098	-92.797566	0.000636	6.363369	2.155968	0.050817
1720	8.5950e-01	-11.2697	-92.825797	-0.000071	-0.707041	-0.239552	-0.005646
1721	8.6000e-01	-11.2280	-92.684639	0.000354	3.535205	1.197760	0.028232
1722	8.6050e-01	-11.1959	-92.353925	0.000828	8.282480	2.806180	0.066143
1723	8.6100e-01	-11.1510	-92.047409	0.000768	7.676445	2.600850	0.061303
1724	8.6150e-01	-11.1125	-91.910284	0.000343	3.434199	1.163538	0.027425
1725	8.6200e-01	-11.0660	-91.644100	0.000667	6.666387	2.258633	0.053237
1726	8.6250e-01	-11.0307	-91.381948	0.000657	6.565381	2.224411	0.052430
1727	8.6300e-01	-10.9890	-91.208525	0.000434	4.343252	1.471534	0.034685
1728	8.6350e-01	-10.9425	-91.240790	-0.000081	-0.808047	-0.273774	-0.006453
1729	8.6400e-01	-10.9200	-91.039135	0.000505	5.050293	1.711086	0.040331
1730	8.6450e-01	-10.8783	-90.643891	0.000990	9.898574	3.353728	0.079049
1731	8.6500e-01	-10.8318	-90.583395	0.000152	1.515088	0.513326	0.012099
1732	8.6550e-01	-10.7997	-90.369640	0.000535	5.353310	1.813751	0.042751
1733	8.6600e-01	-10.7548	-90.236548	0.000333	3.333193	1.129316	0.026618
1734	8.6650e-01	-10.7131	-89.889702	0.000869	8.686504	2.943067	0.069369
1735	8.6700e-01	-10.6681	-89.337167	0.001384	13.837802	4.688374	0.110507
1736	8.6750e-01	-10.6345	-89.312969	0.000061	0.606035	0.205330	0.004840
1737	8.6800e-01	-10.5944	-89.333134	-0.000051	-0.505029	-0.171109	-0.004033
1738	8.6850e-01	-10.5526	-89.091148	0.000606	6.060351	2.053303	0.048397
1739	8.6900e-01	-10.5174	-88.615242	0.001192	11.918691	4.038162	0.095181
1740	8.6950e-01	-10.4740	-88.554746	0.000152	1.515088	0.513326	0.012099
1741	8.7000e-01	-10.4355	-88.320826	0.000586	5.858340	1.984859	0.046784
1742	8.7050e-01	-10.3874	-88.022377	0.000747	7.474433	2.532407	0.059690
1743	8.7100e-01	-10.3521	-87.816689	0.000515	5.151299	1.745307	0.041138
1744	8.7150e-01	-10.3120	-87.651332	0.000414	4.141240	1.403090	0.033071
1745	8.7200e-01	-10.2751	-87.655365	-0.000010	-0.101006	-0.034222	-0.000807
1746	8.7250e-01	-10.2350	-87.413379	0.000606	6.060351	2.053303	0.048397
1747	8.7300e-01	-10.1949	-87.171393	0.000606	6.060351	2.053303	0.048397
1748	8.7350e-01	-10.1436	-86.933440	0.000596	5.959346	2.019081	0.047591
1749	8.7400e-01	-10.1227	-86.695488	0.000596	5.959346	2.019081	0.047591
1750	8.7450e-01	-10.0682	-86.397038	0.000747	7.474433	2.532407	0.059690
1751	8.7500e-01	-10.0297	-86.054225	0.000859	8.585498	2.908845	0.068563
1752	8.7550e-01	-9.9992	-85.957431	0.000242	2.424141	0.821321	0.019359
1753	8.7600e-01	-9.9527	-85.630750	0.000818	8.181474	2.771959	0.065336
1754	8.7650e-01	-9.9110	-85.517823	0.000283	2.828164	0.958208	0.022585
1755	8.7700e-01	-9.8660	-85.404896	0.000283	2.828164	0.958208	0.022585
1756	8.7750e-01	-9.8259	-85.094347	0.000778	7.777451	2.635072	0.062110
1757	8.7800e-01	-9.7970	-84.973354	0.000303	3.030176	1.026651	0.024199
1758	8.7850e-01	-9.7602	-84.646673	0.000818	8.181474	2.771959	0.065336
1759	8.7900e-01	-9.7168	-84.364357	0.000707	7.070410	2.395520	0.056463
1760	8.7950e-01	-9.6719	-84.227231	0.000343	3.434199	1.163538	0.027425
1761	8.8000e-01	-9.6350	-84.033642	0.000485	4.848281	1.642642	0.038718
1762	8.8050e-01	-9.5949	-83.767458	0.000667	6.666387	2.258633	0.053237
1763	8.8100e-01	-9.5468	-83.549671	0.000545	5.454316	1.847972	0.043557
1764	8.8150e-01	-9.5131	-83.154427	0.000990	9.898574	3.353728	0.079049
1765	8.8200e-01	-9.4650	-83.206857	-0.000131	-1.313076	-0.444882	-0.010486
1766	8.8250e-01	-9.4297	-83.009235	0.000495	4.949287	1.676864	0.039524
1767	8.8300e-01	-9.3960	-82.674488	0.000838	8.383486	2.840402	0.066949
1768	8.8350e-01	-9.3511	-82.505098	0.000424	4.242246	1.437312	0.033878
1769	8.8400e-01	-9.3110	-82.283278	0.000556	5.555322	1.882194	0.044364
1770	8.8450e-01	-9.2773	-81.948531	0.000838	8.383486	2.840402	0.066949
1771	8.8500e-01	-9.2420	-81.758975	0.000475	4.747275	1.608420	0.037911
1772	8.8550e-01	-9.1939	-81.569419	0.000475	4.747275	1.608420	0.037911
1773	8.8600e-01	-9.1538	-81.295169	0.000687	6.868398	2.327076	0.054850
1774	8.8650e-01	-9.1120	-81.145944	0.000374	3.737217	1.266203	0.029845
1775	8.8700e-01	-9.0751	-80.895892	0.000626	6.262363	2.121746	0.050010
1776	8.8750e-01	-9.0350	-80.859594	0.000091	0.909053	0.307995	0.007260
1777	8.8800e-01	-8.9901	-80.718435	0.000354	3.535205	1.197760	0.028232
1778	8.8850e-01	-8.9516	-80.294960	0.001061	10.605615	3.593280	0.084695
1779	8.8900e-01	-8.9195	-80.097338	0.000495	4.949287	1.676864	0.039524
1780	8.8950e-01	-8.8698	-79.843253	0.000636	6.363369	2.155968	0.050817
1781	8.9000e-01	-8.8329	-79.524638	0.000798	7.979463	2.703515	0.063723
1782	8.9050e-01	-8.7928	-79.456076	0.000172	1.717100	0.581769	0.013713
1783	8.9100e-01	-8.7527	-79.391546	0.000162	1.616094	0.547547	0.012906
1784	8.9150e-01	-8.7142	-79.097130	0.000737	7.373428	2.498185	0.058883
1785	8.9200e-01	-8.6805	-78.657522	0.001101	11.009638	3.730166	0.087922
1786	8.9250e-01	-8.6324	-78.326808	0.000828	8.282480	2.806180	0.066143
1787	8.9300e-01	-8.5939	-78.302609	0.000061	0.606035	0.205330	0.004840
1788	8.9350e-01	-8.5634	-77.967862	0.000838	8.383486	2.840402	0.066949
1789	8.9400e-01	-8.5089	-77.858969	0.000273	2.727158	0.923986	0.021779
1790	8.9450e-01	-8.4671	-77.520188	0.000848	8.484492	2.874624	0.067756
1791	8.9500e-01	-8.4302	-77.266103	0.000636	6.363369	2.155968	0.050817
1792	8.9550e-01	-8.3950	-77.290302	-0.000061	-0.606035	-0.205330	-0.004840
1793	8.9600e-01	-8.3484	-77.007985	0.000707	7.070410	2.395520	0.056463
1794	8.9650e-01	-8.3163	-76.568377	0.001101	11.009638	3.730166	0.087922
1795	8.9700e-01	-8.2682	-76.386888	0.000455	4.545264	1.539977	0.036298
1796	8.9750e-01	-8.2361	-76.205398	0.000455	4.545264	1.539977	0.036298
1797	8.9800e-01	-8.2040	-75.955346	0.000626	6.262363	2.121746	0.050010
1798	8.9850e-01	-8.1527	-75.826287	0.000323	3.232187	1.095095	0.025812
1799	8.9900e-01	-8.1110	-75.507672	0.000798	7.979463	2.703515	0.063723
1800	8.9950e-01	-8.0805	-75.205190	0.000758	7.575439	2.566628	0.060496
1801	9.0000e-01	-8.0356	-75.092263	0.000283	2.828164	0.958208	0.022585
1802	9.0050e-01	-7.9971	-74.874476	0.000545	5.454316	1.847972	0.043557
1803	9.0100e-01	-7.9522	-74.434868	0.001101	11.009638	3.730166	0.087922
1804	9.0150e-01	-7.9169	-74.362272	0.000182	1.818105	0.615991	0.014519
1805	9.0200e-01	-7.8768	-74.148518	0.000535	5.353310	1.813751	0.042751
1806	9.0250e-01	-7.8319	-73.813771	0.000838	8.383486	2.840402	0.066949
1807	9.0300e-01	-7.7886	-73.914598	-0.000253	-2.525146	-0.855543	-0.020165
1808	9.0350e-01	-7.7517	-73.579851	0.000838	8.383486	2.840402	0.066949
1809	9.0400e-01	-7.7099	-73.321733	0.000646	6.464375	2.190189	0.051624
1810	9.0450e-01	-7.6779	-73.035383	0.000717	7.171416	2.429741	0.057270
1811	9.0500e-01	-7.6329	-72.619973	0.001040	10.403603	3.524836	0.083082
1812	9.0550e-01	-7.5896	-72.426385	0.000485	4.848281	1.642642	0.038718
1813	9.0600e-01	-7.5495	-72.361855	0.000162	1.616094	0.547547	0.012906
1814	9.0650e-01	-7.5078	-72.244895	0.000293	2.929170	0.992430	0.023392
1815	9.0700e-01	-7.4661	-71.869817	0.000939	9.393545	3.182619	0.075016
1816	9.0750e-01	-7.4292	-71.438276	0.001081	10.807627	3.661723	0.086308
1817	9.0800e-01	-7.3891	-71.321316	0.000293	2.929170	0.992430	0.023392
1818	9.0850e-01	-7.3522	-71.196290	0.000313	3.131182	1.060873	0.025005
1819	9.0900e-01	-7.3105	-70.998668	0.000495	4.949287	1.676864	0.039524
1820	9.0950e-01	-7.2720	-70.514696	0.001212	12.120703	4.106605	0.096794
1821	9.1000e-01	-7.2319	-70.341273	0.000434	4.343252	1.471534	0.034685
1822	9.1050e-01	-7.1982	-70.099287	0.000606	6.060351	2.053303	0.048397
1823	9.1100e-01	-7.1517	-69.917797	0.000455	4.545264	1.539977	0.036298
1824	9.1150e-01	-7.1035	-69.708076	0.000525	5.252305	1.779529	0.041944
1825	9.1200e-01	-7.0682	-69.284601	0.001061	10.605615	3.593280	0.084695
1826	9.1250e-01	-7.0249	-69.155542	0.000323	3.232187	1.095095	0.025812
1827	9.1300e-01	-6.9912	-68.873225	0.000707	7.070410	2.395520	0.056463
1828	9.1350e-01	-6.9527	-68.744166	0.000323	3.232187	1.095095	0.025812
1829	9.1400e-01	-6.9062	-68.401352	0.000859	8.585498	2.908845	0.068563
1830	9.1450e-01	-6.8709	-68.231962	0.000424	4.242246	1.437312	0.033878
1831	9.1500e-01	-6.8324	-67.663295	0.001424	14.241826	4.825261	0.113733
1832	9.1550e-01	-6.7923	-67.764123	-0.000253	-2.525146	-0.855543	-0.020165
1833	9.1600e-01	-6.7538	-67.461640	0.000758	7.575439	2.566628	0.060496
1834	9.1650e-01	-6.7105	-67.255952	0.000515	5.151299	1.745307	0.041138
1835	9.1700e-01	-6.6688	-66.905073	0.000879	8.787509	2.977289	0.070176
1836	9.1750e-01	-6.6287	-66.695352	0.000525	5.252305	1.779529	0.041944
1837	9.1800e-01	-6.5982	-66.425134	0.000677	6.767392	2.292855	0.054044
1838	9.1850e-01	-6.5389	-66.344472	0.000202	2.020117	0.684434	0.016132
1839	9.1900e-01	-6.5164	-66.473531	-0.000323	-3.232187	-1.095095	-0.025812
1840	9.1950e-01	-6.4683	-65.457190	0.002545	25.453476	8.623871	0.203268
1841	9.2000e-01	-6.4362	-65.275701	0.000455	4.545264	1.539977	0.036298
1842	9.2050e-01	-6.3929	-65.106311	0.000424	4.242246	1.437312	0.033878
1843	9.2100e-01	-6.3560	-64.719133	0.000970	9.696562	3.285284	0.077435
1844	9.2150e-01	-6.3127	-64.594107	0.000313	3.131182	1.060873	0.025005
1845	9.2200e-01	-6.2774	-64.404552	0.000475	4.747275	1.608420	0.037911
1846	9.2250e-01	-6.2260	-64.182731	0.000556	5.555322	1.882194	0.044364
1847	9.2300e-01	-6.2004	-63.908480	0.000687	6.868398	2.327076	0.054850
1848	9.2350e-01	-6.1442	-63.678594	0.000576	5.757334	1.950637	0.045977
1849	9.2400e-01	-6.1137	-63.618097	0.000152	1.515088	0.513326	0.012099
1850	9.2450e-01	-6.0768	-63.359979	0.000646	6.464375	2.190189	0.051624
1851	9.2500e-01	-6.0367	-62.984901	0.000939	9.393545	3.182619	0.075016
1852	9.2550e-01	-5.9950	-62.525128	0.001151	11.514668	3.901275	0.091955
1853	9.2600e-01	-5.9565	-62.448499	0.000192	1.919111	0.650212	0.015326
1854	9.2650e-01	-5.9116	-62.331539	0.000293	2.929170	0.992430	0.023392
1855	9.2700e-01	-5.8795	-61.920163	0.001030	10.302597	3.490614	0.082275
1856	9.2750e-01	-5.8314	-61.686243	0.000586	5.858340	1.984859	0.046784
1857	9.2800e-01	-5.7945	-61.440224	0.000616	6.161357	2.087524	0.049204
1858	9.2850e-01	-5.7592	-61.137742	0.000758	7.575439	2.566628	0.060496
1859	9.2900e-01	-5.7095	-60.859458	0.000697	6.969404	2.361298	0.055657
1860	9.2950e-01	-5.6678	-60.895756	-0.000091	-0.909053	-0.307995	-0.007260
1861	9.3000e-01	-5.6325	-60.686035	0.000525	5.252305	1.779529	0.041944
1862	9.3050e-01	-5.5988	-60.319023	0.000919	9.191533	3.114176	0.073402
1863	9.3100e-01	-5.5587	-59.980242	0.000848	8.484492	2.874624	0.067756
1864	9.3150e-01	-5.5170	-59.625330	0.000889	8.888515	3.011511	0.070983
1865	9.3200e-01	-5.4672	-59.367211	0.000646	6.464375	2.190189	0.051624
1866	9.3250e-01	-5.4400	-59.165556	0.000505	5.050293	1.711086	0.040331
1867	9.3300e-01	-5.3998	-58.915504	0.000626	6.262363	2.121746	0.050010
1868	9.3350e-01	-5.3437	-58.673518	0.000606	6.060351	2.053303	0.048397
1869	9.3400e-01	-5.3148	-58.403301	0.000677	6.767392	2.292855	0.054044
1870	9.3450e-01	-5.2667	-58.116951	0.000717	7.171416	2.429741	0.057270
1871	9.3500e-01	-5.2410	-57.822535	0.000737	7.373428	2.498185	0.058883
1872	9.3550e-01	-5.2009	-57.576516	0.000616	6.161357	2.087524	0.049204
1873	9.3600e-01	-5.1528	-57.245802	0.000828	8.282480	2.806180	0.066143
1874	9.3650e-01	-5.1079	-57.096577	0.000374	3.737217	1.266203	0.029845
1875	9.3700e-01	-5.0758	-56.624704	0.001182	11.817685	4.003940	0.094375
1876	9.3750e-01	-5.0341	-56.350454	0.000687	6.868398	2.327076	0.054850
1877	9.3800e-01	-4.9892	-56.257692	0.000232	2.323135	0.787099	0.018552
1878	9.3850e-01	-4.9571	-55.926978	0.000828	8.282480	2.806180	0.066143
1879	9.3900e-01	-4.9122	-55.568033	0.000899	8.989521	3.045732	0.071789
1880	9.3950e-01	-4.8785	-55.426874	0.000354	3.535205	1.197760	0.028232
1881	9.4000e-01	-4.8352	-55.051796	0.000939	9.393545	3.182619	0.075016
1882	9.4050e-01	-4.7870	-54.850141	0.000505	5.050293	1.711086	0.040331
1883	9.4100e-01	-4.7566	-54.592023	0.000646	6.464375	2.190189	0.051624
1884	9.4150e-01	-4.7116	-54.309706	0.000707	7.070410	2.395520	0.056463
1885	9.4200e-01	-4.6779	-53.995124	0.000788	7.878457	2.669293	0.062916
1886	9.4250e-01	-4.6362	-53.704741	0.000727	7.272422	2.463963	0.058077
1887	9.4300e-01	-4.5929	-53.563583	0.000354	3.535205	1.197760	0.028232
1888	9.4350e-01	-4.5448	-53.474854	0.000222	2.222129	0.752878	0.017746
1889	9.4400e-01	-4.5111	-52.990883	0.001212	12.120703	4.106605	0.096794
1890	9.4450e-01	-4.4662	-52.785195	0.000515	5.151299	1.745307	0.041138
1891	9.4500e-01	-4.4357	-52.446414	0.000848	8.484492	2.874624	0.067756
1892	9.4550e-01	-4.3860	-52.289123	0.000394	3.939228	1.334647	0.031458
1893	9.4600e-01	-4.3507	-51.926145	0.000909	9.090527	3.079954	0.072596
1894	9.4650e-01	-4.3266	-51.426040	0.001252	12.524726	4.243492	0.100021
1895	9.4700e-01	-4.2785	-51.474437	-0.000121	-1.212070	-0.410661	-0.009679
1896	9.4750e-01	-4.2320	-51.163889	0.000778	7.777451	2.635072	0.062110
1897	9.4800e-01	-4.1983	-51.063061	0.000253	2.525146	0.855543	0.020165
1898	9.4850e-01	-4.1485	-50.655718	0.001020	10.201591	3.456393	0.081469
1899	9.4900e-01	-4.1213	-50.304839	0.000879	8.787509	2.977289	0.070176
1900	9.4950e-01	-4.0699	-50.054787	0.000626	6.262363	2.121746	0.050010
1901	9.5000e-01	-4.0459	-49.590980	0.001162	11.615673	3.935497	0.092761
1902	9.5050e-01	-3.9945	-49.353028	0.000596	5.959346	2.019081	0.047591
1903	9.5100e-01	-3.9512	-49.175571	0.000444	4.444258	1.505755	0.035491
1904	9.5150e-01	-3.9095	-48.796460	0.000949	9.494550	3.216841	0.075822
1905	9.5200e-01	-3.8790	-48.506077	0.000727	7.272422	2.463963	0.058077
1906	9.5250e-01	-3.8357	-48.284256	0.000556	5.555322	1.882194	0.044364
1907	9.5300e-01	-3.7828	-48.066469	0.000545	5.454316	1.847972	0.043557
1908	9.5350e-01	-3.7427	-47.953542	0.000283	2.828164	0.958208	0.022585
1909	9.5400e-01	-3.7154	-47.441339	0.001283	12.827744	4.346157	0.102441
1910	9.5450e-01	-3.6737	-47.308247	0.000333	3.333193	1.129316	0.026618
1911	9.5500e-01	-3.6336	-46.731514	0.001444	14.443837	4.893705	0.115347
1912	9.5550e-01	-3.5967	-46.614554	0.000293	2.929170	0.992430	0.023392
1913	9.5600e-01	-3.5566	-46.291906	0.000808	8.080469	2.737737	0.064530
1914	9.5650e-01	-3.5149	-46.178979	0.000283	2.828164	0.958208	0.022585
1915	9.5700e-01	-3.4732	-45.743404	0.001091	10.908632	3.695945	0.087115
1916	9.5750e-01	-3.4363	-45.299764	0.001111	11.110644	3.764388	0.088728
1917	9.5800e-01	-3.3913	-45.154572	0.000364	3.636211	1.231982	0.029038
1918	9.5850e-01	-3.3545	-44.747229	0.001020	10.201591	3.456393	0.081469
1919	9.5900e-01	-3.3224	-44.517342	0.000576	5.757334	1.950637	0.045977
1920	9.5950e-01	-3.2791	-44.339886	0.000444	4.444258	1.505755	0.035491
1921	9.6000e-01	-3.2309	-43.815583	0.001313	13.130761	4.448822	0.104861
1922	9.6050e-01	-3.1956	-43.545366	0.000677	6.767392	2.292855	0.054044
1923	9.6100e-01	-3.1523	-43.375975	0.000424	4.242246	1.437312	0.033878
1924	9.6150e-01	-3.1170	-43.154155	0.000556	5.555322	1.882194	0.044364
1925	9.6200e-01	-3.0753	-42.827474	0.000818	8.181474	2.771959	0.065336
1926	9.6250e-01	-3.0336	-42.484661	0.000859	8.585498	2.908845	0.068563
1927	9.6300e-01	-2.9903	-42.162013	0.000808	8.080469	2.737737	0.064530
1928	9.6350e-01	-2.9438	-41.807100	0.000889	8.888515	3.011511	0.070983
1929	9.6400e-01	-2.9181	-41.512684	0.000737	7.373428	2.498185	0.058883
1930	9.6450e-01	-2.8716	-41.254566	0.000646	6.464375	2.190189	0.051624
1931	9.6500e-01	-2.8331	-41.089209	0.000414	4.141240	1.403090	0.033071
1932	9.6550e-01	-2.7962	-40.774627	0.000788	7.878457	2.669293	0.062916
1933	9.6600e-01	-2.7545	-40.322920	0.001131	11.312656	3.832832	0.090341
1934	9.6650e-01	-2.7176	-40.040603	0.000707	7.070410	2.395520	0.056463
1935	9.6700e-01	-2.6678	-39.855080	0.000465	4.646269	1.574199	0.037105
1936	9.6750e-01	-2.6309	-39.742154	0.000283	2.828164	0.958208	0.022585
1937	9.6800e-01	-2.5989	-39.238016	0.001263	12.625732	4.277714	0.100827
1938	9.6850e-01	-2.5491	-38.963766	0.000687	6.868398	2.327076	0.054850
1939	9.6900e-01	-2.5170	-38.669349	0.000737	7.373428	2.498185	0.058883
1940	9.6950e-01	-2.4785	-38.241841	0.001071	10.706621	3.627501	0.085502
1941	9.7000e-01	-2.4320	-38.052285	0.000475	4.747275	1.608420	0.037911
1942	9.7050e-01	-2.3951	-37.737704	0.000788	7.878457	2.669293	0.062916
1943	9.7100e-01	-2.3534	-37.358592	0.000949	9.494550	3.216841	0.075822
1944	9.7150e-01	-2.3037	-37.104507	0.000636	6.363369	2.155968	0.050817
1945	9.7200e-01	-2.2764	-36.721363	0.000960	9.595556	3.251062	0.076629
1946	9.7250e-01	-2.2331	-36.402748	0.000798	7.979463	2.703515	0.063723
1947	9.7300e-01	-2.2026	-36.261590	0.000354	3.535205	1.197760	0.028232
1948	9.7350e-01	-2.1465	-36.072034	0.000475	4.747275	1.608420	0.037911
1949	9.7400e-01	-2.1144	-35.640492	0.001081	10.807627	3.661723	0.086308
1950	9.7450e-01	-2.0759	-35.083925	0.001394	13.938808	4.722596	0.111314
1951	9.7500e-01	-2.0342	-34.866137	0.000545	5.454316	1.847972	0.043557
1952	9.7550e-01	-2.0037	-34.426530	0.001101	11.009638	3.730166	0.087922
1953	9.7600e-01	-1.9572	-34.164378	0.000657	6.565381	2.224411	0.052430
1954	9.7650e-01	-1.9090	-33.873995	0.000727	7.272422	2.463963	0.058077
1955	9.7700e-01	-1.8786	-33.575546	0.000747	7.474433	2.532407	0.059690
1956	9.7750e-01	-1.8320	-33.135938	0.001101	11.009638	3.730166	0.087922
1957	9.7800e-01	-1.7951	-32.930250	0.000515	5.151299	1.745307	0.041138
1958	9.7850e-01	-1.7438	-32.615668	0.000788	7.878457	2.669293	0.062916
1959	9.7900e-01	-1.7149	-32.216392	0.001000	9.999580	3.387949	0.079855
1960	9.7950e-01	-1.6796	-32.075233	0.000354	3.535205	1.197760	0.028232
1961	9.8000e-01	-1.6379	-31.587228	0.001222	12.221709	4.140827	0.097601
1962	9.8050e-01	-1.5914	-31.099223	0.001222	12.221709	4.140827	0.097601
1963	9.8100e-01	-1.5577	-30.756410	0.000859	8.585498	2.908845	0.068563
1964	9.8150e-01	-1.5144	-30.490225	0.000667	6.666387	2.258633	0.053237
1965	9.8200e-01	-1.4679	-30.236140	0.000636	6.363369	2.155968	0.050817
1966	9.8250e-01	-1.4262	-29.844930	0.000980	9.797568	3.319506	0.078242
1967	9.8300e-01	-1.3957	-29.776367	0.000172	1.717100	0.581769	0.013713
1968	9.8350e-01	-1.3572	-29.631175	0.000364	3.636211	1.231982	0.029038
1969	9.8400e-01	-1.3139	-28.969747	0.001656	16.564960	5.612361	0.132286
1970	9.8450e-01	-1.2818	-28.514007	0.001141	11.413662	3.867053	0.091148
1971	9.8500e-01	-1.2369	-28.243790	0.000677	6.767392	2.292855	0.054044
1972	9.8550e-01	-1.1887	-28.026002	0.000545	5.454316	1.847972	0.043557
1973	9.8600e-01	-1.1534	-27.723520	0.000758	7.575439	2.566628	0.060496
1974	9.8650e-01	-1.1133	-27.324243	0.001000	9.999580	3.387949	0.079855
1975	9.8700e-01	-1.0764	-27.029827	0.000737	7.373428	2.498185	0.058883
1976	9.8750e-01	-1.0363	-26.594252	0.001091	10.908632	3.695945	0.087115
1977	9.8800e-01	-0.9994	-26.392597	0.000505	5.050293	1.711086	0.040331
1978	9.8850e-01	-0.9497	-26.061883	0.000828	8.282480	2.806180	0.066143
1979	9.8900e-01	-0.9192	-25.638408	0.001061	10.605615	3.593280	0.084695
1980	9.8950e-01	-0.8727	-25.251230	0.000970	9.696562	3.285284	0.077435
1981	9.9000e-01	-0.8278	-24.972947	0.000697	6.969404	2.361298	0.055657
1982	9.9050e-01	-0.7909	-24.662398	0.000778	7.777451	2.635072	0.062110
1983	9.9100e-01	-0.7476	-24.218757	0.001111	11.110644	3.764388	0.088728
1984	9.9150e-01	-0.7027	-23.867878	0.000879	8.787509	2.977289	0.070176
1985	9.9200e-01	-0.6754	-23.476667	0.000980	9.797568	3.319506	0.078242
1986	9.9250e-01	-0.6321	-23.262913	0.000535	5.353310	1.813751	0.042751
1987	9.9300e-01	-0.5968	-22.823305	0.001101	11.009638	3.730166	0.087922
1988	9.9350e-01	-0.5551	-22.424028	0.001000	9.999580	3.387949	0.079855
1989	9.9400e-01	-0.5166	-22.061049	0.000909	9.090527	3.079954	0.072596
1990	9.9450e-01	-0.4684	-21.762600	0.000747	7.474433	2.532407	0.059690
1991	9.9500e-01	-0.4380	-21.310893	0.001131	11.312656	3.832832	0.090341
1992	9.9550e-01	-0.3995	-20.887418	0.001061	10.605615	3.593280	0.084695
1993	9.9600e-01	-0.3497	-20.709961	0.000444	4.444258	1.505755	0.035491
1994	9.9650e-01	-0.3032	-20.375214	0.000838	8.383486	2.840402	0.066949
1995	9.9700e-01	-0.2711	-19.947706	0.001071	10.706621	3.627501	0.085502
1996	9.9750e-01	-0.2214	-19.556495	0.000980	9.797568	3.319506	0.078242
1997	9.9800e-01	-0.1893	-19.249980	0.000768	7.676445	2.600850	0.061303
1998	9.9850e-01	-0.1556	-18.959597	0.000727	7.272422	2.463963	0.058077
1999	9.9900e-01	-0.1139	-18.689379	0.000677	6.767392	2.292855	0.054044
2000	9.9950e-01	-0.0754	-18.064249	0.001566	15.655908	5.304365	0.125026
2001	1.0000e+00	-0.0353	-17.862594	0.001566	15.655908	5.304365	0.040331

Center data before PMax,+/-Pr and +/-Vc Calc.

PMax (uC/cm2):	1.29e+02
Pr (uC/cm2):	8.53e+00
-Pr (uC/cm2):	-1.79e+01
PLoss (uC/cm2):	-1.71e+01
-Vc:	-9.85e-01
C (Max-Eff) (nF):	6.45e-01
K (Eff):	2.19e+03
Vert. (+/-Pr) Shift (uC/cm2):	-4.66e+00
Offset (uC/cm2):	7.86e-01

A (Loop Area - uC/cm2·Volts):	-4.98e-01



Hysteresis Version: 5.48.1 - Radiant Technologies, Inc., 1999 - 9/12/24

