»»»»»»»»»»»»»»»»»»»»»»»»»»»»»»»»»»»» Hysteresis ««««««««««««««««««««««««««««««««««««
»»»  Executed Version:	5.48.1
»»»  Vision Version:	5.48.4 (R)
»»»  Vision Compiled:	9/18/24
»»»  Driver Version:	5.47.0
»»»  Windows Version:	Windows 8 or 8.1
»»»  Processor Information:	x86 (AMD or Intel) - 32 Processors
»»»  Tester Name:	PMF21124-494 (100V)
»»»  Tester S/N:	PMF21124-494
»»»  Internal Amp Type:	100V RevK 270k
»»»  Internal Amp S/N:	iAB2-596/K     
»»»  Execution Count:	1
»»»»»»»»»»»»»»»»»»»»»»»»»»»»»»»»»»»»»»»»»»««««««««««««««««««««««««««««««««««««««««««

Stored:	6/17/2025 - 16:22:14
Configured:	06/17/25 10:39:14 AM
Executed:	06/17/25 04:21:45 PM

»»»»»»»»»»»»»»»»»»»»»»»»»»»»»»»»»»» Sample Info ««««««««««««««««««««««««««««««««««««
Sample Name:	
Lot Name:	
Wafer Name:	
Die Row/Column:	0/0
Capacitor Number:	0
Sample Area (cm2):	1.00e-04
Sample Thickness (microns):	3.00e-01

Amplifier:	Internal

»»»»»»»»»»»»»»»»»»»»»»»»»»»»»»»»»»» Tester Info «««««««««««««««««««««««««««««««««««
Tester Name:	PMF21124-494 (100V)
Tester Serial Number:	PMF21124-494
Return Signal Amp. Level:	1.79 [Index: 2]

»»»»»»»»»»»»»»»»»»»»»»»»»»»»»»»» Hysteresis Info ««««««««««««««««««««««««««««««««««
Task Name:	Hyst-180
Volts:	20.00
Field:	666.67 (kV/cm)
DCBias:	0.00
DCField:	0.00 (kV/cm)
Hysteresis Period (ms):	1.00e+00
Preset:	Enabled
Preset Delay (ms):	1.00e+03
Profile:	Standard Bipolar

»»»»»»»»»»»»»»»»»»»»»»»»»»»»»»»»»»»»»» Data «««««««««««««««««««««««««««««««««««««««
Points:	2001

Valid Data

Point	Time (ms)	Drive Voltage	Measured Polarization (uC/cm2)	Capacitance (uF)	Normalized Capacitance (uF/cm2)	Dielectric Constant	Instantaneous Current (mA)
   1	0.0000e+00	0.0417	-2.713710	0.000511	5.105870	1.729915	0.040967
   2	5.0000e-04	0.0465	-2.508877	0.000511	5.105870	1.729915	0.040967
   3	1.0000e-03	0.0963	-2.635882	-0.000317	-3.165852	-1.072620	-0.025401
   4	1.5000e-03	0.1348	-2.320722	0.000786	7.856004	2.661686	0.063032
   5	2.0000e-03	0.1845	-2.260000	0.000151	1.513640	0.512835	0.012145
   6	2.5000e-03	0.2326	-2.293782	-0.000084	-0.842095	-0.285310	-0.006756
   7	3.0000e-03	0.2695	-2.100068	0.000483	4.828724	1.636016	0.038743
   8	3.5000e-03	0.2968	-1.988885	0.000277	2.771453	0.938994	0.022237
   9	4.0000e-03	0.3401	-1.900794	0.000220	2.195844	0.743972	0.017618
  10	4.5000e-03	0.3866	-1.920037	-0.000048	-0.479675	-0.162518	-0.003849
  11	5.0000e-03	0.4187	-1.711784	0.000519	5.191145	1.758808	0.041651
  12	5.5000e-03	0.4524	-1.559977	0.000378	3.784100	1.282088	0.030361
  13	6.0000e-03	0.5085	-1.590338	-0.000076	-0.756820	-0.256418	-0.006072
  14	6.5000e-03	0.5519	-1.370967	0.000547	5.468290	1.852707	0.043874
  15	7.0000e-03	0.5952	-1.346164	0.000062	0.618247	0.209468	0.004960
  16	7.5000e-03	0.6273	-1.216594	0.000323	3.229809	1.094289	0.025914
  17	8.0000e-03	0.6609	-1.227712	-0.000028	-0.277145	-0.093899	-0.002224
  18	8.5000e-03	0.6930	-0.954887	0.000680	6.800720	2.304146	0.054565
  19	9.0000e-03	0.7299	-0.820613	0.000335	3.347063	1.134016	0.026855
  20	9.5000e-03	0.7732	-0.706009	0.000286	2.856729	0.967886	0.022921
  21	1.0000e-02	0.8278	-0.635879	0.000175	1.748147	0.592288	0.014026
  22	1.0500e-02	0.8679	-0.576866	0.000147	1.471002	0.498389	0.011802
  23	1.1000e-02	0.9160	-0.567886	0.000022	0.223848	0.075842	0.001796
  24	1.1500e-02	0.9449	-0.315587	0.000629	6.289067	2.130794	0.050460
  25	1.2000e-02	0.9914	-0.197563	0.000294	2.942004	0.996778	0.023605
  26	1.2500e-02	1.0347	-0.096643	0.000252	2.515627	0.852317	0.020184
  27	1.3000e-02	1.0572	0.000428	0.000242	2.419692	0.819814	0.019414
  28	1.3500e-02	1.0957	0.079538	0.000197	1.971996	0.668130	0.015822
  29	1.4000e-02	1.1374	0.277529	0.000494	4.935319	1.672131	0.039598
  30	1.4500e-02	1.1952	0.330982	0.000133	1.332429	0.451439	0.010691
  31	1.5000e-02	1.2192	0.475092	0.000359	3.592230	1.217080	0.028822
  32	1.5500e-02	1.2497	0.558479	0.000208	2.078590	0.704245	0.016677
  33	1.6000e-02	1.3058	0.551209	-0.000018	-0.181210	-0.061396	-0.001454
  34	1.6500e-02	1.3283	0.826172	0.000685	6.854017	2.322204	0.054993
  35	1.7000e-02	1.3812	0.784692	-0.000103	-1.033965	-0.350317	-0.008296
  36	1.7500e-02	1.4550	0.855251	0.000176	1.758807	0.595900	0.014112
  37	1.8000e-02	1.4743	0.977979	0.000306	3.059258	1.036505	0.024546
  38	1.8500e-02	1.5032	1.264488	0.000714	7.141822	2.419715	0.057302
  39	1.9000e-02	1.5433	1.244390	-0.000050	-0.500993	-0.169741	-0.004020
  40	1.9500e-02	1.6042	1.245245	0.000002	0.021319	0.007223	0.000171
  41	2.0000e-02	1.6251	1.414584	0.000422	4.221136	1.430160	0.033868
  42	2.0500e-02	1.6604	1.640371	0.000563	5.628182	1.906880	0.045157
  43	2.1000e-02	1.7278	1.619417	-0.000052	-0.522312	-0.176964	-0.004191
  44	2.1500e-02	1.7278	1.793888	-0.000435	-4.349050	-1.473498	0.034894
  45	2.2000e-02	1.7647	1.934577	0.000351	3.506954	1.188188	0.028138
  46	2.2500e-02	1.8272	2.002142	0.000168	1.684191	0.570619	0.013513
  47	2.3000e-02	1.8625	2.063720	0.000153	1.534959	0.520058	0.012316
  48	2.3500e-02	1.9203	2.194145	0.000325	3.251128	1.101512	0.026085
  49	2.4000e-02	1.9588	2.257006	0.000157	1.566937	0.530893	0.012572
  50	2.4500e-02	1.9892	2.381018	0.000309	3.091236	1.047339	0.024802
  51	2.5000e-02	2.0165	2.542232	0.000402	4.018607	1.361541	0.032243
  52	2.5500e-02	2.0534	2.686770	0.000360	3.602889	1.220692	0.028907
  53	2.6000e-02	2.1240	2.578580	-0.000270	-2.696837	-0.913713	-0.021638
  54	2.6500e-02	2.1577	2.727394	0.000371	3.709484	1.256807	0.029763
  55	2.7000e-02	2.1946	2.945055	0.000543	5.425653	1.838261	0.043532
  56	2.7500e-02	2.2235	2.973279	0.000070	0.703523	0.238360	0.005645
  57	2.8000e-02	2.2588	3.169131	0.000488	4.882021	1.654074	0.039170
  58	2.8500e-02	2.2828	3.377812	0.000520	5.201804	1.762419	0.041736
  59	2.9000e-02	2.3486	3.428699	0.000127	1.268473	0.429770	0.010177
  60	2.9500e-02	2.3855	3.510804	0.000205	2.046612	0.693411	0.016421
  61	3.0000e-02	2.4465	3.513797	0.000007	0.074616	0.025281	0.000599
  62	3.0500e-02	2.4673	3.717347	0.000507	5.073891	1.719081	0.040710
  63	3.1000e-02	2.4994	3.780207	0.000157	1.566937	0.530893	0.012572
  64	3.1500e-02	2.5652	4.061157	0.000700	7.003249	2.372765	0.056190
  65	3.2000e-02	2.5828	4.134281	0.000182	1.822763	0.617569	0.014625
  66	3.2500e-02	2.6149	4.259148	0.000311	3.112555	1.054562	0.024973
  67	3.3000e-02	2.6662	4.364344	0.000262	2.622221	0.888433	0.021039
  68	3.3500e-02	2.6999	4.354081	-0.000026	-0.255826	-0.086676	-0.002053
  69	3.4000e-02	2.7416	4.580722	0.000565	5.649501	1.914103	0.045328
  70	3.4500e-02	2.7866	4.727397	0.000366	3.656186	1.238749	0.029335
  71	3.5000e-02	2.8234	4.673944	-0.000133	-1.332429	-0.451439	-0.010691
  72	3.5500e-02	2.8780	4.697464	0.000059	0.586269	0.198633	0.004704
  73	3.6000e-02	2.9069	4.847132	0.000373	3.730802	1.264030	0.029934
  74	3.6500e-02	2.9293	5.064366	0.000541	5.414993	1.834649	0.043447
  75	3.7000e-02	2.9999	5.011341	-0.000132	-1.321770	-0.447828	-0.010605
  76	3.7500e-02	3.0464	5.180680	0.000422	4.221136	1.430160	0.033868
  77	3.8000e-02	3.0689	5.351730	0.000426	4.263774	1.444606	0.034210
  78	3.8500e-02	3.0978	5.423999	0.000180	1.801445	0.610346	0.014454
  79	3.9000e-02	3.1331	5.615147	0.000476	4.764768	1.614347	0.038230
  80	3.9500e-02	3.1828	5.735310	0.000300	2.995301	1.014836	0.024033
  81	4.0000e-02	3.2341	5.736165	0.000002	0.021319	0.007223	0.000171
  82	4.0500e-02	3.2534	5.867446	0.000327	3.272447	1.108735	0.026256
  83	4.1000e-02	3.2999	6.171488	0.000758	7.578859	2.567787	0.060808
  84	4.1500e-02	3.3528	6.014549	-0.000391	-3.912013	-1.325426	-0.031388
  85	4.2000e-02	3.3801	6.278394	0.000658	6.576872	2.228304	0.052769
  86	4.2500e-02	3.4266	6.243329	-0.000087	-0.874074	-0.296144	-0.007013
  87	4.3000e-02	3.4651	6.468260	0.000561	5.606863	1.899657	0.044986
  88	4.3500e-02	3.5213	6.402406	-0.000164	-1.641553	-0.556173	-0.013171
  89	4.4000e-02	3.5454	6.696184	0.000732	7.323032	2.481110	0.058756
  90	4.4500e-02	3.5726	6.852267	0.000389	3.890694	1.318203	0.031217
  91	4.5000e-02	3.6272	6.795393	-0.000142	-1.417705	-0.480331	-0.011375
  92	4.5500e-02	3.6769	7.043416	0.000618	6.182473	2.094678	0.049605
  93	4.6000e-02	3.6962	7.066508	0.000058	0.575610	0.195022	0.004618
  94	4.6500e-02	3.7363	7.147756	0.000203	2.025293	0.686188	0.016250
  95	4.7000e-02	3.7892	7.294004	0.000365	3.645527	1.235138	0.029250
  96	4.7500e-02	3.8373	7.475745	0.000453	4.530260	1.534894	0.036348
  97	4.8000e-02	3.8437	7.596763	0.000302	3.016620	1.022059	0.024204
  98	4.8500e-02	3.9047	7.671597	0.000187	1.865401	0.632015	0.014967
  99	4.9000e-02	3.9288	7.815707	0.000359	3.592230	1.217080	0.028822
 100	4.9500e-02	3.9865	7.858470	0.000107	1.065944	0.361151	0.008553
 101	5.0000e-02	4.0330	7.974784	0.000290	2.899366	0.982332	0.023263
 102	5.0500e-02	4.0748	8.079980	0.000262	2.622221	0.888433	0.021039
 103	5.1000e-02	4.1116	8.157807	0.000194	1.940017	0.657296	0.015566
 104	5.1500e-02	4.1502	8.123170	-0.000086	-0.863414	-0.292533	-0.006928
 105	5.2000e-02	4.1887	8.454579	0.000826	8.261062	2.798924	0.066282
 106	5.2500e-02	4.2304	8.434481	-0.000050	-0.500993	-0.169741	-0.004020
 107	5.3000e-02	4.2641	8.718852	0.000709	7.088525	2.401657	0.056874
 108	5.3500e-02	4.2929	8.776154	0.000143	1.428364	0.483943	0.011460
 109	5.4000e-02	4.3587	8.765463	-0.000027	-0.266486	-0.090288	-0.002138
 110	5.4500e-02	4.3988	8.947631	0.000454	4.540919	1.538505	0.036434
 111	5.5000e-02	4.4357	9.082333	0.000336	3.357722	1.137627	0.026940
 112	5.5500e-02	4.4822	9.205489	0.000307	3.069917	1.040116	0.024631
 113	5.6000e-02	4.4935	9.244831	0.000098	0.980668	0.332259	0.007868
 114	5.6500e-02	4.5480	9.397493	0.000381	3.805418	1.289311	0.030532
 115	5.7000e-02	4.5705	9.541603	0.000359	3.592230	1.217080	0.028822
 116	5.7500e-02	4.6170	9.599760	0.000145	1.449683	0.491166	0.011631
 117	5.8000e-02	4.6459	9.832388	0.000580	5.798733	1.964664	0.046526
 118	5.8500e-02	4.6731	9.977353	0.000361	3.613549	1.224303	0.028993
 119	5.9000e-02	4.7357	10.025247	0.000119	1.193857	0.404490	0.009579
 120	5.9500e-02	4.7854	10.180903	0.000388	3.880034	1.314591	0.031131
 121	6.0000e-02	4.8368	10.239915	0.000147	1.471002	0.498389	0.011802
 122	6.0500e-02	4.8833	10.246329	0.000016	0.159892	0.054173	0.001283
 123	6.1000e-02	4.9041	10.331427	0.000212	2.121228	0.718691	0.017019
 124	6.1500e-02	4.9362	10.542246	0.000526	5.255102	1.780477	0.042164
 125	6.2000e-02	4.9827	10.550371	0.000020	0.202529	0.068619	0.001625
 126	6.2500e-02	5.0421	10.683362	0.000332	3.315084	1.123181	0.026598
 127	6.3000e-02	5.0694	10.777440	0.000235	2.345076	0.794533	0.018816
 128	6.3500e-02	5.1143	10.965167	0.000468	4.679492	1.585455	0.037545
 129	6.4000e-02	5.1400	11.025035	0.000149	1.492321	0.505612	0.011974
 130	6.4500e-02	5.1977	11.076777	0.000129	1.289792	0.436993	0.010349
 131	6.5000e-02	5.2186	11.220032	0.000357	3.570911	1.209857	0.028651
 132	6.5500e-02	5.2763	11.348747	0.000321	3.208490	1.087066	0.025743
 133	6.6000e-02	5.3084	11.490719	0.000354	3.538933	1.199023	0.028394
 134	6.6500e-02	5.3613	11.568119	0.000193	1.929358	0.653684	0.015480
 135	6.7000e-02	5.3870	11.648940	0.000201	2.014633	0.682576	0.016164
 136	6.7500e-02	5.4255	11.761833	0.000281	2.814091	0.953440	0.022579
 137	6.8000e-02	5.4544	11.891831	0.000324	3.240468	1.097900	0.026000
 138	6.8500e-02	5.4817	12.175347	0.000707	7.067206	2.394434	0.056703
 139	6.9000e-02	5.5699	12.050053	-0.000312	-3.123215	-1.058174	-0.025059
 140	6.9500e-02	5.5891	12.254457	0.000510	5.095210	1.726304	0.040881
 141	7.0000e-02	5.6309	12.448599	0.000484	4.839384	1.639628	0.038828
 142	7.0500e-02	5.6678	12.503335	0.000136	1.364408	0.462274	0.010947
 143	7.1000e-02	5.7159	12.440474	-0.000157	-1.566937	-0.530893	-0.012572
 144	7.1500e-02	5.7448	12.804384	0.000907	9.071180	3.073399	0.072782
 145	7.2000e-02	5.7672	12.792410	-0.000030	-0.298464	-0.101122	-0.002395
 146	7.2500e-02	5.8234	12.984841	0.000480	4.796746	1.625182	0.038486
 147	7.3000e-02	5.8603	13.053262	0.000171	1.705510	0.577842	0.013684
 148	7.3500e-02	5.8972	13.161451	0.000270	2.696837	0.913713	0.021638
 149	7.4000e-02	5.9501	13.401776	0.000599	5.990603	2.029671	0.048065
 150	7.4500e-02	5.9966	13.353882	-0.000119	-1.193857	-0.404490	-0.009579
 151	7.5000e-02	6.0191	13.368849	0.000037	0.373080	0.126403	0.002993
 152	7.5500e-02	6.0881	13.460788	0.000229	2.291779	0.776476	0.018388
 153	7.6000e-02	6.1041	13.827263	0.000914	9.135136	3.095068	0.073295
 154	7.6500e-02	6.1570	13.659207	-0.000419	-4.189158	-1.419325	-0.033611
 155	7.7000e-02	6.1795	13.977787	0.000794	7.941279	2.690578	0.063716
 156	7.7500e-02	6.2357	14.091108	0.000282	2.824750	0.957051	0.022664
 157	7.8000e-02	6.2742	14.288671	0.000492	4.924659	1.668520	0.039513
 158	7.8500e-02	6.3143	14.240777	-0.000119	-1.193857	-0.404490	-0.009579
 159	7.9000e-02	6.3415	14.450741	0.000523	5.233783	1.773254	0.041993
 160	7.9500e-02	6.3736	14.512319	0.000153	1.534959	0.520058	0.012316
 161	8.0000e-02	6.4121	14.636758	0.000310	3.101896	1.050951	0.024888
 162	8.0500e-02	6.4747	14.754355	0.000293	2.931345	0.993166	0.023519
 163	8.1000e-02	6.4811	14.986555	0.000579	5.788073	1.961052	0.046440
 164	8.1500e-02	6.5260	15.113988	0.000318	3.176512	1.076231	0.025486
 165	8.2000e-02	6.5709	15.210203	0.000240	2.398373	0.812591	0.019243
 166	8.2500e-02	6.6191	15.231585	0.000053	0.532972	0.180576	0.004276
 167	8.3000e-02	6.6640	15.273920	0.000106	1.055284	0.357540	0.008467
 168	8.3500e-02	6.7121	15.356024	0.000205	2.046612	0.693411	0.016421
 169	8.4000e-02	6.7442	15.509541	0.000383	3.826737	1.296534	0.030703
 170	8.4500e-02	6.7907	15.530067	0.000051	0.511653	0.173353	0.004105
 171	8.5000e-02	6.8340	15.697269	0.000417	4.167839	1.412102	0.033440
 172	8.5500e-02	6.8677	15.775524	0.000195	1.950677	0.660907	0.015651
 173	8.6000e-02	6.9030	15.929041	0.000383	3.826737	1.296534	0.030703
 174	8.6500e-02	6.9431	16.065454	0.000340	3.400360	1.152073	0.027282
 175	8.7000e-02	6.9624	16.168084	0.000256	2.558264	0.866763	0.020526
 176	8.7500e-02	7.0169	16.297654	0.000323	3.229809	1.094289	0.025914
 177	8.8000e-02	7.0554	16.317325	0.000049	0.490334	0.166130	0.003934
 178	8.8500e-02	7.1292	16.606400	0.000721	7.205778	2.441384	0.057815
 179	8.9000e-02	7.1469	16.602551	-0.000010	-0.095935	-0.032504	-0.000770
 180	8.9500e-02	7.1773	16.607255	0.000012	0.117254	0.039727	0.000941
 181	9.0000e-02	7.2239	16.902744	0.000737	7.365670	2.495556	0.059098
 182	9.0500e-02	7.2527	16.978862	0.000190	1.897379	0.642850	0.015223
 183	9.1000e-02	7.2896	17.076360	0.000243	2.430351	0.823425	0.019500
 184	9.1500e-02	7.3490	17.113563	0.000093	0.927371	0.314202	0.007441
 185	9.2000e-02	7.3923	17.421881	0.000769	7.685453	2.603902	0.061664
 186	9.2500e-02	7.4100	17.457802	0.000090	0.895393	0.303367	0.007184
 187	9.3000e-02	7.4436	17.551452	0.000233	2.334416	0.790922	0.018730
 188	9.3500e-02	7.5046	17.729344	0.000443	4.434325	1.502390	0.035578
 189	9.4000e-02	7.5463	17.714805	-0.000036	-0.362421	-0.122791	-0.002908
 190	9.4500e-02	7.5736	17.861908	0.000367	3.666846	1.242361	0.029421
 191	9.5000e-02	7.6345	18.028682	0.000416	4.157180	1.408491	0.033355
 192	9.5500e-02	7.6746	18.114634	0.000214	2.142547	0.725914	0.017191
 193	9.6000e-02	7.7067	18.136871	0.000055	0.554291	0.187799	0.004447
 194	9.6500e-02	7.7404	18.258744	0.000304	3.037939	1.029282	0.024375
 195	9.7000e-02	7.7934	18.421242	0.000405	4.050585	1.372375	0.032500
 196	9.7500e-02	7.8591	18.370782	-0.000126	-1.257813	-0.426159	-0.010092
 197	9.8000e-02	7.8992	18.519595	0.000371	3.709484	1.256807	0.029763
 198	9.8500e-02	7.9008	18.655153	0.000338	3.379041	1.144850	0.027111
 199	9.9000e-02	7.9714	18.756500	0.000253	2.526286	0.855929	0.020269
 200	9.9500e-02	7.9987	18.907879	0.000377	3.773440	1.278476	0.030276
 201	1.0000e-01	8.0372	19.051989	0.000359	3.592230	1.217080	0.028822
 202	1.0050e-01	8.0821	19.236295	0.000459	4.594217	1.556563	0.036861
 203	1.0100e-01	8.1030	19.337643	0.000253	2.526286	0.855929	0.020269
 204	1.0150e-01	8.1431	19.408628	0.000177	1.769466	0.599511	0.014197
 205	1.0200e-01	8.1704	19.624579	0.000538	5.383015	1.823815	0.043190
 206	1.0250e-01	8.2137	19.640401	0.000039	0.394399	0.133626	0.003164
 207	1.0300e-01	8.2634	19.695565	0.000138	1.375067	0.465885	0.011033
 208	1.0350e-01	8.3067	19.781518	0.000214	2.142547	0.725914	0.017191
 209	1.0400e-01	8.3484	19.972238	0.000475	4.754108	1.610735	0.038144
 210	1.0450e-01	8.3885	20.130460	0.000394	3.943991	1.336260	0.031644
 211	1.0500e-01	8.4302	20.168946	0.000096	0.959349	0.325036	0.007697
 212	1.0550e-01	8.4415	20.436640	0.000667	6.672807	2.260808	0.053539
 213	1.0600e-01	8.5056	20.487955	0.000128	1.279132	0.433382	0.010263
 214	1.0650e-01	8.5586	20.476836	-0.000028	-0.277145	-0.093899	-0.002224
 215	1.0700e-01	8.5875	20.687656	0.000526	5.255102	1.780477	0.042164
 216	1.0750e-01	8.6163	20.691504	0.000010	0.095935	0.032504	0.000770
 217	1.0800e-01	8.6596	20.791568	0.000249	2.494308	0.845094	0.020013
 218	1.0850e-01	8.6949	20.886929	0.000238	2.377054	0.805368	0.019072
 219	1.0900e-01	8.7639	20.912586	0.000064	0.639566	0.216691	0.005132
 220	1.0950e-01	8.8185	21.061400	0.000371	3.709484	1.256807	0.029763
 221	1.1000e-01	8.8233	21.338929	0.000692	6.917974	2.343873	0.055506
 222	1.1050e-01	8.8602	21.361593	0.000056	0.564950	0.191410	0.004533
 223	1.1100e-01	8.9003	21.469782	0.000270	2.696837	0.913713	0.021638
 224	1.1150e-01	8.9564	21.539057	0.000173	1.726829	0.585065	0.013855
 225	1.1200e-01	8.9869	21.721226	0.000454	4.540919	1.538505	0.036434
 226	1.1250e-01	9.0559	21.793494	0.000180	1.801445	0.610346	0.014454
 227	1.1300e-01	9.0735	21.821718	0.000070	0.703523	0.238360	0.005645
 228	1.1350e-01	9.1169	21.952999	0.000327	3.272447	1.108735	0.026256
 229	1.1400e-01	9.1409	22.127042	0.000434	4.338390	1.469886	0.034809
 230	1.1450e-01	9.1842	22.316480	0.000472	4.722130	1.599901	0.037888
 231	1.1500e-01	9.2211	22.467860	0.000377	3.773440	1.278476	0.030276
 232	1.1550e-01	9.2757	22.516181	0.000120	1.204516	0.408101	0.009664
 233	1.1600e-01	9.3013	22.656870	0.000351	3.506954	1.188188	0.028138
 234	1.1650e-01	9.3527	22.707757	0.000127	1.268473	0.429770	0.010177
 235	1.1700e-01	9.3896	22.851012	0.000357	3.570911	1.209857	0.028651
 236	1.1750e-01	9.4168	22.964332	0.000282	2.824750	0.957051	0.022664
 237	1.1800e-01	9.4602	23.051996	0.000219	2.185184	0.740360	0.017533
 238	1.1850e-01	9.5083	23.066107	0.000035	0.351761	0.119180	0.002822
 239	1.1900e-01	9.5452	23.252552	0.000465	4.647514	1.574620	0.037289
 240	1.1950e-01	9.6013	23.226039	-0.000066	-0.660885	-0.223914	-0.005303
 241	1.2000e-01	9.6158	23.519390	0.000731	7.312373	2.477499	0.058670
 242	1.2050e-01	9.6751	23.605770	0.000215	2.153206	0.729526	0.017276
 243	1.2100e-01	9.7024	23.693434	0.000219	2.185184	0.740360	0.017533
 244	1.2150e-01	9.7361	23.817445	0.000309	3.091236	1.047339	0.024802
 245	1.2200e-01	9.7778	23.927345	0.000274	2.739475	0.928159	0.021980
 246	1.2250e-01	9.8195	23.831129	-0.000240	-2.398373	-0.812591	-0.019243
 247	1.2300e-01	9.8676	24.198887	0.000917	9.167114	3.105902	0.073552
 248	1.2350e-01	9.8869	24.280135	0.000203	2.025293	0.686188	0.016250
 249	1.2400e-01	9.9527	24.336582	0.000141	1.407045	0.476720	0.011289
 250	1.2450e-01	9.9751	24.520888	0.000459	4.594217	1.556563	0.036861
 251	1.2500e-01	10.0313	24.460166	-0.000151	-1.513640	-0.512835	-0.012145
 252	1.2550e-01	10.0810	24.671840	0.000528	5.276421	1.787700	0.042335
 253	1.2600e-01	10.1115	24.743681	0.000179	1.790785	0.606734	0.014368
 254	1.2650e-01	10.1676	24.809536	0.000164	1.641553	0.556173	0.013171
 255	1.2700e-01	10.1756	25.087064	0.000692	6.917974	2.343873	0.055506
 256	1.2750e-01	10.2318	25.066111	-0.000052	-0.522312	-0.176964	-0.004191
 257	1.2800e-01	10.2735	25.233740	0.000418	4.178499	1.415714	0.033526
 258	1.2850e-01	10.3329	25.258542	0.000062	0.618247	0.209468	0.004960
 259	1.2900e-01	10.3473	25.548044	0.000722	7.216438	2.444995	0.057900
 260	1.2950e-01	10.3746	25.470217	-0.000194	-1.940017	-0.657296	-0.015566
 261	1.3000e-01	10.4243	25.726364	0.000639	6.385002	2.163297	0.051230
 262	1.3050e-01	10.4484	25.793929	0.000168	1.684191	0.570619	0.013513
 263	1.3100e-01	10.4837	25.982939	0.000471	4.711470	1.596289	0.037802
 264	1.3150e-01	10.5302	26.101819	0.000296	2.963323	1.004001	0.023776
 265	1.3200e-01	10.5815	26.222837	0.000302	3.016620	1.022059	0.024204
 266	1.3250e-01	10.6216	26.263461	0.000101	1.012646	0.343094	0.008125
 267	1.3300e-01	10.6698	26.322474	0.000147	1.471002	0.498389	0.011802
 268	1.3350e-01	10.6938	26.423821	0.000253	2.526286	0.855929	0.020269
 269	1.3400e-01	10.7371	26.546977	0.000307	3.069917	1.040116	0.024631
 270	1.3450e-01	10.7660	26.763355	0.000539	5.393674	1.827426	0.043276
 271	1.3500e-01	10.8109	26.815953	0.000131	1.311111	0.444216	0.010520
 272	1.3550e-01	10.8703	26.857861	0.000104	1.044625	0.353928	0.008381
 273	1.3600e-01	10.9409	26.899768	0.000104	1.044625	0.353928	0.008381
 274	1.3650e-01	10.9746	27.027628	0.000319	3.187171	1.079843	0.025572
 275	1.3700e-01	10.9890	27.135389	0.000269	2.686178	0.910102	0.021552
 276	1.3750e-01	11.0323	27.282493	0.000367	3.666846	1.242361	0.029421
 277	1.3800e-01	11.0628	27.396668	0.000285	2.846069	0.964274	0.022835
 278	1.3850e-01	11.0965	27.556600	0.000399	3.986629	1.350706	0.031986
 279	1.3900e-01	11.1462	27.616040	0.000148	1.481662	0.502001	0.011888
 280	1.3950e-01	11.1831	27.687026	0.000177	1.769466	0.599511	0.014197
 281	1.4000e-01	11.2184	27.854228	0.000417	4.167839	1.412102	0.033440
 282	1.4050e-01	11.2553	27.961989	0.000269	2.686178	0.910102	0.021552
 283	1.4100e-01	11.2826	28.016725	0.000136	1.364408	0.462274	0.010947
 284	1.4150e-01	11.3435	28.179223	0.000405	4.050585	1.372375	0.032500
 285	1.4200e-01	11.3901	28.307083	0.000319	3.187171	1.079843	0.025572
 286	1.4250e-01	11.4173	28.431949	0.000311	3.112555	1.054562	0.024973
 287	1.4300e-01	11.4606	28.459317	0.000068	0.682204	0.231137	0.005474
 288	1.4350e-01	11.5056	28.591881	0.000330	3.304425	1.119569	0.026513
 289	1.4400e-01	11.5521	28.672275	0.000200	2.003974	0.678965	0.016079
 290	1.4450e-01	11.5986	28.695366	0.000058	0.575610	0.195022	0.004618
 291	1.4500e-01	11.6291	28.831351	0.000339	3.389700	1.148462	0.027197
 292	1.4550e-01	11.6564	28.969474	0.000344	3.442998	1.166519	0.027625
 293	1.4600e-01	11.7109	28.999836	0.000076	0.756820	0.256418	0.006072
 294	1.4650e-01	11.7430	29.243154	0.000607	6.065219	2.054952	0.048664
 295	1.4700e-01	11.7879	29.239306	-0.000010	-0.095935	-0.032504	-0.000770
 296	1.4750e-01	11.8264	29.372725	0.000333	3.325744	1.126793	0.026684
 297	1.4800e-01	11.8585	29.588676	0.000538	5.383015	1.823815	0.043190
 298	1.4850e-01	11.8922	29.699003	0.000275	2.750134	0.931771	0.022065
 299	1.4900e-01	11.9291	29.808903	0.000274	2.739475	0.928159	0.021980
 300	1.4950e-01	11.9932	29.745614	-0.000158	-1.577596	-0.534504	-0.012658
 301	1.5000e-01	12.0221	29.882027	0.000340	3.400360	1.152073	0.027282
 302	1.5050e-01	12.0574	30.136464	0.000634	6.342364	2.148851	0.050887
 303	1.5100e-01	12.1136	30.117220	-0.000048	-0.479675	-0.162518	-0.003849
 304	1.5150e-01	12.1424	30.182220	0.000162	1.620234	0.548950	0.013000
 305	1.5200e-01	12.1841	30.380638	0.000495	4.945978	1.675743	0.039684
 306	1.5250e-01	12.2162	30.507642	0.000317	3.165852	1.072620	0.025401
 307	1.5300e-01	12.2628	30.654318	0.000366	3.656186	1.238749	0.029335
 308	1.5350e-01	12.2997	30.799283	0.000361	3.613549	1.224303	0.028993
 309	1.5400e-01	12.3366	30.792868	-0.000016	-0.159892	-0.054173	-0.001283
 310	1.5450e-01	12.3895	30.853591	0.000151	1.513640	0.512835	0.012145
 311	1.5500e-01	12.4296	31.066976	0.000532	5.319058	1.802146	0.042677
 312	1.5550e-01	12.4617	31.134113	0.000167	1.673531	0.567008	0.013427
 313	1.5600e-01	12.5114	31.273092	0.000346	3.464316	1.173742	0.027796
 314	1.5650e-01	12.5579	31.208948	-0.000160	-1.598915	-0.541727	-0.012829
 315	1.5700e-01	12.5756	31.513417	0.000759	7.589518	2.571398	0.060894
 316	1.5750e-01	12.6141	31.620751	0.000268	2.675518	0.906490	0.021467
 317	1.5800e-01	12.6638	31.697296	0.000191	1.908039	0.646461	0.015309
 318	1.5850e-01	12.7071	31.728513	0.000078	0.778139	0.263641	0.006243
 319	1.5900e-01	12.7488	31.841833	0.000282	2.824750	0.957051	0.022664
 320	1.5950e-01	12.7761	31.973542	0.000328	3.283106	1.112346	0.026342
 321	1.6000e-01	12.8130	32.099264	0.000313	3.133874	1.061785	0.025144
 322	1.6050e-01	12.8515	32.209591	0.000275	2.750134	0.931771	0.022065
 323	1.6100e-01	12.9028	32.357549	0.000369	3.688165	1.249584	0.029592
 324	1.6150e-01	12.9141	32.606855	0.000621	6.214451	2.105513	0.049861
 325	1.6200e-01	12.9750	32.602579	-0.000011	-0.106594	-0.036115	-0.000855
 326	1.6250e-01	13.0200	32.611131	0.000021	0.213189	0.072230	0.001711
 327	1.6300e-01	13.0328	32.816391	0.000512	5.116529	1.733527	0.041052
 328	1.6350e-01	13.0713	32.889087	0.000181	1.812104	0.613957	0.014539
 329	1.6400e-01	13.1242	33.002836	0.000284	2.835410	0.960663	0.022750
 330	1.6450e-01	13.1788	33.000270	-0.000006	-0.063957	-0.021669	-0.000513
 331	1.6500e-01	13.2012	33.167472	0.000417	4.167839	1.412102	0.033440
 332	1.6550e-01	13.2558	33.309871	0.000355	3.549592	1.202634	0.028480
 333	1.6600e-01	13.3023	33.318423	0.000021	0.213189	0.072230	0.001711
 334	1.6650e-01	13.3472	33.348357	0.000075	0.746160	0.252806	0.005987
 335	1.6700e-01	13.3905	33.549341	0.000501	5.009935	1.697412	0.040197
 336	1.6750e-01	13.4322	33.576281	0.000067	0.671544	0.227525	0.005388
 337	1.6800e-01	13.4483	33.732365	0.000389	3.890694	1.318203	0.031217
 338	1.6850e-01	13.5012	33.778120	0.000114	1.140560	0.386432	0.009151
 339	1.6900e-01	13.5445	33.988084	0.000523	5.233783	1.773254	0.041993
 340	1.6950e-01	13.6151	34.000913	0.000032	0.319783	0.108345	0.002566
 341	1.7000e-01	13.6440	34.175812	0.000436	4.359709	1.477109	0.034980
 342	1.7050e-01	13.6729	34.295975	0.000300	2.995301	1.014836	0.024033
 343	1.7100e-01	13.7018	34.334461	0.000096	0.959349	0.325036	0.007697
 344	1.7150e-01	13.7419	34.505939	0.000427	4.274434	1.448217	0.034296
 345	1.7200e-01	13.7836	34.610707	0.000261	2.611562	0.884821	0.020954
 346	1.7250e-01	13.8205	34.714192	0.000258	2.579583	0.873987	0.020697
 347	1.7300e-01	13.8558	34.915176	0.000501	5.009935	1.697412	0.040197
 348	1.7350e-01	13.8943	34.872841	-0.000106	-1.055284	-0.357540	-0.008467
 349	1.7400e-01	13.9600	35.106752	0.000583	5.830711	1.975498	0.046782
 350	1.7450e-01	14.0162	34.970767	-0.000339	-3.389700	-1.148462	-0.027197
 351	1.7500e-01	14.0290	35.211520	0.000600	6.001262	2.033283	0.048151
 352	1.7550e-01	14.0691	35.280796	0.000173	1.726829	0.585065	0.013855
 353	1.7600e-01	14.1124	35.368459	0.000219	2.185184	0.740360	0.017533
 354	1.7650e-01	14.1397	35.574147	0.000513	5.127188	1.737138	0.041138
 355	1.7700e-01	14.1814	35.679770	0.000263	2.632881	0.892044	0.021125
 356	1.7750e-01	14.2392	35.712270	0.000081	0.810117	0.274475	0.006500
 357	1.7800e-01	14.2472	35.968417	0.000639	6.385002	2.163297	0.051230
 358	1.7850e-01	14.2809	35.981673	0.000033	0.330442	0.111957	0.002651
 359	1.7900e-01	14.3418	36.055653	0.000184	1.844082	0.624792	0.014796
 360	1.7950e-01	14.3868	36.145454	0.000224	2.238481	0.758418	0.017960
 361	1.8000e-01	14.4044	36.289136	0.000358	3.581570	1.213469	0.028736
 362	1.8050e-01	14.4734	36.336602	0.000118	1.183197	0.400878	0.009493
 363	1.8100e-01	14.5039	36.529889	0.000482	4.818065	1.632405	0.038657
 364	1.8150e-01	14.5456	36.520054	-0.000025	-0.245167	-0.083065	-0.001967
 365	1.8200e-01	14.5809	36.780477	0.000649	6.491596	2.199412	0.052085
 366	1.8250e-01	14.6242	36.807846	0.000068	0.682204	0.231137	0.005474
 367	1.8300e-01	14.6563	36.823668	0.000039	0.394399	0.133626	0.003164
 368	1.8350e-01	14.6996	37.043895	0.000549	5.489609	1.859930	0.044045
 369	1.8400e-01	14.7509	37.180735	0.000341	3.411019	1.155685	0.027368
 370	1.8450e-01	14.7910	37.128137	-0.000131	-1.311111	-0.444216	-0.010520
 371	1.8500e-01	14.8151	37.248727	0.000301	3.005961	1.018447	0.024118
 372	1.8550e-01	14.8536	37.425336	0.000440	4.402347	1.491555	0.035322
 373	1.8600e-01	14.8953	37.504875	0.000198	1.982655	0.671742	0.015908
 374	1.8650e-01	14.9466	37.601946	0.000242	2.419692	0.819814	0.019414
 375	1.8700e-01	14.9755	37.748193	0.000365	3.645527	1.235138	0.029250
 376	1.8750e-01	15.0285	37.796943	0.000122	1.215176	0.411713	0.009750
 377	1.8800e-01	15.0862	37.887172	0.000225	2.249141	0.762030	0.018046
 378	1.8850e-01	15.1119	37.980822	0.000233	2.334416	0.790922	0.018730
 379	1.8900e-01	15.1456	38.192496	0.000528	5.276421	1.787700	0.042335
 380	1.8950e-01	15.1696	38.371244	0.000446	4.455644	1.509613	0.035749
 381	1.9000e-01	15.2017	38.422986	0.000129	1.289792	0.436993	0.010349
 382	1.9050e-01	15.2498	38.608576	0.000463	4.626195	1.567397	0.037118
 383	1.9100e-01	15.2980	38.663739	0.000138	1.375067	0.465885	0.011033
 384	1.9150e-01	15.3589	38.637654	-0.000065	-0.650226	-0.220302	-0.005217
 385	1.9200e-01	15.3830	38.697522	0.000149	1.492321	0.505612	0.011974
 386	1.9250e-01	15.4087	38.927584	0.000573	5.734776	1.942995	0.046012
 387	1.9300e-01	15.4664	38.906630	-0.000052	-0.522312	-0.176964	-0.004191
 388	1.9350e-01	15.5113	38.983603	0.000192	1.918698	0.650073	0.015395
 389	1.9400e-01	15.5402	39.165344	0.000453	4.530260	1.534894	0.036348
 390	1.9450e-01	15.5819	39.160640	-0.000012	-0.117254	-0.039727	-0.000941
 391	1.9500e-01	15.6060	39.406524	0.000613	6.129175	2.076621	0.049177
 392	1.9550e-01	15.6621	39.518135	0.000278	2.782113	0.942605	0.022322
 393	1.9600e-01	15.7086	39.548068	0.000075	0.746160	0.252806	0.005987
 394	1.9650e-01	15.7423	39.613495	0.000163	1.630894	0.552562	0.013085
 395	1.9700e-01	15.7664	39.732802	0.000297	2.973982	1.007613	0.023861
 396	1.9750e-01	15.8161	39.862373	0.000323	3.229809	1.094289	0.025914
 397	1.9800e-01	15.8594	40.011186	0.000371	3.709484	1.256807	0.029763
 398	1.9850e-01	15.8947	40.076185	0.000162	1.620234	0.548950	0.013000
 399	1.9900e-01	15.9397	40.242104	0.000414	4.135861	1.401268	0.033184
 400	1.9950e-01	15.9766	40.245953	0.000010	0.095935	0.032504	0.000770
 401	2.0000e-01	16.0231	40.373385	0.000318	3.176512	1.076231	0.025486
 402	2.0050e-01	16.0696	40.466180	0.000231	2.313097	0.783699	0.018559
 403	2.0100e-01	16.1081	40.593612	0.000318	3.176512	1.076231	0.025486
 404	2.0150e-01	16.1322	40.509370	-0.000210	-2.099909	-0.711468	-0.016848
 405	2.0200e-01	16.1610	40.794168	0.000710	7.099184	2.405269	0.056960
 406	2.0250e-01	16.2204	40.904496	0.000275	2.750134	0.931771	0.022065
 407	2.0300e-01	16.2605	40.973343	0.000172	1.716169	0.581454	0.013770
 408	2.0350e-01	16.3006	41.161071	0.000468	4.679492	1.585455	0.037545
 409	2.0400e-01	16.3407	41.242320	0.000203	2.025293	0.686188	0.016250
 410	2.0450e-01	16.3744	41.284227	0.000104	1.044625	0.353928	0.008381
 411	2.0500e-01	16.4289	41.319720	0.000088	0.884733	0.299756	0.007099
 412	2.0550e-01	16.4450	41.471099	0.000377	3.773440	1.278476	0.030276
 413	2.0600e-01	16.4883	41.604091	0.000332	3.315084	1.123181	0.026598
 414	2.0650e-01	16.5348	41.746490	0.000355	3.549592	1.202634	0.028480
 415	2.0700e-01	16.5717	41.737082	-0.000023	-0.234508	-0.079453	-0.001882
 416	2.0750e-01	16.6311	41.874777	0.000343	3.432338	1.162908	0.027539
 417	2.0800e-01	16.6535	42.008624	0.000334	3.336403	1.130404	0.026769
 418	2.0850e-01	16.7097	42.095432	0.000216	2.163865	0.733137	0.017362
 419	2.0900e-01	16.7402	42.180102	0.000211	2.110568	0.715080	0.016934
 420	2.0950e-01	16.7674	42.411447	0.000577	5.766755	1.953829	0.046269
 421	2.1000e-01	16.8348	42.436677	0.000063	0.628907	0.213079	0.005046
 422	2.1050e-01	16.8701	42.409309	-0.000068	-0.682204	-0.231137	-0.005474
 423	2.1100e-01	16.8990	42.518781	0.000273	2.728815	0.924548	0.021894
 424	2.1150e-01	16.9487	42.757824	0.000596	5.958624	2.018837	0.047809
 425	2.1200e-01	16.9792	42.847197	0.000223	2.227822	0.754807	0.017875
 426	2.1250e-01	17.0193	42.870289	0.000058	0.575610	0.195022	0.004618
 427	2.1300e-01	17.0835	42.810421	-0.000149	-1.492321	-0.505612	-0.011974
 428	2.1350e-01	17.1059	43.041767	0.000577	5.766755	1.953829	0.046269
 429	2.1400e-01	17.1380	43.280809	0.000596	5.958624	2.018837	0.047809
 430	2.1450e-01	17.1637	43.338111	0.000143	1.428364	0.483943	0.011460
 431	2.1500e-01	17.2118	43.469392	0.000327	3.272447	1.108735	0.026256
 432	2.1550e-01	17.2519	43.529687	0.000150	1.502980	0.509224	0.012059
 433	2.1600e-01	17.3065	43.579292	0.000124	1.236495	0.418936	0.009921
 434	2.1650e-01	17.3690	43.694751	0.000288	2.878048	0.975109	0.023092
 435	2.1700e-01	17.3899	43.765736	0.000177	1.769466	0.599511	0.014197
 436	2.1750e-01	17.4236	43.861524	0.000239	2.387714	0.808979	0.019158
 437	2.1800e-01	17.4460	43.980832	0.000297	2.973982	1.007613	0.023861
 438	2.1850e-01	17.5038	44.196783	0.000538	5.383015	1.823815	0.043190
 439	2.1900e-01	17.5407	44.140764	-0.000140	-1.396386	-0.473108	-0.011204
 440	2.1950e-01	17.5984	44.331485	0.000475	4.754108	1.610735	0.038144
 441	2.2000e-01	17.6353	44.307965	-0.000059	-0.586269	-0.198633	-0.004704
 442	2.2050e-01	17.6626	44.554705	0.000615	6.150494	2.083844	0.049348
 443	2.2100e-01	17.7123	44.593619	0.000097	0.970009	0.328648	0.007783
 444	2.2150e-01	17.7444	44.593191	-0.000001	-0.010659	-0.003612	-0.000086
 445	2.2200e-01	17.7669	44.829240	0.000588	5.884008	1.993556	0.047210
 446	2.2250e-01	17.8278	44.954962	0.000313	3.133874	1.061785	0.025144
 447	2.2300e-01	17.8487	45.061013	0.000264	2.643540	0.895656	0.021210
 448	2.2350e-01	17.9032	45.153808	0.000231	2.313097	0.783699	0.018559
 449	2.2400e-01	17.9514	45.191439	0.000094	0.938030	0.317813	0.007526
 450	2.2450e-01	17.9738	45.291931	0.000250	2.504967	0.848706	0.020098
 451	2.2500e-01	18.0075	45.483935	0.000479	4.786086	1.621570	0.038401
 452	2.2550e-01	18.0605	45.570315	0.000215	2.153206	0.729526	0.017276
 453	2.2600e-01	18.0990	45.626334	0.000140	1.396386	0.473108	0.011204
 454	2.2650e-01	18.1278	45.799950	0.000433	4.327731	1.466275	0.034723
 455	2.2700e-01	18.1856	45.811068	0.000028	0.277145	0.093899	0.002224
 456	2.2750e-01	18.2209	45.975276	0.000409	4.093223	1.386822	0.032842
 457	2.2800e-01	18.2706	46.018039	0.000107	1.065944	0.361151	0.008553
 458	2.2850e-01	18.3123	46.057380	0.000098	0.980668	0.332259	0.007868
 459	2.2900e-01	18.3476	46.222871	0.000413	4.125201	1.397656	0.033098
 460	2.2950e-01	18.3749	46.339185	0.000290	2.899366	0.982332	0.023263
 461	2.3000e-01	18.4118	46.324218	-0.000037	-0.373080	-0.126403	-0.002993
 462	2.3050e-01	18.4647	46.411882	0.000219	2.185184	0.740360	0.017533
 463	2.3100e-01	18.4936	46.532900	0.000302	3.016620	1.022059	0.024204
 464	2.3150e-01	18.5385	46.711219	0.000444	4.444985	1.506002	0.035664
 465	2.3200e-01	18.5866	46.677864	-0.000083	-0.831436	-0.281698	-0.006671
 466	2.3250e-01	18.6332	46.786909	0.000272	2.718156	0.920936	0.021809
 467	2.3300e-01	18.6685	46.976347	0.000472	4.722130	1.599901	0.037888
 468	2.3350e-01	18.6989	47.123450	0.000367	3.666846	1.242361	0.029421
 469	2.3400e-01	18.7390	47.138845	0.000038	0.383740	0.130015	0.003079
 470	2.3450e-01	18.7952	47.145687	0.000017	0.170551	0.057784	0.001368
 471	2.3500e-01	18.8401	47.241047	0.000238	2.377054	0.805368	0.019072
 472	2.3550e-01	18.8770	47.320158	0.000197	1.971996	0.668130	0.015822
 473	2.3600e-01	18.9155	47.513872	0.000483	4.828724	1.636016	0.038743
 474	2.3650e-01	18.9508	47.633179	0.000297	2.973982	1.007613	0.023861
 475	2.3700e-01	18.9941	47.635317	0.000005	0.053297	0.018058	0.000428
 476	2.3750e-01	19.0086	47.850841	0.000537	5.372355	1.820203	0.043105
 477	2.3800e-01	19.0695	47.856827	0.000015	0.149232	0.050561	0.001197
 478	2.3850e-01	19.0968	47.919261	0.000156	1.556278	0.527281	0.012487
 479	2.3900e-01	19.1465	48.003930	0.000211	2.110568	0.715080	0.016934
 480	2.3950e-01	19.1898	48.136067	0.000329	3.293766	1.115958	0.026427
 481	2.4000e-01	19.2251	48.358432	0.000554	5.542906	1.877988	0.044473
 482	2.4050e-01	19.2749	48.516653	0.000394	3.943991	1.336260	0.031644
 483	2.4100e-01	19.3102	48.474318	-0.000106	-1.055284	-0.357540	-0.008467
 484	2.4150e-01	19.3615	48.563692	0.000223	2.227822	0.754807	0.017875
 485	2.4200e-01	19.4032	48.495700	-0.000169	-1.694850	-0.574231	-0.013598
 486	2.4250e-01	19.3904	48.875858	-0.000948	-9.476238	-3.210636	0.076032
 487	2.4300e-01	19.4529	48.942996	0.000167	1.673531	0.567008	0.013427
 488	2.4350e-01	19.4994	49.056744	0.000284	2.835410	0.960663	0.022750
 489	2.4400e-01	19.5412	49.074704	0.000045	0.447696	0.151684	0.003592
 490	2.4450e-01	19.5732	49.139703	0.000162	1.620234	0.548950	0.013000
 491	2.4500e-01	19.6278	49.353943	0.000534	5.340377	1.809369	0.042848
 492	2.4550e-01	19.6599	49.402265	0.000120	1.204516	0.408101	0.009664
 493	2.4600e-01	19.6936	49.459567	0.000143	1.428364	0.483943	0.011460
 494	2.4650e-01	19.7337	49.521145	0.000153	1.534959	0.520058	0.012316
 495	2.4700e-01	19.7850	49.769168	0.000618	6.182473	2.094678	0.049605
 496	2.4750e-01	19.8219	49.904297	0.000337	3.368382	1.141239	0.027026
 497	2.4800e-01	19.8652	49.790121	-0.000285	-2.846069	-0.964274	-0.022835
 498	2.4850e-01	19.9214	49.885054	0.000237	2.366395	0.801756	0.018987
 499	2.4900e-01	19.9775	49.911994	0.000067	0.671544	0.227525	0.005388
 500	2.4950e-01	19.9791	50.221168	0.000771	7.706772	2.611125	0.061835
 501	2.5000e-01	20.0224	50.245115	0.000060	0.596928	0.202245	0.004789
 502	2.5050e-01	19.9695	50.118965	0.000314	3.144533	1.065397	-0.025230
 503	2.5100e-01	19.9615	50.064229	0.000136	1.364408	0.462274	-0.010947
 504	2.5150e-01	19.9117	49.962454	0.000254	2.536946	0.859540	-0.020355
 505	2.5200e-01	19.8556	49.966730	-0.000011	-0.106594	-0.036115	0.000855
 506	2.5250e-01	19.8091	49.908573	0.000145	1.449683	0.491166	-0.011631
 507	2.5300e-01	19.7898	49.672524	0.000588	5.884008	1.993556	-0.047210
 508	2.5350e-01	19.7545	49.590420	0.000205	2.046612	0.693411	-0.016421
 509	2.5400e-01	19.7064	49.487790	0.000256	2.558264	0.866763	-0.020526
 510	2.5450e-01	19.6887	49.319733	0.000419	4.189158	1.419325	-0.033611
 511	2.5500e-01	19.6198	49.270557	0.000123	1.225835	0.415324	-0.009835
 512	2.5550e-01	19.5829	49.316740	-0.000115	-1.151219	-0.390044	0.009237
 513	2.5600e-01	19.5380	49.228222	0.000221	2.206503	0.747583	-0.017704
 514	2.5650e-01	19.5059	49.182466	0.000114	1.140560	0.386432	-0.009151
 515	2.5700e-01	19.4481	49.181610	0.000002	0.021319	0.007223	-0.000171
 516	2.5750e-01	19.4128	48.968225	0.000532	5.319058	1.802146	-0.042677
 517	2.5800e-01	19.4208	48.746288	-0.000553	-5.532247	-1.874376	-0.044388
 518	2.5850e-01	19.3406	48.798886	-0.000131	-1.311111	-0.444216	0.010520
 519	2.5900e-01	19.2989	48.833951	-0.000087	-0.874074	-0.296144	0.007013
 520	2.5950e-01	19.2636	48.570106	0.000658	6.576872	2.228304	-0.052769
 521	2.6000e-01	19.1946	48.592770	-0.000056	-0.564950	-0.191410	0.004533
 522	2.6050e-01	19.1674	48.532475	0.000150	1.502980	0.509224	-0.012059
 523	2.6100e-01	19.1481	48.449088	0.000208	2.078590	0.704245	-0.016677
 524	2.6150e-01	19.1176	48.312248	0.000341	3.411019	1.155685	-0.027368
 525	2.6200e-01	19.0647	48.343893	-0.000079	-0.788798	-0.267252	0.006329
 526	2.6250e-01	19.0198	48.213894	0.000324	3.240468	1.097900	-0.026000
 527	2.6300e-01	18.9877	48.014193	0.000498	4.977956	1.686577	-0.039940
 528	2.6350e-01	18.9556	47.998371	0.000039	0.394399	0.133626	-0.003164
 529	2.6400e-01	18.9091	47.867518	0.000326	3.261787	1.105123	-0.026171
 530	2.6450e-01	18.8529	47.749921	0.000293	2.931345	0.993166	-0.023519
 531	2.6500e-01	18.8177	47.699034	0.000127	1.268473	0.429770	-0.010177
 532	2.6550e-01	18.7824	47.608377	0.000226	2.259800	0.765641	-0.018131
 533	2.6600e-01	18.7599	47.380025	0.000569	5.692138	1.928549	-0.045670
 534	2.6650e-01	18.7150	47.408676	-0.000071	-0.714182	-0.241971	0.005730
 535	2.6700e-01	18.6604	47.349236	0.000148	1.481662	0.502001	-0.011888
 536	2.6750e-01	18.6348	47.289796	0.000148	1.481662	0.502001	-0.011888
 537	2.6800e-01	18.5802	47.101214	0.000470	4.700811	1.592678	-0.037717
 538	2.6850e-01	18.5497	47.166640	-0.000163	-1.630894	-0.552562	0.013085
 539	2.6900e-01	18.5193	46.963946	0.000505	5.052572	1.711858	-0.040539
 540	2.6950e-01	18.4711	46.909210	0.000136	1.364408	0.462274	-0.010947
 541	2.7000e-01	18.4230	46.784343	0.000311	3.112555	1.054562	-0.024973
 542	2.7050e-01	18.3989	46.742436	0.000104	1.044625	0.353928	-0.008381
 543	2.7100e-01	18.3380	46.640233	0.000255	2.547605	0.863152	-0.020440
 544	2.7150e-01	18.2979	46.520071	0.000300	2.995301	1.014836	-0.024033
 545	2.7200e-01	18.2610	46.346027	0.000434	4.338390	1.469886	-0.034809
 546	2.7250e-01	18.2321	46.272903	0.000182	1.822763	0.617569	-0.014625
 547	2.7300e-01	18.1663	46.387935	-0.000287	-2.867388	-0.971497	0.023006
 548	2.7350e-01	18.1230	46.242114	0.000363	3.634867	1.231526	-0.029164
 549	2.7400e-01	18.0861	46.077051	0.000411	4.114542	1.394045	-0.033013
 550	2.7450e-01	18.0605	46.045834	0.000078	0.778139	0.263641	-0.006243
 551	2.7500e-01	18.0284	45.949191	0.000241	2.409032	0.816202	-0.019329
 552	2.7550e-01	17.9770	45.914981	0.000085	0.852755	0.288921	-0.006842
 553	2.7600e-01	17.9369	45.776430	0.000345	3.453657	1.170131	-0.027710
 554	2.7650e-01	17.9032	45.696892	0.000198	1.982655	0.671742	-0.015908
 555	2.7700e-01	17.8583	45.598966	0.000244	2.441011	0.827037	-0.019585
 556	2.7750e-01	17.8198	45.441600	0.000392	3.922672	1.329037	-0.031473
 557	2.7800e-01	17.7909	45.375318	0.000165	1.652212	0.559785	-0.013256
 558	2.7850e-01	17.7621	45.261997	0.000282	2.824750	0.957051	-0.022664
 559	2.7900e-01	17.7091	45.270550	-0.000021	-0.213189	-0.072230	0.001711
 560	2.7950e-01	17.6674	45.091802	0.000446	4.455644	1.509613	-0.035749
 561	2.8000e-01	17.6209	44.989600	0.000255	2.547605	0.863152	-0.020440
 562	2.8050e-01	17.5888	44.918614	0.000177	1.769466	0.599511	-0.014197
 563	2.8100e-01	17.5359	44.901509	0.000043	0.426377	0.144461	-0.003421
 564	2.8150e-01	17.5134	44.817267	0.000210	2.099909	0.711468	-0.016848
 565	2.8200e-01	17.4765	44.668453	0.000371	3.709484	1.256807	-0.029763
 566	2.8250e-01	17.4188	44.517502	0.000376	3.762781	1.274865	-0.030190
 567	2.8300e-01	17.3803	44.528620	-0.000028	-0.277145	-0.093899	0.002224
 568	2.8350e-01	17.3690	44.404181	0.000310	3.101896	1.050951	-0.024888
 569	2.8400e-01	17.3193	44.258788	0.000362	3.624208	1.227915	-0.029079
 570	2.8450e-01	17.2583	44.260071	-0.000003	-0.031978	-0.010835	0.000257
 571	2.8500e-01	17.2118	44.179250	0.000201	2.014633	0.682576	-0.016164
 572	2.8550e-01	17.1669	44.094153	0.000212	2.121228	0.718691	-0.017019
 573	2.8600e-01	17.1492	43.941490	0.000381	3.805418	1.289311	-0.030532
 574	2.8650e-01	17.1075	43.783269	0.000394	3.943991	1.336260	-0.031644
 575	2.8700e-01	17.0658	43.775144	0.000020	0.202529	0.068619	-0.001625
 576	2.8750e-01	17.0289	43.707579	0.000168	1.684191	0.570619	-0.013513
 577	2.8800e-01	16.9824	43.687481	0.000050	0.500993	0.169741	-0.004020
 578	2.8850e-01	16.9567	43.493767	0.000483	4.828724	1.636016	-0.038743
 579	2.8900e-01	16.9166	43.353506	0.000350	3.496295	1.184577	-0.028052
 580	2.8950e-01	16.8765	43.256435	0.000242	2.419692	0.819814	-0.019414
 581	2.9000e-01	16.8252	43.207258	0.000123	1.225835	0.415324	-0.009835
 582	2.9050e-01	16.7963	43.103345	0.000259	2.590243	0.877598	-0.020783
 583	2.9100e-01	16.7418	42.952393	0.000376	3.762781	1.274865	-0.030190
 584	2.9150e-01	16.6840	43.039201	-0.000216	-2.163865	-0.733137	0.017362
 585	2.9200e-01	16.6760	42.937854	0.000253	2.526286	0.855929	-0.020269
 586	2.9250e-01	16.6199	42.672299	0.000662	6.619509	2.242750	-0.053111
 587	2.9300e-01	16.6006	42.723614	-0.000128	-1.279132	-0.433382	0.010263
 588	2.9350e-01	16.5749	42.609438	0.000285	2.846069	0.964274	-0.022835
 589	2.9400e-01	16.5140	42.435822	0.000433	4.327731	1.466275	-0.034723
 590	2.9450e-01	16.4691	42.313949	0.000304	3.037939	1.029282	-0.024375
 591	2.9500e-01	16.4370	42.217305	0.000241	2.409032	0.816202	-0.019329
 592	2.9550e-01	16.3904	42.139477	0.000194	1.940017	0.657296	-0.015566
 593	2.9600e-01	16.3584	42.039413	0.000249	2.494308	0.845094	-0.020013
 594	2.9650e-01	16.3086	41.973131	0.000165	1.652212	0.559785	-0.013256
 595	2.9700e-01	16.2589	41.924810	0.000120	1.204516	0.408101	-0.009664
 596	2.9750e-01	16.2044	41.878198	0.000116	1.161878	0.393655	-0.009322
 597	2.9800e-01	16.1947	41.748200	0.000324	3.240468	1.097900	-0.026000
 598	2.9850e-01	16.1675	41.586558	0.000403	4.029267	1.365152	-0.032328
 599	2.9900e-01	16.1097	41.454422	0.000329	3.293766	1.115958	-0.026427
 600	2.9950e-01	16.0584	41.528401	-0.000184	-1.844082	-0.624792	0.014796
 601	3.0000e-01	16.0295	41.376594	0.000378	3.784100	1.282088	-0.030361
 602	3.0050e-01	15.9701	41.231629	0.000361	3.613549	1.224303	-0.028993
 603	3.0100e-01	15.9284	41.245313	-0.000034	-0.341102	-0.115568	0.002737
 604	3.0150e-01	15.9108	40.945120	0.000748	7.482924	2.535283	-0.060039
 605	3.0200e-01	15.8707	41.011402	-0.000165	-1.652212	-0.559785	0.013256
 606	3.0250e-01	15.8370	40.772359	0.000596	5.958624	2.018837	-0.047809
 607	3.0300e-01	15.7905	40.746702	0.000064	0.639566	0.216691	-0.005132
 608	3.0350e-01	15.7439	40.644927	0.000254	2.536946	0.859540	-0.020355
 609	3.0400e-01	15.6942	40.562395	0.000206	2.057271	0.697022	-0.016506
 610	3.0450e-01	15.6573	40.494403	0.000169	1.694850	0.574231	-0.013598
 611	3.0500e-01	15.6236	40.330195	0.000409	4.093223	1.386822	-0.032842
 612	3.0550e-01	15.5787	40.254933	0.000188	1.876061	0.635627	-0.015052
 613	3.0600e-01	15.5562	40.277597	-0.000056	-0.564950	-0.191410	0.004533
 614	3.0650e-01	15.5193	40.141185	0.000340	3.400360	1.152073	-0.027282
 615	3.0700e-01	15.4728	39.919675	0.000552	5.521588	1.870764	-0.044302
 616	3.0750e-01	15.4135	39.919675	-0.000000	-0.000000	-0.000000	0.000000
 617	3.0800e-01	15.3942	39.851255	0.000171	1.705510	0.577842	-0.013684
 618	3.0850e-01	15.3605	39.731092	0.000300	2.995301	1.014836	-0.024033
 619	3.0900e-01	15.2915	39.622903	0.000270	2.696837	0.913713	-0.021638
 620	3.0950e-01	15.2739	39.534384	0.000221	2.206503	0.747583	-0.017704
 621	3.1000e-01	15.2258	39.476227	0.000145	1.449683	0.491166	-0.011631
 622	3.1050e-01	15.1953	39.340242	0.000339	3.389700	1.148462	-0.027197
 623	3.1100e-01	15.1424	39.257283	0.000207	2.067930	0.700634	-0.016592
 624	3.1150e-01	15.1055	39.167482	0.000224	2.238481	0.758418	-0.017960
 625	3.1200e-01	15.0670	39.111463	0.000140	1.396386	0.473108	-0.011204
 626	3.1250e-01	15.0236	39.049457	0.000155	1.545618	0.523670	-0.012401
 627	3.1300e-01	14.9803	38.981465	0.000169	1.694850	0.574231	-0.013598
 628	3.1350e-01	14.9370	38.762948	0.000545	5.446971	1.845484	-0.043703
 629	3.1400e-01	14.9081	38.708640	0.000135	1.353748	0.458662	-0.010862
 630	3.1450e-01	14.8552	38.635944	0.000181	1.812104	0.613957	-0.014539
 631	3.1500e-01	14.8263	38.601306	0.000086	0.863414	0.292533	-0.006928
 632	3.1550e-01	14.7958	38.473018	0.000320	3.197831	1.083454	-0.025658
 633	3.1600e-01	14.7269	38.393908	0.000197	1.971996	0.668130	-0.015822
 634	3.1650e-01	14.7060	38.272462	0.000303	3.027280	1.025670	-0.024289
 635	3.1700e-01	14.6515	38.152299	0.000300	2.995301	1.014836	-0.024033
 636	3.1750e-01	14.6114	38.050525	0.000254	2.536946	0.859540	-0.020355
 637	3.1800e-01	14.5696	38.027005	0.000059	0.586269	0.198633	-0.004704
 638	3.1850e-01	14.5488	37.858093	0.000421	4.210477	1.426548	-0.033782
 639	3.1900e-01	14.4942	37.879047	-0.000052	-0.522312	-0.176964	0.004191
 640	3.1950e-01	14.4606	37.707569	0.000427	4.274434	1.448217	-0.034296
 641	3.2000e-01	14.4140	37.560894	0.000366	3.656186	1.238749	-0.029335
 642	3.2050e-01	14.3643	37.474513	0.000215	2.153206	0.729526	-0.017276
 643	3.2100e-01	14.3370	37.403955	0.000176	1.758807	0.595900	-0.014112
 644	3.2150e-01	14.3082	37.277378	0.000316	3.155193	1.069008	-0.025315
 645	3.2200e-01	14.2616	37.102907	0.000435	4.349050	1.473498	-0.034894
 646	3.2250e-01	14.2263	37.050309	0.000131	1.311111	0.444216	-0.010520
 647	3.2300e-01	14.1798	36.871562	0.000446	4.455644	1.509613	-0.035749
 648	3.2350e-01	14.1574	36.871562	-0.000000	-0.000000	-0.000000	0.000000
 649	3.2400e-01	14.1028	36.750971	0.000301	3.005961	1.018447	-0.024118
 650	3.2450e-01	14.0643	36.772353	-0.000053	-0.532972	-0.180576	0.004276
 651	3.2500e-01	14.0194	36.589329	0.000456	4.562238	1.545728	-0.036605
 652	3.2550e-01	13.9857	36.549132	0.000100	1.001987	0.339482	-0.008039
 653	3.2600e-01	13.9456	36.358411	0.000475	4.754108	1.610735	-0.038144
 654	3.2650e-01	13.9167	36.312228	0.000115	1.151219	0.390044	-0.009237
 655	3.2700e-01	13.8686	36.211736	0.000250	2.504967	0.848706	-0.020098
 656	3.2750e-01	13.8333	36.211308	0.000001	0.010659	0.003612	-0.000086
 657	3.2800e-01	13.7836	36.141605	0.000174	1.737488	0.588677	-0.013941
 658	3.2850e-01	13.7643	35.931214	0.000524	5.244442	1.776865	-0.042078
 659	3.2900e-01	13.6873	35.882464	0.000122	1.215176	0.411713	-0.009750
 660	3.2950e-01	13.6488	35.752466	0.000324	3.240468	1.097900	-0.026000
 661	3.3000e-01	13.6071	35.721250	0.000078	0.778139	0.263641	-0.006243
 662	3.3050e-01	13.5879	35.602370	0.000296	2.963323	1.004001	-0.023776
 663	3.3100e-01	13.5429	35.484345	0.000294	2.942004	0.996778	-0.023605
 664	3.3150e-01	13.4996	35.338097	0.000365	3.645527	1.235138	-0.029250
 665	3.3200e-01	13.4643	35.256421	0.000204	2.035952	0.689799	-0.016335
 666	3.3250e-01	13.4194	35.144811	0.000278	2.782113	0.942605	-0.022322
 667	3.3300e-01	13.3825	35.048168	0.000241	2.409032	0.816202	-0.019329
 668	3.3350e-01	13.3328	34.908762	0.000347	3.474976	1.177354	-0.027881
 669	3.3400e-01	13.3103	34.827940	0.000201	2.014633	0.682576	-0.016164
 670	3.3450e-01	13.2734	34.687252	0.000351	3.506954	1.188188	-0.028138
 671	3.3500e-01	13.2333	34.641068	0.000115	1.151219	0.390044	-0.009237
 672	3.3550e-01	13.1724	34.598733	0.000106	1.055284	0.357540	-0.008467
 673	3.3600e-01	13.1355	34.446926	0.000378	3.784100	1.282088	-0.030361
 674	3.3650e-01	13.1066	34.395184	0.000129	1.289792	0.436993	-0.010349
 675	3.3700e-01	13.0665	34.210022	0.000462	4.615536	1.563786	-0.037032
 676	3.3750e-01	13.0135	34.266469	-0.000141	-1.407045	-0.476720	0.011289
 677	3.3800e-01	12.9750	34.128346	0.000344	3.442998	1.166519	-0.027625
 678	3.3850e-01	12.9285	34.087294	0.000102	1.023306	0.346705	-0.008210
 679	3.3900e-01	12.9317	33.803350	-0.000708	-7.077865	-2.398046	-0.056789
 680	3.3950e-01	12.8676	33.758450	0.000112	1.119241	0.379209	-0.008980
 681	3.4000e-01	12.8371	33.603222	0.000387	3.869375	1.310980	-0.031046
 682	3.4050e-01	12.7889	33.564735	0.000096	0.959349	0.325036	-0.007697
 683	3.4100e-01	12.7488	33.434737	0.000324	3.240468	1.097900	-0.026000
 684	3.4150e-01	12.7184	33.371449	0.000158	1.577596	0.534504	-0.012658
 685	3.4200e-01	12.6783	33.271812	0.000248	2.483648	0.841483	-0.019927
 686	3.4250e-01	12.6285	33.182438	0.000223	2.227822	0.754807	-0.017875
 687	3.4300e-01	12.5916	33.158491	0.000060	0.596928	0.202245	-0.004789
 688	3.4350e-01	12.5756	32.909614	0.000620	6.203791	2.101901	-0.049776
 689	3.4400e-01	12.5018	32.864285	0.000113	1.129900	0.382821	-0.009066
 690	3.4450e-01	12.4617	32.803135	0.000152	1.524299	0.516447	-0.012230
 691	3.4500e-01	12.4216	32.686821	0.000290	2.899366	0.982332	-0.023263
 692	3.4550e-01	12.3975	32.468732	0.000544	5.436312	1.841872	-0.043618
 693	3.4600e-01	12.3414	32.405871	0.000157	1.566937	0.530893	-0.012572
 694	3.4650e-01	12.3077	32.387055	0.000047	0.469015	0.158907	-0.003763
 695	3.4700e-01	12.2595	32.293833	0.000232	2.323757	0.787310	-0.018644
 696	3.4750e-01	12.2275	32.123638	0.000424	4.242455	1.437383	-0.034039
 697	3.4800e-01	12.1841	32.114231	0.000023	0.234508	0.079453	-0.001882
 698	3.4850e-01	12.1424	31.916240	0.000494	4.935319	1.672131	-0.039598
 699	3.4900e-01	12.0975	31.878181	0.000095	0.948690	0.321425	-0.007612
 700	3.4950e-01	12.0622	31.752032	0.000314	3.144533	1.065397	-0.025230
 701	3.5000e-01	12.0301	31.697296	0.000136	1.364408	0.462274	-0.010947
 702	3.5050e-01	11.9932	31.616475	0.000201	2.014633	0.682576	-0.016164
 703	3.5100e-01	11.9387	31.515983	0.000250	2.504967	0.848706	-0.020098
 704	3.5150e-01	11.9162	31.421478	0.000236	2.355735	0.798145	-0.018901
 705	3.5200e-01	11.8665	31.308584	0.000281	2.814091	0.953440	-0.022579
 706	3.5250e-01	11.8232	31.137534	0.000426	4.263774	1.444606	-0.034210
 707	3.5300e-01	11.7783	31.054147	0.000208	2.078590	0.704245	-0.016677
 708	3.5350e-01	11.7510	30.982306	0.000179	1.790785	0.606734	-0.014368
 709	3.5400e-01	11.7269	30.776191	0.000514	5.137848	1.740750	-0.041223
 710	3.5450e-01	11.6852	30.873690	-0.000243	-2.430351	-0.823425	0.019500
 711	3.5500e-01	11.6323	30.577773	0.000738	7.376329	2.499168	-0.059183
 712	3.5550e-01	11.5745	30.554681	0.000058	0.575610	0.195022	-0.004618
 713	3.5600e-01	11.5521	30.475998	0.000196	1.961336	0.664519	-0.015737
 714	3.5650e-01	11.5072	30.322481	0.000383	3.826737	1.296534	-0.030703
 715	3.5700e-01	11.4638	30.195476	0.000317	3.165852	1.072620	-0.025401
 716	3.5750e-01	11.4510	29.985084	0.000524	5.244442	1.776865	-0.042078
 717	3.5800e-01	11.3933	30.113799	-0.000321	-3.208490	-1.087066	0.025743
 718	3.5850e-01	11.3403	29.976959	0.000341	3.411019	1.155685	-0.027368
 719	3.5900e-01	11.3307	29.716963	0.000648	6.480937	2.195801	-0.051999
 720	3.5950e-01	11.2778	29.648971	0.000169	1.694850	0.574231	-0.013598
 721	3.6000e-01	11.2264	29.710121	-0.000152	-1.524299	-0.516447	0.012230
 722	3.6050e-01	11.1943	29.595090	0.000287	2.867388	0.971497	-0.023006
 723	3.6100e-01	11.1558	29.429599	0.000413	4.125201	1.397656	-0.033098
 724	3.6150e-01	11.1173	29.322265	0.000268	2.675518	0.906490	-0.021467
 725	3.6200e-01	11.0580	29.167037	0.000387	3.869375	1.310980	-0.031046
 726	3.6250e-01	11.0467	29.139669	0.000068	0.682204	0.231137	-0.005474
 727	3.6300e-01	11.0179	29.013520	0.000314	3.144533	1.065397	-0.025230
 728	3.6350e-01	10.9521	28.940396	0.000182	1.822763	0.617569	-0.014625
 729	3.6400e-01	10.9072	28.794575	0.000363	3.634867	1.231526	-0.029164
 730	3.6450e-01	10.8558	28.752668	0.000104	1.044625	0.353928	-0.008381
 731	3.6500e-01	10.8302	28.634216	0.000295	2.952664	1.000390	-0.023690
 732	3.6550e-01	10.7885	28.478133	0.000389	3.890694	1.318203	-0.031217
 733	3.6600e-01	10.7580	28.462311	0.000039	0.394399	0.133626	-0.003164
 734	3.6650e-01	10.7050	28.326753	0.000338	3.379041	1.144850	-0.027111
 735	3.6700e-01	10.6617	28.214288	0.000280	2.803432	0.949828	-0.022493
 736	3.6750e-01	10.6377	28.082152	0.000329	3.293766	1.115958	-0.026427
 737	3.6800e-01	10.5992	27.900411	0.000453	4.530260	1.534894	-0.036348
 738	3.6850e-01	10.5542	27.907681	-0.000018	-0.181210	-0.061396	0.001454
 739	3.6900e-01	10.5222	27.761860	0.000363	3.634867	1.231526	-0.029164
 740	3.6950e-01	10.4788	27.743473	0.000046	0.458356	0.155295	-0.003678
 741	3.7000e-01	10.4452	27.518542	0.000561	5.606863	1.899657	-0.044986
 742	3.7050e-01	10.3730	27.450122	0.000171	1.705510	0.577842	-0.013684
 743	3.7100e-01	10.3409	27.420615	0.000074	0.735501	0.249194	-0.005901
 744	3.7150e-01	10.3088	27.234171	0.000465	4.647514	1.574620	-0.037289
 745	3.7200e-01	10.2607	27.159336	0.000187	1.865401	0.632015	-0.014967
 746	3.7250e-01	10.2174	27.117002	0.000106	1.055284	0.357540	-0.008467
 747	3.7300e-01	10.1885	27.036180	0.000201	2.014633	0.682576	-0.016164
 748	3.7350e-01	10.1532	26.851874	0.000459	4.594217	1.556563	-0.036861
 749	3.7400e-01	10.1259	26.677403	0.000435	4.349050	1.473498	-0.034894
 750	3.7450e-01	10.0666	26.566220	0.000277	2.771453	0.938994	-0.022237
 751	3.7500e-01	10.0377	26.536286	0.000075	0.746160	0.252806	-0.005987
 752	3.7550e-01	9.9735	26.532438	0.000010	0.095935	0.032504	-0.000770
 753	3.7600e-01	9.9495	26.458031	0.000185	1.854742	0.628404	-0.014881
 754	3.7650e-01	9.9013	26.266455	0.000478	4.775427	1.617958	-0.038315
 755	3.7700e-01	9.8644	26.086425	0.000449	4.487622	1.520448	-0.036006
 756	3.7750e-01	9.8291	25.995340	0.000227	2.270460	0.769253	-0.018217
 757	3.7800e-01	9.8019	25.885441	0.000274	2.739475	0.928159	-0.021980
 758	3.7850e-01	9.7441	25.757153	0.000320	3.197831	1.083454	-0.025658
 759	3.7900e-01	9.7297	25.681463	0.000189	1.886720	0.639238	-0.015138
 760	3.7950e-01	9.6815	25.579689	0.000254	2.536946	0.859540	-0.020355
 761	3.8000e-01	9.6286	25.496302	0.000208	2.078590	0.704245	-0.016677
 762	3.8050e-01	9.5805	25.416763	0.000198	1.982655	0.671742	-0.015908
 763	3.8100e-01	9.5324	25.335942	0.000201	2.014633	0.682576	-0.016164
 764	3.8150e-01	9.5083	25.233740	0.000255	2.547605	0.863152	-0.020440
 765	3.8200e-01	9.4730	25.107163	0.000316	3.155193	1.069008	-0.025315
 766	3.8250e-01	9.4185	25.008809	0.000245	2.451670	0.830648	-0.019671
 767	3.8300e-01	9.3864	24.925850	0.000207	2.067930	0.700634	-0.016592
 768	3.8350e-01	9.3591	24.744537	0.000452	4.519601	1.531282	-0.036263
 769	3.8400e-01	9.3029	24.685952	0.000146	1.460343	0.494777	-0.011717
 770	3.8450e-01	9.2660	24.621380	0.000161	1.609575	0.545339	-0.012914
 771	3.8500e-01	9.2195	24.617104	0.000011	0.106594	0.036115	-0.000855
 772	3.8550e-01	9.1987	24.360529	0.000640	6.395661	2.166909	-0.051315
 773	3.8600e-01	9.1538	24.235235	0.000312	3.123215	1.058174	-0.025059
 774	3.8650e-01	9.1104	24.165532	0.000174	1.737488	0.588677	-0.013941
 775	3.8700e-01	9.0527	24.078296	0.000217	2.174525	0.736749	-0.017447
 776	3.8750e-01	9.0318	23.927345	0.000376	3.762781	1.274865	-0.030190
 777	3.8800e-01	8.9885	23.880733	0.000116	1.161878	0.393655	-0.009322
 778	3.8850e-01	8.9612	23.657085	0.000557	5.574885	1.888822	-0.044730
 779	3.8900e-01	8.9115	23.576264	0.000201	2.014633	0.682576	-0.016164
 780	3.8950e-01	8.8570	23.447977	0.000320	3.197831	1.083454	-0.025658
 781	3.9000e-01	8.8345	23.397089	0.000127	1.268473	0.429770	-0.010177
 782	3.9050e-01	8.7832	23.289755	0.000268	2.675518	0.906490	-0.021467
 783	3.9100e-01	8.7318	23.333801	-0.000110	-1.097922	-0.371986	0.008809
 784	3.9150e-01	8.7014	23.092192	0.000602	6.022581	2.040506	-0.048322
 785	3.9200e-01	8.6596	23.110153	-0.000045	-0.447696	-0.151684	0.003592
 786	3.9250e-01	8.6131	22.997260	0.000281	2.814091	0.953440	-0.022579
 787	3.9300e-01	8.5939	22.683383	0.000782	7.824026	2.650852	-0.062775
 788	3.9350e-01	8.5618	22.691080	-0.000019	-0.191870	-0.065007	0.001539
 789	3.9400e-01	8.5153	22.667988	0.000058	0.575610	0.195022	-0.004618
 790	3.9450e-01	8.4559	22.442202	0.000563	5.628182	1.906880	-0.045157
 791	3.9500e-01	8.4495	22.382762	0.000148	1.481662	0.502001	-0.011888
 792	3.9550e-01	8.4126	22.169805	0.000531	5.308399	1.798534	-0.042591
 793	3.9600e-01	8.3484	22.069313	0.000250	2.504967	0.848706	-0.020098
 794	3.9650e-01	8.2907	22.103950	-0.000086	-0.863414	-0.292533	0.006928
 795	3.9700e-01	8.2442	22.021419	0.000206	2.057271	0.697022	-0.016506
 796	3.9750e-01	8.2121	21.863625	0.000393	3.933332	1.332649	-0.031559
 797	3.9800e-01	8.1896	21.737048	0.000316	3.155193	1.069008	-0.025315
 798	3.9850e-01	8.1527	21.659648	0.000193	1.929358	0.653684	-0.015480
 799	3.9900e-01	8.1046	21.547610	0.000279	2.792772	0.946217	-0.022408
 800	3.9950e-01	8.0885	21.432151	0.000288	2.878048	0.975109	-0.023092
 801	4.0000e-01	8.0565	21.267943	0.000409	4.093223	1.386822	-0.032842
 802	4.0050e-01	7.9971	21.301298	-0.000083	-0.831436	-0.281698	0.006671
 803	4.0100e-01	7.9474	21.069953	0.000577	5.766755	1.953829	-0.046269
 804	4.0150e-01	7.9121	21.105445	-0.000088	-0.884733	-0.299756	0.007099
 805	4.0200e-01	7.8736	20.928409	0.000441	4.413006	1.495167	-0.035407
 806	4.0250e-01	7.8206	20.793707	0.000336	3.357722	1.137627	-0.026940
 807	4.0300e-01	7.7902	20.665847	0.000319	3.187171	1.079843	-0.025572
 808	4.0350e-01	7.7533	20.608545	0.000143	1.428364	0.483943	-0.011460
 809	4.0400e-01	7.7164	20.521309	0.000217	2.174525	0.736749	-0.017447
 810	4.0450e-01	7.6746	20.266017	0.000636	6.363683	2.156074	-0.051058
 811	4.0500e-01	7.6313	20.133026	0.000332	3.315084	1.123181	-0.026598
 812	4.0550e-01	7.5880	20.236938	-0.000259	-2.590243	-0.877598	0.020783
 813	4.0600e-01	7.5383	20.076579	0.000400	3.997288	1.354318	-0.032072
 814	4.0650e-01	7.5126	19.971383	0.000262	2.622221	0.888433	-0.021039
 815	4.0700e-01	7.4677	19.817438	0.000384	3.837397	1.300145	-0.030789
 816	4.0750e-01	7.4180	19.783656	0.000084	0.842095	0.285310	-0.006756
 817	4.0800e-01	7.3875	19.660927	0.000306	3.059258	1.036505	-0.024546
 818	4.0850e-01	7.3554	19.403497	0.000642	6.416980	2.174132	-0.051486
 819	4.0900e-01	7.3009	19.362872	0.000101	1.012646	0.343094	-0.008125
 820	4.0950e-01	7.2543	19.237151	0.000313	3.133874	1.061785	-0.025144
 821	4.1000e-01	7.2046	19.191822	0.000113	1.129900	0.382821	-0.009066
 822	4.1050e-01	7.1934	18.936530	0.000636	6.363683	2.156074	-0.051058
 823	4.1100e-01	7.1404	18.966464	-0.000075	-0.746160	-0.252806	0.005987
 824	4.1150e-01	7.0955	18.898044	0.000171	1.705510	0.577842	-0.013684
 825	4.1200e-01	7.0715	18.662850	0.000586	5.862689	1.986333	-0.047039
 826	4.1250e-01	7.0233	18.658574	0.000011	0.106594	0.036115	-0.000855
 827	4.1300e-01	6.9929	18.469136	0.000472	4.722130	1.599901	-0.037888
 828	4.1350e-01	6.9431	18.433215	0.000090	0.895393	0.303367	-0.007184
 829	4.1400e-01	6.8982	18.310059	0.000307	3.069917	1.040116	-0.024631
 830	4.1450e-01	6.8645	18.322460	-0.000031	-0.309124	-0.104734	0.002480
 831	4.1500e-01	6.8116	18.127035	0.000487	4.871362	1.650462	-0.039085
 832	4.1550e-01	6.7923	17.994044	0.000332	3.315084	1.123181	-0.026598
 833	4.1600e-01	6.7442	17.843520	0.000375	3.752121	1.271253	-0.030105
 834	4.1650e-01	6.7137	17.791777	0.000129	1.289792	0.436993	-0.010349
 835	4.1700e-01	6.6864	17.639970	0.000378	3.784100	1.282088	-0.030361
 836	4.1750e-01	6.6303	17.597208	0.000107	1.065944	0.361151	-0.008553
 837	4.1800e-01	6.5982	17.423164	0.000434	4.338390	1.469886	-0.034809
 838	4.1850e-01	6.5533	17.322245	0.000252	2.515627	0.852317	-0.020184
 839	4.1900e-01	6.5068	17.299153	0.000058	0.575610	0.195022	-0.004618
 840	4.1950e-01	6.5036	16.958336	0.000850	8.495570	2.878377	-0.068163
 841	4.2000e-01	6.4346	17.032742	-0.000185	-1.854742	-0.628404	0.014881
 842	4.2050e-01	6.3736	17.010506	0.000055	0.554291	0.187799	-0.004447
 843	4.2100e-01	6.3351	16.865541	0.000361	3.613549	1.224303	-0.028993
 844	4.2150e-01	6.3094	16.694491	0.000426	4.263774	1.444606	-0.034210
 845	4.2200e-01	6.2597	16.593571	0.000252	2.515627	0.852317	-0.020184
 846	4.2250e-01	6.2292	16.522158	0.000178	1.780126	0.603123	-0.014283
 847	4.2300e-01	6.1955	16.431501	0.000226	2.259800	0.765641	-0.018131
 848	4.2350e-01	6.1554	16.259596	0.000429	4.285093	1.451829	-0.034381
 849	4.2400e-01	6.1089	16.057757	0.000503	5.031253	1.704635	-0.040368
 850	4.2450e-01	6.0929	15.982067	0.000189	1.886720	0.639238	-0.015138
 851	4.2500e-01	6.0175	15.992758	-0.000027	-0.266486	-0.090288	0.002138
 852	4.2550e-01	5.9854	15.922199	0.000176	1.758807	0.595900	-0.014112
 853	4.2600e-01	5.9453	15.794767	0.000318	3.176512	1.076231	-0.025486
 854	4.2650e-01	5.9052	15.624145	0.000425	4.253115	1.440994	-0.034124
 855	4.2700e-01	5.8635	15.403062	0.000551	5.510928	1.867153	-0.044216
 856	4.2750e-01	5.8266	15.331649	0.000178	1.780126	0.603123	-0.014283
 857	4.2800e-01	5.7833	15.280762	0.000127	1.268473	0.429770	-0.010177
 858	4.2850e-01	5.7399	15.198230	0.000206	2.057271	0.697022	-0.016506
 859	4.2900e-01	5.6998	15.040009	0.000394	3.943991	1.336260	-0.031644
 860	4.2950e-01	5.6662	14.939517	0.000250	2.504967	0.848706	-0.020098
 861	4.3000e-01	5.6276	14.757348	0.000454	4.540919	1.538505	-0.036434
 862	4.3050e-01	5.5891	14.720572	0.000092	0.916711	0.310590	-0.007355
 863	4.3100e-01	5.5587	14.621791	0.000246	2.462330	0.834260	-0.019756
 864	4.3150e-01	5.5234	14.430643	0.000476	4.764768	1.614347	-0.038230
 865	4.3200e-01	5.4656	14.296368	0.000335	3.347063	1.134016	-0.026855
 866	4.3250e-01	5.4287	14.345117	-0.000122	-1.215176	-0.411713	0.009750
 867	4.3300e-01	5.3822	14.247191	0.000244	2.441011	0.827037	-0.019585
 868	4.3350e-01	5.3453	14.132588	0.000286	2.856729	0.967886	-0.022921
 869	4.3400e-01	5.2924	13.940156	0.000480	4.796746	1.625182	-0.038486
 870	4.3450e-01	5.2811	13.820421	0.000298	2.984642	1.011224	-0.023947
 871	4.3500e-01	5.2250	13.788777	0.000079	0.788798	0.267252	-0.006329
 872	4.3550e-01	5.1849	13.550162	0.000595	5.947965	2.015225	-0.047723
 873	4.3600e-01	5.1432	13.598911	-0.000122	-1.215176	-0.411713	0.009750
 874	4.3650e-01	5.1303	13.358158	0.000600	6.001262	2.033283	-0.048151
 875	4.3700e-01	5.0774	13.282041	0.000190	1.897379	0.642850	-0.015223
 876	4.3750e-01	5.0229	13.233719	0.000120	1.204516	0.408101	-0.009664
 877	4.3800e-01	4.9988	13.073788	0.000399	3.986629	1.350706	-0.031986
 878	4.3850e-01	4.9507	12.838166	0.000587	5.873349	1.989944	-0.047124
 879	4.3900e-01	4.9250	12.853988	-0.000039	-0.394399	-0.133626	0.003164
 880	4.3950e-01	4.8560	12.791127	0.000157	1.566937	0.530893	-0.012572
 881	4.4000e-01	4.8175	12.670109	0.000302	3.016620	1.022059	-0.024204
 882	4.4050e-01	4.7902	12.515737	0.000385	3.848056	1.303757	-0.030875
 883	4.4100e-01	4.7549	12.441330	0.000185	1.854742	0.628404	-0.014881
 884	4.4150e-01	4.6747	12.379752	0.000153	1.534959	0.520058	-0.012316
 885	4.4200e-01	4.6507	12.334851	0.000112	1.119241	0.379209	-0.008980
 886	4.4250e-01	4.6218	12.071434	0.000657	6.566212	2.224693	-0.052683
 887	4.4300e-01	4.5833	12.003441	0.000169	1.694850	0.574231	-0.013598
 888	4.4350e-01	4.5448	11.910219	0.000232	2.323757	0.787310	-0.018644
 889	4.4400e-01	4.5223	11.651078	0.000646	6.459618	2.188578	-0.051828
 890	4.4450e-01	4.4646	11.670749	-0.000049	-0.490334	-0.166130	0.003934
 891	4.4500e-01	4.4277	11.547593	0.000307	3.069917	1.040116	-0.024631
 892	4.4550e-01	4.3956	11.425720	0.000304	3.037939	1.029282	-0.024375
 893	4.4600e-01	4.3427	11.338484	0.000217	2.174525	0.736749	-0.017447
 894	4.4650e-01	4.3090	11.274340	0.000160	1.598915	0.541727	-0.012829
 895	4.4700e-01	4.2592	11.155033	0.000297	2.973982	1.007613	-0.023861
 896	4.4750e-01	4.2063	11.072929	0.000205	2.046612	0.693411	-0.016421
 897	4.4800e-01	4.1806	10.932668	0.000350	3.496295	1.184577	-0.028052
 898	4.4850e-01	4.1582	10.667968	0.000660	6.598190	2.235527	-0.052940
 899	4.4900e-01	4.1181	10.630764	0.000093	0.927371	0.314202	-0.007441
 900	4.4950e-01	4.0828	10.430208	0.000500	4.999275	1.693800	-0.040111
 901	4.5000e-01	4.0362	10.366492	0.000159	1.588256	0.538116	-0.012743
 902	4.5050e-01	3.9721	10.330571	0.000090	0.895393	0.303367	-0.007184
 903	4.5100e-01	3.9464	10.252744	0.000194	1.940017	0.657296	-0.015566
 904	4.5150e-01	3.9015	10.195869	0.000142	1.417705	0.480331	-0.011375
 905	4.5200e-01	3.8550	10.006004	0.000473	4.732789	1.603512	-0.037973
 906	4.5250e-01	3.8101	9.950413	0.000139	1.385727	0.469497	-0.011118
 907	4.5300e-01	3.7764	9.847782	0.000256	2.558264	0.866763	-0.020526
 908	4.5350e-01	3.7363	9.699824	0.000369	3.688165	1.249584	-0.029592
 909	4.5400e-01	3.6978	9.559135	0.000351	3.506954	1.188188	-0.028138
 910	4.5450e-01	3.6560	9.384237	0.000436	4.359709	1.477109	-0.034980
 911	4.5500e-01	3.6159	9.252100	0.000329	3.293766	1.115958	-0.026427
 912	4.5550e-01	3.5839	9.206345	0.000114	1.140560	0.386432	-0.009151
 913	4.5600e-01	3.5486	9.104142	0.000255	2.547605	0.863152	-0.020440
 914	4.5650e-01	3.5069	8.833455	0.000675	6.747423	2.286089	-0.054137
 915	4.5700e-01	3.4700	8.752634	0.000201	2.014633	0.682576	-0.016164
 916	4.5750e-01	3.4250	8.715003	0.000094	0.938030	0.317813	-0.007526
 917	4.5800e-01	3.3801	8.563196	0.000378	3.784100	1.282088	-0.030361
 918	4.5850e-01	3.3657	8.469974	0.000232	2.323757	0.787310	-0.018644
 919	4.5900e-01	3.3079	8.394712	0.000188	1.876061	0.635627	-0.015052
 920	4.5950e-01	3.2774	8.262148	0.000330	3.304425	1.119569	-0.026513
 921	4.6000e-01	3.2454	8.109486	0.000381	3.805418	1.289311	-0.030532
 922	4.6050e-01	3.2069	8.032086	0.000193	1.929358	0.653684	-0.015480
 923	4.6100e-01	3.1475	7.955968	0.000190	1.897379	0.642850	-0.015223
 924	4.6150e-01	3.1106	7.865739	0.000225	2.249141	0.762030	-0.018046
 925	4.6200e-01	3.0721	7.651071	0.000535	5.351037	1.812980	-0.042934
 926	4.6250e-01	3.0432	7.548014	0.000257	2.568924	0.870375	-0.020612
 927	4.6300e-01	2.9791	7.500547	0.000118	1.183197	0.400878	-0.009493
 928	4.6350e-01	2.9454	7.348740	0.000378	3.784100	1.282088	-0.030361
 929	4.6400e-01	2.9069	7.181539	0.000417	4.167839	1.412102	-0.033440
 930	4.6450e-01	2.8587	7.152888	0.000071	0.714182	0.241971	-0.005730
 931	4.6500e-01	2.8491	6.988680	0.000409	4.093223	1.386822	-0.032842
 932	4.6550e-01	2.7705	7.072494	-0.000209	-2.089249	-0.707857	0.016763
 933	4.6600e-01	2.7320	6.862530	0.000523	5.233783	1.773254	-0.041993
 934	4.6650e-01	2.7128	6.610659	0.000628	6.278407	2.127182	-0.050374
 935	4.6700e-01	2.6646	6.573883	0.000092	0.916711	0.310590	-0.007355
 936	4.6750e-01	2.6325	6.575166	-0.000003	-0.031978	-0.010835	0.000257
 937	4.6800e-01	2.5908	6.453721	0.000303	3.027280	1.025670	-0.024289
 938	4.6850e-01	2.5411	6.305762	0.000369	3.688165	1.249584	-0.029592
 939	4.6900e-01	2.5202	6.145403	0.000400	3.997288	1.354318	-0.032072
 940	4.6950e-01	2.4769	5.929452	0.000538	5.383015	1.823815	-0.043190
 941	4.7000e-01	2.4304	5.935011	-0.000014	-0.138573	-0.046950	0.001112
 942	4.7050e-01	2.3743	5.867019	0.000169	1.694850	0.574231	-0.013598
 943	4.7100e-01	2.3598	5.677153	0.000473	4.732789	1.603512	-0.037973
 944	4.7150e-01	2.2989	5.649358	0.000069	0.692863	0.234748	-0.005559
 945	4.7200e-01	2.2604	5.491136	0.000394	3.943991	1.336260	-0.031644
 946	4.7250e-01	2.2299	5.323935	0.000417	4.167839	1.412102	-0.033440
 947	4.7300e-01	2.2106	5.231140	0.000231	2.313097	0.783699	-0.018559
 948	4.7350e-01	2.1513	5.084465	0.000366	3.656186	1.238749	-0.029335
 949	4.7400e-01	2.1048	5.082754	0.000004	0.042638	0.014446	-0.000342
 950	4.7450e-01	2.0727	4.958315	0.000310	3.101896	1.050951	-0.024888
 951	4.7500e-01	2.0502	4.667530	0.000725	7.248416	2.455830	-0.058157
 952	4.7550e-01	1.9812	4.767594	-0.000249	-2.494308	-0.845094	0.020013
 953	4.7600e-01	1.9604	4.518289	0.000621	6.214451	2.105513	-0.049861
 954	4.7650e-01	1.9203	4.379310	0.000346	3.464316	1.173742	-0.027796
 955	4.7700e-01	1.8593	4.226221	0.000382	3.816078	1.292922	-0.030618
 956	4.7750e-01	1.8256	4.251450	-0.000063	-0.628907	-0.213079	0.005046
 957	4.7800e-01	1.7711	4.070565	0.000451	4.508941	1.527671	-0.036177
 958	4.7850e-01	1.7502	4.039348	0.000078	0.778139	0.263641	-0.006243
 959	4.7900e-01	1.7021	4.023526	0.000039	0.394399	0.133626	-0.003164
 960	4.7950e-01	1.6764	3.796885	0.000565	5.649501	1.914103	-0.045328
 961	4.8000e-01	1.6283	3.673729	0.000307	3.069917	1.040116	-0.024631
 962	4.8050e-01	1.5721	3.637808	0.000090	0.895393	0.303367	-0.007184
 963	4.8100e-01	1.5449	3.510376	0.000318	3.176512	1.076231	-0.025486
 964	4.8150e-01	1.4887	3.459916	0.000126	1.257813	0.426159	-0.010092
 965	4.8200e-01	1.4582	3.205479	0.000634	6.342364	2.148851	-0.050887
 966	4.8250e-01	1.4422	3.143046	0.000156	1.556278	0.527281	-0.012487
 967	4.8300e-01	1.3941	3.037850	0.000262	2.622221	0.888433	-0.021039
 968	4.8350e-01	1.3427	2.819761	0.000544	5.436312	1.841872	-0.043618
 969	4.8400e-01	1.3074	2.661967	0.000393	3.933332	1.332649	-0.031559
 970	4.8450e-01	1.2689	2.603383	0.000146	1.460343	0.494777	-0.011717
 971	4.8500e-01	1.2321	2.568317	0.000087	0.874074	0.296144	-0.007013
 972	4.8550e-01	1.1743	2.481082	0.000217	2.174525	0.736749	-0.017447
 973	4.8600e-01	1.1470	2.409668	0.000178	1.780126	0.603123	-0.014283
 974	4.8650e-01	1.1406	2.193718	0.000538	5.383015	1.823815	-0.043190
 975	4.8700e-01	1.0636	2.089377	0.000260	2.600902	0.881210	-0.020868
 976	4.8750e-01	1.0235	1.887110	0.000504	5.041913	1.708246	-0.040453
 977	4.8800e-01	0.9770	1.729317	0.000393	3.933332	1.332649	-0.031559
 978	4.8850e-01	0.9465	1.778066	-0.000122	-1.215176	-0.411713	0.009750
 979	4.8900e-01	0.8984	1.666883	0.000277	2.771453	0.938994	-0.022237
 980	4.8950e-01	0.8679	1.425703	0.000601	6.011922	2.036894	-0.048236
 981	4.9000e-01	0.8326	1.392348	0.000083	0.831436	0.281698	-0.006671
 982	4.9050e-01	0.7989	1.299553	0.000231	2.313097	0.783699	-0.018559
 983	4.9100e-01	0.7363	1.257646	0.000104	1.044625	0.353928	-0.008381
 984	4.9150e-01	0.6850	1.181529	0.000190	1.897379	0.642850	-0.015223
 985	4.9200e-01	0.6674	0.943341	0.000594	5.937306	2.011614	-0.047637
 986	4.9250e-01	0.6176	0.818475	0.000311	3.112555	1.054562	-0.024973
 987	4.9300e-01	0.5871	0.656832	0.000403	4.029267	1.365152	-0.032328
 988	4.9350e-01	0.5422	0.573445	0.000208	2.078590	0.704245	-0.016677
 989	4.9400e-01	0.4941	0.576011	-0.000006	-0.063957	-0.021669	0.000513
 990	4.9450e-01	0.4668	0.363481	0.000530	5.297739	1.794923	-0.042506
 991	4.9500e-01	0.4444	0.231345	0.000329	3.293766	1.115958	-0.026427
 992	4.9550e-01	0.3978	0.125722	0.000263	2.632881	0.892044	-0.021125
 993	4.9600e-01	0.3401	0.077828	0.000119	1.193857	0.404490	-0.009579
 994	4.9650e-01	0.3176	-0.087236	0.000411	4.114542	1.394045	-0.033013
 995	4.9700e-01	0.2631	-0.211675	0.000310	3.101896	1.050951	-0.024888
 996	4.9750e-01	0.2262	-0.271970	0.000150	1.502980	0.509224	-0.012059
 997	4.9800e-01	0.1749	-0.442592	0.000425	4.253115	1.440994	-0.034124
 998	4.9850e-01	0.1251	-0.463973	0.000053	0.532972	0.180576	-0.004276
 999	4.9900e-01	0.1107	-0.635879	0.000429	4.285093	1.451829	-0.034381
1000	4.9950e-01	0.0578	-0.705582	0.000174	1.737488	0.588677	-0.013941
1001	5.0000e-01	0.0722	-0.924953	-0.000547	-5.468290	-1.852707	-0.043874
1002	5.0050e-01	-0.0048	-0.972420	0.000118	1.183197	0.400878	-0.009493
1003	5.0100e-01	-0.0353	-1.009196	0.000092	0.916711	0.310590	-0.007355
1004	5.0150e-01	-0.0914	-1.131924	0.000306	3.059258	1.036505	-0.024546
1005	5.0200e-01	-0.1267	-1.227712	0.000239	2.387714	0.808979	-0.019158
1006	5.0250e-01	-0.1700	-1.359421	0.000328	3.283106	1.112346	-0.026342
1007	5.0300e-01	-0.2069	-1.483004	0.000308	3.080577	1.043728	-0.024717
1008	5.0350e-01	-0.2278	-1.647213	0.000409	4.093223	1.386822	-0.032842
1009	5.0400e-01	-0.2888	-1.747704	0.000250	2.504967	0.848706	-0.020098
1010	5.0450e-01	-0.3289	-1.809710	0.000155	1.545618	0.523670	-0.012401
1011	5.0500e-01	-0.3545	-1.943557	0.000334	3.336403	1.130404	-0.026769
1012	5.0550e-01	-0.4123	-2.022668	0.000197	1.971996	0.668130	-0.015822
1013	5.0600e-01	-0.4749	-2.155659	0.000332	3.315084	1.123181	-0.026598
1014	5.0650e-01	-0.4973	-2.236480	0.000201	2.014633	0.682576	-0.016164
1015	5.0700e-01	-0.5326	-2.379735	0.000357	3.570911	1.209857	-0.028651
1016	5.0750e-01	-0.5519	-2.501180	0.000303	3.027280	1.025670	-0.024289
1017	5.0800e-01	-0.5984	-2.613218	0.000279	2.792772	0.946217	-0.022408
1018	5.0850e-01	-0.6465	-2.655553	0.000106	1.055284	0.357540	-0.008467
1019	5.0900e-01	-0.6898	-2.782985	0.000318	3.176512	1.076231	-0.025486
1020	5.0950e-01	-0.7556	-2.921964	0.000346	3.464316	1.173742	-0.027796
1021	5.1000e-01	-0.7909	-3.064790	0.000356	3.560251	1.206246	-0.028565
1022	5.1050e-01	-0.8021	-3.152454	0.000219	2.185184	0.740360	-0.017533
1023	5.1100e-01	-0.8358	-3.307254	0.000386	3.858716	1.307368	-0.030960
1024	5.1150e-01	-0.8936	-3.342747	0.000088	0.884733	0.299756	-0.007099
1025	5.1200e-01	-0.9529	-3.521494	0.000446	4.455644	1.509613	-0.035749
1026	5.1250e-01	-0.9674	-3.627118	0.000263	2.632881	0.892044	-0.021125
1027	5.1300e-01	-0.9978	-3.698959	0.000179	1.790785	0.606734	-0.014368
1028	5.1350e-01	-1.0476	-3.794319	0.000238	2.377054	0.805368	-0.019072
1029	5.1400e-01	-1.0732	-4.031223	0.000591	5.905327	2.000779	-0.047381
1030	5.1450e-01	-1.1278	-4.132998	0.000254	2.536946	0.859540	-0.020355
1031	5.1500e-01	-1.1775	-4.212964	0.000199	1.993314	0.675353	-0.015993
1032	5.1550e-01	-1.2176	-4.209971	-0.000007	-0.074616	-0.025281	0.000599
1033	5.1600e-01	-1.2465	-4.395133	0.000462	4.615536	1.563786	-0.037032
1034	5.1650e-01	-1.2994	-4.457993	0.000157	1.566937	0.530893	-0.012572
1035	5.1700e-01	-1.3203	-4.678648	0.000550	5.500269	1.863541	-0.044131
1036	5.1750e-01	-1.3460	-4.859961	0.000452	4.519601	1.531282	-0.036263
1037	5.1800e-01	-1.3957	-4.935223	0.000188	1.876061	0.635627	-0.015052
1038	5.1850e-01	-1.4454	-4.958743	0.000059	0.586269	0.198633	-0.004704
1039	5.1900e-01	-1.4903	-5.115254	0.000390	3.901353	1.321814	-0.031302
1040	5.1950e-01	-1.5240	-5.189660	0.000185	1.854742	0.628404	-0.014881
1041	5.2000e-01	-1.5850	-5.256370	0.000166	1.662872	0.563396	-0.013342
1042	5.2050e-01	-1.6074	-5.348309	0.000229	2.291779	0.776476	-0.018388
1043	5.2100e-01	-1.6267	-5.543734	0.000487	4.871362	1.650462	-0.039085
1044	5.2150e-01	-1.6860	-5.615575	0.000179	1.790785	0.606734	-0.014368
1045	5.2200e-01	-1.7486	-5.718633	0.000257	2.568924	0.870375	-0.020612
1046	5.2250e-01	-1.7663	-5.846493	0.000319	3.187171	1.079843	-0.025572
1047	5.2300e-01	-1.8128	-5.939287	0.000231	2.313097	0.783699	-0.018559
1048	5.2350e-01	-1.8561	-6.054319	0.000287	2.867388	0.971497	-0.023006
1049	5.2400e-01	-1.8978	-6.147541	0.000232	2.323757	0.787310	-0.018644
1050	5.2450e-01	-1.9363	-6.261289	0.000284	2.835410	0.960663	-0.022750
1051	5.2500e-01	-1.9860	-6.335268	0.000184	1.844082	0.624792	-0.014796
1052	5.2550e-01	-1.9925	-6.484937	0.000373	3.730802	1.264030	-0.029934
1053	5.2600e-01	-2.0550	-6.685921	0.000501	5.009935	1.697412	-0.040197
1054	5.2650e-01	-2.0855	-6.756479	0.000176	1.758807	0.595900	-0.014112
1055	5.2700e-01	-2.1384	-6.871511	0.000287	2.867388	0.971497	-0.023006
1056	5.2750e-01	-2.1609	-7.062231	0.000475	4.754108	1.610735	-0.038144
1057	5.2800e-01	-2.1898	-7.187526	0.000312	3.123215	1.058174	-0.025059
1058	5.2850e-01	-2.2315	-7.229433	0.000104	1.044625	0.353928	-0.008381
1059	5.2900e-01	-2.2780	-7.374398	0.000361	3.613549	1.224303	-0.028993
1060	5.2950e-01	-2.3085	-7.458212	0.000209	2.089249	0.707857	-0.016763
1061	5.3000e-01	-2.3598	-7.565546	0.000268	2.675518	0.906490	-0.021467
1062	5.3050e-01	-2.4128	-7.663900	0.000245	2.451670	0.830648	-0.019671
1063	5.3100e-01	-2.4432	-7.825543	0.000403	4.029267	1.365152	-0.032328
1064	5.3150e-01	-2.4898	-7.758405	-0.000167	-1.673531	-0.567008	0.013427
1065	5.3200e-01	-2.5251	-7.866595	0.000270	2.696837	0.913713	-0.021638
1066	5.3250e-01	-2.5700	-8.089815	0.000556	5.564225	1.885211	-0.044644
1067	5.3300e-01	-2.6069	-8.143268	0.000133	1.332429	0.451439	-0.010691
1068	5.3350e-01	-2.6502	-8.295503	0.000379	3.794759	1.285699	-0.030447
1069	5.3400e-01	-2.6582	-8.470401	0.000436	4.359709	1.477109	-0.034980
1070	5.3450e-01	-2.7208	-8.543525	0.000182	1.822763	0.617569	-0.014625
1071	5.3500e-01	-2.7866	-8.558492	0.000037	0.373080	0.126403	-0.002993
1072	5.3550e-01	-2.8122	-8.706451	0.000369	3.688165	1.249584	-0.029592
1073	5.3600e-01	-2.8716	-8.936085	0.000572	5.724117	1.939383	-0.045927
1074	5.3650e-01	-2.8860	-8.948486	0.000031	0.309124	0.104734	-0.002480
1075	5.3700e-01	-2.9390	-9.149043	0.000500	4.999275	1.693800	-0.040111
1076	5.3750e-01	-2.9646	-9.240127	0.000227	2.270460	0.769253	-0.018217
1077	5.3800e-01	-3.0176	-9.276475	0.000091	0.906052	0.306979	-0.007270
1078	5.3850e-01	-3.0448	-9.405190	0.000321	3.208490	1.087066	-0.025743
1079	5.3900e-01	-3.0946	-9.512952	0.000269	2.686178	0.910102	-0.021552
1080	5.3950e-01	-3.1283	-9.641239	0.000320	3.197831	1.083454	-0.025658
1081	5.4000e-01	-3.1748	-9.670746	0.000074	0.735501	0.249194	-0.005901
1082	5.4050e-01	-3.1892	-9.953406	0.000705	7.045887	2.387211	-0.056532
1083	5.4100e-01	-3.2406	-9.930314	-0.000058	-0.575610	-0.195022	0.004618
1084	5.4150e-01	-3.2550	-10.078700	0.000370	3.698824	1.253196	-0.029677
1085	5.4200e-01	-3.3320	-10.197580	0.000296	2.963323	1.004001	-0.023776
1086	5.4250e-01	-3.3689	-10.357084	0.000398	3.975969	1.347095	-0.031901
1087	5.4300e-01	-3.4122	-10.339124	-0.000045	-0.447696	-0.151684	0.003592
1088	5.4350e-01	-3.4443	-10.525569	0.000465	4.647514	1.574620	-0.037289
1089	5.4400e-01	-3.4780	-10.691059	0.000413	4.125201	1.397656	-0.033098
1090	5.4450e-01	-3.5245	-10.682079	-0.000022	-0.223848	-0.075842	0.001796
1091	5.4500e-01	-3.5694	-10.772736	0.000226	2.259800	0.765641	-0.018131
1092	5.4550e-01	-3.5951	-10.880070	0.000268	2.675518	0.906490	-0.021467
1093	5.4600e-01	-3.6480	-10.961319	0.000203	2.025293	0.686188	-0.016250
1094	5.4650e-01	-3.6962	-11.152895	0.000478	4.775427	1.617958	-0.038315
1095	5.4700e-01	-3.7330	-11.246545	0.000233	2.334416	0.790922	-0.018730
1096	5.4750e-01	-3.7683	-11.399207	0.000381	3.805418	1.289311	-0.030532
1097	5.4800e-01	-3.8084	-11.424864	0.000064	0.639566	0.216691	-0.005132
1098	5.4850e-01	-3.8646	-11.558284	0.000333	3.325744	1.126793	-0.026684
1099	5.4900e-01	-3.8983	-11.601046	0.000107	1.065944	0.361151	-0.008553
1100	5.4950e-01	-3.9240	-11.735748	0.000336	3.357722	1.137627	-0.026940
1101	5.5000e-01	-3.9721	-11.835385	0.000248	2.483648	0.841483	-0.019927
1102	5.5050e-01	-3.9945	-12.063309	0.000568	5.681479	1.924937	-0.045585
1103	5.5100e-01	-4.0507	-12.109493	0.000115	1.151219	0.390044	-0.009237
1104	5.5150e-01	-4.0731	-12.224951	0.000288	2.878048	0.975109	-0.023092
1105	5.5200e-01	-4.1213	-12.369916	0.000361	3.613549	1.224303	-0.028993
1106	5.5250e-01	-4.1518	-12.456724	0.000216	2.163865	0.733137	-0.017362
1107	5.5300e-01	-4.2095	-12.571755	0.000287	2.867388	0.971497	-0.023006
1108	5.5350e-01	-4.2448	-12.683793	0.000279	2.792772	0.946217	-0.022408
1109	5.5400e-01	-4.3009	-12.756062	0.000180	1.801445	0.610346	-0.014454
1110	5.5450e-01	-4.3250	-12.856554	0.000250	2.504967	0.848706	-0.020098
1111	5.5500e-01	-4.3715	-12.904448	0.000119	1.193857	0.404490	-0.009579
1112	5.5550e-01	-4.4052	-13.008361	0.000259	2.590243	0.877598	-0.020783
1113	5.5600e-01	-4.4229	-13.240134	0.000578	5.777414	1.957441	-0.046355
1114	5.5650e-01	-4.4678	-13.316251	0.000190	1.897379	0.642850	-0.015223
1115	5.5700e-01	-4.5223	-13.383816	0.000168	1.684191	0.570619	-0.013513
1116	5.5750e-01	-4.5689	-13.435131	0.000128	1.279132	0.433382	-0.010263
1117	5.5800e-01	-4.6058	-13.618154	0.000456	4.562238	1.545728	-0.036605
1118	5.5850e-01	-4.6330	-13.689568	0.000178	1.780126	0.603123	-0.014283
1119	5.5900e-01	-4.6795	-13.841375	0.000378	3.784100	1.282088	-0.030361
1120	5.5950e-01	-4.7277	-13.916209	0.000187	1.865401	0.632015	-0.014967
1121	5.6000e-01	-4.7742	-13.981208	0.000162	1.620234	0.548950	-0.013000
1122	5.6050e-01	-4.8111	-14.117621	0.000340	3.400360	1.152073	-0.027282
1123	5.6100e-01	-4.8400	-14.307059	0.000472	4.722130	1.599901	-0.037888
1124	5.6150e-01	-4.8801	-14.558502	0.000627	6.267748	2.123571	-0.050289
1125	5.6200e-01	-4.9250	-14.449458	-0.000272	-2.718156	-0.920936	0.021809
1126	5.6250e-01	-4.9603	-14.606824	0.000392	3.922672	1.329037	-0.031473
1127	5.6300e-01	-5.0100	-14.710309	0.000258	2.579583	0.873987	-0.020697
1128	5.6350e-01	-5.0405	-14.943365	0.000581	5.809392	1.968275	-0.046611
1129	5.6400e-01	-5.0790	-14.965602	0.000055	0.554291	0.187799	-0.004447
1130	5.6450e-01	-5.1287	-14.995963	0.000076	0.756820	0.256418	-0.006072
1131	5.6500e-01	-5.1560	-15.186256	0.000474	4.743449	1.607124	-0.038059
1132	5.6550e-01	-5.1929	-15.237571	0.000128	1.279132	0.433382	-0.010263
1133	5.6600e-01	-5.2378	-15.318820	0.000203	2.025293	0.686188	-0.016250
1134	5.6650e-01	-5.2811	-15.457798	0.000346	3.464316	1.173742	-0.027796
1135	5.6700e-01	-5.3164	-15.605329	0.000368	3.677505	1.245972	-0.029506
1136	5.6750e-01	-5.3934	-15.558718	-0.000116	-1.161878	-0.393655	0.009322
1137	5.6800e-01	-5.4079	-15.754143	0.000487	4.871362	1.650462	-0.039085
1138	5.6850e-01	-5.4464	-15.913219	0.000397	3.965310	1.343483	-0.031815
1139	5.6900e-01	-5.4833	-16.004731	0.000228	2.281119	0.772864	-0.018302
1140	5.6950e-01	-5.5378	-16.141144	0.000340	3.400360	1.152073	-0.027282
1141	5.7000e-01	-5.5587	-16.266865	0.000313	3.133874	1.061785	-0.025144
1142	5.7050e-01	-5.5988	-16.337851	0.000177	1.769466	0.599511	-0.014197
1143	5.7100e-01	-5.6437	-16.541401	0.000507	5.073891	1.719081	-0.040710
1144	5.7150e-01	-5.7095	-16.500776	-0.000101	-1.012646	-0.343094	0.008125
1145	5.7200e-01	-5.7255	-16.616235	0.000288	2.878048	0.975109	-0.023092
1146	5.7250e-01	-5.7720	-16.691497	0.000188	1.876061	0.635627	-0.015052
1147	5.7300e-01	-5.8378	-16.808239	0.000291	2.910026	0.985943	-0.023348
1148	5.7350e-01	-5.8522	-16.855705	0.000118	1.183197	0.400878	-0.009493
1149	5.7400e-01	-5.8875	-17.010078	0.000385	3.848056	1.303757	-0.030875
1150	5.7450e-01	-5.9357	-17.059255	0.000123	1.225835	0.415324	-0.009835
1151	5.7500e-01	-5.9710	-17.136228	0.000192	1.918698	0.650073	-0.015395
1152	5.7550e-01	-6.0303	-17.303001	0.000416	4.157180	1.408491	-0.033355
1153	5.7600e-01	-6.0576	-17.422309	0.000297	2.973982	1.007613	-0.023861
1154	5.7650e-01	-6.0945	-17.463361	0.000102	1.023306	0.346705	-0.008210
1155	5.7700e-01	-6.1266	-17.581386	0.000294	2.942004	0.996778	-0.023605
1156	5.7750e-01	-6.1699	-17.757567	0.000439	4.391687	1.487944	-0.035236
1157	5.7800e-01	-6.2100	-17.941446	0.000458	4.583557	1.552951	-0.036776
1158	5.7850e-01	-6.2260	-18.115062	0.000433	4.327731	1.466275	-0.034723
1159	5.7900e-01	-6.2934	-18.098384	-0.000042	-0.415718	-0.140849	0.003335
1160	5.7950e-01	-6.3175	-18.297230	0.000496	4.956637	1.679354	-0.039769
1161	5.8000e-01	-6.3752	-18.274994	-0.000055	-0.554291	-0.187799	0.004447
1162	5.8050e-01	-6.4025	-18.357098	0.000205	2.046612	0.693411	-0.016421
1163	5.8100e-01	-6.4025	-18.759921	0.001004	10.041188	3.402047	-0.080565
1164	5.8150e-01	-6.4715	-18.623936	-0.000339	-3.389700	-1.148462	0.027197
1165	5.8200e-01	-6.5244	-18.802256	0.000444	4.444985	1.506002	-0.035664
1166	5.8250e-01	-6.5758	-18.853571	0.000128	1.279132	0.433382	-0.010263
1167	5.8300e-01	-6.6255	-18.848439	-0.000013	-0.127913	-0.043338	0.001026
1168	5.8350e-01	-6.6367	-19.044719	0.000489	4.892681	1.657685	-0.039256
1169	5.8400e-01	-6.6945	-19.023766	-0.000052	-0.522312	-0.176964	0.004191
1170	5.8450e-01	-6.7041	-19.184125	0.000400	3.997288	1.354318	-0.032072
1171	5.8500e-01	-6.7522	-19.300439	0.000290	2.899366	0.982332	-0.023263
1172	5.8550e-01	-6.7971	-19.435141	0.000336	3.357722	1.137627	-0.026940
1173	5.8600e-01	-6.8292	-19.535633	0.000250	2.504967	0.848706	-0.020098
1174	5.8650e-01	-6.8886	-19.721650	0.000464	4.636854	1.571009	-0.037203
1175	5.8700e-01	-6.9287	-19.740466	0.000047	0.469015	0.158907	-0.003763
1176	5.8750e-01	-6.9640	-19.863622	0.000307	3.069917	1.040116	-0.024631
1177	5.8800e-01	-6.9929	-19.953851	0.000225	2.249141	0.762030	-0.018046
1178	5.8850e-01	-7.0330	-20.107368	0.000383	3.826737	1.296534	-0.030703
1179	5.8900e-01	-7.0634	-20.211281	0.000259	2.590243	0.877598	-0.020783
1180	5.8950e-01	-7.1164	-20.273287	0.000155	1.545618	0.523670	-0.012401
1181	5.9000e-01	-7.1661	-20.321608	0.000120	1.204516	0.408101	-0.009664
1182	5.9050e-01	-7.1966	-20.496079	0.000435	4.349050	1.473498	-0.034894
1183	5.9100e-01	-7.2415	-20.629926	0.000334	3.336403	1.130404	-0.026769
1184	5.9150e-01	-7.2977	-20.659860	0.000075	0.746160	0.252806	-0.005987
1185	5.9200e-01	-7.3265	-20.734694	0.000187	1.865401	0.632015	-0.014967
1186	5.9250e-01	-7.3586	-20.901468	0.000416	4.157180	1.408491	-0.033355
1187	5.9300e-01	-7.3795	-20.923277	0.000054	0.543631	0.184187	-0.004362
1188	5.9350e-01	-7.4292	-21.104590	0.000452	4.519601	1.531282	-0.036263
1189	5.9400e-01	-7.4982	-21.146497	0.000104	1.044625	0.353928	-0.008381
1190	5.9450e-01	-7.5367	-21.314982	0.000420	4.199818	1.422937	-0.033697
1191	5.9500e-01	-7.5752	-21.412908	0.000244	2.441011	0.827037	-0.019585
1192	5.9550e-01	-7.6201	-21.441987	0.000072	0.724842	0.245583	-0.005816
1193	5.9600e-01	-7.6378	-21.573695	0.000328	3.283106	1.112346	-0.026342
1194	5.9650e-01	-7.6891	-21.662641	0.000222	2.217163	0.751195	-0.017789
1195	5.9700e-01	-7.7500	-21.894842	0.000579	5.788073	1.961052	-0.046440
1196	5.9750e-01	-7.7725	-21.918361	0.000059	0.586269	0.198633	-0.004704
1197	5.9800e-01	-7.8078	-22.059477	0.000352	3.517614	1.191800	-0.028223
1198	5.9850e-01	-7.8575	-22.141154	0.000204	2.035952	0.689799	-0.016335
1199	5.9900e-01	-7.8880	-22.179640	0.000096	0.959349	0.325036	-0.007697
1200	5.9950e-01	-7.9313	-22.211712	0.000080	0.799458	0.270864	-0.006414
1201	6.0000e-01	-7.9586	-22.471708	0.000648	6.480937	2.195801	-0.051999
1202	6.0050e-01	-7.9971	-22.621377	0.000373	3.730802	1.264030	-0.029934
1203	6.0100e-01	-8.0484	-22.711178	0.000224	2.238481	0.758418	-0.017960
1204	6.0150e-01	-8.0645	-22.765914	0.000136	1.364408	0.462274	-0.010947
1205	6.0200e-01	-8.1238	-22.765914	-0.000000	-0.000000	-0.000000	0.000000
1206	6.0250e-01	-8.1671	-22.816802	0.000127	1.268473	0.429770	-0.010177
1207	6.0300e-01	-8.1944	-23.020351	0.000507	5.073891	1.719081	-0.040710
1208	6.0350e-01	-8.2377	-23.189263	0.000421	4.210477	1.426548	-0.033782
1209	6.0400e-01	-8.2746	-23.149922	-0.000098	-0.980668	-0.332259	0.007868
1210	6.0450e-01	-8.3083	-23.335511	0.000463	4.626195	1.567397	-0.037118
1211	6.0500e-01	-8.3677	-23.335511	-0.000000	-0.000000	-0.000000	0.000000
1212	6.0550e-01	-8.4030	-23.391530	0.000140	1.396386	0.473108	-0.011204
1213	6.0600e-01	-8.4447	-23.653237	0.000652	6.523574	2.210247	-0.052341
1214	6.0650e-01	-8.4720	-23.698993	0.000114	1.140560	0.386432	-0.009151
1215	6.0700e-01	-8.5217	-23.839254	0.000350	3.496295	1.184577	-0.028052
1216	6.0750e-01	-8.5650	-23.944022	0.000261	2.611562	0.884821	-0.020954
1217	6.0800e-01	-8.5859	-24.067178	0.000307	3.069917	1.040116	-0.024631
1218	6.0850e-01	-8.6356	-24.187341	0.000300	2.995301	1.014836	-0.024033
1219	6.0900e-01	-8.6757	-24.263458	0.000190	1.897379	0.642850	-0.015223
1220	6.0950e-01	-8.7350	-24.285695	0.000055	0.554291	0.187799	-0.004447
1221	6.1000e-01	-8.7816	-24.286977	0.000003	0.031978	0.010835	-0.000257
1222	6.1050e-01	-8.7896	-24.515757	0.000570	5.702798	1.932160	-0.045756
1223	6.1100e-01	-8.8489	-24.475988	-0.000099	-0.991327	-0.335871	0.007954
1224	6.1150e-01	-8.8891	-24.793286	0.000791	7.909301	2.679744	-0.063460
1225	6.1200e-01	-8.9292	-24.786444	-0.000017	-0.170551	-0.057784	0.001368
1226	6.1250e-01	-8.9757	-24.885225	0.000246	2.462330	0.834260	-0.019756
1227	6.1300e-01	-9.0062	-24.994270	0.000272	2.718156	0.920936	-0.021809
1228	6.1350e-01	-9.0511	-25.161044	0.000416	4.157180	1.408491	-0.033355
1229	6.1400e-01	-9.0848	-25.226898	0.000164	1.641553	0.556173	-0.013171
1230	6.1450e-01	-9.1136	-25.343212	0.000290	2.899366	0.982332	-0.023263
1231	6.1500e-01	-9.1778	-25.383409	0.000100	1.001987	0.339482	-0.008039
1232	6.1550e-01	-9.1955	-25.459954	0.000191	1.908039	0.646461	-0.015309
1233	6.1600e-01	-9.2548	-25.627583	0.000418	4.178499	1.415714	-0.033526
1234	6.1650e-01	-9.3029	-25.619458	-0.000020	-0.202529	-0.068619	0.001625
1235	6.1700e-01	-9.3190	-25.885441	0.000663	6.630169	2.246362	-0.053197
1236	6.1750e-01	-9.3527	-25.926065	0.000101	1.012646	0.343094	-0.008125
1237	6.1800e-01	-9.4265	-25.975242	0.000123	1.225835	0.415324	-0.009835
1238	6.1850e-01	-9.4602	-26.128760	0.000383	3.826737	1.296534	-0.030703
1239	6.1900e-01	-9.4938	-26.254481	0.000313	3.133874	1.061785	-0.025144
1240	6.1950e-01	-9.5468	-26.198035	-0.000141	-1.407045	-0.476720	0.011289
1241	6.2000e-01	-9.5372	-26.370368	-0.000430	-4.295752	-1.455440	-0.034467
1242	6.2050e-01	-9.6061	-26.524741	0.000385	3.848056	1.303757	-0.030875
1243	6.2100e-01	-9.6463	-26.719738	0.000486	4.860703	1.646851	-0.038999
1244	6.2150e-01	-9.6976	-26.688093	-0.000079	-0.788798	-0.267252	0.006329
1245	6.2200e-01	-9.7217	-26.757796	0.000174	1.737488	0.588677	-0.013941
1246	6.2250e-01	-9.7714	-26.848453	0.000226	2.259800	0.765641	-0.018131
1247	6.2300e-01	-9.7858	-26.975885	0.000318	3.176512	1.076231	-0.025486
1248	6.2350e-01	-9.8484	-27.025917	0.000125	1.247154	0.422547	-0.010006
1249	6.2400e-01	-9.8564	-27.119140	0.000232	2.323757	0.787310	-0.018644
1250	6.2450e-01	-9.9093	-27.261967	0.000356	3.560251	1.206246	-0.028565
1251	6.2500e-01	-9.9511	-27.382984	0.000302	3.016620	1.022059	-0.024204
1252	6.2550e-01	-10.0040	-27.391537	0.000021	0.213189	0.072230	-0.001711
1253	6.2600e-01	-10.0650	-27.535219	0.000358	3.581570	1.213469	-0.028736
1254	6.2650e-01	-10.0954	-27.573278	0.000095	0.948690	0.321425	-0.007612
1255	6.2700e-01	-10.1227	-27.742190	0.000421	4.210477	1.426548	-0.033782
1256	6.2750e-01	-10.1500	-27.796070	0.000134	1.343089	0.455051	-0.010776
1257	6.2800e-01	-10.2013	-27.937614	0.000353	3.528273	1.195411	-0.028309
1258	6.2850e-01	-10.2158	-28.190341	0.000630	6.299726	2.134405	-0.050545
1259	6.2900e-01	-10.2735	-28.208729	0.000046	0.458356	0.155295	-0.003678
1260	6.2950e-01	-10.3216	-28.191196	-0.000044	-0.437037	-0.148072	0.003507
1261	6.3000e-01	-10.3698	-28.319484	0.000320	3.197831	1.083454	-0.025658
1262	6.3050e-01	-10.4099	-28.375075	0.000139	1.385727	0.469497	-0.011118
1263	6.3100e-01	-10.4275	-28.582046	0.000516	5.159167	1.747973	-0.041394
1264	6.3150e-01	-10.4660	-28.688952	0.000266	2.664859	0.902879	-0.021381
1265	6.3200e-01	-10.5334	-28.732997	0.000110	1.097922	0.371986	-0.008809
1266	6.3250e-01	-10.5847	-28.744543	0.000029	0.287805	0.097511	-0.002309
1267	6.3300e-01	-10.6056	-28.904903	0.000400	3.997288	1.354318	-0.032072
1268	6.3350e-01	-10.6200	-29.109735	0.000511	5.105870	1.729915	-0.040967
1269	6.3400e-01	-10.7066	-29.201247	0.000228	2.281119	0.772864	-0.018302
1270	6.3450e-01	-10.7339	-29.219207	0.000045	0.447696	0.151684	-0.003592
1271	6.3500e-01	-10.7740	-29.246575	0.000068	0.682204	0.231137	-0.005474
1272	6.3550e-01	-10.8157	-29.434303	0.000468	4.679492	1.585455	-0.037545
1273	6.3600e-01	-10.8510	-29.426178	-0.000020	-0.202529	-0.068619	0.001625
1274	6.3650e-01	-10.8959	-29.536933	0.000276	2.760794	0.935382	-0.022151
1275	6.3700e-01	-10.9248	-29.577985	0.000102	1.023306	0.346705	-0.008210
1276	6.3750e-01	-10.9649	-29.713115	0.000337	3.368382	1.141239	-0.027026
1277	6.3800e-01	-10.9954	-29.852948	0.000349	3.485635	1.180965	-0.027967
1278	6.3850e-01	-11.0467	-29.894428	0.000103	1.033965	0.350317	-0.008296
1279	6.3900e-01	-11.0917	-30.034261	0.000349	3.485635	1.180965	-0.027967
1280	6.3950e-01	-11.1350	-30.213864	0.000448	4.476963	1.516836	-0.035921
1281	6.4000e-01	-11.1783	-30.221561	0.000019	0.191870	0.065007	-0.001539
1282	6.4050e-01	-11.2216	-30.343862	0.000305	3.048599	1.032893	-0.024460
1283	6.4100e-01	-11.2393	-30.467446	0.000308	3.080577	1.043728	-0.024717
1284	6.4150e-01	-11.2601	-30.576062	0.000271	2.707497	0.917325	-0.021723
1285	6.4200e-01	-11.3339	-30.620535	0.000111	1.108581	0.375598	-0.008895
1286	6.4250e-01	-11.3628	-30.682113	0.000153	1.534959	0.520058	-0.012316
1287	6.4300e-01	-11.4077	-30.910893	0.000570	5.702798	1.932160	-0.045756
1288	6.4350e-01	-11.4494	-30.944675	0.000084	0.842095	0.285310	-0.006756
1289	6.4400e-01	-11.4831	-30.965629	0.000052	0.522312	0.176964	-0.004191
1290	6.4450e-01	-11.5280	-31.077667	0.000279	2.792772	0.946217	-0.022408
1291	6.4500e-01	-11.5874	-31.179014	0.000253	2.526286	0.855929	-0.020269
1292	6.4550e-01	-11.6130	-31.223059	0.000110	1.097922	0.371986	-0.008809
1293	6.4600e-01	-11.6211	-31.444997	0.000553	5.532247	1.874376	-0.044388
1294	6.4650e-01	-11.6756	-31.585258	0.000350	3.496295	1.184577	-0.028052
1295	6.4700e-01	-11.7093	-31.537364	-0.000119	-1.193857	-0.404490	0.009579
1296	6.4750e-01	-11.7430	-31.686605	0.000372	3.720143	1.260419	-0.029848
1297	6.4800e-01	-11.8023	-31.729795	0.000108	1.076603	0.364763	-0.008638
1298	6.4850e-01	-11.8296	-31.833708	0.000259	2.590243	0.877598	-0.020783
1299	6.4900e-01	-11.9018	-31.948740	0.000287	2.867388	0.971497	-0.023006
1300	6.4950e-01	-11.9323	-31.907260	-0.000103	-1.033965	-0.350317	0.008296
1301	6.5000e-01	-11.9852	-32.069757	0.000405	4.050585	1.372375	-0.032500
1302	6.5050e-01	-12.0093	-32.133046	0.000158	1.577596	0.534504	-0.012658
1303	6.5100e-01	-12.0350	-32.252781	0.000298	2.984642	1.011224	-0.023947
1304	6.5150e-01	-12.0815	-32.379358	0.000316	3.155193	1.069008	-0.025315
1305	6.5200e-01	-12.1248	-32.528172	0.000371	3.709484	1.256807	-0.029763
1306	6.5250e-01	-12.1601	-32.608993	0.000201	2.014633	0.682576	-0.016164
1307	6.5300e-01	-12.2146	-32.628664	0.000049	0.490334	0.166130	-0.003934
1308	6.5350e-01	-12.2515	-32.700932	0.000180	1.801445	0.610346	-0.014454
1309	6.5400e-01	-12.2852	-32.961784	0.000650	6.502256	2.203024	-0.052170
1310	6.5450e-01	-12.3382	-32.960073	-0.000004	-0.042638	-0.014446	0.000342
1311	6.5500e-01	-12.3670	-33.000270	0.000100	1.001987	0.339482	-0.008039
1312	6.5550e-01	-12.4103	-33.160202	0.000399	3.986629	1.350706	-0.031986
1313	6.5600e-01	-12.4344	-33.344508	0.000459	4.594217	1.556563	-0.036861
1314	6.5650e-01	-12.4713	-33.318423	-0.000065	-0.650226	-0.220302	0.005217
1315	6.5700e-01	-12.5371	-33.437731	0.000297	2.973982	1.007613	-0.023861
1316	6.5750e-01	-12.5692	-33.591676	0.000384	3.837397	1.300145	-0.030789
1317	6.5800e-01	-12.6093	-33.599801	0.000020	0.202529	0.068619	-0.001625
1318	6.5850e-01	-12.6414	-33.710556	0.000276	2.760794	0.935382	-0.022151
1319	6.5900e-01	-12.6799	-33.877330	0.000416	4.157180	1.408491	-0.033355
1320	6.5950e-01	-12.7216	-33.836277	-0.000102	-1.023306	-0.346705	0.008210
1321	6.6000e-01	-12.7793	-34.083873	0.000617	6.171813	2.091067	-0.049519
1322	6.6050e-01	-12.8114	-34.053939	-0.000075	-0.746160	-0.252806	0.005987
1323	6.6100e-01	-12.8531	-34.174101	0.000300	2.995301	1.014836	-0.024033
1324	6.6150e-01	-12.8547	-34.411861	0.000593	5.926646	2.008002	-0.047552
1325	6.6200e-01	-12.9141	-34.374230	-0.000094	-0.938030	-0.317813	0.007526
1326	6.6250e-01	-12.9574	-34.483275	0.000272	2.718156	0.920936	-0.021809
1327	6.6300e-01	-13.0007	-34.583339	0.000249	2.494308	0.845094	-0.020013
1328	6.6350e-01	-13.0488	-34.646200	0.000157	1.566937	0.530893	-0.012572
1329	6.6400e-01	-13.0825	-34.774060	0.000319	3.187171	1.079843	-0.025572
1330	6.6450e-01	-13.1371	-34.795869	0.000054	0.543631	0.184187	-0.004362
1331	6.6500e-01	-13.1740	-34.782612	-0.000033	-0.330442	-0.111957	0.002651
1332	6.6550e-01	-13.2125	-34.949386	0.000416	4.157180	1.408491	-0.033355
1333	6.6600e-01	-13.2445	-35.027214	0.000194	1.940017	0.657296	-0.015566
1334	6.6650e-01	-13.2814	-35.236323	0.000521	5.212464	1.766031	-0.041822
1335	6.6700e-01	-13.3215	-35.327834	0.000228	2.281119	0.772864	-0.018302
1336	6.6750e-01	-13.3665	-35.281223	-0.000116	-1.161878	-0.393655	0.009322
1337	6.6800e-01	-13.4098	-35.455267	0.000434	4.338390	1.469886	-0.034809
1338	6.6850e-01	-13.4515	-35.462536	0.000018	0.181210	0.061396	-0.001454
1339	6.6900e-01	-13.4884	-35.551482	0.000222	2.217163	0.751195	-0.017789
1340	6.6950e-01	-13.5205	-35.628455	0.000192	1.918698	0.650073	-0.015395
1341	6.7000e-01	-13.5654	-35.708421	0.000199	1.993314	0.675353	-0.015993
1342	6.7050e-01	-13.5895	-35.859800	0.000377	3.773440	1.278476	-0.030276
1343	6.7100e-01	-13.6488	-36.041541	0.000453	4.530260	1.534894	-0.036348
1344	6.7150e-01	-13.6873	-36.173677	0.000329	3.293766	1.115958	-0.026427
1345	6.7200e-01	-13.7274	-36.160421	-0.000033	-0.330442	-0.111957	0.002651
1346	6.7250e-01	-13.7595	-36.275452	0.000287	2.867388	0.971497	-0.023006
1347	6.7300e-01	-13.8012	-36.374661	0.000247	2.472989	0.837871	-0.019842
1348	6.7350e-01	-13.8317	-36.452061	0.000193	1.929358	0.653684	-0.015480
1349	6.7400e-01	-13.8766	-36.589757	0.000343	3.432338	1.162908	-0.027539
1350	6.7450e-01	-13.9456	-36.660315	0.000176	1.758807	0.595900	-0.014112
1351	6.7500e-01	-13.9681	-36.741136	0.000201	2.014633	0.682576	-0.016164
1352	6.7550e-01	-14.0210	-36.697091	-0.000110	-1.097922	-0.371986	0.008809
1353	6.7600e-01	-14.0659	-36.836496	0.000347	3.474976	1.177354	-0.027881
1354	6.7650e-01	-14.0884	-36.946396	0.000274	2.739475	0.928159	-0.021980
1355	6.7700e-01	-14.1301	-37.007119	0.000151	1.513640	0.512835	-0.012145
1356	6.7750e-01	-14.1782	-37.061427	0.000135	1.353748	0.458662	-0.010862
1357	6.7800e-01	-14.2039	-37.201261	0.000349	3.485635	1.180965	-0.027967
1358	6.7850e-01	-14.2584	-37.267543	0.000165	1.652212	0.559785	-0.013256
1359	6.7900e-01	-14.2713	-37.480072	0.000530	5.297739	1.794923	-0.042506
1360	6.7950e-01	-14.3130	-37.548920	0.000172	1.716169	0.581454	-0.013770
1361	6.8000e-01	-14.3643	-37.547637	-0.000003	-0.031978	-0.010835	0.000257
1362	6.8050e-01	-14.4060	-37.626748	0.000197	1.971996	0.668130	-0.015822
1363	6.8100e-01	-14.4622	-37.681912	0.000138	1.375067	0.465885	-0.011033
1364	6.8150e-01	-14.4670	-38.003486	0.000802	8.015895	2.715859	-0.064315
1365	6.8200e-01	-14.5055	-37.959013	-0.000111	-1.108581	-0.375598	0.008895
1366	6.8250e-01	-14.5777	-37.918388	-0.000101	-1.012646	-0.343094	0.008125
1367	6.8300e-01	-14.6210	-38.182233	0.000658	6.576872	2.228304	-0.052769
1368	6.8350e-01	-14.6611	-38.127069	-0.000138	-1.375067	-0.465885	0.011033
1369	6.8400e-01	-14.6916	-38.243811	0.000291	2.910026	0.985943	-0.023348
1370	6.8450e-01	-14.7220	-38.443085	0.000497	4.967297	1.682966	-0.039855
1371	6.8500e-01	-14.7573	-38.543577	0.000250	2.504967	0.848706	-0.020098
1372	6.8550e-01	-14.8183	-38.593181	0.000124	1.236495	0.418936	-0.009921
1373	6.8600e-01	-14.8504	-38.533313	-0.000149	-1.492321	-0.505612	0.011974
1374	6.8650e-01	-14.8841	-38.694956	0.000403	4.029267	1.365152	-0.032328
1375	6.8700e-01	-14.9579	-38.801862	0.000266	2.664859	0.902879	-0.021381
1376	6.8750e-01	-14.9659	-38.939130	0.000342	3.421679	1.159296	-0.027454
1377	6.8800e-01	-15.0188	-38.972057	0.000082	0.820777	0.278087	-0.006585
1378	6.8850e-01	-15.0509	-39.063141	0.000227	2.270460	0.769253	-0.018217
1379	6.8900e-01	-15.0910	-39.152515	0.000223	2.227822	0.754807	-0.017875
1380	6.8950e-01	-15.1167	-39.332545	0.000449	4.487622	1.520448	-0.036006
1381	6.9000e-01	-15.1873	-39.245737	-0.000216	-2.163865	-0.733137	0.017362
1382	6.9050e-01	-15.2178	-39.351788	0.000264	2.643540	0.895656	-0.021210
1383	6.9100e-01	-15.2370	-39.604087	0.000629	6.289067	2.130794	-0.050460
1384	6.9150e-01	-15.2771	-39.704152	0.000249	2.494308	0.845094	-0.020013
1385	6.9200e-01	-15.3108	-39.840136	0.000339	3.389700	1.148462	-0.027197
1386	6.9250e-01	-15.3782	-39.800795	-0.000098	-0.980668	-0.332259	0.007868
1387	6.9300e-01	-15.4054	-39.973555	0.000431	4.306412	1.459052	-0.034552
1388	6.9350e-01	-15.4472	-39.993654	0.000050	0.500993	0.169741	-0.004020
1389	6.9400e-01	-15.4937	-40.018028	0.000061	0.607588	0.205856	-0.004875
1390	6.9450e-01	-15.5113	-40.217729	0.000498	4.977956	1.686577	-0.039940
1391	6.9500e-01	-15.5659	-40.403746	0.000464	4.636854	1.571009	-0.037203
1392	6.9550e-01	-15.6012	-40.343451	-0.000150	-1.502980	-0.509224	0.012059
1393	6.9600e-01	-15.6557	-40.425128	0.000204	2.035952	0.689799	-0.016335
1394	6.9650e-01	-15.6942	-40.499107	0.000184	1.844082	0.624792	-0.014796
1395	6.9700e-01	-15.7231	-40.631243	0.000329	3.293766	1.115958	-0.026427
1396	6.9750e-01	-15.7808	-40.686834	0.000139	1.385727	0.469497	-0.011118
1397	6.9800e-01	-15.8209	-40.643217	-0.000109	-1.087262	-0.368374	0.008724
1398	6.9850e-01	-15.8482	-40.753116	0.000274	2.739475	0.928159	-0.021980
1399	6.9900e-01	-15.8819	-40.927160	0.000434	4.338390	1.469886	-0.034809
1400	6.9950e-01	-15.9156	-41.172617	0.000612	6.118516	2.073009	-0.049091
1401	7.0000e-01	-15.9557	-41.166202	-0.000016	-0.159892	-0.054173	0.001283
1402	7.0050e-01	-16.0118	-41.119591	-0.000116	-1.161878	-0.393655	0.009322
1403	7.0100e-01	-16.0536	-41.231629	0.000279	2.792772	0.946217	-0.022408
1404	7.0150e-01	-16.0744	-41.454422	0.000555	5.553566	1.881599	-0.044559
1405	7.0200e-01	-16.1129	-41.422350	-0.000080	-0.799458	-0.270864	0.006414
1406	7.0250e-01	-16.1739	-41.463830	0.000103	1.033965	0.350317	-0.008296
1407	7.0300e-01	-16.2044	-41.631886	0.000419	4.189158	1.419325	-0.033611
1408	7.0350e-01	-16.2589	-41.743069	0.000277	2.771453	0.938994	-0.022237
1409	7.0400e-01	-16.2878	-41.802936	0.000149	1.492321	0.505612	-0.011974
1410	7.0450e-01	-16.3167	-41.897869	0.000237	2.366395	0.801756	-0.018987
1411	7.0500e-01	-16.3760	-41.866225	-0.000079	-0.788798	-0.267252	0.006329
1412	7.0550e-01	-16.4065	-41.994085	0.000319	3.187171	1.079843	-0.025572
1413	7.0600e-01	-16.4482	-42.161714	0.000418	4.178499	1.415714	-0.033526
1414	7.0650e-01	-16.4755	-42.236976	0.000188	1.876061	0.635627	-0.015052
1415	7.0700e-01	-16.5300	-42.353718	0.000291	2.910026	0.985943	-0.023348
1416	7.0750e-01	-16.5621	-42.301120	-0.000131	-1.311111	-0.444216	0.010520
1417	7.0800e-01	-16.6166	-42.387072	0.000214	2.142547	0.725914	-0.017191
1418	7.0850e-01	-16.6343	-42.650917	0.000658	6.576872	2.228304	-0.052769
1419	7.0900e-01	-16.6728	-42.675720	0.000062	0.618247	0.209468	-0.004960
1420	7.0950e-01	-16.7257	-42.884828	0.000521	5.212464	1.766031	-0.041822
1421	7.1000e-01	-16.7819	-42.853184	-0.000079	-0.788798	-0.267252	0.006329
1422	7.1050e-01	-16.7915	-42.925025	0.000179	1.790785	0.606734	-0.014368
1423	7.1100e-01	-16.8460	-42.987458	0.000156	1.556278	0.527281	-0.012487
1424	7.1150e-01	-16.8846	-43.095220	0.000269	2.686178	0.910102	-0.021552
1425	7.1200e-01	-16.9182	-43.249165	0.000384	3.837397	1.300145	-0.030789
1426	7.1250e-01	-16.9567	-43.196139	-0.000132	-1.321770	-0.447828	0.010605
1427	7.1300e-01	-16.9808	-43.514293	0.000793	7.930620	2.686967	-0.063631
1428	7.1350e-01	-17.0546	-43.455280	-0.000147	-1.471002	-0.498389	0.011802
1429	7.1400e-01	-17.0835	-43.572450	0.000292	2.920685	0.989555	-0.023434
1430	7.1450e-01	-17.1252	-43.690902	0.000295	2.952664	1.000390	-0.023690
1431	7.1500e-01	-17.1910	-43.659258	-0.000079	-0.788798	-0.267252	0.006329
1432	7.1550e-01	-17.1942	-43.880768	0.000552	5.521588	1.870764	-0.044302
1433	7.1600e-01	-17.2166	-43.948760	0.000169	1.694850	0.574231	-0.013598
1434	7.1650e-01	-17.2760	-43.928234	-0.000051	-0.511653	-0.173353	0.004105
1435	7.1700e-01	-17.3385	-43.985963	0.000144	1.439024	0.487554	-0.011546
1436	7.1750e-01	-17.3498	-44.068923	0.000207	2.067930	0.700634	-0.016592
1437	7.1800e-01	-17.4252	-44.282308	0.000532	5.319058	1.802146	-0.042677
1438	7.1850e-01	-17.4557	-44.257505	-0.000062	-0.618247	-0.209468	0.004960
1439	7.1900e-01	-17.4813	-44.446516	0.000471	4.711470	1.596289	-0.037802
1440	7.1950e-01	-17.5246	-44.396484	-0.000125	-1.247154	-0.422547	0.010006
1441	7.2000e-01	-17.5615	-44.669309	0.000680	6.800720	2.304146	-0.054565
1442	7.2050e-01	-17.5840	-44.659473	-0.000025	-0.245167	-0.083065	0.001967
1443	7.2100e-01	-17.6642	-44.626118	-0.000083	-0.831436	-0.281698	0.006671
1444	7.2150e-01	-17.6770	-44.824537	0.000495	4.945978	1.675743	-0.039684
1445	7.2200e-01	-17.7252	-44.845918	0.000053	0.532972	0.180576	-0.004276
1446	7.2250e-01	-17.7444	-45.100782	0.000635	6.353023	2.152463	-0.050973
1447	7.2300e-01	-17.8150	-45.117887	0.000043	0.426377	0.144461	-0.003421
1448	7.2350e-01	-17.8375	-45.213248	0.000238	2.377054	0.805368	-0.019072
1449	7.2400e-01	-17.8792	-45.388574	0.000437	4.370369	1.480721	-0.035065
1450	7.2450e-01	-17.9161	-45.368048	-0.000051	-0.511653	-0.173353	0.004105
1451	7.2500e-01	-17.9546	-45.614788	0.000615	6.150494	2.083844	-0.049348
1452	7.2550e-01	-17.9963	-45.613078	-0.000004	-0.042638	-0.014446	0.000342
1453	7.2600e-01	-18.0316	-45.726826	0.000284	2.835410	0.960663	-0.022750
1454	7.2650e-01	-18.0909	-45.700313	-0.000066	-0.660885	-0.223914	0.005303
1455	7.2700e-01	-18.1134	-45.841857	0.000353	3.528273	1.195411	-0.028309
1456	7.2750e-01	-18.1679	-46.029585	0.000468	4.679492	1.585455	-0.037545
1457	7.2800e-01	-18.2064	-46.057808	0.000070	0.703523	0.238360	-0.005645
1458	7.2850e-01	-18.2385	-46.135208	0.000193	1.929358	0.653684	-0.015480
1459	7.2900e-01	-18.2963	-46.353297	0.000544	5.436312	1.841872	-0.043618
1460	7.2950e-01	-18.3203	-46.309679	-0.000109	-1.087262	-0.368374	0.008724
1461	7.3000e-01	-18.3749	-46.306686	-0.000007	-0.074616	-0.025281	0.000599
1462	7.3050e-01	-18.4054	-46.434973	0.000320	3.197831	1.083454	-0.025658
1463	7.3100e-01	-18.4407	-46.604313	0.000422	4.221136	1.430160	-0.033868
1464	7.3150e-01	-18.4984	-46.645793	0.000103	1.033965	0.350317	-0.008296
1465	7.3200e-01	-18.5080	-46.697108	0.000128	1.279132	0.433382	-0.010263
1466	7.3250e-01	-18.5546	-46.927598	0.000575	5.745436	1.946606	-0.046098
1467	7.3300e-01	-18.6171	-46.869013	-0.000146	-1.460343	-0.494777	0.011717
1468	7.3350e-01	-18.6300	-47.087957	0.000546	5.457631	1.849095	-0.043789
1469	7.3400e-01	-18.6941	-47.064865	-0.000058	-0.575610	-0.195022	0.004618
1470	7.3450e-01	-18.7005	-47.217955	0.000382	3.816078	1.292922	-0.030618
1471	7.3500e-01	-18.7647	-47.390716	0.000431	4.306412	1.459052	-0.034552
1472	7.3550e-01	-18.7920	-47.360354	-0.000076	-0.756820	-0.256418	0.006072
1473	7.3600e-01	-18.8481	-47.554924	0.000485	4.850043	1.643239	-0.038914
1474	7.3650e-01	-18.8690	-47.662685	0.000269	2.686178	0.910102	-0.021552
1475	7.3700e-01	-18.9348	-47.684922	0.000055	0.554291	0.187799	-0.004447
1476	7.3750e-01	-18.9636	-47.845281	0.000400	3.997288	1.354318	-0.032072
1477	7.3800e-01	-19.0150	-47.944918	0.000248	2.483648	0.841483	-0.019927
1478	7.3850e-01	-19.0503	-47.953471	0.000021	0.213189	0.072230	-0.001711
1479	7.3900e-01	-19.0663	-48.041561	0.000220	2.195844	0.743972	-0.017618
1480	7.3950e-01	-19.1433	-48.213467	0.000429	4.285093	1.451829	-0.034381
1481	7.4000e-01	-19.1690	-48.217315	0.000010	0.095935	0.032504	-0.000770
1482	7.4050e-01	-19.1850	-48.285308	0.000169	1.694850	0.574231	-0.013598
1483	7.4100e-01	-19.2460	-48.432411	0.000367	3.666846	1.242361	-0.029421
1484	7.4150e-01	-19.2797	-48.541028	0.000271	2.707497	0.917325	-0.021723
1485	7.4200e-01	-19.2813	-48.808721	0.000667	6.672807	2.260808	-0.053539
1486	7.4250e-01	-19.3839	-48.683427	-0.000312	-3.123215	-1.058174	0.025059
1487	7.4300e-01	-19.3775	-48.932733	-0.000621	-6.214451	-2.105513	-0.049861
1488	7.4350e-01	-19.4465	-49.005001	0.000180	1.801445	0.610346	-0.014454
1489	7.4400e-01	-19.4593	-49.015264	0.000026	0.255826	0.086676	-0.002053
1490	7.4450e-01	-19.5059	-49.151249	0.000339	3.389700	1.148462	-0.027197
1491	7.4500e-01	-19.5668	-49.240195	0.000222	2.217163	0.751195	-0.017789
1492	7.4550e-01	-19.5829	-49.410390	0.000424	4.242455	1.437383	-0.034039
1493	7.4600e-01	-19.6422	-49.344963	-0.000163	-1.630894	-0.552562	0.013085
1494	7.4650e-01	-19.6711	-49.637031	0.000728	7.280394	2.466664	-0.058414
1495	7.4700e-01	-19.7112	-49.651143	0.000035	0.351761	0.119180	-0.002822
1496	7.4750e-01	-19.7545	-49.810647	0.000398	3.975969	1.347095	-0.031901
1497	7.4800e-01	-19.8043	-49.872653	0.000155	1.545618	0.523670	-0.012401
1498	7.4850e-01	-19.8219	-50.052256	0.000448	4.476963	1.516836	-0.035921
1499	7.4900e-01	-19.8829	-50.088176	0.000090	0.895393	0.303367	-0.007184
1500	7.4950e-01	-19.9198	-50.177550	0.000223	2.227822	0.754807	-0.017875
1501	7.5000e-01	-19.9631	-50.159162	-0.000046	-0.458356	-0.155295	0.003678
1502	7.5050e-01	-19.8973	-50.245115	-0.000214	-2.142547	-0.725914	-0.017191
1503	7.5100e-01	-19.8572	-50.167287	0.000194	1.940017	0.657296	0.015566
1504	7.5150e-01	-19.8267	-50.101432	0.000164	1.641553	0.556173	0.013171
1505	7.5200e-01	-19.7866	-50.057815	0.000109	1.087262	0.368374	0.008724
1506	7.5250e-01	-19.7337	-50.044986	0.000032	0.319783	0.108345	0.002566
1507	7.5300e-01	-19.7016	-49.962027	0.000207	2.067930	0.700634	0.016592
1508	7.5350e-01	-19.6727	-49.900449	0.000153	1.534959	0.520058	0.012316
1509	7.5400e-01	-19.6117	-49.879495	0.000052	0.522312	0.176964	0.004191
1510	7.5450e-01	-19.5893	-49.746076	0.000333	3.325744	1.126793	0.026684
1511	7.5500e-01	-19.5476	-49.764891	-0.000047	-0.469015	-0.158907	-0.003763
1512	7.5550e-01	-19.5219	-49.561342	0.000507	5.073891	1.719081	0.040710
1513	7.5600e-01	-19.4609	-49.769168	-0.000518	-5.180486	-1.755196	-0.041565
1514	7.5650e-01	-19.4064	-49.635749	0.000333	3.325744	1.126793	0.026684
1515	7.5700e-01	-19.4016	-49.449304	0.000465	4.647514	1.574620	0.037289
1516	7.5750e-01	-19.3551	-49.474106	-0.000062	-0.618247	-0.209468	-0.004960
1517	7.5800e-01	-19.2877	-49.367200	0.000266	2.664859	0.902879	0.021381
1518	7.5850e-01	-19.2797	-49.350095	0.000043	0.426377	0.144461	0.003421
1519	7.5900e-01	-19.2235	-49.294076	0.000140	1.396386	0.473108	0.011204
1520	7.5950e-01	-19.1930	-49.306477	-0.000031	-0.309124	-0.104734	-0.002480
1521	7.6000e-01	-19.1497	-49.197433	0.000272	2.718156	0.920936	0.021809
1522	7.6050e-01	-19.1096	-49.198715	-0.000003	-0.031978	-0.010835	-0.000257
1523	7.6100e-01	-19.0583	-48.970791	0.000568	5.681479	1.924937	0.045585
1524	7.6150e-01	-19.0005	-49.050330	-0.000198	-1.982655	-0.671742	-0.015908
1525	7.6200e-01	-18.9733	-49.034507	0.000039	0.394399	0.133626	0.003164
1526	7.6250e-01	-18.9540	-48.953259	0.000203	2.025293	0.686188	0.016250
1527	7.6300e-01	-18.9091	-48.937864	0.000038	0.383740	0.130015	0.003079
1528	7.6350e-01	-18.8594	-48.726190	0.000528	5.276421	1.787700	0.042335
1529	7.6400e-01	-18.8225	-48.666750	0.000148	1.481662	0.502001	0.011888
1530	7.6450e-01	-18.7856	-48.790333	-0.000308	-3.080577	-1.043728	-0.024717
1531	7.6500e-01	-18.7390	-48.570534	0.000548	5.478950	1.856318	0.043960
1532	7.6550e-01	-18.7005	-48.395208	0.000437	4.370369	1.480721	0.035065
1533	7.6600e-01	-18.6701	-48.479450	-0.000210	-2.099909	-0.711468	-0.016848
1534	7.6650e-01	-18.6219	-48.387938	0.000228	2.281119	0.772864	0.018302
1535	7.6700e-01	-18.5626	-48.325077	0.000157	1.566937	0.530893	0.012572
1536	7.6750e-01	-18.5562	-48.175408	0.000373	3.730802	1.264030	0.029934
1537	7.6800e-01	-18.4888	-48.176691	-0.000003	-0.031978	-0.010835	-0.000257
1538	7.6850e-01	-18.4631	-48.052252	0.000310	3.101896	1.050951	0.024888
1539	7.6900e-01	-18.4166	-48.186954	-0.000336	-3.357722	-1.137627	-0.026940
1540	7.6950e-01	-18.3941	-47.950905	0.000588	5.884008	1.993556	0.047210
1541	7.7000e-01	-18.3396	-47.914984	0.000090	0.895393	0.303367	0.007184
1542	7.7050e-01	-18.3027	-47.813637	0.000253	2.526286	0.855929	0.020269
1543	7.7100e-01	-18.2562	-47.691336	0.000305	3.048599	1.032893	0.024460
1544	7.7150e-01	-18.2145	-47.607522	0.000209	2.089249	0.707857	0.016763
1545	7.7200e-01	-18.1776	-47.577160	0.000076	0.756820	0.256418	0.006072
1546	7.7250e-01	-18.1503	-47.649857	-0.000181	-1.812104	-0.613957	-0.014539
1547	7.7300e-01	-18.1086	-47.406966	0.000605	6.054559	2.051340	0.048578
1548	7.7350e-01	-18.0653	-47.462557	-0.000139	-1.385727	-0.469497	-0.011118
1549	7.7400e-01	-18.0171	-47.417229	0.000113	1.129900	0.382821	0.009066
1550	7.7450e-01	-17.9818	-47.321868	0.000238	2.377054	0.805368	0.019072
1551	7.7500e-01	-17.9321	-47.247034	0.000187	1.865401	0.632015	0.014967
1552	7.7550e-01	-17.8856	-47.165785	0.000203	2.025293	0.686188	0.016250
1553	7.7600e-01	-17.8695	-47.228218	-0.000156	-1.556278	-0.527281	-0.012487
1554	7.7650e-01	-17.7942	-47.107628	0.000301	3.005961	1.018447	0.024118
1555	7.7700e-01	-17.7701	-46.874144	0.000582	5.820052	1.971887	0.046697
1556	7.7750e-01	-17.7364	-46.885690	-0.000029	-0.287805	-0.097511	-0.002309
1557	7.7800e-01	-17.7011	-46.786909	0.000246	2.462330	0.834260	0.019756
1558	7.7850e-01	-17.6498	-46.723620	0.000158	1.577596	0.534504	0.012658
1559	7.7900e-01	-17.6225	-46.692831	0.000077	0.767479	0.260029	0.006158
1560	7.7950e-01	-17.5760	-46.528623	0.000409	4.093223	1.386822	0.032842
1561	7.8000e-01	-17.5327	-46.445236	0.000208	2.078590	0.704245	0.016677
1562	7.8050e-01	-17.5070	-46.437967	0.000018	0.181210	0.061396	0.001454
1563	7.8100e-01	-17.4557	-46.485861	-0.000119	-1.193857	-0.404490	-0.009579
1564	7.8150e-01	-17.4059	-46.292146	0.000483	4.828724	1.636016	0.038743
1565	7.8200e-01	-17.3738	-46.374251	-0.000205	-2.046612	-0.693411	-0.016421
1566	7.8250e-01	-17.3113	-46.088597	0.000712	7.120503	2.412492	0.057131
1567	7.8300e-01	-17.3097	-46.139057	-0.000126	-1.257813	-0.426159	-0.010092
1568	7.8350e-01	-17.2487	-45.994092	0.000361	3.613549	1.224303	0.028993
1569	7.8400e-01	-17.2230	-45.863666	0.000325	3.251128	1.101512	0.026085
1570	7.8450e-01	-17.1669	-45.938073	-0.000185	-1.854742	-0.628404	-0.014881
1571	7.8500e-01	-17.1284	-45.785411	0.000381	3.805418	1.289311	0.030532
1572	7.8550e-01	-17.0963	-45.683636	0.000254	2.536946	0.859540	0.020355
1573	7.8600e-01	-17.0289	-45.765740	-0.000205	-2.046612	-0.693411	-0.016421
1574	7.8650e-01	-17.0225	-45.708866	0.000142	1.417705	0.480331	0.011375
1575	7.8700e-01	-16.9648	-45.643867	0.000162	1.620234	0.548950	0.013000
1576	7.8750e-01	-16.9247	-45.405679	0.000594	5.937306	2.011614	0.047637
1577	7.8800e-01	-16.9022	-45.312457	0.000232	2.323757	0.787310	0.018644
1578	7.8850e-01	-16.8493	-45.338114	-0.000064	-0.639566	-0.216691	-0.005132
1579	7.8900e-01	-16.8252	-45.156374	0.000453	4.530260	1.534894	0.036348
1580	7.8950e-01	-16.7723	-45.091802	0.000161	1.609575	0.545339	0.012914
1581	7.9000e-01	-16.7610	-45.000291	0.000228	2.281119	0.772864	0.018302
1582	7.9050e-01	-16.6776	-44.951114	0.000123	1.225835	0.415324	0.009835
1583	7.9100e-01	-16.6632	-44.890818	0.000150	1.502980	0.509224	0.012059
1584	7.9150e-01	-16.6118	-44.835227	0.000139	1.385727	0.469497	0.011118
1585	7.9200e-01	-16.5749	-44.690690	0.000360	3.602889	1.220692	0.028907
1586	7.9250e-01	-16.5364	-44.736446	-0.000114	-1.140560	-0.386432	-0.009151
1587	7.9300e-01	-16.4835	-44.582073	0.000385	3.848056	1.303757	0.030875
1588	7.9350e-01	-16.4787	-44.517929	0.000160	1.598915	0.541727	0.012829
1589	7.9400e-01	-16.4033	-44.452075	0.000164	1.641553	0.556173	0.013171
1590	7.9450e-01	-16.3840	-44.390925	0.000152	1.524299	0.516447	0.012230
1591	7.9500e-01	-16.3407	-44.393063	-0.000005	-0.053297	-0.018058	-0.000428
1592	7.9550e-01	-16.2974	-44.148461	0.000610	6.097197	2.065786	0.048920
1593	7.9600e-01	-16.2573	-44.109119	0.000098	0.980668	0.332259	0.007868
1594	7.9650e-01	-16.1979	-44.014614	0.000236	2.355735	0.798145	0.018901
1595	7.9700e-01	-16.1899	-44.008628	0.000015	0.149232	0.050561	0.001197
1596	7.9750e-01	-16.1145	-43.901294	0.000268	2.675518	0.906490	0.021467
1597	7.9800e-01	-16.0969	-43.810209	0.000227	2.270460	0.769253	0.018217
1598	7.9850e-01	-16.0616	-43.811492	-0.000003	-0.031978	-0.010835	-0.000257
1599	7.9900e-01	-16.0199	-43.608370	0.000506	5.063232	1.715469	0.040624
1600	7.9950e-01	-15.9830	-43.574588	0.000084	0.842095	0.285310	0.006756
1601	8.0000e-01	-15.9348	-43.419788	0.000386	3.858716	1.307368	0.030960
1602	8.0050e-01	-15.9012	-43.490346	-0.000176	-1.758807	-0.595900	-0.014112
1603	8.0100e-01	-15.8562	-43.414656	0.000189	1.886720	0.639238	0.015138
1604	8.0150e-01	-15.8514	-43.342815	0.000179	1.790785	0.606734	0.014368
1605	8.0200e-01	-15.7632	-43.267981	0.000187	1.865401	0.632015	0.014967
1606	8.0250e-01	-15.7375	-43.184166	0.000209	2.089249	0.707857	0.016763
1607	8.0300e-01	-15.7070	-43.071701	0.000280	2.803432	0.949828	0.022493
1608	8.0350e-01	-15.6798	-42.934433	0.000342	3.421679	1.159296	0.027454
1609	8.0400e-01	-15.6044	-42.912624	0.000054	0.543631	0.184187	0.004362
1610	8.0450e-01	-15.5771	-42.828809	0.000209	2.089249	0.707857	0.016763
1611	8.0500e-01	-15.5354	-42.730028	0.000246	2.462330	0.834260	0.019756
1612	8.0550e-01	-15.5001	-42.635950	0.000235	2.345076	0.794533	0.018816
1613	8.0600e-01	-15.4648	-42.558550	0.000193	1.929358	0.653684	0.015480
1614	8.0650e-01	-15.4327	-42.482005	0.000191	1.908039	0.646461	0.015309
1615	8.0700e-01	-15.3958	-42.281449	0.000500	4.999275	1.693800	0.040111
1616	8.0750e-01	-15.3429	-42.327205	-0.000114	-1.140560	-0.386432	-0.009151
1617	8.0800e-01	-15.2899	-42.289574	0.000094	0.938030	0.317813	0.007526
1618	8.0850e-01	-15.2883	-42.151879	0.000343	3.432338	1.162908	0.027539
1619	8.0900e-01	-15.2210	-42.180529	-0.000071	-0.714182	-0.241971	-0.005730
1620	8.0950e-01	-15.1632	-42.071485	0.000272	2.718156	0.920936	0.021809
1621	8.1000e-01	-15.1295	-41.990664	0.000201	2.014633	0.682576	0.016164
1622	8.1050e-01	-15.1071	-41.910270	0.000200	2.003974	0.678965	0.016079
1623	8.1100e-01	-15.0525	-41.873922	0.000091	0.906052	0.306979	0.007270
1624	8.1150e-01	-14.9964	-41.705865	0.000419	4.189158	1.419325	0.033611
1625	8.1200e-01	-14.9964	-41.541657	-0.000409	-4.093223	-1.386822	0.032842
1626	8.1250e-01	-14.9466	-41.628465	-0.000216	-2.163865	-0.733137	-0.017362
1627	8.1300e-01	-14.9274	-41.346233	0.000704	7.035227	2.383600	0.056447
1628	8.1350e-01	-14.8728	-41.490342	-0.000359	-3.592230	-1.217080	-0.028822
1629	8.1400e-01	-14.8071	-41.316726	0.000433	4.327731	1.466275	0.034723
1630	8.1450e-01	-14.7894	-41.200840	0.000289	2.888707	0.978720	0.023177
1631	8.1500e-01	-14.7365	-41.148670	0.000130	1.300451	0.440605	0.010434
1632	8.1550e-01	-14.6948	-41.010119	0.000345	3.453657	1.170131	0.027710
1633	8.1600e-01	-14.6515	-41.044329	-0.000085	-0.852755	-0.288921	-0.006842
1634	8.1650e-01	-14.6354	-40.961797	0.000206	2.057271	0.697022	0.016506
1635	8.1700e-01	-14.5632	-40.997290	-0.000088	-0.884733	-0.299756	-0.007099
1636	8.1750e-01	-14.5327	-40.737722	0.000647	6.470277	2.192189	0.051914
1637	8.1800e-01	-14.5183	-40.586770	0.000376	3.762781	1.274865	0.030190
1638	8.1850e-01	-14.4686	-40.539304	0.000118	1.183197	0.400878	0.009493
1639	8.1900e-01	-14.4253	-40.467463	0.000179	1.790785	0.606734	0.014368
1640	8.1950e-01	-14.3723	-40.375523	0.000229	2.291779	0.776476	0.018388
1641	8.2000e-01	-14.3290	-40.423845	-0.000120	-1.204516	-0.408101	-0.009664
1642	8.2050e-01	-14.3001	-40.300261	0.000308	3.080577	1.043728	0.024717
1643	8.2100e-01	-14.2584	-40.123652	0.000440	4.402347	1.491555	0.035322
1644	8.2150e-01	-14.2247	-40.160428	-0.000092	-0.916711	-0.310590	-0.007355
1645	8.2200e-01	-14.1670	-39.982963	0.000442	4.423666	1.498779	0.035493
1646	8.2250e-01	-14.1493	-39.992371	-0.000023	-0.234508	-0.079453	-0.001882
1647	8.2300e-01	-14.0948	-39.811058	0.000452	4.519601	1.531282	0.036263
1648	8.2350e-01	-14.0563	-39.774282	0.000092	0.916711	0.310590	0.007355
1649	8.2400e-01	-14.0258	-39.882044	-0.000269	-2.686178	-0.910102	-0.021552
1650	8.2450e-01	-13.9841	-39.505733	0.000938	9.380303	3.178133	0.075262
1651	8.2500e-01	-13.9632	-39.492477	0.000033	0.330442	0.111957	0.002651
1652	8.2550e-01	-13.9103	-39.418498	0.000184	1.844082	0.624792	0.014796
1653	8.2600e-01	-13.8654	-39.430044	-0.000029	-0.287805	-0.097511	-0.002309
1654	8.2650e-01	-13.8173	-39.303467	0.000316	3.155193	1.069008	0.025315
1655	8.2700e-01	-13.7659	-39.189718	0.000284	2.835410	0.960663	0.022750
1656	8.2750e-01	-13.7258	-39.202547	-0.000032	-0.319783	-0.108345	-0.002566
1657	8.2800e-01	-13.7338	-39.004557	-0.000494	-4.935319	-1.672131	0.039598
1658	8.2850e-01	-13.6713	-39.037484	-0.000082	-0.820777	-0.278087	-0.006585
1659	8.2900e-01	-13.6231	-38.809987	0.000567	5.670820	1.921326	0.045499
1660	8.2950e-01	-13.5959	-38.674857	0.000337	3.368382	1.141239	0.027026
1661	8.3000e-01	-13.5494	-38.737718	-0.000157	-1.566937	-0.530893	-0.012572
1662	8.3050e-01	-13.4804	-38.663312	0.000185	1.854742	0.628404	0.014881
1663	8.3100e-01	-13.4659	-38.315652	0.000867	8.666121	2.936161	0.069532
1664	8.3150e-01	-13.4274	-38.470880	-0.000387	-3.869375	-1.310980	-0.031046
1665	8.3200e-01	-13.3729	-38.374665	0.000240	2.398373	0.812591	0.019243
1666	8.3250e-01	-13.3296	-38.350718	0.000060	0.596928	0.202245	0.004789
1667	8.3300e-01	-13.2895	-38.275883	0.000187	1.865401	0.632015	0.014967
1668	8.3350e-01	-13.2445	-38.143747	0.000329	3.293766	1.115958	0.026427
1669	8.3400e-01	-13.2349	-37.978684	0.000411	4.114542	1.394045	0.033013
1670	8.3450e-01	-13.1948	-38.025722	-0.000117	-1.172538	-0.397267	-0.009408
1671	8.3500e-01	-13.1290	-37.886316	0.000347	3.474976	1.177354	0.027881
1672	8.3550e-01	-13.1082	-37.776417	0.000274	2.739475	0.928159	0.021980
1673	8.3600e-01	-13.0617	-37.668228	0.000270	2.696837	0.913713	0.021638
1674	8.3650e-01	-13.0071	-37.713128	-0.000112	-1.119241	-0.379209	-0.008980
1675	8.3700e-01	-12.9782	-37.400962	0.000778	7.781388	2.636406	0.062433
1676	8.3750e-01	-12.9349	-37.477079	-0.000190	-1.897379	-0.642850	-0.015223
1677	8.3800e-01	-12.8980	-37.456553	0.000051	0.511653	0.173353	0.004105
1678	8.3850e-01	-12.8435	-37.404383	0.000130	1.300451	0.440605	0.010434
1679	8.3900e-01	-12.8242	-37.035770	0.000919	9.188433	3.113125	0.073723
1680	8.3950e-01	-12.8034	-37.131130	-0.000238	-2.377054	-0.805368	-0.019072
1681	8.4000e-01	-12.7424	-37.063138	0.000169	1.694850	0.574231	0.013598
1682	8.4050e-01	-12.6975	-36.939982	0.000307	3.069917	1.040116	0.024631
1683	8.4100e-01	-12.6718	-37.043467	-0.000258	-2.579583	-0.873987	-0.020697
1684	8.4150e-01	-12.6141	-36.704788	0.000844	8.442273	2.860319	0.067736
1685	8.4200e-01	-12.5531	-36.721893	-0.000043	-0.426377	-0.144461	-0.003421
1686	8.4250e-01	-12.5387	-36.666302	0.000139	1.385727	0.469497	0.011118
1687	8.4300e-01	-12.4906	-36.534165	0.000329	3.293766	1.115958	0.026427
1688	8.4350e-01	-12.4553	-36.551270	-0.000043	-0.426377	-0.144461	-0.003421
1689	8.4400e-01	-12.4328	-36.228841	0.000804	8.037214	2.723082	0.064486
1690	8.4450e-01	-12.3943	-36.332754	-0.000259	-2.590243	-0.877598	-0.020783
1691	8.4500e-01	-12.3349	-36.204039	0.000321	3.208490	1.087066	0.025743
1692	8.4550e-01	-12.3253	-36.212591	-0.000021	-0.213189	-0.072230	-0.001711
1693	8.4600e-01	-12.2740	-35.879043	0.000831	8.314360	2.816981	0.066710
1694	8.4650e-01	-12.2130	-35.895293	-0.000041	-0.405059	-0.137238	-0.003250
1695	8.4700e-01	-12.1906	-35.869208	0.000065	0.650226	0.220302	0.005217
1696	8.4750e-01	-12.1440	-35.812334	0.000142	1.417705	0.480331	0.011375
1697	8.4800e-01	-12.1216	-35.687895	0.000310	3.101896	1.050951	0.024888
1698	8.4850e-01	-12.0751	-35.539081	0.000371	3.709484	1.256807	0.029763
1699	8.4900e-01	-12.0301	-35.510858	0.000070	0.703523	0.238360	0.005645
1700	8.4950e-01	-11.9804	-35.492043	0.000047	0.469015	0.158907	0.003763
1701	8.5000e-01	-11.9371	-35.332966	0.000397	3.965310	1.343483	0.031815
1702	8.5050e-01	-11.9018	-35.225632	0.000268	2.675518	0.906490	0.021467
1703	8.5100e-01	-11.8649	-35.111456	0.000285	2.846069	0.964274	0.022835
1704	8.5150e-01	-11.8280	-35.064417	0.000117	1.172538	0.397267	0.009408
1705	8.5200e-01	-11.7847	-35.023793	0.000101	1.012646	0.343094	0.008125
1706	8.5250e-01	-11.7285	-34.912183	0.000278	2.782113	0.942605	0.022322
1707	8.5300e-01	-11.6949	-34.876262	0.000090	0.895393	0.303367	0.007184
1708	8.5350e-01	-11.6548	-34.656890	0.000547	5.468290	1.852707	0.043874
1709	8.5400e-01	-11.6146	-34.561530	0.000238	2.377054	0.805368	0.019072
1710	8.5450e-01	-11.5761	-34.569655	-0.000020	-0.202529	-0.068619	-0.001625
1711	8.5500e-01	-11.5585	-34.440940	0.000321	3.208490	1.087066	0.025743
1712	8.5550e-01	-11.4863	-34.471301	-0.000076	-0.756820	-0.256418	-0.006072
1713	8.5600e-01	-11.4558	-34.324626	0.000366	3.656186	1.238749	0.029335
1714	8.5650e-01	-11.4173	-34.301106	0.000059	0.586269	0.198633	0.004704
1715	8.5700e-01	-11.3820	-34.089432	0.000528	5.276421	1.787700	0.042335
1716	8.5750e-01	-11.3291	-34.093708	-0.000011	-0.106594	-0.036115	-0.000855
1717	8.5800e-01	-11.3002	-33.831146	0.000654	6.544893	2.217470	0.052512
1718	8.5850e-01	-11.2457	-33.999203	-0.000419	-4.189158	-1.419325	-0.033611
1719	8.5900e-01	-11.2473	-33.630162	-0.000920	-9.199093	-3.116737	0.073808
1720	8.5950e-01	-11.1895	-33.775555	-0.000362	-3.624208	-1.227915	-0.029079
1721	8.6000e-01	-11.1558	-33.460395	0.000786	7.856004	2.661686	0.063032
1722	8.6050e-01	-11.1077	-33.475362	-0.000037	-0.373080	-0.126403	-0.002993
1723	8.6100e-01	-11.0484	-33.401383	0.000184	1.844082	0.624792	0.014796
1724	8.6150e-01	-11.0195	-33.335101	0.000165	1.652212	0.559785	0.013256
1725	8.6200e-01	-10.9858	-33.272667	0.000156	1.556278	0.527281	0.012487
1726	8.6250e-01	-10.9377	-33.193984	0.000196	1.961336	0.664519	0.015737
1727	8.6300e-01	-10.9152	-32.969053	0.000561	5.606863	1.899657	0.044986
1728	8.6350e-01	-10.8639	-32.958363	0.000027	0.266486	0.090288	0.002138
1729	8.6400e-01	-10.8302	-32.791589	0.000416	4.157180	1.408491	0.033355
1730	8.6450e-01	-10.7724	-32.907048	-0.000288	-2.878048	-0.975109	-0.023092
1731	8.6500e-01	-10.7211	-32.796293	0.000276	2.760794	0.935382	0.022151
1732	8.6550e-01	-10.6970	-32.502942	0.000731	7.312373	2.477499	0.058670
1733	8.6600e-01	-10.6521	-32.512777	-0.000025	-0.245167	-0.083065	-0.001967
1734	8.6650e-01	-10.6120	-32.443502	0.000173	1.726829	0.585065	0.013855
1735	8.6700e-01	-10.5703	-32.319491	0.000309	3.091236	1.047339	0.024802
1736	8.6750e-01	-10.5350	-32.263472	0.000140	1.396386	0.473108	0.011204
1737	8.6800e-01	-10.5125	-32.030844	0.000580	5.798733	1.964664	0.046526
1738	8.6850e-01	-10.4612	-32.142881	-0.000279	-2.792772	-0.946217	-0.022408
1739	8.6900e-01	-10.3986	-32.188210	-0.000113	-1.129900	-0.382821	-0.009066
1740	8.6950e-01	-10.3810	-31.902128	0.000713	7.131162	2.416103	0.057216
1741	8.7000e-01	-10.3264	-31.741769	0.000400	3.997288	1.354318	0.032072
1742	8.7050e-01	-10.3040	-31.613909	0.000319	3.187171	1.079843	0.025572
1743	8.7100e-01	-10.2607	-31.689599	-0.000189	-1.886720	-0.639238	-0.015138
1744	8.7150e-01	-10.2334	-31.452694	0.000591	5.905327	2.000779	0.047381
1745	8.7200e-01	-10.1901	-31.434734	0.000045	0.447696	0.151684	0.003592
1746	8.7250e-01	-10.1323	-31.359900	0.000187	1.865401	0.632015	0.014967
1747	8.7300e-01	-10.1002	-31.279078	0.000201	2.014633	0.682576	0.016164
1748	8.7350e-01	-10.0585	-31.177731	0.000253	2.526286	0.855929	0.020269
1749	8.7400e-01	-10.0409	-31.070397	0.000268	2.675518	0.906490	0.021467
1750	8.7450e-01	-9.9687	-30.879676	0.000475	4.754108	1.610735	0.038144
1751	8.7500e-01	-9.9575	-30.832210	0.000118	1.183197	0.400878	0.009493
1752	8.7550e-01	-9.8933	-30.871979	-0.000099	-0.991327	-0.335871	-0.007954
1753	8.7600e-01	-9.8580	-30.514484	0.000891	8.911288	3.019226	0.071499
1754	8.7650e-01	-9.8323	-30.658594	-0.000359	-3.592230	-1.217080	-0.028822
1755	8.7700e-01	-9.7569	-30.561096	0.000243	2.430351	0.823425	0.019500
1756	8.7750e-01	-9.7265	-30.372513	0.000470	4.700811	1.592678	0.037717
1757	8.7800e-01	-9.7008	-30.272448	0.000249	2.494308	0.845094	0.020013
1758	8.7850e-01	-9.6495	-30.309224	-0.000092	-0.916711	-0.310590	-0.007355
1759	8.7900e-01	-9.5965	-30.215574	0.000233	2.334416	0.790922	0.018730
1760	8.7950e-01	-9.5789	-30.098833	0.000291	2.910026	0.985943	0.023348
1761	8.8000e-01	-9.5404	-29.960710	0.000344	3.442998	1.166519	0.027625
1762	8.8050e-01	-9.4698	-29.964131	-0.000009	-0.085275	-0.028892	-0.000684
1763	8.8100e-01	-9.4505	-29.778969	0.000462	4.615536	1.563786	0.037032
1764	8.8150e-01	-9.3976	-29.785811	-0.000017	-0.170551	-0.057784	-0.001368
1765	8.8200e-01	-9.3848	-29.655385	0.000325	3.251128	1.101512	0.026085
1766	8.8250e-01	-9.3366	-29.364172	0.000726	7.259075	2.459441	0.058243
1767	8.8300e-01	-9.2965	-29.415915	-0.000129	-1.289792	-0.436993	-0.010349
1768	8.8350e-01	-9.2725	-29.352199	0.000159	1.588256	0.538116	0.012743
1769	8.8400e-01	-9.2340	-29.143945	0.000519	5.191145	1.758808	0.041651
1770	8.8450e-01	-9.2035	-29.112729	0.000078	0.778139	0.263641	0.006243
1771	8.8500e-01	-9.1425	-28.917304	0.000487	4.871362	1.650462	0.039085
1772	8.8550e-01	-9.0800	-29.098617	-0.000452	-4.519601	-1.531282	-0.036263
1773	8.8600e-01	-9.0463	-29.001974	0.000241	2.409032	0.816202	0.019329
1774	8.8650e-01	-9.0126	-28.836483	0.000413	4.125201	1.397656	0.033098
1775	8.8700e-01	-8.9821	-28.623525	0.000531	5.308399	1.798534	0.042591
1776	8.8750e-01	-8.9404	-28.635071	-0.000029	-0.287805	-0.097511	-0.002309
1777	8.8800e-01	-8.8971	-28.540566	0.000236	2.355735	0.798145	0.018901
1778	8.8850e-01	-8.8730	-28.354121	0.000465	4.647514	1.574620	0.037289
1779	8.8900e-01	-8.8072	-28.375930	-0.000054	-0.543631	-0.184187	-0.004362
1780	8.8950e-01	-8.7832	-28.059915	0.000788	7.877323	2.668909	0.063203
1781	8.9000e-01	-8.7383	-28.083862	-0.000060	-0.596928	-0.202245	-0.004789
1782	8.9050e-01	-8.7142	-27.937187	0.000366	3.656186	1.238749	0.029335
1783	8.9100e-01	-8.6629	-27.826004	0.000277	2.771453	0.938994	0.022237
1784	8.9150e-01	-8.6035	-27.819590	0.000016	0.159892	0.054173	0.001283
1785	8.9200e-01	-8.5698	-27.815314	0.000011	0.106594	0.036115	0.000855
1786	8.9250e-01	-8.5409	-27.600218	0.000536	5.361696	1.816592	0.043019
1787	8.9300e-01	-8.4848	-27.584396	0.000039	0.394399	0.133626	0.003164
1788	8.9350e-01	-8.4559	-27.377853	0.000515	5.148507	1.744361	0.041309
1789	8.9400e-01	-8.4190	-27.365452	0.000031	0.309124	0.104734	0.002480
1790	8.9450e-01	-8.3821	-27.207230	0.000394	3.943991	1.336260	0.031644
1791	8.9500e-01	-8.3372	-27.187560	0.000049	0.490334	0.166130	0.003934
1792	8.9550e-01	-8.3003	-27.021641	0.000414	4.135861	1.401268	0.033184
1793	8.9600e-01	-8.2554	-26.826216	0.000487	4.871362	1.650462	0.039085
1794	8.9650e-01	-8.2121	-26.981444	-0.000387	-3.869375	-1.310980	-0.031046
1795	8.9700e-01	-8.1639	-26.790723	0.000475	4.754108	1.610735	0.038144
1796	8.9750e-01	-8.1447	-26.664574	0.000314	3.144533	1.065397	0.025230
1797	8.9800e-01	-8.1094	-26.541846	0.000306	3.059258	1.036505	0.024546
1798	8.9850e-01	-8.0565	-26.570924	-0.000072	-0.724842	-0.245583	-0.005816
1799	8.9900e-01	-8.0260	-26.333164	0.000593	5.926646	2.008002	0.047552
1800	8.9950e-01	-7.9987	-26.313066	0.000050	0.500993	0.169741	0.004020
1801	9.0000e-01	-7.9313	-26.113793	0.000497	4.967297	1.682966	0.039855
1802	9.0050e-01	-7.8976	-26.178792	-0.000162	-1.620234	-0.548950	-0.013000
1803	9.0100e-01	-7.8672	-25.903401	0.000686	6.864676	2.325815	0.055078
1804	9.0150e-01	-7.8238	-25.968400	-0.000162	-1.620234	-0.548950	-0.013000
1805	9.0200e-01	-7.7613	-25.908105	0.000150	1.502980	0.509224	0.012059
1806	9.0250e-01	-7.7420	-25.697286	0.000526	5.255102	1.780477	0.042164
1807	9.0300e-01	-7.6859	-25.721660	-0.000061	-0.607588	-0.205856	-0.004875
1808	9.0350e-01	-7.6650	-25.667352	0.000135	1.353748	0.458662	0.010862
1809	9.0400e-01	-7.5976	-25.551465	0.000289	2.888707	0.978720	0.023177
1810	9.0450e-01	-7.5736	-25.318410	0.000581	5.809392	1.968275	0.046611
1811	9.0500e-01	-7.5463	-25.277785	0.000101	1.012646	0.343094	0.008125
1812	9.0550e-01	-7.4982	-25.179004	0.000246	2.462330	0.834260	0.019756
1813	9.0600e-01	-7.4501	-24.958777	0.000549	5.489609	1.859930	0.044045
1814	9.0650e-01	-7.4228	-24.901047	0.000144	1.439024	0.487554	0.011546
1815	9.0700e-01	-7.3987	-24.764635	0.000340	3.400360	1.152073	0.027282
1816	9.0750e-01	-7.3378	-24.797134	-0.000081	-0.810117	-0.274475	-0.006500
1817	9.0800e-01	-7.2961	-24.584177	0.000531	5.308399	1.798534	0.042591
1818	9.0850e-01	-7.2816	-24.604703	-0.000051	-0.511653	-0.173353	-0.004105
1819	9.0900e-01	-7.2303	-24.475133	0.000323	3.229809	1.094289	0.025914
1820	9.0950e-01	-7.1629	-24.281418	0.000483	4.828724	1.636016	0.038743
1821	9.1000e-01	-7.1388	-24.199742	0.000204	2.035952	0.689799	0.016335
1822	9.1050e-01	-7.0939	-24.110796	0.000222	2.217163	0.751195	0.017789
1823	9.1100e-01	-7.0522	-24.115500	-0.000012	-0.117254	-0.039727	-0.000941
1824	9.1150e-01	-7.0185	-23.976522	0.000346	3.464316	1.173742	0.027796
1825	9.1200e-01	-6.9784	-23.890569	0.000214	2.142547	0.725914	0.017191
1826	9.1250e-01	-6.9447	-23.915371	-0.000062	-0.618247	-0.209468	-0.004960
1827	9.1300e-01	-6.9014	-23.654092	0.000651	6.512915	2.206635	0.052256
1828	9.1350e-01	-6.8629	-23.696855	-0.000107	-1.065944	-0.361151	-0.008553
1829	9.1400e-01	-6.8228	-23.530936	0.000414	4.135861	1.401268	0.033184
1830	9.1450e-01	-6.7811	-23.462516	0.000171	1.705510	0.577842	0.013684
1831	9.1500e-01	-6.7282	-23.342781	0.000298	2.984642	1.011224	0.023947
1832	9.1550e-01	-6.7041	-23.205941	0.000341	3.411019	1.155685	0.027368
1833	9.1600e-01	-6.6672	-23.083640	0.000305	3.048599	1.032893	0.024460
1834	9.1650e-01	-6.6239	-22.958773	0.000311	3.112555	1.054562	0.024973
1835	9.1700e-01	-6.5854	-22.850157	0.000271	2.707497	0.917325	0.021723
1836	9.1750e-01	-6.5533	-22.824071	0.000065	0.650226	0.220302	0.005217
1837	9.1800e-01	-6.5100	-22.789434	0.000086	0.863414	0.292533	0.006928
1838	9.1850e-01	-6.4618	-22.503352	0.000713	7.131162	2.416103	0.057216
1839	9.1900e-01	-6.4266	-22.544832	-0.000103	-1.033965	-0.350317	-0.008296
1840	9.1950e-01	-6.4009	-22.236514	0.000769	7.685453	2.603902	0.061664
1841	9.2000e-01	-6.3431	-22.492234	-0.000637	-6.374342	-2.159686	-0.051144
1842	9.2050e-01	-6.2902	-22.254902	0.000592	5.915987	2.004391	0.047466
1843	9.2100e-01	-6.2790	-22.115924	0.000346	3.464316	1.173742	0.027796
1844	9.2150e-01	-6.2276	-22.077010	0.000097	0.970009	0.328648	0.007783
1845	9.2200e-01	-6.1827	-21.992768	0.000210	2.099909	0.711468	0.016848
1846	9.2250e-01	-6.1490	-21.796488	0.000489	4.892681	1.657685	0.039256
1847	9.2300e-01	-6.1073	-21.668200	0.000320	3.197831	1.083454	0.025658
1848	9.2350e-01	-6.0672	-21.600635	0.000168	1.684191	0.570619	0.013513
1849	9.2400e-01	-6.0351	-21.544189	0.000141	1.407045	0.476720	0.011289
1850	9.2450e-01	-5.9758	-21.468499	0.000189	1.886720	0.639238	0.015138
1851	9.2500e-01	-5.9260	-21.347909	0.000301	3.005961	1.018447	0.024118
1852	9.2550e-01	-5.8891	-21.208075	0.000349	3.485635	1.180965	0.027967
1853	9.2600e-01	-5.8571	-21.303008	-0.000237	-2.366395	-0.801756	-0.018987
1854	9.2650e-01	-5.8346	-21.112287	0.000475	4.754108	1.610735	0.038144
1855	9.2700e-01	-5.7656	-21.037025	0.000188	1.876061	0.635627	0.015052
1856	9.2750e-01	-5.7159	-20.875811	0.000402	4.018607	1.361541	0.032243
1857	9.2800e-01	-5.6982	-20.740681	0.000337	3.368382	1.141239	0.027026
1858	9.2850e-01	-5.6742	-20.667985	0.000181	1.812104	0.613957	0.014539
1859	9.2900e-01	-5.6405	-20.483251	0.000460	4.604876	1.560174	0.036947
1860	9.2950e-01	-5.5715	-20.458876	0.000061	0.607588	0.205856	0.004875
1861	9.3000e-01	-5.5410	-20.375489	0.000208	2.078590	0.704245	0.016677
1862	9.3050e-01	-5.4897	-20.268583	0.000266	2.664859	0.902879	0.021381
1863	9.3100e-01	-5.4576	-20.167663	0.000252	2.515627	0.852317	0.020184
1864	9.3150e-01	-5.4335	-20.027402	0.000350	3.496295	1.184577	0.028052
1865	9.3200e-01	-5.3902	-20.033389	-0.000015	-0.149232	-0.050561	-0.001197
1866	9.3250e-01	-5.3341	-19.905101	0.000320	3.197831	1.083454	0.025658
1867	9.3300e-01	-5.3020	-19.679743	0.000562	5.617522	1.903268	0.045072
1868	9.3350e-01	-5.2876	-19.534350	0.000362	3.624208	1.227915	0.029079
1869	9.3400e-01	-5.2266	-19.659217	-0.000311	-3.112555	-1.054562	-0.024973
1870	9.3450e-01	-5.1865	-19.447542	0.000528	5.276421	1.787700	0.042335
1871	9.3500e-01	-5.1448	-19.324386	0.000307	3.069917	1.040116	0.024631
1872	9.3550e-01	-5.1015	-19.142218	0.000454	4.540919	1.538505	0.036434
1873	9.3600e-01	-5.0581	-19.105014	0.000093	0.927371	0.314202	0.007441
1874	9.3650e-01	-5.0357	-19.031035	0.000184	1.844082	0.624792	0.014796
1875	9.3700e-01	-4.9844	-18.964753	0.000165	1.652212	0.559785	0.013256
1876	9.3750e-01	-4.9394	-18.788572	0.000439	4.391687	1.487944	0.035236
1877	9.3800e-01	-4.9106	-18.661567	0.000317	3.165852	1.072620	0.025401
1878	9.3850e-01	-4.8592	-18.599134	0.000156	1.556278	0.527281	0.012487
1879	9.3900e-01	-4.8159	-18.455452	0.000358	3.581570	1.213469	0.028736
1880	9.3950e-01	-4.8143	-18.400288	0.000138	1.375067	0.465885	0.011033
1881	9.4000e-01	-4.7485	-18.238218	0.000404	4.039926	1.368764	0.032414
1882	9.4050e-01	-4.7004	-18.339993	-0.000254	-2.536946	-0.859540	-0.020355
1883	9.4100e-01	-4.6667	-18.149700	0.000474	4.743449	1.607124	0.038059
1884	9.4150e-01	-4.6170	-17.980788	0.000421	4.210477	1.426548	0.033782
1885	9.4200e-01	-4.5913	-17.871743	0.000272	2.718156	0.920936	0.021809
1886	9.4250e-01	-4.5368	-17.855066	0.000042	0.415718	0.140849	0.003335
1887	9.4300e-01	-4.5127	-17.756284	0.000246	2.462330	0.834260	0.019756
1888	9.4350e-01	-4.4582	-17.598063	0.000394	3.943991	1.336260	0.031644
1889	9.4400e-01	-4.4116	-17.509972	0.000220	2.195844	0.743972	0.017618
1890	9.4450e-01	-4.3667	-17.276061	0.000583	5.830711	1.975498	0.046782
1891	9.4500e-01	-4.3443	-17.204648	0.000178	1.780126	0.603123	0.014283
1892	9.4550e-01	-4.2945	-17.305995	-0.000253	-2.526286	-0.855929	-0.020269
1893	9.4600e-01	-4.2705	-17.040440	0.000662	6.619509	2.242750	0.053111
1894	9.4650e-01	-4.2111	-17.008368	0.000080	0.799458	0.270864	0.006414
1895	9.4700e-01	-4.1887	-16.907448	0.000252	2.515627	0.852317	0.020184
1896	9.4750e-01	-4.1437	-16.791562	0.000289	2.888707	0.978720	0.023177
1897	9.4800e-01	-4.1229	-16.712023	0.000198	1.982655	0.671742	0.015908
1898	9.4850e-01	-4.0715	-16.558506	0.000383	3.826737	1.296534	0.030703
1899	9.4900e-01	-4.0202	-16.500776	0.000144	1.439024	0.487554	0.011546
1900	9.4950e-01	-3.9769	-16.298510	0.000504	5.041913	1.708246	0.040453
1901	9.5000e-01	-3.9641	-16.141571	0.000391	3.912013	1.325426	0.031388
1902	9.5050e-01	-3.8726	-16.204432	-0.000157	-1.566937	-0.530893	-0.012572
1903	9.5100e-01	-3.8534	-15.894831	0.000772	7.717431	2.614736	0.061920
1904	9.5150e-01	-3.8165	-15.866181	0.000071	0.714182	0.241971	0.005730
1905	9.5200e-01	-3.7844	-15.862760	0.000009	0.085275	0.028892	0.000684
1906	9.5250e-01	-3.7507	-15.736182	0.000316	3.155193	1.069008	0.025315
1907	9.5300e-01	-3.7042	-15.630131	0.000264	2.643540	0.895656	0.021210
1908	9.5350e-01	-3.6897	-15.335925	0.000733	7.333692	2.484722	0.058841
1909	9.5400e-01	-3.6095	-15.567698	-0.000578	-5.777414	-1.957441	-0.046355
1910	9.5450e-01	-3.5935	-15.273920	0.000732	7.323032	2.481110	0.058756
1911	9.5500e-01	-3.5421	-15.151191	0.000306	3.059258	1.036505	0.024546
1912	9.5550e-01	-3.4972	-15.121685	0.000074	0.735501	0.249194	0.005901
1913	9.5600e-01	-3.4491	-15.065666	0.000140	1.396386	0.473108	0.011204
1914	9.5650e-01	-3.4138	-14.874090	0.000478	4.775427	1.617958	0.038315
1915	9.5700e-01	-3.3978	-14.691066	0.000456	4.562238	1.545728	0.036605
1916	9.5750e-01	-3.3304	-14.676099	0.000037	0.373080	0.126403	0.002993
1917	9.5800e-01	-3.3015	-14.547812	0.000320	3.197831	1.083454	0.025658
1918	9.5850e-01	-3.2758	-14.362222	0.000463	4.626195	1.567397	0.037118
1919	9.5900e-01	-3.2149	-14.468701	-0.000265	-2.654199	-0.899267	-0.021296
1920	9.5950e-01	-3.1780	-14.209988	0.000645	6.448958	2.184966	0.051743
1921	9.6000e-01	-3.1411	-14.002162	0.000518	5.180486	1.755196	0.041565
1922	9.6050e-01	-3.0978	-13.992327	0.000025	0.245167	0.083065	0.001967
1923	9.6100e-01	-3.0432	-14.161666	-0.000422	-4.221136	-1.430160	-0.033868
1924	9.6150e-01	-3.0111	-13.843085	0.000794	7.941279	2.690578	0.063716
1925	9.6200e-01	-2.9582	-13.610885	0.000579	5.788073	1.961052	0.046440
1926	9.6250e-01	-2.9181	-13.601049	0.000025	0.245167	0.083065	0.001967
1927	9.6300e-01	-2.9133	-13.445822	0.000387	3.869375	1.310980	0.031046
1928	9.6350e-01	-2.8363	-13.562136	-0.000290	-2.899366	-0.982332	-0.023263
1929	9.6400e-01	-2.8202	-13.387237	0.000436	4.359709	1.477109	0.034980
1930	9.6450e-01	-2.7737	-13.177273	0.000523	5.233783	1.773254	0.041993
1931	9.6500e-01	-2.7352	-13.081057	0.000240	2.398373	0.812591	0.019243
1932	9.6550e-01	-2.7224	-12.950631	0.000325	3.251128	1.101512	0.026085
1933	9.6600e-01	-2.6582	-12.915566	0.000087	0.874074	0.296144	0.007013
1934	9.6650e-01	-2.6197	-12.921981	-0.000016	-0.159892	-0.054173	-0.001283
1935	9.6700e-01	-2.5876	-12.537118	0.000959	9.593492	3.250363	0.076973
1936	9.6750e-01	-2.5395	-12.528993	0.000020	0.202529	0.068619	0.001625
1937	9.6800e-01	-2.5315	-12.400278	0.000321	3.208490	1.087066	0.025743
1938	9.6850e-01	-2.4416	-12.387021	0.000033	0.330442	0.111957	0.002651
1939	9.6900e-01	-2.4208	-12.095809	0.000726	7.259075	2.459441	0.058243
1940	9.6950e-01	-2.3727	-12.157387	-0.000153	-1.534959	-0.520058	-0.012316
1941	9.7000e-01	-2.3310	-11.847786	0.000772	7.717431	2.614736	0.061920
1942	9.7050e-01	-2.3005	-12.063737	-0.000538	-5.383015	-1.823815	-0.043190
1943	9.7100e-01	-2.2668	-11.601474	0.001152	11.522850	3.904047	0.092453
1944	9.7150e-01	-2.2379	-11.614730	-0.000033	-0.330442	-0.111957	-0.002651
1945	9.7200e-01	-2.1737	-11.607033	0.000019	0.191870	0.065007	0.001539
1946	9.7250e-01	-2.1368	-11.410753	0.000489	4.892681	1.657685	0.039256
1947	9.7300e-01	-2.0919	-11.422726	-0.000030	-0.298464	-0.101122	-0.002395
1948	9.7350e-01	-2.0582	-11.167006	0.000637	6.374342	2.159686	0.051144
1949	9.7400e-01	-2.0550	-11.067797	0.000247	2.472989	0.837871	0.019842
1950	9.7450e-01	-1.9860	-11.035298	0.000081	0.810117	0.274475	0.006500
1951	9.7500e-01	-1.9459	-10.897602	0.000343	3.432338	1.162908	0.027539
1952	9.7550e-01	-1.9058	-10.840301	0.000143	1.428364	0.483943	0.011460
1953	9.7600e-01	-1.8737	-10.766749	0.000183	1.833423	0.621180	0.014710
1954	9.7650e-01	-1.8128	-10.701750	0.000162	1.620234	0.548950	0.013000
1955	9.7700e-01	-1.7919	-10.425504	0.000689	6.885995	2.333038	0.055249
1956	9.7750e-01	-1.7502	-10.432346	-0.000017	-0.170551	-0.057784	-0.001368
1957	9.7800e-01	-1.7101	-10.264289	0.000419	4.189158	1.419325	0.033611
1958	9.7850e-01	-1.6604	-10.239060	0.000063	0.628907	0.213079	0.005046
1959	9.7900e-01	-1.6026	-10.195442	0.000109	1.087262	0.368374	0.008724
1960	9.7950e-01	-1.5770	-9.828112	0.000916	9.156455	3.102291	0.073466
1961	9.8000e-01	-1.5353	-9.969228	-0.000352	-3.517614	-1.191800	-0.028223
1962	9.8050e-01	-1.5064	-9.802454	0.000416	4.157180	1.408491	0.033355
1963	9.8100e-01	-1.4647	-9.742587	0.000149	1.492321	0.505612	0.011974
1964	9.8150e-01	-1.4310	-9.554432	0.000469	4.690152	1.589066	0.037631
1965	9.8200e-01	-1.3845	-9.324369	0.000573	5.734776	1.942995	0.046012
1966	9.8250e-01	-1.3572	-9.409039	-0.000211	-2.110568	-0.715080	-0.016934
1967	9.8300e-01	-1.3187	-9.258087	0.000376	3.762781	1.274865	0.030190
1968	9.8350e-01	-1.2561	-9.113122	0.000361	3.613549	1.224303	0.028993
1969	9.8400e-01	-1.2192	-8.919408	0.000483	4.828724	1.636016	0.038743
1970	9.8450e-01	-1.1791	-8.791548	0.000319	3.187171	1.079843	0.025572
1971	9.8500e-01	-1.1599	-8.806515	-0.000037	-0.373080	-0.126403	-0.002993
1972	9.8550e-01	-1.0973	-8.677800	0.000321	3.208490	1.087066	0.025743
1973	9.8600e-01	-1.0636	-8.445599	0.000579	5.788073	1.961052	0.046440
1974	9.8650e-01	-1.0171	-8.410106	0.000088	0.884733	0.299756	0.007099
1975	9.8700e-01	-0.9786	-8.374186	0.000090	0.895393	0.303367	0.007184
1976	9.8750e-01	-0.9481	-8.080835	0.000731	7.312373	2.477499	0.058670
1977	9.8800e-01	-0.9192	-8.166787	-0.000214	-2.142547	-0.725914	-0.017191
1978	9.8850e-01	-0.8775	-7.870443	0.000739	7.386989	2.502780	0.059269
1979	9.8900e-01	-0.8117	-7.941001	-0.000176	-1.758807	-0.595900	-0.014112
1980	9.8950e-01	-0.7797	-7.800740	0.000350	3.496295	1.184577	0.028052
1981	9.9000e-01	-0.7315	-7.690841	0.000274	2.739475	0.928159	0.021980
1982	9.9050e-01	-0.7171	-7.570250	0.000301	3.005961	1.018447	0.024118
1983	9.9100e-01	-0.6609	-7.531764	0.000096	0.959349	0.325036	0.007697
1984	9.9150e-01	-0.6401	-7.389365	0.000355	3.549592	1.202634	0.028480
1985	9.9200e-01	-0.5791	-7.251669	0.000343	3.432338	1.162908	0.027539
1986	9.9250e-01	-0.5390	-7.160158	0.000228	2.281119	0.772864	0.018302
1987	9.9300e-01	-0.5069	-6.958746	0.000502	5.020594	1.701023	0.040282
1988	9.9350e-01	-0.4572	-6.979700	-0.000052	-0.522312	-0.176964	-0.004191
1989	9.9400e-01	-0.4187	-6.771874	0.000518	5.180486	1.755196	0.041565
1990	9.9450e-01	-0.3866	-6.530693	0.000601	6.011922	2.036894	0.048236
1991	9.9500e-01	-0.3481	-6.501615	0.000072	0.724842	0.245583	0.005816
1992	9.9550e-01	-0.3112	-6.606383	-0.000261	-2.611562	-0.884821	-0.020954
1993	9.9600e-01	-0.2551	-6.431912	0.000435	4.349050	1.473498	0.034894
1994	9.9650e-01	-0.2262	-6.062016	0.000922	9.220412	3.123960	0.073979
1995	9.9700e-01	-0.2102	-6.217244	-0.000387	-3.869375	-1.310980	-0.031046
1996	9.9750e-01	-0.1492	-6.001293	0.000538	5.383015	1.823815	0.043190
1997	9.9800e-01	-0.1075	-5.934156	0.000167	1.673531	0.567008	0.013427
1998	9.9850e-01	-0.0610	-5.841789	0.000230	2.302438	0.780087	0.018473
1999	9.9900e-01	-0.0096	-5.796033	0.000114	1.140560	0.386432	0.009151
2000	9.9950e-01	0.0080	-5.554852	0.000601	6.011922	2.036894	0.048236
2001	1.0000e+00	0.0561	-5.321797	0.000601	6.011922	2.036894	0.046611

PMax (uC/cm2):	5.29e+01
Pr (uC/cm2):	1.73e+00
-Pr (uC/cm2):	-2.63e+00
PLoss (uC/cm2):	-2.61e+00
-Vc:	-6.60e-01
C (Max-Eff) (nF):	2.64e-01
K (Eff):	8.96e+02
Vert. (+/-Pr) Shift (uC/cm2):	-4.49e-01
Offset (uC/cm2):	2.70e+00

A (Loop Area - uC/cm2·Volts):	-3.08e-01



Hysteresis Version: 5.48.1 - Radiant Technologies, Inc., 1999 - 9/12/24

