»»»»»»»»»»»»»»»»»»»»»»»»»»»»»»»»»»»» Hysteresis ««««««««««««««««««««««««««««««««««««
»»»  Executed Version:	5.48.1
»»»  Vision Version:	5.48.4 (R)
»»»  Vision Compiled:	9/18/24
»»»  Driver Version:	5.47.0
»»»  Windows Version:	Windows 8 or 8.1
»»»  Processor Information:	x86 (AMD or Intel) - 32 Processors
»»»  Tester Name:	PMF21124-494 (100V)
»»»  Tester S/N:	PMF21124-494
»»»  Internal Amp Type:	100V RevK 270k
»»»  Internal Amp S/N:	iAB2-596/K     
»»»  Execution Count:	1
»»»»»»»»»»»»»»»»»»»»»»»»»»»»»»»»»»»»»»»»»»««««««««««««««««««««««««««««««««««««««««««

Stored:	6/19/2025 - 10:28:15
Configured:	06/19/25 10:04:32 AM
Executed:	06/19/25 10:27:47 AM

»»»»»»»»»»»»»»»»»»»»»»»»»»»»»»»»»»» Sample Info ««««««««««««««««««««««««««««««««««««
Sample Name:	
Lot Name:	
Wafer Name:	
Die Row/Column:	0/0
Capacitor Number:	0
Sample Area (cm2):	1.00e-04
Sample Thickness (microns):	3.00e-01

Amplifier:	Internal

»»»»»»»»»»»»»»»»»»»»»»»»»»»»»»»»»»» Tester Info «««««««««««««««««««««««««««««««««««
Tester Name:	PMF21124-494 (100V)
Tester Serial Number:	PMF21124-494
Return Signal Amp. Level:	1.79 [Index: 2]

»»»»»»»»»»»»»»»»»»»»»»»»»»»»»»»» Hysteresis Info ««««««««««««««««««««««««««««««««««
Task Name:	Hyst-1168
Volts:	20.00
Field:	666.67 (kV/cm)
DCBias:	0.00
DCField:	0.00 (kV/cm)
Hysteresis Period (ms):	1.00e+00
Preset:	Enabled
Preset Delay (ms):	1.00e+03
Profile:	Standard Bipolar

»»»»»»»»»»»»»»»»»»»»»»»»»»»»»»»»»»»»»» Data «««««««««««««««««««««««««««««««««««««««
Points:	2001

Valid Data

Point	Time (ms)	Drive Voltage	Measured Polarization (uC/cm2)	Capacitance (uF)	Normalized Capacitance (uF/cm2)	Dielectric Constant	Instantaneous Current (mA)
   1	0.0000e+00	0.0369	-2.099212	0.000556	5.560727	1.884025	0.044730
   2	5.0000e-04	0.0578	-1.875564	0.000556	5.560727	1.884025	0.044730
   3	1.0000e-03	0.1043	-1.954675	-0.000197	-1.966988	-0.666433	-0.015822
   4	1.5000e-03	0.1652	-1.935432	0.000048	0.478456	0.162105	0.003849
   5	2.0000e-03	0.1957	-1.605733	0.000820	8.197554	2.777407	0.065940
   6	2.5000e-03	0.2438	-1.744711	-0.000346	-3.455519	-1.170762	-0.027796
   7	3.0000e-03	0.2839	-1.449222	0.000735	7.346965	2.489219	0.059098
   8	3.5000e-03	0.3257	-1.637377	-0.000468	-4.678241	-1.585031	-0.037631
   9	4.0000e-03	0.3465	-1.371822	0.000660	6.602699	2.237055	0.053111
  10	4.5000e-03	0.3770	-1.139194	0.000578	5.784007	1.959675	0.046526
  11	5.0000e-03	0.4155	-1.059655	0.000198	1.977620	0.670036	0.015908
  12	5.5000e-03	0.4604	-1.163568	-0.000258	-2.583665	-0.875369	-0.020783
  13	6.0000e-03	0.5166	-1.046399	0.000291	2.913268	0.987042	0.023434
  14	6.5000e-03	0.5567	-0.869362	0.000440	4.401800	1.491370	0.035407
  15	7.0000e-03	0.6000	-0.923671	-0.000135	-1.350310	-0.457498	-0.010862
  16	7.5000e-03	0.6273	-0.779989	0.000357	3.572475	1.210387	0.028736
  17	8.0000e-03	0.6593	-0.559334	0.000549	5.486301	1.858809	0.044131
  18	8.5000e-03	0.7155	-0.446868	0.000280	2.796312	0.947416	0.022493
  19	9.0000e-03	0.7620	-0.612359	-0.000411	-4.114726	-1.394107	-0.033098
  20	9.5000e-03	0.7925	-0.255720	0.000887	8.867393	3.004354	0.071328
  21	1.0000e-02	0.8422	-0.385718	-0.000323	-3.232239	-1.095112	-0.026000
  22	1.0500e-02	0.8791	-0.186872	0.000494	4.944050	1.675090	0.039769
  23	1.1000e-02	0.8968	-0.069703	0.000291	2.913268	0.987042	0.023434
  24	1.1500e-02	0.9289	0.117169	0.000465	4.646344	1.574224	0.037374
  25	1.2000e-02	0.9834	0.047466	-0.000173	-1.733076	-0.587182	-0.013941
  26	1.2500e-02	1.0315	0.238615	0.000475	4.752668	1.610247	0.038230
  27	1.3000e-02	1.0604	0.268121	0.000073	0.733633	0.248562	0.005901
  28	1.3500e-02	1.1085	0.493480	0.000560	5.603257	1.898435	0.045072
  29	1.4000e-02	1.1486	0.511867	0.000046	0.457192	0.154901	0.003678
  30	1.4500e-02	1.1903	0.524696	0.000032	0.318971	0.108070	0.002566
  31	1.5000e-02	1.2369	0.667523	0.000355	3.551210	1.203183	0.028565
  32	1.5500e-02	1.2657	0.669234	0.000004	0.042529	0.014409	0.000342
  33	1.6000e-02	1.3139	0.889033	0.000547	5.465036	1.851604	0.043960
  34	1.6500e-02	1.3427	1.045971	0.000390	3.902078	1.322060	0.031388
  35	1.7000e-02	1.3909	0.880480	-0.000411	-4.114726	-1.394107	-0.033098
  36	1.7500e-02	1.4214	1.291001	0.001021	10.207071	3.458249	0.082104
  37	1.8000e-02	1.4679	1.216594	-0.000185	-1.850032	-0.626808	-0.014881
  38	1.8500e-02	1.4935	1.332908	0.000289	2.892004	0.979837	0.023263
  39	1.9000e-02	1.5288	1.612147	0.000694	6.942935	2.352330	0.055848
  40	1.9500e-02	1.5818	1.532181	-0.000199	-1.988252	-0.673638	-0.015993
  41	2.0000e-02	1.6251	1.595470	0.000157	1.573590	0.533147	0.012658
  42	2.0500e-02	1.6427	1.647213	0.000129	1.286516	0.435884	0.010349
  43	2.1000e-02	1.7005	1.881124	0.000582	5.815904	1.970482	0.046782
  44	2.1500e-02	1.7631	1.806289	-0.000186	-1.860664	-0.630410	-0.014967
  45	2.2000e-02	1.7919	2.060299	0.000632	6.315625	2.139792	0.050802
  46	2.2500e-02	1.8529	2.127436	0.000167	1.669281	0.565568	0.013427
  47	2.3000e-02	1.8529	2.349373	-0.000552	-5.518198	-1.869616	0.044388
  48	2.3500e-02	1.9074	2.275394	-0.000184	-1.839399	-0.623205	-0.014796
  49	2.4000e-02	1.9443	2.472957	0.000491	4.912153	1.664283	0.039513
  50	2.4500e-02	1.9925	2.515719	0.000106	1.063237	0.360234	0.008553
  51	2.5000e-02	2.0438	2.479371	-0.000090	-0.903751	-0.306199	-0.007270
  52	2.5500e-02	2.0727	2.756045	0.000688	6.879141	2.330716	0.055335
  53	2.6000e-02	2.1192	2.688908	-0.000167	-1.669281	-0.565568	-0.013427
  54	2.6500e-02	2.1673	2.698315	0.000023	0.233912	0.079252	0.001882
  55	2.7000e-02	2.1978	2.918115	0.000547	5.465036	1.851604	0.043960
  56	2.7500e-02	2.2395	3.031436	0.000282	2.817577	0.954621	0.022664
  57	2.8000e-02	2.2620	3.307254	0.000686	6.857876	2.323511	0.055164
  58	2.8500e-02	2.3101	3.226005	-0.000202	-2.020150	-0.684445	-0.016250
  59	2.9000e-02	2.3550	3.231137	0.000013	0.127588	0.043228	0.001026
  60	2.9500e-02	2.3919	3.505672	0.000683	6.825979	2.312704	0.054907
  61	3.0000e-02	2.4208	3.552711	0.000117	1.169560	0.396258	0.009408
  62	3.0500e-02	2.4705	3.845634	0.000728	7.283171	2.467605	0.058585
  63	3.1000e-02	2.4962	3.798168	-0.000118	-1.180193	-0.399860	-0.009493
  64	3.1500e-02	2.5331	3.879416	0.000202	2.020150	0.684445	0.016250
  65	3.2000e-02	2.5973	3.963659	0.000209	2.094576	0.709662	0.016848
  66	3.2500e-02	2.6374	4.049611	0.000214	2.137106	0.724071	0.017191
  67	3.3000e-02	2.6759	4.057736	0.000020	0.202015	0.068445	0.001625
  68	3.3500e-02	2.7368	4.179609	0.000303	3.030224	1.026668	0.024375
  69	3.4000e-02	2.7368	4.302338	-0.000305	-3.051489	-1.033872	0.024546
  70	3.4500e-02	2.8218	4.406678	0.000259	2.594297	0.878972	0.020868
  71	3.5000e-02	2.8331	4.472533	0.000164	1.637384	0.554761	0.013171
  72	3.5500e-02	2.8603	4.626478	0.000383	3.827652	1.296844	0.030789
  73	3.6000e-02	2.9149	4.688056	0.000153	1.531061	0.518737	0.012316
  74	3.6500e-02	2.9293	4.897165	0.000520	5.199227	1.761546	0.041822
  75	3.7000e-02	2.9919	4.724832	-0.000428	-4.284844	-1.451744	-0.034467
  76	3.7500e-02	3.0192	4.922395	0.000491	4.912153	1.664283	0.039513
  77	3.8000e-02	3.0785	5.013479	0.000226	2.264694	0.767299	0.018217
  78	3.8500e-02	3.1266	5.179825	0.000414	4.135990	1.401311	0.033269
  79	3.9000e-02	3.1539	5.366270	0.000464	4.635712	1.570622	0.037289
  80	3.9500e-02	3.1828	5.510379	0.000358	3.583107	1.213990	0.028822
  81	4.0000e-02	3.2085	5.630970	0.000300	2.998327	1.015861	0.024118
  82	4.0500e-02	3.2518	5.731889	0.000251	2.509238	0.850153	0.020184
  83	4.1000e-02	3.3111	5.797743	0.000164	1.637384	0.554761	0.013171
  84	4.1500e-02	3.3496	5.799026	0.000003	0.031897	0.010807	0.000257
  85	4.2000e-02	3.3769	5.892249	0.000232	2.317856	0.785311	0.018644
  86	4.2500e-02	3.4154	6.114186	0.000552	5.518198	1.869616	0.044388
  87	4.3000e-02	3.4587	5.904650	-0.000521	-5.209859	-1.765148	-0.041907
  88	4.3500e-02	3.5052	6.320302	0.001033	10.334660	3.501478	0.083130
  89	4.4000e-02	3.5694	6.352801	0.000081	0.808060	0.273778	0.006500
  90	4.4500e-02	3.5871	6.294644	-0.000145	-1.446002	-0.489919	-0.011631
  91	4.5000e-02	3.6175	6.694901	0.000995	9.951895	3.371793	0.080051
  92	4.5500e-02	3.6737	6.587140	-0.000268	-2.679356	-0.907790	-0.021552
  93	4.6000e-02	3.7090	6.578160	-0.000022	-0.223280	-0.075649	-0.001796
  94	4.6500e-02	3.7459	6.830459	0.000627	6.273096	2.125382	0.050460
  95	4.7000e-02	3.7748	6.806939	-0.000058	-0.584780	-0.198129	-0.004704
  96	4.7500e-02	3.8149	7.139632	0.000827	8.271981	2.802623	0.066538
  97	4.8000e-02	3.8710	7.165289	0.000064	0.637942	0.216141	0.005132
  98	4.8500e-02	3.9047	7.172131	0.000017	0.170118	0.057637	0.001368
  99	4.9000e-02	3.9400	7.392786	0.000549	5.486301	1.858809	0.044131
 100	4.9500e-02	3.9913	7.413312	0.000051	0.510354	0.172912	0.004105
 101	5.0000e-02	4.0346	7.436831	0.000058	0.584780	0.198129	0.004704
 102	5.0500e-02	4.0780	7.493705	0.000141	1.414105	0.479112	0.011375
 103	5.1000e-02	4.1084	7.656203	0.000404	4.040299	1.368890	0.032500
 104	5.1500e-02	4.1469	7.729754	0.000183	1.828767	0.619603	0.014710
 105	5.2000e-02	4.1903	8.008566	0.000693	6.932303	2.348728	0.055762
 106	5.2500e-02	4.2304	7.947416	-0.000152	-1.520428	-0.515135	-0.012230
 107	5.3000e-02	4.2608	8.027809	0.000200	1.998885	0.677241	0.016079
 108	5.3500e-02	4.2881	8.223662	0.000487	4.869624	1.649873	0.039170
 109	5.4000e-02	4.3523	8.291654	0.000169	1.690546	0.572773	0.013598
 110	5.4500e-02	4.3812	8.360074	0.000170	1.701179	0.576375	0.013684
 111	5.5000e-02	4.4293	8.338693	-0.000053	-0.531618	-0.180117	-0.004276
 112	5.5500e-02	4.4774	8.698753	0.000895	8.952452	3.033173	0.072012
 113	5.6000e-02	4.5063	8.703885	0.000013	0.127588	0.043228	0.001026
 114	5.6500e-02	4.5416	8.791120	0.000217	2.169003	0.734878	0.017447
 115	5.7000e-02	4.5849	8.836876	0.000114	1.137663	0.385451	0.009151
 116	5.7500e-02	4.6298	9.008354	0.000426	4.263579	1.444540	0.034296
 117	5.8000e-02	4.6539	8.932664	-0.000188	-1.881929	-0.637615	-0.015138
 118	5.8500e-02	4.7004	9.129800	0.000490	4.901521	1.660680	0.039427
 119	5.9000e-02	4.7533	9.215752	0.000214	2.137106	0.724071	0.017191
 120	5.9500e-02	4.7967	9.287166	0.000178	1.775605	0.601591	0.014283
 121	6.0000e-02	4.8271	9.544596	0.000640	6.400684	2.168611	0.051486
 122	6.0500e-02	4.8576	9.570254	0.000064	0.637942	0.216141	0.005132
 123	6.1000e-02	4.8929	9.713936	0.000357	3.572475	1.210387	0.028736
 124	6.1500e-02	4.9555	9.697686	-0.000040	-0.404030	-0.136889	-0.003250
 125	6.2000e-02	4.9844	9.856763	0.000396	3.955240	1.340072	0.031815
 126	6.2500e-02	5.0485	10.085970	0.000570	5.698948	1.930856	0.045841
 127	6.3000e-02	5.0854	10.050049	-0.000089	-0.893119	-0.302597	-0.007184
 128	6.3500e-02	5.1079	10.036793	-0.000033	-0.329603	-0.111673	-0.002651
 129	6.4000e-02	5.1448	10.161232	0.000309	3.094019	1.048282	0.024888
 130	6.4500e-02	5.1865	10.349387	0.000468	4.678241	1.585031	0.037631
 131	6.5000e-02	5.2330	10.578166	0.000569	5.688316	1.927254	0.045756
 132	6.5500e-02	5.2523	10.641455	0.000157	1.573590	0.533147	0.012658
 133	6.6000e-02	5.3244	10.600831	-0.000101	-1.010075	-0.342223	-0.008125
 134	6.6500e-02	5.3373	10.735105	0.000334	3.338563	1.131136	0.026855
 135	6.7000e-02	5.4095	10.753493	0.000046	0.457192	0.154901	0.003678
 136	6.7500e-02	5.4303	10.885629	0.000329	3.285401	1.113124	0.026427
 137	6.8000e-02	5.4833	10.973720	0.000219	2.190267	0.742083	0.017618
 138	6.8500e-02	5.5009	11.088323	0.000285	2.849474	0.965428	0.022921
 139	6.9000e-02	5.5539	11.271775	0.000456	4.561285	1.545405	0.036690
 140	6.9500e-02	5.5891	11.508679	0.000589	5.890331	1.995698	0.047381
 141	7.0000e-02	5.6389	11.356872	-0.000377	-3.774490	-1.278832	-0.030361
 142	7.0500e-02	5.6966	11.494567	0.000342	3.423622	1.159954	0.027539
 143	7.1000e-02	5.7223	11.619006	0.000309	3.094019	1.048282	0.024888
 144	7.1500e-02	5.7496	11.827687	0.000519	5.188595	1.757943	0.041736
 145	7.2000e-02	5.8009	11.814431	-0.000033	-0.329603	-0.111673	-0.002651
 146	7.2500e-02	5.8121	12.012422	0.000492	4.922785	1.667885	0.039598
 147	7.3000e-02	5.8683	12.124459	0.000279	2.785680	0.943814	0.022408
 148	7.3500e-02	5.9036	12.201432	0.000191	1.913826	0.648422	0.015395
 149	7.4000e-02	5.9469	12.345969	0.000359	3.593740	1.217592	0.028907
 150	7.4500e-02	5.9934	12.271563	-0.000185	-1.850032	-0.626808	-0.014881
 151	7.5000e-02	6.0287	12.482809	0.000525	5.252389	1.779558	0.042249
 152	7.5500e-02	6.0752	12.449882	-0.000082	-0.818692	-0.277380	-0.006585
 153	7.6000e-02	6.1218	12.585012	0.000336	3.359828	1.138340	0.027026
 154	7.6500e-02	6.1522	12.871948	0.000713	7.134318	2.417172	0.057387
 155	7.7000e-02	6.1875	12.950631	0.000196	1.956355	0.662831	0.015737
 156	7.7500e-02	6.2485	12.849712	-0.000251	-2.509238	-0.850153	-0.020184
 157	7.8000e-02	6.2565	13.034874	0.000460	4.603815	1.559815	0.037032
 158	7.8500e-02	6.3143	13.270923	0.000587	5.869066	1.988493	0.047210
 159	7.9000e-02	6.3512	13.131945	-0.000346	-3.455519	-1.170762	-0.027796
 160	7.9500e-02	6.3720	13.543320	0.001023	10.228336	3.465454	0.082275
 161	8.0000e-02	6.4394	13.402204	-0.000351	-3.508681	-1.188773	-0.028223
 162	8.0500e-02	6.4747	13.494571	0.000230	2.296591	0.778106	0.018473
 163	8.1000e-02	6.4843	13.912361	0.001039	10.387822	3.519489	0.083558
 164	8.1500e-02	6.5340	13.749863	-0.000404	-4.040299	-1.368890	-0.032500
 165	8.2000e-02	6.5998	13.957689	0.000517	5.167330	1.750739	0.041565
 166	8.2500e-02	6.6511	13.829401	-0.000319	-3.189710	-1.080703	-0.025658
 167	8.3000e-02	6.6768	14.044925	0.000536	5.358713	1.815581	0.043105
 168	8.3500e-02	6.6929	14.191172	0.000364	3.636269	1.232001	0.029250
 169	8.4000e-02	6.7426	14.272849	0.000203	2.030782	0.688048	0.016335
 170	8.4500e-02	6.7875	14.312618	0.000099	0.988810	0.335018	0.007954
 171	8.5000e-02	6.8324	14.405413	0.000231	2.307223	0.781708	0.018559
 172	8.5500e-02	6.8629	14.610245	0.000509	5.092903	1.725522	0.040967
 173	8.6000e-02	6.9158	14.654291	0.000110	1.095134	0.371041	0.008809
 174	8.6500e-02	6.9463	14.776164	0.000303	3.030224	1.026668	0.024375
 175	8.7000e-02	6.9800	14.994253	0.000542	5.422507	1.837195	0.043618
 176	8.7500e-02	7.0185	14.946359	-0.000119	-1.190825	-0.403462	-0.009579
 177	8.8000e-02	7.0747	15.009647	0.000157	1.573590	0.533147	0.012658
 178	8.8500e-02	7.0955	15.139218	0.000322	3.221607	1.091510	0.025914
 179	8.9000e-02	7.1501	15.297439	0.000393	3.933975	1.332867	0.031644
 180	8.9500e-02	7.1789	15.471482	0.000433	4.327373	1.466154	0.034809
 181	9.0000e-02	7.2319	15.339346	-0.000329	-3.285401	-1.113124	-0.026427
 182	9.0500e-02	7.2768	15.535626	0.000488	4.880256	1.653476	0.039256
 183	9.1000e-02	7.3313	15.586086	0.000125	1.254619	0.425076	0.010092
 184	9.1500e-02	7.3522	15.696413	0.000274	2.743150	0.929405	0.022065
 185	9.2000e-02	7.3763	15.842661	0.000364	3.636269	1.232001	0.029250
 186	9.2500e-02	7.4372	16.007297	0.000409	4.093461	1.386902	0.032927
 187	9.3000e-02	7.4677	16.092394	0.000212	2.115841	0.716866	0.017019
 188	9.3500e-02	7.4982	16.267293	0.000435	4.348638	1.473358	0.034980
 189	9.4000e-02	7.5591	16.312621	0.000113	1.127031	0.381848	0.009066
 190	9.4500e-02	7.5816	16.234794	-0.000194	-1.935091	-0.655626	-0.015566
 191	9.5000e-02	7.6233	16.320319	0.000213	2.126473	0.720469	0.017105
 192	9.5500e-02	7.6730	16.637617	0.000789	7.889216	2.672939	0.063460
 193	9.6000e-02	7.7019	16.721431	0.000208	2.083944	0.706059	0.016763
 194	9.6500e-02	7.7500	16.809950	0.000220	2.200900	0.745685	0.017704
 195	9.7000e-02	7.7966	17.054551	0.000608	6.081713	2.060540	0.048920
 196	9.7500e-02	7.8238	17.061821	0.000018	0.180750	0.061240	0.001454
 197	9.8000e-02	7.8720	17.119978	0.000145	1.446002	0.489919	0.011631
 198	9.8500e-02	7.8944	17.159319	0.000098	0.978178	0.331416	0.007868
 199	9.9000e-02	7.9634	17.268791	0.000272	2.721886	0.922200	0.021894
 200	9.9500e-02	7.9923	17.366718	0.000243	2.434812	0.824937	0.019585
 201	1.0000e-01	8.0308	17.465927	0.000247	2.466709	0.835744	0.019842
 202	1.0050e-01	8.0677	17.565563	0.000248	2.477341	0.839346	0.019927
 203	1.0100e-01	8.1078	17.672042	0.000265	2.647459	0.896983	0.021296
 204	1.0150e-01	8.1543	17.928190	0.000637	6.368787	2.157804	0.051230
 205	1.0200e-01	8.1976	17.917499	-0.000027	-0.265809	-0.090059	-0.002138
 206	1.0250e-01	8.2442	17.896973	-0.000051	-0.510354	-0.172912	-0.004105
 207	1.0300e-01	8.2698	18.229665	0.000827	8.271981	2.802623	0.066538
 208	1.0350e-01	8.2987	18.286112	0.000140	1.403472	0.475509	0.011289
 209	1.0400e-01	8.3388	18.481537	0.000486	4.858991	1.646271	0.039085
 210	1.0450e-01	8.3998	18.444761	-0.000091	-0.914383	-0.309802	-0.007355
 211	1.0500e-01	8.4158	18.533707	0.000221	2.211532	0.749287	0.017789
 212	1.0550e-01	8.4720	18.696205	0.000404	4.040299	1.368890	0.032500
 213	1.0600e-01	8.5056	18.823637	0.000317	3.168445	1.073498	0.025486
 214	1.0650e-01	8.5506	18.853998	0.000075	0.754898	0.255766	0.006072
 215	1.0700e-01	8.5810	18.859557	0.000014	0.138221	0.046830	0.001112
 216	1.0750e-01	8.6308	19.009226	0.000372	3.721328	1.260820	0.029934
 217	1.0800e-01	8.6580	19.164027	0.000385	3.848917	1.304048	0.030960
 218	1.0850e-01	8.7078	19.335504	0.000426	4.263579	1.444540	0.034296
 219	1.0900e-01	8.7399	19.348333	0.000032	0.318971	0.108070	0.002566
 220	1.0950e-01	8.7912	19.420174	0.000179	1.786238	0.605194	0.014368
 221	1.1000e-01	8.8249	19.581389	0.000401	4.008402	1.358083	0.032243
 222	1.1050e-01	8.8602	19.707966	0.000315	3.147180	1.066294	0.025315
 223	1.1100e-01	8.9083	19.774676	0.000166	1.658649	0.561966	0.013342
 224	1.1150e-01	8.9645	19.805465	0.000077	0.765530	0.259369	0.006158
 225	1.1200e-01	8.9693	20.074013	0.000668	6.677126	2.262271	0.053710
 226	1.1250e-01	9.0318	20.055625	-0.000046	-0.457192	-0.154901	-0.003678
 227	1.1300e-01	9.0463	20.104802	0.000122	1.222722	0.414269	0.009835
 228	1.1350e-01	9.1201	20.267728	0.000405	4.050931	1.372493	0.032585
 229	1.1400e-01	9.1441	20.492658	0.000559	5.592625	1.894832	0.044986
 230	1.1450e-01	9.1842	20.557230	0.000161	1.605487	0.543954	0.012914
 231	1.1500e-01	9.2324	20.573907	0.000041	0.414662	0.140491	0.003335
 232	1.1550e-01	9.2725	20.787292	0.000531	5.305551	1.797569	0.042677
 233	1.1600e-01	9.3190	20.700057	-0.000217	-2.169003	-0.734878	-0.017447
 234	1.1650e-01	9.3463	20.936106	0.000587	5.869066	1.988493	0.047210
 235	1.1700e-01	9.3960	21.134952	0.000494	4.944050	1.675090	0.039769
 236	1.1750e-01	9.4217	21.246562	0.000278	2.775048	0.940212	0.022322
 237	1.1800e-01	9.4794	21.140083	-0.000265	-2.647459	-0.896983	-0.021296
 238	1.1850e-01	9.5003	21.311133	0.000425	4.252946	1.440937	0.034210
 239	1.1900e-01	9.5628	21.355606	0.000111	1.105766	0.374644	0.008895
 240	1.1950e-01	9.5933	21.348764	-0.000017	-0.170118	-0.057637	-0.001368
 241	1.2000e-01	9.6463	21.565143	0.000538	5.379977	1.822786	0.043276
 242	1.2050e-01	9.6687	21.649812	0.000211	2.105208	0.713264	0.016934
 243	1.2100e-01	9.7040	21.831126	0.000451	4.508123	1.527393	0.036263
 244	1.2150e-01	9.7441	21.872178	0.000102	1.020707	0.345825	0.008210
 245	1.2200e-01	9.7842	22.149279	0.000689	6.889773	2.334318	0.055420
 246	1.2250e-01	9.8339	22.185199	0.000089	0.893119	0.302597	0.007184
 247	1.2300e-01	9.8741	22.248060	0.000156	1.562958	0.529544	0.012572
 248	1.2350e-01	9.9077	22.570917	0.000803	8.027436	2.719769	0.064571
 249	1.2400e-01	9.9446	22.392598	-0.000443	-4.433697	-1.502177	-0.035664
 250	1.2450e-01	9.9928	22.522596	0.000323	3.232239	1.095112	0.026000
 251	1.2500e-01	10.0441	22.612397	0.000223	2.232797	0.756492	0.017960
 252	1.2550e-01	10.0650	22.635489	0.000057	0.574148	0.194527	0.004618
 253	1.2600e-01	10.1051	22.999825	0.000906	9.058776	3.069196	0.072867
 254	1.2650e-01	10.1500	22.924136	-0.000188	-1.881929	-0.637615	-0.015138
 255	1.2700e-01	10.2045	22.934399	0.000026	0.255177	0.086456	0.002053
 256	1.2750e-01	10.2334	23.066963	0.000330	3.296033	1.116726	0.026513
 257	1.2800e-01	10.2671	23.331663	0.000658	6.581435	2.229850	0.052940
 258	1.2850e-01	10.3136	23.261104	-0.000175	-1.754340	-0.594387	-0.014112
 259	1.2900e-01	10.3633	23.611330	0.000871	8.707908	2.950319	0.070045
 260	1.2950e-01	10.3922	23.410346	-0.000500	-4.997212	-1.693101	-0.040197
 261	1.3000e-01	10.4227	23.616461	0.000512	5.124800	1.736329	0.041223
 262	1.3050e-01	10.4692	23.776821	0.000399	3.987137	1.350879	0.032072
 263	1.3100e-01	10.5141	23.849089	0.000180	1.796870	0.608796	0.014454
 264	1.3150e-01	10.5334	24.158690	0.000770	7.697833	2.608096	0.061920
 265	1.3200e-01	10.5767	24.115500	-0.000107	-1.073869	-0.363837	-0.008638
 266	1.3250e-01	10.6345	24.077013	-0.000096	-0.956913	-0.324211	-0.007697
 267	1.3300e-01	10.6649	24.351121	0.000682	6.815347	2.309102	0.054822
 268	1.3350e-01	10.7179	24.335727	-0.000038	-0.382765	-0.129684	-0.003079
 269	1.3400e-01	10.7500	24.473422	0.000342	3.423622	1.159954	0.027539
 270	1.3450e-01	10.7853	24.487961	0.000036	0.361500	0.122480	0.002908
 271	1.3500e-01	10.8286	24.660294	0.000428	4.284844	1.451744	0.034467
 272	1.3550e-01	10.8510	24.904896	0.000608	6.081713	2.060540	0.048920
 273	1.3600e-01	10.9088	24.874107	-0.000077	-0.765530	-0.259369	-0.006158
 274	1.3650e-01	10.9441	24.881377	0.000018	0.180750	0.061240	0.001454
 275	1.3700e-01	11.0098	24.941244	0.000149	1.488531	0.504328	0.011974
 276	1.3750e-01	11.0147	25.232457	0.000724	7.240641	2.453196	0.058243
 277	1.3800e-01	11.0548	25.344495	0.000279	2.785680	0.943814	0.022408
 278	1.3850e-01	11.1157	25.419329	0.000186	1.860664	0.630410	0.014967
 279	1.3900e-01	11.1302	25.528801	0.000272	2.721886	0.922200	0.021894
 280	1.3950e-01	11.1815	25.675477	0.000365	3.646902	1.235604	0.029335
 281	1.4000e-01	11.2120	25.548044	-0.000317	-3.168445	-1.073498	-0.025486
 282	1.4050e-01	11.2729	25.829422	0.000700	6.996097	2.370342	0.056275
 283	1.4100e-01	11.3243	25.683174	-0.000364	-3.636269	-1.232001	-0.029250
 284	1.4150e-01	11.3516	25.896559	0.000531	5.305551	1.797569	0.042677
 285	1.4200e-01	11.4189	26.145865	0.000620	6.198669	2.100166	0.049861
 286	1.4250e-01	11.4302	26.243791	0.000243	2.434812	0.824937	0.019585
 287	1.4300e-01	11.4606	26.275435	0.000079	0.786795	0.266573	0.006329
 288	1.4350e-01	11.5056	26.305369	0.000074	0.744266	0.252164	0.005987
 289	1.4400e-01	11.5745	26.562372	0.000639	6.390052	2.165008	0.051401
 290	1.4450e-01	11.6114	26.668423	0.000264	2.636827	0.893381	0.021210
 291	1.4500e-01	11.6146	26.750527	0.000204	2.041414	0.691650	0.016421
 292	1.4550e-01	11.6548	26.834341	0.000208	2.083944	0.706059	0.016763
 293	1.4600e-01	11.7237	26.966905	0.000330	3.296033	1.116726	0.026513
 294	1.4650e-01	11.7494	26.930985	-0.000089	-0.893119	-0.302597	-0.007184
 295	1.4700e-01	11.7719	27.210651	0.000695	6.953567	2.355932	0.055933
 296	1.4750e-01	11.8328	27.255125	0.000111	1.105766	0.374644	0.008895
 297	1.4800e-01	11.8793	27.344926	0.000223	2.232797	0.756492	0.017960
 298	1.4850e-01	11.9050	27.501009	0.000388	3.880814	1.314855	0.031217
 299	1.4900e-01	11.9339	27.404793	-0.000239	-2.392282	-0.810527	-0.019243
 300	1.4950e-01	11.9836	27.695151	0.000722	7.219377	2.445991	0.058072
 301	1.5000e-01	12.0253	27.752025	0.000141	1.414105	0.479112	0.011375
 302	1.5050e-01	12.0847	27.872615	0.000300	2.998327	1.015861	0.024118
 303	1.5100e-01	12.1136	27.880740	0.000020	0.202015	0.068445	0.001625
 304	1.5150e-01	12.1408	28.167249	0.000712	7.123685	2.413570	0.057302
 305	1.5200e-01	12.1874	28.132612	-0.000086	-0.861222	-0.291790	-0.006928
 306	1.5250e-01	12.2226	28.159552	0.000067	0.669839	0.226948	0.005388
 307	1.5300e-01	12.2852	28.468297	0.000768	7.676568	2.600892	0.061749
 308	1.5350e-01	12.2932	28.497376	0.000072	0.723001	0.244959	0.005816
 309	1.5400e-01	12.3558	28.605993	0.000270	2.700621	0.914995	0.021723
 310	1.5450e-01	12.3847	28.529020	-0.000191	-1.913826	-0.648422	-0.015395
 311	1.5500e-01	12.4232	28.733853	0.000509	5.092903	1.725522	0.040967
 312	1.5550e-01	12.4553	28.787306	0.000133	1.329046	0.450293	0.010691
 313	1.5600e-01	12.5050	28.990428	0.000505	5.050374	1.711113	0.040624
 314	1.5650e-01	12.5371	28.870693	-0.000298	-2.977063	-1.008656	-0.023947
 315	1.5700e-01	12.5788	29.235457	0.000907	9.069408	3.072799	0.072953
 316	1.5750e-01	12.6494	29.220490	-0.000037	-0.372133	-0.126082	-0.002993
 317	1.5800e-01	12.6638	29.270522	0.000124	1.243987	0.421474	0.010006
 318	1.5850e-01	12.7135	29.436013	0.000411	4.114726	1.394107	0.033098
 319	1.5900e-01	12.7520	29.616044	0.000448	4.476226	1.516586	0.036006
 320	1.5950e-01	12.8194	29.533512	-0.000205	-2.052047	-0.695252	-0.016506
 321	1.6000e-01	12.8210	29.582689	0.000122	1.222722	0.414269	0.009835
 322	1.6050e-01	12.8772	29.993209	0.001021	10.207071	3.458249	0.082104
 323	1.6100e-01	12.9157	29.907684	-0.000213	-2.126473	-0.720469	-0.017105
 324	1.6150e-01	12.9237	30.243798	0.000836	8.357040	2.831442	0.067223
 325	1.6200e-01	12.9959	30.315639	0.000179	1.786238	0.605194	0.014368
 326	1.6250e-01	13.0151	30.342579	0.000067	0.669839	0.226948	0.005388
 327	1.6300e-01	13.0697	30.302810	-0.000099	-0.988810	-0.335018	-0.007954
 328	1.6350e-01	13.1146	30.376789	0.000184	1.839399	0.623205	0.014796
 329	1.6400e-01	13.1339	30.610700	0.000582	5.815904	1.970482	0.046782
 330	1.6450e-01	13.1836	30.783888	0.000431	4.306108	1.458949	0.034638
 331	1.6500e-01	13.2333	30.818098	0.000085	0.850589	0.288187	0.006842
 332	1.6550e-01	13.2814	30.869413	0.000128	1.275884	0.432281	0.010263
 333	1.6600e-01	13.3087	30.949807	0.000200	1.998885	0.677241	0.016079
 334	1.6650e-01	13.3440	31.038753	0.000221	2.211532	0.749287	0.017789
 335	1.6700e-01	13.4018	31.021648	-0.000043	-0.425295	-0.144094	-0.003421
 336	1.6750e-01	13.4226	31.147797	0.000314	3.136548	1.062691	0.025230
 337	1.6800e-01	13.4659	31.430885	0.000704	7.038626	2.384751	0.056618
 338	1.6850e-01	13.5012	31.530522	0.000248	2.477341	0.839346	0.019927
 339	1.6900e-01	13.5317	31.638711	0.000269	2.689989	0.911393	0.021638
 340	1.6950e-01	13.5830	31.755025	0.000289	2.892004	0.979837	0.023263
 341	1.7000e-01	13.6199	31.812755	0.000144	1.435369	0.486316	0.011546
 342	1.7050e-01	13.6472	32.038968	0.000562	5.624522	1.905640	0.045243
 343	1.7100e-01	13.7082	31.919233	-0.000298	-2.977063	-1.008656	-0.023947
 344	1.7150e-01	13.7595	32.032982	0.000283	2.828209	0.958223	0.022750
 345	1.7200e-01	13.7659	32.204887	0.000427	4.274211	1.448142	0.034381
 346	1.7250e-01	13.8285	32.354984	0.000373	3.731960	1.264422	0.030019
 347	1.7300e-01	13.8542	32.399457	0.000111	1.105766	0.374644	0.008895
 348	1.7350e-01	13.9328	32.532876	0.000332	3.317298	1.123931	0.026684
 349	1.7400e-01	13.9392	32.563665	0.000077	0.765530	0.259369	0.006158
 350	1.7450e-01	13.9873	32.639354	0.000188	1.881929	0.637615	0.015138
 351	1.7500e-01	14.0354	32.892936	0.000630	6.304993	2.136189	0.050716
 352	1.7550e-01	14.0804	32.854450	-0.000096	-0.956913	-0.324211	-0.007697
 353	1.7600e-01	14.1269	32.993428	0.000346	3.455519	1.170762	0.027796
 354	1.7650e-01	14.1541	33.158919	0.000411	4.114726	1.394107	0.033098
 355	1.7700e-01	14.1894	33.285496	0.000315	3.147180	1.066294	0.025315
 356	1.7750e-01	14.2311	33.297470	0.000030	0.297706	0.100866	0.002395
 357	1.7800e-01	14.2648	33.557466	0.000646	6.464479	2.190225	0.051999
 358	1.7850e-01	14.3194	33.434310	-0.000306	-3.062121	-1.037475	-0.024631
 359	1.7900e-01	14.3579	33.538223	0.000258	2.583665	0.875369	0.020783
 360	1.7950e-01	14.4012	33.682760	0.000359	3.593740	1.217592	0.028907
 361	1.8000e-01	14.4397	33.662234	-0.000051	-0.510354	-0.172912	-0.004105
 362	1.8050e-01	14.4734	33.799929	0.000342	3.423622	1.159954	0.027539
 363	1.8100e-01	14.5039	34.101405	0.000750	7.495818	2.539652	0.060295
 364	1.8150e-01	14.5327	34.089004	-0.000031	-0.308339	-0.104468	-0.002480
 365	1.8200e-01	14.5777	34.278014	0.000470	4.699506	1.592236	0.037802
 366	1.8250e-01	14.6402	34.301106	0.000057	0.574148	0.194527	0.004618
 367	1.8300e-01	14.6707	34.468308	0.000416	4.157255	1.408516	0.033440
 368	1.8350e-01	14.7124	34.407585	-0.000151	-1.509796	-0.511533	-0.012145
 369	1.8400e-01	14.7557	34.604292	0.000489	4.890888	1.657078	0.039342
 370	1.8450e-01	14.7718	34.832217	0.000567	5.667051	1.920049	0.045585
 371	1.8500e-01	14.8247	34.975899	0.000357	3.572475	1.210387	0.028736
 372	1.8550e-01	14.8985	34.791592	-0.000458	-4.582550	-1.552610	-0.036861
 373	1.8600e-01	14.9113	34.899354	0.000268	2.679356	0.907790	0.021552
 374	1.8650e-01	14.9418	35.135403	0.000587	5.869066	1.988493	0.047210
 375	1.8700e-01	14.9819	35.015668	-0.000298	-2.977063	-1.008656	-0.023947
 376	1.8750e-01	15.0397	35.397965	0.000951	9.505335	3.220495	0.076459
 377	1.8800e-01	15.0686	35.351354	-0.000116	-1.158928	-0.392655	-0.009322
 378	1.8850e-01	15.1103	35.541647	0.000473	4.731403	1.603043	0.038059
 379	1.8900e-01	15.1520	35.643422	0.000253	2.530503	0.857358	0.020355
 380	1.8950e-01	15.2033	35.642567	-0.000002	-0.021265	-0.007205	-0.000171
 381	1.9000e-01	15.2306	35.883320	0.000599	5.986022	2.028119	0.048151
 382	1.9050e-01	15.2530	35.994502	0.000276	2.764415	0.936609	0.022237
 383	1.9100e-01	15.3108	35.987660	-0.000017	-0.170118	-0.057637	-0.001368
 384	1.9150e-01	15.3349	36.207887	0.000548	5.475669	1.855207	0.044045
 385	1.9200e-01	15.3862	36.179664	-0.000070	-0.701736	-0.237755	-0.005645
 386	1.9250e-01	15.4359	36.344300	0.000409	4.093461	1.386902	0.032927
 387	1.9300e-01	15.4632	36.451206	0.000266	2.658092	0.900586	0.021381
 388	1.9350e-01	15.5097	36.443081	-0.000020	-0.202015	-0.068445	-0.001625
 389	1.9400e-01	15.5386	36.705215	0.000652	6.517640	2.208236	0.052427
 390	1.9450e-01	15.5883	36.874555	0.000421	4.210417	1.426528	0.033868
 391	1.9500e-01	15.6332	36.928863	0.000135	1.350310	0.457498	0.010862
 392	1.9550e-01	15.6701	37.079388	0.000374	3.742593	1.268025	0.030105
 393	1.9600e-01	15.7070	37.057151	-0.000055	-0.552883	-0.187322	-0.004447
 394	1.9650e-01	15.7455	37.201688	0.000359	3.593740	1.217592	0.028907
 395	1.9700e-01	15.7792	37.349647	0.000368	3.678799	1.246411	0.029592
 396	1.9750e-01	15.8065	37.303463	-0.000115	-1.148296	-0.389053	-0.009237
 397	1.9800e-01	15.8787	37.495039	0.000476	4.763300	1.613850	0.038315
 398	1.9850e-01	15.9028	37.555762	0.000151	1.509796	0.511533	0.012145
 399	1.9900e-01	15.9461	37.654971	0.000247	2.466709	0.835744	0.019842
 400	1.9950e-01	15.9862	37.710562	0.000138	1.382208	0.468305	0.011118
 401	2.0000e-01	16.0471	37.817041	0.000265	2.647459	0.896983	0.021296
 402	2.0050e-01	16.0889	37.784542	-0.000081	-0.808060	-0.273778	-0.006500
 403	2.0100e-01	16.0985	38.002203	0.000541	5.411874	1.833593	0.043532
 404	2.0150e-01	16.1482	38.179667	0.000441	4.412432	1.494972	0.035493
 405	2.0200e-01	16.1594	38.346869	0.000416	4.157255	1.408516	0.033440
 406	2.0250e-01	16.2284	38.484137	0.000341	3.412990	1.156352	0.027454
 407	2.0300e-01	16.2765	38.516636	0.000081	0.808060	0.273778	0.006500
 408	2.0350e-01	16.3054	38.455058	-0.000153	-1.531061	-0.518737	-0.012316
 409	2.0400e-01	16.3471	38.762093	0.000763	7.634039	2.586482	0.061407
 410	2.0450e-01	16.3856	38.899788	0.000342	3.423622	1.159954	0.027539
 411	2.0500e-01	16.4370	38.815119	-0.000211	-2.105208	-0.713264	-0.016934
 412	2.0550e-01	16.4803	38.948965	0.000333	3.327931	1.127533	0.026769
 413	2.0600e-01	16.5172	38.914755	-0.000085	-0.850589	-0.288187	-0.006842
 414	2.0650e-01	16.5493	39.057582	0.000355	3.551210	1.203183	0.028565
 415	2.0700e-01	16.5846	39.232481	0.000435	4.348638	1.473358	0.034980
 416	2.0750e-01	16.6311	39.380867	0.000369	3.689431	1.250013	0.029677
 417	2.0800e-01	16.6824	39.399682	0.000047	0.467824	0.158503	0.003763
 418	2.0850e-01	16.7113	39.510865	0.000276	2.764415	0.936609	0.022237
 419	2.0900e-01	16.7450	39.722967	0.000527	5.273654	1.786762	0.042420
 420	2.0950e-01	16.7963	39.856386	0.000332	3.317298	1.123931	0.026684
 421	2.1000e-01	16.8460	39.671652	-0.000459	-4.593182	-1.556212	-0.036947
 422	2.1050e-01	16.8685	39.986812	0.000784	7.836054	2.654927	0.063032
 423	2.1100e-01	16.9231	40.144178	0.000391	3.912711	1.325662	0.031473
 424	2.1150e-01	16.9616	40.103554	-0.000101	-1.010075	-0.342223	-0.008125
 425	2.1200e-01	16.9888	40.178388	0.000186	1.860664	0.630410	0.014967
 426	2.1250e-01	17.0434	40.360984	0.000454	4.540020	1.538201	0.036519
 427	2.1300e-01	17.0787	40.304965	-0.000139	-1.392840	-0.471907	-0.011204
 428	2.1350e-01	17.0883	40.609862	0.000758	7.580877	2.568471	0.060979
 429	2.1400e-01	17.1428	40.752689	0.000355	3.551210	1.203183	0.028565
 430	2.1450e-01	17.2054	40.722327	-0.000075	-0.754898	-0.255766	-0.006072
 431	2.1500e-01	17.2311	40.821109	0.000246	2.456077	0.832141	0.019756
 432	2.1550e-01	17.2808	40.927160	0.000264	2.636827	0.893381	0.021210
 433	2.1600e-01	17.3065	41.017389	0.000224	2.243429	0.760094	0.018046
 434	2.1650e-01	17.3578	41.268405	0.000624	6.241199	2.114575	0.050203
 435	2.1700e-01	17.3979	41.290641	0.000055	0.552883	0.187322	0.004447
 436	2.1750e-01	17.4428	41.282089	-0.000021	-0.212647	-0.072047	-0.001711
 437	2.1800e-01	17.4589	41.420212	0.000343	3.434254	1.163557	0.027625
 438	2.1850e-01	17.5134	41.733661	0.000779	7.793524	2.640518	0.062690
 439	2.1900e-01	17.5519	41.661820	-0.000179	-1.786238	-0.605194	-0.014368
 440	2.1950e-01	17.5968	41.803792	0.000353	3.529946	1.195978	0.028394
 441	2.2000e-01	17.6498	41.833725	0.000074	0.744266	0.252164	0.005987
 442	2.2050e-01	17.6802	41.917968	0.000209	2.094576	0.709662	0.016848
 443	2.2100e-01	17.7139	42.205759	0.000716	7.155582	2.424377	0.057558
 444	2.2150e-01	17.7556	42.123655	-0.000204	-2.041414	-0.691650	-0.016421
 445	2.2200e-01	17.7942	42.251515	0.000318	3.179077	1.077101	0.025572
 446	2.2250e-01	17.8407	42.346876	0.000237	2.371018	0.803323	0.019072
 447	2.2300e-01	17.8647	42.240825	-0.000264	-2.636827	-0.893381	-0.021210
 448	2.2350e-01	17.9113	42.589767	0.000868	8.676011	2.939512	0.069788
 449	2.2400e-01	17.9578	42.718482	0.000320	3.200342	1.084305	0.025743
 450	2.2450e-01	17.9883	42.718054	-0.000001	-0.010632	-0.003602	-0.000086
 451	2.2500e-01	18.0155	42.860454	0.000354	3.540578	1.199580	0.028480
 452	2.2550e-01	18.0781	42.870717	0.000026	0.255177	0.086456	0.002053
 453	2.2600e-01	18.1086	43.011405	0.000350	3.498048	1.185171	0.028138
 454	2.2650e-01	18.1471	43.019103	0.000019	0.191383	0.064842	0.001539
 455	2.2700e-01	18.2016	43.387716	0.000917	9.165100	3.105220	0.073723
 456	2.2750e-01	18.2369	43.275678	-0.000279	-2.785680	-0.943814	-0.022408
 457	2.2800e-01	18.2722	43.397979	0.000304	3.040857	1.030270	0.024460
 458	2.2850e-01	18.3043	43.506168	0.000269	2.689989	0.911393	0.021638
 459	2.2900e-01	18.3733	43.356499	-0.000372	-3.721328	-1.260820	-0.029934
 460	2.2950e-01	18.3861	43.799946	0.001103	11.025764	3.735630	0.088689
 461	2.3000e-01	18.4358	43.721263	-0.000196	-1.956355	-0.662831	-0.015737
 462	2.3050e-01	18.4695	43.920537	0.000495	4.954683	1.678692	0.039855
 463	2.3100e-01	18.5161	44.092870	0.000428	4.284844	1.451744	0.034467
 464	2.3150e-01	18.5433	44.162573	0.000173	1.733076	0.587182	0.013941
 465	2.3200e-01	18.5931	44.129218	-0.000083	-0.829325	-0.280983	-0.006671
 466	2.3250e-01	18.6444	44.197210	0.000169	1.690546	0.572773	0.013598
 467	2.3300e-01	18.6636	44.374247	0.000440	4.401800	1.491370	0.035407
 468	2.3350e-01	18.6813	44.558981	0.000459	4.593182	1.556212	0.036947
 469	2.3400e-01	18.7599	44.787333	0.000568	5.677683	1.923651	0.045670
 470	2.3450e-01	18.8048	44.643223	-0.000358	-3.583107	-1.213990	-0.028822
 471	2.3500e-01	18.8257	44.866871	0.000556	5.560727	1.884025	0.044730
 472	2.3550e-01	18.8690	44.853615	-0.000033	-0.329603	-0.111673	-0.002651
 473	2.3600e-01	18.9011	45.086243	0.000578	5.784007	1.959675	0.046526
 474	2.3650e-01	18.9556	45.234202	0.000368	3.678799	1.246411	0.029592
 475	2.3700e-01	19.0053	45.218807	-0.000038	-0.382765	-0.129684	-0.003079
 476	2.3750e-01	19.0182	45.463409	0.000608	6.081713	2.060540	0.048920
 477	2.3800e-01	19.0791	45.355647	-0.000268	-2.679356	-0.907790	-0.021552
 478	2.3850e-01	19.1096	45.637880	0.000702	7.017362	2.377546	0.056447
 479	2.3900e-01	19.1561	45.599821	-0.000095	-0.946281	-0.320609	-0.007612
 480	2.3950e-01	19.1995	45.609229	0.000023	0.233912	0.079252	0.001882
 481	2.4000e-01	19.2251	45.820476	0.000525	5.252389	1.779558	0.042249
 482	2.4050e-01	19.2845	45.845706	0.000063	0.627310	0.212538	0.005046
 483	2.4100e-01	19.3005	46.067643	0.000552	5.518198	1.869616	0.044388
 484	2.4150e-01	19.3487	46.243397	0.000437	4.369902	1.480563	0.035151
 485	2.4200e-01	19.3839	46.228003	-0.000038	-0.382765	-0.129684	-0.003079
 486	2.4250e-01	19.4112	46.509380	0.000700	6.996097	2.370342	0.056275
 487	2.4300e-01	19.4770	46.480302	-0.000072	-0.723001	-0.244959	-0.005816
 488	2.4350e-01	19.4914	46.464907	-0.000038	-0.382765	-0.129684	-0.003079
 489	2.4400e-01	19.5492	46.600892	0.000338	3.381092	1.145545	0.027197
 490	2.4450e-01	19.5861	46.651779	0.000127	1.265252	0.428679	0.010177
 491	2.4500e-01	19.6519	46.748423	0.000240	2.402915	0.814130	0.019329
 492	2.4550e-01	19.6839	46.826250	0.000194	1.935091	0.655626	0.015566
 493	2.4600e-01	19.7256	46.958814	0.000330	3.296033	1.116726	0.026513
 494	2.4650e-01	19.7545	46.998156	0.000098	0.978178	0.331416	0.007868
 495	2.4700e-01	19.7898	47.139272	0.000351	3.508681	1.188773	0.028223
 496	2.4750e-01	19.8379	47.238481	0.000247	2.466709	0.835744	0.019842
 497	2.4800e-01	19.9021	47.276540	0.000095	0.946281	0.320609	0.007612
 498	2.4850e-01	19.9005	47.550220	-0.000680	-6.804714	-2.305500	0.054736
 499	2.4900e-01	19.9454	47.567325	0.000043	0.425295	0.144094	0.003421
 500	2.4950e-01	19.9984	47.642159	0.000186	1.860664	0.630410	0.014967
 501	2.5000e-01	20.0369	47.622916	-0.000048	-0.478456	-0.162105	-0.003849
 502	2.5050e-01	19.9919	47.596404	0.000066	0.659207	0.223345	-0.005303
 503	2.5100e-01	19.9422	47.548510	0.000119	1.190825	0.403462	-0.009579
 504	2.5150e-01	19.9005	47.556207	-0.000019	-0.191383	-0.064842	0.001539
 505	2.5200e-01	19.8572	47.401834	0.000384	3.838284	1.300446	-0.030875
 506	2.5250e-01	19.8283	47.357361	0.000111	1.105766	0.374644	-0.008895
 507	2.5300e-01	19.7786	47.335980	0.000053	0.531618	0.180117	-0.004276
 508	2.5350e-01	19.7545	47.215389	0.000300	2.998327	1.015861	-0.024118
 509	2.5400e-01	19.7080	47.049898	0.000411	4.114726	1.394107	-0.033098
 510	2.5450e-01	19.6583	47.028517	0.000053	0.531618	0.180117	-0.004276
 511	2.5500e-01	19.6454	46.860460	0.000418	4.178520	1.415721	-0.033611
 512	2.5550e-01	19.5989	46.783060	0.000192	1.924458	0.652024	-0.015480
 513	2.5600e-01	19.5283	46.705660	0.000192	1.924458	0.652024	-0.015480
 514	2.5650e-01	19.5059	46.663753	0.000104	1.041972	0.353030	-0.008381
 515	2.5700e-01	19.4722	46.617997	0.000114	1.137663	0.385451	-0.009151
 516	2.5750e-01	19.4064	46.688127	-0.000174	-1.743708	-0.590784	0.014026
 517	2.5800e-01	19.4176	46.188234	-0.001243	-12.429236	-4.211139	-0.099979
 518	2.5850e-01	19.3551	46.296423	-0.000269	-2.689989	-0.911393	0.021638
 519	2.5900e-01	19.3069	46.293857	0.000006	0.063794	0.021614	-0.000513
 520	2.5950e-01	19.2749	46.284877	0.000022	0.223280	0.075649	-0.001796
 521	2.6000e-01	19.2364	46.156162	0.000320	3.200342	1.084305	-0.025743
 522	2.6050e-01	19.1690	46.031295	0.000310	3.104651	1.051884	-0.024973
 523	2.6100e-01	19.1561	45.918402	0.000281	2.806945	0.951019	-0.022579
 524	2.6150e-01	19.1176	45.818338	0.000249	2.487974	0.842948	-0.020013
 525	2.6200e-01	19.0455	45.916691	-0.000245	-2.445444	-0.828539	0.019671
 526	2.6250e-01	19.0198	45.825607	0.000226	2.264694	0.767299	-0.018217
 527	2.6300e-01	18.9861	45.570315	0.000635	6.347523	2.150599	-0.051058
 528	2.6350e-01	18.9476	45.440745	0.000322	3.221607	1.091510	-0.025914
 529	2.6400e-01	18.9171	45.570315	-0.000322	-3.221607	-1.091510	0.025914
 530	2.6450e-01	18.8562	45.346667	0.000556	5.560727	1.884025	-0.044730
 531	2.6500e-01	18.8177	45.285944	0.000151	1.509796	0.511533	-0.012145
 532	2.6550e-01	18.7727	45.274398	0.000029	0.287074	0.097263	-0.002309
 533	2.6600e-01	18.7423	45.245320	0.000072	0.723001	0.244959	-0.005816
 534	2.6650e-01	18.6941	45.149104	0.000239	2.392282	0.810527	-0.019243
 535	2.6700e-01	18.6717	44.905358	0.000606	6.060449	2.053336	-0.048749
 536	2.6750e-01	18.6284	44.761248	0.000358	3.583107	1.213990	-0.028822
 537	2.6800e-01	18.5915	44.732169	0.000072	0.723001	0.244959	-0.005816
 538	2.6850e-01	18.5513	44.626974	0.000262	2.615562	0.886176	-0.021039
 539	2.6900e-01	18.4856	44.686414	-0.000148	-1.477899	-0.500726	0.011888
 540	2.6950e-01	18.4647	44.500397	0.000463	4.625079	1.567019	-0.037203
 541	2.7000e-01	18.4278	44.535034	-0.000086	-0.861222	-0.291790	0.006928
 542	2.7050e-01	18.3813	44.396911	0.000343	3.434254	1.163557	-0.027625
 543	2.7100e-01	18.3540	44.173263	0.000556	5.560727	1.884025	-0.044730
 544	2.7150e-01	18.3123	44.115534	0.000144	1.435369	0.486316	-0.011546
 545	2.7200e-01	18.2706	44.100139	0.000038	0.382765	0.129684	-0.003079
 546	2.7250e-01	18.2273	43.817907	0.000702	7.017362	2.377546	-0.056447
 547	2.7300e-01	18.1808	43.831591	-0.000034	-0.340236	-0.115275	0.002737
 548	2.7350e-01	18.1535	43.813203	0.000046	0.457192	0.154901	-0.003678
 549	2.7400e-01	18.0974	43.752908	0.000150	1.499164	0.507930	-0.012059
 550	2.7450e-01	18.0556	43.576726	0.000438	4.380535	1.484165	-0.035236
 551	2.7500e-01	18.0203	43.590410	-0.000034	-0.340236	-0.115275	0.002737
 552	2.7550e-01	17.9610	43.405676	0.000459	4.593182	1.556212	-0.036947
 553	2.7600e-01	17.9466	43.382584	0.000057	0.574148	0.194527	-0.004618
 554	2.7650e-01	17.9081	43.318013	0.000161	1.605487	0.543954	-0.012914
 555	2.7700e-01	17.8760	43.207685	0.000274	2.743150	0.929405	-0.022065
 556	2.7750e-01	17.8230	43.052030	0.000387	3.870181	1.311253	-0.031131
 557	2.7800e-01	17.7845	43.079398	-0.000068	-0.680471	-0.230550	0.005474
 558	2.7850e-01	17.7444	42.778777	0.000747	7.474553	2.532447	-0.060124
 559	2.7900e-01	17.7123	42.719765	0.000147	1.467267	0.497123	-0.011802
 560	2.7950e-01	17.6690	42.707364	0.000031	0.308339	0.104468	-0.002480
 561	2.8000e-01	17.6241	42.677430	0.000074	0.744266	0.252164	-0.005987
 562	2.8050e-01	17.5920	42.765521	-0.000219	-2.190267	-0.742083	0.017618
 563	2.8100e-01	17.5278	42.515788	0.000621	6.209302	2.103768	-0.049947
 564	2.8150e-01	17.4974	42.529472	-0.000034	-0.340236	-0.115275	0.002737
 565	2.8200e-01	17.4508	42.246811	0.000703	7.027994	2.381149	-0.056532
 566	2.8250e-01	17.4268	42.219871	0.000067	0.669839	0.226948	-0.005388
 567	2.8300e-01	17.3819	42.293423	-0.000183	-1.828767	-0.619603	0.014710
 568	2.8350e-01	17.3369	41.998361	0.000734	7.336333	2.485617	-0.059012
 569	2.8400e-01	17.3097	41.929086	0.000172	1.722443	0.583580	-0.013855
 570	2.8450e-01	17.2551	41.751194	0.000442	4.423064	1.498575	-0.035578
 571	2.8500e-01	17.2102	41.631459	0.000298	2.977063	1.008656	-0.023947
 572	2.8550e-01	17.1813	41.676359	-0.000112	-1.116398	-0.378246	0.008980
 573	2.8600e-01	17.1300	41.648991	0.000068	0.680471	0.230550	-0.005474
 574	2.8650e-01	17.0979	41.537381	0.000278	2.775048	0.940212	-0.022322
 575	2.8700e-01	17.0498	41.499322	0.000095	0.946281	0.320609	-0.007612
 576	2.8750e-01	17.0129	41.540374	-0.000102	-1.020707	-0.345825	0.008210
 577	2.8800e-01	16.9985	41.326562	0.000532	5.316183	1.801172	-0.042763
 578	2.8850e-01	16.9535	41.132420	0.000483	4.827094	1.635464	-0.038828
 579	2.8900e-01	16.9006	41.120446	0.000030	0.297706	0.100866	-0.002395
 580	2.8950e-01	16.8605	41.125578	-0.000013	-0.127588	-0.043228	0.001026
 581	2.9000e-01	16.8428	40.859167	0.000662	6.623964	2.244260	-0.053282
 582	2.9050e-01	16.7867	40.886535	-0.000068	-0.680471	-0.230550	0.005474
 583	2.9100e-01	16.7514	40.602165	0.000707	7.070523	2.395558	-0.056874
 584	2.9150e-01	16.7049	40.563251	0.000097	0.967545	0.327813	-0.007783
 585	2.9200e-01	16.6535	40.564106	-0.000002	-0.021265	-0.007205	0.000171
 586	2.9250e-01	16.6423	40.345162	0.000544	5.443771	1.844400	-0.043789
 587	2.9300e-01	16.6199	40.304965	0.000100	0.999442	0.338620	-0.008039
 588	2.9350e-01	16.5509	40.106119	0.000494	4.944050	1.675090	-0.039769
 589	2.9400e-01	16.4931	40.250229	-0.000358	-3.583107	-1.213990	0.028822
 590	2.9450e-01	16.4562	40.086021	0.000408	4.082829	1.383300	-0.032842
 591	2.9500e-01	16.4209	40.032995	0.000132	1.318413	0.446691	-0.010605
 592	2.9550e-01	16.3808	39.891451	0.000352	3.519313	1.192376	-0.028309
 593	2.9600e-01	16.3423	39.585272	0.000761	7.612774	2.579278	-0.061236
 594	2.9650e-01	16.3054	39.745204	-0.000398	-3.976505	-1.347276	0.031986
 595	2.9700e-01	16.2765	39.513431	0.000576	5.762742	1.952470	-0.046355
 596	2.9750e-01	16.2284	39.559614	-0.000115	-1.148296	-0.389053	0.009237
 597	2.9800e-01	16.1659	39.375735	0.000457	4.571917	1.549008	-0.036776
 598	2.9850e-01	16.1530	39.276526	0.000247	2.466709	0.835744	-0.019842
 599	2.9900e-01	16.1081	39.152087	0.000309	3.094019	1.048282	-0.024888
 600	2.9950e-01	16.0712	39.161067	-0.000022	-0.223280	-0.075649	0.001796
 601	3.0000e-01	16.0343	39.134982	0.000065	0.648574	0.219743	-0.005217
 602	3.0050e-01	15.9974	38.928439	0.000514	5.135433	1.739932	-0.041309
 603	3.0100e-01	15.9316	38.871993	0.000140	1.403472	0.475509	-0.011289
 604	3.0150e-01	15.8947	38.915183	-0.000107	-1.073869	-0.363837	0.008638
 605	3.0200e-01	15.8498	38.651338	0.000656	6.560170	2.222646	-0.052769
 606	3.0250e-01	15.8290	38.630812	0.000051	0.510354	0.172912	-0.004105
 607	3.0300e-01	15.7824	38.589332	0.000103	1.031340	0.349427	-0.008296
 608	3.0350e-01	15.7439	38.391770	0.000491	4.912153	1.664283	-0.039513
 609	3.0400e-01	15.7215	38.434532	-0.000106	-1.063237	-0.360234	0.008553
 610	3.0450e-01	15.6621	38.222430	0.000527	5.273654	1.786762	-0.042420
 611	3.0500e-01	15.6413	38.210884	0.000029	0.287074	0.097263	-0.002309
 612	3.0550e-01	15.5899	38.000492	0.000523	5.231124	1.772353	-0.042078
 613	3.0600e-01	15.5402	38.064636	-0.000159	-1.594855	-0.540351	0.012829
 614	3.0650e-01	15.5081	37.901711	0.000405	4.050931	1.372493	-0.032585
 615	3.0700e-01	15.4969	37.787963	0.000283	2.828209	0.958223	-0.022750
 616	3.0750e-01	15.4215	37.697734	0.000224	2.243429	0.760094	-0.018046
 617	3.0800e-01	15.3669	37.564742	0.000331	3.306666	1.120329	-0.026598
 618	3.0850e-01	15.3541	37.541223	0.000058	0.584780	0.198129	-0.004704
 619	3.0900e-01	15.3156	37.474086	0.000167	1.669281	0.565568	-0.013427
 620	3.0950e-01	15.2755	37.347936	0.000314	3.136548	1.062691	-0.025230
 621	3.1000e-01	15.2113	37.276095	0.000179	1.786238	0.605194	-0.014368
 622	3.1050e-01	15.1873	37.174748	0.000252	2.519871	0.853755	-0.020269
 623	3.1100e-01	15.1231	37.329976	-0.000386	-3.859549	-1.307651	0.031046
 624	3.1150e-01	15.1055	37.001560	0.000817	8.165657	2.766600	-0.065683
 625	3.1200e-01	15.0734	36.904916	0.000240	2.402915	0.814130	-0.019329
 626	3.1250e-01	15.0252	36.761234	0.000357	3.572475	1.210387	-0.028736
 627	3.1300e-01	14.9819	36.760379	0.000002	0.021265	0.007205	-0.000171
 628	3.1350e-01	14.9194	36.613276	0.000366	3.657534	1.239206	-0.029421
 629	3.1400e-01	14.9017	36.613704	-0.000001	-0.010632	-0.003602	0.000086
 630	3.1450e-01	14.8777	36.434529	0.000445	4.454961	1.509382	-0.035835
 631	3.1500e-01	14.8359	36.258347	0.000438	4.380535	1.484165	-0.035236
 632	3.1550e-01	14.7718	36.242953	0.000038	0.382765	0.129684	-0.003079
 633	3.1600e-01	14.7317	36.278873	-0.000089	-0.893119	-0.302597	0.007184
 634	3.1650e-01	14.6980	35.924799	0.000880	8.803599	2.982740	-0.070815
 635	3.1700e-01	14.6595	36.027002	-0.000254	-2.541135	-0.860960	0.020440
 636	3.1750e-01	14.6210	35.887596	0.000347	3.466151	1.174364	-0.027881
 637	3.1800e-01	14.5761	35.770854	0.000290	2.902636	0.983440	-0.023348
 638	3.1850e-01	14.5648	35.741776	0.000072	0.723001	0.244959	-0.005816
 639	3.1900e-01	14.5055	35.557469	0.000458	4.582550	1.552610	-0.036861
 640	3.1950e-01	14.4686	35.439017	0.000295	2.945165	0.997849	-0.023690
 641	3.2000e-01	14.4285	35.411221	0.000069	0.691104	0.234152	-0.005559
 642	3.2050e-01	14.3852	35.375301	0.000089	0.893119	0.302597	-0.007184
 643	3.2100e-01	14.3418	35.344084	0.000078	0.776163	0.262971	-0.006243
 644	3.2150e-01	14.3114	35.182869	0.000401	4.008402	1.358083	-0.032243
 645	3.2200e-01	14.2376	35.058858	0.000308	3.083386	1.044680	-0.024802
 646	3.2250e-01	14.2279	35.022938	0.000089	0.893119	0.302597	-0.007184
 647	3.2300e-01	14.1862	34.728731	0.000732	7.315068	2.478412	-0.058841
 648	3.2350e-01	14.1429	34.705640	0.000057	0.574148	0.194527	-0.004618
 649	3.2400e-01	14.0996	34.689818	0.000039	0.393398	0.133287	-0.003164
 650	3.2450e-01	14.0691	34.604720	0.000212	2.115841	0.716866	-0.017019
 651	3.2500e-01	14.0210	34.610707	-0.000015	-0.148853	-0.050433	0.001197
 652	3.2550e-01	13.9921	34.307093	0.000755	7.548980	2.557664	-0.060723
 653	3.2600e-01	13.9215	34.387486	-0.000200	-1.998885	-0.677241	0.016079
 654	3.2650e-01	13.9023	34.278014	0.000272	2.721886	0.922200	-0.021894
 655	3.2700e-01	13.8622	34.253640	0.000061	0.606045	0.205334	-0.004875
 656	3.2750e-01	13.8285	33.865784	0.000964	9.643556	3.267325	-0.077571
 657	3.2800e-01	13.7900	33.962427	-0.000240	-2.402915	-0.814130	0.019329
 658	3.2850e-01	13.7435	33.756739	0.000511	5.114168	1.732727	-0.041138
 659	3.2900e-01	13.7066	33.801212	-0.000111	-1.105766	-0.374644	0.008895
 660	3.2950e-01	13.6665	33.731082	0.000174	1.743708	0.590784	-0.014026
 661	3.3000e-01	13.6247	33.738351	-0.000018	-0.180750	-0.061240	0.001454
 662	3.3050e-01	13.5734	33.700720	0.000094	0.935648	0.317006	-0.007526
 663	3.3100e-01	13.5317	33.307733	0.000977	9.771144	3.310553	-0.078598
 664	3.3150e-01	13.4900	33.333818	-0.000065	-0.648574	-0.219743	0.005217
 665	3.3200e-01	13.4579	33.132406	0.000501	5.007844	1.696704	-0.040282
 666	3.3250e-01	13.4242	33.075960	0.000140	1.403472	0.475509	-0.011289
 667	3.3300e-01	13.3905	32.856588	0.000545	5.454404	1.848002	-0.043874
 668	3.3350e-01	13.3376	32.821095	0.000088	0.882486	0.298994	-0.007099
 669	3.3400e-01	13.3071	32.802280	0.000047	0.467824	0.158503	-0.003763
 670	3.3450e-01	13.2590	32.688959	0.000282	2.817577	0.954621	-0.022664
 671	3.3500e-01	13.2093	32.677841	0.000028	0.276442	0.093661	-0.002224
 672	3.3550e-01	13.1740	32.652183	0.000064	0.637942	0.216141	-0.005132
 673	3.3600e-01	13.1387	32.352845	0.000744	7.442656	2.521640	-0.059868
 674	3.3650e-01	13.1066	32.290840	0.000154	1.541693	0.522340	-0.012401
 675	3.3700e-01	13.0681	32.306662	-0.000039	-0.393398	-0.133287	0.003164
 676	3.3750e-01	13.0151	32.162125	0.000359	3.593740	1.217592	-0.028907
 677	3.3800e-01	12.9734	31.995778	0.000414	4.135990	1.401311	-0.033269
 678	3.3850e-01	12.9413	31.908970	0.000216	2.158370	0.731276	-0.017362
 679	3.3900e-01	12.9510	31.723381	-0.000461	-4.614447	-1.563417	-0.037118
 680	3.3950e-01	12.8708	31.708414	0.000037	0.372133	0.126082	-0.002993
 681	3.4000e-01	12.8114	31.649829	0.000146	1.456634	0.493521	-0.011717
 682	3.4050e-01	12.7938	31.594238	0.000138	1.382208	0.468305	-0.011118
 683	3.4100e-01	12.7553	31.347498	0.000613	6.134875	2.078552	-0.049348
 684	3.4150e-01	12.7119	31.409076	-0.000153	-1.531061	-0.518737	0.012316
 685	3.4200e-01	12.6622	31.349637	0.000148	1.477899	0.500726	-0.011888
 686	3.4250e-01	12.6029	31.144376	0.000510	5.103536	1.729125	-0.041052
 687	3.4300e-01	12.5884	31.241020	-0.000240	-2.402915	-0.814130	0.019329
 688	3.4350e-01	12.5323	30.995563	0.000610	6.102978	2.067745	-0.049091
 689	3.4400e-01	12.5050	30.890795	0.000260	2.604930	0.882574	-0.020954
 690	3.4450e-01	12.4697	30.840335	0.000125	1.254619	0.425076	-0.010092
 691	3.4500e-01	12.4296	30.706916	0.000332	3.317298	1.123931	-0.026684
 692	3.4550e-01	12.3702	30.607279	0.000248	2.477341	0.839346	-0.019927
 693	3.4600e-01	12.3510	30.549550	0.000144	1.435369	0.486316	-0.011546
 694	3.4650e-01	12.3013	30.502938	0.000116	1.158928	0.392655	-0.009322
 695	3.4700e-01	12.2531	30.343434	0.000397	3.965873	1.343674	-0.031901
 696	3.4750e-01	12.2226	30.366526	-0.000057	-0.574148	-0.194527	0.004618
 697	3.4800e-01	12.1697	30.142023	0.000558	5.581992	1.891230	-0.044901
 698	3.4850e-01	12.1200	30.220706	-0.000196	-1.956355	-0.662831	0.015737
 699	3.4900e-01	12.1007	30.093701	0.000316	3.157813	1.069896	-0.025401
 700	3.4950e-01	12.0462	29.934624	0.000396	3.955240	1.340072	-0.031815
 701	3.5000e-01	12.0189	29.754167	0.000449	4.486858	1.520189	-0.036092
 702	3.5050e-01	11.9804	29.738344	0.000039	0.393398	0.133287	-0.003164
 703	3.5100e-01	11.9612	29.638280	0.000249	2.487974	0.842948	-0.020013
 704	3.5150e-01	11.9082	29.555748	0.000205	2.052047	0.695252	-0.016506
 705	3.5200e-01	11.8826	29.451836	0.000258	2.583665	0.875369	-0.020783
 706	3.5250e-01	11.8168	29.319699	0.000329	3.285401	1.113124	-0.026427
 707	3.5300e-01	11.7670	29.309436	0.000026	0.255177	0.086456	-0.002053
 708	3.5350e-01	11.7318	29.235030	0.000185	1.850032	0.626808	-0.014881
 709	3.5400e-01	11.7109	29.037039	0.000492	4.922785	1.667885	-0.039598
 710	3.5450e-01	11.6515	29.143090	-0.000264	-2.636827	-0.893381	0.021210
 711	3.5500e-01	11.6034	28.970329	0.000430	4.295476	1.455347	-0.034552
 712	3.5550e-01	11.5842	28.747109	0.000555	5.550095	1.880423	-0.044644
 713	3.5600e-01	11.5328	28.577342	0.000422	4.221049	1.430130	-0.033953
 714	3.5650e-01	11.4863	28.475567	0.000253	2.530503	0.857358	-0.020355
 715	3.5700e-01	11.4655	28.424252	0.000128	1.275884	0.432281	-0.010263
 716	3.5750e-01	11.4237	28.452048	-0.000069	-0.691104	-0.234152	0.005559
 717	3.5800e-01	11.3965	28.103533	0.000867	8.665378	2.935910	-0.069703
 718	3.5850e-01	11.3499	28.152710	-0.000122	-1.222722	-0.414269	0.009835
 719	3.5900e-01	11.2858	28.151855	0.000002	0.021265	0.007205	-0.000171
 720	3.5950e-01	11.2585	27.871760	0.000696	6.964200	2.359535	-0.056019
 721	3.6000e-01	11.2104	28.059915	-0.000468	-4.678241	-1.585031	0.037631
 722	3.6050e-01	11.1783	27.783242	0.000688	6.879141	2.330716	-0.055335
 723	3.6100e-01	11.1574	27.680612	0.000255	2.551768	0.864562	-0.020526
 724	3.6150e-01	11.1029	27.592948	0.000218	2.179635	0.738480	-0.017533
 725	3.6200e-01	11.0628	27.506996	0.000214	2.137106	0.724071	-0.017191
 726	3.6250e-01	11.0147	27.427885	0.000197	1.966988	0.666433	-0.015822
 727	3.6300e-01	10.9762	27.345781	0.000204	2.041414	0.691650	-0.016421
 728	3.6350e-01	10.9377	27.288907	0.000141	1.414105	0.479112	-0.011375
 729	3.6400e-01	10.8911	26.993418	0.000735	7.346965	2.489219	-0.059098
 730	3.6450e-01	10.8687	26.996839	-0.000009	-0.085059	-0.028819	0.000684
 731	3.6500e-01	10.8077	26.976740	0.000050	0.499721	0.169310	-0.004020
 732	3.6550e-01	10.7676	26.879670	0.000241	2.413547	0.817732	-0.019414
 733	3.6600e-01	10.7115	26.784309	0.000237	2.371018	0.803323	-0.019072
 734	3.6650e-01	10.7147	26.659442	-0.000310	-3.104651	-1.051884	-0.024973
 735	3.6700e-01	10.6649	26.561089	0.000245	2.445444	0.828539	-0.019671
 736	3.6750e-01	10.6120	26.498655	0.000155	1.552325	0.525942	-0.012487
 737	3.6800e-01	10.5879	26.252343	0.000612	6.124243	2.074950	-0.049262
 738	3.6850e-01	10.5510	26.199745	0.000131	1.307781	0.443088	-0.010520
 739	3.6900e-01	10.5222	26.175798	0.000060	0.595413	0.201731	-0.004789
 740	3.6950e-01	10.4564	26.064188	0.000278	2.775048	0.940212	-0.022322
 741	3.7000e-01	10.4147	25.991919	0.000180	1.796870	0.608796	-0.014454
 742	3.7050e-01	10.3730	26.047083	-0.000137	-1.371575	-0.464702	0.011033
 743	3.7100e-01	10.3377	25.839257	0.000517	5.167330	1.750739	-0.041565
 744	3.7150e-01	10.2863	25.528801	0.000772	7.719098	2.615301	-0.062091
 745	3.7200e-01	10.2671	25.476631	0.000130	1.297149	0.439486	-0.010434
 746	3.7250e-01	10.2222	25.471072	0.000014	0.138221	0.046830	-0.001112
 747	3.7300e-01	10.1885	25.214497	0.000638	6.379420	2.161406	-0.051315
 748	3.7350e-01	10.1564	25.197392	0.000043	0.425295	0.144094	-0.003421
 749	3.7400e-01	10.1131	25.124268	0.000182	1.818135	0.616001	-0.014625
 750	3.7450e-01	10.0746	24.923712	0.000499	4.986580	1.689499	-0.040111
 751	3.7500e-01	10.0184	24.895488	0.000070	0.701736	0.237755	-0.005645
 752	3.7550e-01	9.9767	24.959632	-0.000159	-1.594855	-0.540351	0.012829
 753	3.7600e-01	9.9446	24.791148	0.000419	4.189152	1.419323	-0.033697
 754	3.7650e-01	9.8885	24.787727	0.000009	0.085059	0.028819	-0.000684
 755	3.7700e-01	9.8404	24.710326	0.000192	1.924458	0.652024	-0.015480
 756	3.7750e-01	9.8067	24.496086	0.000533	5.326815	1.804774	-0.042848
 757	3.7800e-01	9.7906	24.360529	0.000337	3.370460	1.141943	-0.027111
 758	3.7850e-01	9.7345	24.251912	0.000270	2.700621	0.914995	-0.021723
 759	3.7900e-01	9.7104	24.127046	0.000310	3.104651	1.051884	-0.024973
 760	3.7950e-01	9.6639	24.128756	-0.000004	-0.042529	-0.014409	0.000342
 761	3.8000e-01	9.6061	24.003034	0.000313	3.125916	1.059089	-0.025144
 762	3.8050e-01	9.5837	23.975239	0.000069	0.691104	0.234152	-0.005559
 763	3.8100e-01	9.5548	23.890569	0.000211	2.105208	0.713264	-0.016934
 764	3.8150e-01	9.4890	23.720802	0.000422	4.221049	1.430130	-0.033953
 765	3.8200e-01	9.4682	23.741328	-0.000051	-0.510354	-0.172912	0.004105
 766	3.8250e-01	9.4409	23.418043	0.000804	8.038069	2.723371	-0.064657
 767	3.8300e-01	9.3896	23.367583	0.000125	1.254619	0.425076	-0.010092
 768	3.8350e-01	9.3527	23.235447	0.000329	3.285401	1.113124	-0.026427
 769	3.8400e-01	9.3029	23.196533	0.000097	0.967545	0.327813	-0.007783
 770	3.8450e-01	9.2677	23.204658	-0.000020	-0.202015	-0.068445	0.001625
 771	3.8500e-01	9.2003	23.066107	0.000344	3.444887	1.167159	-0.027710
 772	3.8550e-01	9.1746	23.100745	-0.000086	-0.861222	-0.291790	0.006928
 773	3.8600e-01	9.1329	22.833479	0.000665	6.645229	2.251464	-0.053453
 774	3.8650e-01	9.0751	22.692363	0.000351	3.508681	1.188773	-0.028223
 775	3.8700e-01	9.0607	22.735125	-0.000106	-1.063237	-0.360234	0.008553
 776	3.8750e-01	9.0270	22.564503	0.000424	4.242314	1.437335	-0.034124
 777	3.8800e-01	8.9789	22.437071	0.000317	3.168445	1.073498	-0.025486
 778	3.8850e-01	8.9420	22.487530	-0.000125	-1.254619	-0.425076	0.010092
 779	3.8900e-01	8.9147	22.137733	0.000870	8.697275	2.946717	-0.069959
 780	3.8950e-01	8.8570	22.148423	-0.000027	-0.265809	-0.090059	0.002138
 781	3.9000e-01	8.8217	21.959413	0.000470	4.699506	1.592236	-0.037802
 782	3.9050e-01	8.7768	21.920499	0.000097	0.967545	0.327813	-0.007783
 783	3.9100e-01	8.7511	21.783659	0.000340	3.402357	1.152750	-0.027368
 784	3.9150e-01	8.7014	21.601491	0.000453	4.529388	1.534598	-0.036434
 785	3.9200e-01	8.6580	21.733627	-0.000329	-3.285401	-1.113124	0.026427
 786	3.9250e-01	8.6276	21.450111	0.000705	7.049259	2.388354	-0.056703
 787	3.9300e-01	8.5842	21.451822	-0.000004	-0.042529	-0.014409	0.000342
 788	3.9350e-01	8.5474	21.238009	0.000532	5.316183	1.801172	-0.042763
 789	3.9400e-01	8.5008	21.178997	0.000147	1.467267	0.497123	-0.011802
 790	3.9450e-01	8.4655	21.145215	0.000084	0.839957	0.284585	-0.006756
 791	3.9500e-01	8.4270	20.928409	0.000539	5.390610	1.826388	-0.043361
 792	3.9550e-01	8.4062	20.883936	0.000111	1.105766	0.374644	-0.008895
 793	3.9600e-01	8.3324	20.819364	0.000161	1.605487	0.543954	-0.012914
 794	3.9650e-01	8.3019	20.659860	0.000397	3.965873	1.343674	-0.031901
 795	3.9700e-01	8.2698	20.569631	0.000224	2.243429	0.760094	-0.018046
 796	3.9750e-01	8.2313	20.525158	0.000111	1.105766	0.374644	-0.008895
 797	3.9800e-01	8.1976	20.399008	0.000314	3.136548	1.062691	-0.025230
 798	3.9850e-01	8.1463	20.466146	-0.000167	-1.669281	-0.565568	0.013427
 799	3.9900e-01	8.0901	20.286971	0.000445	4.454961	1.509382	-0.035835
 800	3.9950e-01	8.0629	20.237794	0.000122	1.222722	0.414269	-0.009835
 801	4.0000e-01	8.0067	19.946153	0.000725	7.251274	2.456798	-0.058328
 802	4.0050e-01	7.9843	20.012435	-0.000165	-1.648017	-0.558363	0.013256
 803	4.0100e-01	7.9426	19.874740	0.000342	3.423622	1.159954	-0.027539
 804	4.0150e-01	7.9073	19.845661	0.000072	0.723001	0.244959	-0.005816
 805	4.0200e-01	7.8720	19.704117	0.000352	3.519313	1.192376	-0.028309
 806	4.0250e-01	7.8287	19.526225	0.000442	4.423064	1.498575	-0.035578
 807	4.0300e-01	7.7950	19.362872	0.000406	4.061564	1.376095	-0.032671
 808	4.0350e-01	7.7517	19.396227	-0.000083	-0.829325	-0.280983	0.006671
 809	4.0400e-01	7.6779	19.228598	0.000417	4.167888	1.412119	-0.033526
 810	4.0450e-01	7.6730	19.134521	0.000234	2.339121	0.792515	-0.018816
 811	4.0500e-01	7.6105	19.097745	0.000091	0.914383	0.309802	-0.007355
 812	4.0550e-01	7.5656	19.067383	0.000075	0.754898	0.255766	-0.006072
 813	4.0600e-01	7.5527	18.964753	0.000255	2.551768	0.864562	-0.020526
 814	4.0650e-01	7.5094	18.798835	0.000413	4.125358	1.397709	-0.033184
 815	4.0700e-01	7.4581	18.666698	0.000329	3.285401	1.113124	-0.026427
 816	4.0750e-01	7.4051	18.564068	0.000255	2.551768	0.864562	-0.020526
 817	4.0800e-01	7.3923	18.541832	0.000055	0.552883	0.187322	-0.004447
 818	4.0850e-01	7.3313	18.412261	0.000322	3.221607	1.091510	-0.025914
 819	4.0900e-01	7.3041	18.315618	0.000240	2.402915	0.814130	-0.019329
 820	4.0950e-01	7.2383	18.236507	0.000197	1.966988	0.666433	-0.015822
 821	4.1000e-01	7.2062	18.256606	-0.000050	-0.499721	-0.169310	0.004020
 822	4.1050e-01	7.1918	18.022267	0.000583	5.826537	1.974084	-0.046868
 823	4.1100e-01	7.1469	17.946578	0.000188	1.881929	0.637615	-0.015138
 824	4.1150e-01	7.1100	17.641681	0.000758	7.580877	2.568471	-0.060979
 825	4.1200e-01	7.0763	17.757567	-0.000288	-2.881371	-0.976235	0.023177
 826	4.1250e-01	7.0634	17.485597	0.000676	6.762185	2.291090	-0.054394
 827	4.1300e-01	6.9672	17.496716	-0.000028	-0.276442	-0.093661	0.002224
 828	4.1350e-01	6.9431	17.355599	0.000351	3.508681	1.188773	-0.028223
 829	4.1400e-01	6.9191	17.417605	-0.000154	-1.541693	-0.522340	0.012401
 830	4.1450e-01	6.8629	17.071656	0.000860	8.601584	2.914296	-0.069190
 831	4.1500e-01	6.8340	16.986131	0.000213	2.126473	0.720469	-0.017105
 832	4.1550e-01	6.7634	16.842877	0.000356	3.561843	1.206785	-0.028651
 833	4.1600e-01	6.7522	16.883073	-0.000100	-0.999442	-0.338620	0.008039
 834	4.1650e-01	6.7041	16.860409	0.000056	0.563515	0.190924	-0.004533
 835	4.1700e-01	6.6544	16.720576	0.000348	3.476784	1.177966	-0.027967
 836	4.1750e-01	6.6094	16.561927	0.000394	3.944608	1.336469	-0.031730
 837	4.1800e-01	6.5870	16.601268	-0.000098	-0.978178	-0.331416	0.007868
 838	4.1850e-01	6.5437	16.349825	0.000625	6.251831	2.118178	-0.050289
 839	4.1900e-01	6.5052	16.283115	0.000166	1.658649	0.561966	-0.013342
 840	4.1950e-01	6.4667	16.139861	0.000356	3.561843	1.206785	-0.028651
 841	4.2000e-01	6.4233	15.984633	0.000386	3.859549	1.307651	-0.031046
 842	4.2050e-01	6.3784	16.185617	-0.000500	-4.997212	-1.693101	0.040197
 843	4.2100e-01	6.3303	15.918351	0.000665	6.645229	2.251464	-0.053453
 844	4.2150e-01	6.3030	15.787070	0.000326	3.264136	1.105919	-0.026256
 845	4.2200e-01	6.2469	15.730196	0.000141	1.414105	0.479112	-0.011375
 846	4.2250e-01	6.2260	15.722071	0.000020	0.202015	0.068445	-0.001625
 847	4.2300e-01	6.1907	15.468489	0.000630	6.304993	2.136189	-0.050716
 848	4.2350e-01	6.1442	15.332932	0.000337	3.370460	1.141943	-0.027111
 849	4.2400e-01	6.0592	15.430858	-0.000243	-2.434812	-0.824937	0.019585
 850	4.2450e-01	6.0688	15.250828	-0.000448	-4.476226	-1.516586	-0.036006
 851	4.2500e-01	6.0255	15.064383	0.000464	4.635712	1.570622	-0.037289
 852	4.2550e-01	6.0014	14.946359	0.000293	2.934533	0.994247	-0.023605
 853	4.2600e-01	5.9276	14.936951	0.000023	0.233912	0.079252	-0.001882
 854	4.2650e-01	5.9084	14.902741	0.000085	0.850589	0.288187	-0.006842
 855	4.2700e-01	5.8603	14.692777	0.000522	5.220492	1.768750	-0.041993
 856	4.2750e-01	5.8234	14.611528	0.000202	2.020150	0.684445	-0.016250
 857	4.2800e-01	5.7849	14.540115	0.000178	1.775605	0.601591	-0.014283
 858	4.2850e-01	5.7608	14.217258	0.000803	8.027436	2.719769	-0.064571
 859	4.2900e-01	5.7047	14.367782	-0.000374	-3.742593	-1.268025	0.030105
 860	4.2950e-01	5.6613	14.251895	0.000288	2.881371	0.976235	-0.023177
 861	4.3000e-01	5.6180	14.136436	0.000287	2.870739	0.972633	-0.023092
 862	4.3050e-01	5.5763	13.932887	0.000506	5.061006	1.714715	-0.040710
 863	4.3100e-01	5.5298	13.843085	0.000223	2.232797	0.756492	-0.017960
 864	4.3150e-01	5.5025	13.702824	0.000349	3.487416	1.181569	-0.028052
 865	4.3200e-01	5.4560	13.583517	0.000297	2.966430	1.005054	-0.023861
 866	4.3250e-01	5.4095	13.668187	-0.000211	-2.105208	-0.713264	0.016934
 867	4.3300e-01	5.3694	13.311547	0.000887	8.867393	3.004354	-0.071328
 868	4.3350e-01	5.3228	13.386382	-0.000186	-1.860664	-0.630410	0.014967
 869	4.3400e-01	5.3020	13.335494	0.000127	1.265252	0.428679	-0.010177
 870	4.3450e-01	5.2667	13.257239	0.000195	1.945723	0.659229	-0.015651
 871	4.3500e-01	5.2170	13.032308	0.000559	5.592625	1.894832	-0.044986
 872	4.3550e-01	5.1704	12.936092	0.000239	2.392282	0.810527	-0.019243
 873	4.3600e-01	5.1351	12.766325	0.000422	4.221049	1.430130	-0.033953
 874	4.3650e-01	5.0726	12.976289	-0.000522	-5.220492	-1.768750	0.041993
 875	4.3700e-01	5.0678	12.853988	0.000304	3.040857	1.030270	-0.024460
 876	4.3750e-01	5.0245	12.666688	0.000466	4.656976	1.577826	-0.037460
 877	4.3800e-01	4.9924	12.527710	0.000346	3.455519	1.170762	-0.027796
 878	4.3850e-01	4.9314	12.588005	-0.000150	-1.499164	-0.507930	0.012059
 879	4.3900e-01	4.8945	12.398140	0.000472	4.720771	1.599440	-0.037973
 880	4.3950e-01	4.8817	12.189458	0.000519	5.188595	1.757943	-0.041736
 881	4.4000e-01	4.8239	12.058605	0.000325	3.253504	1.102317	-0.026171
 882	4.4050e-01	4.7870	11.973080	0.000213	2.126473	0.720469	-0.017105
 883	4.4100e-01	4.7758	11.724630	0.000618	6.177405	2.092961	-0.049690
 884	4.4150e-01	4.6956	11.734893	-0.000026	-0.255177	-0.086456	0.002053
 885	4.4200e-01	4.6747	11.681012	0.000134	1.339678	0.453895	-0.010776
 886	4.4250e-01	4.6250	11.577954	0.000256	2.562400	0.868165	-0.020612
 887	4.4300e-01	4.5737	11.555290	0.000056	0.563515	0.190924	-0.004533
 888	4.4350e-01	4.5432	11.443252	0.000279	2.785680	0.943814	-0.022408
 889	4.4400e-01	4.4935	11.365852	0.000192	1.924458	0.652024	-0.015480
 890	4.4450e-01	4.4678	11.211479	0.000384	3.838284	1.300446	-0.030875
 891	4.4500e-01	4.4213	10.998950	0.000528	5.284286	1.790365	-0.042506
 892	4.4550e-01	4.3747	11.044278	-0.000113	-1.127031	-0.381848	0.009066
 893	4.4600e-01	4.3298	11.082764	-0.000096	-0.956913	-0.324211	0.007697
 894	4.4650e-01	4.2833	10.728263	0.000881	8.814231	2.986342	-0.070900
 895	4.4700e-01	4.2721	10.751355	-0.000057	-0.574148	-0.194527	0.004618
 896	4.4750e-01	4.2239	10.444747	0.000762	7.623406	2.582880	-0.061321
 897	4.4800e-01	4.1903	10.397281	0.000118	1.180193	0.399860	-0.009493
 898	4.4850e-01	4.1357	10.391722	0.000014	0.138221	0.046830	-0.001112
 899	4.4900e-01	4.1084	10.204422	0.000466	4.656976	1.577826	-0.037460
 900	4.4950e-01	4.0587	10.099654	0.000260	2.604930	0.882574	-0.020954
 901	4.5000e-01	4.0202	10.153962	-0.000135	-1.350310	-0.457498	0.010862
 902	4.5050e-01	3.9897	9.850348	0.000755	7.548980	2.557664	-0.060723
 903	4.5100e-01	3.9368	9.854197	-0.000010	-0.095691	-0.032421	0.000770
 904	4.5150e-01	3.8999	9.897387	-0.000107	-1.073869	-0.363837	0.008638
 905	4.5200e-01	3.8550	9.609595	0.000716	7.155582	2.424377	-0.057558
 906	4.5250e-01	3.8357	9.362428	0.000615	6.145508	2.082154	-0.049433
 907	4.5300e-01	3.7780	9.312823	0.000123	1.233354	0.417872	-0.009921
 908	4.5350e-01	3.7507	9.436835	-0.000308	-3.083386	-1.044680	0.024802
 909	4.5400e-01	3.7090	9.363283	0.000183	1.828767	0.619603	-0.014710
 910	4.5450e-01	3.6641	9.107991	0.000635	6.347523	2.150599	-0.051058
 911	4.5500e-01	3.6143	9.087892	0.000050	0.499721	0.169310	-0.004020
 912	4.5550e-01	3.5678	8.854837	0.000579	5.794640	1.963277	-0.046611
 913	4.5600e-01	3.5518	8.856119	-0.000003	-0.031897	-0.010807	0.000257
 914	4.5650e-01	3.5020	8.647011	0.000520	5.199227	1.761546	-0.041822
 915	4.5700e-01	3.4571	8.683359	-0.000090	-0.903751	-0.306199	0.007270
 916	4.5750e-01	3.4202	8.478099	0.000510	5.103536	1.729125	-0.041052
 917	4.5800e-01	3.3801	8.620498	-0.000354	-3.540578	-1.199580	0.028480
 918	4.5850e-01	3.3496	8.338693	0.000701	7.006729	2.373944	-0.056361
 919	4.5900e-01	3.2887	8.284812	0.000134	1.339678	0.453895	-0.010776
 920	4.5950e-01	3.2566	8.230504	0.000135	1.350310	0.457498	-0.010862
 921	4.6000e-01	3.2341	7.958106	0.000677	6.772817	2.294693	-0.054479
 922	4.6050e-01	3.1668	7.985047	-0.000067	-0.669839	-0.226948	0.005388
 923	4.6100e-01	3.1363	7.812714	0.000428	4.284844	1.451744	-0.034467
 924	4.6150e-01	3.0914	7.794326	0.000046	0.457192	0.154901	-0.003678
 925	4.6200e-01	3.0609	7.711794	0.000205	2.052047	0.695252	-0.016506
 926	4.6250e-01	3.0288	7.445811	0.000661	6.613332	2.240657	-0.053197
 927	4.6300e-01	2.9791	7.313247	0.000330	3.296033	1.116726	-0.026513
 928	4.6350e-01	2.9502	7.329925	-0.000041	-0.414662	-0.140491	0.003335
 929	4.6400e-01	2.9101	7.149895	0.000448	4.476226	1.516586	-0.036006
 930	4.6450e-01	2.8732	6.918549	0.000575	5.752110	1.948868	-0.046269
 931	4.6500e-01	2.8170	7.237985	-0.000794	-7.942377	-2.690950	0.063887
 932	4.6550e-01	2.8058	6.909997	0.000816	8.155025	2.762997	-0.065598
 933	4.6600e-01	2.7224	6.832597	0.000192	1.924458	0.652024	-0.015480
 934	4.6650e-01	2.6935	6.709441	0.000306	3.062121	1.037475	-0.024631
 935	4.6700e-01	2.6662	6.760328	-0.000127	-1.265252	-0.428679	0.010177
 936	4.6750e-01	2.6037	6.426780	0.000829	8.293246	2.809828	-0.066710
 937	4.6800e-01	2.5716	6.522996	-0.000239	-2.392282	-0.810527	0.019243
 938	4.6850e-01	2.5331	6.384018	0.000346	3.455519	1.170762	-0.027796
 939	4.6900e-01	2.4930	6.184317	0.000497	4.965315	1.682294	-0.039940
 940	4.6950e-01	2.4625	6.325433	-0.000351	-3.508681	-1.188773	0.028223
 941	4.7000e-01	2.4432	5.844355	0.001196	11.961412	4.052636	-0.096216
 942	4.7050e-01	2.3887	5.802020	0.000105	1.052604	0.356632	-0.008467
 943	4.7100e-01	2.3406	5.725047	0.000191	1.913826	0.648422	-0.015395
 944	4.7150e-01	2.3261	5.541596	0.000456	4.561285	1.545405	-0.036690
 945	4.7200e-01	2.2796	5.544162	-0.000006	-0.063794	-0.021614	0.000513
 946	4.7250e-01	2.2203	5.486005	0.000145	1.446002	0.489919	-0.011631
 947	4.7300e-01	2.1882	5.504393	-0.000046	-0.457192	-0.154901	0.003678
 948	4.7350e-01	2.1368	5.326500	0.000442	4.423064	1.498575	-0.035578
 949	4.7400e-01	2.0903	5.189660	0.000340	3.402357	1.152750	-0.027368
 950	4.7450e-01	2.0614	5.123806	0.000164	1.637384	0.554761	-0.013171
 951	4.7500e-01	2.0326	5.024597	0.000247	2.466709	0.835744	-0.019842
 952	4.7550e-01	1.9909	4.857395	0.000416	4.157255	1.408516	-0.033440
 953	4.7600e-01	1.9235	4.879632	-0.000055	-0.552883	-0.187322	0.004447
 954	4.7650e-01	1.9171	4.738088	0.000352	3.519313	1.192376	-0.028309
 955	4.7700e-01	1.8737	4.575163	0.000405	4.050931	1.372493	-0.032585
 956	4.7750e-01	1.8208	4.492631	0.000205	2.052047	0.695252	-0.016506
 957	4.7800e-01	1.7743	4.348521	0.000358	3.583107	1.213990	-0.028822
 958	4.7850e-01	1.7438	4.184741	0.000407	4.072196	1.379697	-0.032756
 959	4.7900e-01	1.7021	4.119314	0.000163	1.626752	0.551159	-0.013085
 960	4.7950e-01	1.6588	4.186879	-0.000168	-1.679914	-0.569170	0.013513
 961	4.8000e-01	1.6171	3.916620	0.000672	6.719655	2.276681	-0.054052
 962	4.8050e-01	1.5738	3.891390	0.000063	0.627310	0.212538	-0.005046
 963	4.8100e-01	1.5561	3.781918	0.000272	2.721886	0.922200	-0.021894
 964	4.8150e-01	1.4967	3.701524	0.000200	1.998885	0.677241	-0.016079
 965	4.8200e-01	1.4615	3.555704	0.000363	3.625637	1.228399	-0.029164
 966	4.8250e-01	1.4358	3.341892	0.000532	5.316183	1.801172	-0.042763
 967	4.8300e-01	1.3828	3.141763	0.000498	4.975947	1.685897	-0.040026
 968	4.8350e-01	1.3363	3.211893	-0.000174	-1.743708	-0.590784	0.014026
 969	4.8400e-01	1.2513	3.243110	-0.000078	-0.776163	-0.262971	0.006243
 970	4.8450e-01	1.2609	3.057948	-0.000460	-4.603815	-1.559815	-0.037032
 971	4.8500e-01	1.2272	2.979265	0.000196	1.956355	0.662831	-0.015737
 972	4.8550e-01	1.1919	2.719269	0.000646	6.464479	2.190225	-0.051999
 973	4.8600e-01	1.1550	2.729105	-0.000024	-0.244544	-0.082854	0.001967
 974	4.8650e-01	1.0989	2.595685	0.000332	3.317298	1.123931	-0.026684
 975	4.8700e-01	1.0668	2.612363	-0.000041	-0.414662	-0.140491	0.003335
 976	4.8750e-01	1.0347	2.257861	0.000881	8.814231	2.986342	-0.070900
 977	4.8800e-01	0.9738	2.290361	-0.000081	-0.808060	-0.273778	0.006500
 978	4.8850e-01	0.9593	2.119738	0.000424	4.242314	1.437335	-0.034124
 979	4.8900e-01	0.8871	2.152238	-0.000081	-0.808060	-0.273778	0.006500
 980	4.8950e-01	0.8535	2.094936	0.000142	1.424737	0.482714	-0.011460
 981	4.9000e-01	0.8117	1.984609	0.000274	2.743150	0.929405	-0.022065
 982	4.9050e-01	0.7797	1.831519	0.000381	3.806387	1.289639	-0.030618
 983	4.9100e-01	0.7412	1.722902	0.000270	2.700621	0.914995	-0.021723
 984	4.9150e-01	0.7075	1.504386	0.000543	5.433139	1.840797	-0.043703
 985	4.9200e-01	0.6449	1.580503	-0.000189	-1.892561	-0.641217	0.015223
 986	4.9250e-01	0.6128	1.508234	0.000180	1.796870	0.608796	-0.014454
 987	4.9300e-01	0.5791	1.211890	0.000737	7.368230	2.496424	-0.059269
 988	4.9350e-01	0.5390	1.201627	0.000026	0.255177	0.086456	-0.002053
 989	4.9400e-01	0.4989	1.104128	0.000242	2.424179	0.821334	-0.019500
 990	4.9450e-01	0.4492	1.124654	-0.000051	-0.510354	-0.172912	0.004105
 991	4.9500e-01	0.4123	1.078899	0.000114	1.137663	0.385451	-0.009151
 992	4.9550e-01	0.3802	0.652984	0.001059	10.589837	3.587934	-0.085183
 993	4.9600e-01	0.3497	0.729956	-0.000191	-1.913826	-0.648422	0.015395
 994	4.9650e-01	0.2936	0.652984	0.000191	1.913826	0.648422	-0.015395
 995	4.9700e-01	0.2535	0.626043	0.000067	0.669839	0.226948	-0.005388
 996	4.9750e-01	0.2166	0.504598	0.000302	3.019592	1.023065	-0.024289
 997	4.9800e-01	0.1652	0.362199	0.000354	3.540578	1.199580	-0.028480
 998	4.9850e-01	0.1332	0.200556	0.000402	4.019034	1.361686	-0.032328
 999	4.9900e-01	0.1107	0.116314	0.000209	2.094576	0.709662	-0.016848
1000	4.9950e-01	0.0594	0.029079	0.000217	2.169003	0.734878	-0.017447
1001	5.0000e-01	0.0690	-0.157366	-0.000464	-4.635712	-1.570622	-0.037289
1002	5.0050e-01	-0.0128	-0.160359	0.000007	0.074427	0.025216	-0.000599
1003	5.0100e-01	-0.0449	-0.237760	0.000192	1.924458	0.652024	-0.015480
1004	5.0150e-01	-0.0882	-0.348515	0.000275	2.753783	0.933007	-0.022151
1005	5.0200e-01	-0.1380	-0.443875	0.000237	2.371018	0.803323	-0.019072
1006	5.0250e-01	-0.1765	-0.726963	0.000704	7.038626	2.384751	-0.056618
1007	5.0300e-01	-0.1989	-0.634596	-0.000230	-2.296591	-0.778106	0.018473
1008	5.0350e-01	-0.2615	-0.740647	0.000264	2.636827	0.893381	-0.021210
1009	5.0400e-01	-0.3032	-0.745351	0.000012	0.116956	0.039626	-0.000941
1010	5.0450e-01	-0.3273	-0.981828	0.000588	5.879698	1.992096	-0.047295
1011	5.0500e-01	-0.3738	-1.194785	0.000529	5.294918	1.793967	-0.042591
1012	5.0550e-01	-0.4155	-1.107122	-0.000218	-2.179635	-0.738480	0.017533
1013	5.0600e-01	-0.4460	-1.273040	0.000413	4.125358	1.397709	-0.033184
1014	5.0650e-01	-0.4877	-1.412874	0.000348	3.476784	1.177966	-0.027967
1015	5.0700e-01	-0.5535	-1.420999	0.000020	0.202015	0.068445	-0.001625
1016	5.0750e-01	-0.5791	-1.555701	0.000335	3.349195	1.134738	-0.026940
1017	5.0800e-01	-0.6112	-1.661324	0.000263	2.626194	0.889779	-0.021125
1018	5.0850e-01	-0.6738	-1.843065	0.000452	4.518756	1.530996	-0.036348
1019	5.0900e-01	-0.7027	-1.745994	-0.000241	-2.413547	-0.817732	0.019414
1020	5.0950e-01	-0.7267	-2.022240	0.000687	6.868508	2.327114	-0.055249
1021	5.1000e-01	-0.7700	-2.065002	0.000106	1.063237	0.360234	-0.008553
1022	5.1050e-01	-0.8117	-2.166777	0.000253	2.530503	0.857358	-0.020355
1023	5.1100e-01	-0.8422	-2.374603	0.000517	5.167330	1.750739	-0.041565
1024	5.1150e-01	-0.8871	-2.490490	0.000288	2.881371	0.976235	-0.023177
1025	5.1200e-01	-0.9208	-2.493483	0.000007	0.074427	0.025216	-0.000599
1026	5.1250e-01	-0.9577	-2.689763	0.000488	4.880256	1.653476	-0.039256
1027	5.1300e-01	-1.0059	-2.877918	0.000468	4.678241	1.585031	-0.037631
1028	5.1350e-01	-1.0379	-2.876635	-0.000003	-0.031897	-0.010807	0.000257
1029	5.1400e-01	-1.0684	-3.034857	0.000393	3.933975	1.332867	-0.031644
1030	5.1450e-01	-1.1262	-3.094724	0.000149	1.488531	0.504328	-0.011974
1031	5.1500e-01	-1.1695	-3.189229	0.000235	2.349753	0.796118	-0.018901
1032	5.1550e-01	-1.2272	-3.097717	-0.000228	-2.275326	-0.770901	0.018302
1033	5.1600e-01	-1.2497	-3.311530	0.000532	5.316183	1.801172	-0.042763
1034	5.1650e-01	-1.3010	-3.436824	0.000312	3.115283	1.055487	-0.025059
1035	5.1700e-01	-1.3315	-3.549290	0.000280	2.796312	0.947416	-0.022493
1036	5.1750e-01	-1.3796	-3.648071	0.000246	2.456077	0.832141	-0.019756
1037	5.1800e-01	-1.4053	-3.743004	0.000236	2.360385	0.799720	-0.018987
1038	5.1850e-01	-1.4534	-3.910206	0.000416	4.157255	1.408516	-0.033440
1039	5.1900e-01	-1.4951	-3.814845	-0.000237	-2.371018	-0.803323	0.019072
1040	5.1950e-01	-1.5144	-4.149248	0.000831	8.314510	2.817032	-0.066881
1041	5.2000e-01	-1.5513	-4.190728	0.000103	1.031340	0.349427	-0.008296
1042	5.2050e-01	-1.6171	-4.268128	0.000192	1.924458	0.652024	-0.015480
1043	5.2100e-01	-1.6748	-4.217240	-0.000127	-1.265252	-0.428679	0.010177
1044	5.2150e-01	-1.7021	-4.409244	0.000477	4.773932	1.617452	-0.038401
1045	5.2200e-01	-1.7470	-4.449441	0.000100	0.999442	0.338620	-0.008039
1046	5.2250e-01	-1.7759	-4.632465	0.000455	4.550653	1.541803	-0.036605
1047	5.2300e-01	-1.8240	-4.809074	0.000439	4.391167	1.487768	-0.035322
1048	5.2350e-01	-1.8401	-4.857823	0.000121	1.212090	0.410667	-0.009750
1049	5.2400e-01	-1.8946	-4.912987	0.000137	1.371575	0.464702	-0.011033
1050	5.2450e-01	-1.9395	-4.960453	0.000118	1.180193	0.399860	-0.009493
1051	5.2500e-01	-1.9716	-5.192654	0.000577	5.773375	1.956072	-0.046440
1052	5.2550e-01	-2.0181	-5.170845	-0.000054	-0.542251	-0.183720	0.004362
1053	5.2600e-01	-2.0326	-5.361993	0.000475	4.752668	1.610247	-0.038230
1054	5.2650e-01	-2.0967	-5.407322	0.000113	1.127031	0.381848	-0.009066
1055	5.2700e-01	-2.1433	-5.562122	0.000385	3.848917	1.304048	-0.030960
1056	5.2750e-01	-2.1625	-5.799454	0.000590	5.900963	1.999300	-0.047466
1057	5.2800e-01	-2.1898	-5.778500	-0.000052	-0.520986	-0.176515	0.004191
1058	5.2850e-01	-2.2539	-5.926031	0.000367	3.668166	1.242808	-0.029506
1059	5.2900e-01	-2.3021	-5.954682	0.000071	0.712369	0.241357	-0.005730
1060	5.2950e-01	-2.3149	-6.031227	0.000190	1.903194	0.644819	-0.015309
1061	5.3000e-01	-2.3759	-6.133429	0.000254	2.541135	0.860960	-0.020440
1062	5.3050e-01	-2.4063	-6.288230	0.000385	3.848917	1.304048	-0.030960
1063	5.3100e-01	-2.4577	-6.276256	-0.000030	-0.297706	-0.100866	0.002395
1064	5.3150e-01	-2.4850	-6.401123	0.000310	3.104651	1.051884	-0.024973
1065	5.3200e-01	-2.5235	-6.592271	0.000475	4.752668	1.610247	-0.038230
1066	5.3250e-01	-2.5636	-6.605955	0.000034	0.340236	0.115275	-0.002737
1067	5.3300e-01	-2.6181	-6.944634	0.000842	8.420834	2.853056	-0.067736
1068	5.3350e-01	-2.6598	-6.774867	-0.000422	-4.221049	-1.430130	0.033953
1069	5.3400e-01	-2.6919	-6.903155	0.000319	3.189710	1.080703	-0.025658
1070	5.3450e-01	-2.7320	-7.014337	0.000276	2.764415	0.936609	-0.022237
1071	5.3500e-01	-2.7801	-7.077626	0.000157	1.573590	0.533147	-0.012658
1072	5.3550e-01	-2.8058	-7.260222	0.000454	4.540020	1.538201	-0.036519
1073	5.3600e-01	-2.8555	-7.443246	0.000455	4.550653	1.541803	-0.036605
1074	5.3650e-01	-2.9021	-7.520646	0.000192	1.924458	0.652024	-0.015480
1075	5.3700e-01	-2.9502	-7.648933	0.000319	3.189710	1.080703	-0.025658
1076	5.3750e-01	-2.9582	-7.753274	0.000259	2.594297	0.878972	-0.020868
1077	5.3800e-01	-3.0352	-7.724195	-0.000072	-0.723001	-0.244959	0.005816
1078	5.3850e-01	-3.0384	-7.716070	-0.000020	-0.202015	-0.068445	0.001625
1079	5.3900e-01	-3.0849	-7.948271	0.000577	5.773375	1.956072	-0.046440
1080	5.3950e-01	-3.1315	-8.058598	0.000274	2.743150	0.929405	-0.022065
1081	5.4000e-01	-3.1652	-8.164222	0.000263	2.626194	0.889779	-0.021125
1082	5.4050e-01	-3.2004	-8.312180	0.000368	3.678799	1.246411	-0.029592
1083	5.4100e-01	-3.2261	-8.309614	-0.000006	-0.063794	-0.021614	0.000513
1084	5.4150e-01	-3.2935	-8.454152	0.000359	3.593740	1.217592	-0.028907
1085	5.4200e-01	-3.3240	-8.598261	0.000358	3.583107	1.213990	-0.028822
1086	5.4250e-01	-3.3705	-8.654708	0.000140	1.403472	0.475509	-0.011289
1087	5.4300e-01	-3.4202	-8.725694	0.000176	1.764973	0.597989	-0.014197
1088	5.4350e-01	-3.4603	-8.777009	0.000128	1.275884	0.432281	-0.010263
1089	5.4400e-01	-3.4956	-8.898454	0.000302	3.019592	1.023065	-0.024289
1090	5.4450e-01	-3.5293	-9.131510	0.000579	5.794640	1.963277	-0.046611
1091	5.4500e-01	-3.5614	-9.162299	0.000077	0.765530	0.259369	-0.006158
1092	5.4550e-01	-3.5999	-9.459499	0.000739	7.389494	2.503628	-0.059440
1093	5.4600e-01	-3.6544	-9.321803	-0.000342	-3.423622	-1.159954	0.027539
1094	5.4650e-01	-3.6945	-9.440683	0.000296	2.955798	1.001451	-0.023776
1095	5.4700e-01	-3.7218	-9.584365	0.000357	3.572475	1.210387	-0.028736
1096	5.4750e-01	-3.7748	-9.537327	-0.000117	-1.169560	-0.396258	0.009408
1097	5.4800e-01	-3.8084	-9.743014	0.000511	5.114168	1.732727	-0.041138
1098	5.4850e-01	-3.8518	-9.651930	-0.000226	-2.264694	-0.767299	0.018217
1099	5.4900e-01	-3.8951	-9.818704	0.000415	4.146623	1.404914	-0.033355
1100	5.4950e-01	-3.9047	-10.147975	0.000819	8.186922	2.773804	-0.065854
1101	5.5000e-01	-3.9721	-10.204422	0.000140	1.403472	0.475509	-0.011289
1102	5.5050e-01	-4.0154	-10.212119	0.000019	0.191383	0.064842	-0.001539
1103	5.5100e-01	-4.0395	-10.275408	0.000157	1.573590	0.533147	-0.012658
1104	5.5150e-01	-4.0908	-10.199718	-0.000188	-1.881929	-0.637615	0.015138
1105	5.5200e-01	-4.1309	-10.577311	0.000939	9.388379	3.180869	-0.075519
1106	5.5250e-01	-4.1646	-10.706882	0.000322	3.221607	1.091510	-0.025914
1107	5.5300e-01	-4.2015	-10.872800	0.000413	4.125358	1.397709	-0.033184
1108	5.5350e-01	-4.2592	-10.710303	-0.000404	-4.040299	-1.368890	0.032500
1109	5.5400e-01	-4.2576	-11.078916	-0.000917	-9.165100	-3.105220	-0.073723
1110	5.5450e-01	-4.3330	-11.076350	-0.000006	-0.063794	-0.021614	0.000513
1111	5.5500e-01	-4.3780	-11.068225	-0.000020	-0.202015	-0.068445	0.001625
1112	5.5550e-01	-4.4116	-11.263650	0.000486	4.858991	1.646271	-0.039085
1113	5.5600e-01	-4.4550	-11.479600	0.000537	5.369345	1.819183	-0.043190
1114	5.5650e-01	-4.4919	-11.382102	-0.000242	-2.424179	-0.821334	0.019500
1115	5.5700e-01	-4.5368	-11.402628	0.000051	0.510354	0.172912	-0.004105
1116	5.5750e-01	-4.5689	-11.581803	0.000445	4.454961	1.509382	-0.035835
1117	5.5800e-01	-4.5945	-11.738314	0.000389	3.891446	1.318458	-0.031302
1118	5.5850e-01	-4.6699	-11.749432	0.000028	0.276442	0.093661	-0.002224
1119	5.5900e-01	-4.6715	-12.029099	0.000695	6.953567	2.355932	-0.055933
1120	5.5950e-01	-4.7261	-12.133012	0.000258	2.583665	0.875369	-0.020783
1121	5.6000e-01	-4.7870	-12.201432	0.000170	1.701179	0.576375	-0.013684
1122	5.6050e-01	-4.8239	-12.283108	0.000203	2.030782	0.688048	-0.016335
1123	5.6100e-01	-4.8721	-12.457580	0.000434	4.338005	1.469756	-0.034894
1124	5.6150e-01	-4.8801	-12.487513	0.000074	0.744266	0.252164	-0.005987
1125	5.6200e-01	-4.9346	-12.498632	0.000028	0.276442	0.093661	-0.002224
1126	5.6250e-01	-4.9795	-12.585439	0.000216	2.158370	0.731276	-0.017362
1127	5.6300e-01	-5.0148	-12.825337	0.000596	5.964757	2.020915	-0.047980
1128	5.6350e-01	-5.0501	-12.742806	-0.000205	-2.052047	-0.695252	0.016506
1129	5.6400e-01	-5.0934	-12.892902	0.000373	3.731960	1.264422	-0.030019
1130	5.6450e-01	-5.1368	-12.924546	0.000079	0.786795	0.266573	-0.006329
1131	5.6500e-01	-5.1624	-13.193950	0.000670	6.698391	2.269476	-0.053881
1132	5.6550e-01	-5.1961	-13.212338	0.000046	0.457192	0.154901	-0.003678
1133	5.6600e-01	-5.2651	-13.421874	0.000521	5.209859	1.765148	-0.041907
1134	5.6650e-01	-5.2908	-13.387664	-0.000085	-0.850589	-0.288187	0.006842
1135	5.6700e-01	-5.3373	-13.490295	0.000255	2.551768	0.864562	-0.020526
1136	5.6750e-01	-5.3790	-13.586938	0.000240	2.402915	0.814130	-0.019329
1137	5.6800e-01	-5.4175	-13.853776	0.000663	6.634596	2.247862	-0.053368
1138	5.6850e-01	-5.4576	-13.791343	-0.000155	-1.552325	-0.525942	0.012487
1139	5.6900e-01	-5.4929	-14.001307	0.000522	5.220492	1.768750	-0.041993
1140	5.6950e-01	-5.5378	-13.994465	-0.000017	-0.170118	-0.057637	0.001368
1141	5.7000e-01	-5.6116	-13.910223	-0.000209	-2.094576	-0.709662	0.016848
1142	5.7050e-01	-5.6052	-14.247191	-0.000838	-8.378304	-2.838646	-0.067394
1143	5.7100e-01	-5.6613	-14.293375	0.000115	1.148296	0.389053	-0.009237
1144	5.7150e-01	-5.6966	-14.467846	0.000434	4.338005	1.469756	-0.034894
1145	5.7200e-01	-5.7608	-14.472550	0.000012	0.116956	0.039626	-0.000941
1146	5.7250e-01	-5.7672	-14.457155	-0.000038	-0.382765	-0.129684	0.003079
1147	5.7300e-01	-5.8202	-14.765045	0.000766	7.655304	2.593687	-0.061578
1148	5.7350e-01	-5.8426	-15.004088	0.000594	5.943493	2.013710	-0.047809
1149	5.7400e-01	-5.8779	-14.951490	-0.000131	-1.307781	-0.443088	0.010520
1150	5.7450e-01	-5.9389	-15.092606	0.000351	3.508681	1.188773	-0.028223
1151	5.7500e-01	-5.9822	-15.039153	-0.000133	-1.329046	-0.450293	0.010691
1152	5.7550e-01	-6.0079	-15.146915	0.000268	2.679356	0.907790	-0.021552
1153	5.7600e-01	-6.0512	-15.292735	0.000363	3.625637	1.228399	-0.029164
1154	5.7650e-01	-6.1009	-15.400069	0.000267	2.668724	0.904188	-0.021467
1155	5.7700e-01	-6.1330	-15.410760	0.000027	0.265809	0.090059	-0.002138
1156	5.7750e-01	-6.1939	-15.477042	0.000165	1.648017	0.558363	-0.013256
1157	5.7800e-01	-6.2260	-15.510824	0.000084	0.839957	0.284585	-0.006756
1158	5.7850e-01	-6.2533	-15.747728	0.000589	5.890331	1.995698	-0.047381
1159	5.7900e-01	-6.2966	-15.974370	0.000564	5.635154	1.909242	-0.045328
1160	5.7950e-01	-6.3255	-15.989337	0.000037	0.372133	0.126082	-0.002993
1161	5.8000e-01	-6.3993	-15.972232	-0.000043	-0.425295	-0.144094	0.003421
1162	5.8050e-01	-6.4073	-16.129598	0.000391	3.912711	1.325662	-0.031473
1163	5.8100e-01	-6.4346	-16.336568	0.000515	5.146065	1.743534	-0.041394
1164	5.8150e-01	-6.4795	-16.345121	0.000021	0.212647	0.072047	-0.001711
1165	5.8200e-01	-6.5405	-16.536697	0.000476	4.763300	1.613850	-0.038315
1166	5.8250e-01	-6.5709	-16.641465	0.000260	2.604930	0.882574	-0.020954
1167	5.8300e-01	-6.6110	-16.838173	0.000489	4.890888	1.657078	-0.039342
1168	5.8350e-01	-6.6544	-16.675248	-0.000405	-4.050931	-1.372493	0.032585
1169	5.8400e-01	-6.6832	-16.768042	0.000231	2.307223	0.781708	-0.018559
1170	5.8450e-01	-6.7249	-16.899323	0.000326	3.264136	1.105919	-0.026256
1171	5.8500e-01	-6.7795	-16.951921	0.000131	1.307781	0.443088	-0.010520
1172	5.8550e-01	-6.7955	-17.059683	0.000268	2.679356	0.907790	-0.021552
1173	5.8600e-01	-6.8629	-17.040012	-0.000049	-0.489089	-0.165708	0.003934
1174	5.8650e-01	-6.8870	-17.490301	0.001120	11.195881	3.793267	-0.090058
1175	5.8700e-01	-6.9335	-17.497571	0.000018	0.180750	0.061240	-0.001454
1176	5.8750e-01	-6.9704	-17.571550	0.000184	1.839399	0.623205	-0.014796
1177	5.8800e-01	-7.0009	-17.585234	0.000034	0.340236	0.115275	-0.002737
1178	5.8850e-01	-7.0506	-17.705397	0.000299	2.987695	1.012258	-0.024033
1179	5.8900e-01	-7.0987	-17.853355	0.000368	3.678799	1.246411	-0.029592
1180	5.8950e-01	-7.1404	-17.937597	0.000209	2.094576	0.709662	-0.016848
1181	5.9000e-01	-7.1533	-18.041083	0.000257	2.573033	0.871767	-0.020697
1182	5.9050e-01	-7.2142	-18.212133	0.000425	4.252946	1.440937	-0.034210
1183	5.9100e-01	-7.2383	-18.302789	0.000225	2.254062	0.763697	-0.018131
1184	5.9150e-01	-7.2704	-18.353249	0.000125	1.254619	0.425076	-0.010092
1185	5.9200e-01	-7.3201	-18.524727	0.000426	4.263579	1.444540	-0.034296
1186	5.9250e-01	-7.3875	-18.428939	-0.000238	-2.381650	-0.806925	0.019158
1187	5.9300e-01	-7.4051	-18.517457	0.000220	2.200900	0.745685	-0.017704
1188	5.9350e-01	-7.4404	-18.679100	0.000402	4.019034	1.361686	-0.032328
1189	5.9400e-01	-7.4709	-18.667981	-0.000028	-0.276442	-0.093661	0.002224
1190	5.9450e-01	-7.5271	-18.758638	0.000225	2.254062	0.763697	-0.018131
1191	5.9500e-01	-7.5575	-18.987845	0.000570	5.698948	1.930856	-0.045841
1192	5.9550e-01	-7.6041	-19.057976	0.000174	1.743708	0.590784	-0.014026
1193	5.9600e-01	-7.6394	-19.137086	0.000197	1.966988	0.666433	-0.015822
1194	5.9650e-01	-7.6987	-19.364155	0.000565	5.645786	1.912844	-0.045414
1195	5.9700e-01	-7.7276	-19.290604	-0.000183	-1.828767	-0.619603	0.014710
1196	5.9750e-01	-7.7821	-19.474910	0.000458	4.582550	1.552610	-0.036861
1197	5.9800e-01	-7.8046	-19.610040	0.000336	3.359828	1.138340	-0.027026
1198	5.9850e-01	-7.8559	-19.569843	-0.000100	-0.999442	-0.338620	0.008039
1199	5.9900e-01	-7.8832	-19.648098	0.000195	1.945723	0.659229	-0.015651
1200	5.9950e-01	-7.9281	-19.866615	0.000543	5.433139	1.840797	-0.043703
1201	6.0000e-01	-7.9618	-20.047073	0.000449	4.486858	1.520189	-0.036092
1202	6.0050e-01	-8.0083	-19.913226	-0.000333	-3.327931	-1.127533	0.026769
1203	6.0100e-01	-8.0452	-20.144999	0.000576	5.762742	1.952470	-0.046355
1204	6.0150e-01	-8.0853	-20.345983	0.000500	4.997212	1.693101	-0.040197
1205	6.0200e-01	-8.1319	-20.362660	0.000041	0.414662	0.140491	-0.003335
1206	6.0250e-01	-8.1591	-20.418679	0.000139	1.392840	0.471907	-0.011204
1207	6.0300e-01	-8.2040	-20.594861	0.000438	4.380535	1.484165	-0.035236
1208	6.0350e-01	-8.2474	-20.699629	0.000260	2.604930	0.882574	-0.020954
1209	6.0400e-01	-8.3035	-20.580749	-0.000296	-2.955798	-1.001451	0.023776
1210	6.0450e-01	-8.3276	-20.694070	0.000282	2.817577	0.954621	-0.022664
1211	6.0500e-01	-8.3677	-20.930974	0.000589	5.890331	1.995698	-0.047381
1212	6.0550e-01	-8.3885	-21.009657	0.000196	1.956355	0.662831	-0.015737
1213	6.0600e-01	-8.4559	-21.137945	0.000319	3.189710	1.080703	-0.025658
1214	6.0650e-01	-8.4944	-21.197812	0.000149	1.488531	0.504328	-0.011974
1215	6.0700e-01	-8.5329	-21.326100	0.000319	3.189710	1.080703	-0.025658
1216	6.0750e-01	-8.5554	-21.406066	0.000199	1.988252	0.673638	-0.015993
1217	6.0800e-01	-8.6035	-21.480045	0.000184	1.839399	0.623205	-0.014796
1218	6.0850e-01	-8.6629	-21.621162	0.000351	3.508681	1.188773	-0.028223
1219	6.0900e-01	-8.6998	-21.545899	-0.000187	-1.871296	-0.634012	0.015052
1220	6.0950e-01	-8.7206	-21.762278	0.000538	5.379977	1.822786	-0.043276
1221	6.1000e-01	-8.7623	-21.866191	0.000258	2.583665	0.875369	-0.020783
1222	6.1050e-01	-8.8040	-21.956847	0.000225	2.254062	0.763697	-0.018131
1223	6.1100e-01	-8.8618	-22.012011	0.000137	1.371575	0.464702	-0.011033
1224	6.1150e-01	-8.8826	-22.147996	0.000338	3.381092	1.145545	-0.027197
1225	6.1200e-01	-8.9131	-22.360953	0.000529	5.294918	1.793967	-0.042591
1226	6.1250e-01	-8.9773	-22.459735	0.000246	2.456077	0.832141	-0.019756
1227	6.1300e-01	-9.0046	-22.508912	0.000122	1.222722	0.414269	-0.009835
1228	6.1350e-01	-9.0479	-22.512333	0.000009	0.085059	0.028819	-0.000684
1229	6.1400e-01	-9.0735	-22.788579	0.000687	6.868508	2.327114	-0.055249
1230	6.1450e-01	-9.1313	-22.799697	0.000028	0.276442	0.093661	-0.002224
1231	6.1500e-01	-9.1826	-22.863413	0.000158	1.584223	0.536749	-0.012743
1232	6.1550e-01	-9.2115	-22.894202	0.000077	0.765530	0.259369	-0.006158
1233	6.1600e-01	-9.2628	-22.912162	0.000045	0.446559	0.151298	-0.003592
1234	6.1650e-01	-9.2789	-23.053279	0.000351	3.508681	1.188773	-0.028223
1235	6.1700e-01	-9.3382	-23.140942	0.000218	2.179635	0.738480	-0.017533
1236	6.1750e-01	-9.3751	-23.193967	0.000132	1.318413	0.446691	-0.010605
1237	6.1800e-01	-9.4136	-23.442845	0.000619	6.188037	2.096564	-0.049776
1238	6.1850e-01	-9.4361	-23.497581	0.000136	1.360943	0.461100	-0.010947
1239	6.1900e-01	-9.4906	-23.544192	0.000116	1.158928	0.392655	-0.009322
1240	6.1950e-01	-9.5324	-23.698993	0.000385	3.848917	1.304048	-0.030960
1241	6.2000e-01	-9.5837	-23.738334	0.000098	0.978178	0.331416	-0.007868
1242	6.2050e-01	-9.6013	-23.805899	0.000168	1.679914	0.569170	-0.013513
1243	6.2100e-01	-9.6270	-23.998758	0.000480	4.795197	1.624657	-0.038572
1244	6.2150e-01	-9.7024	-24.261748	0.000654	6.538905	2.215441	-0.052598
1245	6.2200e-01	-9.7473	-24.123197	-0.000344	-3.444887	-1.167159	0.027710
1246	6.2250e-01	-9.7698	-24.235235	0.000279	2.785680	0.943814	-0.022408
1247	6.2300e-01	-9.7970	-24.407995	0.000430	4.295476	1.455347	-0.034552
1248	6.2350e-01	-9.8580	-24.464870	0.000141	1.414105	0.479112	-0.011375
1249	6.2400e-01	-9.8965	-24.466580	0.000004	0.042529	0.014409	-0.000342
1250	6.2450e-01	-9.9430	-24.642334	0.000437	4.369902	1.480563	-0.035151
1251	6.2500e-01	-9.9639	-24.785589	0.000356	3.561843	1.206785	-0.028651
1252	6.2550e-01	-10.0024	-24.863844	0.000195	1.945723	0.659229	-0.015651
1253	6.2600e-01	-10.0585	-24.938678	0.000186	1.860664	0.630410	-0.014967
1254	6.2650e-01	-10.1035	-24.892067	-0.000116	-1.158928	-0.392655	0.009322
1255	6.2700e-01	-10.1355	-24.989566	0.000242	2.424179	0.821334	-0.019500
1256	6.2750e-01	-10.1789	-25.362027	0.000926	9.260791	3.137641	-0.074492
1257	6.2800e-01	-10.2029	-25.344495	-0.000044	-0.435927	-0.147696	0.003507
1258	6.2850e-01	-10.2478	-25.353475	0.000022	0.223280	0.075649	-0.001796
1259	6.2900e-01	-10.2912	-25.430020	0.000190	1.903194	0.644819	-0.015309
1260	6.2950e-01	-10.3313	-25.493736	0.000158	1.584223	0.536749	-0.012743
1261	6.3000e-01	-10.3746	-25.602353	0.000270	2.700621	0.914995	-0.021723
1262	6.3050e-01	-10.4163	-25.650247	0.000119	1.190825	0.403462	-0.009579
1263	6.3100e-01	-10.4420	-25.848665	0.000493	4.933418	1.671487	-0.039684
1264	6.3150e-01	-10.4965	-25.953006	0.000259	2.594297	0.878972	-0.020868
1265	6.3200e-01	-10.5238	-25.983795	0.000077	0.765530	0.259369	-0.006158
1266	6.3250e-01	-10.5799	-26.128332	0.000359	3.593740	1.217592	-0.028907
1267	6.3300e-01	-10.6072	-26.072741	-0.000138	-1.382208	-0.468305	0.011118
1268	6.3350e-01	-10.6473	-26.309217	0.000588	5.879698	1.992096	-0.047295
1269	6.3400e-01	-10.6938	-26.286553	-0.000056	-0.563515	-0.190924	0.004533
1270	6.3450e-01	-10.7403	-26.562372	0.000686	6.857876	2.323511	-0.055164
1271	6.3500e-01	-10.7692	-26.611548	0.000122	1.222722	0.414269	-0.009835
1272	6.3550e-01	-10.8494	-26.630364	0.000047	0.467824	0.158503	-0.003763
1273	6.3600e-01	-10.8623	-26.645331	0.000037	0.372133	0.126082	-0.002993
1274	6.3650e-01	-10.8992	-26.936971	0.000725	7.251274	2.456798	-0.058328
1275	6.3700e-01	-10.9216	-27.102462	0.000411	4.114726	1.394107	-0.033098
1276	6.3750e-01	-10.9842	-27.108449	0.000015	0.148853	0.050433	-0.001197
1277	6.3800e-01	-11.0211	-27.193119	0.000211	2.105208	0.713264	-0.016934
1278	6.3850e-01	-11.0500	-27.272230	0.000197	1.966988	0.666433	-0.015822
1279	6.3900e-01	-11.1109	-27.315420	0.000107	1.073869	0.363837	-0.008638
1280	6.3950e-01	-11.1189	-27.524528	0.000520	5.199227	1.761546	-0.041822
1281	6.4000e-01	-11.1815	-27.384695	-0.000348	-3.476784	-1.177966	0.027967
1282	6.4050e-01	-11.2184	-27.616468	0.000576	5.762742	1.952470	-0.046355
1283	6.4100e-01	-11.2569	-27.718670	0.000254	2.541135	0.860960	-0.020440
1284	6.4150e-01	-11.2794	-27.755446	0.000091	0.914383	0.309802	-0.007355
1285	6.4200e-01	-11.3387	-27.826004	0.000175	1.754340	0.594387	-0.014112
1286	6.4250e-01	-11.3933	-28.105671	0.000695	6.953567	2.355932	-0.055933
1287	6.4300e-01	-11.4189	-28.132184	0.000066	0.659207	0.223345	-0.005303
1288	6.4350e-01	-11.4574	-28.273300	0.000351	3.508681	1.188773	-0.028223
1289	6.4400e-01	-11.4991	-28.293826	0.000051	0.510354	0.172912	-0.004105
1290	6.4450e-01	-11.5425	-28.372937	0.000197	1.966988	0.666433	-0.015822
1291	6.4500e-01	-11.5842	-28.371654	-0.000003	-0.031897	-0.010807	0.000257
1292	6.4550e-01	-11.6243	-28.574776	0.000505	5.050374	1.711113	-0.040624
1293	6.4600e-01	-11.6499	-28.549546	-0.000063	-0.627310	-0.212538	0.005046
1294	6.4650e-01	-11.6772	-28.875824	0.000811	8.112495	2.748588	-0.065256
1295	6.4700e-01	-11.7366	-28.702208	-0.000432	-4.316741	-1.462551	0.034723
1296	6.4750e-01	-11.7654	-28.966053	0.000656	6.560170	2.222646	-0.052769
1297	6.4800e-01	-11.8232	-29.020789	0.000136	1.360943	0.461100	-0.010947
1298	6.4850e-01	-11.8601	-29.069966	0.000122	1.222722	0.414269	-0.009835
1299	6.4900e-01	-11.8777	-29.158912	0.000221	2.211532	0.749287	-0.017789
1300	6.4950e-01	-11.9146	-29.416343	0.000640	6.400684	2.168611	-0.051486
1301	6.5000e-01	-11.9788	-29.435158	0.000047	0.467824	0.158503	-0.003763
1302	6.5050e-01	-12.0013	-29.444994	0.000024	0.244544	0.082854	-0.001967
1303	6.5100e-01	-12.0638	-29.664365	0.000545	5.454404	1.848002	-0.043874
1304	6.5150e-01	-12.0751	-29.619465	-0.000112	-1.116398	-0.378246	0.008980
1305	6.5200e-01	-12.1328	-29.936763	0.000789	7.889216	2.672939	-0.063460
1306	6.5250e-01	-12.1729	-29.863211	-0.000183	-1.828767	-0.619603	0.014710
1307	6.5300e-01	-12.2162	-30.010742	0.000367	3.668166	1.242808	-0.029506
1308	6.5350e-01	-12.2612	-29.997058	-0.000034	-0.340236	-0.115275	0.002737
1309	6.5400e-01	-12.2563	-30.182647	-0.000461	-4.614447	-1.563417	-0.037118
1310	6.5450e-01	-12.3205	-30.266889	0.000209	2.094576	0.709662	-0.016848
1311	6.5500e-01	-12.3847	-30.240804	-0.000065	-0.648574	-0.219743	0.005217
1312	6.5550e-01	-12.4119	-30.239521	-0.000003	-0.031897	-0.010807	0.000257
1313	6.5600e-01	-12.4488	-30.673133	0.001078	10.781219	3.652776	-0.086722
1314	6.5650e-01	-12.4890	-30.709054	0.000089	0.893119	0.302597	-0.007184
1315	6.5700e-01	-12.5178	-30.681258	-0.000069	-0.691104	-0.234152	0.005559
1316	6.5750e-01	-12.5644	-30.762507	0.000202	2.020150	0.684445	-0.016250
1317	6.5800e-01	-12.6189	-30.966912	0.000508	5.082271	1.721920	-0.040881
1318	6.5850e-01	-12.6494	-31.066549	0.000248	2.477341	0.839346	-0.019927
1319	6.5900e-01	-12.6750	-31.191843	0.000312	3.115283	1.055487	-0.025059
1320	6.5950e-01	-12.7280	-31.238454	0.000116	1.158928	0.392655	-0.009322
1321	6.6000e-01	-12.7681	-31.130265	-0.000269	-2.689989	-0.911393	0.021638
1322	6.6050e-01	-12.8098	-31.395392	0.000659	6.592067	2.233453	-0.053026
1323	6.6100e-01	-12.8483	-31.527529	0.000329	3.285401	1.113124	-0.026427
1324	6.6150e-01	-12.8836	-31.747328	0.000547	5.465036	1.851604	-0.043960
1325	6.6200e-01	-12.9333	-31.653678	-0.000233	-2.328488	-0.788913	0.018730
1326	6.6250e-01	-12.9750	-31.687888	0.000085	0.850589	0.288187	-0.006842
1327	6.6300e-01	-13.0151	-31.964989	0.000689	6.889773	2.334318	-0.055420
1328	6.6350e-01	-13.0408	-31.907260	-0.000144	-1.435369	-0.486316	0.011546
1329	6.6400e-01	-13.0873	-32.053080	0.000363	3.625637	1.228399	-0.029164
1330	6.6450e-01	-13.1226	-32.088573	0.000088	0.882486	0.298994	-0.007099
1331	6.6500e-01	-13.1836	-32.111237	0.000056	0.563515	0.190924	-0.004533
1332	6.6550e-01	-13.2141	-32.432384	0.000798	7.984907	2.705360	-0.064229
1333	6.6600e-01	-13.2478	-32.419127	-0.000033	-0.329603	-0.111673	0.002651
1334	6.6650e-01	-13.2734	-32.484982	0.000164	1.637384	0.554761	-0.013171
1335	6.6700e-01	-13.3280	-32.614552	0.000322	3.221607	1.091510	-0.025914
1336	6.6750e-01	-13.3681	-32.683827	0.000172	1.722443	0.583580	-0.013855
1337	6.6800e-01	-13.4274	-32.646196	-0.000094	-0.935648	-0.317006	0.007526
1338	6.6850e-01	-13.4515	-32.793727	0.000367	3.668166	1.242808	-0.029506
1339	6.6900e-01	-13.4900	-32.928857	0.000336	3.359828	1.138340	-0.027026
1340	6.6950e-01	-13.5365	-33.035335	0.000265	2.647459	0.896983	-0.021296
1341	6.7000e-01	-13.5734	-33.217504	0.000453	4.529388	1.534598	-0.036434
1342	6.7050e-01	-13.5895	-33.309871	0.000230	2.296591	0.778106	-0.018473
1343	6.7100e-01	-13.6472	-33.228194	-0.000203	-2.030782	-0.688048	0.016335
1344	6.7150e-01	-13.7098	-33.431316	0.000505	5.050374	1.711113	-0.040624
1345	6.7200e-01	-13.7322	-33.427895	-0.000009	-0.085059	-0.028819	0.000684
1346	6.7250e-01	-13.7772	-33.474507	0.000116	1.158928	0.392655	-0.009322
1347	6.7300e-01	-13.8301	-33.762298	0.000716	7.155582	2.424377	-0.057558
1348	6.7350e-01	-13.8654	-33.728088	-0.000085	-0.850589	-0.288187	0.006842
1349	6.7400e-01	-13.8846	-33.824732	0.000240	2.402915	0.814130	-0.019329
1350	6.7450e-01	-13.9247	-33.828153	0.000009	0.085059	0.028819	-0.000684
1351	6.7500e-01	-13.9713	-34.140747	0.000777	7.772260	2.633313	-0.062519
1352	6.7550e-01	-14.0146	-34.000058	-0.000350	-3.498048	-1.185171	0.028138
1353	6.7600e-01	-14.0643	-34.266896	0.000663	6.634596	2.247862	-0.053368
1354	6.7650e-01	-14.0932	-34.252785	-0.000035	-0.350868	-0.118877	0.002822
1355	6.7700e-01	-14.1381	-34.264758	0.000030	0.297706	0.100866	-0.002395
1356	6.7750e-01	-14.1734	-34.518340	0.000630	6.304993	2.136189	-0.050716
1357	6.7800e-01	-14.2119	-34.499097	-0.000048	-0.478456	-0.162105	0.003849
1358	6.7850e-01	-14.2456	-34.723172	0.000557	5.571360	1.887628	-0.044815
1359	6.7900e-01	-14.3049	-34.694521	-0.000071	-0.712369	-0.241357	0.005730
1360	6.7950e-01	-14.3258	-34.957939	0.000655	6.549538	2.219043	-0.052683
1361	6.8000e-01	-14.3547	-34.913893	-0.000110	-1.095134	-0.371041	0.008809
1362	6.8050e-01	-14.4188	-34.931853	0.000045	0.446559	0.151298	-0.003592
1363	6.8100e-01	-14.4525	-35.165337	0.000581	5.805272	1.966879	-0.046697
1364	6.8150e-01	-14.4975	-35.323131	0.000392	3.923343	1.329265	-0.031559
1365	6.8200e-01	-14.5183	-35.297901	-0.000063	-0.627310	-0.212538	0.005046
1366	6.8250e-01	-14.5712	-35.328262	0.000075	0.754898	0.255766	-0.006072
1367	6.8300e-01	-14.6114	-35.323558	-0.000012	-0.116956	-0.039626	0.000941
1368	6.8350e-01	-14.6579	-35.682763	0.000893	8.931188	3.025968	-0.071841
1369	6.8400e-01	-14.6964	-35.653685	-0.000072	-0.723001	-0.244959	0.005816
1370	6.8450e-01	-14.7220	-35.633159	-0.000051	-0.510354	-0.172912	0.004105
1371	6.8500e-01	-14.7589	-35.860656	0.000566	5.656419	1.916447	-0.045499
1372	6.8550e-01	-14.8327	-35.984667	0.000308	3.083386	1.044680	-0.024802
1373	6.8600e-01	-14.8504	-35.851248	-0.000332	-3.317298	-1.123931	0.026684
1374	6.8650e-01	-14.8825	-36.151441	0.000746	7.463921	2.528845	-0.060039
1375	6.8700e-01	-14.9434	-36.054370	-0.000241	-2.413547	-0.817732	0.019414
1376	6.8750e-01	-14.9883	-36.328905	0.000683	6.825979	2.312704	-0.054907
1377	6.8800e-01	-15.0108	-36.413147	0.000209	2.094576	0.709662	-0.016848
1378	6.8850e-01	-15.0541	-36.406305	-0.000017	-0.170118	-0.057637	0.001368
1379	6.8900e-01	-15.0958	-36.615414	0.000520	5.199227	1.761546	-0.041822
1380	6.8950e-01	-15.1247	-36.699656	0.000209	2.094576	0.709662	-0.016848
1381	6.9000e-01	-15.1841	-36.763372	0.000158	1.584223	0.536749	-0.012743
1382	6.9050e-01	-15.2017	-36.867713	0.000259	2.594297	0.878972	-0.020868
1383	6.9100e-01	-15.2595	-36.855312	-0.000031	-0.308339	-0.104468	0.002480
1384	6.9150e-01	-15.2835	-36.858305	0.000007	0.074427	0.025216	-0.000599
1385	6.9200e-01	-15.3317	-37.134979	0.000688	6.879141	2.330716	-0.055335
1386	6.9250e-01	-15.3718	-37.238037	0.000256	2.562400	0.868165	-0.020612
1387	6.9300e-01	-15.4087	-37.328265	0.000224	2.243429	0.760094	-0.018046
1388	6.9350e-01	-15.4536	-37.298759	-0.000073	-0.733633	-0.248562	0.005901
1389	6.9400e-01	-15.4921	-37.503592	0.000509	5.092903	1.725522	-0.040967
1390	6.9450e-01	-15.5322	-37.475796	-0.000069	-0.691104	-0.234152	0.005559
1391	6.9500e-01	-15.5546	-37.642142	0.000414	4.135990	1.401311	-0.033269
1392	6.9550e-01	-15.5964	-37.716977	0.000186	1.860664	0.630410	-0.014967
1393	6.9600e-01	-15.6573	-37.856383	0.000347	3.466151	1.174364	-0.027881
1394	6.9650e-01	-15.7070	-37.753753	-0.000255	-2.551768	-0.864562	0.020526
1395	6.9700e-01	-15.7327	-37.823456	0.000173	1.733076	0.587182	-0.013941
1396	6.9750e-01	-15.7744	-38.279304	0.001133	11.334102	3.840098	-0.091170
1397	6.9800e-01	-15.8081	-38.170687	-0.000270	-2.700621	-0.914995	0.021723
1398	6.9850e-01	-15.8482	-38.308810	0.000343	3.434254	1.163557	-0.027625
1399	6.9900e-01	-15.8851	-38.313086	0.000011	0.106324	0.036023	-0.000855
1400	6.9950e-01	-15.9060	-38.496965	0.000457	4.571917	1.549008	-0.036776
1401	7.0000e-01	-15.9621	-38.559826	0.000156	1.562958	0.529544	-0.012572
1402	7.0050e-01	-16.0247	-38.555122	-0.000012	-0.116956	-0.039626	0.000941
1403	7.0100e-01	-16.0616	-38.704364	0.000371	3.710696	1.257218	-0.029848
1404	7.0150e-01	-16.0969	-38.740712	0.000090	0.903751	0.306199	-0.007270
1405	7.0200e-01	-16.1209	-39.014392	0.000680	6.804714	2.305500	-0.054736
1406	7.0250e-01	-16.1787	-38.812553	-0.000502	-5.018477	-1.700306	0.040368
1407	7.0300e-01	-16.1867	-39.234191	0.001048	10.483513	3.551910	-0.084328
1408	7.0350e-01	-16.2557	-39.112746	-0.000302	-3.019592	-1.023065	0.024289
1409	7.0400e-01	-16.2862	-39.295769	0.000455	4.550653	1.541803	-0.036605
1410	7.0450e-01	-16.3167	-39.342381	0.000116	1.158928	0.392655	-0.009322
1411	7.0500e-01	-16.3904	-39.421491	0.000197	1.966988	0.666433	-0.015822
1412	7.0550e-01	-16.4113	-39.448004	0.000066	0.659207	0.223345	-0.005303
1413	7.0600e-01	-16.4402	-39.530963	0.000206	2.062679	0.698855	-0.016592
1414	7.0650e-01	-16.5027	-39.756749	0.000561	5.613889	1.902037	-0.045157
1415	7.0700e-01	-16.5188	-39.876912	0.000299	2.987695	1.012258	-0.024033
1416	7.0750e-01	-16.5701	-39.951319	0.000185	1.850032	0.626808	-0.014881
1417	7.0800e-01	-16.5990	-39.976976	0.000064	0.637942	0.216141	-0.005132
1418	7.0850e-01	-16.6471	-40.013752	0.000091	0.914383	0.309802	-0.007355
1419	7.0900e-01	-16.6808	-40.169408	0.000387	3.870181	1.311253	-0.031131
1420	7.0950e-01	-16.7434	-40.166842	-0.000006	-0.063794	-0.021614	0.000513
1421	7.1000e-01	-16.7915	-40.229275	0.000155	1.552325	0.525942	-0.012487
1422	7.1050e-01	-16.8043	-40.386641	0.000391	3.912711	1.325662	-0.031473
1423	7.1100e-01	-16.8380	-40.400753	0.000035	0.350868	0.118877	-0.002822
1424	7.1150e-01	-16.8958	-40.496969	0.000239	2.392282	0.810527	-0.019243
1425	7.1200e-01	-16.9231	-40.642789	0.000363	3.625637	1.228399	-0.029164
1426	7.1250e-01	-16.9648	-40.877555	0.000584	5.837169	1.977686	-0.046953
1427	7.1300e-01	-17.0081	-40.945975	0.000170	1.701179	0.576375	-0.013684
1428	7.1350e-01	-17.0514	-40.962653	0.000041	0.414662	0.140491	-0.003335
1429	7.1400e-01	-17.0803	-41.089230	0.000315	3.147180	1.066294	-0.025315
1430	7.1450e-01	-17.1380	-41.209820	0.000300	2.998327	1.015861	-0.024118
1431	7.1500e-01	-17.1669	-41.215807	0.000015	0.148853	0.050433	-0.001197
1432	7.1550e-01	-17.1926	-41.310312	0.000235	2.349753	0.796118	-0.018901
1433	7.1600e-01	-17.2439	-41.494619	0.000458	4.582550	1.552610	-0.036861
1434	7.1650e-01	-17.2760	-41.480507	-0.000035	-0.350868	-0.118877	0.002822
1435	7.1700e-01	-17.3402	-41.518566	0.000095	0.946281	0.320609	-0.007612
1436	7.1750e-01	-17.3770	-41.636590	0.000293	2.934533	0.994247	-0.023605
1437	7.1800e-01	-17.4139	-41.750338	0.000283	2.828209	0.958223	-0.022750
1438	7.1850e-01	-17.4573	-41.859811	0.000272	2.721886	0.922200	-0.021894
1439	7.1900e-01	-17.4910	-41.872639	0.000032	0.318971	0.108070	-0.002566
1440	7.1950e-01	-17.5391	-41.981256	0.000270	2.700621	0.914995	-0.021723
1441	7.2000e-01	-17.5808	-42.137767	0.000389	3.891446	1.318458	-0.031302
1442	7.2050e-01	-17.6016	-42.310528	0.000430	4.295476	1.455347	-0.034552
1443	7.2100e-01	-17.6466	-42.162142	-0.000369	-3.689431	-1.250013	0.029677
1444	7.2150e-01	-17.6819	-42.388355	0.000562	5.624522	1.905640	-0.045243
1445	7.2200e-01	-17.7171	-42.567958	0.000447	4.465594	1.512984	-0.035921
1446	7.2250e-01	-17.7717	-42.622694	0.000136	1.360943	0.461100	-0.010947
1447	7.2300e-01	-17.8006	-42.643648	0.000052	0.520986	0.176515	-0.004191
1448	7.2350e-01	-17.8423	-42.747988	0.000259	2.594297	0.878972	-0.020868
1449	7.2400e-01	-17.8824	-42.842066	0.000234	2.339121	0.792515	-0.018816
1450	7.2450e-01	-17.9241	-42.895519	0.000133	1.329046	0.450293	-0.010691
1451	7.2500e-01	-17.9786	-42.962228	0.000166	1.658649	0.561966	-0.013342
1452	7.2550e-01	-18.0123	-43.064859	0.000255	2.551768	0.864562	-0.020526
1453	7.2600e-01	-18.0685	-43.064859	-0.000000	-0.000000	-0.000000	0.000000
1454	7.2650e-01	-18.1022	-43.235909	0.000425	4.252946	1.440937	-0.034210
1455	7.2700e-01	-18.1294	-43.288079	0.000130	1.297149	0.439486	-0.010434
1456	7.2750e-01	-18.1808	-43.320578	0.000081	0.808060	0.273778	-0.006500
1457	7.2800e-01	-18.2113	-43.382584	0.000154	1.541693	0.522340	-0.012401
1458	7.2850e-01	-18.2578	-43.687481	0.000758	7.580877	2.568471	-0.060979
1459	7.2900e-01	-18.2834	-43.625903	-0.000153	-1.531061	-0.518737	0.012316
1460	7.2950e-01	-18.3203	-43.811920	0.000463	4.625079	1.567019	-0.037203
1461	7.3000e-01	-18.3909	-43.860669	0.000121	1.212090	0.410667	-0.009750
1462	7.3050e-01	-18.4150	-43.914978	0.000135	1.350310	0.457498	-0.010862
1463	7.3100e-01	-18.4535	-44.207046	0.000726	7.261906	2.460400	-0.058414
1464	7.3150e-01	-18.4984	-44.059087	-0.000368	-3.678799	-1.246411	0.029592
1465	7.3200e-01	-18.5289	-44.326781	0.000666	6.655861	2.255067	-0.053539
1466	7.3250e-01	-18.5690	-44.462766	0.000338	3.381092	1.145545	-0.027197
1467	7.3300e-01	-18.6316	-44.361846	-0.000251	-2.509238	-0.850153	0.020184
1468	7.3350e-01	-18.6460	-44.601316	0.000595	5.954125	2.017312	-0.047894
1469	7.3400e-01	-18.7021	-44.546152	-0.000137	-1.371575	-0.464702	0.011033
1470	7.3450e-01	-18.7262	-44.702663	0.000389	3.891446	1.318458	-0.031302
1471	7.3500e-01	-18.7535	-44.785623	0.000206	2.062679	0.698855	-0.016592
1472	7.3550e-01	-18.8321	-44.833944	0.000120	1.201457	0.407065	-0.009664
1473	7.3600e-01	-18.8658	-44.906213	0.000180	1.796870	0.608796	-0.014454
1474	7.3650e-01	-18.8930	-45.205551	0.000744	7.442656	2.521640	-0.059868
1475	7.3700e-01	-18.9380	-45.250024	0.000111	1.105766	0.374644	-0.008895
1476	7.3750e-01	-18.9588	-45.261997	0.000030	0.297706	0.100866	-0.002395
1477	7.3800e-01	-19.0102	-45.363772	0.000253	2.530503	0.857358	-0.020355
1478	7.3850e-01	-19.0503	-45.508737	0.000360	3.604372	1.221194	-0.028993
1479	7.3900e-01	-19.0791	-45.584427	0.000188	1.881929	0.637615	-0.015138
1480	7.3950e-01	-19.1401	-45.566039	-0.000046	-0.457192	-0.154901	0.003678
1481	7.4000e-01	-19.1674	-45.817482	0.000625	6.251831	2.118178	-0.050289
1482	7.4050e-01	-19.2171	-45.942777	0.000312	3.115283	1.055487	-0.025059
1483	7.4100e-01	-19.2235	-45.968007	0.000063	0.627310	0.212538	-0.005046
1484	7.4150e-01	-19.2877	-46.035571	0.000168	1.679914	0.569170	-0.013513
1485	7.4200e-01	-19.3005	-46.190372	0.000385	3.848917	1.304048	-0.030960
1486	7.4250e-01	-19.3711	-46.055242	-0.000336	-3.359828	-1.138340	0.027026
1487	7.4300e-01	-19.4128	-46.364415	0.000769	7.687201	2.604494	-0.061835
1488	7.4350e-01	-19.4529	-46.377672	0.000033	0.329603	0.111673	-0.002651
1489	7.4400e-01	-19.4866	-46.383658	0.000015	0.148853	0.050433	-0.001197
1490	7.4450e-01	-19.5299	-46.517933	0.000334	3.338563	1.131136	-0.026855
1491	7.4500e-01	-19.5781	-46.685989	0.000418	4.178520	1.415721	-0.033611
1492	7.4550e-01	-19.6021	-46.709509	0.000058	0.584780	0.198129	-0.004704
1493	7.4600e-01	-19.6519	-46.863881	0.000384	3.838284	1.300446	-0.030875
1494	7.4650e-01	-19.6823	-46.882697	0.000047	0.467824	0.158503	-0.003763
1495	7.4700e-01	-19.7096	-47.044767	0.000403	4.029667	1.365288	-0.032414
1496	7.4750e-01	-19.7658	-47.238909	0.000483	4.827094	1.635464	-0.038828
1497	7.4800e-01	-19.8043	-47.103779	-0.000336	-3.359828	-1.138340	0.027026
1498	7.4850e-01	-19.8492	-47.300487	0.000489	4.890888	1.657078	-0.039342
1499	7.4900e-01	-19.8989	-47.475813	0.000436	4.359270	1.476961	-0.035065
1500	7.4950e-01	-19.9342	-47.451011	-0.000062	-0.616677	-0.208936	0.004960
1501	7.5000e-01	-19.9647	-47.642159	0.000475	4.752668	1.610247	-0.038230
1502	7.5050e-01	-19.9246	-47.597259	0.000112	1.116398	0.378246	0.008980
1503	7.5100e-01	-19.8748	-47.493346	0.000258	2.583665	0.875369	0.020783
1504	7.5150e-01	-19.8267	-47.489497	0.000010	0.095691	0.032421	0.000770
1505	7.5200e-01	-19.7914	-47.424926	0.000161	1.605487	0.543954	0.012914
1506	7.5250e-01	-19.7722	-47.250455	0.000434	4.338005	1.469756	0.034894
1507	7.5300e-01	-19.7273	-47.130292	0.000299	2.987695	1.012258	0.024033
1508	7.5350e-01	-19.6807	-47.132430	-0.000005	-0.053162	-0.018012	-0.000428
1509	7.5400e-01	-19.6454	-47.141838	-0.000023	-0.233912	-0.079252	-0.001882
1510	7.5450e-01	-19.6021	-47.165785	-0.000060	-0.595413	-0.201731	-0.004789
1511	7.5500e-01	-19.5716	-47.005425	0.000399	3.987137	1.350879	0.032072
1512	7.5550e-01	-19.5235	-46.805724	0.000497	4.965315	1.682294	0.039940
1513	7.5600e-01	-19.4690	-47.025096	-0.000545	-5.454404	-1.848002	-0.043874
1514	7.5650e-01	-19.4305	-46.966512	0.000146	1.456634	0.493521	0.011717
1515	7.5700e-01	-19.4080	-46.728324	0.000592	5.922228	2.006505	0.047637
1516	7.5750e-01	-19.3599	-46.797600	-0.000172	-1.722443	-0.583580	-0.013855
1517	7.5800e-01	-19.2877	-46.669312	0.000319	3.189710	1.080703	0.025658
1518	7.5850e-01	-19.3134	-46.565827	-0.000257	-2.573033	-0.871767	0.020697
1519	7.5900e-01	-19.2364	-46.507242	0.000146	1.456634	0.493521	0.011717
1520	7.5950e-01	-19.1995	-46.303265	0.000507	5.071639	1.718318	0.040795
1521	7.6000e-01	-19.1594	-46.290864	0.000031	0.308339	0.104468	0.002480
1522	7.6050e-01	-19.1321	-46.328495	-0.000094	-0.935648	-0.317006	-0.007526
1523	7.6100e-01	-19.0856	-46.187806	0.000350	3.498048	1.185171	0.028138
1524	7.6150e-01	-19.0551	-46.283594	-0.000238	-2.381650	-0.806925	-0.019158
1525	7.6200e-01	-19.0021	-46.099715	0.000457	4.571917	1.549008	0.036776
1526	7.6250e-01	-18.9668	-45.999651	0.000249	2.487974	0.842948	0.020013
1527	7.6300e-01	-18.9283	-46.134353	-0.000335	-3.349195	-1.134738	-0.026940
1528	7.6350e-01	-18.8866	-45.873501	0.000649	6.485743	2.197429	0.052170
1529	7.6400e-01	-18.8385	-45.901725	-0.000070	-0.701736	-0.237755	-0.005645
1530	7.6450e-01	-18.8016	-45.659261	0.000603	6.028552	2.042529	0.048493
1531	7.6500e-01	-18.7631	-45.616071	0.000107	1.073869	0.363837	0.008638
1532	7.6550e-01	-18.7102	-45.533539	0.000205	2.052047	0.695252	0.016506
1533	7.6600e-01	-18.7070	-45.449725	0.000208	2.083944	0.706059	0.016763
1534	7.6650e-01	-18.6460	-45.501040	-0.000128	-1.275884	-0.432281	-0.010263
1535	7.6700e-01	-18.6027	-45.540809	-0.000099	-0.988810	-0.335018	-0.007954
1536	7.6750e-01	-18.5610	-45.418508	0.000304	3.040857	1.030270	0.024460
1537	7.6800e-01	-18.5145	-45.287227	0.000326	3.264136	1.105919	0.026256
1538	7.6850e-01	-18.4743	-45.178610	0.000270	2.700621	0.914995	0.021723
1539	7.6900e-01	-18.4535	-45.282951	-0.000259	-2.594297	-0.878972	-0.020868
1540	7.6950e-01	-18.4086	-45.067000	0.000537	5.369345	1.819183	0.043190
1541	7.7000e-01	-18.3685	-44.891674	0.000436	4.359270	1.476961	0.035065
1542	7.7050e-01	-18.3300	-44.774932	0.000290	2.902636	0.983440	0.023348
1543	7.7100e-01	-18.2786	-44.866871	-0.000229	-2.285959	-0.774504	-0.018388
1544	7.7150e-01	-18.2449	-44.709078	0.000392	3.923343	1.329265	0.031559
1545	7.7200e-01	-18.2096	-44.639375	0.000173	1.733076	0.587182	0.013941
1546	7.7250e-01	-18.1503	-44.777498	-0.000343	-3.434254	-1.163557	-0.027625
1547	7.7300e-01	-18.1166	-44.507239	0.000672	6.719655	2.276681	0.054052
1548	7.7350e-01	-18.0829	-44.314380	0.000480	4.795197	1.624657	0.038572
1549	7.7400e-01	-18.0412	-44.293426	0.000052	0.520986	0.176515	0.004191
1550	7.7450e-01	-18.0091	-44.305399	-0.000030	-0.297706	-0.100866	-0.002395
1551	7.7500e-01	-17.9626	-44.267768	0.000094	0.935648	0.317006	0.007526
1552	7.7550e-01	-17.9257	-44.064219	0.000506	5.061006	1.714715	0.040710
1553	7.7600e-01	-17.8936	-43.942773	0.000302	3.019592	1.023065	0.024289
1554	7.7650e-01	-17.8310	-43.913695	0.000072	0.723001	0.244959	0.005816
1555	7.7700e-01	-17.8022	-44.001786	-0.000219	-2.190267	-0.742083	-0.017618
1556	7.7750e-01	-17.7733	-43.859386	0.000354	3.540578	1.199580	0.028480
1557	7.7800e-01	-17.6963	-43.841854	0.000044	0.435927	0.147696	0.003507
1558	7.7850e-01	-17.6979	-43.629324	-0.000528	-5.284286	-1.790365	0.042506
1559	7.7900e-01	-17.6289	-43.790966	-0.000402	-4.019034	-1.361686	-0.032328
1560	7.7950e-01	-17.6081	-43.446728	0.000856	8.559055	2.899886	0.068848
1561	7.8000e-01	-17.5631	-43.490773	-0.000110	-1.095134	-0.371041	-0.008809
1562	7.8050e-01	-17.5230	-43.303046	0.000467	4.667609	1.581429	0.037545
1563	7.8100e-01	-17.4797	-43.340249	-0.000093	-0.925016	-0.313404	-0.007441
1564	7.8150e-01	-17.4156	-43.362913	-0.000056	-0.563515	-0.190924	-0.004533
1565	7.8200e-01	-17.4204	-43.151239	-0.000526	-5.263021	-1.783160	0.042335
1566	7.8250e-01	-17.3642	-43.037063	0.000284	2.838842	0.961826	0.022835
1567	7.8300e-01	-17.3225	-42.930584	0.000265	2.647459	0.896983	0.021296
1568	7.8350e-01	-17.2728	-42.877559	0.000132	1.318413	0.446691	0.010605
1569	7.8400e-01	-17.2503	-42.767231	0.000274	2.743150	0.929405	0.022065
1570	7.8450e-01	-17.2102	-42.707364	0.000149	1.488531	0.504328	0.011974
1571	7.8500e-01	-17.1621	-42.721903	-0.000036	-0.361500	-0.122480	-0.002908
1572	7.8550e-01	-17.1268	-42.637233	0.000211	2.105208	0.713264	0.016934
1573	7.8600e-01	-17.0915	-42.566247	0.000176	1.764973	0.597989	0.014197
1574	7.8650e-01	-17.0145	-42.507663	0.000146	1.456634	0.493521	0.011717
1575	7.8700e-01	-17.0081	-42.365264	0.000354	3.540578	1.199580	0.028480
1576	7.8750e-01	-16.9664	-42.364408	0.000002	0.021265	0.007205	0.000171
1577	7.8800e-01	-16.9102	-42.260923	0.000257	2.573033	0.871767	0.020697
1578	7.8850e-01	-16.8942	-42.143754	0.000291	2.913268	0.987042	0.023434
1579	7.8900e-01	-16.8428	-42.074906	0.000171	1.711811	0.579977	0.013770
1580	7.8950e-01	-16.8059	-42.026584	0.000120	1.201457	0.407065	0.009664
1581	7.9000e-01	-16.7514	-42.058656	-0.000080	-0.797427	-0.270176	-0.006414
1582	7.9050e-01	-16.7257	-41.931652	0.000316	3.157813	1.069896	0.025401
1583	7.9100e-01	-16.6728	-41.833725	0.000243	2.434812	0.824937	0.019585
1584	7.9150e-01	-16.6535	-41.642149	0.000476	4.763300	1.613850	0.038315
1585	7.9200e-01	-16.6295	-41.578433	0.000158	1.584223	0.536749	0.012743
1586	7.9250e-01	-16.5717	-41.506592	0.000179	1.786238	0.605194	0.014368
1587	7.9300e-01	-16.5124	-41.505737	0.000002	0.021265	0.007205	0.000171
1588	7.9350e-01	-16.4819	-41.409093	0.000240	2.402915	0.814130	0.019329
1589	7.9400e-01	-16.4289	-41.267550	0.000352	3.519313	1.192376	0.028309
1590	7.9450e-01	-16.4097	-41.265411	0.000005	0.053162	0.018012	0.000428
1591	7.9500e-01	-16.3648	-41.221366	0.000110	1.095134	0.371041	0.008809
1592	7.9550e-01	-16.3086	-41.293207	-0.000179	-1.786238	-0.605194	-0.014368
1593	7.9600e-01	-16.2974	-40.901502	0.000974	9.739247	3.299746	0.078341
1594	7.9650e-01	-16.2348	-41.020382	-0.000296	-2.955798	-1.001451	-0.023776
1595	7.9700e-01	-16.2076	-40.700946	0.000794	7.942377	2.690950	0.063887
1596	7.9750e-01	-16.1562	-40.834365	-0.000332	-3.317298	-1.123931	-0.026684
1597	7.9800e-01	-16.1306	-40.543152	0.000724	7.240641	2.453196	0.058243
1598	7.9850e-01	-16.0921	-40.522199	0.000052	0.520986	0.176515	0.004191
1599	7.9900e-01	-16.0359	-40.447364	0.000186	1.860664	0.630410	0.014967
1600	7.9950e-01	-16.0086	-40.444371	0.000007	0.074427	0.025216	0.000599
1601	8.0000e-01	-15.9332	-40.455061	-0.000027	-0.265809	-0.090059	-0.002138
1602	8.0050e-01	-15.9332	-40.455061	-0.000000	-0.000000	-0.000000	0.000000
1603	8.0100e-01	-15.8899	-40.217302	0.000591	5.911596	2.002903	0.047552
1604	8.0150e-01	-15.8225	-40.095001	0.000304	3.040857	1.030270	0.024460
1605	8.0200e-01	-15.7969	-40.112961	-0.000045	-0.446559	-0.151298	-0.003592
1606	8.0250e-01	-15.7905	-40.025298	0.000218	2.179635	0.738480	0.017533
1607	8.0300e-01	-15.7151	-39.839281	0.000463	4.625079	1.567019	0.037203
1608	8.0350e-01	-15.6685	-39.769578	0.000173	1.733076	0.587182	0.013941
1609	8.0400e-01	-15.6381	-39.637014	0.000330	3.296033	1.116726	0.026513
1610	8.0450e-01	-15.6060	-39.743493	-0.000265	-2.647459	-0.896983	-0.021296
1611	8.0500e-01	-15.5562	-39.579285	0.000408	4.082829	1.383300	0.032842
1612	8.0550e-01	-15.5306	-39.509154	0.000174	1.743708	0.590784	0.014026
1613	8.0600e-01	-15.4792	-39.510865	-0.000004	-0.042529	-0.014409	-0.000342
1614	8.0650e-01	-15.4263	-39.300046	0.000524	5.241756	1.775955	0.042164
1615	8.0700e-01	-15.4038	-39.285506	0.000036	0.361500	0.122480	0.002908
1616	8.0750e-01	-15.3798	-39.228205	0.000142	1.424737	0.482714	0.011460
1617	8.0800e-01	-15.3028	-39.037056	0.000475	4.752668	1.610247	0.038230
1618	8.0850e-01	-15.2932	-38.748409	0.000718	7.176847	2.431582	0.057729
1619	8.0900e-01	-15.2450	-38.898505	-0.000373	-3.731960	-1.264422	-0.030019
1620	8.0950e-01	-15.2129	-38.913472	-0.000037	-0.372133	-0.126082	-0.002993
1621	8.1000e-01	-15.1744	-38.750975	0.000404	4.040299	1.368890	0.032500
1622	8.1050e-01	-15.1263	-38.608576	0.000354	3.540578	1.199580	0.028480
1623	8.1100e-01	-15.0750	-38.582490	0.000065	0.648574	0.219743	0.005217
1624	8.1150e-01	-15.0397	-38.379368	0.000505	5.050374	1.711113	0.040624
1625	8.1200e-01	-15.0108	-38.325915	0.000133	1.329046	0.450293	0.010691
1626	8.1250e-01	-14.9595	-38.376803	-0.000127	-1.265252	-0.428679	-0.010177
1627	8.1300e-01	-14.9146	-38.234403	0.000354	3.540578	1.199580	0.028480
1628	8.1350e-01	-14.8841	-38.147596	0.000216	2.158370	0.731276	0.017362
1629	8.1400e-01	-14.8408	-38.076610	0.000176	1.764973	0.597989	0.014197
1630	8.1450e-01	-14.7878	-38.182661	-0.000264	-2.636827	-0.893381	-0.021210
1631	8.1500e-01	-14.7622	-38.032137	0.000374	3.742593	1.268025	0.030105
1632	8.1550e-01	-14.7188	-38.005196	0.000067	0.669839	0.226948	0.005388
1633	8.1600e-01	-14.6835	-37.759739	0.000610	6.102978	2.067745	0.049091
1634	8.1650e-01	-14.6322	-37.670366	0.000222	2.222165	0.752890	0.017875
1635	8.1700e-01	-14.5985	-37.636583	0.000084	0.839957	0.284585	0.006756
1636	8.1750e-01	-14.5408	-37.476651	0.000398	3.976505	1.347276	0.031986
1637	8.1800e-01	-14.5167	-37.492474	-0.000039	-0.393398	-0.133287	-0.003164
1638	8.1850e-01	-14.4766	-37.309022	0.000456	4.561285	1.545405	0.036690
1639	8.1900e-01	-14.4541	-37.236326	0.000181	1.807502	0.612398	0.014539
1640	8.1950e-01	-14.3932	-37.110177	0.000314	3.136548	1.062691	0.025230
1641	8.2000e-01	-14.3418	-37.187577	-0.000192	-1.924458	-0.652024	-0.015480
1642	8.2050e-01	-14.3306	-37.041329	0.000364	3.636269	1.232001	0.029250
1643	8.2100e-01	-14.2648	-37.069125	-0.000069	-0.691104	-0.234152	-0.005559
1644	8.2150e-01	-14.2408	-36.903634	0.000411	4.114726	1.394107	0.033098
1645	8.2200e-01	-14.1782	-36.784754	0.000296	2.955798	1.001451	0.023776
1646	8.2250e-01	-14.1525	-36.778339	0.000016	0.159485	0.054035	0.001283
1647	8.2300e-01	-14.1301	-36.654328	0.000308	3.083386	1.044680	0.024802
1648	8.2350e-01	-14.0804	-36.537159	0.000291	2.913268	0.987042	0.023434
1649	8.2400e-01	-14.0322	-36.502521	0.000086	0.861222	0.291790	0.006928
1650	8.2450e-01	-14.0242	-36.334037	0.000419	4.189152	1.419323	0.033697
1651	8.2500e-01	-13.9713	-36.237821	0.000239	2.392282	0.810527	0.019243
1652	8.2550e-01	-13.9135	-36.145026	0.000231	2.307223	0.781708	0.018559
1653	8.2600e-01	-13.9039	-36.183513	-0.000096	-0.956913	-0.324211	-0.007697
1654	8.2650e-01	-13.8445	-35.914536	0.000669	6.687758	2.265874	0.053795
1655	8.2700e-01	-13.7996	-35.953023	-0.000096	-0.956913	-0.324211	-0.007697
1656	8.2750e-01	-13.7675	-35.759736	0.000481	4.805829	1.628259	0.038657
1657	8.2800e-01	-13.7034	-35.776413	-0.000041	-0.414662	-0.140491	-0.003335
1658	8.2850e-01	-13.6761	-35.780690	-0.000011	-0.106324	-0.036023	-0.000855
1659	8.2900e-01	-13.6504	-35.611350	0.000421	4.210417	1.426528	0.033868
1660	8.2950e-01	-13.6151	-35.620758	-0.000023	-0.233912	-0.079252	-0.001882
1661	8.3000e-01	-13.5686	-35.455694	0.000410	4.104093	1.390504	0.033013
1662	8.3050e-01	-13.5301	-35.468951	-0.000033	-0.329603	-0.111673	-0.002651
1663	8.3100e-01	-13.4980	-35.281651	0.000466	4.656976	1.577826	0.037460
1664	8.3150e-01	-13.4387	-35.229481	0.000130	1.297149	0.439486	0.010434
1665	8.3200e-01	-13.3986	-35.267539	-0.000095	-0.946281	-0.320609	-0.007612
1666	8.3250e-01	-13.3697	-35.004977	0.000653	6.528273	2.211839	0.052512
1667	8.3300e-01	-13.3103	-35.034056	-0.000072	-0.723001	-0.244959	-0.005816
1668	8.3350e-01	-13.2863	-34.818105	0.000537	5.369345	1.819183	0.043190
1669	8.3400e-01	-13.2574	-34.818533	-0.000001	-0.010632	-0.003602	-0.000086
1670	8.3450e-01	-13.2157	-34.565379	0.000629	6.294361	2.132587	0.050631
1671	8.3500e-01	-13.1483	-34.590608	-0.000063	-0.627310	-0.212538	-0.005046
1672	8.3550e-01	-13.1274	-34.721034	-0.000324	-3.242872	-1.098715	-0.026085
1673	8.3600e-01	-13.0809	-34.486696	0.000583	5.826537	1.974084	0.046868
1674	8.3650e-01	-13.0504	-34.429394	0.000142	1.424737	0.482714	0.011460
1675	8.3700e-01	-12.9927	-34.352849	0.000190	1.903194	0.644819	0.015309
1676	8.3750e-01	-12.9782	-34.182654	0.000423	4.231682	1.433733	0.034039
1677	8.3800e-01	-12.9285	-34.281435	-0.000246	-2.456077	-0.832141	-0.019756
1678	8.3850e-01	-12.8627	-34.106109	0.000436	4.359270	1.476961	0.035065
1679	8.3900e-01	-12.8627	-33.992361	-0.000283	-2.828209	-0.958223	0.022750
1680	8.3950e-01	-12.8034	-33.966276	0.000065	0.648574	0.219743	0.005217
1681	8.4000e-01	-12.7520	-33.813613	0.000380	3.795755	1.286037	0.030532
1682	8.4050e-01	-12.7216	-33.568156	0.000610	6.102978	2.067745	0.049091
1683	8.4100e-01	-12.7232	-33.630162	0.000154	1.541693	0.522340	-0.012401
1684	8.4150e-01	-12.6365	-33.515131	0.000286	2.860106	0.969030	0.023006
1685	8.4200e-01	-12.5932	-33.322700	0.000478	4.784565	1.621054	0.038486
1686	8.4250e-01	-12.5531	-33.551479	-0.000569	-5.688316	-1.927254	-0.045756
1687	8.4300e-01	-12.5226	-33.235892	0.000785	7.846686	2.658529	0.063117
1688	8.4350e-01	-12.4922	-33.364607	-0.000320	-3.200342	-1.084305	-0.025743
1689	8.4400e-01	-12.4617	-32.873693	0.001221	12.205956	4.135490	0.098183
1690	8.4450e-01	-12.3879	-33.101617	-0.000567	-5.667051	-1.920049	-0.045585
1691	8.4500e-01	-12.3783	-32.972474	0.000321	3.210975	1.087908	0.025829
1692	8.4550e-01	-12.3157	-32.969053	0.000009	0.085059	0.028819	0.000684
1693	8.4600e-01	-12.2852	-32.635506	0.000829	8.293246	2.809828	0.066710
1694	8.4650e-01	-12.2355	-32.714616	-0.000197	-1.966988	-0.666433	-0.015822
1695	8.4700e-01	-12.2082	-32.537580	0.000440	4.401800	1.491370	0.035407
1696	8.4750e-01	-12.1585	-32.463173	0.000185	1.850032	0.626808	0.014881
1697	8.4800e-01	-12.1312	-32.385345	0.000194	1.935091	0.655626	0.015566
1698	8.4850e-01	-12.0799	-32.337023	0.000120	1.201457	0.407065	0.009664
1699	8.4900e-01	-12.0430	-32.339589	-0.000006	-0.063794	-0.021614	-0.000513
1700	8.4950e-01	-12.0045	-32.195052	0.000359	3.593740	1.217592	0.028907
1701	8.5000e-01	-11.9515	-32.147585	0.000118	1.180193	0.399860	0.009493
1702	8.5050e-01	-11.9114	-32.158276	-0.000027	-0.265809	-0.090059	-0.002138
1703	8.5100e-01	-11.9002	-31.906405	0.000626	6.262464	2.121780	0.050374
1704	8.5150e-01	-11.8553	-31.812327	0.000234	2.339121	0.792515	0.018816
1705	8.5200e-01	-11.7927	-31.979529	-0.000416	-4.157255	-1.408516	-0.033440
1706	8.5250e-01	-11.7719	-31.673776	0.000760	7.602142	2.575675	0.061150
1707	8.5300e-01	-11.7221	-31.598087	0.000188	1.881929	0.637615	0.015138
1708	8.5350e-01	-11.6740	-31.435589	0.000404	4.040299	1.368890	0.032500
1709	8.5400e-01	-11.6740	-31.295328	-0.000349	-3.487416	-1.181569	0.028052
1710	8.5450e-01	-11.5922	-31.273519	0.000054	0.542251	0.183720	0.004362
1711	8.5500e-01	-11.5777	-31.300887	-0.000068	-0.680471	-0.230550	-0.005474
1712	8.5550e-01	-11.5072	-31.173455	0.000317	3.168445	1.073498	0.025486
1713	8.5600e-01	-11.4799	-31.128982	0.000111	1.105766	0.374644	0.008895
1714	8.5650e-01	-11.4478	-30.982734	0.000364	3.636269	1.232001	0.029250
1715	8.5700e-01	-11.4029	-30.850598	0.000329	3.285401	1.113124	0.026427
1716	8.5750e-01	-11.3580	-30.806552	0.000110	1.095134	0.371041	0.008809
1717	8.5800e-01	-11.3307	-30.673989	0.000330	3.296033	1.116726	0.026513
1718	8.5850e-01	-11.2826	-30.694087	-0.000050	-0.499721	-0.169310	-0.004020
1719	8.5900e-01	-11.2457	-30.573069	0.000301	3.008960	1.019463	0.024204
1720	8.5950e-01	-11.2200	-30.543990	0.000072	0.723001	0.244959	0.005816
1721	8.6000e-01	-11.1558	-30.414848	0.000321	3.210975	1.087908	0.025829
1722	8.6050e-01	-11.1302	-30.429387	-0.000036	-0.361500	-0.122480	-0.002908
1723	8.6100e-01	-11.0820	-30.310079	0.000297	2.966430	1.005054	0.023861
1724	8.6150e-01	-11.0131	-30.193338	0.000290	2.902636	0.983440	0.023348
1725	8.6200e-01	-10.9858	-30.114227	0.000197	1.966988	0.666433	0.015822
1726	8.6250e-01	-10.9730	-29.991926	0.000304	3.040857	1.030270	0.024460
1727	8.6300e-01	-10.9248	-30.004755	-0.000032	-0.318971	-0.108070	-0.002566
1728	8.6350e-01	-10.8767	-29.778541	0.000562	5.624522	1.905640	0.045243
1729	8.6400e-01	-10.8254	-29.730647	0.000119	1.190825	0.403462	0.009579
1730	8.6450e-01	-10.8270	-29.576702	-0.000383	-3.827652	-1.296844	0.030789
1731	8.6500e-01	-10.7564	-29.495881	0.000201	2.009517	0.680843	0.016164
1732	8.6550e-01	-10.7275	-29.452691	0.000107	1.073869	0.363837	0.008638
1733	8.6600e-01	-10.6778	-29.344074	0.000270	2.700621	0.914995	0.021723
1734	8.6650e-01	-10.6633	-29.233747	0.000274	2.743150	0.929405	0.022065
1735	8.6700e-01	-10.5944	-29.260259	-0.000066	-0.659207	-0.223345	-0.005303
1736	8.6750e-01	-10.5639	-29.102038	0.000393	3.933975	1.332867	0.031644
1737	8.6800e-01	-10.5286	-28.944244	0.000392	3.923343	1.329265	0.031559
1738	8.6850e-01	-10.4676	-28.973750	-0.000073	-0.733633	-0.248562	-0.005901
1739	8.6900e-01	-10.4484	-28.803128	0.000424	4.242314	1.437335	0.034124
1740	8.6950e-01	-10.4002	-28.769346	0.000084	0.839957	0.284585	0.006756
1741	8.7000e-01	-10.3489	-28.651749	0.000292	2.923901	0.990644	0.023519
1742	8.7050e-01	-10.3200	-28.579052	0.000181	1.807502	0.612398	0.014539
1743	8.7100e-01	-10.2960	-28.483692	0.000237	2.371018	0.803323	0.019072
1744	8.7150e-01	-10.2494	-28.263037	0.000549	5.486301	1.858809	0.044131
1745	8.7200e-01	-10.1997	-28.268596	-0.000014	-0.138221	-0.046830	-0.001112
1746	8.7250e-01	-10.1660	-28.248498	0.000050	0.499721	0.169310	0.004020
1747	8.7300e-01	-10.1339	-28.098829	0.000372	3.721328	1.260820	0.029934
1748	8.7350e-01	-10.0954	-27.763999	0.000833	8.325143	2.820635	0.066966
1749	8.7400e-01	-10.0072	-27.980377	-0.000538	-5.379977	-1.822786	-0.043276
1750	8.7450e-01	-10.0136	-27.913240	-0.000167	-1.669281	-0.565568	0.013427
1751	8.7500e-01	-9.9687	-27.790084	0.000306	3.062121	1.037475	0.024631
1752	8.7550e-01	-9.9110	-27.696434	0.000233	2.328488	0.788913	0.018730
1753	8.7600e-01	-9.8789	-27.551469	0.000360	3.604372	1.221194	0.028993
1754	8.7650e-01	-9.8580	-27.450549	0.000251	2.509238	0.850153	0.020184
1755	8.7700e-01	-9.7970	-27.456108	-0.000014	-0.138221	-0.046830	-0.001112
1756	8.7750e-01	-9.7537	-27.326110	0.000323	3.232239	1.095112	0.026000
1757	8.7800e-01	-9.7329	-27.235881	0.000224	2.243429	0.760094	0.018046
1758	8.7850e-01	-9.6719	-27.065259	0.000424	4.242314	1.437335	0.034124
1759	8.7900e-01	-9.6398	-27.072956	-0.000019	-0.191383	-0.064842	-0.001539
1760	8.7950e-01	-9.6110	-26.961346	0.000278	2.775048	0.940212	0.022322
1761	8.8000e-01	-9.5709	-26.871545	0.000223	2.232797	0.756492	0.017960
1762	8.8050e-01	-9.5243	-26.769770	0.000253	2.530503	0.857358	0.020355
1763	8.8100e-01	-9.4826	-26.690232	0.000198	1.977620	0.670036	0.015908
1764	8.8150e-01	-9.4393	-26.659870	0.000075	0.754898	0.255766	0.006072
1765	8.8200e-01	-9.4201	-26.516616	0.000356	3.561843	1.206785	0.028651
1766	8.8250e-01	-9.3767	-26.324612	0.000477	4.773932	1.617452	0.038401
1767	8.8300e-01	-9.3238	-26.272014	0.000131	1.307781	0.443088	0.010520
1768	8.8350e-01	-9.2821	-26.252771	0.000048	0.478456	0.162105	0.003849
1769	8.8400e-01	-9.2388	-26.259185	-0.000016	-0.159485	-0.054035	-0.001283
1770	8.8450e-01	-9.2035	-26.199745	0.000148	1.477899	0.500726	0.011888
1771	8.8500e-01	-9.1666	-25.960275	0.000595	5.954125	2.017312	0.047894
1772	8.8550e-01	-9.1329	-25.852086	0.000269	2.689989	0.911393	0.021638
1773	8.8600e-01	-9.0912	-25.781528	0.000175	1.754340	0.594387	0.014112
1774	8.8650e-01	-9.0479	-25.544196	0.000590	5.900963	1.999300	0.047466
1775	8.8700e-01	-8.9901	-25.563439	-0.000048	-0.478456	-0.162105	-0.003849
1776	8.8750e-01	-8.9661	-25.613043	-0.000123	-1.233354	-0.417872	-0.009921
1777	8.8800e-01	-8.9211	-25.270516	0.000852	8.516525	2.885477	0.068506
1778	8.8850e-01	-8.8907	-25.338508	-0.000169	-1.690546	-0.572773	-0.013598
1779	8.8900e-01	-8.8313	-25.384264	-0.000114	-1.137663	-0.385451	-0.009151
1780	8.8950e-01	-8.7912	-25.117853	0.000662	6.623964	2.244260	0.053282
1781	8.9000e-01	-8.7479	-25.116998	0.000002	0.021265	0.007205	0.000171
1782	8.9050e-01	-8.7014	-25.068676	0.000120	1.201457	0.407065	0.009664
1783	8.9100e-01	-8.7078	-24.924139	-0.000359	-3.593740	-1.217592	0.028907
1784	8.9150e-01	-8.6532	-24.795852	0.000319	3.189710	1.080703	0.025658
1785	8.9200e-01	-8.6195	-24.679537	0.000289	2.892004	0.979837	0.023263
1786	8.9250e-01	-8.5730	-24.605131	0.000185	1.850032	0.626808	0.014881
1787	8.9300e-01	-8.5137	-24.568355	0.000091	0.914383	0.309802	0.007355
1788	8.9350e-01	-8.4784	-24.451613	0.000290	2.902636	0.983440	0.023348
1789	8.9400e-01	-8.4447	-24.444771	0.000017	0.170118	0.057637	0.001368
1790	8.9450e-01	-8.4094	-24.377634	0.000167	1.669281	0.565568	0.013427
1791	8.9500e-01	-8.3645	-24.078724	0.000743	7.432024	2.518038	0.059782
1792	8.9550e-01	-8.3324	-24.108658	-0.000074	-0.744266	-0.252164	-0.005987
1793	8.9600e-01	-8.2923	-23.929910	0.000444	4.444329	1.505779	0.035749
1794	8.9650e-01	-8.2377	-23.906391	0.000058	0.584780	0.198129	0.004704
1795	8.9700e-01	-8.2073	-23.932476	-0.000065	-0.648574	-0.219743	-0.005217
1796	8.9750e-01	-8.1784	-23.702414	0.000572	5.720213	1.938061	0.046012
1797	8.9800e-01	-8.1254	-23.705835	-0.000009	-0.085059	-0.028819	-0.000684
1798	8.9850e-01	-8.0805	-23.618172	0.000218	2.179635	0.738480	0.017533
1799	8.9900e-01	-8.0308	-23.492450	0.000313	3.125916	1.059089	0.025144
1800	8.9950e-01	-8.0035	-23.317979	0.000434	4.338005	1.469756	0.034894
1801	9.0000e-01	-7.9490	-23.342781	-0.000062	-0.616677	-0.208936	-0.004960
1802	9.0050e-01	-7.9217	-23.195678	0.000366	3.657534	1.239206	0.029421
1803	9.0100e-01	-7.8832	-23.182849	0.000032	0.318971	0.108070	0.002566
1804	9.0150e-01	-7.8511	-23.019496	0.000406	4.061564	1.376095	0.032671
1805	9.0200e-01	-7.7966	-22.887788	0.000327	3.274769	1.109522	0.026342
1806	9.0250e-01	-7.7500	-22.762493	0.000312	3.115283	1.055487	0.025059
1807	9.0300e-01	-7.7292	-22.845880	-0.000207	-2.073311	-0.702457	-0.016677
1808	9.0350e-01	-7.6891	-22.614535	0.000575	5.752110	1.948868	0.046269
1809	9.0400e-01	-7.6506	-22.486675	0.000318	3.179077	1.077101	0.025572
1810	9.0450e-01	-7.5848	-22.579042	-0.000230	-2.296591	-0.778106	-0.018473
1811	9.0500e-01	-7.5640	-22.420821	0.000393	3.933975	1.332867	0.031644
1812	9.0550e-01	-7.5383	-22.206581	0.000533	5.326815	1.804774	0.042848
1813	9.0600e-01	-7.5030	-22.198456	0.000020	0.202015	0.068445	0.001625
1814	9.0650e-01	-7.4324	-21.975663	0.000554	5.539463	1.876821	0.044559
1815	9.0700e-01	-7.4019	-22.154410	-0.000444	-4.444329	-1.505779	-0.035749
1816	9.0750e-01	-7.3907	-21.787508	0.000912	9.122570	3.090810	0.073380
1817	9.0800e-01	-7.3201	-21.834119	-0.000116	-1.158928	-0.392655	-0.009322
1818	9.0850e-01	-7.2784	-21.819580	0.000036	0.361500	0.122480	0.002908
1819	9.0900e-01	-7.2431	-21.682312	0.000341	3.412990	1.156352	0.027454
1820	9.0950e-01	-7.2030	-21.544617	0.000342	3.423622	1.159954	0.027539
1821	9.1000e-01	-7.1533	-21.571557	-0.000067	-0.669839	-0.226948	-0.005388
1822	9.1050e-01	-7.1035	-21.413763	0.000392	3.923343	1.329265	0.031559
1823	9.1100e-01	-7.0666	-21.498005	-0.000209	-2.094576	-0.709662	-0.016848
1824	9.1150e-01	-7.0330	-21.211924	0.000711	7.113053	2.409968	0.057216
1825	9.1200e-01	-7.0041	-20.978013	0.000582	5.815904	1.970482	0.046782
1826	9.1250e-01	-6.9592	-21.069953	-0.000229	-2.285959	-0.774504	-0.018388
1827	9.1300e-01	-6.9255	-20.948935	0.000301	3.008960	1.019463	0.024204
1828	9.1350e-01	-6.8822	-20.801404	0.000367	3.668166	1.242808	0.029506
1829	9.1400e-01	-6.8388	-20.676537	0.000310	3.104651	1.051884	0.024973
1830	9.1450e-01	-6.8212	-20.777029	-0.000250	-2.498606	-0.846551	-0.020098
1831	9.1500e-01	-6.7474	-20.508908	0.000667	6.666494	2.258669	0.053624
1832	9.1550e-01	-6.7233	-20.389173	0.000298	2.977063	1.008656	0.023947
1833	9.1600e-01	-6.6656	-20.373779	0.000038	0.382765	0.129684	0.003079
1834	9.1650e-01	-6.6544	-20.351542	0.000055	0.552883	0.187322	0.004447
1835	9.1700e-01	-6.6062	-20.198880	0.000380	3.795755	1.286037	0.030532
1836	9.1750e-01	-6.5758	-19.993192	0.000511	5.114168	1.732727	0.041138
1837	9.1800e-01	-6.5100	-19.955561	0.000094	0.935648	0.317006	0.007526
1838	9.1850e-01	-6.4827	-19.863194	0.000230	2.296591	0.778106	0.018473
1839	9.1900e-01	-6.4570	-19.795629	0.000168	1.679914	0.569170	0.013513
1840	9.1950e-01	-6.4201	-19.582244	0.000531	5.305551	1.797569	0.042677
1841	9.2000e-01	-6.3752	-19.577540	0.000012	0.116956	0.039626	0.000941
1842	9.2050e-01	-6.3303	-19.308564	0.000669	6.687758	2.265874	0.053795
1843	9.2100e-01	-6.2693	-19.566422	-0.000641	-6.411317	-2.172213	-0.051572
1844	9.2150e-01	-6.2453	-19.488594	0.000194	1.935091	0.655626	0.015566
1845	9.2200e-01	-6.2068	-19.199947	0.000718	7.176847	2.431582	0.057729
1846	9.2250e-01	-6.1683	-19.088337	0.000278	2.775048	0.940212	0.022322
1847	9.2300e-01	-6.1298	-19.000674	0.000218	2.179635	0.738480	0.017533
1848	9.2350e-01	-6.0672	-19.039588	-0.000097	-0.967545	-0.327813	-0.007783
1849	9.2400e-01	-6.0415	-18.804394	0.000585	5.847801	1.981289	0.047039
1850	9.2450e-01	-5.9950	-18.845873	-0.000103	-1.031340	-0.349427	-0.008296
1851	9.2500e-01	-5.9661	-18.706895	0.000346	3.455519	1.170762	0.027796
1852	9.2550e-01	-5.9196	-18.700909	0.000015	0.148853	0.050433	0.001197
1853	9.2600e-01	-5.9084	-18.583312	0.000292	2.923901	0.990644	0.023519
1854	9.2650e-01	-5.8426	-18.437491	0.000363	3.625637	1.228399	0.029164
1855	9.2700e-01	-5.8009	-18.518313	-0.000201	-2.009517	-0.680843	-0.016164
1856	9.2750e-01	-5.7688	-18.313480	0.000509	5.092903	1.725522	0.040967
1857	9.2800e-01	-5.7448	-18.059898	0.000630	6.304993	2.136189	0.050716
1858	9.2850e-01	-5.7030	-18.014998	0.000112	1.116398	0.378246	0.008980
1859	9.2900e-01	-5.6437	-17.920920	0.000234	2.339121	0.792515	0.018816
1860	9.2950e-01	-5.6020	-17.961117	-0.000100	-0.999442	-0.338620	-0.008039
1861	9.3000e-01	-5.5619	-17.818718	0.000354	3.540578	1.199580	0.028480
1862	9.3050e-01	-5.5410	-17.626286	0.000478	4.784565	1.621054	0.038486
1863	9.3100e-01	-5.4913	-17.568129	0.000145	1.446002	0.489919	0.011631
1864	9.3150e-01	-5.4672	-17.482604	0.000213	2.126473	0.720469	0.017105
1865	9.3200e-01	-5.4111	-17.406487	0.000189	1.892561	0.641217	0.015223
1866	9.3250e-01	-5.3678	-17.167444	0.000594	5.943493	2.013710	0.047809
1867	9.3300e-01	-5.3373	-17.181984	-0.000036	-0.361500	-0.122480	-0.002908
1868	9.3350e-01	-5.2876	-17.379546	-0.000491	-4.912153	-1.664283	-0.039513
1869	9.3400e-01	-5.2250	-17.059255	0.000796	7.963642	2.698155	0.064058
1870	9.3450e-01	-5.2122	-16.916428	0.000355	3.551210	1.203183	0.028565
1871	9.3500e-01	-5.1512	-16.784292	0.000329	3.285401	1.113124	0.026427
1872	9.3550e-01	-5.1159	-16.587157	0.000490	4.901521	1.660680	0.039427
1873	9.3600e-01	-5.1095	-16.709030	-0.000303	-3.030224	-1.026668	-0.024375
1874	9.3650e-01	-5.0517	-16.480250	0.000569	5.688316	1.927254	0.045756
1875	9.3700e-01	-5.0004	-16.606828	-0.000315	-3.147180	-1.066294	-0.025315
1876	9.3750e-01	-4.9619	-16.443047	0.000407	4.072196	1.379697	0.032756
1877	9.3800e-01	-4.9250	-16.297227	0.000363	3.625637	1.228399	0.029164
1878	9.3850e-01	-4.8881	-16.014139	0.000704	7.038626	2.384751	0.056618
1879	9.3900e-01	-4.8384	-16.195024	-0.000450	-4.497491	-1.523791	-0.036177
1880	9.3950e-01	-4.8047	-16.006014	0.000470	4.699506	1.592236	0.037802
1881	9.4000e-01	-4.7774	-15.903384	0.000255	2.551768	0.864562	0.020526
1882	9.4050e-01	-4.7197	-15.841806	0.000153	1.531061	0.518737	0.012316
1883	9.4100e-01	-4.6683	-15.582237	0.000645	6.453846	2.186622	0.051914
1884	9.4150e-01	-4.6603	-15.568126	0.000035	0.350868	0.118877	0.002822
1885	9.4200e-01	-4.6009	-15.282900	0.000709	7.091788	2.402763	0.057045
1886	9.4250e-01	-4.5705	-15.536054	-0.000629	-6.294361	-2.132587	-0.050631
1887	9.4300e-01	-4.5239	-15.178131	0.000890	8.899290	3.015161	0.071584
1888	9.4350e-01	-4.4710	-15.283755	-0.000263	-2.626194	-0.889779	-0.021125
1889	9.4400e-01	-4.4550	-15.063528	0.000548	5.475669	1.855207	0.044045
1890	9.4450e-01	-4.4165	-15.040009	0.000058	0.584780	0.198129	0.004704
1891	9.4500e-01	-4.3715	-14.832610	0.000516	5.156698	1.747136	0.041480
1892	9.4550e-01	-4.3186	-14.812084	0.000051	0.510354	0.172912	0.004105
1893	9.4600e-01	-4.3026	-14.724421	0.000218	2.179635	0.738480	0.017533
1894	9.4650e-01	-4.2368	-14.775308	-0.000127	-1.265252	-0.428679	-0.010177
1895	9.4700e-01	-4.2111	-14.510608	0.000658	6.581435	2.229850	0.052940
1896	9.4750e-01	-4.1646	-14.397288	0.000282	2.817577	0.954621	0.022664
1897	9.4800e-01	-4.1100	-14.366071	0.000078	0.776163	0.262971	0.006243
1898	9.4850e-01	-4.0828	-14.133443	0.000578	5.784007	1.959675	0.046526
1899	9.4900e-01	-4.0443	-14.169363	-0.000089	-0.893119	-0.302597	-0.007184
1900	9.4950e-01	-4.0122	-14.157818	0.000029	0.287074	0.097263	0.002309
1901	9.5000e-01	-3.9721	-13.960255	0.000491	4.912153	1.664283	0.039513
1902	9.5050e-01	-3.9031	-13.939729	0.000051	0.510354	0.172912	0.004105
1903	9.5100e-01	-3.8871	-13.845224	0.000235	2.349753	0.796118	0.018901
1904	9.5150e-01	-3.8453	-13.579241	0.000661	6.613332	2.240657	0.053197
1905	9.5200e-01	-3.8261	-13.526215	0.000132	1.318413	0.446691	0.010605
1906	9.5250e-01	-3.7635	-13.450098	0.000189	1.892561	0.641217	0.015223
1907	9.5300e-01	-3.7443	-13.429999	0.000050	0.499721	0.169310	0.004020
1908	9.5350e-01	-3.6897	-13.233719	0.000488	4.880256	1.653476	0.039256
1909	9.5400e-01	-3.6544	-13.199082	0.000086	0.861222	0.291790	0.006928
1910	9.5450e-01	-3.6095	-13.143918	0.000137	1.371575	0.464702	0.011033
1911	9.5500e-01	-3.5598	-12.985697	0.000393	3.933975	1.332867	0.031644
1912	9.5550e-01	-3.5197	-12.939513	0.000115	1.148296	0.389053	0.009237
1913	9.5600e-01	-3.4988	-12.807377	0.000329	3.285401	1.113124	0.026427
1914	9.5650e-01	-3.4475	-12.791555	0.000039	0.393398	0.133287	0.003164
1915	9.5700e-01	-3.4090	-12.688497	0.000256	2.562400	0.868165	0.020612
1916	9.5750e-01	-3.3769	-12.558499	0.000323	3.232239	1.095112	0.026000
1917	9.5800e-01	-3.3143	-12.554223	0.000011	0.106324	0.036023	0.000855
1918	9.5850e-01	-3.2774	-12.420376	0.000333	3.327931	1.127533	0.026769
1919	9.5900e-01	-3.2550	-12.247615	0.000430	4.295476	1.455347	0.034552
1920	9.5950e-01	-3.2069	-12.108210	0.000347	3.466151	1.174364	0.027881
1921	9.6000e-01	-3.1652	-12.153538	-0.000113	-1.127031	-0.381848	-0.009066
1922	9.6050e-01	-3.1331	-11.976073	0.000441	4.412432	1.494972	0.035493
1923	9.6100e-01	-3.0657	-11.911074	0.000162	1.616120	0.547556	0.013000
1924	9.6150e-01	-3.0336	-11.813148	0.000243	2.434812	0.824937	0.019585
1925	9.6200e-01	-3.0304	-11.642953	0.000423	4.231682	1.433733	0.034039
1926	9.6250e-01	-2.9614	-11.522363	0.000300	2.998327	1.015861	0.024118
1927	9.6300e-01	-2.9213	-11.501837	0.000051	0.510354	0.172912	0.004105
1928	9.6350e-01	-2.8812	-11.445390	0.000140	1.403472	0.475509	0.011289
1929	9.6400e-01	-2.8620	-11.332070	0.000282	2.817577	0.954621	0.022664
1930	9.6450e-01	-2.8074	-11.216183	0.000288	2.881371	0.976235	0.023177
1931	9.6500e-01	-2.7625	-11.009213	0.000515	5.146065	1.743534	0.041394
1932	9.6550e-01	-2.6903	-11.105856	-0.000240	-2.402915	-0.814130	-0.019329
1933	9.6600e-01	-2.6823	-10.915563	0.000473	4.731403	1.603043	0.038059
1934	9.6650e-01	-2.6582	-10.886057	0.000073	0.733633	0.248562	0.005901
1935	9.6700e-01	-2.5764	-10.803525	0.000205	2.052047	0.695252	0.016506
1936	9.6750e-01	-2.5780	-10.516161	-0.000714	-7.144950	-2.420775	0.057473
1937	9.6800e-01	-2.5122	-10.599975	-0.000208	-2.083944	-0.706059	-0.016763
1938	9.6850e-01	-2.4753	-10.617508	-0.000044	-0.435927	-0.147696	-0.003507
1939	9.6900e-01	-2.4529	-10.322019	0.000735	7.346965	2.489219	0.059098
1940	9.6950e-01	-2.3935	-10.353236	-0.000078	-0.776163	-0.262971	-0.006243
1941	9.7000e-01	-2.3678	-10.079128	0.000682	6.815347	2.309102	0.054822
1942	9.7050e-01	-2.3293	-9.867453	0.000526	5.263021	1.783160	0.042335
1943	9.7100e-01	-2.2796	-9.888407	-0.000052	-0.520986	-0.176515	-0.004191
1944	9.7150e-01	-2.2363	-9.785349	0.000256	2.562400	0.868165	0.020612
1945	9.7200e-01	-2.1914	-9.737028	0.000120	1.201457	0.407065	0.009664
1946	9.7250e-01	-2.1577	-9.669890	0.000167	1.669281	0.565568	0.013427
1947	9.7300e-01	-2.1144	-9.573675	0.000239	2.392282	0.810527	0.019243
1948	9.7350e-01	-2.0967	-9.426144	0.000367	3.668166	1.242808	0.029506
1949	9.7400e-01	-2.0245	-9.418019	0.000020	0.202015	0.068445	0.001625
1950	9.7450e-01	-2.0037	-9.270488	0.000367	3.668166	1.242808	0.029506
1951	9.7500e-01	-1.9652	-9.165720	0.000260	2.604930	0.882574	0.020954
1952	9.7550e-01	-1.9267	-8.874935	0.000723	7.230009	2.449593	0.058157
1953	9.7600e-01	-1.8721	-9.099866	-0.000559	-5.592625	-1.894832	-0.044986
1954	9.7650e-01	-1.8481	-8.863389	0.000588	5.879698	1.992096	0.047295
1955	9.7700e-01	-1.8192	-8.747503	0.000288	2.881371	0.976235	0.023177
1956	9.7750e-01	-1.7438	-8.734674	0.000032	0.318971	0.108070	0.002566
1957	9.7800e-01	-1.7326	-8.545663	0.000470	4.699506	1.592236	0.037802
1958	9.7850e-01	-1.6844	-8.380173	0.000411	4.114726	1.394107	0.033098
1959	9.7900e-01	-1.6235	-8.443033	-0.000156	-1.562958	-0.529544	-0.012572
1960	9.7950e-01	-1.6026	-8.248036	0.000485	4.848359	1.642668	0.038999
1961	9.8000e-01	-1.5770	-8.162084	0.000214	2.137106	0.724071	0.017191
1962	9.8050e-01	-1.5353	-8.052184	0.000273	2.732518	0.925802	0.021980
1963	9.8100e-01	-1.4855	-7.828108	0.000557	5.571360	1.887628	0.044815
1964	9.8150e-01	-1.4246	-8.024388	-0.000488	-4.880256	-1.653476	-0.039256
1965	9.8200e-01	-1.4085	-7.855476	0.000420	4.199785	1.422926	0.033782
1966	9.8250e-01	-1.3668	-7.626269	0.000570	5.698948	1.930856	0.045841
1967	9.8300e-01	-1.3347	-7.484298	0.000353	3.529946	1.195978	0.028394
1968	9.8350e-01	-1.2754	-7.556139	-0.000179	-1.786238	-0.605194	-0.014368
1969	9.8400e-01	-1.2272	-7.533474	0.000056	0.563515	0.190924	0.004533
1970	9.8450e-01	-1.2016	-7.252525	0.000699	6.985465	2.366739	0.056190
1971	9.8500e-01	-1.1599	-7.243972	0.000021	0.212647	0.072047	0.001711
1972	9.8550e-01	-1.1246	-7.178973	0.000162	1.616120	0.547556	0.013000
1973	9.8600e-01	-1.0877	-6.987825	0.000475	4.752668	1.610247	0.038230
1974	9.8650e-01	-1.0588	-6.907003	0.000201	2.009517	0.680843	0.016164
1975	9.8700e-01	-1.0026	-6.804801	0.000254	2.541135	0.860960	0.020440
1976	9.8750e-01	-0.9738	-6.709868	0.000236	2.360385	0.799720	0.018987
1977	9.8800e-01	-0.9369	-6.513161	0.000489	4.890888	1.657078	0.039342
1978	9.8850e-01	-0.8743	-6.372044	0.000351	3.508681	1.188773	0.028223
1979	9.8900e-01	-0.8470	-6.369906	0.000005	0.053162	0.018012	0.000428
1980	9.8950e-01	-0.8150	-6.344676	0.000063	0.627310	0.212538	0.005046
1981	9.9000e-01	-0.7668	-6.115897	0.000569	5.688316	1.927254	0.045756
1982	9.9050e-01	-0.7235	-6.177475	-0.000153	-1.531061	-0.518737	-0.012316
1983	9.9100e-01	-0.6914	-5.988037	0.000471	4.710138	1.595838	0.037888
1984	9.9150e-01	-0.6465	-5.896097	0.000229	2.285959	0.774504	0.018388
1985	9.9200e-01	-0.6144	-5.782349	0.000283	2.828209	0.958223	0.022750
1986	9.9250e-01	-0.5711	-5.611299	0.000425	4.252946	1.440937	0.034210
1987	9.9300e-01	-0.5294	-5.733172	-0.000303	-3.030224	-1.026668	-0.024375
1988	9.9350e-01	-0.4652	-5.610444	0.000305	3.051489	1.033872	0.024546
1989	9.9400e-01	-0.4380	-5.313672	0.000738	7.378862	2.500026	0.059354
1990	9.9450e-01	-0.3946	-5.216601	0.000241	2.413547	0.817732	0.019414
1991	9.9500e-01	-0.3561	-5.310251	-0.000233	-2.328488	-0.788913	-0.018730
1992	9.9550e-01	-0.2888	-5.278606	0.000079	0.786795	0.266573	0.006329
1993	9.9600e-01	-0.2791	-5.069498	0.000520	5.199227	1.761546	0.041822
1994	9.9650e-01	-0.2294	-4.912559	0.000390	3.902078	1.322060	0.031388
1995	9.9700e-01	-0.2134	-4.833876	0.000196	1.956355	0.662831	0.015737
1996	9.9750e-01	-0.1540	-4.552499	0.000700	6.996097	2.370342	0.056275
1997	9.9800e-01	-0.1267	-4.652563	-0.000249	-2.487974	-0.842948	-0.020013
1998	9.9850e-01	-0.0674	-4.543519	0.000271	2.711253	0.918598	0.021809
1999	9.9900e-01	-0.0209	-4.487500	0.000139	1.392840	0.471907	0.011204
2000	9.9950e-01	-0.0096	-4.188162	0.000744	7.442656	2.521640	0.059868
2001	1.0000e+00	0.0369	-4.198853	0.000744	7.442656	2.521640	-0.002138

PMax (uC/cm2):	4.97e+01
Pr (uC/cm2):	1.95e+00
-Pr (uC/cm2):	-2.09e+00
PLoss (uC/cm2):	-2.10e+00
-Vc:	-7.88e-01
C (Max-Eff) (nF):	2.48e-01
K (Eff):	8.41e+02
Vert. (+/-Pr) Shift (uC/cm2):	-7.08e-02
Offset (uC/cm2):	2.11e+00

A (Loop Area - uC/cm2·Volts):	-2.40e-01



Hysteresis Version: 5.48.1 - Radiant Technologies, Inc., 1999 - 9/12/24

