»»»»»»»»»»»»»»»»»»»»»»»»»»»»»»»»»»»» Hysteresis ««««««««««««««««««««««««««««««««««««
»»»  Executed Version:	5.48.1
»»»  Vision Version:	5.48.4 (R)
»»»  Vision Compiled:	9/18/24
»»»  Driver Version:	5.47.0
»»»  Windows Version:	Windows 8 or 8.1
»»»  Processor Information:	x86 (AMD or Intel) - 32 Processors
»»»  Tester Name:	PMF21124-494 (100V)
»»»  Tester S/N:	PMF21124-494
»»»  Internal Amp Type:	100V RevK 270k
»»»  Internal Amp S/N:	iAB2-596/K     
»»»  Execution Count:	1
»»»»»»»»»»»»»»»»»»»»»»»»»»»»»»»»»»»»»»»»»»««««««««««««««««««««««««««««««««««««««««««

Stored:	6/19/2025 - 11:24:33
Configured:	06/19/25 10:04:32 AM
Executed:	06/19/25 11:24:09 AM

»»»»»»»»»»»»»»»»»»»»»»»»»»»»»»»»»»» Sample Info ««««««««««««««««««««««««««««««««««««
Sample Name:	
Lot Name:	
Wafer Name:	
Die Row/Column:	0/0
Capacitor Number:	0
Sample Area (cm2):	1.00e-04
Sample Thickness (microns):	3.00e-01

Amplifier:	Internal

»»»»»»»»»»»»»»»»»»»»»»»»»»»»»»»»»»» Tester Info «««««««««««««««««««««««««««««««««««
Tester Name:	PMF21124-494 (100V)
Tester Serial Number:	PMF21124-494
Return Signal Amp. Level:	1.79 [Index: 2]

»»»»»»»»»»»»»»»»»»»»»»»»»»»»»»»» Hysteresis Info ««««««««««««««««««««««««««««««««««
Task Name:	Hyst-1168
Volts:	20.00
Field:	666.67 (kV/cm)
DCBias:	0.00
DCField:	0.00 (kV/cm)
Hysteresis Period (ms):	1.00e+00
Preset:	Enabled
Preset Delay (ms):	1.00e+03
Profile:	Standard Bipolar

»»»»»»»»»»»»»»»»»»»»»»»»»»»»»»»»»»»»»» Data «««««««««««««««««««««««««««««««««««««««
Points:	2001

Valid Data

Point	Time (ms)	Drive Voltage	Measured Polarization (uC/cm2)	Capacitance (uF)	Normalized Capacitance (uF/cm2)	Dielectric Constant	Instantaneous Current (mA)
   1	0.0000e+00	0.0545	-1.887966	0.000761	7.613883	2.579653	0.061150
   2	5.0000e-04	0.0690	-1.582214	0.000761	7.613883	2.579653	0.061150
   3	1.0000e-03	0.1235	-1.701093	-0.000296	-2.960363	-1.002998	-0.023776
   4	1.5000e-03	0.1717	-1.574516	0.000315	3.152041	1.067940	0.025315
   5	2.0000e-03	0.2021	-1.610864	-0.000091	-0.905147	-0.306672	-0.007270
   6	2.5000e-03	0.2454	-1.480866	0.000324	3.237231	1.096804	0.026000
   7	3.0000e-03	0.2823	-1.340178	0.000350	3.503451	1.187001	0.028138
   8	3.5000e-03	0.3353	-1.216594	0.000308	3.077500	1.042685	0.024717
   9	4.0000e-03	0.3449	-1.234127	-0.000044	-0.436600	-0.147924	-0.003507
  10	4.5000e-03	0.4043	-1.075905	0.000394	3.940051	1.334926	0.031644
  11	5.0000e-03	0.4524	-0.882619	0.000481	4.813252	1.630774	0.038657
  12	5.5000e-03	0.4684	-0.831731	0.000127	1.267206	0.429341	0.010177
  13	6.0000e-03	0.5246	-0.731667	0.000249	2.491816	0.844250	0.020013
  14	6.5000e-03	0.5711	-0.728246	0.000009	0.085190	0.028863	0.000684
  15	7.0000e-03	0.6128	-0.542229	0.000463	4.632222	1.569439	0.037203
  16	7.5000e-03	0.6289	-0.381014	0.000401	4.014593	1.360181	0.032243
  17	8.0000e-03	0.6754	-0.433184	-0.000130	-1.299152	-0.440165	-0.010434
  18	8.5000e-03	0.7203	-0.292068	0.000351	3.514100	1.190609	0.028223
  19	9.0000e-03	0.7636	-0.336541	-0.000111	-1.107474	-0.375222	-0.008895
  20	9.5000e-03	0.8150	-0.115886	0.000549	5.494774	1.861680	0.044131
  21	1.0000e-02	0.8567	-0.070558	0.000113	1.128771	0.382438	0.009066
  22	1.0500e-02	0.8936	0.129998	0.000499	4.994281	1.692108	0.040111
  23	1.1000e-02	0.9096	0.142399	0.000031	0.308815	0.104629	0.002480
  24	1.1500e-02	0.9513	0.314305	0.000428	4.280812	1.450379	0.034381
  25	1.2000e-02	1.0026	0.209536	-0.000261	-2.608953	-0.883937	-0.020954
  26	1.2500e-02	1.0331	0.582853	0.000930	9.296391	3.149703	0.074663
  27	1.3000e-02	1.0716	0.685483	0.000256	2.555709	0.865898	0.020526
  28	1.3500e-02	1.1101	0.604662	-0.000201	-2.012621	-0.681894	-0.016164
  29	1.4000e-02	1.1775	0.616636	0.000030	0.298166	0.101021	0.002395
  30	1.4500e-02	1.2080	0.810778	0.000483	4.834549	1.637990	0.038828
  31	1.5000e-02	1.2304	1.007058	0.000489	4.887793	1.656029	0.039256
  32	1.5500e-02	1.2802	1.038274	0.000078	0.777361	0.263377	0.006243
  33	1.6000e-02	1.3203	1.093438	0.000137	1.373694	0.465420	0.011033
  34	1.6500e-02	1.3299	1.249093	0.000388	3.876159	1.313278	0.031131
  35	1.7000e-02	1.3973	1.418005	0.000421	4.206271	1.425123	0.033782
  36	1.7500e-02	1.4246	1.382513	-0.000088	-0.883849	-0.299456	-0.007099
  37	1.8000e-02	1.4935	1.474880	0.000230	2.300138	0.779308	0.018473
  38	1.8500e-02	1.4951	1.707080	0.000578	5.782291	1.959093	0.046440
  39	1.9000e-02	1.5481	1.586062	-0.000301	-3.013607	-1.021038	-0.024204
  40	1.9500e-02	1.6090	1.761389	0.000437	4.366003	1.479242	0.035065
  41	2.0000e-02	1.6540	1.801585	0.000100	1.000986	0.339143	0.008039
  42	2.0500e-02	1.6668	1.922603	0.000301	3.013607	1.021038	0.024204
  43	2.1000e-02	1.7101	2.059443	0.000341	3.407612	1.154530	0.027368
  44	2.1500e-02	1.7775	2.078686	0.000048	0.479195	0.162356	0.003849
  45	2.2000e-02	1.7759	2.401116	-0.000803	-8.029186	-2.720362	0.064486
  46	2.2500e-02	1.8721	2.297631	-0.000258	-2.577007	-0.873113	-0.020697
  47	2.3000e-02	1.9010	2.360919	0.000158	1.576021	0.533970	0.012658
  48	2.3500e-02	1.9267	2.555916	0.000486	4.855847	1.645205	0.038999
  49	2.4000e-02	1.9588	2.671803	0.000289	2.885821	0.977743	0.023177
  50	2.4500e-02	1.9973	2.557199	-0.000285	-2.853875	-0.966919	-0.022921
  51	2.5000e-02	2.0470	2.844991	0.000717	7.166634	2.428121	0.057558
  52	2.5500e-02	2.0743	2.900155	0.000137	1.373694	0.465420	0.011033
  53	2.6000e-02	2.1176	3.012620	0.000280	2.800631	0.948879	0.022493
  54	2.6500e-02	2.1545	3.053672	0.000102	1.022284	0.346359	0.008210
  55	2.7000e-02	2.1866	3.353010	0.000745	7.454151	2.525535	0.059868
  56	2.7500e-02	2.2315	3.220446	-0.000330	-3.301124	-1.118451	-0.026513
  57	2.8000e-02	2.2844	3.388503	0.000418	4.184973	1.417907	0.033611
  58	2.8500e-02	2.3422	3.414160	0.000064	0.638927	0.216474	0.005132
  59	2.9000e-02	2.3823	3.494126	0.000199	1.991323	0.674679	0.015993
  60	2.9500e-02	2.4063	3.699814	0.000512	5.122067	1.735403	0.041138
  61	3.0000e-02	2.4416	3.812707	0.000281	2.811280	0.952487	0.022579
  62	3.0500e-02	2.4769	3.882410	0.000174	1.735752	0.588089	0.013941
  63	3.1000e-02	2.4866	4.032079	0.000373	3.727076	1.262767	0.029934
  64	3.1500e-02	2.5604	4.047473	0.000038	0.383356	0.129885	0.003079
  65	3.2000e-02	2.6117	4.127439	0.000199	1.991323	0.674679	0.015993
  66	3.2500e-02	2.6261	4.312601	0.000461	4.610925	1.562224	0.037032
  67	3.3000e-02	2.6743	4.322009	0.000023	0.234273	0.079374	0.001882
  68	3.3500e-02	2.7288	4.397271	0.000187	1.874187	0.634992	0.015052
  69	3.4000e-02	2.7545	4.534538	0.000342	3.418261	1.158138	0.027454
  70	3.4500e-02	2.7721	4.722694	0.000469	4.685466	1.587479	0.037631
  71	3.5000e-02	2.8411	4.652135	-0.000176	-1.757050	-0.595305	-0.014112
  72	3.5500e-02	2.8700	4.798811	0.000365	3.652534	1.237512	0.029335
  73	3.6000e-02	2.9165	4.998512	0.000497	4.972984	1.684892	0.039940
  74	3.6500e-02	2.9614	5.022031	0.000059	0.585683	0.198435	0.004704
  75	3.7000e-02	3.0079	5.065649	0.000109	1.086176	0.368006	0.008724
  76	3.7500e-02	3.0416	5.231995	0.000414	4.142378	1.403476	0.033269
  77	3.8000e-02	3.0577	5.318376	0.000215	2.151055	0.728797	0.017276
  78	3.8500e-02	3.1074	5.265778	-0.000131	-1.309801	-0.443773	-0.010520
  79	3.9000e-02	3.1475	5.444953	0.000446	4.461842	1.511713	0.035835
  80	3.9500e-02	3.2004	5.549293	0.000260	2.598304	0.880329	0.020868
  81	4.0000e-02	3.2309	5.681002	0.000328	3.279826	1.111235	0.026342
  82	4.0500e-02	3.2662	5.940570	0.000646	6.463814	2.189999	0.051914
  83	4.1000e-02	3.2999	5.867874	-0.000181	-1.810294	-0.613344	-0.014539
  84	4.1500e-02	3.3737	5.932018	0.000160	1.597318	0.541186	0.012829
  85	4.2000e-02	3.3881	6.049187	0.000292	2.917768	0.988566	0.023434
  86	4.2500e-02	3.4138	6.203132	0.000383	3.833563	1.298846	0.030789
  87	4.3000e-02	3.4796	6.274118	0.000177	1.767699	0.598913	0.014197
  88	4.3500e-02	3.5309	6.240763	-0.000083	-0.830605	-0.281417	-0.006671
  89	4.4000e-02	3.5534	6.424215	0.000457	4.568330	1.547792	0.036690
  90	4.4500e-02	3.6079	6.458852	0.000086	0.862552	0.292240	0.006928
  91	4.5000e-02	3.6432	6.496483	0.000094	0.937093	0.317496	0.007526
  92	4.5500e-02	3.6737	6.753486	0.000640	6.399921	2.168352	0.051401
  93	4.6000e-02	3.7202	6.764177	0.000027	0.266220	0.090198	0.002138
  94	4.6500e-02	3.7764	6.879208	0.000286	2.864524	0.970527	0.023006
  95	4.7000e-02	3.7908	7.047692	0.000420	4.195622	1.421515	0.033697
  96	4.7500e-02	3.8389	7.060521	0.000032	0.319464	0.108237	0.002566
  97	4.8000e-02	3.8662	7.350023	0.000721	7.209229	2.442553	0.057900
  98	4.8500e-02	3.9207	7.313247	-0.000092	-0.915796	-0.310280	-0.007355
  99	4.9000e-02	3.9721	7.400055	0.000216	2.161704	0.732405	0.017362
 100	4.9500e-02	4.0058	7.556566	0.000390	3.897456	1.320494	0.031302
 101	5.0000e-02	4.0491	7.668604	0.000279	2.789982	0.945272	0.022408
 102	5.0500e-02	4.0796	7.711367	0.000106	1.064879	0.360791	0.008553
 103	5.1000e-02	4.1277	7.723340	0.000030	0.298166	0.101021	0.002395
 104	5.1500e-02	4.1566	7.838799	0.000288	2.875173	0.974135	0.023092
 105	5.2000e-02	4.1870	8.028665	0.000473	4.728062	1.601911	0.037973
 106	5.2500e-02	4.2320	8.070144	0.000103	1.032932	0.349967	0.008296
 107	5.3000e-02	4.2961	8.221096	0.000376	3.759022	1.273591	0.030190
 108	5.3500e-02	4.3186	8.316884	0.000239	2.385328	0.808171	0.019158
 109	5.4000e-02	4.3635	8.351949	0.000087	0.873201	0.295848	0.007013
 110	5.4500e-02	4.4020	8.446882	0.000236	2.364031	0.800955	0.018987
 111	5.5000e-02	4.4357	8.627340	0.000449	4.493788	1.522537	0.036092
 112	5.5500e-02	4.4870	8.573459	-0.000134	-1.341747	-0.454596	-0.010776
 113	5.6000e-02	4.5159	8.900165	0.000814	8.135673	2.756441	0.065341
 114	5.6500e-02	4.5512	8.942927	0.000106	1.064879	0.360791	0.008553
 115	5.7000e-02	4.6138	8.948914	0.000015	0.149083	0.050511	0.001197
 116	5.7500e-02	4.6186	9.074636	0.000313	3.130743	1.060725	0.025144
 117	5.8000e-02	4.6699	9.131938	0.000143	1.426937	0.483460	0.011460
 118	5.8500e-02	4.7213	9.249962	0.000294	2.939065	0.995782	0.023605
 119	5.9000e-02	4.7501	9.243976	-0.000015	-0.149083	-0.050511	-0.001197
 120	5.9500e-02	4.7854	9.559563	0.000786	7.858805	2.662635	0.063117
 121	6.0000e-02	4.8448	9.506537	-0.000132	-1.320450	-0.447380	-0.010605
 122	6.0500e-02	4.8737	9.675022	0.000420	4.195622	1.421515	0.033697
 123	6.1000e-02	4.9314	9.758836	0.000209	2.087162	0.707150	0.016763
 124	6.1500e-02	4.9378	9.807586	0.000121	1.213962	0.411301	0.009750
 125	6.2000e-02	5.0036	9.960676	0.000381	3.812266	1.291631	0.030618
 126	6.2500e-02	5.0469	10.056036	0.000237	2.374680	0.804563	0.019072
 127	6.3000e-02	5.0726	10.002155	-0.000134	-1.341747	-0.454596	-0.010776
 128	6.3500e-02	5.1111	10.241625	0.000596	5.963321	2.020428	0.047894
 129	6.4000e-02	5.1704	10.283105	0.000103	1.032932	0.349967	0.008296
 130	6.4500e-02	5.2170	10.319026	0.000089	0.894498	0.303064	0.007184
 131	6.5000e-02	5.2474	10.440899	0.000303	3.034904	1.028253	0.024375
 132	6.5500e-02	5.2795	10.546522	0.000263	2.630250	0.891153	0.021125
 133	6.6000e-02	5.3084	10.753493	0.000515	5.154013	1.746227	0.041394
 134	6.6500e-02	5.3662	10.878787	0.000312	3.120095	1.057117	0.025059
 135	6.7000e-02	5.3998	10.906583	0.000069	0.692171	0.234514	0.005559
 136	6.7500e-02	5.4239	11.045561	0.000346	3.460856	1.172570	0.027796
 137	6.8000e-02	5.4849	11.055396	0.000024	0.244922	0.082982	0.001967
 138	6.8500e-02	5.5314	11.172993	0.000293	2.928416	0.992174	0.023519
 139	6.9000e-02	5.5635	11.295294	0.000305	3.045553	1.031861	0.024460
 140	6.9500e-02	5.5924	11.435983	0.000350	3.503451	1.187001	0.028138
 141	7.0000e-02	5.6309	11.541606	0.000263	2.630250	0.891153	0.021125
 142	7.0500e-02	5.6774	11.532626	-0.000022	-0.223625	-0.075766	-0.001796
 143	7.1000e-02	5.6950	11.704104	0.000427	4.270164	1.446771	0.034296
 144	7.1500e-02	5.7640	11.710518	0.000016	0.159732	0.054119	0.001283
 145	7.2000e-02	5.7913	11.850352	0.000348	3.482153	1.179786	0.027967
 146	7.2500e-02	5.8266	12.049625	0.000496	4.962335	1.681285	0.039855
 147	7.3000e-02	5.8827	12.081697	0.000080	0.798659	0.270593	0.006414
 148	7.3500e-02	5.9164	12.244622	0.000406	4.057188	1.374612	0.032585
 149	7.4000e-02	5.9597	12.208702	-0.000089	-0.894498	-0.303064	-0.007184
 150	7.4500e-02	6.0062	12.296792	0.000219	2.193650	0.743229	0.017618
 151	7.5000e-02	6.0399	12.413106	0.000290	2.896470	0.981351	0.023263
 152	7.5500e-02	6.0961	12.434915	0.000054	0.543088	0.184003	0.004362
 153	7.6000e-02	6.1089	12.707740	0.000679	6.793926	2.301845	0.054565
 154	7.6500e-02	6.1651	12.747509	0.000099	0.990337	0.335535	0.007954
 155	7.7000e-02	6.1972	12.794548	0.000117	1.171367	0.396870	0.009408
 156	7.7500e-02	6.2421	12.935237	0.000350	3.503451	1.187001	0.028138
 157	7.8000e-02	6.2822	13.020334	0.000212	2.119109	0.717973	0.017019
 158	7.8500e-02	6.3319	13.090465	0.000175	1.746401	0.591697	0.014026
 159	7.9000e-02	6.3640	13.187108	0.000241	2.406626	0.815387	0.019329
 160	7.9500e-02	6.3929	13.324804	0.000343	3.428909	1.161746	0.027539
 161	8.0000e-02	6.4266	13.480032	0.000387	3.865510	1.309670	0.031046
 162	8.0500e-02	6.4955	13.519373	0.000098	0.979688	0.331927	0.007868
 163	8.1000e-02	6.4875	13.724633	-0.000511	-5.111418	-1.731795	0.041052
 164	8.1500e-02	6.5533	13.733613	0.000022	0.223625	0.075766	0.001796
 165	8.2000e-02	6.5998	13.732330	-0.000003	-0.031946	-0.010824	-0.000257
 166	8.2500e-02	6.6479	13.840947	0.000270	2.704792	0.916408	0.021723
 167	8.3000e-02	6.6768	14.079562	0.000594	5.942023	2.013212	0.047723
 168	8.3500e-02	6.7249	14.177916	0.000245	2.449221	0.829819	0.019671
 169	8.4000e-02	6.7586	14.127029	-0.000127	-1.267206	-0.429341	-0.010177
 170	8.4500e-02	6.7987	14.404985	0.000692	6.921712	2.345139	0.055591
 171	8.5000e-02	6.8437	14.350677	-0.000135	-1.352396	-0.458204	-0.010862
 172	8.5500e-02	6.8870	14.441761	0.000227	2.268192	0.768484	0.018217
 173	8.6000e-02	6.9255	14.631626	0.000473	4.728062	1.601911	0.037973
 174	8.6500e-02	6.9624	14.722283	0.000226	2.257543	0.764876	0.018131
 175	8.7000e-02	7.0089	14.746658	0.000061	0.606981	0.205651	0.004875
 176	8.7500e-02	7.0378	14.922839	0.000439	4.387300	1.486458	0.035236
 177	8.8000e-02	7.0554	15.117836	0.000486	4.855847	1.645205	0.038999
 178	8.8500e-02	7.1228	15.121685	0.000010	0.095839	0.032471	0.000770
 179	8.9000e-02	7.1533	15.316254	0.000485	4.845198	1.641598	0.038914
 180	8.9500e-02	7.1838	15.348326	0.000080	0.798659	0.270593	0.006414
 181	9.0000e-02	7.2543	15.323524	-0.000062	-0.617630	-0.209259	-0.004960
 182	9.0500e-02	7.2928	15.358162	0.000086	0.862552	0.292240	0.006928
 183	9.1000e-02	7.3265	15.562994	0.000510	5.100769	1.728187	0.040967
 184	9.1500e-02	7.3474	15.682302	0.000297	2.971012	1.006606	0.023861
 185	9.2000e-02	7.3971	15.799899	0.000293	2.928416	0.992174	0.023519
 186	9.2500e-02	7.4244	15.864470	0.000161	1.607967	0.544794	0.012914
 187	9.3000e-02	7.4725	16.018843	0.000384	3.844212	1.302454	0.030875
 188	9.3500e-02	7.5271	16.073579	0.000136	1.363045	0.461812	0.010947
 189	9.4000e-02	7.5656	16.156966	0.000208	2.076514	0.703542	0.016677
 190	9.4500e-02	7.5864	16.363936	0.000515	5.154013	1.746227	0.041394
 191	9.5000e-02	7.6361	16.385745	0.000054	0.543088	0.184003	0.004362
 192	9.5500e-02	7.6714	16.558078	0.000429	4.291461	1.453986	0.034467
 193	9.6000e-02	7.7196	16.591433	0.000083	0.830605	0.281417	0.006671
 194	9.6500e-02	7.7468	16.654722	0.000158	1.576021	0.533970	0.012658
 195	9.7000e-02	7.8030	16.842877	0.000469	4.685466	1.587479	0.037631
 196	9.7500e-02	7.8463	16.863403	0.000051	0.511142	0.173180	0.004105
 197	9.8000e-02	7.8768	16.920277	0.000142	1.416289	0.479852	0.011375
 198	9.8500e-02	7.9169	17.042578	0.000305	3.045553	1.031861	0.024460
 199	9.9000e-02	7.9634	17.011361	-0.000078	-0.777361	-0.263377	-0.006243
 200	9.9500e-02	7.9907	17.413329	0.001001	10.009860	3.391432	0.080394
 201	1.0000e-01	8.0180	17.387671	-0.000064	-0.638927	-0.216474	-0.005132
 202	1.0050e-01	8.0452	17.571550	0.000458	4.578979	1.551400	0.036776
 203	1.0100e-01	8.1222	17.727206	0.000388	3.876159	1.313278	0.031131
 204	1.0150e-01	8.1527	17.539478	-0.000467	-4.674818	-1.583871	-0.037545
 205	1.0200e-01	8.1928	17.879013	0.000846	8.455137	2.864678	0.067907
 206	1.0250e-01	8.2409	17.751580	-0.000317	-3.173339	-1.075156	-0.025486
 207	1.0300e-01	8.2794	17.983353	0.000577	5.771643	1.955485	0.046355
 208	1.0350e-01	8.3035	18.029109	0.000114	1.139420	0.386046	0.009151
 209	1.0400e-01	8.3500	18.257033	0.000568	5.675804	1.923014	0.045585
 210	1.0450e-01	8.4142	18.108648	-0.000370	-3.695129	-1.251944	-0.029677
 211	1.0500e-01	8.4094	18.331868	-0.000556	-5.558667	-1.883327	0.044644
 212	1.0550e-01	8.4655	18.450748	0.000296	2.960363	1.002998	0.023776
 213	1.0600e-01	8.5233	18.564068	0.000282	2.821929	0.956095	0.022664
 214	1.0650e-01	8.5602	18.737257	0.000431	4.312759	1.461202	0.034638
 215	1.0700e-01	8.6067	18.744526	0.000018	0.181029	0.061334	0.001454
 216	1.0750e-01	8.6452	18.767190	0.000056	0.564386	0.191219	0.004533
 217	1.0800e-01	8.7062	18.896333	0.000322	3.215934	1.089588	0.025829
 218	1.0850e-01	8.7334	19.104587	0.000519	5.185959	1.757051	0.041651
 219	1.0900e-01	8.7511	19.117843	0.000033	0.330112	0.111845	0.002651
 220	1.0950e-01	8.8217	19.225605	0.000268	2.683494	0.909193	0.021552
 221	1.1000e-01	8.8409	19.349616	0.000309	3.088148	1.046293	0.024802
 222	1.1050e-01	8.8666	19.524515	0.000436	4.355354	1.475634	0.034980
 223	1.1100e-01	8.9211	19.633132	0.000270	2.704792	0.916408	0.021723
 224	1.1150e-01	8.9452	19.665204	0.000080	0.798659	0.270593	0.006414
 225	1.1200e-01	9.0126	19.655368	-0.000024	-0.244922	-0.082982	-0.001967
 226	1.1250e-01	9.0575	19.776814	0.000302	3.024256	1.024646	0.024289
 227	1.1300e-01	9.0912	19.966252	0.000472	4.717413	1.598303	0.037888
 228	1.1350e-01	9.0992	20.078717	0.000280	2.800631	0.948879	0.022493
 229	1.1400e-01	9.1554	20.232662	0.000383	3.833563	1.298846	0.030789
 230	1.1450e-01	9.1890	20.137729	-0.000236	-2.364031	-0.800955	-0.018987
 231	1.1500e-01	9.2596	20.336575	0.000495	4.951686	1.677677	0.039769
 232	1.1550e-01	9.2773	20.387035	0.000126	1.256557	0.425733	0.010092
 233	1.1600e-01	9.3190	20.582032	0.000486	4.855847	1.645205	0.038999
 234	1.1650e-01	9.3559	20.723576	0.000352	3.524749	1.194217	0.028309
 235	1.1700e-01	9.3832	20.802687	0.000197	1.970026	0.667463	0.015822
 236	1.1750e-01	9.4473	20.827489	0.000062	0.617630	0.209259	0.004960
 237	1.1800e-01	9.5019	20.945514	0.000294	2.939065	0.995782	0.023605
 238	1.1850e-01	9.5324	20.992980	0.000118	1.182015	0.400478	0.009493
 239	1.1900e-01	9.5548	21.186267	0.000481	4.813252	1.630774	0.038657
 240	1.1950e-01	9.5917	21.341067	0.000385	3.854861	1.306062	0.030960
 241	1.2000e-01	9.6366	21.311988	-0.000072	-0.724118	-0.245338	-0.005816
 242	1.2050e-01	9.6848	21.485604	0.000432	4.323408	1.464810	0.034723
 243	1.2100e-01	9.7056	21.626721	0.000351	3.514100	1.190609	0.028223
 244	1.2150e-01	9.7297	21.746456	0.000298	2.981660	1.010214	0.023947
 245	1.2200e-01	9.7698	21.850369	0.000259	2.587655	0.876721	0.020783
 246	1.2250e-01	9.8307	21.853362	0.000007	0.074542	0.025255	0.000599
 247	1.2300e-01	9.8757	21.896980	0.000109	1.086176	0.368006	0.008724
 248	1.2350e-01	9.9254	21.952571	0.000138	1.384342	0.469028	0.011118
 249	1.2400e-01	9.9462	22.195462	0.000605	6.048511	2.049291	0.048578
 250	1.2450e-01	10.0008	22.342138	0.000365	3.652534	1.237512	0.029335
 251	1.2500e-01	10.0313	22.314770	-0.000068	-0.681522	-0.230906	-0.005474
 252	1.2550e-01	10.0553	22.569634	0.000635	6.346677	2.150312	0.050973
 253	1.2600e-01	10.1163	22.611114	0.000103	1.032932	0.349967	0.008296
 254	1.2650e-01	10.1468	22.688087	0.000192	1.916782	0.649423	0.015395
 255	1.2700e-01	10.1997	22.677396	-0.000027	-0.266220	-0.090198	-0.002138
 256	1.2750e-01	10.2270	22.763349	0.000214	2.140406	0.725189	0.017191
 257	1.2800e-01	10.2575	22.966043	0.000505	5.047525	1.710148	0.040539
 258	1.2850e-01	10.3056	23.035746	0.000174	1.735752	0.588089	0.013941
 259	1.2900e-01	10.3393	23.181994	0.000364	3.641885	1.233904	0.029250
 260	1.2950e-01	10.3938	23.180711	-0.000003	-0.031946	-0.010824	-0.000257
 261	1.3000e-01	10.4436	23.306860	0.000314	3.141392	1.064333	0.025230
 262	1.3050e-01	10.4805	23.355182	0.000120	1.203313	0.407693	0.009664
 263	1.3100e-01	10.5510	23.338505	-0.000042	-0.415303	-0.140708	-0.003335
 264	1.3150e-01	10.5526	23.727216	0.000968	9.679748	3.279587	0.077742
 265	1.3200e-01	10.5879	23.829418	0.000255	2.545060	0.862290	0.020440
 266	1.3250e-01	10.6361	23.790932	-0.000096	-0.958391	-0.324712	-0.007697
 267	1.3300e-01	10.6762	24.007738	0.000540	5.398935	1.829209	0.043361
 268	1.3350e-01	10.7179	23.960699	-0.000117	-1.171367	-0.396870	-0.009408
 269	1.3400e-01	10.7435	24.054349	0.000233	2.332084	0.790132	0.018730
 270	1.3450e-01	10.8109	24.253623	0.000496	4.962335	1.681285	0.039855
 271	1.3500e-01	10.8334	24.306221	0.000131	1.309801	0.443773	0.010520
 272	1.3550e-01	10.8751	24.366943	0.000151	1.512128	0.512323	0.012145
 273	1.3600e-01	10.9088	24.425100	0.000145	1.448235	0.490675	0.011631
 274	1.3650e-01	10.9489	24.656873	0.000577	5.771643	1.955485	0.046355
 275	1.3700e-01	10.9906	24.681676	0.000062	0.617630	0.209259	0.004960
 276	1.3750e-01	11.0339	24.903613	0.000553	5.526721	1.872504	0.044388
 277	1.3800e-01	11.0676	24.832627	-0.000177	-1.767699	-0.598913	-0.014197
 278	1.3850e-01	11.1125	25.083216	0.000624	6.240189	2.114233	0.050118
 279	1.3900e-01	11.1446	25.134958	0.000129	1.288503	0.436557	0.010349
 280	1.3950e-01	11.1895	25.166603	0.000079	0.788010	0.266985	0.006329
 281	1.4000e-01	11.2216	25.323541	0.000391	3.908105	1.324102	0.031388
 282	1.4050e-01	11.2762	25.296173	-0.000068	-0.681522	-0.230906	-0.005474
 283	1.4100e-01	11.3130	25.473210	0.000441	4.408598	1.493673	0.035407
 284	1.4150e-01	11.3564	25.574557	0.000252	2.523763	0.855074	0.020269
 285	1.4200e-01	11.4029	25.675477	0.000251	2.513114	0.851466	0.020184
 286	1.4250e-01	11.4270	25.858928	0.000457	4.568330	1.547792	0.036690
 287	1.4300e-01	11.4638	25.899552	0.000101	1.011635	0.342751	0.008125
 288	1.4350e-01	11.5168	25.949585	0.000125	1.245908	0.422125	0.010006
 289	1.4400e-01	11.5601	26.079583	0.000324	3.237231	1.096804	0.026000
 290	1.4450e-01	11.6098	26.198462	0.000296	2.960363	1.002998	0.023776
 291	1.4500e-01	11.6355	26.336158	0.000343	3.428909	1.161746	0.027539
 292	1.4550e-01	11.6756	26.465728	0.000323	3.226583	1.093196	0.025914
 293	1.4600e-01	11.7269	26.347276	-0.000295	-2.949714	-0.999390	-0.023690
 294	1.4650e-01	11.7606	26.626943	0.000696	6.964307	2.359571	0.055933
 295	1.4700e-01	11.7975	26.735132	0.000269	2.694143	0.912800	0.021638
 296	1.4750e-01	11.8617	26.663719	-0.000178	-1.778347	-0.602520	-0.014283
 297	1.4800e-01	11.8665	26.914307	0.000624	6.240189	2.114233	0.050118
 298	1.4850e-01	11.9178	26.950228	0.000089	0.894498	0.303064	0.007184
 299	1.4900e-01	11.9724	27.054141	0.000259	2.587655	0.876721	0.020783
 300	1.4950e-01	12.0141	27.223053	0.000421	4.206271	1.425123	0.033782
 301	1.5000e-01	12.0269	27.240158	0.000043	0.425951	0.144316	0.003421
 302	1.5050e-01	12.0702	27.445418	0.000511	5.111418	1.731795	0.041052
 303	1.5100e-01	12.1200	27.427030	-0.000046	-0.457898	-0.155140	-0.003678
 304	1.5150e-01	12.1585	27.484332	0.000143	1.426937	0.483460	0.011460
 305	1.5200e-01	12.1954	27.606632	0.000305	3.045553	1.031861	0.024460
 306	1.5250e-01	12.2451	27.778110	0.000427	4.270164	1.446771	0.034296
 307	1.5300e-01	12.2740	27.902122	0.000309	3.088148	1.046293	0.024802
 308	1.5350e-01	12.3029	27.994061	0.000229	2.289489	0.775700	0.018388
 309	1.5400e-01	12.3718	28.023567	0.000073	0.734766	0.248946	0.005901
 310	1.5450e-01	12.3959	28.141164	0.000293	2.928416	0.992174	0.023519
 311	1.5500e-01	12.4264	28.328036	0.000465	4.653520	1.576655	0.037374
 312	1.5550e-01	12.4906	28.399877	0.000179	1.788996	0.606128	0.014368
 313	1.5600e-01	12.5258	28.383200	-0.000042	-0.415303	-0.140708	-0.003335
 314	1.5650e-01	12.5499	28.624381	0.000601	6.005916	2.034859	0.048236
 315	1.5700e-01	12.5948	28.586750	-0.000094	-0.937093	-0.317496	-0.007526
 316	1.5750e-01	12.6317	28.742833	0.000389	3.886807	1.316886	0.031217
 317	1.5800e-01	12.6847	28.821944	0.000197	1.970026	0.667463	0.015822
 318	1.5850e-01	12.7232	28.895495	0.000183	1.831591	0.620560	0.014710
 319	1.5900e-01	12.7649	29.026776	0.000327	3.269178	1.107627	0.026256
 320	1.5950e-01	12.7970	29.143945	0.000292	2.917768	0.988566	0.023434
 321	1.6000e-01	12.8162	29.249569	0.000263	2.630250	0.891153	0.021125
 322	1.6050e-01	12.8852	29.347495	0.000244	2.438572	0.826211	0.019585
 323	1.6100e-01	12.9365	29.403514	0.000139	1.394991	0.472636	0.011204
 324	1.6150e-01	12.9157	29.619465	-0.000538	-5.377638	-1.821993	0.043190
 325	1.6200e-01	12.9943	29.651537	0.000080	0.798659	0.270593	0.006414
 326	1.6250e-01	13.0649	29.591669	-0.000149	-1.490830	-0.505107	-0.011974
 327	1.6300e-01	13.0809	29.814889	0.000556	5.558667	1.883327	0.044644
 328	1.6350e-01	13.0954	29.943177	0.000319	3.194636	1.082372	0.025658
 329	1.6400e-01	13.1531	30.021860	0.000196	1.959377	0.663855	0.015737
 330	1.6450e-01	13.1756	30.163832	0.000354	3.535397	1.197825	0.028394
 331	1.6500e-01	13.2445	30.101398	-0.000155	-1.554723	-0.526754	-0.012487
 332	1.6550e-01	13.2782	30.246791	0.000362	3.620588	1.226688	0.029079
 333	1.6600e-01	13.2975	30.544846	0.000742	7.422205	2.514711	0.059611
 334	1.6650e-01	13.3504	30.548694	0.000010	0.095839	0.032471	0.000770
 335	1.6700e-01	13.4098	30.578201	0.000073	0.734766	0.248946	0.005901
 336	1.6750e-01	13.4499	30.713330	0.000337	3.365017	1.140099	0.027026
 337	1.6800e-01	13.4595	30.829217	0.000289	2.885821	0.977743	0.023177
 338	1.6850e-01	13.5028	31.012668	0.000457	4.568330	1.547792	0.036690
 339	1.6900e-01	13.5510	31.022076	0.000023	0.234273	0.079374	0.001882
 340	1.6950e-01	13.6103	31.083654	0.000153	1.533425	0.519539	0.012316
 341	1.7000e-01	13.6296	31.259408	0.000438	4.376652	1.482850	0.035151
 342	1.7050e-01	13.6745	31.246579	-0.000032	-0.319464	-0.108237	-0.002566
 343	1.7100e-01	13.7066	31.392399	0.000363	3.631236	1.230296	0.029164
 344	1.7150e-01	13.7627	31.485621	0.000232	2.321436	0.786524	0.018644
 345	1.7200e-01	13.8044	31.719960	0.000584	5.835535	1.977133	0.046868
 346	1.7250e-01	13.8413	31.631014	-0.000221	-2.214948	-0.750445	-0.017789
 347	1.7300e-01	13.8734	31.710552	0.000198	1.980674	0.671071	0.015908
 348	1.7350e-01	13.9183	31.940615	0.000573	5.729048	1.941054	0.046012
 349	1.7400e-01	13.9424	32.074461	0.000333	3.333070	1.129275	0.026769
 350	1.7450e-01	14.0033	32.032982	-0.000103	-1.032932	-0.349967	-0.008296
 351	1.7500e-01	14.0290	32.222420	0.000472	4.717413	1.598303	0.037888
 352	1.7550e-01	14.0739	32.203604	-0.000047	-0.468547	-0.158748	-0.003763
 353	1.7600e-01	14.0964	32.460179	0.000639	6.389272	2.164744	0.051315
 354	1.7650e-01	14.1461	32.477712	0.000044	0.436600	0.147924	0.003507
 355	1.7700e-01	14.1943	32.548698	0.000177	1.767699	0.598913	0.014197
 356	1.7750e-01	14.2408	32.586329	0.000094	0.937093	0.317496	0.007526
 357	1.7800e-01	14.2648	32.798431	0.000528	5.281798	1.789522	0.042420
 358	1.7850e-01	14.3194	32.732577	-0.000164	-1.639913	-0.555618	-0.013171
 359	1.7900e-01	14.3611	32.978889	0.000613	6.133701	2.078154	0.049262
 360	1.7950e-01	14.3980	33.093065	0.000284	2.843226	0.963311	0.022835
 361	1.8000e-01	14.4301	33.092637	-0.000001	-0.010649	-0.003608	-0.000086
 362	1.8050e-01	14.4686	33.321417	0.000570	5.697101	1.930230	0.045756
 363	1.8100e-01	14.5167	33.393685	0.000180	1.799645	0.609736	0.014454
 364	1.8150e-01	14.5729	33.467237	0.000183	1.831591	0.620560	0.014710
 365	1.8200e-01	14.5969	33.594242	0.000316	3.162690	1.071548	0.025401
 366	1.8250e-01	14.6386	33.614340	0.000050	0.500493	0.169572	0.004020
 367	1.8300e-01	14.6611	33.830718	0.000539	5.388286	1.825601	0.043276
 368	1.8350e-01	14.7060	33.923513	0.000231	2.310787	0.782916	0.018559
 369	1.8400e-01	14.7573	34.051373	0.000318	3.183987	1.078764	0.025572
 370	1.8450e-01	14.8167	34.015880	-0.000088	-0.883849	-0.299456	-0.007099
 371	1.8500e-01	14.8231	34.127490	0.000278	2.779333	0.941664	0.022322
 372	1.8550e-01	14.8857	34.265613	0.000344	3.439558	1.165354	0.027625
 373	1.8600e-01	14.9001	34.351138	0.000213	2.129757	0.721581	0.017105
 374	1.8650e-01	14.9498	34.422124	0.000177	1.767699	0.598913	0.014197
 375	1.8700e-01	15.0028	34.541432	0.000297	2.971012	1.006606	0.023861
 376	1.8750e-01	15.0333	34.611990	0.000176	1.757050	0.595305	0.014112
 377	1.8800e-01	15.0654	34.774060	0.000404	4.035890	1.367397	0.032414
 378	1.8850e-01	15.1183	34.872414	0.000245	2.449221	0.829819	0.019671
 379	1.8900e-01	15.1440	34.930998	0.000146	1.458884	0.494283	0.011717
 380	1.8950e-01	15.2065	34.890374	-0.000101	-1.011635	-0.342751	-0.008125
 381	1.9000e-01	15.2322	35.066128	0.000438	4.376652	1.482850	0.035151
 382	1.9050e-01	15.2835	35.389412	0.000805	8.050483	2.727578	0.064657
 383	1.9100e-01	15.3397	35.105042	-0.000708	-7.081444	-2.399258	-0.056874
 384	1.9150e-01	15.3734	35.397965	0.000729	7.294419	2.471416	0.058585
 385	1.9200e-01	15.3942	35.399675	0.000004	0.042595	0.014432	0.000342
 386	1.9250e-01	15.4183	35.678060	0.000693	6.932360	2.348747	0.055677
 387	1.9300e-01	15.4696	35.770427	0.000230	2.300138	0.779308	0.018473
 388	1.9350e-01	15.5161	35.954305	0.000458	4.578979	1.551400	0.036776
 389	1.9400e-01	15.5562	35.923944	-0.000076	-0.756064	-0.256161	-0.006072
 390	1.9450e-01	15.5899	35.901708	-0.000055	-0.553737	-0.187611	-0.004447
 391	1.9500e-01	15.6252	36.140750	0.000595	5.952672	2.016820	0.047809
 392	1.9550e-01	15.6669	36.177526	0.000092	0.915796	0.310280	0.007355
 393	1.9600e-01	15.7215	36.271176	0.000233	2.332084	0.790132	0.018730
 394	1.9650e-01	15.7728	36.290419	0.000048	0.479195	0.162356	0.003849
 395	1.9700e-01	15.8033	36.351142	0.000151	1.512128	0.512323	0.012145
 396	1.9750e-01	15.8498	36.544428	0.000481	4.813252	1.630774	0.038657
 397	1.9800e-01	15.8931	36.653473	0.000272	2.715441	0.920016	0.021809
 398	1.9850e-01	15.9060	36.694952	0.000103	1.032932	0.349967	0.008296
 399	1.9900e-01	15.9509	36.958797	0.000657	6.570302	2.226078	0.052769
 400	1.9950e-01	16.0054	37.006691	0.000119	1.192664	0.404086	0.009579
 401	2.0000e-01	16.0407	37.027217	0.000051	0.511142	0.173180	0.004105
 402	2.0050e-01	16.0808	37.152084	0.000311	3.109446	1.053509	0.024973
 403	2.0100e-01	16.1402	37.250010	0.000244	2.438572	0.826211	0.019585
 404	2.0150e-01	16.1675	37.320141	0.000175	1.746401	0.591697	0.014026
 405	2.0200e-01	16.1915	37.475369	0.000387	3.865510	1.309670	0.031046
 406	2.0250e-01	16.2220	37.507868	0.000081	0.809308	0.274201	0.006500
 407	2.0300e-01	16.2910	37.539940	0.000080	0.798659	0.270593	0.006414
 408	2.0350e-01	16.3247	37.728523	0.000470	4.696115	1.591087	0.037717
 409	2.0400e-01	16.3728	37.820035	0.000228	2.278840	0.772092	0.018302
 410	2.0450e-01	16.3985	37.899573	0.000198	1.980674	0.671071	0.015908
 411	2.0500e-01	16.4338	38.055228	0.000388	3.876159	1.313278	0.031131
 412	2.0550e-01	16.4755	38.100129	0.000112	1.118123	0.378830	0.008980
 413	2.0600e-01	16.5060	38.268613	0.000420	4.195622	1.421515	0.033697
 414	2.0650e-01	16.5605	38.276311	0.000019	0.191678	0.064942	0.001539
 415	2.0700e-01	16.6006	38.427690	0.000377	3.769671	1.277199	0.030276
 416	2.0750e-01	16.6311	38.564530	0.000341	3.407612	1.154530	0.027368
 417	2.0800e-01	16.6953	38.651766	0.000217	2.172353	0.736013	0.017447
 418	2.0850e-01	16.7145	38.688114	0.000091	0.905147	0.306672	0.007270
 419	2.0900e-01	16.7578	38.827947	0.000348	3.482153	1.179786	0.027967
 420	2.0950e-01	16.8059	38.994294	0.000414	4.142378	1.403476	0.033269
 421	2.1000e-01	16.8316	39.042188	0.000119	1.192664	0.404086	0.009579
 422	2.1050e-01	16.8926	39.094785	0.000131	1.309801	0.443773	0.010520
 423	2.1100e-01	16.9263	39.105476	0.000027	0.266220	0.090198	0.002138
 424	2.1150e-01	16.9664	39.359913	0.000634	6.336028	2.146705	0.050887
 425	2.1200e-01	16.9808	39.477938	0.000294	2.939065	0.995782	0.023605
 426	2.1250e-01	17.0482	39.432182	-0.000114	-1.139420	-0.386046	-0.009151
 427	2.1300e-01	17.0787	39.504878	0.000181	1.810294	0.613344	0.014539
 428	2.1350e-01	17.1188	39.558759	0.000134	1.341747	0.454596	0.010776
 429	2.1400e-01	17.1589	39.741355	0.000455	4.547032	1.540576	0.036519
 430	2.1450e-01	17.1958	39.870070	0.000321	3.205285	1.085980	0.025743
 431	2.1500e-01	17.2599	39.878623	0.000021	0.212976	0.072158	0.001711
 432	2.1550e-01	17.2840	40.037272	0.000395	3.950700	1.338533	0.031730
 433	2.1600e-01	17.3369	40.086021	0.000121	1.213962	0.411301	0.009750
 434	2.1650e-01	17.3754	40.244242	0.000394	3.940051	1.334926	0.031644
 435	2.1700e-01	17.4075	40.373813	0.000323	3.226583	1.093196	0.025914
 436	2.1750e-01	17.4412	40.511508	0.000343	3.428909	1.161746	0.027539
 437	2.1800e-01	17.4877	40.511936	0.000001	0.010649	0.003608	0.000086
 438	2.1850e-01	17.5230	40.607296	0.000237	2.374680	0.804563	0.019072
 439	2.1900e-01	17.5647	40.753972	0.000365	3.652534	1.237512	0.029335
 440	2.1950e-01	17.6049	40.756110	0.000005	0.053244	0.018040	0.000428
 441	2.2000e-01	17.6273	40.950679	0.000485	4.845198	1.641598	0.038914
 442	2.2050e-01	17.6770	41.034921	0.000210	2.097811	0.710758	0.016848
 443	2.2100e-01	17.7155	41.208537	0.000432	4.323408	1.464810	0.034723
 444	2.2150e-01	17.7556	41.139262	-0.000173	-1.725104	-0.584481	-0.013855
 445	2.2200e-01	17.7781	41.364193	0.000560	5.601262	1.897759	0.044986
 446	2.2250e-01	17.8391	41.530111	0.000413	4.131729	1.399868	0.033184
 447	2.2300e-01	17.8776	41.531822	0.000004	0.042595	0.014432	0.000342
 448	2.2350e-01	17.9064	41.524552	-0.000018	-0.181029	-0.061334	-0.001454
 449	2.2400e-01	17.9674	41.780272	0.000637	6.367975	2.157528	0.051144
 450	2.2450e-01	18.0059	41.826883	0.000116	1.160718	0.393262	0.009322
 451	2.2500e-01	18.0621	41.796950	-0.000075	-0.745415	-0.252553	-0.005987
 452	2.2550e-01	18.0701	41.914547	0.000293	2.928416	0.992174	0.023519
 453	2.2600e-01	18.1022	42.041124	0.000315	3.152041	1.067940	0.025315
 454	2.2650e-01	18.1776	42.173260	0.000329	3.290475	1.114843	0.026427
 455	2.2700e-01	18.1952	42.330198	0.000391	3.908105	1.324102	0.031388
 456	2.2750e-01	18.2369	42.385790	0.000138	1.384342	0.469028	0.011118
 457	2.2800e-01	18.2674	42.521774	0.000339	3.386314	1.147314	0.027197
 458	2.2850e-01	18.3252	42.605589	0.000209	2.087162	0.707150	0.016763
 459	2.2900e-01	18.3524	42.744995	0.000347	3.471505	1.176178	0.027881
 460	2.2950e-01	18.3957	42.738153	-0.000017	-0.170381	-0.057727	-0.001368
 461	2.3000e-01	18.4342	42.836934	0.000246	2.459870	0.833426	0.019756
 462	2.3050e-01	18.4856	42.947689	0.000276	2.758036	0.934448	0.022151
 463	2.3100e-01	18.5080	43.052030	0.000260	2.598304	0.880329	0.020868
 464	2.3150e-01	18.5513	43.174758	0.000306	3.056202	1.035469	0.024546
 465	2.3200e-01	18.6043	43.268408	0.000233	2.332084	0.790132	0.018730
 466	2.3250e-01	18.6396	43.265842	-0.000006	-0.063893	-0.021647	-0.000513
 467	2.3300e-01	18.6717	43.487352	0.000552	5.516072	1.868896	0.044302
 468	2.3350e-01	18.7326	43.495905	0.000021	0.212976	0.072158	0.001711
 469	2.3400e-01	18.7406	43.642153	0.000364	3.641885	1.233904	0.029250
 470	2.3450e-01	18.8112	43.884616	0.000604	6.037862	2.045683	0.048493
 471	2.3500e-01	18.8209	43.840571	-0.000110	-1.096825	-0.371614	-0.008809
 472	2.3550e-01	18.8658	44.024022	0.000457	4.568330	1.547792	0.036690
 473	2.3600e-01	18.9428	43.945339	-0.000196	-1.959377	-0.663855	-0.015737
 474	2.3650e-01	18.9492	44.128363	0.000456	4.557681	1.544184	0.036605
 475	2.3700e-01	18.9861	44.232276	0.000259	2.587655	0.876721	0.020783
 476	2.3750e-01	19.0310	44.377668	0.000362	3.620588	1.226688	0.029079
 477	2.3800e-01	19.0904	44.462338	0.000211	2.108460	0.714366	0.016934
 478	2.3850e-01	19.1128	44.376813	-0.000213	-2.129757	-0.721581	-0.017105
 479	2.3900e-01	19.1706	44.633388	0.000639	6.389272	2.164744	0.051315
 480	2.3950e-01	19.2091	44.686414	0.000132	1.320450	0.447380	0.010605
 481	2.4000e-01	19.2299	44.757399	0.000177	1.767699	0.598913	0.014197
 482	2.4050e-01	19.2749	44.776215	0.000047	0.468547	0.158748	0.003763
 483	2.4100e-01	19.3150	44.933581	0.000392	3.918754	1.327710	0.031473
 484	2.4150e-01	19.3631	45.074270	0.000350	3.503451	1.187001	0.028138
 485	2.4200e-01	19.3984	45.013119	-0.000152	-1.522777	-0.515931	-0.012230
 486	2.4250e-01	19.4080	45.498474	0.001209	12.086374	4.094974	0.097071
 487	2.4300e-01	19.4834	45.407817	-0.000226	-2.257543	-0.764876	-0.018131
 488	2.4350e-01	19.5203	45.459560	0.000129	1.288503	0.436557	0.010349
 489	2.4400e-01	19.5861	45.469395	0.000024	0.244922	0.082982	0.001967
 490	2.4450e-01	19.5829	45.666958	-0.000492	-4.919740	-1.666853	0.039513
 491	2.4500e-01	19.6535	45.716135	0.000122	1.224611	0.414909	0.009835
 492	2.4550e-01	19.6695	45.913698	0.000492	4.919740	1.666853	0.039513
 493	2.4600e-01	19.6968	45.971428	0.000144	1.437586	0.487067	0.011546
 494	2.4650e-01	19.7641	46.038992	0.000168	1.682508	0.570049	0.013513
 495	2.4700e-01	19.8026	46.093301	0.000135	1.352396	0.458204	0.010862
 496	2.4750e-01	19.8331	46.341751	0.000619	6.186945	2.096194	0.049690
 497	2.4800e-01	19.8732	46.297706	-0.000110	-1.096825	-0.371614	-0.008809
 498	2.4850e-01	19.9149	46.356718	0.000147	1.469533	0.497891	0.011802
 499	2.4900e-01	19.9486	46.568392	0.000527	5.271150	1.785914	0.042335
 500	2.4950e-01	20.0080	46.618425	0.000125	1.245908	0.422125	0.010006
 501	2.5000e-01	20.0417	46.648358	0.000075	0.745415	0.252553	0.005987
 502	2.5050e-01	19.9871	46.505531	0.000356	3.556695	1.205041	-0.028565
 503	2.5100e-01	19.9502	46.558985	-0.000133	-1.331098	-0.450988	0.010691
 504	2.5150e-01	19.9085	46.387079	0.000428	4.280812	1.450379	-0.034381
 505	2.5200e-01	19.8684	46.454216	-0.000167	-1.671860	-0.566441	0.013427
 506	2.5250e-01	19.8460	46.203200	0.000625	6.250838	2.117841	-0.050203
 507	2.5300e-01	19.8059	46.071492	0.000328	3.279826	1.111235	-0.026342
 508	2.5350e-01	19.7369	46.275041	-0.000507	-5.068823	-1.717364	0.040710
 509	2.5400e-01	19.7208	46.010341	0.000659	6.591599	2.233294	-0.052940
 510	2.5450e-01	19.6727	46.020177	-0.000024	-0.244922	-0.082982	0.001967
 511	2.5500e-01	19.6069	45.863238	0.000391	3.908105	1.324102	-0.031388
 512	2.5550e-01	19.5893	45.799095	0.000160	1.597318	0.541186	-0.012829
 513	2.5600e-01	19.5444	45.777713	0.000053	0.532439	0.180395	-0.004276
 514	2.5650e-01	19.4994	45.699030	0.000196	1.959377	0.663855	-0.015737
 515	2.5700e-01	19.4513	45.454856	0.000608	6.080458	2.060115	-0.048835
 516	2.5750e-01	19.4144	45.554493	-0.000248	-2.481167	-0.840642	0.019927
 517	2.5800e-01	19.4176	45.217097	-0.000840	-8.401893	-2.846638	-0.067479
 518	2.5850e-01	19.3310	45.264135	-0.000117	-1.171367	-0.396870	0.009408
 519	2.5900e-01	19.3342	45.181604	-0.000206	-2.055216	-0.696326	-0.016506
 520	2.5950e-01	19.2668	45.016113	0.000412	4.121081	1.396260	-0.033098
 521	2.6000e-01	19.2283	45.070849	-0.000136	-1.363045	-0.461812	0.010947
 522	2.6050e-01	19.1850	45.001573	0.000173	1.725104	0.584481	-0.013855
 523	2.6100e-01	19.1385	44.824109	0.000442	4.419247	1.497281	-0.035493
 524	2.6150e-01	19.1016	44.758255	0.000164	1.639913	0.555618	-0.013171
 525	2.6200e-01	19.0695	44.709933	0.000120	1.203313	0.407693	-0.009664
 526	2.6250e-01	19.0086	44.594902	0.000286	2.864524	0.970527	-0.023006
 527	2.6300e-01	18.9813	44.611152	-0.000040	-0.404654	-0.137100	0.003250
 528	2.6350e-01	18.9428	44.441812	0.000422	4.216920	1.428731	-0.033868
 529	2.6400e-01	18.9027	44.266486	0.000437	4.366003	1.479242	-0.035065
 530	2.6450e-01	18.8562	44.262637	0.000010	0.095839	0.032471	-0.000770
 531	2.6500e-01	18.8369	44.269051	-0.000016	-0.159732	-0.054119	0.001283
 532	2.6550e-01	18.7599	44.091159	0.000443	4.429895	1.500889	-0.035578
 533	2.6600e-01	18.7567	44.020601	0.000176	1.757050	0.595305	-0.014112
 534	2.6650e-01	18.7150	43.770440	0.000623	6.229541	2.110625	-0.050032
 535	2.6700e-01	18.6749	43.885044	-0.000285	-2.853875	-0.966919	0.022921
 536	2.6750e-01	18.6235	43.689191	0.000488	4.877145	1.652421	-0.039170
 537	2.6800e-01	18.5770	43.678501	0.000027	0.266220	0.090198	-0.002138
 538	2.6850e-01	18.5562	43.453998	0.000559	5.590613	1.894151	-0.044901
 539	2.6900e-01	18.5016	43.501036	-0.000117	-1.171367	-0.396870	0.009408
 540	2.6950e-01	18.4615	43.411663	0.000223	2.225597	0.754053	-0.017875
 541	2.7000e-01	18.4246	43.318440	0.000232	2.321436	0.786524	-0.018644
 542	2.7050e-01	18.3861	43.166633	0.000378	3.780319	1.280807	-0.030361
 543	2.7100e-01	18.3348	43.146963	0.000049	0.489844	0.165964	-0.003934
 544	2.7150e-01	18.3107	42.987886	0.000396	3.961349	1.342141	-0.031815
 545	2.7200e-01	18.2594	42.891670	0.000240	2.395977	0.811779	-0.019243
 546	2.7250e-01	18.2129	42.823678	0.000169	1.693157	0.573657	-0.013598
 547	2.7300e-01	18.1792	42.689831	0.000333	3.333070	1.129275	-0.026769
 548	2.7350e-01	18.1583	42.696246	-0.000016	-0.159732	-0.054119	0.001283
 549	2.7400e-01	18.0957	42.601313	0.000236	2.364031	0.800955	-0.018987
 550	2.7450e-01	18.0428	42.439670	0.000403	4.025242	1.363789	-0.032328
 551	2.7500e-01	18.0284	42.430690	0.000022	0.223625	0.075766	-0.001796
 552	2.7550e-01	17.9834	42.194641	0.000588	5.878131	1.991565	-0.047210
 553	2.7600e-01	17.9417	42.286581	-0.000229	-2.289489	-0.775700	0.018388
 554	2.7650e-01	17.9113	42.133918	0.000380	3.801617	1.288023	-0.030532
 555	2.7700e-01	17.8679	42.108688	0.000063	0.628278	0.212867	-0.005046
 556	2.7750e-01	17.8214	41.973559	0.000337	3.365017	1.140099	-0.027026
 557	2.7800e-01	17.7669	41.808068	0.000412	4.121081	1.396260	-0.033098
 558	2.7850e-01	17.7540	41.816620	-0.000021	-0.212976	-0.072158	0.001711
 559	2.7900e-01	17.7123	41.699879	0.000291	2.907119	0.984959	-0.023348
 560	2.7950e-01	17.6674	41.614781	0.000212	2.119109	0.717973	-0.017019
 561	2.8000e-01	17.6257	41.597249	0.000044	0.436600	0.147924	-0.003507
 562	2.8050e-01	17.6097	41.256431	0.000849	8.487083	2.875502	-0.068163
 563	2.8100e-01	17.5583	41.240609	0.000039	0.394005	0.133493	-0.003164
 564	2.8150e-01	17.4942	41.302187	-0.000153	-1.533425	-0.519539	0.012316
 565	2.8200e-01	17.4637	41.207682	0.000235	2.353382	0.797347	-0.018901
 566	2.8250e-01	17.4139	41.090513	0.000292	2.917768	0.988566	-0.023434
 567	2.8300e-01	17.3787	40.960087	0.000325	3.247880	1.100412	-0.026085
 568	2.8350e-01	17.3578	40.910910	0.000122	1.224611	0.414909	-0.009835
 569	2.8400e-01	17.2904	40.782622	0.000319	3.194636	1.082372	-0.025658
 570	2.8450e-01	17.2696	40.756110	0.000066	0.660225	0.223690	-0.005303
 571	2.8500e-01	17.2134	40.610717	0.000362	3.620588	1.226688	-0.029079
 572	2.8550e-01	17.2022	40.502956	0.000268	2.683494	0.909193	-0.021552
 573	2.8600e-01	17.1348	40.422562	0.000200	2.001972	0.678286	-0.016079
 574	2.8650e-01	17.1220	40.364833	0.000144	1.437586	0.487067	-0.011546
 575	2.8700e-01	17.0578	40.334471	0.000076	0.756064	0.256161	-0.006072
 576	2.8750e-01	17.0129	40.214308	0.000299	2.992309	1.013822	-0.024033
 577	2.8800e-01	16.9904	40.116382	0.000244	2.438572	0.826211	-0.019585
 578	2.8850e-01	16.9616	39.978687	0.000343	3.428909	1.161746	-0.027539
 579	2.8900e-01	16.9086	39.811058	0.000417	4.174325	1.414299	-0.033526
 580	2.8950e-01	16.8621	39.831156	-0.000050	-0.500493	-0.169572	0.004020
 581	2.9000e-01	16.8332	39.672080	0.000396	3.961349	1.342141	-0.031815
 582	2.9050e-01	16.7819	39.669941	0.000005	0.053244	0.018040	-0.000428
 583	2.9100e-01	16.7386	39.587410	0.000206	2.055216	0.696326	-0.016506
 584	2.9150e-01	16.7113	39.377018	0.000524	5.239203	1.775090	-0.042078
 585	2.9200e-01	16.6616	39.401393	-0.000061	-0.606981	-0.205651	0.004875
 586	2.9250e-01	16.6231	39.338532	0.000157	1.565372	0.530362	-0.012572
 587	2.9300e-01	16.5765	39.247875	0.000226	2.257543	0.764876	-0.018131
 588	2.9350e-01	16.5589	39.034490	0.000531	5.313745	1.800345	-0.042677
 589	2.9400e-01	16.5076	38.927156	0.000267	2.672846	0.905585	-0.021467
 590	2.9450e-01	16.4915	38.854460	0.000181	1.810294	0.613344	-0.014539
 591	2.9500e-01	16.4257	38.860019	-0.000014	-0.138434	-0.046903	0.001112
 592	2.9550e-01	16.3921	38.727883	0.000329	3.290475	1.114843	-0.026427
 593	2.9600e-01	16.3471	38.600451	0.000317	3.173339	1.075156	-0.025486
 594	2.9650e-01	16.2910	38.533313	0.000167	1.671860	0.566441	-0.013427
 595	2.9700e-01	16.2637	38.534596	-0.000003	-0.031946	-0.010824	0.000257
 596	2.9750e-01	16.2172	38.342165	0.000479	4.791954	1.623558	-0.038486
 597	2.9800e-01	16.1835	38.217298	0.000311	3.109446	1.053509	-0.024973
 598	2.9850e-01	16.1546	38.149734	0.000168	1.682508	0.570049	-0.013513
 599	2.9900e-01	16.1033	38.032137	0.000293	2.928416	0.992174	-0.023519
 600	2.9950e-01	16.0487	37.960296	0.000179	1.788996	0.606128	-0.014368
 601	3.0000e-01	16.0215	37.895297	0.000162	1.618616	0.548402	-0.013000
 602	3.0050e-01	15.9733	37.833291	0.000154	1.544074	0.523146	-0.012401
 603	3.0100e-01	15.9445	37.716977	0.000290	2.896470	0.981351	-0.023263
 604	3.0150e-01	15.9076	37.709707	0.000018	0.181029	0.061334	-0.001454
 605	3.0200e-01	15.8514	37.671649	0.000095	0.947742	0.321104	-0.007612
 606	3.0250e-01	15.8306	37.483493	0.000469	4.685466	1.587479	-0.037631
 607	3.0300e-01	15.7905	37.404383	0.000197	1.970026	0.667463	-0.015822
 608	3.0350e-01	15.7327	37.254286	0.000374	3.737724	1.266375	-0.030019
 609	3.0400e-01	15.6974	37.237181	0.000043	0.425951	0.144316	-0.003421
 610	3.0450e-01	15.6750	37.056296	0.000450	4.504437	1.526145	-0.036177
 611	3.0500e-01	15.6349	36.987448	0.000171	1.714455	0.580873	-0.013770
 612	3.0550e-01	15.5691	36.997284	-0.000024	-0.244922	-0.082982	0.001967
 613	3.0600e-01	15.5402	36.737287	0.000647	6.474463	2.193607	-0.051999
 614	3.0650e-01	15.5081	36.682124	0.000137	1.373694	0.465420	-0.011033
 615	3.0700e-01	15.4664	36.620546	0.000153	1.533425	0.519539	-0.012316
 616	3.0750e-01	15.4327	36.452061	0.000420	4.195622	1.421515	-0.033697
 617	3.0800e-01	15.3862	36.532882	-0.000201	-2.012621	-0.681894	0.016164
 618	3.0850e-01	15.3349	36.338313	0.000485	4.845198	1.641598	-0.038914
 619	3.0900e-01	15.3076	36.173250	0.000411	4.110432	1.392652	-0.033013
 620	3.0950e-01	15.2595	36.168118	0.000013	0.127785	0.043295	-0.001026
 621	3.1000e-01	15.2129	36.131770	0.000091	0.905147	0.306672	-0.007270
 622	3.1050e-01	15.1969	35.965424	0.000414	4.142378	1.403476	-0.033269
 623	3.1100e-01	15.1552	35.895721	0.000174	1.735752	0.588089	-0.013941
 624	3.1150e-01	15.1103	35.894866	0.000002	0.021298	0.007216	-0.000171
 625	3.1200e-01	15.0541	35.678487	0.000539	5.388286	1.825601	-0.043276
 626	3.1250e-01	15.0317	35.615199	0.000158	1.576021	0.533970	-0.012658
 627	3.1300e-01	14.9755	35.532239	0.000207	2.065865	0.699934	-0.016592
 628	3.1350e-01	14.9514	35.422767	0.000273	2.726090	0.923624	-0.021894
 629	3.1400e-01	14.9113	35.314578	0.000269	2.694143	0.912800	-0.021638
 630	3.1450e-01	14.8664	35.233329	0.000202	2.023270	0.685502	-0.016250
 631	3.1500e-01	14.8087	35.149087	0.000210	2.097811	0.710758	-0.016848
 632	3.1550e-01	14.7798	35.069121	0.000199	1.991323	0.674679	-0.015993
 633	3.1600e-01	14.7573	35.018661	0.000126	1.256557	0.425733	-0.010092
 634	3.1650e-01	14.7156	34.881394	0.000342	3.418261	1.158138	-0.027454
 635	3.1700e-01	14.6691	34.763797	0.000293	2.928416	0.992174	-0.023519
 636	3.1750e-01	14.6499	34.603865	0.000398	3.982646	1.349357	-0.031986
 637	3.1800e-01	14.6049	34.664588	-0.000151	-1.512128	-0.512323	0.012145
 638	3.1850e-01	14.5552	34.504656	0.000398	3.982646	1.349357	-0.031986
 639	3.1900e-01	14.4878	34.376796	0.000318	3.183987	1.078764	-0.025572
 640	3.1950e-01	14.4814	34.404591	-0.000069	-0.692171	-0.234514	0.005559
 641	3.2000e-01	14.4301	34.269462	0.000337	3.365017	1.140099	-0.027026
 642	3.2050e-01	14.3836	34.090715	0.000445	4.451193	1.508105	-0.035749
 643	3.2100e-01	14.3386	34.127063	-0.000091	-0.905147	-0.306672	0.007270
 644	3.2150e-01	14.3194	33.948743	0.000444	4.440544	1.504497	-0.035664
 645	3.2200e-01	14.2761	33.998347	-0.000124	-1.235259	-0.418517	0.009921
 646	3.2250e-01	14.2215	33.743910	0.000634	6.336028	2.146705	-0.050887
 647	3.2300e-01	14.1798	33.773417	-0.000073	-0.734766	-0.248946	0.005901
 648	3.2350e-01	14.1509	33.606643	0.000415	4.153027	1.407084	-0.033355
 649	3.2400e-01	14.0980	33.496315	0.000275	2.747387	0.930840	-0.022065
 650	3.2450e-01	14.0499	33.429606	0.000166	1.661211	0.562833	-0.013342
 651	3.2500e-01	14.0098	33.319706	0.000274	2.736738	0.927232	-0.021980
 652	3.2550e-01	13.9793	33.260266	0.000148	1.480181	0.501499	-0.011888
 653	3.2600e-01	13.9568	33.052440	0.000518	5.175311	1.753443	-0.041565
 654	3.2650e-01	13.9135	33.072966	-0.000051	-0.511142	-0.173180	0.004105
 655	3.2700e-01	13.8814	32.845897	0.000565	5.654506	1.915799	-0.045414
 656	3.2750e-01	13.8365	32.738991	0.000266	2.662197	0.901977	-0.021381
 657	3.2800e-01	13.7836	32.738563	0.000001	0.010649	0.003608	-0.000086
 658	3.2850e-01	13.7499	32.629519	0.000272	2.715441	0.920016	-0.021809
 659	3.2900e-01	13.7050	32.623105	0.000016	0.159732	0.054119	-0.001283
 660	3.2950e-01	13.6472	32.561099	0.000154	1.544074	0.523146	-0.012401
 661	3.3000e-01	13.6247	32.440081	0.000301	3.013607	1.021038	-0.024204
 662	3.3050e-01	13.5798	32.326760	0.000282	2.821929	0.956095	-0.022664
 663	3.3100e-01	13.5526	32.230972	0.000239	2.385328	0.808171	-0.019158
 664	3.3150e-01	13.4980	32.238669	-0.000019	-0.191678	-0.064942	0.001539
 665	3.3200e-01	13.4884	31.873050	0.000910	9.104713	3.084760	-0.073124
 666	3.3250e-01	13.4130	31.879464	-0.000016	-0.159732	-0.054119	0.001283
 667	3.3300e-01	13.3825	31.792229	0.000217	2.172353	0.736013	-0.017447
 668	3.3350e-01	13.3488	31.768709	0.000059	0.585683	0.198435	-0.004704
 669	3.3400e-01	13.3023	31.638284	0.000325	3.247880	1.100412	-0.026085
 670	3.3450e-01	13.2510	31.487332	0.000376	3.759022	1.273591	-0.030190
 671	3.3500e-01	13.2044	31.486049	0.000003	0.031946	0.010824	-0.000257
 672	3.3550e-01	13.1836	31.276940	0.000521	5.207257	1.764266	-0.041822
 673	3.3600e-01	13.1643	31.263256	0.000034	0.340761	0.115453	-0.002737
 674	3.3650e-01	13.1226	31.044740	0.000544	5.441530	1.843640	-0.043703
 675	3.3700e-01	13.0841	31.096910	-0.000130	-1.299152	-0.440165	0.010434
 676	3.3750e-01	13.0280	30.944675	0.000379	3.790968	1.284415	-0.030447
 677	3.3800e-01	12.9847	30.942965	0.000004	0.042595	0.014432	-0.000342
 678	3.3850e-01	12.9333	30.762507	0.000449	4.493788	1.522537	-0.036092
 679	3.3900e-01	12.9301	30.549977	0.000529	5.292447	1.793130	-0.042506
 680	3.3950e-01	12.8627	30.695797	-0.000363	-3.631236	-1.230296	0.029164
 681	3.4000e-01	12.8355	30.536293	0.000397	3.971998	1.345749	-0.031901
 682	3.4050e-01	12.7793	30.446064	0.000225	2.246894	0.761268	-0.018046
 683	3.4100e-01	12.7376	30.347710	0.000245	2.449221	0.829819	-0.019671
 684	3.4150e-01	12.7007	30.285277	0.000155	1.554723	0.526754	-0.012487
 685	3.4200e-01	12.6686	30.039820	0.000611	6.112404	2.070938	-0.049091
 686	3.4250e-01	12.6173	30.053077	-0.000033	-0.330112	-0.111845	0.002651
 687	3.4300e-01	12.5996	29.904263	0.000371	3.705778	1.255552	-0.029763
 688	3.4350e-01	12.5387	29.843968	0.000150	1.501479	0.508715	-0.012059
 689	3.4400e-01	12.5066	29.807620	0.000091	0.905147	0.306672	-0.007270
 690	3.4450e-01	12.4553	29.712687	0.000236	2.364031	0.800955	-0.018987
 691	3.4500e-01	12.4408	29.486046	0.000564	5.643857	1.912191	-0.045328
 692	3.4550e-01	12.3911	29.535222	-0.000122	-1.224611	-0.414909	0.009835
 693	3.4600e-01	12.3446	29.403086	0.000329	3.290475	1.114843	-0.026427
 694	3.4650e-01	12.3269	29.214931	0.000469	4.685466	1.587479	-0.037631
 695	3.4700e-01	12.2660	29.245293	-0.000076	-0.756064	-0.256161	0.006072
 696	3.4750e-01	12.2130	29.101610	0.000358	3.577993	1.212257	-0.028736
 697	3.4800e-01	12.1970	28.960922	0.000350	3.503451	1.187001	-0.028138
 698	3.4850e-01	12.1553	28.846746	0.000284	2.843226	0.963311	-0.022835
 699	3.4900e-01	12.1280	28.806549	0.000100	1.000986	0.339143	-0.008039
 700	3.4950e-01	12.0574	28.724873	0.000203	2.033918	0.689110	-0.016335
 701	3.5000e-01	12.0237	28.612407	0.000280	2.800631	0.948879	-0.022493
 702	3.5050e-01	12.0013	28.445633	0.000415	4.153027	1.407084	-0.033355
 703	3.5100e-01	11.9419	28.447771	-0.000005	-0.053244	-0.018040	0.000428
 704	3.5150e-01	11.8970	28.394318	0.000133	1.331098	0.450988	-0.010691
 705	3.5200e-01	11.8826	28.233531	0.000400	4.003944	1.356573	-0.032157
 706	3.5250e-01	11.8184	28.191196	0.000105	1.054230	0.357183	-0.008467
 707	3.5300e-01	11.7751	28.036396	0.000385	3.854861	1.306062	-0.030960
 708	3.5350e-01	11.7478	27.974818	0.000153	1.533425	0.519539	-0.012316
 709	3.5400e-01	11.7173	27.918799	0.000139	1.394991	0.472636	-0.011204
 710	3.5450e-01	11.6772	27.730216	0.000470	4.696115	1.591087	-0.037717
 711	3.5500e-01	11.6082	27.761860	-0.000079	-0.788010	-0.266985	0.006329
 712	3.5550e-01	11.6002	27.636994	0.000311	3.109446	1.053509	-0.024973
 713	3.5600e-01	11.5537	27.501437	0.000338	3.375666	1.143706	-0.027111
 714	3.5650e-01	11.4911	27.388544	0.000281	2.811280	0.952487	-0.022579
 715	3.5700e-01	11.4606	27.406931	-0.000046	-0.457898	-0.155140	0.003678
 716	3.5750e-01	11.4061	27.242723	0.000409	4.089134	1.385436	-0.032842
 717	3.5800e-01	11.3724	27.256835	-0.000035	-0.351410	-0.119061	0.002822
 718	3.5850e-01	11.3532	27.045160	0.000527	5.271150	1.785914	-0.042335
 719	3.5900e-01	11.2938	26.919011	0.000314	3.141392	1.064333	-0.025230
 720	3.5950e-01	11.2778	26.857433	0.000153	1.533425	0.519539	-0.012316
 721	3.6000e-01	11.2152	26.828354	0.000072	0.724118	0.245338	-0.005816
 722	3.6050e-01	11.1831	26.733422	0.000236	2.364031	0.800955	-0.018987
 723	3.6100e-01	11.1542	26.584608	0.000371	3.705778	1.255552	-0.029763
 724	3.6150e-01	11.1238	26.451189	0.000332	3.322422	1.125667	-0.026684
 725	3.6200e-01	11.0692	26.298954	0.000379	3.790968	1.284415	-0.030447
 726	3.6250e-01	11.0484	26.255337	0.000109	1.086176	0.368006	-0.008724
 727	3.6300e-01	10.9746	26.310928	-0.000138	-1.384342	-0.469028	0.011118
 728	3.6350e-01	10.9521	25.959848	0.000874	8.742654	2.962091	-0.070216
 729	3.6400e-01	10.9120	25.988926	-0.000072	-0.724118	-0.245338	0.005816
 730	3.6450e-01	10.8655	25.917940	0.000177	1.767699	0.598913	-0.014197
 731	3.6500e-01	10.8206	25.858073	0.000149	1.490830	0.505107	-0.011974
 732	3.6550e-01	10.7869	25.844389	0.000034	0.340761	0.115453	-0.002737
 733	3.6600e-01	10.7468	25.713535	0.000326	3.258529	1.104019	-0.026171
 734	3.6650e-01	10.7227	25.498012	0.000537	5.366989	1.818385	-0.043105
 735	3.6700e-01	10.6505	25.498868	-0.000002	-0.021298	-0.007216	0.000171
 736	3.6750e-01	10.6585	25.304298	-0.000485	-4.845198	-1.641598	-0.038914
 737	3.6800e-01	10.5992	25.270088	0.000085	0.851903	0.288633	-0.006842
 738	3.6850e-01	10.5414	25.250417	0.000049	0.489844	0.165964	-0.003934
 739	3.6900e-01	10.5045	25.061834	0.000470	4.696115	1.591087	-0.037717
 740	3.6950e-01	10.4660	24.873679	0.000469	4.685466	1.587479	-0.037631
 741	3.7000e-01	10.4243	24.974599	-0.000251	-2.513114	-0.851466	0.020184
 742	3.7050e-01	10.3858	24.677827	0.000739	7.390258	2.503887	-0.059354
 743	3.7100e-01	10.3409	24.683386	-0.000014	-0.138434	-0.046903	0.001112
 744	3.7150e-01	10.3040	24.553816	0.000323	3.226583	1.093196	-0.025914
 745	3.7200e-01	10.2510	24.617959	-0.000160	-1.597318	-0.541186	0.012829
 746	3.7250e-01	10.2190	24.292109	0.000811	8.114376	2.749225	-0.065170
 747	3.7300e-01	10.1853	24.239511	0.000131	1.309801	0.443773	-0.010520
 748	3.7350e-01	10.1452	24.259182	-0.000049	-0.489844	-0.165964	0.003934
 749	3.7400e-01	10.1035	24.092408	0.000415	4.153027	1.407084	-0.033355
 750	3.7450e-01	10.0634	24.046652	0.000114	1.139420	0.386046	-0.009151
 751	3.7500e-01	10.0281	23.963265	0.000208	2.076514	0.703542	-0.016677
 752	3.7550e-01	9.9719	23.934614	0.000071	0.713469	0.241730	-0.005730
 753	3.7600e-01	9.9446	23.728499	0.000513	5.132715	1.739011	-0.041223
 754	3.7650e-01	9.8917	23.702414	0.000065	0.649576	0.220082	-0.005217
 755	3.7700e-01	9.8628	23.592514	0.000274	2.736738	0.927232	-0.021980
 756	3.7750e-01	9.8275	23.359886	0.000579	5.792940	1.962701	-0.046526
 757	3.7800e-01	9.8003	23.327814	0.000080	0.798659	0.270593	-0.006414
 758	3.7850e-01	9.7569	23.184987	0.000356	3.556695	1.205041	-0.028565
 759	3.7900e-01	9.7040	23.244427	-0.000148	-1.480181	-0.501499	0.011888
 760	3.7950e-01	9.6607	23.034891	0.000522	5.217906	1.767874	-0.041907
 761	3.8000e-01	9.6302	22.901899	0.000331	3.311773	1.122059	-0.026598
 762	3.8050e-01	9.5965	22.880090	0.000054	0.543088	0.184003	-0.004362
 763	3.8100e-01	9.5468	22.713744	0.000414	4.142378	1.403476	-0.033269
 764	3.8150e-01	9.5067	22.607693	0.000264	2.640899	0.894761	-0.021210
 765	3.8200e-01	9.4602	22.576476	0.000078	0.777361	0.263377	-0.006243
 766	3.8250e-01	9.4441	22.457169	0.000297	2.971012	1.006606	-0.023861
 767	3.8300e-01	9.3960	22.347269	0.000274	2.736738	0.927232	-0.021980
 768	3.8350e-01	9.3318	22.266448	0.000201	2.012621	0.681894	-0.016164
 769	3.8400e-01	9.3110	22.111220	0.000387	3.865510	1.309670	-0.031046
 770	3.8450e-01	9.2853	21.988492	0.000306	3.056202	1.035469	-0.024546
 771	3.8500e-01	9.2179	22.053918	-0.000163	-1.629264	-0.552010	0.013085
 772	3.8550e-01	9.1714	21.910664	0.000357	3.567344	1.208649	-0.028651
 773	3.8600e-01	9.1473	21.709252	0.000502	5.015579	1.699324	-0.040282
 774	3.8650e-01	9.0944	21.696424	0.000032	0.319464	0.108237	-0.002566
 775	3.8700e-01	9.0671	21.636128	0.000150	1.501479	0.508715	-0.012059
 776	3.8750e-01	9.0142	21.445835	0.000474	4.738710	1.605519	-0.038059
 777	3.8800e-01	8.9933	21.418895	0.000067	0.670874	0.227298	-0.005388
 778	3.8850e-01	8.9420	21.302153	0.000291	2.907119	0.984959	-0.023348
 779	3.8900e-01	8.8939	21.217056	0.000212	2.119109	0.717973	-0.017019
 780	3.8950e-01	8.8746	21.122123	0.000236	2.364031	0.800955	-0.018987
 781	3.9000e-01	8.8233	20.931402	0.000475	4.749359	1.609126	-0.038144
 782	3.9050e-01	8.7848	20.880942	0.000126	1.256557	0.425733	-0.010092
 783	3.9100e-01	8.7286	20.849298	0.000079	0.788010	0.266985	-0.006329
 784	3.9150e-01	8.7110	20.790713	0.000146	1.458884	0.494283	-0.011717
 785	3.9200e-01	8.6532	20.783871	0.000017	0.170381	0.057727	-0.001368
 786	3.9250e-01	8.6211	20.543118	0.000600	5.995267	2.031252	-0.048151
 787	3.9300e-01	8.5923	20.455027	0.000219	2.193650	0.743229	-0.017618
 788	3.9350e-01	8.5249	20.424238	0.000077	0.766713	0.259769	-0.006158
 789	3.9400e-01	8.5313	20.234373	-0.000473	-4.728062	-1.601911	-0.037973
 790	3.9450e-01	8.4736	20.181347	0.000132	1.320450	0.447380	-0.010605
 791	3.9500e-01	8.4431	20.002600	0.000445	4.451193	1.508105	-0.035749
 792	3.9550e-01	8.3629	20.009442	-0.000017	-0.170381	-0.057727	0.001368
 793	3.9600e-01	8.3372	19.869608	0.000348	3.482153	1.179786	-0.027967
 794	3.9650e-01	8.3067	19.757998	0.000278	2.779333	0.941664	-0.022322
 795	3.9700e-01	8.2698	19.784083	-0.000065	-0.649576	-0.220082	0.005217
 796	3.9750e-01	8.2169	19.533923	0.000623	6.229541	2.110625	-0.050032
 797	3.9800e-01	8.1976	19.478759	0.000137	1.373694	0.465420	-0.011033
 798	3.9850e-01	8.1431	19.360307	0.000295	2.949714	0.999390	-0.023690
 799	3.9900e-01	8.1030	19.309847	0.000126	1.256557	0.425733	-0.010092
 800	3.9950e-01	8.0773	19.184553	0.000312	3.120095	1.057117	-0.025059
 801	4.0000e-01	8.0244	19.052844	0.000328	3.279826	1.111235	-0.026342
 802	4.0050e-01	7.9795	19.012647	0.000100	1.000986	0.339143	-0.008039
 803	4.0100e-01	7.9506	18.966464	0.000115	1.150069	0.389654	-0.009237
 804	4.0150e-01	7.8944	18.770184	0.000489	4.887793	1.656029	-0.039256
 805	4.0200e-01	7.8607	18.723145	0.000117	1.171367	0.396870	-0.009408
 806	4.0250e-01	7.8142	18.677817	0.000113	1.128771	0.382438	-0.009066
 807	4.0300e-01	7.7950	18.564496	0.000282	2.821929	0.956095	-0.022664
 808	4.0350e-01	7.7436	18.433643	0.000326	3.258529	1.104019	-0.026171
 809	4.0400e-01	7.7180	18.305355	0.000319	3.194636	1.082372	-0.025658
 810	4.0450e-01	7.6650	18.358381	-0.000132	-1.320450	-0.447380	0.010605
 811	4.0500e-01	7.6313	18.059471	0.000744	7.443502	2.521927	-0.059782
 812	4.0550e-01	7.5880	18.003879	0.000138	1.384342	0.469028	-0.011118
 813	4.0600e-01	7.5463	18.027399	-0.000059	-0.585683	-0.198435	0.004704
 814	4.0650e-01	7.5142	17.833684	0.000482	4.823901	1.634382	-0.038743
 815	4.0700e-01	7.4356	17.766547	0.000167	1.671860	0.566441	-0.013427
 816	4.0750e-01	7.4260	17.694706	0.000179	1.788996	0.606128	-0.014368
 817	4.0800e-01	7.3795	17.562998	0.000328	3.279826	1.111235	-0.026342
 818	4.0850e-01	7.3474	17.456947	0.000264	2.640899	0.894761	-0.021210
 819	4.0900e-01	7.3201	17.334218	0.000306	3.056202	1.035469	-0.024546
 820	4.0950e-01	7.2592	17.210634	0.000308	3.077500	1.042685	-0.024717
 821	4.1000e-01	7.2431	17.199516	0.000028	0.276868	0.093806	-0.002224
 822	4.1050e-01	7.1693	17.062248	0.000342	3.418261	1.158138	-0.027454
 823	4.1100e-01	7.1469	16.946362	0.000289	2.885821	0.977743	-0.023177
 824	4.1150e-01	7.1148	16.827910	0.000295	2.949714	0.999390	-0.023690
 825	4.1200e-01	7.0875	16.723997	0.000259	2.587655	0.876721	-0.020783
 826	4.1250e-01	7.0249	16.604262	0.000298	2.981660	1.010214	-0.023947
 827	4.1300e-01	6.9816	16.567914	0.000091	0.905147	0.306672	-0.007270
 828	4.1350e-01	6.9399	16.506336	0.000153	1.533425	0.519539	-0.012316
 829	4.1400e-01	6.9062	16.507191	-0.000002	-0.021298	-0.007216	0.000171
 830	4.1450e-01	6.8854	16.168084	0.000844	8.444488	2.861070	-0.067821
 831	4.1500e-01	6.8212	16.224103	-0.000139	-1.394991	-0.472636	0.011204
 832	4.1550e-01	6.7667	16.155255	0.000171	1.714455	0.580873	-0.013770
 833	4.1600e-01	6.7490	16.032099	0.000307	3.066851	1.039077	-0.024631
 834	4.1650e-01	6.6864	15.881147	0.000376	3.759022	1.273591	-0.030190
 835	4.1700e-01	6.6592	15.791346	0.000224	2.236245	0.757660	-0.017960
 836	4.1750e-01	6.6383	15.654506	0.000341	3.407612	1.154530	-0.027368
 837	4.1800e-01	6.5838	15.615165	0.000098	0.979688	0.331927	-0.007868
 838	4.1850e-01	6.5501	15.393655	0.000552	5.516072	1.868896	-0.044302
 839	4.1900e-01	6.4859	15.512962	-0.000297	-2.971012	-1.006606	0.023861
 840	4.1950e-01	6.4939	15.082771	-0.001071	-10.712680	-3.629554	-0.086038
 841	4.2000e-01	6.4137	15.187539	-0.000261	-2.608953	-0.883937	0.020954
 842	4.2050e-01	6.3865	15.164875	0.000056	0.564386	0.191219	-0.004533
 843	4.2100e-01	6.3239	15.050272	0.000285	2.853875	0.966919	-0.022921
 844	4.2150e-01	6.2982	15.033594	0.000042	0.415303	0.140708	-0.003335
 845	4.2200e-01	6.2774	14.768039	0.000661	6.612897	2.240510	-0.053111
 846	4.2250e-01	6.2212	14.658994	0.000272	2.715441	0.920016	-0.021809
 847	4.2300e-01	6.1731	14.623929	0.000087	0.873201	0.295848	-0.007013
 848	4.2350e-01	6.1346	14.525148	0.000246	2.459870	0.833426	-0.019756
 849	4.2400e-01	6.1025	14.547812	-0.000056	-0.564386	-0.191219	0.004533
 850	4.2450e-01	6.0592	14.360084	0.000467	4.674818	1.583871	-0.037545
 851	4.2500e-01	6.0351	14.243343	0.000291	2.907119	0.984959	-0.023348
 852	4.2550e-01	6.0062	14.054760	0.000470	4.696115	1.591087	-0.037717
 853	4.2600e-01	5.9517	14.020550	0.000085	0.851903	0.288633	-0.006842
 854	4.2650e-01	5.9196	13.961965	0.000146	1.458884	0.494283	-0.011717
 855	4.2700e-01	5.8619	13.811013	0.000376	3.759022	1.273591	-0.030190
 856	4.2750e-01	5.8266	13.826836	-0.000039	-0.394005	-0.133493	0.003164
 857	4.2800e-01	5.7817	13.597201	0.000572	5.718399	1.937446	-0.045927
 858	4.2850e-01	5.7512	13.516807	0.000200	2.001972	0.678286	-0.016079
 859	4.2900e-01	5.6822	13.591214	-0.000185	-1.852889	-0.627776	0.014881
 860	4.2950e-01	5.6790	13.271350	0.000797	7.965293	2.698714	-0.063973
 861	4.3000e-01	5.6325	13.235858	0.000088	0.883849	0.299456	-0.007099
 862	4.3050e-01	5.5715	13.235858	-0.000000	-0.000000	-0.000000	0.000000
 863	4.3100e-01	5.5426	13.067373	0.000420	4.195622	1.421515	-0.033697
 864	4.3150e-01	5.5009	13.011782	0.000138	1.384342	0.469028	-0.011118
 865	4.3200e-01	5.4672	12.884350	0.000317	3.173339	1.075156	-0.025486
 866	4.3250e-01	5.4351	12.768463	0.000289	2.885821	0.977743	-0.023177
 867	4.3300e-01	5.3774	12.677379	0.000227	2.268192	0.768484	-0.018217
 868	4.3350e-01	5.3597	12.529421	0.000368	3.684480	1.248336	-0.029592
 869	4.3400e-01	5.3036	12.501625	0.000069	0.692171	0.234514	-0.005559
 870	4.3450e-01	5.2715	12.432350	0.000173	1.725104	0.584481	-0.013855
 871	4.3500e-01	5.2154	12.206563	0.000562	5.622560	1.904975	-0.045157
 872	4.3550e-01	5.1945	12.145413	0.000152	1.522777	0.515931	-0.012230
 873	4.3600e-01	5.1512	12.086828	0.000146	1.458884	0.494283	-0.011717
 874	4.3650e-01	5.1031	12.008145	0.000196	1.959377	0.663855	-0.015737
 875	4.3700e-01	5.0726	11.892687	0.000288	2.875173	0.974135	-0.023092
 876	4.3750e-01	5.0164	11.728051	0.000410	4.099783	1.389044	-0.032927
 877	4.3800e-01	4.9827	11.715222	0.000032	0.319464	0.108237	-0.002566
 878	4.3850e-01	4.9346	11.674170	0.000102	1.022284	0.346359	-0.008210
 879	4.3900e-01	4.9009	11.475752	0.000494	4.941037	1.674069	-0.039684
 880	4.3950e-01	4.8801	11.412463	0.000158	1.576021	0.533970	-0.012658
 881	4.4000e-01	4.8159	11.426147	-0.000034	-0.340761	-0.115453	0.002737
 882	4.4050e-01	4.7710	11.338484	0.000218	2.183001	0.739621	-0.017533
 883	4.4100e-01	4.7517	11.115691	0.000555	5.548018	1.879719	-0.044559
 884	4.4150e-01	4.7052	11.161875	-0.000115	-1.150069	-0.389654	0.009237
 885	4.4200e-01	4.6635	10.899741	0.000653	6.527707	2.211647	-0.052427
 886	4.4250e-01	4.6250	10.846287	0.000133	1.331098	0.450988	-0.010691
 887	4.4300e-01	4.5817	10.806518	0.000099	0.990337	0.335535	-0.007954
 888	4.4350e-01	4.5544	10.721849	0.000211	2.108460	0.714366	-0.016934
 889	4.4400e-01	4.5015	10.499483	0.000554	5.537369	1.876112	-0.044473
 890	4.4450e-01	4.4662	10.393860	0.000263	2.630250	0.891153	-0.021125
 891	4.4500e-01	4.4004	10.370341	0.000059	0.585683	0.198435	-0.004704
 892	4.4550e-01	4.3747	10.315177	0.000137	1.373694	0.465420	-0.011033
 893	4.4600e-01	4.3234	10.189455	0.000313	3.130743	1.060725	-0.025144
 894	4.4650e-01	4.3090	10.039786	0.000373	3.727076	1.262767	-0.029934
 895	4.4700e-01	4.2544	10.023536	0.000040	0.404654	0.137100	-0.003250
 896	4.4750e-01	4.2223	9.847355	0.000439	4.387300	1.486458	-0.035236
 897	4.4800e-01	4.1838	9.848210	-0.000002	-0.021298	-0.007216	0.000171
 898	4.4850e-01	4.1550	9.576240	0.000677	6.772629	2.294629	-0.054394
 899	4.4900e-01	4.0988	9.536471	0.000099	0.990337	0.335535	-0.007954
 900	4.4950e-01	4.0619	9.495847	0.000101	1.011635	0.342751	-0.008125
 901	4.5000e-01	4.0362	9.290587	0.000511	5.111418	1.731795	-0.041052
 902	4.5050e-01	4.0074	9.166148	0.000310	3.098797	1.049901	-0.024888
 903	4.5100e-01	3.9657	9.147760	0.000046	0.457898	0.155140	-0.003678
 904	4.5150e-01	3.8935	8.995953	0.000378	3.780319	1.280807	-0.030361
 905	4.5200e-01	3.8694	8.986545	0.000023	0.234273	0.079374	-0.001882
 906	4.5250e-01	3.8117	8.850560	0.000339	3.386314	1.147314	-0.027197
 907	4.5300e-01	3.7876	8.747930	0.000256	2.555709	0.865898	-0.020526
 908	4.5350e-01	3.7555	8.631616	0.000290	2.896470	0.981351	-0.023263
 909	4.5400e-01	3.7122	8.623491	0.000020	0.202327	0.068550	-0.001625
 910	4.5450e-01	3.6689	8.444744	0.000445	4.451193	1.508105	-0.035749
 911	4.5500e-01	3.6208	8.492638	-0.000119	-1.192664	-0.404086	0.009579
 912	4.5550e-01	3.5903	8.283102	0.000522	5.217906	1.767874	-0.041907
 913	4.5600e-01	3.5421	8.074848	0.000519	5.185959	1.757051	-0.041651
 914	4.5650e-01	3.5117	8.099223	-0.000061	-0.606981	-0.205651	0.004875
 915	4.5700e-01	3.4523	8.044487	0.000136	1.363045	0.461812	-0.010947
 916	4.5750e-01	3.4186	7.989751	0.000136	1.363045	0.461812	-0.010947
 917	4.5800e-01	3.3913	7.757550	0.000578	5.782291	1.959093	-0.046440
 918	4.5850e-01	3.3496	7.724623	0.000082	0.819957	0.277809	-0.006585
 919	4.5900e-01	3.3127	7.590776	0.000333	3.333070	1.129275	-0.026769
 920	4.5950e-01	3.2774	7.445811	0.000361	3.609939	1.223080	-0.028993
 921	4.6000e-01	3.2245	7.421009	0.000062	0.617630	0.209259	-0.004960
 922	4.6050e-01	3.1796	7.338050	0.000207	2.065865	0.699934	-0.016592
 923	4.6100e-01	3.1491	7.238413	0.000248	2.481167	0.840642	-0.019927
 924	4.6150e-01	3.0994	6.957891	0.000699	6.985604	2.366787	-0.056104
 925	4.6200e-01	3.0625	7.036146	-0.000195	-1.948728	-0.660247	0.015651
 926	4.6250e-01	3.0496	6.802663	0.000581	5.814238	1.969917	-0.046697
 927	4.6300e-01	2.9759	6.793255	0.000023	0.234273	0.079374	-0.001882
 928	4.6350e-01	2.9438	6.641021	0.000379	3.790968	1.284415	-0.030447
 929	4.6400e-01	2.9005	6.700460	-0.000148	-1.480181	-0.501499	0.011888
 930	4.6450e-01	2.8555	6.365630	0.000834	8.338000	2.824991	-0.066966
 931	4.6500e-01	2.8379	6.431057	-0.000163	-1.629264	-0.552010	0.013085
 932	4.6550e-01	2.7962	6.273690	0.000392	3.918754	1.327710	-0.031473
 933	4.6600e-01	2.7545	6.199284	0.000185	1.852889	0.627776	-0.014881
 934	4.6650e-01	2.7256	6.005142	0.000483	4.834549	1.637990	-0.038828
 935	4.6700e-01	2.6502	6.035503	-0.000076	-0.756064	-0.256161	0.006072
 936	4.6750e-01	2.6358	5.822973	0.000529	5.292447	1.793130	-0.042506
 937	4.6800e-01	2.5908	5.807579	0.000038	0.383356	0.129885	-0.003079
 938	4.6850e-01	2.5507	5.663042	0.000360	3.599290	1.219472	-0.028907
 939	4.6900e-01	2.5186	5.578799	0.000210	2.097811	0.710758	-0.016848
 940	4.6950e-01	2.4625	5.551004	0.000069	0.692171	0.234514	-0.005559
 941	4.7000e-01	2.4256	5.340184	0.000525	5.249852	1.778698	-0.042164
 942	4.7050e-01	2.3887	5.264495	0.000188	1.884835	0.638600	-0.015138
 943	4.7100e-01	2.3502	5.260219	0.000011	0.106488	0.036079	-0.000855
 944	4.7150e-01	2.3101	5.087886	0.000429	4.291461	1.453986	-0.034467
 945	4.7200e-01	2.2331	5.056669	0.000078	0.777361	0.263377	-0.006243
 946	4.7250e-01	2.2138	5.081899	-0.000063	-0.628278	-0.212867	0.005046
 947	4.7300e-01	2.1705	4.765884	0.000787	7.869454	2.666243	-0.063203
 948	4.7350e-01	2.1545	4.716279	0.000124	1.235259	0.418517	-0.009921
 949	4.7400e-01	2.0999	4.625623	0.000226	2.257543	0.764876	-0.018131
 950	4.7450e-01	2.0598	4.652135	-0.000066	-0.660225	-0.223690	0.005303
 951	4.7500e-01	2.0213	4.374607	0.000691	6.911063	2.341532	-0.055506
 952	4.7550e-01	1.9748	4.384014	-0.000023	-0.234273	-0.079374	0.001882
 953	4.7600e-01	1.9459	4.207833	0.000439	4.387300	1.486458	-0.035236
 954	4.7650e-01	1.8994	4.144117	0.000159	1.586669	0.537578	-0.012743
 955	4.7700e-01	1.8657	4.018822	0.000312	3.120095	1.057117	-0.025059
 956	4.7750e-01	1.8240	3.913199	0.000263	2.630250	0.891153	-0.021125
 957	4.7800e-01	1.7775	3.855469	0.000144	1.437586	0.487067	-0.011546
 958	4.7850e-01	1.7582	3.684419	0.000426	4.259515	1.443163	-0.034210
 959	4.7900e-01	1.7101	3.554849	0.000323	3.226583	1.093196	-0.025914
 960	4.7950e-01	1.6427	3.552283	0.000006	0.063893	0.021647	-0.000513
 961	4.8000e-01	1.6379	3.432976	0.000297	2.971012	1.006606	-0.023861
 962	4.8050e-01	1.5721	3.349161	0.000209	2.087162	0.707150	-0.016763
 963	4.8100e-01	1.5385	3.223867	0.000312	3.120095	1.057117	-0.025059
 964	4.8150e-01	1.5144	3.093014	0.000326	3.258529	1.104019	-0.026171
 965	4.8200e-01	1.4647	2.992094	0.000251	2.513114	0.851466	-0.020184
 966	4.8250e-01	1.4326	2.989956	0.000005	0.053244	0.018040	-0.000428
 967	4.8300e-01	1.3861	2.953180	0.000092	0.915796	0.310280	-0.007355
 968	4.8350e-01	1.3395	2.768018	0.000461	4.610925	1.562224	-0.037032
 969	4.8400e-01	1.2898	2.469108	0.000744	7.443502	2.521927	-0.059782
 970	4.8450e-01	1.2433	2.671803	-0.000505	-5.047525	-1.710148	0.040539
 971	4.8500e-01	1.2256	2.466543	0.000511	5.111418	1.731795	-0.041052
 972	4.8550e-01	1.1887	2.350656	0.000289	2.885821	0.977743	-0.023177
 973	4.8600e-01	1.1438	2.220658	0.000324	3.237231	1.096804	-0.026000
 974	4.8650e-01	1.1037	2.092370	0.000319	3.194636	1.082372	-0.025658
 975	4.8700e-01	1.0652	2.038490	0.000134	1.341747	0.454596	-0.010776
 976	4.8750e-01	1.0299	1.949544	0.000221	2.214948	0.750445	-0.017789
 977	4.8800e-01	0.9818	1.995300	-0.000114	-1.139420	-0.386046	0.009151
 978	4.8850e-01	0.9481	1.802441	0.000480	4.802603	1.627166	-0.038572
 979	4.8900e-01	0.8936	1.484287	0.000792	7.922698	2.684283	-0.063631
 980	4.8950e-01	0.8775	1.659614	-0.000437	-4.366003	-1.479242	0.035065
 981	4.9000e-01	0.8037	1.522346	0.000342	3.418261	1.158138	-0.027454
 982	4.9050e-01	0.7845	1.434255	0.000219	2.193650	0.743229	-0.017618
 983	4.9100e-01	0.7267	1.220870	0.000531	5.313745	1.800345	-0.042677
 984	4.9150e-01	0.7091	1.193502	0.000068	0.681522	0.230906	-0.005474
 985	4.9200e-01	0.6722	1.164851	0.000071	0.713469	0.241730	-0.005730
 986	4.9250e-01	0.6160	1.091300	0.000183	1.831591	0.620560	-0.014710
 987	4.9300e-01	0.5791	0.824034	0.000666	6.655492	2.254942	-0.053453
 988	4.9350e-01	0.5486	0.747061	0.000192	1.916782	0.649423	-0.015395
 989	4.9400e-01	0.5053	0.600386	0.000365	3.652534	1.237512	-0.029335
 990	4.9450e-01	0.4620	0.579432	0.000052	0.521791	0.176787	-0.004191
 991	4.9500e-01	0.4219	0.487065	0.000230	2.300138	0.779308	-0.018473
 992	4.9550e-01	0.3882	0.398974	0.000219	2.193650	0.743229	-0.017618
 993	4.9600e-01	0.3305	0.305752	0.000232	2.321436	0.786524	-0.018644
 994	4.9650e-01	0.2807	0.246312	0.000148	1.480181	0.501499	-0.011888
 995	4.9700e-01	0.2374	0.137695	0.000270	2.704792	0.916408	-0.021723
 996	4.9750e-01	0.2326	0.074407	0.000158	1.576021	0.533970	-0.012658
 997	4.9800e-01	0.1909	-0.155228	0.000572	5.718399	1.937446	-0.045927
 998	4.9850e-01	0.1444	-0.225786	0.000176	1.757050	0.595305	-0.014112
 999	4.9900e-01	0.0802	-0.366475	0.000350	3.503451	1.187001	-0.028138
1000	4.9950e-01	0.0610	-0.433612	0.000167	1.671860	0.566441	-0.013427
1001	5.0000e-01	0.0802	-0.491341	-0.000144	-1.437586	-0.487067	-0.011546
1002	5.0050e-01	-0.0112	-0.603807	0.000280	2.800631	0.948879	-0.022493
1003	5.0100e-01	-0.0642	-0.704299	0.000250	2.502465	0.847858	-0.020098
1004	5.0150e-01	-0.0979	-0.694463	-0.000024	-0.244922	-0.082982	0.001967
1005	5.0200e-01	-0.1235	-0.872356	0.000443	4.429895	1.500889	-0.035578
1006	5.0250e-01	-0.1733	-1.026728	0.000384	3.844212	1.302454	-0.030875
1007	5.0300e-01	-0.2102	-1.113109	0.000215	2.151055	0.728797	-0.017276
1008	5.0350e-01	-0.2294	-1.198634	0.000213	2.129757	0.721581	-0.017105
1009	5.0400e-01	-0.2872	-1.212745	0.000035	0.351410	0.119061	-0.002822
1010	5.0450e-01	-0.3208	-1.433828	0.000551	5.505423	1.865288	-0.044216
1011	5.0500e-01	-0.3770	-1.493267	0.000148	1.480181	0.501499	-0.011888
1012	5.0550e-01	-0.4027	-1.571095	0.000194	1.938079	0.656639	-0.015566
1013	5.0600e-01	-0.4556	-1.540734	-0.000076	-0.756064	-0.256161	0.006072
1014	5.0650e-01	-0.4925	-1.745566	0.000510	5.100769	1.728187	-0.040967
1015	5.0700e-01	-0.5342	-1.841782	0.000240	2.395977	0.811779	-0.019243
1016	5.0750e-01	-0.5839	-1.920037	0.000195	1.948728	0.660247	-0.015651
1017	5.0800e-01	-0.6144	-2.070134	0.000374	3.737724	1.266375	-0.030019
1018	5.0850e-01	-0.6481	-2.138126	0.000169	1.693157	0.573657	-0.013598
1019	5.0900e-01	-0.6834	-2.256151	0.000294	2.939065	0.995782	-0.023605
1020	5.0950e-01	-0.7363	-2.351511	0.000237	2.374680	0.804563	-0.019072
1021	5.1000e-01	-0.7845	-2.332696	-0.000047	-0.468547	-0.158748	0.003763
1022	5.1050e-01	-0.7925	-2.576442	0.000607	6.069809	2.056507	-0.048749
1023	5.1100e-01	-0.8342	-2.710289	0.000333	3.333070	1.129275	-0.026769
1024	5.1150e-01	-0.8903	-2.683349	-0.000067	-0.670874	-0.227298	0.005388
1025	5.1200e-01	-0.9417	-2.918542	0.000586	5.856833	1.984349	-0.047039
1026	5.1250e-01	-0.9770	-2.881767	-0.000092	-0.915796	-0.310280	0.007355
1027	5.1300e-01	-1.0171	-3.044264	0.000405	4.046539	1.371005	-0.032500
1028	5.1350e-01	-1.0508	-3.081040	0.000092	0.915796	0.310280	-0.007355
1029	5.1400e-01	-1.0845	-3.235413	0.000384	3.844212	1.302454	-0.030875
1030	5.1450e-01	-1.1310	-3.363700	0.000319	3.194636	1.082372	-0.025658
1031	5.1500e-01	-1.1743	-3.430410	0.000166	1.661211	0.562833	-0.013342
1032	5.1550e-01	-1.2128	-3.598039	0.000417	4.174325	1.414299	-0.033526
1033	5.1600e-01	-1.2577	-3.594618	-0.000009	-0.085190	-0.028863	0.000684
1034	5.1650e-01	-1.2818	-3.722478	0.000318	3.183987	1.078764	-0.025572
1035	5.1700e-01	-1.3363	-3.748136	0.000064	0.638927	0.216474	-0.005132
1036	5.1750e-01	-1.3925	-3.729748	-0.000046	-0.457898	-0.155140	0.003678
1037	5.1800e-01	-1.4037	-4.058591	0.000819	8.188917	2.774480	-0.065769
1038	5.1850e-01	-1.4550	-4.082111	0.000059	0.585683	0.198435	-0.004704
1039	5.1900e-01	-1.5016	-4.157373	0.000187	1.874187	0.634992	-0.015052
1040	5.1950e-01	-1.5240	-4.265134	0.000268	2.683494	0.909193	-0.021552
1041	5.2000e-01	-1.5593	-4.383587	0.000295	2.949714	0.999390	-0.023690
1042	5.2050e-01	-1.5834	-4.457138	0.000183	1.831591	0.620560	-0.014710
1043	5.2100e-01	-1.6668	-4.517861	0.000151	1.512128	0.512323	-0.012145
1044	5.2150e-01	-1.6828	-4.686345	0.000420	4.195622	1.421515	-0.033697
1045	5.2200e-01	-1.7518	-4.767594	0.000202	2.023270	0.685502	-0.016250
1046	5.2250e-01	-1.7775	-4.820192	0.000131	1.309801	0.443773	-0.010520
1047	5.2300e-01	-1.8032	-5.007064	0.000465	4.653520	1.576655	-0.037374
1048	5.2350e-01	-1.8497	-5.145187	0.000344	3.439558	1.165354	-0.027625
1049	5.2400e-01	-1.8962	-5.144332	-0.000002	-0.021298	-0.007216	0.000171
1050	5.2450e-01	-1.9379	-5.183674	0.000098	0.979688	0.331927	-0.007868
1051	5.2500e-01	-1.9844	-5.401335	0.000542	5.420233	1.836425	-0.043532
1052	5.2550e-01	-1.9989	-5.485149	0.000209	2.087162	0.707150	-0.016763
1053	5.2600e-01	-2.0534	-5.540313	0.000137	1.373694	0.465420	-0.011033
1054	5.2650e-01	-2.1096	-5.593339	0.000132	1.320450	0.447380	-0.010605
1055	5.2700e-01	-2.1208	-5.805441	0.000528	5.281798	1.789522	-0.042420
1056	5.2750e-01	-2.1978	-5.774652	-0.000077	-0.766713	-0.259769	0.006158
1057	5.2800e-01	-2.2154	-5.885407	0.000276	2.758036	0.934448	-0.022151
1058	5.2850e-01	-2.2347	-5.995734	0.000275	2.747387	0.930840	-0.022065
1059	5.2900e-01	-2.2844	-6.243329	0.000617	6.165648	2.088978	-0.049519
1060	5.2950e-01	-2.3406	-6.289513	0.000115	1.150069	0.389654	-0.009237
1061	5.3000e-01	-2.3727	-6.368623	0.000197	1.970026	0.667463	-0.015822
1062	5.3050e-01	-2.4080	-6.544377	0.000438	4.376652	1.482850	-0.035151
1063	5.3100e-01	-2.4561	-6.484082	-0.000150	-1.501479	-0.508715	0.012059
1064	5.3150e-01	-2.4898	-6.697895	0.000532	5.324394	1.803953	-0.042763
1065	5.3200e-01	-2.5219	-6.785985	0.000219	2.193650	0.743229	-0.017618
1066	5.3250e-01	-2.5507	-6.934799	0.000371	3.705778	1.255552	-0.029763
1067	5.3300e-01	-2.6117	-6.898879	-0.000089	-0.894498	-0.303064	0.007184
1068	5.3350e-01	-2.6374	-7.055817	0.000391	3.908105	1.324102	-0.031388
1069	5.3400e-01	-2.6919	-7.069501	0.000034	0.340761	0.115453	-0.002737
1070	5.3450e-01	-2.7304	-7.113119	0.000109	1.086176	0.368006	-0.008724
1071	5.3500e-01	-2.7817	-7.381667	0.000669	6.687438	2.265765	-0.053710
1072	5.3550e-01	-2.8026	-7.458212	0.000191	1.906133	0.645815	-0.015309
1073	5.3600e-01	-2.8507	-7.520218	0.000154	1.544074	0.523146	-0.012401
1074	5.3650e-01	-2.8956	-7.648506	0.000319	3.194636	1.082372	-0.025658
1075	5.3700e-01	-2.9406	-7.690413	0.000104	1.043581	0.353575	-0.008381
1076	5.3750e-01	-2.9582	-7.872581	0.000454	4.536383	1.536968	-0.036434
1077	5.3800e-01	-3.0031	-7.851200	-0.000053	-0.532439	-0.180395	0.004276
1078	5.3850e-01	-3.0529	-7.881134	0.000075	0.745415	0.252553	-0.005987
1079	5.3900e-01	-3.0801	-8.188596	0.000766	7.656478	2.594085	-0.061493
1080	5.3950e-01	-3.1331	-8.155242	-0.000083	-0.830605	-0.281417	0.006671
1081	5.4000e-01	-3.1603	-8.339976	0.000460	4.600276	1.558616	-0.036947
1082	5.4050e-01	-3.2004	-8.508032	0.000418	4.184973	1.417907	-0.033611
1083	5.4100e-01	-3.2582	-8.512309	0.000011	0.106488	0.036079	-0.000855
1084	5.4150e-01	-3.2935	-8.560630	0.000120	1.203313	0.407693	-0.009664
1085	5.4200e-01	-3.3127	-8.601255	0.000101	1.011635	0.342751	-0.008125
1086	5.4250e-01	-3.3673	-8.816350	0.000536	5.356340	1.814777	-0.043019
1087	5.4300e-01	-3.4106	-8.948486	0.000329	3.290475	1.114843	-0.026427
1088	5.4350e-01	-3.4459	-8.948059	-0.000001	-0.010649	-0.003608	0.000086
1089	5.4400e-01	-3.4956	-9.062235	0.000284	2.843226	0.963311	-0.022835
1090	5.4450e-01	-3.5325	-9.159733	0.000243	2.427923	0.822603	-0.019500
1091	5.4500e-01	-3.5614	-9.211048	0.000128	1.277854	0.432949	-0.010263
1092	5.4550e-01	-3.6256	-9.453512	0.000604	6.037862	2.045683	-0.048493
1093	5.4600e-01	-3.6673	-9.509531	0.000139	1.394991	0.472636	-0.011204
1094	5.4650e-01	-3.6737	-9.567688	0.000145	1.448235	0.490675	-0.011631
1095	5.4700e-01	-3.7266	-9.649792	0.000204	2.044567	0.692718	-0.016421
1096	5.4750e-01	-3.7523	-9.861039	0.000526	5.260501	1.782306	-0.042249
1097	5.4800e-01	-3.8229	-9.704528	-0.000390	-3.897456	-1.320494	0.031302
1098	5.4850e-01	-3.8694	-9.896532	0.000478	4.781305	1.619950	-0.038401
1099	5.4900e-01	-3.8822	-10.069720	0.000431	4.312759	1.461202	-0.034638
1100	5.4950e-01	-3.9304	-10.097943	0.000070	0.702820	0.238122	-0.005645
1101	5.5000e-01	-3.9689	-10.259158	0.000401	4.014593	1.360181	-0.032243
1102	5.5050e-01	-4.0106	-10.277546	0.000046	0.457898	0.155140	-0.003678
1103	5.5100e-01	-4.0619	-10.475109	0.000492	4.919740	1.666853	-0.039513
1104	5.5150e-01	-4.1036	-10.498628	0.000059	0.585683	0.198435	-0.004704
1105	5.5200e-01	-4.1341	-10.555502	0.000142	1.416289	0.479852	-0.011375
1106	5.5250e-01	-4.1710	-10.742802	0.000466	4.664169	1.580263	-0.037460
1107	5.5300e-01	-4.2095	-10.823623	0.000201	2.012621	0.681894	-0.016164
1108	5.5350e-01	-4.2496	-10.954477	0.000326	3.258529	1.104019	-0.026171
1109	5.5400e-01	-4.2913	-11.032732	0.000195	1.948728	0.660247	-0.015651
1110	5.5450e-01	-4.3523	-11.079771	0.000117	1.171367	0.396870	-0.009408
1111	5.5500e-01	-4.3715	-11.111843	0.000080	0.798659	0.270593	-0.006414
1112	5.5550e-01	-4.4116	-11.208486	0.000241	2.406626	0.815387	-0.019329
1113	5.5600e-01	-4.4614	-11.439404	0.000575	5.750345	1.948270	-0.046184
1114	5.5650e-01	-4.5111	-11.375688	-0.000159	-1.586669	-0.537578	0.012743
1115	5.5700e-01	-4.5416	-11.521935	0.000364	3.641885	1.233904	-0.029250
1116	5.5750e-01	-4.5721	-11.675025	0.000381	3.812266	1.291631	-0.030618
1117	5.5800e-01	-4.6090	-11.858476	0.000457	4.568330	1.547792	-0.036690
1118	5.5850e-01	-4.6475	-11.902522	0.000110	1.096825	0.371614	-0.008809
1119	5.5900e-01	-4.7052	-11.972225	0.000174	1.735752	0.588089	-0.013941
1120	5.5950e-01	-4.7245	-12.112058	0.000348	3.482153	1.179786	-0.027967
1121	5.6000e-01	-4.7822	-12.243339	0.000327	3.269178	1.107627	-0.026256
1122	5.6050e-01	-4.8015	-12.334851	0.000228	2.278840	0.772092	-0.018302
1123	5.6100e-01	-4.8688	-12.194590	-0.000349	-3.492802	-1.183393	0.028052
1124	5.6150e-01	-4.8945	-12.428073	0.000581	5.814238	1.969917	-0.046697
1125	5.6200e-01	-4.9635	-12.417383	-0.000027	-0.266220	-0.090198	0.002138
1126	5.6250e-01	-4.9811	-12.576887	0.000397	3.971998	1.345749	-0.031901
1127	5.6300e-01	-4.9940	-12.808660	0.000577	5.771643	1.955485	-0.046355
1128	5.6350e-01	-5.0598	-12.916849	0.000269	2.694143	0.912800	-0.021638
1129	5.6400e-01	-5.0822	-12.929250	0.000031	0.308815	0.104629	-0.002480
1130	5.6450e-01	-5.1432	-13.034446	0.000262	2.619602	0.887545	-0.021039
1131	5.6500e-01	-5.1576	-13.141780	0.000267	2.672846	0.905585	-0.021467
1132	5.6550e-01	-5.2105	-13.267502	0.000313	3.130743	1.060725	-0.025144
1133	5.6600e-01	-5.2555	-13.238423	-0.000072	-0.724118	-0.245338	0.005816
1134	5.6650e-01	-5.3180	-13.273489	0.000087	0.873201	0.295848	-0.007013
1135	5.6700e-01	-5.3228	-13.515952	0.000604	6.037862	2.045683	-0.048493
1136	5.6750e-01	-5.3565	-13.639108	0.000307	3.066851	1.039077	-0.024631
1137	5.6800e-01	-5.3918	-13.738745	0.000248	2.481167	0.840642	-0.019927
1138	5.6850e-01	-5.4480	-13.758843	0.000050	0.500493	0.169572	-0.004020
1139	5.6900e-01	-5.4720	-13.855487	0.000241	2.406626	0.815387	-0.019329
1140	5.6950e-01	-5.5635	-13.900815	0.000113	1.128771	0.382438	-0.009066
1141	5.7000e-01	-5.5555	-14.181337	-0.000699	-6.985604	-2.366787	-0.056104
1142	5.7050e-01	-5.6036	-14.187324	0.000015	0.149083	0.050511	-0.001197
1143	5.7100e-01	-5.6517	-14.244626	0.000143	1.426937	0.483460	-0.011460
1144	5.7150e-01	-5.6742	-14.398143	0.000382	3.822915	1.295239	-0.030703
1145	5.7200e-01	-5.7255	-14.498207	0.000249	2.491816	0.844250	-0.020013
1146	5.7250e-01	-5.7736	-14.505049	0.000017	0.170381	0.057727	-0.001368
1147	5.7300e-01	-5.8041	-14.656001	0.000376	3.759022	1.273591	-0.030190
1148	5.7350e-01	-5.8683	-14.763335	0.000267	2.672846	0.905585	-0.021467
1149	5.7400e-01	-5.8891	-14.870669	0.000267	2.672846	0.905585	-0.021467
1150	5.7450e-01	-5.9501	-15.001522	0.000326	3.258529	1.104019	-0.026171
1151	5.7500e-01	-5.9677	-15.052837	0.000128	1.277854	0.432949	-0.010263
1152	5.7550e-01	-6.0079	-15.195237	0.000355	3.546046	1.201433	-0.028480
1153	5.7600e-01	-6.0544	-15.211059	0.000039	0.394005	0.133493	-0.003164
1154	5.7650e-01	-6.0784	-15.394082	0.000456	4.557681	1.544184	-0.036605
1155	5.7700e-01	-6.1426	-15.320531	-0.000183	-1.831591	-0.620560	0.014710
1156	5.7750e-01	-6.1667	-15.530067	0.000522	5.217906	1.767874	-0.041907
1157	5.7800e-01	-6.2244	-15.605757	0.000188	1.884835	0.638600	-0.015138
1158	5.7850e-01	-6.2645	-15.696413	0.000226	2.257543	0.764876	-0.018131
1159	5.7900e-01	-6.2838	-15.845655	0.000372	3.716427	1.259159	-0.029848
1160	5.7950e-01	-6.3223	-15.991475	0.000363	3.631236	1.230296	-0.029164
1161	5.8000e-01	-6.3576	-15.976080	-0.000038	-0.383356	-0.129885	0.003079
1162	5.8050e-01	-6.4153	-16.115058	0.000346	3.460856	1.172570	-0.027796
1163	5.8100e-01	-6.4217	-16.310056	0.000486	4.855847	1.645205	-0.038999
1164	5.8150e-01	-6.5020	-16.255747	-0.000135	-1.352396	-0.458204	0.010862
1165	5.8200e-01	-6.5196	-16.312194	0.000141	1.405640	0.476244	-0.011289
1166	5.8250e-01	-6.5565	-16.461007	0.000371	3.705778	1.255552	-0.029763
1167	5.8300e-01	-6.6094	-16.610249	0.000372	3.716427	1.259159	-0.029848
1168	5.8350e-01	-6.6544	-16.634623	0.000061	0.606981	0.205651	-0.004875
1169	5.8400e-01	-6.6945	-16.729128	0.000235	2.353382	0.797347	-0.018901
1170	5.8450e-01	-6.7057	-16.958336	0.000571	5.707750	1.933838	-0.045841
1171	5.8500e-01	-6.7683	-16.956197	-0.000005	-0.053244	-0.018040	0.000428
1172	5.8550e-01	-6.8116	-17.051558	0.000237	2.374680	0.804563	-0.019072
1173	5.8600e-01	-6.8372	-17.081064	0.000073	0.734766	0.248946	-0.005901
1174	5.8650e-01	-6.8822	-17.187115	0.000264	2.640899	0.894761	-0.021210
1175	5.8700e-01	-6.9319	-17.378691	0.000477	4.770657	1.616342	-0.038315
1176	5.8750e-01	-6.9543	-17.442407	0.000159	1.586669	0.537578	-0.012743
1177	5.8800e-01	-6.9945	-17.506123	0.000159	1.586669	0.537578	-0.012743
1178	5.8850e-01	-7.0474	-17.580103	0.000184	1.842240	0.624168	-0.014796
1179	5.8900e-01	-7.0907	-17.691285	0.000277	2.768685	0.938056	-0.022237
1180	5.8950e-01	-7.1244	-17.778093	0.000216	2.161704	0.732405	-0.017362
1181	5.9000e-01	-7.1822	-17.812303	0.000085	0.851903	0.288633	-0.006842
1182	5.9050e-01	-7.2351	-18.015425	0.000506	5.058174	1.713756	-0.040624
1183	5.9100e-01	-7.2399	-18.113779	0.000245	2.449221	0.829819	-0.019671
1184	5.9150e-01	-7.2944	-18.111213	-0.000006	-0.063893	-0.021647	0.000513
1185	5.9200e-01	-7.3490	-18.120621	0.000023	0.234273	0.079374	-0.001882
1186	5.9250e-01	-7.3698	-18.364367	0.000607	6.069809	2.056507	-0.048749
1187	5.9300e-01	-7.4100	-18.425945	0.000153	1.533425	0.519539	-0.012316
1188	5.9350e-01	-7.4388	-18.543970	0.000294	2.939065	0.995782	-0.023605
1189	5.9400e-01	-7.4854	-18.637620	0.000233	2.332084	0.790132	-0.018730
1190	5.9450e-01	-7.5415	-18.713310	0.000188	1.884835	0.638600	-0.015138
1191	5.9500e-01	-7.6041	-18.720579	0.000018	0.181029	0.061334	-0.001454
1192	5.9550e-01	-7.5944	-18.934392	-0.000532	-5.324394	-1.803953	-0.042763
1193	5.9600e-01	-7.6410	-18.907879	-0.000066	-0.660225	-0.223690	0.005303
1194	5.9650e-01	-7.6939	-19.075936	0.000418	4.184973	1.417907	-0.033611
1195	5.9700e-01	-7.7228	-19.248269	0.000429	4.291461	1.453986	-0.034467
1196	5.9750e-01	-7.7533	-19.223039	-0.000063	-0.628278	-0.212867	0.005046
1197	5.9800e-01	-7.8014	-19.330373	0.000267	2.672846	0.905585	-0.021467
1198	5.9850e-01	-7.8543	-19.582244	0.000627	6.272136	2.125057	-0.050374
1199	5.9900e-01	-7.8864	-19.690006	0.000268	2.683494	0.909193	-0.021552
1200	5.9950e-01	-7.9361	-19.670335	-0.000049	-0.489844	-0.165964	0.003934
1201	6.0000e-01	-7.9554	-19.759709	0.000223	2.225597	0.754053	-0.017875
1202	6.0050e-01	-8.0115	-19.907239	0.000367	3.673832	1.244728	-0.029506
1203	6.0100e-01	-8.0356	-20.011580	0.000260	2.598304	0.880329	-0.020868
1204	6.0150e-01	-8.0966	-19.982074	-0.000073	-0.734766	-0.248946	0.005901
1205	6.0200e-01	-8.1399	-20.160821	0.000445	4.451193	1.508105	-0.035749
1206	6.0250e-01	-8.1784	-20.125328	-0.000088	-0.883849	-0.299456	0.007099
1207	6.0300e-01	-8.1960	-20.376772	0.000626	6.261487	2.121449	-0.050289
1208	6.0350e-01	-8.2522	-20.344700	-0.000080	-0.798659	-0.270593	0.006414
1209	6.0400e-01	-8.2843	-20.491376	0.000365	3.652534	1.237512	-0.029335
1210	6.0450e-01	-8.3388	-20.570914	0.000198	1.980674	0.671071	-0.015908
1211	6.0500e-01	-8.3805	-20.650452	0.000198	1.980674	0.671071	-0.015908
1212	6.0550e-01	-8.4126	-20.804825	0.000384	3.844212	1.302454	-0.030875
1213	6.0600e-01	-8.4479	-20.808673	0.000010	0.095839	0.032471	-0.000770
1214	6.0650e-01	-8.4864	-20.937389	0.000321	3.205285	1.085980	-0.025743
1215	6.0700e-01	-8.5089	-21.072518	0.000337	3.365017	1.140099	-0.027026
1216	6.0750e-01	-8.5698	-21.215345	0.000356	3.556695	1.205041	-0.028565
1217	6.0800e-01	-8.6163	-21.241430	0.000065	0.649576	0.220082	-0.005217
1218	6.0850e-01	-8.6420	-21.457809	0.000539	5.388286	1.825601	-0.043276
1219	6.0900e-01	-8.6869	-21.406066	-0.000129	-1.288503	-0.436557	0.010349
1220	6.0950e-01	-8.7350	-21.483894	0.000194	1.938079	0.656639	-0.015566
1221	6.1000e-01	-8.7752	-21.650668	0.000415	4.153027	1.407084	-0.033355
1222	6.1050e-01	-8.8217	-21.695568	0.000112	1.118123	0.378830	-0.008980
1223	6.1100e-01	-8.8522	-21.750732	0.000137	1.373694	0.465420	-0.011033
1224	6.1150e-01	-8.8987	-21.859776	0.000272	2.715441	0.920016	-0.021809
1225	6.1200e-01	-8.9356	-22.003886	0.000359	3.588641	1.215865	-0.028822
1226	6.1250e-01	-8.9757	-22.088556	0.000211	2.108460	0.714366	-0.016934
1227	6.1300e-01	-9.0302	-22.053918	-0.000086	-0.862552	-0.292240	0.006928
1228	6.1350e-01	-9.0399	-22.272007	0.000543	5.430881	1.840032	-0.043618
1229	6.1400e-01	-9.1120	-22.347269	0.000187	1.874187	0.634992	-0.015052
1230	6.1450e-01	-9.1281	-22.378486	0.000078	0.777361	0.263377	-0.006243
1231	6.1500e-01	-9.1730	-22.522168	0.000358	3.577993	1.212257	-0.028736
1232	6.1550e-01	-9.2051	-22.617101	0.000236	2.364031	0.800955	-0.018987
1233	6.1600e-01	-9.2452	-22.735981	0.000296	2.960363	1.002998	-0.023776
1234	6.1650e-01	-9.2660	-22.835617	0.000248	2.481167	0.840642	-0.019927
1235	6.1700e-01	-9.3382	-22.902327	0.000166	1.661211	0.562833	-0.013342
1236	6.1750e-01	-9.3767	-22.998115	0.000239	2.385328	0.808171	-0.019158
1237	6.1800e-01	-9.3960	-23.028049	0.000075	0.745415	0.252553	-0.005987
1238	6.1850e-01	-9.4457	-23.176862	0.000371	3.705778	1.255552	-0.029763
1239	6.1900e-01	-9.5019	-23.135383	-0.000103	-1.032932	-0.349967	0.008296
1240	6.1950e-01	-9.5372	-23.420609	0.000710	7.102741	2.406474	-0.057045
1241	6.2000e-01	-9.5420	-23.552745	0.000329	3.290475	1.114843	-0.026427
1242	6.2050e-01	-9.6061	-23.460805	-0.000229	-2.289489	-0.775700	0.018388
1243	6.2100e-01	-9.6463	-23.673335	0.000529	5.292447	1.793130	-0.042506
1244	6.2150e-01	-9.6495	-23.893990	0.000549	5.494774	1.861680	-0.044131
1245	6.2200e-01	-9.7184	-23.857214	-0.000092	-0.915796	-0.310280	0.007355
1246	6.2250e-01	-9.7794	-23.856359	-0.000002	-0.021298	-0.007216	0.000171
1247	6.2300e-01	-9.8307	-24.043231	0.000465	4.653520	1.576655	-0.037374
1248	6.2350e-01	-9.8372	-24.032113	-0.000028	-0.276868	-0.093806	0.002224
1249	6.2400e-01	-9.8981	-24.191617	0.000397	3.971998	1.345749	-0.031901
1250	6.2450e-01	-9.9366	-24.268162	0.000191	1.906133	0.645815	-0.015309
1251	6.2500e-01	-9.9719	-24.401153	0.000331	3.311773	1.122059	-0.026598
1252	6.2550e-01	-9.9847	-24.494803	0.000233	2.332084	0.790132	-0.018730
1253	6.2600e-01	-10.0457	-24.540987	0.000115	1.150069	0.389654	-0.009237
1254	6.2650e-01	-10.0938	-24.676116	0.000337	3.365017	1.140099	-0.027026
1255	6.2700e-01	-10.1291	-24.748813	0.000181	1.810294	0.613344	-0.014539
1256	6.2750e-01	-10.1484	-24.879238	0.000325	3.247880	1.100412	-0.026085
1257	6.2800e-01	-10.2125	-24.870258	-0.000022	-0.223625	-0.075766	0.001796
1258	6.2850e-01	-10.2478	-25.025486	0.000387	3.865510	1.309670	-0.031046
1259	6.2900e-01	-10.2992	-25.095617	0.000175	1.746401	0.591697	-0.014026
1260	6.2950e-01	-10.3361	-25.116571	0.000052	0.521791	0.176787	-0.004191
1261	6.3000e-01	-10.3698	-25.279923	0.000407	4.067837	1.378220	-0.032671
1262	6.3050e-01	-10.4051	-25.367587	0.000218	2.183001	0.739621	-0.017533
1263	6.3100e-01	-10.4468	-25.447980	0.000200	2.001972	0.678286	-0.016079
1264	6.3150e-01	-10.4805	-25.621596	0.000432	4.323408	1.464810	-0.034723
1265	6.3200e-01	-10.5366	-25.607912	-0.000034	-0.340761	-0.115453	0.002737
1266	6.3250e-01	-10.5639	-25.813600	0.000512	5.122067	1.735403	-0.041138
1267	6.3300e-01	-10.6008	-25.849948	0.000091	0.905147	0.306672	-0.007270
1268	6.3350e-01	-10.6569	-26.004321	0.000384	3.844212	1.302454	-0.030875
1269	6.3400e-01	-10.6906	-26.007314	0.000007	0.074542	0.025255	-0.000599
1270	6.3450e-01	-10.7339	-26.192903	0.000462	4.621574	1.565832	-0.037118
1271	6.3500e-01	-10.7532	-26.146720	-0.000115	-1.150069	-0.389654	0.009237
1272	6.3550e-01	-10.8093	-26.306652	0.000398	3.982646	1.349357	-0.031986
1273	6.3600e-01	-10.8510	-26.283560	-0.000058	-0.575035	-0.194827	0.004618
1274	6.3650e-01	-10.9008	-26.522175	0.000594	5.942023	2.013212	-0.047723
1275	6.3700e-01	-10.9296	-26.574773	0.000131	1.309801	0.443773	-0.010520
1276	6.3750e-01	-10.9826	-26.673982	0.000247	2.470519	0.837034	-0.019842
1277	6.3800e-01	-11.0050	-26.836907	0.000406	4.057188	1.374612	-0.032585
1278	6.3850e-01	-11.0467	-26.767632	-0.000173	-1.725104	-0.584481	0.013855
1279	6.3900e-01	-11.0869	-26.907893	0.000349	3.492802	1.183393	-0.028052
1280	6.3950e-01	-11.1382	-26.991280	0.000208	2.076514	0.703542	-0.016677
1281	6.4000e-01	-11.1767	-27.100324	0.000272	2.715441	0.920016	-0.021809
1282	6.4050e-01	-11.1975	-27.273512	0.000431	4.312759	1.461202	-0.034638
1283	6.4100e-01	-11.2617	-27.238875	-0.000086	-0.862552	-0.292240	0.006928
1284	6.4150e-01	-11.2697	-27.407787	0.000421	4.206271	1.425123	-0.033782
1285	6.4200e-01	-11.3323	-27.480055	0.000180	1.799645	0.609736	-0.014454
1286	6.4250e-01	-11.3724	-27.565580	0.000213	2.129757	0.721581	-0.017105
1287	6.4300e-01	-11.4093	-27.660086	0.000235	2.353382	0.797347	-0.018901
1288	6.4350e-01	-11.4687	-27.796498	0.000340	3.396963	1.150922	-0.027282
1289	6.4400e-01	-11.5088	-27.751597	-0.000112	-1.118123	-0.378830	0.008980
1290	6.4450e-01	-11.5248	-27.899128	0.000367	3.673832	1.244728	-0.029506
1291	6.4500e-01	-11.5761	-28.109947	0.000525	5.249852	1.778698	-0.042164
1292	6.4550e-01	-11.6018	-28.160835	0.000127	1.267206	0.429341	-0.010177
1293	6.4600e-01	-11.6419	-28.288695	0.000318	3.183987	1.078764	-0.025572
1294	6.4650e-01	-11.6820	-28.238663	-0.000125	-1.245908	-0.422125	0.010006
1295	6.4700e-01	-11.7302	-28.389187	0.000375	3.748373	1.269983	-0.030105
1296	6.4750e-01	-11.7815	-28.515336	0.000314	3.141392	1.064333	-0.025230
1297	6.4800e-01	-11.7975	-28.520040	0.000012	0.117137	0.039687	-0.000941
1298	6.4850e-01	-11.8665	-28.708195	0.000469	4.685466	1.587479	-0.037631
1299	6.4900e-01	-11.8649	-28.872403	-0.000409	-4.089134	-1.385436	-0.032842
1300	6.4950e-01	-11.9275	-28.844180	-0.000070	-0.702820	-0.238122	0.005645
1301	6.5000e-01	-11.9596	-28.913883	0.000174	1.735752	0.588089	-0.013941
1302	6.5050e-01	-12.0093	-28.971612	0.000144	1.437586	0.487067	-0.011546
1303	6.5100e-01	-12.0494	-28.997697	0.000065	0.649576	0.220082	-0.005217
1304	6.5150e-01	-12.0767	-29.267101	0.000671	6.708736	2.272981	-0.053881
1305	6.5200e-01	-12.1280	-29.331245	0.000160	1.597318	0.541186	-0.012829
1306	6.5250e-01	-12.1793	-29.338087	0.000017	0.170381	0.057727	-0.001368
1307	6.5300e-01	-12.2114	-29.460816	0.000306	3.056202	1.035469	-0.024546
1308	6.5350e-01	-12.2467	-29.503578	0.000106	1.064879	0.360791	-0.008553
1309	6.5400e-01	-12.2740	-29.723805	0.000548	5.484125	1.858072	-0.044045
1310	6.5450e-01	-12.3285	-29.690878	-0.000082	-0.819957	-0.277809	0.006585
1311	6.5500e-01	-12.3767	-29.817455	0.000315	3.152041	1.067940	-0.025315
1312	6.5550e-01	-12.4232	-29.820449	0.000007	0.074542	0.025255	-0.000599
1313	6.5600e-01	-12.4553	-30.049228	0.000570	5.697101	1.930230	-0.045756
1314	6.5650e-01	-12.5018	-30.055642	0.000016	0.159732	0.054119	-0.001283
1315	6.5700e-01	-12.5226	-30.222416	0.000415	4.153027	1.407084	-0.033355
1316	6.5750e-01	-12.5756	-30.263896	0.000103	1.032932	0.349967	-0.008296
1317	6.5800e-01	-12.5964	-30.458038	0.000483	4.834549	1.637990	-0.038828
1318	6.5850e-01	-12.6478	-30.443499	-0.000036	-0.362059	-0.122669	0.002908
1319	6.5900e-01	-12.6766	-30.594878	0.000377	3.769671	1.277199	-0.030276
1320	6.5950e-01	-12.7168	-30.658166	0.000158	1.576021	0.533970	-0.012658
1321	6.6000e-01	-12.7729	-30.671423	0.000033	0.330112	0.111845	-0.002651
1322	6.6050e-01	-12.8002	-30.818954	0.000367	3.673832	1.244728	-0.029506
1323	6.6100e-01	-12.8563	-30.825796	0.000017	0.170381	0.057727	-0.001368
1324	6.6150e-01	-12.8724	-31.066121	0.000598	5.984618	2.027644	-0.048065
1325	6.6200e-01	-12.9494	-31.050726	-0.000038	-0.383356	-0.129885	0.003079
1326	6.6250e-01	-12.9606	-31.220921	0.000424	4.238217	1.435947	-0.034039
1327	6.6300e-01	-13.0103	-31.264539	0.000109	1.086176	0.368006	-0.008724
1328	6.6350e-01	-13.0536	-31.356051	0.000228	2.278840	0.772092	-0.018302
1329	6.6400e-01	-13.0809	-31.555324	0.000496	4.962335	1.681285	-0.039855
1330	6.6450e-01	-13.1226	-31.515983	-0.000098	-0.979688	-0.331927	0.007868
1331	6.6500e-01	-13.1852	-31.610060	0.000234	2.342733	0.793739	-0.018816
1332	6.6550e-01	-13.1996	-31.728940	0.000296	2.960363	1.002998	-0.023776
1333	6.6600e-01	-13.2622	-31.814038	0.000212	2.119109	0.717973	-0.017019
1334	6.6650e-01	-13.2686	-31.922654	0.000270	2.704792	0.916408	-0.021723
1335	6.6700e-01	-13.3376	-32.047093	0.000310	3.098797	1.049901	-0.024888
1336	6.6750e-01	-13.3697	-32.049659	0.000006	0.063893	0.021647	-0.000513
1337	6.6800e-01	-13.4162	-32.115086	0.000163	1.629264	0.552010	-0.013085
1338	6.6850e-01	-13.4483	-32.241235	0.000314	3.141392	1.064333	-0.025230
1339	6.6900e-01	-13.4691	-32.283570	0.000105	1.054230	0.357183	-0.008467
1340	6.6950e-01	-13.5205	-32.283142	-0.000001	-0.010649	-0.003608	0.000086
1341	6.7000e-01	-13.5798	-32.512350	0.000571	5.707750	1.933838	-0.045841
1342	6.7050e-01	-13.5895	-32.602579	0.000225	2.246894	0.761268	-0.018046
1343	6.7100e-01	-13.6296	-32.762083	0.000397	3.971998	1.345749	-0.031901
1344	6.7150e-01	-13.6857	-32.789451	0.000068	0.681522	0.230906	-0.005474
1345	6.7200e-01	-13.7370	-32.878397	0.000221	2.214948	0.750445	-0.017789
1346	6.7250e-01	-13.7579	-32.883101	0.000012	0.117137	0.039687	-0.000941
1347	6.7300e-01	-13.8108	-33.013526	0.000325	3.247880	1.100412	-0.026085
1348	6.7350e-01	-13.8253	-33.239740	0.000563	5.633208	1.908583	-0.045243
1349	6.7400e-01	-13.8782	-33.278654	0.000097	0.969040	0.328320	-0.007783
1350	6.7450e-01	-13.9328	-33.320989	0.000105	1.054230	0.357183	-0.008467
1351	6.7500e-01	-13.9713	-33.423191	0.000255	2.545060	0.862290	-0.020440
1352	6.7550e-01	-13.9809	-33.585261	0.000404	4.035890	1.367397	-0.032414
1353	6.7600e-01	-14.0563	-33.595097	0.000024	0.244922	0.082982	-0.001967
1354	6.7650e-01	-14.0787	-33.614768	0.000049	0.489844	0.165964	-0.003934
1355	6.7700e-01	-14.1381	-33.804633	0.000473	4.728062	1.601911	-0.037973
1356	6.7750e-01	-14.1558	-33.819600	0.000037	0.372708	0.126277	-0.002993
1357	6.7800e-01	-14.1959	-33.975683	0.000389	3.886807	1.316886	-0.031217
1358	6.7850e-01	-14.2504	-33.966276	-0.000023	-0.234273	-0.079374	0.001882
1359	6.7900e-01	-14.2873	-34.164266	0.000493	4.930388	1.670461	-0.039598
1360	6.7950e-01	-14.3242	-34.150582	-0.000034	-0.340761	-0.115453	0.002737
1361	6.8000e-01	-14.3547	-34.303672	0.000381	3.812266	1.291631	-0.030618
1362	6.8050e-01	-14.4044	-34.427683	0.000309	3.088148	1.046293	-0.024802
1363	6.8100e-01	-14.4493	-34.485413	0.000144	1.437586	0.487067	-0.011546
1364	6.8150e-01	-14.4590	-34.633371	0.000368	3.684480	1.248336	-0.029592
1365	6.8200e-01	-14.5295	-34.538438	-0.000236	-2.364031	-0.800955	0.018987
1366	6.8250e-01	-14.5825	-34.733435	0.000486	4.855847	1.645205	-0.038999
1367	6.8300e-01	-14.6162	-34.789027	0.000138	1.384342	0.469028	-0.011118
1368	6.8350e-01	-14.6450	-34.907906	0.000296	2.960363	1.002998	-0.023776
1369	6.8400e-01	-14.6803	-35.001984	0.000234	2.342733	0.793739	-0.018816
1370	6.8450e-01	-14.7220	-34.978465	-0.000059	-0.585683	-0.198435	0.004704
1371	6.8500e-01	-14.7573	-35.224777	0.000613	6.133701	2.078154	-0.049262
1372	6.8550e-01	-14.8215	-35.254283	0.000073	0.734766	0.248946	-0.005901
1373	6.8600e-01	-14.8600	-35.310729	0.000141	1.405640	0.476244	-0.011289
1374	6.8650e-01	-14.8889	-35.375301	0.000161	1.607967	0.544794	-0.012914
1375	6.8700e-01	-14.9450	-35.389840	0.000036	0.362059	0.122669	-0.002908
1376	6.8750e-01	-14.9707	-35.635297	0.000611	6.112404	2.070938	-0.049091
1377	6.8800e-01	-15.0060	-35.721677	0.000215	2.151055	0.728797	-0.017276
1378	6.8850e-01	-15.0557	-35.814900	0.000232	2.321436	0.786524	-0.018644
1379	6.8900e-01	-15.1022	-35.881182	0.000165	1.650562	0.559226	-0.013256
1380	6.8950e-01	-15.1247	-36.002627	0.000302	3.024256	1.024646	-0.024289
1381	6.9000e-01	-15.1760	-35.936345	-0.000165	-1.650562	-0.559226	0.013256
1382	6.9050e-01	-15.2001	-36.289136	0.000879	8.785249	2.976523	-0.070558
1383	6.9100e-01	-15.2482	-36.291274	0.000005	0.053244	0.018040	-0.000428
1384	6.9150e-01	-15.3140	-36.288281	-0.000007	-0.074542	-0.025255	0.000599
1385	6.9200e-01	-15.3381	-36.393477	0.000262	2.619602	0.887545	-0.021039
1386	6.9250e-01	-15.3429	-36.450351	0.000142	1.416289	0.479852	-0.011375
1387	6.9300e-01	-15.4295	-36.674854	0.000559	5.590613	1.894151	-0.044901
1388	6.9350e-01	-15.4295	-36.671433	-0.000009	-0.085190	-0.028863	0.000684
1389	6.9400e-01	-15.5001	-36.877976	0.000514	5.143364	1.742619	-0.041309
1390	6.9450e-01	-15.5145	-36.854884	-0.000058	-0.575035	-0.194827	0.004618
1391	6.9500e-01	-15.5450	-37.029355	0.000434	4.344705	1.472026	-0.034894
1392	6.9550e-01	-15.6188	-37.019948	-0.000023	-0.234273	-0.079374	0.001882
1393	6.9600e-01	-15.6445	-37.063138	0.000108	1.075528	0.364399	-0.008638
1394	6.9650e-01	-15.7103	-37.125999	0.000157	1.565372	0.530362	-0.012572
1395	6.9700e-01	-15.7199	-37.333825	0.000518	5.175311	1.753443	-0.041565
1396	6.9750e-01	-15.7808	-37.343660	0.000024	0.244922	0.082982	-0.001967
1397	6.9800e-01	-15.8258	-37.411652	0.000169	1.693157	0.573657	-0.013598
1398	6.9850e-01	-15.8546	-37.581420	0.000423	4.227569	1.432339	-0.033953
1399	6.9900e-01	-15.9060	-37.666945	0.000213	2.129757	0.721581	-0.017105
1400	6.9950e-01	-15.9284	-37.713128	0.000115	1.150069	0.389654	-0.009237
1401	7.0000e-01	-15.9798	-37.761022	0.000119	1.192664	0.404086	-0.009579
1402	7.0050e-01	-16.0022	-37.865790	0.000261	2.608953	0.883937	-0.020954
1403	7.0100e-01	-16.0744	-37.931645	0.000164	1.639913	0.555618	-0.013171
1404	7.0150e-01	-16.1017	-38.062926	0.000327	3.269178	1.107627	-0.026256
1405	7.0200e-01	-16.1193	-38.259206	0.000489	4.887793	1.656029	-0.039256
1406	7.0250e-01	-16.1450	-38.261771	0.000006	0.063893	0.021647	-0.000513
1407	7.0300e-01	-16.2028	-38.296409	0.000086	0.862552	0.292240	-0.006928
1408	7.0350e-01	-16.2621	-38.389204	0.000231	2.310787	0.782916	-0.018559
1409	7.0400e-01	-16.2942	-38.477295	0.000219	2.193650	0.743229	-0.017618
1410	7.0450e-01	-16.3199	-38.590615	0.000282	2.821929	0.956095	-0.022664
1411	7.0500e-01	-16.3872	-38.679989	0.000223	2.225597	0.754053	-0.017875
1412	7.0550e-01	-16.4097	-38.695383	0.000038	0.383356	0.129885	-0.003079
1413	7.0600e-01	-16.4450	-38.925874	0.000574	5.739696	1.944662	-0.046098
1414	7.0650e-01	-16.4915	-38.824099	-0.000253	-2.534411	-0.858682	0.020355
1415	7.0700e-01	-16.5332	-39.055444	0.000576	5.760994	1.951878	-0.046269
1416	7.0750e-01	-16.5637	-39.191001	0.000338	3.375666	1.143706	-0.027111
1417	7.0800e-01	-16.6279	-39.193995	0.000007	0.074542	0.025255	-0.000599
1418	7.0850e-01	-16.6632	-39.205968	0.000030	0.298166	0.101021	-0.002395
1419	7.0900e-01	-16.6792	-39.433037	0.000565	5.654506	1.915799	-0.045414
1420	7.0950e-01	-16.7161	-39.424057	-0.000022	-0.223625	-0.075766	0.001796
1421	7.1000e-01	-16.7835	-39.528398	0.000260	2.598304	0.880329	-0.020868
1422	7.1050e-01	-16.8059	-39.660106	0.000328	3.279826	1.111235	-0.026342
1423	7.1100e-01	-16.8541	-39.751190	0.000227	2.268192	0.768484	-0.018217
1424	7.1150e-01	-16.8797	-39.856814	0.000263	2.630250	0.891153	-0.021125
1425	7.1200e-01	-16.9247	-39.881616	0.000062	0.617630	0.209259	-0.004960
1426	7.1250e-01	-16.9616	-40.018884	0.000342	3.418261	1.158138	-0.027454
1427	7.1300e-01	-16.9936	-40.063357	0.000111	1.107474	0.375222	-0.008895
1428	7.1350e-01	-17.0578	-40.170263	0.000266	2.662197	0.901977	-0.021381
1429	7.1400e-01	-17.0787	-40.193782	0.000059	0.585683	0.198435	-0.004704
1430	7.1450e-01	-17.1220	-40.427693	0.000582	5.824887	1.973525	-0.046782
1431	7.1500e-01	-17.1685	-40.381938	-0.000114	-1.139420	-0.386046	0.009151
1432	7.1550e-01	-17.2102	-40.426411	0.000111	1.107474	0.375222	-0.008895
1433	7.1600e-01	-17.2535	-40.682131	0.000637	6.367975	2.157528	-0.051144
1434	7.1650e-01	-17.2840	-40.594040	-0.000219	-2.193650	-0.743229	0.017618
1435	7.1700e-01	-17.3418	-40.772787	0.000445	4.451193	1.508105	-0.035749
1436	7.1750e-01	-17.3578	-40.901502	0.000321	3.205285	1.085980	-0.025743
1437	7.1800e-01	-17.4220	-40.863444	-0.000095	-0.947742	-0.321104	0.007612
1438	7.1850e-01	-17.4557	-40.998573	0.000337	3.365017	1.140099	-0.027026
1439	7.1900e-01	-17.5214	-41.073835	0.000187	1.874187	0.634992	-0.015052
1440	7.1950e-01	-17.5278	-41.304325	0.000574	5.739696	1.944662	-0.046098
1441	7.2000e-01	-17.5551	-41.361199	0.000142	1.416289	0.479852	-0.011375
1442	7.2050e-01	-17.6225	-41.461264	0.000249	2.491816	0.844250	-0.020013
1443	7.2100e-01	-17.6498	-41.549782	0.000220	2.204299	0.746837	-0.017704
1444	7.2150e-01	-17.6802	-41.589979	0.000100	1.000986	0.339143	-0.008039
1445	7.2200e-01	-17.7348	-41.663531	0.000183	1.831591	0.620560	-0.014710
1446	7.2250e-01	-17.7685	-41.800371	0.000341	3.407612	1.154530	-0.027368
1447	7.2300e-01	-17.7990	-41.823462	0.000058	0.575035	0.194827	-0.004618
1448	7.2350e-01	-17.8519	-42.024446	0.000500	5.004930	1.695716	-0.040197
1449	7.2400e-01	-17.9097	-41.976552	-0.000119	-1.192664	-0.404086	0.009579
1450	7.2450e-01	-17.9514	-42.070202	0.000233	2.332084	0.790132	-0.018730
1451	7.2500e-01	-17.9834	-42.225002	0.000385	3.854861	1.306062	-0.030960
1452	7.2550e-01	-18.0139	-42.252798	0.000069	0.692171	0.234514	-0.005559
1453	7.2600e-01	-18.0653	-42.263489	0.000027	0.266220	0.090198	-0.002138
1454	7.2650e-01	-18.0909	-42.451216	0.000467	4.674818	1.583871	-0.037545
1455	7.2700e-01	-18.1326	-42.440953	-0.000026	-0.255571	-0.086590	0.002053
1456	7.2750e-01	-18.1615	-42.594471	0.000382	3.822915	1.295239	-0.030703
1457	7.2800e-01	-18.2129	-42.711640	0.000292	2.917768	0.988566	-0.023434
1458	7.2850e-01	-18.2530	-42.778777	0.000167	1.671860	0.566441	-0.013427
1459	7.2900e-01	-18.3075	-42.808283	0.000073	0.734766	0.248946	-0.005901
1460	7.2950e-01	-18.3284	-42.891670	0.000208	2.076514	0.703542	-0.016677
1461	7.3000e-01	-18.3685	-43.021241	0.000323	3.226583	1.093196	-0.025914
1462	7.3050e-01	-18.4166	-43.085385	0.000160	1.597318	0.541186	-0.012829
1463	7.3100e-01	-18.4455	-43.218376	0.000331	3.311773	1.122059	-0.026598
1464	7.3150e-01	-18.4920	-43.349229	0.000326	3.258529	1.104019	-0.026171
1465	7.3200e-01	-18.5225	-43.324855	-0.000061	-0.606981	-0.205651	0.004875
1466	7.3250e-01	-18.5449	-43.448438	0.000308	3.077500	1.042685	-0.024717
1467	7.3300e-01	-18.6059	-43.563042	0.000285	2.853875	0.966919	-0.022921
1468	7.3350e-01	-18.6396	-43.620771	0.000144	1.437586	0.487067	-0.011546
1469	7.3400e-01	-18.7005	-43.821328	0.000499	4.994281	1.692108	-0.040111
1470	7.3450e-01	-18.7358	-43.758467	-0.000157	-1.565372	-0.530362	0.012572
1471	7.3500e-01	-18.7775	-43.911129	0.000380	3.801617	1.288023	-0.030532
1472	7.3550e-01	-18.8064	-44.018035	0.000266	2.662197	0.901977	-0.021381
1473	7.3600e-01	-18.8610	-44.034285	0.000040	0.404654	0.137100	-0.003250
1474	7.3650e-01	-18.8947	-44.100139	0.000164	1.639913	0.555618	-0.013171
1475	7.3700e-01	-18.9251	-44.184382	0.000210	2.097811	0.710758	-0.016848
1476	7.3750e-01	-18.9797	-44.344741	0.000399	3.993295	1.352965	-0.032072
1477	7.3800e-01	-19.0214	-44.499969	0.000387	3.865510	1.309670	-0.031046
1478	7.3850e-01	-19.0583	-44.458062	-0.000104	-1.043581	-0.353575	0.008381
1479	7.3900e-01	-19.0840	-44.601744	0.000358	3.577993	1.212257	-0.028736
1480	7.3950e-01	-19.1497	-44.758682	0.000391	3.908105	1.324102	-0.031388
1481	7.4000e-01	-19.1818	-44.848484	0.000224	2.236245	0.757660	-0.017960
1482	7.4050e-01	-19.2011	-44.928877	0.000200	2.001972	0.678286	-0.016079
1483	7.4100e-01	-19.2364	-45.013547	0.000211	2.108460	0.714366	-0.016934
1484	7.4150e-01	-19.2781	-45.171768	0.000394	3.940051	1.334926	-0.031644
1485	7.4200e-01	-19.3182	-45.244465	0.000181	1.810294	0.613344	-0.014539
1486	7.4250e-01	-19.3759	-45.175189	-0.000173	-1.725104	-0.584481	0.013855
1487	7.4300e-01	-19.4112	-45.388147	0.000530	5.303096	1.796738	-0.042591
1488	7.4350e-01	-19.4561	-45.413377	0.000063	0.628278	0.212867	-0.005046
1489	7.4400e-01	-19.4994	-45.435185	0.000054	0.543088	0.184003	-0.004362
1490	7.4450e-01	-19.5107	-45.691333	0.000638	6.378624	2.161136	-0.051230
1491	7.4500e-01	-19.5765	-45.711004	0.000049	0.489844	0.165964	-0.003934
1492	7.4550e-01	-19.6166	-45.694754	-0.000040	-0.404654	-0.137100	0.003250
1493	7.4600e-01	-19.6454	-45.903435	0.000520	5.196608	1.760659	-0.041736
1494	7.4650e-01	-19.7016	-45.963303	0.000149	1.490830	0.505107	-0.011974
1495	7.4700e-01	-19.7224	-46.091163	0.000318	3.183987	1.078764	-0.025572
1496	7.4750e-01	-19.7609	-46.210470	0.000297	2.971012	1.006606	-0.023861
1497	7.4800e-01	-19.7754	-46.307541	0.000242	2.417275	0.818995	-0.019414
1498	7.4850e-01	-19.8492	-46.411454	0.000259	2.587655	0.876721	-0.020783
1499	7.4900e-01	-19.9053	-46.537603	0.000314	3.141392	1.064333	-0.025230
1500	7.4950e-01	-19.9166	-46.496551	-0.000102	-1.022284	-0.346359	0.008210
1501	7.5000e-01	-19.9647	-46.648358	0.000378	3.780319	1.280807	-0.030361
1502	7.5050e-01	-19.8845	-46.555564	0.000231	2.310787	0.782916	0.018559
1503	7.5100e-01	-19.8877	-46.564116	0.000021	0.212976	0.072158	-0.001711
1504	7.5150e-01	-19.8379	-46.437539	0.000315	3.152041	1.067940	0.025315
1505	7.5200e-01	-19.8043	-46.409743	0.000069	0.692171	0.234514	0.005559
1506	7.5250e-01	-19.7609	-46.286160	0.000308	3.077500	1.042685	0.024717
1507	7.5300e-01	-19.6952	-46.263496	0.000056	0.564386	0.191219	0.004533
1508	7.5350e-01	-19.6695	-46.241687	0.000054	0.543088	0.184003	0.004362
1509	7.5400e-01	-19.6342	-46.136491	0.000262	2.619602	0.887545	0.021039
1510	7.5450e-01	-19.5813	-46.061656	0.000186	1.863538	0.631384	0.014967
1511	7.5500e-01	-19.5668	-45.973993	0.000218	2.183001	0.739621	0.017533
1512	7.5550e-01	-19.5123	-45.960309	0.000034	0.340761	0.115453	0.002737
1513	7.5600e-01	-19.4818	-45.793108	0.000416	4.163676	1.410692	0.033440
1514	7.5650e-01	-19.4064	-45.937218	-0.000359	-3.588641	-1.215865	-0.028822
1515	7.5700e-01	-19.3968	-45.744359	0.000480	4.802603	1.627166	0.038572
1516	7.5750e-01	-19.3470	-45.687912	0.000141	1.405640	0.476244	0.011289
1517	7.5800e-01	-19.3118	-45.607946	0.000199	1.991323	0.674679	0.015993
1518	7.5850e-01	-19.2829	-45.403969	0.000508	5.079472	1.720972	0.040795
1519	7.5900e-01	-19.2460	-45.436468	-0.000081	-0.809308	-0.274201	-0.006500
1520	7.5950e-01	-19.1914	-45.374890	0.000153	1.533425	0.519539	0.012316
1521	7.6000e-01	-19.1497	-45.317588	0.000143	1.426937	0.483460	0.011460
1522	7.6050e-01	-19.1176	-45.261570	0.000139	1.394991	0.472636	0.011204
1523	7.6100e-01	-19.0695	-45.199992	0.000153	1.533425	0.519539	0.012316
1524	7.6150e-01	-19.0535	-45.050750	0.000372	3.716427	1.259159	0.029848
1525	7.6200e-01	-18.9893	-45.016113	0.000086	0.862552	0.292240	0.006928
1526	7.6250e-01	-18.9444	-44.992166	0.000060	0.596332	0.202043	0.004789
1527	7.6300e-01	-18.9203	-44.858319	0.000333	3.333070	1.129275	0.026769
1528	7.6350e-01	-18.8690	-44.811280	0.000117	1.171367	0.396870	0.009408
1529	7.6400e-01	-18.8481	-44.770656	0.000101	1.011635	0.342751	0.008125
1530	7.6450e-01	-18.7824	-44.663322	0.000267	2.672846	0.905585	0.021467
1531	7.6500e-01	-18.7439	-44.568817	0.000235	2.353382	0.797347	0.018901
1532	7.6550e-01	-18.7134	-44.519212	0.000124	1.235259	0.418517	0.009921
1533	7.6600e-01	-18.6636	-44.424279	0.000236	2.364031	0.800955	0.018987
1534	7.6650e-01	-18.6444	-44.379379	0.000112	1.118123	0.378830	0.008980
1535	7.6700e-01	-18.5738	-44.254084	0.000312	3.120095	1.057117	0.025059
1536	7.6750e-01	-18.5465	-44.247242	0.000017	0.170381	0.057727	0.001368
1537	7.6800e-01	-18.5048	-44.223723	0.000059	0.585683	0.198435	0.004704
1538	7.6850e-01	-18.4840	-43.990667	0.000580	5.803589	1.966309	0.046611
1539	7.6900e-01	-18.4214	-43.979977	0.000027	0.266220	0.090198	0.002138
1540	7.6950e-01	-18.3925	-43.904715	0.000187	1.874187	0.634992	0.015052
1541	7.7000e-01	-18.3396	-43.818334	0.000215	2.151055	0.728797	0.017276
1542	7.7050e-01	-18.2738	-43.862807	-0.000111	-1.107474	-0.375222	-0.008895
1543	7.7100e-01	-18.2802	-43.640442	-0.000554	-5.537369	-1.876112	0.044473
1544	7.7150e-01	-18.2209	-43.592120	0.000120	1.203313	0.407693	0.009664
1545	7.7200e-01	-18.2016	-43.527977	0.000160	1.597318	0.541186	0.012829
1546	7.7250e-01	-18.1551	-43.421498	0.000265	2.651548	0.898369	0.021296
1547	7.7300e-01	-18.1214	-43.400117	0.000053	0.532439	0.180395	0.004276
1548	7.7350e-01	-18.0540	-43.360348	0.000099	0.990337	0.335535	0.007954
1549	7.7400e-01	-18.0332	-43.211534	0.000371	3.705778	1.255552	0.029763
1550	7.7450e-01	-17.9979	-43.202126	0.000023	0.234273	0.079374	0.001882
1551	7.7500e-01	-17.9706	-43.061865	0.000349	3.492802	1.183393	0.028052
1552	7.7550e-01	-17.9016	-42.875421	0.000464	4.642871	1.573047	0.037289
1553	7.7600e-01	-17.8952	-42.840355	0.000087	0.873201	0.295848	0.007013
1554	7.7650e-01	-17.8599	-42.930157	-0.000224	-2.236245	-0.757660	-0.017960
1555	7.7700e-01	-17.8278	-42.626115	0.000757	7.571288	2.565222	0.060808
1556	7.7750e-01	-17.7701	-42.625260	0.000002	0.021298	0.007216	0.000171
1557	7.7800e-01	-17.7316	-42.577366	0.000119	1.192664	0.404086	0.009579
1558	7.7850e-01	-17.6706	-42.506808	0.000176	1.757050	0.595305	0.014112
1559	7.7900e-01	-17.6337	-42.383224	0.000308	3.077500	1.042685	0.024717
1560	7.7950e-01	-17.5760	-42.439243	-0.000139	-1.394991	-0.472636	-0.011204
1561	7.8000e-01	-17.5487	-42.386645	0.000131	1.309801	0.443773	0.010520
1562	7.8050e-01	-17.5246	-42.191220	0.000487	4.866496	1.648813	0.039085
1563	7.8100e-01	-17.4685	-42.139050	0.000130	1.299152	0.440165	0.010434
1564	7.8150e-01	-17.4107	-42.029578	0.000273	2.726090	0.923624	0.021894
1565	7.8200e-01	-17.4091	-41.869218	0.000399	3.993295	1.352965	0.032072
1566	7.8250e-01	-17.3305	-41.948757	-0.000198	-1.980674	-0.671071	-0.015908
1567	7.8300e-01	-17.3289	-41.773003	0.000438	4.376652	1.482850	0.035151
1568	7.8350e-01	-17.2696	-41.770009	0.000007	0.074542	0.025255	0.000599
1569	7.8400e-01	-17.2263	-41.676359	0.000233	2.332084	0.790132	0.018730
1570	7.8450e-01	-17.2070	-41.584847	0.000228	2.278840	0.772092	0.018302
1571	7.8500e-01	-17.1380	-41.546361	0.000096	0.958391	0.324712	0.007697
1572	7.8550e-01	-17.1188	-41.433896	0.000280	2.800631	0.948879	0.022493
1573	7.8600e-01	-17.0722	-41.312023	0.000303	3.034904	1.028253	0.024375
1574	7.8650e-01	-17.0514	-41.223932	0.000219	2.193650	0.743229	0.017618
1575	7.8700e-01	-16.9712	-41.170051	0.000134	1.341747	0.454596	0.010776
1576	7.8750e-01	-16.9455	-41.145676	0.000061	0.606981	0.205651	0.004875
1577	7.8800e-01	-16.9279	-40.920318	0.000561	5.611911	1.901367	0.045072
1578	7.8850e-01	-16.8797	-40.945120	-0.000062	-0.617630	-0.209259	-0.004960
1579	7.8900e-01	-16.8300	-40.928443	0.000042	0.415303	0.140708	0.003335
1580	7.8950e-01	-16.8108	-40.896371	0.000080	0.798659	0.270593	0.006414
1581	7.9000e-01	-16.7626	-40.687262	0.000521	5.207257	1.764266	0.041822
1582	7.9050e-01	-16.7193	-40.560685	0.000315	3.152041	1.067940	0.025315
1583	7.9100e-01	-16.6680	-40.446937	0.000283	2.832577	0.959703	0.022750
1584	7.9150e-01	-16.6263	-40.495258	-0.000120	-1.203313	-0.407693	-0.009664
1585	7.9200e-01	-16.6022	-40.375523	0.000298	2.981660	1.010214	0.023947
1586	7.9250e-01	-16.5669	-40.299834	0.000188	1.884835	0.638600	0.015138
1587	7.9300e-01	-16.5124	-40.199342	0.000250	2.502465	0.847858	0.020098
1588	7.9350e-01	-16.4723	-40.172401	0.000067	0.670874	0.227298	0.005388
1589	7.9400e-01	-16.4193	-40.109113	0.000158	1.576021	0.533970	0.012658
1590	7.9450e-01	-16.3969	-39.907701	0.000502	5.015579	1.699324	0.040282
1591	7.9500e-01	-16.3327	-39.962865	-0.000137	-1.373694	-0.465420	-0.011033
1592	7.9550e-01	-16.3054	-39.843130	0.000298	2.981660	1.010214	0.023947
1593	7.9600e-01	-16.2653	-39.708428	0.000335	3.354368	1.136491	0.026940
1594	7.9650e-01	-16.2252	-39.600666	0.000268	2.683494	0.909193	0.021552
1595	7.9700e-01	-16.1787	-39.648988	-0.000120	-1.203313	-0.407693	-0.009664
1596	7.9750e-01	-16.1434	-39.545930	0.000257	2.566358	0.869506	0.020612
1597	7.9800e-01	-16.1306	-39.377018	0.000421	4.206271	1.425123	0.033782
1598	7.9850e-01	-16.0648	-39.338960	0.000095	0.947742	0.321104	0.007612
1599	7.9900e-01	-16.0455	-39.275671	0.000158	1.576021	0.533970	0.012658
1600	7.9950e-01	-15.9782	-39.162778	0.000281	2.811280	0.952487	0.022579
1601	8.0000e-01	-15.9621	-39.121298	0.000103	1.032932	0.349967	0.008296
1602	8.0050e-01	-15.9284	-38.980610	0.000350	3.503451	1.187001	0.028138
1603	8.0100e-01	-15.8771	-38.892091	0.000220	2.204299	0.746837	0.017704
1604	8.0150e-01	-15.8177	-38.966070	-0.000184	-1.842240	-0.624168	-0.014796
1605	8.0200e-01	-15.7921	-38.684693	0.000701	7.006902	2.374003	0.056275
1606	8.0250e-01	-15.7616	-38.682127	0.000006	0.063893	0.021647	0.000513
1607	8.0300e-01	-15.7295	-38.648345	0.000084	0.841254	0.285025	0.006756
1608	8.0350e-01	-15.6766	-38.532458	0.000289	2.885821	0.977743	0.023177
1609	8.0400e-01	-15.6349	-38.500386	0.000080	0.798659	0.270593	0.006414
1610	8.0450e-01	-15.5787	-38.438808	0.000153	1.533425	0.519539	0.012316
1611	8.0500e-01	-15.5514	-38.325915	0.000281	2.811280	0.952487	0.022579
1612	8.0550e-01	-15.5226	-38.318218	0.000019	0.191678	0.064942	0.001539
1613	8.0600e-01	-15.4969	-38.133056	0.000461	4.610925	1.562224	0.037032
1614	8.0650e-01	-15.4215	-38.022729	0.000275	2.747387	0.930840	0.022065
1615	8.0700e-01	-15.3750	-38.035985	-0.000033	-0.330112	-0.111845	-0.002651
1616	8.0750e-01	-15.3621	-37.987664	0.000120	1.203313	0.407693	0.009664
1617	8.0800e-01	-15.3060	-37.754180	0.000581	5.814238	1.969917	0.046697
1618	8.0850e-01	-15.2771	-37.725529	0.000071	0.713469	0.241730	0.005730
1619	8.0900e-01	-15.2418	-37.648129	0.000193	1.927430	0.653031	0.015480
1620	8.0950e-01	-15.1905	-37.622044	0.000065	0.649576	0.220082	0.005217
1621	8.1000e-01	-15.1632	-37.415929	0.000513	5.132715	1.739011	0.041223
1622	8.1050e-01	-15.1135	-37.413363	0.000006	0.063893	0.021647	0.000513
1623	8.1100e-01	-15.0621	-37.335107	0.000195	1.948728	0.660247	0.015651
1624	8.1150e-01	-15.0188	-37.157643	0.000442	4.419247	1.497281	0.035493
1625	8.1200e-01	-15.0044	-37.030638	0.000316	3.162690	1.071548	0.025401
1626	8.1250e-01	-14.9627	-37.032776	-0.000005	-0.053244	-0.018040	-0.000428
1627	8.1300e-01	-14.8857	-37.069125	-0.000091	-0.905147	-0.306672	-0.007270
1628	8.1350e-01	-14.8809	-36.774491	0.000734	7.337014	2.485848	0.058927
1629	8.1400e-01	-14.8408	-36.800576	-0.000065	-0.649576	-0.220082	-0.005217
1630	8.1450e-01	-14.8055	-36.757386	0.000108	1.075528	0.364399	0.008638
1631	8.1500e-01	-14.7381	-36.695808	0.000153	1.533425	0.519539	0.012316
1632	8.1550e-01	-14.7092	-36.543145	0.000380	3.801617	1.288023	0.030532
1633	8.1600e-01	-14.6627	-36.565382	-0.000055	-0.553737	-0.187611	-0.004447
1634	8.1650e-01	-14.6226	-36.310517	0.000635	6.346677	2.150312	0.050973
1635	8.1700e-01	-14.5793	-36.467883	-0.000392	-3.918754	-1.327710	-0.031473
1636	8.1750e-01	-14.5440	-36.279301	0.000470	4.696115	1.591087	0.037717
1637	8.1800e-01	-14.5055	-36.151441	0.000318	3.183987	1.078764	0.025572
1638	8.1850e-01	-14.4718	-36.125783	0.000064	0.638927	0.216474	0.005132
1639	8.1900e-01	-14.4221	-36.035127	0.000226	2.257543	0.764876	0.018131
1640	8.1950e-01	-14.4140	-35.912826	0.000305	3.045553	1.031861	0.024460
1641	8.2000e-01	-14.3659	-35.718256	0.000485	4.845198	1.641598	0.038914
1642	8.2050e-01	-14.3146	-35.713980	0.000011	0.106488	0.036079	0.000855
1643	8.2100e-01	-14.2777	-35.629310	0.000211	2.108460	0.714366	0.016934
1644	8.2150e-01	-14.2295	-35.628455	0.000002	0.021298	0.007216	0.000171
1645	8.2200e-01	-14.1894	-35.576285	0.000130	1.299152	0.440165	0.010434
1646	8.2250e-01	-14.1525	-35.509148	0.000167	1.671860	0.566441	0.013427
1647	8.2300e-01	-14.1092	-35.324413	0.000460	4.600276	1.558616	0.036947
1648	8.2350e-01	-14.0723	-35.347078	-0.000056	-0.564386	-0.191219	-0.004533
1649	8.2400e-01	-14.0322	-35.069976	0.000690	6.900414	2.337924	0.055420
1650	8.2450e-01	-13.9953	-35.074253	-0.000011	-0.106488	-0.036079	-0.000855
1651	8.2500e-01	-13.9456	-35.084943	-0.000027	-0.266220	-0.090198	-0.002138
1652	8.2550e-01	-13.9247	-34.909617	0.000437	4.366003	1.479242	0.035065
1653	8.2600e-01	-13.8558	-34.836065	0.000183	1.831591	0.620560	0.014710
1654	8.2650e-01	-13.8445	-34.792875	0.000108	1.075528	0.364399	0.008638
1655	8.2700e-01	-13.7964	-34.616694	0.000439	4.387300	1.486458	0.035236
1656	8.2750e-01	-13.7627	-34.547846	0.000171	1.714455	0.580873	0.013770
1657	8.2800e-01	-13.7146	-34.538438	0.000023	0.234273	0.079374	0.001882
1658	8.2850e-01	-13.6616	-34.490544	0.000119	1.192664	0.404086	0.009579
1659	8.2900e-01	-13.6713	-34.225416	-0.000660	-6.602248	-2.236902	0.053026
1660	8.2950e-01	-13.5718	-34.349000	-0.000308	-3.077500	-1.042685	-0.024717
1661	8.3000e-01	-13.5510	-34.204463	0.000360	3.599290	1.219472	0.028907
1662	8.3050e-01	-13.5125	-34.070616	0.000333	3.333070	1.129275	0.026769
1663	8.3100e-01	-13.4740	-34.004762	0.000164	1.639913	0.555618	0.013171
1664	8.3150e-01	-13.4531	-33.910684	0.000234	2.342733	0.793739	0.018816
1665	8.3200e-01	-13.4034	-33.733220	0.000442	4.419247	1.497281	0.035493
1666	8.3250e-01	-13.3408	-33.704997	0.000070	0.702820	0.238122	0.005645
1667	8.3300e-01	-13.3232	-33.526677	0.000444	4.440544	1.504497	0.035664
1668	8.3350e-01	-13.2702	-33.580558	-0.000134	-1.341747	-0.454596	-0.010776
1669	8.3400e-01	-13.2445	-33.427895	0.000380	3.801617	1.288023	0.030532
1670	8.3450e-01	-13.2076	-33.279509	0.000370	3.695129	1.251944	0.029677
1671	8.3500e-01	-13.1579	-33.293621	-0.000035	-0.351410	-0.119061	-0.002822
1672	8.3550e-01	-13.1066	-33.270102	0.000059	0.585683	0.198435	0.004704
1673	8.3600e-01	-13.0825	-33.262832	0.000018	0.181029	0.061334	0.001454
1674	8.3650e-01	-13.0360	-33.003263	0.000646	6.463814	2.189999	0.051914
1675	8.3700e-01	-12.9927	-33.001125	0.000005	0.053244	0.018040	0.000428
1676	8.3750e-01	-12.9510	-32.853167	0.000368	3.684480	1.248336	0.029592
1677	8.3800e-01	-12.9077	-32.839483	0.000034	0.340761	0.115453	0.002737
1678	8.3850e-01	-12.8740	-32.687248	0.000379	3.790968	1.284415	0.030447
1679	8.3900e-01	-12.8643	-32.541856	0.000362	3.620588	1.226688	0.029079
1680	8.3950e-01	-12.7793	-32.613269	-0.000178	-1.778347	-0.602520	-0.014283
1681	8.4000e-01	-12.7761	-32.517481	0.000239	2.385328	0.808171	0.019158
1682	8.4050e-01	-12.7280	-32.392615	0.000311	3.109446	1.053509	0.024973
1683	8.4100e-01	-12.6847	-32.285281	0.000267	2.672846	0.905585	0.021467
1684	8.4150e-01	-12.6333	-32.229689	0.000138	1.384342	0.469028	0.011118
1685	8.4200e-01	-12.5996	-32.151006	0.000196	1.959377	0.663855	0.015737
1686	8.4250e-01	-12.5595	-32.053080	0.000244	2.438572	0.826211	0.019585
1687	8.4300e-01	-12.5130	-32.026140	0.000067	0.670874	0.227298	0.005388
1688	8.4350e-01	-12.4745	-31.876898	0.000372	3.716427	1.259159	0.029848
1689	8.4400e-01	-12.4248	-31.693875	0.000456	4.557681	1.544184	0.036605
1690	8.4450e-01	-12.3895	-31.719532	-0.000064	-0.638927	-0.216474	-0.005132
1691	8.4500e-01	-12.3686	-31.599370	0.000299	2.992309	1.013822	0.024033
1692	8.4550e-01	-12.3157	-31.598087	0.000003	0.031946	0.010824	0.000257
1693	8.4600e-01	-12.2788	-31.468944	0.000322	3.215934	1.089588	0.025829
1694	8.4650e-01	-12.2451	-31.379143	0.000224	2.236245	0.757660	0.017960
1695	8.4700e-01	-12.1954	-31.357761	0.000053	0.532439	0.180395	0.004276
1696	8.4750e-01	-12.1408	-31.217500	0.000349	3.492802	1.183393	0.028052
1697	8.4800e-01	-12.0991	-31.201251	0.000040	0.404654	0.137100	0.003250
1698	8.4850e-01	-12.0590	-31.069114	0.000329	3.290475	1.114843	0.026427
1699	8.4900e-01	-12.0638	-30.923294	-0.000363	-3.631236	-1.230296	0.029164
1700	8.4950e-01	-11.9852	-30.895071	0.000070	0.702820	0.238122	0.005645
1701	8.5000e-01	-11.9820	-30.769349	0.000313	3.130743	1.060725	0.025144
1702	8.5050e-01	-11.8858	-30.740270	0.000072	0.724118	0.245338	0.005816
1703	8.5100e-01	-11.8633	-30.625239	0.000286	2.864524	0.970527	0.023006
1704	8.5150e-01	-11.8424	-30.544846	0.000200	2.001972	0.678286	0.016079
1705	8.5200e-01	-11.8055	-30.373796	0.000426	4.259515	1.443163	0.034210
1706	8.5250e-01	-11.7285	-30.344289	0.000073	0.734766	0.248946	0.005901
1707	8.5300e-01	-11.7189	-30.260903	0.000208	2.076514	0.703542	0.016677
1708	8.5350e-01	-11.6836	-30.182647	0.000195	1.948728	0.660247	0.015651
1709	8.5400e-01	-11.6307	-30.083438	0.000247	2.470519	0.837034	0.019842
1710	8.5450e-01	-11.6098	-30.059063	0.000061	0.606981	0.205651	0.004875
1711	8.5500e-01	-11.5312	-30.000479	0.000146	1.458884	0.494283	0.011717
1712	8.5550e-01	-11.5216	-29.716108	0.000708	7.081444	2.399258	0.056874
1713	8.5600e-01	-11.4831	-29.710976	0.000013	0.127785	0.043295	0.001026
1714	8.5650e-01	-11.4205	-29.698575	0.000031	0.308815	0.104629	0.002480
1715	8.5700e-01	-11.4061	-29.609629	0.000221	2.214948	0.750445	0.017789
1716	8.5750e-01	-11.3596	-29.539071	0.000176	1.757050	0.595305	0.014112
1717	8.5800e-01	-11.3371	-29.279930	0.000645	6.453165	2.186392	0.051828
1718	8.5850e-01	-11.2665	-29.311574	-0.000079	-0.788010	-0.266985	-0.006329
1719	8.5900e-01	-11.2344	-29.199109	0.000280	2.800631	0.948879	0.022493
1720	8.5950e-01	-11.1879	-29.217497	-0.000046	-0.457898	-0.155140	-0.003678
1721	8.6000e-01	-11.1574	-29.056710	0.000400	4.003944	1.356573	0.032157
1722	8.6050e-01	-11.1013	-29.019934	0.000092	0.915796	0.310280	0.007355
1723	8.6100e-01	-11.0692	-28.859575	0.000399	3.993295	1.352965	0.032072
1724	8.6150e-01	-11.0403	-28.726155	0.000332	3.322422	1.125667	0.026684
1725	8.6200e-01	-11.0243	-28.578625	0.000367	3.673832	1.244728	0.029506
1726	8.6250e-01	-10.9553	-28.626091	-0.000118	-1.182015	-0.400478	-0.009493
1727	8.6300e-01	-10.8992	-28.566224	0.000149	1.490830	0.505107	0.011974
1728	8.6350e-01	-10.8574	-28.452903	0.000282	2.821929	0.956095	0.022664
1729	8.6400e-01	-10.8318	-28.426818	0.000065	0.649576	0.220082	0.005217
1730	8.6450e-01	-10.8173	-28.202314	0.000559	5.590613	1.894151	0.044901
1731	8.6500e-01	-10.7628	-28.169387	0.000082	0.819957	0.277809	0.006585
1732	8.6550e-01	-10.7018	-28.140309	0.000072	0.724118	0.245338	0.005816
1733	8.6600e-01	-10.6794	-28.031264	0.000272	2.715441	0.920016	0.021809
1734	8.6650e-01	-10.6425	-27.897418	0.000333	3.333070	1.129275	0.026769
1735	8.6700e-01	-10.6136	-27.861070	0.000091	0.905147	0.306672	0.007270
1736	8.6750e-01	-10.5623	-27.736203	0.000311	3.109446	1.053509	0.024973
1737	8.6800e-01	-10.5206	-27.674625	0.000153	1.533425	0.519539	0.012316
1738	8.6850e-01	-10.4933	-27.394103	0.000699	6.985604	2.366787	0.056104
1739	8.6900e-01	-10.4387	-27.376142	0.000045	0.447249	0.151532	0.003592
1740	8.6950e-01	-10.3826	-27.445845	-0.000174	-1.735752	-0.588089	-0.013941
1741	8.7000e-01	-10.3489	-27.297032	0.000371	3.705778	1.255552	0.029763
1742	8.7050e-01	-10.2976	-27.295321	0.000004	0.042595	0.014432	0.000342
1743	8.7100e-01	-10.2703	-27.120423	0.000436	4.355354	1.475634	0.034980
1744	8.7150e-01	-10.2270	-27.094337	0.000065	0.649576	0.220082	0.005217
1745	8.7200e-01	-10.2013	-26.927991	0.000414	4.142378	1.403476	0.033269
1746	8.7250e-01	-10.1660	-26.846742	0.000202	2.023270	0.685502	0.016250
1747	8.7300e-01	-10.1083	-26.807828	0.000097	0.969040	0.328320	0.007783
1748	8.7350e-01	-10.0874	-26.688521	0.000297	2.971012	1.006606	0.023861
1749	8.7400e-01	-10.0313	-26.612404	0.000190	1.895484	0.642207	0.015223
1750	8.7450e-01	-9.9976	-26.444347	0.000418	4.184973	1.417907	0.033611
1751	8.7500e-01	-9.9623	-26.395170	0.000122	1.224611	0.414909	0.009835
1752	8.7550e-01	-9.9061	-26.310500	0.000211	2.108460	0.714366	0.016934
1753	8.7600e-01	-9.8757	-26.242080	0.000170	1.703806	0.577265	0.013684
1754	8.7650e-01	-9.8307	-26.179219	0.000157	1.565372	0.530362	0.012572
1755	8.7700e-01	-9.8083	-26.077872	0.000252	2.523763	0.855074	0.020269
1756	8.7750e-01	-9.7521	-25.995768	0.000204	2.044567	0.692718	0.016421
1757	8.7800e-01	-9.7008	-26.028695	-0.000082	-0.819957	-0.277809	-0.006585
1758	8.7850e-01	-9.6912	-25.719950	0.000769	7.688424	2.604909	0.061749
1759	8.7900e-01	-9.6430	-25.754160	-0.000085	-0.851903	-0.288633	-0.006842
1760	8.7950e-01	-9.6174	-25.583537	0.000425	4.248866	1.439555	0.034124
1761	8.8000e-01	-9.5548	-25.571991	0.000029	0.287517	0.097413	0.002309
1762	8.8050e-01	-9.5211	-25.464657	0.000267	2.672846	0.905585	0.021467
1763	8.8100e-01	-9.4586	-25.344067	0.000300	3.002958	1.017430	0.024118
1764	8.8150e-01	-9.4345	-25.361600	-0.000044	-0.436600	-0.147924	-0.003507
1765	8.8200e-01	-9.3816	-25.188839	0.000430	4.302110	1.457594	0.034552
1766	8.8250e-01	-9.3463	-25.116143	0.000181	1.810294	0.613344	0.014539
1767	8.8300e-01	-9.2885	-25.096900	0.000048	0.479195	0.162356	0.003849
1768	8.8350e-01	-9.2789	-24.983151	0.000283	2.832577	0.959703	0.022750
1769	8.8400e-01	-9.2340	-24.833483	0.000373	3.727076	1.262767	0.029934
1770	8.8450e-01	-9.1939	-24.781740	0.000129	1.288503	0.436557	0.010349
1771	8.8500e-01	-9.1570	-24.639341	0.000355	3.546046	1.201433	0.028480
1772	8.8550e-01	-9.1297	-24.536283	0.000257	2.566358	0.869506	0.020612
1773	8.8600e-01	-9.0623	-24.487534	0.000121	1.213962	0.411301	0.009750
1774	8.8650e-01	-9.0206	-24.503356	-0.000039	-0.394005	-0.133493	-0.003164
1775	8.8700e-01	-8.9917	-24.309642	0.000482	4.823901	1.634382	0.038743
1776	8.8750e-01	-8.9388	-24.266024	0.000109	1.086176	0.368006	0.008724
1777	8.8800e-01	-8.9163	-24.157835	0.000269	2.694143	0.912800	0.021638
1778	8.8850e-01	-8.8730	-24.026981	0.000326	3.258529	1.104019	0.026171
1779	8.8900e-01	-8.8169	-23.989350	0.000094	0.937093	0.317496	0.007526
1780	8.8950e-01	-8.8088	-23.821294	0.000418	4.184973	1.417907	0.033611
1781	8.9000e-01	-8.7479	-23.814024	0.000018	0.181029	0.061334	0.001454
1782	8.9050e-01	-8.7158	-23.678894	0.000337	3.365017	1.140099	0.027026
1783	8.9100e-01	-8.6725	-23.528798	0.000374	3.737724	1.266375	0.030019
1784	8.9150e-01	-8.6404	-23.487318	0.000103	1.032932	0.349967	0.008296
1785	8.9200e-01	-8.5875	-23.452681	0.000086	0.862552	0.292240	0.006928
1786	8.9250e-01	-8.5554	-23.242289	0.000524	5.239203	1.775090	0.042078
1787	8.9300e-01	-8.5105	-23.296597	-0.000135	-1.352396	-0.458204	-0.010862
1788	8.9350e-01	-8.4655	-23.084068	0.000529	5.292447	1.793130	0.042506
1789	8.9400e-01	-8.4238	-23.160185	-0.000190	-1.895484	-0.642207	-0.015223
1790	8.9450e-01	-8.3982	-22.967754	0.000479	4.791954	1.623558	0.038486
1791	8.9500e-01	-8.3548	-22.894202	0.000183	1.831591	0.620560	0.014710
1792	8.9550e-01	-8.3244	-22.827920	0.000165	1.650562	0.559226	0.013256
1793	8.9600e-01	-8.2554	-22.733415	0.000235	2.353382	0.797347	0.018901
1794	8.9650e-01	-8.2313	-22.734698	-0.000003	-0.031946	-0.010824	-0.000257
1795	8.9700e-01	-8.1928	-22.597858	0.000341	3.407612	1.154530	0.027368
1796	8.9750e-01	-8.1495	-22.405426	0.000479	4.791954	1.623558	0.038486
1797	8.9800e-01	-8.1014	-22.380196	0.000063	0.628278	0.212867	0.005046
1798	8.9850e-01	-8.0709	-22.313914	0.000165	1.650562	0.559226	0.013256
1799	8.9900e-01	-8.0436	-21.988064	0.000811	8.114376	2.749225	0.065170
1800	8.9950e-01	-7.9939	-22.171515	-0.000457	-4.568330	-1.547792	-0.036690
1801	9.0000e-01	-7.9442	-22.047932	0.000308	3.077500	1.042685	0.024717
1802	9.0050e-01	-7.9089	-22.014577	0.000083	0.830605	0.281417	0.006671
1803	9.0100e-01	-7.8784	-21.742607	0.000677	6.772629	2.294629	0.054394
1804	9.0150e-01	-7.8447	-21.765271	-0.000056	-0.564386	-0.191219	-0.004533
1805	9.0200e-01	-7.8014	-21.623727	0.000352	3.524749	1.194217	0.028309
1806	9.0250e-01	-7.7549	-21.460374	0.000407	4.067837	1.378220	0.032671
1807	9.0300e-01	-7.7340	-21.365869	0.000235	2.353382	0.797347	0.018901
1808	9.0350e-01	-7.6811	-21.371428	-0.000014	-0.138434	-0.046903	-0.001112
1809	9.0400e-01	-7.6538	-21.238009	0.000332	3.322422	1.125667	0.026684
1810	9.0450e-01	-7.5896	-21.262384	-0.000061	-0.606981	-0.205651	-0.004875
1811	9.0500e-01	-7.5559	-21.126827	0.000338	3.375666	1.143706	0.027111
1812	9.0550e-01	-7.5158	-21.051565	0.000187	1.874187	0.634992	0.015052
1813	9.0600e-01	-7.4918	-20.982717	0.000171	1.714455	0.580873	0.013770
1814	9.0650e-01	-7.4356	-20.794134	0.000470	4.696115	1.591087	0.037717
1815	9.0700e-01	-7.3955	-20.808246	-0.000035	-0.351410	-0.119061	-0.002822
1816	9.0750e-01	-7.3442	-20.626505	0.000453	4.525735	1.533360	0.036348
1817	9.0800e-01	-7.3089	-20.469139	0.000392	3.918754	1.327710	0.031473
1818	9.0850e-01	-7.2720	-20.484961	-0.000039	-0.394005	-0.133493	-0.003164
1819	9.0900e-01	-7.2158	-20.306214	0.000445	4.451193	1.508105	0.035749
1820	9.0950e-01	-7.2142	-20.225393	0.000201	2.012621	0.681894	0.016164
1821	9.1000e-01	-7.1501	-20.176216	0.000122	1.224611	0.414909	0.009835
1822	9.1050e-01	-7.1051	-20.090263	0.000214	2.140406	0.725189	0.017191
1823	9.1100e-01	-7.0666	-19.860628	0.000572	5.718399	1.937446	0.045927
1824	9.1150e-01	-7.0233	-19.952995	-0.000230	-2.300138	-0.779308	-0.018473
1825	9.1200e-01	-6.9977	-19.899115	0.000134	1.341747	0.454596	0.010776
1826	9.1250e-01	-6.9624	-19.726354	0.000430	4.302110	1.457594	0.034552
1827	9.1300e-01	-6.9255	-19.609612	0.000291	2.907119	0.984959	0.023348
1828	9.1350e-01	-6.8806	-19.584810	0.000062	0.617630	0.209259	0.004960
1829	9.1400e-01	-6.8132	-19.542903	0.000104	1.043581	0.353575	0.008381
1830	9.1450e-01	-6.7795	-19.385109	0.000393	3.929402	1.331318	0.031559
1831	9.1500e-01	-6.7650	-19.347050	0.000095	0.947742	0.321104	0.007612
1832	9.1550e-01	-6.7137	-19.181987	0.000411	4.110432	1.392652	0.033013
1833	9.1600e-01	-6.6816	-19.108435	0.000183	1.831591	0.620560	0.014710
1834	9.1650e-01	-6.6399	-18.921563	0.000465	4.653520	1.576655	0.037374
1835	9.1700e-01	-6.5918	-18.812946	0.000270	2.704792	0.916408	0.021723
1836	9.1750e-01	-6.5356	-18.836466	-0.000059	-0.585683	-0.198435	-0.004704
1837	9.1800e-01	-6.5196	-18.779592	0.000142	1.416289	0.479852	0.011375
1838	9.1850e-01	-6.4635	-18.610252	0.000422	4.216920	1.428731	0.033868
1839	9.1900e-01	-6.4378	-18.605548	0.000012	0.117137	0.039687	0.000941
1840	9.1950e-01	-6.4121	-18.336999	0.000669	6.687438	2.265765	0.053710
1841	9.2000e-01	-6.3512	-18.426373	-0.000223	-2.225597	-0.754053	-0.017875
1842	9.2050e-01	-6.3303	-18.299368	0.000316	3.162690	1.071548	0.025401
1843	9.2100e-01	-6.2645	-18.159535	0.000348	3.482153	1.179786	0.027967
1844	9.2150e-01	-6.2276	-18.075720	0.000209	2.087162	0.707150	0.016763
1845	9.2200e-01	-6.2084	-18.117628	-0.000104	-1.043581	-0.353575	-0.008381
1846	9.2250e-01	-6.1619	-17.893552	0.000558	5.579965	1.890543	0.044815
1847	9.2300e-01	-6.1089	-17.870460	0.000058	0.575035	0.194827	0.004618
1848	9.2350e-01	-6.0752	-17.773389	0.000242	2.417275	0.818995	0.019414
1849	9.2400e-01	-6.0255	-17.581813	0.000477	4.770657	1.616342	0.038315
1850	9.2450e-01	-5.9886	-17.630990	-0.000122	-1.224611	-0.414909	-0.009835
1851	9.2500e-01	-5.9629	-17.380829	0.000623	6.229541	2.110625	0.050032
1852	9.2550e-01	-5.9196	-17.298298	0.000206	2.055216	0.696326	0.016506
1853	9.2600e-01	-5.8651	-17.270074	0.000070	0.702820	0.238122	0.005645
1854	9.2650e-01	-5.8282	-17.245272	0.000062	0.617630	0.209259	0.004960
1855	9.2700e-01	-5.7961	-17.074222	0.000426	4.259515	1.443163	0.034210
1856	9.2750e-01	-5.7496	-17.109715	-0.000088	-0.883849	-0.299456	-0.007099
1857	9.2800e-01	-5.7127	-16.974585	0.000337	3.365017	1.140099	0.027026
1858	9.2850e-01	-5.6629	-16.853140	0.000302	3.024256	1.024646	0.024289
1859	9.2900e-01	-5.6276	-16.701760	0.000377	3.769671	1.277199	0.030276
1860	9.2950e-01	-5.6148	-16.544394	0.000392	3.918754	1.327710	0.031473
1861	9.3000e-01	-5.5587	-16.408837	0.000338	3.375666	1.143706	0.027111
1862	9.3050e-01	-5.5121	-16.511895	-0.000257	-2.566358	-0.869506	-0.020612
1863	9.3100e-01	-5.4769	-16.305779	0.000513	5.132715	1.739011	0.041223
1864	9.3150e-01	-5.4576	-16.173216	0.000330	3.301124	1.118451	0.026513
1865	9.3200e-01	-5.3886	-16.179202	-0.000015	-0.149083	-0.050511	-0.001197
1866	9.3250e-01	-5.3630	-16.068020	0.000277	2.768685	0.938056	0.022237
1867	9.3300e-01	-5.3148	-15.967100	0.000251	2.513114	0.851466	0.020184
1868	9.3350e-01	-5.2603	-15.962396	0.000012	0.117137	0.039687	0.000941
1869	9.3400e-01	-5.2362	-15.777235	0.000461	4.610925	1.562224	0.037032
1870	9.3450e-01	-5.1993	-15.728058	0.000122	1.224611	0.414909	0.009835
1871	9.3500e-01	-5.1448	-15.674604	0.000133	1.331098	0.450988	0.010691
1872	9.3550e-01	-5.1191	-15.462930	0.000527	5.271150	1.785914	0.042335
1873	9.3600e-01	-5.0999	-15.380398	0.000206	2.055216	0.696326	0.016506
1874	9.3650e-01	-5.0245	-15.391944	-0.000029	-0.287517	-0.097413	-0.002309
1875	9.3700e-01	-4.9956	-15.169579	0.000554	5.537369	1.876112	0.044473
1876	9.3750e-01	-4.9523	-15.227736	-0.000145	-1.448235	-0.490675	-0.011631
1877	9.3800e-01	-4.9073	-14.974154	0.000631	6.314731	2.139489	0.050716
1878	9.3850e-01	-4.8672	-15.003233	-0.000072	-0.724118	-0.245338	-0.005816
1879	9.3900e-01	-4.8303	-14.829617	0.000432	4.323408	1.464810	0.034723
1880	9.3950e-01	-4.7838	-14.839452	-0.000024	-0.244922	-0.082982	-0.001967
1881	9.4000e-01	-4.7566	-14.759059	0.000200	2.001972	0.678286	0.016079
1882	9.4050e-01	-4.7084	-14.614094	0.000361	3.609939	1.223080	0.028993
1883	9.4100e-01	-4.6667	-14.610673	0.000009	0.085190	0.028863	0.000684
1884	9.4150e-01	-4.6266	-14.426794	0.000458	4.578979	1.551400	0.036776
1885	9.4200e-01	-4.6025	-14.420380	0.000016	0.159732	0.054119	0.001283
1886	9.4250e-01	-4.5480	-14.203146	0.000541	5.409584	1.832817	0.043447
1887	9.4300e-01	-4.5111	-14.172357	0.000077	0.766713	0.259769	0.006158
1888	9.4350e-01	-4.4694	-13.993182	0.000446	4.461842	1.511713	0.035835
1889	9.4400e-01	-4.4293	-13.844368	0.000371	3.705778	1.255552	0.029763
1890	9.4450e-01	-4.4213	-13.764830	0.000198	1.980674	0.671071	0.015908
1891	9.4500e-01	-4.3491	-13.740455	0.000061	0.606981	0.205651	0.004875
1892	9.4550e-01	-4.3218	-13.601905	0.000345	3.450207	1.168962	0.027710
1893	9.4600e-01	-4.2785	-13.523222	0.000196	1.959377	0.663855	0.015737
1894	9.4650e-01	-4.2288	-13.433848	0.000223	2.225597	0.754053	0.017875
1895	9.4700e-01	-4.2079	-13.346185	0.000218	2.183001	0.739621	0.017533
1896	9.4750e-01	-4.1469	-13.392796	-0.000116	-1.160718	-0.393262	-0.009322
1897	9.4800e-01	-4.1213	-13.208917	0.000458	4.578979	1.551400	0.036776
1898	9.4850e-01	-4.0844	-13.025893	0.000456	4.557681	1.544184	0.036605
1899	9.4900e-01	-4.0346	-13.065663	-0.000099	-0.990337	-0.335535	-0.007954
1900	9.4950e-01	-3.9785	-12.924974	0.000350	3.503451	1.187001	0.028138
1901	9.5000e-01	-3.9592	-12.841587	0.000208	2.076514	0.703542	0.016677
1902	9.5050e-01	-3.9288	-12.681655	0.000398	3.982646	1.349357	0.031986
1903	9.5100e-01	-3.8838	-12.653860	0.000069	0.692171	0.234514	0.005559
1904	9.5150e-01	-3.8421	-12.488369	0.000412	4.121081	1.396260	0.033098
1905	9.5200e-01	-3.7940	-12.476395	0.000030	0.298166	0.101021	0.002395
1906	9.5250e-01	-3.7555	-12.274556	0.000503	5.026228	1.702932	0.040368
1907	9.5300e-01	-3.7122	-12.220675	0.000134	1.341747	0.454596	0.010776
1908	9.5350e-01	-3.6577	-12.190741	0.000075	0.745415	0.252553	0.005987
1909	9.5400e-01	-3.6416	-12.020119	0.000425	4.248866	1.439555	0.034124
1910	9.5450e-01	-3.5839	-12.061598	-0.000103	-1.032932	-0.349967	-0.008296
1911	9.5500e-01	-3.5566	-11.881568	0.000448	4.483139	1.518929	0.036006
1912	9.5550e-01	-3.5261	-11.754136	0.000317	3.173339	1.075156	0.025486
1913	9.5600e-01	-3.4876	-11.633973	0.000299	2.992309	1.013822	0.024033
1914	9.5650e-01	-3.4411	-11.533909	0.000249	2.491816	0.844250	0.020013
1915	9.5700e-01	-3.4010	-11.500982	0.000082	0.819957	0.277809	0.006585
1916	9.5750e-01	-3.3657	-11.270492	0.000574	5.739696	1.944662	0.046098
1917	9.5800e-01	-3.3240	-11.333780	-0.000158	-1.576021	-0.533970	-0.012658
1918	9.5850e-01	-3.2807	-11.185394	0.000370	3.695129	1.251944	0.029677
1919	9.5900e-01	-3.2357	-11.082764	0.000256	2.555709	0.865898	0.020526
1920	9.5950e-01	-3.1780	-11.066514	0.000040	0.404654	0.137100	0.003250
1921	9.6000e-01	-3.1635	-10.844577	0.000553	5.526721	1.872504	0.044388
1922	9.6050e-01	-3.1106	-10.822340	0.000055	0.553737	0.187611	0.004447
1923	9.6100e-01	-3.0817	-10.740236	0.000204	2.044567	0.692718	0.016421
1924	9.6150e-01	-3.0400	-10.545667	0.000485	4.845198	1.641598	0.038914
1925	9.6200e-01	-2.9839	-10.542674	0.000007	0.074542	0.025255	0.000599
1926	9.6250e-01	-2.9598	-10.387873	0.000385	3.854861	1.306062	0.030960
1927	9.6300e-01	-2.9133	-10.369485	0.000046	0.457898	0.155140	0.003678
1928	9.6350e-01	-2.8716	-10.212119	0.000392	3.918754	1.327710	0.031473
1929	9.6400e-01	-2.8363	-10.144554	0.000168	1.682508	0.570049	0.013513
1930	9.6450e-01	-2.7930	-10.094522	0.000125	1.245908	0.422125	0.010006
1931	9.6500e-01	-2.7577	-9.825974	0.000669	6.687438	2.265765	0.053710
1932	9.6550e-01	-2.7031	-9.976925	-0.000376	-3.759022	-1.273591	-0.030190
1933	9.6600e-01	-2.6710	-9.741304	0.000587	5.867482	1.987957	0.047124
1934	9.6650e-01	-2.6438	-9.639101	0.000255	2.545060	0.862290	0.020440
1935	9.6700e-01	-2.5973	-9.580089	0.000147	1.469533	0.497891	0.011802
1936	9.6750e-01	-2.5539	-9.420157	0.000398	3.982646	1.349357	0.031986
1937	9.6800e-01	-2.5170	-9.432131	-0.000030	-0.298166	-0.101021	-0.002395
1938	9.6850e-01	-2.4898	-9.216180	0.000538	5.377638	1.821993	0.043190
1939	9.6900e-01	-2.4400	-9.307264	-0.000227	-2.268192	-0.768484	-0.018217
1940	9.6950e-01	-2.4047	-9.171707	0.000338	3.375666	1.143706	0.027111
1941	9.7000e-01	-2.3695	-9.037433	0.000334	3.343719	1.132883	0.026855
1942	9.7050e-01	-2.3213	-8.852271	0.000461	4.610925	1.562224	0.037032
1943	9.7100e-01	-2.2572	-8.774443	0.000194	1.938079	0.656639	0.015566
1944	9.7150e-01	-2.2395	-8.732963	0.000103	1.032932	0.349967	0.008296
1945	9.7200e-01	-2.1898	-8.670102	0.000157	1.565372	0.530362	0.012572
1946	9.7250e-01	-2.1529	-8.612373	0.000144	1.437586	0.487067	0.011546
1947	9.7300e-01	-2.1224	-8.349383	0.000655	6.549004	2.218863	0.052598
1948	9.7350e-01	-2.0663	-8.315173	0.000085	0.851903	0.288633	0.006842
1949	9.7400e-01	-2.0406	-8.301062	0.000035	0.351410	0.119061	0.002822
1950	9.7450e-01	-1.9892	-8.080407	0.000549	5.494774	1.861680	0.044131
1951	9.7500e-01	-1.9588	-8.106920	-0.000066	-0.660225	-0.223690	-0.005303
1952	9.7550e-01	-1.9074	-7.930738	0.000439	4.387300	1.486458	0.035236
1953	9.7600e-01	-1.8481	-7.864884	0.000164	1.639913	0.555618	0.013171
1954	9.7650e-01	-1.8336	-7.746859	0.000294	2.939065	0.995782	0.023605
1955	9.7700e-01	-1.7903	-7.725051	0.000054	0.543088	0.184003	0.004362
1956	9.7750e-01	-1.7727	-7.538606	0.000464	4.642871	1.573047	0.037289
1957	9.7800e-01	-1.7197	-7.453081	0.000213	2.129757	0.721581	0.017105
1958	9.7850e-01	-1.6957	-7.303412	0.000373	3.727076	1.262767	0.029934
1959	9.7900e-01	-1.6315	-7.320089	-0.000042	-0.415303	-0.140708	-0.003335
1960	9.7950e-01	-1.5994	-7.090455	0.000572	5.718399	1.937446	0.045927
1961	9.8000e-01	-1.5465	-7.126803	-0.000091	-0.905147	-0.306672	-0.007270
1962	9.8050e-01	-1.5000	-7.083613	0.000108	1.075528	0.364399	0.008638
1963	9.8100e-01	-1.4967	-6.896740	0.000465	4.653520	1.576655	0.037374
1964	9.8150e-01	-1.4262	-6.892892	0.000010	0.095839	0.032471	0.000770
1965	9.8200e-01	-1.3845	-6.716283	0.000440	4.397949	1.490066	0.035322
1966	9.8250e-01	-1.3556	-6.558061	0.000394	3.940051	1.334926	0.031644
1967	9.8300e-01	-1.3139	-6.429774	0.000319	3.194636	1.082372	0.025658
1968	9.8350e-01	-1.2673	-6.418228	0.000029	0.287517	0.097413	0.002309
1969	9.8400e-01	-1.2256	-6.286519	0.000328	3.279826	1.111235	0.026342
1970	9.8450e-01	-1.1984	-6.186882	0.000248	2.481167	0.840642	0.019927
1971	9.8500e-01	-1.1374	-6.224513	-0.000094	-0.937093	-0.317496	-0.007526
1972	9.8550e-01	-1.1165	-6.022674	0.000503	5.026228	1.702932	0.040368
1973	9.8600e-01	-1.0716	-5.908498	0.000284	2.843226	0.963311	0.022835
1974	9.8650e-01	-1.0347	-5.816131	0.000230	2.300138	0.779308	0.018473
1975	9.8700e-01	-1.0059	-5.621989	0.000483	4.834549	1.637990	0.038828
1976	9.8750e-01	-0.9609	-5.683568	-0.000153	-1.533425	-0.519539	-0.012316
1977	9.8800e-01	-0.9256	-5.561267	0.000305	3.045553	1.031861	0.024460
1978	9.8850e-01	-0.8871	-5.493274	0.000169	1.693157	0.573657	0.013598
1979	9.8900e-01	-0.8422	-5.294429	0.000495	4.951686	1.677677	0.039769
1980	9.8950e-01	-0.7957	-5.302553	-0.000020	-0.202327	-0.068550	-0.001625
1981	9.9000e-01	-0.7588	-5.193937	0.000270	2.704792	0.916408	0.021723
1982	9.9050e-01	-0.7171	-5.203772	-0.000024	-0.244922	-0.082982	-0.001967
1983	9.9100e-01	-0.6690	-4.872362	0.000825	8.252810	2.796128	0.066282
1984	9.9150e-01	-0.6417	-4.825324	0.000117	1.171367	0.396870	0.009408
1985	9.9200e-01	-0.6128	-4.684207	0.000351	3.514100	1.190609	0.028223
1986	9.9250e-01	-0.5551	-4.626478	0.000144	1.437586	0.487067	0.011546
1987	9.9300e-01	-0.5021	-4.576018	0.000126	1.256557	0.425733	0.010092
1988	9.9350e-01	-0.4476	-4.657267	-0.000202	-2.023270	-0.685502	-0.016250
1989	9.9400e-01	-0.4364	-4.398126	0.000645	6.453165	2.186392	0.051828
1990	9.9450e-01	-0.3930	-4.329278	0.000171	1.714455	0.580873	0.013770
1991	9.9500e-01	-0.3385	-4.116749	0.000529	5.292447	1.793130	0.042506
1992	9.9550e-01	-0.3176	-4.170629	-0.000134	-1.341747	-0.454596	-0.010776
1993	9.9600e-01	-0.2695	-4.049184	0.000302	3.024256	1.024646	0.024289
1994	9.9650e-01	-0.2294	-3.918330	0.000326	3.258529	1.104019	0.026171
1995	9.9700e-01	-0.1861	-3.807148	0.000277	2.768685	0.938056	0.022237
1996	9.9750e-01	-0.1604	-3.600605	0.000514	5.143364	1.742619	0.041309
1997	9.9800e-01	-0.1155	-3.660900	-0.000150	-1.501479	-0.508715	-0.012059
1998	9.9850e-01	-0.0658	-3.604026	0.000142	1.416289	0.479852	0.011375
1999	9.9900e-01	-0.0225	-3.441528	0.000405	4.046539	1.371005	0.032500
2000	9.9950e-01	-0.0032	-3.222584	0.000545	5.452179	1.847248	0.043789
2001	1.0000e+00	0.0561	-3.311103	0.000545	5.452179	1.847248	-0.017704

PMax (uC/cm2):	4.85e+01
Pr (uC/cm2):	1.25e+00
-Pr (uC/cm2):	-1.47e+00
PLoss (uC/cm2):	-1.42e+00
-Vc:	-5.36e-01
C (Max-Eff) (nF):	2.42e-01
K (Eff):	8.20e+02
Vert. (+/-Pr) Shift (uC/cm2):	-1.07e-01
Offset (uC/cm2):	1.84e+00

A (Loop Area - uC/cm2·Volts):	1.07e-02



Hysteresis Version: 5.48.1 - Radiant Technologies, Inc., 1999 - 9/12/24

