»»»»»»»»»»»»»»»»»»»»»»»»»»»»»»»»»»»» Hysteresis ««««««««««««««««««««««««««««««««««««
»»»  Executed Version:	5.48.1
»»»  Vision Version:	5.48.4 (R)
»»»  Vision Compiled:	9/18/24
»»»  Driver Version:	5.47.0
»»»  Windows Version:	Windows 8 or 8.1
»»»  Processor Information:	x86 (AMD or Intel) - 32 Processors
»»»  Tester Name:	PMF21124-494 (100V)
»»»  Tester S/N:	PMF21124-494
»»»  Internal Amp Type:	100V RevK 270k
»»»  Internal Amp S/N:	iAB2-596/K     
»»»  Execution Count:	1
»»»»»»»»»»»»»»»»»»»»»»»»»»»»»»»»»»»»»»»»»»««««««««««««««««««««««««««««««««««««««««««

Stored:	6/19/2025 - 12:17:6
Configured:	06/19/25 10:04:32 AM
Executed:	06/19/25 12:16:38 PM

»»»»»»»»»»»»»»»»»»»»»»»»»»»»»»»»»»» Sample Info ««««««««««««««««««««««««««««««««««««
Sample Name:	
Lot Name:	
Wafer Name:	
Die Row/Column:	0/0
Capacitor Number:	0
Sample Area (cm2):	1.00e-04
Sample Thickness (microns):	3.00e-01

Amplifier:	Internal

»»»»»»»»»»»»»»»»»»»»»»»»»»»»»»»»»»» Tester Info «««««««««««««««««««««««««««««««««««
Tester Name:	PMF21124-494 (100V)
Tester Serial Number:	PMF21124-494
Return Signal Amp. Level:	1.9 [Index: 2]

»»»»»»»»»»»»»»»»»»»»»»»»»»»»»»»» Hysteresis Info ««««««««««««««««««««««««««««««««««
Task Name:	Hyst-1168
Volts:	20.00
Field:	666.67 (kV/cm)
DCBias:	0.00
DCField:	0.00 (kV/cm)
Hysteresis Period (ms):	2.00e+02
Preset:	Enabled
Preset Delay (ms):	1.00e+03
Profile:	Standard Bipolar

»»»»»»»»»»»»»»»»»»»»»»»»»»»»»»»»»»»»»» Data «««««««««««««««««««««««««««««««««««««««
Points:	2009

Valid Data

Point	Time (ms)	Drive Voltage	Measured Polarization (uC/cm2)	Capacitance (uF)	Normalized Capacitance (uF/cm2)	Dielectric Constant	Instantaneous Current (mA)
   1	0.0000e+00	0.0176	-2.069096	0.000186	1.855704	0.628730	0.000075
   2	9.9500e-02	0.0722	-1.994960	0.000186	1.855704	0.628730	0.000075
   3	1.9900e-01	0.0979	-1.895976	0.000248	2.477671	0.839458	0.000099
   4	2.9850e-01	0.1460	-1.798214	0.000245	2.447082	0.829094	0.000098
   5	3.9800e-01	0.1957	-1.688231	0.000275	2.752968	0.932731	0.000111
   6	4.9750e-01	0.2246	-1.593320	0.000238	2.375709	0.804912	0.000095
   7	5.9700e-01	0.2583	-1.505334	0.000220	2.202374	0.746185	0.000088
   8	6.9650e-01	0.3160	-1.414497	0.000227	2.273747	0.770366	0.000091
   9	7.9600e-01	0.3497	-1.322438	0.000230	2.304336	0.780730	0.000093
  10	8.9550e-01	0.3513	-1.234044	0.000221	2.212570	0.749639	0.000089
  11	9.9500e-01	0.4347	-1.139948	0.000236	2.355317	0.798003	0.000095
  12	1.0945e+00	0.4572	-1.042186	0.000245	2.447082	0.829094	0.000098
  13	1.1940e+00	0.4877	-0.948904	0.000233	2.334924	0.791094	0.000094
  14	1.2935e+00	0.5342	-0.854808	0.000236	2.355317	0.798003	0.000095
  15	1.3930e+00	0.5599	-0.762749	0.000230	2.304336	0.780730	0.000093
  16	1.4925e+00	0.6257	-0.671504	0.000228	2.283944	0.773821	0.000092
  17	1.5920e+00	0.6625	-0.585962	0.000214	2.141197	0.725457	0.000086
  18	1.6915e+00	0.6866	-0.488607	0.000244	2.436886	0.825639	0.000098
  19	1.7910e+00	0.7283	-0.394511	0.000236	2.355317	0.798003	0.000095
  20	1.8905e+00	0.7764	-0.292268	0.000256	2.559240	0.867094	0.000103
  21	1.9900e+00	0.7893	-0.191655	0.000252	2.518456	0.853276	0.000101
  22	2.0895e+00	0.8615	-0.075155	0.000292	2.916106	0.988004	0.000117
  23	2.1890e+00	0.9080	0.027496	0.000257	2.569436	0.870549	0.000103
  24	2.2885e+00	0.9385	0.119148	0.000229	2.294140	0.777276	0.000092
  25	2.3880e+00	0.9978	0.211614	0.000231	2.314532	0.784185	0.000093
  26	2.4875e+00	1.0331	0.305711	0.000236	2.355317	0.798003	0.000095
  27	2.5870e+00	1.0620	0.398992	0.000233	2.334924	0.791094	0.000094
  28	2.6865e+00	1.0941	0.487385	0.000221	2.212570	0.749639	0.000089
  29	2.7860e+00	1.1390	0.576593	0.000223	2.232963	0.756548	0.000090
  30	2.8855e+00	1.1663	0.673134	0.000242	2.416494	0.818730	0.000097
  31	2.9850e+00	1.2048	0.774969	0.000255	2.549044	0.863640	0.000102
  32	3.0845e+00	1.2529	0.861733	0.000217	2.171786	0.735821	0.000087
  33	3.1840e+00	1.2818	0.955829	0.000236	2.355317	0.798003	0.000095
  34	3.2835e+00	1.3395	1.051147	0.000239	2.385905	0.808367	0.000096
  35	3.3830e+00	1.3556	1.135875	0.000212	2.120805	0.718548	0.000085
  36	3.4825e+00	1.3989	1.228341	0.000231	2.314532	0.784185	0.000093
  37	3.5820e+00	1.4631	1.328140	0.000250	2.498063	0.846367	0.000100
  38	3.6815e+00	1.4903	1.432013	0.000260	2.600025	0.880912	0.000104
  39	3.7810e+00	1.5288	1.536700	0.000262	2.620417	0.887821	0.000105
  40	3.8805e+00	1.5850	1.639757	0.000258	2.579633	0.874003	0.000104
  41	3.9800e+00	1.6251	1.748518	0.000272	2.722379	0.922367	0.000109
  42	4.0795e+00	1.6652	1.844243	0.000240	2.396101	0.811821	0.000096
  43	4.1790e+00	1.7213	1.939562	0.000239	2.385905	0.808367	0.000096
  44	4.2785e+00	1.7470	2.035694	0.000241	2.406298	0.815276	0.000097
  45	4.3780e+00	1.7823	2.131013	0.000239	2.385905	0.808367	0.000096
  46	4.4775e+00	1.8048	2.220628	0.000224	2.243159	0.760003	0.000090
  47	4.5770e+00	1.8577	2.321242	0.000252	2.518456	0.853276	0.000101
  48	4.6765e+00	1.8962	2.410042	0.000222	2.222766	0.753094	0.000089
  49	4.7760e+00	1.9331	2.505768	0.000240	2.396101	0.811821	0.000096
  50	4.8755e+00	1.9475	2.603530	0.000245	2.447082	0.829094	0.000098
  51	4.9750e+00	1.9925	2.695589	0.000230	2.304336	0.780730	0.000093
  52	5.0745e+00	2.0502	2.785612	0.000225	2.253355	0.763457	0.000090
  53	5.1740e+00	2.0919	2.874820	0.000223	2.232963	0.756548	0.000090
  54	5.2735e+00	2.1320	2.965250	0.000226	2.263551	0.766912	0.000091
  55	5.3730e+00	2.1545	3.067493	0.000256	2.559240	0.867094	0.000103
  56	5.4725e+00	2.1994	3.173809	0.000266	2.661202	0.901640	0.000107
  57	5.5720e+00	2.2459	3.273201	0.000249	2.487867	0.842912	0.000100
  58	5.6715e+00	2.3021	3.377888	0.000262	2.620417	0.887821	0.000105
  59	5.7710e+00	2.3470	3.480946	0.000258	2.579633	0.874003	0.000104
  60	5.8705e+00	2.3935	3.594594	0.000284	2.844733	0.963822	0.000114
  61	5.9700e+00	2.4449	3.687468	0.000232	2.324728	0.787639	0.000093
  62	6.0695e+00	2.4737	3.786045	0.000247	2.467475	0.836003	0.000099
  63	6.1690e+00	2.5170	3.877697	0.000229	2.294140	0.777276	0.000092
  64	6.2685e+00	2.5186	3.975460	0.000245	2.447082	0.829094	0.000098
  65	6.3680e+00	2.5796	4.065482	0.000225	2.253355	0.763457	0.000090
  66	6.4675e+00	2.6197	4.165281	0.000250	2.498063	0.846367	0.000100
  67	6.5670e+00	2.6486	4.254897	0.000224	2.243159	0.760003	0.000090
  68	6.6665e+00	2.6967	4.348993	0.000236	2.355317	0.798003	0.000095
  69	6.7660e+00	2.7336	4.439423	0.000226	2.263551	0.766912	0.000091
  70	6.8655e+00	2.7930	4.530260	0.000227	2.273747	0.770366	0.000091
  71	6.9650e+00	2.8106	4.621912	0.000229	2.294140	0.777276	0.000092
  72	7.0645e+00	2.8620	4.725377	0.000259	2.589829	0.877458	0.000104
  73	7.1640e+00	2.8780	4.823954	0.000247	2.467475	0.836003	0.000099
  74	7.2635e+00	2.9133	4.928641	0.000262	2.620417	0.887821	0.000105
  75	7.3630e+00	2.9678	5.028440	0.000250	2.498063	0.846367	0.000100
  76	7.4625e+00	3.0160	5.134349	0.000265	2.651006	0.898185	0.000106
  77	7.5620e+00	3.0480	5.239851	0.000264	2.640810	0.894731	0.000106
  78	7.6615e+00	3.1138	5.359610	0.000300	2.997676	1.015640	0.000120
  79	7.7610e+00	3.1507	5.453706	0.000236	2.355317	0.798003	0.000095
  80	7.8605e+00	3.1940	5.557578	0.000260	2.600025	0.880912	0.000104
  81	7.9600e+00	3.2069	5.652489	0.000238	2.375709	0.804912	0.000095
  82	8.0595e+00	3.2678	5.746585	0.000236	2.355317	0.798003	0.000095
  83	8.1590e+00	3.2983	5.845162	0.000247	2.467475	0.836003	0.000099
  84	8.2585e+00	3.3432	5.935185	0.000225	2.253355	0.763457	0.000090
  85	8.3580e+00	3.3593	6.028059	0.000232	2.324728	0.787639	0.000093
  86	8.4575e+00	3.3994	6.120118	0.000230	2.304336	0.780730	0.000093
  87	8.5570e+00	3.4443	6.214214	0.000236	2.355317	0.798003	0.000095
  88	8.6565e+00	3.4956	6.302200	0.000220	2.202374	0.746185	0.000088
  89	8.7560e+00	3.5261	6.397926	0.000240	2.396101	0.811821	0.000096
  90	8.8555e+00	3.5486	6.500576	0.000257	2.569436	0.870549	0.000103
  91	8.9550e+00	3.5935	6.609744	0.000273	2.732575	0.925822	0.000110
  92	9.0545e+00	3.6560	6.707913	0.000246	2.457279	0.832549	0.000099
  93	9.1540e+00	3.6769	6.816674	0.000272	2.722379	0.922367	0.000109
  94	9.2535e+00	3.7090	6.916473	0.000250	2.498063	0.846367	0.000100
  95	9.3530e+00	3.7683	7.021160	0.000262	2.620417	0.887821	0.000105
  96	9.4525e+00	3.8277	7.133994	0.000282	2.824341	0.956913	0.000113
  97	9.5520e+00	3.8726	7.231349	0.000244	2.436886	0.825639	0.000098
  98	9.6515e+00	3.9031	7.323815	0.000231	2.314532	0.784185	0.000093
  99	9.7510e+00	3.9448	7.416690	0.000232	2.324728	0.787639	0.000093
 100	9.8505e+00	3.9737	7.507527	0.000227	2.273747	0.770366	0.000091
 101	9.9500e+00	4.0138	7.604067	0.000242	2.416494	0.818730	0.000097
 102	1.0050e+01	4.0443	7.699385	0.000239	2.385905	0.808367	0.000096
 103	1.0149e+01	4.0731	7.793481	0.000236	2.355317	0.798003	0.000095
 104	1.0248e+01	4.1261	7.889614	0.000241	2.406298	0.815276	0.000097
 105	1.0348e+01	4.1518	7.977600	0.000220	2.202374	0.746185	0.000088
 106	1.0447e+01	4.1983	8.068030	0.000226	2.263551	0.766912	0.000091
 107	1.0547e+01	4.2336	8.165385	0.000244	2.436886	0.825639	0.000098
 108	1.0646e+01	4.2961	8.272516	0.000268	2.681594	0.908549	0.000108
 109	1.0746e+01	4.3250	8.376796	0.000261	2.610221	0.884367	0.000105
 110	1.0845e+01	4.3330	8.477002	0.000251	2.508259	0.849821	0.000101
 111	1.0945e+01	4.4020	8.586577	0.000274	2.742771	0.929276	0.000110
 112	1.1044e+01	4.4245	8.684747	0.000246	2.457279	0.832549	0.000099
 113	1.1144e+01	4.4951	8.791063	0.000266	2.661202	0.901640	0.000107
 114	1.1243e+01	4.5368	8.908378	0.000294	2.936499	0.994913	0.000118
 115	1.1343e+01	4.5881	9.005325	0.000243	2.426690	0.822185	0.000097
 116	1.1443e+01	4.6074	9.101051	0.000240	2.396101	0.811821	0.000096
 117	1.1542e+01	4.6475	9.193925	0.000232	2.324728	0.787639	0.000093
 118	1.1642e+01	4.6972	9.288429	0.000237	2.365513	0.801457	0.000095
 119	1.1741e+01	4.7341	9.383339	0.000238	2.375709	0.804912	0.000095
 120	1.1841e+01	4.7614	9.480287	0.000243	2.426690	0.822185	0.000097
 121	1.1940e+01	4.7934	9.575198	0.000238	2.375709	0.804912	0.000095
 122	1.2040e+01	4.8384	9.667664	0.000231	2.314532	0.784185	0.000093
 123	1.2139e+01	4.8721	9.762168	0.000237	2.365513	0.801457	0.000095
 124	1.2239e+01	4.9186	9.852191	0.000225	2.253355	0.763457	0.000090
 125	1.2338e+01	4.9571	9.948323	0.000241	2.406298	0.815276	0.000097
 126	1.2438e+01	5.0004	10.058306	0.000275	2.752968	0.932731	0.000111
 127	1.2537e+01	5.0341	10.162178	0.000260	2.600025	0.880912	0.000104
 128	1.2636e+01	5.1015	10.263607	0.000254	2.538848	0.860185	0.000102
 129	1.2736e+01	5.1095	10.367072	0.000259	2.589829	0.877458	0.000104
 130	1.2835e+01	5.1592	10.473795	0.000267	2.671398	0.905094	0.000107
 131	1.2935e+01	5.2170	10.580112	0.000266	2.661202	0.901640	0.000107
 132	1.3034e+01	5.2731	10.688058	0.000270	2.701987	0.915458	0.000108
 133	1.3134e+01	5.2940	10.791115	0.000258	2.579633	0.874003	0.000104
 134	1.3233e+01	5.3293	10.880731	0.000224	2.243159	0.760003	0.000090
 135	1.3333e+01	5.3886	10.979715	0.000248	2.477671	0.839458	0.000099
 136	1.3432e+01	5.4127	11.075440	0.000240	2.396101	0.811821	0.000096
 137	1.3532e+01	5.4480	11.168314	0.000232	2.324728	0.787639	0.000093
 138	1.3632e+01	5.4672	11.266891	0.000247	2.467475	0.836003	0.000099
 139	1.3731e+01	5.5105	11.368727	0.000255	2.549044	0.863640	0.000102
 140	1.3831e+01	5.5587	11.464045	0.000239	2.385905	0.808367	0.000096
 141	1.3930e+01	5.5875	11.558549	0.000237	2.365513	0.801457	0.000095
 142	1.4030e+01	5.6389	11.643276	0.000212	2.120805	0.718548	0.000085
 143	1.4129e+01	5.6950	11.750814	0.000269	2.691791	0.912003	0.000108
 144	1.4229e+01	5.7030	11.851428	0.000252	2.518456	0.853276	0.000101
 145	1.4328e+01	5.7303	11.960596	0.000273	2.732575	0.925822	0.000110
 146	1.4428e+01	5.7720	12.058358	0.000245	2.447082	0.829094	0.000098
 147	1.4527e+01	5.8121	12.164267	0.000265	2.651006	0.898185	0.000106
 148	1.4627e+01	5.8827	12.271398	0.000268	2.681594	0.908549	0.000108
 149	1.4726e+01	5.9437	12.385861	0.000287	2.865126	0.970731	0.000115
 150	1.4825e+01	5.9742	12.485660	0.000250	2.498063	0.846367	0.000100
 151	1.4925e+01	6.0079	12.582200	0.000242	2.416494	0.818730	0.000097
 152	1.5024e+01	6.0624	12.677926	0.000240	2.396101	0.811821	0.000096
 153	1.5124e+01	6.0833	12.780576	0.000257	2.569436	0.870549	0.000103
 154	1.5223e+01	6.1121	12.873858	0.000233	2.334924	0.791094	0.000094
 155	1.5323e+01	6.1667	12.979359	0.000264	2.640810	0.894731	0.000106
 156	1.5422e+01	6.1939	13.070604	0.000228	2.283944	0.773821	0.000092
 157	1.5522e+01	6.2308	13.172440	0.000255	2.549044	0.863640	0.000102
 158	1.5621e+01	6.2790	13.268165	0.000240	2.396101	0.811821	0.000096
 159	1.5721e+01	6.3207	13.365113	0.000243	2.426690	0.822185	0.000097
 160	1.5820e+01	6.3608	13.459209	0.000236	2.355317	0.798003	0.000095
 161	1.5920e+01	6.3832	13.541492	0.000206	2.059628	0.697821	0.000083
 162	1.6020e+01	6.4201	13.643328	0.000255	2.549044	0.863640	0.000102
 163	1.6119e+01	6.4635	13.743534	0.000251	2.508259	0.849821	0.000101
 164	1.6218e+01	6.5068	13.846999	0.000259	2.589829	0.877458	0.000104
 165	1.6318e+01	6.5517	13.951279	0.000261	2.610221	0.884367	0.000105
 166	1.6418e+01	6.6094	14.071037	0.000300	2.997676	1.015640	0.000120
 167	1.6517e+01	6.6495	14.167578	0.000242	2.416494	0.818730	0.000097
 168	1.6616e+01	6.6961	14.276338	0.000272	2.722379	0.922367	0.000109
 169	1.6716e+01	6.7089	14.368397	0.000230	2.304336	0.780730	0.000093
 170	1.6816e+01	6.7715	14.468604	0.000251	2.508259	0.849821	0.000101
 171	1.6915e+01	6.8019	14.564737	0.000241	2.406298	0.815276	0.000097
 172	1.7015e+01	6.8308	14.671053	0.000266	2.661202	0.901640	0.000107
 173	1.7114e+01	6.8822	14.760668	0.000224	2.243159	0.760003	0.000090
 174	1.7213e+01	6.9303	14.862911	0.000256	2.559240	0.867094	0.000103
 175	1.7313e+01	6.9447	14.956193	0.000233	2.334924	0.791094	0.000094
 176	1.7413e+01	6.9784	15.057214	0.000253	2.528652	0.856730	0.000102
 177	1.7512e+01	7.0201	15.153347	0.000241	2.406298	0.815276	0.000097
 178	1.7611e+01	7.0602	15.249072	0.000240	2.396101	0.811821	0.000096
 179	1.7711e+01	7.1116	15.336243	0.000218	2.181982	0.739275	0.000088
 180	1.7811e+01	7.1533	15.446633	0.000276	2.763164	0.936185	0.000111
 181	1.7910e+01	7.1870	15.551728	0.000263	2.630614	0.891276	0.000106
 182	1.8009e+01	7.2207	15.660488	0.000272	2.722379	0.922367	0.000109
 183	1.8109e+01	7.2768	15.775359	0.000288	2.875322	0.974185	0.000115
 184	1.8209e+01	7.3105	15.884934	0.000274	2.742771	0.929276	0.000110
 185	1.8308e+01	7.3602	15.995324	0.000276	2.763164	0.936185	0.000111
 186	1.8407e+01	7.4083	16.097159	0.000255	2.549044	0.863640	0.000102
 187	1.8507e+01	7.4629	16.196958	0.000250	2.498063	0.846367	0.000100
 188	1.8607e+01	7.4805	16.290647	0.000235	2.345121	0.794548	0.000094
 189	1.8706e+01	7.5222	16.392075	0.000254	2.538848	0.860185	0.000102
 190	1.8805e+01	7.5479	16.489837	0.000245	2.447082	0.829094	0.000098
 191	1.8905e+01	7.5944	16.588007	0.000246	2.457279	0.832549	0.000099
 192	1.9005e+01	7.6233	16.688621	0.000252	2.518456	0.853276	0.000101
 193	1.9104e+01	7.6650	16.785568	0.000243	2.426690	0.822185	0.000097
 194	1.9203e+01	7.7051	16.887404	0.000255	2.549044	0.863640	0.000102
 195	1.9303e+01	7.7484	16.980685	0.000233	2.334924	0.791094	0.000094
 196	1.9402e+01	7.7709	17.074781	0.000236	2.355317	0.798003	0.000095
 197	1.9502e+01	7.8351	17.168063	0.000233	2.334924	0.791094	0.000094
 198	1.9602e+01	7.8591	17.268269	0.000251	2.508259	0.849821	0.000101
 199	1.9701e+01	7.8944	17.376622	0.000271	2.712183	0.918912	0.000109
 200	1.9800e+01	7.9506	17.476421	0.000250	2.498063	0.846367	0.000100
 201	1.9900e+01	7.9746	17.589662	0.000283	2.834537	0.960367	0.000114
 202	2.0000e+01	8.0196	17.697608	0.000270	2.701987	0.915458	0.000108
 203	2.0099e+01	8.1062	17.814923	0.000294	2.936499	0.994913	0.000118
 204	2.0198e+01	8.1094	17.911870	0.000243	2.426690	0.822185	0.000097
 205	2.0298e+01	8.1575	18.014521	0.000257	2.569436	0.870549	0.000103
 206	2.0398e+01	8.2008	18.111468	0.000243	2.426690	0.822185	0.000097
 207	2.0497e+01	8.2265	18.209638	0.000246	2.457279	0.832549	0.000099
 208	2.0596e+01	8.3019	18.301290	0.000229	2.294140	0.777276	0.000092
 209	2.0696e+01	8.3179	18.401903	0.000252	2.518456	0.853276	0.000101
 210	2.0796e+01	8.3452	18.504146	0.000256	2.559240	0.867094	0.000103
 211	2.0895e+01	8.3853	18.602316	0.000246	2.457279	0.832549	0.000099
 212	2.0994e+01	8.4190	18.704559	0.000256	2.559240	0.867094	0.000103
 213	2.1094e+01	8.4736	18.793360	0.000222	2.222766	0.753094	0.000089
 214	2.1194e+01	8.5072	18.893159	0.000250	2.498063	0.846367	0.000100
 215	2.1293e+01	8.5265	18.979108	0.000215	2.151393	0.728912	0.000086
 216	2.1392e+01	8.5618	19.086646	0.000269	2.691791	0.912003	0.000108
 217	2.1492e+01	8.6228	19.191333	0.000262	2.620417	0.887821	0.000105
 218	2.1591e+01	8.6564	19.298464	0.000268	2.681594	0.908549	0.000108
 219	2.1691e+01	8.7030	19.400300	0.000255	2.549044	0.863640	0.000102
 220	2.1791e+01	8.7495	19.509875	0.000274	2.742771	0.929276	0.000110
 221	2.1890e+01	8.7928	19.619043	0.000273	2.732575	0.925822	0.000110
 222	2.1989e+01	8.8297	19.731877	0.000282	2.824341	0.956913	0.000113
 223	2.2089e+01	8.8891	19.831676	0.000250	2.498063	0.846367	0.000100
 224	2.2189e+01	8.9083	19.931882	0.000251	2.508259	0.849821	0.000101
 225	2.2288e+01	8.9500	20.024756	0.000232	2.324728	0.787639	0.000093
 226	2.2387e+01	8.9789	20.121704	0.000243	2.426690	0.822185	0.000097
 227	2.2487e+01	9.0142	20.216207	0.000237	2.365513	0.801457	0.000095
 228	2.2587e+01	9.0735	20.314377	0.000246	2.457279	0.832549	0.000099
 229	2.2686e+01	9.0864	20.412546	0.000246	2.457279	0.832549	0.000099
 230	2.2785e+01	9.1265	20.515604	0.000258	2.579633	0.874003	0.000104
 231	2.2885e+01	9.1746	20.607663	0.000230	2.304336	0.780730	0.000093
 232	2.2985e+01	9.2131	20.703796	0.000241	2.406298	0.815276	0.000097
 233	2.3084e+01	9.2837	20.798300	0.000237	2.365513	0.801457	0.000095
 234	2.3183e+01	9.3110	20.903801	0.000264	2.640810	0.894731	0.000106
 235	2.3283e+01	9.3222	21.007266	0.000259	2.589829	0.877458	0.000104
 236	2.3383e+01	9.3816	21.109509	0.000256	2.559240	0.867094	0.000103
 237	2.3482e+01	9.4217	21.212567	0.000258	2.579633	0.874003	0.000104
 238	2.3581e+01	9.4714	21.319291	0.000267	2.671398	0.905094	0.000107
 239	2.3681e+01	9.5163	21.424385	0.000263	2.630614	0.891276	0.000106
 240	2.3780e+01	9.5516	21.537626	0.000283	2.834537	0.960367	0.000114
 241	2.3880e+01	9.6334	21.639462	0.000255	2.549044	0.863640	0.000102
 242	2.3980e+01	9.6495	21.734780	0.000239	2.385905	0.808367	0.000096
 243	2.4079e+01	9.6687	21.835394	0.000252	2.518456	0.853276	0.000101
 244	2.4178e+01	9.7249	21.929897	0.000237	2.365513	0.801457	0.000095
 245	2.4278e+01	9.7650	22.030918	0.000253	2.528652	0.856730	0.000102
 246	2.4378e+01	9.7922	22.129902	0.000248	2.477671	0.839458	0.000099
 247	2.4477e+01	9.8163	22.233775	0.000260	2.600025	0.880912	0.000104
 248	2.4576e+01	9.8741	22.328686	0.000238	2.375709	0.804912	0.000095
 249	2.4676e+01	9.8949	22.428077	0.000249	2.487867	0.842912	0.000100
 250	2.4776e+01	9.9478	22.522581	0.000237	2.365513	0.801457	0.000095
 251	2.4875e+01	9.9831	22.614233	0.000229	2.294140	0.777276	0.000092
 252	2.4974e+01	10.0329	22.711995	0.000245	2.447082	0.829094	0.000098
 253	2.5074e+01	10.0601	22.819941	0.000270	2.701987	0.915458	0.000108
 254	2.5174e+01	10.1067	22.923406	0.000259	2.589829	0.877458	0.000104
 255	2.5273e+01	10.1388	23.028907	0.000264	2.640810	0.894731	0.000106
 256	2.5372e+01	10.1564	23.136446	0.000269	2.691791	0.912003	0.000108
 257	2.5472e+01	10.2334	23.241948	0.000264	2.640810	0.894731	0.000106
 258	2.5572e+01	10.2735	23.357226	0.000289	2.885518	0.977640	0.000116
 259	2.5671e+01	10.3088	23.456617	0.000249	2.487867	0.842912	0.000100
 260	2.5770e+01	10.3281	23.560897	0.000261	2.610221	0.884367	0.000105
 261	2.5870e+01	10.3922	23.651327	0.000226	2.263551	0.766912	0.000091
 262	2.5970e+01	10.4227	23.750718	0.000249	2.487867	0.842912	0.000100
 263	2.6069e+01	10.4772	23.840334	0.000224	2.243159	0.760003	0.000090
 264	2.6169e+01	10.5077	23.943799	0.000259	2.589829	0.877458	0.000104
 265	2.6268e+01	10.5542	24.040339	0.000242	2.416494	0.818730	0.000097
 266	2.6367e+01	10.5847	24.130362	0.000225	2.253355	0.763457	0.000090
 267	2.6467e+01	10.6120	24.224458	0.000236	2.355317	0.798003	0.000095
 268	2.6567e+01	10.6649	24.313666	0.000223	2.232963	0.756548	0.000090
 269	2.6666e+01	10.6954	24.411835	0.000246	2.457279	0.832549	0.000099
 270	2.6765e+01	10.7403	24.515300	0.000259	2.589829	0.877458	0.000104
 271	2.6865e+01	10.7853	24.615099	0.000250	2.498063	0.846367	0.000100
 272	2.6965e+01	10.8189	24.725082	0.000275	2.752968	0.932731	0.000111
 273	2.7064e+01	10.8318	24.824473	0.000249	2.487867	0.842912	0.000100
 274	2.7163e+01	10.9152	24.930790	0.000266	2.661202	0.901640	0.000107
 275	2.7263e+01	10.9633	25.035070	0.000261	2.610221	0.884367	0.000105
 276	2.7363e+01	10.9922	25.145052	0.000275	2.752968	0.932731	0.000111
 277	2.7462e+01	11.0339	25.246073	0.000253	2.528652	0.856730	0.000102
 278	2.7561e+01	11.0628	25.340169	0.000236	2.355317	0.798003	0.000095
 279	2.7661e+01	11.1045	25.433451	0.000233	2.334924	0.791094	0.000094
 280	2.7761e+01	11.1574	25.536101	0.000257	2.569436	0.870549	0.000103
 281	2.7860e+01	11.1687	25.630604	0.000237	2.365513	0.801457	0.000095
 282	2.7959e+01	11.2136	25.732847	0.000256	2.559240	0.867094	0.000103
 283	2.8059e+01	11.2473	25.824092	0.000228	2.283944	0.773821	0.000092
 284	2.8159e+01	11.3066	25.924298	0.000251	2.508259	0.849821	0.000101
 285	2.8258e+01	11.3227	26.015950	0.000229	2.294140	0.777276	0.000092
 286	2.8358e+01	11.3868	26.104751	0.000222	2.222766	0.753094	0.000089
 287	2.8457e+01	11.4125	26.211882	0.000268	2.681594	0.908549	0.000108
 288	2.8556e+01	11.4526	26.309237	0.000244	2.436886	0.825639	0.000098
 289	2.8656e+01	11.4959	26.421256	0.000280	2.803949	0.950003	0.000113
 290	2.8756e+01	11.5248	26.516167	0.000238	2.375709	0.804912	0.000095
 291	2.8855e+01	11.5906	26.630630	0.000287	2.865126	0.970731	0.000115
 292	2.8954e+01	11.6114	26.728800	0.000246	2.457279	0.832549	0.000099
 293	2.9054e+01	11.6548	26.845300	0.000292	2.916106	0.988004	0.000117
 294	2.9154e+01	11.7093	26.943877	0.000247	2.467475	0.836003	0.000099
 295	2.9253e+01	11.7430	27.046120	0.000256	2.559240	0.867094	0.000103
 296	2.9352e+01	11.7943	27.136957	0.000227	2.273747	0.770366	0.000091
 297	2.9452e+01	11.8152	27.235127	0.000246	2.457279	0.832549	0.000099
 298	2.9552e+01	11.8392	27.333296	0.000246	2.457279	0.832549	0.000099
 299	2.9651e+01	11.9130	27.429022	0.000240	2.396101	0.811821	0.000096
 300	2.9750e+01	11.9162	27.525155	0.000241	2.406298	0.815276	0.000097
 301	2.9850e+01	11.9708	27.619658	0.000237	2.365513	0.801457	0.000095
 302	2.9950e+01	12.0013	27.712532	0.000232	2.324728	0.787639	0.000093
 303	3.0049e+01	12.0494	27.800111	0.000219	2.192178	0.742730	0.000088
 304	3.0148e+01	12.1104	27.901132	0.000253	2.528652	0.856730	0.000102
 305	3.0248e+01	12.1216	28.006226	0.000263	2.630614	0.891276	0.000106
 306	3.0348e+01	12.1633	28.110098	0.000260	2.600025	0.880912	0.000104
 307	3.0447e+01	12.2162	28.216822	0.000267	2.671398	0.905094	0.000107
 308	3.0547e+01	12.2435	28.321917	0.000263	2.630614	0.891276	0.000106
 309	3.0646e+01	12.2836	28.424974	0.000258	2.579633	0.874003	0.000104
 310	3.0745e+01	12.3157	28.531698	0.000267	2.671398	0.905094	0.000107
 311	3.0845e+01	12.3815	28.633126	0.000254	2.538848	0.860185	0.000102
 312	3.0945e+01	12.4200	28.745960	0.000282	2.824341	0.956913	0.000113
 313	3.1044e+01	12.4488	28.841278	0.000239	2.385905	0.808367	0.000096
 314	3.1143e+01	12.4922	28.937411	0.000241	2.406298	0.815276	0.000097
 315	3.1243e+01	12.5371	29.031100	0.000235	2.345121	0.794548	0.000094
 316	3.1343e+01	12.5804	29.130492	0.000249	2.487867	0.842912	0.000100
 317	3.1442e+01	12.6157	29.227032	0.000242	2.416494	0.818730	0.000097
 318	3.1541e+01	12.6446	29.320721	0.000235	2.345121	0.794548	0.000094
 319	3.1641e+01	12.6879	29.411558	0.000227	2.273747	0.770366	0.000091
 320	3.1741e+01	12.7296	29.504839	0.000233	2.334924	0.791094	0.000094
 321	3.1840e+01	12.7617	29.600972	0.000241	2.406298	0.815276	0.000097
 322	3.1939e+01	12.8355	29.706881	0.000265	2.651006	0.898185	0.000106
 323	3.2039e+01	12.8467	29.803421	0.000242	2.416494	0.818730	0.000097
 324	3.2139e+01	12.8980	29.910145	0.000267	2.671398	0.905094	0.000107
 325	3.2238e+01	12.9237	30.010759	0.000252	2.518456	0.853276	0.000101
 326	3.2337e+01	12.9558	30.114224	0.000259	2.589829	0.877458	0.000104
 327	3.2437e+01	12.9895	30.208320	0.000236	2.355317	0.798003	0.000095
 328	3.2536e+01	13.0376	30.309748	0.000254	2.538848	0.860185	0.000102
 329	3.2636e+01	13.0954	30.413621	0.000260	2.600025	0.880912	0.000104
 330	3.2736e+01	13.1483	30.525640	0.000280	2.803949	0.950003	0.000113
 331	3.2835e+01	13.1708	30.622587	0.000243	2.426690	0.822185	0.000097
 332	3.2934e+01	13.2253	30.714239	0.000229	2.294140	0.777276	0.000092
 333	3.3034e+01	13.2670	30.807113	0.000232	2.324728	0.787639	0.000093
 334	3.3133e+01	13.2830	30.908134	0.000253	2.528652	0.856730	0.000102
 335	3.3233e+01	13.3344	31.001009	0.000232	2.324728	0.787639	0.000093
 336	3.3333e+01	13.3857	31.092253	0.000228	2.283944	0.773821	0.000092
 337	3.3432e+01	13.4018	31.187164	0.000238	2.375709	0.804912	0.000095
 338	3.3532e+01	13.4451	31.275557	0.000221	2.212570	0.749639	0.000089
 339	3.3631e+01	13.4675	31.375764	0.000251	2.508259	0.849821	0.000101
 340	3.3730e+01	13.4964	31.477599	0.000255	2.549044	0.863640	0.000102
 341	3.3830e+01	13.5750	31.583508	0.000265	2.651006	0.898185	0.000106
 342	3.3929e+01	13.6071	31.683307	0.000250	2.498063	0.846367	0.000100
 343	3.4029e+01	13.6488	31.785958	0.000257	2.569436	0.870549	0.000103
 344	3.4129e+01	13.6889	31.887386	0.000254	2.538848	0.860185	0.000102
 345	3.4228e+01	13.7018	31.989629	0.000256	2.559240	0.867094	0.000103
 346	3.4328e+01	13.7691	32.095131	0.000264	2.640810	0.894731	0.000106
 347	3.4427e+01	13.8108	32.200225	0.000263	2.630614	0.891276	0.000106
 348	3.4526e+01	13.8477	32.303690	0.000259	2.589829	0.877458	0.000104
 349	3.4626e+01	13.9119	32.418968	0.000289	2.885518	0.977640	0.000116
 350	3.4725e+01	13.9247	32.511842	0.000232	2.324728	0.787639	0.000093
 351	3.4825e+01	13.9825	32.612048	0.000251	2.508259	0.849821	0.000101
 352	3.4925e+01	14.0338	32.707774	0.000240	2.396101	0.811821	0.000096
 353	3.5024e+01	14.0435	32.805129	0.000244	2.436886	0.825639	0.000098
 354	3.5123e+01	14.0948	32.893929	0.000222	2.222766	0.753094	0.000089
 355	3.5223e+01	14.1317	32.989655	0.000240	2.396101	0.811821	0.000096
 356	3.5322e+01	14.1686	33.075197	0.000214	2.141197	0.725457	0.000086
 357	3.5422e+01	14.2151	33.183550	0.000271	2.712183	0.918912	0.000109
 358	3.5522e+01	14.2456	33.276424	0.000232	2.324728	0.787639	0.000093
 359	3.5621e+01	14.2969	33.384370	0.000270	2.701987	0.915458	0.000108
 360	3.5721e+01	14.3130	33.484576	0.000251	2.508259	0.849821	0.000101
 361	3.5820e+01	14.3595	33.590892	0.000266	2.661202	0.901640	0.000107
 362	3.5919e+01	14.4076	33.691099	0.000251	2.508259	0.849821	0.000101
 363	3.6019e+01	14.4413	33.792120	0.000253	2.528652	0.856730	0.000102
 364	3.6118e+01	14.4622	33.898436	0.000266	2.661202	0.901640	0.000107
 365	3.6218e+01	14.5055	33.996198	0.000245	2.447082	0.829094	0.000098
 366	3.6318e+01	14.5520	34.102107	0.000265	2.651006	0.898185	0.000106
 367	3.6417e+01	14.6097	34.203128	0.000253	2.528652	0.856730	0.000102
 368	3.6517e+01	14.6434	34.307408	0.000261	2.610221	0.884367	0.000105
 369	3.6616e+01	14.6819	34.403134	0.000240	2.396101	0.811821	0.000096
 370	3.6715e+01	14.7333	34.500488	0.000244	2.436886	0.825639	0.000098
 371	3.6815e+01	14.7750	34.595399	0.000238	2.375709	0.804912	0.000095
 372	3.6914e+01	14.8087	34.689088	0.000235	2.345121	0.794548	0.000094
 373	3.7014e+01	14.8375	34.778296	0.000223	2.232963	0.756548	0.000090
 374	3.7114e+01	14.8889	34.863431	0.000213	2.131001	0.722003	0.000086
 375	3.7213e+01	14.9194	34.961600	0.000246	2.457279	0.832549	0.000099
 376	3.7313e+01	14.9739	35.066695	0.000263	2.630614	0.891276	0.000106
 377	3.7412e+01	14.9980	35.168123	0.000254	2.538848	0.860185	0.000102
 378	3.7511e+01	15.0365	35.270366	0.000256	2.559240	0.867094	0.000103
 379	3.7611e+01	15.0798	35.373016	0.000257	2.569436	0.870549	0.000103
 380	3.7711e+01	15.1215	35.477296	0.000261	2.610221	0.884367	0.000105
 381	3.7810e+01	15.1632	35.574651	0.000244	2.436886	0.825639	0.000098
 382	3.7910e+01	15.1841	35.676079	0.000254	2.538848	0.860185	0.000102
 383	3.8009e+01	15.2306	35.778729	0.000257	2.569436	0.870549	0.000103
 384	3.8108e+01	15.2803	35.883416	0.000262	2.620417	0.887821	0.000105
 385	3.8208e+01	15.3172	35.982401	0.000248	2.477671	0.839458	0.000099
 386	3.8307e+01	15.3734	36.093198	0.000277	2.773360	0.939640	0.000111
 387	3.8407e+01	15.4167	36.197070	0.000260	2.600025	0.880912	0.000104
 388	3.8507e+01	15.4488	36.287093	0.000225	2.253355	0.763457	0.000090
 389	3.8606e+01	15.4825	36.378745	0.000229	2.294140	0.777276	0.000092
 390	3.8706e+01	15.5210	36.472434	0.000235	2.345121	0.794548	0.000094
 391	3.8805e+01	15.5562	36.562049	0.000224	2.243159	0.760003	0.000090
 392	3.8904e+01	15.6044	36.647591	0.000214	2.141197	0.725457	0.000086
 393	3.9004e+01	15.6605	36.744946	0.000244	2.436886	0.825639	0.000098
 394	3.9103e+01	15.6766	36.844745	0.000250	2.498063	0.846367	0.000100
 395	3.9203e+01	15.7151	36.946988	0.000256	2.559240	0.867094	0.000103
 396	3.9303e+01	15.7279	37.051675	0.000262	2.620417	0.887821	0.000105
 397	3.9402e+01	15.8033	37.157177	0.000264	2.640810	0.894731	0.000106
 398	3.9502e+01	15.8290	37.253309	0.000241	2.406298	0.815276	0.000097
 399	3.9601e+01	15.8627	37.355145	0.000255	2.549044	0.863640	0.000102
 400	3.9700e+01	15.9156	37.458610	0.000259	2.589829	0.877458	0.000104
 401	3.9800e+01	15.9798	37.558816	0.000251	2.508259	0.849821	0.000101
 402	3.9900e+01	15.9990	37.657801	0.000248	2.477671	0.839458	0.000099
 403	3.9999e+01	16.0311	37.761673	0.000260	2.600025	0.880912	0.000104
 404	4.0099e+01	16.0728	37.870026	0.000271	2.712183	0.918912	0.000109
 405	4.0198e+01	16.1338	37.965751	0.000240	2.396101	0.811821	0.000096
 406	4.0297e+01	16.1707	38.055367	0.000224	2.243159	0.760003	0.000090
 407	4.0397e+01	16.1979	38.154351	0.000248	2.477671	0.839458	0.000099
 408	4.0496e+01	16.2445	38.239486	0.000213	2.131001	0.722003	0.000086
 409	4.0596e+01	16.2878	38.334804	0.000239	2.385905	0.808367	0.000096
 410	4.0696e+01	16.3215	38.421160	0.000216	2.161589	0.732366	0.000087
 411	4.0795e+01	16.3568	38.516071	0.000238	2.375709	0.804912	0.000095
 412	4.0895e+01	16.4001	38.619536	0.000259	2.589829	0.877458	0.000104
 413	4.0994e+01	16.4161	38.721779	0.000256	2.559240	0.867094	0.000103
 414	4.1093e+01	16.4707	38.831354	0.000274	2.742771	0.929276	0.000110
 415	4.1193e+01	16.5108	38.928709	0.000244	2.436886	0.825639	0.000098
 416	4.1292e+01	16.5557	39.032174	0.000259	2.589829	0.877458	0.000104
 417	4.1392e+01	16.5846	39.136047	0.000260	2.600025	0.880912	0.000104
 418	4.1492e+01	16.6247	39.239512	0.000259	2.589829	0.877458	0.000104
 419	4.1591e+01	16.6712	39.335644	0.000241	2.406298	0.815276	0.000097
 420	4.1691e+01	16.6856	39.434221	0.000247	2.467475	0.836003	0.000099
 421	4.1790e+01	16.7370	39.533613	0.000249	2.487867	0.842912	0.000100
 422	4.1889e+01	16.8124	39.637485	0.000260	2.600025	0.880912	0.000104
 423	4.1989e+01	16.8477	39.743394	0.000265	2.651006	0.898185	0.000106
 424	4.2089e+01	16.8926	39.838713	0.000239	2.385905	0.808367	0.000096
 425	4.2188e+01	16.9038	39.928328	0.000224	2.243159	0.760003	0.000090
 426	4.2288e+01	16.9583	40.030571	0.000256	2.559240	0.867094	0.000103
 427	4.2387e+01	17.0033	40.123038	0.000231	2.314532	0.784185	0.000093
 428	4.2486e+01	17.0402	40.202877	0.000200	1.998451	0.677093	0.000080
 429	4.2586e+01	17.0578	40.296973	0.000236	2.355317	0.798003	0.000095
 430	4.2685e+01	17.1236	40.395957	0.000248	2.477671	0.839458	0.000099
 431	4.2785e+01	17.1605	40.492905	0.000243	2.426690	0.822185	0.000097
 432	4.2885e+01	17.1765	40.596370	0.000259	2.589829	0.877458	0.000104
 433	4.2984e+01	17.2246	40.691281	0.000238	2.375709	0.804912	0.000095
 434	4.3084e+01	17.2776	40.792301	0.000253	2.528652	0.856730	0.000102
 435	4.3183e+01	17.3049	40.890471	0.000246	2.457279	0.832549	0.000099
 436	4.3282e+01	17.3402	40.992307	0.000255	2.549044	0.863640	0.000102
 437	4.3382e+01	17.3867	41.082737	0.000226	2.263551	0.766912	0.000091
 438	4.3481e+01	17.4284	41.187016	0.000261	2.610221	0.884367	0.000105
 439	4.3581e+01	17.4605	41.288852	0.000255	2.549044	0.863640	0.000102
 440	4.3681e+01	17.5182	41.390688	0.000255	2.549044	0.863640	0.000102
 441	4.3780e+01	17.5503	41.492116	0.000254	2.538848	0.860185	0.000102
 442	4.3880e+01	17.6273	41.592322	0.000251	2.508259	0.849821	0.000101
 443	4.3979e+01	17.6385	41.688455	0.000241	2.406298	0.815276	0.000097
 444	4.4078e+01	17.6642	41.782551	0.000236	2.355317	0.798003	0.000095
 445	4.4178e+01	17.7188	41.874611	0.000230	2.304336	0.780730	0.000093
 446	4.4278e+01	17.7621	41.960967	0.000216	2.161589	0.732366	0.000087
 447	4.4377e+01	17.7942	42.047324	0.000216	2.161589	0.732366	0.000087
 448	4.4477e+01	17.8455	42.136125	0.000222	2.222766	0.753094	0.000089
 449	4.4576e+01	17.8679	42.242848	0.000267	2.671398	0.905094	0.000107
 450	4.4675e+01	17.9193	42.332871	0.000225	2.253355	0.763457	0.000090
 451	4.4775e+01	17.9514	42.442039	0.000273	2.732575	0.925822	0.000110
 452	4.4874e+01	17.9915	42.539394	0.000244	2.436886	0.825639	0.000098
 453	4.4974e+01	18.0252	42.641637	0.000256	2.559240	0.867094	0.000103
 454	4.5074e+01	18.0556	42.743472	0.000255	2.549044	0.863640	0.000102
 455	4.5173e+01	18.1038	42.842049	0.000247	2.467475	0.836003	0.000099
 456	4.5273e+01	18.1342	42.938997	0.000243	2.426690	0.822185	0.000097
 457	4.5372e+01	18.2016	43.039610	0.000252	2.518456	0.853276	0.000101
 458	4.5471e+01	18.2064	43.141039	0.000254	2.538848	0.860185	0.000102
 459	4.5571e+01	18.2722	43.237986	0.000243	2.426690	0.822185	0.000097
 460	4.5670e+01	18.3059	43.346747	0.000272	2.722379	0.922367	0.000109
 461	4.5770e+01	18.3685	43.446953	0.000251	2.508259	0.849821	0.000101
 462	4.5870e+01	18.3989	43.538198	0.000228	2.283944	0.773821	0.000092
 463	4.5969e+01	18.4374	43.631479	0.000233	2.334924	0.791094	0.000094
 464	4.6069e+01	18.4663	43.723946	0.000231	2.314532	0.784185	0.000093
 465	4.6168e+01	18.5016	43.807044	0.000208	2.080020	0.704730	0.000084
 466	4.6267e+01	18.5562	43.894622	0.000219	2.192178	0.742730	0.000088
 467	4.6367e+01	18.5963	43.991977	0.000244	2.436886	0.825639	0.000098
 468	4.6467e+01	18.6219	44.087295	0.000239	2.385905	0.808367	0.000096
 469	4.6566e+01	18.6669	44.194426	0.000268	2.681594	0.908549	0.000108
 470	4.6666e+01	18.7102	44.294225	0.000250	2.498063	0.846367	0.000100
 471	4.6765e+01	18.7278	44.396876	0.000257	2.569436	0.870549	0.000103
 472	4.6864e+01	18.7824	44.492601	0.000240	2.396101	0.811821	0.000096
 473	4.6964e+01	18.8128	44.597288	0.000262	2.620417	0.887821	0.000105
 474	4.7063e+01	18.8433	44.693421	0.000241	2.406298	0.815276	0.000097
 475	4.7163e+01	18.8898	44.796479	0.000258	2.579633	0.874003	0.000104
 476	4.7263e+01	18.9444	44.898314	0.000255	2.549044	0.863640	0.000102
 477	4.7362e+01	18.9781	44.997299	0.000248	2.477671	0.839458	0.000099
 478	4.7462e+01	19.0455	45.101578	0.000261	2.610221	0.884367	0.000105
 479	4.7561e+01	19.0551	45.195267	0.000235	2.345121	0.794548	0.000094
 480	4.7660e+01	19.1160	45.297510	0.000256	2.559240	0.867094	0.000103
 481	4.7760e+01	19.1610	45.383459	0.000215	2.151393	0.728912	0.000086
 482	4.7859e+01	19.1946	45.480000	0.000242	2.416494	0.818730	0.000097
 483	4.7959e+01	19.2123	45.569615	0.000224	2.243159	0.760003	0.000090
 484	4.8059e+01	19.2861	45.662489	0.000232	2.324728	0.787639	0.000093
 485	4.8158e+01	19.3150	45.739069	0.000192	1.916881	0.649457	0.000077
 486	4.8258e+01	19.3422	45.841720	0.000257	2.569436	0.870549	0.000103
 487	4.8357e+01	19.3936	45.942333	0.000252	2.518456	0.853276	0.000101
 488	4.8456e+01	19.4224	46.042947	0.000252	2.518456	0.853276	0.000101
 489	4.8556e+01	19.4609	46.147634	0.000262	2.620417	0.887821	0.000105
 490	4.8656e+01	19.4914	46.245804	0.000246	2.457279	0.832549	0.000099
 491	4.8755e+01	19.5219	46.352527	0.000267	2.671398	0.905094	0.000107
 492	4.8855e+01	19.5925	46.449067	0.000242	2.416494	0.818730	0.000097
 493	4.8954e+01	19.6198	46.552940	0.000260	2.600025	0.880912	0.000104
 494	4.9053e+01	19.6486	46.647443	0.000237	2.365513	0.801457	0.000095
 495	4.9153e+01	19.7144	46.750094	0.000257	2.569436	0.870549	0.000103
 496	4.9252e+01	19.7770	46.855595	0.000264	2.640810	0.894731	0.000106
 497	4.9352e+01	19.7850	46.947655	0.000230	2.304336	0.780730	0.000093
 498	4.9452e+01	19.8460	47.038492	0.000227	2.273747	0.770366	0.000091
 499	4.9551e+01	19.8652	47.129330	0.000227	2.273747	0.770366	0.000091
 500	4.9651e+01	19.9117	47.223426	0.000236	2.355317	0.798003	0.000095
 501	4.9750e+01	19.9567	47.315892	0.000231	2.314532	0.784185	0.000093
 502	4.9849e+01	19.9871	47.401027	0.000213	2.131001	0.722003	0.000086
 503	4.9949e+01	20.0160	47.482903	0.000205	2.049431	0.694366	0.000082
 504	5.0048e+01	19.9903	47.410396	0.000181	1.814919	0.614911	-0.000073
 505	5.0148e+01	19.9438	47.340740	0.000174	1.743546	0.590729	-0.000070
 506	5.0248e+01	19.9085	47.269863	0.000177	1.774135	0.601093	-0.000071
 507	5.0347e+01	19.8604	47.190431	0.000199	1.988254	0.673639	-0.000080
 508	5.0447e+01	19.8347	47.110592	0.000200	1.998451	0.677093	-0.000080
 509	5.0546e+01	19.7770	47.032382	0.000196	1.957666	0.663275	-0.000079
 510	5.0645e+01	19.7289	46.950913	0.000204	2.039235	0.690912	-0.000082
 511	5.0745e+01	19.6887	46.871889	0.000198	1.978058	0.670184	-0.000079
 512	5.0844e+01	19.6486	46.787162	0.000212	2.120805	0.718548	-0.000085
 513	5.0944e+01	19.6262	46.713840	0.000184	1.835312	0.621820	-0.000074
 514	5.1044e+01	19.6037	46.638889	0.000188	1.876096	0.635639	-0.000075
 515	5.1143e+01	19.5588	46.565975	0.000183	1.825116	0.618366	-0.000073
 516	5.1242e+01	19.4962	46.474323	0.000229	2.294140	0.777276	-0.000092
 517	5.1342e+01	19.4690	46.394891	0.000199	1.988254	0.673639	-0.000080
 518	5.1441e+01	19.4433	46.309349	0.000214	2.141197	0.725457	-0.000086
 519	5.1541e+01	19.3823	46.218919	0.000226	2.263551	0.766912	-0.000091
 520	5.1641e+01	19.3374	46.136636	0.000206	2.059628	0.697821	-0.000083
 521	5.1740e+01	19.3182	46.038059	0.000247	2.467475	0.836003	-0.000099
 522	5.1840e+01	19.2652	45.950888	0.000218	2.181982	0.739275	-0.000088
 523	5.1939e+01	19.2283	45.868197	0.000207	2.069824	0.701275	-0.000083
 524	5.2038e+01	19.1738	45.791209	0.000193	1.927077	0.652911	-0.000077
 525	5.2138e+01	19.1577	45.704445	0.000217	2.171786	0.735821	-0.000087
 526	5.2237e+01	19.1096	45.628272	0.000191	1.906685	0.646002	-0.000077
 527	5.2337e+01	19.0647	45.545582	0.000207	2.069824	0.701275	-0.000083
 528	5.2437e+01	19.0150	45.463706	0.000205	2.049431	0.694366	-0.000082
 529	5.2536e+01	18.9957	45.376535	0.000218	2.181982	0.739275	-0.000088
 530	5.2636e+01	18.9412	45.299954	0.000192	1.916881	0.649457	-0.000077
 531	5.2735e+01	18.9027	45.212783	0.000218	2.181982	0.739275	-0.000088
 532	5.2834e+01	18.8914	45.134980	0.000195	1.947470	0.659821	-0.000078
 533	5.2934e+01	18.8337	45.049846	0.000213	2.131001	0.722003	-0.000086
 534	5.3033e+01	18.7920	44.963897	0.000215	2.151393	0.728912	-0.000086
 535	5.3133e+01	18.7406	44.875911	0.000220	2.202374	0.746185	-0.000088
 536	5.3233e+01	18.7487	44.785480	-0.000226	-2.263551	-0.766912	-0.000091
 537	5.3332e+01	18.6829	44.690162	0.000239	2.385905	0.808367	-0.000096
 538	5.3431e+01	18.6284	44.593622	0.000242	2.416494	0.818730	-0.000097
 539	5.3531e+01	18.6027	44.495860	0.000245	2.447082	0.829094	-0.000098
 540	5.3630e+01	18.5465	44.411133	0.000212	2.120805	0.718548	-0.000085
 541	5.3730e+01	18.5112	44.326813	0.000211	2.110609	0.715094	-0.000085
 542	5.3830e+01	18.4551	44.242493	0.000211	2.110609	0.715094	-0.000085
 543	5.3929e+01	18.4326	44.163061	0.000199	1.988254	0.673639	-0.000080
 544	5.4029e+01	18.3925	44.075075	0.000220	2.202374	0.746185	-0.000088
 545	5.4128e+01	18.3396	43.989126	0.000215	2.151393	0.728912	-0.000086
 546	5.4227e+01	18.3316	43.910101	0.000198	1.978058	0.670184	-0.000079
 547	5.4327e+01	18.2578	43.823337	0.000217	2.171786	0.735821	-0.000087
 548	5.4426e+01	18.2193	43.736573	0.000217	2.171786	0.735821	-0.000087
 549	5.4526e+01	18.2016	43.652254	0.000211	2.110609	0.715094	-0.000085
 550	5.4626e+01	18.1583	43.563860	0.000221	2.212570	0.749639	-0.000089
 551	5.4725e+01	18.1246	43.480355	0.000209	2.090216	0.708184	-0.000084
 552	5.4825e+01	18.0685	43.401738	0.000197	1.967862	0.666730	-0.000079
 553	5.4924e+01	18.0348	43.311308	0.000226	2.263551	0.766912	-0.000091
 554	5.5023e+01	18.0059	43.213138	0.000246	2.457279	0.832549	-0.000099
 555	5.5123e+01	17.9610	43.122708	0.000226	2.263551	0.766912	-0.000091
 556	5.5222e+01	17.9289	43.016392	0.000266	2.661202	0.901640	-0.000107
 557	5.5322e+01	17.8679	42.927998	0.000221	2.212570	0.749639	-0.000089
 558	5.5422e+01	17.8310	42.835124	0.000232	2.324728	0.787639	-0.000093
 559	5.5521e+01	17.7845	42.751212	0.000210	2.100412	0.711639	-0.000084
 560	5.5620e+01	17.7589	42.662411	0.000222	2.222766	0.753094	-0.000089
 561	5.5720e+01	17.7155	42.583794	0.000197	1.967862	0.666730	-0.000079
 562	5.5819e+01	17.6706	42.494993	0.000222	2.222766	0.753094	-0.000089
 563	5.5919e+01	17.6385	42.409451	0.000214	2.141197	0.725457	-0.000086
 564	5.6019e+01	17.5776	42.321058	0.000221	2.212570	0.749639	-0.000089
 565	5.6118e+01	17.5519	42.236738	0.000211	2.110609	0.715094	-0.000085
 566	5.6218e+01	17.5054	42.145493	0.000228	2.283944	0.773821	-0.000092
 567	5.6317e+01	17.4893	42.061581	0.000210	2.100412	0.711639	-0.000084
 568	5.6416e+01	17.4300	41.972373	0.000223	2.232963	0.756548	-0.000090
 569	5.6516e+01	17.3851	41.883572	0.000222	2.222766	0.753094	-0.000089
 570	5.6615e+01	17.3578	41.808621	0.000188	1.876096	0.635639	-0.000075
 571	5.6715e+01	17.3321	41.716562	0.000230	2.304336	0.780730	-0.000093
 572	5.6815e+01	17.2888	41.621244	0.000239	2.385905	0.808367	-0.000096
 573	5.6914e+01	17.2519	41.520630	0.000252	2.518456	0.853276	-0.000101
 574	5.7014e+01	17.2182	41.418794	0.000255	2.549044	0.863640	-0.000102
 575	5.7113e+01	17.1605	41.319810	0.000248	2.477671	0.839458	-0.000099
 576	5.7212e+01	17.1140	41.230602	0.000223	2.232963	0.756548	-0.000090
 577	5.7312e+01	17.0819	41.143023	0.000219	2.192178	0.742730	-0.000088
 578	5.7411e+01	17.0418	41.061555	0.000204	2.039235	0.690912	-0.000082
 579	5.7511e+01	17.0033	40.976420	0.000213	2.131001	0.722003	-0.000086
 580	5.7611e+01	16.9487	40.892100	0.000211	2.110609	0.715094	-0.000085
 581	5.7710e+01	16.8958	40.804522	0.000219	2.192178	0.742730	-0.000088
 582	5.7809e+01	16.8557	40.723868	0.000202	2.018843	0.684003	-0.000081
 583	5.7909e+01	16.8364	40.635475	0.000221	2.212570	0.749639	-0.000089
 584	5.8008e+01	16.7979	40.550747	0.000212	2.120805	0.718548	-0.000085
 585	5.8108e+01	16.7546	40.457466	0.000233	2.334924	0.791094	-0.000094
 586	5.8208e+01	16.7049	40.373961	0.000209	2.090216	0.708184	-0.000084
 587	5.8307e+01	16.6664	40.283531	0.000226	2.263551	0.766912	-0.000091
 588	5.8407e+01	16.6327	40.200433	0.000208	2.080020	0.704730	-0.000084
 589	5.8506e+01	16.6006	40.110410	0.000225	2.253355	0.763457	-0.000090
 590	5.8605e+01	16.5685	40.010611	0.000250	2.498063	0.846367	-0.000100
 591	5.8705e+01	16.5043	39.916108	0.000237	2.365513	0.801457	-0.000095
 592	5.8804e+01	16.4755	39.815087	0.000253	2.528652	0.856730	-0.000102
 593	5.8904e+01	16.4386	39.716510	0.000247	2.467475	0.836003	-0.000099
 594	5.9004e+01	16.4161	39.625672	0.000227	2.273747	0.770366	-0.000091
 595	5.9103e+01	16.3584	39.538501	0.000218	2.181982	0.739275	-0.000088
 596	5.9203e+01	16.3199	39.450922	0.000219	2.192178	0.742730	-0.000088
 597	5.9302e+01	16.2814	39.363751	0.000218	2.181982	0.739275	-0.000088
 598	5.9401e+01	16.2172	39.272914	0.000227	2.273747	0.770366	-0.000091
 599	5.9501e+01	16.1979	39.182891	0.000225	2.253355	0.763457	-0.000090
 600	5.9600e+01	16.1498	39.090832	0.000230	2.304336	0.780730	-0.000093
 601	5.9700e+01	16.1193	38.998772	0.000230	2.304336	0.780730	-0.000093
 602	5.9800e+01	16.0696	38.907527	0.000228	2.283944	0.773821	-0.000092
 603	5.9899e+01	16.0311	38.817097	0.000226	2.263551	0.766912	-0.000091
 604	5.9998e+01	15.9878	38.725445	0.000229	2.294140	0.777276	-0.000092
 605	6.0098e+01	15.9621	38.637459	0.000220	2.202374	0.746185	-0.000088
 606	6.0197e+01	15.9236	38.547029	0.000226	2.263551	0.766912	-0.000091
 607	6.0297e+01	15.8931	38.465153	0.000205	2.049431	0.694366	-0.000082
 608	6.0397e+01	15.8498	38.369021	0.000241	2.406298	0.815276	-0.000097
 609	6.0496e+01	15.8402	38.276961	0.000230	2.304336	0.780730	-0.000093
 610	6.0596e+01	15.7584	38.165757	0.000278	2.783556	0.943094	-0.000112
 611	6.0695e+01	15.7231	38.068402	0.000244	2.436886	0.825639	-0.000098
 612	6.0794e+01	15.7038	37.976342	0.000230	2.304336	0.780730	-0.000093
 613	6.0894e+01	15.6349	37.886727	0.000224	2.243159	0.760003	-0.000090
 614	6.0993e+01	15.6204	37.796297	0.000226	2.263551	0.766912	-0.000091
 615	6.1093e+01	15.5675	37.707496	0.000222	2.222766	0.753094	-0.000089
 616	6.1193e+01	15.5274	37.618288	0.000223	2.232963	0.756548	-0.000090
 617	6.1292e+01	15.4648	37.527858	0.000226	2.263551	0.766912	-0.000091
 618	6.1392e+01	15.4295	37.440280	0.000219	2.192178	0.742730	-0.000088
 619	6.1491e+01	15.3926	37.351479	0.000222	2.222766	0.753094	-0.000089
 620	6.1590e+01	15.3525	37.254124	0.000244	2.436886	0.825639	-0.000098
 621	6.1690e+01	15.3156	37.159213	0.000238	2.375709	0.804912	-0.000095
 622	6.1789e+01	15.2739	37.074079	0.000213	2.131001	0.722003	-0.000086
 623	6.1889e+01	15.2482	36.985685	0.000221	2.212570	0.749639	-0.000089
 624	6.1989e+01	15.1921	36.893219	0.000231	2.314532	0.784185	-0.000093
 625	6.2088e+01	15.1568	36.796678	0.000242	2.416494	0.818730	-0.000097
 626	6.2188e+01	15.1311	36.716839	0.000200	1.998451	0.677093	-0.000080
 627	6.2287e+01	15.0990	36.624372	0.000231	2.314532	0.784185	-0.000093
 628	6.2386e+01	15.0477	36.523759	0.000252	2.518456	0.853276	-0.000101
 629	6.2486e+01	15.0333	36.410110	0.000284	2.844733	0.963822	-0.000114
 630	6.2586e+01	14.9771	36.319680	0.000226	2.263551	0.766912	-0.000091
 631	6.2685e+01	14.9162	36.230065	0.000224	2.243159	0.760003	-0.000090
 632	6.2785e+01	14.8793	36.144116	0.000215	2.151393	0.728912	-0.000086
 633	6.2884e+01	14.8408	36.049612	0.000237	2.365513	0.801457	-0.000095
 634	6.2983e+01	14.7894	35.960404	0.000223	2.232963	0.756548	-0.000090
 635	6.3083e+01	14.7525	35.862642	0.000245	2.447082	0.829094	-0.000098
 636	6.3182e+01	14.7349	35.777915	0.000212	2.120805	0.718548	-0.000085
 637	6.3282e+01	14.6900	35.683411	0.000237	2.365513	0.801457	-0.000095
 638	6.3382e+01	14.6354	35.588908	0.000237	2.365513	0.801457	-0.000095
 639	6.3481e+01	14.5969	35.496441	0.000231	2.314532	0.784185	-0.000093
 640	6.3581e+01	14.5536	35.411714	0.000212	2.120805	0.718548	-0.000085
 641	6.3680e+01	14.5039	35.313951	0.000245	2.447082	0.829094	-0.000098
 642	6.3779e+01	14.4638	35.227188	0.000217	2.171786	0.735821	-0.000087
 643	6.3879e+01	14.4333	35.133906	0.000233	2.334924	0.791094	-0.000094
 644	6.3978e+01	14.4044	35.050401	0.000209	2.090216	0.708184	-0.000084
 645	6.4078e+01	14.3675	34.961600	0.000222	2.222766	0.753094	-0.000089
 646	6.4177e+01	14.3242	34.860579	0.000253	2.528652	0.856730	-0.000102
 647	6.4277e+01	14.3033	34.746116	0.000287	2.865126	0.970731	-0.000115
 648	6.4376e+01	14.2504	34.651612	0.000237	2.365513	0.801457	-0.000095
 649	6.4476e+01	14.2183	34.562404	0.000223	2.232963	0.756548	-0.000090
 650	6.4576e+01	14.1766	34.467901	0.000237	2.365513	0.801457	-0.000095
 651	6.4675e+01	14.1301	34.380730	0.000218	2.181982	0.739275	-0.000088
 652	6.4775e+01	14.0852	34.282153	0.000247	2.467475	0.836003	-0.000099
 653	6.4874e+01	14.0515	34.199055	0.000208	2.080020	0.704730	-0.000084
 654	6.4974e+01	13.9953	34.101293	0.000245	2.447082	0.829094	-0.000098
 655	6.5073e+01	13.9600	34.012899	0.000221	2.212570	0.749639	-0.000089
 656	6.5172e+01	13.9103	33.920025	0.000232	2.324728	0.787639	-0.000093
 657	6.5272e+01	13.8846	33.826336	0.000235	2.345121	0.794548	-0.000094
 658	6.5371e+01	13.8349	33.735092	0.000228	2.283944	0.773821	-0.000092
 659	6.5471e+01	13.8108	33.646291	0.000222	2.222766	0.753094	-0.000089
 660	6.5570e+01	13.7595	33.548936	0.000244	2.436886	0.825639	-0.000098
 661	6.5670e+01	13.7258	33.460136	0.000222	2.222766	0.753094	-0.000089
 662	6.5769e+01	13.6921	33.364817	0.000239	2.385905	0.808367	-0.000096
 663	6.5869e+01	13.6616	33.279275	0.000214	2.141197	0.725457	-0.000086
 664	6.5969e+01	13.6167	33.182328	0.000243	2.426690	0.822185	-0.000097
 665	6.6068e+01	13.5750	33.076012	0.000266	2.661202	0.901640	-0.000107
 666	6.6168e+01	13.5237	32.968473	0.000269	2.691791	0.912003	-0.000108
 667	6.6267e+01	13.4852	32.872748	0.000240	2.396101	0.811821	-0.000096
 668	6.6367e+01	13.4371	32.775393	0.000244	2.436886	0.825639	-0.000098
 669	6.6466e+01	13.4082	32.683333	0.000230	2.304336	0.780730	-0.000093
 670	6.6566e+01	13.3761	32.585164	0.000246	2.457279	0.832549	-0.000099
 671	6.6665e+01	13.3328	32.500844	0.000211	2.110609	0.715094	-0.000085
 672	6.6764e+01	13.2895	32.408377	0.000231	2.314532	0.784185	-0.000093
 673	6.6864e+01	13.2317	32.315503	0.000232	2.324728	0.787639	-0.000093
 674	6.6963e+01	13.2076	32.227517	0.000220	2.202374	0.746185	-0.000088
 675	6.7063e+01	13.1932	32.137902	0.000224	2.243159	0.760003	-0.000090
 676	6.7162e+01	13.1242	32.040954	0.000243	2.426690	0.822185	-0.000097
 677	6.7262e+01	13.0761	31.943192	0.000245	2.447082	0.829094	-0.000098
 678	6.7362e+01	13.0376	31.849096	0.000236	2.355317	0.798003	-0.000095
 679	6.7461e+01	12.9798	31.752556	0.000242	2.416494	0.818730	-0.000097
 680	6.7561e+01	12.9798	31.664977	0.000219	2.192178	0.742730	-0.000088
 681	6.7660e+01	12.9237	31.579435	0.000214	2.141197	0.725457	-0.000086
 682	6.7760e+01	12.8948	31.494708	0.000212	2.120805	0.718548	-0.000085
 683	6.7859e+01	12.8627	31.394909	0.000250	2.498063	0.846367	-0.000100
 684	6.7959e+01	12.8210	31.295517	0.000249	2.487867	0.842912	-0.000100
 685	6.8058e+01	12.7905	31.198570	0.000243	2.426690	0.822185	-0.000097
 686	6.8157e+01	12.7424	31.110991	0.000219	2.192178	0.742730	-0.000088
 687	6.8257e+01	12.6879	31.014858	0.000241	2.406298	0.815276	-0.000097
 688	6.8356e+01	12.6590	30.921169	0.000235	2.345121	0.794548	-0.000094
 689	6.8456e+01	12.6077	30.833998	0.000218	2.181982	0.739275	-0.000088
 690	6.8555e+01	12.5772	30.739087	0.000238	2.375709	0.804912	-0.000095
 691	6.8655e+01	12.5323	30.647028	0.000230	2.304336	0.780730	-0.000093
 692	6.8754e+01	12.4890	30.549673	0.000244	2.436886	0.825639	-0.000098
 693	6.8854e+01	12.4376	30.459243	0.000226	2.263551	0.766912	-0.000091
 694	6.8954e+01	12.3991	30.368813	0.000226	2.263551	0.766912	-0.000091
 695	6.9053e+01	12.3622	30.269014	0.000250	2.498063	0.846367	-0.000100
 696	6.9153e+01	12.3317	30.173696	0.000239	2.385905	0.808367	-0.000096
 697	6.9252e+01	12.2884	30.083266	0.000226	2.263551	0.766912	-0.000091
 698	6.9352e+01	12.2612	29.988762	0.000237	2.365513	0.801457	-0.000095
 699	6.9451e+01	12.2178	29.894666	0.000236	2.355317	0.798003	-0.000095
 700	6.9550e+01	12.1825	29.797311	0.000244	2.436886	0.825639	-0.000098
 701	6.9650e+01	12.1456	29.705659	0.000229	2.294140	0.777276	-0.000092
 702	6.9749e+01	12.0927	29.602602	0.000258	2.579633	0.874003	-0.000104
 703	6.9849e+01	12.0702	29.511357	0.000228	2.283944	0.773821	-0.000092
 704	6.9948e+01	12.0093	29.415224	0.000241	2.406298	0.815276	-0.000097
 705	7.0048e+01	11.9804	29.319498	0.000240	2.396101	0.811821	-0.000096
 706	7.0147e+01	11.9355	29.229476	0.000225	2.253355	0.763457	-0.000090
 707	7.0247e+01	11.9082	29.134158	0.000239	2.385905	0.808367	-0.000096
 708	7.0347e+01	11.8441	29.037210	0.000243	2.426690	0.822185	-0.000097
 709	7.0446e+01	11.8120	28.946373	0.000227	2.273747	0.770366	-0.000091
 710	7.0546e+01	11.7767	28.845759	0.000252	2.518456	0.853276	-0.000101
 711	7.0645e+01	11.7478	28.759810	0.000215	2.151393	0.728912	-0.000086
 712	7.0745e+01	11.6884	28.661640	0.000246	2.457279	0.832549	-0.000099
 713	7.0844e+01	11.6612	28.566322	0.000239	2.385905	0.808367	-0.000096
 714	7.0944e+01	11.6066	28.467745	0.000247	2.467475	0.836003	-0.000099
 715	7.1043e+01	11.5681	28.376908	0.000227	2.273747	0.770366	-0.000091
 716	7.1142e+01	11.5553	28.279960	0.000243	2.426690	0.822185	-0.000097
 717	7.1242e+01	11.4991	28.187086	0.000232	2.324728	0.787639	-0.000093
 718	7.1341e+01	11.4574	28.090953	0.000241	2.406298	0.815276	-0.000097
 719	7.1441e+01	11.4237	28.001338	0.000224	2.243159	0.760003	-0.000090
 720	7.1540e+01	11.3820	27.899910	0.000254	2.538848	0.860185	-0.000102
 721	7.1640e+01	11.3483	27.804592	0.000239	2.385905	0.808367	-0.000096
 722	7.1740e+01	11.2906	27.709681	0.000238	2.375709	0.804912	-0.000095
 723	7.1839e+01	11.2697	27.611511	0.000246	2.457279	0.832549	-0.000099
 724	7.1939e+01	11.2168	27.516600	0.000238	2.375709	0.804912	-0.000095
 725	7.2038e+01	11.1687	27.420060	0.000242	2.416494	0.818730	-0.000097
 726	7.2138e+01	11.1414	27.323520	0.000242	2.416494	0.818730	-0.000097
 727	7.2237e+01	11.0949	27.227794	0.000240	2.396101	0.811821	-0.000096
 728	7.2337e+01	11.0628	27.137772	0.000225	2.253355	0.763457	-0.000090
 729	7.2436e+01	11.0147	27.036343	0.000254	2.538848	0.860185	-0.000102
 730	7.2535e+01	10.9730	26.945099	0.000228	2.283944	0.773821	-0.000092
 731	7.2635e+01	10.9393	26.848966	0.000241	2.406298	0.815276	-0.000097
 732	7.2734e+01	10.8895	26.755277	0.000235	2.345121	0.794548	-0.000094
 733	7.2834e+01	10.8478	26.658330	0.000243	2.426690	0.822185	-0.000097
 734	7.2933e+01	10.8093	26.568714	0.000224	2.243159	0.760003	-0.000090
 735	7.3033e+01	10.7676	26.466471	0.000256	2.559240	0.867094	-0.000103
 736	7.3132e+01	10.7564	26.375634	0.000227	2.273747	0.770366	-0.000091
 737	7.3232e+01	10.7419	26.279501	0.000241	2.406298	0.815276	-0.000097
 738	7.3332e+01	10.6617	26.178887	0.000252	2.518456	0.853276	-0.000101
 739	7.3431e+01	10.6393	26.078274	0.000252	2.518456	0.853276	-0.000101
 740	7.3531e+01	10.5895	25.981734	0.000242	2.416494	0.818730	-0.000097
 741	7.3630e+01	10.5526	25.888045	0.000235	2.345121	0.794548	-0.000094
 742	7.3730e+01	10.4965	25.793134	0.000238	2.375709	0.804912	-0.000095
 743	7.3829e+01	10.4676	25.693742	0.000249	2.487867	0.842912	-0.000100
 744	7.3928e+01	10.4211	25.597610	0.000241	2.406298	0.815276	-0.000097
 745	7.4028e+01	10.3810	25.501069	0.000242	2.416494	0.818730	-0.000097
 746	7.4127e+01	10.3200	25.411454	0.000224	2.243159	0.760003	-0.000090
 747	7.4227e+01	10.2879	25.314914	0.000242	2.416494	0.818730	-0.000097
 748	7.4326e+01	10.2510	25.218781	0.000241	2.406298	0.815276	-0.000097
 749	7.4426e+01	10.2061	25.126314	0.000231	2.314532	0.784185	-0.000093
 750	7.4525e+01	10.1756	25.027737	0.000247	2.467475	0.836003	-0.000099
 751	7.4625e+01	10.1275	24.938937	0.000222	2.222766	0.753094	-0.000089
 752	7.4725e+01	10.1051	24.841989	0.000243	2.426690	0.822185	-0.000097
 753	7.4824e+01	10.0489	24.745042	0.000243	2.426690	0.822185	-0.000097
 754	7.4924e+01	10.0136	24.644428	0.000252	2.518456	0.853276	-0.000101
 755	7.5023e+01	9.9896	24.541370	0.000258	2.579633	0.874003	-0.000104
 756	7.5123e+01	9.9687	24.455828	0.000214	2.141197	0.725457	-0.000086
 757	7.5222e+01	9.9206	24.366620	0.000223	2.232963	0.756548	-0.000090
 758	7.5322e+01	9.8724	24.266821	0.000250	2.498063	0.846367	-0.000100
 759	7.5421e+01	9.8307	24.173947	0.000232	2.324728	0.787639	-0.000093
 760	7.5520e+01	9.8115	24.073334	0.000252	2.518456	0.853276	-0.000101
 761	7.5620e+01	9.7457	23.980460	0.000232	2.324728	0.787639	-0.000093
 762	7.5719e+01	9.7088	23.879439	0.000253	2.528652	0.856730	-0.000102
 763	7.5819e+01	9.6703	23.789823	0.000224	2.243159	0.760003	-0.000090
 764	7.5918e+01	9.6206	23.686766	0.000258	2.579633	0.874003	-0.000104
 765	7.6018e+01	9.5789	23.589411	0.000244	2.436886	0.825639	-0.000098
 766	7.6118e+01	9.5420	23.490427	0.000248	2.477671	0.839458	-0.000099
 767	7.6217e+01	9.4987	23.390220	0.000251	2.508259	0.849821	-0.000101
 768	7.6317e+01	9.4473	23.294495	0.000240	2.396101	0.811821	-0.000096
 769	7.6416e+01	9.4313	23.196325	0.000246	2.457279	0.832549	-0.000099
 770	7.6516e+01	9.3751	23.091231	0.000263	2.630614	0.891276	-0.000106
 771	7.6615e+01	9.3334	22.989395	0.000255	2.549044	0.863640	-0.000102
 772	7.6715e+01	9.2981	22.882264	0.000268	2.681594	0.908549	-0.000108
 773	7.6814e+01	9.2628	22.782465	0.000250	2.498063	0.846367	-0.000100
 774	7.6913e+01	9.2372	22.696109	0.000216	2.161589	0.732366	-0.000087
 775	7.7013e+01	9.2147	22.612196	0.000210	2.100412	0.711639	-0.000084
 776	7.7112e+01	9.1650	22.514434	0.000245	2.447082	0.829094	-0.000098
 777	7.7212e+01	9.1136	22.419523	0.000238	2.375709	0.804912	-0.000095
 778	7.7311e+01	9.0735	22.317687	0.000255	2.549044	0.863640	-0.000102
 779	7.7411e+01	9.0206	22.221147	0.000242	2.416494	0.818730	-0.000097
 780	7.7510e+01	9.0046	22.119719	0.000254	2.538848	0.860185	-0.000102
 781	7.7610e+01	8.9516	22.019105	0.000252	2.518456	0.853276	-0.000101
 782	7.7710e+01	8.9131	21.924602	0.000237	2.365513	0.801457	-0.000095
 783	7.7809e+01	8.8618	21.823988	0.000252	2.518456	0.853276	-0.000101
 784	7.7909e+01	8.8137	21.727041	0.000243	2.426690	0.822185	-0.000097
 785	7.8008e+01	8.7784	21.625612	0.000254	2.538848	0.860185	-0.000102
 786	7.8108e+01	8.7367	21.532331	0.000233	2.334924	0.791094	-0.000094
 787	7.8207e+01	8.6933	21.430088	0.000256	2.559240	0.867094	-0.000103
 788	7.8306e+01	8.6741	21.329882	0.000251	2.508259	0.849821	-0.000101
 789	7.8406e+01	8.6147	21.224787	0.000263	2.630614	0.891276	-0.000106
 790	7.8505e+01	8.5586	21.121730	0.000258	2.579633	0.874003	-0.000104
 791	7.8605e+01	8.5121	21.026411	0.000239	2.385905	0.808367	-0.000096
 792	7.8704e+01	8.5121	20.940055	0.000216	2.161589	0.732366	-0.000087
 793	7.8804e+01	8.4944	20.854106	0.000215	2.151393	0.728912	-0.000086
 794	7.8903e+01	8.4671	20.765712	0.000221	2.212570	0.749639	-0.000089
 795	7.9003e+01	8.3933	20.661840	0.000260	2.600025	0.880912	-0.000104
 796	7.9103e+01	8.3597	20.562041	0.000250	2.498063	0.846367	-0.000100
 797	7.9202e+01	8.3147	20.463871	0.000246	2.457279	0.832549	-0.000099
 798	7.9302e+01	8.2650	20.361221	0.000257	2.569436	0.870549	-0.000103
 799	7.9401e+01	8.2442	20.265903	0.000239	2.385905	0.808367	-0.000096
 800	7.9501e+01	8.1960	20.159587	0.000266	2.661202	0.901640	-0.000107
 801	7.9600e+01	8.1367	20.062639	0.000243	2.426690	0.822185	-0.000097
 802	7.9700e+01	8.1078	19.959989	0.000257	2.569436	0.870549	-0.000103
 803	7.9799e+01	8.0565	19.864671	0.000239	2.385905	0.808367	-0.000096
 804	7.9898e+01	8.0372	19.761613	0.000258	2.579633	0.874003	-0.000104
 805	7.9998e+01	7.9811	19.663851	0.000245	2.447082	0.829094	-0.000098
 806	8.0097e+01	7.9393	19.561200	0.000257	2.569436	0.870549	-0.000103
 807	8.0197e+01	7.9008	19.457328	0.000260	2.600025	0.880912	-0.000104
 808	8.0296e+01	7.8463	19.353863	0.000259	2.589829	0.877458	-0.000104
 809	8.0396e+01	7.8367	19.267506	0.000216	2.161589	0.732366	-0.000087
 810	8.0496e+01	7.7661	19.170559	0.000243	2.426690	0.822185	-0.000097
 811	8.0595e+01	7.7677	19.083388	-0.000218	-2.181982	-0.739275	-0.000088
 812	8.0695e+01	7.7388	18.998660	0.000212	2.120805	0.718548	-0.000085
 813	8.0794e+01	7.6907	18.904971	0.000235	2.345121	0.794548	-0.000094
 814	8.0894e+01	7.6394	18.804765	0.000251	2.508259	0.849821	-0.000101
 815	8.0993e+01	7.6137	18.704152	0.000252	2.518456	0.853276	-0.000101
 816	8.1093e+01	7.5640	18.602723	0.000254	2.538848	0.860185	-0.000102
 817	8.1192e+01	7.5287	18.498444	0.000261	2.610221	0.884367	-0.000105
 818	8.1291e+01	7.4709	18.401496	0.000243	2.426690	0.822185	-0.000097
 819	8.1391e+01	7.4100	18.298846	0.000257	2.569436	0.870549	-0.000103
 820	8.1490e+01	7.3939	18.199047	0.000250	2.498063	0.846367	-0.000100
 821	8.1590e+01	7.3474	18.102099	0.000243	2.426690	0.822185	-0.000097
 822	8.1689e+01	7.3105	18.001486	0.000252	2.518456	0.853276	-0.000101
 823	8.1789e+01	7.2944	17.896391	0.000263	2.630614	0.891276	-0.000106
 824	8.1888e+01	7.2303	17.790890	0.000264	2.640810	0.894731	-0.000106
 825	8.1988e+01	7.1886	17.685795	0.000263	2.630614	0.891276	-0.000106
 826	8.2088e+01	7.1709	17.592514	0.000233	2.334924	0.791094	-0.000094
 827	8.2187e+01	7.1003	17.499232	0.000233	2.334924	0.791094	-0.000094
 828	8.2287e+01	7.0570	17.402692	0.000242	2.416494	0.818730	-0.000097
 829	8.2386e+01	7.0249	17.311855	0.000227	2.273747	0.770366	-0.000091
 830	8.2486e+01	6.9896	17.218573	0.000233	2.334924	0.791094	-0.000094
 831	8.2585e+01	6.9608	17.136290	0.000206	2.059628	0.697821	-0.000083
 832	8.2684e+01	6.9271	17.029159	0.000268	2.681594	0.908549	-0.000108
 833	8.2784e+01	6.8773	16.928545	0.000252	2.518456	0.853276	-0.000101
 834	8.2883e+01	6.8228	16.825488	0.000258	2.579633	0.874003	-0.000104
 835	8.2983e+01	6.8052	16.721615	0.000260	2.600025	0.880912	-0.000104
 836	8.3082e+01	6.7554	16.616928	0.000262	2.620417	0.887821	-0.000105
 837	8.3182e+01	6.7057	16.512649	0.000261	2.610221	0.884367	-0.000105
 838	8.3281e+01	6.6688	16.417331	0.000239	2.385905	0.808367	-0.000096
 839	8.3381e+01	6.6239	16.317532	0.000250	2.498063	0.846367	-0.000100
 840	8.3481e+01	6.5886	16.216103	0.000254	2.538848	0.860185	-0.000102
 841	8.3580e+01	6.5533	16.109787	0.000266	2.661202	0.901640	-0.000107
 842	8.3680e+01	6.5052	15.999804	0.000275	2.752968	0.932731	-0.000111
 843	8.3779e+01	6.4747	15.908560	0.000228	2.283944	0.773821	-0.000092
 844	8.3879e+01	6.4201	15.807539	0.000253	2.528652	0.856730	-0.000102
 845	8.3978e+01	6.3784	15.715887	0.000229	2.294140	0.777276	-0.000092
 846	8.4078e+01	6.3672	15.620976	0.000238	2.375709	0.804912	-0.000095
 847	8.4177e+01	6.3159	15.528102	0.000232	2.324728	0.787639	-0.000093
 848	8.4276e+01	6.2870	15.436450	0.000229	2.294140	0.777276	-0.000092
 849	8.4376e+01	6.2437	15.347242	0.000223	2.232963	0.756548	-0.000090
 850	8.4475e+01	6.2068	15.250701	0.000242	2.416494	0.818730	-0.000097
 851	8.4575e+01	6.1891	15.154976	0.000240	2.396101	0.811821	-0.000096
 852	8.4674e+01	6.1234	15.055584	0.000249	2.487867	0.842912	-0.000100
 853	8.4774e+01	6.0752	14.957007	0.000247	2.467475	0.836003	-0.000099
 854	8.4874e+01	6.0512	14.853950	0.000258	2.579633	0.874003	-0.000104
 855	8.4973e+01	6.0046	14.752114	0.000255	2.549044	0.863640	-0.000102
 856	8.5073e+01	5.9501	14.651908	0.000251	2.508259	0.849821	-0.000101
 857	8.5172e+01	5.9228	14.555775	0.000241	2.406298	0.815276	-0.000097
 858	8.5272e+01	5.8715	14.451088	0.000262	2.620417	0.887821	-0.000105
 859	8.5371e+01	5.8362	14.351289	0.000250	2.498063	0.846367	-0.000100
 860	8.5471e+01	5.7801	14.237233	0.000285	2.854929	0.967276	-0.000115
 861	8.5570e+01	5.7608	14.140286	0.000243	2.426690	0.822185	-0.000097
 862	8.5669e+01	5.7127	14.044968	0.000239	2.385905	0.808367	-0.000096
 863	8.5769e+01	5.6758	13.950057	0.000238	2.375709	0.804912	-0.000095
 864	8.5868e+01	5.6357	13.849850	0.000251	2.508259	0.849821	-0.000101
 865	8.5968e+01	5.5972	13.764308	0.000214	2.141197	0.725457	-0.000086
 866	8.6067e+01	5.5635	13.669398	0.000238	2.375709	0.804912	-0.000095
 867	8.6167e+01	5.5362	13.587929	0.000204	2.039235	0.690912	-0.000082
 868	8.6266e+01	5.5105	13.488945	0.000248	2.477671	0.839458	-0.000099
 869	8.6366e+01	5.4656	13.389146	0.000250	2.498063	0.846367	-0.000100
 870	8.6466e+01	5.4239	13.285681	0.000259	2.589829	0.877458	-0.000104
 871	8.6565e+01	5.3581	13.183845	0.000255	2.549044	0.863640	-0.000102
 872	8.6665e+01	5.3244	13.076307	0.000269	2.691791	0.912003	-0.000108
 873	8.6764e+01	5.2924	12.983433	0.000232	2.324728	0.787639	-0.000093
 874	8.6864e+01	5.2314	12.877931	0.000264	2.640810	0.894731	-0.000106
 875	8.6963e+01	5.2234	12.772837	0.000263	2.630614	0.891276	-0.000106
 876	8.7063e+01	5.1480	12.675075	0.000245	2.447082	0.829094	-0.000098
 877	8.7162e+01	5.1095	12.567536	0.000269	2.691791	0.912003	-0.000108
 878	8.7261e+01	5.0902	12.468552	0.000248	2.477671	0.839458	-0.000099
 879	8.7361e+01	5.0501	12.350830	0.000295	2.946695	0.998367	-0.000118
 880	8.7460e+01	4.9908	12.257956	0.000232	2.324728	0.787639	-0.000093
 881	8.7560e+01	4.9410	12.158971	0.000248	2.477671	0.839458	-0.000099
 882	8.7659e+01	4.9138	12.068541	0.000226	2.263551	0.766912	-0.000091
 883	8.7759e+01	4.8721	11.973631	0.000238	2.375709	0.804912	-0.000095
 884	8.7859e+01	4.8512	11.886867	0.000217	2.171786	0.735821	-0.000087
 885	8.7958e+01	4.8143	11.796844	0.000225	2.253355	0.763457	-0.000090
 886	8.8058e+01	4.7886	11.706007	0.000227	2.273747	0.770366	-0.000091
 887	8.8157e+01	4.7084	11.604578	0.000254	2.538848	0.860185	-0.000102
 888	8.8257e+01	4.6972	11.503150	0.000254	2.538848	0.860185	-0.000102
 889	8.8356e+01	4.6394	11.400500	0.000257	2.569436	0.870549	-0.000103
 890	8.8456e+01	4.6186	11.294591	0.000265	2.651006	0.898185	-0.000106
 891	8.8555e+01	4.5737	11.191940	0.000257	2.569436	0.870549	-0.000103
 892	8.8654e+01	4.5271	11.094585	0.000244	2.436886	0.825639	-0.000098
 893	8.8754e+01	4.4710	10.987454	0.000268	2.681594	0.908549	-0.000108
 894	8.8853e+01	4.4405	10.885211	0.000256	2.559240	0.867094	-0.000103
 895	8.8953e+01	4.4004	10.787042	0.000246	2.457279	0.832549	-0.000099
 896	8.9052e+01	4.3555	10.679503	0.000269	2.691791	0.912003	-0.000108
 897	8.9152e+01	4.3234	10.567891	0.000279	2.793752	0.946549	-0.000112
 898	8.9251e+01	4.2673	10.475425	0.000231	2.314532	0.784185	-0.000093
 899	8.9351e+01	4.2384	10.373589	0.000255	2.549044	0.863640	-0.000102
 900	8.9451e+01	4.1983	10.278271	0.000239	2.385905	0.808367	-0.000096
 901	8.9550e+01	4.1437	10.184989	0.000233	2.334924	0.791094	-0.000094
 902	8.9650e+01	4.1181	10.096596	0.000221	2.212570	0.749639	-0.000089
 903	8.9749e+01	4.0956	10.013906	0.000207	2.069824	0.701275	-0.000083
 904	8.9849e+01	4.0571	9.911255	0.000257	2.569436	0.870549	-0.000103
 905	8.9948e+01	3.9961	9.812678	0.000247	2.467475	0.836003	-0.000099
 906	9.0047e+01	3.9721	9.708399	0.000261	2.610221	0.884367	-0.000105
 907	9.0147e+01	3.9432	9.604934	0.000259	2.589829	0.877458	-0.000104
 908	9.0246e+01	3.8951	9.497395	0.000269	2.691791	0.912003	-0.000108
 909	9.0346e+01	3.8421	9.398818	0.000247	2.467475	0.836003	-0.000099
 910	9.0445e+01	3.8181	9.292909	0.000265	2.651006	0.898185	-0.000106
 911	9.0545e+01	3.7587	9.196776	0.000241	2.406298	0.815276	-0.000097
 912	9.0644e+01	3.7250	9.087201	0.000274	2.742771	0.929276	-0.000110
 913	9.0744e+01	3.6897	8.989032	0.000246	2.457279	0.832549	-0.000099
 914	9.0844e+01	3.6384	8.877013	0.000280	2.803949	0.950003	-0.000113
 915	9.0943e+01	3.5999	8.775584	0.000254	2.538848	0.860185	-0.000102
 916	9.1043e+01	3.5598	8.680673	0.000238	2.375709	0.804912	-0.000095
 917	9.1142e+01	3.5085	8.591058	0.000224	2.243159	0.760003	-0.000090
 918	9.1242e+01	3.5004	8.496147	0.000238	2.375709	0.804912	-0.000095
 919	9.1341e+01	3.4443	8.403681	0.000231	2.314532	0.784185	-0.000093
 920	9.1441e+01	3.4090	8.308362	0.000239	2.385905	0.808367	-0.000096
 921	9.1540e+01	3.3801	8.212637	0.000240	2.396101	0.811821	-0.000096
 922	9.1639e+01	3.3224	8.121799	0.000227	2.273747	0.770366	-0.000091
 923	9.1739e+01	3.2935	8.035443	0.000216	2.161589	0.732366	-0.000087
 924	9.1838e+01	3.2582	7.931570	0.000260	2.600025	0.880912	-0.000104
 925	9.1938e+01	3.2004	7.824847	0.000267	2.671398	0.905094	-0.000107
 926	9.2037e+01	3.1780	7.725455	0.000249	2.487867	0.842912	-0.000100
 927	9.2137e+01	3.1154	7.620768	0.000262	2.620417	0.887821	-0.000105
 928	9.2237e+01	3.0898	7.517303	0.000259	2.589829	0.877458	-0.000104
 929	9.2336e+01	3.0545	7.411394	0.000265	2.651006	0.898185	-0.000106
 930	9.2436e+01	2.9919	7.307522	0.000260	2.600025	0.880912	-0.000104
 931	9.2535e+01	2.9871	7.201205	0.000266	2.661202	0.901640	-0.000107
 932	9.2635e+01	2.9101	7.093667	0.000269	2.691791	0.912003	-0.000108
 933	9.2734e+01	2.9101	6.987758	0.000265	2.651006	0.898185	-0.000106
 934	9.2834e+01	2.8571	6.889996	0.000245	2.447082	0.829094	-0.000098
 935	9.2933e+01	2.8058	6.794270	0.000240	2.396101	0.811821	-0.000096
 936	9.3032e+01	2.7561	6.696508	0.000245	2.447082	0.829094	-0.000098
 937	9.3132e+01	2.7095	6.597524	0.000248	2.477671	0.839458	-0.000099
 938	9.3231e+01	2.6823	6.498539	0.000248	2.477671	0.839458	-0.000099
 939	9.3331e+01	2.6502	6.401592	0.000243	2.426690	0.822185	-0.000097
 940	9.3430e+01	2.6101	6.304644	0.000243	2.426690	0.822185	-0.000097
 941	9.3530e+01	2.5940	6.216251	0.000221	2.212570	0.749639	-0.000089
 942	9.3629e+01	2.5427	6.120526	0.000240	2.396101	0.811821	-0.000096
 943	9.3729e+01	2.5026	6.012580	0.000270	2.701987	0.915458	-0.000108
 944	9.3829e+01	2.4497	5.912373	0.000251	2.508259	0.849821	-0.000101
 945	9.3928e+01	2.4224	5.801984	0.000276	2.763164	0.936185	-0.000111
 946	9.4028e+01	2.3823	5.702999	0.000248	2.477671	0.839458	-0.000099
 947	9.4127e+01	2.3245	5.591795	0.000278	2.783556	0.943094	-0.000112
 948	9.4227e+01	2.2957	5.490774	0.000253	2.528652	0.856730	-0.000102
 949	9.4326e+01	2.2459	5.377940	0.000282	2.824341	0.956913	-0.000113
 950	9.4425e+01	2.2074	5.270809	0.000268	2.681594	0.908549	-0.000108
 951	9.4525e+01	2.1657	5.174676	0.000241	2.406298	0.815276	-0.000097
 952	9.4624e+01	2.1304	5.073248	0.000254	2.538848	0.860185	-0.000102
 953	9.4724e+01	2.0983	4.984854	0.000221	2.212570	0.749639	-0.000089
 954	9.4823e+01	2.0470	4.884648	0.000251	2.508259	0.849821	-0.000101
 955	9.4923e+01	1.9812	4.783627	0.000253	2.528652	0.856730	-0.000102
 956	9.5022e+01	1.9700	4.688309	0.000239	2.385905	0.808367	-0.000096
 957	9.5122e+01	1.9427	4.590547	0.000245	2.447082	0.829094	-0.000098
 958	9.5222e+01	1.8914	4.497673	0.000232	2.324728	0.787639	-0.000093
 959	9.5321e+01	1.8705	4.410909	0.000217	2.171786	0.735821	-0.000087
 960	9.5421e+01	1.8417	4.312332	0.000247	2.467475	0.836003	-0.000099
 961	9.5520e+01	1.7598	4.212126	0.000251	2.508259	0.849821	-0.000101
 962	9.5620e+01	1.7486	4.102143	0.000275	2.752968	0.932731	-0.000111
 963	9.5719e+01	1.6957	4.001530	0.000252	2.518456	0.853276	-0.000101
 964	9.5819e+01	1.6556	3.896028	0.000264	2.640810	0.894731	-0.000106
 965	9.5918e+01	1.6251	3.784823	0.000278	2.783556	0.943094	-0.000112
 966	9.6017e+01	1.5561	3.675656	0.000273	2.732575	0.925822	-0.000110
 967	9.6117e+01	1.5176	3.569339	0.000266	2.661202	0.901640	-0.000107
 968	9.6216e+01	1.5000	3.471577	0.000245	2.447082	0.829094	-0.000098
 969	9.6316e+01	1.4470	3.373407	0.000246	2.457279	0.832549	-0.000099
 970	9.6415e+01	1.4197	3.274423	0.000248	2.477671	0.839458	-0.000099
 971	9.6515e+01	1.3668	3.177883	0.000242	2.416494	0.818730	-0.000097
 972	9.6615e+01	1.3267	3.080935	0.000243	2.426690	0.822185	-0.000097
 973	9.6714e+01	1.2882	2.982766	0.000246	2.457279	0.832549	-0.000099
 974	9.6814e+01	1.2433	2.880116	0.000257	2.569436	0.870549	-0.000103
 975	9.6913e+01	1.2128	2.791315	0.000222	2.222766	0.753094	-0.000089
 976	9.7013e+01	1.1663	2.687442	0.000260	2.600025	0.880912	-0.000104
 977	9.7112e+01	1.1278	2.589680	0.000245	2.447082	0.829094	-0.000098
 978	9.7212e+01	1.1005	2.504953	0.000212	2.120805	0.718548	-0.000085
 979	9.7311e+01	1.0829	2.409635	0.000239	2.385905	0.808367	-0.000096
 980	9.7410e+01	1.0331	2.308207	0.000254	2.538848	0.860185	-0.000102
 981	9.7510e+01	0.9722	2.201075	0.000268	2.681594	0.908549	-0.000108
 982	9.7609e+01	0.9481	2.095574	0.000264	2.640810	0.894731	-0.000106
 983	9.7709e+01	0.9016	1.988443	0.000268	2.681594	0.908549	-0.000108
 984	9.7808e+01	0.8711	1.871535	0.000293	2.926303	0.991458	-0.000117
 985	9.7908e+01	0.8198	1.765219	0.000266	2.661202	0.901640	-0.000107
 986	9.8007e+01	0.7813	1.667457	0.000245	2.447082	0.829094	-0.000098
 987	9.8107e+01	0.7379	1.566028	0.000254	2.538848	0.860185	-0.000102
 988	9.8207e+01	0.6978	1.474784	0.000228	2.283944	0.773821	-0.000092
 989	9.8306e+01	0.6561	1.376207	0.000247	2.467475	0.836003	-0.000099
 990	9.8406e+01	0.6064	1.280074	0.000241	2.406298	0.815276	-0.000097
 991	9.8505e+01	0.5695	1.181497	0.000247	2.467475	0.836003	-0.000099
 992	9.8605e+01	0.5519	1.087808	0.000235	2.345121	0.794548	-0.000094
 993	9.8704e+01	0.4716	0.985973	0.000255	2.549044	0.863640	-0.000102
 994	9.8803e+01	0.4556	0.889025	0.000243	2.426690	0.822185	-0.000097
 995	9.8903e+01	0.4043	0.788412	0.000252	2.518456	0.853276	-0.000101
 996	9.9002e+01	0.3818	0.695945	0.000231	2.314532	0.784185	-0.000093
 997	9.9102e+01	0.3722	0.609588	0.000216	2.161589	0.732366	-0.000087
 998	9.9201e+01	0.3337	0.505716	0.000260	2.600025	0.880912	-0.000104
 999	9.9301e+01	0.2743	0.401029	0.000262	2.620417	0.887821	-0.000105
1000	9.9400e+01	0.2374	0.290639	0.000276	2.763164	0.936185	-0.000111
1001	9.9500e+01	0.1813	0.181878	0.000272	2.722379	0.922367	-0.000109
1002	9.9600e+01	0.1476	0.067823	0.000285	2.854929	0.967276	-0.000115
1003	9.9699e+01	0.0930	-0.043789	0.000279	2.793752	0.946549	-0.000112
1004	9.9799e+01	0.0610	-0.148884	0.000263	2.630614	0.891276	-0.000106
1005	9.9898e+01	0.0353	-0.220983	0.000180	1.804723	0.611457	-0.000072
1006	9.9998e+01	-0.0032	-0.317116	0.000241	2.406298	0.815276	-0.000097
1007	1.0010e+02	-0.0513	-0.412434	0.000239	2.385905	0.808367	-0.000096
1008	1.0020e+02	-0.1043	-0.507345	0.000238	2.375709	0.804912	-0.000095
1009	1.0030e+02	-0.1267	-0.605515	0.000246	2.457279	0.832549	-0.000099
1010	1.0040e+02	-0.1717	-0.708165	0.000257	2.569436	0.870549	-0.000103
1011	1.0050e+02	-0.2118	-0.802261	0.000236	2.355317	0.798003	-0.000095
1012	1.0059e+02	-0.2631	-0.902875	0.000252	2.518456	0.853276	-0.000101
1013	1.0069e+02	-0.2952	-1.003488	0.000252	2.518456	0.853276	-0.000101
1014	1.0079e+02	-0.3257	-1.089438	0.000215	2.151393	0.728912	-0.000086
1015	1.0089e+02	-0.3610	-1.185570	0.000241	2.406298	0.815276	-0.000097
1016	1.0099e+02	-0.3978	-1.285777	0.000251	2.508259	0.849821	-0.000101
1017	1.0109e+02	-0.4396	-1.387205	0.000254	2.538848	0.860185	-0.000102
1018	1.0119e+02	-0.4861	-1.491485	0.000261	2.610221	0.884367	-0.000105
1019	1.0129e+02	-0.5310	-1.593728	0.000256	2.559240	0.867094	-0.000103
1020	1.0139e+02	-0.5695	-1.711857	0.000296	2.956891	1.001822	-0.000119
1021	1.0149e+02	-0.5936	-1.809212	0.000244	2.436886	0.825639	-0.000098
1022	1.0159e+02	-0.6513	-1.904530	0.000239	2.385905	0.808367	-0.000096
1023	1.0169e+02	-0.6834	-1.998626	0.000236	2.355317	0.798003	-0.000095
1024	1.0179e+02	-0.7347	-2.098425	0.000250	2.498063	0.846367	-0.000100
1025	1.0189e+02	-0.7636	-2.190892	0.000231	2.314532	0.784185	-0.000093
1026	1.0199e+02	-0.8101	-2.290283	0.000249	2.487867	0.842912	-0.000100
1027	1.0209e+02	-0.8518	-2.379492	0.000223	2.232963	0.756548	-0.000090
1028	1.0219e+02	-0.8968	-2.485808	0.000266	2.661202	0.901640	-0.000107
1029	1.0229e+02	-0.9449	-2.583977	0.000246	2.457279	0.832549	-0.000099
1030	1.0239e+02	-0.9722	-2.682962	0.000248	2.477671	0.839458	-0.000099
1031	1.0248e+02	-1.0042	-2.782761	0.000250	2.498063	0.846367	-0.000100
1032	1.0258e+02	-1.0395	-2.863822	0.000203	2.029039	0.687457	-0.000081
1033	1.0268e+02	-1.0893	-2.962399	0.000247	2.467475	0.836003	-0.000099
1034	1.0278e+02	-1.1182	-3.060568	0.000246	2.457279	0.832549	-0.000099
1035	1.0288e+02	-1.1518	-3.167699	0.000268	2.681594	0.908549	-0.000108
1036	1.0298e+02	-1.1903	-3.274830	0.000268	2.681594	0.908549	-0.000108
1037	1.0308e+02	-1.2369	-3.391738	0.000293	2.926303	0.991458	-0.000117
1038	1.0318e+02	-1.2786	-3.491129	0.000249	2.487867	0.842912	-0.000100
1039	1.0328e+02	-1.3235	-3.592965	0.000255	2.549044	0.863640	-0.000102
1040	1.0338e+02	-1.3540	-3.687876	0.000238	2.375709	0.804912	-0.000095
1041	1.0348e+02	-1.4165	-3.786045	0.000246	2.457279	0.832549	-0.000099
1042	1.0358e+02	-1.4406	-3.880956	0.000238	2.375709	0.804912	-0.000095
1043	1.0368e+02	-1.4887	-3.979533	0.000247	2.467475	0.836003	-0.000099
1044	1.0378e+02	-1.5112	-4.077703	0.000246	2.457279	0.832549	-0.000099
1045	1.0388e+02	-1.5754	-4.176280	0.000247	2.467475	0.836003	-0.000099
1046	1.0398e+02	-1.6139	-4.268339	0.000230	2.304336	0.780730	-0.000093
1047	1.0408e+02	-1.6652	-4.368953	0.000252	2.518456	0.853276	-0.000101
1048	1.0418e+02	-1.6909	-4.469566	0.000252	2.518456	0.853276	-0.000101
1049	1.0428e+02	-1.7326	-4.562440	0.000232	2.324728	0.787639	-0.000093
1050	1.0438e+02	-1.7647	-4.650834	0.000221	2.212570	0.749639	-0.000089
1051	1.0447e+02	-1.7887	-4.747781	0.000243	2.426690	0.822185	-0.000097
1052	1.0457e+02	-1.8288	-4.843099	0.000239	2.385905	0.808367	-0.000096
1053	1.0467e+02	-1.8786	-4.952674	0.000274	2.742771	0.929276	-0.000110
1054	1.0477e+02	-1.9235	-5.058991	0.000266	2.661202	0.901640	-0.000107
1055	1.0487e+02	-1.9507	-5.169381	0.000276	2.763164	0.936185	-0.000111
1056	1.0497e+02	-2.0037	-5.274068	0.000262	2.620417	0.887821	-0.000105
1057	1.0507e+02	-2.0566	-5.376311	0.000256	2.559240	0.867094	-0.000103
1058	1.0517e+02	-2.0807	-5.465926	0.000224	2.243159	0.760003	-0.000090
1059	1.0527e+02	-2.1272	-5.566947	0.000253	2.528652	0.856730	-0.000102
1060	1.0537e+02	-2.1737	-5.663487	0.000242	2.416494	0.818730	-0.000097
1061	1.0547e+02	-2.2042	-5.762064	0.000247	2.467475	0.836003	-0.000099
1062	1.0557e+02	-2.2523	-5.863085	0.000253	2.528652	0.856730	-0.000102
1063	1.0567e+02	-2.3165	-5.953108	0.000225	2.253355	0.763457	-0.000090
1064	1.0577e+02	-2.3213	-6.056573	0.000259	2.589829	0.877458	-0.000104
1065	1.0587e+02	-2.3678	-6.151891	0.000239	2.385905	0.808367	-0.000096
1066	1.0597e+02	-2.4128	-6.254134	0.000256	2.559240	0.867094	-0.000103
1067	1.0607e+02	-2.4657	-6.344157	0.000225	2.253355	0.763457	-0.000090
1068	1.0617e+02	-2.5058	-6.439882	0.000240	2.396101	0.811821	-0.000096
1069	1.0627e+02	-2.5170	-6.520943	0.000203	2.029039	0.687457	-0.000081
1070	1.0637e+02	-2.5459	-6.627667	0.000267	2.671398	0.905094	-0.000107
1071	1.0647e+02	-2.5860	-6.731947	0.000261	2.610221	0.884367	-0.000105
1072	1.0656e+02	-2.6085	-6.845188	0.000283	2.834537	0.960367	-0.000114
1073	1.0666e+02	-2.6630	-6.954763	0.000274	2.742771	0.929276	-0.000110
1074	1.0676e+02	-2.7240	-7.057821	0.000258	2.579633	0.874003	-0.000104
1075	1.0686e+02	-2.7416	-7.155583	0.000245	2.447082	0.829094	-0.000098
1076	1.0696e+02	-2.8186	-7.251308	0.000240	2.396101	0.811821	-0.000096
1077	1.0706e+02	-2.8491	-7.347849	0.000242	2.416494	0.818730	-0.000097
1078	1.0716e+02	-2.8796	-7.441130	0.000233	2.334924	0.791094	-0.000094
1079	1.0726e+02	-2.9390	-7.543780	0.000257	2.569436	0.870549	-0.000103
1080	1.0736e+02	-2.9742	-7.635025	0.000228	2.283944	0.773821	-0.000092
1081	1.0746e+02	-3.0095	-7.734417	0.000249	2.487867	0.842912	-0.000100
1082	1.0756e+02	-3.0432	-7.831364	0.000243	2.426690	0.822185	-0.000097
1083	1.0766e+02	-3.0914	-7.933200	0.000255	2.549044	0.863640	-0.000102
1084	1.0776e+02	-3.1266	-8.026481	0.000233	2.334924	0.791094	-0.000094
1085	1.0786e+02	-3.1507	-8.111616	0.000213	2.131001	0.722003	-0.000086
1086	1.0796e+02	-3.2020	-8.206934	0.000239	2.385905	0.808367	-0.000096
1087	1.0806e+02	-3.2149	-8.295327	0.000221	2.212570	0.749639	-0.000089
1088	1.0816e+02	-3.2919	-8.393904	0.000247	2.467475	0.836003	-0.000099
1089	1.0826e+02	-3.2999	-8.496147	0.000256	2.559240	0.867094	-0.000103
1090	1.0836e+02	-3.3352	-8.611018	0.000288	2.875322	0.974185	-0.000115
1091	1.0845e+02	-3.3785	-8.718149	0.000268	2.681594	0.908549	-0.000108
1092	1.0855e+02	-3.4363	-8.819577	0.000254	2.538848	0.860185	-0.000102
1093	1.0865e+02	-3.4539	-8.916932	0.000244	2.436886	0.825639	-0.000098
1094	1.0875e+02	-3.5213	-9.012250	0.000239	2.385905	0.808367	-0.000096
1095	1.0885e+02	-3.5678	-9.107568	0.000239	2.385905	0.808367	-0.000096
1096	1.0895e+02	-3.5967	-9.204923	0.000244	2.436886	0.825639	-0.000098
1097	1.0905e+02	-3.6432	-9.302686	0.000245	2.447082	0.829094	-0.000098
1098	1.0915e+02	-3.6673	-9.393523	0.000227	2.273747	0.770366	-0.000091
1099	1.0925e+02	-3.7491	-9.494951	0.000254	2.538848	0.860185	-0.000102
1100	1.0935e+02	-3.7683	-9.591084	0.000241	2.406298	0.815276	-0.000097
1101	1.0945e+02	-3.8101	-9.694549	0.000259	2.589829	0.877458	-0.000104
1102	1.0955e+02	-3.8165	-9.784979	0.000226	2.263551	0.766912	-0.000091
1103	1.0965e+02	-3.8903	-9.891703	0.000267	2.671398	0.905094	-0.000107
1104	1.0975e+02	-3.9143	-9.989872	0.000246	2.457279	0.832549	-0.000099
1105	1.0985e+02	-3.9512	-10.070526	0.000202	2.018843	0.684003	-0.000081
1106	1.0995e+02	-4.0042	-10.175213	0.000262	2.620417	0.887821	-0.000105
1107	1.1005e+02	-4.0298	-10.281530	0.000266	2.661202	0.901640	-0.000107
1108	1.1015e+02	-4.0683	-10.390290	0.000272	2.722379	0.922367	-0.000109
1109	1.1025e+02	-4.1084	-10.504346	0.000285	2.854929	0.967276	-0.000115
1110	1.1035e+02	-4.1598	-10.605774	0.000254	2.538848	0.860185	-0.000102
1111	1.1044e+02	-4.1838	-10.699870	0.000236	2.355317	0.798003	-0.000095
1112	1.1054e+02	-4.2304	-10.800891	0.000253	2.528652	0.856730	-0.000102
1113	1.1064e+02	-4.2913	-10.894173	0.000233	2.334924	0.791094	-0.000094
1114	1.1074e+02	-4.3234	-10.991528	0.000244	2.436886	0.825639	-0.000098
1115	1.1084e+02	-4.3443	-11.084402	0.000232	2.324728	0.787639	-0.000093
1116	1.1094e+02	-4.4052	-11.180942	0.000242	2.416494	0.818730	-0.000097
1117	1.1104e+02	-4.4501	-11.276668	0.000240	2.396101	0.811821	-0.000096
1118	1.1114e+02	-4.4774	-11.376059	0.000249	2.487867	0.842912	-0.000100
1119	1.1124e+02	-4.5368	-11.470563	0.000237	2.365513	0.801457	-0.000095
1120	1.1134e+02	-4.5753	-11.569547	0.000248	2.477671	0.839458	-0.000099
1121	1.1144e+02	-4.6058	-11.663236	0.000235	2.345121	0.794548	-0.000094
1122	1.1154e+02	-4.6266	-11.759776	0.000242	2.416494	0.818730	-0.000097
1123	1.1164e+02	-4.6779	-11.846540	0.000217	2.171786	0.735821	-0.000087
1124	1.1174e+02	-4.6988	-11.945931	0.000249	2.487867	0.842912	-0.000100
1125	1.1184e+02	-4.7389	-12.040842	0.000238	2.375709	0.804912	-0.000095
1126	1.1194e+02	-4.8015	-12.151232	0.000276	2.763164	0.936185	-0.000111
1127	1.1204e+02	-4.8143	-12.256326	0.000263	2.630614	0.891276	-0.000106
1128	1.1214e+02	-4.8544	-12.371197	0.000288	2.875322	0.974185	-0.000115
1129	1.1224e+02	-4.8897	-12.463664	0.000231	2.314532	0.784185	-0.000093
1130	1.1234e+02	-4.9442	-12.562648	0.000248	2.477671	0.839458	-0.000099
1131	1.1244e+02	-5.0004	-12.659188	0.000242	2.416494	0.818730	-0.000097
1132	1.1253e+02	-5.0389	-12.750026	0.000227	2.273747	0.770366	-0.000091
1133	1.1263e+02	-5.0742	-12.849824	0.000250	2.498063	0.846367	-0.000100
1134	1.1273e+02	-5.1255	-12.940662	0.000227	2.273747	0.770366	-0.000091
1135	1.1283e+02	-5.1512	-13.041683	0.000253	2.528652	0.856730	-0.000102
1136	1.1293e+02	-5.2122	-13.135779	0.000236	2.355317	0.798003	-0.000095
1137	1.1303e+02	-5.2298	-13.233541	0.000245	2.447082	0.829094	-0.000098
1138	1.1313e+02	-5.2731	-13.329267	0.000240	2.396101	0.811821	-0.000096
1139	1.1323e+02	-5.2988	-13.427436	0.000246	2.457279	0.832549	-0.000099
1140	1.1333e+02	-5.3517	-13.517459	0.000225	2.253355	0.763457	-0.000090
1141	1.1343e+02	-5.3630	-13.605038	0.000219	2.192178	0.742730	-0.000088
1142	1.1353e+02	-5.3950	-13.701170	0.000241	2.406298	0.815276	-0.000097
1143	1.1363e+02	-5.4640	-13.806265	0.000263	2.630614	0.891276	-0.000106
1144	1.1373e+02	-5.5137	-13.905249	0.000248	2.477671	0.839458	-0.000099
1145	1.1383e+02	-5.5426	-14.025822	0.000302	3.018068	1.022549	-0.000121
1146	1.1393e+02	-5.5779	-14.116252	0.000226	2.263551	0.766912	-0.000091
1147	1.1403e+02	-5.6260	-14.215644	0.000249	2.487867	0.842912	-0.000100
1148	1.1413e+02	-5.6902	-14.305667	0.000225	2.253355	0.763457	-0.000090
1149	1.1423e+02	-5.7079	-14.403022	0.000244	2.436886	0.825639	-0.000098
1150	1.1433e+02	-5.7383	-14.498340	0.000239	2.385905	0.808367	-0.000096
1151	1.1442e+02	-5.8057	-14.592029	0.000235	2.345121	0.794548	-0.000094
1152	1.1452e+02	-5.8298	-14.693457	0.000254	2.538848	0.860185	-0.000102
1153	1.1462e+02	-5.8763	-14.789182	0.000240	2.396101	0.811821	-0.000096
1154	1.1472e+02	-5.9068	-14.884908	0.000240	2.396101	0.811821	-0.000096
1155	1.1482e+02	-5.9645	-14.975745	0.000227	2.273747	0.770366	-0.000091
1156	1.1492e+02	-5.9742	-15.074322	0.000247	2.467475	0.836003	-0.000099
1157	1.1502e+02	-6.0464	-15.170862	0.000242	2.416494	0.818730	-0.000097
1158	1.1512e+02	-6.0544	-15.258441	0.000219	2.192178	0.742730	-0.000088
1159	1.1522e+02	-6.0977	-15.344390	0.000215	2.151393	0.728912	-0.000086
1160	1.1532e+02	-6.1410	-15.451114	0.000267	2.671398	0.905094	-0.000107
1161	1.1542e+02	-6.1891	-15.552135	0.000253	2.528652	0.856730	-0.000102
1162	1.1552e+02	-6.2180	-15.668635	0.000292	2.916106	0.988004	-0.000117
1163	1.1562e+02	-6.2645	-15.763953	0.000239	2.385905	0.808367	-0.000096
1164	1.1572e+02	-6.3143	-15.862937	0.000248	2.477671	0.839458	-0.000099
1165	1.1582e+02	-6.3335	-15.956219	0.000233	2.334924	0.791094	-0.000094
1166	1.1592e+02	-6.3897	-16.054796	0.000247	2.467475	0.836003	-0.000099
1167	1.1602e+02	-6.4250	-16.142374	0.000219	2.192178	0.742730	-0.000088
1168	1.1612e+02	-6.4763	-16.237692	0.000239	2.385905	0.808367	-0.000096
1169	1.1622e+02	-6.5068	-16.333825	0.000241	2.406298	0.815276	-0.000097
1170	1.1632e+02	-6.5661	-16.427921	0.000236	2.355317	0.798003	-0.000095
1171	1.1642e+02	-6.5870	-16.528942	0.000253	2.528652	0.856730	-0.000102
1172	1.1651e+02	-6.6255	-16.629149	0.000251	2.508259	0.849821	-0.000101
1173	1.1661e+02	-6.6688	-16.720393	0.000228	2.283944	0.773821	-0.000092
1174	1.1671e+02	-6.7185	-16.814490	0.000236	2.355317	0.798003	-0.000095
1175	1.1681e+02	-6.7458	-16.905327	0.000227	2.273747	0.770366	-0.000091
1176	1.1691e+02	-6.7602	-16.997794	0.000231	2.314532	0.784185	-0.000093
1177	1.1701e+02	-6.8116	-17.080077	0.000206	2.059628	0.697821	-0.000083
1178	1.1711e+02	-6.8453	-17.184764	0.000262	2.620417	0.887821	-0.000105
1179	1.1721e+02	-6.8950	-17.291080	0.000266	2.661202	0.901640	-0.000107
1180	1.1731e+02	-6.9271	-17.405951	0.000288	2.875322	0.974185	-0.000115
1181	1.1741e+02	-6.9688	-17.508194	0.000256	2.559240	0.867094	-0.000103
1182	1.1751e+02	-7.0314	-17.601068	0.000232	2.324728	0.787639	-0.000093
1183	1.1761e+02	-7.0586	-17.700867	0.000250	2.498063	0.846367	-0.000100
1184	1.1771e+02	-7.0875	-17.788853	0.000220	2.202374	0.746185	-0.000088
1185	1.1781e+02	-7.1533	-17.882134	0.000233	2.334924	0.791094	-0.000094
1186	1.1791e+02	-7.1677	-17.968084	0.000215	2.151393	0.728912	-0.000086
1187	1.1801e+02	-7.2319	-18.060958	0.000232	2.324728	0.787639	-0.000093
1188	1.1811e+02	-7.2848	-18.153424	0.000231	2.314532	0.784185	-0.000093
1189	1.1821e+02	-7.3089	-18.250372	0.000243	2.426690	0.822185	-0.000097
1190	1.1831e+02	-7.3586	-18.336321	0.000215	2.151393	0.728912	-0.000086
1191	1.1841e+02	-7.4148	-18.432047	0.000240	2.396101	0.811821	-0.000096
1192	1.1850e+02	-7.4308	-18.528180	0.000241	2.406298	0.815276	-0.000097
1193	1.1860e+02	-7.4597	-18.612907	0.000212	2.120805	0.718548	-0.000085
1194	1.1870e+02	-7.4918	-18.699263	0.000216	2.161589	0.732366	-0.000087
1195	1.1880e+02	-7.5303	-18.797433	0.000246	2.457279	0.832549	-0.000099
1196	1.1890e+02	-7.5816	-18.899269	0.000255	2.549044	0.863640	-0.000102
1197	1.1900e+02	-7.6297	-19.002734	0.000259	2.589829	0.877458	-0.000104
1198	1.1910e+02	-7.6570	-19.122492	0.000300	2.997676	1.015640	-0.000120
1199	1.1920e+02	-7.7035	-19.209664	0.000218	2.181982	0.739275	-0.000088
1200	1.1930e+02	-7.7420	-19.301316	0.000229	2.294140	0.777276	-0.000092
1201	1.1940e+02	-7.7982	-19.400707	0.000249	2.487867	0.842912	-0.000100
1202	1.1950e+02	-7.8062	-19.489101	0.000221	2.212570	0.749639	-0.000089
1203	1.1960e+02	-7.8784	-19.583197	0.000236	2.355317	0.798003	-0.000095
1204	1.1970e+02	-7.8992	-19.674034	0.000227	2.273747	0.770366	-0.000091
1205	1.1980e+02	-7.9554	-19.769352	0.000239	2.385905	0.808367	-0.000096
1206	1.1990e+02	-7.9955	-19.864263	0.000238	2.375709	0.804912	-0.000095
1207	1.2000e+02	-8.0372	-19.954286	0.000225	2.253355	0.763457	-0.000090
1208	1.2010e+02	-8.0725	-20.045938	0.000229	2.294140	0.777276	-0.000092
1209	1.2020e+02	-8.0950	-20.135553	0.000224	2.243159	0.760003	-0.000090
1210	1.2030e+02	-8.1319	-20.229242	0.000235	2.345121	0.794548	-0.000094
1211	1.2039e+02	-8.1671	-20.314377	0.000213	2.131001	0.722003	-0.000086
1212	1.2049e+02	-8.1880	-20.415805	0.000254	2.538848	0.860185	-0.000102
1213	1.2059e+02	-8.2442	-20.508272	0.000231	2.314532	0.784185	-0.000093
1214	1.2069e+02	-8.2778	-20.613366	0.000263	2.630614	0.891276	-0.000106
1215	1.2079e+02	-8.3500	-20.714387	0.000253	2.528652	0.856730	-0.000102
1216	1.2089e+02	-8.3773	-20.816223	0.000255	2.549044	0.863640	-0.000102
1217	1.2099e+02	-8.4206	-20.921724	0.000264	2.640810	0.894731	-0.000106
1218	1.2109e+02	-8.4607	-21.020301	0.000247	2.467475	0.836003	-0.000099
1219	1.2119e+02	-8.4976	-21.108287	0.000220	2.202374	0.746185	-0.000088
1220	1.2129e+02	-8.5474	-21.201161	0.000232	2.324728	0.787639	-0.000093
1221	1.2139e+02	-8.5875	-21.285481	0.000211	2.110609	0.715094	-0.000085
1222	1.2149e+02	-8.5987	-21.380392	0.000238	2.375709	0.804912	-0.000095
1223	1.2159e+02	-8.6580	-21.472859	0.000231	2.314532	0.784185	-0.000093
1224	1.2169e+02	-8.7158	-21.564918	0.000230	2.304336	0.780730	-0.000093
1225	1.2179e+02	-8.7447	-21.651275	0.000216	2.161589	0.732366	-0.000087
1226	1.2189e+02	-8.7960	-21.747408	0.000241	2.406298	0.815276	-0.000097
1227	1.2199e+02	-8.8393	-21.835801	0.000221	2.212570	0.749639	-0.000089
1228	1.2209e+02	-8.8281	-21.922972	-0.000218	-2.181982	-0.739275	-0.000088
1229	1.2219e+02	-8.8778	-22.018698	0.000240	2.396101	0.811821	-0.000096
1230	1.2229e+02	-8.9211	-22.116053	0.000244	2.436886	0.825639	-0.000098
1231	1.2239e+02	-8.9532	-22.216666	0.000252	2.518456	0.853276	-0.000101
1232	1.2248e+02	-9.0142	-22.311985	0.000239	2.385905	0.808367	-0.000096
1233	1.2258e+02	-9.0719	-22.414635	0.000257	2.569436	0.870549	-0.000103
1234	1.2268e+02	-9.0832	-22.519729	0.000263	2.630614	0.891276	-0.000106
1235	1.2278e+02	-9.1249	-22.623194	0.000259	2.589829	0.877458	-0.000104
1236	1.2288e+02	-9.1602	-22.716476	0.000233	2.334924	0.791094	-0.000094
1237	1.2298e+02	-9.2292	-22.802832	0.000216	2.161589	0.732366	-0.000087
1238	1.2308e+02	-9.2725	-22.896521	0.000235	2.345121	0.794548	-0.000094
1239	1.2318e+02	-9.3206	-22.991025	0.000237	2.365513	0.801457	-0.000095
1240	1.2328e+02	-9.3206	-23.078603	0.000219	2.192178	0.742730	-0.000088
1241	1.2338e+02	-9.3832	-23.168626	0.000225	2.253355	0.763457	-0.000090
1242	1.2348e+02	-9.4265	-23.261907	0.000233	2.334924	0.791094	-0.000094
1243	1.2358e+02	-9.4730	-23.353967	0.000230	2.304336	0.780730	-0.000093
1244	1.2368e+02	-9.4938	-23.443582	0.000224	2.243159	0.760003	-0.000090
1245	1.2378e+02	-9.5307	-23.525865	0.000206	2.059628	0.697821	-0.000083
1246	1.2388e+02	-9.5660	-23.615888	0.000225	2.253355	0.763457	-0.000090
1247	1.2398e+02	-9.6029	-23.709984	0.000236	2.355317	0.798003	-0.000095
1248	1.2408e+02	-9.6479	-23.808154	0.000246	2.457279	0.832549	-0.000099
1249	1.2418e+02	-9.6639	-23.905509	0.000244	2.436886	0.825639	-0.000098
1250	1.2428e+02	-9.7168	-24.004086	0.000247	2.467475	0.836003	-0.000099
1251	1.2438e+02	-9.7650	-24.102662	0.000247	2.467475	0.836003	-0.000099
1252	1.2447e+02	-9.7954	-24.197981	0.000239	2.385905	0.808367	-0.000096
1253	1.2457e+02	-9.8500	-24.301446	0.000259	2.589829	0.877458	-0.000104
1254	1.2467e+02	-9.9077	-24.393912	0.000231	2.314532	0.784185	-0.000093
1255	1.2477e+02	-9.9446	-24.483120	0.000223	2.232963	0.756548	-0.000090
1256	1.2487e+02	-9.9655	-24.562960	0.000200	1.998451	0.677093	-0.000080
1257	1.2497e+02	-10.0216	-24.659500	0.000242	2.416494	0.818730	-0.000097
1258	1.2507e+02	-10.0601	-24.755633	0.000241	2.406298	0.815276	-0.000097
1259	1.2517e+02	-10.0858	-24.842397	0.000217	2.171786	0.735821	-0.000087
1260	1.2527e+02	-10.1404	-24.938937	0.000242	2.416494	0.818730	-0.000097
1261	1.2537e+02	-10.1885	-25.024479	0.000214	2.141197	0.725457	-0.000086
1262	1.2547e+02	-10.1869	-25.119797	-0.000239	-2.385905	-0.808367	-0.000096
1263	1.2557e+02	-10.2190	-25.193933	0.000186	1.855704	0.628730	-0.000075
1264	1.2567e+02	-10.2976	-25.286807	0.000232	2.324728	0.787639	-0.000093
1265	1.2577e+02	-10.3088	-25.378052	0.000228	2.283944	0.773821	-0.000092
1266	1.2587e+02	-10.3505	-25.481517	0.000259	2.589829	0.877458	-0.000104
1267	1.2597e+02	-10.4195	-25.576428	0.000238	2.375709	0.804912	-0.000095
1268	1.2607e+02	-10.4403	-25.678671	0.000256	2.559240	0.867094	-0.000103
1269	1.2617e+02	-10.4837	-25.778062	0.000249	2.487867	0.842912	-0.000100
1270	1.2627e+02	-10.5238	-25.889674	0.000279	2.793752	0.946549	-0.000112
1271	1.2636e+02	-10.5735	-25.980512	0.000227	2.273747	0.770366	-0.000091
1272	1.2646e+02	-10.6056	-26.076237	0.000240	2.396101	0.811821	-0.000096
1273	1.2656e+02	-10.6553	-26.168704	0.000231	2.314532	0.784185	-0.000093
1274	1.2666e+02	-10.6986	-26.256690	0.000220	2.202374	0.746185	-0.000088
1275	1.2676e+02	-10.7307	-26.349564	0.000232	2.324728	0.787639	-0.000093
1276	1.2686e+02	-10.7756	-26.440809	0.000228	2.283944	0.773821	-0.000092
1277	1.2696e+02	-10.8173	-26.533683	0.000232	2.324728	0.787639	-0.000093
1278	1.2706e+02	-10.8494	-26.622076	0.000221	2.212570	0.749639	-0.000089
1279	1.2716e+02	-10.8976	-26.706803	0.000212	2.120805	0.718548	-0.000085
1280	1.2726e+02	-10.9296	-26.797233	0.000226	2.263551	0.766912	-0.000091
1281	1.2736e+02	-10.9393	-26.885219	0.000220	2.202374	0.746185	-0.000088
1282	1.2746e+02	-10.9986	-26.982167	0.000243	2.426690	0.822185	-0.000097
1283	1.2756e+02	-11.0403	-27.078300	0.000241	2.406298	0.815276	-0.000097
1284	1.2766e+02	-11.0965	-27.172396	0.000236	2.355317	0.798003	-0.000095
1285	1.2776e+02	-11.1173	-27.271787	0.000249	2.487867	0.842912	-0.000100
1286	1.2786e+02	-11.1494	-27.372808	0.000253	2.528652	0.856730	-0.000102
1287	1.2796e+02	-11.2248	-27.473015	0.000251	2.508259	0.849821	-0.000101
1288	1.2806e+02	-11.2473	-27.572814	0.000250	2.498063	0.846367	-0.000100
1289	1.2816e+02	-11.3002	-27.669354	0.000242	2.416494	0.818730	-0.000097
1290	1.2826e+02	-11.3227	-27.753674	0.000211	2.110609	0.715094	-0.000085
1291	1.2835e+02	-11.3596	-27.843289	0.000224	2.243159	0.760003	-0.000090
1292	1.2845e+02	-11.4077	-27.930053	0.000217	2.171786	0.735821	-0.000087
1293	1.2855e+02	-11.4382	-28.024557	0.000237	2.365513	0.801457	-0.000095
1294	1.2865e+02	-11.5200	-28.110098	0.000214	2.141197	0.725457	-0.000086
1295	1.2875e+02	-11.5409	-28.209897	0.000250	2.498063	0.846367	-0.000100
1296	1.2885e+02	-11.5794	-28.291773	0.000205	2.049431	0.694366	-0.000082
1297	1.2895e+02	-11.6082	-28.382203	0.000226	2.263551	0.766912	-0.000091
1298	1.2905e+02	-11.6467	-28.452266	0.000175	1.753742	0.594184	-0.000070
1299	1.2915e+02	-11.6884	-28.558583	0.000266	2.661202	0.901640	-0.000107
1300	1.2925e+02	-11.7045	-28.645347	0.000217	2.171786	0.735821	-0.000087
1301	1.2935e+02	-11.7638	-28.745553	0.000251	2.508259	0.849821	-0.000101
1302	1.2945e+02	-11.7975	-28.840056	0.000237	2.365513	0.801457	-0.000095
1303	1.2955e+02	-11.8505	-28.939448	0.000249	2.487867	0.842912	-0.000100
1304	1.2965e+02	-11.8874	-29.040469	0.000253	2.528652	0.856730	-0.000102
1305	1.2975e+02	-11.9211	-29.142712	0.000256	2.559240	0.867094	-0.000103
1306	1.2985e+02	-11.9563	-29.239659	0.000243	2.426690	0.822185	-0.000097
1307	1.2995e+02	-12.0301	-29.331719	0.000230	2.304336	0.780730	-0.000093
1308	1.3005e+02	-12.0382	-29.420519	0.000222	2.222766	0.753094	-0.000089
1309	1.3015e+02	-12.1039	-29.506469	0.000215	2.151393	0.728912	-0.000086
1310	1.3025e+02	-12.1296	-29.598528	0.000230	2.304336	0.780730	-0.000093
1311	1.3034e+02	-12.1809	-29.686514	0.000220	2.202374	0.746185	-0.000088
1312	1.3044e+02	-12.2002	-29.777352	0.000227	2.273747	0.770366	-0.000091
1313	1.3054e+02	-12.2563	-29.858005	0.000202	2.018843	0.684003	-0.000081
1314	1.3064e+02	-12.2788	-29.952509	0.000237	2.365513	0.801457	-0.000095
1315	1.3074e+02	-12.3494	-30.038458	0.000215	2.151393	0.728912	-0.000086
1316	1.3084e+02	-12.3478	-30.119927	-0.000204	-2.039235	-0.690912	-0.000082
1317	1.3094e+02	-12.3879	-30.204654	0.000212	2.120805	0.718548	-0.000085
1318	1.3104e+02	-12.4376	-30.299157	0.000237	2.365513	0.801457	-0.000095
1319	1.3114e+02	-12.4697	-30.394475	0.000239	2.385905	0.808367	-0.000096
1320	1.3124e+02	-12.5130	-30.496311	0.000255	2.549044	0.863640	-0.000102
1321	1.3134e+02	-12.5692	-30.590815	0.000237	2.365513	0.801457	-0.000095
1322	1.3144e+02	-12.6109	-30.690206	0.000249	2.487867	0.842912	-0.000100
1323	1.3154e+02	-12.6173	-30.784710	0.000237	2.365513	0.801457	-0.000095
1324	1.3164e+02	-12.6670	-30.891841	0.000268	2.681594	0.908549	-0.000108
1325	1.3174e+02	-12.7151	-30.984308	0.000231	2.314532	0.784185	-0.000093
1326	1.3184e+02	-12.7520	-31.075145	0.000227	2.273747	0.770366	-0.000091
1327	1.3194e+02	-12.8082	-31.158650	0.000209	2.090216	0.708184	-0.000084
1328	1.3204e+02	-12.8483	-31.245414	0.000217	2.171786	0.735821	-0.000087
1329	1.3214e+02	-12.8788	-31.335844	0.000226	2.263551	0.766912	-0.000091
1330	1.3224e+02	-12.9349	-31.421386	0.000214	2.141197	0.725457	-0.000086
1331	1.3234e+02	-12.9638	-31.506928	0.000214	2.141197	0.725457	-0.000086
1332	1.3243e+02	-12.9863	-31.596951	0.000225	2.253355	0.763457	-0.000090
1333	1.3253e+02	-13.0424	-31.686566	0.000224	2.243159	0.760003	-0.000090
1334	1.3263e+02	-13.0729	-31.771293	0.000212	2.120805	0.718548	-0.000085
1335	1.3273e+02	-13.1290	-31.856021	0.000212	2.120805	0.718548	-0.000085
1336	1.3283e+02	-13.1371	-31.946451	0.000226	2.263551	0.766912	-0.000091
1337	1.3293e+02	-13.1996	-32.043398	0.000243	2.426690	0.822185	-0.000097
1338	1.3303e+02	-13.2205	-32.141975	0.000247	2.467475	0.836003	-0.000099
1339	1.3313e+02	-13.2895	-32.237701	0.000240	2.396101	0.811821	-0.000096
1340	1.3323e+02	-13.3087	-32.330982	0.000233	2.334924	0.791094	-0.000094
1341	1.3333e+02	-13.3617	-32.430374	0.000249	2.487867	0.842912	-0.000100
1342	1.3343e+02	-13.3905	-32.526914	0.000242	2.416494	0.818730	-0.000097
1343	1.3353e+02	-13.4242	-32.634452	0.000269	2.691791	0.912003	-0.000108
1344	1.3363e+02	-13.4932	-32.717957	0.000209	2.090216	0.708184	-0.000084
1345	1.3373e+02	-13.5237	-32.810017	0.000230	2.304336	0.780730	-0.000093
1346	1.3383e+02	-13.5670	-32.891485	0.000204	2.039235	0.690912	-0.000082
1347	1.3393e+02	-13.6199	-32.985581	0.000236	2.355317	0.798003	-0.000095
1348	1.3403e+02	-13.6328	-33.073567	0.000220	2.202374	0.746185	-0.000088
1349	1.3413e+02	-13.6937	-33.163183	0.000224	2.243159	0.760003	-0.000090
1350	1.3423e+02	-13.7226	-33.251169	0.000220	2.202374	0.746185	-0.000088
1351	1.3432e+02	-13.7820	-33.340377	0.000223	2.232963	0.756548	-0.000090
1352	1.3442e+02	-13.7948	-33.420216	0.000200	1.998451	0.677093	-0.000080
1353	1.3452e+02	-13.8493	-33.502907	0.000207	2.069824	0.701275	-0.000083
1354	1.3462e+02	-13.8477	-33.579894	-0.000193	-1.927077	-0.652911	-0.000077
1355	1.3472e+02	-13.9039	-33.676027	0.000241	2.406298	0.815276	-0.000097
1356	1.3482e+02	-13.9408	-33.765235	0.000223	2.232963	0.756548	-0.000090
1357	1.3492e+02	-13.9905	-33.856480	0.000228	2.283944	0.773821	-0.000092
1358	1.3502e+02	-14.0178	-33.951391	0.000238	2.375709	0.804912	-0.000095
1359	1.3512e+02	-14.0804	-34.047523	0.000241	2.406298	0.815276	-0.000097
1360	1.3522e+02	-14.1124	-34.150581	0.000258	2.579633	0.874003	-0.000104
1361	1.3532e+02	-14.1541	-34.242641	0.000230	2.304336	0.780730	-0.000093
1362	1.3542e+02	-14.1991	-34.334700	0.000230	2.304336	0.780730	-0.000093
1363	1.3552e+02	-14.2344	-34.418205	0.000209	2.090216	0.708184	-0.000084
1364	1.3562e+02	-14.2857	-34.510265	0.000230	2.304336	0.780730	-0.000093
1365	1.3572e+02	-14.3322	-34.594992	0.000212	2.120805	0.718548	-0.000085
1366	1.3582e+02	-14.3515	-34.680126	0.000213	2.131001	0.722003	-0.000086
1367	1.3592e+02	-14.3996	-34.765668	0.000214	2.141197	0.725457	-0.000086
1368	1.3602e+02	-14.4253	-34.858543	0.000232	2.324728	0.787639	-0.000093
1369	1.3612e+02	-14.4942	-34.940418	0.000205	2.049431	0.694366	-0.000082
1370	1.3622e+02	-14.4798	-35.029219	-0.000222	-2.222766	-0.753094	-0.000089
1371	1.3631e+02	-14.5488	-35.104985	0.000190	1.896489	0.642548	-0.000076
1372	1.3641e+02	-14.5745	-35.197859	0.000232	2.324728	0.787639	-0.000093
1373	1.3651e+02	-14.6065	-35.294399	0.000242	2.416494	0.818730	-0.000097
1374	1.3661e+02	-14.6755	-35.385236	0.000227	2.273747	0.770366	-0.000091
1375	1.3671e+02	-14.7317	-35.475259	0.000225	2.253355	0.763457	-0.000090
1376	1.3681e+02	-14.7638	-35.568541	0.000233	2.334924	0.791094	-0.000094
1377	1.3691e+02	-14.8007	-35.665895	0.000244	2.436886	0.825639	-0.000098
1378	1.3701e+02	-14.8343	-35.766916	0.000253	2.528652	0.856730	-0.000102
1379	1.3711e+02	-14.8712	-35.865901	0.000248	2.477671	0.839458	-0.000099
1380	1.3721e+02	-14.9162	-35.951850	0.000215	2.151393	0.728912	-0.000086
1381	1.3731e+02	-14.9659	-36.037392	0.000214	2.141197	0.725457	-0.000086
1382	1.3741e+02	-15.0156	-36.127822	0.000226	2.263551	0.766912	-0.000091
1383	1.3751e+02	-15.0397	-36.206439	0.000197	1.967862	0.666730	-0.000079
1384	1.3761e+02	-15.0862	-36.296462	0.000225	2.253355	0.763457	-0.000090
1385	1.3771e+02	-15.1520	-36.386484	0.000225	2.253355	0.763457	-0.000090
1386	1.3781e+02	-15.1568	-36.468768	0.000206	2.059628	0.697821	-0.000083
1387	1.3791e+02	-15.1905	-36.558383	0.000224	2.243159	0.760003	-0.000090
1388	1.3801e+02	-15.2194	-36.634149	0.000190	1.896489	0.642548	-0.000076
1389	1.3811e+02	-15.2402	-36.715617	0.000204	2.039235	0.690912	-0.000082
1390	1.3821e+02	-15.2980	-36.810528	0.000238	2.375709	0.804912	-0.000095
1391	1.3831e+02	-15.3236	-36.903402	0.000232	2.324728	0.787639	-0.000093
1392	1.3840e+02	-15.3686	-36.996276	0.000232	2.324728	0.787639	-0.000093
1393	1.3850e+02	-15.4167	-37.085892	0.000224	2.243159	0.760003	-0.000090
1394	1.3860e+02	-15.4841	-37.181617	0.000240	2.396101	0.811821	-0.000096
1395	1.3870e+02	-15.5049	-37.278157	0.000242	2.416494	0.818730	-0.000097
1396	1.3880e+02	-15.5466	-37.379178	0.000253	2.528652	0.856730	-0.000102
1397	1.3890e+02	-15.6028	-37.478977	0.000250	2.498063	0.846367	-0.000100
1398	1.3900e+02	-15.6284	-37.567370	0.000221	2.212570	0.749639	-0.000089
1399	1.3910e+02	-15.6718	-37.652098	0.000212	2.120805	0.718548	-0.000085
1400	1.3920e+02	-15.7263	-37.740491	0.000221	2.212570	0.749639	-0.000089
1401	1.3930e+02	-15.7568	-37.821960	0.000204	2.039235	0.690912	-0.000082
1402	1.3940e+02	-15.7937	-37.906687	0.000212	2.120805	0.718548	-0.000085
1403	1.3950e+02	-15.8290	-37.992229	0.000214	2.141197	0.725457	-0.000086
1404	1.3960e+02	-15.8643	-38.075734	0.000209	2.090216	0.708184	-0.000084
1405	1.3970e+02	-15.9076	-38.167386	0.000229	2.294140	0.777276	-0.000092
1406	1.3980e+02	-15.9172	-38.237449	0.000175	1.753742	0.594184	-0.000070
1407	1.3990e+02	-15.9589	-38.327064	0.000224	2.243159	0.760003	-0.000090
1408	1.4000e+02	-16.0151	-38.415050	0.000220	2.202374	0.746185	-0.000088
1409	1.4010e+02	-16.0728	-38.517701	0.000257	2.569436	0.870549	-0.000103
1410	1.4020e+02	-16.1065	-38.607723	0.000225	2.253355	0.763457	-0.000090
1411	1.4029e+02	-16.1530	-38.700597	0.000232	2.324728	0.787639	-0.000093
1412	1.4039e+02	-16.2076	-38.797138	0.000242	2.416494	0.818730	-0.000097
1413	1.4049e+02	-16.2204	-38.892456	0.000239	2.385905	0.808367	-0.000096
1414	1.4059e+02	-16.2653	-38.988589	0.000241	2.406298	0.815276	-0.000097
1415	1.4069e+02	-16.3167	-39.080648	0.000230	2.304336	0.780730	-0.000093
1416	1.4079e+02	-16.3535	-39.166190	0.000214	2.141197	0.725457	-0.000086
1417	1.4089e+02	-16.4001	-39.254583	0.000221	2.212570	0.749639	-0.000089
1418	1.4099e+02	-16.4386	-39.336867	0.000206	2.059628	0.697821	-0.000083
1419	1.4109e+02	-16.4626	-39.417520	0.000202	2.018843	0.684003	-0.000081
1420	1.4119e+02	-16.5108	-39.501433	0.000210	2.100412	0.711639	-0.000084
1421	1.4129e+02	-16.5605	-39.581679	0.000201	2.008647	0.680548	-0.000081
1422	1.4139e+02	-16.5733	-39.668443	0.000217	2.171786	0.735821	-0.000087
1423	1.4149e+02	-16.6054	-39.736470	0.000170	1.702761	0.576911	-0.000068
1424	1.4159e+02	-16.6600	-39.835454	0.000248	2.477671	0.839458	-0.000099
1425	1.4169e+02	-16.7241	-39.929143	0.000235	2.345121	0.794548	-0.000094
1426	1.4179e+02	-16.7338	-40.022424	0.000233	2.334924	0.791094	-0.000094
1427	1.4189e+02	-16.7674	-40.112447	0.000225	2.253355	0.763457	-0.000090
1428	1.4199e+02	-16.8140	-40.206136	0.000235	2.345121	0.794548	-0.000094
1429	1.4209e+02	-16.8573	-40.293714	0.000219	2.192178	0.742730	-0.000088
1430	1.4219e+02	-16.9006	-40.386588	0.000232	2.324728	0.787639	-0.000093
1431	1.4228e+02	-16.9455	-40.477833	0.000228	2.283944	0.773821	-0.000092
1432	1.4238e+02	-16.9920	-40.571929	0.000236	2.355317	0.798003	-0.000095
1433	1.4248e+02	-17.0257	-40.671321	0.000249	2.487867	0.842912	-0.000100
1434	1.4258e+02	-17.0755	-40.763380	0.000230	2.304336	0.780730	-0.000093
1435	1.4268e+02	-17.1027	-40.847700	0.000211	2.110609	0.715094	-0.000085
1436	1.4278e+02	-17.1236	-40.932835	0.000213	2.131001	0.722003	-0.000086
1437	1.4288e+02	-17.2006	-41.022857	0.000225	2.253355	0.763457	-0.000090
1438	1.4298e+02	-17.2198	-41.106770	0.000210	2.100412	0.711639	-0.000084
1439	1.4308e+02	-17.2407	-41.184165	0.000194	1.937274	0.656366	-0.000078
1440	1.4318e+02	-17.3000	-41.270929	0.000217	2.171786	0.735821	-0.000087
1441	1.4328e+02	-17.3450	-41.358508	0.000219	2.192178	0.742730	-0.000088
1442	1.4338e+02	-17.3722	-41.457492	0.000248	2.477671	0.839458	-0.000099
1443	1.4348e+02	-17.4091	-41.548737	0.000228	2.283944	0.773821	-0.000092
1444	1.4358e+02	-17.4637	-41.641203	0.000231	2.314532	0.784185	-0.000093
1445	1.4368e+02	-17.5118	-41.732041	0.000227	2.273747	0.770366	-0.000091
1446	1.4378e+02	-17.5519	-41.821249	0.000223	2.232963	0.756548	-0.000090
1447	1.4388e+02	-17.5792	-41.913716	0.000231	2.314532	0.784185	-0.000093
1448	1.4398e+02	-17.6177	-42.005368	0.000229	2.294140	0.777276	-0.000092
1449	1.4408e+02	-17.6658	-42.097834	0.000231	2.314532	0.784185	-0.000093
1450	1.4418e+02	-17.7123	-42.184598	0.000217	2.171786	0.735821	-0.000087
1451	1.4428e+02	-17.7460	-42.283990	0.000249	2.487867	0.842912	-0.000100
1452	1.4437e+02	-17.7877	-42.385011	0.000253	2.528652	0.856730	-0.000102
1453	1.4447e+02	-17.8070	-42.472182	0.000218	2.181982	0.739275	-0.000088
1454	1.4457e+02	-17.8471	-42.552021	0.000200	1.998451	0.677093	-0.000080
1455	1.4467e+02	-17.8952	-42.633897	0.000205	2.049431	0.694366	-0.000082
1456	1.4477e+02	-17.9048	-42.710885	0.000193	1.927077	0.652911	-0.000077
1457	1.4487e+02	-17.9626	-42.802944	0.000230	2.304336	0.780730	-0.000093
1458	1.4497e+02	-18.0043	-42.889708	0.000217	2.171786	0.735821	-0.000087
1459	1.4507e+02	-18.0524	-42.981360	0.000229	2.294140	0.777276	-0.000092
1460	1.4517e+02	-18.1006	-43.069754	0.000221	2.212570	0.749639	-0.000089
1461	1.4527e+02	-18.1551	-43.168738	0.000248	2.477671	0.839458	-0.000099
1462	1.4537e+02	-18.1727	-43.259168	0.000226	2.263551	0.766912	-0.000091
1463	1.4547e+02	-18.2145	-43.350005	0.000227	2.273747	0.770366	-0.000091
1464	1.4557e+02	-18.2514	-43.438399	0.000221	2.212570	0.749639	-0.000089
1465	1.4567e+02	-18.3107	-43.525163	0.000217	2.171786	0.735821	-0.000087
1466	1.4577e+02	-18.3300	-43.625776	0.000252	2.518456	0.853276	-0.000101
1467	1.4587e+02	-18.3861	-43.711318	0.000214	2.141197	0.725457	-0.000086
1468	1.4597e+02	-18.4134	-43.800934	0.000224	2.243159	0.760003	-0.000090
1469	1.4607e+02	-18.4423	-43.898696	0.000245	2.447082	0.829094	-0.000098
1470	1.4617e+02	-18.5080	-44.004605	0.000265	2.651006	0.898185	-0.000106
1471	1.4626e+02	-18.5385	-44.089739	0.000213	2.131001	0.722003	-0.000086
1472	1.4636e+02	-18.5979	-44.167542	0.000195	1.947470	0.659821	-0.000078
1473	1.4646e+02	-18.6011	-44.249418	0.000205	2.049431	0.694366	-0.000082
1474	1.4656e+02	-18.6524	-44.341884	0.000231	2.314532	0.784185	-0.000093
1475	1.4666e+02	-18.6781	-44.435166	0.000233	2.334924	0.791094	-0.000094
1476	1.4676e+02	-18.7150	-44.525189	0.000225	2.253355	0.763457	-0.000090
1477	1.4686e+02	-18.7679	-44.619285	0.000236	2.355317	0.798003	-0.000095
1478	1.4696e+02	-18.7984	-44.708900	0.000224	2.243159	0.760003	-0.000090
1479	1.4706e+02	-18.8465	-44.798108	0.000223	2.232963	0.756548	-0.000090
1480	1.4716e+02	-18.8914	-44.891797	0.000235	2.345121	0.794548	-0.000094
1481	1.4726e+02	-18.9412	-44.982634	0.000227	2.273747	0.770366	-0.000091
1482	1.4736e+02	-18.9684	-45.077138	0.000237	2.365513	0.801457	-0.000095
1483	1.4746e+02	-19.0214	-45.170012	0.000232	2.324728	0.787639	-0.000093
1484	1.4756e+02	-19.0679	-45.262071	0.000230	2.304336	0.780730	-0.000093
1485	1.4766e+02	-19.1000	-45.352909	0.000227	2.273747	0.770366	-0.000091
1486	1.4776e+02	-19.1417	-45.452708	0.000250	2.498063	0.846367	-0.000100
1487	1.4786e+02	-19.1866	-45.548026	0.000239	2.385905	0.808367	-0.000096
1488	1.4796e+02	-19.2203	-45.652305	0.000261	2.610221	0.884367	-0.000105
1489	1.4806e+02	-19.2668	-45.744772	0.000231	2.314532	0.784185	-0.000093
1490	1.4816e+02	-19.2829	-45.825833	0.000203	2.029039	0.687457	-0.000081
1491	1.4825e+02	-19.3262	-45.910561	0.000212	2.120805	0.718548	-0.000085
1492	1.4835e+02	-19.3711	-45.998954	0.000221	2.212570	0.749639	-0.000089
1493	1.4845e+02	-19.3872	-46.100790	0.000255	2.549044	0.863640	-0.000102
1494	1.4855e+02	-19.4417	-46.189590	0.000222	2.222766	0.753094	-0.000089
1495	1.4865e+02	-19.4866	-46.277984	0.000221	2.212570	0.749639	-0.000089
1496	1.4875e+02	-19.5251	-46.383893	0.000265	2.651006	0.898185	-0.000106
1497	1.4885e+02	-19.5604	-46.472693	0.000222	2.222766	0.753094	-0.000089
1498	1.4895e+02	-19.6182	-46.572085	0.000249	2.487867	0.842912	-0.000100
1499	1.4905e+02	-19.6519	-46.665774	0.000235	2.345121	0.794548	-0.000094
1500	1.4915e+02	-19.6952	-46.769239	0.000259	2.589829	0.877458	-0.000104
1501	1.4925e+02	-19.7289	-46.868223	0.000248	2.477671	0.839458	-0.000099
1502	1.4935e+02	-19.7786	-46.968837	0.000252	2.518456	0.853276	-0.000101
1503	1.4945e+02	-19.8187	-47.065377	0.000242	2.416494	0.818730	-0.000097
1504	1.4955e+02	-19.8508	-47.163546	0.000246	2.457279	0.832549	-0.000099
1505	1.4965e+02	-19.9133	-47.271085	0.000269	2.691791	0.912003	-0.000108
1506	1.4975e+02	-19.9438	-47.373328	0.000256	2.559240	0.867094	-0.000103
1507	1.4985e+02	-19.9551	-47.482903	0.000274	2.742771	0.929276	-0.000110
1508	1.4995e+02	-19.9117	-47.416099	0.000167	1.672173	0.566548	0.000067
1509	1.5005e+02	-19.8764	-47.355405	0.000152	1.519230	0.514729	0.000061
1510	1.5015e+02	-19.8363	-47.293081	0.000156	1.560015	0.528547	0.000063
1511	1.5025e+02	-19.7834	-47.231980	0.000153	1.529426	0.518184	0.000061
1512	1.5034e+02	-19.7722	-47.173323	0.000147	1.468249	0.497456	0.000059
1513	1.5044e+02	-19.7289	-47.112221	0.000153	1.529426	0.518184	0.000061
1514	1.5054e+02	-19.6743	-47.049083	0.000158	1.580407	0.535457	0.000063
1515	1.5064e+02	-19.6422	-46.987574	0.000154	1.539623	0.521638	0.000062
1516	1.5074e+02	-19.6069	-46.921992	0.000164	1.641584	0.556184	0.000066
1517	1.5084e+02	-19.5732	-46.858039	0.000160	1.600800	0.542366	0.000064
1518	1.5094e+02	-19.5347	-46.792050	0.000165	1.651781	0.559638	0.000066
1519	1.5104e+02	-19.4978	-46.728504	0.000159	1.590604	0.538911	0.000064
1520	1.5114e+02	-19.4593	-46.652739	0.000190	1.896489	0.642548	0.000076
1521	1.5124e+02	-19.4160	-46.588379	0.000161	1.610996	0.545820	0.000065
1522	1.5134e+02	-19.3519	-46.511798	0.000192	1.916881	0.649457	0.000077
1523	1.5144e+02	-19.3134	-46.449067	0.000157	1.570211	0.532002	0.000063
1524	1.5154e+02	-19.2765	-46.380227	0.000172	1.723154	0.583820	0.000069
1525	1.5164e+02	-19.2396	-46.315866	0.000161	1.610996	0.545820	0.000065
1526	1.5174e+02	-19.2075	-46.243359	0.000181	1.814919	0.614911	0.000073
1527	1.5184e+02	-19.1738	-46.172075	0.000178	1.784331	0.604548	0.000072
1528	1.5194e+02	-19.1417	-46.099160	0.000183	1.825116	0.618366	0.000073
1529	1.5204e+02	-19.1048	-46.031949	0.000168	1.682369	0.570002	0.000068
1530	1.5214e+02	-19.0615	-45.961886	0.000175	1.753742	0.594184	0.000070
1531	1.5224e+02	-19.0037	-45.888157	0.000185	1.845508	0.625275	0.000074
1532	1.5233e+02	-18.9652	-45.813613	0.000187	1.865900	0.632184	0.000075
1533	1.5243e+02	-18.9476	-45.741513	0.000180	1.804723	0.611457	0.000072
1534	1.5253e+02	-18.8882	-45.673895	0.000169	1.692565	0.573457	0.000068
1535	1.5263e+02	-18.8626	-45.598129	0.000190	1.896489	0.642548	0.000076
1536	1.5273e+02	-18.8112	-45.524400	0.000185	1.845508	0.625275	0.000074
1537	1.5283e+02	-18.7759	-45.454744	0.000174	1.743546	0.590729	0.000070
1538	1.5293e+02	-18.7503	-45.381015	0.000185	1.845508	0.625275	0.000074
1539	1.5303e+02	-18.7182	-45.303620	0.000194	1.937274	0.656366	0.000078
1540	1.5313e+02	-18.6524	-45.231521	0.000180	1.804723	0.611457	0.000072
1541	1.5323e+02	-18.6235	-45.159014	0.000181	1.814919	0.614911	0.000073
1542	1.5333e+02	-18.5722	-45.081211	0.000195	1.947470	0.659821	0.000078
1543	1.5343e+02	-18.5273	-45.020924	0.000151	1.509034	0.511275	0.000061
1544	1.5353e+02	-18.4824	-44.945973	0.000188	1.876096	0.635639	0.000075
1545	1.5363e+02	-18.4567	-44.872244	0.000185	1.845508	0.625275	0.000074
1546	1.5373e+02	-18.4166	-44.800145	0.000180	1.804723	0.611457	0.000072
1547	1.5383e+02	-18.3909	-44.721528	0.000197	1.967862	0.666730	0.000079
1548	1.5393e+02	-18.3460	-44.648206	0.000184	1.835312	0.621820	0.000074
1549	1.5403e+02	-18.2899	-44.568774	0.000199	1.988254	0.673639	0.000080
1550	1.5413e+02	-18.2610	-44.497082	0.000179	1.794527	0.608002	0.000072
1551	1.5422e+02	-18.2113	-44.413577	0.000209	2.090216	0.708184	0.000084
1552	1.5432e+02	-18.1744	-44.345958	0.000169	1.692565	0.573457	0.000068
1553	1.5442e+02	-18.1455	-44.270192	0.000190	1.896489	0.642548	0.000076
1554	1.5452e+02	-18.1150	-44.192390	0.000195	1.947470	0.659821	0.000078
1555	1.5462e+02	-18.0829	-44.114995	0.000194	1.937274	0.656366	0.000078
1556	1.5472e+02	-18.0428	-44.041673	0.000184	1.835312	0.621820	0.000074
1557	1.5482e+02	-17.9995	-43.959390	0.000206	2.059628	0.697821	0.000083
1558	1.5492e+02	-17.9225	-43.881587	0.000195	1.947470	0.659821	0.000078
1559	1.5502e+02	-17.9032	-43.803378	0.000196	1.957666	0.663275	0.000079
1560	1.5512e+02	-17.8423	-43.728427	0.000188	1.876096	0.635639	0.000075
1561	1.5522e+02	-17.7974	-43.664881	0.000159	1.590604	0.538911	0.000064
1562	1.5532e+02	-17.7845	-43.594004	0.000177	1.774135	0.601093	0.000071
1563	1.5542e+02	-17.7348	-43.515794	0.000196	1.957666	0.663275	0.000079
1564	1.5552e+02	-17.6690	-43.434733	0.000203	2.029039	0.687457	0.000081
1565	1.5562e+02	-17.6610	-43.361411	0.000184	1.835312	0.621820	0.000074
1566	1.5572e+02	-17.6209	-43.284423	0.000193	1.927077	0.652911	0.000077
1567	1.5582e+02	-17.5792	-43.206213	0.000196	1.957666	0.663275	0.000079
1568	1.5592e+02	-17.5503	-43.129226	0.000193	1.927077	0.652911	0.000077
1569	1.5602e+02	-17.5006	-43.052645	0.000192	1.916881	0.649457	0.000077
1570	1.5612e+02	-17.4765	-42.973621	0.000198	1.978058	0.670184	0.000079
1571	1.5622e+02	-17.4364	-42.894189	0.000199	1.988254	0.673639	0.000080
1572	1.5631e+02	-17.3851	-42.813943	0.000201	2.008647	0.680548	0.000081
1573	1.5641e+02	-17.3418	-42.737769	0.000191	1.906685	0.646002	0.000077
1574	1.5651e+02	-17.3017	-42.658338	0.000199	1.988254	0.673639	0.000080
1575	1.5661e+02	-17.2792	-42.585423	0.000183	1.825116	0.618366	0.000073
1576	1.5671e+02	-17.2295	-42.500289	0.000213	2.131001	0.722003	0.000086
1577	1.5681e+02	-17.1541	-42.419228	0.000203	2.029039	0.687457	0.000081
1578	1.5691e+02	-17.1204	-42.351201	0.000170	1.702761	0.576911	0.000068
1579	1.5701e+02	-17.0931	-42.286841	0.000161	1.610996	0.545820	0.000065
1580	1.5711e+02	-17.0610	-42.209854	0.000193	1.927077	0.652911	0.000077
1581	1.5721e+02	-17.0289	-42.128792	0.000203	2.029039	0.687457	0.000081
1582	1.5731e+02	-16.9872	-42.046509	0.000206	2.059628	0.697821	0.000083
1583	1.5741e+02	-16.9616	-41.971151	0.000189	1.886293	0.639093	0.000076
1584	1.5751e+02	-16.9150	-41.890497	0.000202	2.018843	0.684003	0.000081
1585	1.5761e+02	-16.8669	-41.807806	0.000207	2.069824	0.701275	0.000083
1586	1.5771e+02	-16.8300	-41.720228	0.000219	2.192178	0.742730	0.000088
1587	1.5781e+02	-16.7995	-41.644462	0.000190	1.896489	0.642548	0.000076
1588	1.5791e+02	-16.7690	-41.561364	0.000208	2.080020	0.704730	0.000084
1589	1.5801e+02	-16.6840	-41.476637	0.000212	2.120805	0.718548	0.000085
1590	1.5811e+02	-16.6792	-41.397612	0.000198	1.978058	0.670184	0.000079
1591	1.5821e+02	-16.6455	-41.314515	0.000208	2.080020	0.704730	0.000084
1592	1.5830e+02	-16.5814	-41.242822	0.000179	1.794527	0.608002	0.000072
1593	1.5840e+02	-16.5300	-41.153614	0.000223	2.232963	0.756548	0.000090
1594	1.5850e+02	-16.5076	-41.070924	0.000207	2.069824	0.701275	0.000083
1595	1.5860e+02	-16.4578	-40.995565	0.000189	1.886293	0.639093	0.000076
1596	1.5870e+02	-16.4129	-40.937315	0.000146	1.458053	0.494002	0.000059
1597	1.5880e+02	-16.3808	-40.865216	0.000180	1.804723	0.611457	0.000072
1598	1.5890e+02	-16.3535	-40.782933	0.000206	2.059628	0.697821	0.000083
1599	1.5900e+02	-16.3006	-40.699427	0.000209	2.090216	0.708184	0.000084
1600	1.5910e+02	-16.2782	-40.619588	0.000200	1.998451	0.677093	0.000080
1601	1.5920e+02	-16.2172	-40.538934	0.000202	2.018843	0.684003	0.000081
1602	1.5930e+02	-16.1899	-40.454614	0.000211	2.110609	0.715094	0.000085
1603	1.5940e+02	-16.1546	-40.371517	0.000208	2.080020	0.704730	0.000084
1604	1.5950e+02	-16.1193	-40.294529	0.000193	1.927077	0.652911	0.000077
1605	1.5960e+02	-16.0744	-40.218763	0.000190	1.896489	0.642548	0.000076
1606	1.5970e+02	-16.0423	-40.136073	0.000207	2.069824	0.701275	0.000083
1607	1.5980e+02	-15.9990	-40.059085	0.000193	1.927077	0.652911	0.000077
1608	1.5990e+02	-15.9493	-39.978431	0.000202	2.018843	0.684003	0.000081
1609	1.6000e+02	-15.9220	-39.901443	0.000193	1.927077	0.652911	0.000077
1610	1.6010e+02	-15.8627	-39.822012	0.000199	1.988254	0.673639	0.000080
1611	1.6019e+02	-15.8161	-39.734026	0.000220	2.202374	0.746185	0.000088
1612	1.6029e+02	-15.7552	-39.645225	0.000222	2.222766	0.753094	0.000089
1613	1.6039e+02	-15.7247	-39.574347	0.000177	1.774135	0.601093	0.000071
1614	1.6049e+02	-15.7103	-39.506321	0.000170	1.702761	0.576911	0.000068
1615	1.6059e+02	-15.6541	-39.440739	0.000164	1.641584	0.556184	0.000066
1616	1.6069e+02	-15.6397	-39.354382	0.000216	2.161589	0.732366	0.000087
1617	1.6079e+02	-15.5851	-39.270877	0.000209	2.090216	0.708184	0.000084
1618	1.6089e+02	-15.5434	-39.190223	0.000202	2.018843	0.684003	0.000081
1619	1.6099e+02	-15.5145	-39.112828	0.000194	1.937274	0.656366	0.000078
1620	1.6109e+02	-15.4776	-39.028916	0.000210	2.100412	0.711639	0.000084
1621	1.6119e+02	-15.4135	-38.942559	0.000216	2.161589	0.732366	0.000087
1622	1.6129e+02	-15.3990	-38.860276	0.000206	2.059628	0.697821	0.000083
1623	1.6139e+02	-15.3702	-38.780029	0.000201	2.008647	0.680548	0.000081
1624	1.6149e+02	-15.3188	-38.694487	0.000214	2.141197	0.725457	0.000086
1625	1.6159e+02	-15.2707	-38.615056	0.000199	1.988254	0.673639	0.000080
1626	1.6169e+02	-15.2306	-38.534402	0.000202	2.018843	0.684003	0.000081
1627	1.6179e+02	-15.2081	-38.452526	0.000205	2.049431	0.694366	0.000082
1628	1.6189e+02	-15.1600	-38.366577	0.000215	2.151393	0.728912	0.000086
1629	1.6199e+02	-15.1022	-38.278998	0.000219	2.192178	0.742730	0.000088
1630	1.6209e+02	-15.0670	-38.195900	0.000208	2.080020	0.704730	0.000084
1631	1.6219e+02	-15.0301	-38.122578	0.000184	1.835312	0.621820	0.000074
1632	1.6228e+02	-14.9867	-38.061884	0.000152	1.519230	0.514729	0.000061
1633	1.6238e+02	-14.9482	-37.981638	0.000201	2.008647	0.680548	0.000081
1634	1.6248e+02	-14.9033	-37.896096	0.000214	2.141197	0.725457	0.000086
1635	1.6258e+02	-14.8873	-37.812183	0.000210	2.100412	0.711639	0.000084
1636	1.6268e+02	-14.8327	-37.730308	0.000205	2.049431	0.694366	0.000082
1637	1.6278e+02	-14.8055	-37.639877	0.000226	2.263551	0.766912	0.000091
1638	1.6288e+02	-14.7670	-37.558409	0.000204	2.039235	0.690912	0.000082
1639	1.6298e+02	-14.7028	-37.473682	0.000212	2.120805	0.718548	0.000085
1640	1.6308e+02	-14.6595	-37.396287	0.000194	1.937274	0.656366	0.000078
1641	1.6318e+02	-14.6370	-37.311559	0.000212	2.120805	0.718548	0.000085
1642	1.6328e+02	-14.5745	-37.229684	0.000205	2.049431	0.694366	0.000082
1643	1.6338e+02	-14.5568	-37.149844	0.000200	1.998451	0.677093	0.000080
1644	1.6348e+02	-14.5376	-37.067154	0.000207	2.069824	0.701275	0.000083
1645	1.6358e+02	-14.4670	-36.976316	0.000227	2.273747	0.770366	0.000091
1646	1.6368e+02	-14.4076	-36.887108	0.000223	2.232963	0.756548	0.000090
1647	1.6378e+02	-14.3691	-36.801974	0.000213	2.131001	0.722003	0.000086
1648	1.6388e+02	-14.3354	-36.726615	0.000189	1.886293	0.639093	0.000076
1649	1.6398e+02	-14.3065	-36.649220	0.000194	1.937274	0.656366	0.000078
1650	1.6408e+02	-14.2809	-36.586897	0.000156	1.560015	0.528547	0.000063
1651	1.6418e+02	-14.2360	-36.500133	0.000217	2.171786	0.735821	0.000087
1652	1.6427e+02	-14.2007	-36.419072	0.000203	2.029039	0.687457	0.000081
1653	1.6437e+02	-14.1606	-36.332715	0.000216	2.161589	0.732366	0.000087
1654	1.6447e+02	-14.0980	-36.252061	0.000202	2.018843	0.684003	0.000081
1655	1.6457e+02	-14.0771	-36.162446	0.000224	2.243159	0.760003	0.000090
1656	1.6467e+02	-14.0354	-36.073238	0.000223	2.232963	0.756548	0.000090
1657	1.6477e+02	-14.0194	-35.988918	0.000211	2.110609	0.715094	0.000085
1658	1.6487e+02	-13.9568	-35.904191	0.000212	2.120805	0.718548	0.000085
1659	1.6497e+02	-13.9360	-35.820278	0.000210	2.100412	0.711639	0.000084
1660	1.6507e+02	-13.8911	-35.736773	0.000209	2.090216	0.708184	0.000084
1661	1.6517e+02	-13.8429	-35.647972	0.000222	2.222766	0.753094	0.000089
1662	1.6527e+02	-13.8044	-35.559986	0.000220	2.202374	0.746185	0.000088
1663	1.6537e+02	-13.7451	-35.467112	0.000232	2.324728	0.787639	0.000093
1664	1.6547e+02	-13.7082	-35.384014	0.000208	2.080020	0.704730	0.000084
1665	1.6557e+02	-13.6665	-35.302953	0.000203	2.029039	0.687457	0.000081
1666	1.6567e+02	-13.6247	-35.225965	0.000193	1.927077	0.652911	0.000077
1667	1.6577e+02	-13.5862	-35.157939	0.000170	1.702761	0.576911	0.000068
1668	1.6587e+02	-13.5814	-35.085432	0.000181	1.814919	0.614911	0.000073
1669	1.6597e+02	-13.5060	-35.005593	0.000200	1.998451	0.677093	0.000080
1670	1.6607e+02	-13.4788	-34.918422	0.000218	2.181982	0.739275	0.000088
1671	1.6616e+02	-13.4611	-34.837361	0.000203	2.029039	0.687457	0.000081
1672	1.6626e+02	-13.3937	-34.751411	0.000215	2.151393	0.728912	0.000086
1673	1.6636e+02	-13.3584	-34.669943	0.000204	2.039235	0.690912	0.000082
1674	1.6646e+02	-13.3119	-34.581142	0.000222	2.222766	0.753094	0.000089
1675	1.6656e+02	-13.2943	-34.499674	0.000204	2.039235	0.690912	0.000082
1676	1.6666e+02	-13.2494	-34.408429	0.000228	2.283944	0.773821	0.000092
1677	1.6676e+02	-13.1948	-34.325738	0.000207	2.069824	0.701275	0.000083
1678	1.6686e+02	-13.1627	-34.232457	0.000233	2.334924	0.791094	0.000094
1679	1.6696e+02	-13.0937	-34.149766	0.000207	2.069824	0.701275	0.000083
1680	1.6706e+02	-13.0857	-34.051597	0.000246	2.457279	0.832549	0.000099
1681	1.6716e+02	-13.0280	-33.964018	0.000219	2.192178	0.742730	0.000088
1682	1.6726e+02	-12.9863	-33.879291	0.000212	2.120805	0.718548	0.000085
1683	1.6736e+02	-12.9365	-33.801489	0.000195	1.947470	0.659821	0.000078
1684	1.6746e+02	-12.9173	-33.734277	0.000168	1.682369	0.570002	0.000068
1685	1.6756e+02	-12.8692	-33.659326	0.000188	1.876096	0.635639	0.000075
1686	1.6766e+02	-12.8371	-33.580302	0.000198	1.978058	0.670184	0.000079
1687	1.6776e+02	-12.8034	-33.493538	0.000217	2.171786	0.735821	0.000087
1688	1.6786e+02	-12.7649	-33.405552	0.000220	2.202374	0.746185	0.000088
1689	1.6796e+02	-12.7248	-33.313085	0.000231	2.314532	0.784185	0.000093
1690	1.6806e+02	-12.6927	-33.228358	0.000212	2.120805	0.718548	0.000085
1691	1.6816e+02	-12.6478	-33.130595	0.000245	2.447082	0.829094	0.000098
1692	1.6825e+02	-12.6012	-33.044646	0.000215	2.151393	0.728912	0.000086
1693	1.6835e+02	-12.5579	-32.959512	0.000213	2.131001	0.722003	0.000086
1694	1.6845e+02	-12.5531	-32.872340	0.000218	2.181982	0.739275	0.000088
1695	1.6855e+02	-12.4938	-32.781503	0.000227	2.273747	0.770366	0.000091
1696	1.6865e+02	-12.4537	-32.695961	0.000214	2.141197	0.725457	0.000086
1697	1.6875e+02	-12.4152	-32.607568	0.000221	2.212570	0.749639	0.000089
1698	1.6885e+02	-12.3446	-32.515916	0.000229	2.294140	0.777276	0.000092
1699	1.6895e+02	-12.3173	-32.421005	0.000238	2.375709	0.804912	0.000095
1700	1.6905e+02	-12.2628	-32.342795	0.000196	1.957666	0.663275	0.000079
1701	1.6915e+02	-12.2339	-32.261734	0.000203	2.029039	0.687457	0.000081
1702	1.6925e+02	-12.2018	-32.191263	0.000176	1.763939	0.597639	0.000071
1703	1.6935e+02	-12.1569	-32.111424	0.000200	1.998451	0.677093	0.000080
1704	1.6945e+02	-12.1424	-32.020994	0.000226	2.263551	0.766912	0.000091
1705	1.6955e+02	-12.0815	-31.935045	0.000215	2.151393	0.728912	0.000086
1706	1.6965e+02	-12.0542	-31.847874	0.000218	2.181982	0.739275	0.000088
1707	1.6975e+02	-11.9836	-31.761110	0.000217	2.171786	0.735821	0.000087
1708	1.6985e+02	-11.9708	-31.670680	0.000226	2.263551	0.766912	0.000091
1709	1.6995e+02	-11.9291	-31.579028	0.000229	2.294140	0.777276	0.000092
1710	1.7005e+02	-11.8777	-31.493486	0.000214	2.141197	0.725457	0.000086
1711	1.7015e+02	-11.8489	-31.406722	0.000217	2.171786	0.735821	0.000087
1712	1.7024e+02	-11.8120	-31.315070	0.000229	2.294140	0.777276	0.000092
1713	1.7034e+02	-11.7815	-31.230342	0.000212	2.120805	0.718548	0.000085
1714	1.7044e+02	-11.7334	-31.141542	0.000222	2.222766	0.753094	0.000089
1715	1.7054e+02	-11.7013	-31.059666	0.000205	2.049431	0.694366	0.000082
1716	1.7064e+02	-11.6355	-30.960682	0.000248	2.477671	0.839458	0.000099
1717	1.7074e+02	-11.5729	-30.867808	0.000232	2.324728	0.787639	0.000093
1718	1.7084e+02	-11.5360	-30.789190	0.000197	1.967862	0.666730	0.000079
1719	1.7094e+02	-11.5264	-30.708944	0.000201	2.008647	0.680548	0.000081
1720	1.7104e+02	-11.4895	-30.634400	0.000187	1.865900	0.632184	0.000075
1721	1.7114e+02	-11.4478	-30.559042	0.000189	1.886293	0.639093	0.000076
1722	1.7124e+02	-11.3933	-30.469019	0.000225	2.253355	0.763457	0.000090
1723	1.7134e+02	-11.3660	-30.379811	0.000223	2.232963	0.756548	0.000090
1724	1.7144e+02	-11.3291	-30.289381	0.000226	2.263551	0.766912	0.000091
1725	1.7154e+02	-11.2922	-30.201395	0.000220	2.202374	0.746185	0.000088
1726	1.7164e+02	-11.2537	-30.108114	0.000233	2.334924	0.791094	0.000094
1727	1.7174e+02	-11.2312	-30.016054	0.000230	2.304336	0.780730	0.000093
1728	1.7184e+02	-11.1943	-29.930920	0.000213	2.131001	0.722003	0.000086
1729	1.7194e+02	-11.1334	-29.842934	0.000220	2.202374	0.746185	0.000088
1730	1.7204e+02	-11.1109	-29.754133	0.000222	2.222766	0.753094	0.000089
1731	1.7213e+02	-11.0580	-29.667776	0.000216	2.161589	0.732366	0.000087
1732	1.7223e+02	-10.9986	-29.582642	0.000213	2.131001	0.722003	0.000086
1733	1.7233e+02	-10.9665	-29.483658	0.000248	2.477671	0.839458	0.000099
1734	1.7243e+02	-10.9008	-29.389969	0.000235	2.345121	0.794548	0.000094
1735	1.7253e+02	-10.8671	-29.299946	0.000225	2.253355	0.763457	0.000090
1736	1.7263e+02	-10.8318	-29.211960	0.000220	2.202374	0.746185	0.000088
1737	1.7273e+02	-10.8013	-29.133750	0.000196	1.957666	0.663275	0.000079
1738	1.7283e+02	-10.7484	-29.051874	0.000205	2.049431	0.694366	0.000082
1739	1.7293e+02	-10.7452	-28.980182	0.000179	1.794527	0.608002	0.000072
1740	1.7303e+02	-10.6617	-28.898714	0.000204	2.039235	0.690912	0.000082
1741	1.7313e+02	-10.6457	-28.808284	0.000226	2.263551	0.766912	0.000091
1742	1.7323e+02	-10.6088	-28.717446	0.000227	2.273747	0.770366	0.000091
1743	1.7333e+02	-10.5526	-28.626201	0.000228	2.283944	0.773821	0.000092
1744	1.7343e+02	-10.5270	-28.535771	0.000226	2.263551	0.766912	0.000091
1745	1.7353e+02	-10.4805	-28.446563	0.000223	2.232963	0.756548	0.000090
1746	1.7363e+02	-10.4756	-28.356133	0.000226	2.263551	0.766912	0.000091
1747	1.7373e+02	-10.4051	-28.268555	0.000219	2.192178	0.742730	0.000088
1748	1.7383e+02	-10.3970	-28.174866	0.000235	2.345121	0.794548	0.000094
1749	1.7393e+02	-10.3425	-28.089731	0.000213	2.131001	0.722003	0.000086
1750	1.7403e+02	-10.3072	-27.998487	0.000228	2.283944	0.773821	0.000092
1751	1.7413e+02	-10.2414	-27.906835	0.000229	2.294140	0.777276	0.000092
1752	1.7422e+02	-10.1837	-27.813146	0.000235	2.345121	0.794548	0.000094
1753	1.7432e+02	-10.1596	-27.710903	0.000256	2.559240	0.867094	0.000103
1754	1.7442e+02	-10.1179	-27.623731	0.000218	2.181982	0.739275	0.000088
1755	1.7452e+02	-10.0682	-27.540226	0.000209	2.090216	0.708184	0.000084
1756	1.7462e+02	-10.0136	-27.457128	0.000208	2.080020	0.704730	0.000084
1757	1.7472e+02	-10.0152	-27.377289	-0.000200	-1.998451	-0.677093	0.000080
1758	1.7482e+02	-9.9478	-27.293784	0.000209	2.090216	0.708184	0.000084
1759	1.7492e+02	-9.9190	-27.209057	0.000212	2.120805	0.718548	0.000085
1760	1.7502e+02	-9.9045	-27.118219	0.000227	2.273747	0.770366	0.000091
1761	1.7512e+02	-9.8612	-27.027789	0.000226	2.263551	0.766912	0.000091
1762	1.7522e+02	-9.8163	-26.931656	0.000241	2.406298	0.815276	0.000097
1763	1.7532e+02	-9.7874	-26.848966	0.000207	2.069824	0.701275	0.000083
1764	1.7542e+02	-9.7425	-26.753240	0.000240	2.396101	0.811821	0.000096
1765	1.7552e+02	-9.6944	-26.661181	0.000230	2.304336	0.780730	0.000093
1766	1.7562e+02	-9.6479	-26.571158	0.000225	2.253355	0.763457	0.000090
1767	1.7572e+02	-9.6334	-26.474618	0.000242	2.416494	0.818730	0.000097
1768	1.7582e+02	-9.5773	-26.386225	0.000221	2.212570	0.749639	0.000089
1769	1.7592e+02	-9.5468	-26.299053	0.000218	2.181982	0.739275	0.000088
1770	1.7602e+02	-9.4906	-26.199662	0.000249	2.487867	0.842912	0.000100
1771	1.7612e+02	-9.4265	-26.105158	0.000237	2.365513	0.801457	0.000095
1772	1.7621e+02	-9.3976	-26.024505	0.000202	2.018843	0.684003	0.000081
1773	1.7631e+02	-9.3655	-25.941407	0.000208	2.080020	0.704730	0.000084
1774	1.7641e+02	-9.3174	-25.855050	0.000216	2.161589	0.732366	0.000087
1775	1.7651e+02	-9.2885	-25.780099	0.000188	1.876096	0.635639	0.000075
1776	1.7661e+02	-9.2388	-25.700667	0.000199	1.988254	0.673639	0.000080
1777	1.7671e+02	-9.2324	-25.623272	0.000194	1.937274	0.656366	0.000078
1778	1.7681e+02	-9.1858	-25.532435	0.000227	2.273747	0.770366	0.000091
1779	1.7691e+02	-9.1393	-25.442412	0.000225	2.253355	0.763457	0.000090
1780	1.7701e+02	-9.1008	-25.348723	0.000235	2.345121	0.794548	0.000094
1781	1.7711e+02	-9.0671	-25.257479	0.000228	2.283944	0.773821	0.000092
1782	1.7721e+02	-9.0382	-25.166234	0.000228	2.283944	0.773821	0.000092
1783	1.7731e+02	-8.9677	-25.068472	0.000245	2.447082	0.829094	0.000098
1784	1.7741e+02	-8.9260	-24.978042	0.000226	2.263551	0.766912	0.000091
1785	1.7751e+02	-8.9035	-24.888019	0.000225	2.253355	0.763457	0.000090
1786	1.7761e+02	-8.8650	-24.793923	0.000236	2.355317	0.798003	0.000095
1787	1.7771e+02	-8.8153	-24.698605	0.000239	2.385905	0.808367	0.000096
1788	1.7781e+02	-8.7703	-24.599213	0.000249	2.487867	0.842912	0.000100
1789	1.7791e+02	-8.7158	-24.503080	0.000241	2.406298	0.815276	0.000097
1790	1.7801e+02	-8.6901	-24.421204	0.000205	2.049431	0.694366	0.000082
1791	1.7810e+02	-8.6388	-24.338514	0.000207	2.069824	0.701275	0.000083
1792	1.7820e+02	-8.6211	-24.250528	0.000220	2.202374	0.746185	0.000088
1793	1.7830e+02	-8.5987	-24.163356	0.000218	2.181982	0.739275	0.000088
1794	1.7840e+02	-8.5297	-24.084332	0.000198	1.978058	0.670184	0.000079
1795	1.7850e+02	-8.4960	-24.006122	0.000196	1.957666	0.663275	0.000079
1796	1.7860e+02	-8.4591	-23.917729	0.000221	2.212570	0.749639	0.000089
1797	1.7870e+02	-8.4270	-23.822818	0.000238	2.375709	0.804912	0.000095
1798	1.7880e+02	-8.4046	-23.733610	0.000223	2.232963	0.756548	0.000090
1799	1.7890e+02	-8.3500	-23.633811	0.000250	2.498063	0.846367	0.000100
1800	1.7900e+02	-8.3003	-23.542974	0.000227	2.273747	0.770366	0.000091
1801	1.7910e+02	-8.2618	-23.450507	0.000231	2.314532	0.784185	0.000093
1802	1.7920e+02	-8.2201	-23.356004	0.000237	2.365513	0.801457	0.000095
1803	1.7930e+02	-8.1848	-23.265166	0.000227	2.273747	0.770366	0.000091
1804	1.7940e+02	-8.1495	-23.171070	0.000236	2.355317	0.798003	0.000095
1805	1.7950e+02	-8.1094	-23.073308	0.000245	2.447082	0.829094	0.000098
1806	1.7960e+02	-8.0516	-22.970250	0.000258	2.579633	0.874003	0.000104
1807	1.7970e+02	-8.0051	-22.879820	0.000226	2.263551	0.766912	0.000091
1808	1.7980e+02	-7.9538	-22.799574	0.000201	2.008647	0.680548	0.000081
1809	1.7990e+02	-7.9201	-22.707922	0.000229	2.294140	0.777276	0.000092
1810	1.8000e+02	-7.8896	-22.622787	0.000213	2.131001	0.722003	0.000086
1811	1.8009e+02	-7.8623	-22.533172	0.000224	2.243159	0.760003	0.000090
1812	1.8019e+02	-7.7998	-22.455777	0.000194	1.937274	0.656366	0.000078
1813	1.8029e+02	-7.7645	-22.377567	0.000196	1.957666	0.663275	0.000079
1814	1.8039e+02	-7.7500	-22.285507	0.000230	2.304336	0.780730	0.000093
1815	1.8049e+02	-7.7003	-22.192633	0.000232	2.324728	0.787639	0.000093
1816	1.8059e+02	-7.6746	-22.096908	0.000240	2.396101	0.811821	0.000096
1817	1.8069e+02	-7.6185	-22.000368	0.000242	2.416494	0.818730	0.000097
1818	1.8079e+02	-7.5928	-21.901791	0.000247	2.467475	0.836003	0.000099
1819	1.8089e+02	-7.5575	-21.812175	0.000224	2.243159	0.760003	0.000090
1820	1.8099e+02	-7.4998	-21.717264	0.000238	2.375709	0.804912	0.000095
1821	1.8109e+02	-7.4837	-21.623168	0.000236	2.355317	0.798003	0.000095
1822	1.8119e+02	-7.4276	-21.525406	0.000245	2.447082	0.829094	0.000098
1823	1.8129e+02	-7.3923	-21.430495	0.000238	2.375709	0.804912	0.000095
1824	1.8139e+02	-7.3297	-21.327438	0.000258	2.579633	0.874003	0.000104
1825	1.8149e+02	-7.3025	-21.243932	0.000209	2.090216	0.708184	0.000084
1826	1.8159e+02	-7.2415	-21.149836	0.000236	2.355317	0.798003	0.000095
1827	1.8169e+02	-7.2126	-21.060221	0.000224	2.243159	0.760003	0.000090
1828	1.8179e+02	-7.1789	-20.973457	0.000217	2.171786	0.735821	0.000087
1829	1.8189e+02	-7.1517	-20.887915	0.000214	2.141197	0.725457	0.000086
1830	1.8199e+02	-7.0939	-20.803595	0.000211	2.110609	0.715094	0.000085
1831	1.8209e+02	-7.0666	-20.727422	0.000191	1.906685	0.646002	0.000077
1832	1.8218e+02	-7.0185	-20.633733	0.000235	2.345121	0.794548	0.000094
1833	1.8228e+02	-6.9929	-20.537600	0.000241	2.406298	0.815276	0.000097
1834	1.8238e+02	-6.9495	-20.445948	0.000229	2.294140	0.777276	0.000092
1835	1.8248e+02	-6.8966	-20.345335	0.000252	2.518456	0.853276	0.000101
1836	1.8258e+02	-6.8693	-20.250831	0.000237	2.365513	0.801457	0.000095
1837	1.8268e+02	-6.8340	-20.154698	0.000241	2.406298	0.815276	0.000097
1838	1.8278e+02	-6.7987	-20.067934	0.000217	2.171786	0.735821	0.000087
1839	1.8288e+02	-6.7410	-19.971802	0.000241	2.406298	0.815276	0.000097
1840	1.8298e+02	-6.7153	-19.880150	0.000229	2.294140	0.777276	0.000092
1841	1.8308e+02	-6.6479	-19.765279	0.000288	2.875322	0.974185	0.000115
1842	1.8318e+02	-6.6191	-19.680552	0.000212	2.120805	0.718548	0.000085
1843	1.8328e+02	-6.5677	-19.587678	0.000232	2.324728	0.787639	0.000093
1844	1.8338e+02	-6.5485	-19.504580	0.000208	2.080020	0.704730	0.000084
1845	1.8348e+02	-6.4939	-19.408854	0.000240	2.396101	0.811821	0.000096
1846	1.8358e+02	-6.4763	-19.320054	0.000222	2.222766	0.753094	0.000089
1847	1.8368e+02	-6.4282	-19.229623	0.000226	2.263551	0.766912	0.000091
1848	1.8378e+02	-6.3881	-19.155080	0.000187	1.865900	0.632184	0.000075
1849	1.8388e+02	-6.3415	-19.065464	0.000224	2.243159	0.760003	0.000090
1850	1.8398e+02	-6.3143	-18.989699	0.000190	1.896489	0.642548	0.000076
1851	1.8407e+02	-6.2661	-18.896825	0.000232	2.324728	0.787639	0.000093
1852	1.8417e+02	-6.2373	-18.802321	0.000237	2.365513	0.801457	0.000095
1853	1.8427e+02	-6.2036	-18.701300	0.000253	2.528652	0.856730	0.000102
1854	1.8437e+02	-6.1635	-18.602723	0.000247	2.467475	0.836003	0.000099
1855	1.8447e+02	-6.1153	-18.505368	0.000244	2.436886	0.825639	0.000098
1856	1.8457e+02	-6.0913	-18.408421	0.000243	2.426690	0.822185	0.000097
1857	1.8467e+02	-6.0255	-18.304549	0.000260	2.600025	0.880912	0.000104
1858	1.8477e+02	-5.9934	-18.202306	0.000256	2.559240	0.867094	0.000103
1859	1.8487e+02	-5.9677	-18.095582	0.000267	2.671398	0.905094	0.000107
1860	1.8497e+02	-5.9068	-18.002708	0.000232	2.324728	0.787639	0.000093
1861	1.8507e+02	-5.8747	-17.911056	0.000229	2.294140	0.777276	0.000092
1862	1.8517e+02	-5.8186	-17.816960	0.000236	2.355317	0.798003	0.000095
1863	1.8527e+02	-5.7833	-17.726122	0.000227	2.273747	0.770366	0.000091
1864	1.8537e+02	-5.7432	-17.637321	0.000222	2.222766	0.753094	0.000089
1865	1.8547e+02	-5.6774	-17.545669	0.000229	2.294140	0.777276	0.000092
1866	1.8557e+02	-5.6662	-17.454425	0.000228	2.283944	0.773821	0.000092
1867	1.8567e+02	-5.6309	-17.364809	0.000224	2.243159	0.760003	0.000090
1868	1.8577e+02	-5.5859	-17.275601	0.000223	2.232963	0.756548	0.000090
1869	1.8587e+02	-5.5747	-17.197392	0.000196	1.957666	0.663275	0.000079
1870	1.8597e+02	-5.5362	-17.099629	0.000245	2.447082	0.829094	0.000098
1871	1.8606e+02	-5.4752	-16.997794	0.000255	2.549044	0.863640	0.000102
1872	1.8616e+02	-5.4480	-16.896773	0.000253	2.528652	0.856730	0.000102
1873	1.8626e+02	-5.3934	-16.803491	0.000233	2.334924	0.791094	0.000094
1874	1.8636e+02	-5.3646	-16.698804	0.000262	2.620417	0.887821	0.000105
1875	1.8646e+02	-5.3020	-16.604301	0.000237	2.365513	0.801457	0.000095
1876	1.8656e+02	-5.2811	-16.500836	0.000259	2.589829	0.877458	0.000104
1877	1.8666e+02	-5.2234	-16.391261	0.000274	2.742771	0.929276	0.000110
1878	1.8676e+02	-5.1737	-16.301645	0.000224	2.243159	0.760003	0.000090
1879	1.8686e+02	-5.1319	-16.210401	0.000228	2.283944	0.773821	0.000092
1880	1.8696e+02	-5.1207	-16.115490	0.000238	2.375709	0.804912	0.000095
1881	1.8706e+02	-5.0870	-16.030762	0.000212	2.120805	0.718548	0.000085
1882	1.8716e+02	-5.0293	-15.935037	0.000240	2.396101	0.811821	0.000096
1883	1.8726e+02	-4.9731	-15.848273	0.000217	2.171786	0.735821	0.000087
1884	1.8736e+02	-4.9555	-15.750511	0.000245	2.447082	0.829094	0.000098
1885	1.8746e+02	-4.9122	-15.658451	0.000230	2.304336	0.780730	0.000093
1886	1.8756e+02	-4.8865	-15.580242	0.000196	1.957666	0.663275	0.000079
1887	1.8766e+02	-4.8287	-15.489812	0.000226	2.263551	0.766912	0.000091
1888	1.8776e+02	-4.7951	-15.394901	0.000238	2.375709	0.804912	0.000095
1889	1.8786e+02	-4.7582	-15.295102	0.000250	2.498063	0.846367	0.000100
1890	1.8796e+02	-4.7116	-15.189600	0.000264	2.640810	0.894731	0.000106
1891	1.8806e+02	-4.6924	-15.093060	0.000242	2.416494	0.818730	0.000097
1892	1.8815e+02	-4.6330	-14.989188	0.000260	2.600025	0.880912	0.000104
1893	1.8825e+02	-4.6009	-14.888167	0.000253	2.528652	0.856730	0.000102
1894	1.8835e+02	-4.5416	-14.785516	0.000257	2.569436	0.870549	0.000103
1895	1.8845e+02	-4.4999	-14.680422	0.000263	2.630614	0.891276	0.000106
1896	1.8855e+02	-4.4566	-14.588770	0.000229	2.294140	0.777276	0.000092
1897	1.8865e+02	-4.4261	-14.496710	0.000230	2.304336	0.780730	0.000093
1898	1.8875e+02	-4.3812	-14.408317	0.000221	2.212570	0.749639	0.000089
1899	1.8885e+02	-4.3394	-14.310962	0.000244	2.436886	0.825639	0.000098
1900	1.8895e+02	-4.3170	-14.225828	0.000213	2.131001	0.722003	0.000086
1901	1.8905e+02	-4.2737	-14.128880	0.000243	2.426690	0.822185	0.000097
1902	1.8915e+02	-4.2207	-14.040079	0.000222	2.222766	0.753094	0.000089
1903	1.8925e+02	-4.2175	-13.943132	0.000243	2.426690	0.822185	0.000097
1904	1.8935e+02	-4.1502	-13.863700	0.000199	1.988254	0.673639	0.000080
1905	1.8945e+02	-4.1277	-13.771641	0.000230	2.304336	0.780730	0.000093
1906	1.8955e+02	-4.0972	-13.673878	0.000245	2.447082	0.829094	0.000098
1907	1.8965e+02	-4.0475	-13.569191	0.000262	2.620417	0.887821	0.000105
1908	1.8975e+02	-3.9881	-13.473466	0.000240	2.396101	0.811821	0.000096
1909	1.8985e+02	-3.9609	-13.372852	0.000252	2.518456	0.853276	0.000101
1910	1.8995e+02	-3.9207	-13.267351	0.000264	2.640810	0.894731	0.000106
1911	1.9004e+02	-3.8919	-13.167959	0.000249	2.487867	0.842912	0.000100
1912	1.9014e+02	-3.8213	-13.053088	0.000288	2.875322	0.974185	0.000115
1913	1.9024e+02	-3.7699	-12.959807	0.000233	2.334924	0.791094	0.000094
1914	1.9034e+02	-3.7555	-12.867748	0.000230	2.304336	0.780730	0.000093
1915	1.9044e+02	-3.7122	-12.771615	0.000241	2.406298	0.815276	0.000097
1916	1.9054e+02	-3.6512	-12.680777	0.000227	2.273747	0.770366	0.000091
1917	1.9064e+02	-3.6240	-12.593199	0.000219	2.192178	0.742730	0.000088
1918	1.9074e+02	-3.5999	-12.498695	0.000237	2.365513	0.801457	0.000095
1919	1.9084e+02	-3.5646	-12.402970	0.000240	2.396101	0.811821	0.000096
1920	1.9094e+02	-3.5309	-12.303171	0.000250	2.498063	0.846367	0.000100
1921	1.9104e+02	-3.4796	-12.215592	0.000219	2.192178	0.742730	0.000088
1922	1.9114e+02	-3.4459	-12.133309	0.000206	2.059628	0.697821	0.000083
1923	1.9124e+02	-3.3946	-12.032695	0.000252	2.518456	0.853276	0.000101
1924	1.9134e+02	-3.3496	-11.926786	0.000265	2.651006	0.898185	0.000106
1925	1.9144e+02	-3.3272	-11.826580	0.000251	2.508259	0.849821	0.000101
1926	1.9154e+02	-3.2951	-11.724337	0.000256	2.559240	0.867094	0.000103
1927	1.9164e+02	-3.2373	-11.623316	0.000253	2.528652	0.856730	0.000102
1928	1.9174e+02	-3.1908	-11.524332	0.000248	2.477671	0.839458	0.000099
1929	1.9184e+02	-3.1475	-11.425348	0.000248	2.477671	0.839458	0.000099
1930	1.9194e+02	-3.0962	-11.317402	0.000270	2.701987	0.915458	0.000108
1931	1.9203e+02	-3.0657	-11.214344	0.000258	2.579633	0.874003	0.000104
1932	1.9213e+02	-3.0336	-11.120655	0.000235	2.345121	0.794548	0.000094
1933	1.9223e+02	-3.0015	-11.024115	0.000242	2.416494	0.818730	0.000097
1934	1.9233e+02	-2.9598	-10.932056	0.000230	2.304336	0.780730	0.000093
1935	1.9243e+02	-2.9165	-10.840811	0.000228	2.283944	0.773821	0.000092
1936	1.9253e+02	-2.8924	-10.746715	0.000236	2.355317	0.798003	0.000095
1937	1.9263e+02	-2.8443	-10.644879	0.000255	2.549044	0.863640	0.000102
1938	1.9273e+02	-2.7994	-10.556079	0.000222	2.222766	0.753094	0.000089
1939	1.9283e+02	-2.7769	-10.468907	0.000218	2.181982	0.739275	0.000088
1940	1.9293e+02	-2.7176	-10.386217	0.000207	2.069824	0.701275	0.000083
1941	1.9303e+02	-2.6823	-10.288454	0.000245	2.447082	0.829094	0.000098
1942	1.9313e+02	-2.6422	-10.185804	0.000257	2.569436	0.870549	0.000103
1943	1.9323e+02	-2.6117	-10.089264	0.000242	2.416494	0.818730	0.000097
1944	1.9333e+02	-2.5812	-9.993538	0.000240	2.396101	0.811821	0.000096
1945	1.9343e+02	-2.5267	-9.894554	0.000248	2.477671	0.839458	0.000099
1946	1.9353e+02	-2.5010	-9.791089	0.000259	2.589829	0.877458	0.000104
1947	1.9363e+02	-2.4465	-9.685588	0.000264	2.640810	0.894731	0.000106
1948	1.9373e+02	-2.3871	-9.578049	0.000269	2.691791	0.912003	0.000108
1949	1.9383e+02	-2.3791	-9.478658	0.000249	2.487867	0.842912	0.000100
1950	1.9393e+02	-2.3005	-9.384154	0.000237	2.365513	0.801457	0.000095
1951	1.9403e+02	-2.2539	-9.288021	0.000241	2.406298	0.815276	0.000097
1952	1.9412e+02	-2.2235	-9.198406	0.000224	2.243159	0.760003	0.000090
1953	1.9422e+02	-2.1898	-9.102680	0.000240	2.396101	0.811821	0.000096
1954	1.9432e+02	-2.1577	-9.007362	0.000239	2.385905	0.808367	0.000096
1955	1.9442e+02	-2.1144	-8.911229	0.000241	2.406298	0.815276	0.000097
1956	1.9452e+02	-2.0839	-8.820799	0.000226	2.263551	0.766912	0.000091
1957	1.9462e+02	-2.0566	-8.729147	0.000229	2.294140	0.777276	0.000092
1958	1.9472e+02	-2.0149	-8.644827	0.000211	2.110609	0.715094	0.000085
1959	1.9482e+02	-1.9732	-8.540140	0.000262	2.620417	0.887821	0.000105
1960	1.9492e+02	-1.9331	-8.443193	0.000243	2.426690	0.822185	0.000097
1961	1.9502e+02	-1.9138	-8.338098	0.000263	2.630614	0.891276	0.000106
1962	1.9512e+02	-1.8545	-8.233004	0.000263	2.630614	0.891276	0.000106
1963	1.9522e+02	-1.8240	-8.136464	0.000242	2.416494	0.818730	0.000097
1964	1.9532e+02	-1.7598	-8.031369	0.000263	2.630614	0.891276	0.000106
1965	1.9542e+02	-1.7213	-7.930756	0.000252	2.518456	0.853276	0.000101
1966	1.9552e+02	-1.6989	-7.825661	0.000263	2.630614	0.891276	0.000106
1967	1.9562e+02	-1.6395	-7.716901	0.000272	2.722379	0.922367	0.000109
1968	1.9572e+02	-1.5962	-7.613843	0.000258	2.579633	0.874003	0.000104
1969	1.9582e+02	-1.5641	-7.522191	0.000229	2.294140	0.777276	0.000092
1970	1.9592e+02	-1.5369	-7.430539	0.000229	2.294140	0.777276	0.000092
1971	1.9601e+02	-1.4839	-7.338480	0.000230	2.304336	0.780730	0.000093
1972	1.9611e+02	-1.4246	-7.238273	0.000251	2.508259	0.849821	0.000101
1973	1.9621e+02	-1.4085	-7.146214	0.000230	2.304336	0.780730	0.000093
1974	1.9631e+02	-1.3636	-7.057821	0.000221	2.212570	0.749639	0.000089
1975	1.9641e+02	-1.3074	-6.967391	0.000226	2.263551	0.766912	0.000091
1976	1.9651e+02	-1.3010	-6.877368	0.000225	2.253355	0.763457	0.000090
1977	1.9661e+02	-1.2545	-6.775940	0.000254	2.538848	0.860185	0.000102
1978	1.9671e+02	-1.2160	-6.672475	0.000259	2.589829	0.877458	0.000104
1979	1.9681e+02	-1.1759	-6.575527	0.000243	2.426690	0.822185	0.000097
1980	1.9691e+02	-1.1374	-6.469618	0.000265	2.651006	0.898185	0.000106
1981	1.9701e+02	-1.0909	-6.369412	0.000251	2.508259	0.849821	0.000101
1982	1.9711e+02	-1.0508	-6.262281	0.000268	2.681594	0.908549	0.000108
1983	1.9721e+02	-1.0075	-6.167370	0.000238	2.375709	0.804912	0.000095
1984	1.9731e+02	-0.9834	-6.061053	0.000266	2.661202	0.901640	0.000107
1985	1.9741e+02	-0.9240	-5.956366	0.000262	2.620417	0.887821	0.000105
1986	1.9751e+02	-0.8936	-5.840274	0.000291	2.905910	0.984549	0.000117
1987	1.9761e+02	-0.8310	-5.741290	0.000248	2.477671	0.839458	0.000099
1988	1.9771e+02	-0.7797	-5.653711	0.000219	2.192178	0.742730	0.000088
1989	1.9781e+02	-0.7540	-5.555949	0.000245	2.447082	0.829094	0.000098
1990	1.9791e+02	-0.7299	-5.460631	0.000239	2.385905	0.808367	0.000096
1991	1.9800e+02	-0.6577	-5.362868	0.000245	2.447082	0.829094	0.000098
1992	1.9810e+02	-0.6658	-5.284659	-0.000196	-1.957666	-0.663275	0.000079
1993	1.9820e+02	-0.5888	-5.195858	0.000222	2.222766	0.753094	0.000089
1994	1.9830e+02	-0.5711	-5.088727	0.000268	2.681594	0.908549	0.000108
1995	1.9840e+02	-0.5390	-4.986891	0.000255	2.549044	0.863640	0.000102
1996	1.9850e+02	-0.4957	-4.888314	0.000247	2.467475	0.836003	0.000099
1997	1.9860e+02	-0.4781	-4.783220	0.000263	2.630614	0.891276	0.000106
1998	1.9870e+02	-0.4283	-4.680570	0.000257	2.569436	0.870549	0.000103
1999	1.9880e+02	-0.3529	-4.579141	0.000254	2.538848	0.860185	0.000102
2000	1.9890e+02	-0.3417	-4.476898	0.000256	2.559240	0.867094	0.000103
2001	1.9900e+02	-0.3144	-4.378729	0.000246	2.457279	0.832549	0.000099
2002	1.9910e+02	-0.2503	-4.278930	0.000250	2.498063	0.846367	0.000100
2003	1.9920e+02	-0.2166	-4.170984	0.000270	2.701987	0.915458	0.000108
2004	1.9930e+02	-0.1684	-4.067926	0.000258	2.579633	0.874003	0.000104
2005	1.9940e+02	-0.1075	-3.963239	0.000262	2.620417	0.887821	0.000105
2006	1.9950e+02	-0.0866	-3.871995	0.000228	2.283944	0.773821	0.000092
2007	1.9960e+02	-0.0305	-3.775047	0.000243	2.426690	0.822185	0.000097
2008	1.9970e+02	0.0064	-3.684210	0.000227	2.273747	0.770366	0.000091
2009	1.9980e+02	0.0369	-3.596224	0.000227	2.273747	0.770366	0.000088

PMax (uC/cm2):	4.95e+01
Pr (uC/cm2):	1.73e+00
-Pr (uC/cm2):	-1.56e+00
PLoss (uC/cm2):	-1.53e+00
-Vc:	-7.02e-01
C (Max-Eff) (nF):	2.47e-01
K (Eff):	8.38e+02
Vert. (+/-Pr) Shift (uC/cm2):	8.30e-02
Offset (uC/cm2):	2.04e+00

A (Loop Area - uC/cm2·Volts):	3.89e-03



Hysteresis Version: 5.48.1 - Radiant Technologies, Inc., 1999 - 9/12/24

