»»»»»»»»»»»»»»»»»»»»»»»»»»»»»»»»»»»» Hysteresis ««««««««««««««««««««««««««««««««««««
»»»  Executed Version:	5.48.1
»»»  Vision Version:	5.48.4 (R)
»»»  Vision Compiled:	9/18/24
»»»  Driver Version:	5.47.0
»»»  Windows Version:	Windows 8 or 8.1
»»»  Processor Information:	x86 (AMD or Intel) - 32 Processors
»»»  Tester Name:	PMF21124-494 (100V)
»»»  Tester S/N:	PMF21124-494
»»»  Internal Amp Type:	100V RevK 270k
»»»  Internal Amp S/N:	iAB2-596/K     
»»»  Execution Count:	1
»»»»»»»»»»»»»»»»»»»»»»»»»»»»»»»»»»»»»»»»»»««««««««««««««««««««««««««««««««««««««««««

Stored:	6/19/2025 - 12:49:49
Configured:	06/19/25 10:04:32 AM
Executed:	06/19/25 12:48:42 PM

»»»»»»»»»»»»»»»»»»»»»»»»»»»»»»»»»»» Sample Info ««««««««««««««««««««««««««««««««««««
Sample Name:	
Lot Name:	
Wafer Name:	
Die Row/Column:	0/0
Capacitor Number:	0
Sample Area (cm2):	1.00e-04
Sample Thickness (microns):	3.00e-01

Amplifier:	Internal

»»»»»»»»»»»»»»»»»»»»»»»»»»»»»»»»»»» Tester Info «««««««««««««««««««««««««««««««««««
Tester Name:	PMF21124-494 (100V)
Tester Serial Number:	PMF21124-494
Return Signal Amp. Level:	1.9 [Index: 2]

»»»»»»»»»»»»»»»»»»»»»»»»»»»»»»»» Hysteresis Info ««««««««««««««««««««««««««««««««««
Task Name:	Hyst-1168
Volts:	20.00
Field:	666.67 (kV/cm)
DCBias:	0.00
DCField:	0.00 (kV/cm)
Hysteresis Period (ms):	2.00e+02
Preset:	Enabled
Preset Delay (ms):	1.00e+03
Profile:	Standard Bipolar

»»»»»»»»»»»»»»»»»»»»»»»»»»»»»»»»»»»»»» Data «««««««««««««««««««««««««««««««««««««««
Points:	2009

Valid Data

Point	Time (ms)	Drive Voltage	Measured Polarization (uC/cm2)	Capacitance (uF)	Normalized Capacitance (uF/cm2)	Dielectric Constant	Instantaneous Current (mA)
   1	0.0000e+00	0.0257	-2.245068	0.000146	1.459768	0.494583	0.000059
   2	9.9500e-02	0.0642	-2.186818	0.000146	1.459768	0.494583	0.000059
   3	1.9900e-01	0.1075	-2.087834	0.000248	2.480585	0.840445	0.000099
   4	2.9850e-01	0.1540	-2.011254	0.000192	1.919135	0.650221	0.000077
   5	3.9800e-01	0.1925	-1.917565	0.000235	2.347879	0.795483	0.000094
   6	4.9750e-01	0.2246	-1.825913	0.000230	2.296838	0.778190	0.000092
   7	5.9700e-01	0.2567	-1.739149	0.000217	2.174340	0.736686	0.000087
   8	6.9650e-01	0.3192	-1.649534	0.000225	2.245797	0.760897	0.000090
   9	7.9600e-01	0.3417	-1.566028	0.000209	2.092674	0.709017	0.000084
  10	8.9550e-01	0.3866	-1.472747	0.000234	2.337670	0.792024	0.000094
  11	9.9500e-01	0.4203	-1.385168	0.000219	2.194756	0.743603	0.000088
  12	1.0945e+00	0.4604	-1.292702	0.000232	2.317254	0.785107	0.000093
  13	1.1940e+00	0.4989	-1.205123	0.000219	2.194756	0.743603	0.000088
  14	1.2935e+00	0.5374	-1.108583	0.000242	2.419336	0.819693	0.000097
  15	1.3930e+00	0.5823	-1.022633	0.000215	2.153923	0.729769	0.000086
  16	1.4925e+00	0.6160	-0.929352	0.000234	2.337670	0.792024	0.000094
  17	1.5920e+00	0.6465	-0.842995	0.000216	2.164132	0.733228	0.000087
  18	1.6915e+00	0.6850	-0.743604	0.000249	2.490793	0.843903	0.000100
  19	1.7910e+00	0.7492	-0.657247	0.000216	2.164132	0.733228	0.000087
  20	1.8905e+00	0.7781	-0.564780	0.000232	2.317254	0.785107	0.000093
  21	1.9900e+00	0.8406	-0.473128	0.000230	2.296838	0.778190	0.000092
  22	2.0895e+00	0.8599	-0.376588	0.000242	2.419336	0.819693	0.000097
  23	2.1890e+00	0.9112	-0.286158	0.000227	2.266213	0.767814	0.000091
  24	2.2885e+00	0.9401	-0.192877	0.000234	2.337670	0.792024	0.000094
  25	2.3880e+00	0.9786	-0.106113	0.000217	2.174340	0.736686	0.000087
  26	2.4875e+00	1.0379	-0.008351	0.000245	2.449960	0.830069	0.000098
  27	2.5870e+00	1.0572	0.083709	0.000231	2.307046	0.781648	0.000093
  28	2.6865e+00	1.0973	0.171288	0.000219	2.194756	0.743603	0.000088
  29	2.7860e+00	1.1438	0.267013	0.000240	2.398919	0.812776	0.000096
  30	2.8855e+00	1.1871	0.363146	0.000241	2.409128	0.816235	0.000097
  31	2.9850e+00	1.2080	0.457649	0.000237	2.368295	0.802400	0.000095
  32	3.0845e+00	1.2513	0.550931	0.000234	2.337670	0.792024	0.000094
  33	3.1840e+00	1.2930	0.642990	0.000231	2.307046	0.781648	0.000093
  34	3.2835e+00	1.3556	0.737494	0.000237	2.368295	0.802400	0.000095
  35	3.3830e+00	1.4053	0.836071	0.000247	2.470377	0.836986	0.000099
  36	3.4825e+00	1.4214	0.928130	0.000231	2.307046	0.781648	0.000093
  37	3.5820e+00	1.4422	1.018153	0.000226	2.256005	0.764355	0.000090
  38	3.6815e+00	1.4935	1.111434	0.000234	2.337670	0.792024	0.000094
  39	3.7810e+00	1.5417	1.205938	0.000237	2.368295	0.802400	0.000095
  40	3.8805e+00	1.5786	1.298404	0.000232	2.317254	0.785107	0.000093
  41	3.9800e+00	1.6042	1.392093	0.000235	2.347879	0.795483	0.000094
  42	4.0795e+00	1.6684	1.482931	0.000228	2.276421	0.771272	0.000091
  43	4.1790e+00	1.6973	1.581915	0.000248	2.480585	0.840445	0.000099
  44	4.2785e+00	1.7679	1.676826	0.000238	2.378503	0.805859	0.000095
  45	4.3780e+00	1.7887	1.770107	0.000234	2.337670	0.792024	0.000094
  46	4.4775e+00	1.8112	1.866240	0.000241	2.409128	0.816235	0.000097
  47	4.5770e+00	1.8385	1.969298	0.000258	2.582666	0.875031	0.000104
  48	4.6765e+00	1.8962	2.054840	0.000214	2.143715	0.726310	0.000086
  49	4.7760e+00	1.9379	2.158305	0.000259	2.592875	0.878490	0.000104
  50	4.8755e+00	1.9844	2.245883	0.000219	2.194756	0.743603	0.000088
  51	4.9750e+00	2.0213	2.338757	0.000233	2.327462	0.788566	0.000093
  52	5.0745e+00	2.0518	2.438964	0.000251	2.511209	0.850821	0.000101
  53	5.1740e+00	2.0935	2.530208	0.000229	2.286630	0.774731	0.000092
  54	5.2735e+00	2.1417	2.623490	0.000234	2.337670	0.792024	0.000094
  55	5.3730e+00	2.1577	2.723289	0.000250	2.501001	0.847362	0.000100
  56	5.4725e+00	2.2251	2.825532	0.000256	2.562250	0.868114	0.000103
  57	5.5720e+00	2.2636	2.919220	0.000235	2.347879	0.795483	0.000094
  58	5.6715e+00	2.2973	3.018205	0.000248	2.480585	0.840445	0.000099
  59	5.7710e+00	2.3310	3.113115	0.000238	2.378503	0.805859	0.000095
  60	5.8705e+00	2.3935	3.211692	0.000247	2.470377	0.836986	0.000099
  61	5.9700e+00	2.4112	3.305381	0.000235	2.347879	0.795483	0.000094
  62	6.0695e+00	2.4577	3.406402	0.000253	2.531626	0.857738	0.000102
  63	6.1690e+00	2.4882	3.498054	0.000230	2.296838	0.778190	0.000092
  64	6.2685e+00	2.5267	3.597853	0.000250	2.501001	0.847362	0.000100
  65	6.3680e+00	2.5620	3.695208	0.000244	2.439752	0.826610	0.000098
  66	6.4675e+00	2.5892	3.796229	0.000253	2.531626	0.857738	0.000102
  67	6.5670e+00	2.6518	3.894806	0.000247	2.470377	0.836986	0.000099
  68	6.6665e+00	2.6839	3.984829	0.000226	2.256005	0.764355	0.000090
  69	6.7660e+00	2.7400	4.085035	0.000251	2.511209	0.850821	0.000101
  70	6.8655e+00	2.8122	4.185241	0.000251	2.511209	0.850821	0.000101
  71	6.9650e+00	2.8170	4.276078	0.000228	2.276421	0.771272	0.000091
  72	7.0645e+00	2.8347	4.378729	0.000257	2.572458	0.871572	0.000103
  73	7.1640e+00	2.8908	4.475676	0.000243	2.429544	0.823152	0.000097
  74	7.2635e+00	2.9374	4.572624	0.000243	2.429544	0.823152	0.000097
  75	7.3630e+00	2.9759	4.669979	0.000244	2.439752	0.826610	0.000098
  76	7.4625e+00	3.0015	4.769778	0.000250	2.501001	0.847362	0.000100
  77	7.5620e+00	3.0577	4.864281	0.000237	2.368295	0.802400	0.000095
  78	7.6615e+00	3.0962	4.964895	0.000252	2.521417	0.854279	0.000101
  79	7.7610e+00	3.1299	5.064286	0.000249	2.490793	0.843903	0.000100
  80	7.8605e+00	3.1700	5.162456	0.000246	2.460168	0.833528	0.000099
  81	7.9600e+00	3.2117	5.258996	0.000242	2.419336	0.819693	0.000097
  82	8.0595e+00	3.2534	5.358795	0.000250	2.501001	0.847362	0.000100
  83	8.1590e+00	3.3127	5.456557	0.000245	2.449960	0.830069	0.000098
  84	8.2585e+00	3.3208	5.555134	0.000247	2.470377	0.836986	0.000099
  85	8.3580e+00	3.3865	5.650860	0.000240	2.398919	0.812776	0.000096
  86	8.4575e+00	3.3946	5.750658	0.000250	2.501001	0.847362	0.000100
  87	8.5570e+00	3.4539	5.850050	0.000249	2.490793	0.843903	0.000100
  88	8.6565e+00	3.4892	5.944961	0.000238	2.378503	0.805859	0.000095
  89	8.7560e+00	3.5261	6.047611	0.000257	2.572458	0.871572	0.000103
  90	8.8555e+00	3.5855	6.139671	0.000231	2.307046	0.781648	0.000093
  91	8.9550e+00	3.6111	6.245580	0.000265	2.654124	0.899241	0.000106
  92	9.0545e+00	3.6320	6.342935	0.000244	2.439752	0.826610	0.000098
  93	9.1540e+00	3.7090	6.442733	0.000250	2.501001	0.847362	0.000100
  94	9.2535e+00	3.7507	6.542532	0.000250	2.501001	0.847362	0.000100
  95	9.3530e+00	3.7683	6.643146	0.000252	2.521417	0.854279	0.000101
  96	9.4525e+00	3.7924	6.740501	0.000244	2.439752	0.826610	0.000098
  97	9.5520e+00	3.8518	6.840300	0.000250	2.501001	0.847362	0.000100
  98	9.6515e+00	3.8806	6.935211	0.000238	2.378503	0.805859	0.000095
  99	9.7510e+00	3.9384	7.042342	0.000268	2.684748	0.909617	0.000108
 100	9.8505e+00	3.9576	7.139289	0.000243	2.429544	0.823152	0.000097
 101	9.9500e+00	3.9961	7.239088	0.000250	2.501001	0.847362	0.000100
 102	1.0050e+01	4.0346	7.335221	0.000241	2.409128	0.816235	0.000097
 103	1.0149e+01	4.0796	7.439908	0.000262	2.623499	0.888866	0.000105
 104	1.0248e+01	4.1630	7.532782	0.000233	2.327462	0.788566	0.000093
 105	1.0348e+01	4.1598	7.638284	-0.000264	-2.643915	-0.895783	0.000106
 106	1.0447e+01	4.2015	7.733602	0.000239	2.388711	0.809317	0.000096
 107	1.0547e+01	4.2400	7.832994	0.000249	2.490793	0.843903	0.000100
 108	1.0646e+01	4.2785	7.938495	0.000264	2.643915	0.895783	0.000106
 109	1.0746e+01	4.3394	8.035850	0.000244	2.439752	0.826610	0.000098
 110	1.0845e+01	4.3667	8.135242	0.000249	2.490793	0.843903	0.000100
 111	1.0945e+01	4.3956	8.240743	0.000264	2.643915	0.895783	0.000106
 112	1.1044e+01	4.4389	8.337284	0.000242	2.419336	0.819693	0.000097
 113	1.1144e+01	4.4822	8.437490	0.000251	2.511209	0.850821	0.000101
 114	1.1243e+01	4.5384	8.542177	0.000262	2.623499	0.888866	0.000105
 115	1.1343e+01	4.5432	8.641976	0.000250	2.501001	0.847362	0.000100
 116	1.1443e+01	4.5977	8.738923	0.000243	2.429544	0.823152	0.000097
 117	1.1542e+01	4.6443	8.839130	0.000251	2.511209	0.850821	0.000101
 118	1.1642e+01	4.6940	8.940151	0.000253	2.531626	0.857738	0.000102
 119	1.1741e+01	4.7004	9.037506	0.000244	2.439752	0.826610	0.000098
 120	1.1841e+01	4.7614	9.137712	0.000251	2.511209	0.850821	0.000101
 121	1.1940e+01	4.8175	9.242399	0.000262	2.623499	0.888866	0.000105
 122	1.2040e+01	4.8384	9.343827	0.000254	2.541834	0.861197	0.000102
 123	1.2139e+01	4.8721	9.443219	0.000249	2.490793	0.843903	0.000100
 124	1.2239e+01	4.9234	9.546276	0.000258	2.582666	0.875031	0.000104
 125	1.2338e+01	4.9683	9.642002	0.000240	2.398919	0.812776	0.000096
 126	1.2438e+01	4.9876	9.753206	0.000279	2.786830	0.944203	0.000112
 127	1.2537e+01	5.0437	9.849339	0.000241	2.409128	0.816235	0.000097
 128	1.2636e+01	5.0806	9.952397	0.000258	2.582666	0.875031	0.000104
 129	1.2736e+01	5.1239	10.048937	0.000242	2.419336	0.819693	0.000097
 130	1.2835e+01	5.1640	10.154439	0.000264	2.643915	0.895783	0.000106
 131	1.2935e+01	5.2009	10.250979	0.000242	2.419336	0.819693	0.000097
 132	1.3034e+01	5.2490	10.356888	0.000265	2.654124	0.899241	0.000106
 133	1.3134e+01	5.3004	10.457909	0.000253	2.531626	0.857738	0.000102
 134	1.3233e+01	5.3196	10.554857	0.000243	2.429544	0.823152	0.000097
 135	1.3333e+01	5.3597	10.662802	0.000271	2.705164	0.916535	0.000108
 136	1.3432e+01	5.4079	10.763416	0.000252	2.521417	0.854279	0.000101
 137	1.3532e+01	5.4383	10.866066	0.000257	2.572458	0.871572	0.000103
 138	1.3632e+01	5.4865	10.964236	0.000246	2.460168	0.833528	0.000099
 139	1.3731e+01	5.5057	11.066479	0.000256	2.562250	0.868114	0.000103
 140	1.3831e+01	5.5522	11.167500	0.000253	2.531626	0.857738	0.000102
 141	1.3930e+01	5.6036	11.268113	0.000252	2.521417	0.854279	0.000101
 142	1.4030e+01	5.6437	11.366283	0.000246	2.460168	0.833528	0.000099
 143	1.4129e+01	5.6790	11.472192	0.000265	2.654124	0.899241	0.000106
 144	1.4229e+01	5.7271	11.569547	0.000244	2.439752	0.826610	0.000098
 145	1.4328e+01	5.7608	11.673419	0.000260	2.603083	0.881948	0.000104
 146	1.4428e+01	5.8089	11.772811	0.000249	2.490793	0.843903	0.000100
 147	1.4527e+01	5.8234	11.870980	0.000246	2.460168	0.833528	0.000099
 148	1.4627e+01	5.8843	11.974038	0.000258	2.582666	0.875031	0.000104
 149	1.4726e+01	5.9405	12.081984	0.000271	2.705164	0.916535	0.000108
 150	1.4825e+01	5.9677	12.180153	0.000246	2.460168	0.833528	0.000099
 151	1.4925e+01	6.0095	12.282804	0.000257	2.572458	0.871572	0.000103
 152	1.5024e+01	6.0447	12.381381	0.000247	2.470377	0.836986	0.000099
 153	1.5124e+01	6.0913	12.486068	0.000262	2.623499	0.888866	0.000105
 154	1.5223e+01	6.1282	12.585459	0.000249	2.490793	0.843903	0.000100
 155	1.5323e+01	6.1731	12.695034	0.000275	2.745997	0.930369	0.000110
 156	1.5422e+01	6.1988	12.789945	0.000238	2.378503	0.805859	0.000095
 157	1.5522e+01	6.2324	12.894632	0.000262	2.623499	0.888866	0.000105
 158	1.5621e+01	6.2645	12.998912	0.000261	2.613291	0.885407	0.000105
 159	1.5721e+01	6.3191	13.101562	0.000257	2.572458	0.871572	0.000103
 160	1.5820e+01	6.3624	13.198102	0.000242	2.419336	0.819693	0.000097
 161	1.5920e+01	6.3961	13.295050	0.000243	2.429544	0.823152	0.000097
 162	1.6020e+01	6.4137	13.403810	0.000273	2.725581	0.923452	0.000109
 163	1.6119e+01	6.4955	13.505646	0.000255	2.552042	0.864655	0.000102
 164	1.6218e+01	6.5180	13.603001	0.000244	2.439752	0.826610	0.000098
 165	1.6318e+01	6.5533	13.704836	0.000255	2.552042	0.864655	0.000102
 166	1.6418e+01	6.5870	13.808709	0.000260	2.603083	0.881948	0.000104
 167	1.6517e+01	6.6126	13.912174	0.000259	2.592875	0.878490	0.000104
 168	1.6616e+01	6.6913	14.016861	0.000262	2.623499	0.888866	0.000105
 169	1.6716e+01	6.7137	14.115438	0.000247	2.470377	0.836986	0.000099
 170	1.6816e+01	6.7586	14.218088	0.000257	2.572458	0.871572	0.000103
 171	1.6915e+01	6.7843	14.318702	0.000252	2.521417	0.854279	0.000101
 172	1.7015e+01	6.8501	14.423796	0.000263	2.633707	0.892324	0.000106
 173	1.7114e+01	6.8613	14.521966	0.000246	2.460168	0.833528	0.000099
 174	1.7213e+01	6.9062	14.629097	0.000268	2.684748	0.909617	0.000108
 175	1.7313e+01	6.9463	14.723600	0.000237	2.368295	0.802400	0.000095
 176	1.7413e+01	7.0057	14.836027	0.000282	2.817454	0.954579	0.000113
 177	1.7512e+01	7.0394	14.935418	0.000249	2.490793	0.843903	0.000100
 178	1.7611e+01	7.0747	15.035217	0.000250	2.501001	0.847362	0.000100
 179	1.7711e+01	7.1244	15.138275	0.000258	2.582666	0.875031	0.000104
 180	1.7811e+01	7.1517	15.243369	0.000263	2.633707	0.892324	0.000106
 181	1.7910e+01	7.1838	15.343576	0.000251	2.511209	0.850821	0.000101
 182	1.8009e+01	7.1998	15.446226	0.000257	2.572458	0.871572	0.000103
 183	1.8109e+01	7.2720	15.552542	0.000266	2.664332	0.902700	0.000107
 184	1.8209e+01	7.3041	15.657229	0.000262	2.623499	0.888866	0.000105
 185	1.8308e+01	7.3586	15.758250	0.000253	2.531626	0.857738	0.000102
 186	1.8407e+01	7.3923	15.853976	0.000240	2.398919	0.812776	0.000096
 187	1.8507e+01	7.4324	15.966810	0.000283	2.827662	0.958038	0.000113
 188	1.8607e+01	7.4533	16.065387	0.000247	2.470377	0.836986	0.000099
 189	1.8706e+01	7.5190	16.170888	0.000264	2.643915	0.895783	0.000106
 190	1.8805e+01	7.5495	16.272317	0.000254	2.541834	0.861197	0.000102
 191	1.8905e+01	7.5880	16.373745	0.000254	2.541834	0.861197	0.000102
 192	1.9005e+01	7.6361	16.471914	0.000246	2.460168	0.833528	0.000099
 193	1.9104e+01	7.6730	16.577416	0.000264	2.643915	0.895783	0.000106
 194	1.9203e+01	7.7019	16.684140	0.000267	2.674540	0.906159	0.000107
 195	1.9303e+01	7.7517	16.788420	0.000261	2.613291	0.885407	0.000105
 196	1.9402e+01	7.8030	16.889033	0.000252	2.521417	0.854279	0.000101
 197	1.9502e+01	7.8271	16.991276	0.000256	2.562250	0.868114	0.000103
 198	1.9602e+01	7.8768	17.095149	0.000260	2.603083	0.881948	0.000104
 199	1.9701e+01	7.9201	17.201465	0.000266	2.664332	0.902700	0.000107
 200	1.9800e+01	7.9426	17.298820	0.000244	2.439752	0.826610	0.000098
 201	1.9900e+01	7.9955	17.405136	0.000266	2.664332	0.902700	0.000107
 202	2.0000e+01	8.0212	17.507787	0.000257	2.572458	0.871572	0.000103
 203	2.0099e+01	8.0677	17.615325	0.000269	2.694956	0.913076	0.000108
 204	2.0198e+01	8.1014	17.712680	0.000244	2.439752	0.826610	0.000098
 205	2.0298e+01	8.1415	17.817367	0.000262	2.623499	0.888866	0.000105
 206	2.0398e+01	8.1720	17.913092	0.000240	2.398919	0.812776	0.000096
 207	2.0497e+01	8.2361	18.025519	0.000282	2.817454	0.954579	0.000113
 208	2.0596e+01	8.2570	18.115949	0.000227	2.266213	0.767814	0.000091
 209	2.0696e+01	8.3131	18.224302	0.000272	2.715373	0.919993	0.000109
 210	2.0796e+01	8.3532	18.332655	0.000272	2.715373	0.919993	0.000109
 211	2.0895e+01	8.3821	18.432454	0.000250	2.501001	0.847362	0.000100
 212	2.0994e+01	8.4286	18.533882	0.000254	2.541834	0.861197	0.000102
 213	2.1094e+01	8.4687	18.634496	0.000252	2.521417	0.854279	0.000101
 214	2.1194e+01	8.5121	18.743664	0.000274	2.735789	0.926910	0.000110
 215	2.1293e+01	8.5297	18.844685	0.000253	2.531626	0.857738	0.000102
 216	2.1392e+01	8.6035	18.952223	0.000269	2.694956	0.913076	0.000108
 217	2.1492e+01	8.6452	19.050393	0.000246	2.460168	0.833528	0.000099
 218	2.1591e+01	8.6821	19.154672	0.000261	2.613291	0.885407	0.000105
 219	2.1691e+01	8.6917	19.254879	0.000251	2.511209	0.850821	0.000101
 220	2.1791e+01	8.7543	19.359973	0.000263	2.633707	0.892324	0.000106
 221	2.1890e+01	8.7912	19.461809	0.000255	2.552042	0.864655	0.000102
 222	2.1989e+01	8.8201	19.566903	0.000263	2.633707	0.892324	0.000106
 223	2.2089e+01	8.8586	19.670775	0.000260	2.603083	0.881948	0.000104
 224	2.2189e+01	8.9035	19.777499	0.000267	2.674540	0.906159	0.000107
 225	2.2288e+01	8.9356	19.878928	0.000254	2.541834	0.861197	0.000102
 226	2.2387e+01	8.9821	19.978319	0.000249	2.490793	0.843903	0.000100
 227	2.2487e+01	9.0286	20.081784	0.000259	2.592875	0.878490	0.000104
 228	2.2587e+01	9.0751	20.192989	0.000279	2.786830	0.944203	0.000112
 229	2.2686e+01	9.1169	20.292380	0.000249	2.490793	0.843903	0.000100
 230	2.2785e+01	9.1329	20.396660	0.000261	2.613291	0.885407	0.000105
 231	2.2885e+01	9.1890	20.501754	0.000263	2.633707	0.892324	0.000106
 232	2.2985e+01	9.2356	20.601553	0.000250	2.501001	0.847362	0.000100
 233	2.3084e+01	9.2693	20.708684	0.000268	2.684748	0.909617	0.000108
 234	2.3183e+01	9.2949	20.817037	0.000272	2.715373	0.919993	0.000109
 235	2.3283e+01	9.3527	20.917244	0.000251	2.511209	0.850821	0.000101
 236	2.3383e+01	9.3912	21.016635	0.000249	2.490793	0.843903	0.000100
 237	2.3482e+01	9.4168	21.127025	0.000277	2.766413	0.937286	0.000111
 238	2.3581e+01	9.4842	21.232934	0.000265	2.654124	0.899241	0.000106
 239	2.3681e+01	9.5003	21.332733	0.000250	2.501001	0.847362	0.000100
 240	2.3780e+01	9.5468	21.430495	0.000245	2.449960	0.830069	0.000098
 241	2.3880e+01	9.5933	21.537219	0.000267	2.674540	0.906159	0.000107
 242	2.3980e+01	9.6190	21.640277	0.000258	2.582666	0.875031	0.000104
 243	2.4079e+01	9.6703	21.749852	0.000275	2.745997	0.930369	0.000110
 244	2.4178e+01	9.7184	21.842319	0.000232	2.317254	0.785107	0.000093
 245	2.4278e+01	9.7537	21.950672	0.000272	2.715373	0.919993	0.000109
 246	2.4378e+01	9.7842	22.055766	0.000263	2.633707	0.892324	0.000106
 247	2.4477e+01	9.8356	22.160453	0.000262	2.623499	0.888866	0.000105
 248	2.4576e+01	9.8612	22.258215	0.000245	2.449960	0.830069	0.000098
 249	2.4676e+01	9.8885	22.362902	0.000262	2.623499	0.888866	0.000105
 250	2.4776e+01	9.9430	22.468811	0.000265	2.654124	0.899241	0.000106
 251	2.4875e+01	9.9751	22.573906	0.000263	2.633707	0.892324	0.000106
 252	2.4974e+01	10.0297	22.666373	0.000232	2.317254	0.785107	0.000093
 253	2.5074e+01	10.0746	22.779614	0.000284	2.837871	0.961497	0.000114
 254	2.5174e+01	10.1035	22.879413	0.000250	2.501001	0.847362	0.000100
 255	2.5273e+01	10.1516	22.989395	0.000276	2.756205	0.933828	0.000111
 256	2.5372e+01	10.1901	23.087972	0.000247	2.470377	0.836986	0.000099
 257	2.5472e+01	10.2238	23.191437	0.000259	2.592875	0.878490	0.000104
 258	2.5572e+01	10.2543	23.293680	0.000256	2.562250	0.868114	0.000103
 259	2.5671e+01	10.2992	23.399182	0.000264	2.643915	0.895783	0.000106
 260	2.5770e+01	10.3457	23.506720	0.000269	2.694956	0.913076	0.000108
 261	2.5870e+01	10.3698	23.604483	0.000245	2.449960	0.830069	0.000098
 262	2.5970e+01	10.4179	23.707540	0.000258	2.582666	0.875031	0.000104
 263	2.6069e+01	10.4740	23.813857	0.000266	2.664332	0.902700	0.000107
 264	2.6169e+01	10.5093	23.920173	0.000266	2.664332	0.902700	0.000107
 265	2.6268e+01	10.5270	24.029748	0.000275	2.745997	0.930369	0.000110
 266	2.6367e+01	10.5703	24.127103	0.000244	2.439752	0.826610	0.000098
 267	2.6467e+01	10.6264	24.227717	0.000252	2.521417	0.854279	0.000101
 268	2.6567e+01	10.6441	24.336477	0.000273	2.725581	0.923452	0.000109
 269	2.6666e+01	10.6874	24.437498	0.000253	2.531626	0.857738	0.000102
 270	2.6765e+01	10.7371	24.537297	0.000250	2.501001	0.847362	0.000100
 271	2.6865e+01	10.7708	24.639947	0.000257	2.572458	0.871572	0.000103
 272	2.6965e+01	10.8125	24.745449	0.000264	2.643915	0.895783	0.000106
 273	2.7064e+01	10.8639	24.850543	0.000263	2.633707	0.892324	0.000106
 274	2.7163e+01	10.8959	24.949935	0.000249	2.490793	0.843903	0.000100
 275	2.7263e+01	10.9505	25.055437	0.000264	2.643915	0.895783	0.000106
 276	2.7363e+01	11.0002	25.157680	0.000256	2.562250	0.868114	0.000103
 277	2.7462e+01	11.0115	25.260737	0.000258	2.582666	0.875031	0.000104
 278	2.7561e+01	11.0708	25.371534	0.000278	2.776622	0.940745	0.000111
 279	2.7661e+01	11.0981	25.464409	0.000233	2.327462	0.788566	0.000093
 280	2.7761e+01	11.1366	25.573576	0.000274	2.735789	0.926910	0.000110
 281	2.7860e+01	11.1943	25.677041	0.000259	2.592875	0.878490	0.000104
 282	2.7959e+01	11.2216	25.780914	0.000260	2.603083	0.881948	0.000104
 283	2.8059e+01	11.2537	25.880305	0.000249	2.490793	0.843903	0.000100
 284	2.8159e+01	11.3034	25.981734	0.000254	2.541834	0.861197	0.000102
 285	2.8258e+01	11.3483	26.086828	0.000263	2.633707	0.892324	0.000106
 286	2.8358e+01	11.3884	26.192737	0.000265	2.654124	0.899241	0.000106
 287	2.8457e+01	11.4318	26.300276	0.000269	2.694956	0.913076	0.000108
 288	2.8556e+01	11.4719	26.397630	0.000244	2.439752	0.826610	0.000098
 289	2.8656e+01	11.5280	26.502317	0.000262	2.623499	0.888866	0.000105
 290	2.8756e+01	11.5216	26.607004	-0.000262	-2.623499	-0.888866	0.000105
 291	2.8855e+01	11.5665	26.712914	0.000265	2.654124	0.899241	0.000106
 292	2.8954e+01	11.6291	26.813934	0.000253	2.531626	0.857738	0.000102
 293	2.9054e+01	11.6820	26.923510	0.000275	2.745997	0.930369	0.000110
 294	2.9154e+01	11.6981	27.024531	0.000253	2.531626	0.857738	0.000102
 295	2.9253e+01	11.7366	27.128403	0.000260	2.603083	0.881948	0.000104
 296	2.9352e+01	11.7735	27.226572	0.000246	2.460168	0.833528	0.000099
 297	2.9452e+01	11.8264	27.333704	0.000268	2.684748	0.909617	0.000108
 298	2.9552e+01	11.8601	27.437169	0.000259	2.592875	0.878490	0.000104
 299	2.9651e+01	11.8922	27.538190	0.000253	2.531626	0.857738	0.000102
 300	2.9750e+01	11.9355	27.642062	0.000260	2.603083	0.881948	0.000104
 301	2.9850e+01	11.9772	27.745934	0.000260	2.603083	0.881948	0.000104
 302	2.9950e+01	12.0237	27.847770	0.000255	2.552042	0.864655	0.000102
 303	3.0049e+01	12.0558	27.956938	0.000274	2.735789	0.926910	0.000110
 304	3.0148e+01	12.0975	28.057551	0.000252	2.521417	0.854279	0.000101
 305	3.0248e+01	12.1408	28.159794	0.000256	2.562250	0.868114	0.000103
 306	3.0348e+01	12.1874	28.262445	0.000257	2.572458	0.871572	0.000103
 307	3.0447e+01	12.2178	28.363058	0.000252	2.521417	0.854279	0.000101
 308	3.0547e+01	12.2435	28.465301	0.000256	2.562250	0.868114	0.000103
 309	3.0646e+01	12.2836	28.571618	0.000266	2.664332	0.902700	0.000107
 310	3.0745e+01	12.3317	28.668565	0.000243	2.429544	0.823152	0.000097
 311	3.0845e+01	12.3975	28.774067	0.000264	2.643915	0.895783	0.000106
 312	3.0945e+01	12.3959	28.880383	-0.000266	-2.664332	-0.902700	0.000107
 313	3.1044e+01	12.4585	28.982626	0.000256	2.562250	0.868114	0.000103
 314	3.1143e+01	12.4873	29.085277	0.000257	2.572458	0.871572	0.000103
 315	3.1243e+01	12.5291	29.183853	0.000247	2.470377	0.836986	0.000099
 316	3.1343e+01	12.5595	29.293429	0.000275	2.745997	0.930369	0.000110
 317	3.1442e+01	12.5948	29.394042	0.000252	2.521417	0.854279	0.000101
 318	3.1541e+01	12.6558	29.497507	0.000259	2.592875	0.878490	0.000104
 319	3.1641e+01	12.6991	29.594862	0.000244	2.439752	0.826610	0.000098
 320	3.1741e+01	12.7151	29.699142	0.000261	2.613291	0.885407	0.000105
 321	3.1840e+01	12.7729	29.800977	0.000255	2.552042	0.864655	0.000102
 322	3.1939e+01	12.8002	29.909738	0.000273	2.725581	0.923452	0.000109
 323	3.2039e+01	12.8676	30.007500	0.000245	2.449960	0.830069	0.000098
 324	3.2139e+01	12.9125	30.110558	0.000258	2.582666	0.875031	0.000104
 325	3.2238e+01	12.9301	30.216059	0.000264	2.643915	0.895783	0.000106
 326	3.2337e+01	12.9766	30.313007	0.000243	2.429544	0.823152	0.000097
 327	3.2437e+01	12.9991	30.414028	0.000253	2.531626	0.857738	0.000102
 328	3.2536e+01	13.0280	30.517900	0.000260	2.603083	0.881948	0.000104
 329	3.2636e+01	13.1002	30.621773	0.000260	2.603083	0.881948	0.000104
 330	3.2736e+01	13.1467	30.726052	0.000261	2.613291	0.885407	0.000105
 331	3.2835e+01	13.1756	30.826666	0.000252	2.521417	0.854279	0.000101
 332	3.2934e+01	13.2125	30.928094	0.000254	2.541834	0.861197	0.000102
 333	3.3034e+01	13.2494	31.026671	0.000247	2.470377	0.836986	0.000099
 334	3.3133e+01	13.2766	31.138283	0.000280	2.797038	0.947662	0.000112
 335	3.3233e+01	13.3296	31.233601	0.000239	2.388711	0.809317	0.000096
 336	3.3333e+01	13.3681	31.333400	0.000250	2.501001	0.847362	0.000100
 337	3.3432e+01	13.3986	31.439716	0.000266	2.664332	0.902700	0.000107
 338	3.3532e+01	13.4435	31.549699	0.000276	2.756205	0.933828	0.000111
 339	3.3631e+01	13.4884	31.650313	0.000252	2.521417	0.854279	0.000101
 340	3.3730e+01	13.5253	31.746445	0.000241	2.409128	0.816235	0.000097
 341	3.3830e+01	13.5702	31.857650	0.000279	2.786830	0.944203	0.000112
 342	3.3929e+01	13.6215	31.959486	0.000255	2.552042	0.864655	0.000102
 343	3.4029e+01	13.6488	32.060507	0.000253	2.531626	0.857738	0.000102
 344	3.4129e+01	13.6937	32.161935	0.000254	2.541834	0.861197	0.000102
 345	3.4228e+01	13.7242	32.262956	0.000253	2.531626	0.857738	0.000102
 346	3.4328e+01	13.7659	32.363569	0.000252	2.521417	0.854279	0.000101
 347	3.4427e+01	13.7980	32.471515	0.000271	2.705164	0.916535	0.000108
 348	3.4526e+01	13.8461	32.574980	0.000259	2.592875	0.878490	0.000104
 349	3.4626e+01	13.8782	32.677630	0.000257	2.572458	0.871572	0.000103
 350	3.4725e+01	13.9472	32.776207	0.000247	2.470377	0.836986	0.000099
 351	3.4825e+01	13.9697	32.886597	0.000277	2.766413	0.937286	0.000111
 352	3.4925e+01	14.0098	32.985989	0.000249	2.490793	0.843903	0.000100
 353	3.5024e+01	14.0370	33.088232	0.000256	2.562250	0.868114	0.000103
 354	3.5123e+01	14.0868	33.183143	0.000238	2.378503	0.805859	0.000095
 355	3.5223e+01	14.1172	33.291903	0.000273	2.725581	0.923452	0.000109
 356	3.5322e+01	14.1862	33.397405	0.000264	2.643915	0.895783	0.000106
 357	3.5422e+01	14.1926	33.500870	0.000259	2.592875	0.878490	0.000104
 358	3.5522e+01	14.2584	33.594559	0.000235	2.347879	0.795483	0.000094
 359	3.5621e+01	14.2680	33.702504	0.000271	2.705164	0.916535	0.000108
 360	3.5721e+01	14.3226	33.801896	0.000249	2.490793	0.843903	0.000100
 361	3.5820e+01	14.3595	33.908620	0.000267	2.674540	0.906159	0.000107
 362	3.5919e+01	14.4108	34.009641	0.000253	2.531626	0.857738	0.000102
 363	3.6019e+01	14.4477	34.115957	0.000266	2.664332	0.902700	0.000107
 364	3.6118e+01	14.4782	34.219422	0.000259	2.592875	0.878490	0.000104
 365	3.6218e+01	14.5343	34.314740	0.000239	2.388711	0.809317	0.000096
 366	3.6318e+01	14.5600	34.424723	0.000276	2.756205	0.933828	0.000111
 367	3.6417e+01	14.5841	34.524929	0.000251	2.511209	0.850821	0.000101
 368	3.6517e+01	14.6338	34.627987	0.000258	2.582666	0.875031	0.000104
 369	3.6616e+01	14.6755	34.725342	0.000244	2.439752	0.826610	0.000098
 370	3.6715e+01	14.7060	34.835324	0.000276	2.756205	0.933828	0.000111
 371	3.6815e+01	14.7878	34.933901	0.000247	2.470377	0.836986	0.000099
 372	3.6914e+01	14.7974	35.034922	0.000253	2.531626	0.857738	0.000102
 373	3.7014e+01	14.8392	35.135128	0.000251	2.511209	0.850821	0.000101
 374	3.7114e+01	14.8712	35.239000	0.000260	2.603083	0.881948	0.000104
 375	3.7213e+01	14.9274	35.338799	0.000250	2.501001	0.847362	0.000100
 376	3.7313e+01	14.9579	35.441450	0.000257	2.572458	0.871572	0.000103
 377	3.7412e+01	14.9867	35.539619	0.000246	2.460168	0.833528	0.000099
 378	3.7511e+01	15.0637	35.647565	0.000271	2.705164	0.916535	0.000108
 379	3.7611e+01	15.0814	35.745327	0.000245	2.449960	0.830069	0.000098
 380	3.7711e+01	15.1151	35.850014	0.000262	2.623499	0.888866	0.000105
 381	3.7810e+01	15.1440	35.950628	0.000252	2.521417	0.854279	0.000101
 382	3.7910e+01	15.2097	36.053686	0.000258	2.582666	0.875031	0.000104
 383	3.8009e+01	15.2354	36.155114	0.000254	2.541834	0.861197	0.000102
 384	3.8108e+01	15.2771	36.261838	0.000267	2.674540	0.906159	0.000107
 385	3.8208e+01	15.3092	36.358785	0.000243	2.429544	0.823152	0.000097
 386	3.8307e+01	15.3589	36.467138	0.000272	2.715373	0.919993	0.000109
 387	3.8407e+01	15.4071	36.566122	0.000248	2.480585	0.840445	0.000099
 388	3.8507e+01	15.4391	36.667551	0.000254	2.541834	0.861197	0.000102
 389	3.8606e+01	15.4841	36.772645	0.000263	2.633707	0.892324	0.000106
 390	3.8706e+01	15.5290	36.873259	0.000252	2.521417	0.854279	0.000101
 391	3.8805e+01	15.5546	36.977538	0.000261	2.613291	0.885407	0.000105
 392	3.8904e+01	15.6012	37.078559	0.000253	2.531626	0.857738	0.000102
 393	3.9004e+01	15.6493	37.184876	0.000266	2.664332	0.902700	0.000107
 394	3.9103e+01	15.6894	37.284267	0.000249	2.490793	0.843903	0.000100
 395	3.9203e+01	15.7086	37.384066	0.000250	2.501001	0.847362	0.000100
 396	3.9303e+01	15.7584	37.488346	0.000261	2.613291	0.885407	0.000105
 397	3.9402e+01	15.8113	37.597921	0.000275	2.745997	0.930369	0.000110
 398	3.9502e+01	15.8354	37.693239	0.000239	2.388711	0.809317	0.000096
 399	3.9601e+01	15.8530	37.794260	0.000253	2.531626	0.857738	0.000102
 400	3.9700e+01	15.9268	37.899355	0.000263	2.633707	0.892324	0.000106
 401	3.9800e+01	15.9525	38.003227	0.000260	2.603083	0.881948	0.000104
 402	3.9900e+01	15.9958	38.101804	0.000247	2.470377	0.836986	0.000099
 403	3.9999e+01	16.0263	38.207306	0.000264	2.643915	0.895783	0.000106
 404	4.0099e+01	16.0840	38.305068	0.000245	2.449960	0.830069	0.000098
 405	4.0198e+01	16.1193	38.410977	0.000265	2.654124	0.899241	0.000106
 406	4.0297e+01	16.1642	38.507924	0.000243	2.429544	0.823152	0.000097
 407	4.0397e+01	16.2011	38.613426	0.000264	2.643915	0.895783	0.000106
 408	4.0496e+01	16.2557	38.713225	0.000250	2.501001	0.847362	0.000100
 409	4.0596e+01	16.2733	38.814653	0.000254	2.541834	0.861197	0.000102
 410	4.0696e+01	16.3022	38.915267	0.000252	2.521417	0.854279	0.000101
 411	4.0795e+01	16.3471	39.017917	0.000257	2.572458	0.871572	0.000103
 412	4.0895e+01	16.3969	39.119346	0.000254	2.541834	0.861197	0.000102
 413	4.0994e+01	16.4273	39.221996	0.000257	2.572458	0.871572	0.000103
 414	4.1093e+01	16.4883	39.330349	0.000272	2.715373	0.919993	0.000109
 415	4.1193e+01	16.5124	39.425260	0.000238	2.378503	0.805859	0.000095
 416	4.1292e+01	16.5589	39.535650	0.000277	2.766413	0.937286	0.000111
 417	4.1392e+01	16.5830	39.632597	0.000243	2.429544	0.823152	0.000097
 418	4.1492e+01	16.6439	39.735655	0.000258	2.582666	0.875031	0.000104
 419	4.1591e+01	16.6808	39.832195	0.000242	2.419336	0.819693	0.000097
 420	4.1691e+01	16.7097	39.937697	0.000264	2.643915	0.895783	0.000106
 421	4.1790e+01	16.7546	40.035459	0.000245	2.449960	0.830069	0.000098
 422	4.1889e+01	16.8140	40.143405	0.000271	2.705164	0.916535	0.000108
 423	4.1989e+01	16.8428	40.245240	0.000255	2.552042	0.864655	0.000102
 424	4.2089e+01	16.8765	40.345039	0.000250	2.501001	0.847362	0.000100
 425	4.2188e+01	16.9166	40.443209	0.000246	2.460168	0.833528	0.000099
 426	4.2288e+01	16.9471	40.549525	0.000266	2.664332	0.902700	0.000107
 427	4.2387e+01	16.9985	40.648510	0.000248	2.480585	0.840445	0.000099
 428	4.2486e+01	17.0434	40.751567	0.000258	2.582666	0.875031	0.000104
 429	4.2586e+01	17.0755	40.852996	0.000254	2.541834	0.861197	0.000102
 430	4.2685e+01	17.1300	40.952794	0.000250	2.501001	0.847362	0.000100
 431	4.2785e+01	17.1460	41.056259	0.000259	2.592875	0.878490	0.000104
 432	4.2885e+01	17.1685	41.160539	0.000261	2.613291	0.885407	0.000105
 433	4.2984e+01	17.2391	41.253006	0.000232	2.317254	0.785107	0.000093
 434	4.3084e+01	17.2744	41.359730	0.000267	2.674540	0.906159	0.000107
 435	4.3183e+01	17.3097	41.458307	0.000247	2.470377	0.836986	0.000099
 436	4.3282e+01	17.3466	41.565030	0.000267	2.674540	0.906159	0.000107
 437	4.3382e+01	17.3979	41.661163	0.000241	2.409128	0.816235	0.000097
 438	4.3481e+01	17.4412	41.765443	0.000261	2.613291	0.885407	0.000105
 439	4.3581e+01	17.4589	41.868908	0.000259	2.592875	0.878490	0.000104
 440	4.3681e+01	17.5118	41.969929	0.000253	2.531626	0.857738	0.000102
 441	4.3780e+01	17.5311	42.071764	0.000255	2.552042	0.864655	0.000102
 442	4.3880e+01	17.6000	42.172378	0.000252	2.521417	0.854279	0.000101
 443	4.3979e+01	17.6466	42.275028	0.000257	2.572458	0.871572	0.000103
 444	4.4078e+01	17.6770	42.373198	0.000246	2.460168	0.833528	0.000099
 445	4.4178e+01	17.7139	42.478292	0.000263	2.633707	0.892324	0.000106
 446	4.4278e+01	17.7556	42.576869	0.000247	2.470377	0.836986	0.000099
 447	4.4377e+01	17.7893	42.675446	0.000247	2.470377	0.836986	0.000099
 448	4.4477e+01	17.8150	42.776874	0.000254	2.541834	0.861197	0.000102
 449	4.4576e+01	17.8776	42.884820	0.000271	2.705164	0.916535	0.000108
 450	4.4675e+01	17.9048	42.976880	0.000231	2.307046	0.781648	0.000093
 451	4.4775e+01	17.9353	43.082381	0.000264	2.643915	0.895783	0.000106
 452	4.4874e+01	17.9754	43.180551	0.000246	2.460168	0.833528	0.000099
 453	4.4974e+01	18.0396	43.287275	0.000267	2.674540	0.906159	0.000107
 454	4.5074e+01	18.0621	43.386259	0.000248	2.480585	0.840445	0.000099
 455	4.5173e+01	18.1070	43.488094	0.000255	2.552042	0.864655	0.000102
 456	4.5273e+01	18.1599	43.588301	0.000251	2.511209	0.850821	0.000101
 457	4.5372e+01	18.1872	43.690951	0.000257	2.572458	0.871572	0.000103
 458	4.5471e+01	18.2465	43.792379	0.000254	2.541834	0.861197	0.000102
 459	4.5571e+01	18.2578	43.892178	0.000250	2.501001	0.847362	0.000100
 460	4.5670e+01	18.3139	43.994421	0.000256	2.562250	0.868114	0.000103
 461	4.5770e+01	18.3396	44.096664	0.000256	2.562250	0.868114	0.000103
 462	4.5870e+01	18.4022	44.197278	0.000252	2.521417	0.854279	0.000101
 463	4.5969e+01	18.4455	44.302780	0.000264	2.643915	0.895783	0.000106
 464	4.6069e+01	18.4615	44.400134	0.000244	2.439752	0.826610	0.000098
 465	4.6168e+01	18.4936	44.499526	0.000249	2.490793	0.843903	0.000100
 466	4.6267e+01	18.5401	44.601769	0.000256	2.562250	0.868114	0.000103
 467	4.6367e+01	18.5931	44.701975	0.000251	2.511209	0.850821	0.000101
 468	4.6467e+01	18.6235	44.807884	0.000265	2.654124	0.899241	0.000106
 469	4.6566e+01	18.6652	44.901166	0.000234	2.337670	0.792024	0.000094
 470	4.6666e+01	18.7086	45.005853	0.000262	2.623499	0.888866	0.000105
 471	4.6765e+01	18.7535	45.110540	0.000262	2.623499	0.888866	0.000105
 472	4.6864e+01	18.8016	45.208709	0.000246	2.460168	0.833528	0.000099
 473	4.6964e+01	18.8209	45.307694	0.000248	2.480585	0.840445	0.000099
 474	4.7063e+01	18.8690	45.414010	0.000266	2.664332	0.902700	0.000107
 475	4.7163e+01	18.9267	45.508106	0.000236	2.358087	0.798941	0.000095
 476	4.7263e+01	18.9364	45.610349	0.000256	2.562250	0.868114	0.000103
 477	4.7362e+01	18.9925	45.706889	0.000242	2.419336	0.819693	0.000097
 478	4.7462e+01	19.0198	45.808725	0.000255	2.552042	0.864655	0.000102
 479	4.7561e+01	19.0727	45.908117	0.000249	2.490793	0.843903	0.000100
 480	4.7660e+01	19.1144	46.009545	0.000254	2.541834	0.861197	0.000102
 481	4.7760e+01	19.1401	46.106492	0.000243	2.429544	0.823152	0.000097
 482	4.7859e+01	19.2011	46.211587	0.000263	2.633707	0.892324	0.000106
 483	4.7959e+01	19.2123	46.310571	0.000248	2.480585	0.840445	0.000099
 484	4.8059e+01	19.2749	46.416073	0.000264	2.643915	0.895783	0.000106
 485	4.8158e+01	19.3037	46.512206	0.000241	2.409128	0.816235	0.000097
 486	4.8258e+01	19.3374	46.612004	0.000250	2.501001	0.847362	0.000100
 487	4.8357e+01	19.4080	46.713433	0.000254	2.541834	0.861197	0.000102
 488	4.8456e+01	19.4160	46.811602	0.000246	2.460168	0.833528	0.000099
 489	4.8556e+01	19.4513	46.910994	0.000249	2.490793	0.843903	0.000100
 490	4.8656e+01	19.4930	47.013237	0.000256	2.562250	0.868114	0.000103
 491	4.8755e+01	19.5331	47.115073	0.000255	2.552042	0.864655	0.000102
 492	4.8855e+01	19.5797	47.212835	0.000245	2.449960	0.830069	0.000098
 493	4.8954e+01	19.6374	47.316707	0.000260	2.603083	0.881948	0.000104
 494	4.9053e+01	19.6631	47.413655	0.000243	2.429544	0.823152	0.000097
 495	4.9153e+01	19.7128	47.513046	0.000249	2.490793	0.843903	0.000100
 496	4.9252e+01	19.7449	47.611623	0.000247	2.470377	0.836986	0.000099
 497	4.9352e+01	19.7738	47.717532	0.000265	2.654124	0.899241	0.000106
 498	4.9452e+01	19.8235	47.815294	0.000245	2.449960	0.830069	0.000098
 499	4.9551e+01	19.8588	47.915908	0.000252	2.521417	0.854279	0.000101
 500	4.9651e+01	19.8909	48.016114	0.000251	2.511209	0.850821	0.000101
 501	4.9750e+01	19.9390	48.116321	0.000251	2.511209	0.850821	0.000101
 502	4.9849e+01	19.9695	48.220193	0.000260	2.603083	0.881948	0.000104
 503	4.9949e+01	20.0337	48.313067	0.000233	2.327462	0.788566	0.000093
 504	5.0048e+01	19.9470	48.249522	0.000159	1.592474	0.539545	-0.000064
 505	5.0148e+01	19.9438	48.182310	0.000168	1.684348	0.570672	-0.000068
 506	5.0248e+01	19.8877	48.106137	0.000191	1.908927	0.646762	-0.000077
 507	5.0347e+01	19.8556	48.040962	0.000163	1.633307	0.553379	-0.000066
 508	5.0447e+01	19.8251	47.970085	0.000178	1.776221	0.601800	-0.000071
 509	5.0546e+01	19.7754	47.896356	0.000185	1.847678	0.626010	-0.000074
 510	5.0645e+01	19.7385	47.814887	0.000204	2.041633	0.691724	-0.000082
 511	5.0745e+01	19.7144	47.741158	0.000185	1.847678	0.626010	-0.000074
 512	5.0844e+01	19.6567	47.666207	0.000188	1.878303	0.636386	-0.000075
 513	5.0944e+01	19.6198	47.585961	0.000201	2.011009	0.681348	-0.000081
 514	5.1044e+01	19.5845	47.511010	0.000188	1.878303	0.636386	-0.000075
 515	5.1143e+01	19.5396	47.435244	0.000190	1.898719	0.643303	-0.000076
 516	5.1242e+01	19.4962	47.354590	0.000202	2.021217	0.684807	-0.000081
 517	5.1342e+01	19.4561	47.284934	0.000175	1.745597	0.591424	-0.000070
 518	5.1441e+01	19.4353	47.200614	0.000211	2.113091	0.715935	-0.000085
 519	5.1541e+01	19.3904	47.120775	0.000200	2.000801	0.677890	-0.000080
 520	5.1641e+01	19.3519	47.042973	0.000195	1.949760	0.660597	-0.000078
 521	5.1740e+01	19.2957	46.965578	0.000194	1.939552	0.657138	-0.000078
 522	5.1840e+01	19.2652	46.883702	0.000205	2.051842	0.695183	-0.000082
 523	5.1939e+01	19.2299	46.803048	0.000202	2.021217	0.684807	-0.000081
 524	5.2038e+01	19.1882	46.724024	0.000198	1.980384	0.670972	-0.000079
 525	5.2138e+01	19.1417	46.640111	0.000210	2.102883	0.712476	-0.000084
 526	5.2237e+01	19.0968	46.559050	0.000203	2.031425	0.688266	-0.000081
 527	5.2337e+01	19.0743	46.475545	0.000209	2.092674	0.709017	-0.000084
 528	5.2437e+01	19.0230	46.396113	0.000199	1.990593	0.674431	-0.000080
 529	5.2536e+01	18.9957	46.309349	0.000217	2.174340	0.736686	-0.000087
 530	5.2636e+01	18.9588	46.233176	0.000191	1.908927	0.646762	-0.000077
 531	5.2735e+01	18.9171	46.151300	0.000205	2.051842	0.695183	-0.000082
 532	5.2834e+01	18.8626	46.069017	0.000206	2.062050	0.698641	-0.000083
 533	5.2934e+01	18.8305	45.984290	0.000212	2.123299	0.719393	-0.000085
 534	5.3033e+01	18.8032	45.904043	0.000201	2.011009	0.681348	-0.000081
 535	5.3133e+01	18.7390	45.823389	0.000202	2.021217	0.684807	-0.000081
 536	5.3233e+01	18.7198	45.733367	0.000226	2.256005	0.764355	-0.000090
 537	5.3332e+01	18.6604	45.650269	0.000208	2.082466	0.705559	-0.000084
 538	5.3431e+01	18.6348	45.568393	0.000205	2.051842	0.695183	-0.000082
 539	5.3531e+01	18.5963	45.481629	0.000217	2.174340	0.736686	-0.000087
 540	5.3630e+01	18.5513	45.392421	0.000224	2.235589	0.757438	-0.000090
 541	5.3730e+01	18.5080	45.310545	0.000205	2.051842	0.695183	-0.000082
 542	5.3830e+01	18.4711	45.226632	0.000210	2.102883	0.712476	-0.000084
 543	5.3929e+01	18.4198	45.135795	0.000228	2.276421	0.771272	-0.000091
 544	5.4029e+01	18.3925	45.051475	0.000211	2.113091	0.715935	-0.000085
 545	5.4128e+01	18.3540	44.966748	0.000212	2.123299	0.719393	-0.000085
 546	5.4227e+01	18.2995	44.881206	0.000214	2.143715	0.726310	-0.000086
 547	5.4327e+01	18.2658	44.794442	0.000217	2.174340	0.736686	-0.000087
 548	5.4426e+01	18.2257	44.710937	0.000209	2.092674	0.709017	-0.000084
 549	5.4526e+01	18.2032	44.628246	0.000207	2.072258	0.702100	-0.000083
 550	5.4626e+01	18.1727	44.537002	0.000229	2.286630	0.774731	-0.000092
 551	5.4725e+01	18.1070	44.452274	0.000212	2.123299	0.719393	-0.000085
 552	5.4825e+01	18.0637	44.371620	0.000202	2.021217	0.684807	-0.000081
 553	5.4924e+01	18.0476	44.281598	0.000226	2.256005	0.764355	-0.000090
 554	5.5023e+01	17.9995	44.193204	0.000222	2.215172	0.750521	-0.000089
 555	5.5123e+01	17.9546	44.106033	0.000218	2.184548	0.740145	-0.000088
 556	5.5222e+01	17.9161	44.020084	0.000215	2.153923	0.729769	-0.000086
 557	5.5322e+01	17.8728	43.937393	0.000207	2.072258	0.702100	-0.000083
 558	5.5422e+01	17.8455	43.846556	0.000228	2.276421	0.771272	-0.000091
 559	5.5521e+01	17.7909	43.762643	0.000210	2.102883	0.712476	-0.000084
 560	5.5620e+01	17.7621	43.672621	0.000226	2.256005	0.764355	-0.000090
 561	5.5720e+01	17.7139	43.588708	0.000210	2.102883	0.712476	-0.000084
 562	5.5819e+01	17.6899	43.499907	0.000223	2.225381	0.753979	-0.000089
 563	5.5919e+01	17.6225	43.415995	0.000210	2.102883	0.712476	-0.000084
 564	5.6019e+01	17.6081	43.327194	0.000223	2.225381	0.753979	-0.000089
 565	5.6118e+01	17.5567	43.240430	0.000217	2.174340	0.736686	-0.000087
 566	5.6218e+01	17.4974	43.153259	0.000218	2.184548	0.740145	-0.000088
 567	5.6317e+01	17.4797	43.066495	0.000217	2.174340	0.736686	-0.000087
 568	5.6416e+01	17.4300	42.978102	0.000222	2.215172	0.750521	-0.000089
 569	5.6516e+01	17.3931	42.888079	0.000226	2.256005	0.764355	-0.000090
 570	5.6615e+01	17.3546	42.801722	0.000216	2.164132	0.733228	-0.000087
 571	5.6715e+01	17.3161	42.715366	0.000216	2.164132	0.733228	-0.000087
 572	5.6815e+01	17.2776	42.623306	0.000231	2.307046	0.781648	-0.000093
 573	5.6914e+01	17.2279	42.531247	0.000231	2.307046	0.781648	-0.000093
 574	5.7014e+01	17.2022	42.445298	0.000215	2.153923	0.729769	-0.000086
 575	5.7113e+01	17.1637	42.356090	0.000224	2.235589	0.757438	-0.000090
 576	5.7212e+01	17.1204	42.267696	0.000222	2.215172	0.750521	-0.000089
 577	5.7312e+01	17.0851	42.174415	0.000234	2.337670	0.792024	-0.000094
 578	5.7411e+01	17.0273	42.085614	0.000223	2.225381	0.753979	-0.000089
 579	5.7511e+01	16.9776	41.999257	0.000216	2.164132	0.733228	-0.000087
 580	5.7611e+01	16.9503	41.909235	0.000226	2.256005	0.764355	-0.000090
 581	5.7710e+01	16.9166	41.823285	0.000215	2.153923	0.729769	-0.000086
 582	5.7809e+01	16.8990	41.731633	0.000230	2.296838	0.778190	-0.000092
 583	5.7909e+01	16.8252	41.640389	0.000229	2.286630	0.774731	-0.000092
 584	5.8008e+01	16.7947	41.554847	0.000214	2.143715	0.726310	-0.000086
 585	5.8108e+01	16.7498	41.464824	0.000226	2.256005	0.764355	-0.000090
 586	5.8208e+01	16.7017	41.369506	0.000239	2.388711	0.809317	-0.000096
 587	5.8307e+01	16.6680	41.286001	0.000209	2.092674	0.709017	-0.000084
 588	5.8407e+01	16.6455	41.193127	0.000233	2.327462	0.788566	-0.000093
 589	5.8506e+01	16.5974	41.104733	0.000222	2.215172	0.750521	-0.000089
 590	5.8605e+01	16.5589	41.011452	0.000234	2.337670	0.792024	-0.000094
 591	5.8705e+01	16.5204	40.918170	0.000234	2.337670	0.792024	-0.000094
 592	5.8804e+01	16.4867	40.836294	0.000205	2.051842	0.695183	-0.000082
 593	5.8904e+01	16.4418	40.744235	0.000231	2.307046	0.781648	-0.000093
 594	5.9004e+01	16.3872	40.647288	0.000243	2.429544	0.823152	-0.000097
 595	5.9103e+01	16.3391	40.561746	0.000214	2.143715	0.726310	-0.000086
 596	5.9203e+01	16.3134	40.473352	0.000222	2.215172	0.750521	-0.000089
 597	5.9302e+01	16.3006	40.381700	0.000230	2.296838	0.778190	-0.000092
 598	5.9401e+01	16.2557	40.285160	0.000242	2.419336	0.819693	-0.000097
 599	5.9501e+01	16.2124	40.195952	0.000224	2.235589	0.757438	-0.000090
 600	5.9600e+01	16.1578	40.104300	0.000230	2.296838	0.778190	-0.000092
 601	5.9700e+01	16.1257	40.019573	0.000212	2.123299	0.719393	-0.000085
 602	5.9800e+01	16.0840	39.920181	0.000249	2.490793	0.843903	-0.000100
 603	5.9899e+01	16.0375	39.828529	0.000230	2.296838	0.778190	-0.000092
 604	5.9998e+01	15.9990	39.739321	0.000224	2.235589	0.757438	-0.000090
 605	6.0098e+01	15.9557	39.657445	0.000205	2.051842	0.695183	-0.000082
 606	6.0197e+01	15.9092	39.556424	0.000253	2.531626	0.857738	-0.000102
 607	6.0297e+01	15.8883	39.468031	0.000222	2.215172	0.750521	-0.000089
 608	6.0397e+01	15.8290	39.375564	0.000232	2.317254	0.785107	-0.000093
 609	6.0496e+01	15.7969	39.287578	0.000220	2.204964	0.747062	-0.000088
 610	6.0596e+01	15.7488	39.196333	0.000229	2.286630	0.774731	-0.000092
 611	6.0695e+01	15.7327	39.102645	0.000235	2.347879	0.795483	-0.000094
 612	6.0794e+01	15.6637	39.006919	0.000240	2.398919	0.812776	-0.000096
 613	6.0894e+01	15.6461	38.916489	0.000227	2.266213	0.767814	-0.000091
 614	6.0993e+01	15.5931	38.825244	0.000229	2.286630	0.774731	-0.000092
 615	6.1093e+01	15.5675	38.734407	0.000228	2.276421	0.771272	-0.000091
 616	6.1193e+01	15.5161	38.641940	0.000232	2.317254	0.785107	-0.000093
 617	6.1292e+01	15.4985	38.553954	0.000220	2.204964	0.747062	-0.000088
 618	6.1392e+01	15.4488	38.457414	0.000242	2.419336	0.819693	-0.000097
 619	6.1491e+01	15.4071	38.363725	0.000235	2.347879	0.795483	-0.000094
 620	6.1590e+01	15.3589	38.265963	0.000245	2.449960	0.830069	-0.000098
 621	6.1690e+01	15.3204	38.175533	0.000227	2.266213	0.767814	-0.000091
 622	6.1789e+01	15.2819	38.083881	0.000230	2.296838	0.778190	-0.000092
 623	6.1889e+01	15.2338	37.992636	0.000229	2.286630	0.774731	-0.000092
 624	6.1989e+01	15.2033	37.905057	0.000219	2.194756	0.743603	-0.000088
 625	6.2088e+01	15.1504	37.810961	0.000236	2.358087	0.798941	-0.000095
 626	6.2188e+01	15.1295	37.716458	0.000237	2.368295	0.802400	-0.000095
 627	6.2287e+01	15.0782	37.626842	0.000225	2.245797	0.760897	-0.000090
 628	6.2386e+01	15.0461	37.539264	0.000219	2.194756	0.743603	-0.000088
 629	6.2486e+01	14.9996	37.441909	0.000244	2.439752	0.826610	-0.000098
 630	6.2586e+01	14.9675	37.343332	0.000247	2.470377	0.836986	-0.000099
 631	6.2685e+01	14.9033	37.255753	0.000219	2.194756	0.743603	-0.000088
 632	6.2785e+01	14.8664	37.160843	0.000238	2.378503	0.805859	-0.000095
 633	6.2884e+01	14.8408	37.065524	0.000239	2.388711	0.809317	-0.000096
 634	6.2983e+01	14.8055	36.972650	0.000233	2.327462	0.788566	-0.000093
 635	6.3083e+01	14.7541	36.873666	0.000248	2.480585	0.840445	-0.000099
 636	6.3182e+01	14.7285	36.786902	0.000217	2.174340	0.736686	-0.000087
 637	6.3282e+01	14.6803	36.693621	0.000234	2.337670	0.792024	-0.000094
 638	6.3382e+01	14.6322	36.601561	0.000231	2.307046	0.781648	-0.000093
 639	6.3481e+01	14.6033	36.505021	0.000242	2.419336	0.819693	-0.000097
 640	6.3581e+01	14.5584	36.419072	0.000215	2.153923	0.729769	-0.000086
 641	6.3680e+01	14.5151	36.317236	0.000255	2.552042	0.864655	-0.000102
 642	6.3779e+01	14.4894	36.224769	0.000232	2.317254	0.785107	-0.000093
 643	6.3879e+01	14.4349	36.128637	0.000241	2.409128	0.816235	-0.000097
 644	6.3978e+01	14.4124	36.036577	0.000231	2.307046	0.781648	-0.000093
 645	6.4078e+01	14.3771	35.940852	0.000240	2.398919	0.812776	-0.000096
 646	6.4177e+01	14.3290	35.842275	0.000247	2.470377	0.836986	-0.000099
 647	6.4277e+01	14.2937	35.749401	0.000233	2.327462	0.788566	-0.000093
 648	6.4376e+01	14.2295	35.652453	0.000243	2.429544	0.823152	-0.000097
 649	6.4476e+01	14.2007	35.563652	0.000223	2.225381	0.753979	-0.000089
 650	6.4576e+01	14.1718	35.464261	0.000249	2.490793	0.843903	-0.000100
 651	6.4675e+01	14.1285	35.372201	0.000231	2.307046	0.781648	-0.000093
 652	6.4775e+01	14.1060	35.278105	0.000236	2.358087	0.798941	-0.000095
 653	6.4874e+01	14.0531	35.185639	0.000232	2.317254	0.785107	-0.000093
 654	6.4974e+01	14.0146	35.089506	0.000241	2.409128	0.816235	-0.000097
 655	6.5073e+01	13.9568	34.995002	0.000237	2.368295	0.802400	-0.000095
 656	6.5172e+01	13.9296	34.900499	0.000237	2.368295	0.802400	-0.000095
 657	6.5272e+01	13.8894	34.803959	0.000242	2.419336	0.819693	-0.000097
 658	6.5371e+01	13.8718	34.711085	0.000233	2.327462	0.788566	-0.000093
 659	6.5471e+01	13.8092	34.617396	0.000235	2.347879	0.795483	-0.000094
 660	6.5570e+01	13.7595	34.523707	0.000235	2.347879	0.795483	-0.000094
 661	6.5670e+01	13.7386	34.427167	0.000242	2.419336	0.819693	-0.000097
 662	6.5769e+01	13.6889	34.329405	0.000245	2.449960	0.830069	-0.000098
 663	6.5869e+01	13.6408	34.233679	0.000240	2.398919	0.812776	-0.000096
 664	6.5969e+01	13.6055	34.138768	0.000238	2.378503	0.805859	-0.000095
 665	6.6068e+01	13.5766	34.045487	0.000234	2.337670	0.792024	-0.000094
 666	6.6168e+01	13.5092	33.947725	0.000245	2.449960	0.830069	-0.000098
 667	6.6267e+01	13.4804	33.856887	0.000228	2.276421	0.771272	-0.000091
 668	6.6367e+01	13.4419	33.761162	0.000240	2.398919	0.812776	-0.000096
 669	6.6466e+01	13.4002	33.661770	0.000249	2.490793	0.843903	-0.000100
 670	6.6566e+01	13.3584	33.565637	0.000241	2.409128	0.816235	-0.000097
 671	6.6665e+01	13.3376	33.469504	0.000241	2.409128	0.816235	-0.000097
 672	6.6764e+01	13.3055	33.377038	0.000232	2.317254	0.785107	-0.000093
 673	6.6864e+01	13.2462	33.278053	0.000248	2.480585	0.840445	-0.000099
 674	6.6963e+01	13.1964	33.182735	0.000239	2.388711	0.809317	-0.000096
 675	6.7063e+01	13.1419	33.090268	0.000232	2.317254	0.785107	-0.000093
 676	6.7162e+01	13.1226	32.998616	0.000230	2.296838	0.778190	-0.000092
 677	6.7262e+01	13.0777	32.893115	0.000264	2.643915	0.895783	-0.000106
 678	6.7362e+01	13.0472	32.802277	0.000228	2.276421	0.771272	-0.000091
 679	6.7461e+01	13.0119	32.706144	0.000241	2.409128	0.816235	-0.000097
 680	6.7561e+01	12.9574	32.610012	0.000241	2.409128	0.816235	-0.000097
 681	6.7660e+01	12.9365	32.519174	0.000228	2.276421	0.771272	-0.000091
 682	6.7760e+01	12.8900	32.425893	0.000234	2.337670	0.792024	-0.000094
 683	6.7859e+01	12.8659	32.326909	0.000248	2.480585	0.840445	-0.000099
 684	6.7959e+01	12.8130	32.234034	0.000233	2.327462	0.788566	-0.000093
 685	6.8058e+01	12.7649	32.139531	0.000237	2.368295	0.802400	-0.000095
 686	6.8157e+01	12.7103	32.040954	0.000247	2.470377	0.836986	-0.000099
 687	6.8257e+01	12.6927	31.943192	0.000245	2.449960	0.830069	-0.000098
 688	6.8356e+01	12.6446	31.846652	0.000242	2.419336	0.819693	-0.000097
 689	6.8456e+01	12.6301	31.751334	0.000239	2.388711	0.809317	-0.000096
 690	6.8555e+01	12.5772	31.655608	0.000240	2.398919	0.812776	-0.000096
 691	6.8655e+01	12.5226	31.559068	0.000242	2.419336	0.819693	-0.000097
 692	6.8754e+01	12.5082	31.463342	0.000240	2.398919	0.812776	-0.000096
 693	6.8854e+01	12.4505	31.369246	0.000236	2.358087	0.798941	-0.000095
 694	6.8954e+01	12.4152	31.273928	0.000239	2.388711	0.809317	-0.000096
 695	6.9053e+01	12.3574	31.174536	0.000249	2.490793	0.843903	-0.000100
 696	6.9153e+01	12.3526	31.073516	0.000253	2.531626	0.857738	-0.000102
 697	6.9252e+01	12.2997	30.983085	0.000227	2.266213	0.767814	-0.000091
 698	6.9352e+01	12.2547	30.886138	0.000243	2.429544	0.823152	-0.000097
 699	6.9451e+01	12.2194	30.790005	0.000241	2.409128	0.816235	-0.000097
 700	6.9550e+01	12.1809	30.687355	0.000257	2.572458	0.871572	-0.000103
 701	6.9650e+01	12.1569	30.594073	0.000234	2.337670	0.792024	-0.000094
 702	6.9749e+01	12.0815	30.496311	0.000245	2.449960	0.830069	-0.000098
 703	6.9849e+01	12.0654	30.400993	0.000239	2.388711	0.809317	-0.000096
 704	6.9948e+01	12.0061	30.302009	0.000248	2.480585	0.840445	-0.000099
 705	7.0048e+01	11.9708	30.206283	0.000240	2.398919	0.812776	-0.000096
 706	7.0147e+01	11.9435	30.106484	0.000250	2.501001	0.847362	-0.000100
 707	7.0247e+01	11.9050	30.009537	0.000243	2.429544	0.823152	-0.000097
 708	7.0347e+01	11.8473	29.911775	0.000245	2.449960	0.830069	-0.000098
 709	7.0446e+01	11.8232	29.815234	0.000242	2.419336	0.819693	-0.000097
 710	7.0546e+01	11.7751	29.714213	0.000253	2.531626	0.857738	-0.000102
 711	7.0645e+01	11.7366	29.616451	0.000245	2.449960	0.830069	-0.000098
 712	7.0745e+01	11.6965	29.520726	0.000240	2.398919	0.812776	-0.000096
 713	7.0844e+01	11.6708	29.421334	0.000249	2.490793	0.843903	-0.000100
 714	7.0944e+01	11.6291	29.326423	0.000238	2.378503	0.805859	-0.000095
 715	7.1043e+01	11.5842	29.231513	0.000238	2.378503	0.805859	-0.000095
 716	7.1142e+01	11.5312	29.132936	0.000247	2.470377	0.836986	-0.000099
 717	7.1242e+01	11.5007	29.039654	0.000234	2.337670	0.792024	-0.000094
 718	7.1341e+01	11.4558	28.937411	0.000256	2.562250	0.868114	-0.000103
 719	7.1441e+01	11.4077	28.846166	0.000229	2.286630	0.774731	-0.000092
 720	7.1540e+01	11.3740	28.742294	0.000260	2.603083	0.881948	-0.000104
 721	7.1640e+01	11.3323	28.643717	0.000247	2.470377	0.836986	-0.000099
 722	7.1740e+01	11.2890	28.539845	0.000260	2.603083	0.881948	-0.000104
 723	7.1839e+01	11.2585	28.441268	0.000247	2.470377	0.836986	-0.000099
 724	7.1939e+01	11.2248	28.347579	0.000235	2.347879	0.795483	-0.000094
 725	7.2038e+01	11.1687	28.253483	0.000236	2.358087	0.798941	-0.000095
 726	7.2138e+01	11.1350	28.155313	0.000246	2.460168	0.833528	-0.000099
 727	7.2237e+01	11.0997	28.054700	0.000252	2.521417	0.854279	-0.000101
 728	7.2337e+01	11.0484	27.963048	0.000230	2.296838	0.778190	-0.000092
 729	7.2436e+01	11.0115	27.863249	0.000250	2.501001	0.847362	-0.000100
 730	7.2535e+01	10.9874	27.766709	0.000242	2.419336	0.819693	-0.000097
 731	7.2635e+01	10.9553	27.666095	0.000252	2.521417	0.854279	-0.000101
 732	7.2734e+01	10.9024	27.569962	0.000241	2.409128	0.816235	-0.000097
 733	7.2834e+01	10.8558	27.472607	0.000244	2.439752	0.826610	-0.000098
 734	7.2933e+01	10.8318	27.375253	0.000244	2.439752	0.826610	-0.000098
 735	7.3033e+01	10.7676	27.273010	0.000256	2.562250	0.868114	-0.000103
 736	7.3132e+01	10.7403	27.178099	0.000238	2.378503	0.805859	-0.000095
 737	7.3232e+01	10.6906	27.079929	0.000246	2.460168	0.833528	-0.000099
 738	7.3332e+01	10.6681	26.984204	0.000240	2.398919	0.812776	-0.000096
 739	7.3431e+01	10.6152	26.879109	0.000263	2.633707	0.892324	-0.000106
 740	7.3531e+01	10.6008	26.786235	0.000233	2.327462	0.788566	-0.000093
 741	7.3630e+01	10.5382	26.682770	0.000259	2.592875	0.878490	-0.000104
 742	7.3730e+01	10.4869	26.588267	0.000237	2.368295	0.802400	-0.000095
 743	7.3829e+01	10.4564	26.490912	0.000244	2.439752	0.826610	-0.000098
 744	7.3928e+01	10.4259	26.390298	0.000252	2.521417	0.854279	-0.000101
 745	7.4028e+01	10.3922	26.289685	0.000252	2.521417	0.854279	-0.000101
 746	7.4127e+01	10.3409	26.195588	0.000236	2.358087	0.798941	-0.000095
 747	7.4227e+01	10.2976	26.092938	0.000257	2.572458	0.871572	-0.000103
 748	7.4326e+01	10.2639	25.996398	0.000242	2.419336	0.819693	-0.000097
 749	7.4426e+01	10.2206	25.898228	0.000246	2.460168	0.833528	-0.000099
 750	7.4525e+01	10.1805	25.801688	0.000242	2.419336	0.819693	-0.000097
 751	7.4625e+01	10.1291	25.701482	0.000251	2.511209	0.850821	-0.000101
 752	7.4725e+01	10.0874	25.599239	0.000256	2.562250	0.868114	-0.000103
 753	7.4824e+01	10.0634	25.501069	0.000246	2.460168	0.833528	-0.000099
 754	7.4924e+01	10.0152	25.402900	0.000246	2.460168	0.833528	-0.000099
 755	7.5023e+01	9.9735	25.309618	0.000234	2.337670	0.792024	-0.000094
 756	7.5123e+01	9.9639	25.204117	0.000264	2.643915	0.895783	-0.000106
 757	7.5222e+01	9.8933	25.106354	0.000245	2.449960	0.830069	-0.000098
 758	7.5322e+01	9.8789	25.004519	0.000255	2.552042	0.864655	-0.000102
 759	7.5421e+01	9.8323	24.910830	0.000235	2.347879	0.795483	-0.000094
 760	7.5520e+01	9.7746	24.809402	0.000254	2.541834	0.861197	-0.000102
 761	7.5620e+01	9.7618	24.714491	0.000238	2.378503	0.805859	-0.000095
 762	7.5719e+01	9.7088	24.613470	0.000253	2.531626	0.857738	-0.000102
 763	7.5819e+01	9.6671	24.518967	0.000237	2.368295	0.802400	-0.000095
 764	7.5918e+01	9.6126	24.415502	0.000259	2.592875	0.878490	-0.000104
 765	7.6018e+01	9.5757	24.315703	0.000250	2.501001	0.847362	-0.000100
 766	7.6118e+01	9.5420	24.217940	0.000245	2.449960	0.830069	-0.000098
 767	7.6217e+01	9.5067	24.116512	0.000254	2.541834	0.861197	-0.000102
 768	7.6317e+01	9.4457	24.018343	0.000246	2.460168	0.833528	-0.000099
 769	7.6416e+01	9.4265	23.920580	0.000245	2.449960	0.830069	-0.000098
 770	7.6516e+01	9.3735	23.820781	0.000250	2.501001	0.847362	-0.000100
 771	7.6615e+01	9.3495	23.718538	0.000256	2.562250	0.868114	-0.000103
 772	7.6715e+01	9.3062	23.619962	0.000247	2.470377	0.836986	-0.000099
 773	7.6814e+01	9.2644	23.518126	0.000255	2.552042	0.864655	-0.000102
 774	7.6913e+01	9.2147	23.419956	0.000246	2.460168	0.833528	-0.000099
 775	7.7013e+01	9.1714	23.317713	0.000256	2.562250	0.868114	-0.000103
 776	7.7112e+01	9.1409	23.219136	0.000247	2.470377	0.836986	-0.000099
 777	7.7212e+01	9.0912	23.124633	0.000237	2.368295	0.802400	-0.000095
 778	7.7311e+01	9.0559	23.025649	0.000248	2.480585	0.840445	-0.000099
 779	7.7411e+01	9.0366	22.920147	0.000264	2.643915	0.895783	-0.000106
 780	7.7510e+01	8.9853	22.819126	0.000253	2.531626	0.857738	-0.000102
 781	7.7610e+01	8.9500	22.722586	0.000242	2.419336	0.819693	-0.000097
 782	7.7710e+01	8.9131	22.624824	0.000245	2.449960	0.830069	-0.000098
 783	7.7809e+01	8.8826	22.518100	0.000267	2.674540	0.906159	-0.000107
 784	7.7909e+01	8.8169	22.420338	0.000245	2.449960	0.830069	-0.000098
 785	7.8008e+01	8.7832	22.324612	0.000240	2.398919	0.812776	-0.000096
 786	7.8108e+01	8.7607	22.223999	0.000252	2.521417	0.854279	-0.000101
 787	7.8207e+01	8.7030	22.120534	0.000259	2.592875	0.878490	-0.000104
 788	7.8306e+01	8.6789	22.023993	0.000242	2.419336	0.819693	-0.000097
 789	7.8406e+01	8.6276	21.919306	0.000262	2.623499	0.888866	-0.000105
 790	7.8505e+01	8.5875	21.826432	0.000233	2.327462	0.788566	-0.000093
 791	7.8605e+01	8.5490	21.719709	0.000267	2.674540	0.906159	-0.000107
 792	7.8704e+01	8.5105	21.627649	0.000231	2.307046	0.781648	-0.000093
 793	7.8804e+01	8.4703	21.526221	0.000254	2.541834	0.861197	-0.000102
 794	7.8903e+01	8.4190	21.425607	0.000252	2.521417	0.854279	-0.000101
 795	7.9003e+01	8.3869	21.323364	0.000256	2.562250	0.868114	-0.000103
 796	7.9103e+01	8.3581	21.227639	0.000240	2.398919	0.812776	-0.000096
 797	7.9202e+01	8.3131	21.127840	0.000250	2.501001	0.847362	-0.000100
 798	7.9302e+01	8.2794	21.021523	0.000266	2.664332	0.902700	-0.000107
 799	7.9401e+01	8.2377	20.923354	0.000246	2.460168	0.833528	-0.000099
 800	7.9501e+01	8.1864	20.820704	0.000257	2.572458	0.871572	-0.000103
 801	7.9600e+01	8.1495	20.722941	0.000245	2.449960	0.830069	-0.000098
 802	7.9700e+01	8.1286	20.617847	0.000263	2.633707	0.892324	-0.000106
 803	7.9799e+01	8.0757	20.520492	0.000244	2.439752	0.826610	-0.000098
 804	7.9898e+01	8.0388	20.419878	0.000252	2.521417	0.854279	-0.000101
 805	7.9998e+01	7.9811	20.322524	0.000244	2.439752	0.826610	-0.000098
 806	8.0097e+01	7.9522	20.222725	0.000250	2.501001	0.847362	-0.000100
 807	8.0197e+01	7.9169	20.120889	0.000255	2.552042	0.864655	-0.000102
 808	8.0296e+01	7.8543	20.016202	0.000262	2.623499	0.888866	-0.000105
 809	8.0396e+01	7.8383	19.919254	0.000243	2.429544	0.823152	-0.000097
 810	8.0496e+01	7.7966	19.815382	0.000260	2.603083	0.881948	-0.000104
 811	8.0595e+01	7.7533	19.718435	0.000243	2.429544	0.823152	-0.000097
 812	8.0695e+01	7.6987	19.613748	0.000262	2.623499	0.888866	-0.000105
 813	8.0794e+01	7.6650	19.518429	0.000239	2.388711	0.809317	-0.000096
 814	8.0894e+01	7.6169	19.409669	0.000273	2.725581	0.923452	-0.000109
 815	8.0993e+01	7.5960	19.309055	0.000252	2.521417	0.854279	-0.000101
 816	8.1093e+01	7.5575	19.212515	0.000242	2.419336	0.819693	-0.000097
 817	8.1192e+01	7.5190	19.113531	0.000248	2.480585	0.840445	-0.000099
 818	8.1291e+01	7.4597	19.007622	0.000265	2.654124	0.899241	-0.000106
 819	8.1391e+01	7.4308	18.907008	0.000252	2.521417	0.854279	-0.000101
 820	8.1490e+01	7.4003	18.805580	0.000254	2.541834	0.861197	-0.000102
 821	8.1590e+01	7.3602	18.708225	0.000244	2.439752	0.826610	-0.000098
 822	8.1689e+01	7.3185	18.605982	0.000256	2.562250	0.868114	-0.000103
 823	8.1789e+01	7.2736	18.504961	0.000253	2.531626	0.857738	-0.000102
 824	8.1888e+01	7.2190	18.396608	0.000272	2.715373	0.919993	-0.000109
 825	8.1988e+01	7.1677	18.298438	0.000246	2.460168	0.833528	-0.000099
 826	8.2088e+01	7.1597	18.197825	0.000252	2.521417	0.854279	-0.000101
 827	8.2187e+01	7.0971	18.093545	0.000261	2.613291	0.885407	-0.000105
 828	8.2287e+01	7.0811	17.997412	0.000241	2.409128	0.816235	-0.000097
 829	8.2386e+01	7.0346	17.896391	0.000253	2.531626	0.857738	-0.000102
 830	8.2486e+01	6.9993	17.791704	0.000262	2.623499	0.888866	-0.000105
 831	8.2585e+01	6.9495	17.690276	0.000254	2.541834	0.861197	-0.000102
 832	8.2684e+01	6.9110	17.592106	0.000246	2.460168	0.833528	-0.000099
 833	8.2784e+01	6.8645	17.487827	0.000261	2.613291	0.885407	-0.000105
 834	8.2883e+01	6.8340	17.390472	0.000244	2.439752	0.826610	-0.000098
 835	8.2983e+01	6.7939	17.287414	0.000258	2.582666	0.875031	-0.000104
 836	8.3082e+01	6.7602	17.185579	0.000255	2.552042	0.864655	-0.000102
 837	8.3182e+01	6.6993	17.083743	0.000255	2.552042	0.864655	-0.000102
 838	8.3281e+01	6.6784	16.985981	0.000245	2.449960	0.830069	-0.000098
 839	8.3381e+01	6.6383	16.883738	0.000256	2.562250	0.868114	-0.000103
 840	8.3481e+01	6.6126	16.780680	0.000258	2.582666	0.875031	-0.000104
 841	8.3580e+01	6.5469	16.677622	0.000258	2.582666	0.875031	-0.000104
 842	8.3680e+01	6.5212	16.579046	0.000247	2.470377	0.836986	-0.000099
 843	8.3779e+01	6.4955	16.480469	0.000247	2.470377	0.836986	-0.000099
 844	8.3879e+01	6.4346	16.379448	0.000253	2.531626	0.857738	-0.000102
 845	8.3978e+01	6.4201	16.276797	0.000257	2.572458	0.871572	-0.000103
 846	8.4078e+01	6.3720	16.179035	0.000245	2.449960	0.830069	-0.000098
 847	8.4177e+01	6.3175	16.072311	0.000267	2.674540	0.906159	-0.000107
 848	8.4276e+01	6.2902	15.972105	0.000251	2.511209	0.850821	-0.000101
 849	8.4376e+01	6.2357	15.870677	0.000254	2.541834	0.861197	-0.000102
 850	8.4475e+01	6.2116	15.765990	0.000262	2.623499	0.888866	-0.000105
 851	8.4575e+01	6.1538	15.668228	0.000245	2.449960	0.830069	-0.000098
 852	8.4674e+01	6.1121	15.565985	0.000256	2.562250	0.868114	-0.000103
 853	8.4774e+01	6.0784	15.465371	0.000252	2.521417	0.854279	-0.000101
 854	8.4874e+01	6.0319	15.359869	0.000264	2.643915	0.895783	-0.000106
 855	8.4973e+01	6.0143	15.263736	0.000241	2.409128	0.816235	-0.000097
 856	8.5073e+01	5.9661	15.161086	0.000257	2.572458	0.871572	-0.000103
 857	8.5172e+01	5.9212	15.062102	0.000248	2.480585	0.840445	-0.000099
 858	8.5272e+01	5.8827	14.961896	0.000251	2.511209	0.850821	-0.000101
 859	8.5371e+01	5.8490	14.858431	0.000259	2.592875	0.878490	-0.000104
 860	8.5471e+01	5.7977	14.754558	0.000260	2.603083	0.881948	-0.000104
 861	8.5570e+01	5.7624	14.651908	0.000257	2.572458	0.871572	-0.000103
 862	8.5669e+01	5.6982	14.553738	0.000246	2.460168	0.833528	-0.000099
 863	8.5769e+01	5.6645	14.451495	0.000256	2.562250	0.868114	-0.000103
 864	8.5868e+01	5.6405	14.341920	0.000275	2.745997	0.930369	-0.000110
 865	8.5968e+01	5.5972	14.242529	0.000249	2.490793	0.843903	-0.000100
 866	8.6067e+01	5.5763	14.140693	0.000255	2.552042	0.864655	-0.000102
 867	8.6167e+01	5.5202	14.041709	0.000248	2.480585	0.840445	-0.000099
 868	8.6266e+01	5.4977	13.940688	0.000253	2.531626	0.857738	-0.000102
 869	8.6366e+01	5.4432	13.842111	0.000247	2.470377	0.836986	-0.000099
 870	8.6466e+01	5.3966	13.737424	0.000262	2.623499	0.888866	-0.000105
 871	8.6565e+01	5.3533	13.636403	0.000253	2.531626	0.857738	-0.000102
 872	8.6665e+01	5.3357	13.535789	0.000252	2.521417	0.854279	-0.000101
 873	8.6764e+01	5.2843	13.436398	0.000249	2.490793	0.843903	-0.000100
 874	8.6864e+01	5.2539	13.330896	0.000264	2.643915	0.895783	-0.000106
 875	8.6963e+01	5.2122	13.223765	0.000268	2.684748	0.909617	-0.000108
 876	8.7063e+01	5.1592	13.124373	0.000249	2.490793	0.843903	-0.000100
 877	8.7162e+01	5.1303	13.021316	0.000258	2.582666	0.875031	-0.000104
 878	8.7261e+01	5.0806	12.917036	0.000261	2.613291	0.885407	-0.000105
 879	8.7361e+01	5.0373	12.807868	0.000274	2.735789	0.926910	-0.000110
 880	8.7460e+01	5.0084	12.709699	0.000246	2.460168	0.833528	-0.000099
 881	8.7560e+01	4.9619	12.609492	0.000251	2.511209	0.850821	-0.000101
 882	8.7659e+01	4.9202	12.513360	0.000241	2.409128	0.816235	-0.000097
 883	8.7759e+01	4.8929	12.404599	0.000273	2.725581	0.923452	-0.000109
 884	8.7859e+01	4.8496	12.305207	0.000249	2.490793	0.843903	-0.000100
 885	8.7958e+01	4.8047	12.201742	0.000259	2.592875	0.878490	-0.000104
 886	8.8058e+01	4.7710	12.101129	0.000252	2.521417	0.854279	-0.000101
 887	8.8157e+01	4.7213	12.000515	0.000252	2.521417	0.854279	-0.000101
 888	8.8257e+01	4.6972	11.896643	0.000260	2.603083	0.881948	-0.000104
 889	8.8356e+01	4.6587	11.793585	0.000258	2.582666	0.875031	-0.000104
 890	8.8456e+01	4.6250	11.689713	0.000260	2.603083	0.881948	-0.000104
 891	8.8555e+01	4.5480	11.590321	0.000249	2.490793	0.843903	-0.000100
 892	8.8654e+01	4.5287	11.490522	0.000250	2.501001	0.847362	-0.000100
 893	8.8754e+01	4.4822	11.384206	0.000266	2.664332	0.902700	-0.000107
 894	8.8853e+01	4.4309	11.284814	0.000249	2.490793	0.843903	-0.000100
 895	8.8953e+01	4.3972	11.185423	0.000249	2.490793	0.843903	-0.000100
 896	8.9052e+01	4.3892	11.086031	0.000249	2.490793	0.843903	-0.000100
 897	8.9152e+01	4.3282	10.981344	0.000262	2.623499	0.888866	-0.000105
 898	8.9251e+01	4.2737	10.879509	0.000255	2.552042	0.864655	-0.000102
 899	8.9351e+01	4.2496	10.777266	0.000256	2.562250	0.868114	-0.000103
 900	8.9451e+01	4.2111	10.679096	0.000246	2.460168	0.833528	-0.000099
 901	8.9550e+01	4.1694	10.572372	0.000267	2.674540	0.906159	-0.000107
 902	8.9650e+01	4.1229	10.468500	0.000260	2.603083	0.881948	-0.000104
 903	8.9749e+01	4.1036	10.370738	0.000245	2.449960	0.830069	-0.000098
 904	8.9849e+01	4.0411	10.272161	0.000247	2.470377	0.836986	-0.000099
 905	8.9948e+01	3.9865	10.167881	0.000261	2.613291	0.885407	-0.000105
 906	9.0047e+01	3.9609	10.063194	0.000262	2.623499	0.888866	-0.000105
 907	9.0147e+01	3.9368	9.962173	0.000253	2.531626	0.857738	-0.000102
 908	9.0246e+01	3.8758	9.856671	0.000264	2.643915	0.895783	-0.000106
 909	9.0346e+01	3.8518	9.758094	0.000247	2.470377	0.836986	-0.000099
 910	9.0445e+01	3.8213	9.650556	0.000269	2.694956	0.913076	-0.000108
 911	9.0545e+01	3.7667	9.552794	0.000245	2.449960	0.830069	-0.000098
 912	9.0644e+01	3.7459	9.446477	0.000266	2.664332	0.902700	-0.000107
 913	9.0744e+01	3.7058	9.351567	0.000238	2.378503	0.805859	-0.000095
 914	9.0844e+01	3.6544	9.242806	0.000273	2.725581	0.923452	-0.000109
 915	9.0943e+01	3.6063	9.145859	0.000243	2.429544	0.823152	-0.000097
 916	9.1043e+01	3.5710	9.038728	0.000268	2.684748	0.909617	-0.000108
 917	9.1142e+01	3.5341	8.940965	0.000245	2.449960	0.830069	-0.000098
 918	9.1242e+01	3.4651	8.835871	0.000263	2.633707	0.892324	-0.000106
 919	9.1341e+01	3.4491	8.732406	0.000259	2.592875	0.878490	-0.000104
 920	9.1441e+01	3.4138	8.634236	0.000246	2.460168	0.833528	-0.000099
 921	9.1540e+01	3.3705	8.533215	0.000253	2.531626	0.857738	-0.000102
 922	9.1639e+01	3.3143	8.426492	0.000267	2.674540	0.906159	-0.000107
 923	9.1739e+01	3.2935	8.327507	0.000248	2.480585	0.840445	-0.000099
 924	9.1838e+01	3.2534	8.221191	0.000266	2.664332	0.902700	-0.000107
 925	9.1938e+01	3.2165	8.125058	0.000241	2.409128	0.816235	-0.000097
 926	9.2037e+01	3.1619	8.021593	0.000259	2.592875	0.878490	-0.000104
 927	9.2137e+01	3.1106	7.917721	0.000260	2.603083	0.881948	-0.000104
 928	9.2237e+01	3.1010	7.815885	0.000255	2.552042	0.864655	-0.000102
 929	9.2336e+01	3.0400	7.712420	0.000259	2.592875	0.878490	-0.000104
 930	9.2436e+01	2.9935	7.612214	0.000251	2.511209	0.850821	-0.000101
 931	9.2535e+01	2.9742	7.513637	0.000247	2.470377	0.836986	-0.000099
 932	9.2635e+01	2.9245	7.406506	0.000268	2.684748	0.909617	-0.000108
 933	9.2734e+01	2.8876	7.308336	0.000246	2.460168	0.833528	-0.000099
 934	9.2834e+01	2.8475	7.206501	0.000255	2.552042	0.864655	-0.000102
 935	9.2933e+01	2.8026	7.104665	0.000255	2.552042	0.864655	-0.000102
 936	9.3032e+01	2.7898	7.002422	0.000256	2.562250	0.868114	-0.000103
 937	9.3132e+01	2.7432	6.895698	0.000267	2.674540	0.906159	-0.000107
 938	9.3231e+01	2.6967	6.791826	0.000260	2.603083	0.881948	-0.000104
 939	9.3331e+01	2.6470	6.689583	0.000256	2.562250	0.868114	-0.000103
 940	9.3430e+01	2.6197	6.593043	0.000242	2.419336	0.819693	-0.000097
 941	9.3530e+01	2.5828	6.491207	0.000255	2.552042	0.864655	-0.000102
 942	9.3629e+01	2.5122	6.383669	0.000269	2.694956	0.913076	-0.000108
 943	9.3729e+01	2.4914	6.285092	0.000247	2.470377	0.836986	-0.000099
 944	9.3829e+01	2.4641	6.183256	0.000255	2.552042	0.864655	-0.000102
 945	9.3928e+01	2.4176	6.078569	0.000262	2.623499	0.888866	-0.000105
 946	9.4028e+01	2.3678	5.979585	0.000248	2.480585	0.840445	-0.000099
 947	9.4127e+01	2.3133	5.874083	0.000264	2.643915	0.895783	-0.000106
 948	9.4227e+01	2.2941	5.772655	0.000254	2.541834	0.861197	-0.000102
 949	9.4326e+01	2.2411	5.667153	0.000264	2.643915	0.895783	-0.000106
 950	9.4425e+01	2.2090	5.570613	0.000242	2.419336	0.819693	-0.000097
 951	9.4525e+01	2.1818	5.461853	0.000273	2.725581	0.923452	-0.000109
 952	9.4624e+01	2.1384	5.358795	0.000258	2.582666	0.875031	-0.000104
 953	9.4724e+01	2.0983	5.257367	0.000254	2.541834	0.861197	-0.000102
 954	9.4823e+01	2.0598	5.159197	0.000246	2.460168	0.833528	-0.000099
 955	9.4923e+01	2.0165	5.056954	0.000256	2.562250	0.868114	-0.000103
 956	9.5022e+01	1.9892	4.947786	0.000274	2.735789	0.926910	-0.000110
 957	9.5122e+01	1.9331	4.851653	0.000241	2.409128	0.816235	-0.000097
 958	9.5222e+01	1.9042	4.747781	0.000260	2.603083	0.881948	-0.000104
 959	9.5321e+01	1.8609	4.650426	0.000244	2.439752	0.826610	-0.000098
 960	9.5421e+01	1.8032	4.545332	0.000263	2.633707	0.892324	-0.000106
 961	9.5520e+01	1.7871	4.442274	0.000258	2.582666	0.875031	-0.000104
 962	9.5620e+01	1.7358	4.342475	0.000250	2.501001	0.847362	-0.000100
 963	9.5719e+01	1.6909	4.247157	0.000239	2.388711	0.809317	-0.000096
 964	9.5819e+01	1.6604	4.142470	0.000262	2.623499	0.888866	-0.000105
 965	9.5918e+01	1.5834	4.037783	0.000262	2.623499	0.888866	-0.000105
 966	9.6017e+01	1.5689	3.937984	0.000250	2.501001	0.847362	-0.000100
 967	9.6117e+01	1.5513	3.834926	0.000258	2.582666	0.875031	-0.000104
 968	9.6216e+01	1.4791	3.732276	0.000257	2.572458	0.871572	-0.000103
 969	9.6316e+01	1.4406	3.626367	0.000265	2.654124	0.899241	-0.000106
 970	9.6415e+01	1.4133	3.524939	0.000254	2.541834	0.861197	-0.000102
 971	9.6515e+01	1.3941	3.422288	0.000257	2.572458	0.871572	-0.000103
 972	9.6615e+01	1.3604	3.322897	0.000249	2.490793	0.843903	-0.000100
 973	9.6714e+01	1.3042	3.223505	0.000249	2.490793	0.843903	-0.000100
 974	9.6814e+01	1.2625	3.114745	0.000273	2.725581	0.923452	-0.000109
 975	9.6913e+01	1.2128	3.019427	0.000239	2.388711	0.809317	-0.000096
 976	9.7013e+01	1.1759	2.913925	0.000264	2.643915	0.895783	-0.000106
 977	9.7112e+01	1.1374	2.810053	0.000260	2.603083	0.881948	-0.000104
 978	9.7212e+01	1.1037	2.709032	0.000253	2.531626	0.857738	-0.000102
 979	9.7311e+01	1.0716	2.601086	0.000271	2.705164	0.916535	-0.000108
 980	9.7410e+01	1.0283	2.505360	0.000240	2.398919	0.812776	-0.000096
 981	9.7510e+01	0.9706	2.395785	0.000275	2.745997	0.930369	-0.000110
 982	9.7609e+01	0.9401	2.294357	0.000254	2.541834	0.861197	-0.000102
 983	9.7709e+01	0.8887	2.190077	0.000261	2.613291	0.885407	-0.000105
 984	9.7808e+01	0.8631	2.096796	0.000234	2.337670	0.792024	-0.000094
 985	9.7908e+01	0.8117	1.988035	0.000273	2.725581	0.923452	-0.000109
 986	9.8007e+01	0.7652	1.882534	0.000264	2.643915	0.895783	-0.000106
 987	9.8107e+01	0.7428	1.781513	0.000253	2.531626	0.857738	-0.000102
 988	9.8207e+01	0.7027	1.682528	0.000248	2.480585	0.840445	-0.000099
 989	9.8306e+01	0.6561	1.577434	0.000263	2.633707	0.892324	-0.000106
 990	9.8406e+01	0.6208	1.476820	0.000252	2.521417	0.854279	-0.000101
 991	9.8505e+01	0.5855	1.378244	0.000247	2.470377	0.836986	-0.000099
 992	9.8605e+01	0.5470	1.276001	0.000256	2.562250	0.868114	-0.000103
 993	9.8704e+01	0.4893	1.170499	0.000264	2.643915	0.895783	-0.000106
 994	9.8803e+01	0.4652	1.071922	0.000247	2.470377	0.836986	-0.000099
 995	9.8903e+01	0.4299	0.969679	0.000256	2.562250	0.868114	-0.000103
 996	9.9002e+01	0.3882	0.862141	0.000269	2.694956	0.913076	-0.000108
 997	9.9102e+01	0.3481	0.762342	0.000250	2.501001	0.847362	-0.000100
 998	9.9201e+01	0.3016	0.660506	0.000255	2.552042	0.864655	-0.000102
 999	9.9301e+01	0.2567	0.556226	0.000261	2.613291	0.885407	-0.000105
1000	9.9400e+01	0.1941	0.454798	0.000254	2.541834	0.861197	-0.000102
1001	9.9500e+01	0.1893	0.357443	0.000244	2.439752	0.826610	-0.000098
1002	9.9600e+01	0.1155	0.249090	0.000272	2.715373	0.919993	-0.000109
1003	9.9699e+01	0.1043	0.152142	0.000243	2.429544	0.823152	-0.000097
1004	9.9799e+01	0.0754	0.047455	0.000262	2.623499	0.888866	-0.000105
1005	9.9898e+01	0.0385	-0.030754	0.000196	1.959968	0.664055	-0.000079
1006	9.9998e+01	0.0016	-0.139107	0.000272	2.715373	0.919993	-0.000109
1007	1.0010e+02	-0.0241	-0.236462	0.000244	2.439752	0.826610	-0.000098
1008	1.0020e+02	-0.0979	-0.339113	0.000257	2.572458	0.871572	-0.000103
1009	1.0030e+02	-0.1267	-0.441763	0.000257	2.572458	0.871572	-0.000103
1010	1.0040e+02	-0.1797	-0.542377	0.000252	2.521417	0.854279	-0.000101
1011	1.0050e+02	-0.1893	-0.647471	0.000263	2.633707	0.892324	-0.000106
1012	1.0059e+02	-0.2454	-0.751343	0.000260	2.603083	0.881948	-0.000104
1013	1.0069e+02	-0.2888	-0.851142	0.000250	2.501001	0.847362	-0.000100
1014	1.0079e+02	-0.3257	-0.951756	0.000252	2.521417	0.854279	-0.000101
1015	1.0089e+02	-0.3577	-1.051555	0.000250	2.501001	0.847362	-0.000100
1016	1.0099e+02	-0.4027	-1.155020	0.000259	2.592875	0.878490	-0.000104
1017	1.0109e+02	-0.4476	-1.257263	0.000256	2.562250	0.868114	-0.000103
1018	1.0119e+02	-0.5005	-1.365616	0.000272	2.715373	0.919993	-0.000109
1019	1.0129e+02	-0.5166	-1.456861	0.000229	2.286630	0.774731	-0.000092
1020	1.0139e+02	-0.5727	-1.558696	0.000255	2.552042	0.864655	-0.000102
1021	1.0149e+02	-0.6096	-1.663791	0.000263	2.633707	0.892324	-0.000106
1022	1.0159e+02	-0.6385	-1.770107	0.000266	2.664332	0.902700	-0.000107
1023	1.0169e+02	-0.6866	-1.863389	0.000234	2.337670	0.792024	-0.000094
1024	1.0179e+02	-0.7347	-1.967261	0.000260	2.603083	0.881948	-0.000104
1025	1.0189e+02	-0.7620	-2.067467	0.000251	2.511209	0.850821	-0.000101
1026	1.0199e+02	-0.7925	-2.173376	0.000265	2.654124	0.899241	-0.000106
1027	1.0209e+02	-0.8326	-2.270324	0.000243	2.429544	0.823152	-0.000097
1028	1.0219e+02	-0.8823	-2.378269	0.000271	2.705164	0.916535	-0.000108
1029	1.0229e+02	-0.9064	-2.482549	0.000261	2.613291	0.885407	-0.000105
1030	1.0239e+02	-0.9674	-2.579497	0.000243	2.429544	0.823152	-0.000097
1031	1.0248e+02	-1.0123	-2.684591	0.000263	2.633707	0.892324	-0.000106
1032	1.0258e+02	-1.0524	-2.782761	0.000246	2.460168	0.833528	-0.000099
1033	1.0268e+02	-1.0973	-2.883374	0.000252	2.521417	0.854279	-0.000101
1034	1.0278e+02	-1.1342	-2.986025	0.000257	2.572458	0.871572	-0.000103
1035	1.0288e+02	-1.1759	-3.088675	0.000257	2.572458	0.871572	-0.000103
1036	1.0298e+02	-1.2000	-3.185215	0.000242	2.419336	0.819693	-0.000097
1037	1.0308e+02	-1.2593	-3.289087	0.000260	2.603083	0.881948	-0.000104
1038	1.0318e+02	-1.3042	-3.392960	0.000260	2.603083	0.881948	-0.000104
1039	1.0328e+02	-1.3299	-3.496425	0.000259	2.592875	0.878490	-0.000104
1040	1.0338e+02	-1.3668	-3.592558	0.000241	2.409128	0.816235	-0.000097
1041	1.0348e+02	-1.3973	-3.698059	0.000264	2.643915	0.895783	-0.000106
1042	1.0358e+02	-1.4326	-3.801524	0.000259	2.592875	0.878490	-0.000104
1043	1.0368e+02	-1.5096	-3.903360	0.000255	2.552042	0.864655	-0.000102
1044	1.0378e+02	-1.5112	-4.001122	0.000245	2.449960	0.830069	-0.000098
1045	1.0388e+02	-1.5497	-4.105809	0.000262	2.623499	0.888866	-0.000105
1046	1.0398e+02	-1.5930	-4.206016	0.000251	2.511209	0.850821	-0.000101
1047	1.0408e+02	-1.6363	-4.313554	0.000269	2.694956	0.913076	-0.000108
1048	1.0418e+02	-1.6700	-4.414575	0.000253	2.531626	0.857738	-0.000102
1049	1.0428e+02	-1.7101	-4.507042	0.000232	2.317254	0.785107	-0.000093
1050	1.0438e+02	-1.7502	-4.608470	0.000254	2.541834	0.861197	-0.000102
1051	1.0447e+02	-1.7935	-4.712750	0.000261	2.613291	0.885407	-0.000105
1052	1.0457e+02	-1.8609	-4.813771	0.000253	2.531626	0.857738	-0.000102
1053	1.0467e+02	-1.8802	-4.916014	0.000256	2.562250	0.868114	-0.000103
1054	1.0477e+02	-1.9203	-5.017849	0.000255	2.552042	0.864655	-0.000102
1055	1.0487e+02	-1.9540	-5.119278	0.000254	2.541834	0.861197	-0.000102
1056	1.0497e+02	-1.9925	-5.223965	0.000262	2.623499	0.888866	-0.000105
1057	1.0507e+02	-2.0438	-5.326208	0.000256	2.562250	0.868114	-0.000103
1058	1.0517e+02	-2.0903	-5.425599	0.000249	2.490793	0.843903	-0.000100
1059	1.0527e+02	-2.1112	-5.521732	0.000241	2.409128	0.816235	-0.000097
1060	1.0537e+02	-2.1545	-5.625604	0.000260	2.603083	0.881948	-0.000104
1061	1.0547e+02	-2.2058	-5.730291	0.000262	2.623499	0.888866	-0.000105
1062	1.0557e+02	-2.2443	-5.829683	0.000249	2.490793	0.843903	-0.000100
1063	1.0567e+02	-2.2892	-5.926630	0.000243	2.429544	0.823152	-0.000097
1064	1.0577e+02	-2.3213	-6.029281	0.000257	2.572458	0.871572	-0.000103
1065	1.0587e+02	-2.3662	-6.129487	0.000251	2.511209	0.850821	-0.000101
1066	1.0597e+02	-2.3951	-6.236618	0.000268	2.684748	0.909617	-0.000108
1067	1.0607e+02	-2.4529	-6.330714	0.000236	2.358087	0.798941	-0.000095
1068	1.0617e+02	-2.4785	-6.430513	0.000250	2.501001	0.847362	-0.000100
1069	1.0627e+02	-2.5347	-6.529090	0.000247	2.470377	0.836986	-0.000099
1070	1.0637e+02	-2.5700	-6.641109	0.000281	2.807246	0.951121	-0.000113
1071	1.0647e+02	-2.6133	-6.728281	0.000218	2.184548	0.740145	-0.000088
1072	1.0656e+02	-2.6293	-6.832968	0.000262	2.623499	0.888866	-0.000105
1073	1.0666e+02	-2.6727	-6.936840	0.000260	2.603083	0.881948	-0.000104
1074	1.0676e+02	-2.7192	-7.037454	0.000252	2.521417	0.854279	-0.000101
1075	1.0686e+02	-2.7561	-7.138067	0.000252	2.521417	0.854279	-0.000101
1076	1.0696e+02	-2.8026	-7.232163	0.000236	2.358087	0.798941	-0.000095
1077	1.0706e+02	-2.8571	-7.341331	0.000274	2.735789	0.926910	-0.000110
1078	1.0716e+02	-2.8555	-7.441945	-0.000252	-2.521417	-0.854279	-0.000101
1079	1.0726e+02	-2.9309	-7.545410	0.000259	2.592875	0.878490	-0.000104
1080	1.0736e+02	-2.9566	-7.639913	0.000237	2.368295	0.802400	-0.000095
1081	1.0746e+02	-3.0031	-7.747452	0.000269	2.694956	0.913076	-0.000108
1082	1.0756e+02	-3.0448	-7.847251	0.000250	2.501001	0.847362	-0.000100
1083	1.0766e+02	-3.0817	-7.949086	0.000255	2.552042	0.864655	-0.000102
1084	1.0776e+02	-3.0898	-8.047663	0.000247	2.470377	0.836986	-0.000099
1085	1.0786e+02	-3.1555	-8.147869	0.000251	2.511209	0.850821	-0.000101
1086	1.0796e+02	-3.1940	-8.248890	0.000253	2.531626	0.857738	-0.000102
1087	1.0806e+02	-3.2502	-8.349911	0.000253	2.531626	0.857738	-0.000102
1088	1.0816e+02	-3.2807	-8.451747	0.000255	2.552042	0.864655	-0.000102
1089	1.0826e+02	-3.3015	-8.548287	0.000242	2.419336	0.819693	-0.000097
1090	1.0836e+02	-3.3545	-8.647271	0.000248	2.480585	0.840445	-0.000099
1091	1.0845e+02	-3.3978	-8.751144	0.000260	2.603083	0.881948	-0.000104
1092	1.0855e+02	-3.4315	-8.854201	0.000258	2.582666	0.875031	-0.000104
1093	1.0865e+02	-3.4860	-8.949520	0.000239	2.388711	0.809317	-0.000096
1094	1.0875e+02	-3.5117	-9.049318	0.000250	2.501001	0.847362	-0.000100
1095	1.0885e+02	-3.5518	-9.157264	0.000271	2.705164	0.916535	-0.000108
1096	1.0895e+02	-3.5919	-9.254619	0.000244	2.439752	0.826610	-0.000098
1097	1.0905e+02	-3.6432	-9.354418	0.000250	2.501001	0.847362	-0.000100
1098	1.0915e+02	-3.6753	-9.448107	0.000235	2.347879	0.795483	-0.000094
1099	1.0925e+02	-3.6945	-9.553609	0.000264	2.643915	0.895783	-0.000106
1100	1.0935e+02	-3.7539	-9.651371	0.000245	2.449960	0.830069	-0.000098
1101	1.0945e+02	-3.8004	-9.758094	0.000267	2.674540	0.906159	-0.000107
1102	1.0955e+02	-3.8229	-9.853413	0.000239	2.388711	0.809317	-0.000096
1103	1.0965e+02	-3.8742	-9.955248	0.000255	2.552042	0.864655	-0.000102
1104	1.0975e+02	-3.9111	-10.057899	0.000257	2.572458	0.871572	-0.000103
1105	1.0985e+02	-3.9464	-10.162178	0.000261	2.613291	0.885407	-0.000105
1106	1.0995e+02	-4.0010	-10.263199	0.000253	2.531626	0.857738	-0.000102
1107	1.1005e+02	-4.0443	-10.357295	0.000236	2.358087	0.798941	-0.000095
1108	1.1015e+02	-4.0956	-10.460353	0.000258	2.582666	0.875031	-0.000104
1109	1.1025e+02	-4.1181	-10.558115	0.000245	2.449960	0.830069	-0.000098
1110	1.1035e+02	-4.1822	-10.663617	0.000264	2.643915	0.895783	-0.000106
1111	1.1044e+02	-4.2031	-10.756084	0.000232	2.317254	0.785107	-0.000093
1112	1.1054e+02	-4.2416	-10.857512	0.000254	2.541834	0.861197	-0.000102
1113	1.1064e+02	-4.2721	-10.958533	0.000253	2.531626	0.857738	-0.000102
1114	1.1074e+02	-4.3154	-11.065664	0.000268	2.684748	0.909617	-0.000108
1115	1.1084e+02	-4.3330	-11.162612	0.000243	2.429544	0.823152	-0.000097
1116	1.1094e+02	-4.3988	-11.263225	0.000252	2.521417	0.854279	-0.000101
1117	1.1104e+02	-4.4357	-11.362617	0.000249	2.490793	0.843903	-0.000100
1118	1.1114e+02	-4.4726	-11.463638	0.000253	2.531626	0.857738	-0.000102
1119	1.1124e+02	-4.5207	-11.566288	0.000257	2.572458	0.871572	-0.000103
1120	1.1134e+02	-4.5512	-11.660792	0.000237	2.368295	0.802400	-0.000095
1121	1.1144e+02	-4.6025	-11.759776	0.000248	2.480585	0.840445	-0.000099
1122	1.1154e+02	-4.6170	-11.864463	0.000262	2.623499	0.888866	-0.000105
1123	1.1164e+02	-4.6555	-11.964669	0.000251	2.511209	0.850821	-0.000101
1124	1.1174e+02	-4.7164	-12.070171	0.000264	2.643915	0.895783	-0.000106
1125	1.1184e+02	-4.7405	-12.162230	0.000231	2.307046	0.781648	-0.000093
1126	1.1194e+02	-4.7983	-12.262436	0.000251	2.511209	0.850821	-0.000101
1127	1.1204e+02	-4.8448	-12.361421	0.000248	2.480585	0.840445	-0.000099
1128	1.1214e+02	-4.8833	-12.460405	0.000248	2.480585	0.840445	-0.000099
1129	1.1224e+02	-4.8993	-12.556538	0.000241	2.409128	0.816235	-0.000097
1130	1.1234e+02	-4.9747	-12.656744	0.000251	2.511209	0.850821	-0.000101
1131	1.1244e+02	-4.9779	-12.758172	0.000254	2.541834	0.861197	-0.000102
1132	1.1253e+02	-5.0357	-12.857971	0.000250	2.501001	0.847362	-0.000100
1133	1.1263e+02	-5.0469	-12.953697	0.000240	2.398919	0.812776	-0.000096
1134	1.1273e+02	-5.1047	-13.055125	0.000254	2.541834	0.861197	-0.000102
1135	1.1283e+02	-5.1528	-13.160219	0.000263	2.633707	0.892324	-0.000106
1136	1.1293e+02	-5.1801	-13.257574	0.000244	2.439752	0.826610	-0.000098
1137	1.1303e+02	-5.2426	-13.352893	0.000239	2.388711	0.809317	-0.000096
1138	1.1313e+02	-5.2715	-13.458394	0.000264	2.643915	0.895783	-0.000106
1139	1.1323e+02	-5.3164	-13.561859	0.000259	2.592875	0.878490	-0.000104
1140	1.1333e+02	-5.3549	-13.654733	0.000233	2.327462	0.788566	-0.000093
1141	1.1343e+02	-5.3774	-13.757791	0.000258	2.582666	0.875031	-0.000104
1142	1.1353e+02	-5.4159	-13.853517	0.000240	2.398919	0.812776	-0.000096
1143	1.1363e+02	-5.4480	-13.956574	0.000258	2.582666	0.875031	-0.000104
1144	1.1373e+02	-5.5105	-14.057188	0.000252	2.521417	0.854279	-0.000101
1145	1.1383e+02	-5.5490	-14.157801	0.000252	2.521417	0.854279	-0.000101
1146	1.1393e+02	-5.5715	-14.254342	0.000242	2.419336	0.819693	-0.000097
1147	1.1403e+02	-5.6325	-14.355363	0.000253	2.531626	0.857738	-0.000102
1148	1.1413e+02	-5.6758	-14.454347	0.000248	2.480585	0.840445	-0.000099
1149	1.1423e+02	-5.7191	-14.558626	0.000261	2.613291	0.885407	-0.000105
1150	1.1433e+02	-5.7496	-14.660869	0.000256	2.562250	0.868114	-0.000103
1151	1.1442e+02	-5.7929	-14.757410	0.000242	2.419336	0.819693	-0.000097
1152	1.1452e+02	-5.8169	-14.854357	0.000243	2.429544	0.823152	-0.000097
1153	1.1462e+02	-5.8731	-14.959044	0.000262	2.623499	0.888866	-0.000105
1154	1.1472e+02	-5.9260	-15.057214	0.000246	2.460168	0.833528	-0.000099
1155	1.1482e+02	-5.9629	-15.157420	0.000251	2.511209	0.850821	-0.000101
1156	1.1492e+02	-5.9806	-15.253960	0.000242	2.419336	0.819693	-0.000097
1157	1.1502e+02	-6.0351	-15.350500	0.000242	2.419336	0.819693	-0.000097
1158	1.1512e+02	-6.0688	-15.456409	0.000265	2.654124	0.899241	-0.000106
1159	1.1522e+02	-6.1137	-15.551320	0.000238	2.378503	0.805859	-0.000095
1160	1.1532e+02	-6.1394	-15.652341	0.000253	2.531626	0.857738	-0.000102
1161	1.1542e+02	-6.1907	-15.749696	0.000244	2.439752	0.826610	-0.000098
1162	1.1552e+02	-6.2292	-15.855605	0.000265	2.654124	0.899241	-0.000106
1163	1.1562e+02	-6.2613	-15.948072	0.000232	2.317254	0.785107	-0.000093
1164	1.1572e+02	-6.3159	-16.045427	0.000244	2.439752	0.826610	-0.000098
1165	1.1582e+02	-6.3560	-16.146040	0.000252	2.521417	0.854279	-0.000101
1166	1.1592e+02	-6.3929	-16.246247	0.000251	2.511209	0.850821	-0.000101
1167	1.1602e+02	-6.4169	-16.341157	0.000238	2.378503	0.805859	-0.000095
1168	1.1612e+02	-6.4635	-16.436476	0.000239	2.388711	0.809317	-0.000096
1169	1.1622e+02	-6.4891	-16.529757	0.000234	2.337670	0.792024	-0.000094
1170	1.1632e+02	-6.5517	-16.636073	0.000266	2.664332	0.902700	-0.000107
1171	1.1642e+02	-6.5870	-16.737502	0.000254	2.541834	0.861197	-0.000102
1172	1.1651e+02	-6.6255	-16.832005	0.000237	2.368295	0.802400	-0.000095
1173	1.1661e+02	-6.6463	-16.927323	0.000239	2.388711	0.809317	-0.000096
1174	1.1671e+02	-6.7057	-17.032010	0.000262	2.623499	0.888866	-0.000105
1175	1.1681e+02	-6.7298	-17.124477	0.000232	2.317254	0.785107	-0.000093
1176	1.1691e+02	-6.8019	-17.226720	0.000256	2.562250	0.868114	-0.000103
1177	1.1701e+02	-6.8356	-17.322038	0.000239	2.388711	0.809317	-0.000096
1178	1.1711e+02	-6.8645	-17.420208	0.000246	2.460168	0.833528	-0.000099
1179	1.1721e+02	-6.8854	-17.521636	0.000254	2.541834	0.861197	-0.000102
1180	1.1731e+02	-6.9447	-17.623879	0.000256	2.562250	0.868114	-0.000103
1181	1.1741e+02	-6.9816	-17.722049	0.000246	2.460168	0.833528	-0.000099
1182	1.1751e+02	-7.0105	-17.824292	0.000256	2.562250	0.868114	-0.000103
1183	1.1761e+02	-7.0522	-17.923276	0.000248	2.480585	0.840445	-0.000099
1184	1.1771e+02	-7.0971	-18.016150	0.000233	2.327462	0.788566	-0.000093
1185	1.1781e+02	-7.1517	-18.118800	0.000257	2.572458	0.871572	-0.000103
1186	1.1791e+02	-7.1789	-18.212896	0.000236	2.358087	0.798941	-0.000095
1187	1.1801e+02	-7.2367	-18.311066	0.000246	2.460168	0.833528	-0.000099
1188	1.1811e+02	-7.2896	-18.407606	0.000242	2.419336	0.819693	-0.000097
1189	1.1821e+02	-7.3201	-18.511479	0.000260	2.603083	0.881948	-0.000104
1190	1.1831e+02	-7.3426	-18.603538	0.000231	2.307046	0.781648	-0.000093
1191	1.1841e+02	-7.3859	-18.710262	0.000267	2.674540	0.906159	-0.000107
1192	1.1850e+02	-7.4372	-18.804358	0.000236	2.358087	0.798941	-0.000095
1193	1.1860e+02	-7.4693	-18.903749	0.000249	2.490793	0.843903	-0.000100
1194	1.1870e+02	-7.5222	-19.004770	0.000253	2.531626	0.857738	-0.000102
1195	1.1880e+02	-7.5399	-19.104977	0.000251	2.511209	0.850821	-0.000101
1196	1.1890e+02	-7.5832	-19.198258	0.000234	2.337670	0.792024	-0.000094
1197	1.1900e+02	-7.6105	-19.298057	0.000250	2.501001	0.847362	-0.000100
1198	1.1910e+02	-7.6522	-19.395005	0.000243	2.429544	0.823152	-0.000097
1199	1.1920e+02	-7.6779	-19.491137	0.000241	2.409128	0.816235	-0.000097
1200	1.1930e+02	-7.7420	-19.589307	0.000246	2.460168	0.833528	-0.000099
1201	1.1940e+02	-7.7789	-19.687477	0.000246	2.460168	0.833528	-0.000099
1202	1.1950e+02	-7.8206	-19.786868	0.000249	2.490793	0.843903	-0.000100
1203	1.1960e+02	-7.8672	-19.880150	0.000234	2.337670	0.792024	-0.000094
1204	1.1970e+02	-7.8832	-19.980763	0.000252	2.521417	0.854279	-0.000101
1205	1.1980e+02	-7.9361	-20.076081	0.000239	2.388711	0.809317	-0.000096
1206	1.1990e+02	-7.9666	-20.184842	0.000273	2.725581	0.923452	-0.000109
1207	1.2000e+02	-8.0115	-20.275679	0.000228	2.276421	0.771272	-0.000091
1208	1.2010e+02	-8.0436	-20.377107	0.000254	2.541834	0.861197	-0.000102
1209	1.2020e+02	-8.0821	-20.469982	0.000233	2.327462	0.788566	-0.000093
1210	1.2030e+02	-8.1270	-20.576298	0.000266	2.664332	0.902700	-0.000107
1211	1.2039e+02	-8.1800	-20.672023	0.000240	2.398919	0.812776	-0.000096
1212	1.2049e+02	-8.2105	-20.764490	0.000232	2.317254	0.785107	-0.000093
1213	1.2059e+02	-8.2714	-20.869177	0.000262	2.623499	0.888866	-0.000105
1214	1.2069e+02	-8.2971	-20.968162	0.000248	2.480585	0.840445	-0.000099
1215	1.2079e+02	-8.3228	-21.063887	0.000240	2.398919	0.812776	-0.000096
1216	1.2089e+02	-8.3725	-21.167759	0.000260	2.603083	0.881948	-0.000104
1217	1.2099e+02	-8.4094	-21.256560	0.000223	2.225381	0.753979	-0.000089
1218	1.2109e+02	-8.4559	-21.356766	0.000251	2.511209	0.850821	-0.000101
1219	1.2119e+02	-8.4960	-21.452084	0.000239	2.388711	0.809317	-0.000096
1220	1.2129e+02	-8.5457	-21.553513	0.000254	2.541834	0.861197	-0.000102
1221	1.2139e+02	-8.5762	-21.647609	0.000236	2.358087	0.798941	-0.000095
1222	1.2149e+02	-8.6115	-21.747000	0.000249	2.490793	0.843903	-0.000100
1223	1.2159e+02	-8.6548	-21.840282	0.000234	2.337670	0.792024	-0.000094
1224	1.2169e+02	-8.6949	-21.944154	0.000260	2.603083	0.881948	-0.000104
1225	1.2179e+02	-8.7286	-22.039472	0.000239	2.388711	0.809317	-0.000096
1226	1.2189e+02	-8.7591	-22.135198	0.000240	2.398919	0.812776	-0.000096
1227	1.2199e+02	-8.8201	-22.228887	0.000235	2.347879	0.795483	-0.000094
1228	1.2209e+02	-8.8602	-22.327464	0.000247	2.470377	0.836986	-0.000099
1229	1.2219e+02	-8.9083	-22.429707	0.000256	2.562250	0.868114	-0.000103
1230	1.2229e+02	-8.9500	-22.521766	0.000231	2.307046	0.781648	-0.000093
1231	1.2239e+02	-8.9789	-22.611381	0.000225	2.245797	0.760897	-0.000090
1232	1.2248e+02	-9.0270	-22.713624	0.000256	2.562250	0.868114	-0.000103
1233	1.2258e+02	-9.0495	-22.816275	0.000257	2.572458	0.871572	-0.000103
1234	1.2268e+02	-9.0976	-22.906705	0.000227	2.266213	0.767814	-0.000091
1235	1.2278e+02	-9.1265	-23.007318	0.000252	2.521417	0.854279	-0.000101
1236	1.2288e+02	-9.1810	-23.105488	0.000246	2.460168	0.833528	-0.000099
1237	1.2298e+02	-9.1955	-23.201621	0.000241	2.409128	0.816235	-0.000097
1238	1.2308e+02	-9.2484	-23.298568	0.000243	2.429544	0.823152	-0.000097
1239	1.2318e+02	-9.2949	-23.395516	0.000243	2.429544	0.823152	-0.000097
1240	1.2328e+02	-9.3206	-23.486761	0.000229	2.286630	0.774731	-0.000092
1241	1.2338e+02	-9.3735	-23.581671	0.000238	2.378503	0.805859	-0.000095
1242	1.2348e+02	-9.4265	-23.685136	0.000259	2.592875	0.878490	-0.000104
1243	1.2358e+02	-9.4602	-23.783306	0.000246	2.460168	0.833528	-0.000099
1244	1.2368e+02	-9.4890	-23.875773	0.000232	2.317254	0.785107	-0.000093
1245	1.2378e+02	-9.5307	-23.978016	0.000256	2.562250	0.868114	-0.000103
1246	1.2388e+02	-9.5821	-24.068038	0.000226	2.256005	0.764355	-0.000090
1247	1.2398e+02	-9.6061	-24.165393	0.000244	2.439752	0.826610	-0.000098
1248	1.2408e+02	-9.6607	-24.258675	0.000234	2.337670	0.792024	-0.000094
1249	1.2418e+02	-9.7008	-24.358881	0.000251	2.511209	0.850821	-0.000101
1250	1.2428e+02	-9.7457	-24.454199	0.000239	2.388711	0.809317	-0.000096
1251	1.2438e+02	-9.7778	-24.547888	0.000235	2.347879	0.795483	-0.000094
1252	1.2447e+02	-9.7970	-24.645650	0.000245	2.449960	0.830069	-0.000098
1253	1.2457e+02	-9.8484	-24.743412	0.000245	2.449960	0.830069	-0.000098
1254	1.2467e+02	-9.8853	-24.838730	0.000239	2.388711	0.809317	-0.000096
1255	1.2477e+02	-9.9158	-24.932827	0.000236	2.358087	0.798941	-0.000095
1256	1.2487e+02	-9.9719	-25.031811	0.000248	2.480585	0.840445	-0.000099
1257	1.2497e+02	-10.0216	-25.125092	0.000234	2.337670	0.792024	-0.000094
1258	1.2507e+02	-10.0489	-25.228150	0.000258	2.582666	0.875031	-0.000104
1259	1.2517e+02	-10.1019	-25.322653	0.000237	2.368295	0.802400	-0.000095
1260	1.2527e+02	-10.1355	-25.418786	0.000241	2.409128	0.816235	-0.000097
1261	1.2537e+02	-10.1692	-25.510846	0.000231	2.307046	0.781648	-0.000093
1262	1.2547e+02	-10.2206	-25.608201	0.000244	2.439752	0.826610	-0.000098
1263	1.2557e+02	-10.2478	-25.704741	0.000242	2.419336	0.819693	-0.000097
1264	1.2567e+02	-10.2847	-25.802096	0.000244	2.439752	0.826610	-0.000098
1265	1.2577e+02	-10.3281	-25.897414	0.000239	2.388711	0.809317	-0.000096
1266	1.2587e+02	-10.3698	-25.995176	0.000245	2.449960	0.830069	-0.000098
1267	1.2597e+02	-10.4163	-26.089272	0.000236	2.358087	0.798941	-0.000095
1268	1.2607e+02	-10.4420	-26.184183	0.000238	2.378503	0.805859	-0.000095
1269	1.2617e+02	-10.4644	-26.272984	0.000223	2.225381	0.753979	-0.000089
1270	1.2627e+02	-10.5286	-26.375634	0.000257	2.572458	0.871572	-0.000103
1271	1.2636e+02	-10.5591	-26.472989	0.000244	2.439752	0.826610	-0.000098
1272	1.2646e+02	-10.5927	-26.572788	0.000250	2.501001	0.847362	-0.000100
1273	1.2656e+02	-10.6489	-26.667291	0.000237	2.368295	0.802400	-0.000095
1274	1.2666e+02	-10.6794	-26.764239	0.000243	2.429544	0.823152	-0.000097
1275	1.2676e+02	-10.7355	-26.854669	0.000227	2.266213	0.767814	-0.000091
1276	1.2686e+02	-10.7804	-26.954875	0.000251	2.511209	0.850821	-0.000101
1277	1.2696e+02	-10.8109	-27.047342	0.000232	2.317254	0.785107	-0.000093
1278	1.2706e+02	-10.8286	-27.144289	0.000243	2.429544	0.823152	-0.000097
1279	1.2716e+02	-10.8751	-27.237571	0.000234	2.337670	0.792024	-0.000094
1280	1.2726e+02	-10.9280	-27.335333	0.000245	2.449960	0.830069	-0.000098
1281	1.2736e+02	-10.9681	-27.430244	0.000238	2.378503	0.805859	-0.000095
1282	1.2746e+02	-11.0147	-27.521488	0.000229	2.286630	0.774731	-0.000092
1283	1.2756e+02	-11.0500	-27.621695	0.000251	2.511209	0.850821	-0.000101
1284	1.2766e+02	-11.0917	-27.716606	0.000238	2.378503	0.805859	-0.000095
1285	1.2776e+02	-11.1157	-27.809072	0.000232	2.317254	0.785107	-0.000093
1286	1.2786e+02	-11.1639	-27.907242	0.000246	2.460168	0.833528	-0.000099
1287	1.2796e+02	-11.2152	-28.006633	0.000249	2.490793	0.843903	-0.000100
1288	1.2806e+02	-11.2377	-28.102359	0.000240	2.398919	0.812776	-0.000096
1289	1.2816e+02	-11.2938	-28.195640	0.000234	2.337670	0.792024	-0.000094
1290	1.2826e+02	-11.3259	-28.288107	0.000232	2.317254	0.785107	-0.000093
1291	1.2835e+02	-11.3852	-28.385055	0.000243	2.429544	0.823152	-0.000097
1292	1.2845e+02	-11.4125	-28.480780	0.000240	2.398919	0.812776	-0.000096
1293	1.2855e+02	-11.4366	-28.576098	0.000239	2.388711	0.809317	-0.000096
1294	1.2865e+02	-11.4671	-28.664492	0.000222	2.215172	0.750521	-0.000089
1295	1.2875e+02	-11.5280	-28.764291	0.000250	2.501001	0.847362	-0.000100
1296	1.2885e+02	-11.5649	-28.853499	0.000224	2.235589	0.757438	-0.000090
1297	1.2895e+02	-11.6002	-28.952076	0.000247	2.470377	0.836986	-0.000099
1298	1.2905e+02	-11.6435	-29.043320	0.000229	2.286630	0.774731	-0.000092
1299	1.2915e+02	-11.6788	-29.140675	0.000244	2.439752	0.826610	-0.000098
1300	1.2925e+02	-11.7205	-29.233549	0.000233	2.327462	0.788566	-0.000093
1301	1.2935e+02	-11.7526	-29.328460	0.000238	2.378503	0.805859	-0.000095
1302	1.2945e+02	-11.8055	-29.426222	0.000245	2.449960	0.830069	-0.000098
1303	1.2955e+02	-11.8617	-29.524392	0.000246	2.460168	0.833528	-0.000099
1304	1.2965e+02	-11.8745	-29.622969	0.000247	2.470377	0.836986	-0.000099
1305	1.2975e+02	-11.9227	-29.706881	0.000210	2.102883	0.712476	-0.000084
1306	1.2985e+02	-11.9772	-29.801385	0.000237	2.368295	0.802400	-0.000095
1307	1.2995e+02	-12.0205	-29.899962	0.000247	2.470377	0.836986	-0.000099
1308	1.3005e+02	-12.0494	-29.994872	0.000238	2.378503	0.805859	-0.000095
1309	1.3015e+02	-12.0911	-30.088969	0.000236	2.358087	0.798941	-0.000095
1310	1.3025e+02	-12.1232	-30.183879	0.000238	2.378503	0.805859	-0.000095
1311	1.3034e+02	-12.1649	-30.280012	0.000241	2.409128	0.816235	-0.000097
1312	1.3044e+02	-12.2002	-30.377774	0.000245	2.449960	0.830069	-0.000098
1313	1.3054e+02	-12.2355	-30.468612	0.000228	2.276421	0.771272	-0.000091
1314	1.3064e+02	-12.2756	-30.563115	0.000237	2.368295	0.802400	-0.000095
1315	1.3074e+02	-12.3189	-30.657211	0.000236	2.358087	0.798941	-0.000095
1316	1.3084e+02	-12.3622	-30.760676	0.000259	2.592875	0.878490	-0.000104
1317	1.3094e+02	-12.4136	-30.850699	0.000226	2.256005	0.764355	-0.000090
1318	1.3104e+02	-12.4376	-30.946017	0.000239	2.388711	0.809317	-0.000096
1319	1.3114e+02	-12.4729	-31.034003	0.000220	2.204964	0.747062	-0.000088
1320	1.3124e+02	-12.4954	-31.129729	0.000240	2.398919	0.812776	-0.000096
1321	1.3134e+02	-12.5595	-31.225047	0.000239	2.388711	0.809317	-0.000096
1322	1.3144e+02	-12.6077	-31.319958	0.000238	2.378503	0.805859	-0.000095
1323	1.3154e+02	-12.6333	-31.414461	0.000237	2.368295	0.802400	-0.000095
1324	1.3164e+02	-12.6799	-31.506928	0.000232	2.317254	0.785107	-0.000093
1325	1.3174e+02	-12.7200	-31.604690	0.000245	2.449960	0.830069	-0.000098
1326	1.3184e+02	-12.7601	-31.704489	0.000250	2.501001	0.847362	-0.000100
1327	1.3194e+02	-12.7922	-31.789624	0.000213	2.133507	0.722852	-0.000086
1328	1.3204e+02	-12.8403	-31.887386	0.000245	2.449960	0.830069	-0.000098
1329	1.3214e+02	-12.8804	-31.980667	0.000234	2.337670	0.792024	-0.000094
1330	1.3224e+02	-12.9109	-32.076393	0.000240	2.398919	0.812776	-0.000096
1331	1.3234e+02	-12.9670	-32.163564	0.000218	2.184548	0.740145	-0.000088
1332	1.3243e+02	-12.9943	-32.255216	0.000230	2.296838	0.778190	-0.000092
1333	1.3253e+02	-13.0424	-32.356645	0.000254	2.541834	0.861197	-0.000102
1334	1.3263e+02	-13.0617	-32.449519	0.000233	2.327462	0.788566	-0.000093
1335	1.3273e+02	-13.1194	-32.543615	0.000236	2.358087	0.798941	-0.000095
1336	1.3283e+02	-13.1531	-32.634860	0.000229	2.286630	0.774731	-0.000092
1337	1.3293e+02	-13.2012	-32.731807	0.000243	2.429544	0.823152	-0.000097
1338	1.3303e+02	-13.2462	-32.821015	0.000224	2.235589	0.757438	-0.000090
1339	1.3313e+02	-13.2638	-32.917555	0.000242	2.419336	0.819693	-0.000097
1340	1.3323e+02	-13.3135	-33.007985	0.000227	2.266213	0.767814	-0.000091
1341	1.3333e+02	-13.3440	-33.106970	0.000248	2.480585	0.840445	-0.000099
1342	1.3343e+02	-13.3953	-33.196585	0.000225	2.245797	0.760897	-0.000090
1343	1.3353e+02	-13.4274	-33.294754	0.000246	2.460168	0.833528	-0.000099
1344	1.3363e+02	-13.4884	-33.386407	0.000230	2.296838	0.778190	-0.000092
1345	1.3373e+02	-13.5092	-33.480503	0.000236	2.358087	0.798941	-0.000095
1346	1.3383e+02	-13.5477	-33.572155	0.000230	2.296838	0.778190	-0.000092
1347	1.3393e+02	-13.5991	-33.673583	0.000254	2.541834	0.861197	-0.000102
1348	1.3403e+02	-13.6424	-33.759532	0.000215	2.153923	0.729769	-0.000086
1349	1.3413e+02	-13.6697	-33.857702	0.000246	2.460168	0.833528	-0.000099
1350	1.3423e+02	-13.7066	-33.946095	0.000222	2.215172	0.750521	-0.000089
1351	1.3432e+02	-13.7370	-34.044265	0.000246	2.460168	0.833528	-0.000099
1352	1.3442e+02	-13.7964	-34.138768	0.000237	2.368295	0.802400	-0.000095
1353	1.3452e+02	-13.8526	-34.224718	0.000215	2.153923	0.729769	-0.000086
1354	1.3462e+02	-13.8493	-34.320036	-0.000239	-2.388711	-0.809317	-0.000096
1355	1.3472e+02	-13.9055	-34.412910	0.000233	2.327462	0.788566	-0.000093
1356	1.3482e+02	-13.9183	-34.507821	0.000238	2.378503	0.805859	-0.000095
1357	1.3492e+02	-14.0066	-34.596621	0.000223	2.225381	0.753979	-0.000089
1358	1.3502e+02	-14.0338	-34.692347	0.000240	2.398919	0.812776	-0.000096
1359	1.3512e+02	-14.0643	-34.779518	0.000218	2.184548	0.740145	-0.000088
1360	1.3522e+02	-14.1076	-34.881761	0.000256	2.562250	0.868114	-0.000103
1361	1.3532e+02	-14.1333	-34.979523	0.000245	2.449960	0.830069	-0.000098
1362	1.3542e+02	-14.2023	-35.064658	0.000213	2.133507	0.722852	-0.000086
1363	1.3552e+02	-14.2504	-35.161198	0.000242	2.419336	0.819693	-0.000097
1364	1.3562e+02	-14.2504	-35.250406	0.000224	2.235589	0.757438	-0.000090
1365	1.3572e+02	-14.3017	-35.345317	0.000238	2.378503	0.805859	-0.000095
1366	1.3582e+02	-14.3627	-35.436154	0.000228	2.276421	0.771272	-0.000091
1367	1.3592e+02	-14.3948	-35.529843	0.000235	2.347879	0.795483	-0.000094
1368	1.3602e+02	-14.4253	-35.624754	0.000238	2.378503	0.805859	-0.000095
1369	1.3612e+02	-14.4718	-35.714369	0.000225	2.245797	0.760897	-0.000090
1370	1.3622e+02	-14.5103	-35.808873	0.000237	2.368295	0.802400	-0.000095
1371	1.3631e+02	-14.5392	-35.898895	0.000226	2.256005	0.764355	-0.000090
1372	1.3641e+02	-14.5680	-35.989733	0.000228	2.276421	0.771272	-0.000091
1373	1.3651e+02	-14.6210	-36.082607	0.000233	2.327462	0.788566	-0.000093
1374	1.3661e+02	-14.6627	-36.181591	0.000248	2.480585	0.840445	-0.000099
1375	1.3671e+02	-14.7028	-36.268355	0.000217	2.174340	0.736686	-0.000087
1376	1.3681e+02	-14.7333	-36.360822	0.000232	2.317254	0.785107	-0.000093
1377	1.3691e+02	-14.7798	-36.461843	0.000253	2.531626	0.857738	-0.000102
1378	1.3701e+02	-14.8424	-36.557568	0.000240	2.398919	0.812776	-0.000096
1379	1.3711e+02	-14.8809	-36.640259	0.000207	2.072258	0.702100	-0.000083
1380	1.3721e+02	-14.9210	-36.736799	0.000242	2.419336	0.819693	-0.000097
1381	1.3731e+02	-14.9386	-36.828044	0.000229	2.286630	0.774731	-0.000092
1382	1.3741e+02	-14.9883	-36.923362	0.000239	2.388711	0.809317	-0.000096
1383	1.3751e+02	-15.0541	-37.013792	0.000227	2.266213	0.767814	-0.000091
1384	1.3761e+02	-15.0766	-37.106666	0.000233	2.327462	0.788566	-0.000093
1385	1.3771e+02	-15.1039	-37.201170	0.000237	2.368295	0.802400	-0.000095
1386	1.3781e+02	-15.1440	-37.290378	0.000224	2.235589	0.757438	-0.000090
1387	1.3791e+02	-15.1793	-37.384474	0.000236	2.358087	0.798941	-0.000095
1388	1.3801e+02	-15.2242	-37.470830	0.000216	2.164132	0.733228	-0.000087
1389	1.3811e+02	-15.2643	-37.565334	0.000237	2.368295	0.802400	-0.000095
1390	1.3821e+02	-15.3108	-37.660652	0.000239	2.388711	0.809317	-0.000096
1391	1.3831e+02	-15.3653	-37.753526	0.000233	2.327462	0.788566	-0.000093
1392	1.3840e+02	-15.4006	-37.848437	0.000238	2.378503	0.805859	-0.000095
1393	1.3850e+02	-15.4391	-37.939682	0.000229	2.286630	0.774731	-0.000092
1394	1.3860e+02	-15.4600	-38.027668	0.000220	2.204964	0.747062	-0.000088
1395	1.3870e+02	-15.4921	-38.122171	0.000237	2.368295	0.802400	-0.000095
1396	1.3880e+02	-15.5530	-38.215045	0.000233	2.327462	0.788566	-0.000093
1397	1.3890e+02	-15.5915	-38.302624	0.000219	2.194756	0.743603	-0.000088
1398	1.3900e+02	-15.6252	-38.391017	0.000222	2.215172	0.750521	-0.000089
1399	1.3910e+02	-15.6798	-38.488779	0.000245	2.449960	0.830069	-0.000098
1400	1.3920e+02	-15.6990	-38.576358	0.000219	2.194756	0.743603	-0.000088
1401	1.3930e+02	-15.7295	-38.664751	0.000222	2.215172	0.750521	-0.000089
1402	1.3940e+02	-15.7824	-38.755589	0.000228	2.276421	0.771272	-0.000091
1403	1.3950e+02	-15.8193	-38.854980	0.000249	2.490793	0.843903	-0.000100
1404	1.3960e+02	-15.8691	-38.942152	0.000218	2.184548	0.740145	-0.000088
1405	1.3970e+02	-15.8996	-39.034211	0.000231	2.307046	0.781648	-0.000093
1406	1.3980e+02	-15.9605	-39.125456	0.000229	2.286630	0.774731	-0.000092
1407	1.3990e+02	-15.9717	-39.217923	0.000232	2.317254	0.785107	-0.000093
1408	1.4000e+02	-16.0375	-39.306723	0.000223	2.225381	0.753979	-0.000089
1409	1.4010e+02	-16.0680	-39.400819	0.000236	2.358087	0.798941	-0.000095
1410	1.4020e+02	-16.1145	-39.494101	0.000234	2.337670	0.792024	-0.000094
1411	1.4029e+02	-16.1386	-39.584938	0.000228	2.276421	0.771272	-0.000091
1412	1.4039e+02	-16.1851	-39.670480	0.000214	2.143715	0.726310	-0.000086
1413	1.4049e+02	-16.2220	-39.764169	0.000235	2.347879	0.795483	-0.000094
1414	1.4059e+02	-16.2685	-39.855821	0.000230	2.296838	0.778190	-0.000092
1415	1.4069e+02	-16.3054	-39.945029	0.000224	2.235589	0.757438	-0.000090
1416	1.4079e+02	-16.3568	-40.039125	0.000236	2.358087	0.798941	-0.000095
1417	1.4089e+02	-16.3888	-40.126296	0.000218	2.184548	0.740145	-0.000088
1418	1.4099e+02	-16.4209	-40.225281	0.000248	2.480585	0.840445	-0.000099
1419	1.4109e+02	-16.4642	-40.309193	0.000210	2.102883	0.712476	-0.000084
1420	1.4119e+02	-16.5124	-40.403289	0.000236	2.358087	0.798941	-0.000095
1421	1.4129e+02	-16.5380	-40.496571	0.000234	2.337670	0.792024	-0.000094
1422	1.4139e+02	-16.5878	-40.590260	0.000235	2.347879	0.795483	-0.000094
1423	1.4149e+02	-16.6215	-40.674987	0.000212	2.123299	0.719393	-0.000085
1424	1.4159e+02	-16.6600	-40.768676	0.000235	2.347879	0.795483	-0.000094
1425	1.4169e+02	-16.7081	-40.857069	0.000222	2.215172	0.750521	-0.000089
1426	1.4179e+02	-16.7241	-40.949128	0.000231	2.307046	0.781648	-0.000093
1427	1.4189e+02	-16.7819	-41.040780	0.000230	2.296838	0.778190	-0.000092
1428	1.4199e+02	-16.8140	-41.135691	0.000238	2.378503	0.805859	-0.000095
1429	1.4209e+02	-16.8380	-41.223270	0.000219	2.194756	0.743603	-0.000088
1430	1.4219e+02	-16.9038	-41.315329	0.000231	2.307046	0.781648	-0.000093
1431	1.4228e+02	-16.9343	-41.409018	0.000235	2.347879	0.795483	-0.000094
1432	1.4238e+02	-16.9824	-41.499855	0.000228	2.276421	0.771272	-0.000091
1433	1.4248e+02	-17.0049	-41.583361	0.000209	2.092674	0.709017	-0.000084
1434	1.4258e+02	-17.0562	-41.677457	0.000236	2.358087	0.798941	-0.000095
1435	1.4268e+02	-17.0979	-41.766665	0.000224	2.235589	0.757438	-0.000090
1436	1.4278e+02	-17.1525	-41.861168	0.000237	2.368295	0.802400	-0.000095
1437	1.4288e+02	-17.1894	-41.948340	0.000218	2.184548	0.740145	-0.000088
1438	1.4298e+02	-17.2311	-42.040806	0.000232	2.317254	0.785107	-0.000093
1439	1.4308e+02	-17.2567	-42.132458	0.000230	2.296838	0.778190	-0.000092
1440	1.4318e+02	-17.2888	-42.222074	0.000225	2.245797	0.760897	-0.000090
1441	1.4328e+02	-17.3466	-42.312911	0.000228	2.276421	0.771272	-0.000091
1442	1.4338e+02	-17.3899	-42.405785	0.000233	2.327462	0.788566	-0.000093
1443	1.4348e+02	-17.4204	-42.497030	0.000229	2.286630	0.774731	-0.000092
1444	1.4358e+02	-17.4444	-42.585016	0.000220	2.204964	0.747062	-0.000088
1445	1.4368e+02	-17.5070	-42.677890	0.000233	2.327462	0.788566	-0.000093
1446	1.4378e+02	-17.5375	-42.766691	0.000223	2.225381	0.753979	-0.000089
1447	1.4388e+02	-17.6032	-42.857936	0.000229	2.286630	0.774731	-0.000092
1448	1.4398e+02	-17.6161	-42.945107	0.000218	2.184548	0.740145	-0.000088
1449	1.4408e+02	-17.6658	-43.035537	0.000227	2.266213	0.767814	-0.000091
1450	1.4418e+02	-17.6995	-43.122708	0.000218	2.184548	0.740145	-0.000088
1451	1.4428e+02	-17.7316	-43.221692	0.000248	2.480585	0.840445	-0.000099
1452	1.4437e+02	-17.7717	-43.311715	0.000226	2.256005	0.764355	-0.000090
1453	1.4447e+02	-17.8054	-43.400516	0.000223	2.225381	0.753979	-0.000089
1454	1.4457e+02	-17.8567	-43.489724	0.000224	2.235589	0.757438	-0.000090
1455	1.4467e+02	-17.9048	-43.583820	0.000236	2.358087	0.798941	-0.000095
1456	1.4477e+02	-17.9321	-43.672213	0.000222	2.215172	0.750521	-0.000089
1457	1.4487e+02	-17.9867	-43.761014	0.000223	2.225381	0.753979	-0.000089
1458	1.4497e+02	-18.0075	-43.855110	0.000236	2.358087	0.798941	-0.000095
1459	1.4507e+02	-18.0492	-43.943503	0.000222	2.215172	0.750521	-0.000089
1460	1.4517e+02	-18.1022	-44.035156	0.000230	2.296838	0.778190	-0.000092
1461	1.4527e+02	-18.1423	-44.124364	0.000224	2.235589	0.757438	-0.000090
1462	1.4537e+02	-18.1679	-44.214794	0.000227	2.266213	0.767814	-0.000091
1463	1.4547e+02	-18.2257	-44.301558	0.000217	2.174340	0.736686	-0.000087
1464	1.4557e+02	-18.2449	-44.390766	0.000224	2.235589	0.757438	-0.000090
1465	1.4567e+02	-18.2915	-44.475493	0.000212	2.123299	0.719393	-0.000085
1466	1.4577e+02	-18.3653	-44.574070	0.000247	2.470377	0.836986	-0.000099
1467	1.4587e+02	-18.3685	-44.664907	0.000228	2.276421	0.771272	-0.000091
1468	1.4597e+02	-18.4134	-44.751264	0.000216	2.164132	0.733228	-0.000087
1469	1.4607e+02	-18.4647	-44.842101	0.000228	2.276421	0.771272	-0.000091
1470	1.4617e+02	-18.4792	-44.935383	0.000234	2.337670	0.792024	-0.000094
1471	1.4626e+02	-18.5145	-45.027035	0.000230	2.296838	0.778190	-0.000092
1472	1.4636e+02	-18.5818	-45.119094	0.000231	2.307046	0.781648	-0.000093
1473	1.4646e+02	-18.5995	-45.208709	0.000225	2.245797	0.760897	-0.000090
1474	1.4656e+02	-18.6572	-45.292622	0.000210	2.102883	0.712476	-0.000084
1475	1.4666e+02	-18.7005	-45.385496	0.000233	2.327462	0.788566	-0.000093
1476	1.4676e+02	-18.7262	-45.469409	0.000210	2.102883	0.712476	-0.000084
1477	1.4686e+02	-18.7759	-45.565541	0.000241	2.409128	0.816235	-0.000097
1478	1.4696e+02	-18.8417	-45.656786	0.000229	2.286630	0.774731	-0.000092
1479	1.4706e+02	-18.8433	-45.754141	0.000244	2.439752	0.826610	-0.000098
1480	1.4716e+02	-18.9091	-45.840905	0.000217	2.174340	0.736686	-0.000087
1481	1.4726e+02	-18.9380	-45.930928	0.000226	2.256005	0.764355	-0.000090
1482	1.4736e+02	-18.9701	-46.020136	0.000224	2.235589	0.757438	-0.000090
1483	1.4746e+02	-19.0070	-46.112195	0.000231	2.307046	0.781648	-0.000093
1484	1.4756e+02	-19.0551	-46.203033	0.000228	2.276421	0.771272	-0.000091
1485	1.4766e+02	-19.1048	-46.293463	0.000227	2.266213	0.767814	-0.000091
1486	1.4776e+02	-19.1209	-46.384300	0.000228	2.276421	0.771272	-0.000091
1487	1.4786e+02	-19.1465	-46.479211	0.000238	2.378503	0.805859	-0.000095
1488	1.4796e+02	-19.2027	-46.564753	0.000214	2.143715	0.726310	-0.000086
1489	1.4806e+02	-19.2460	-46.658034	0.000234	2.337670	0.792024	-0.000094
1490	1.4816e+02	-19.2813	-46.750094	0.000231	2.307046	0.781648	-0.000093
1491	1.4825e+02	-19.3342	-46.842153	0.000231	2.307046	0.781648	-0.000093
1492	1.4835e+02	-19.3823	-46.932583	0.000227	2.266213	0.767814	-0.000091
1493	1.4845e+02	-19.4096	-47.024235	0.000230	2.296838	0.778190	-0.000092
1494	1.4855e+02	-19.4529	-47.112628	0.000222	2.215172	0.750521	-0.000089
1495	1.4865e+02	-19.4770	-47.206317	0.000235	2.347879	0.795483	-0.000094
1496	1.4875e+02	-19.5363	-47.297969	0.000230	2.296838	0.778190	-0.000092
1497	1.4885e+02	-19.5556	-47.386363	0.000222	2.215172	0.750521	-0.000089
1498	1.4895e+02	-19.6134	-47.473941	0.000219	2.194756	0.743603	-0.000088
1499	1.4905e+02	-19.6663	-47.572926	0.000248	2.480585	0.840445	-0.000099
1500	1.4915e+02	-19.6679	-47.662948	0.000226	2.256005	0.764355	-0.000090
1501	1.4925e+02	-19.7385	-47.756230	0.000234	2.337670	0.792024	-0.000094
1502	1.4935e+02	-19.7818	-47.847474	0.000229	2.286630	0.774731	-0.000092
1503	1.4945e+02	-19.8155	-47.942793	0.000239	2.388711	0.809317	-0.000096
1504	1.4955e+02	-19.8379	-48.027113	0.000211	2.113091	0.715935	-0.000085
1505	1.4965e+02	-19.8925	-48.127726	0.000252	2.521417	0.854279	-0.000101
1506	1.4975e+02	-19.9342	-48.219378	0.000230	2.296838	0.778190	-0.000092
1507	1.4985e+02	-19.9599	-48.313067	0.000235	2.347879	0.795483	-0.000094
1508	1.4995e+02	-19.9198	-48.263371	0.000125	1.245396	0.421952	0.000050
1509	1.5005e+02	-19.8797	-48.206343	0.000143	1.429143	0.484207	0.000057
1510	1.5015e+02	-19.8556	-48.146464	0.000150	1.500601	0.508417	0.000060
1511	1.5025e+02	-19.8059	-48.092287	0.000136	1.357686	0.459997	0.000054
1512	1.5034e+02	-19.7561	-48.027520	0.000162	1.623099	0.549921	0.000065
1513	1.5044e+02	-19.7385	-47.973343	0.000136	1.357686	0.459997	0.000054
1514	1.5054e+02	-19.6984	-47.909391	0.000160	1.602682	0.543003	0.000064
1515	1.5064e+02	-19.6567	-47.847067	0.000156	1.561850	0.529169	0.000063
1516	1.5074e+02	-19.6037	-47.786780	0.000151	1.510809	0.511876	0.000061
1517	1.5084e+02	-19.5748	-47.722828	0.000160	1.602682	0.543003	0.000064
1518	1.5094e+02	-19.5283	-47.655209	0.000169	1.694556	0.574131	0.000068
1519	1.5104e+02	-19.4930	-47.594515	0.000152	1.521017	0.515334	0.000061
1520	1.5114e+02	-19.4754	-47.524452	0.000176	1.755805	0.594883	0.000070
1521	1.5124e+02	-19.4192	-47.460906	0.000159	1.592474	0.539545	0.000064
1522	1.5134e+02	-19.3631	-47.394510	0.000166	1.663931	0.563755	0.000067
1523	1.5144e+02	-19.3294	-47.328113	0.000166	1.663931	0.563755	0.000067
1524	1.5154e+02	-19.3069	-47.253569	0.000187	1.868095	0.632928	0.000075
1525	1.5164e+02	-19.2364	-47.196948	0.000142	1.418935	0.480748	0.000057
1526	1.5174e+02	-19.2155	-47.125663	0.000179	1.786429	0.605259	0.000072
1527	1.5184e+02	-19.1642	-47.057637	0.000170	1.704764	0.577590	0.000068
1528	1.5194e+02	-19.1160	-46.993684	0.000160	1.602682	0.543003	0.000064
1529	1.5204e+02	-19.0872	-46.924436	0.000174	1.735388	0.587966	0.000070
1530	1.5214e+02	-19.0631	-46.856817	0.000169	1.694556	0.574131	0.000068
1531	1.5224e+02	-19.0102	-46.787569	0.000174	1.735388	0.587966	0.000070
1532	1.5233e+02	-18.9572	-46.714247	0.000184	1.837470	0.622552	0.000074
1533	1.5243e+02	-18.9396	-46.642148	0.000181	1.806846	0.612176	0.000072
1534	1.5253e+02	-18.9027	-46.570863	0.000179	1.786429	0.605259	0.000072
1535	1.5263e+02	-18.8578	-46.499985	0.000178	1.776221	0.601800	0.000071
1536	1.5273e+02	-18.8016	-46.437255	0.000157	1.572058	0.532628	0.000063
1537	1.5283e+02	-18.7808	-46.361081	0.000191	1.908927	0.646762	0.000077
1538	1.5293e+02	-18.7503	-46.290204	0.000178	1.776221	0.601800	0.000071
1539	1.5303e+02	-18.7021	-46.220548	0.000175	1.745597	0.591424	0.000070
1540	1.5313e+02	-18.6749	-46.146005	0.000187	1.868095	0.632928	0.000075
1541	1.5323e+02	-18.6412	-46.073090	0.000183	1.827262	0.619093	0.000073
1542	1.5333e+02	-18.5642	-46.005471	0.000169	1.694556	0.574131	0.000068
1543	1.5343e+02	-18.5273	-45.928891	0.000192	1.919135	0.650221	0.000077
1544	1.5353e+02	-18.5032	-45.862902	0.000165	1.653723	0.560297	0.000066
1545	1.5363e+02	-18.4278	-45.785099	0.000195	1.949760	0.660597	0.000078
1546	1.5373e+02	-18.4230	-45.717888	0.000168	1.684348	0.570672	0.000068
1547	1.5383e+02	-18.3717	-45.644159	0.000185	1.847678	0.626010	0.000074
1548	1.5393e+02	-18.3428	-45.575725	0.000171	1.714972	0.581048	0.000069
1549	1.5403e+02	-18.3027	-45.500774	0.000188	1.878303	0.636386	0.000075
1550	1.5413e+02	-18.2401	-45.426638	0.000186	1.857886	0.629469	0.000075
1551	1.5422e+02	-18.2129	-45.352501	0.000186	1.857886	0.629469	0.000075
1552	1.5432e+02	-18.1744	-45.279994	0.000182	1.817054	0.615634	0.000073
1553	1.5442e+02	-18.1407	-45.205451	0.000187	1.868095	0.632928	0.000075
1554	1.5452e+02	-18.1054	-45.131722	0.000185	1.847678	0.626010	0.000074
1555	1.5462e+02	-18.0637	-45.051883	0.000200	2.000801	0.677890	0.000080
1556	1.5472e+02	-18.0107	-44.980598	0.000179	1.786429	0.605259	0.000072
1557	1.5482e+02	-17.9706	-44.906054	0.000187	1.868095	0.632928	0.000075
1558	1.5492e+02	-17.9482	-44.829473	0.000192	1.919135	0.650221	0.000077
1559	1.5502e+02	-17.9081	-44.763891	0.000164	1.643515	0.556838	0.000066
1560	1.5512e+02	-17.8407	-44.683645	0.000201	2.011009	0.681348	0.000081
1561	1.5522e+02	-17.8294	-44.611953	0.000180	1.796637	0.608717	0.000072
1562	1.5532e+02	-17.7974	-44.537002	0.000188	1.878303	0.636386	0.000075
1563	1.5542e+02	-17.7380	-44.459199	0.000195	1.949760	0.660597	0.000078
1564	1.5552e+02	-17.7043	-44.381397	0.000195	1.949760	0.660597	0.000078
1565	1.5562e+02	-17.6594	-44.310519	0.000178	1.776221	0.601800	0.000071
1566	1.5572e+02	-17.6289	-44.231495	0.000198	1.980384	0.670972	0.000079
1567	1.5582e+02	-17.5840	-44.151248	0.000201	2.011009	0.681348	0.000081
1568	1.5592e+02	-17.5359	-44.070187	0.000203	2.031425	0.688266	0.000081
1569	1.5602e+02	-17.5118	-43.998902	0.000179	1.786429	0.605259	0.000072
1570	1.5612e+02	-17.4268	-43.922322	0.000192	1.919135	0.650221	0.000077
1571	1.5622e+02	-17.3883	-43.847778	0.000187	1.868095	0.632928	0.000075
1572	1.5631e+02	-17.3706	-43.765902	0.000205	2.051842	0.695183	0.000082
1573	1.5641e+02	-17.3546	-43.689322	0.000192	1.919135	0.650221	0.000077
1574	1.5651e+02	-17.3113	-43.617629	0.000180	1.796637	0.608717	0.000072
1575	1.5661e+02	-17.2615	-43.540234	0.000194	1.939552	0.657138	0.000078
1576	1.5671e+02	-17.2279	-43.460803	0.000199	1.990593	0.674431	0.000080
1577	1.5681e+02	-17.1974	-43.386259	0.000187	1.868095	0.632928	0.000075
1578	1.5691e+02	-17.1444	-43.308864	0.000194	1.939552	0.657138	0.000078
1579	1.5701e+02	-17.0979	-43.228210	0.000202	2.021217	0.684807	0.000081
1580	1.5711e+02	-17.0578	-43.150000	0.000196	1.959968	0.664055	0.000079
1581	1.5721e+02	-17.0257	-43.073827	0.000191	1.908927	0.646762	0.000077
1582	1.5731e+02	-16.9856	-42.995210	0.000197	1.970176	0.667514	0.000079
1583	1.5741e+02	-16.9519	-42.917000	0.000196	1.959968	0.664055	0.000079
1584	1.5751e+02	-16.8958	-42.837976	0.000198	1.980384	0.670972	0.000079
1585	1.5761e+02	-16.8701	-42.763025	0.000188	1.878303	0.636386	0.000075
1586	1.5771e+02	-16.8188	-42.681964	0.000203	2.031425	0.688266	0.000081
1587	1.5781e+02	-16.7851	-42.600902	0.000203	2.031425	0.688266	0.000081
1588	1.5791e+02	-16.7450	-42.528395	0.000182	1.817054	0.615634	0.000073
1589	1.5801e+02	-16.7065	-42.446927	0.000204	2.041633	0.691724	0.000082
1590	1.5811e+02	-16.6600	-42.370347	0.000192	1.919135	0.650221	0.000077
1591	1.5821e+02	-16.6102	-42.288471	0.000205	2.051842	0.695183	0.000082
1592	1.5830e+02	-16.5894	-42.213927	0.000187	1.868095	0.632928	0.000075
1593	1.5840e+02	-16.5428	-42.133273	0.000202	2.021217	0.684807	0.000081
1594	1.5850e+02	-16.5076	-42.057507	0.000190	1.898719	0.643303	0.000076
1595	1.5860e+02	-16.4402	-41.974002	0.000209	2.092674	0.709017	0.000084
1596	1.5870e+02	-16.4257	-41.898644	0.000189	1.888511	0.639845	0.000076
1597	1.5880e+02	-16.3904	-41.817583	0.000203	2.031425	0.688266	0.000081
1598	1.5890e+02	-16.3343	-41.741817	0.000190	1.898719	0.643303	0.000076
1599	1.5900e+02	-16.2990	-41.653424	0.000222	2.215172	0.750521	0.000089
1600	1.5910e+02	-16.2541	-41.577251	0.000191	1.908927	0.646762	0.000077
1601	1.5920e+02	-16.2220	-41.499855	0.000194	1.939552	0.657138	0.000078
1602	1.5930e+02	-16.2044	-41.423275	0.000192	1.919135	0.650221	0.000077
1603	1.5940e+02	-16.1450	-41.335696	0.000219	2.194756	0.743603	0.000088
1604	1.5950e+02	-16.0889	-41.263189	0.000182	1.817054	0.615634	0.000073
1605	1.5960e+02	-16.0824	-41.182536	0.000202	2.021217	0.684807	0.000081
1606	1.5970e+02	-16.0295	-41.097808	0.000212	2.123299	0.719393	0.000085
1607	1.5980e+02	-15.9926	-41.022450	0.000189	1.888511	0.639845	0.000076
1608	1.5990e+02	-15.9348	-40.943018	0.000199	1.990593	0.674431	0.000080
1609	1.6000e+02	-15.8819	-40.865623	0.000194	1.939552	0.657138	0.000078
1610	1.6010e+02	-15.8530	-40.779674	0.000215	2.153923	0.729769	0.000086
1611	1.6019e+02	-15.8177	-40.705945	0.000185	1.847678	0.626010	0.000074
1612	1.6029e+02	-15.7857	-40.618774	0.000218	2.184548	0.740145	0.000088
1613	1.6039e+02	-15.7359	-40.537712	0.000203	2.031425	0.688266	0.000081
1614	1.6049e+02	-15.6990	-40.459095	0.000197	1.970176	0.667514	0.000079
1615	1.6059e+02	-15.6718	-40.378849	0.000201	2.011009	0.681348	0.000081
1616	1.6069e+02	-15.6413	-40.297380	0.000204	2.041633	0.691724	0.000082
1617	1.6079e+02	-15.5883	-40.216726	0.000202	2.021217	0.684807	0.000081
1618	1.6089e+02	-15.5562	-40.138924	0.000195	1.949760	0.660597	0.000078
1619	1.6099e+02	-15.5001	-40.055419	0.000209	2.092674	0.709017	0.000084
1620	1.6109e+02	-15.4664	-39.975580	0.000200	2.000801	0.677890	0.000080
1621	1.6119e+02	-15.4151	-39.892889	0.000207	2.072258	0.702100	0.000083
1622	1.6129e+02	-15.4087	-39.814272	0.000197	1.970176	0.667514	0.000079
1623	1.6139e+02	-15.3445	-39.731174	0.000208	2.082466	0.705559	0.000084
1624	1.6149e+02	-15.3188	-39.647262	0.000210	2.102883	0.712476	0.000084
1625	1.6159e+02	-15.2659	-39.570274	0.000193	1.929344	0.653679	0.000077
1626	1.6169e+02	-15.2274	-39.485139	0.000213	2.133507	0.722852	0.000086
1627	1.6179e+02	-15.1776	-39.404893	0.000201	2.011009	0.681348	0.000081
1628	1.6189e+02	-15.1295	-39.318943	0.000215	2.153923	0.729769	0.000086
1629	1.6199e+02	-15.1087	-39.240734	0.000196	1.959968	0.664055	0.000079
1630	1.6209e+02	-15.0621	-39.156414	0.000211	2.113091	0.715935	0.000085
1631	1.6219e+02	-15.0188	-39.070464	0.000215	2.153923	0.729769	0.000086
1632	1.6228e+02	-14.9900	-38.988589	0.000205	2.051842	0.695183	0.000082
1633	1.6238e+02	-14.9418	-38.907120	0.000204	2.041633	0.691724	0.000082
1634	1.6248e+02	-14.8921	-38.825244	0.000205	2.051842	0.695183	0.000082
1635	1.6258e+02	-14.8825	-38.741739	0.000209	2.092674	0.709017	0.000084
1636	1.6268e+02	-14.8279	-38.661085	0.000202	2.021217	0.684807	0.000081
1637	1.6278e+02	-14.7862	-38.576358	0.000212	2.123299	0.719393	0.000085
1638	1.6288e+02	-14.7445	-38.496926	0.000199	1.990593	0.674431	0.000080
1639	1.6298e+02	-14.7012	-38.413421	0.000209	2.092674	0.709017	0.000084
1640	1.6308e+02	-14.6595	-38.328286	0.000213	2.133507	0.722852	0.000086
1641	1.6318e+02	-14.6402	-38.244374	0.000210	2.102883	0.712476	0.000084
1642	1.6328e+02	-14.5905	-38.164942	0.000199	1.990593	0.674431	0.000080
1643	1.6338e+02	-14.5343	-38.079400	0.000214	2.143715	0.726310	0.000086
1644	1.6348e+02	-14.5360	-38.001190	-0.000196	-1.959968	-0.664055	0.000079
1645	1.6358e+02	-14.4766	-37.915648	0.000214	2.143715	0.726310	0.000086
1646	1.6368e+02	-14.4124	-37.836217	0.000199	1.990593	0.674431	0.000080
1647	1.6378e+02	-14.4012	-37.748231	0.000220	2.204964	0.747062	0.000088
1648	1.6388e+02	-14.3483	-37.666762	0.000204	2.041633	0.691724	0.000082
1649	1.6398e+02	-14.3082	-37.585701	0.000203	2.031425	0.688266	0.000081
1650	1.6408e+02	-14.2921	-37.507084	0.000197	1.970176	0.667514	0.000079
1651	1.6418e+02	-14.2135	-37.417468	0.000225	2.245797	0.760897	0.000090
1652	1.6427e+02	-14.1862	-37.346183	0.000179	1.786429	0.605259	0.000072
1653	1.6437e+02	-14.1558	-37.254124	0.000231	2.307046	0.781648	0.000093
1654	1.6447e+02	-14.1237	-37.173878	0.000201	2.011009	0.681348	0.000081
1655	1.6457e+02	-14.0836	-37.083855	0.000226	2.256005	0.764355	0.000090
1656	1.6467e+02	-14.0627	-37.000350	0.000209	2.092674	0.709017	0.000084
1657	1.6477e+02	-13.9841	-36.918474	0.000205	2.051842	0.695183	0.000082
1658	1.6487e+02	-13.9632	-36.833747	0.000212	2.123299	0.719393	0.000085
1659	1.6497e+02	-13.8927	-36.752278	0.000204	2.041633	0.691724	0.000082
1660	1.6507e+02	-13.8654	-36.669180	0.000208	2.082466	0.705559	0.000084
1661	1.6517e+02	-13.8173	-36.577528	0.000230	2.296838	0.778190	0.000092
1662	1.6527e+02	-13.7836	-36.501762	0.000190	1.898719	0.643303	0.000076
1663	1.6537e+02	-13.7531	-36.416220	0.000214	2.143715	0.726310	0.000086
1664	1.6547e+02	-13.7146	-36.327827	0.000222	2.215172	0.750521	0.000089
1665	1.6557e+02	-13.6793	-36.244322	0.000209	2.092674	0.709017	0.000084
1666	1.6567e+02	-13.6360	-36.162039	0.000206	2.062050	0.698641	0.000083
1667	1.6577e+02	-13.6007	-36.078126	0.000210	2.102883	0.712476	0.000084
1668	1.6587e+02	-13.5686	-35.995843	0.000206	2.062050	0.698641	0.000083
1669	1.6597e+02	-13.5092	-35.907042	0.000223	2.225381	0.753979	0.000089
1670	1.6607e+02	-13.4836	-35.821500	0.000214	2.143715	0.726310	0.000086
1671	1.6616e+02	-13.4194	-35.742883	0.000197	1.970176	0.667514	0.000079
1672	1.6626e+02	-13.3889	-35.652453	0.000227	2.266213	0.767814	0.000091
1673	1.6636e+02	-13.3552	-35.566911	0.000214	2.143715	0.726310	0.000086
1674	1.6646e+02	-13.3007	-35.484628	0.000206	2.062050	0.698641	0.000083
1675	1.6656e+02	-13.2734	-35.405196	0.000199	1.990593	0.674431	0.000080
1676	1.6666e+02	-13.2221	-35.315581	0.000225	2.245797	0.760897	0.000090
1677	1.6676e+02	-13.1980	-35.232076	0.000209	2.092674	0.709017	0.000084
1678	1.6686e+02	-13.1467	-35.147756	0.000211	2.113091	0.715935	0.000085
1679	1.6696e+02	-13.1034	-35.058955	0.000223	2.225381	0.753979	0.000089
1680	1.6706e+02	-13.0873	-34.972191	0.000217	2.174340	0.736686	0.000087
1681	1.6716e+02	-13.0280	-34.886242	0.000215	2.153923	0.729769	0.000086
1682	1.6726e+02	-13.0039	-34.800293	0.000215	2.153923	0.729769	0.000086
1683	1.6736e+02	-12.9574	-34.715973	0.000211	2.113091	0.715935	0.000085
1684	1.6746e+02	-12.9221	-34.634097	0.000205	2.051842	0.695183	0.000082
1685	1.6756e+02	-12.8948	-34.545703	0.000222	2.215172	0.750521	0.000089
1686	1.6766e+02	-12.8323	-34.465864	0.000200	2.000801	0.677890	0.000080
1687	1.6776e+02	-12.7841	-34.372176	0.000235	2.347879	0.795483	0.000094
1688	1.6786e+02	-12.7537	-34.295595	0.000192	1.919135	0.650221	0.000077
1689	1.6796e+02	-12.7232	-34.204350	0.000229	2.286630	0.774731	0.000092
1690	1.6806e+02	-12.6718	-34.124919	0.000199	1.990593	0.674431	0.000080
1691	1.6816e+02	-12.6398	-34.031230	0.000235	2.347879	0.795483	0.000094
1692	1.6825e+02	-12.5980	-33.946910	0.000211	2.113091	0.715935	0.000085
1693	1.6835e+02	-12.5419	-33.865034	0.000205	2.051842	0.695183	0.000082
1694	1.6845e+02	-12.5178	-33.777048	0.000220	2.204964	0.747062	0.000088
1695	1.6855e+02	-12.4761	-33.688655	0.000222	2.215172	0.750521	0.000089
1696	1.6865e+02	-12.4537	-33.602705	0.000215	2.153923	0.729769	0.000086
1697	1.6875e+02	-12.3911	-33.517978	0.000212	2.123299	0.719393	0.000085
1698	1.6885e+02	-12.3815	-33.429992	0.000220	2.204964	0.747062	0.000088
1699	1.6895e+02	-12.3366	-33.340784	0.000224	2.235589	0.757438	0.000090
1700	1.6905e+02	-12.2740	-33.258094	0.000207	2.072258	0.702100	0.000083
1701	1.6915e+02	-12.2499	-33.170922	0.000218	2.184548	0.740145	0.000088
1702	1.6925e+02	-12.2130	-33.086602	0.000211	2.113091	0.715935	0.000085
1703	1.6935e+02	-12.1633	-33.001060	0.000214	2.143715	0.726310	0.000086
1704	1.6945e+02	-12.1537	-32.910630	0.000227	2.266213	0.767814	0.000091
1705	1.6955e+02	-12.0735	-32.818164	0.000232	2.317254	0.785107	0.000093
1706	1.6965e+02	-12.0205	-32.736695	0.000204	2.041633	0.691724	0.000082
1707	1.6975e+02	-11.9965	-32.652783	0.000210	2.102883	0.712476	0.000084
1708	1.6985e+02	-11.9804	-32.558279	0.000237	2.368295	0.802400	0.000095
1709	1.6995e+02	-11.9275	-32.469886	0.000222	2.215172	0.750521	0.000089
1710	1.7005e+02	-11.8745	-32.387195	0.000207	2.072258	0.702100	0.000083
1711	1.7015e+02	-11.8376	-32.303283	0.000210	2.102883	0.712476	0.000084
1712	1.7024e+02	-11.7895	-32.215704	0.000219	2.194756	0.743603	0.000088
1713	1.7034e+02	-11.7815	-32.127718	0.000220	2.204964	0.747062	0.000088
1714	1.7044e+02	-11.7366	-32.036881	0.000228	2.276421	0.771272	0.000091
1715	1.7054e+02	-11.6820	-31.956227	0.000202	2.021217	0.684807	0.000081
1716	1.7064e+02	-11.6435	-31.864575	0.000230	2.296838	0.778190	0.000092
1717	1.7074e+02	-11.5986	-31.779440	0.000213	2.133507	0.722852	0.000086
1718	1.7084e+02	-11.5505	-31.686566	0.000233	2.327462	0.788566	0.000093
1719	1.7094e+02	-11.5152	-31.608764	0.000195	1.949760	0.660597	0.000078
1720	1.7104e+02	-11.4719	-31.514260	0.000237	2.368295	0.802400	0.000095
1721	1.7114e+02	-11.4430	-31.428718	0.000214	2.143715	0.726310	0.000086
1722	1.7124e+02	-11.4029	-31.335029	0.000235	2.347879	0.795483	0.000094
1723	1.7134e+02	-11.3852	-31.252339	0.000207	2.072258	0.702100	0.000083
1724	1.7144e+02	-11.3291	-31.168834	0.000209	2.092674	0.709017	0.000084
1725	1.7154e+02	-11.2890	-31.080440	0.000222	2.215172	0.750521	0.000089
1726	1.7164e+02	-11.2505	-30.985530	0.000238	2.378503	0.805859	0.000095
1727	1.7174e+02	-11.2056	-30.902839	0.000207	2.072258	0.702100	0.000083
1728	1.7184e+02	-11.1398	-30.816075	0.000217	2.174340	0.736686	0.000087
1729	1.7194e+02	-11.1270	-30.725645	0.000227	2.266213	0.767814	0.000091
1730	1.7204e+02	-11.0949	-30.634808	0.000228	2.276421	0.771272	0.000091
1731	1.7213e+02	-11.0580	-30.546822	0.000220	2.204964	0.747062	0.000088
1732	1.7223e+02	-11.0115	-30.459243	0.000219	2.194756	0.743603	0.000088
1733	1.7233e+02	-10.9746	-30.365962	0.000234	2.337670	0.792024	0.000094
1734	1.7243e+02	-10.9008	-30.278383	0.000219	2.194756	0.743603	0.000088
1735	1.7253e+02	-10.8943	-30.192026	0.000216	2.164132	0.733228	0.000087
1736	1.7263e+02	-10.8318	-30.097115	0.000238	2.378503	0.805859	0.000095
1737	1.7273e+02	-10.8045	-30.011981	0.000213	2.133507	0.722852	0.000086
1738	1.7283e+02	-10.7644	-29.920329	0.000230	2.296838	0.778190	0.000092
1739	1.7293e+02	-10.7147	-29.835602	0.000212	2.123299	0.719393	0.000085
1740	1.7303e+02	-10.6778	-29.743949	0.000230	2.296838	0.778190	0.000092
1741	1.7313e+02	-10.6585	-29.654741	0.000224	2.235589	0.757438	0.000090
1742	1.7323e+02	-10.6024	-29.566755	0.000220	2.204964	0.747062	0.000088
1743	1.7333e+02	-10.5767	-29.476325	0.000227	2.266213	0.767814	0.000091
1744	1.7343e+02	-10.5302	-29.386303	0.000226	2.256005	0.764355	0.000090
1745	1.7353e+02	-10.4917	-29.299946	0.000216	2.164132	0.733228	0.000087
1746	1.7363e+02	-10.4580	-29.210331	0.000225	2.245797	0.760897	0.000090
1747	1.7373e+02	-10.4051	-29.118679	0.000230	2.296838	0.778190	0.000092
1748	1.7383e+02	-10.3601	-29.028249	0.000227	2.266213	0.767814	0.000091
1749	1.7393e+02	-10.3136	-28.937819	0.000227	2.266213	0.767814	0.000091
1750	1.7403e+02	-10.2831	-28.850647	0.000218	2.184548	0.740145	0.000088
1751	1.7413e+02	-10.2334	-28.763069	0.000219	2.194756	0.743603	0.000088
1752	1.7422e+02	-10.2222	-28.672231	0.000228	2.276421	0.771272	0.000091
1753	1.7432e+02	-10.1773	-28.579764	0.000232	2.317254	0.785107	0.000093
1754	1.7442e+02	-10.1259	-28.497481	0.000206	2.062050	0.698641	0.000083
1755	1.7452e+02	-10.0906	-28.403792	0.000235	2.347879	0.795483	0.000094
1756	1.7462e+02	-10.0425	-28.317436	0.000216	2.164132	0.733228	0.000087
1757	1.7472e+02	-10.0168	-28.219674	0.000245	2.449960	0.830069	0.000098
1758	1.7482e+02	-9.9831	-28.132910	0.000217	2.174340	0.736686	0.000087
1759	1.7492e+02	-9.9334	-28.043294	0.000225	2.245797	0.760897	0.000090
1760	1.7502e+02	-9.9061	-27.955308	0.000220	2.204964	0.747062	0.000088
1761	1.7512e+02	-9.8372	-27.866100	0.000224	2.235589	0.757438	0.000090
1762	1.7522e+02	-9.7954	-27.770375	0.000240	2.398919	0.812776	0.000096
1763	1.7532e+02	-9.7730	-27.684018	0.000216	2.164132	0.733228	0.000087
1764	1.7542e+02	-9.7505	-27.593588	0.000227	2.266213	0.767814	0.000091
1765	1.7552e+02	-9.6976	-27.499899	0.000235	2.347879	0.795483	0.000094
1766	1.7562e+02	-9.6479	-27.408655	0.000229	2.286630	0.774731	0.000092
1767	1.7572e+02	-9.6190	-27.324335	0.000211	2.113091	0.715935	0.000085
1768	1.7582e+02	-9.5580	-27.229424	0.000238	2.378503	0.805859	0.000095
1769	1.7592e+02	-9.5275	-27.143067	0.000216	2.164132	0.733228	0.000087
1770	1.7602e+02	-9.4842	-27.048971	0.000236	2.358087	0.798941	0.000095
1771	1.7612e+02	-9.4634	-26.958541	0.000227	2.266213	0.767814	0.000091
1772	1.7621e+02	-9.4008	-26.869333	0.000224	2.235589	0.757438	0.000090
1773	1.7631e+02	-9.3864	-26.774422	0.000238	2.378503	0.805859	0.000095
1774	1.7641e+02	-9.3414	-26.688880	0.000214	2.143715	0.726310	0.000086
1775	1.7651e+02	-9.2853	-26.597636	0.000229	2.286630	0.774731	0.000092
1776	1.7661e+02	-9.2564	-26.505169	0.000232	2.317254	0.785107	0.000093
1777	1.7671e+02	-9.2292	-26.414739	0.000227	2.266213	0.767814	0.000091
1778	1.7681e+02	-9.1682	-26.325123	0.000225	2.245797	0.760897	0.000090
1779	1.7691e+02	-9.1377	-26.234693	0.000227	2.266213	0.767814	0.000091
1780	1.7701e+02	-9.0896	-26.139375	0.000239	2.388711	0.809317	0.000096
1781	1.7711e+02	-9.0447	-26.048130	0.000229	2.286630	0.774731	0.000092
1782	1.7721e+02	-9.0126	-25.963811	0.000211	2.113091	0.715935	0.000085
1783	1.7731e+02	-8.9436	-25.868900	0.000238	2.378503	0.805859	0.000095
1784	1.7741e+02	-8.9356	-25.772360	0.000242	2.419336	0.819693	0.000097
1785	1.7751e+02	-8.9115	-25.683966	0.000222	2.215172	0.750521	0.000089
1786	1.7761e+02	-8.8666	-25.595573	0.000222	2.215172	0.750521	0.000089
1787	1.7771e+02	-8.8169	-25.496996	0.000247	2.470377	0.836986	0.000099
1788	1.7781e+02	-8.7639	-25.410232	0.000217	2.174340	0.736686	0.000087
1789	1.7791e+02	-8.7447	-25.315729	0.000237	2.368295	0.802400	0.000095
1790	1.7801e+02	-8.6885	-25.232631	0.000208	2.082466	0.705559	0.000084
1791	1.7810e+02	-8.6260	-25.138535	0.000236	2.358087	0.798941	0.000095
1792	1.7820e+02	-8.6244	-25.041994	0.000242	2.419336	0.819693	0.000097
1793	1.7830e+02	-8.5666	-24.952379	0.000225	2.245797	0.760897	0.000090
1794	1.7840e+02	-8.5297	-24.868059	0.000211	2.113091	0.715935	0.000085
1795	1.7850e+02	-8.4752	-24.770704	0.000244	2.439752	0.826610	0.000098
1796	1.7860e+02	-8.4383	-24.674979	0.000240	2.398919	0.812776	0.000096
1797	1.7870e+02	-8.3966	-24.582919	0.000231	2.307046	0.781648	0.000093
1798	1.7880e+02	-8.3805	-24.492489	0.000227	2.266213	0.767814	0.000091
1799	1.7890e+02	-8.3308	-24.394320	0.000246	2.460168	0.833528	0.000099
1800	1.7900e+02	-8.3035	-24.301853	0.000232	2.317254	0.785107	0.000093
1801	1.7910e+02	-8.2425	-24.214274	0.000219	2.194756	0.743603	0.000088
1802	1.7920e+02	-8.2281	-24.118549	0.000240	2.398919	0.812776	0.000096
1803	1.7930e+02	-8.1607	-24.031377	0.000218	2.184548	0.740145	0.000088
1804	1.7940e+02	-8.1447	-23.937281	0.000236	2.358087	0.798941	0.000095
1805	1.7950e+02	-8.1062	-23.843185	0.000236	2.358087	0.798941	0.000095
1806	1.7960e+02	-8.0420	-23.753977	0.000224	2.235589	0.757438	0.000090
1807	1.7970e+02	-8.0292	-23.659066	0.000238	2.378503	0.805859	0.000095
1808	1.7980e+02	-7.9827	-23.564970	0.000236	2.358087	0.798941	0.000095
1809	1.7990e+02	-7.9281	-23.473318	0.000230	2.296838	0.778190	0.000092
1810	1.8000e+02	-7.9249	-23.377593	0.000240	2.398919	0.812776	0.000096
1811	1.8009e+02	-7.8479	-23.287570	0.000226	2.256005	0.764355	0.000090
1812	1.8019e+02	-7.8030	-23.191030	0.000242	2.419336	0.819693	0.000097
1813	1.8029e+02	-7.7709	-23.102636	0.000222	2.215172	0.750521	0.000089
1814	1.8039e+02	-7.7228	-23.010577	0.000231	2.307046	0.781648	0.000093
1815	1.8049e+02	-7.6875	-22.918110	0.000232	2.317254	0.785107	0.000093
1816	1.8059e+02	-7.6554	-22.828495	0.000225	2.245797	0.760897	0.000090
1817	1.8069e+02	-7.6281	-22.735213	0.000234	2.337670	0.792024	0.000094
1818	1.8079e+02	-7.5752	-22.639895	0.000239	2.388711	0.809317	0.000096
1819	1.8089e+02	-7.5559	-22.549465	0.000227	2.266213	0.767814	0.000091
1820	1.8099e+02	-7.4918	-22.451296	0.000246	2.460168	0.833528	0.000099
1821	1.8109e+02	-7.4436	-22.365754	0.000214	2.143715	0.726310	0.000086
1822	1.8119e+02	-7.4196	-22.270843	0.000238	2.378503	0.805859	0.000095
1823	1.8129e+02	-7.3875	-22.176340	0.000237	2.368295	0.802400	0.000095
1824	1.8139e+02	-7.3426	-22.085095	0.000229	2.286630	0.774731	0.000092
1825	1.8149e+02	-7.3057	-21.995072	0.000226	2.256005	0.764355	0.000090
1826	1.8159e+02	-7.2608	-21.896903	0.000246	2.460168	0.833528	0.000099
1827	1.8169e+02	-7.2142	-21.802399	0.000237	2.368295	0.802400	0.000095
1828	1.8179e+02	-7.1789	-21.705452	0.000243	2.429544	0.823152	0.000097
1829	1.8189e+02	-7.1469	-21.616651	0.000223	2.225381	0.753979	0.000089
1830	1.8199e+02	-7.0891	-21.521333	0.000239	2.388711	0.809317	0.000096
1831	1.8209e+02	-7.0731	-21.428459	0.000233	2.327462	0.788566	0.000093
1832	1.8218e+02	-7.0249	-21.337621	0.000228	2.276421	0.771272	0.000091
1833	1.8228e+02	-6.9688	-21.243932	0.000235	2.347879	0.795483	0.000094
1834	1.8238e+02	-6.9447	-21.149836	0.000236	2.358087	0.798941	0.000095
1835	1.8248e+02	-6.9078	-21.051667	0.000246	2.460168	0.833528	0.000099
1836	1.8258e+02	-6.8549	-20.958385	0.000234	2.337670	0.792024	0.000094
1837	1.8268e+02	-6.8164	-20.864289	0.000236	2.358087	0.798941	0.000095
1838	1.8278e+02	-6.7971	-20.777933	0.000216	2.164132	0.733228	0.000087
1839	1.8288e+02	-6.7506	-20.677726	0.000251	2.511209	0.850821	0.000101
1840	1.8298e+02	-6.7121	-20.587704	0.000226	2.256005	0.764355	0.000090
1841	1.8308e+02	-6.6592	-20.487497	0.000251	2.511209	0.850821	0.000101
1842	1.8318e+02	-6.6030	-20.397067	0.000227	2.266213	0.767814	0.000091
1843	1.8328e+02	-6.5886	-20.301749	0.000239	2.388711	0.809317	0.000096
1844	1.8338e+02	-6.5453	-20.210504	0.000229	2.286630	0.774731	0.000092
1845	1.8348e+02	-6.5180	-20.109483	0.000253	2.531626	0.857738	0.000102
1846	1.8358e+02	-6.4570	-20.017831	0.000230	2.296838	0.778190	0.000092
1847	1.8368e+02	-6.4330	-19.926587	0.000229	2.286630	0.774731	0.000092
1848	1.8378e+02	-6.3929	-19.838601	0.000220	2.204964	0.747062	0.000088
1849	1.8388e+02	-6.3367	-19.743690	0.000238	2.378503	0.805859	0.000095
1850	1.8398e+02	-6.2966	-19.646742	0.000243	2.429544	0.823152	0.000097
1851	1.8407e+02	-6.2677	-19.554683	0.000231	2.307046	0.781648	0.000093
1852	1.8417e+02	-6.2180	-19.465882	0.000223	2.225381	0.753979	0.000089
1853	1.8427e+02	-6.1827	-19.366491	0.000249	2.490793	0.843903	0.000100
1854	1.8437e+02	-6.1314	-19.271580	0.000238	2.378503	0.805859	0.000095
1855	1.8447e+02	-6.1057	-19.175854	0.000240	2.398919	0.812776	0.000096
1856	1.8457e+02	-6.0672	-19.081758	0.000236	2.358087	0.798941	0.000095
1857	1.8467e+02	-6.0223	-18.983589	0.000246	2.460168	0.833528	0.000099
1858	1.8477e+02	-5.9886	-18.890714	0.000233	2.327462	0.788566	0.000093
1859	1.8487e+02	-5.9485	-18.796211	0.000237	2.368295	0.802400	0.000095
1860	1.8497e+02	-5.8923	-18.699263	0.000243	2.429544	0.823152	0.000097
1861	1.8507e+02	-5.9068	-18.607204	-0.000231	-2.307046	-0.781648	0.000093
1862	1.8517e+02	-5.8298	-18.513923	0.000234	2.337670	0.792024	0.000094
1863	1.8527e+02	-5.7801	-18.416568	0.000244	2.439752	0.826610	0.000098
1864	1.8537e+02	-5.7383	-18.320028	0.000242	2.419336	0.819693	0.000097
1865	1.8547e+02	-5.7063	-18.225117	0.000238	2.378503	0.805859	0.000095
1866	1.8557e+02	-5.6662	-18.128984	0.000241	2.409128	0.816235	0.000097
1867	1.8567e+02	-5.6276	-18.034480	0.000237	2.368295	0.802400	0.000095
1868	1.8577e+02	-5.5875	-17.933867	0.000252	2.521417	0.854279	0.000101
1869	1.8587e+02	-5.5571	-17.840178	0.000235	2.347879	0.795483	0.000094
1870	1.8597e+02	-5.5202	-17.746082	0.000236	2.358087	0.798941	0.000095
1871	1.8606e+02	-5.4640	-17.651171	0.000238	2.378503	0.805859	0.000095
1872	1.8616e+02	-5.4175	-17.555446	0.000240	2.398919	0.812776	0.000096
1873	1.8626e+02	-5.3950	-17.463794	0.000230	2.296838	0.778190	0.000092
1874	1.8636e+02	-5.3533	-17.359514	0.000261	2.613291	0.885407	0.000105
1875	1.8646e+02	-5.3020	-17.266232	0.000234	2.337670	0.792024	0.000094
1876	1.8656e+02	-5.2747	-17.173358	0.000233	2.327462	0.788566	0.000093
1877	1.8666e+02	-5.2362	-17.077633	0.000240	2.398919	0.812776	0.000096
1878	1.8676e+02	-5.1881	-16.977019	0.000252	2.521417	0.854279	0.000101
1879	1.8686e+02	-5.1496	-16.889441	0.000219	2.194756	0.743603	0.000088
1880	1.8696e+02	-5.1063	-16.792086	0.000244	2.439752	0.826610	0.000098
1881	1.8706e+02	-5.0662	-16.693101	0.000248	2.480585	0.840445	0.000099
1882	1.8716e+02	-5.0180	-16.598191	0.000238	2.378503	0.805859	0.000095
1883	1.8726e+02	-4.9811	-16.500428	0.000245	2.449960	0.830069	0.000098
1884	1.8736e+02	-4.9507	-16.407962	0.000232	2.317254	0.785107	0.000093
1885	1.8746e+02	-4.9154	-16.312643	0.000239	2.388711	0.809317	0.000096
1886	1.8756e+02	-4.8769	-16.216918	0.000240	2.398919	0.812776	0.000096
1887	1.8766e+02	-4.8368	-16.123229	0.000235	2.347879	0.795483	0.000094
1888	1.8776e+02	-4.7870	-16.023023	0.000251	2.511209	0.850821	0.000101
1889	1.8786e+02	-4.7389	-15.921187	0.000255	2.552042	0.864655	0.000102
1890	1.8796e+02	-4.7213	-15.828313	0.000233	2.327462	0.788566	0.000093
1891	1.8806e+02	-4.6699	-15.732995	0.000239	2.388711	0.809317	0.000096
1892	1.8815e+02	-4.6330	-15.638084	0.000238	2.378503	0.805859	0.000095
1893	1.8825e+02	-4.5833	-15.541951	0.000241	2.409128	0.816235	0.000097
1894	1.8835e+02	-4.5496	-15.441745	0.000251	2.511209	0.850821	0.000101
1895	1.8845e+02	-4.5031	-15.347649	0.000236	2.358087	0.798941	0.000095
1896	1.8855e+02	-4.4758	-15.253553	0.000236	2.358087	0.798941	0.000095
1897	1.8865e+02	-4.4229	-15.153754	0.000250	2.501001	0.847362	0.000100
1898	1.8875e+02	-4.4052	-15.055992	0.000245	2.449960	0.830069	0.000098
1899	1.8885e+02	-4.3443	-14.959452	0.000242	2.419336	0.819693	0.000097
1900	1.8895e+02	-4.2993	-14.862911	0.000242	2.419336	0.819693	0.000097
1901	1.8905e+02	-4.2801	-14.763520	0.000249	2.490793	0.843903	0.000100
1902	1.8915e+02	-4.2416	-14.665758	0.000245	2.449960	0.830069	0.000098
1903	1.8925e+02	-4.2127	-14.563515	0.000256	2.562250	0.868114	0.000103
1904	1.8935e+02	-4.1405	-14.473492	0.000226	2.256005	0.764355	0.000090
1905	1.8945e+02	-4.1197	-14.371656	0.000255	2.552042	0.864655	0.000102
1906	1.8955e+02	-4.0956	-14.277560	0.000236	2.358087	0.798941	0.000095
1907	1.8965e+02	-4.0459	-14.177354	0.000251	2.511209	0.850821	0.000101
1908	1.8975e+02	-4.0090	-14.082850	0.000237	2.368295	0.802400	0.000095
1909	1.8985e+02	-3.9592	-13.984681	0.000246	2.460168	0.833528	0.000099
1910	1.8995e+02	-3.9095	-13.883660	0.000253	2.531626	0.857738	0.000102
1911	1.9004e+02	-3.8758	-13.790378	0.000234	2.337670	0.792024	0.000094
1912	1.9014e+02	-3.8405	-13.685284	0.000263	2.633707	0.892324	0.000106
1913	1.9024e+02	-3.7796	-13.591595	0.000235	2.347879	0.795483	0.000094
1914	1.9034e+02	-3.7619	-13.496684	0.000238	2.378503	0.805859	0.000095
1915	1.9044e+02	-3.7058	-13.396886	0.000250	2.501001	0.847362	0.000100
1916	1.9054e+02	-3.6641	-13.295865	0.000253	2.531626	0.857738	0.000102
1917	1.9064e+02	-3.6368	-13.200954	0.000238	2.378503	0.805859	0.000095
1918	1.9074e+02	-3.5887	-13.105636	0.000239	2.388711	0.809317	0.000096
1919	1.9084e+02	-3.5518	-13.008281	0.000244	2.439752	0.826610	0.000098
1920	1.9094e+02	-3.5245	-12.906852	0.000254	2.541834	0.861197	0.000102
1921	1.9104e+02	-3.4892	-12.806646	0.000251	2.511209	0.850821	0.000101
1922	1.9114e+02	-3.4411	-12.708884	0.000245	2.449960	0.830069	0.000098
1923	1.9124e+02	-3.3946	-12.613566	0.000239	2.388711	0.809317	0.000096
1924	1.9134e+02	-3.3496	-12.513360	0.000251	2.511209	0.850821	0.000101
1925	1.9144e+02	-3.3095	-12.418856	0.000237	2.368295	0.802400	0.000095
1926	1.9154e+02	-3.2470	-12.319872	0.000248	2.480585	0.840445	0.000099
1927	1.9164e+02	-3.2454	-12.221295	0.000247	2.470377	0.836986	0.000099
1928	1.9174e+02	-3.1924	-12.120681	0.000252	2.521417	0.854279	0.000101
1929	1.9184e+02	-3.1571	-12.028622	0.000231	2.307046	0.781648	0.000093
1930	1.9194e+02	-3.1042	-11.928416	0.000251	2.511209	0.850821	0.000101
1931	1.9203e+02	-3.0817	-11.831468	0.000243	2.429544	0.823152	0.000097
1932	1.9213e+02	-3.0288	-11.731262	0.000251	2.511209	0.850821	0.000101
1933	1.9223e+02	-2.9919	-11.631463	0.000250	2.501001	0.847362	0.000100
1934	1.9233e+02	-2.9694	-11.532479	0.000248	2.480585	0.840445	0.000099
1935	1.9243e+02	-2.9293	-11.436346	0.000241	2.409128	0.816235	0.000097
1936	1.9253e+02	-2.8571	-11.336140	0.000251	2.511209	0.850821	0.000101
1937	1.9263e+02	-2.8427	-11.236748	0.000249	2.490793	0.843903	0.000100
1938	1.9273e+02	-2.8122	-11.137356	0.000249	2.490793	0.843903	0.000100
1939	1.9283e+02	-2.7641	-11.035928	0.000254	2.541834	0.861197	0.000102
1940	1.9293e+02	-2.7128	-10.940610	0.000239	2.388711	0.809317	0.000096
1941	1.9303e+02	-2.6759	-10.842848	0.000245	2.449960	0.830069	0.000098
1942	1.9313e+02	-2.6229	-10.745900	0.000243	2.429544	0.823152	0.000097
1943	1.9323e+02	-2.5860	-10.641213	0.000262	2.623499	0.888866	0.000105
1944	1.9333e+02	-2.5620	-10.545080	0.000241	2.409128	0.816235	0.000097
1945	1.9343e+02	-2.5379	-10.447318	0.000245	2.449960	0.830069	0.000098
1946	1.9353e+02	-2.4785	-10.347519	0.000250	2.501001	0.847362	0.000100
1947	1.9363e+02	-2.4336	-10.248942	0.000247	2.470377	0.836986	0.000099
1948	1.9373e+02	-2.4112	-10.159327	0.000225	2.245797	0.760897	0.000090
1949	1.9383e+02	-2.3678	-10.055047	0.000261	2.613291	0.885407	0.000105
1950	1.9393e+02	-2.3245	-9.954434	0.000252	2.521417	0.854279	0.000101
1951	1.9403e+02	-2.2860	-9.852598	0.000255	2.552042	0.864655	0.000102
1952	1.9412e+02	-2.2491	-9.755650	0.000243	2.429544	0.823152	0.000097
1953	1.9422e+02	-2.1850	-9.656666	0.000248	2.480585	0.840445	0.000099
1954	1.9432e+02	-2.1609	-9.555645	0.000253	2.531626	0.857738	0.000102
1955	1.9442e+02	-2.1015	-9.451366	0.000261	2.613291	0.885407	0.000105
1956	1.9452e+02	-2.0743	-9.358084	0.000234	2.337670	0.792024	0.000094
1957	1.9462e+02	-2.0486	-9.256248	0.000255	2.552042	0.864655	0.000102
1958	1.9472e+02	-2.0229	-9.162152	0.000236	2.358087	0.798941	0.000095
1959	1.9482e+02	-1.9443	-9.061946	0.000251	2.511209	0.850821	0.000101
1960	1.9492e+02	-1.9155	-8.960110	0.000255	2.552042	0.864655	0.000102
1961	1.9502e+02	-1.8786	-8.862348	0.000245	2.449960	0.830069	0.000098
1962	1.9512e+02	-1.8272	-8.756032	0.000266	2.664332	0.902700	0.000107
1963	1.9522e+02	-1.8112	-8.658677	0.000244	2.439752	0.826610	0.000098
1964	1.9532e+02	-1.7711	-8.553583	0.000263	2.633707	0.892324	0.000106
1965	1.9542e+02	-1.7149	-8.457450	0.000241	2.409128	0.816235	0.000097
1966	1.9552e+02	-1.6812	-8.357243	0.000251	2.511209	0.850821	0.000101
1967	1.9562e+02	-1.6299	-8.255815	0.000254	2.541834	0.861197	0.000102
1968	1.9572e+02	-1.6123	-8.153980	0.000255	2.552042	0.864655	0.000102
1969	1.9582e+02	-1.5417	-8.054995	0.000248	2.480585	0.840445	0.000099
1970	1.9592e+02	-1.5304	-7.953160	0.000255	2.552042	0.864655	0.000102
1971	1.9601e+02	-1.4775	-7.857434	0.000240	2.398919	0.812776	0.000096
1972	1.9611e+02	-1.4278	-7.756821	0.000252	2.521417	0.854279	0.000101
1973	1.9621e+02	-1.3925	-7.664354	0.000232	2.317254	0.785107	0.000093
1974	1.9631e+02	-1.3476	-7.558852	0.000264	2.643915	0.895783	0.000106
1975	1.9641e+02	-1.3347	-7.459460	0.000249	2.490793	0.843903	0.000100
1976	1.9651e+02	-1.2962	-7.356403	0.000258	2.582666	0.875031	0.000104
1977	1.9661e+02	-1.2529	-7.257826	0.000247	2.470377	0.836986	0.000099
1978	1.9671e+02	-1.2128	-7.158842	0.000248	2.480585	0.840445	0.000099
1979	1.9681e+02	-1.1663	-7.057821	0.000253	2.531626	0.857738	0.000102
1980	1.9691e+02	-1.1294	-6.956392	0.000254	2.541834	0.861197	0.000102
1981	1.9701e+02	-1.0877	-6.854964	0.000254	2.541834	0.861197	0.000102
1982	1.9711e+02	-1.0347	-6.753536	0.000254	2.541834	0.861197	0.000102
1983	1.9721e+02	-1.0251	-6.660662	0.000233	2.327462	0.788566	0.000093
1984	1.9731e+02	-0.9674	-6.560048	0.000252	2.521417	0.854279	0.000101
1985	1.9741e+02	-0.9369	-6.458620	0.000254	2.541834	0.861197	0.000102
1986	1.9751e+02	-0.8807	-6.352303	0.000266	2.664332	0.902700	0.000107
1987	1.9761e+02	-0.8390	-6.252504	0.000250	2.501001	0.847362	0.000100
1988	1.9771e+02	-0.8037	-6.161260	0.000229	2.286630	0.774731	0.000092
1989	1.9781e+02	-0.7732	-6.056165	0.000263	2.633707	0.892324	0.000106
1990	1.9791e+02	-0.7235	-5.957181	0.000248	2.480585	0.840445	0.000099
1991	1.9800e+02	-0.6978	-5.851679	0.000264	2.643915	0.895783	0.000106
1992	1.9810e+02	-0.6625	-5.758398	0.000234	2.337670	0.792024	0.000094
1993	1.9820e+02	-0.5984	-5.651674	0.000267	2.674540	0.906159	0.000107
1994	1.9830e+02	-0.5615	-5.550246	0.000254	2.541834	0.861197	0.000102
1995	1.9840e+02	-0.5294	-5.450040	0.000251	2.511209	0.850821	0.000101
1996	1.9850e+02	-0.4941	-5.353092	0.000243	2.429544	0.823152	0.000097
1997	1.9860e+02	-0.4636	-5.252071	0.000253	2.531626	0.857738	0.000102
1998	1.9870e+02	-0.4107	-5.151050	0.000253	2.531626	0.857738	0.000102
1999	1.9880e+02	-0.3610	-5.052473	0.000247	2.470377	0.836986	0.000099
2000	1.9890e+02	-0.3241	-4.948194	0.000261	2.613291	0.885407	0.000105
2001	1.9900e+02	-0.2984	-4.849209	0.000248	2.480585	0.840445	0.000099
2002	1.9910e+02	-0.2390	-4.747781	0.000254	2.541834	0.861197	0.000102
2003	1.9920e+02	-0.2118	-4.648390	0.000249	2.490793	0.843903	0.000100
2004	1.9930e+02	-0.1604	-4.549813	0.000247	2.470377	0.836986	0.000099
2005	1.9940e+02	-0.1267	-4.443904	0.000265	2.654124	0.899241	0.000106
2006	1.9950e+02	-0.0658	-4.343290	0.000252	2.521417	0.854279	0.000101
2007	1.9960e+02	-0.0578	-4.241454	0.000255	2.552042	0.864655	0.000102
2008	1.9970e+02	-0.0144	-4.143285	0.000246	2.460168	0.833528	0.000099
2009	1.9980e+02	0.0610	-4.038190	0.000246	2.460168	0.833528	0.000106

PMax (uC/cm2):	5.06e+01
Pr (uC/cm2):	2.10e+00
-Pr (uC/cm2):	-1.79e+00
PLoss (uC/cm2):	-1.79e+00
-Vc:	-8.22e-01
C (Max-Eff) (nF):	2.52e-01
K (Eff):	8.55e+02
Vert. (+/-Pr) Shift (uC/cm2):	1.52e-01
Offset (uC/cm2):	2.24e+00

A (Loop Area - uC/cm2·Volts):	6.66e-02



Hysteresis Version: 5.48.1 - Radiant Technologies, Inc., 1999 - 9/12/24

