»»»»»»»»»»»»»»»»»»»»»»»»»»»»»»»»»»»» Hysteresis ««««««««««««««««««««««««««««««««««««
»»»  Executed Version:	5.48.1
»»»  Vision Version:	5.48.4 (R)
»»»  Vision Compiled:	9/18/24
»»»  Driver Version:	5.47.0
»»»  Windows Version:	Windows 8 or 8.1
»»»  Processor Information:	x86 (AMD or Intel) - 32 Processors
»»»  Tester Name:	PMF21124-494 (100V)
»»»  Tester S/N:	PMF21124-494
»»»  Internal Amp Type:	100V RevK 270k
»»»  Internal Amp S/N:	iAB2-596/K     
»»»  Execution Count:	1
»»»»»»»»»»»»»»»»»»»»»»»»»»»»»»»»»»»»»»»»»»««««««««««««««««««««««««««««««««««««««««««

Stored:	6/19/2025 - 13:5:42
Configured:	06/19/25 10:04:32 AM
Executed:	06/19/25 01:05:24 PM

»»»»»»»»»»»»»»»»»»»»»»»»»»»»»»»»»»» Sample Info ««««««««««««««««««««««««««««««««««««
Sample Name:	
Lot Name:	
Wafer Name:	
Die Row/Column:	0/0
Capacitor Number:	0
Sample Area (cm2):	1.00e-04
Sample Thickness (microns):	3.00e-01

Amplifier:	Internal

»»»»»»»»»»»»»»»»»»»»»»»»»»»»»»»»»»» Tester Info «««««««««««««««««««««««««««««««««««
Tester Name:	PMF21124-494 (100V)
Tester Serial Number:	PMF21124-494
Return Signal Amp. Level:	1.79 [Index: 2]

»»»»»»»»»»»»»»»»»»»»»»»»»»»»»»»» Hysteresis Info ««««««««««««««««««««««««««««««««««
Task Name:	Hyst-1168
Volts:	20.00
Field:	666.67 (kV/cm)
DCBias:	0.00
DCField:	0.00 (kV/cm)
Hysteresis Period (ms):	1.00e+00
Preset:	Enabled
Preset Delay (ms):	1.00e+03
Profile:	Standard Bipolar

»»»»»»»»»»»»»»»»»»»»»»»»»»»»»»»»»»»»»» Data «««««««««««««««««««««««««««««««««««««««
Points:	2001

Valid Data

Point	Time (ms)	Drive Voltage	Measured Polarization (uC/cm2)	Capacitance (uF)	Normalized Capacitance (uF/cm2)	Dielectric Constant	Instantaneous Current (mA)
   1	0.0000e+00	0.0337	-1.866157	-0.000372	-3.716884	-1.259314	0.029934
   2	5.0000e-04	0.0209	-1.716488	-0.000372	-3.716884	-1.259314	0.029934
   3	1.0000e-03	0.1011	-1.624976	0.000227	2.272609	0.769981	0.018302
   4	1.5000e-03	0.1332	-1.592049	0.000082	0.817715	0.277049	0.006585
   5	2.0000e-03	0.1877	-1.542444	0.000123	1.231882	0.417373	0.009921
   6	2.5000e-03	0.2487	-1.445801	0.000240	2.400045	0.813157	0.019329
   7	3.0000e-03	0.2759	-1.356855	0.000221	2.208891	0.748393	0.017789
   8	3.5000e-03	0.3064	-1.272613	0.000209	2.092075	0.708814	0.016848
   9	4.0000e-03	0.3642	-1.230278	0.000105	1.051347	0.356206	0.008467
  10	4.5000e-03	0.3914	-1.142187	0.000219	2.187652	0.741197	0.017618
  11	5.0000e-03	0.4299	-1.011761	0.000324	3.238999	1.097403	0.026085
  12	5.5000e-03	0.4604	-0.915118	0.000240	2.400045	0.813157	0.019329
  13	6.0000e-03	0.4957	-0.859954	0.000137	1.369937	0.464147	0.011033
  14	6.5000e-03	0.5486	-0.735515	0.000309	3.090324	1.047030	0.024888
  15	7.0000e-03	0.5759	-0.670089	0.000162	1.624809	0.550500	0.013085
  16	7.5000e-03	0.6321	-0.564038	0.000263	2.633678	0.892314	0.021210
  17	8.0000e-03	0.6561	-0.439599	0.000309	3.090324	1.047030	0.024888
  18	8.5000e-03	0.7043	-0.334403	0.000261	2.612439	0.885118	0.021039
  19	9.0000e-03	0.7476	-0.303614	0.000076	0.764616	0.259059	0.006158
  20	9.5000e-03	0.7861	-0.217661	0.000213	2.134554	0.723206	0.017191
  21	1.0000e-02	0.8294	-0.150952	0.000166	1.656668	0.561294	0.013342
  22	1.0500e-02	0.8615	-0.000855	0.000373	3.727504	1.262913	0.030019
  23	1.1000e-02	0.9032	0.056874	0.000143	1.433655	0.485736	0.011546
  24	1.1500e-02	0.9609	0.121873	0.000161	1.614190	0.546902	0.013000
  25	1.2000e-02	0.9946	0.172761	0.000126	1.263741	0.428167	0.010177
  26	1.2500e-02	1.0107	0.343811	0.000425	4.247868	1.439217	0.034210
  27	1.3000e-02	1.0684	0.418645	0.000186	1.858442	0.629657	0.014967
  28	1.3500e-02	1.0957	0.470388	0.000128	1.284980	0.435363	0.010349
  29	1.4000e-02	1.1406	0.567459	0.000241	2.410665	0.816755	0.019414
  30	1.4500e-02	1.1759	0.681207	0.000282	2.824832	0.957079	0.022750
  31	1.5000e-02	1.2337	0.737654	0.000140	1.401796	0.474941	0.011289
  32	1.5500e-02	1.2545	0.845843	0.000269	2.686776	0.910304	0.021638
  33	1.6000e-02	1.3251	0.869362	0.000058	0.584082	0.197892	0.004704
  34	1.6500e-02	1.3668	1.031005	0.000401	4.014235	1.360060	0.032328
  35	1.7000e-02	1.4005	1.010479	-0.000051	-0.509744	-0.172706	-0.004105
  36	1.7500e-02	1.4101	1.261495	0.000623	6.233746	2.112050	0.050203
  37	1.8000e-02	1.4823	1.276461	0.000037	0.371688	0.125931	0.002993
  38	1.8500e-02	1.5224	1.323928	0.000118	1.178783	0.399383	0.009493
  39	1.9000e-02	1.5641	1.448794	0.000310	3.100943	1.050628	0.024973
  40	1.9500e-02	1.5818	1.556128	0.000267	2.665537	0.903108	0.021467
  41	2.0000e-02	1.6171	1.648068	0.000228	2.283229	0.773579	0.018388
  42	2.0500e-02	1.6732	1.695534	0.000118	1.178783	0.399383	0.009493
  43	2.1000e-02	1.7117	1.794316	0.000245	2.453144	0.831148	0.019756
  44	2.1500e-02	1.7614	1.844775	0.000125	1.253121	0.424569	0.010092
  45	2.2000e-02	1.7743	2.019674	0.000434	4.343445	1.471599	0.034980
  46	2.2500e-02	1.8320	2.032931	0.000033	0.329210	0.111539	0.002651
  47	2.3000e-02	1.8721	2.211250	0.000443	4.428402	1.500383	0.035664
  48	2.3500e-02	1.9122	2.277532	0.000165	1.646049	0.557696	0.013256
  49	2.4000e-02	1.9540	2.274966	-0.000006	-0.063718	-0.021588	-0.000513
  50	2.4500e-02	1.9780	2.500325	0.000560	5.596566	1.896168	0.045072
  51	2.5000e-02	2.0245	2.541805	0.000103	1.030108	0.349010	0.008296
  52	2.5500e-02	2.0727	2.613218	0.000177	1.773485	0.600873	0.014283
  53	2.6000e-02	2.1336	2.656836	0.000108	1.083206	0.367000	0.008724
  54	2.6500e-02	2.1593	2.778709	0.000303	3.026606	1.025442	0.024375
  55	2.7000e-02	2.2074	2.896734	0.000293	2.931029	0.993059	0.023605
  56	2.7500e-02	2.2267	2.986963	0.000224	2.240750	0.759187	0.018046
  57	2.8000e-02	2.2652	3.063935	0.000191	1.911540	0.647647	0.015395
  58	2.8500e-02	2.3310	3.166993	0.000256	2.559340	0.867128	0.020612
  59	2.9000e-02	2.3646	3.268340	0.000252	2.516862	0.852736	0.020269
  60	2.9500e-02	2.3791	3.283734	0.000038	0.382308	0.129529	0.003079
  61	3.0000e-02	2.4336	3.453929	0.000423	4.226628	1.432020	0.034039
  62	3.0500e-02	2.4898	3.503962	0.000124	1.242501	0.420971	0.010006
  63	3.1000e-02	2.5010	3.587776	0.000208	2.081455	0.705216	0.016763
  64	3.1500e-02	2.5395	3.733596	0.000362	3.621307	1.226932	0.029164
  65	3.2000e-02	2.5828	3.846917	0.000281	2.814212	0.953481	0.022664
  66	3.2500e-02	2.6277	3.835799	-0.000028	-0.276111	-0.093549	-0.002224
  67	3.3000e-02	2.6710	3.964942	0.000321	3.207140	1.086608	0.025829
  68	3.3500e-02	2.7224	4.059874	0.000236	2.357567	0.798765	0.018987
  69	3.4000e-02	2.7497	4.177044	0.000291	2.909789	0.985863	0.023434
  70	3.4500e-02	2.7801	4.240332	0.000157	1.571711	0.532510	0.012658
  71	3.5000e-02	2.8331	4.341679	0.000252	2.516862	0.852736	0.020269
  72	3.5500e-02	2.8475	4.472960	0.000326	3.260238	1.104599	0.026256
  73	3.6000e-02	2.9101	4.541380	0.000170	1.699147	0.575687	0.013684
  74	3.6500e-02	2.9582	4.588847	0.000118	1.178783	0.399383	0.009493
  75	3.7000e-02	2.9646	4.701740	0.000280	2.803593	0.949883	0.022579
  76	3.7500e-02	3.0192	4.856968	0.000385	3.854940	1.306089	0.031046
  77	3.8000e-02	3.0496	4.893744	0.000091	0.913292	0.309432	0.007355
  78	3.8500e-02	3.1106	4.988249	0.000235	2.346947	0.795167	0.018901
  79	3.9000e-02	3.1668	4.979696	-0.000021	-0.212393	-0.071961	-0.001711
  80	3.9500e-02	3.1732	5.185812	0.000512	5.118681	1.734256	0.041223
  81	4.0000e-02	3.2325	5.296994	0.000276	2.761114	0.935491	0.022237
  82	4.0500e-02	3.2598	5.354724	0.000143	1.433655	0.485736	0.011546
  83	4.1000e-02	3.3031	5.415446	0.000151	1.507993	0.510922	0.012145
  84	4.1500e-02	3.3545	5.488570	0.000182	1.815963	0.615265	0.014625
  85	4.2000e-02	3.3833	5.586497	0.000243	2.431904	0.823951	0.019585
  86	4.2500e-02	3.4331	5.642515	0.000139	1.391177	0.471343	0.011204
  87	4.3000e-02	3.4539	5.753270	0.000275	2.750494	0.931893	0.022151
  88	4.3500e-02	3.4988	5.899946	0.000364	3.642547	1.234128	0.029335
  89	4.4000e-02	3.5389	5.929880	0.000074	0.743377	0.251863	0.005987
  90	4.4500e-02	3.5887	6.029089	0.000246	2.463763	0.834746	0.019842
  91	4.5000e-02	3.6320	6.169350	0.000348	3.483252	1.180158	0.028052
  92	4.5500e-02	3.6625	6.283953	0.000285	2.846071	0.964275	0.022921
  93	4.6000e-02	3.7138	6.325005	0.000102	1.019488	0.345412	0.008210
  94	4.6500e-02	3.7491	6.422932	0.000243	2.431904	0.823951	0.019585
  95	4.7000e-02	3.7796	6.570035	0.000365	3.653166	1.237726	0.029421
  96	4.7500e-02	3.8325	6.608521	0.000096	0.955770	0.323824	0.007697
  97	4.8000e-02	3.8726	6.709013	0.000250	2.495622	0.845540	0.020098
  98	4.8500e-02	3.9175	6.763749	0.000136	1.359318	0.460549	0.010947
  99	4.9000e-02	3.9528	6.857399	0.000233	2.325708	0.787971	0.018730
 100	4.9500e-02	4.0106	6.909569	0.000130	1.295600	0.438961	0.010434
 101	5.0000e-02	4.0250	7.072922	0.000406	4.056714	1.374452	0.032671
 102	5.0500e-02	4.0587	7.171703	0.000245	2.453144	0.831148	0.019756
 103	5.1000e-02	4.1149	7.211473	0.000099	0.987629	0.334618	0.007954
 104	5.1500e-02	4.1630	7.316668	0.000261	2.612439	0.885118	0.021039
 105	5.2000e-02	4.1999	7.392786	0.000189	1.890301	0.640451	0.015223
 106	5.2500e-02	4.2336	7.519790	0.000315	3.154042	1.068618	0.025401
 107	5.3000e-02	4.2480	7.560842	0.000102	1.019488	0.345412	0.008210
 108	5.3500e-02	4.2913	7.743011	0.000452	4.523979	1.532766	0.036434
 109	5.4000e-02	4.3362	7.813569	0.000175	1.752245	0.593677	0.014112
 110	5.4500e-02	4.3956	7.899094	0.000212	2.123934	0.719608	0.017105
 111	5.5000e-02	4.4165	7.991461	0.000229	2.293849	0.777177	0.018473
 112	5.5500e-02	4.4710	8.073565	0.000204	2.038977	0.690824	0.016421
 113	5.6000e-02	4.4935	8.157380	0.000208	2.081455	0.705216	0.016763
 114	5.6500e-02	4.5512	8.276260	0.000295	2.952268	1.000255	0.023776
 115	5.7000e-02	4.5689	8.400699	0.000309	3.090324	1.047030	0.024888
 116	5.7500e-02	4.6122	8.458428	0.000143	1.433655	0.485736	0.011546
 117	5.8000e-02	4.6651	8.505894	0.000118	1.178783	0.399383	0.009493
 118	5.8500e-02	4.7245	8.629050	0.000306	3.058465	1.036236	0.024631
 119	5.9000e-02	4.7437	8.726977	0.000243	2.431904	0.823951	0.019585
 120	5.9500e-02	4.7918	8.843291	0.000289	2.888550	0.978667	0.023263
 121	6.0000e-02	4.8223	8.777864	-0.000162	-1.624809	-0.550500	-0.013085
 122	6.0500e-02	4.8672	9.018189	0.000597	5.968254	2.022099	0.048065
 123	6.1000e-02	4.8977	9.121247	0.000256	2.559340	0.867128	0.020612
 124	6.1500e-02	4.9507	9.210193	0.000221	2.208891	0.748393	0.017789
 125	6.2000e-02	4.9876	9.243120	0.000082	0.817715	0.277049	0.006585
 126	6.2500e-02	5.0245	9.346606	0.000257	2.569960	0.870726	0.020697
 127	6.3000e-02	5.0774	9.413743	0.000167	1.667288	0.564892	0.013427
 128	6.3500e-02	5.0870	9.645943	0.000577	5.766480	1.953736	0.046440
 129	6.4000e-02	5.1512	9.661765	0.000039	0.392928	0.133128	0.003164
 130	6.4500e-02	5.2202	9.682719	0.000052	0.520364	0.176304	0.004191
 131	6.5000e-02	5.2298	9.748573	0.000164	1.635429	0.554098	0.013171
 132	6.5500e-02	5.2587	9.979919	0.000575	5.745241	1.946540	0.046269
 133	6.6000e-02	5.2731	10.077417	0.000242	2.421285	0.820353	0.019500
 134	6.6500e-02	5.3485	10.018405	-0.000147	-1.465514	-0.496530	-0.011802
 135	6.7000e-02	5.3774	10.178764	0.000398	3.982376	1.349266	0.032072
 136	6.7500e-02	5.4255	10.280112	0.000252	2.516862	0.852736	0.020269
 137	6.8000e-02	5.4560	10.410110	0.000323	3.228379	1.093805	0.026000
 138	6.8500e-02	5.5041	10.454155	0.000109	1.093826	0.370598	0.008809
 139	6.9000e-02	5.5394	10.549943	0.000238	2.378806	0.805961	0.019158
 140	6.9500e-02	5.5811	10.695336	0.000361	3.610688	1.223334	0.029079
 141	7.0000e-02	5.6421	10.730829	0.000088	0.881433	0.298637	0.007099
 142	7.0500e-02	5.6838	10.809084	0.000194	1.943399	0.658442	0.015651
 143	7.1000e-02	5.7127	10.973720	0.000409	4.088573	1.385246	0.032927
 144	7.1500e-02	5.7496	11.029739	0.000139	1.391177	0.471343	0.011204
 145	7.2000e-02	5.7929	11.131941	0.000254	2.538101	0.859932	0.020440
 146	7.2500e-02	5.8137	11.239703	0.000268	2.676157	0.906706	0.021552
 147	7.3000e-02	5.8651	11.304274	0.000160	1.603570	0.543304	0.012914
 148	7.3500e-02	5.9068	11.347037	0.000106	1.061967	0.359804	0.008553
 149	7.4000e-02	5.9597	11.533481	0.000463	4.630176	1.568746	0.037289
 150	7.4500e-02	5.9822	11.506541	-0.000067	-0.669039	-0.226677	-0.005388
 151	7.5000e-02	6.0399	11.642953	0.000339	3.387675	1.147775	0.027282
 152	7.5500e-02	6.0544	11.828115	0.000460	4.598317	1.557952	0.037032
 153	7.6000e-02	6.1041	11.853345	0.000063	0.626560	0.212284	0.005046
 154	7.6500e-02	6.1538	11.939298	0.000213	2.134554	0.723206	0.017191
 155	7.7000e-02	6.1779	12.057322	0.000293	2.931029	0.993059	0.023605
 156	7.7500e-02	6.2260	12.144130	0.000216	2.155793	0.730402	0.017362
 157	7.8000e-02	6.2693	12.208702	0.000160	1.603570	0.543304	0.012914
 158	7.8500e-02	6.2950	12.355805	0.000365	3.653166	1.237726	0.029421
 159	7.9000e-02	6.3624	12.354522	-0.000003	-0.031859	-0.010794	-0.000257
 160	7.9500e-02	6.3832	12.548664	0.000482	4.821330	1.633511	0.038828
 161	8.0000e-02	6.4169	12.595702	0.000117	1.168164	0.395785	0.009408
 162	8.0500e-02	6.4602	12.706457	0.000275	2.750494	0.931893	0.022151
 163	8.1000e-02	6.4827	12.835600	0.000321	3.207140	1.086608	0.025829
 164	8.1500e-02	6.5421	12.904876	0.000172	1.720386	0.582883	0.013855
 165	8.2000e-02	6.5709	13.016913	0.000278	2.782353	0.942687	0.022408
 166	8.2500e-02	6.6287	13.081057	0.000159	1.592950	0.539706	0.012829
 167	8.3000e-02	6.6864	13.125530	0.000110	1.104446	0.374196	0.008895
 168	8.3500e-02	6.7217	13.230726	0.000261	2.612439	0.885118	0.021039
 169	8.4000e-02	6.7570	13.344902	0.000284	2.835452	0.960677	0.022835
 170	8.4500e-02	6.8019	13.439835	0.000236	2.357567	0.798765	0.018987
 171	8.5000e-02	6.8340	13.545458	0.000262	2.623058	0.888716	0.021125
 172	8.5500e-02	6.8854	13.585227	0.000099	0.987629	0.334618	0.007954
 173	8.6000e-02	6.9158	13.670325	0.000211	2.113314	0.716010	0.017019
 174	8.6500e-02	6.9415	13.782790	0.000279	2.792973	0.946285	0.022493
 175	8.7000e-02	6.9672	13.997886	0.000534	5.341694	1.809815	0.043019
 176	8.7500e-02	7.0169	14.015846	0.000045	0.446026	0.151118	0.003592
 177	8.8000e-02	7.0634	14.154397	0.000344	3.440773	1.165765	0.027710
 178	8.8500e-02	7.1308	14.163377	0.000022	0.223013	0.075559	0.001796
 179	8.9000e-02	7.1469	14.261303	0.000243	2.431904	0.823951	0.019585
 180	8.9500e-02	7.1934	14.364788	0.000257	2.569960	0.870726	0.020697
 181	9.0000e-02	7.2126	14.491365	0.000314	3.143422	1.065020	0.025315
 182	9.0500e-02	7.2511	14.579028	0.000218	2.177032	0.737598	0.017533
 183	9.1000e-02	7.2832	14.681231	0.000254	2.538101	0.859932	0.020440
 184	9.1500e-02	7.3378	14.754782	0.000183	1.826583	0.618863	0.014710
 185	9.2000e-02	7.4019	14.769322	0.000036	0.361069	0.122333	0.002908
 186	9.2500e-02	7.4372	14.948924	0.000446	4.460261	1.511177	0.035921
 187	9.3000e-02	7.4645	15.082343	0.000331	3.313337	1.122589	0.026684
 188	9.3500e-02	7.5078	15.158033	0.000188	1.879681	0.636853	0.015138
 189	9.4000e-02	7.5335	15.313261	0.000385	3.854940	1.306089	0.031046
 190	9.4500e-02	7.5864	15.323952	0.000027	0.265492	0.089951	0.002138
 191	9.5000e-02	7.6297	15.399641	0.000188	1.879681	0.636853	0.015138
 192	9.5500e-02	7.6779	15.465923	0.000165	1.646049	0.557696	0.013256
 193	9.6000e-02	7.6939	15.619868	0.000382	3.823081	1.295295	0.030789
 194	9.6500e-02	7.7276	15.741742	0.000303	3.026606	1.025442	0.024375
 195	9.7000e-02	7.8126	15.765261	0.000058	0.584082	0.197892	0.004704
 196	9.7500e-02	7.8319	15.838813	0.000183	1.826583	0.618863	0.014710
 197	9.8000e-02	7.8639	15.953416	0.000285	2.846071	0.964275	0.022921
 198	9.8500e-02	7.8912	16.038086	0.000210	2.102695	0.712412	0.016934
 199	9.9000e-02	7.9393	16.211274	0.000430	4.300966	1.457207	0.034638
 200	9.9500e-02	7.9971	16.196735	-0.000036	-0.361069	-0.122333	-0.002908
 201	1.0000e-01	8.0180	16.337424	0.000349	3.493871	1.183756	0.028138
 202	1.0050e-01	8.0982	16.345121	0.000019	0.191154	0.064765	0.001539
 203	1.0100e-01	8.1126	16.522585	0.000441	4.407163	1.493187	0.035493
 204	1.0150e-01	8.1463	16.600841	0.000194	1.943399	0.658442	0.015651
 205	1.0200e-01	8.1752	16.735115	0.000333	3.334576	1.129785	0.026855
 206	1.0250e-01	8.2201	16.842449	0.000267	2.665537	0.903108	0.021467
 207	1.0300e-01	8.2682	16.912152	0.000173	1.731006	0.586481	0.013941
 208	1.0350e-01	8.3099	16.960046	0.000119	1.189403	0.402981	0.009579
 209	1.0400e-01	8.3677	17.058827	0.000245	2.453144	0.831148	0.019756
 210	1.0450e-01	8.4030	17.174286	0.000287	2.867311	0.971471	0.023092
 211	1.0500e-01	8.4222	17.248693	0.000185	1.847822	0.626059	0.014881
 212	1.0550e-01	8.4639	17.294021	0.000113	1.125685	0.381392	0.009066
 213	1.0600e-01	8.4960	17.477045	0.000455	4.545218	1.539962	0.036605
 214	1.0650e-01	8.5377	17.590366	0.000281	2.814212	0.953481	0.022664
 215	1.0700e-01	8.5666	17.622438	0.000080	0.796475	0.269853	0.006414
 216	1.0750e-01	8.6179	17.770824	0.000369	3.685025	1.248520	0.029677
 217	1.0800e-01	8.6613	17.904243	0.000331	3.313337	1.122589	0.026684
 218	1.0850e-01	8.7014	17.962827	0.000145	1.454895	0.492932	0.011717
 219	1.0900e-01	8.7495	18.048780	0.000213	2.134554	0.723206	0.017191
 220	1.0950e-01	8.7816	18.101806	0.000132	1.316839	0.446157	0.010605
 221	1.1000e-01	8.8217	18.194600	0.000230	2.304468	0.780775	0.018559
 222	1.1050e-01	8.8602	18.303217	0.000270	2.697396	0.913903	0.021723
 223	1.1100e-01	8.9099	18.361374	0.000144	1.444275	0.489334	0.011631
 224	1.1150e-01	8.9580	18.465715	0.000259	2.591199	0.877922	0.020868
 225	1.1200e-01	8.9725	18.624364	0.000394	3.939897	1.334873	0.031730
 226	1.1250e-01	9.0206	18.725283	0.000251	2.506242	0.849138	0.020184
 227	1.1300e-01	9.0639	18.754789	0.000073	0.732757	0.248265	0.005901
 228	1.1350e-01	9.1120	18.893768	0.000345	3.451393	1.169363	0.027796
 229	1.1400e-01	9.1265	19.048140	0.000383	3.833701	1.298893	0.030875
 230	1.1450e-01	9.1714	19.142218	0.000234	2.336327	0.791569	0.018816
 231	1.1500e-01	9.1939	19.255111	0.000280	2.803593	0.949883	0.022579
 232	1.1550e-01	9.2612	19.312413	0.000142	1.423036	0.482138	0.011460
 233	1.1600e-01	9.2917	19.441128	0.000320	3.196520	1.083010	0.025743
 234	1.1650e-01	9.3479	19.414187	-0.000067	-0.669039	-0.226677	-0.005388
 235	1.1700e-01	9.3816	19.538199	0.000308	3.079704	1.043432	0.024802
 236	1.1750e-01	9.4249	19.673756	0.000337	3.366435	1.140579	0.027111
 237	1.1800e-01	9.4762	19.741321	0.000168	1.677908	0.568491	0.013513
 238	1.1850e-01	9.5324	19.767834	0.000066	0.658419	0.223079	0.005303
 239	1.1900e-01	9.5612	19.885431	0.000292	2.920409	0.989461	0.023519
 240	1.1950e-01	9.5981	19.976515	0.000226	2.261990	0.766383	0.018217
 241	1.2000e-01	9.6302	20.151841	0.000435	4.354064	1.475197	0.035065
 242	1.2050e-01	9.6751	20.217268	0.000162	1.624809	0.550500	0.013085
 243	1.2100e-01	9.7200	20.212136	-0.000013	-0.127436	-0.043176	-0.001026
 244	1.2150e-01	9.7200	20.464435	-0.000627	-6.265605	-2.122844	0.050460
 245	1.2200e-01	9.7987	20.449896	-0.000036	-0.361069	-0.122333	-0.002908
 246	1.2250e-01	9.8291	20.609828	0.000397	3.971756	1.345667	0.031986
 247	1.2300e-01	9.8789	20.633347	0.000058	0.584082	0.197892	0.004704
 248	1.2350e-01	9.8981	20.776602	0.000356	3.557589	1.205344	0.028651
 249	1.2400e-01	9.9254	20.912586	0.000338	3.377055	1.144177	0.027197
 250	1.2450e-01	9.9880	21.022914	0.000274	2.739875	0.928295	0.022065
 251	1.2500e-01	10.0313	21.066959	0.000109	1.093826	0.370598	0.008809
 252	1.2550e-01	10.0650	21.094327	0.000068	0.679659	0.230275	0.005474
 253	1.2600e-01	10.1067	21.202089	0.000268	2.676157	0.906706	0.021552
 254	1.2650e-01	10.1371	21.381264	0.000445	4.449641	1.507579	0.035835
 255	1.2700e-01	10.1708	21.476197	0.000236	2.357567	0.798765	0.018987
 256	1.2750e-01	10.2109	21.563004	0.000216	2.155793	0.730402	0.017362
 257	1.2800e-01	10.2639	21.659648	0.000240	2.400045	0.813157	0.019329
 258	1.2850e-01	10.3120	21.725930	0.000165	1.646049	0.557696	0.013256
 259	1.2900e-01	10.3537	21.749021	0.000057	0.573462	0.194294	0.004618
 260	1.2950e-01	10.4067	21.937604	0.000468	4.683274	1.586736	0.037717
 261	1.3000e-01	10.4516	21.938459	0.000002	0.021239	0.007196	0.000171
 262	1.3050e-01	10.4612	22.101812	0.000406	4.056714	1.374452	0.032671
 263	1.3100e-01	10.4965	22.224541	0.000305	3.047845	1.032638	0.024546
 264	1.3150e-01	10.5414	22.292961	0.000170	1.699147	0.575687	0.013684
 265	1.3200e-01	10.5927	22.416972	0.000308	3.079704	1.043432	0.024802
 266	1.3250e-01	10.6296	22.475129	0.000144	1.444275	0.489334	0.011631
 267	1.3300e-01	10.6537	22.611114	0.000338	3.377055	1.144177	0.027197
 268	1.3350e-01	10.7034	22.672264	0.000152	1.518613	0.514520	0.012230
 269	1.3400e-01	10.7387	22.830913	0.000394	3.939897	1.334873	0.031730
 270	1.3450e-01	10.7724	22.886932	0.000139	1.391177	0.471343	0.011204
 271	1.3500e-01	10.8189	22.934399	0.000118	1.178783	0.399383	0.009493
 272	1.3550e-01	10.8735	23.058838	0.000309	3.090324	1.047030	0.024888
 273	1.3600e-01	10.9168	23.135383	0.000190	1.900921	0.644049	0.015309
 274	1.3650e-01	10.9585	23.229888	0.000235	2.346947	0.795167	0.018901
 275	1.3700e-01	10.9842	23.277354	0.000118	1.178783	0.399383	0.009493
 276	1.3750e-01	11.0307	23.404787	0.000316	3.164661	1.072216	0.025486
 277	1.3800e-01	11.0820	23.518535	0.000282	2.824832	0.957079	0.022750
 278	1.3850e-01	11.0901	23.657513	0.000345	3.451393	1.169363	0.027796
 279	1.3900e-01	11.1462	23.771689	0.000284	2.835452	0.960677	0.022835
 280	1.3950e-01	11.1895	23.797774	0.000065	0.647800	0.219481	0.005217
 281	1.4000e-01	11.2360	23.915371	0.000292	2.920409	0.989461	0.023519
 282	1.4050e-01	11.2938	23.870043	-0.000113	-1.125685	-0.381392	-0.009066
 283	1.4100e-01	11.3002	24.070599	0.000498	4.980625	1.687481	0.040111
 284	1.4150e-01	11.3403	24.192045	0.000302	3.015986	1.021844	0.024289
 285	1.4200e-01	11.3997	24.260892	0.000171	1.709767	0.579285	0.013770
 286	1.4250e-01	11.4221	24.342141	0.000202	2.017737	0.683628	0.016250
 287	1.4300e-01	11.4767	24.426811	0.000210	2.102695	0.712412	0.016934
 288	1.4350e-01	11.5104	24.497797	0.000176	1.762865	0.597275	0.014197
 289	1.4400e-01	11.5473	24.632926	0.000336	3.355815	1.136981	0.027026
 290	1.4450e-01	11.5890	24.692794	0.000149	1.486754	0.503726	0.011974
 291	1.4500e-01	11.6114	24.829206	0.000339	3.387675	1.147775	0.027282
 292	1.4550e-01	11.6644	24.979730	0.000374	3.738124	1.266511	0.030105
 293	1.4600e-01	11.7109	24.974599	-0.000013	-0.127436	-0.043176	-0.001026
 294	1.4650e-01	11.7574	25.123840	0.000371	3.706265	1.255716	0.029848
 295	1.4700e-01	11.7847	25.216207	0.000229	2.293849	0.777177	0.018473
 296	1.4750e-01	11.8232	25.342357	0.000313	3.132802	1.061422	0.025230
 297	1.4800e-01	11.8569	25.453112	0.000275	2.750494	0.931893	0.022151
 298	1.4850e-01	11.9018	25.520676	0.000168	1.677908	0.568491	0.013513
 299	1.4900e-01	11.9580	25.594656	0.000184	1.837203	0.622461	0.014796
 300	1.4950e-01	11.9884	25.686595	0.000228	2.283229	0.773579	0.018388
 301	1.5000e-01	12.0221	25.761857	0.000187	1.869062	0.633255	0.015052
 302	1.5050e-01	12.0670	25.879026	0.000291	2.909789	0.985863	0.023434
 303	1.5100e-01	12.1055	25.969255	0.000224	2.240750	0.759187	0.018046
 304	1.5150e-01	12.1232	26.076589	0.000267	2.665537	0.903108	0.021467
 305	1.5200e-01	12.1713	26.125339	0.000121	1.210642	0.410177	0.009750
 306	1.5250e-01	12.2226	26.300237	0.000434	4.343445	1.471599	0.034980
 307	1.5300e-01	12.2644	26.360105	0.000149	1.486754	0.503726	0.011974
 308	1.5350e-01	12.2948	26.545267	0.000460	4.598317	1.557952	0.037032
 309	1.5400e-01	12.3366	26.508063	-0.000092	-0.923911	-0.313030	-0.007441
 310	1.5450e-01	12.3831	26.656877	0.000370	3.695645	1.252118	0.029763
 311	1.5500e-01	12.4264	26.734705	0.000193	1.932780	0.654844	0.015566
 312	1.5550e-01	12.4809	26.761217	0.000066	0.658419	0.223079	0.005303
 313	1.5600e-01	12.5034	26.862992	0.000253	2.527481	0.856334	0.020355
 314	1.5650e-01	12.5451	27.032759	0.000422	4.216009	1.428422	0.033953
 315	1.5700e-01	12.5884	27.127692	0.000236	2.357567	0.798765	0.018987
 316	1.5750e-01	12.6205	27.220487	0.000230	2.304468	0.780775	0.018559
 317	1.5800e-01	12.6590	27.327821	0.000267	2.665537	0.903108	0.021467
 318	1.5850e-01	12.6943	27.456108	0.000319	3.185901	1.079412	0.025658
 319	1.5900e-01	12.7360	27.423609	-0.000081	-0.807095	-0.273451	-0.006500
 320	1.5950e-01	12.7873	27.518969	0.000237	2.368186	0.802363	0.019072
 321	1.6000e-01	12.8146	27.680184	0.000400	4.003615	1.356462	0.032243
 322	1.6050e-01	12.8724	27.719098	0.000097	0.966390	0.327422	0.007783
 323	1.6100e-01	12.9061	27.826859	0.000268	2.676157	0.906706	0.021552
 324	1.6150e-01	12.8980	28.077876	-0.000623	-6.233746	-2.112050	0.050203
 325	1.6200e-01	12.9750	28.100967	0.000057	0.573462	0.194294	0.004618
 326	1.6250e-01	13.0232	28.097119	-0.000010	-0.095577	-0.032382	-0.000770
 327	1.6300e-01	13.0793	28.195045	0.000243	2.431904	0.823951	0.019585
 328	1.6350e-01	13.1387	28.215998	0.000052	0.520364	0.176304	0.004191
 329	1.6400e-01	13.1515	28.408857	0.000479	4.789471	1.622717	0.038572
 330	1.6450e-01	13.1691	28.545270	0.000339	3.387675	1.147775	0.027282
 331	1.6500e-01	13.2141	28.631650	0.000215	2.145173	0.726804	0.017276
 332	1.6550e-01	13.2622	28.688952	0.000142	1.423036	0.482138	0.011460
 333	1.6600e-01	13.2798	28.871548	0.000453	4.534599	1.536364	0.036519
 334	1.6650e-01	13.3440	28.897206	0.000064	0.637180	0.215882	0.005132
 335	1.6700e-01	13.3889	28.960066	0.000156	1.561091	0.528912	0.012572
 336	1.6750e-01	13.4210	29.157202	0.000490	4.895668	1.658697	0.039427
 337	1.6800e-01	13.4371	29.214504	0.000142	1.423036	0.482138	0.011460
 338	1.6850e-01	13.4996	29.277792	0.000157	1.571711	0.532510	0.012658
 339	1.6900e-01	13.5365	29.355192	0.000192	1.922160	0.651245	0.015480
 340	1.6950e-01	13.5814	29.483480	0.000319	3.185901	1.079412	0.025658
 341	1.7000e-01	13.6247	29.509565	0.000065	0.647800	0.219481	0.005217
 342	1.7050e-01	13.6568	29.656240	0.000364	3.642547	1.234128	0.029335
 343	1.7100e-01	13.6889	29.779824	0.000307	3.069084	1.039834	0.024717
 344	1.7150e-01	13.7322	29.782390	0.000006	0.063718	0.021588	0.000513
 345	1.7200e-01	13.7884	29.974394	0.000477	4.768232	1.615521	0.038401
 346	1.7250e-01	13.8140	30.025281	0.000126	1.263741	0.428167	0.010177
 347	1.7300e-01	13.8734	30.094129	0.000171	1.709767	0.579285	0.013770
 348	1.7350e-01	13.9007	30.198469	0.000259	2.591199	0.877922	0.020868
 349	1.7400e-01	13.9135	30.295540	0.000241	2.410665	0.816755	0.019414
 350	1.7450e-01	13.9857	30.398170	0.000255	2.548721	0.863530	0.020526
 351	1.7500e-01	14.0130	30.499090	0.000251	2.506242	0.849138	0.020184
 352	1.7550e-01	14.0370	30.633792	0.000335	3.345196	1.133383	0.026940
 353	1.7600e-01	14.1124	30.693659	0.000149	1.486754	0.503726	0.011974
 354	1.7650e-01	14.1477	30.783888	0.000224	2.240750	0.759187	0.018046
 355	1.7700e-01	14.1846	30.874972	0.000226	2.261990	0.766383	0.018217
 356	1.7750e-01	14.2279	30.976320	0.000252	2.516862	0.852736	0.020269
 357	1.7800e-01	14.2713	31.035760	0.000148	1.476134	0.500128	0.011888
 358	1.7850e-01	14.2985	31.169606	0.000332	3.323956	1.126187	0.026769
 359	1.7900e-01	14.3450	31.216645	0.000117	1.168164	0.395785	0.009408
 360	1.7950e-01	14.4028	31.265822	0.000122	1.221262	0.413775	0.009835
 361	1.8000e-01	14.4253	31.395820	0.000323	3.228379	1.093805	0.026000
 362	1.8050e-01	14.4766	31.445852	0.000124	1.242501	0.420971	0.010006
 363	1.8100e-01	14.5071	31.618613	0.000429	4.290346	1.453609	0.034552
 364	1.8150e-01	14.5600	31.689171	0.000175	1.752245	0.593677	0.014112
 365	1.8200e-01	14.5696	31.792656	0.000257	2.569960	0.870726	0.020697
 366	1.8250e-01	14.6178	31.944036	0.000376	3.759363	1.273707	0.030276
 367	1.8300e-01	14.6659	31.951305	0.000018	0.180534	0.061167	0.001454
 368	1.8350e-01	14.7108	32.024002	0.000181	1.805344	0.611667	0.014539
 369	1.8400e-01	14.7493	32.166401	0.000354	3.536350	1.198148	0.028480
 370	1.8450e-01	14.7894	32.320346	0.000382	3.823081	1.295295	0.030789
 371	1.8500e-01	14.8279	32.356266	0.000089	0.892052	0.302235	0.007184
 372	1.8550e-01	14.8616	32.449061	0.000230	2.304468	0.780775	0.018559
 373	1.8600e-01	14.8809	32.600013	0.000375	3.748743	1.270109	0.030190
 374	1.8650e-01	14.9338	32.656032	0.000139	1.391177	0.471343	0.011204
 375	1.8700e-01	14.9803	32.700077	0.000109	1.093826	0.370598	0.008809
 376	1.8750e-01	15.0365	32.813398	0.000281	2.814212	0.953481	0.022664
 377	1.8800e-01	15.0734	32.863430	0.000124	1.242501	0.420971	0.010006
 378	1.8850e-01	15.0862	33.075532	0.000527	5.267356	1.784629	0.042420
 379	1.8900e-01	15.1424	33.127702	0.000130	1.295600	0.438961	0.010434
 380	1.8950e-01	15.1793	33.199543	0.000178	1.784104	0.604471	0.014368
 381	1.9000e-01	15.2081	33.326548	0.000315	3.154042	1.068618	0.025401
 382	1.9050e-01	15.2498	33.468947	0.000354	3.536350	1.198148	0.028480
 383	1.9100e-01	15.2867	33.486908	0.000045	0.446026	0.151118	0.003592
 384	1.9150e-01	15.3317	33.573288	0.000215	2.145173	0.726804	0.017276
 385	1.9200e-01	15.3605	33.749042	0.000436	4.364684	1.478795	0.035151
 386	1.9250e-01	15.4295	33.792660	0.000108	1.083206	0.367000	0.008724
 387	1.9300e-01	15.4664	33.841409	0.000121	1.210642	0.410177	0.009750
 388	1.9350e-01	15.5049	33.927789	0.000215	2.145173	0.726804	0.017276
 389	1.9400e-01	15.5370	34.052656	0.000310	3.100943	1.050628	0.024973
 390	1.9450e-01	15.5771	34.140747	0.000219	2.187652	0.741197	0.017618
 391	1.9500e-01	15.6172	34.170253	0.000073	0.732757	0.248265	0.005901
 392	1.9550e-01	15.6637	34.361829	0.000476	4.757612	1.611923	0.038315
 393	1.9600e-01	15.6990	34.450347	0.000220	2.198272	0.744795	0.017704
 394	1.9650e-01	15.7279	34.527320	0.000191	1.911540	0.647647	0.015395
 395	1.9700e-01	15.7824	34.573931	0.000116	1.157544	0.392187	0.009322
 396	1.9750e-01	15.8290	34.707350	0.000331	3.313337	1.122589	0.026684
 397	1.9800e-01	15.8610	34.834355	0.000315	3.154042	1.068618	0.025401
 398	1.9850e-01	15.9204	34.842907	0.000021	0.212393	0.071961	0.001711
 399	1.9900e-01	15.9300	34.979747	0.000340	3.398294	1.151373	0.027368
 400	1.9950e-01	15.9862	35.093923	0.000284	2.835452	0.960677	0.022835
 401	2.0000e-01	16.0295	35.197409	0.000257	2.569960	0.870726	0.020697
 402	2.0050e-01	16.0487	35.367176	0.000422	4.216009	1.428422	0.033953
 403	2.0100e-01	16.1033	35.409511	0.000105	1.051347	0.356206	0.008467
 404	2.0150e-01	16.1434	35.441583	0.000080	0.796475	0.269853	0.006414
 405	2.0200e-01	16.1691	35.547206	0.000262	2.623058	0.888716	0.021125
 406	2.0250e-01	16.2108	35.673783	0.000314	3.143422	1.065020	0.025315
 407	2.0300e-01	16.2830	35.661810	-0.000030	-0.297351	-0.100745	-0.002395
 408	2.0350e-01	16.2990	35.802926	0.000350	3.504491	1.187354	0.028223
 409	2.0400e-01	16.3391	35.931641	0.000320	3.196520	1.083010	0.025743
 410	2.0450e-01	16.3856	35.978252	0.000116	1.157544	0.392187	0.009322
 411	2.0500e-01	16.4113	36.145026	0.000414	4.141671	1.403236	0.033355
 412	2.0550e-01	16.4771	36.156145	0.000028	0.276111	0.093549	0.002224
 413	2.0600e-01	16.4931	36.288281	0.000328	3.281478	1.111795	0.026427
 414	2.0650e-01	16.5252	36.453772	0.000411	4.109812	1.392442	0.033098
 415	2.0700e-01	16.5573	36.523902	0.000174	1.741626	0.590079	0.014026
 416	2.0750e-01	16.6182	36.606006	0.000204	2.038977	0.690824	0.016421
 417	2.0800e-01	16.6744	36.719327	0.000281	2.814212	0.953481	0.022664
 418	2.0850e-01	16.6969	36.723176	0.000010	0.095577	0.032382	0.000770
 419	2.0900e-01	16.7225	36.901923	0.000444	4.439022	1.503981	0.035749
 420	2.0950e-01	16.8043	36.923304	0.000053	0.530983	0.179902	0.004276
 421	2.1000e-01	16.8396	36.978896	0.000138	1.380557	0.467745	0.011118
 422	2.1050e-01	16.8509	37.168761	0.000472	4.715133	1.597530	0.037973
 423	2.1100e-01	16.8990	37.250010	0.000202	2.017737	0.683628	0.016250
 424	2.1150e-01	16.9551	37.288924	0.000097	0.966390	0.327422	0.007783
 425	2.1200e-01	16.9920	37.394547	0.000262	2.623058	0.888716	0.021125
 426	2.1250e-01	17.0337	37.531815	0.000341	3.408914	1.154971	0.027454
 427	2.1300e-01	17.0546	37.652405	0.000299	2.994747	1.014648	0.024118
 428	2.1350e-01	17.1156	37.602373	-0.000124	-1.242501	-0.420971	-0.010006
 429	2.1400e-01	17.1460	37.756746	0.000383	3.833701	1.298893	0.030875
 430	2.1450e-01	17.1861	37.890165	0.000331	3.313337	1.122589	0.026684
 431	2.1500e-01	17.2118	38.031281	0.000350	3.504491	1.187354	0.028223
 432	2.1550e-01	17.2503	38.027005	-0.000011	-0.106197	-0.035980	-0.000855
 433	2.1600e-01	17.3225	38.132629	0.000262	2.623058	0.888716	0.021125
 434	2.1650e-01	17.3434	38.240390	0.000268	2.676157	0.906706	0.021552
 435	2.1700e-01	17.3626	38.398184	0.000392	3.918658	1.327677	0.031559
 436	2.1750e-01	17.4236	38.461900	0.000158	1.582331	0.536108	0.012743
 437	2.1800e-01	17.4653	38.549136	0.000217	2.166413	0.734000	0.017447
 438	2.1850e-01	17.5022	38.602161	0.000132	1.316839	0.446157	0.010605
 439	2.1900e-01	17.5599	38.679989	0.000193	1.932780	0.654844	0.015566
 440	2.1950e-01	17.5952	38.830941	0.000375	3.748743	1.270109	0.030190
 441	2.2000e-01	17.6321	38.837355	0.000016	0.159295	0.053971	0.001283
 442	2.2050e-01	17.6722	39.005412	0.000417	4.173530	1.414030	0.033611
 443	2.2100e-01	17.7155	39.038767	0.000083	0.828334	0.280647	0.006671
 444	2.2150e-01	17.7428	39.189718	0.000375	3.748743	1.270109	0.030190
 445	2.2200e-01	17.7781	39.252152	0.000155	1.550472	0.525314	0.012487
 446	2.2250e-01	17.8262	39.318006	0.000164	1.635429	0.554098	0.013171
 447	2.2300e-01	17.8567	39.483497	0.000411	4.109812	1.392442	0.033098
 448	2.2350e-01	17.9145	39.557476	0.000184	1.837203	0.622461	0.014796
 449	2.2400e-01	17.9610	39.611784	0.000135	1.348698	0.456951	0.010862
 450	2.2450e-01	18.0011	39.665665	0.000134	1.338078	0.453353	0.010776
 451	2.2500e-01	18.0284	39.837998	0.000428	4.279727	1.450011	0.034467
 452	2.2550e-01	18.0685	39.897438	0.000148	1.476134	0.500128	0.011888
 453	2.2600e-01	18.1102	39.989805	0.000229	2.293849	0.777177	0.018473
 454	2.2650e-01	18.1375	40.122369	0.000329	3.292097	1.115393	0.026513
 455	2.2700e-01	18.1808	40.189934	0.000168	1.677908	0.568491	0.013513
 456	2.2750e-01	18.2241	40.289143	0.000246	2.463763	0.834746	0.019842
 457	2.2800e-01	18.2546	40.377661	0.000220	2.198272	0.744795	0.017704
 458	2.2850e-01	18.3123	40.478581	0.000251	2.506242	0.849138	0.020184
 459	2.2900e-01	18.3508	40.549994	0.000177	1.773485	0.600873	0.014283
 460	2.2950e-01	18.3829	40.679565	0.000322	3.217760	1.090207	0.025914
 461	2.3000e-01	18.4230	40.766800	0.000217	2.166413	0.734000	0.017447
 462	2.3050e-01	18.4583	40.826668	0.000149	1.486754	0.503726	0.011974
 463	2.3100e-01	18.4968	41.031500	0.000509	5.086822	1.723462	0.040967
 464	2.3150e-01	18.5433	41.022948	-0.000021	-0.212393	-0.071961	-0.001711
 465	2.3200e-01	18.5898	41.139690	0.000290	2.899170	0.982265	0.023348
 466	2.3250e-01	18.6187	41.235050	0.000237	2.368186	0.802363	0.019072
 467	2.3300e-01	18.6829	41.273964	0.000097	0.966390	0.327422	0.007783
 468	2.3350e-01	18.7326	41.336825	0.000156	1.561091	0.528912	0.012572
 469	2.3400e-01	18.7583	41.446297	0.000272	2.718635	0.921099	0.021894
 470	2.3450e-01	18.7808	41.593400	0.000365	3.653166	1.237726	0.029421
 471	2.3500e-01	18.8209	41.666096	0.000181	1.805344	0.611667	0.014539
 472	2.3550e-01	18.8674	41.809778	0.000357	3.568209	1.208942	0.028736
 473	2.3600e-01	18.9380	41.838857	0.000072	0.722138	0.244667	0.005816
 474	2.3650e-01	18.9460	41.903001	0.000159	1.592950	0.539706	0.012829
 475	2.3700e-01	18.9845	42.038558	0.000337	3.366435	1.140579	0.027111
 476	2.3750e-01	19.0166	42.097998	0.000148	1.476134	0.500128	0.011888
 477	2.3800e-01	19.0823	42.208325	0.000274	2.739875	0.928295	0.022065
 478	2.3850e-01	19.1128	42.330198	0.000303	3.026606	1.025442	0.024375
 479	2.3900e-01	19.1529	42.412730	0.000205	2.049596	0.694422	0.016506
 480	2.3950e-01	19.1802	42.435822	0.000057	0.573462	0.194294	0.004618
 481	2.4000e-01	19.2412	42.568813	0.000330	3.302717	1.118991	0.026598
 482	2.4050e-01	19.2572	42.714633	0.000362	3.621307	1.226932	0.029164
 483	2.4100e-01	19.3069	42.761245	0.000116	1.157544	0.392187	0.009322
 484	2.4150e-01	19.3454	42.859598	0.000244	2.442524	0.827550	0.019671
 485	2.4200e-01	19.3839	42.975485	0.000288	2.877930	0.975069	0.023177
 486	2.4250e-01	19.3791	43.146963	-0.000426	-4.258487	-1.442815	0.034296
 487	2.4300e-01	19.4722	43.146535	-0.000001	-0.010620	-0.003598	-0.000086
 488	2.4350e-01	19.5139	43.221797	0.000187	1.869062	0.633255	0.015052
 489	2.4400e-01	19.5380	43.295349	0.000183	1.826583	0.618863	0.014710
 490	2.4450e-01	19.5829	43.421926	0.000314	3.143422	1.065020	0.025315
 491	2.4500e-01	19.6230	43.512155	0.000224	2.240750	0.759187	0.018046
 492	2.4550e-01	19.6695	43.560476	0.000120	1.200023	0.406579	0.009664
 493	2.4600e-01	19.7208	43.674652	0.000284	2.835452	0.960677	0.022835
 494	2.4650e-01	19.7609	43.722546	0.000119	1.189403	0.402981	0.009579
 495	2.4700e-01	19.8075	43.846130	0.000307	3.069084	1.039834	0.024717
 496	2.4750e-01	19.8379	43.894452	0.000120	1.200023	0.406579	0.009664
 497	2.4800e-01	19.8700	44.024450	0.000323	3.228379	1.093805	0.026000
 498	2.4850e-01	19.9198	44.169415	0.000360	3.600068	1.219736	0.028993
 499	2.4900e-01	19.9486	44.247670	0.000194	1.943399	0.658442	0.015651
 500	2.4950e-01	19.9631	44.335333	0.000218	2.177032	0.737598	0.017533
 501	2.5000e-01	20.0160	44.456779	0.000302	3.015986	1.021844	0.024289
 502	2.5050e-01	19.9823	44.286156	0.000424	4.237248	1.435619	-0.034124
 503	2.5100e-01	19.9454	44.240828	0.000113	1.125685	0.381392	-0.009066
 504	2.5150e-01	19.9182	44.182243	0.000145	1.454895	0.492932	-0.011717
 505	2.5200e-01	19.8652	44.039844	0.000354	3.536350	1.198148	-0.028480
 506	2.5250e-01	19.8347	44.024022	0.000039	0.392928	0.133128	-0.003164
 507	2.5300e-01	19.7850	43.900866	0.000306	3.058465	1.036236	-0.024631
 508	2.5350e-01	19.7417	43.886754	0.000035	0.350449	0.118735	-0.002822
 509	2.5400e-01	19.7064	43.791394	0.000237	2.368186	0.802363	-0.019072
 510	2.5450e-01	19.6695	43.663534	0.000318	3.175281	1.075814	-0.025572
 511	2.5500e-01	19.6358	43.610508	0.000132	1.316839	0.446157	-0.010605
 512	2.5550e-01	19.5652	43.534391	0.000189	1.890301	0.640451	-0.015223
 513	2.5600e-01	19.5283	43.524556	0.000024	0.244252	0.082755	-0.001967
 514	2.5650e-01	19.5203	43.386433	0.000343	3.430153	1.162167	-0.027625
 515	2.5700e-01	19.4513	43.315875	0.000175	1.752245	0.593677	-0.014112
 516	2.5750e-01	19.4192	43.231205	0.000210	2.102695	0.712412	-0.016934
 517	2.5800e-01	19.4160	43.032359	0.000494	4.938146	1.673089	-0.039769
 518	2.5850e-01	19.3583	43.028510	0.000010	0.095577	0.032382	-0.000770
 519	2.5900e-01	19.3085	42.978051	0.000125	1.253121	0.424569	-0.010092
 520	2.5950e-01	19.2460	42.864302	0.000282	2.824832	0.957079	-0.022750
 521	2.6000e-01	19.2171	42.892526	-0.000070	-0.700898	-0.237471	0.005645
 522	2.6050e-01	19.1898	42.733449	0.000395	3.950517	1.338471	-0.031815
 523	2.6100e-01	19.1449	42.627398	0.000263	2.633678	0.892314	-0.021210
 524	2.6150e-01	19.1064	42.591477	0.000089	0.892052	0.302235	-0.007184
 525	2.6200e-01	19.0471	42.549142	0.000105	1.051347	0.356206	-0.008467
 526	2.6250e-01	19.0214	42.370823	0.000443	4.428402	1.500383	-0.035664
 527	2.6300e-01	18.9636	42.326777	0.000109	1.093826	0.370598	-0.008809
 528	2.6350e-01	18.9460	42.307107	0.000049	0.488505	0.165510	-0.003934
 529	2.6400e-01	18.9059	42.136056	0.000425	4.247868	1.439217	-0.034210
 530	2.6450e-01	18.8674	42.087735	0.000120	1.200023	0.406579	-0.009664
 531	2.6500e-01	18.8128	42.015894	0.000178	1.784104	0.604471	-0.014368
 532	2.6550e-01	18.7856	41.949612	0.000165	1.646049	0.557696	-0.013256
 533	2.6600e-01	18.7358	41.770437	0.000445	4.449641	1.507579	-0.035835
 534	2.6650e-01	18.7118	41.790108	-0.000049	-0.488505	-0.165510	0.003934
 535	2.6700e-01	18.6524	41.673794	0.000289	2.888550	0.978667	-0.023263
 536	2.6750e-01	18.6316	41.562611	0.000276	2.761114	0.935491	-0.022237
 537	2.6800e-01	18.5898	41.433468	0.000321	3.207140	1.086608	-0.025829
 538	2.6850e-01	18.5449	41.426626	0.000017	0.169915	0.057569	-0.001368
 539	2.6900e-01	18.5145	41.321003	0.000262	2.623058	0.888716	-0.021125
 540	2.6950e-01	18.4679	41.272681	0.000120	1.200023	0.406579	-0.009664
 541	2.7000e-01	18.4230	41.210248	0.000155	1.550472	0.525314	-0.012487
 542	2.7050e-01	18.3669	41.093078	0.000291	2.909789	0.985863	-0.023434
 543	2.7100e-01	18.3588	40.951534	0.000352	3.515111	1.190952	-0.028309
 544	2.7150e-01	18.3187	40.871569	0.000199	1.985878	0.672834	-0.015993
 545	2.7200e-01	18.2834	40.812556	0.000147	1.465514	0.496530	-0.011802
 546	2.7250e-01	18.2305	40.687262	0.000311	3.111563	1.054226	-0.025059
 547	2.7300e-01	18.1679	40.635947	0.000127	1.274360	0.431765	-0.010263
 548	2.7350e-01	18.1423	40.536310	0.000247	2.474383	0.838344	-0.019927
 549	2.7400e-01	18.1006	40.482002	0.000135	1.348698	0.456951	-0.010862
 550	2.7450e-01	18.0476	40.351576	0.000324	3.238999	1.097403	-0.026085
 551	2.7500e-01	18.0236	40.350721	0.000002	0.021239	0.007196	-0.000171
 552	2.7550e-01	17.9802	40.236973	0.000282	2.824832	0.957079	-0.022750
 553	2.7600e-01	17.9498	40.150592	0.000215	2.145173	0.726804	-0.017276
 554	2.7650e-01	17.9064	40.071909	0.000195	1.954019	0.662040	-0.015737
 555	2.7700e-01	17.8712	39.938490	0.000331	3.313337	1.122589	-0.026684
 556	2.7750e-01	17.8230	39.901714	0.000091	0.913292	0.309432	-0.007355
 557	2.7800e-01	17.7765	39.808920	0.000230	2.304468	0.780775	-0.018559
 558	2.7850e-01	17.7556	39.666093	0.000355	3.546970	1.201746	-0.028565
 559	2.7900e-01	17.7043	39.631455	0.000086	0.860193	0.291441	-0.006928
 560	2.7950e-01	17.6498	39.585699	0.000114	1.136305	0.384990	-0.009151
 561	2.8000e-01	17.6273	39.456984	0.000320	3.196520	1.083010	-0.025743
 562	2.8050e-01	17.5840	39.385143	0.000178	1.784104	0.604471	-0.014368
 563	2.8100e-01	17.5535	39.249158	0.000338	3.377055	1.144177	-0.027197
 564	2.8150e-01	17.4926	39.181166	0.000169	1.688527	0.572089	-0.013598
 565	2.8200e-01	17.4589	39.088799	0.000229	2.293849	0.777177	-0.018473
 566	2.8250e-01	17.4204	39.038339	0.000125	1.253121	0.424569	-0.010092
 567	2.8300e-01	17.3803	38.951103	0.000217	2.166413	0.734000	-0.017447
 568	2.8350e-01	17.3434	38.822388	0.000320	3.196520	1.083010	-0.025743
 569	2.8400e-01	17.2888	38.766797	0.000138	1.380557	0.467745	-0.011118
 570	2.8450e-01	17.2567	38.667588	0.000246	2.463763	0.834746	-0.019842
 571	2.8500e-01	17.2279	38.529465	0.000343	3.430153	1.162167	-0.027625
 572	2.8550e-01	17.1861	38.524333	0.000013	0.127436	0.043176	-0.001026
 573	2.8600e-01	17.1396	38.511505	0.000032	0.318590	0.107941	-0.002566
 574	2.8650e-01	17.1011	38.293416	0.000542	5.416031	1.835001	-0.043618
 575	2.8700e-01	17.0738	38.309238	-0.000039	-0.392928	-0.133128	0.003164
 576	2.8750e-01	17.0113	38.187792	0.000302	3.015986	1.021844	-0.024289
 577	2.8800e-01	16.9840	38.112530	0.000187	1.869062	0.633255	-0.015052
 578	2.8850e-01	16.9311	38.066774	0.000114	1.136305	0.384990	-0.009151
 579	2.8900e-01	16.8958	37.919244	0.000366	3.663786	1.241324	-0.029506
 580	2.8950e-01	16.8717	37.853817	0.000162	1.624809	0.550500	-0.013085
 581	2.9000e-01	16.8380	37.772141	0.000203	2.028357	0.687226	-0.016335
 582	2.9050e-01	16.8027	37.606650	0.000411	4.109812	1.392442	-0.033098
 583	2.9100e-01	16.7594	37.542078	0.000160	1.603570	0.543304	-0.012914
 584	2.9150e-01	16.6953	37.539512	0.000006	0.063718	0.021588	-0.000513
 585	2.9200e-01	16.6632	37.401389	0.000343	3.430153	1.162167	-0.027625
 586	2.9250e-01	16.6118	37.291490	0.000273	2.729255	0.924697	-0.021980
 587	2.9300e-01	16.5669	37.256852	0.000086	0.860193	0.291441	-0.006928
 588	2.9350e-01	16.5412	37.140110	0.000290	2.899170	0.982265	-0.023348
 589	2.9400e-01	16.5092	37.048171	0.000228	2.283229	0.773579	-0.018388
 590	2.9450e-01	16.4739	36.939554	0.000270	2.697396	0.913903	-0.021723
 591	2.9500e-01	16.4354	36.805280	0.000333	3.334576	1.129785	-0.026855
 592	2.9550e-01	16.3744	36.798438	0.000017	0.169915	0.057569	-0.001368
 593	2.9600e-01	16.3375	36.752254	0.000115	1.146924	0.388588	-0.009237
 594	2.9650e-01	16.2942	36.650907	0.000252	2.516862	0.852736	-0.020269
 595	2.9700e-01	16.2749	36.552981	0.000243	2.431904	0.823951	-0.019585
 596	2.9750e-01	16.2332	36.500811	0.000130	1.295600	0.438961	-0.010434
 597	2.9800e-01	16.1691	36.406733	0.000234	2.336327	0.791569	-0.018816
 598	2.9850e-01	16.1642	36.228413	0.000443	4.428402	1.500383	-0.035664
 599	2.9900e-01	16.1001	36.226275	0.000005	0.053098	0.017990	-0.000428
 600	2.9950e-01	16.0455	36.148875	0.000192	1.922160	0.651245	-0.015480
 601	3.0000e-01	16.0279	36.003910	0.000360	3.600068	1.219736	-0.028993
 602	3.0050e-01	15.9846	35.906839	0.000241	2.410665	0.816755	-0.019414
 603	3.0100e-01	15.9477	35.808485	0.000244	2.442524	0.827550	-0.019671
 604	3.0150e-01	15.8899	35.753322	0.000137	1.369937	0.464147	-0.011033
 605	3.0200e-01	15.8370	35.718256	0.000087	0.870813	0.295039	-0.007013
 606	3.0250e-01	15.8482	35.528818	-0.000470	-4.704513	-1.593932	-0.037888
 607	3.0300e-01	15.7873	35.499740	0.000072	0.722138	0.244667	-0.005816
 608	3.0350e-01	15.7359	35.441583	0.000144	1.444275	0.489334	-0.011631
 609	3.0400e-01	15.7086	35.345367	0.000239	2.389426	0.809559	-0.019243
 610	3.0450e-01	15.6669	35.219645	0.000312	3.122183	1.057824	-0.025144
 611	3.0500e-01	15.6300	35.167475	0.000130	1.295600	0.438961	-0.010434
 612	3.0550e-01	15.5915	35.060141	0.000267	2.665537	0.903108	-0.021467
 613	3.0600e-01	15.5562	34.954945	0.000261	2.612439	0.885118	-0.021039
 614	3.0650e-01	15.5049	34.902775	0.000130	1.295600	0.438961	-0.010434
 615	3.0700e-01	15.4584	34.793303	0.000272	2.718635	0.921099	-0.021894
 616	3.0750e-01	15.4295	34.740277	0.000132	1.316839	0.446157	-0.010605
 617	3.0800e-01	15.3830	34.578207	0.000402	4.024855	1.363658	-0.032414
 618	3.0850e-01	15.3573	34.519623	0.000145	1.454895	0.492932	-0.011717
 619	3.0900e-01	15.2980	34.468308	0.000127	1.274360	0.431765	-0.010263
 620	3.0950e-01	15.2723	34.391763	0.000190	1.900921	0.644049	-0.015309
 621	3.1000e-01	15.2274	34.215581	0.000438	4.375304	1.482393	-0.035236
 622	3.1050e-01	15.1937	34.216864	-0.000003	-0.031859	-0.010794	0.000257
 623	3.1100e-01	15.1504	34.032985	0.000457	4.566458	1.547158	-0.036776
 624	3.1150e-01	15.0974	33.922230	0.000275	2.750494	0.931893	-0.022151
 625	3.1200e-01	15.0718	33.885027	0.000092	0.923911	0.313030	-0.007441
 626	3.1250e-01	15.0204	33.827725	0.000142	1.423036	0.482138	-0.011460
 627	3.1300e-01	14.9707	33.753746	0.000184	1.837203	0.622461	-0.014796
 628	3.1350e-01	14.9418	33.687036	0.000166	1.656668	0.561294	-0.013342
 629	3.1400e-01	14.9081	33.570722	0.000289	2.888550	0.978667	-0.023263
 630	3.1450e-01	14.8568	33.524111	0.000116	1.157544	0.392187	-0.009322
 631	3.1500e-01	14.8215	33.377863	0.000363	3.631927	1.230530	-0.029250
 632	3.1550e-01	14.7846	33.238885	0.000345	3.451393	1.169363	-0.027796
 633	3.1600e-01	14.7349	33.234181	0.000012	0.116816	0.039578	-0.000941
 634	3.1650e-01	14.7236	33.053723	0.000448	4.481500	1.518373	-0.036092
 635	3.1700e-01	14.6803	32.999842	0.000134	1.338078	0.453353	-0.010776
 636	3.1750e-01	14.6178	33.017803	-0.000045	-0.446026	-0.151118	0.003592
 637	3.1800e-01	14.5921	32.904054	0.000282	2.824832	0.957079	-0.022750
 638	3.1850e-01	14.5424	32.707347	0.000489	4.885048	1.655099	-0.039342
 639	3.1900e-01	14.4942	32.706492	0.000002	0.021239	0.007196	-0.000171
 640	3.1950e-01	14.4846	32.604717	0.000253	2.527481	0.856334	-0.020355
 641	3.2000e-01	14.4285	32.440509	0.000408	4.077953	1.381648	-0.032842
 642	3.2050e-01	14.3836	32.394753	0.000114	1.136305	0.384990	-0.009151
 643	3.2100e-01	14.3306	32.334030	0.000151	1.507993	0.510922	-0.012145
 644	3.2150e-01	14.2889	32.242518	0.000227	2.272609	0.769981	-0.018302
 645	3.2200e-01	14.2793	32.130480	0.000278	2.782353	0.942687	-0.022408
 646	3.2250e-01	14.2344	32.065054	0.000162	1.624809	0.550500	-0.013085
 647	3.2300e-01	14.1766	31.951733	0.000281	2.814212	0.953481	-0.022664
 648	3.2350e-01	14.1221	31.867063	0.000210	2.102695	0.712412	-0.016934
 649	3.2400e-01	14.1156	31.790091	0.000191	1.911540	0.647647	-0.015395
 650	3.2450e-01	14.0563	31.744762	0.000113	1.125685	0.381392	-0.009066
 651	3.2500e-01	13.9985	31.672921	0.000178	1.784104	0.604471	-0.014368
 652	3.2550e-01	13.9873	31.455260	0.000541	5.405412	1.831403	-0.043532
 653	3.2600e-01	13.9552	31.418912	0.000090	0.902672	0.305834	-0.007270
 654	3.2650e-01	13.8959	31.314999	0.000258	2.580580	0.874324	-0.020783
 655	3.2700e-01	13.8766	31.258552	0.000140	1.401796	0.474941	-0.011289
 656	3.2750e-01	13.8253	31.174310	0.000209	2.092075	0.708814	-0.016848
 657	3.2800e-01	13.7611	31.103324	0.000176	1.762865	0.597275	-0.014197
 658	3.2850e-01	13.7322	31.025497	0.000193	1.932780	0.654844	-0.015566
 659	3.2900e-01	13.7034	30.881814	0.000357	3.568209	1.208942	-0.028736
 660	3.2950e-01	13.6681	30.848032	0.000084	0.838954	0.284245	-0.006756
 661	3.3000e-01	13.6151	30.745402	0.000255	2.548721	0.863530	-0.020526
 662	3.3050e-01	13.5814	30.660305	0.000211	2.113314	0.716010	-0.017019
 663	3.3100e-01	13.5622	30.538431	0.000303	3.026606	1.025442	-0.024375
 664	3.3150e-01	13.5060	30.440933	0.000242	2.421285	0.820353	-0.019500
 665	3.3200e-01	13.4483	30.422117	0.000047	0.467265	0.158314	-0.003763
 666	3.3250e-01	13.4082	30.266462	0.000387	3.865560	1.309687	-0.031131
 667	3.3300e-01	13.3745	30.216002	0.000125	1.253121	0.424569	-0.010092
 668	3.3350e-01	13.3456	30.074030	0.000353	3.525730	1.194550	-0.028394
 669	3.3400e-01	13.3087	30.013308	0.000151	1.507993	0.510922	-0.012145
 670	3.3450e-01	13.2686	29.961137	0.000130	1.295600	0.438961	-0.010434
 671	3.3500e-01	13.2413	29.775975	0.000460	4.598317	1.557952	-0.037032
 672	3.3550e-01	13.1900	29.774693	0.000003	0.031859	0.010794	-0.000257
 673	3.3600e-01	13.1387	29.630155	0.000359	3.589448	1.216138	-0.028907
 674	3.3650e-01	13.1018	29.587820	0.000105	1.051347	0.356206	-0.008467
 675	3.3700e-01	13.0633	29.460388	0.000316	3.164661	1.072216	-0.025486
 676	3.3750e-01	13.0200	29.364172	0.000239	2.389426	0.809559	-0.019243
 677	3.3800e-01	12.9734	29.333383	0.000076	0.764616	0.259059	-0.006158
 678	3.3850e-01	12.9494	29.190556	0.000355	3.546970	1.201746	-0.028565
 679	3.3900e-01	12.9253	29.046019	0.000359	3.589448	1.216138	-0.028907
 680	3.3950e-01	12.8595	29.075953	-0.000074	-0.743377	-0.251863	0.005987
 681	3.4000e-01	12.8290	28.927139	0.000370	3.695645	1.252118	-0.029763
 682	3.4050e-01	12.7697	28.891219	0.000089	0.892052	0.302235	-0.007184
 683	3.4100e-01	12.7537	28.781319	0.000273	2.729255	0.924697	-0.021980
 684	3.4150e-01	12.7007	28.706057	0.000187	1.869062	0.633255	-0.015052
 685	3.4200e-01	12.6654	28.565796	0.000348	3.483252	1.180158	-0.028052
 686	3.4250e-01	12.6446	28.549974	0.000039	0.392928	0.133128	-0.003164
 687	3.4300e-01	12.5884	28.407147	0.000355	3.546970	1.201746	-0.028565
 688	3.4350e-01	12.5419	28.322905	0.000209	2.092075	0.708814	-0.016848
 689	3.4400e-01	12.5130	28.199321	0.000307	3.069084	1.039834	-0.024717
 690	3.4450e-01	12.4761	28.178795	0.000051	0.509744	0.172706	-0.004105
 691	3.4500e-01	12.4280	27.995771	0.000455	4.545218	1.539962	-0.036605
 692	3.4550e-01	12.3799	27.951726	0.000109	1.093826	0.370598	-0.008809
 693	3.4600e-01	12.3526	27.852517	0.000246	2.463763	0.834746	-0.019842
 694	3.4650e-01	12.3013	27.792649	0.000149	1.486754	0.503726	-0.011974
 695	3.4700e-01	12.2499	27.669493	0.000306	3.058465	1.036236	-0.024631
 696	3.4750e-01	12.2162	27.645119	0.000061	0.605321	0.205088	-0.004875
 697	3.4800e-01	12.1777	27.539068	0.000263	2.633678	0.892314	-0.021210
 698	3.4850e-01	12.1456	27.457391	0.000203	2.028357	0.687226	-0.016335
 699	3.4900e-01	12.1168	27.327821	0.000322	3.217760	1.090207	-0.025914
 700	3.4950e-01	12.0735	27.218776	0.000271	2.708016	0.917501	-0.021809
 701	3.5000e-01	12.0350	27.155060	0.000158	1.582331	0.536108	-0.012743
 702	3.5050e-01	12.0077	27.041739	0.000281	2.814212	0.953481	-0.022664
 703	3.5100e-01	11.9676	26.928846	0.000280	2.803593	0.949883	-0.022579
 704	3.5150e-01	11.9034	26.869407	0.000148	1.476134	0.500128	-0.011888
 705	3.5200e-01	11.8761	26.744540	0.000310	3.100943	1.050628	-0.024973
 706	3.5250e-01	11.8344	26.659442	0.000211	2.113314	0.716010	-0.017019
 707	3.5300e-01	11.7687	26.637206	0.000055	0.552223	0.187098	-0.004447
 708	3.5350e-01	11.7510	26.516188	0.000301	3.005366	1.018246	-0.024204
 709	3.5400e-01	11.7237	26.360105	0.000388	3.876179	1.313285	-0.031217
 710	3.5450e-01	11.6788	26.275863	0.000209	2.092075	0.708814	-0.016848
 711	3.5500e-01	11.6291	26.185634	0.000224	2.240750	0.759187	-0.018046
 712	3.5550e-01	11.5938	26.149286	0.000090	0.902672	0.305834	-0.007270
 713	3.5600e-01	11.5360	26.038958	0.000274	2.739875	0.928295	-0.022065
 714	3.5650e-01	11.5232	26.010307	0.000071	0.711518	0.241069	-0.005730
 715	3.5700e-01	11.4558	25.957709	0.000131	1.306219	0.442559	-0.010520
 716	3.5750e-01	11.4157	25.803764	0.000382	3.823081	1.295295	-0.030789
 717	3.5800e-01	11.3788	25.651957	0.000377	3.769983	1.277305	-0.030361
 718	3.5850e-01	11.3451	25.596366	0.000138	1.380557	0.467745	-0.011118
 719	3.5900e-01	11.3034	25.515973	0.000200	1.996498	0.676432	-0.016079
 720	3.5950e-01	11.2617	25.428309	0.000218	2.177032	0.737598	-0.017533
 721	3.6000e-01	11.2264	25.329528	0.000245	2.453144	0.831148	-0.019756
 722	3.6050e-01	11.1879	25.237588	0.000228	2.283229	0.773579	-0.018388
 723	3.6100e-01	11.1510	25.116143	0.000302	3.015986	1.021844	-0.024289
 724	3.6150e-01	11.1077	25.154202	-0.000095	-0.945151	-0.320226	0.007612
 725	3.6200e-01	11.0692	24.987000	0.000415	4.152291	1.406834	-0.033440
 726	3.6250e-01	11.0403	24.875390	0.000277	2.771734	0.939089	-0.022322
 727	3.6300e-01	10.9762	24.812529	0.000156	1.561091	0.528912	-0.012572
 728	3.6350e-01	10.9489	24.731708	0.000201	2.007117	0.680030	-0.016164
 729	3.6400e-01	10.8992	24.647038	0.000210	2.102695	0.712412	-0.016934
 730	3.6450e-01	10.8558	24.555526	0.000227	2.272609	0.769981	-0.018302
 731	3.6500e-01	10.8334	24.383621	0.000427	4.269107	1.446413	-0.034381
 732	3.6550e-01	10.7740	24.335299	0.000120	1.200023	0.406579	-0.009664
 733	3.6600e-01	10.7628	24.286122	0.000122	1.221262	0.413775	-0.009835
 734	3.6650e-01	10.6986	24.219840	0.000165	1.646049	0.557696	-0.013256
 735	3.6700e-01	10.6569	24.032540	0.000465	4.651415	1.575942	-0.037460
 736	3.6750e-01	10.6200	24.055632	-0.000057	-0.573462	-0.194294	0.004618
 737	3.6800e-01	10.5751	23.868332	0.000465	4.651415	1.575942	-0.037460
 738	3.6850e-01	10.5559	23.823432	0.000112	1.115065	0.377794	-0.008980
 739	3.6900e-01	10.4788	23.701131	0.000304	3.037225	1.029040	-0.024460
 740	3.6950e-01	10.4676	23.707118	-0.000015	-0.148675	-0.050373	0.001197
 741	3.7000e-01	10.4484	23.454819	0.000627	6.265605	2.122844	-0.050460
 742	3.7050e-01	10.3842	23.411201	0.000108	1.083206	0.367000	-0.008724
 743	3.7100e-01	10.3473	23.276927	0.000333	3.334576	1.129785	-0.026855
 744	3.7150e-01	10.3104	23.238868	0.000095	0.945151	0.320226	-0.007612
 745	3.7200e-01	10.2607	23.210645	0.000070	0.700898	0.237471	-0.005645
 746	3.7250e-01	10.2158	23.067818	0.000355	3.546970	1.201746	-0.028565
 747	3.7300e-01	10.1949	22.940385	0.000316	3.164661	1.072216	-0.025486
 748	3.7350e-01	10.1307	22.921570	0.000047	0.467265	0.158314	-0.003763
 749	3.7400e-01	10.1195	22.745388	0.000438	4.375304	1.482393	-0.035236
 750	3.7450e-01	10.0698	22.673975	0.000177	1.773485	0.600873	-0.014283
 751	3.7500e-01	10.0184	22.591871	0.000204	2.038977	0.690824	-0.016421
 752	3.7550e-01	9.9799	22.542266	0.000123	1.231882	0.417373	-0.009921
 753	3.7600e-01	9.9222	22.506773	0.000088	0.881433	0.298637	-0.007099
 754	3.7650e-01	9.9045	22.293388	0.000530	5.299215	1.795423	-0.042677
 755	3.7700e-01	9.8692	22.322039	-0.000071	-0.711518	-0.241069	0.005730
 756	3.7750e-01	9.8307	22.169805	0.000378	3.780602	1.280903	-0.030447
 757	3.7800e-01	9.7922	22.080859	0.000221	2.208891	0.748393	-0.017789
 758	3.7850e-01	9.7377	22.070596	0.000025	0.254872	0.086353	-0.002053
 759	3.7900e-01	9.7024	21.844810	0.000561	5.607185	1.899766	-0.045157
 760	3.7950e-01	9.6671	21.849086	-0.000011	-0.106197	-0.035980	0.000855
 761	3.8000e-01	9.6270	21.750304	0.000245	2.453144	0.831148	-0.019756
 762	3.8050e-01	9.5917	21.625865	0.000309	3.090324	1.047030	-0.024888
 763	3.8100e-01	9.5484	21.527512	0.000244	2.442524	0.827550	-0.019671
 764	3.8150e-01	9.5035	21.372711	0.000384	3.844320	1.302491	-0.030960
 765	3.8200e-01	9.4570	21.343633	0.000072	0.722138	0.244667	-0.005816
 766	3.8250e-01	9.4217	21.218339	0.000311	3.111563	1.054226	-0.025059
 767	3.8300e-01	9.3880	21.140083	0.000194	1.943399	0.658442	-0.015651
 768	3.8350e-01	9.3366	21.096038	0.000109	1.093826	0.370598	-0.008809
 769	3.8400e-01	9.3110	20.957915	0.000343	3.430153	1.162167	-0.027625
 770	3.8450e-01	9.2660	20.933112	0.000062	0.615941	0.208686	-0.004960
 771	3.8500e-01	9.2420	20.804825	0.000319	3.185901	1.079412	-0.025658
 772	3.8550e-01	9.2195	20.633347	0.000426	4.258487	1.442815	-0.034296
 773	3.8600e-01	9.1329	20.596571	0.000091	0.913292	0.309432	-0.007355
 774	3.8650e-01	9.0928	20.567920	0.000071	0.711518	0.241069	-0.005730
 775	3.8700e-01	9.0527	20.461869	0.000263	2.633678	0.892314	-0.021210
 776	3.8750e-01	9.0206	20.339141	0.000305	3.047845	1.032638	-0.024546
 777	3.8800e-01	8.9869	20.212136	0.000315	3.154042	1.068618	-0.025401
 778	3.8850e-01	8.9596	20.111644	0.000250	2.495622	0.845540	-0.020098
 779	3.8900e-01	8.9067	20.045790	0.000164	1.635429	0.554098	-0.013171
 780	3.8950e-01	8.8586	20.022271	0.000058	0.584082	0.197892	-0.004704
 781	3.9000e-01	8.8217	19.856780	0.000411	4.109812	1.392442	-0.033098
 782	3.9050e-01	8.8024	19.752011	0.000260	2.601819	0.881520	-0.020954
 783	3.9100e-01	8.7254	19.674184	0.000193	1.932780	0.654844	-0.015566
 784	3.9150e-01	8.7206	19.612178	0.000154	1.539852	0.521716	-0.012401
 785	3.9200e-01	8.6500	19.512541	0.000247	2.474383	0.838344	-0.019927
 786	3.9250e-01	8.6340	19.445404	0.000167	1.667288	0.564892	-0.013427
 787	3.9300e-01	8.5842	19.303433	0.000353	3.525730	1.194550	-0.028394
 788	3.9350e-01	8.5249	19.216197	0.000217	2.166413	0.734000	-0.017447
 789	3.9400e-01	8.5024	19.186691	0.000073	0.732757	0.248265	-0.005901
 790	3.9450e-01	8.4720	19.052416	0.000333	3.334576	1.129785	-0.026855
 791	3.9500e-01	8.4190	18.880939	0.000426	4.258487	1.442815	-0.034296
 792	3.9550e-01	8.3837	18.818078	0.000156	1.561091	0.528912	-0.012572
 793	3.9600e-01	8.3468	18.746664	0.000177	1.773485	0.600873	-0.014283
 794	3.9650e-01	8.3099	18.633344	0.000281	2.814212	0.953481	-0.022664
 795	3.9700e-01	8.2859	18.555516	0.000193	1.932780	0.654844	-0.015566
 796	3.9750e-01	8.2057	18.491372	0.000159	1.592950	0.539706	-0.012829
 797	3.9800e-01	8.1784	18.375486	0.000288	2.877930	0.975069	-0.023177
 798	3.9850e-01	8.1415	18.337855	0.000093	0.934531	0.316628	-0.007526
 799	3.9900e-01	8.1158	18.194600	0.000356	3.557589	1.205344	-0.028651
 800	3.9950e-01	8.0709	18.057760	0.000340	3.398294	1.151373	-0.027368
 801	4.0000e-01	8.0324	18.049208	0.000021	0.212393	0.071961	-0.001711
 802	4.0050e-01	8.0051	17.972235	0.000191	1.911540	0.647647	-0.015395
 803	4.0100e-01	7.9618	17.837961	0.000333	3.334576	1.129785	-0.026855
 804	4.0150e-01	7.8832	17.829836	0.000020	0.201774	0.068363	-0.001625
 805	4.0200e-01	7.8656	17.669476	0.000398	3.982376	1.349266	-0.032072
 806	4.0250e-01	7.8303	17.524511	0.000360	3.600068	1.219736	-0.028993
 807	4.0300e-01	7.8062	17.486453	0.000095	0.945151	0.320226	-0.007612
 808	4.0350e-01	7.7372	17.400500	0.000213	2.134554	0.723206	-0.017191
 809	4.0400e-01	7.7180	17.277772	0.000305	3.047845	1.032638	-0.024546
 810	4.0450e-01	7.6634	17.156326	0.000302	3.015986	1.021844	-0.024289
 811	4.0500e-01	7.6698	17.007512	-0.000370	-3.695645	-1.252118	-0.029763
 812	4.0550e-01	7.5816	16.975868	0.000079	0.785856	0.266255	-0.006329
 813	4.0600e-01	7.5495	16.871100	0.000260	2.601819	0.881520	-0.020954
 814	4.0650e-01	7.5110	16.820213	0.000126	1.263741	0.428167	-0.010177
 815	4.0700e-01	7.4485	16.785147	0.000087	0.870813	0.295039	-0.007013
 816	4.0750e-01	7.4180	16.623077	0.000402	4.024855	1.363658	-0.032414
 817	4.0800e-01	7.4035	16.515743	0.000267	2.665537	0.903108	-0.021467
 818	4.0850e-01	7.3506	16.395581	0.000298	2.984127	1.011050	-0.024033
 819	4.0900e-01	7.3073	16.367357	0.000070	0.700898	0.237471	-0.005645
 820	4.0950e-01	7.2977	16.281832	0.000212	2.123934	0.719608	-0.017105
 821	4.1000e-01	7.2223	16.193314	0.000220	2.198272	0.744795	-0.017704
 822	4.1050e-01	7.1870	16.071013	0.000304	3.037225	1.029040	-0.024460
 823	4.1100e-01	7.1212	16.007297	0.000158	1.582331	0.536108	-0.012743
 824	4.1150e-01	7.1148	15.866181	0.000350	3.504491	1.187354	-0.028223
 825	4.1200e-01	7.0731	15.768254	0.000243	2.431904	0.823951	-0.019585
 826	4.1250e-01	7.0330	15.746873	0.000053	0.530983	0.179902	-0.004276
 827	4.1300e-01	6.9688	15.654506	0.000229	2.293849	0.777177	-0.018473
 828	4.1350e-01	6.9479	15.528357	0.000313	3.132802	1.061422	-0.025230
 829	4.1400e-01	6.9142	15.401352	0.000315	3.154042	1.068618	-0.025401
 830	4.1450e-01	6.8581	15.287176	0.000284	2.835452	0.960677	-0.022835
 831	4.1500e-01	6.8244	15.187967	0.000246	2.463763	0.834746	-0.019842
 832	4.1550e-01	6.8019	15.155895	0.000080	0.796475	0.269853	-0.006414
 833	4.1600e-01	6.7442	15.086192	0.000173	1.731006	0.586481	-0.013941
 834	4.1650e-01	6.6977	14.944220	0.000353	3.525730	1.194550	-0.028394
 835	4.1700e-01	6.6544	14.878794	0.000162	1.624809	0.550500	-0.013085
 836	4.1750e-01	6.6255	14.803959	0.000186	1.858442	0.629657	-0.014967
 837	4.1800e-01	6.5693	14.768039	0.000089	0.892052	0.302235	-0.007184
 838	4.1850e-01	6.5629	14.543536	0.000558	5.575326	1.888972	-0.044901
 839	4.1900e-01	6.5212	14.498207	0.000113	1.125685	0.381392	-0.009066
 840	4.1950e-01	6.4843	14.384031	0.000284	2.835452	0.960677	-0.022835
 841	4.2000e-01	6.4153	14.307486	0.000190	1.900921	0.644049	-0.015309
 842	4.2050e-01	6.3865	14.259592	0.000119	1.189403	0.402981	-0.009579
 843	4.2100e-01	6.3656	14.025681	0.000581	5.808959	1.968129	-0.046782
 844	4.2150e-01	6.3303	14.035089	-0.000023	-0.233633	-0.079157	0.001882
 845	4.2200e-01	6.2485	13.981636	0.000133	1.327459	0.449755	-0.010691
 846	4.2250e-01	6.2212	13.831967	0.000372	3.716884	1.259314	-0.029934
 847	4.2300e-01	6.1731	13.808875	0.000057	0.573462	0.194294	-0.004618
 848	4.2350e-01	6.1282	13.633977	0.000434	4.343445	1.471599	-0.034980
 849	4.2400e-01	6.1234	13.481314	0.000379	3.791222	1.284501	-0.030532
 850	4.2450e-01	6.0560	13.514669	-0.000083	-0.828334	-0.280647	0.006671
 851	4.2500e-01	6.0464	13.297008	0.000541	5.405412	1.831403	-0.043532
 852	4.2550e-01	5.9982	13.276482	0.000051	0.509744	0.172706	-0.004105
 853	4.2600e-01	5.9565	13.180266	0.000239	2.389426	0.809559	-0.019243
 854	4.2650e-01	5.9212	13.085333	0.000236	2.357567	0.798765	-0.018987
 855	4.2700e-01	5.8859	13.010071	0.000187	1.869062	0.633255	-0.015052
 856	4.2750e-01	5.8169	12.958756	0.000127	1.274360	0.431765	-0.010263
 857	4.2800e-01	5.8041	12.732543	0.000562	5.617805	1.903364	-0.045243
 858	4.2850e-01	5.7656	12.729977	0.000006	0.063718	0.021588	-0.000513
 859	4.2900e-01	5.7319	12.636754	0.000232	2.315088	0.784373	-0.018644
 860	4.2950e-01	5.6678	12.577742	0.000147	1.465514	0.496530	-0.011802
 861	4.3000e-01	5.6485	12.441757	0.000338	3.377055	1.144177	-0.027197
 862	4.3050e-01	5.5891	12.308766	0.000330	3.302717	1.118991	-0.026598
 863	4.3100e-01	5.5779	12.227945	0.000201	2.007117	0.680030	-0.016164
 864	4.3150e-01	5.5025	12.220675	0.000018	0.180534	0.061167	-0.001454
 865	4.3200e-01	5.4544	12.027816	0.000479	4.789471	1.622717	-0.038572
 866	4.3250e-01	5.4255	12.084263	-0.000140	-1.401796	-0.474941	0.011289
 867	4.3300e-01	5.3934	11.831536	0.000628	6.276225	2.126442	-0.050545
 868	4.3350e-01	5.3758	11.825549	0.000015	0.148675	0.050373	-0.001197
 869	4.3400e-01	5.2908	11.753281	0.000179	1.794724	0.608069	-0.014454
 870	4.3450e-01	5.2699	11.640388	0.000280	2.803593	0.949883	-0.022579
 871	4.3500e-01	5.2282	11.499271	0.000350	3.504491	1.187354	-0.028223
 872	4.3550e-01	5.1929	11.438976	0.000150	1.497373	0.507324	-0.012059
 873	4.3600e-01	5.1384	11.388089	0.000126	1.263741	0.428167	-0.010177
 874	4.3650e-01	5.1127	11.257235	0.000325	3.249619	1.101001	-0.026171
 875	4.3700e-01	5.0774	11.131086	0.000313	3.132802	1.061422	-0.025230
 876	4.3750e-01	5.0517	11.052830	0.000194	1.943399	0.658442	-0.015651
 877	4.3800e-01	4.9876	10.908721	0.000358	3.578829	1.212540	-0.028822
 878	4.3850e-01	4.9747	10.922405	-0.000034	-0.339829	-0.115137	0.002737
 879	4.3900e-01	4.9090	10.828327	0.000234	2.336327	0.791569	-0.018816
 880	4.3950e-01	4.8977	10.629909	0.000493	4.927527	1.669491	-0.039684
 881	4.4000e-01	4.8416	10.663691	-0.000084	-0.838954	-0.284245	0.006756
 882	4.4050e-01	4.7886	10.508891	0.000384	3.844320	1.302491	-0.030960
 883	4.4100e-01	4.7710	10.359222	0.000372	3.716884	1.259314	-0.029934
 884	4.4150e-01	4.7036	10.271559	0.000218	2.177032	0.737598	-0.017533
 885	4.4200e-01	4.6844	10.198863	0.000181	1.805344	0.611667	-0.014539
 886	4.4250e-01	4.6186	10.117186	0.000203	2.028357	0.687226	-0.016335
 887	4.4300e-01	4.6074	9.950413	0.000414	4.141671	1.403236	-0.033355
 888	4.4350e-01	4.5833	9.920906	0.000073	0.732757	0.248265	-0.005901
 889	4.4400e-01	4.5063	9.860184	0.000151	1.507993	0.510922	-0.012145
 890	4.4450e-01	4.4886	9.750712	0.000272	2.718635	0.921099	-0.021894
 891	4.4500e-01	4.4293	9.609595	0.000350	3.504491	1.187354	-0.028223
 892	4.4550e-01	4.3972	9.549728	0.000149	1.486754	0.503726	-0.011974
 893	4.4600e-01	4.3651	9.399631	0.000373	3.727504	1.262913	-0.030019
 894	4.4650e-01	4.3074	9.394072	0.000014	0.138056	0.046775	-0.001112
 895	4.4700e-01	4.2849	9.222594	0.000426	4.258487	1.442815	-0.034296
 896	4.4750e-01	4.2288	9.216180	0.000016	0.159295	0.053971	-0.001283
 897	4.4800e-01	4.1806	9.115688	0.000250	2.495622	0.845540	-0.020098
 898	4.4850e-01	4.1758	8.950197	0.000411	4.109812	1.392442	-0.033098
 899	4.4900e-01	4.1020	8.868948	0.000202	2.017737	0.683628	-0.016250
 900	4.4950e-01	4.0571	8.774443	0.000235	2.346947	0.795167	-0.018901
 901	4.5000e-01	4.0507	8.683359	0.000226	2.261990	0.766383	-0.018217
 902	4.5050e-01	3.9801	8.576025	0.000267	2.665537	0.903108	-0.021467
 903	4.5100e-01	3.9416	8.539249	0.000091	0.913292	0.309432	-0.007355
 904	4.5150e-01	3.9079	8.432770	0.000264	2.644298	0.895912	-0.021296
 905	4.5200e-01	3.8822	8.346818	0.000213	2.134554	0.723206	-0.017191
 906	4.5250e-01	3.8325	8.204419	0.000354	3.536350	1.198148	-0.028480
 907	4.5300e-01	3.7988	8.112479	0.000228	2.283229	0.773579	-0.018388
 908	4.5350e-01	3.7507	8.047052	0.000162	1.624809	0.550500	-0.013085
 909	4.5400e-01	3.7186	7.976067	0.000176	1.762865	0.597275	-0.014197
 910	4.5450e-01	3.6625	7.801596	0.000433	4.332825	1.468001	-0.034894
 911	4.5500e-01	3.6512	7.734458	0.000167	1.667288	0.564892	-0.013427
 912	4.5550e-01	3.5871	7.720774	0.000034	0.339829	0.115137	-0.002737
 913	4.5600e-01	3.5438	7.603605	0.000291	2.909789	0.985863	-0.023434
 914	4.5650e-01	3.5052	7.534330	0.000172	1.720386	0.582883	-0.013855
 915	4.5700e-01	3.4812	7.364562	0.000422	4.216009	1.428422	-0.033953
 916	4.5750e-01	3.4347	7.326076	0.000096	0.955770	0.323824	-0.007697
 917	4.5800e-01	3.3753	7.305550	0.000051	0.509744	0.172706	-0.004105
 918	4.5850e-01	3.3480	7.135355	0.000423	4.226628	1.432020	-0.034039
 919	4.5900e-01	3.2758	7.053679	0.000203	2.028357	0.687226	-0.016335
 920	4.5950e-01	3.2903	6.901444	-0.000378	-3.780602	-1.280903	-0.030447
 921	4.6000e-01	3.2373	6.849274	0.000130	1.295600	0.438961	-0.010434
 922	4.6050e-01	3.1780	6.785130	0.000159	1.592950	0.539706	-0.012829
 923	4.6100e-01	3.1427	6.652139	0.000330	3.302717	1.118991	-0.026598
 924	4.6150e-01	3.1443	6.526417	-0.000312	-3.122183	-1.057824	-0.025144
 925	4.6200e-01	3.0737	6.404116	0.000304	3.037225	1.029040	-0.024460
 926	4.6250e-01	3.0416	6.341255	0.000156	1.561091	0.528912	-0.012572
 927	4.6300e-01	3.0031	6.239053	0.000254	2.538101	0.859932	-0.020440
 928	4.6350e-01	2.9710	6.198856	0.000100	0.998249	0.338216	-0.008039
 929	4.6400e-01	2.9069	6.120173	0.000195	1.954019	0.662040	-0.015737
 930	4.6450e-01	2.8620	6.008135	0.000278	2.782353	0.942687	-0.022408
 931	4.6500e-01	2.8475	5.948695	0.000148	1.476134	0.500128	-0.011888
 932	4.6550e-01	2.7866	5.828105	0.000299	2.994747	1.014648	-0.024118
 933	4.6600e-01	2.7625	5.680574	0.000366	3.663786	1.241324	-0.029506
 934	4.6650e-01	2.7144	5.616430	0.000159	1.592950	0.539706	-0.012829
 935	4.6700e-01	2.6791	5.515511	0.000251	2.506242	0.849138	-0.020184
 936	4.6750e-01	2.6390	5.404756	0.000275	2.750494	0.931893	-0.022151
 937	4.6800e-01	2.5796	5.305119	0.000247	2.474383	0.838344	-0.019927
 938	4.6850e-01	2.5555	5.217028	0.000219	2.187652	0.741197	-0.017618
 939	4.6900e-01	2.4978	5.135352	0.000203	2.028357	0.687226	-0.016335
 940	4.6950e-01	2.4834	5.053675	0.000203	2.028357	0.687226	-0.016335
 941	4.7000e-01	2.4320	4.947197	0.000264	2.644298	0.895912	-0.021296
 942	4.7050e-01	2.3855	4.799238	0.000367	3.674406	1.244922	-0.029592
 943	4.7100e-01	2.3326	4.756904	0.000105	1.051347	0.356206	-0.008467
 944	4.7150e-01	2.3181	4.713286	0.000108	1.083206	0.367000	-0.008724
 945	4.7200e-01	2.2828	4.609800	0.000257	2.569960	0.870726	-0.020697
 946	4.7250e-01	2.2347	4.502894	0.000265	2.654917	0.899510	-0.021381
 947	4.7300e-01	2.1850	4.390856	0.000278	2.782353	0.942687	-0.022408
 948	4.7350e-01	2.1577	4.348949	0.000104	1.040728	0.352608	-0.008381
 949	4.7400e-01	2.1144	4.233918	0.000286	2.856691	0.967873	-0.023006
 950	4.7450e-01	2.0646	4.134709	0.000246	2.463763	0.834746	-0.019842
 951	4.7500e-01	2.0181	4.019678	0.000286	2.856691	0.967873	-0.023006
 952	4.7550e-01	2.0021	3.901225	0.000294	2.941648	0.996657	-0.023690
 953	4.7600e-01	1.9507	3.801589	0.000247	2.474383	0.838344	-0.019927
 954	4.7650e-01	1.9042	3.669880	0.000327	3.270858	1.108197	-0.026342
 955	4.7700e-01	1.8561	3.614716	0.000137	1.369937	0.464147	-0.011033
 956	4.7750e-01	1.8577	3.492416	-0.000304	-3.037225	-1.029040	-0.024460
 957	4.7800e-01	1.7999	3.392779	0.000247	2.474383	0.838344	-0.019927
 958	4.7850e-01	1.7631	3.366266	0.000066	0.658419	0.223079	-0.005303
 959	4.7900e-01	1.6941	3.288011	0.000194	1.943399	0.658442	-0.015651
 960	4.7950e-01	1.6973	3.131500	-0.000389	-3.886799	-1.316883	-0.031302
 961	4.8000e-01	1.6331	3.084461	0.000117	1.168164	0.395785	-0.009408
 962	4.8050e-01	1.5898	3.026732	0.000143	1.433655	0.485736	-0.011546
 963	4.8100e-01	1.5689	2.860813	0.000412	4.120432	1.396040	-0.033184
 964	4.8150e-01	1.5096	2.756900	0.000258	2.580580	0.874324	-0.020783
 965	4.8200e-01	1.5016	2.647000	0.000273	2.729255	0.924697	-0.021980
 966	4.8250e-01	1.4582	2.581146	0.000164	1.635429	0.554098	-0.013171
 967	4.8300e-01	1.4133	2.562331	0.000047	0.467265	0.158314	-0.003763
 968	4.8350e-01	1.3363	2.437892	0.000309	3.090324	1.047030	-0.024888
 969	4.8400e-01	1.3155	2.351939	0.000213	2.134554	0.723206	-0.017191
 970	4.8450e-01	1.2689	2.247171	0.000260	2.601819	0.881520	-0.020954
 971	4.8500e-01	1.2337	2.130857	0.000289	2.888550	0.978667	-0.023263
 972	4.8550e-01	1.1887	2.055167	0.000188	1.879681	0.636853	-0.015138
 973	4.8600e-01	1.1406	1.968359	0.000216	2.155793	0.730402	-0.017362
 974	4.8650e-01	1.0925	1.826388	0.000353	3.525730	1.194550	-0.028394
 975	4.8700e-01	1.0524	1.793460	0.000082	0.817715	0.277049	-0.006585
 976	4.8750e-01	1.0411	1.636522	0.000390	3.897419	1.320481	-0.031388
 977	4.8800e-01	0.9946	1.596325	0.000100	0.998249	0.338216	-0.008039
 978	4.8850e-01	0.9433	1.480439	0.000288	2.877930	0.975069	-0.023177
 979	4.8900e-01	0.9064	1.396624	0.000208	2.081455	0.705216	-0.016763
 980	4.8950e-01	0.8759	1.228567	0.000417	4.173530	1.414030	-0.033611
 981	4.9000e-01	0.8117	1.220870	0.000019	0.191154	0.064765	-0.001539
 982	4.9050e-01	0.8037	1.071629	0.000371	3.706265	1.255716	-0.029848
 983	4.9100e-01	0.7572	0.986104	0.000212	2.123934	0.719608	-0.017105
 984	4.9150e-01	0.7363	0.919822	0.000165	1.646049	0.557696	-0.013256
 985	4.9200e-01	0.6818	0.803508	0.000289	2.888550	0.978667	-0.023263
 986	4.9250e-01	0.6353	0.701305	0.000254	2.538101	0.859932	-0.020440
 987	4.9300e-01	0.6064	0.669661	0.000079	0.785856	0.266255	-0.006329
 988	4.9350e-01	0.5503	0.600814	0.000171	1.709767	0.579285	-0.013770
 989	4.9400e-01	0.5198	0.442592	0.000393	3.929278	1.331275	-0.031644
 990	4.9450e-01	0.4861	0.401968	0.000101	1.008869	0.341814	-0.008125
 991	4.9500e-01	0.4059	0.340817	0.000152	1.518613	0.514520	-0.012230
 992	4.9550e-01	0.3706	0.129143	0.000526	5.256736	1.781030	-0.042335
 993	4.9600e-01	0.3754	0.008980	-0.000298	-2.984127	-1.011050	-0.024033
 994	4.9650e-01	0.2984	-0.040197	0.000122	1.221262	0.413775	-0.009835
 995	4.9700e-01	0.2727	-0.071841	0.000079	0.785856	0.266255	-0.006329
 996	4.9750e-01	0.2310	-0.200129	0.000319	3.185901	1.079412	-0.025658
 997	4.9800e-01	0.1861	-0.328416	0.000319	3.185901	1.079412	-0.025658
 998	4.9850e-01	0.1572	-0.443875	0.000287	2.867311	0.971471	-0.023092
 999	4.9900e-01	0.1203	-0.468250	0.000061	0.605321	0.205088	-0.004875
1000	4.9950e-01	0.0882	-0.519137	0.000126	1.263741	0.428167	-0.010177
1001	5.0000e-01	0.0465	-0.771008	0.000625	6.254985	2.119246	-0.050374
1002	5.0050e-01	-0.0048	-0.748772	-0.000055	-0.552223	-0.187098	0.004447
1003	5.0100e-01	-0.0209	-0.783837	0.000087	0.870813	0.295039	-0.007013
1004	5.0150e-01	-0.0882	-0.900151	0.000289	2.888550	0.978667	-0.023263
1005	5.0200e-01	-0.1332	-1.051958	0.000377	3.769983	1.277305	-0.030361
1006	5.0250e-01	-0.1444	-1.096859	0.000112	1.115065	0.377794	-0.008980
1007	5.0300e-01	-0.2053	-1.216166	0.000296	2.962888	1.003854	-0.023861
1008	5.0350e-01	-0.2422	-1.304257	0.000219	2.187652	0.741197	-0.017618
1009	5.0400e-01	-0.2839	-1.454781	0.000374	3.738124	1.266511	-0.030105
1010	5.0450e-01	-0.3192	-1.507807	0.000132	1.316839	0.446157	-0.010605
1011	5.0500e-01	-0.3513	-1.608299	0.000250	2.495622	0.845540	-0.020098
1012	5.0550e-01	-0.4075	-1.651489	0.000107	1.072587	0.363402	-0.008638
1013	5.0600e-01	-0.4283	-1.805434	0.000382	3.823081	1.295295	-0.030789
1014	5.0650e-01	-0.4893	-1.788329	-0.000042	-0.424787	-0.143922	0.003421
1015	5.0700e-01	-0.5294	-1.950827	0.000404	4.035474	1.367256	-0.032500
1016	5.0750e-01	-0.5631	-2.068851	0.000293	2.931029	0.993059	-0.023605
1017	5.0800e-01	-0.5968	-2.153521	0.000210	2.102695	0.712412	-0.016934
1018	5.0850e-01	-0.6609	-2.207829	0.000135	1.348698	0.456951	-0.010862
1019	5.0900e-01	-0.6866	-2.315163	0.000267	2.665537	0.903108	-0.021467
1020	5.0950e-01	-0.7363	-2.447727	0.000329	3.292097	1.115393	-0.026513
1021	5.1000e-01	-0.7396	-2.547364	0.000247	2.474383	0.838344	-0.019927
1022	5.1050e-01	-0.7748	-2.621343	0.000184	1.837203	0.622461	-0.014796
1023	5.1100e-01	-0.8406	-2.715420	0.000234	2.336327	0.791569	-0.018816
1024	5.1150e-01	-0.8743	-2.784268	0.000171	1.709767	0.579285	-0.013770
1025	5.1200e-01	-0.9289	-2.895451	0.000276	2.761114	0.935491	-0.022237
1026	5.1250e-01	-0.9754	-2.998936	0.000257	2.569960	0.870726	-0.020697
1027	5.1300e-01	-0.9914	-3.055810	0.000141	1.412416	0.478540	-0.011375
1028	5.1350e-01	-1.0620	-3.111829	0.000139	1.391177	0.471343	-0.011204
1029	5.1400e-01	-1.0700	-3.344457	0.000578	5.777100	1.957334	-0.046526
1030	5.1450e-01	-1.1310	-3.348306	0.000010	0.095577	0.032382	-0.000770
1031	5.1500e-01	-1.1647	-3.472317	0.000308	3.079704	1.043432	-0.024802
1032	5.1550e-01	-1.1952	-3.499685	0.000068	0.679659	0.230275	-0.005474
1033	5.1600e-01	-1.2513	-3.615144	0.000287	2.867311	0.971471	-0.023092
1034	5.1650e-01	-1.2593	-3.737017	0.000303	3.026606	1.025442	-0.024375
1035	5.1700e-01	-1.3267	-3.829812	0.000230	2.304468	0.780775	-0.018559
1036	5.1750e-01	-1.3716	-3.861029	0.000078	0.775236	0.262657	-0.006243
1037	5.1800e-01	-1.4133	-3.992310	0.000326	3.260238	1.104599	-0.026256
1038	5.1850e-01	-1.4422	-4.023099	0.000076	0.764616	0.259059	-0.006158
1039	5.1900e-01	-1.4823	-4.195432	0.000428	4.279727	1.450011	-0.034467
1040	5.1950e-01	-1.5160	-4.304048	0.000270	2.697396	0.913903	-0.021723
1041	5.2000e-01	-1.5609	-4.362633	0.000145	1.454895	0.492932	-0.011717
1042	5.2050e-01	-1.5978	-4.499901	0.000341	3.408914	1.154971	-0.027454
1043	5.2100e-01	-1.6459	-4.499046	-0.000002	-0.021239	-0.007196	0.000171
1044	5.2150e-01	-1.6604	-4.660688	0.000401	4.014235	1.360060	-0.032328
1045	5.2200e-01	-1.7518	-4.729963	0.000172	1.720386	0.582883	-0.013855
1046	5.2250e-01	-1.7454	-4.793679	-0.000158	-1.582331	-0.536108	-0.012743
1047	5.2300e-01	-1.7967	-4.932658	0.000345	3.451393	1.169363	-0.027796
1048	5.2350e-01	-1.8401	-5.028018	0.000237	2.368186	0.802363	-0.019072
1049	5.2400e-01	-1.8850	-5.066932	0.000097	0.966390	0.327422	-0.007783
1050	5.2450e-01	-1.9267	-5.179397	0.000279	2.792973	0.946285	-0.022493
1051	5.2500e-01	-1.9716	-5.224726	0.000113	1.125685	0.381392	-0.009066
1052	5.2550e-01	-2.0165	-5.345744	0.000301	3.005366	1.018246	-0.024204
1053	5.2600e-01	-2.0470	-5.419295	0.000183	1.826583	0.618863	-0.014710
1054	5.2650e-01	-2.0967	-5.542879	0.000307	3.069084	1.039834	-0.024717
1055	5.2700e-01	-2.1417	-5.668173	0.000311	3.111563	1.054226	-0.025059
1056	5.2750e-01	-2.1705	-5.703666	0.000088	0.881433	0.298637	-0.007099
1057	5.2800e-01	-2.2010	-5.810145	0.000264	2.644298	0.895912	-0.021296
1058	5.2850e-01	-2.2475	-5.983760	0.000431	4.311586	1.460805	-0.034723
1059	5.2900e-01	-2.2844	-6.039352	0.000138	1.380557	0.467745	-0.011118
1060	5.2950e-01	-2.3261	-6.110338	0.000176	1.762865	0.597275	-0.014197
1061	5.3000e-01	-2.3438	-6.244612	0.000333	3.334576	1.129785	-0.026855
1062	5.3050e-01	-2.3887	-6.321157	0.000190	1.900921	0.644049	-0.015309
1063	5.3100e-01	-2.4240	-6.351091	0.000074	0.743377	0.251863	-0.005987
1064	5.3150e-01	-2.4914	-6.520003	0.000419	4.194769	1.421226	-0.033782
1065	5.3200e-01	-2.5283	-6.550792	0.000076	0.764616	0.259059	-0.006158
1066	5.3250e-01	-2.5636	-6.670099	0.000296	2.962888	1.003854	-0.023861
1067	5.3300e-01	-2.5828	-6.880491	0.000522	5.224877	1.770236	-0.042078
1068	5.3350e-01	-2.6470	-6.809932	-0.000175	-1.752245	-0.593677	0.014112
1069	5.3400e-01	-2.6646	-6.989963	0.000447	4.470881	1.514775	-0.036006
1070	5.3450e-01	-2.7160	-7.090027	0.000249	2.485003	0.841942	-0.020013
1071	5.3500e-01	-2.7529	-7.164861	0.000186	1.858442	0.629657	-0.014967
1072	5.3550e-01	-2.8058	-7.185387	0.000051	0.509744	0.172706	-0.004105
1073	5.3600e-01	-2.8539	-7.280320	0.000236	2.357567	0.798765	-0.018987
1074	5.3650e-01	-2.8972	-7.292294	0.000030	0.297351	0.100745	-0.002395
1075	5.3700e-01	-2.9261	-7.525777	0.000580	5.798339	1.964531	-0.046697
1076	5.3750e-01	-2.9791	-7.602322	0.000190	1.900921	0.644049	-0.015309
1077	5.3800e-01	-2.9983	-7.754984	0.000379	3.791222	1.284501	-0.030532
1078	5.3850e-01	-3.0288	-7.686992	-0.000169	-1.688527	-0.572089	0.013598
1079	5.3900e-01	-3.0657	-7.965804	0.000692	6.924024	2.345923	-0.055762
1080	5.3950e-01	-3.1379	-7.924324	-0.000103	-1.030108	-0.349010	0.008296
1081	5.4000e-01	-3.1507	-8.043204	0.000295	2.952268	1.000255	-0.023776
1082	5.4050e-01	-3.2020	-8.188596	0.000361	3.610688	1.223334	-0.029079
1083	5.4100e-01	-3.2454	-8.200570	0.000030	0.297351	0.100745	-0.002395
1084	5.4150e-01	-3.2662	-8.412672	0.000527	5.267356	1.784629	-0.042420
1085	5.4200e-01	-3.3288	-8.381028	-0.000079	-0.785856	-0.266255	0.006329
1086	5.4250e-01	-3.3657	-8.566617	0.000461	4.608936	1.561550	-0.037118
1087	5.4300e-01	-3.3801	-8.645728	0.000196	1.964639	0.665638	-0.015822
1088	5.4350e-01	-3.4298	-8.693622	0.000119	1.189403	0.402981	-0.009579
1089	5.4400e-01	-3.4956	-8.733391	0.000099	0.987629	0.334618	-0.007954
1090	5.4450e-01	-3.5165	-8.849277	0.000288	2.877930	0.975069	-0.023177
1091	5.4500e-01	-3.5405	-9.022466	0.000430	4.300966	1.457207	-0.034638
1092	5.4550e-01	-3.6095	-9.091741	0.000172	1.720386	0.582883	-0.013855
1093	5.4600e-01	-3.6384	-9.168714	0.000191	1.911540	0.647647	-0.015395
1094	5.4650e-01	-3.6737	-9.285883	0.000291	2.909789	0.985863	-0.023434
1095	5.4700e-01	-3.7170	-9.372263	0.000215	2.145173	0.726804	-0.017276
1096	5.4750e-01	-3.7459	-9.389796	0.000044	0.435406	0.147520	-0.003507
1097	5.4800e-01	-3.8341	-9.543313	0.000381	3.812461	1.291697	-0.030703
1098	5.4850e-01	-3.8149	-9.613871	-0.000175	-1.752245	-0.593677	-0.014112
1099	5.4900e-01	-3.8887	-9.675877	0.000154	1.539852	0.521716	-0.012401
1100	5.4950e-01	-3.9207	-9.754560	0.000195	1.954019	0.662040	-0.015737
1101	5.5000e-01	-3.9753	-9.788343	0.000084	0.838954	0.284245	-0.006756
1102	5.5050e-01	-4.0122	-9.989754	0.000500	5.001864	1.694677	-0.040282
1103	5.5100e-01	-4.0619	-10.107779	0.000293	2.931029	0.993059	-0.023605
1104	5.5150e-01	-4.0780	-10.166791	0.000147	1.465514	0.496530	-0.011802
1105	5.5200e-01	-4.1357	-10.230935	0.000159	1.592950	0.539706	-0.012829
1106	5.5250e-01	-4.1582	-10.366920	0.000338	3.377055	1.144177	-0.027197
1107	5.5300e-01	-4.1999	-10.434484	0.000168	1.677908	0.568491	-0.013513
1108	5.5350e-01	-4.2368	-10.552509	0.000293	2.931029	0.993059	-0.023605
1109	5.5400e-01	-4.3074	-10.572180	0.000049	0.488505	0.165510	-0.003934
1110	5.5450e-01	-4.3411	-10.694908	0.000305	3.047845	1.032638	-0.024546
1111	5.5500e-01	-4.3459	-10.824479	0.000322	3.217760	1.090207	-0.025914
1112	5.5550e-01	-4.4197	-10.847570	0.000057	0.573462	0.194294	-0.004618
1113	5.5600e-01	-4.4646	-10.874083	0.000066	0.658419	0.223079	-0.005303
1114	5.5650e-01	-4.4999	-11.042567	0.000418	4.184150	1.417628	-0.033697
1115	5.5700e-01	-4.5255	-11.147763	0.000261	2.612439	0.885118	-0.021039
1116	5.5750e-01	-4.5624	-11.252531	0.000260	2.601819	0.881520	-0.020954
1117	5.5800e-01	-4.6025	-11.372267	0.000297	2.973507	1.007452	-0.023947
1118	5.5850e-01	-4.6459	-11.385523	0.000033	0.329210	0.111539	-0.002651
1119	5.5900e-01	-4.6876	-11.544600	0.000395	3.950517	1.338471	-0.031815
1120	5.5950e-01	-4.6956	-11.639532	0.000236	2.357567	0.798765	-0.018987
1121	5.6000e-01	-4.7838	-11.626276	-0.000033	-0.329210	-0.111539	0.002651
1122	5.6050e-01	-4.8079	-11.853773	0.000565	5.649664	1.914158	-0.045499
1123	5.6100e-01	-4.8592	-11.895680	0.000104	1.040728	0.352608	-0.008381
1124	5.6150e-01	-4.8753	-12.026533	0.000325	3.249619	1.101001	-0.026171
1125	5.6200e-01	-4.9186	-12.092815	0.000165	1.646049	0.557696	-0.013256
1126	5.6250e-01	-4.9523	-12.212978	0.000298	2.984127	1.011050	-0.024033
1127	5.6300e-01	-5.0068	-12.236070	0.000057	0.573462	0.194294	-0.004618
1128	5.6350e-01	-5.0421	-12.310049	0.000184	1.837203	0.622461	-0.014796
1129	5.6400e-01	-5.0870	-12.484520	0.000433	4.332825	1.468001	-0.034894
1130	5.6450e-01	-5.0983	-12.565341	0.000201	2.007117	0.680030	-0.016164
1131	5.6500e-01	-5.1672	-12.560637	-0.000012	-0.116816	-0.039578	0.000941
1132	5.6550e-01	-5.2154	-12.729977	0.000421	4.205389	1.424824	-0.033868
1133	5.6600e-01	-5.2314	-12.794976	0.000161	1.614190	0.546902	-0.013000
1134	5.6650e-01	-5.2892	-12.837311	0.000105	1.051347	0.356206	-0.008467
1135	5.6700e-01	-5.3132	-12.958329	0.000301	3.005366	1.018246	-0.024204
1136	5.6750e-01	-5.3549	-13.034874	0.000190	1.900921	0.644049	-0.015309
1137	5.6800e-01	-5.3870	-13.233292	0.000493	4.927527	1.669491	-0.039684
1138	5.6850e-01	-5.4608	-13.258094	0.000062	0.615941	0.208686	-0.004960
1139	5.6900e-01	-5.4945	-13.305988	0.000119	1.189403	0.402981	-0.009579
1140	5.6950e-01	-5.5298	-13.445822	0.000347	3.472632	1.176560	-0.027967
1141	5.7000e-01	-5.5747	-13.497564	0.000128	1.284980	0.435363	-0.010349
1142	5.7050e-01	-5.6180	-13.600194	0.000255	2.548721	0.863530	-0.020526
1143	5.7100e-01	-5.6100	-13.779797	-0.000446	-4.460261	-1.511177	-0.035921
1144	5.7150e-01	-5.6678	-13.820421	0.000101	1.008869	0.341814	-0.008125
1145	5.7200e-01	-5.7239	-13.902953	0.000205	2.049596	0.694422	-0.016506
1146	5.7250e-01	-5.7576	-14.017984	0.000286	2.856691	0.967873	-0.023006
1147	5.7300e-01	-5.8218	-14.103509	0.000212	2.123934	0.719608	-0.017105
1148	5.7350e-01	-5.8105	-14.227093	-0.000307	-3.069084	-1.039834	-0.024717
1149	5.7400e-01	-5.9084	-14.150976	-0.000189	-1.890301	-0.640451	0.015223
1150	5.7450e-01	-5.9308	-14.304921	0.000382	3.823081	1.295295	-0.030789
1151	5.7500e-01	-5.9726	-14.391301	0.000215	2.145173	0.726804	-0.017276
1152	5.7550e-01	-6.0143	-14.529424	0.000343	3.430153	1.162167	-0.027625
1153	5.7600e-01	-6.0351	-14.705178	0.000436	4.364684	1.478795	-0.035151
1154	5.7650e-01	-6.0833	-14.706461	0.000003	0.031859	0.010794	-0.000257
1155	5.7700e-01	-6.1105	-14.796690	0.000224	2.240750	0.759187	-0.018046
1156	5.7750e-01	-6.1715	-14.881360	0.000210	2.102695	0.712412	-0.016934
1157	5.7800e-01	-6.2116	-14.908728	0.000068	0.679659	0.230275	-0.005474
1158	5.7850e-01	-6.2517	-15.081061	0.000428	4.279727	1.450011	-0.034467
1159	5.7900e-01	-6.2886	-15.173000	0.000228	2.283229	0.773579	-0.018388
1160	5.7950e-01	-6.3175	-15.274347	0.000252	2.516862	0.852736	-0.020269
1161	5.8000e-01	-6.3688	-15.300005	0.000064	0.637180	0.215882	-0.005132
1162	5.8050e-01	-6.3897	-15.403490	0.000257	2.569960	0.870726	-0.020697
1163	5.8100e-01	-6.4282	-15.618158	0.000533	5.331074	1.806217	-0.042934
1164	5.8150e-01	-6.4955	-15.547600	-0.000175	-1.752245	-0.593677	0.014112
1165	5.8200e-01	-6.5212	-15.704966	0.000391	3.908038	1.324079	-0.031473
1166	5.8250e-01	-6.5613	-15.765689	0.000151	1.507993	0.510922	-0.012145
1167	5.8300e-01	-6.5918	-15.847365	0.000203	2.028357	0.687226	-0.016335
1168	5.8350e-01	-6.6592	-15.915785	0.000170	1.699147	0.575687	-0.013684
1169	5.8400e-01	-6.6880	-16.039796	0.000308	3.079704	1.043432	-0.024802
1170	5.8450e-01	-6.7265	-16.163380	0.000307	3.069084	1.039834	-0.024717
1171	5.8500e-01	-6.7458	-16.249760	0.000215	2.145173	0.726804	-0.017276
1172	5.8550e-01	-6.7763	-16.348114	0.000244	2.442524	0.827550	-0.019671
1173	5.8600e-01	-6.8469	-16.375055	0.000067	0.669039	0.226677	-0.005388
1174	5.8650e-01	-6.8757	-16.487520	0.000279	2.792973	0.946285	-0.022493
1175	5.8700e-01	-6.9175	-16.514888	0.000068	0.679659	0.230275	-0.005474
1176	5.8750e-01	-6.9495	-16.694918	0.000447	4.470881	1.514775	-0.036006
1177	5.8800e-01	-6.9896	-16.809522	0.000285	2.846071	0.964275	-0.022921
1178	5.8850e-01	-7.0410	-16.834752	0.000063	0.626560	0.212284	-0.005046
1179	5.8900e-01	-7.0763	-16.894192	0.000148	1.476134	0.500128	-0.011888
1180	5.8950e-01	-7.1003	-17.046854	0.000379	3.791222	1.284501	-0.030532
1181	5.9000e-01	-7.1533	-17.079353	0.000081	0.807095	0.273451	-0.006500
1182	5.9050e-01	-7.1870	-17.235009	0.000387	3.865560	1.309687	-0.031131
1183	5.9100e-01	-7.2271	-17.338922	0.000258	2.580580	0.874324	-0.020783
1184	5.9150e-01	-7.2736	-17.400928	0.000154	1.539852	0.521716	-0.012401
1185	5.9200e-01	-7.3217	-17.493295	0.000229	2.293849	0.777177	-0.018473
1186	5.9250e-01	-7.3538	-17.577537	0.000209	2.092075	0.708814	-0.016848
1187	5.9300e-01	-7.4067	-17.579675	0.000005	0.053098	0.017990	-0.000428
1188	5.9350e-01	-7.4597	-17.778521	0.000494	4.938146	1.673089	-0.039769
1189	5.9400e-01	-7.4902	-17.824277	0.000114	1.136305	0.384990	-0.009151
1190	5.9450e-01	-7.5222	-17.988912	0.000409	4.088573	1.385246	-0.032927
1191	5.9500e-01	-7.5672	-18.049208	0.000150	1.497373	0.507324	-0.012059
1192	5.9550e-01	-7.5752	-18.170226	0.000301	3.005366	1.018246	-0.024204
1193	5.9600e-01	-7.6329	-18.170226	-0.000000	-0.000000	-0.000000	0.000000
1194	5.9650e-01	-7.6891	-18.213843	0.000108	1.083206	0.367000	-0.008724
1195	5.9700e-01	-7.7196	-18.394301	0.000448	4.481500	1.518373	-0.036092
1196	5.9750e-01	-7.7661	-18.389597	-0.000012	-0.116816	-0.039578	0.000941
1197	5.9800e-01	-7.8110	-18.549529	0.000397	3.971756	1.345667	-0.031986
1198	5.9850e-01	-7.8543	-18.621370	0.000178	1.784104	0.604471	-0.014368
1199	5.9900e-01	-7.8591	-18.808670	0.000465	4.651415	1.575942	-0.037460
1200	5.9950e-01	-7.9169	-18.878373	0.000173	1.731006	0.586481	-0.013941
1201	6.0000e-01	-7.9827	-18.941662	0.000157	1.571711	0.532510	-0.012658
1202	6.0050e-01	-7.9971	-19.038305	0.000240	2.400045	0.813157	-0.019329
1203	6.0100e-01	-8.0532	-19.164027	0.000312	3.122183	1.057824	-0.025144
1204	6.0150e-01	-8.0645	-19.187546	0.000058	0.584082	0.197892	-0.004704
1205	6.0200e-01	-8.1174	-19.281196	0.000233	2.325708	0.787971	-0.018730
1206	6.0250e-01	-8.1591	-19.342346	0.000152	1.518613	0.514520	-0.012230
1207	6.0300e-01	-8.1960	-19.460799	0.000294	2.941648	0.996657	-0.023690
1208	6.0350e-01	-8.2425	-19.511686	0.000126	1.263741	0.428167	-0.010177
1209	6.0400e-01	-8.2666	-19.634414	0.000305	3.047845	1.032638	-0.024546
1210	6.0450e-01	-8.3196	-19.720795	0.000215	2.145173	0.726804	-0.017276
1211	6.0500e-01	-8.3484	-19.882010	0.000400	4.003615	1.356462	-0.032243
1212	6.0550e-01	-8.3917	-19.913226	0.000078	0.775236	0.262657	-0.006243
1213	6.0600e-01	-8.4206	-19.976087	0.000156	1.561091	0.528912	-0.012572
1214	6.0650e-01	-8.5008	-20.013718	0.000093	0.934531	0.316628	-0.007526
1215	6.0700e-01	-8.5072	-20.181775	0.000417	4.173530	1.414030	-0.033611
1216	6.0750e-01	-8.5538	-20.243353	0.000153	1.529232	0.518118	-0.012316
1217	6.0800e-01	-8.5955	-20.313911	0.000175	1.752245	0.593677	-0.014112
1218	6.0850e-01	-8.6244	-20.403712	0.000223	2.230131	0.755589	-0.017960
1219	6.0900e-01	-8.6885	-20.503349	0.000247	2.474383	0.838344	-0.019927
1220	6.0950e-01	-8.6933	-20.657722	0.000383	3.833701	1.298893	-0.030875
1221	6.1000e-01	-8.7463	-20.682524	0.000062	0.615941	0.208686	-0.004960
1222	6.1050e-01	-8.7976	-20.765483	0.000206	2.060216	0.698020	-0.016592
1223	6.1100e-01	-8.8441	-20.898902	0.000331	3.313337	1.122589	-0.026684
1224	6.1150e-01	-8.8666	-20.983572	0.000210	2.102695	0.712412	-0.016934
1225	6.1200e-01	-8.9468	-21.046861	0.000157	1.571711	0.532510	-0.012658
1226	6.1250e-01	-8.9500	-21.177714	0.000325	3.249619	1.101001	-0.026171
1227	6.1300e-01	-9.0190	-21.260246	0.000205	2.049596	0.694422	-0.016506
1228	6.1350e-01	-9.0238	-21.399652	0.000346	3.462012	1.172961	-0.027881
1229	6.1400e-01	-9.0960	-21.347481	-0.000130	-1.295600	-0.438961	0.010434
1230	6.1450e-01	-9.1217	-21.454815	0.000267	2.665537	0.903108	-0.021467
1231	6.1500e-01	-9.1650	-21.572840	0.000293	2.931029	0.993059	-0.023605
1232	6.1550e-01	-9.1987	-21.681457	0.000270	2.697396	0.913903	-0.021723
1233	6.1600e-01	-9.2420	-21.729351	0.000119	1.189403	0.402981	-0.009579
1234	6.1650e-01	-9.3062	-21.854645	0.000311	3.111563	1.054226	-0.025059
1235	6.1700e-01	-9.3110	-21.979084	0.000309	3.090324	1.047030	-0.024888
1236	6.1750e-01	-9.3767	-22.046221	0.000167	1.667288	0.564892	-0.013427
1237	6.1800e-01	-9.4024	-22.092832	0.000116	1.157544	0.392187	-0.009322
1238	6.1850e-01	-9.4377	-22.156548	0.000158	1.582331	0.536108	-0.012743
1239	6.1900e-01	-9.4890	-22.301086	0.000359	3.589448	1.216138	-0.028907
1240	6.1950e-01	-9.5388	-22.339144	0.000095	0.945151	0.320226	-0.007612
1241	6.2000e-01	-9.5789	-22.469998	0.000325	3.249619	1.101001	-0.026171
1242	6.2050e-01	-9.6078	-22.561937	0.000228	2.283229	0.773579	-0.018388
1243	6.2100e-01	-9.6414	-22.677396	0.000287	2.867311	0.971471	-0.023092
1244	6.2150e-01	-9.7024	-22.697494	0.000050	0.499124	0.169108	-0.004020
1245	6.2200e-01	-9.7104	-22.786013	0.000220	2.198272	0.744795	-0.017704
1246	6.2250e-01	-9.7553	-22.932688	0.000364	3.642547	1.234128	-0.029335
1247	6.2300e-01	-9.8083	-22.998543	0.000164	1.635429	0.554098	-0.013171
1248	6.2350e-01	-9.8275	-23.143080	0.000359	3.589448	1.216138	-0.028907
1249	6.2400e-01	-9.8821	-23.206796	0.000158	1.582331	0.536108	-0.012743
1250	6.2450e-01	-9.9029	-23.229888	0.000057	0.573462	0.194294	-0.004618
1251	6.2500e-01	-9.9607	-23.337222	0.000267	2.665537	0.903108	-0.021467
1252	6.2550e-01	-10.0152	-23.421892	0.000210	2.102695	0.712412	-0.016934
1253	6.2600e-01	-10.0313	-23.480476	0.000145	1.454895	0.492932	-0.011717
1254	6.2650e-01	-10.0906	-23.536067	0.000138	1.380557	0.467745	-0.011118
1255	6.2700e-01	-10.1179	-23.686592	0.000374	3.738124	1.266511	-0.030105
1256	6.2750e-01	-10.1452	-23.823432	0.000340	3.398294	1.151373	-0.027368
1257	6.2800e-01	-10.1628	-23.893562	0.000174	1.741626	0.590079	-0.014026
1258	6.2850e-01	-10.2559	-23.889714	-0.000010	-0.095577	-0.032382	0.000770
1259	6.2900e-01	-10.2831	-23.989778	0.000249	2.485003	0.841942	-0.020013
1260	6.2950e-01	-10.3136	-24.092836	0.000256	2.559340	0.867128	-0.020612
1261	6.3000e-01	-10.3425	-24.239511	0.000364	3.642547	1.234128	-0.029335
1262	6.3050e-01	-10.4051	-24.319905	0.000200	1.996498	0.676432	-0.016079
1263	6.3100e-01	-10.4307	-24.468291	0.000369	3.685025	1.248520	-0.029677
1264	6.3150e-01	-10.4788	-24.470856	0.000006	0.063718	0.021588	-0.000513
1265	6.3200e-01	-10.5190	-24.590164	0.000296	2.962888	1.003854	-0.023861
1266	6.3250e-01	-10.5719	-24.623946	0.000084	0.838954	0.284245	-0.006756
1267	6.3300e-01	-10.5960	-24.773615	0.000372	3.716884	1.259314	-0.029934
1268	6.3350e-01	-10.6361	-24.847594	0.000184	1.837203	0.622461	-0.014796
1269	6.3400e-01	-10.6649	-24.876673	0.000072	0.722138	0.244667	-0.005816
1270	6.3450e-01	-10.7147	-24.993842	0.000291	2.909789	0.985863	-0.023434
1271	6.3500e-01	-10.7419	-25.125978	0.000328	3.281478	1.111795	-0.026427
1272	6.3550e-01	-10.8238	-25.119992	-0.000015	-0.148675	-0.050373	0.001197
1273	6.3600e-01	-10.8334	-25.203378	0.000207	2.070836	0.701618	-0.016677
1274	6.3650e-01	-10.8703	-25.364593	0.000400	4.003615	1.356462	-0.032243
1275	6.3700e-01	-10.9264	-25.386402	0.000054	0.541603	0.183500	-0.004362
1276	6.3750e-01	-10.9601	-25.534360	0.000367	3.674406	1.244922	-0.029592
1277	6.3800e-01	-11.0002	-25.588669	0.000135	1.348698	0.456951	-0.010862
1278	6.3850e-01	-11.0484	-25.665641	0.000191	1.911540	0.647647	-0.015395
1279	6.3900e-01	-11.0596	-25.786232	0.000299	2.994747	1.014648	-0.024118
1280	6.3950e-01	-11.1157	-25.833698	0.000118	1.178783	0.399383	-0.009493
1281	6.4000e-01	-11.1398	-25.971393	0.000342	3.419534	1.158569	-0.027539
1282	6.4050e-01	-11.1943	-26.011590	0.000100	0.998249	0.338216	-0.008039
1283	6.4100e-01	-11.2505	-26.050076	0.000096	0.955770	0.323824	-0.007697
1284	6.4150e-01	-11.2473	-26.345566	-0.000734	-7.338191	-2.486247	-0.059098
1285	6.4200e-01	-11.3243	-26.275007	-0.000175	-1.752245	-0.593677	0.014112
1286	6.4250e-01	-11.3516	-26.419972	0.000360	3.600068	1.219736	-0.028993
1287	6.4300e-01	-11.4125	-26.469577	0.000123	1.231882	0.417373	-0.009921
1288	6.4350e-01	-11.4687	-26.539707	0.000174	1.741626	0.590079	-0.014026
1289	6.4400e-01	-11.4751	-26.684672	0.000360	3.600068	1.219736	-0.028993
1290	6.4450e-01	-11.5120	-26.793717	0.000271	2.708016	0.917501	-0.021809
1291	6.4500e-01	-11.5729	-26.857861	0.000159	1.592950	0.539706	-0.012829
1292	6.4550e-01	-11.6179	-26.936544	0.000195	1.954019	0.662040	-0.015737
1293	6.4600e-01	-11.6676	-26.915590	-0.000052	-0.520364	-0.176304	0.004191
1294	6.4650e-01	-11.6836	-27.101607	0.000462	4.619556	1.565148	-0.037203
1295	6.4700e-01	-11.7141	-27.202099	0.000250	2.495622	0.845540	-0.020098
1296	6.4750e-01	-11.7430	-27.281210	0.000196	1.964639	0.665638	-0.015822
1297	6.4800e-01	-11.8104	-27.346636	0.000162	1.624809	0.550500	-0.013085
1298	6.4850e-01	-11.8376	-27.422754	0.000189	1.890301	0.640451	-0.015223
1299	6.4900e-01	-11.8585	-27.579692	0.000390	3.897419	1.320481	-0.031388
1300	6.4950e-01	-11.9130	-27.558311	-0.000053	-0.530983	-0.179902	0.004276
1301	6.5000e-01	-11.9563	-27.710973	0.000379	3.791222	1.284501	-0.030532
1302	6.5050e-01	-11.9836	-27.737486	0.000066	0.658419	0.223079	-0.005303
1303	6.5100e-01	-12.0350	-27.805478	0.000169	1.688527	0.572089	-0.013598
1304	6.5150e-01	-12.1023	-27.921365	0.000288	2.877930	0.975069	-0.023177
1305	6.5200e-01	-12.1248	-27.998765	0.000192	1.922160	0.651245	-0.015480
1306	6.5250e-01	-12.1681	-28.153138	0.000383	3.833701	1.298893	-0.030875
1307	6.5300e-01	-12.2018	-28.198038	0.000112	1.115065	0.377794	-0.008980
1308	6.5350e-01	-12.2259	-28.344714	0.000364	3.642547	1.234128	-0.029335
1309	6.5400e-01	-12.2900	-28.385338	0.000101	1.008869	0.341814	-0.008125
1310	6.5450e-01	-12.3157	-28.390042	0.000012	0.116816	0.039578	-0.000941
1311	6.5500e-01	-12.3638	-28.541421	0.000376	3.759363	1.273707	-0.030276
1312	6.5550e-01	-12.4071	-28.620532	0.000196	1.964639	0.665638	-0.015822
1313	6.5600e-01	-12.4184	-28.761648	0.000350	3.504491	1.187354	-0.028223
1314	6.5650e-01	-12.4954	-28.825365	0.000158	1.582331	0.536108	-0.012743
1315	6.5700e-01	-12.5146	-28.921580	0.000239	2.389426	0.809559	-0.019243
1316	6.5750e-01	-12.5660	-28.999836	0.000194	1.943399	0.658442	-0.015651
1317	6.5800e-01	-12.5964	-29.111873	0.000278	2.782353	0.942687	-0.022408
1318	6.5850e-01	-12.6221	-29.146939	0.000087	0.870813	0.295039	-0.007013
1319	6.5900e-01	-12.6734	-29.222628	0.000188	1.879681	0.636853	-0.015138
1320	6.5950e-01	-12.7119	-29.314140	0.000227	2.272609	0.769981	-0.018302
1321	6.6000e-01	-12.7488	-29.426606	0.000279	2.792973	0.946285	-0.022493
1322	6.6050e-01	-12.8130	-29.517690	0.000226	2.261990	0.766383	-0.018217
1323	6.6100e-01	-12.8323	-29.578413	0.000151	1.507993	0.510922	-0.012145
1324	6.6150e-01	-12.8788	-29.839692	0.000649	6.488618	2.198403	-0.052256
1325	6.6200e-01	-12.9093	-29.806337	-0.000083	-0.828334	-0.280647	0.006671
1326	6.6250e-01	-12.9654	-29.781107	-0.000063	-0.626560	-0.212284	0.005046
1327	6.6300e-01	-13.0055	-29.885875	0.000260	2.601819	0.881520	-0.020954
1328	6.6350e-01	-13.0248	-30.029557	0.000357	3.568209	1.208942	-0.028736
1329	6.6400e-01	-13.0873	-30.126628	0.000241	2.410665	0.816755	-0.019414
1330	6.6450e-01	-13.1274	-30.184785	0.000144	1.444275	0.489334	-0.011631
1331	6.6500e-01	-13.1499	-30.276725	0.000228	2.283229	0.773579	-0.018388
1332	6.6550e-01	-13.2189	-30.331461	0.000136	1.359318	0.460549	-0.010947
1333	6.6600e-01	-13.2526	-30.418269	0.000216	2.155793	0.730402	-0.017362
1334	6.6650e-01	-13.2686	-30.552543	0.000333	3.334576	1.129785	-0.026855
1335	6.6700e-01	-13.3215	-30.617114	0.000160	1.603570	0.543304	-0.012914
1336	6.6750e-01	-13.3584	-30.676554	0.000148	1.476134	0.500128	-0.011888
1337	6.6800e-01	-13.4050	-30.797572	0.000301	3.005366	1.018246	-0.024204
1338	6.6850e-01	-13.4579	-30.862999	0.000162	1.624809	0.550500	-0.013085
1339	6.6900e-01	-13.4595	-31.017372	0.000383	3.833701	1.298893	-0.030875
1340	6.6950e-01	-13.5349	-30.989576	-0.000069	-0.690279	-0.233873	0.005559
1341	6.7000e-01	-13.5766	-31.056286	0.000166	1.656668	0.561294	-0.013342
1342	6.7050e-01	-13.5830	-31.175593	0.000296	2.962888	1.003854	-0.023861
1343	6.7100e-01	-13.6376	-31.304736	0.000321	3.207140	1.086608	-0.025829
1344	6.7150e-01	-13.6665	-31.447990	0.000356	3.557589	1.205344	-0.028651
1345	6.7200e-01	-13.7258	-31.464240	0.000040	0.403547	0.136726	-0.003250
1346	6.7250e-01	-13.7627	-31.502726	0.000096	0.955770	0.323824	-0.007697
1347	6.7300e-01	-13.8044	-31.589962	0.000217	2.166413	0.734000	-0.017447
1348	6.7350e-01	-13.8285	-31.709697	0.000297	2.973507	1.007452	-0.023947
1349	6.7400e-01	-13.8766	-31.819597	0.000273	2.729255	0.924697	-0.021980
1350	6.7450e-01	-13.9215	-31.865780	0.000115	1.146924	0.388588	-0.009237
1351	6.7500e-01	-13.9648	-31.972259	0.000264	2.644298	0.895912	-0.021296
1352	6.7550e-01	-14.0130	-32.038968	0.000166	1.656668	0.561294	-0.013342
1353	6.7600e-01	-14.0290	-32.188637	0.000372	3.716884	1.259314	-0.029934
1354	6.7650e-01	-14.0771	-32.260478	0.000178	1.784104	0.604471	-0.014368
1355	6.7700e-01	-14.1028	-32.313932	0.000133	1.327459	0.449755	-0.010691
1356	6.7750e-01	-14.1654	-32.354128	0.000100	0.998249	0.338216	-0.008039
1357	6.7800e-01	-14.1943	-32.440081	0.000213	2.134554	0.723206	-0.017191
1358	6.7850e-01	-14.2279	-32.603434	0.000406	4.056714	1.374452	-0.032671
1359	6.7900e-01	-14.2825	-32.658170	0.000136	1.359318	0.460549	-0.010947
1360	6.7950e-01	-14.3290	-32.720603	0.000155	1.550472	0.525314	-0.012487
1361	6.8000e-01	-14.3627	-32.819812	0.000246	2.463763	0.834746	-0.019842
1362	6.8050e-01	-14.4028	-32.944679	0.000310	3.100943	1.050628	-0.024973
1363	6.8100e-01	-14.4493	-32.997277	0.000131	1.306219	0.442559	-0.010520
1364	6.8150e-01	-14.4750	-33.047736	0.000125	1.253121	0.424569	-0.010092
1365	6.8200e-01	-14.5376	-33.087933	0.000100	0.998249	0.338216	-0.008039
1366	6.8250e-01	-14.5632	-33.234609	0.000364	3.642547	1.234128	-0.029335
1367	6.8300e-01	-14.6017	-33.365462	0.000325	3.249619	1.101001	-0.026171
1368	6.8350e-01	-14.6386	-33.484770	0.000296	2.962888	1.003854	-0.023861
1369	6.8400e-01	-14.7028	-33.495888	0.000028	0.276111	0.093549	-0.002224
1370	6.8450e-01	-14.7172	-33.551479	0.000138	1.380557	0.467745	-0.011118
1371	6.8500e-01	-14.7686	-33.626313	0.000186	1.858442	0.629657	-0.014967
1372	6.8550e-01	-14.7974	-33.738779	0.000279	2.792973	0.946285	-0.022493
1373	6.8600e-01	-14.8600	-33.786245	0.000118	1.178783	0.399383	-0.009493
1374	6.8650e-01	-14.8648	-33.903415	0.000291	2.909789	0.985863	-0.023434
1375	6.8700e-01	-14.9290	-33.962855	0.000148	1.476134	0.500128	-0.011888
1376	6.8750e-01	-14.9386	-34.106964	0.000358	3.578829	1.212540	-0.028822
1377	6.8800e-01	-15.0220	-34.186930	0.000199	1.985878	0.672834	-0.015993
1378	6.8850e-01	-15.0365	-34.252785	0.000164	1.635429	0.554098	-0.013171
1379	6.8900e-01	-15.0766	-34.383210	0.000324	3.238999	1.097403	-0.026085
1380	6.8950e-01	-15.1263	-34.439657	0.000140	1.401796	0.474941	-0.011289
1381	6.9000e-01	-15.1568	-34.544425	0.000260	2.601819	0.881520	-0.020954
1382	6.9050e-01	-15.1969	-34.623963	0.000198	1.975258	0.669236	-0.015908
1383	6.9100e-01	-15.2290	-34.651331	0.000068	0.679659	0.230275	-0.005474
1384	6.9150e-01	-15.2498	-34.803993	0.000379	3.791222	1.284501	-0.030532
1385	6.9200e-01	-15.3188	-34.826658	0.000056	0.562842	0.190696	-0.004533
1386	6.9250e-01	-15.3477	-34.942116	0.000287	2.867311	0.971471	-0.023092
1387	6.9300e-01	-15.4199	-35.049023	0.000265	2.654917	0.899510	-0.021381
1388	6.9350e-01	-15.4375	-35.141390	0.000229	2.293849	0.777177	-0.018473
1389	6.9400e-01	-15.5049	-35.192705	0.000127	1.274360	0.431765	-0.010263
1390	6.9450e-01	-15.5386	-35.239316	0.000116	1.157544	0.392187	-0.009322
1391	6.9500e-01	-15.5562	-35.348360	0.000271	2.708016	0.917501	-0.021809
1392	6.9550e-01	-15.6268	-35.434313	0.000213	2.134554	0.723206	-0.017191
1393	6.9600e-01	-15.6268	-35.519411	0.000211	2.113314	0.716010	-0.017019
1394	6.9650e-01	-15.6734	-35.642994	0.000307	3.069084	1.039834	-0.024717
1395	6.9700e-01	-15.7311	-35.746480	0.000257	2.569960	0.870726	-0.020697
1396	6.9750e-01	-15.7600	-35.766150	0.000049	0.488505	0.165510	-0.003934
1397	6.9800e-01	-15.8081	-35.828156	0.000154	1.539852	0.521716	-0.012401
1398	6.9850e-01	-15.8466	-35.902563	0.000185	1.847822	0.626059	-0.014881
1399	6.9900e-01	-15.8675	-36.071047	0.000418	4.184150	1.417628	-0.033697
1400	6.9950e-01	-15.9284	-36.129204	0.000144	1.444275	0.489334	-0.011631
1401	7.0000e-01	-15.9717	-36.187789	0.000145	1.454895	0.492932	-0.011717
1402	7.0050e-01	-15.9926	-36.290419	0.000255	2.548721	0.863530	-0.020526
1403	7.0100e-01	-16.0439	-36.309662	0.000048	0.477885	0.161912	-0.003849
1404	7.0150e-01	-16.0872	-36.461469	0.000377	3.769983	1.277305	-0.030361
1405	7.0200e-01	-16.1225	-36.528179	0.000166	1.656668	0.561294	-0.013342
1406	7.0250e-01	-16.1354	-36.591467	0.000157	1.571711	0.532510	-0.012658
1407	7.0300e-01	-16.2011	-36.707354	0.000288	2.877930	0.975069	-0.023177
1408	7.0350e-01	-16.2364	-36.790313	0.000206	2.060216	0.698020	-0.016592
1409	7.0400e-01	-16.2846	-36.803142	0.000032	0.318590	0.107941	-0.002566
1410	7.0450e-01	-16.3054	-36.958797	0.000387	3.865560	1.309687	-0.031131
1411	7.0500e-01	-16.3760	-37.061855	0.000256	2.559340	0.867128	-0.020612
1412	7.0550e-01	-16.3969	-37.160209	0.000244	2.442524	0.827550	-0.019671
1413	7.0600e-01	-16.4450	-37.193991	0.000084	0.838954	0.284245	-0.006756
1414	7.0650e-01	-16.5011	-37.264977	0.000176	1.762865	0.597275	-0.014197
1415	7.0700e-01	-16.5060	-37.448428	0.000456	4.555838	1.543560	-0.036690
1416	7.0750e-01	-16.5605	-37.460402	0.000030	0.297351	0.100745	-0.002395
1417	7.0800e-01	-16.6150	-37.604511	0.000358	3.578829	1.212540	-0.028822
1418	7.0850e-01	-16.6327	-37.605794	0.000003	0.031859	0.010794	-0.000257
1419	7.0900e-01	-16.6856	-37.703293	0.000242	2.421285	0.820353	-0.019500
1420	7.0950e-01	-16.7097	-37.784114	0.000201	2.007117	0.680030	-0.016164
1421	7.1000e-01	-16.7450	-37.893586	0.000272	2.718635	0.921099	-0.021894
1422	7.1050e-01	-16.7787	-37.992795	0.000246	2.463763	0.834746	-0.019842
1423	7.1100e-01	-16.8589	-38.077465	0.000210	2.102695	0.712412	-0.016934
1424	7.1150e-01	-16.8637	-38.183088	0.000262	2.623058	0.888716	-0.021125
1425	7.1200e-01	-16.9134	-38.235686	0.000131	1.306219	0.442559	-0.010520
1426	7.1250e-01	-16.9263	-38.255357	0.000049	0.488505	0.165510	-0.003934
1427	7.1300e-01	-17.0001	-38.356704	0.000252	2.516862	0.852736	-0.020269
1428	7.1350e-01	-17.0370	-38.450354	0.000233	2.325708	0.787971	-0.018730
1429	7.1400e-01	-17.0899	-38.551701	0.000252	2.516862	0.852736	-0.020269
1430	7.1450e-01	-17.1348	-38.553412	0.000004	0.042479	0.014392	-0.000342
1431	7.1500e-01	-17.1669	-38.693245	0.000347	3.472632	1.176560	-0.027967
1432	7.1550e-01	-17.2086	-38.774922	0.000203	2.028357	0.687226	-0.016335
1433	7.1600e-01	-17.2086	-38.939985	0.000410	4.099192	1.388844	-0.033013
1434	7.1650e-01	-17.2792	-38.966070	0.000065	0.647800	0.219481	-0.005217
1435	7.1700e-01	-17.3000	-39.087943	0.000303	3.026606	1.025442	-0.024375
1436	7.1750e-01	-17.3658	-39.054161	-0.000084	-0.838954	-0.284245	0.006756
1437	7.1800e-01	-17.4107	-39.140969	0.000216	2.155793	0.730402	-0.017362
1438	7.1850e-01	-17.4589	-39.267974	0.000315	3.154042	1.068618	-0.025401
1439	7.1900e-01	-17.4765	-39.357775	0.000223	2.230131	0.755589	-0.017960
1440	7.1950e-01	-17.5246	-39.453563	0.000238	2.378806	0.805961	-0.019158
1441	7.2000e-01	-17.5647	-39.544220	0.000225	2.251370	0.762785	-0.018131
1442	7.2050e-01	-17.5744	-39.631455	0.000217	2.166413	0.734000	-0.017447
1443	7.2100e-01	-17.6658	-39.700303	0.000171	1.709767	0.579285	-0.013770
1444	7.2150e-01	-17.6786	-39.767012	0.000166	1.656668	0.561294	-0.013342
1445	7.2200e-01	-17.7220	-39.857669	0.000225	2.251370	0.762785	-0.018131
1446	7.2250e-01	-17.7573	-39.944905	0.000217	2.166413	0.734000	-0.017447
1447	7.2300e-01	-17.7861	-39.993654	0.000121	1.210642	0.410177	-0.009750
1448	7.2350e-01	-17.8375	-40.068916	0.000187	1.869062	0.633255	-0.015052
1449	7.2400e-01	-17.8583	-40.210032	0.000350	3.504491	1.187354	-0.028223
1450	7.2450e-01	-17.9145	-40.274604	0.000160	1.603570	0.543304	-0.012914
1451	7.2500e-01	-17.9546	-40.349438	0.000186	1.858442	0.629657	-0.014967
1452	7.2550e-01	-17.9915	-40.410161	0.000151	1.507993	0.510922	-0.012145
1453	7.2600e-01	-18.0508	-40.561113	0.000375	3.748743	1.270109	-0.030190
1454	7.2650e-01	-18.0621	-40.616276	0.000137	1.369937	0.464147	-0.011033
1455	7.2700e-01	-18.1262	-40.603875	-0.000031	-0.307970	-0.104343	0.002480
1456	7.2750e-01	-18.1407	-40.717196	0.000281	2.814212	0.953481	-0.022664
1457	7.2800e-01	-18.2064	-40.873279	0.000388	3.876179	1.313285	-0.031217
1458	7.2850e-01	-18.2433	-40.966074	0.000230	2.304468	0.780775	-0.018559
1459	7.2900e-01	-18.2899	-41.001139	0.000087	0.870813	0.295039	-0.007013
1460	7.2950e-01	-18.3123	-41.116598	0.000287	2.867311	0.971471	-0.023092
1461	7.3000e-01	-18.3620	-41.101631	-0.000037	-0.371688	-0.125931	0.002993
1462	7.3050e-01	-18.4150	-41.259425	0.000392	3.918658	1.327677	-0.031559
1463	7.3100e-01	-18.4647	-41.328272	0.000171	1.709767	0.579285	-0.013770
1464	7.3150e-01	-18.4503	-41.453994	-0.000312	-3.122183	-1.057824	-0.025144
1465	7.3200e-01	-18.5112	-41.541657	0.000218	2.177032	0.737598	-0.017533
1466	7.3250e-01	-18.5530	-41.580999	0.000098	0.977010	0.331020	-0.007868
1467	7.3300e-01	-18.5802	-41.649847	0.000171	1.709767	0.579285	-0.013770
1468	7.3350e-01	-18.6508	-41.696030	0.000115	1.146924	0.388588	-0.009237
1469	7.3400e-01	-18.6989	-41.787969	0.000228	2.283229	0.773579	-0.018388
1470	7.3450e-01	-18.6957	-41.923954	-0.000338	-3.377055	-1.144177	-0.027197
1471	7.3500e-01	-18.7695	-41.988526	0.000160	1.603570	0.543304	-0.012914
1472	7.3550e-01	-18.8177	-42.042834	0.000135	1.348698	0.456951	-0.010862
1473	7.3600e-01	-18.8529	-42.149740	0.000265	2.654917	0.899510	-0.021381
1474	7.3650e-01	-18.8722	-42.269903	0.000298	2.984127	1.011050	-0.024033
1475	7.3700e-01	-18.9316	-42.309672	0.000099	0.987629	0.334618	-0.007954
1476	7.3750e-01	-18.9604	-42.420427	0.000275	2.750494	0.931893	-0.022151
1477	7.3800e-01	-18.9797	-42.508090	0.000218	2.177032	0.737598	-0.017533
1478	7.3850e-01	-19.0278	-42.546577	0.000096	0.955770	0.323824	-0.007697
1479	7.3900e-01	-19.0727	-42.718910	0.000428	4.279727	1.450011	-0.034467
1480	7.3950e-01	-19.1192	-42.719765	0.000002	0.021239	0.007196	-0.000171
1481	7.4000e-01	-19.1914	-42.827099	0.000267	2.665537	0.903108	-0.021467
1482	7.4050e-01	-19.2155	-42.877986	0.000126	1.263741	0.428167	-0.010177
1483	7.4100e-01	-19.2364	-42.967788	0.000223	2.230131	0.755589	-0.017960
1484	7.4150e-01	-19.2877	-43.069990	0.000254	2.538101	0.859932	-0.020440
1485	7.4200e-01	-19.2989	-43.246172	0.000438	4.375304	1.482393	-0.035236
1486	7.4250e-01	-19.3615	-43.243178	-0.000007	-0.074338	-0.025186	0.000599
1487	7.4300e-01	-19.4289	-43.267553	0.000061	0.605321	0.205088	-0.004875
1488	7.4350e-01	-19.4112	-43.392419	-0.000310	-3.100943	-1.050628	-0.024973
1489	7.4400e-01	-19.4706	-43.455708	0.000157	1.571711	0.532510	-0.012658
1490	7.4450e-01	-19.5107	-43.570312	0.000285	2.846071	0.964275	-0.022921
1491	7.4500e-01	-19.5748	-43.622054	0.000128	1.284980	0.435363	-0.010349
1492	7.4550e-01	-19.5973	-43.705014	0.000206	2.060216	0.698020	-0.016592
1493	7.4600e-01	-19.6502	-43.779420	0.000185	1.847822	0.626059	-0.014881
1494	7.4650e-01	-19.6631	-43.873926	0.000235	2.346947	0.795167	-0.018901
1495	7.4700e-01	-19.7401	-43.953036	0.000196	1.964639	0.665638	-0.015822
1496	7.4750e-01	-19.7513	-44.067212	0.000284	2.835452	0.960677	-0.022835
1497	7.4800e-01	-19.7914	-44.135632	0.000170	1.699147	0.575687	-0.013684
1498	7.4850e-01	-19.8363	-44.269479	0.000332	3.323956	1.126187	-0.026769
1499	7.4900e-01	-19.8989	-44.290433	0.000052	0.520364	0.176304	-0.004191
1500	7.4950e-01	-19.9182	-44.372964	0.000205	2.049596	0.694422	-0.016506
1501	7.5000e-01	-19.9615	-44.456779	0.000208	2.081455	0.705216	-0.016763
1502	7.5050e-01	-19.9005	-44.426417	0.000075	0.753997	0.255461	0.006072
1503	7.5100e-01	-19.8588	-44.387076	0.000098	0.977010	0.331020	0.007868
1504	7.5150e-01	-19.8107	-44.337044	0.000124	1.242501	0.420971	0.010006
1505	7.5200e-01	-19.7834	-44.191651	0.000361	3.610688	1.223334	0.029079
1506	7.5250e-01	-19.7401	-44.158724	0.000082	0.817715	0.277049	0.006585
1507	7.5300e-01	-19.7000	-44.079186	0.000198	1.975258	0.669236	0.015908
1508	7.5350e-01	-19.6775	-43.992805	0.000215	2.145173	0.726804	0.017276
1509	7.5400e-01	-19.6101	-43.956885	0.000089	0.892052	0.302235	0.007184
1510	7.5450e-01	-19.5508	-43.906853	0.000124	1.242501	0.420971	0.010006
1511	7.5500e-01	-19.5315	-43.794387	0.000279	2.792973	0.946285	0.022493
1512	7.5550e-01	-19.5059	-43.762743	0.000079	0.785856	0.266255	0.006329
1513	7.5600e-01	-19.4577	-43.675507	0.000217	2.166413	0.734000	0.017447
1514	7.5650e-01	-19.4112	-43.587844	0.000218	2.177032	0.737598	0.017533
1515	7.5700e-01	-19.3759	-43.586989	0.000002	0.021239	0.007196	0.000171
1516	7.5750e-01	-19.3599	-43.459984	0.000315	3.154042	1.068618	0.025401
1517	7.5800e-01	-19.2941	-43.397551	0.000155	1.550472	0.525314	0.012487
1518	7.5850e-01	-19.2829	-43.264987	0.000329	3.292097	1.115393	0.026513
1519	7.5900e-01	-19.2155	-43.338111	-0.000182	-1.815963	-0.615265	-0.014625
1520	7.5950e-01	-19.2091	-43.137127	0.000499	4.991245	1.691079	0.040197
1521	7.6000e-01	-19.1433	-43.105483	0.000079	0.785856	0.266255	0.006329
1522	7.6050e-01	-19.1016	-43.033214	0.000179	1.794724	0.608069	0.014454
1523	7.6100e-01	-19.0599	-43.010550	0.000056	0.562842	0.190696	0.004533
1524	7.6150e-01	-19.0326	-42.938281	0.000179	1.794724	0.608069	0.014454
1525	7.6200e-01	-18.9829	-42.815553	0.000305	3.047845	1.032638	0.024546
1526	7.6250e-01	-18.9316	-42.759962	0.000138	1.380557	0.467745	0.011118
1527	7.6300e-01	-18.9107	-42.659897	0.000249	2.485003	0.841942	0.020013
1528	7.6350e-01	-18.8898	-42.650917	0.000022	0.223013	0.075559	0.001796
1529	7.6400e-01	-18.8193	-42.520919	0.000323	3.228379	1.093805	0.026000
1530	7.6450e-01	-18.7808	-42.424276	0.000240	2.400045	0.813157	0.019329
1531	7.6500e-01	-18.7246	-42.379803	0.000110	1.104446	0.374196	0.008895
1532	7.6550e-01	-18.6925	-42.301120	0.000195	1.954019	0.662040	0.015737
1533	7.6600e-01	-18.6508	-42.248094	0.000132	1.316839	0.446157	0.010605
1534	7.6650e-01	-18.6332	-42.119807	0.000319	3.185901	1.079412	0.025658
1535	7.6700e-01	-18.5898	-42.116813	0.000007	0.074338	0.025186	0.000599
1536	7.6750e-01	-18.5321	-41.992374	0.000309	3.090324	1.047030	0.024888
1537	7.6800e-01	-18.5225	-41.953033	0.000098	0.977010	0.331020	0.007868
1538	7.6850e-01	-18.4663	-41.884185	0.000171	1.709767	0.579285	0.013770
1539	7.6900e-01	-18.4150	-41.815337	0.000171	1.709767	0.579285	0.013770
1540	7.6950e-01	-18.3781	-41.713990	0.000252	2.516862	0.852736	0.020269
1541	7.7000e-01	-18.3412	-41.605801	0.000269	2.686776	0.910304	0.021638
1542	7.7050e-01	-18.3027	-41.542940	0.000156	1.561091	0.528912	0.012572
1543	7.7100e-01	-18.2674	-41.465112	0.000193	1.932780	0.654844	0.015566
1544	7.7150e-01	-18.2273	-41.480935	-0.000039	-0.392928	-0.133128	-0.003164
1545	7.7200e-01	-18.1760	-41.314161	0.000414	4.141671	1.403236	0.033355
1546	7.7250e-01	-18.1455	-41.282516	0.000079	0.785856	0.266255	0.006329
1547	7.7300e-01	-18.0941	-41.204261	0.000194	1.943399	0.658442	0.015651
1548	7.7350e-01	-18.0476	-41.120019	0.000209	2.092075	0.708814	0.016848
1549	7.7400e-01	-18.0252	-41.085809	0.000085	0.849574	0.287843	0.006842
1550	7.7450e-01	-17.9722	-41.034066	0.000128	1.284980	0.435363	0.010349
1551	7.7500e-01	-17.9482	-40.916897	0.000291	2.909789	0.985863	0.023434
1552	7.7550e-01	-17.8936	-40.859595	0.000142	1.423036	0.482138	0.011460
1553	7.7600e-01	-17.8760	-40.734728	0.000310	3.100943	1.050628	0.024973
1554	7.7650e-01	-17.8214	-40.652624	0.000204	2.038977	0.690824	0.016421
1555	7.7700e-01	-17.7813	-40.554698	0.000243	2.431904	0.823951	0.019585
1556	7.7750e-01	-17.7316	-40.529468	0.000063	0.626560	0.212284	0.005046
1557	7.7800e-01	-17.7236	-40.471311	0.000144	1.444275	0.489334	0.011631
1558	7.7850e-01	-17.6706	-40.391345	0.000199	1.985878	0.672834	0.015993
1559	7.7900e-01	-17.6353	-40.287432	0.000258	2.580580	0.874324	0.020783
1560	7.7950e-01	-17.5712	-40.260492	0.000067	0.669039	0.226677	0.005388
1561	7.8000e-01	-17.5423	-40.201480	0.000147	1.465514	0.496530	0.011802
1562	7.8050e-01	-17.4877	-40.133060	0.000170	1.699147	0.575687	0.013684
1563	7.8100e-01	-17.4476	-40.008193	0.000310	3.100943	1.050628	0.024973
1564	7.8150e-01	-17.4220	-39.933359	0.000186	1.858442	0.629657	0.014967
1565	7.8200e-01	-17.3963	-39.841419	0.000228	2.283229	0.773579	0.018388
1566	7.8250e-01	-17.3321	-39.853393	-0.000030	-0.297351	-0.100745	-0.002395
1567	7.8300e-01	-17.3049	-39.650698	0.000503	5.033723	1.705472	0.040539
1568	7.8350e-01	-17.2648	-39.626751	0.000059	0.594701	0.201490	0.004789
1569	7.8400e-01	-17.2407	-39.517707	0.000271	2.708016	0.917501	0.021809
1570	7.8450e-01	-17.1878	-39.455701	0.000154	1.539852	0.521716	0.012401
1571	7.8500e-01	-17.1444	-39.330835	0.000310	3.100943	1.050628	0.024973
1572	7.8550e-01	-17.1075	-39.318434	0.000031	0.307970	0.104343	0.002480
1573	7.8600e-01	-17.0562	-39.241461	0.000191	1.911540	0.647647	0.015395
1574	7.8650e-01	-17.0305	-39.137120	0.000259	2.591199	0.877922	0.020868
1575	7.8700e-01	-16.9744	-39.084522	0.000131	1.306219	0.442559	0.010520
1576	7.8750e-01	-16.9776	-38.990873	-0.000233	-2.325708	-0.787971	0.018730
1577	7.8800e-01	-16.9038	-38.975478	0.000038	0.382308	0.129529	0.003079
1578	7.8850e-01	-16.8541	-38.852750	0.000305	3.047845	1.032638	0.024546
1579	7.8900e-01	-16.8092	-38.802717	0.000124	1.242501	0.420971	0.010006
1580	7.8950e-01	-16.7771	-38.657325	0.000361	3.610688	1.223334	0.029079
1581	7.9000e-01	-16.7690	-38.543577	0.000282	2.824832	0.957079	0.022750
1582	7.9050e-01	-16.7049	-38.503380	0.000100	0.998249	0.338216	0.008039
1583	7.9100e-01	-16.6648	-38.448216	0.000137	1.369937	0.464147	0.011033
1584	7.9150e-01	-16.6295	-38.400322	0.000119	1.189403	0.402981	0.009579
1585	7.9200e-01	-16.5733	-38.296409	0.000258	2.580580	0.874324	0.020783
1586	7.9250e-01	-16.5461	-38.174108	0.000304	3.037225	1.029040	0.024460
1587	7.9300e-01	-16.4979	-38.134339	0.000099	0.987629	0.334618	0.007954
1588	7.9350e-01	-16.4562	-38.071906	0.000155	1.550472	0.525314	0.012487
1589	7.9400e-01	-16.4097	-38.047104	0.000062	0.615941	0.208686	0.004960
1590	7.9450e-01	-16.3872	-37.885034	0.000402	4.024855	1.363658	0.032414
1591	7.9500e-01	-16.3359	-37.837995	0.000117	1.168164	0.395785	0.009408
1592	7.9550e-01	-16.3022	-37.783259	0.000136	1.359318	0.460549	0.010947
1593	7.9600e-01	-16.2445	-37.755463	0.000069	0.690279	0.233873	0.005559
1594	7.9650e-01	-16.2268	-37.640004	0.000287	2.867311	0.971471	0.023092
1595	7.9700e-01	-16.1723	-37.531387	0.000270	2.697396	0.913903	0.021723
1596	7.9750e-01	-16.1482	-37.464250	0.000167	1.667288	0.564892	0.013427
1597	7.9800e-01	-16.1001	-37.365896	0.000244	2.442524	0.827550	0.019671
1598	7.9850e-01	-16.0776	-37.231195	0.000335	3.345196	1.133383	0.026940
1599	7.9900e-01	-16.0167	-37.293628	-0.000155	-1.550472	-0.525314	-0.012487
1600	7.9950e-01	-15.9814	-37.164913	0.000320	3.196520	1.083010	0.025743
1601	8.0000e-01	-15.9525	-37.031494	0.000331	3.313337	1.122589	0.026684
1602	8.0050e-01	-15.9140	-37.020375	0.000028	0.276111	0.093549	0.002224
1603	8.0100e-01	-15.8675	-36.928008	0.000229	2.293849	0.777177	0.018473
1604	8.0150e-01	-15.8161	-36.913041	0.000037	0.371688	0.125931	0.002993
1605	8.0200e-01	-15.7568	-36.815970	0.000241	2.410665	0.816755	0.019414
1606	8.0250e-01	-15.7552	-36.654756	0.000400	4.003615	1.356462	0.032243
1607	8.0300e-01	-15.7135	-36.656894	-0.000005	-0.053098	-0.017990	-0.000428
1608	8.0350e-01	-15.6605	-36.543145	0.000282	2.824832	0.957079	0.022750
1609	8.0400e-01	-15.6429	-36.445647	0.000242	2.421285	0.820353	0.019500
1610	8.0450e-01	-15.5787	-36.414858	0.000076	0.764616	0.259059	0.006158
1611	8.0500e-01	-15.5530	-36.254498	0.000398	3.982376	1.349266	0.032072
1612	8.0550e-01	-15.4953	-36.207887	0.000116	1.157544	0.392187	0.009322
1613	8.0600e-01	-15.4648	-36.183085	0.000062	0.615941	0.208686	0.004960
1614	8.0650e-01	-15.4311	-36.026574	0.000389	3.886799	1.316883	0.031302
1615	8.0700e-01	-15.3686	-35.988088	0.000096	0.955770	0.323824	0.007697
1616	8.0750e-01	-15.3317	-35.908550	0.000198	1.975258	0.669236	0.015908
1617	8.0800e-01	-15.2948	-35.783683	0.000310	3.100943	1.050628	0.024973
1618	8.0850e-01	-15.2466	-35.776841	0.000017	0.169915	0.057569	0.001368
1619	8.0900e-01	-15.2274	-35.679342	0.000242	2.421285	0.820353	0.019500
1620	8.0950e-01	-15.1776	-35.572008	0.000267	2.665537	0.903108	0.021467
1621	8.1000e-01	-15.1536	-35.493753	0.000194	1.943399	0.658442	0.015651
1622	8.1050e-01	-15.1006	-35.432603	0.000152	1.518613	0.514520	0.012230
1623	8.1100e-01	-15.0509	-35.332111	0.000250	2.495622	0.845540	0.020098
1624	8.1150e-01	-15.0365	-35.249151	0.000206	2.060216	0.698020	0.016592
1625	8.1200e-01	-14.9819	-35.269677	-0.000051	-0.509744	-0.172706	-0.004105
1626	8.1250e-01	-14.9226	-35.154219	0.000287	2.867311	0.971471	0.023092
1627	8.1300e-01	-14.9210	-35.076391	0.000193	1.932780	0.654844	0.015566
1628	8.1350e-01	-14.8424	-35.004122	0.000179	1.794724	0.608069	0.014454
1629	8.1400e-01	-14.7974	-34.854453	0.000372	3.716884	1.259314	0.029934
1630	8.1450e-01	-14.7718	-34.832644	0.000054	0.541603	0.183500	0.004362
1631	8.1500e-01	-14.7686	-34.717186	0.000287	2.867311	0.971471	0.023092
1632	8.1550e-01	-14.6916	-34.688962	0.000070	0.700898	0.237471	0.005645
1633	8.1600e-01	-14.6755	-34.547846	0.000350	3.504491	1.187354	0.028223
1634	8.1650e-01	-14.6162	-34.516202	0.000079	0.785856	0.266255	0.006329
1635	8.1700e-01	-14.5841	-34.453341	0.000156	1.561091	0.528912	0.012572
1636	8.1750e-01	-14.5311	-34.381927	0.000177	1.773485	0.600873	0.014283
1637	8.1800e-01	-14.5103	-34.242949	0.000345	3.451393	1.169363	0.027796
1638	8.1850e-01	-14.4830	-34.193345	0.000123	1.231882	0.417373	0.009921
1639	8.1900e-01	-14.4108	-34.064202	0.000321	3.207140	1.086608	0.025829
1640	8.1950e-01	-14.3755	-34.024860	0.000098	0.977010	0.331020	0.007868
1641	8.2000e-01	-14.3434	-34.017591	0.000018	0.180534	0.061167	0.001454
1642	8.2050e-01	-14.2905	-33.880751	0.000340	3.398294	1.151373	0.027368
1643	8.2100e-01	-14.2568	-33.782397	0.000244	2.442524	0.827550	0.019671
1644	8.2150e-01	-14.2504	-33.701148	0.000202	2.017737	0.683628	0.016250
1645	8.2200e-01	-14.1670	-33.641280	0.000149	1.486754	0.503726	0.011974
1646	8.2250e-01	-14.1445	-33.510427	0.000325	3.249619	1.101001	0.026171
1647	8.2300e-01	-14.1092	-33.434737	0.000188	1.879681	0.636853	0.015138
1648	8.2350e-01	-14.0836	-33.394968	0.000099	0.987629	0.334618	0.007954
1649	8.2400e-01	-14.0306	-33.284213	0.000275	2.750494	0.931893	0.022151
1650	8.2450e-01	-14.0130	-33.293621	-0.000023	-0.233633	-0.079157	-0.001882
1651	8.2500e-01	-13.9408	-33.188853	0.000260	2.601819	0.881520	0.020954
1652	8.2550e-01	-13.9007	-33.033625	0.000385	3.854940	1.306089	0.031046
1653	8.2600e-01	-13.8574	-32.940403	0.000232	2.315088	0.784373	0.018644
1654	8.2650e-01	-13.8205	-32.941685	-0.000003	-0.031859	-0.010794	-0.000257
1655	8.2700e-01	-13.7547	-32.963922	-0.000055	-0.552223	-0.187098	-0.004447
1656	8.2750e-01	-13.7563	-32.711623	-0.000627	-6.265605	-2.122844	0.050460
1657	8.2800e-01	-13.7082	-32.685965	0.000064	0.637180	0.215882	0.005132
1658	8.2850e-01	-13.6456	-32.608993	0.000191	1.911540	0.647647	0.015395
1659	8.2900e-01	-13.6103	-32.547415	0.000153	1.529232	0.518118	0.012316
1660	8.2950e-01	-13.5830	-32.395180	0.000378	3.780602	1.280903	0.030447
1661	8.3000e-01	-13.5221	-32.352845	0.000105	1.051347	0.356206	0.008467
1662	8.3050e-01	-13.5028	-32.274590	0.000194	1.943399	0.658442	0.015651
1663	8.3100e-01	-13.4515	-32.217716	0.000141	1.412416	0.478540	0.011375
1664	8.3150e-01	-13.4002	-32.106533	0.000276	2.761114	0.935491	0.022237
1665	8.3200e-01	-13.3889	-32.038541	0.000169	1.688527	0.572089	0.013598
1666	8.3250e-01	-13.3392	-31.941470	0.000241	2.410665	0.816755	0.019414
1667	8.3300e-01	-13.2959	-31.869629	0.000178	1.784104	0.604471	0.014368
1668	8.3350e-01	-13.2686	-31.741769	0.000318	3.175281	1.075814	0.025572
1669	8.3400e-01	-13.2189	-31.719532	0.000055	0.552223	0.187098	0.004447
1670	8.3450e-01	-13.1691	-31.694730	0.000062	0.615941	0.208686	0.004960
1671	8.3500e-01	-13.1242	-31.513845	0.000449	4.492120	1.521971	0.036177
1672	8.3550e-01	-13.0937	-31.517266	-0.000008	-0.084957	-0.028784	-0.000684
1673	8.3600e-01	-13.0472	-31.418057	0.000246	2.463763	0.834746	0.019842
1674	8.3650e-01	-13.0200	-31.310723	0.000267	2.665537	0.903108	0.021467
1675	8.3700e-01	-12.9782	-31.266677	0.000109	1.093826	0.370598	0.008809
1676	8.3750e-01	-12.9141	-31.167468	0.000246	2.463763	0.834746	0.019842
1677	8.3800e-01	-12.9044	-31.070397	0.000241	2.410665	0.816755	0.019414
1678	8.3850e-01	-12.8676	-30.964346	0.000263	2.633678	0.892314	0.021210
1679	8.3900e-01	-12.8563	-30.814250	0.000373	3.727504	1.262913	0.030019
1680	8.3950e-01	-12.7793	-30.869841	-0.000138	-1.380557	-0.467745	-0.011118
1681	8.4000e-01	-12.7553	-30.698363	0.000426	4.258487	1.442815	0.034296
1682	8.4050e-01	-12.7135	-30.679548	0.000047	0.467265	0.158314	0.003763
1683	8.4100e-01	-12.6606	-30.597444	0.000204	2.038977	0.690824	0.016421
1684	8.4150e-01	-12.6398	-30.423400	0.000432	4.322205	1.464403	0.034809
1685	8.4200e-01	-12.5692	-30.420407	0.000007	0.074338	0.025186	0.000599
1686	8.4250e-01	-12.5483	-30.333599	0.000216	2.155793	0.730402	0.017362
1687	8.4300e-01	-12.4970	-30.289981	0.000108	1.083206	0.367000	0.008724
1688	8.4350e-01	-12.4761	-30.213436	0.000190	1.900921	0.644049	0.015309
1689	8.4400e-01	-12.3975	-30.041531	0.000427	4.269107	1.446413	0.034381
1690	8.4450e-01	-12.3879	-30.000479	0.000102	1.019488	0.345412	0.008210
1691	8.4500e-01	-12.3526	-29.894428	0.000263	2.633678	0.892314	0.021210
1692	8.4550e-01	-12.3029	-29.920085	-0.000064	-0.637180	-0.215882	-0.005132
1693	8.4600e-01	-12.2579	-29.805054	0.000286	2.856691	0.967873	0.023006
1694	8.4650e-01	-12.2307	-29.663510	0.000352	3.515111	1.190952	0.028309
1695	8.4700e-01	-12.1938	-29.554038	0.000272	2.718635	0.921099	0.021894
1696	8.4750e-01	-12.1601	-29.500585	0.000133	1.327459	0.449755	0.010691
1697	8.4800e-01	-12.0943	-29.457395	0.000107	1.072587	0.363402	0.008638
1698	8.4850e-01	-12.0654	-29.335521	0.000303	3.026606	1.025442	0.024375
1699	8.4900e-01	-12.0189	-29.213648	0.000303	3.026606	1.025442	0.024375
1700	8.4950e-01	-11.9820	-29.218352	-0.000012	-0.116816	-0.039578	-0.000941
1701	8.5000e-01	-11.9499	-29.069111	0.000371	3.706265	1.255716	0.029848
1702	8.5050e-01	-11.9066	-29.032763	0.000090	0.902672	0.305834	0.007270
1703	8.5100e-01	-11.8424	-28.963487	0.000172	1.720386	0.582883	0.013855
1704	8.5150e-01	-11.8184	-28.885660	0.000193	1.932780	0.654844	0.015566
1705	8.5200e-01	-11.7927	-28.722734	0.000405	4.046094	1.370854	0.032585
1706	8.5250e-01	-11.7606	-28.761221	-0.000096	-0.955770	-0.323824	-0.007697
1707	8.5300e-01	-11.6981	-28.637637	0.000307	3.069084	1.039834	0.024717
1708	8.5350e-01	-11.6483	-28.549546	0.000219	2.187652	0.741197	0.017618
1709	8.5400e-01	-11.6467	-28.444350	0.000261	2.612439	0.885118	0.021039
1710	8.5450e-01	-11.5777	-28.354977	0.000222	2.219511	0.751991	0.017875
1711	8.5500e-01	-11.5473	-28.344714	0.000025	0.254872	0.086353	0.002053
1712	8.5550e-01	-11.4975	-28.221985	0.000305	3.047845	1.032638	0.024546
1713	8.5600e-01	-11.4735	-28.133894	0.000219	2.187652	0.741197	0.017618
1714	8.5650e-01	-11.4093	-28.052646	0.000202	2.017737	0.683628	0.016250
1715	8.5700e-01	-11.3868	-27.942318	0.000274	2.739875	0.928295	0.022065
1716	8.5750e-01	-11.3371	-27.882451	0.000149	1.486754	0.503726	0.011974
1717	8.5800e-01	-11.3147	-27.809754	0.000181	1.805344	0.611667	0.014539
1718	8.5850e-01	-11.2617	-27.749032	0.000151	1.507993	0.510922	0.012145
1719	8.5900e-01	-11.2216	-27.584396	0.000409	4.088573	1.385246	0.032927
1720	8.5950e-01	-11.1975	-27.540351	0.000109	1.093826	0.370598	0.008809
1721	8.6000e-01	-11.1590	-27.467654	0.000181	1.805344	0.611667	0.014539
1722	8.6050e-01	-11.0772	-27.439859	0.000069	0.690279	0.233873	0.005559
1723	8.6100e-01	-11.0836	-27.296604	-0.000356	-3.557589	-1.205344	0.028651
1724	8.6150e-01	-11.0275	-27.181573	0.000286	2.856691	0.967873	0.023006
1725	8.6200e-01	-10.9762	-27.191836	-0.000025	-0.254872	-0.086353	-0.002053
1726	8.6250e-01	-10.9457	-27.072956	0.000295	2.952268	1.000255	0.023776
1727	8.6300e-01	-10.8943	-27.013516	0.000148	1.476134	0.500128	0.011888
1728	8.6350e-01	-10.8735	-26.876676	0.000340	3.398294	1.151373	0.027368
1729	8.6400e-01	-10.8318	-26.815526	0.000152	1.518613	0.514520	0.012230
1730	8.6450e-01	-10.7981	-26.731711	0.000208	2.081455	0.705216	0.016763
1731	8.6500e-01	-10.7419	-26.610693	0.000301	3.005366	1.018246	0.024204
1732	8.6550e-01	-10.7275	-26.502932	0.000268	2.676157	0.906706	0.021552
1733	8.6600e-01	-10.6681	-26.471287	0.000079	0.785856	0.266255	0.006329
1734	8.6650e-01	-10.5976	-26.434512	0.000091	0.913292	0.309432	0.007355
1735	8.6700e-01	-10.5815	-26.294251	0.000348	3.483252	1.180158	0.028052
1736	8.6750e-01	-10.5093	-26.236949	0.000142	1.423036	0.482138	0.011460
1737	8.6800e-01	-10.5013	-26.144154	0.000230	2.304468	0.780775	0.018559
1738	8.6850e-01	-10.4805	-25.991919	0.000378	3.780602	1.280903	0.030447
1739	8.6900e-01	-10.4147	-26.009880	-0.000045	-0.446026	-0.151118	-0.003592
1740	8.6950e-01	-10.3537	-25.928631	0.000202	2.017737	0.683628	0.016250
1741	8.7000e-01	-10.3361	-25.857645	0.000176	1.762865	0.597275	0.014197
1742	8.7050e-01	-10.3184	-25.737055	0.000299	2.994747	1.014648	0.024118
1743	8.7100e-01	-10.2719	-25.671628	0.000162	1.624809	0.550500	0.013085
1744	8.7150e-01	-10.2302	-25.590807	0.000201	2.007117	0.680030	0.016164
1745	8.7200e-01	-10.1917	-25.437717	0.000380	3.801842	1.288099	0.030618
1746	8.7250e-01	-10.1468	-25.403935	0.000084	0.838954	0.284245	0.006756
1747	8.7300e-01	-10.0906	-25.329100	0.000186	1.858442	0.629657	0.014967
1748	8.7350e-01	-10.0890	-25.209365	0.000297	2.973507	1.007452	0.023947
1749	8.7400e-01	-10.0184	-25.217918	-0.000021	-0.212393	-0.071961	-0.001711
1750	8.7450e-01	-9.9960	-25.054565	0.000406	4.056714	1.374452	0.032671
1751	8.7500e-01	-9.9270	-24.988711	0.000164	1.635429	0.554098	0.013171
1752	8.7550e-01	-9.9045	-24.896343	0.000229	2.293849	0.777177	0.018473
1753	8.7600e-01	-9.8468	-24.849732	0.000116	1.157544	0.392187	0.009322
1754	8.7650e-01	-9.8436	-24.639341	0.000522	5.224877	1.770236	0.042078
1755	8.7700e-01	-9.7842	-24.697925	-0.000145	-1.454895	-0.492932	-0.011717
1756	8.7750e-01	-9.7473	-24.467435	0.000572	5.724002	1.939344	0.046098
1757	8.7800e-01	-9.7184	-24.442205	0.000063	0.626560	0.212284	0.005046
1758	8.7850e-01	-9.6623	-24.378489	0.000158	1.582331	0.536108	0.012743
1759	8.7900e-01	-9.6110	-24.338293	0.000100	0.998249	0.338216	0.008039
1760	8.7950e-01	-9.5917	-24.185630	0.000379	3.791222	1.284501	0.030532
1761	8.8000e-01	-9.5516	-24.142013	0.000108	1.083206	0.367000	0.008724
1762	8.8050e-01	-9.4858	-24.056060	0.000213	2.134554	0.723206	0.017191
1763	8.8100e-01	-9.4441	-23.990206	0.000164	1.635429	0.554098	0.013171
1764	8.8150e-01	-9.4185	-23.912378	0.000193	1.932780	0.654844	0.015566
1765	8.8200e-01	-9.3864	-23.786228	0.000313	3.132802	1.061422	0.025230
1766	8.8250e-01	-9.3479	-23.688302	0.000243	2.431904	0.823951	0.019585
1767	8.8300e-01	-9.3126	-23.604488	0.000208	2.081455	0.705216	0.016763
1768	8.8350e-01	-9.2660	-23.505278	0.000246	2.463763	0.834746	0.019842
1769	8.8400e-01	-9.2067	-23.528370	-0.000057	-0.573462	-0.194294	-0.004618
1770	8.8450e-01	-9.1794	-23.348768	0.000446	4.460261	1.511177	0.035921
1771	8.8500e-01	-9.1441	-23.314985	0.000084	0.838954	0.284245	0.006756
1772	8.8550e-01	-9.1377	-23.226039	0.000221	2.208891	0.748393	0.017789
1773	8.8600e-01	-9.0559	-23.110153	0.000288	2.877930	0.975069	0.023177
1774	8.8650e-01	-9.0254	-23.041305	0.000171	1.709767	0.579285	0.013770
1775	8.8700e-01	-8.9645	-23.005812	0.000088	0.881433	0.298637	0.007099
1776	8.8750e-01	-8.9404	-22.885649	0.000298	2.984127	1.011050	0.024033
1777	8.8800e-01	-8.8939	-22.838611	0.000117	1.168164	0.395785	0.009408
1778	8.8850e-01	-8.8506	-22.791572	0.000117	1.168164	0.395785	0.009408
1779	8.8900e-01	-8.8265	-22.661574	0.000323	3.228379	1.093805	0.026000
1780	8.8950e-01	-8.7784	-22.539273	0.000304	3.037225	1.029040	0.024460
1781	8.9000e-01	-8.7511	-22.487958	0.000127	1.274360	0.431765	0.010263
1782	8.9050e-01	-8.6965	-22.392170	0.000238	2.378806	0.805961	0.019158
1783	8.9100e-01	-8.6516	-22.272862	0.000296	2.962888	1.003854	0.023861
1784	8.9150e-01	-8.6163	-22.189048	0.000208	2.081455	0.705216	0.016763
1785	8.9200e-01	-8.5875	-22.069740	0.000296	2.962888	1.003854	0.023861
1786	8.9250e-01	-8.5281	-22.050070	0.000049	0.488505	0.165510	0.003934
1787	8.9300e-01	-8.4816	-22.011156	0.000097	0.966390	0.327422	0.007783
1788	8.9350e-01	-8.4511	-21.829843	0.000450	4.502740	1.525570	0.036263
1789	8.9400e-01	-8.4463	-21.757146	0.000181	1.805344	0.611667	0.014539
1790	8.9450e-01	-8.3853	-21.677180	0.000199	1.985878	0.672834	0.015993
1791	8.9500e-01	-8.3308	-21.670766	0.000016	0.159295	0.053971	0.001283
1792	8.9550e-01	-8.3003	-21.525373	0.000361	3.610688	1.223334	0.029079
1793	8.9600e-01	-8.2762	-21.434717	0.000225	2.251370	0.762785	0.018131
1794	8.9650e-01	-8.2201	-21.383402	0.000127	1.274360	0.431765	0.010263
1795	8.9700e-01	-8.1864	-21.312416	0.000176	1.762865	0.597275	0.014197
1796	8.9750e-01	-8.1575	-21.151629	0.000399	3.992996	1.352864	0.032157
1797	8.9800e-01	-8.1158	-21.087913	0.000158	1.582331	0.536108	0.012743
1798	8.9850e-01	-8.0677	-20.927553	0.000398	3.982376	1.349266	0.032072
1799	8.9900e-01	-8.0292	-20.884791	0.000106	1.061967	0.359804	0.008553
1800	8.9950e-01	-7.9586	-20.794134	0.000225	2.251370	0.762785	0.018131
1801	9.0000e-01	-7.9393	-20.753937	0.000100	0.998249	0.338216	0.008039
1802	9.0050e-01	-7.9041	-20.635913	0.000293	2.931029	0.993059	0.023605
1803	9.0100e-01	-7.8800	-20.526013	0.000273	2.729255	0.924697	0.021980
1804	9.0150e-01	-7.8206	-20.465290	0.000151	1.507993	0.510922	0.012145
1805	9.0200e-01	-7.7789	-20.399864	0.000162	1.624809	0.550500	0.013085
1806	9.0250e-01	-7.7340	-20.315194	0.000210	2.102695	0.712412	0.016934
1807	9.0300e-01	-7.7019	-20.213847	0.000252	2.516862	0.852736	0.020269
1808	9.0350e-01	-7.6554	-20.166380	0.000118	1.178783	0.399383	0.009493
1809	9.0400e-01	-7.6233	-20.035099	0.000326	3.260238	1.104599	0.026256
1810	9.0450e-01	-7.5720	-19.976515	0.000145	1.454895	0.492932	0.011717
1811	9.0500e-01	-7.5431	-19.909805	0.000166	1.656668	0.561294	0.013342
1812	9.0550e-01	-7.5303	-19.757143	0.000379	3.791222	1.284501	0.030532
1813	9.0600e-01	-7.4741	-19.752439	0.000012	0.116816	0.039578	0.000941
1814	9.0650e-01	-7.4180	-19.638263	0.000284	2.835452	0.960677	0.022835
1815	9.0700e-01	-7.3811	-19.563856	0.000185	1.847822	0.626059	0.014881
1816	9.0750e-01	-7.3346	-19.456950	0.000265	2.654917	0.899510	0.021381
1817	9.0800e-01	-7.3105	-19.320110	0.000340	3.398294	1.151373	0.027368
1818	9.0850e-01	-7.2688	-19.291459	0.000071	0.711518	0.241069	0.005730
1819	9.0900e-01	-7.2207	-19.193533	0.000243	2.431904	0.823951	0.019585
1820	9.0950e-01	-7.1822	-19.066100	0.000316	3.164661	1.072216	0.025486
1821	9.1000e-01	-7.1196	-19.068666	-0.000006	-0.063718	-0.021588	-0.000513
1822	9.1050e-01	-7.0891	-18.967319	0.000252	2.516862	0.852736	0.020269
1823	9.1100e-01	-7.0618	-18.848867	0.000294	2.941648	0.996657	0.023690
1824	9.1150e-01	-7.0089	-18.746237	0.000255	2.548721	0.863530	0.020526
1825	9.1200e-01	-7.0009	-18.659001	0.000217	2.166413	0.734000	0.017447
1826	9.1250e-01	-6.9287	-18.594002	0.000161	1.614190	0.546902	0.013000
1827	9.1300e-01	-6.9062	-18.503773	0.000224	2.240750	0.759187	0.018046
1828	9.1350e-01	-6.8806	-18.359664	0.000358	3.578829	1.212540	0.028822
1829	9.1400e-01	-6.8084	-18.339138	0.000051	0.509744	0.172706	0.004105
1830	9.1450e-01	-6.7923	-18.245060	0.000234	2.336327	0.791569	0.018816
1831	9.1500e-01	-6.7602	-18.145851	0.000246	2.463763	0.834746	0.019842
1832	9.1550e-01	-6.6913	-18.108648	0.000092	0.923911	0.313030	0.007441
1833	9.1600e-01	-6.6495	-17.976084	0.000329	3.292097	1.115393	0.026513
1834	9.1650e-01	-6.6239	-17.938880	0.000092	0.923911	0.313030	0.007441
1835	9.1700e-01	-6.5870	-17.808882	0.000323	3.228379	1.093805	0.026000
1836	9.1750e-01	-6.5405	-17.686581	0.000304	3.037225	1.029040	0.024460
1837	9.1800e-01	-6.5052	-17.640825	0.000114	1.136305	0.384990	0.009151
1838	9.1850e-01	-6.4795	-17.499281	0.000352	3.515111	1.190952	0.028309
1839	9.1900e-01	-6.4185	-17.418888	0.000200	1.996498	0.676432	0.016079
1840	9.1950e-01	-6.4314	-17.232016	-0.000464	-4.640795	-1.572344	0.037374
1841	9.2000e-01	-6.3415	-17.289745	-0.000143	-1.433655	-0.485736	-0.011546
1842	9.2050e-01	-6.2966	-17.230733	0.000147	1.465514	0.496530	0.011802
1843	9.2100e-01	-6.2645	-17.065242	0.000411	4.109812	1.392442	0.033098
1844	9.2150e-01	-6.2340	-17.063959	0.000003	0.031859	0.010794	0.000257
1845	9.2200e-01	-6.1859	-16.958763	0.000261	2.612439	0.885118	0.021039
1846	9.2250e-01	-6.1538	-16.852284	0.000264	2.644298	0.895912	0.021296
1847	9.2300e-01	-6.0929	-16.793700	0.000145	1.454895	0.492932	0.011717
1848	9.2350e-01	-6.0768	-16.678241	0.000287	2.867311	0.971471	0.023092
1849	9.2400e-01	-6.0271	-16.624788	0.000133	1.327459	0.449755	0.010691
1850	9.2450e-01	-5.9822	-16.468277	0.000389	3.886799	1.316883	0.031302
1851	9.2500e-01	-5.9373	-16.395581	0.000181	1.805344	0.611667	0.014539
1852	9.2550e-01	-5.9020	-16.334003	0.000153	1.529232	0.518118	0.012316
1853	9.2600e-01	-5.8603	-16.274990	0.000147	1.465514	0.496530	0.011802
1854	9.2650e-01	-5.8057	-16.198873	0.000189	1.890301	0.640451	0.015223
1855	9.2700e-01	-5.7768	-16.032954	0.000412	4.120432	1.396040	0.033184
1856	9.2750e-01	-5.7480	-15.983778	0.000122	1.221262	0.413775	0.009835
1857	9.2800e-01	-5.6998	-15.873023	0.000275	2.750494	0.931893	0.022151
1858	9.2850e-01	-5.6373	-15.833253	0.000099	0.987629	0.334618	0.007954
1859	9.2900e-01	-5.6421	-15.647664	-0.000461	-4.608936	-1.561550	0.037118
1860	9.2950e-01	-5.5699	-15.664341	-0.000041	-0.414167	-0.140324	-0.003335
1861	9.3000e-01	-5.5571	-15.475331	0.000469	4.693894	1.590334	0.037802
1862	9.3050e-01	-5.5025	-15.440266	0.000087	0.870813	0.295039	0.007013
1863	9.3100e-01	-5.4351	-15.447963	-0.000019	-0.191154	-0.064765	-0.001539
1864	9.3150e-01	-5.4432	-15.185829	-0.000651	-6.509857	-2.205599	0.052427
1865	9.3200e-01	-5.3822	-15.172145	0.000034	0.339829	0.115137	0.002737
1866	9.3250e-01	-5.3228	-15.161026	0.000028	0.276111	0.093549	0.002224
1867	9.3300e-01	-5.2892	-14.969023	0.000477	4.768232	1.615521	0.038401
1868	9.3350e-01	-5.2507	-14.942938	0.000065	0.647800	0.219481	0.005217
1869	9.3400e-01	-5.2057	-14.921984	0.000052	0.520364	0.176304	0.004191
1870	9.3450e-01	-5.1993	-14.722283	0.000496	4.959386	1.680285	0.039940
1871	9.3500e-01	-5.1143	-14.630344	0.000228	2.283229	0.773579	0.018388
1872	9.3550e-01	-5.1223	-14.491793	-0.000344	-3.440773	-1.165765	0.027710
1873	9.3600e-01	-5.0662	-14.506332	-0.000036	-0.361069	-0.122333	-0.002908
1874	9.3650e-01	-5.0373	-14.351532	0.000384	3.844320	1.302491	0.030960
1875	9.3700e-01	-4.9972	-14.224100	0.000316	3.164661	1.072216	0.025486
1876	9.3750e-01	-4.9426	-14.234790	-0.000027	-0.265492	-0.089951	-0.002138
1877	9.3800e-01	-4.9009	-14.142423	0.000229	2.293849	0.777177	0.018473
1878	9.3850e-01	-4.8480	-14.104792	0.000093	0.934531	0.316628	0.007526
1879	9.3900e-01	-4.8271	-13.999169	0.000262	2.623058	0.888716	0.021125
1880	9.3950e-01	-4.7967	-13.820849	0.000443	4.428402	1.500383	0.035664
1881	9.4000e-01	-4.7453	-13.762264	0.000145	1.454895	0.492932	0.011717
1882	9.4050e-01	-4.6860	-13.694272	0.000169	1.688527	0.572089	0.013598
1883	9.4100e-01	-4.6763	-13.583944	0.000274	2.739875	0.928295	0.022065
1884	9.4150e-01	-4.6186	-13.523222	0.000151	1.507993	0.510922	0.012145
1885	9.4200e-01	-4.5961	-13.391513	0.000327	3.270858	1.108197	0.026342
1886	9.4250e-01	-4.5624	-13.302139	0.000222	2.219511	0.751991	0.017875
1887	9.4300e-01	-4.4902	-13.220891	0.000202	2.017737	0.683628	0.016250
1888	9.4350e-01	-4.4550	-13.193950	0.000067	0.669039	0.226677	0.005388
1889	9.4400e-01	-4.4100	-13.086189	0.000268	2.676157	0.906706	0.021552
1890	9.4450e-01	-4.4004	-12.909579	0.000439	4.385923	1.485991	0.035322
1891	9.4500e-01	-4.3250	-12.918132	-0.000021	-0.212393	-0.071961	-0.001711
1892	9.4550e-01	-4.3090	-12.812508	0.000262	2.623058	0.888716	0.021125
1893	9.4600e-01	-4.2945	-12.645735	0.000414	4.141671	1.403236	0.033355
1894	9.4650e-01	-4.2384	-12.601262	0.000110	1.104446	0.374196	0.008895
1895	9.4700e-01	-4.1887	-12.595275	0.000015	0.148675	0.050373	0.001197
1896	9.4750e-01	-4.1373	-12.469125	0.000313	3.132802	1.061422	0.025230
1897	9.4800e-01	-4.1309	-12.322022	0.000365	3.653166	1.237726	0.029421
1898	9.4850e-01	-4.0651	-12.269852	0.000130	1.295600	0.438961	0.010434
1899	9.4900e-01	-4.0266	-12.217254	0.000131	1.306219	0.442559	0.010520
1900	9.4950e-01	-4.0010	-12.032092	0.000460	4.598317	1.557952	0.037032
1901	9.5000e-01	-3.9223	-12.058605	-0.000066	-0.658419	-0.223079	-0.005303
1902	9.5050e-01	-3.9175	-11.852917	0.000511	5.108061	1.730658	0.041138
1903	9.5100e-01	-3.8903	-11.823839	0.000072	0.722138	0.244667	0.005816
1904	9.5150e-01	-3.8133	-11.741307	0.000205	2.049596	0.694422	0.016506
1905	9.5200e-01	-3.7860	-11.599763	0.000352	3.515111	1.190952	0.028309
1906	9.5250e-01	-3.7234	-11.541179	0.000145	1.454895	0.492932	0.011717
1907	9.5300e-01	-3.7042	-11.464206	0.000191	1.911540	0.647647	0.015395
1908	9.5350e-01	-3.6897	-11.363286	0.000251	2.506242	0.849138	0.020184
1909	9.5400e-01	-3.6191	-11.294439	0.000171	1.709767	0.579285	0.013770
1910	9.5450e-01	-3.5710	-11.221742	0.000181	1.805344	0.611667	0.014539
1911	9.5500e-01	-3.5502	-11.079771	0.000353	3.525730	1.194550	0.028394
1912	9.5550e-01	-3.5069	-10.998950	0.000201	2.007117	0.680030	0.016164
1913	9.5600e-01	-3.4651	-10.919411	0.000198	1.975258	0.669236	0.015908
1914	9.5650e-01	-3.4411	-10.872373	0.000117	1.168164	0.395785	0.009408
1915	9.5700e-01	-3.3865	-10.747078	0.000311	3.111563	1.054226	0.025059
1916	9.5750e-01	-3.3352	-10.667540	0.000198	1.975258	0.669236	0.015908
1917	9.5800e-01	-3.3288	-10.549943	0.000292	2.920409	0.989461	0.023519
1918	9.5850e-01	-3.2646	-10.493924	0.000139	1.391177	0.471343	0.011204
1919	9.5900e-01	-3.2406	-10.308762	0.000460	4.598317	1.557952	0.037032
1920	9.5950e-01	-3.1732	-10.290802	0.000045	0.446026	0.151118	0.003592
1921	9.6000e-01	-3.1266	-10.246757	0.000109	1.093826	0.370598	0.008809
1922	9.6050e-01	-3.0946	-10.072713	0.000432	4.322205	1.464403	0.034809
1923	9.6100e-01	-3.0448	-10.009425	0.000157	1.571711	0.532510	0.012658
1924	9.6150e-01	-3.0496	-9.881992	-0.000316	-3.164661	-1.072216	0.025486
1925	9.6200e-01	-2.9887	-9.889690	-0.000019	-0.191154	-0.064765	-0.001539
1926	9.6250e-01	-2.9325	-9.745580	0.000358	3.578829	1.212540	0.028822
1927	9.6300e-01	-2.9117	-9.649792	0.000238	2.378806	0.805961	0.019158
1928	9.6350e-01	-2.8652	-9.585221	0.000160	1.603570	0.543304	0.012914
1929	9.6400e-01	-2.8122	-9.478742	0.000264	2.644298	0.895912	0.021296
1930	9.6450e-01	-2.7994	-9.379533	0.000246	2.463763	0.834746	0.019842
1931	9.6500e-01	-2.7432	-9.297001	0.000205	2.049596	0.694422	0.016506
1932	9.6550e-01	-2.6983	-9.247824	0.000122	1.221262	0.413775	0.009835
1933	9.6600e-01	-2.6791	-9.119109	0.000320	3.196520	1.083010	0.025743
1934	9.6650e-01	-2.6261	-9.046413	0.000181	1.805344	0.611667	0.014539
1935	9.6700e-01	-2.5860	-8.920263	0.000313	3.132802	1.061422	0.025230
1936	9.6750e-01	-2.5507	-8.864672	0.000138	1.380557	0.467745	0.011118
1937	9.6800e-01	-2.5395	-8.681221	0.000456	4.555838	1.543560	0.036690
1938	9.6850e-01	-2.4625	-8.661122	0.000050	0.499124	0.169108	0.004020
1939	9.6900e-01	-2.4320	-8.571749	0.000222	2.219511	0.751991	0.017875
1940	9.6950e-01	-2.3839	-8.541815	0.000074	0.743377	0.251863	0.005987
1941	9.7000e-01	-2.3358	-8.350239	0.000476	4.757612	1.611923	0.038315
1942	9.7050e-01	-2.3053	-8.285667	0.000160	1.603570	0.543304	0.012914
1943	9.7100e-01	-2.2572	-8.214682	0.000176	1.762865	0.597275	0.014197
1944	9.7150e-01	-2.2138	-8.151821	0.000156	1.561091	0.528912	0.012572
1945	9.7200e-01	-2.2026	-8.047052	0.000260	2.601819	0.881520	0.020954
1946	9.7250e-01	-2.1096	-7.991461	0.000138	1.380557	0.467745	0.011118
1947	9.7300e-01	-2.1128	-7.858897	-0.000329	-3.292097	-1.115393	0.026513
1948	9.7350e-01	-2.0695	-7.704952	0.000382	3.823081	1.295295	0.030789
1949	9.7400e-01	-2.0117	-7.669887	0.000087	0.870813	0.295039	0.007013
1950	9.7450e-01	-1.9860	-7.578375	0.000227	2.272609	0.769981	0.018302
1951	9.7500e-01	-1.9748	-7.471469	0.000265	2.654917	0.899510	0.021381
1952	9.7550e-01	-1.9138	-7.391075	0.000200	1.996498	0.676432	0.016079
1953	9.7600e-01	-1.8625	-7.319234	0.000178	1.784104	0.604471	0.014368
1954	9.7650e-01	-1.8144	-7.225584	0.000233	2.325708	0.787971	0.018730
1955	9.7700e-01	-1.7919	-7.133217	0.000229	2.293849	0.777177	0.018473
1956	9.7750e-01	-1.7438	-7.073777	0.000148	1.476134	0.500128	0.011888
1957	9.7800e-01	-1.7085	-6.954042	0.000297	2.973507	1.007452	0.023947
1958	9.7850e-01	-1.6572	-6.888616	0.000162	1.624809	0.550500	0.013085
1959	9.7900e-01	-1.6171	-6.732105	0.000389	3.886799	1.316883	0.031302
1960	9.7950e-01	-1.6042	-6.546943	0.000460	4.598317	1.557952	0.037032
1961	9.8000e-01	-1.5417	-6.524706	0.000055	0.552223	0.187098	0.004447
1962	9.8050e-01	-1.4935	-6.487503	0.000092	0.923911	0.313030	0.007441
1963	9.8100e-01	-1.4631	-6.424215	0.000157	1.571711	0.532510	0.012658
1964	9.8150e-01	-1.4342	-6.301486	0.000305	3.047845	1.032638	0.024546
1965	9.8200e-01	-1.3925	-6.180896	0.000299	2.994747	1.014648	0.024118
1966	9.8250e-01	-1.3460	-6.131291	0.000123	1.231882	0.417373	0.009921
1967	9.8300e-01	-1.2994	-6.078693	0.000131	1.306219	0.442559	0.010520
1968	9.8350e-01	-1.2738	-5.884979	0.000481	4.810710	1.629913	0.038743
1969	9.8400e-01	-1.2288	-5.789619	0.000237	2.368186	0.802363	0.019072
1970	9.8450e-01	-1.1583	-5.834092	-0.000110	-1.104446	-0.374196	-0.008895
1971	9.8500e-01	-1.1518	-5.727613	0.000264	2.644298	0.895912	0.021296
1972	9.8550e-01	-1.1198	-5.525346	0.000502	5.023104	1.701874	0.040453
1973	9.8600e-01	-1.0684	-5.400907	0.000309	3.090324	1.047030	0.024888
1974	9.8650e-01	-1.0283	-5.362421	0.000096	0.955770	0.323824	0.007697
1975	9.8700e-01	-0.9722	-5.341467	0.000052	0.520364	0.176304	0.004191
1976	9.8750e-01	-0.9337	-5.255515	0.000213	2.134554	0.723206	0.017191
1977	9.8800e-01	-0.9128	-5.074629	0.000449	4.492120	1.521971	0.036177
1978	9.8850e-01	-0.8663	-4.956177	0.000294	2.941648	0.996657	0.023690
1979	9.8900e-01	-0.8150	-4.934368	0.000054	0.541603	0.183500	0.004362
1980	9.8950e-01	-0.7797	-4.817199	0.000291	2.909789	0.985863	0.023434
1981	9.9000e-01	-0.7540	-4.760752	0.000140	1.401796	0.474941	0.011289
1982	9.9050e-01	-0.7075	-4.651708	0.000271	2.708016	0.917501	0.021809
1983	9.9100e-01	-0.6593	-4.573452	0.000194	1.943399	0.658442	0.015651
1984	9.9150e-01	-0.6208	-4.458849	0.000285	2.846071	0.964275	0.022921
1985	9.9200e-01	-0.6048	-4.343390	0.000287	2.867311	0.971471	0.023092
1986	9.9250e-01	-0.5342	-4.339541	0.000010	0.095577	0.032382	0.000770
1987	9.9300e-01	-0.5134	-4.161222	0.000443	4.428402	1.500383	0.035664
1988	9.9350e-01	-0.4749	-4.049184	0.000278	2.782353	0.942687	0.022408
1989	9.9400e-01	-0.4380	-3.964942	0.000209	2.092075	0.708814	0.016848
1990	9.9450e-01	-0.4043	-3.916620	0.000120	1.200023	0.406579	0.009664
1991	9.9500e-01	-0.3545	-3.795174	0.000302	3.015986	1.021844	0.024289
1992	9.9550e-01	-0.3080	-3.719057	0.000189	1.890301	0.640451	0.015223
1993	9.9600e-01	-0.2952	-3.561691	0.000391	3.908038	1.324079	0.031473
1994	9.9650e-01	-0.2086	-3.577941	-0.000040	-0.403547	-0.136726	-0.003250
1995	9.9700e-01	-0.2069	-3.398766	0.000445	4.449641	1.507579	0.035835
1996	9.9750e-01	-0.1492	-3.424423	-0.000064	-0.637180	-0.215882	-0.005132
1997	9.9800e-01	-0.1139	-3.270478	0.000382	3.823081	1.295295	0.030789
1998	9.9850e-01	-0.0513	-3.185381	0.000211	2.113314	0.716010	0.017019
1999	9.9900e-01	-0.0401	-2.989956	0.000485	4.853189	1.644305	0.039085
2000	9.9950e-01	0.0176	-3.064790	-0.000186	-1.858442	-0.629657	-0.014967
2001	1.0000e+00	0.0818	-2.934792	-0.000186	-1.858442	-0.629657	0.026000

PMax (uC/cm2):	4.63e+01
Pr (uC/cm2):	1.11e+00
-Pr (uC/cm2):	-1.07e+00
PLoss (uC/cm2):	-1.07e+00
-Vc:	-5.08e-01
C (Max-Eff) (nF):	2.31e-01
K (Eff):	7.84e+02
Vert. (+/-Pr) Shift (uC/cm2):	2.12e-02
Offset (uC/cm2):	1.86e+00

A (Loop Area - uC/cm2·Volts):	1.84e-01



Hysteresis Version: 5.48.1 - Radiant Technologies, Inc., 1999 - 9/12/24

