»»»»»»»»»»»»»»»»»»»»»»»»»»»»»»»»»»»» Hysteresis ««««««««««««««««««««««««««««««««««««
»»»  Executed Version:	5.48.1
»»»  Vision Version:	5.48.4 (R)
»»»  Vision Compiled:	9/18/24
»»»  Driver Version:	5.47.0
»»»  Windows Version:	Windows 8 or 8.1
»»»  Processor Information:	x86 (AMD or Intel) - 32 Processors
»»»  Tester Name:	PMF21124-494 (100V)
»»»  Tester S/N:	PMF21124-494
»»»  Internal Amp Type:	100V RevK 270k
»»»  Internal Amp S/N:	iAB2-596/K     
»»»  Execution Count:	1
»»»»»»»»»»»»»»»»»»»»»»»»»»»»»»»»»»»»»»»»»»««««««««««««««««««««««««««««««««««««««««««

Stored:	6/19/2025 - 13:3:40
Configured:	06/19/25 10:04:32 AM
Executed:	06/19/25 01:02:34 PM

»»»»»»»»»»»»»»»»»»»»»»»»»»»»»»»»»»» Sample Info ««««««««««««««««««««««««««««««««««««
Sample Name:	
Lot Name:	
Wafer Name:	
Die Row/Column:	0/0
Capacitor Number:	0
Sample Area (cm2):	1.00e-04
Sample Thickness (microns):	3.00e-01

Amplifier:	Internal

»»»»»»»»»»»»»»»»»»»»»»»»»»»»»»»»»»» Tester Info «««««««««««««««««««««««««««««««««««
Tester Name:	PMF21124-494 (100V)
Tester Serial Number:	PMF21124-494
Return Signal Amp. Level:	0.19 [Index: 3]

»»»»»»»»»»»»»»»»»»»»»»»»»»»»»»»» Hysteresis Info ««««««««««««««««««««««««««««««««««
Task Name:	Hyst-1168
Volts:	20.00
Field:	666.67 (kV/cm)
DCBias:	0.00
DCField:	0.00 (kV/cm)
Hysteresis Period (ms):	2.00e+02
Preset:	Enabled
Preset Delay (ms):	1.00e+03
Profile:	Standard Bipolar

»»»»»»»»»»»»»»»»»»»»»»»»»»»»»»»»»»»»»» Data «««««««««««««««««««««««««««««««««««««««
Points:	2009

Valid Data

Point	Time (ms)	Drive Voltage	Measured Polarization (uC/cm2)	Capacitance (uF)	Normalized Capacitance (uF/cm2)	Dielectric Constant	Instantaneous Current (mA)
   1	0.0000e+00	0.0016	-2.468709	0.000132	1.317557	0.446400	0.000053
   2	9.9500e-02	0.0385	-2.416226	0.000132	1.317557	0.446400	0.000053
   3	1.9900e-01	0.0786	-2.367780	0.000122	1.216207	0.412062	0.000049
   4	2.9850e-01	0.1187	-2.274926	0.000233	2.331063	0.789785	0.000093
   5	3.9800e-01	0.1524	-2.178035	0.000243	2.432413	0.824124	0.000097
   6	4.9750e-01	0.1989	-2.064995	0.000284	2.837815	0.961478	0.000114
   7	5.9700e-01	0.2326	-1.955992	0.000274	2.736465	0.927139	0.000110
   8	6.9650e-01	0.2711	-1.846990	0.000274	2.736465	0.927139	0.000110
   9	7.9600e-01	0.3208	-1.782395	0.000162	1.621609	0.549416	0.000065
  10	8.9550e-01	0.3545	-1.677430	0.000264	2.635114	0.892801	0.000105
  11	9.9500e-01	0.3978	-1.600724	0.000193	1.925660	0.652431	0.000077
  12	1.0945e+00	0.4380	-1.479610	0.000304	3.040516	1.030155	0.000122
  13	1.1940e+00	0.4813	-1.419053	0.000152	1.520258	0.515077	0.000061
  14	1.2935e+00	0.5198	-1.318125	0.000253	2.533764	0.858462	0.000101
  15	1.3930e+00	0.5535	-1.273716	0.000111	1.114856	0.377723	0.000045
  16	1.4925e+00	0.5984	-1.180862	0.000233	2.331063	0.789785	0.000093
  17	1.5920e+00	0.6369	-1.063785	0.000294	2.939166	0.995816	0.000118
  18	1.6915e+00	0.6770	-1.035525	0.000071	0.709454	0.240369	0.000028
  19	1.7910e+00	0.7171	-0.926523	0.000274	2.736465	0.927139	0.000110
  20	1.8905e+00	0.7540	-0.805409	0.000304	3.040516	1.030155	0.000122
  21	1.9900e+00	0.7893	-0.761000	0.000111	1.114856	0.377723	0.000045
  22	2.0895e+00	0.8406	-0.651997	0.000274	2.736465	0.927139	0.000110
  23	2.1890e+00	0.8775	-0.571255	0.000203	2.027011	0.686770	0.000081
  24	2.2885e+00	0.9128	-0.486475	0.000213	2.128362	0.721108	0.000085
  25	2.3880e+00	0.9545	-0.385546	0.000253	2.533764	0.858462	0.000101
  26	2.4875e+00	0.9850	-0.333064	0.000132	1.317557	0.446400	0.000053
  27	2.5870e+00	1.0283	-0.139281	0.000486	4.864826	1.648248	0.000195
  28	2.6865e+00	1.0700	-0.094873	0.000111	1.114856	0.377723	0.000045
  29	2.7860e+00	1.1149	0.066613	0.000405	4.054022	1.373540	0.000162
  30	2.8855e+00	1.1454	0.147355	0.000203	2.027011	0.686770	0.000081
  31	2.9850e+00	1.1984	0.256358	0.000274	2.736465	0.927139	0.000110
  32	3.0845e+00	1.2417	0.300767	0.000111	1.114856	0.377723	0.000045
  33	3.1840e+00	1.2786	0.385546	0.000213	2.128362	0.721108	0.000085
  34	3.2835e+00	1.3107	0.478401	0.000233	2.331063	0.789785	0.000093
  35	3.3830e+00	1.3524	0.575292	0.000243	2.432413	0.824124	0.000097
  36	3.4825e+00	1.3909	0.656035	0.000203	2.027011	0.686770	0.000081
  37	3.5820e+00	1.4262	0.708517	0.000132	1.317557	0.446400	0.000053
  38	3.6815e+00	1.4775	0.833669	0.000314	3.141867	1.064493	0.000126
  39	3.7810e+00	1.5048	0.930560	0.000243	2.432413	0.824124	0.000097
  40	3.8805e+00	1.5561	1.027451	0.000243	2.432413	0.824124	0.000097
  41	3.9800e+00	1.5850	1.124342	0.000243	2.432413	0.824124	0.000097
  42	4.0795e+00	1.6283	1.201048	0.000193	1.925660	0.652431	0.000077
  43	4.1790e+00	1.6732	1.289865	0.000223	2.229712	0.755447	0.000089
  44	4.2785e+00	1.7117	1.398868	0.000274	2.736465	0.927139	0.000110
  45	4.3780e+00	1.7438	1.552279	0.000385	3.851321	1.304863	0.000154
  46	4.4775e+00	1.7887	1.584576	0.000081	0.810804	0.274708	0.000032
  47	4.5770e+00	1.8240	1.725876	0.000355	3.547269	1.201847	0.000142
  48	4.6765e+00	1.8673	1.842952	0.000294	2.939166	0.995816	0.000118
  49	4.7760e+00	1.9058	1.923695	0.000203	2.027011	0.686770	0.000081
  50	4.8755e+00	1.9524	2.020586	0.000243	2.432413	0.824124	0.000097
  51	4.9750e+00	1.9828	2.077106	0.000142	1.418908	0.480739	0.000057
  52	5.0745e+00	2.0374	2.218406	0.000355	3.547269	1.201847	0.000142
  53	5.1740e+00	2.0791	2.250703	0.000081	0.810804	0.274708	0.000032
  54	5.2735e+00	2.1128	2.363743	0.000284	2.837815	0.961478	0.000114
  55	5.3730e+00	2.1481	2.424300	0.000152	1.520258	0.515077	0.000061
  56	5.4725e+00	2.1898	2.577711	0.000385	3.851321	1.304863	0.000154
  57	5.5720e+00	2.2251	2.622120	0.000111	1.114856	0.377723	0.000045
  58	5.6715e+00	2.2716	2.739197	0.000294	2.939166	0.995816	0.000118
  59	5.7710e+00	2.3069	2.815902	0.000193	1.925660	0.652431	0.000077
  60	5.8705e+00	2.3406	2.892608	0.000193	1.925660	0.652431	0.000077
  61	5.9700e+00	2.3903	3.025833	0.000334	3.344568	1.133170	0.000134
  62	6.0695e+00	2.4272	3.086390	0.000152	1.520258	0.515077	0.000061
  63	6.1690e+00	2.4673	3.203467	0.000294	2.939166	0.995816	0.000118
  64	6.2685e+00	2.5042	3.316507	0.000284	2.837815	0.961478	0.000114
  65	6.3680e+00	2.5427	3.457807	0.000355	3.547269	1.201847	0.000142
  66	6.4675e+00	2.5956	3.522401	0.000162	1.621609	0.549416	0.000065
  67	6.5670e+00	2.6229	3.683886	0.000405	4.054022	1.373540	0.000162
  68	6.6665e+00	2.6694	3.772703	0.000223	2.229712	0.755447	0.000089
  69	6.7660e+00	2.7176	3.833260	0.000152	1.520258	0.515077	0.000061
  70	6.8655e+00	2.7641	3.918040	0.000213	2.128362	0.721108	0.000085
  71	6.9650e+00	2.7914	3.978597	0.000152	1.520258	0.515077	0.000061
  72	7.0645e+00	2.8283	4.099711	0.000304	3.040516	1.030155	0.000122
  73	7.1640e+00	2.8700	4.184491	0.000213	2.128362	0.721108	0.000085
  74	7.2635e+00	2.9085	4.321754	0.000345	3.445919	1.167509	0.000138
  75	7.3630e+00	2.9374	4.394422	0.000182	1.824310	0.618093	0.000073
  76	7.4625e+00	2.9887	4.483239	0.000223	2.229712	0.755447	0.000089
  77	7.5620e+00	3.0272	4.592242	0.000274	2.736465	0.927139	0.000110
  78	7.6615e+00	3.0689	4.672985	0.000203	2.027011	0.686770	0.000081
  79	7.7610e+00	3.0914	4.777950	0.000264	2.635114	0.892801	0.000105
  80	7.8605e+00	3.1491	4.882916	0.000264	2.635114	0.892801	0.000105
  81	7.9600e+00	3.1876	4.991918	0.000274	2.736465	0.927139	0.000110
  82	8.0595e+00	3.2261	5.108995	0.000294	2.939166	0.995816	0.000118
  83	8.1590e+00	3.2710	5.222035	0.000284	2.837815	0.961478	0.000114
  84	8.2585e+00	3.3063	5.387558	0.000416	4.155373	1.407878	0.000166
  85	8.3580e+00	3.3416	5.468300	0.000203	2.027011	0.686770	0.000081
  86	8.4575e+00	3.3865	5.581340	0.000284	2.837815	0.961478	0.000114
  87	8.5570e+00	3.4282	5.682269	0.000253	2.533764	0.858462	0.000101
  88	8.6565e+00	3.4619	5.767048	0.000213	2.128362	0.721108	0.000085
  89	8.7560e+00	3.5133	5.827605	0.000152	1.520258	0.515077	0.000061
  90	8.8555e+00	3.5486	5.876051	0.000122	1.216207	0.412062	0.000049
  91	8.9550e+00	3.5758	5.985054	0.000274	2.736465	0.927139	0.000110
  92	9.0545e+00	3.6304	6.094056	0.000274	2.736465	0.927139	0.000110
  93	9.1540e+00	3.6609	6.199022	0.000264	2.635114	0.892801	0.000105
  94	9.2535e+00	3.6994	6.312062	0.000284	2.837815	0.961478	0.000114
  95	9.3530e+00	3.7379	6.408953	0.000243	2.432413	0.824124	0.000097
  96	9.4525e+00	3.7860	6.509881	0.000253	2.533764	0.858462	0.000101
  97	9.5520e+00	3.8165	6.630995	0.000304	3.040516	1.030155	0.000122
  98	9.6515e+00	3.8614	6.703664	0.000182	1.824310	0.618093	0.000073
  99	9.7510e+00	3.9047	6.804592	0.000253	2.533764	0.858462	0.000101
 100	9.8505e+00	3.9464	6.966078	0.000405	4.054022	1.373540	0.000162
 101	9.9500e+00	3.9881	7.018560	0.000132	1.317557	0.446400	0.000053
 102	1.0050e+01	4.0154	7.167935	0.000375	3.749970	1.270524	0.000150
 103	1.0149e+01	4.0555	7.297123	0.000324	3.243218	1.098832	0.000130
 104	1.0248e+01	4.1036	7.394014	0.000243	2.432413	0.824124	0.000097
 105	1.0348e+01	4.1453	7.470720	0.000193	1.925660	0.652431	0.000077
 106	1.0447e+01	4.1854	7.612019	0.000355	3.547269	1.201847	0.000142
 107	1.0547e+01	4.2288	7.680651	0.000172	1.722959	0.583754	0.000069
 108	1.0646e+01	4.2576	7.753319	0.000182	1.824310	0.618093	0.000073
 109	1.0746e+01	4.2993	7.834062	0.000203	2.027011	0.686770	0.000081
 110	1.0845e+01	4.3459	7.971325	0.000345	3.445919	1.167509	0.000138
 111	1.0945e+01	4.3828	8.056104	0.000213	2.128362	0.721108	0.000085
 112	1.1044e+01	4.4213	8.140884	0.000213	2.128362	0.721108	0.000085
 113	1.1144e+01	4.4550	8.253924	0.000284	2.837815	0.961478	0.000114
 114	1.1243e+01	4.5031	8.362927	0.000274	2.736465	0.927139	0.000110
 115	1.1343e+01	4.5448	8.431558	0.000172	1.722959	0.583754	0.000069
 116	1.1443e+01	4.5737	8.540561	0.000274	2.736465	0.927139	0.000110
 117	1.1542e+01	4.6202	8.665712	0.000314	3.141867	1.064493	0.000126
 118	1.1642e+01	4.6715	8.774715	0.000274	2.736465	0.927139	0.000110
 119	1.1741e+01	4.6892	8.887754	0.000284	2.837815	0.961478	0.000114
 120	1.1841e+01	4.7421	8.992720	0.000264	2.635114	0.892801	0.000105
 121	1.1940e+01	4.7742	9.093648	0.000253	2.533764	0.858462	0.000101
 122	1.2040e+01	4.8255	9.238985	0.000365	3.648620	1.236186	0.000146
 123	1.2139e+01	4.8608	9.319728	0.000203	2.027011	0.686770	0.000081
 124	1.2239e+01	4.9057	9.485250	0.000416	4.155373	1.407878	0.000166
 125	1.2338e+01	4.9410	9.525622	0.000101	1.013505	0.343385	0.000041
 126	1.2438e+01	4.9715	9.638662	0.000284	2.837815	0.961478	0.000114
 127	1.2537e+01	5.0196	9.711330	0.000182	1.824310	0.618093	0.000073
 128	1.2636e+01	5.0501	9.779961	0.000172	1.722959	0.583754	0.000069
 129	1.2736e+01	5.1095	9.848593	0.000172	1.722959	0.583754	0.000069
 130	1.2835e+01	5.1384	9.997967	0.000375	3.749970	1.270524	0.000150
 131	1.2935e+01	5.1769	10.058524	0.000152	1.520258	0.515077	0.000061
 132	1.3034e+01	5.2202	10.195786	0.000345	3.445919	1.167509	0.000138
 133	1.3134e+01	5.2587	10.304789	0.000274	2.736465	0.927139	0.000110
 134	1.3233e+01	5.3020	10.389569	0.000213	2.128362	0.721108	0.000085
 135	1.3333e+01	5.3517	10.474349	0.000213	2.128362	0.721108	0.000085
 136	1.3432e+01	5.3758	10.607574	0.000334	3.344568	1.133170	0.000134
 137	1.3532e+01	5.4159	10.748874	0.000355	3.547269	1.201847	0.000142
 138	1.3632e+01	5.4496	10.845765	0.000243	2.432413	0.824124	0.000097
 139	1.3731e+01	5.4977	10.974954	0.000324	3.243218	1.098832	0.000130
 140	1.3831e+01	5.5362	11.071845	0.000243	2.432413	0.824124	0.000097
 141	1.3930e+01	5.5811	11.184885	0.000284	2.837815	0.961478	0.000114
 142	1.4030e+01	5.6132	11.314073	0.000324	3.243218	1.098832	0.000130
 143	1.4129e+01	5.6517	11.390778	0.000193	1.925660	0.652431	0.000077
 144	1.4229e+01	5.6902	11.499781	0.000274	2.736465	0.927139	0.000110
 145	1.4328e+01	5.7399	11.584561	0.000213	2.128362	0.721108	0.000085
 146	1.4428e+01	5.7752	11.665304	0.000203	2.027011	0.686770	0.000081
 147	1.4527e+01	5.8202	11.725861	0.000152	1.520258	0.515077	0.000061
 148	1.4627e+01	5.8522	11.818715	0.000233	2.331063	0.789785	0.000093
 149	1.4726e+01	5.8940	11.923680	0.000264	2.635114	0.892801	0.000105
 150	1.4825e+01	5.9325	12.032683	0.000274	2.736465	0.927139	0.000110
 151	1.4925e+01	5.9742	12.141686	0.000274	2.736465	0.927139	0.000110
 152	1.5024e+01	6.0030	12.222428	0.000203	2.027011	0.686770	0.000081
 153	1.5124e+01	6.0512	12.307208	0.000213	2.128362	0.721108	0.000085
 154	1.5223e+01	6.0897	12.472731	0.000416	4.155373	1.407878	0.000166
 155	1.5323e+01	6.1314	12.517139	0.000111	1.114856	0.377723	0.000045
 156	1.5422e+01	6.1731	12.642291	0.000314	3.141867	1.064493	0.000126
 157	1.5522e+01	6.2116	12.819925	0.000446	4.459424	1.510894	0.000179
 158	1.5621e+01	6.2565	12.916816	0.000243	2.432413	0.824124	0.000097
 159	1.5721e+01	6.3014	13.025818	0.000274	2.736465	0.927139	0.000110
 160	1.5820e+01	6.3271	13.086375	0.000152	1.520258	0.515077	0.000061
 161	1.5920e+01	6.3768	13.235750	0.000375	3.749970	1.270524	0.000150
 162	1.6020e+01	6.4073	13.312455	0.000193	1.925660	0.652431	0.000077
 163	1.6119e+01	6.4554	13.425495	0.000284	2.837815	0.961478	0.000114
 164	1.6218e+01	6.5020	13.554683	0.000324	3.243218	1.098832	0.000130
 165	1.6318e+01	6.5308	13.554683	0.000000	0.000000	0.000000	0.000000
 166	1.6418e+01	6.5758	13.687909	0.000334	3.344568	1.133170	0.000134
 167	1.6517e+01	6.6078	13.752503	0.000162	1.621609	0.549416	0.000065
 168	1.6616e+01	6.6479	13.845357	0.000233	2.331063	0.789785	0.000093
 169	1.6716e+01	6.6929	13.946285	0.000253	2.533764	0.858462	0.000101
 170	1.6816e+01	6.7233	14.051251	0.000264	2.635114	0.892801	0.000105
 171	1.6915e+01	6.7699	14.148142	0.000243	2.432413	0.824124	0.000097
 172	1.7015e+01	6.8148	14.261182	0.000284	2.837815	0.961478	0.000114
 173	1.7114e+01	6.8485	14.345962	0.000213	2.128362	0.721108	0.000085
 174	1.7213e+01	6.8966	14.479187	0.000334	3.344568	1.133170	0.000134
 175	1.7313e+01	6.9239	14.559930	0.000203	2.027011	0.686770	0.000081
 176	1.7413e+01	6.9640	14.685081	0.000314	3.141867	1.064493	0.000126
 177	1.7512e+01	7.0025	14.790047	0.000264	2.635114	0.892801	0.000105
 178	1.7611e+01	7.0394	14.927309	0.000345	3.445919	1.167509	0.000138
 179	1.7711e+01	7.0939	15.036312	0.000274	2.736465	0.927139	0.000110
 180	1.7811e+01	7.1228	15.133203	0.000243	2.432413	0.824124	0.000097
 181	1.7910e+01	7.1709	15.201835	0.000172	1.722959	0.583754	0.000069
 182	1.8009e+01	7.2062	15.310837	0.000274	2.736465	0.927139	0.000110
 183	1.8109e+01	7.2463	15.395617	0.000213	2.128362	0.721108	0.000085
 184	1.8209e+01	7.2896	15.464248	0.000172	1.722959	0.583754	0.000069
 185	1.8308e+01	7.3249	15.549028	0.000213	2.128362	0.721108	0.000085
 186	1.8407e+01	7.3634	15.637845	0.000223	2.229712	0.755447	0.000089
 187	1.8507e+01	7.4019	15.734737	0.000243	2.432413	0.824124	0.000097
 188	1.8607e+01	7.4501	15.827591	0.000233	2.331063	0.789785	0.000093
 189	1.8706e+01	7.4918	15.940630	0.000284	2.837815	0.961478	0.000114
 190	1.8805e+01	7.5271	16.073856	0.000334	3.344568	1.133170	0.000134
 191	1.8905e+01	7.5752	16.174784	0.000253	2.533764	0.858462	0.000101
 192	1.9005e+01	7.5993	16.231304	0.000142	1.418908	0.480739	0.000057
 193	1.9104e+01	7.6458	16.388753	0.000395	3.952671	1.339201	0.000158
 194	1.9203e+01	7.6939	16.485644	0.000243	2.432413	0.824124	0.000097
 195	1.9303e+01	7.7196	16.618869	0.000334	3.344568	1.133170	0.000134
 196	1.9402e+01	7.7677	16.711723	0.000233	2.331063	0.789785	0.000093
 197	1.9502e+01	7.8078	16.836875	0.000314	3.141867	1.064493	0.000126
 198	1.9602e+01	7.8431	16.941840	0.000264	2.635114	0.892801	0.000105
 199	1.9701e+01	7.8880	17.054880	0.000284	2.837815	0.961478	0.000114
 200	1.9800e+01	7.9345	17.139660	0.000213	2.128362	0.721108	0.000085
 201	1.9900e+01	7.9698	17.252700	0.000284	2.837815	0.961478	0.000114
 202	2.0000e+01	8.0083	17.284997	0.000081	0.810804	0.274708	0.000032
 203	2.0099e+01	8.0404	17.398036	0.000284	2.837815	0.961478	0.000114
 204	2.0198e+01	8.0885	17.498965	0.000253	2.533764	0.858462	0.000101
 205	2.0298e+01	8.1142	17.543373	0.000111	1.114856	0.377723	0.000045
 206	2.0398e+01	8.1704	17.688710	0.000365	3.648620	1.236186	0.000146
 207	2.0497e+01	8.1976	17.769453	0.000203	2.027011	0.686770	0.000081
 208	2.0596e+01	8.2474	17.846159	0.000193	1.925660	0.652431	0.000077
 209	2.0696e+01	8.2875	17.975347	0.000324	3.243218	1.098832	0.000130
 210	2.0796e+01	8.3244	18.084350	0.000274	2.736465	0.927139	0.000110
 211	2.0895e+01	8.3773	18.193352	0.000274	2.736465	0.927139	0.000110
 212	2.0994e+01	8.4014	18.298318	0.000264	2.635114	0.892801	0.000105
 213	2.1094e+01	8.4335	18.419432	0.000304	3.040516	1.030155	0.000122
 214	2.1194e+01	8.4768	18.488063	0.000172	1.722959	0.583754	0.000069
 215	2.1293e+01	8.5185	18.649549	0.000405	4.054022	1.373540	0.000162
 216	2.1392e+01	8.5650	18.770663	0.000304	3.040516	1.030155	0.000122
 217	2.1492e+01	8.6067	18.879665	0.000274	2.736465	0.927139	0.000110
 218	2.1591e+01	8.6436	18.948297	0.000172	1.722959	0.583754	0.000069
 219	2.1691e+01	8.6805	19.077485	0.000324	3.243218	1.098832	0.000130
 220	2.1791e+01	8.7174	19.166302	0.000223	2.229712	0.755447	0.000089
 221	2.1890e+01	8.7639	19.255119	0.000223	2.229712	0.755447	0.000089
 222	2.1989e+01	8.7992	19.368159	0.000284	2.837815	0.961478	0.000114
 223	2.2089e+01	8.8409	19.424679	0.000142	1.418908	0.480739	0.000057
 224	2.2189e+01	8.8794	19.513496	0.000223	2.229712	0.755447	0.000089
 225	2.2288e+01	8.9260	19.574053	0.000152	1.520258	0.515077	0.000061
 226	2.2387e+01	8.9548	19.679018	0.000264	2.635114	0.892801	0.000105
 227	2.2487e+01	8.9965	19.796095	0.000294	2.939166	0.995816	0.000118
 228	2.2587e+01	9.0447	19.897023	0.000253	2.533764	0.858462	0.000101
 229	2.2686e+01	9.0784	20.022175	0.000314	3.141867	1.064493	0.000126
 230	2.2785e+01	9.1281	20.123103	0.000253	2.533764	0.858462	0.000101
 231	2.2885e+01	9.1666	20.191734	0.000172	1.722959	0.583754	0.000069
 232	2.2985e+01	9.1939	20.377443	0.000466	4.662125	1.579571	0.000187
 233	2.3084e+01	9.2532	20.478371	0.000253	2.533764	0.858462	0.000101
 234	2.3183e+01	9.2949	20.623708	0.000365	3.648620	1.236186	0.000146
 235	2.3283e+01	9.3238	20.700413	0.000193	1.925660	0.652431	0.000077
 236	2.3383e+01	9.3511	20.829602	0.000324	3.243218	1.098832	0.000130
 237	2.3482e+01	9.4024	20.898233	0.000172	1.722959	0.583754	0.000069
 238	2.3581e+01	9.4377	21.015310	0.000294	2.939166	0.995816	0.000118
 239	2.3681e+01	9.4778	21.124313	0.000274	2.736465	0.927139	0.000110
 240	2.3780e+01	9.5179	21.209093	0.000213	2.128362	0.721108	0.000085
 241	2.3880e+01	9.5676	21.297910	0.000223	2.229712	0.755447	0.000089
 242	2.3980e+01	9.6061	21.362504	0.000162	1.621609	0.549416	0.000065
 243	2.4079e+01	9.6479	21.491692	0.000324	3.243218	1.098832	0.000130
 244	2.4178e+01	9.6799	21.564361	0.000182	1.824310	0.618093	0.000073
 245	2.4278e+01	9.7200	21.665289	0.000253	2.533764	0.858462	0.000101
 246	2.4378e+01	9.7634	21.770254	0.000264	2.635114	0.892801	0.000105
 247	2.4477e+01	9.7842	21.879257	0.000274	2.736465	0.927139	0.000110
 248	2.4576e+01	9.8468	22.004408	0.000314	3.141867	1.064493	0.000126
 249	2.4676e+01	9.8789	22.109374	0.000264	2.635114	0.892801	0.000105
 250	2.4776e+01	9.9190	22.226451	0.000294	2.939166	0.995816	0.000118
 251	2.4875e+01	9.9655	22.396011	0.000426	4.256723	1.442217	0.000170
 252	2.4974e+01	9.9960	22.464642	0.000172	1.722959	0.583754	0.000069
 253	2.5074e+01	10.0505	22.577682	0.000284	2.837815	0.961478	0.000114
 254	2.5174e+01	10.0714	22.654387	0.000193	1.925660	0.652431	0.000077
 255	2.5273e+01	10.1179	22.779538	0.000314	3.141867	1.064493	0.000126
 256	2.5372e+01	10.1580	22.932950	0.000385	3.851321	1.304863	0.000154
 257	2.5472e+01	10.1981	23.029841	0.000243	2.432413	0.824124	0.000097
 258	2.5572e+01	10.2430	23.110584	0.000203	2.027011	0.686770	0.000081
 259	2.5671e+01	10.2719	23.207475	0.000243	2.432413	0.824124	0.000097
 260	2.5770e+01	10.3232	23.312440	0.000264	2.635114	0.892801	0.000105
 261	2.5870e+01	10.3521	23.401257	0.000223	2.229712	0.755447	0.000089
 262	2.5970e+01	10.3970	23.486037	0.000213	2.128362	0.721108	0.000085
 263	2.6069e+01	10.4355	23.615225	0.000324	3.243218	1.098832	0.000130
 264	2.6169e+01	10.4805	23.724228	0.000274	2.736465	0.927139	0.000110
 265	2.6268e+01	10.5077	23.796897	0.000182	1.824310	0.618093	0.000073
 266	2.6367e+01	10.5559	23.922048	0.000314	3.141867	1.064493	0.000126
 267	2.6467e+01	10.6088	24.039125	0.000294	2.939166	0.995816	0.000118
 268	2.6567e+01	10.6441	24.176387	0.000345	3.445919	1.167509	0.000138
 269	2.6666e+01	10.6778	24.293464	0.000294	2.939166	0.995816	0.000118
 270	2.6765e+01	10.7227	24.386318	0.000233	2.331063	0.789785	0.000093
 271	2.6865e+01	10.7564	24.523581	0.000345	3.445919	1.167509	0.000138
 272	2.6965e+01	10.7949	24.632584	0.000274	2.736465	0.927139	0.000110
 273	2.7064e+01	10.8350	24.745624	0.000284	2.837815	0.961478	0.000114
 274	2.7163e+01	10.8799	24.810218	0.000162	1.621609	0.549416	0.000065
 275	2.7263e+01	10.9088	24.967666	0.000395	3.952671	1.339201	0.000158
 276	2.7363e+01	10.9425	25.044372	0.000193	1.925660	0.652431	0.000077
 277	2.7462e+01	10.9906	25.157411	0.000284	2.837815	0.961478	0.000114
 278	2.7561e+01	11.0323	25.242191	0.000213	2.128362	0.721108	0.000085
 279	2.7661e+01	11.0788	25.298711	0.000142	1.418908	0.480739	0.000057
 280	2.7761e+01	11.1302	25.423862	0.000314	3.141867	1.064493	0.000126
 281	2.7860e+01	11.1558	25.492494	0.000172	1.722959	0.583754	0.000069
 282	2.7959e+01	11.1991	25.589385	0.000243	2.432413	0.824124	0.000097
 283	2.8059e+01	11.2312	25.706462	0.000294	2.939166	0.995816	0.000118
 284	2.8159e+01	11.2713	25.762982	0.000142	1.418908	0.480739	0.000057
 285	2.8258e+01	11.3179	25.932541	0.000426	4.256723	1.442217	0.000170
 286	2.8358e+01	11.3532	26.009247	0.000193	1.925660	0.652431	0.000077
 287	2.8457e+01	11.3981	26.142472	0.000334	3.344568	1.133170	0.000134
 288	2.8556e+01	11.4366	26.271661	0.000324	3.243218	1.098832	0.000130
 289	2.8656e+01	11.4703	26.412961	0.000355	3.547269	1.201847	0.000142
 290	2.8756e+01	11.5104	26.501778	0.000223	2.229712	0.755447	0.000089
 291	2.8855e+01	11.5473	26.606743	0.000264	2.635114	0.892801	0.000105
 292	2.8954e+01	11.5874	26.687486	0.000203	2.027011	0.686770	0.000081
 293	2.9054e+01	11.6291	26.820711	0.000334	3.344568	1.133170	0.000134
 294	2.9154e+01	11.6692	26.925677	0.000264	2.635114	0.892801	0.000105
 295	2.9253e+01	11.7157	27.050828	0.000314	3.141867	1.064493	0.000126
 296	2.9352e+01	11.7382	27.103311	0.000132	1.317557	0.446400	0.000053
 297	2.9452e+01	11.8007	27.236536	0.000334	3.344568	1.133170	0.000134
 298	2.9552e+01	11.8328	27.349576	0.000284	2.837815	0.961478	0.000114
 299	2.9651e+01	11.8761	27.438393	0.000223	2.229712	0.755447	0.000089
 300	2.9750e+01	11.9194	27.486839	0.000122	1.216207	0.412062	0.000049
 301	2.9850e+01	11.9483	27.620064	0.000334	3.344568	1.133170	0.000134
 302	2.9950e+01	11.9948	27.664473	0.000111	1.114856	0.377723	0.000045
 303	3.0049e+01	12.0382	27.817884	0.000385	3.851321	1.304863	0.000154
 304	3.0148e+01	12.0719	27.898627	0.000203	2.027011	0.686770	0.000081
 305	3.0248e+01	12.1039	28.064149	0.000416	4.155373	1.407878	0.000166
 306	3.0348e+01	12.1424	28.120669	0.000142	1.418908	0.480739	0.000057
 307	3.0447e+01	12.1906	28.274080	0.000385	3.851321	1.304863	0.000154
 308	3.0547e+01	12.2291	28.403268	0.000324	3.243218	1.098832	0.000130
 309	3.0646e+01	12.2708	28.504197	0.000253	2.533764	0.858462	0.000101
 310	3.0745e+01	12.3141	28.625311	0.000304	3.040516	1.030155	0.000122
 311	3.0845e+01	12.3542	28.702017	0.000193	1.925660	0.652431	0.000077
 312	3.0945e+01	12.3895	28.823131	0.000304	3.040516	1.030155	0.000122
 313	3.1044e+01	12.4344	28.944245	0.000304	3.040516	1.030155	0.000122
 314	3.1143e+01	12.4681	29.049210	0.000264	2.635114	0.892801	0.000105
 315	3.1243e+01	12.4970	29.166287	0.000294	2.939166	0.995816	0.000118
 316	3.1343e+01	12.5483	29.230881	0.000162	1.621609	0.549416	0.000065
 317	3.1442e+01	12.5804	29.343921	0.000284	2.837815	0.961478	0.000114
 318	3.1541e+01	12.6333	29.456961	0.000284	2.837815	0.961478	0.000114
 319	3.1641e+01	12.6734	29.497332	0.000101	1.013505	0.343385	0.000041
 320	3.1741e+01	12.7071	29.570001	0.000182	1.824310	0.618093	0.000073
 321	3.1840e+01	12.7569	29.699189	0.000324	3.243218	1.098832	0.000130
 322	3.1939e+01	12.7857	29.767820	0.000172	1.722959	0.583754	0.000069
 323	3.2039e+01	12.8194	29.856637	0.000223	2.229712	0.755447	0.000089
 324	3.2139e+01	12.8708	29.997937	0.000355	3.547269	1.201847	0.000142
 325	3.2238e+01	12.9028	30.090791	0.000233	2.331063	0.789785	0.000093
 326	3.2337e+01	12.9510	30.244202	0.000385	3.851321	1.304863	0.000154
 327	3.2437e+01	12.9911	30.349168	0.000264	2.635114	0.892801	0.000105
 328	3.2536e+01	13.0200	30.446059	0.000243	2.432413	0.824124	0.000097
 329	3.2636e+01	13.0585	30.555062	0.000274	2.736465	0.927139	0.000110
 330	3.2736e+01	13.1082	30.676176	0.000304	3.040516	1.030155	0.000122
 331	3.2835e+01	13.1371	30.789216	0.000284	2.837815	0.961478	0.000114
 332	3.2934e+01	13.1820	30.853810	0.000162	1.621609	0.549416	0.000065
 333	3.3034e+01	13.2189	30.974924	0.000304	3.040516	1.030155	0.000122
 334	3.3133e+01	13.2542	31.063741	0.000223	2.229712	0.755447	0.000089
 335	3.3233e+01	13.3071	31.148521	0.000213	2.128362	0.721108	0.000085
 336	3.3333e+01	13.3536	31.253486	0.000264	2.635114	0.892801	0.000105
 337	3.3432e+01	13.3953	31.378638	0.000314	3.141867	1.064493	0.000126
 338	3.3532e+01	13.4194	31.419009	0.000101	1.013505	0.343385	0.000041
 339	3.3631e+01	13.4675	31.487640	0.000172	1.722959	0.583754	0.000069
 340	3.3730e+01	13.5044	31.600680	0.000284	2.837815	0.961478	0.000114
 341	3.3830e+01	13.5477	31.653163	0.000132	1.317557	0.446400	0.000053
 342	3.3929e+01	13.5750	31.818685	0.000416	4.155373	1.407878	0.000166
 343	3.4029e+01	13.6135	31.911539	0.000233	2.331063	0.789785	0.000093
 344	3.4129e+01	13.6600	32.048802	0.000345	3.445919	1.167509	0.000138
 345	3.4228e+01	13.6985	32.137619	0.000223	2.229712	0.755447	0.000089
 346	3.4328e+01	13.7435	32.242585	0.000264	2.635114	0.892801	0.000105
 347	3.4427e+01	13.7772	32.335439	0.000233	2.331063	0.789785	0.000093
 348	3.4526e+01	13.8285	32.488850	0.000385	3.851321	1.304863	0.000154
 349	3.4626e+01	13.8670	32.565555	0.000193	1.925660	0.652431	0.000077
 350	3.4725e+01	13.8975	32.674558	0.000274	2.736465	0.927139	0.000110
 351	3.4825e+01	13.9312	32.783561	0.000274	2.736465	0.927139	0.000110
 352	3.4925e+01	13.9745	32.892563	0.000274	2.736465	0.927139	0.000110
 353	3.5024e+01	14.0306	32.965232	0.000182	1.824310	0.618093	0.000073
 354	3.5123e+01	14.0579	33.050012	0.000213	2.128362	0.721108	0.000085
 355	3.5223e+01	14.1028	33.150940	0.000253	2.533764	0.858462	0.000101
 356	3.5322e+01	14.1397	33.207460	0.000142	1.418908	0.480739	0.000057
 357	3.5422e+01	14.1718	33.340685	0.000334	3.344568	1.133170	0.000134
 358	3.5522e+01	14.2247	33.405280	0.000162	1.621609	0.549416	0.000065
 359	3.5621e+01	14.2520	33.490060	0.000213	2.128362	0.721108	0.000085
 360	3.5721e+01	14.3033	33.586951	0.000243	2.432413	0.824124	0.000097
 361	3.5820e+01	14.3467	33.708065	0.000304	3.040516	1.030155	0.000122
 362	3.5919e+01	14.3803	33.829179	0.000304	3.040516	1.030155	0.000122
 363	3.6019e+01	14.4204	33.962404	0.000334	3.344568	1.133170	0.000134
 364	3.6118e+01	14.4622	34.071407	0.000274	2.736465	0.927139	0.000110
 365	3.6218e+01	14.4975	34.212707	0.000355	3.547269	1.201847	0.000142
 366	3.6318e+01	14.5424	34.285375	0.000182	1.824310	0.618093	0.000073
 367	3.6417e+01	14.5777	34.446861	0.000405	4.054022	1.373540	0.000162
 368	3.6517e+01	14.6178	34.495306	0.000122	1.216207	0.412062	0.000049
 369	3.6616e+01	14.6579	34.596235	0.000253	2.533764	0.858462	0.000101
 370	3.6715e+01	14.6996	34.713312	0.000294	2.939166	0.995816	0.000118
 371	3.6815e+01	14.7381	34.798091	0.000213	2.128362	0.721108	0.000085
 372	3.6914e+01	14.7734	34.894983	0.000243	2.432413	0.824124	0.000097
 373	3.7014e+01	14.8151	34.995911	0.000253	2.533764	0.858462	0.000101
 374	3.7114e+01	14.8600	35.112988	0.000294	2.939166	0.995816	0.000118
 375	3.7213e+01	14.8969	35.209879	0.000243	2.432413	0.824124	0.000097
 376	3.7313e+01	14.9306	35.310808	0.000253	2.533764	0.858462	0.000101
 377	3.7412e+01	14.9835	35.351179	0.000101	1.013505	0.343385	0.000041
 378	3.7511e+01	15.0252	35.444033	0.000233	2.331063	0.789785	0.000093
 379	3.7611e+01	15.0605	35.536887	0.000233	2.331063	0.789785	0.000093
 380	3.7711e+01	15.0958	35.625704	0.000223	2.229712	0.755447	0.000089
 381	3.7810e+01	15.1359	35.726633	0.000253	2.533764	0.858462	0.000101
 382	3.7910e+01	15.1809	35.896192	0.000426	4.256723	1.442217	0.000170
 383	3.8009e+01	15.2129	36.021344	0.000314	3.141867	1.064493	0.000126
 384	3.8108e+01	15.2546	36.106123	0.000213	2.128362	0.721108	0.000085
 385	3.8208e+01	15.3028	36.215126	0.000274	2.736465	0.927139	0.000110
 386	3.8307e+01	15.3429	36.332203	0.000294	2.939166	0.995816	0.000118
 387	3.8407e+01	15.3798	36.473503	0.000355	3.547269	1.201847	0.000142
 388	3.8507e+01	15.4183	36.505800	0.000081	0.810804	0.274708	0.000032
 389	3.8606e+01	15.4536	36.614803	0.000274	2.736465	0.927139	0.000110
 390	3.8706e+01	15.4937	36.711694	0.000243	2.432413	0.824124	0.000097
 391	3.8805e+01	15.5338	36.804548	0.000233	2.331063	0.789785	0.000093
 392	3.8904e+01	15.5803	36.921625	0.000294	2.939166	0.995816	0.000118
 393	3.9004e+01	15.6204	37.030628	0.000274	2.736465	0.927139	0.000110
 394	3.9103e+01	15.6621	37.155779	0.000314	3.141867	1.064493	0.000126
 395	3.9203e+01	15.6878	37.208262	0.000132	1.317557	0.446400	0.000053
 396	3.9303e+01	15.7311	37.260744	0.000132	1.317557	0.446400	0.000053
 397	3.9402e+01	15.7840	37.357636	0.000243	2.432413	0.824124	0.000097
 398	3.9502e+01	15.8129	37.482787	0.000314	3.141867	1.064493	0.000126
 399	3.9601e+01	15.8514	37.571604	0.000223	2.229712	0.755447	0.000089
 400	3.9700e+01	15.8963	37.652346	0.000203	2.027011	0.686770	0.000081
 401	3.9800e+01	15.9332	37.793646	0.000355	3.547269	1.201847	0.000142
 402	3.9900e+01	15.9717	37.934946	0.000355	3.547269	1.201847	0.000142
 403	3.9999e+01	16.0070	38.011652	0.000193	1.925660	0.652431	0.000077
 404	4.0099e+01	16.0568	38.128728	0.000294	2.939166	0.995816	0.000118
 405	4.0198e+01	16.0937	38.265991	0.000345	3.445919	1.167509	0.000138
 406	4.0297e+01	16.1354	38.338660	0.000182	1.824310	0.618093	0.000073
 407	4.0397e+01	16.1739	38.471885	0.000334	3.344568	1.133170	0.000134
 408	4.0496e+01	16.2108	38.572813	0.000253	2.533764	0.858462	0.000101
 409	4.0596e+01	16.2509	38.677779	0.000264	2.635114	0.892801	0.000105
 410	4.0696e+01	16.2926	38.778707	0.000253	2.533764	0.858462	0.000101
 411	4.0795e+01	16.3375	38.915970	0.000345	3.445919	1.167509	0.000138
 412	4.0895e+01	16.3664	38.968453	0.000132	1.317557	0.446400	0.000053
 413	4.0994e+01	16.4113	39.061307	0.000233	2.331063	0.789785	0.000093
 414	4.1093e+01	16.4578	39.174347	0.000284	2.837815	0.961478	0.000114
 415	4.1193e+01	16.4947	39.251052	0.000193	1.925660	0.652431	0.000077
 416	4.1292e+01	16.5252	39.319684	0.000172	1.722959	0.583754	0.000069
 417	4.1392e+01	16.5685	39.424649	0.000264	2.635114	0.892801	0.000105
 418	4.1492e+01	16.6102	39.541726	0.000294	2.939166	0.995816	0.000118
 419	4.1591e+01	16.6439	39.674951	0.000334	3.344568	1.133170	0.000134
 420	4.1691e+01	16.6888	39.808177	0.000334	3.344568	1.133170	0.000134
 421	4.1790e+01	16.7321	39.905068	0.000243	2.432413	0.824124	0.000097
 422	4.1889e+01	16.7771	40.018108	0.000284	2.837815	0.961478	0.000114
 423	4.1989e+01	16.8156	40.114999	0.000243	2.432413	0.824124	0.000097
 424	4.2089e+01	16.8396	40.256299	0.000355	3.547269	1.201847	0.000142
 425	4.2188e+01	16.8926	40.324930	0.000172	1.722959	0.583754	0.000069
 426	4.2288e+01	16.9214	40.458156	0.000334	3.344568	1.133170	0.000134
 427	4.2387e+01	16.9728	40.579270	0.000304	3.040516	1.030155	0.000122
 428	4.2486e+01	17.0049	40.651938	0.000182	1.824310	0.618093	0.000073
 429	4.2586e+01	17.0514	40.744792	0.000233	2.331063	0.789785	0.000093
 430	4.2685e+01	17.0883	40.902241	0.000395	3.952671	1.339201	0.000158
 431	4.2785e+01	17.1220	40.974909	0.000182	1.824310	0.618093	0.000073
 432	4.2885e+01	17.1605	41.071800	0.000243	2.432413	0.824124	0.000097
 433	4.2984e+01	17.2118	41.180803	0.000274	2.736465	0.927139	0.000110
 434	4.3084e+01	17.2471	41.297880	0.000294	2.939166	0.995816	0.000118
 435	4.3183e+01	17.2920	41.318066	0.000051	0.506753	0.171692	0.000020
 436	4.3282e+01	17.3241	41.447254	0.000324	3.243218	1.098832	0.000130
 437	4.3382e+01	17.3658	41.511848	0.000162	1.621609	0.549416	0.000065
 438	4.3481e+01	17.4123	41.620851	0.000274	2.736465	0.927139	0.000110
 439	4.3581e+01	17.4412	41.778299	0.000395	3.952671	1.339201	0.000158
 440	4.3681e+01	17.4861	41.867116	0.000223	2.229712	0.755447	0.000089
 441	4.3780e+01	17.5278	42.012453	0.000365	3.648620	1.236186	0.000146
 442	4.3880e+01	17.5615	42.089159	0.000193	1.925660	0.652431	0.000077
 443	4.3979e+01	17.6032	42.270830	0.000456	4.560775	1.545232	0.000183
 444	4.4078e+01	17.6450	42.307164	0.000091	0.912155	0.309046	0.000037
 445	4.4178e+01	17.6883	42.428278	0.000304	3.040516	1.030155	0.000122
 446	4.4278e+01	17.7252	42.541318	0.000284	2.837815	0.961478	0.000114
 447	4.4377e+01	17.7621	42.658395	0.000294	2.939166	0.995816	0.000118
 448	4.4477e+01	17.8102	42.759323	0.000253	2.533764	0.858462	0.000101
 449	4.4576e+01	17.8471	42.844103	0.000213	2.128362	0.721108	0.000085
 450	4.4675e+01	17.8824	42.932920	0.000223	2.229712	0.755447	0.000089
 451	4.4775e+01	17.9177	43.058071	0.000314	3.141867	1.064493	0.000126
 452	4.4874e+01	17.9642	43.175148	0.000294	2.939166	0.995816	0.000118
 453	4.4974e+01	18.0075	43.251854	0.000193	1.925660	0.652431	0.000077
 454	4.5074e+01	18.0524	43.324522	0.000182	1.824310	0.618093	0.000073
 455	4.5173e+01	18.0909	43.397191	0.000182	1.824310	0.618093	0.000073
 456	4.5273e+01	18.1262	43.518305	0.000304	3.040516	1.030155	0.000122
 457	4.5372e+01	18.1615	43.659604	0.000355	3.547269	1.201847	0.000142
 458	4.5471e+01	18.2177	43.772644	0.000284	2.837815	0.961478	0.000114
 459	4.5571e+01	18.2465	43.865498	0.000233	2.331063	0.789785	0.000093
 460	4.5670e+01	18.2802	43.950278	0.000213	2.128362	0.721108	0.000085
 461	4.5770e+01	18.3252	44.067355	0.000294	2.939166	0.995816	0.000118
 462	4.5870e+01	18.3653	44.200581	0.000334	3.344568	1.133170	0.000134
 463	4.5969e+01	18.4006	44.285360	0.000213	2.128362	0.721108	0.000085
 464	4.6069e+01	18.4407	44.402437	0.000294	2.939166	0.995816	0.000118
 465	4.6168e+01	18.4856	44.479143	0.000193	1.925660	0.652431	0.000077
 466	4.6267e+01	18.5273	44.576034	0.000243	2.432413	0.824124	0.000097
 467	4.6367e+01	18.5642	44.713297	0.000345	3.445919	1.167509	0.000138
 468	4.6467e+01	18.6011	44.834411	0.000304	3.040516	1.030155	0.000122
 469	4.6566e+01	18.6396	44.907079	0.000182	1.824310	0.618093	0.000073
 470	4.6666e+01	18.6845	45.020119	0.000284	2.837815	0.961478	0.000114
 471	4.6765e+01	18.7294	45.137196	0.000294	2.939166	0.995816	0.000118
 472	4.6864e+01	18.7615	45.230050	0.000233	2.331063	0.789785	0.000093
 473	4.6964e+01	18.8016	45.306756	0.000193	1.925660	0.652431	0.000077
 474	4.7063e+01	18.8449	45.383461	0.000193	1.925660	0.652431	0.000077
 475	4.7163e+01	18.8834	45.504575	0.000304	3.040516	1.030155	0.000122
 476	4.7263e+01	18.9219	45.625690	0.000304	3.040516	1.030155	0.000122
 477	4.7362e+01	18.9652	45.706432	0.000203	2.027011	0.686770	0.000081
 478	4.7462e+01	19.0070	45.839658	0.000334	3.344568	1.133170	0.000134
 479	4.7561e+01	19.0438	45.952698	0.000284	2.837815	0.961478	0.000114
 480	4.7660e+01	19.0775	46.061700	0.000274	2.736465	0.927139	0.000110
 481	4.7760e+01	19.1160	46.122257	0.000152	1.520258	0.515077	0.000061
 482	4.7859e+01	19.1529	46.251446	0.000324	3.243218	1.098832	0.000130
 483	4.7959e+01	19.1995	46.372560	0.000304	3.040516	1.030155	0.000122
 484	4.8059e+01	19.2396	46.461377	0.000223	2.229712	0.755447	0.000089
 485	4.8158e+01	19.2829	46.550194	0.000223	2.229712	0.755447	0.000089
 486	4.8258e+01	19.3262	46.671308	0.000304	3.040516	1.030155	0.000122
 487	4.8357e+01	19.3535	46.748013	0.000193	1.925660	0.652431	0.000077
 488	4.8456e+01	19.4016	46.877202	0.000324	3.243218	1.098832	0.000130
 489	4.8556e+01	19.4321	46.949870	0.000182	1.824310	0.618093	0.000073
 490	4.8656e+01	19.4786	47.054836	0.000264	2.635114	0.892801	0.000105
 491	4.8755e+01	19.5171	47.155764	0.000253	2.533764	0.858462	0.000101
 492	4.8855e+01	19.5524	47.240544	0.000213	2.128362	0.721108	0.000085
 493	4.8954e+01	19.6005	47.341472	0.000253	2.533764	0.858462	0.000101
 494	4.9053e+01	19.6374	47.458549	0.000294	2.939166	0.995816	0.000118
 495	4.9153e+01	19.6663	47.579663	0.000304	3.040516	1.030155	0.000122
 496	4.9252e+01	19.7224	47.700777	0.000304	3.040516	1.030155	0.000122
 497	4.9352e+01	19.7513	47.801706	0.000253	2.533764	0.858462	0.000101
 498	4.9452e+01	19.7930	47.918783	0.000294	2.939166	0.995816	0.000118
 499	4.9551e+01	19.8379	47.975303	0.000142	1.418908	0.480739	0.000057
 500	4.9651e+01	19.8700	48.064120	0.000223	2.229712	0.755447	0.000089
 501	4.9750e+01	19.9166	48.169085	0.000264	2.635114	0.892801	0.000105
 502	4.9849e+01	19.9567	48.261939	0.000233	2.331063	0.789785	0.000093
 503	4.9949e+01	20.0032	48.407276	0.000365	3.648620	1.236186	0.000146
 504	5.0048e+01	19.9567	48.322496	0.000213	2.128362	0.721108	-0.000085
 505	5.0148e+01	19.9182	48.257902	0.000162	1.621609	0.549416	-0.000065
 506	5.0248e+01	19.8732	48.169085	0.000223	2.229712	0.755447	-0.000089
 507	5.0347e+01	19.8315	48.108528	0.000152	1.520258	0.515077	-0.000061
 508	5.0447e+01	19.7946	47.975303	0.000334	3.344568	1.133170	-0.000134
 509	5.0546e+01	19.7561	47.918783	0.000142	1.418908	0.480739	-0.000057
 510	5.0645e+01	19.7192	47.825929	0.000233	2.331063	0.789785	-0.000093
 511	5.0745e+01	19.6807	47.765371	0.000152	1.520258	0.515077	-0.000061
 512	5.0844e+01	19.6406	47.688666	0.000193	1.925660	0.652431	-0.000077
 513	5.0944e+01	19.5893	47.587738	0.000253	2.533764	0.858462	-0.000101
 514	5.1044e+01	19.5604	47.543329	0.000111	1.114856	0.377723	-0.000045
 515	5.1143e+01	19.5203	47.442401	0.000253	2.533764	0.858462	-0.000101
 516	5.1242e+01	19.4722	47.349547	0.000233	2.331063	0.789785	-0.000093
 517	5.1342e+01	19.4433	47.280915	0.000172	1.722959	0.583754	-0.000069
 518	5.1441e+01	19.3839	47.179987	0.000253	2.533764	0.858462	-0.000101
 519	5.1541e+01	19.3567	47.115393	0.000162	1.621609	0.549416	-0.000065
 520	5.1641e+01	19.3342	47.034650	0.000203	2.027011	0.686770	-0.000081
 521	5.1740e+01	19.2765	46.966019	0.000172	1.722959	0.583754	-0.000069
 522	5.1840e+01	19.2364	46.889313	0.000193	1.925660	0.652431	-0.000077
 523	5.1939e+01	19.2027	46.784348	0.000264	2.635114	0.892801	-0.000105
 524	5.2038e+01	19.1610	46.723790	0.000152	1.520258	0.515077	-0.000061
 525	5.2138e+01	19.1289	46.634973	0.000223	2.229712	0.755447	-0.000089
 526	5.2237e+01	19.0775	46.582491	0.000132	1.317557	0.446400	-0.000053
 527	5.2337e+01	19.0294	46.473488	0.000274	2.736465	0.927139	-0.000110
 528	5.2437e+01	19.0086	46.384671	0.000223	2.229712	0.755447	-0.000089
 529	5.2536e+01	18.9604	46.320077	0.000162	1.621609	0.549416	-0.000065
 530	5.2636e+01	18.9203	46.251446	0.000172	1.722959	0.583754	-0.000069
 531	5.2735e+01	18.8882	46.170703	0.000203	2.027011	0.686770	-0.000081
 532	5.2834e+01	18.8481	46.061700	0.000274	2.736465	0.927139	-0.000110
 533	5.2934e+01	18.8096	45.940586	0.000304	3.040516	1.030155	-0.000122
 534	5.3033e+01	18.7647	45.888103	0.000132	1.317557	0.446400	-0.000053
 535	5.3133e+01	18.7214	45.819472	0.000172	1.722959	0.583754	-0.000069
 536	5.3233e+01	18.6845	45.726618	0.000233	2.331063	0.789785	-0.000093
 537	5.3332e+01	18.6396	45.637801	0.000223	2.229712	0.755447	-0.000089
 538	5.3431e+01	18.5995	45.557058	0.000203	2.027011	0.686770	-0.000081
 539	5.3531e+01	18.5626	45.448056	0.000274	2.736465	0.927139	-0.000110
 540	5.3630e+01	18.5289	45.391536	0.000142	1.418908	0.480739	-0.000057
 541	5.3730e+01	18.4808	45.306756	0.000213	2.128362	0.721108	-0.000085
 542	5.3830e+01	18.4439	45.242162	0.000162	1.621609	0.549416	-0.000065
 543	5.3929e+01	18.3989	45.112973	0.000324	3.243218	1.098832	-0.000130
 544	5.4029e+01	18.3588	45.064528	0.000122	1.216207	0.412062	-0.000049
 545	5.4128e+01	18.3219	44.935339	0.000324	3.243218	1.098832	-0.000130
 546	5.4227e+01	18.2834	44.878819	0.000142	1.418908	0.480739	-0.000057
 547	5.4327e+01	18.2465	44.785965	0.000233	2.331063	0.789785	-0.000093
 548	5.4426e+01	18.2032	44.717334	0.000172	1.722959	0.583754	-0.000069
 549	5.4526e+01	18.1631	44.612368	0.000264	2.635114	0.892801	-0.000105
 550	5.4626e+01	18.1342	44.551811	0.000152	1.520258	0.515077	-0.000061
 551	5.4725e+01	18.0797	44.442809	0.000274	2.736465	0.927139	-0.000110
 552	5.4825e+01	18.0524	44.353992	0.000223	2.229712	0.755447	-0.000089
 553	5.4924e+01	18.0011	44.232878	0.000304	3.040516	1.030155	-0.000122
 554	5.5023e+01	17.9658	44.216729	0.000041	0.405402	0.137354	-0.000016
 555	5.5123e+01	17.9241	44.107727	0.000274	2.736465	0.927139	-0.000110
 556	5.5222e+01	17.8984	43.998724	0.000274	2.736465	0.927139	-0.000110
 557	5.5322e+01	17.8503	43.917981	0.000203	2.027011	0.686770	-0.000081
 558	5.5422e+01	17.8070	43.853387	0.000162	1.621609	0.549416	-0.000065
 559	5.5521e+01	17.7749	43.748421	0.000264	2.635114	0.892801	-0.000105
 560	5.5620e+01	17.7284	43.623270	0.000314	3.141867	1.064493	-0.000126
 561	5.5720e+01	17.6915	43.590973	0.000081	0.810804	0.274708	-0.000032
 562	5.5819e+01	17.6482	43.514268	0.000193	1.925660	0.652431	-0.000077
 563	5.5919e+01	17.6081	43.368931	0.000365	3.648620	1.236186	-0.000146
 564	5.6019e+01	17.5728	43.304336	0.000162	1.621609	0.549416	-0.000065
 565	5.6118e+01	17.5278	43.223594	0.000203	2.027011	0.686770	-0.000081
 566	5.6218e+01	17.4861	43.159000	0.000162	1.621609	0.549416	-0.000065
 567	5.6317e+01	17.4444	43.090368	0.000172	1.722959	0.583754	-0.000069
 568	5.6416e+01	17.4123	42.989440	0.000253	2.533764	0.858462	-0.000101
 569	5.6516e+01	17.3674	42.872363	0.000294	2.939166	0.995816	-0.000118
 570	5.6615e+01	17.3450	42.795657	0.000193	1.925660	0.652431	-0.000077
 571	5.6715e+01	17.2808	42.690692	0.000264	2.635114	0.892801	-0.000105
 572	5.6815e+01	17.2535	42.662432	0.000071	0.709454	0.240369	-0.000028
 573	5.6914e+01	17.2086	42.529206	0.000334	3.344568	1.133170	-0.000134
 574	5.7014e+01	17.1733	42.452501	0.000193	1.925660	0.652431	-0.000077
 575	5.7113e+01	17.1252	42.379832	0.000182	1.824310	0.618093	-0.000073
 576	5.7212e+01	17.0835	42.266793	0.000284	2.837815	0.961478	-0.000114
 577	5.7312e+01	17.0370	42.165864	0.000253	2.533764	0.858462	-0.000101
 578	5.7411e+01	17.0113	42.113381	0.000132	1.317557	0.446400	-0.000053
 579	5.7511e+01	16.9664	42.012453	0.000253	2.533764	0.858462	-0.000101
 580	5.7611e+01	16.9359	41.939785	0.000182	1.824310	0.618093	-0.000073
 581	5.7710e+01	16.8878	41.818671	0.000304	3.040516	1.030155	-0.000122
 582	5.7809e+01	16.8460	41.762151	0.000142	1.418908	0.480739	-0.000057
 583	5.7909e+01	16.8075	41.665259	0.000243	2.432413	0.824124	-0.000097
 584	5.8008e+01	16.7787	41.572405	0.000233	2.331063	0.789785	-0.000093
 585	5.8108e+01	16.7338	41.519922	0.000132	1.317557	0.446400	-0.000053
 586	5.8208e+01	16.6936	41.394771	0.000314	3.141867	1.064493	-0.000126
 587	5.8307e+01	16.6455	41.366511	0.000071	0.709454	0.240369	-0.000028
 588	5.8407e+01	16.6118	41.293843	0.000182	1.824310	0.618093	-0.000073
 589	5.8506e+01	16.5733	41.192915	0.000253	2.533764	0.858462	-0.000101
 590	5.8605e+01	16.5268	41.083912	0.000274	2.736465	0.927139	-0.000110
 591	5.8705e+01	16.4931	40.991058	0.000233	2.331063	0.789785	-0.000093
 592	5.8804e+01	16.4530	40.878018	0.000284	2.837815	0.961478	-0.000114
 593	5.8904e+01	16.4161	40.801312	0.000193	1.925660	0.652431	-0.000077
 594	5.9004e+01	16.3808	40.728644	0.000182	1.824310	0.618093	-0.000073
 595	5.9103e+01	16.3391	40.619641	0.000274	2.736465	0.927139	-0.000110
 596	5.9203e+01	16.2974	40.546973	0.000182	1.824310	0.618093	-0.000073
 597	5.9302e+01	16.2461	40.474304	0.000182	1.824310	0.618093	-0.000073
 598	5.9401e+01	16.2092	40.409710	0.000162	1.621609	0.549416	-0.000065
 599	5.9501e+01	16.1675	40.296670	0.000284	2.837815	0.961478	-0.000114
 600	5.9600e+01	16.1241	40.236113	0.000152	1.520258	0.515077	-0.000061
 601	5.9700e+01	16.0889	40.123074	0.000284	2.837815	0.961478	-0.000114
 602	5.9800e+01	16.0503	40.014071	0.000274	2.736465	0.927139	-0.000110
 603	5.9899e+01	16.0086	39.957551	0.000142	1.418908	0.480739	-0.000057
 604	5.9998e+01	15.9782	39.872771	0.000213	2.128362	0.721108	-0.000085
 605	6.0098e+01	15.9381	39.787991	0.000213	2.128362	0.721108	-0.000085
 606	6.0197e+01	15.8979	39.743583	0.000111	1.114856	0.377723	-0.000045
 607	6.0297e+01	15.8594	39.630543	0.000284	2.837815	0.961478	-0.000114
 608	6.0397e+01	15.8177	39.549800	0.000203	2.027011	0.686770	-0.000081
 609	6.0496e+01	15.7824	39.448872	0.000253	2.533764	0.858462	-0.000101
 610	6.0596e+01	15.7391	39.319684	0.000324	3.243218	1.098832	-0.000130
 611	6.0695e+01	15.6878	39.259126	0.000152	1.520258	0.515077	-0.000061
 612	6.0794e+01	15.6573	39.182421	0.000193	1.925660	0.652431	-0.000077
 613	6.0894e+01	15.6124	39.093604	0.000223	2.229712	0.755447	-0.000089
 614	6.0993e+01	15.5755	38.984601	0.000274	2.736465	0.927139	-0.000110
 615	6.1093e+01	15.5418	38.920007	0.000162	1.621609	0.549416	-0.000065
 616	6.1193e+01	15.4953	38.786782	0.000334	3.344568	1.133170	-0.000134
 617	6.1292e+01	15.4552	38.718150	0.000172	1.722959	0.583754	-0.000069
 618	6.1392e+01	15.4183	38.621259	0.000243	2.432413	0.824124	-0.000097
 619	6.1491e+01	15.3718	38.572813	0.000122	1.216207	0.412062	-0.000049
 620	6.1590e+01	15.3333	38.431514	0.000355	3.547269	1.201847	-0.000142
 621	6.1690e+01	15.2899	38.322511	0.000274	2.736465	0.927139	-0.000110
 622	6.1789e+01	15.2611	38.241768	0.000203	2.027011	0.686770	-0.000081
 623	6.1889e+01	15.2129	38.197360	0.000111	1.114856	0.377723	-0.000045
 624	6.1989e+01	15.1712	38.096431	0.000253	2.533764	0.858462	-0.000101
 625	6.2088e+01	15.1311	38.047986	0.000122	1.216207	0.412062	-0.000049
 626	6.2188e+01	15.0974	37.902649	0.000365	3.648620	1.236186	-0.000146
 627	6.2287e+01	15.0541	37.842092	0.000152	1.520258	0.515077	-0.000061
 628	6.2386e+01	15.0140	37.712903	0.000324	3.243218	1.098832	-0.000130
 629	6.2486e+01	14.9819	37.628124	0.000213	2.128362	0.721108	-0.000085
 630	6.2586e+01	14.9338	37.543344	0.000213	2.128362	0.721108	-0.000085
 631	6.2685e+01	14.8985	37.502972	0.000101	1.013505	0.343385	-0.000041
 632	6.2785e+01	14.8552	37.381858	0.000304	3.040516	1.030155	-0.000122
 633	6.2884e+01	14.8263	37.264781	0.000294	2.939166	0.995816	-0.000118
 634	6.2983e+01	14.7846	37.216336	0.000122	1.216207	0.412062	-0.000049
 635	6.3083e+01	14.7333	37.091185	0.000314	3.141867	1.064493	-0.000126
 636	6.3182e+01	14.6964	36.998330	0.000233	2.331063	0.789785	-0.000093
 637	6.3282e+01	14.6547	36.905476	0.000233	2.331063	0.789785	-0.000093
 638	6.3382e+01	14.6065	36.824734	0.000203	2.027011	0.686770	-0.000081
 639	6.3481e+01	14.5696	36.748028	0.000193	1.925660	0.652431	-0.000077
 640	6.3581e+01	14.5327	36.667285	0.000203	2.027011	0.686770	-0.000081
 641	6.3680e+01	14.5007	36.594617	0.000182	1.824310	0.618093	-0.000073
 642	6.3779e+01	14.4590	36.477540	0.000294	2.939166	0.995816	-0.000118
 643	6.3879e+01	14.4188	36.457354	0.000051	0.506753	0.171692	-0.000020
 644	6.3978e+01	14.3739	36.324129	0.000334	3.344568	1.133170	-0.000134
 645	6.4078e+01	14.3418	36.271646	0.000132	1.317557	0.446400	-0.000053
 646	6.4177e+01	14.3033	36.118235	0.000385	3.851321	1.304863	-0.000154
 647	6.4277e+01	14.2568	35.989047	0.000324	3.243218	1.098832	-0.000130
 648	6.4376e+01	14.2183	35.896192	0.000233	2.331063	0.789785	-0.000093
 649	6.4476e+01	14.1846	35.855821	0.000101	1.013505	0.343385	-0.000041
 650	6.4576e+01	14.1509	35.742781	0.000284	2.837815	0.961478	-0.000114
 651	6.4675e+01	14.0980	35.649927	0.000233	2.331063	0.789785	-0.000093
 652	6.4775e+01	14.0579	35.569184	0.000203	2.027011	0.686770	-0.000081
 653	6.4874e+01	14.0306	35.448070	0.000304	3.040516	1.030155	-0.000122
 654	6.4974e+01	13.9793	35.363290	0.000213	2.128362	0.721108	-0.000085
 655	6.5073e+01	13.9408	35.286585	0.000193	1.925660	0.652431	-0.000077
 656	6.5172e+01	13.8991	35.157397	0.000324	3.243218	1.098832	-0.000130
 657	6.5272e+01	13.8654	35.117025	0.000101	1.013505	0.343385	-0.000041
 658	6.5371e+01	13.8140	34.971688	0.000365	3.648620	1.236186	-0.000146
 659	6.5471e+01	13.7772	34.935354	0.000091	0.912155	0.309046	-0.000037
 660	6.5570e+01	13.7338	34.822314	0.000284	2.837815	0.961478	-0.000114
 661	6.5670e+01	13.7001	34.757720	0.000162	1.621609	0.549416	-0.000065
 662	6.5769e+01	13.6665	34.689089	0.000172	1.722959	0.583754	-0.000069
 663	6.5869e+01	13.6296	34.563938	0.000314	3.141867	1.064493	-0.000126
 664	6.5969e+01	13.5895	34.438786	0.000314	3.141867	1.064493	-0.000126
 665	6.6068e+01	13.5526	34.349969	0.000223	2.229712	0.755447	-0.000089
 666	6.6168e+01	13.5108	34.228855	0.000304	3.040516	1.030155	-0.000122
 667	6.6267e+01	13.4579	34.144076	0.000213	2.128362	0.721108	-0.000085
 668	6.6367e+01	13.4226	34.022961	0.000304	3.040516	1.030155	-0.000122
 669	6.6466e+01	13.3777	33.954330	0.000172	1.722959	0.583754	-0.000069
 670	6.6566e+01	13.3536	33.861476	0.000233	2.331063	0.789785	-0.000093
 671	6.6665e+01	13.3071	33.776696	0.000213	2.128362	0.721108	-0.000085
 672	6.6764e+01	13.2622	33.647508	0.000324	3.243218	1.098832	-0.000130
 673	6.6864e+01	13.2269	33.578877	0.000172	1.722959	0.583754	-0.000069
 674	6.6963e+01	13.1884	33.473911	0.000264	2.635114	0.892801	-0.000105
 675	6.7063e+01	13.1371	33.344723	0.000324	3.243218	1.098832	-0.000130
 676	6.7162e+01	13.1050	33.280128	0.000162	1.621609	0.549416	-0.000065
 677	6.7262e+01	13.0681	33.207460	0.000182	1.824310	0.618093	-0.000073
 678	6.7362e+01	13.0151	33.118643	0.000223	2.229712	0.755447	-0.000089
 679	6.7461e+01	12.9879	33.033863	0.000213	2.128362	0.721108	-0.000085
 680	6.7561e+01	12.9430	32.924861	0.000274	2.736465	0.927139	-0.000110
 681	6.7660e+01	12.9044	32.836044	0.000223	2.229712	0.755447	-0.000089
 682	6.7760e+01	12.8724	32.714929	0.000304	3.040516	1.030155	-0.000122
 683	6.7859e+01	12.8194	32.589778	0.000314	3.141867	1.064493	-0.000126
 684	6.7959e+01	12.7954	32.476738	0.000284	2.837815	0.961478	-0.000114
 685	6.8058e+01	12.7488	32.355624	0.000304	3.040516	1.030155	-0.000122
 686	6.8157e+01	12.7071	32.250659	0.000264	2.635114	0.892801	-0.000105
 687	6.8257e+01	12.6638	32.198176	0.000132	1.317557	0.446400	-0.000053
 688	6.8356e+01	12.6253	32.125508	0.000182	1.824310	0.618093	-0.000073
 689	6.8456e+01	12.5964	31.996319	0.000324	3.243218	1.098832	-0.000130
 690	6.8555e+01	12.5531	31.939799	0.000142	1.418908	0.480739	-0.000057
 691	6.8655e+01	12.5082	31.762165	0.000446	4.459424	1.510894	-0.000179
 692	6.8754e+01	12.4681	31.729868	0.000081	0.810804	0.274708	-0.000032
 693	6.8854e+01	12.4232	31.616829	0.000284	2.837815	0.961478	-0.000114
 694	6.8954e+01	12.3895	31.536086	0.000203	2.027011	0.686770	-0.000081
 695	6.9053e+01	12.3430	31.443232	0.000233	2.331063	0.789785	-0.000093
 696	6.9153e+01	12.3109	31.414972	0.000071	0.709454	0.240369	-0.000028
 697	6.9252e+01	12.2756	31.289821	0.000314	3.141867	1.064493	-0.000126
 698	6.9352e+01	12.2259	31.180818	0.000274	2.736465	0.927139	-0.000110
 699	6.9451e+01	12.1890	31.112187	0.000172	1.722959	0.583754	-0.000069
 700	6.9550e+01	12.1456	31.011258	0.000253	2.533764	0.858462	-0.000101
 701	6.9650e+01	12.1216	30.886107	0.000314	3.141867	1.064493	-0.000126
 702	6.9749e+01	12.0831	30.797290	0.000223	2.229712	0.755447	-0.000089
 703	6.9849e+01	12.0205	30.668102	0.000324	3.243218	1.098832	-0.000130
 704	6.9948e+01	11.9916	30.571210	0.000243	2.432413	0.824124	-0.000097
 705	7.0048e+01	11.9515	30.433948	0.000345	3.445919	1.167509	-0.000138
 706	7.0147e+01	11.9050	30.337057	0.000243	2.432413	0.824124	-0.000097
 707	7.0247e+01	11.8681	30.248240	0.000223	2.229712	0.755447	-0.000089
 708	7.0347e+01	11.8344	30.143274	0.000264	2.635114	0.892801	-0.000105
 709	7.0446e+01	11.7815	30.066568	0.000193	1.925660	0.652431	-0.000077
 710	7.0546e+01	11.7462	29.961603	0.000264	2.635114	0.892801	-0.000105
 711	7.0645e+01	11.7141	29.884897	0.000193	1.925660	0.652431	-0.000077
 712	7.0745e+01	11.6676	29.779932	0.000264	2.635114	0.892801	-0.000105
 713	7.0844e+01	11.6291	29.654781	0.000314	3.141867	1.064493	-0.000126
 714	7.0944e+01	11.5890	29.594224	0.000152	1.520258	0.515077	-0.000061
 715	7.1043e+01	11.5505	29.537704	0.000142	1.418908	0.480739	-0.000057
 716	7.1142e+01	11.5184	29.424664	0.000284	2.837815	0.961478	-0.000114
 717	7.1242e+01	11.4590	29.327773	0.000243	2.432413	0.824124	-0.000097
 718	7.1341e+01	11.4318	29.222807	0.000264	2.635114	0.892801	-0.000105
 719	7.1441e+01	11.3981	29.138027	0.000213	2.128362	0.721108	-0.000085
 720	7.1540e+01	11.3596	29.024987	0.000284	2.837815	0.961478	-0.000114
 721	7.1640e+01	11.3243	28.920022	0.000264	2.635114	0.892801	-0.000105
 722	7.1740e+01	11.2697	28.798908	0.000304	3.040516	1.030155	-0.000122
 723	7.1839e+01	11.2344	28.681831	0.000294	2.939166	0.995816	-0.000118
 724	7.1939e+01	11.1975	28.601088	0.000203	2.027011	0.686770	-0.000081
 725	7.2038e+01	11.1494	28.508234	0.000233	2.331063	0.789785	-0.000093
 726	7.2138e+01	11.1173	28.407306	0.000253	2.533764	0.858462	-0.000101
 727	7.2237e+01	11.0772	28.318489	0.000223	2.229712	0.755447	-0.000089
 728	7.2337e+01	11.0259	28.181226	0.000345	3.445919	1.167509	-0.000138
 729	7.2436e+01	10.9986	28.092409	0.000223	2.229712	0.755447	-0.000089
 730	7.2535e+01	10.9553	28.023778	0.000172	1.722959	0.583754	-0.000069
 731	7.2635e+01	10.9152	27.930924	0.000233	2.331063	0.789785	-0.000093
 732	7.2734e+01	10.8735	27.825958	0.000264	2.635114	0.892801	-0.000105
 733	7.2834e+01	10.8334	27.733104	0.000233	2.331063	0.789785	-0.000093
 734	7.2933e+01	10.8061	27.640250	0.000233	2.331063	0.789785	-0.000093
 735	7.3033e+01	10.7500	27.583730	0.000142	1.418908	0.480739	-0.000057
 736	7.3132e+01	10.7099	27.442430	0.000355	3.547269	1.201847	-0.000142
 737	7.3232e+01	10.6730	27.410133	0.000081	0.810804	0.274708	-0.000032
 738	7.3332e+01	10.6457	27.293056	0.000294	2.939166	0.995816	-0.000118
 739	7.3431e+01	10.5895	27.175979	0.000294	2.939166	0.995816	-0.000118
 740	7.3531e+01	10.5655	27.030642	0.000365	3.648620	1.236186	-0.000146
 741	7.3630e+01	10.5174	26.933751	0.000243	2.432413	0.824124	-0.000097
 742	7.3730e+01	10.4853	26.844934	0.000223	2.229712	0.755447	-0.000089
 743	7.3829e+01	10.4387	26.744006	0.000253	2.533764	0.858462	-0.000101
 744	7.3928e+01	10.3954	26.630966	0.000284	2.837815	0.961478	-0.000114
 745	7.4028e+01	10.3537	26.505815	0.000314	3.141867	1.064493	-0.000126
 746	7.4127e+01	10.3168	26.429109	0.000193	1.925660	0.652431	-0.000077
 747	7.4227e+01	10.2815	26.356441	0.000182	1.824310	0.618093	-0.000073
 748	7.4326e+01	10.2382	26.287809	0.000172	1.722959	0.583754	-0.000069
 749	7.4426e+01	10.1917	26.150547	0.000345	3.445919	1.167509	-0.000138
 750	7.4525e+01	10.1548	26.053655	0.000243	2.432413	0.824124	-0.000097
 751	7.4625e+01	10.1227	25.997136	0.000142	1.418908	0.480739	-0.000057
 752	7.4725e+01	10.0682	25.924467	0.000182	1.824310	0.618093	-0.000073
 753	7.4824e+01	10.0313	25.851799	0.000182	1.824310	0.618093	-0.000073
 754	7.4924e+01	9.9976	25.750870	0.000253	2.533764	0.858462	-0.000101
 755	7.5023e+01	9.9623	25.666090	0.000213	2.128362	0.721108	-0.000085
 756	7.5123e+01	9.9158	25.581311	0.000213	2.128362	0.721108	-0.000085
 757	7.5222e+01	9.8853	25.488456	0.000233	2.331063	0.789785	-0.000093
 758	7.5322e+01	9.8404	25.355231	0.000334	3.344568	1.133170	-0.000134
 759	7.5421e+01	9.8115	25.234117	0.000304	3.040516	1.030155	-0.000122
 760	7.5520e+01	9.7618	25.137226	0.000243	2.432413	0.824124	-0.000097
 761	7.5620e+01	9.7152	25.032260	0.000264	2.635114	0.892801	-0.000105
 762	7.5719e+01	9.6848	24.907109	0.000314	3.141867	1.064493	-0.000126
 763	7.5819e+01	9.6430	24.818292	0.000223	2.229712	0.755447	-0.000089
 764	7.5918e+01	9.6094	24.741586	0.000193	1.925660	0.652431	-0.000077
 765	7.6018e+01	9.5580	24.624509	0.000294	2.939166	0.995816	-0.000118
 766	7.6118e+01	9.5227	24.559915	0.000162	1.621609	0.549416	-0.000065
 767	7.6217e+01	9.4762	24.434764	0.000314	3.141867	1.064493	-0.000126
 768	7.6317e+01	9.4345	24.345947	0.000223	2.229712	0.755447	-0.000089
 769	7.6416e+01	9.4008	24.289427	0.000142	1.418908	0.480739	-0.000057
 770	7.6516e+01	9.3543	24.204647	0.000213	2.128362	0.721108	-0.000085
 771	7.6615e+01	9.3286	24.115830	0.000223	2.229712	0.755447	-0.000089
 772	7.6715e+01	9.2853	24.035088	0.000203	2.027011	0.686770	-0.000081
 773	7.6814e+01	9.2308	23.926085	0.000274	2.736465	0.927139	-0.000110
 774	7.6913e+01	9.2003	23.869565	0.000142	1.418908	0.480739	-0.000057
 775	7.7013e+01	9.1602	23.724228	0.000365	3.648620	1.236186	-0.000146
 776	7.7112e+01	9.1313	23.643485	0.000203	2.027011	0.686770	-0.000081
 777	7.7212e+01	9.0832	23.554668	0.000223	2.229712	0.755447	-0.000089
 778	7.7311e+01	9.0463	23.425480	0.000324	3.243218	1.098832	-0.000130
 779	7.7411e+01	9.0046	23.320515	0.000264	2.635114	0.892801	-0.000105
 780	7.7510e+01	8.9677	23.215549	0.000264	2.635114	0.892801	-0.000105
 781	7.7610e+01	8.9260	23.078286	0.000345	3.445919	1.167509	-0.000138
 782	7.7710e+01	8.8891	23.021767	0.000142	1.418908	0.480739	-0.000057
 783	7.7809e+01	8.8489	22.896615	0.000314	3.141867	1.064493	-0.000126
 784	7.7909e+01	8.7944	22.815873	0.000203	2.027011	0.686770	-0.000081
 785	7.8008e+01	8.7607	22.710907	0.000264	2.635114	0.892801	-0.000105
 786	7.8108e+01	8.7190	22.585756	0.000314	3.141867	1.064493	-0.000126
 787	7.8207e+01	8.6805	22.521162	0.000162	1.621609	0.549416	-0.000065
 788	7.8306e+01	8.6500	22.428308	0.000233	2.331063	0.789785	-0.000093
 789	7.8406e+01	8.6067	22.311231	0.000294	2.939166	0.995816	-0.000118
 790	7.8505e+01	8.5586	22.258748	0.000132	1.317557	0.446400	-0.000053
 791	7.8605e+01	8.5217	22.206265	0.000132	1.317557	0.446400	-0.000053
 792	7.8704e+01	8.4880	22.089188	0.000294	2.939166	0.995816	-0.000118
 793	7.8804e+01	8.4447	21.964037	0.000314	3.141867	1.064493	-0.000126
 794	7.8903e+01	8.4062	21.903480	0.000152	1.520258	0.515077	-0.000061
 795	7.9003e+01	8.3709	21.798514	0.000264	2.635114	0.892801	-0.000105
 796	7.9103e+01	8.3308	21.657215	0.000355	3.547269	1.201847	-0.000142
 797	7.9202e+01	8.2859	21.564361	0.000233	2.331063	0.789785	-0.000093
 798	7.9302e+01	8.2442	21.423061	0.000355	3.547269	1.201847	-0.000142
 799	7.9401e+01	8.2105	21.346355	0.000193	1.925660	0.652431	-0.000077
 800	7.9501e+01	8.1575	21.221204	0.000314	3.141867	1.064493	-0.000126
 801	7.9600e+01	8.1303	21.172758	0.000122	1.216207	0.412062	-0.000049
 802	7.9700e+01	8.0885	21.015310	0.000395	3.952671	1.339201	-0.000158
 803	7.9799e+01	8.0468	20.950716	0.000162	1.621609	0.549416	-0.000065
 804	7.9898e+01	8.0019	20.865936	0.000213	2.128362	0.721108	-0.000085
 805	7.9998e+01	7.9602	20.752896	0.000284	2.837815	0.961478	-0.000114
 806	8.0097e+01	7.9233	20.635819	0.000294	2.939166	0.995816	-0.000118
 807	8.0197e+01	7.8832	20.567188	0.000172	1.722959	0.583754	-0.000069
 808	8.0296e+01	7.8447	20.498557	0.000172	1.722959	0.583754	-0.000069
 809	8.0396e+01	7.8062	20.429925	0.000172	1.722959	0.583754	-0.000069
 810	8.0496e+01	7.7661	20.333034	0.000243	2.432413	0.824124	-0.000097
 811	8.0595e+01	7.7244	20.215957	0.000294	2.939166	0.995816	-0.000118
 812	8.0695e+01	7.6891	20.135214	0.000203	2.027011	0.686770	-0.000081
 813	8.0794e+01	7.6426	20.022175	0.000284	2.837815	0.961478	-0.000114
 814	8.0894e+01	7.6041	19.961618	0.000152	1.520258	0.515077	-0.000061
 815	8.0993e+01	7.5591	19.840504	0.000304	3.040516	1.030155	-0.000122
 816	8.1093e+01	7.5367	19.727464	0.000284	2.837815	0.961478	-0.000114
 817	8.1192e+01	7.4966	19.578090	0.000375	3.749970	1.270524	-0.000150
 818	8.1291e+01	7.4436	19.477161	0.000253	2.533764	0.858462	-0.000101
 819	8.1391e+01	7.4083	19.360084	0.000294	2.939166	0.995816	-0.000118
 820	8.1490e+01	7.3747	19.251082	0.000274	2.736465	0.927139	-0.000110
 821	8.1590e+01	7.3346	19.182450	0.000172	1.722959	0.583754	-0.000069
 822	8.1689e+01	7.2880	19.041151	0.000355	3.547269	1.201847	-0.000142
 823	8.1789e+01	7.2495	18.988668	0.000132	1.317557	0.446400	-0.000053
 824	8.1888e+01	7.2158	18.863517	0.000314	3.141867	1.064493	-0.000126
 825	8.1988e+01	7.1677	18.782774	0.000203	2.027011	0.686770	-0.000081
 826	8.2088e+01	7.1196	18.693957	0.000223	2.229712	0.755447	-0.000089
 827	8.2187e+01	7.0923	18.609177	0.000213	2.128362	0.721108	-0.000085
 828	8.2287e+01	7.0458	18.516323	0.000233	2.331063	0.789785	-0.000093
 829	8.2386e+01	7.0105	18.419432	0.000243	2.432413	0.824124	-0.000097
 830	8.2486e+01	6.9752	18.346763	0.000182	1.824310	0.618093	-0.000073
 831	8.2585e+01	6.9287	18.213538	0.000334	3.344568	1.133170	-0.000134
 832	8.2684e+01	6.8918	18.136832	0.000193	1.925660	0.652431	-0.000077
 833	8.2784e+01	6.8453	18.027830	0.000274	2.736465	0.927139	-0.000110
 834	8.2883e+01	6.8068	17.890567	0.000345	3.445919	1.167509	-0.000138
 835	8.2983e+01	6.7683	17.793676	0.000243	2.432413	0.824124	-0.000097
 836	8.3082e+01	6.7314	17.684673	0.000274	2.736465	0.927139	-0.000110
 837	8.3182e+01	6.6880	17.555485	0.000324	3.243218	1.098832	-0.000130
 838	8.3281e+01	6.6544	17.466668	0.000223	2.229712	0.755447	-0.000089
 839	8.3381e+01	6.6094	17.305182	0.000405	4.054022	1.373540	-0.000162
 840	8.3481e+01	6.5741	17.236551	0.000172	1.722959	0.583754	-0.000069
 841	8.3580e+01	6.5356	17.123511	0.000284	2.837815	0.961478	-0.000114
 842	8.3680e+01	6.4971	17.006434	0.000294	2.939166	0.995816	-0.000118
 843	8.3779e+01	6.4506	16.925692	0.000203	2.027011	0.686770	-0.000081
 844	8.3879e+01	6.4201	16.828800	0.000243	2.432413	0.824124	-0.000097
 845	8.3978e+01	6.3704	16.752095	0.000193	1.925660	0.652431	-0.000077
 846	8.4078e+01	6.3303	16.663278	0.000223	2.229712	0.755447	-0.000089
 847	8.4177e+01	6.2870	16.562349	0.000253	2.533764	0.858462	-0.000101
 848	8.4276e+01	6.2501	16.465458	0.000243	2.432413	0.824124	-0.000097
 849	8.4376e+01	6.2116	16.352418	0.000284	2.837815	0.961478	-0.000114
 850	8.4475e+01	6.1683	16.255527	0.000243	2.432413	0.824124	-0.000097
 851	8.4575e+01	6.1410	16.182859	0.000182	1.824310	0.618093	-0.000073
 852	8.4674e+01	6.0961	16.045596	0.000345	3.445919	1.167509	-0.000138
 853	8.4774e+01	6.0592	15.948705	0.000243	2.432413	0.824124	-0.000097
 854	8.4874e+01	6.0079	15.815479	0.000334	3.344568	1.133170	-0.000134
 855	8.4973e+01	5.9726	15.726662	0.000223	2.229712	0.755447	-0.000089
 856	8.5073e+01	5.9341	15.573251	0.000385	3.851321	1.304863	-0.000154
 857	8.5172e+01	5.9004	15.464248	0.000274	2.736465	0.927139	-0.000110
 858	8.5272e+01	5.8506	15.339097	0.000314	3.141867	1.064493	-0.000126
 859	8.5371e+01	5.8121	15.254317	0.000213	2.128362	0.721108	-0.000085
 860	8.5471e+01	5.7768	15.129166	0.000314	3.141867	1.064493	-0.000126
 861	8.5570e+01	5.7303	15.068609	0.000152	1.520258	0.515077	-0.000061
 862	8.5669e+01	5.7014	14.959606	0.000274	2.736465	0.927139	-0.000110
 863	8.5769e+01	5.6597	14.854641	0.000264	2.635114	0.892801	-0.000105
 864	8.5868e+01	5.6132	14.773898	0.000203	2.027011	0.686770	-0.000081
 865	8.5968e+01	5.5811	14.709304	0.000162	1.621609	0.549416	-0.000065
 866	8.6067e+01	5.5282	14.596264	0.000284	2.837815	0.961478	-0.000114
 867	8.6167e+01	5.5041	14.531670	0.000162	1.621609	0.549416	-0.000065
 868	8.6266e+01	5.4512	14.386333	0.000365	3.648620	1.236186	-0.000146
 869	8.6366e+01	5.4127	14.301553	0.000213	2.128362	0.721108	-0.000085
 870	8.6466e+01	5.3790	14.176402	0.000314	3.141867	1.064493	-0.000126
 871	8.6565e+01	5.3293	14.071437	0.000264	2.635114	0.892801	-0.000105
 872	8.6665e+01	5.2956	13.970508	0.000253	2.533764	0.858462	-0.000101
 873	8.6764e+01	5.2619	13.901877	0.000172	1.722959	0.583754	-0.000069
 874	8.6864e+01	5.2202	13.740391	0.000405	4.054022	1.373540	-0.000162
 875	8.6963e+01	5.1785	13.631389	0.000274	2.736465	0.927139	-0.000110
 876	8.7063e+01	5.1416	13.514312	0.000294	2.939166	0.995816	-0.000118
 877	8.7162e+01	5.0966	13.417421	0.000243	2.432413	0.824124	-0.000097
 878	8.7261e+01	5.0549	13.336678	0.000203	2.027011	0.686770	-0.000081
 879	8.7361e+01	5.0100	13.223638	0.000284	2.837815	0.961478	-0.000114
 880	8.7460e+01	4.9699	13.102524	0.000304	3.040516	1.030155	-0.000122
 881	8.7560e+01	4.9362	13.017744	0.000213	2.128362	0.721108	-0.000085
 882	8.7659e+01	4.8961	12.957187	0.000152	1.520258	0.515077	-0.000061
 883	8.7759e+01	4.8592	12.868370	0.000223	2.229712	0.755447	-0.000089
 884	8.7859e+01	4.8207	12.787627	0.000203	2.027011	0.686770	-0.000081
 885	8.7958e+01	4.7806	12.614031	0.000436	4.358074	1.476555	-0.000174
 886	8.8058e+01	4.7453	12.557511	0.000142	1.418908	0.480739	-0.000057
 887	8.8157e+01	4.7036	12.424285	0.000334	3.344568	1.133170	-0.000134
 888	8.8257e+01	4.6619	12.315283	0.000274	2.736465	0.927139	-0.000110
 889	8.8356e+01	4.6170	12.242614	0.000182	1.824310	0.618093	-0.000073
 890	8.8456e+01	4.5721	12.113426	0.000324	3.243218	1.098832	-0.000130
 891	8.8555e+01	4.5304	12.036720	0.000193	1.925660	0.652431	-0.000077
 892	8.8654e+01	4.5111	11.911569	0.000314	3.141867	1.064493	-0.000126
 893	8.8754e+01	4.4614	11.729898	0.000456	4.560775	1.545232	-0.000183
 894	8.8853e+01	4.4213	11.645118	0.000213	2.128362	0.721108	-0.000085
 895	8.8953e+01	4.3844	11.548227	0.000243	2.432413	0.824124	-0.000097
 896	8.9052e+01	4.3411	11.415001	0.000334	3.344568	1.133170	-0.000134
 897	8.9152e+01	4.3090	11.342333	0.000182	1.824310	0.618093	-0.000073
 898	8.9251e+01	4.2608	11.273702	0.000172	1.722959	0.583754	-0.000069
 899	8.9351e+01	4.2191	11.120290	0.000385	3.851321	1.304863	-0.000154
 900	8.9451e+01	4.1822	11.043585	0.000193	1.925660	0.652431	-0.000077
 901	8.9550e+01	4.1421	11.015325	0.000071	0.709454	0.240369	-0.000028
 902	8.9650e+01	4.1068	10.853839	0.000405	4.054022	1.373540	-0.000162
 903	8.9749e+01	4.0619	10.805394	0.000122	1.216207	0.412062	-0.000049
 904	8.9849e+01	4.0266	10.704465	0.000253	2.533764	0.858462	-0.000101
 905	8.9948e+01	3.9785	10.599500	0.000264	2.635114	0.892801	-0.000105
 906	9.0047e+01	3.9512	10.482423	0.000294	2.939166	0.995816	-0.000118
 907	9.0147e+01	3.8935	10.377457	0.000264	2.635114	0.892801	-0.000105
 908	9.0246e+01	3.8502	10.284603	0.000233	2.331063	0.789785	-0.000093
 909	9.0346e+01	3.8165	10.135229	0.000375	3.749970	1.270524	-0.000150
 910	9.0445e+01	3.7812	10.046412	0.000223	2.229712	0.755447	-0.000089
 911	9.0545e+01	3.7379	9.929335	0.000294	2.939166	0.995816	-0.000118
 912	9.0644e+01	3.6994	9.759776	0.000426	4.256723	1.442217	-0.000170
 913	9.0744e+01	3.6641	9.687107	0.000182	1.824310	0.618093	-0.000073
 914	9.0844e+01	3.6256	9.630587	0.000142	1.418908	0.480739	-0.000057
 915	9.0943e+01	3.5790	9.513510	0.000294	2.939166	0.995816	-0.000118
 916	9.1043e+01	3.5405	9.408545	0.000264	2.635114	0.892801	-0.000105
 917	9.1142e+01	3.5004	9.311654	0.000243	2.432413	0.824124	-0.000097
 918	9.1242e+01	3.4651	9.194577	0.000294	2.939166	0.995816	-0.000118
 919	9.1341e+01	3.4282	9.101723	0.000233	2.331063	0.789785	-0.000093
 920	9.1441e+01	3.3833	9.069425	0.000081	0.810804	0.274708	-0.000032
 921	9.1540e+01	3.3416	8.988683	0.000203	2.027011	0.686770	-0.000081
 922	9.1639e+01	3.3015	8.863532	0.000314	3.141867	1.064493	-0.000126
 923	9.1739e+01	3.2694	8.794900	0.000172	1.722959	0.583754	-0.000069
 924	9.1838e+01	3.2309	8.669749	0.000314	3.141867	1.064493	-0.000126
 925	9.1938e+01	3.1892	8.605155	0.000162	1.621609	0.549416	-0.000065
 926	9.2037e+01	3.1443	8.484041	0.000304	3.040516	1.030155	-0.000122
 927	9.2137e+01	3.1106	8.371001	0.000284	2.837815	0.961478	-0.000114
 928	9.2237e+01	3.0673	8.270073	0.000253	2.533764	0.858462	-0.000101
 929	9.2336e+01	3.0224	8.177218	0.000233	2.331063	0.789785	-0.000093
 930	9.2436e+01	2.9935	8.035919	0.000355	3.547269	1.201847	-0.000142
 931	9.2535e+01	2.9454	7.898656	0.000345	3.445919	1.167509	-0.000138
 932	9.2635e+01	2.9037	7.834062	0.000162	1.621609	0.549416	-0.000065
 933	9.2734e+01	2.8684	7.753319	0.000203	2.027011	0.686770	-0.000081
 934	9.2834e+01	2.8395	7.583759	0.000426	4.256723	1.442217	-0.000170
 935	9.2933e+01	2.7849	7.519165	0.000162	1.621609	0.549416	-0.000065
 936	9.3032e+01	2.7464	7.422274	0.000243	2.432413	0.824124	-0.000097
 937	9.3132e+01	2.7128	7.321346	0.000253	2.533764	0.858462	-0.000101
 938	9.3231e+01	2.6727	7.280974	0.000101	1.013505	0.343385	-0.000041
 939	9.3331e+01	2.6293	7.196194	0.000213	2.128362	0.721108	-0.000085
 940	9.3430e+01	2.5892	7.119489	0.000193	1.925660	0.652431	-0.000077
 941	9.3530e+01	2.5459	6.990301	0.000324	3.243218	1.098832	-0.000130
 942	9.3629e+01	2.5058	6.901484	0.000223	2.229712	0.755447	-0.000089
 943	9.3729e+01	2.4657	6.800555	0.000253	2.533764	0.858462	-0.000101
 944	9.3829e+01	2.4288	6.687515	0.000284	2.837815	0.961478	-0.000114
 945	9.3928e+01	2.3919	6.610810	0.000193	1.925660	0.652431	-0.000077
 946	9.4028e+01	2.3470	6.501807	0.000274	2.736465	0.927139	-0.000110
 947	9.4127e+01	2.3037	6.404916	0.000243	2.432413	0.824124	-0.000097
 948	9.4227e+01	2.2620	6.291876	0.000284	2.837815	0.961478	-0.000114
 949	9.4326e+01	2.2251	6.154613	0.000345	3.445919	1.167509	-0.000138
 950	9.4425e+01	2.1962	6.017351	0.000345	3.445919	1.167509	-0.000138
 951	9.4525e+01	2.1545	5.908348	0.000274	2.736465	0.927139	-0.000110
 952	9.4624e+01	2.1144	5.807420	0.000253	2.533764	0.858462	-0.000101
 953	9.4724e+01	2.0775	5.662083	0.000365	3.648620	1.236186	-0.000146
 954	9.4823e+01	2.0358	5.613637	0.000122	1.216207	0.412062	-0.000049
 955	9.4923e+01	1.9844	5.452152	0.000405	4.054022	1.373540	-0.000162
 956	9.5022e+01	1.9556	5.383521	0.000172	1.722959	0.583754	-0.000069
 957	9.5122e+01	1.9090	5.343149	0.000101	1.013505	0.343385	-0.000041
 958	9.5222e+01	1.8737	5.254332	0.000223	2.229712	0.755447	-0.000089
 959	9.5321e+01	1.8320	5.169552	0.000213	2.128362	0.721108	-0.000085
 960	9.5421e+01	1.7903	5.060550	0.000274	2.736465	0.927139	-0.000110
 961	9.5520e+01	1.7470	4.999993	0.000152	1.520258	0.515077	-0.000061
 962	9.5620e+01	1.7037	4.874841	0.000314	3.141867	1.064493	-0.000126
 963	9.5719e+01	1.6716	4.753727	0.000304	3.040516	1.030155	-0.000122
 964	9.5819e+01	1.6363	4.652799	0.000253	2.533764	0.858462	-0.000101
 965	9.5918e+01	1.5866	4.539759	0.000284	2.837815	0.961478	-0.000114
 966	9.6017e+01	1.5545	4.450942	0.000223	2.229712	0.755447	-0.000089
 967	9.6117e+01	1.5096	4.345977	0.000264	2.635114	0.892801	-0.000105
 968	9.6216e+01	1.4743	4.204677	0.000355	3.547269	1.201847	-0.000142
 969	9.6316e+01	1.4294	4.099711	0.000264	2.635114	0.892801	-0.000105
 970	9.6415e+01	1.3909	3.978597	0.000304	3.040516	1.030155	-0.000122
 971	9.6515e+01	1.3604	3.865557	0.000284	2.837815	0.961478	-0.000114
 972	9.6615e+01	1.3091	3.800963	0.000162	1.621609	0.549416	-0.000065
 973	9.6714e+01	1.2802	3.695998	0.000264	2.635114	0.892801	-0.000105
 974	9.6814e+01	1.2256	3.558735	0.000345	3.445919	1.167509	-0.000138
 975	9.6913e+01	1.1984	3.526438	0.000081	0.810804	0.274708	-0.000032
 976	9.7013e+01	1.1534	3.393213	0.000334	3.344568	1.133170	-0.000134
 977	9.7112e+01	1.1149	3.300358	0.000233	2.331063	0.789785	-0.000093
 978	9.7212e+01	1.0700	3.199430	0.000253	2.533764	0.858462	-0.000101
 979	9.7311e+01	1.0347	3.134836	0.000162	1.621609	0.549416	-0.000065
 980	9.7410e+01	0.9914	3.041982	0.000233	2.331063	0.789785	-0.000093
 981	9.7510e+01	0.9481	2.945091	0.000243	2.432413	0.824124	-0.000097
 982	9.7609e+01	0.9128	2.868385	0.000193	1.925660	0.652431	-0.000077
 983	9.7709e+01	0.8695	2.747271	0.000304	3.040516	1.030155	-0.000122
 984	9.7808e+01	0.8358	2.642305	0.000264	2.635114	0.892801	-0.000105
 985	9.7908e+01	0.7909	2.545414	0.000243	2.432413	0.824124	-0.000097
 986	9.8007e+01	0.7524	2.416226	0.000324	3.243218	1.098832	-0.000130
 987	9.8107e+01	0.7155	2.315297	0.000253	2.533764	0.858462	-0.000101
 988	9.8207e+01	0.6802	2.202258	0.000284	2.837815	0.961478	-0.000114
 989	9.8306e+01	0.6337	2.073069	0.000324	3.243218	1.098832	-0.000130
 990	9.8406e+01	0.5936	1.951955	0.000304	3.040516	1.030155	-0.000122
 991	9.8505e+01	0.5567	1.855064	0.000243	2.432413	0.824124	-0.000097
 992	9.8605e+01	0.5230	1.733950	0.000304	3.040516	1.030155	-0.000122
 993	9.8704e+01	0.4749	1.661281	0.000182	1.824310	0.618093	-0.000073
 994	9.8803e+01	0.4412	1.564390	0.000243	2.432413	0.824124	-0.000097
 995	9.8903e+01	0.3898	1.463462	0.000253	2.533764	0.858462	-0.000101
 996	9.9002e+01	0.3577	1.382719	0.000203	2.027011	0.686770	-0.000081
 997	9.9102e+01	0.3096	1.297939	0.000213	2.128362	0.721108	-0.000085
 998	9.9201e+01	0.2823	1.160677	0.000345	3.445919	1.167509	-0.000138
 999	9.9301e+01	0.2358	1.128379	0.000081	0.810804	0.274708	-0.000032
1000	9.9400e+01	0.1925	0.966894	0.000405	4.054022	1.373540	-0.000162
1001	9.9500e+01	0.1556	0.902300	0.000162	1.621609	0.549416	-0.000065
1002	9.9600e+01	0.1139	0.728703	0.000436	4.358074	1.476555	-0.000174
1003	9.9699e+01	0.0850	0.708517	0.000051	0.506753	0.171692	-0.000020
1004	9.9799e+01	0.0385	0.579329	0.000324	3.243218	1.098832	-0.000130
1005	9.9898e+01	0.0080	0.470326	0.000274	2.736465	0.927139	-0.000110
1006	9.9998e+01	-0.0369	0.349212	0.000304	3.040516	1.030155	-0.000122
1007	1.0010e+02	-0.0722	0.236172	0.000284	2.837815	0.961478	-0.000114
1008	1.0020e+02	-0.1123	0.111021	0.000314	3.141867	1.064493	-0.000126
1009	1.0030e+02	-0.1524	-0.038353	0.000375	3.749970	1.270524	-0.000150
1010	1.0040e+02	-0.1925	-0.123133	0.000213	2.128362	0.721108	-0.000085
1011	1.0050e+02	-0.2310	-0.203875	0.000203	2.027011	0.686770	-0.000081
1012	1.0059e+02	-0.2775	-0.337101	0.000334	3.344568	1.133170	-0.000134
1013	1.0069e+02	-0.3176	-0.429955	0.000233	2.331063	0.789785	-0.000093
1014	1.0079e+02	-0.3561	-0.526846	0.000243	2.432413	0.824124	-0.000097
1015	1.0089e+02	-0.3995	-0.547032	0.000051	0.506753	0.171692	-0.000020
1016	1.0099e+02	-0.4315	-0.656035	0.000274	2.736465	0.927139	-0.000110
1017	1.0109e+02	-0.4668	-0.797334	0.000355	3.547269	1.201847	-0.000142
1018	1.0119e+02	-0.5198	-0.874040	0.000193	1.925660	0.652431	-0.000077
1019	1.0129e+02	-0.5583	-1.003228	0.000324	3.243218	1.098832	-0.000130
1020	1.0139e+02	-0.5936	-1.124342	0.000304	3.040516	1.030155	-0.000122
1021	1.0149e+02	-0.6353	-1.188936	0.000162	1.621609	0.549416	-0.000065
1022	1.0159e+02	-0.6658	-1.314088	0.000314	3.141867	1.064493	-0.000126
1023	1.0169e+02	-0.7139	-1.435202	0.000304	3.040516	1.030155	-0.000122
1024	1.0179e+02	-0.7524	-1.540167	0.000264	2.635114	0.892801	-0.000105
1025	1.0189e+02	-0.7973	-1.645133	0.000264	2.635114	0.892801	-0.000105
1026	1.0199e+02	-0.8246	-1.810655	0.000416	4.155373	1.407878	-0.000166
1027	1.0209e+02	-0.8711	-1.907547	0.000243	2.432413	0.824124	-0.000097
1028	1.0219e+02	-0.9080	-2.052884	0.000365	3.648620	1.236186	-0.000146
1029	1.0229e+02	-0.9545	-2.109403	0.000142	1.418908	0.480739	-0.000057
1030	1.0239e+02	-0.9930	-2.218406	0.000274	2.736465	0.927139	-0.000110
1031	1.0248e+02	-1.0299	-2.315297	0.000243	2.432413	0.824124	-0.000097
1032	1.0258e+02	-1.0684	-2.367780	0.000132	1.317557	0.446400	-0.000053
1033	1.0268e+02	-1.1149	-2.496968	0.000324	3.243218	1.098832	-0.000130
1034	1.0278e+02	-1.1631	-2.605971	0.000274	2.736465	0.927139	-0.000110
1035	1.0288e+02	-1.1952	-2.674602	0.000172	1.722959	0.583754	-0.000069
1036	1.0298e+02	-1.2337	-2.747271	0.000182	1.824310	0.618093	-0.000073
1037	1.0308e+02	-1.2850	-2.892608	0.000365	3.648620	1.236186	-0.000146
1038	1.0318e+02	-1.3171	-2.977388	0.000213	2.128362	0.721108	-0.000085
1039	1.0328e+02	-1.3460	-3.062167	0.000213	2.128362	0.721108	-0.000085
1040	1.0338e+02	-1.3925	-3.203467	0.000355	3.547269	1.201847	-0.000142
1041	1.0348e+02	-1.4326	-3.316507	0.000284	2.837815	0.961478	-0.000114
1042	1.0358e+02	-1.4695	-3.393213	0.000193	1.925660	0.652431	-0.000077
1043	1.0368e+02	-1.5192	-3.494141	0.000253	2.533764	0.858462	-0.000101
1044	1.0378e+02	-1.5497	-3.639478	0.000365	3.648620	1.236186	-0.000146
1045	1.0388e+02	-1.5898	-3.760592	0.000304	3.040516	1.030155	-0.000122
1046	1.0398e+02	-1.6331	-3.853446	0.000233	2.331063	0.789785	-0.000093
1047	1.0408e+02	-1.6636	-3.974560	0.000304	3.040516	1.030155	-0.000122
1048	1.0418e+02	-1.7181	-4.091637	0.000294	2.939166	0.995816	-0.000118
1049	1.0428e+02	-1.7406	-4.160268	0.000172	1.722959	0.583754	-0.000069
1050	1.0438e+02	-1.7855	-4.281382	0.000304	3.040516	1.030155	-0.000122
1051	1.0447e+02	-1.8320	-4.358088	0.000193	1.925660	0.652431	-0.000077
1052	1.0457e+02	-1.8689	-4.434794	0.000193	1.925660	0.652431	-0.000077
1053	1.0467e+02	-1.9058	-4.568019	0.000334	3.344568	1.133170	-0.000134
1054	1.0477e+02	-1.9459	-4.608390	0.000101	1.013505	0.343385	-0.000041
1055	1.0487e+02	-1.9909	-4.753727	0.000365	3.648620	1.236186	-0.000146
1056	1.0497e+02	-2.0245	-4.822359	0.000172	1.722959	0.583754	-0.000069
1057	1.0507e+02	-2.0791	-4.979807	0.000395	3.952671	1.339201	-0.000158
1058	1.0517e+02	-2.1160	-5.028253	0.000122	1.216207	0.412062	-0.000049
1059	1.0527e+02	-2.1513	-5.129181	0.000253	2.533764	0.858462	-0.000101
1060	1.0537e+02	-2.1930	-5.274518	0.000365	3.648620	1.236186	-0.000146
1061	1.0547e+02	-2.2283	-5.387558	0.000284	2.837815	0.961478	-0.000114
1062	1.0557e+02	-2.2668	-5.496560	0.000274	2.736465	0.927139	-0.000110
1063	1.0567e+02	-2.3085	-5.601526	0.000264	2.635114	0.892801	-0.000105
1064	1.0577e+02	-2.3502	-5.730714	0.000324	3.243218	1.098832	-0.000130
1065	1.0587e+02	-2.3823	-5.827605	0.000243	2.432413	0.824124	-0.000097
1066	1.0597e+02	-2.4240	-5.948720	0.000304	3.040516	1.030155	-0.000122
1067	1.0607e+02	-2.4753	-6.081945	0.000334	3.344568	1.133170	-0.000134
1068	1.0617e+02	-2.5026	-6.158651	0.000193	1.925660	0.652431	-0.000077
1069	1.0627e+02	-2.5411	-6.259579	0.000253	2.533764	0.858462	-0.000101
1070	1.0637e+02	-2.5940	-6.316099	0.000142	1.418908	0.480739	-0.000057
1071	1.0647e+02	-2.6197	-6.437213	0.000304	3.040516	1.030155	-0.000122
1072	1.0656e+02	-2.6727	-6.526030	0.000223	2.229712	0.755447	-0.000089
1073	1.0666e+02	-2.6999	-6.590624	0.000162	1.621609	0.549416	-0.000065
1074	1.0676e+02	-2.7561	-6.687515	0.000243	2.432413	0.824124	-0.000097
1075	1.0686e+02	-2.7898	-6.768258	0.000203	2.027011	0.686770	-0.000081
1076	1.0696e+02	-2.8331	-6.885335	0.000294	2.939166	0.995816	-0.000118
1077	1.0706e+02	-2.8716	-6.994338	0.000274	2.736465	0.927139	-0.000110
1078	1.0716e+02	-2.9101	-7.115452	0.000304	3.040516	1.030155	-0.000122
1079	1.0726e+02	-2.9502	-7.176009	0.000152	1.520258	0.515077	-0.000061
1080	1.0736e+02	-2.9839	-7.321346	0.000365	3.648620	1.236186	-0.000146
1081	1.0746e+02	-3.0192	-7.422274	0.000253	2.533764	0.858462	-0.000101
1082	1.0756e+02	-3.0593	-7.559537	0.000345	3.445919	1.167509	-0.000138
1083	1.0766e+02	-3.1106	-7.660465	0.000253	2.533764	0.858462	-0.000101
1084	1.0776e+02	-3.1379	-7.773505	0.000284	2.837815	0.961478	-0.000114
1085	1.0786e+02	-3.1764	-7.886545	0.000284	2.837815	0.961478	-0.000114
1086	1.0796e+02	-3.2309	-7.991510	0.000264	2.635114	0.892801	-0.000105
1087	1.0806e+02	-3.2710	-8.080327	0.000223	2.229712	0.755447	-0.000089
1088	1.0816e+02	-3.3047	-8.193367	0.000284	2.837815	0.961478	-0.000114
1089	1.0826e+02	-3.3368	-8.278147	0.000213	2.128362	0.721108	-0.000085
1090	1.0836e+02	-3.3833	-8.290258	0.000030	0.304052	0.103015	-0.000012
1091	1.0845e+02	-3.4186	-8.391187	0.000253	2.533764	0.858462	-0.000101
1092	1.0855e+02	-3.4603	-8.496152	0.000264	2.635114	0.892801	-0.000105
1093	1.0865e+02	-3.4988	-8.621303	0.000314	3.141867	1.064493	-0.000126
1094	1.0875e+02	-3.5389	-8.693972	0.000182	1.824310	0.618093	-0.000073
1095	1.0885e+02	-3.5887	-8.802974	0.000274	2.736465	0.927139	-0.000110
1096	1.0895e+02	-3.6256	-8.899866	0.000243	2.432413	0.824124	-0.000097
1097	1.0905e+02	-3.6673	-9.049240	0.000375	3.749970	1.270524	-0.000150
1098	1.0915e+02	-3.7042	-9.089611	0.000101	1.013505	0.343385	-0.000041
1099	1.0925e+02	-3.7491	-9.202651	0.000284	2.837815	0.961478	-0.000114
1100	1.0935e+02	-3.7780	-9.323765	0.000304	3.040516	1.030155	-0.000122
1101	1.0945e+02	-3.8133	-9.436805	0.000284	2.837815	0.961478	-0.000114
1102	1.0955e+02	-3.8550	-9.517548	0.000203	2.027011	0.686770	-0.000081
1103	1.0965e+02	-3.8951	-9.606364	0.000223	2.229712	0.755447	-0.000089
1104	1.0975e+02	-3.9320	-9.743627	0.000345	3.445919	1.167509	-0.000138
1105	1.0985e+02	-3.9833	-9.848593	0.000264	2.635114	0.892801	-0.000105
1106	1.0995e+02	-4.0186	-9.925298	0.000193	1.925660	0.652431	-0.000077
1107	1.1005e+02	-4.0491	-10.042375	0.000294	2.939166	0.995816	-0.000118
1108	1.1015e+02	-4.1004	-10.127155	0.000213	2.128362	0.721108	-0.000085
1109	1.1025e+02	-4.1405	-10.207898	0.000203	2.027011	0.686770	-0.000081
1110	1.1035e+02	-4.1790	-10.288640	0.000203	2.027011	0.686770	-0.000081
1111	1.1044e+02	-4.2079	-10.393606	0.000264	2.635114	0.892801	-0.000105
1112	1.1054e+02	-4.2689	-10.446089	0.000132	1.317557	0.446400	-0.000053
1113	1.1064e+02	-4.3009	-10.583351	0.000345	3.445919	1.167509	-0.000138
1114	1.1074e+02	-4.3459	-10.639871	0.000142	1.418908	0.480739	-0.000057
1115	1.1084e+02	-4.3715	-10.777134	0.000345	3.445919	1.167509	-0.000138
1116	1.1094e+02	-4.4245	-10.882099	0.000264	2.635114	0.892801	-0.000105
1117	1.1104e+02	-4.4534	-10.995139	0.000284	2.837815	0.961478	-0.000114
1118	1.1114e+02	-4.4967	-11.063770	0.000172	1.722959	0.583754	-0.000069
1119	1.1124e+02	-4.5400	-11.221219	0.000395	3.952671	1.339201	-0.000158
1120	1.1134e+02	-4.5689	-11.350407	0.000324	3.243218	1.098832	-0.000130
1121	1.1144e+02	-4.6138	-11.431150	0.000203	2.027011	0.686770	-0.000081
1122	1.1154e+02	-4.6555	-11.515930	0.000213	2.128362	0.721108	-0.000085
1123	1.1164e+02	-4.6924	-11.628969	0.000284	2.837815	0.961478	-0.000114
1124	1.1174e+02	-4.7421	-11.754121	0.000314	3.141867	1.064493	-0.000126
1125	1.1184e+02	-4.7710	-11.846975	0.000233	2.331063	0.789785	-0.000093
1126	1.1194e+02	-4.8127	-11.968089	0.000304	3.040516	1.030155	-0.000122
1127	1.1204e+02	-4.8592	-12.012497	0.000111	1.114856	0.377723	-0.000045
1128	1.1214e+02	-4.8993	-12.040757	0.000071	0.709454	0.240369	-0.000028
1129	1.1224e+02	-4.9362	-12.173983	0.000334	3.344568	1.133170	-0.000134
1130	1.1234e+02	-4.9731	-12.303171	0.000324	3.243218	1.098832	-0.000130
1131	1.1244e+02	-5.0212	-12.391988	0.000223	2.229712	0.755447	-0.000089
1132	1.1253e+02	-5.0533	-12.468694	0.000193	1.925660	0.652431	-0.000077
1133	1.1263e+02	-5.0999	-12.553474	0.000213	2.128362	0.721108	-0.000085
1134	1.1273e+02	-5.1384	-12.694773	0.000355	3.547269	1.201847	-0.000142
1135	1.1283e+02	-5.1769	-12.751293	0.000142	1.418908	0.480739	-0.000057
1136	1.1293e+02	-5.2138	-12.848184	0.000243	2.432413	0.824124	-0.000097
1137	1.1303e+02	-5.2523	-13.021781	0.000436	4.358074	1.476555	-0.000174
1138	1.1313e+02	-5.2908	-13.098487	0.000193	1.925660	0.652431	-0.000077
1139	1.1323e+02	-5.3357	-13.203452	0.000264	2.635114	0.892801	-0.000105
1140	1.1333e+02	-5.3774	-13.316492	0.000284	2.837815	0.961478	-0.000114
1141	1.1343e+02	-5.4111	-13.409346	0.000233	2.331063	0.789785	-0.000093
1142	1.1353e+02	-5.4512	-13.494126	0.000213	2.128362	0.721108	-0.000085
1143	1.1363e+02	-5.4913	-13.631389	0.000345	3.445919	1.167509	-0.000138
1144	1.1373e+02	-5.5266	-13.700020	0.000172	1.722959	0.583754	-0.000069
1145	1.1383e+02	-5.5715	-13.825171	0.000314	3.141867	1.064493	-0.000126
1146	1.1393e+02	-5.6148	-13.853431	0.000071	0.709454	0.240369	-0.000028
1147	1.1403e+02	-5.6549	-13.942248	0.000223	2.229712	0.755447	-0.000089
1148	1.1413e+02	-5.6966	-14.075474	0.000334	3.344568	1.133170	-0.000134
1149	1.1423e+02	-5.7335	-14.136031	0.000152	1.520258	0.515077	-0.000061
1150	1.1433e+02	-5.7752	-14.245033	0.000274	2.736465	0.927139	-0.000110
1151	1.1442e+02	-5.8137	-14.329813	0.000213	2.128362	0.721108	-0.000085
1152	1.1452e+02	-5.8506	-14.426705	0.000243	2.432413	0.824124	-0.000097
1153	1.1462e+02	-5.8940	-14.563967	0.000345	3.445919	1.167509	-0.000138
1154	1.1472e+02	-5.9421	-14.652784	0.000223	2.229712	0.755447	-0.000089
1155	1.1482e+02	-5.9694	-14.802158	0.000375	3.749970	1.270524	-0.000150
1156	1.1492e+02	-6.0175	-14.943458	0.000355	3.547269	1.201847	-0.000142
1157	1.1502e+02	-6.0512	-15.036312	0.000233	2.331063	0.789785	-0.000093
1158	1.1512e+02	-6.0913	-15.084758	0.000122	1.216207	0.412062	-0.000049
1159	1.1522e+02	-6.1282	-15.161463	0.000193	1.925660	0.652431	-0.000077
1160	1.1532e+02	-6.1779	-15.310837	0.000375	3.749970	1.270524	-0.000150
1161	1.1542e+02	-6.2084	-15.399654	0.000223	2.229712	0.755447	-0.000089
1162	1.1552e+02	-6.2597	-15.544991	0.000365	3.648620	1.236186	-0.000146
1163	1.1562e+02	-6.2918	-15.629771	0.000213	2.128362	0.721108	-0.000085
1164	1.1572e+02	-6.3351	-15.666105	0.000091	0.912155	0.309046	-0.000037
1165	1.1582e+02	-6.3672	-15.783182	0.000294	2.939166	0.995816	-0.000118
1166	1.1592e+02	-6.4105	-15.839702	0.000142	1.418908	0.480739	-0.000057
1167	1.1602e+02	-6.4538	-15.952742	0.000284	2.837815	0.961478	-0.000114
1168	1.1612e+02	-6.4843	-16.033485	0.000203	2.027011	0.686770	-0.000081
1169	1.1622e+02	-6.5164	-16.146524	0.000284	2.837815	0.961478	-0.000114
1170	1.1632e+02	-6.5677	-16.287824	0.000355	3.547269	1.201847	-0.000142
1171	1.1642e+02	-6.6062	-16.360493	0.000182	1.824310	0.618093	-0.000073
1172	1.1651e+02	-6.6640	-16.497755	0.000345	3.445919	1.167509	-0.000138
1173	1.1661e+02	-6.6752	-16.598684	0.000253	2.533764	0.858462	-0.000101
1174	1.1671e+02	-6.7265	-16.727872	0.000324	3.243218	1.098832	-0.000130
1175	1.1681e+02	-6.7586	-16.828800	0.000253	2.533764	0.858462	-0.000101
1176	1.1691e+02	-6.8068	-16.921654	0.000233	2.331063	0.789785	-0.000093
1177	1.1701e+02	-6.8453	-17.034694	0.000284	2.837815	0.961478	-0.000114
1178	1.1711e+02	-6.8950	-17.147734	0.000284	2.837815	0.961478	-0.000114
1179	1.1721e+02	-6.9287	-17.256737	0.000274	2.736465	0.927139	-0.000110
1180	1.1731e+02	-6.9624	-17.284997	0.000071	0.709454	0.240369	-0.000028
1181	1.1741e+02	-7.0137	-17.414185	0.000324	3.243218	1.098832	-0.000130
1182	1.1751e+02	-7.0426	-17.474742	0.000152	1.520258	0.515077	-0.000061
1183	1.1761e+02	-7.0875	-17.620079	0.000365	3.648620	1.236186	-0.000146
1184	1.1771e+02	-7.1244	-17.696785	0.000193	1.925660	0.652431	-0.000077
1185	1.1781e+02	-7.1677	-17.821936	0.000314	3.141867	1.064493	-0.000126
1186	1.1791e+02	-7.1902	-17.894604	0.000182	1.824310	0.618093	-0.000073
1187	1.1801e+02	-7.2495	-18.031867	0.000345	3.445919	1.167509	-0.000138
1188	1.1811e+02	-7.2944	-18.108572	0.000193	1.925660	0.652431	-0.000077
1189	1.1821e+02	-7.3297	-18.257946	0.000375	3.749970	1.270524	-0.000150
1190	1.1831e+02	-7.3570	-18.314466	0.000142	1.418908	0.480739	-0.000057
1191	1.1841e+02	-7.3955	-18.463840	0.000375	3.749970	1.270524	-0.000150
1192	1.1850e+02	-7.4388	-18.584954	0.000304	3.040516	1.030155	-0.000122
1193	1.1860e+02	-7.4837	-18.726254	0.000355	3.547269	1.201847	-0.000142
1194	1.1870e+02	-7.5271	-18.746440	0.000051	0.506753	0.171692	-0.000020
1195	1.1880e+02	-7.5656	-18.879665	0.000334	3.344568	1.133170	-0.000134
1196	1.1890e+02	-7.6009	-19.004816	0.000314	3.141867	1.064493	-0.000126
1197	1.1900e+02	-7.6490	-19.085559	0.000203	2.027011	0.686770	-0.000081
1198	1.1910e+02	-7.6746	-19.162265	0.000193	1.925660	0.652431	-0.000077
1199	1.1920e+02	-7.7212	-19.255119	0.000233	2.331063	0.789785	-0.000093
1200	1.1930e+02	-7.7613	-19.339899	0.000213	2.128362	0.721108	-0.000085
1201	1.1940e+02	-7.8078	-19.416604	0.000193	1.925660	0.652431	-0.000077
1202	1.1950e+02	-7.8351	-19.545793	0.000324	3.243218	1.098832	-0.000130
1203	1.1960e+02	-7.8944	-19.622498	0.000193	1.925660	0.652431	-0.000077
1204	1.1970e+02	-7.9249	-19.735538	0.000284	2.837815	0.961478	-0.000114
1205	1.1980e+02	-7.9746	-19.804169	0.000172	1.722959	0.583754	-0.000069
1206	1.1990e+02	-8.0083	-19.937395	0.000334	3.344568	1.133170	-0.000134
1207	1.2000e+02	-8.0404	-20.026212	0.000223	2.229712	0.755447	-0.000089
1208	1.2010e+02	-8.0821	-20.155400	0.000324	3.243218	1.098832	-0.000130
1209	1.2020e+02	-8.1174	-20.244217	0.000223	2.229712	0.755447	-0.000089
1210	1.2030e+02	-8.1575	-20.377443	0.000334	3.344568	1.133170	-0.000134
1211	1.2039e+02	-8.2024	-20.514705	0.000345	3.445919	1.167509	-0.000138
1212	1.2049e+02	-8.2409	-20.555077	0.000101	1.013505	0.343385	-0.000041
1213	1.2059e+02	-8.2859	-20.672154	0.000294	2.939166	0.995816	-0.000118
1214	1.2069e+02	-8.3179	-20.793268	0.000304	3.040516	1.030155	-0.000122
1215	1.2079e+02	-8.3629	-20.890159	0.000243	2.432413	0.824124	-0.000097
1216	1.2089e+02	-8.4014	-20.995124	0.000264	2.635114	0.892801	-0.000105
1217	1.2099e+02	-8.4335	-21.027421	0.000081	0.810804	0.274708	-0.000032
1218	1.2109e+02	-8.4703	-21.132387	0.000264	2.635114	0.892801	-0.000105
1219	1.2119e+02	-8.5169	-21.225241	0.000233	2.331063	0.789785	-0.000093
1220	1.2129e+02	-8.5650	-21.342318	0.000294	2.939166	0.995816	-0.000118
1221	1.2139e+02	-8.5955	-21.447284	0.000264	2.635114	0.892801	-0.000105
1222	1.2149e+02	-8.6388	-21.519952	0.000182	1.824310	0.618093	-0.000073
1223	1.2159e+02	-8.6789	-21.632992	0.000284	2.837815	0.961478	-0.000114
1224	1.2169e+02	-8.7254	-21.733920	0.000253	2.533764	0.858462	-0.000101
1225	1.2179e+02	-8.7607	-21.818700	0.000213	2.128362	0.721108	-0.000085
1226	1.2189e+02	-8.8072	-21.968074	0.000375	3.749970	1.270524	-0.000150
1227	1.2199e+02	-8.8409	-22.028631	0.000152	1.520258	0.515077	-0.000061
1228	1.2209e+02	-8.8762	-22.194154	0.000416	4.155373	1.407878	-0.000166
1229	1.2219e+02	-8.9260	-22.282971	0.000223	2.229712	0.755447	-0.000089
1230	1.2229e+02	-8.9612	-22.448493	0.000416	4.155373	1.407878	-0.000166
1231	1.2239e+02	-8.9981	-22.521162	0.000182	1.824310	0.618093	-0.000073
1232	1.2248e+02	-9.0350	-22.569607	0.000122	1.216207	0.412062	-0.000049
1233	1.2258e+02	-9.0751	-22.678610	0.000274	2.736465	0.927139	-0.000110
1234	1.2268e+02	-9.1185	-22.791650	0.000284	2.837815	0.961478	-0.000114
1235	1.2278e+02	-9.1618	-22.900652	0.000274	2.736465	0.927139	-0.000110
1236	1.2288e+02	-9.2019	-22.965247	0.000162	1.621609	0.549416	-0.000065
1237	1.2298e+02	-9.2356	-23.070212	0.000264	2.635114	0.892801	-0.000105
1238	1.2308e+02	-9.2837	-23.126732	0.000142	1.418908	0.480739	-0.000057
1239	1.2318e+02	-9.3126	-23.223623	0.000243	2.432413	0.824124	-0.000097
1240	1.2328e+02	-9.3575	-23.300329	0.000193	1.925660	0.652431	-0.000077
1241	1.2338e+02	-9.3960	-23.401257	0.000253	2.533764	0.858462	-0.000101
1242	1.2348e+02	-9.4345	-23.490074	0.000223	2.229712	0.755447	-0.000089
1243	1.2358e+02	-9.4778	-23.574854	0.000213	2.128362	0.721108	-0.000085
1244	1.2368e+02	-9.5163	-23.720191	0.000365	3.648620	1.236186	-0.000146
1245	1.2378e+02	-9.5532	-23.821119	0.000253	2.533764	0.858462	-0.000101
1246	1.2388e+02	-9.5917	-23.909936	0.000223	2.229712	0.755447	-0.000089
1247	1.2398e+02	-9.6286	-24.039125	0.000324	3.243218	1.098832	-0.000130
1248	1.2408e+02	-9.6623	-24.164276	0.000314	3.141867	1.064493	-0.000126
1249	1.2418e+02	-9.7249	-24.289427	0.000314	3.141867	1.064493	-0.000126
1250	1.2428e+02	-9.7585	-24.370170	0.000203	2.027011	0.686770	-0.000081
1251	1.2438e+02	-9.8051	-24.463024	0.000233	2.331063	0.789785	-0.000093
1252	1.2447e+02	-9.8372	-24.535692	0.000182	1.824310	0.618093	-0.000073
1253	1.2457e+02	-9.8757	-24.636621	0.000253	2.533764	0.858462	-0.000101
1254	1.2467e+02	-9.9158	-24.737549	0.000253	2.533764	0.858462	-0.000101
1255	1.2477e+02	-9.9559	-24.790032	0.000132	1.317557	0.446400	-0.000053
1256	1.2487e+02	-9.9944	-24.866738	0.000193	1.925660	0.652431	-0.000077
1257	1.2497e+02	-10.0457	-24.943443	0.000193	1.925660	0.652431	-0.000077
1258	1.2507e+02	-10.0730	-25.020149	0.000193	1.925660	0.652431	-0.000077
1259	1.2517e+02	-10.1211	-25.177597	0.000395	3.952671	1.339201	-0.000158
1260	1.2527e+02	-10.1564	-25.213931	0.000091	0.912155	0.309046	-0.000037
1261	1.2537e+02	-10.1901	-25.359268	0.000365	3.648620	1.236186	-0.000146
1262	1.2547e+02	-10.2382	-25.415788	0.000142	1.418908	0.480739	-0.000057
1263	1.2557e+02	-10.2703	-25.561125	0.000365	3.648620	1.236186	-0.000146
1264	1.2567e+02	-10.3200	-25.649942	0.000223	2.229712	0.755447	-0.000089
1265	1.2577e+02	-10.3537	-25.750870	0.000253	2.533764	0.858462	-0.000101
1266	1.2587e+02	-10.3922	-25.843724	0.000233	2.331063	0.789785	-0.000093
1267	1.2597e+02	-10.4291	-25.968876	0.000314	3.141867	1.064493	-0.000126
1268	1.2607e+02	-10.4724	-26.045581	0.000193	1.925660	0.652431	-0.000077
1269	1.2617e+02	-10.5013	-26.154584	0.000274	2.736465	0.927139	-0.000110
1270	1.2627e+02	-10.5510	-26.259549	0.000264	2.635114	0.892801	-0.000105
1271	1.2636e+02	-10.5911	-26.283772	0.000061	0.608103	0.206031	-0.000024
1272	1.2646e+02	-10.6280	-26.400849	0.000294	2.939166	0.995816	-0.000118
1273	1.2656e+02	-10.6730	-26.497740	0.000243	2.432413	0.824124	-0.000097
1274	1.2666e+02	-10.7163	-26.558297	0.000152	1.520258	0.515077	-0.000061
1275	1.2676e+02	-10.7500	-26.655189	0.000243	2.432413	0.824124	-0.000097
1276	1.2686e+02	-10.7820	-26.768229	0.000284	2.837815	0.961478	-0.000114
1277	1.2696e+02	-10.8334	-26.865120	0.000243	2.432413	0.824124	-0.000097
1278	1.2706e+02	-10.8703	-26.957974	0.000233	2.331063	0.789785	-0.000093
1279	1.2716e+02	-10.9120	-27.042754	0.000213	2.128362	0.721108	-0.000085
1280	1.2726e+02	-10.9585	-27.119459	0.000193	1.925660	0.652431	-0.000077
1281	1.2736e+02	-10.9922	-27.208276	0.000223	2.229712	0.755447	-0.000089
1282	1.2746e+02	-11.0339	-27.317279	0.000274	2.736465	0.927139	-0.000110
1283	1.2756e+02	-11.0804	-27.434356	0.000294	2.939166	0.995816	-0.000118
1284	1.2766e+02	-11.1125	-27.583730	0.000375	3.749970	1.270524	-0.000150
1285	1.2776e+02	-11.1574	-27.652361	0.000172	1.722959	0.583754	-0.000069
1286	1.2786e+02	-11.1863	-27.773475	0.000304	3.040516	1.030155	-0.000122
1287	1.2796e+02	-11.2280	-27.846144	0.000182	1.824310	0.618093	-0.000073
1288	1.2806e+02	-11.2633	-27.963221	0.000294	2.939166	0.995816	-0.000118
1289	1.2816e+02	-11.3179	-28.096446	0.000334	3.344568	1.133170	-0.000134
1290	1.2826e+02	-11.3564	-28.132780	0.000091	0.912155	0.309046	-0.000037
1291	1.2835e+02	-11.3852	-28.217560	0.000213	2.128362	0.721108	-0.000085
1292	1.2845e+02	-11.4270	-28.314451	0.000243	2.432413	0.824124	-0.000097
1293	1.2855e+02	-11.4687	-28.427491	0.000284	2.837815	0.961478	-0.000114
1294	1.2865e+02	-11.5104	-28.439603	0.000030	0.304052	0.103015	-0.000012
1295	1.2875e+02	-11.5553	-28.560717	0.000304	3.040516	1.030155	-0.000122
1296	1.2885e+02	-11.5890	-28.629348	0.000172	1.722959	0.583754	-0.000069
1297	1.2895e+02	-11.6323	-28.746425	0.000294	2.939166	0.995816	-0.000118
1298	1.2905e+02	-11.6676	-28.871576	0.000314	3.141867	1.064493	-0.000126
1299	1.2915e+02	-11.7173	-28.920022	0.000122	1.216207	0.412062	-0.000049
1300	1.2925e+02	-11.7462	-29.057284	0.000345	3.445919	1.167509	-0.000138
1301	1.2935e+02	-11.7783	-29.146101	0.000223	2.229712	0.755447	-0.000089
1302	1.2945e+02	-11.8200	-29.247030	0.000253	2.533764	0.858462	-0.000101
1303	1.2955e+02	-11.8665	-29.356033	0.000274	2.736465	0.927139	-0.000110
1304	1.2965e+02	-11.9098	-29.460998	0.000264	2.635114	0.892801	-0.000105
1305	1.2975e+02	-11.9387	-29.622483	0.000405	4.054022	1.373540	-0.000162
1306	1.2985e+02	-11.9836	-29.662855	0.000101	1.013505	0.343385	-0.000041
1307	1.2995e+02	-12.0269	-29.743598	0.000203	2.027011	0.686770	-0.000081
1308	1.3005e+02	-12.0622	-29.868749	0.000314	3.141867	1.064493	-0.000126
1309	1.3015e+02	-12.1023	-29.913157	0.000111	1.114856	0.377723	-0.000045
1310	1.3025e+02	-12.1489	-30.030234	0.000294	2.939166	0.995816	-0.000118
1311	1.3034e+02	-12.1858	-30.058494	0.000071	0.709454	0.240369	-0.000028
1312	1.3044e+02	-12.2259	-30.147311	0.000223	2.229712	0.755447	-0.000089
1313	1.3054e+02	-12.2740	-30.264388	0.000294	2.939166	0.995816	-0.000118
1314	1.3064e+02	-12.3109	-30.337057	0.000182	1.824310	0.618093	-0.000073
1315	1.3074e+02	-12.3398	-30.462208	0.000314	3.141867	1.064493	-0.000126
1316	1.3084e+02	-12.3799	-30.546988	0.000213	2.128362	0.721108	-0.000085
1317	1.3094e+02	-12.4312	-30.643879	0.000243	2.432413	0.824124	-0.000097
1318	1.3104e+02	-12.4697	-30.732696	0.000223	2.229712	0.755447	-0.000089
1319	1.3114e+02	-12.4986	-30.825550	0.000233	2.331063	0.789785	-0.000093
1320	1.3124e+02	-12.5403	-30.966850	0.000355	3.547269	1.201847	-0.000142
1321	1.3134e+02	-12.5852	-31.059704	0.000233	2.331063	0.789785	-0.000093
1322	1.3144e+02	-12.6205	-31.172744	0.000284	2.837815	0.961478	-0.000114
1323	1.3154e+02	-12.6670	-31.273672	0.000253	2.533764	0.858462	-0.000101
1324	1.3164e+02	-12.7071	-31.394786	0.000304	3.040516	1.030155	-0.000122
1325	1.3174e+02	-12.7408	-31.459380	0.000162	1.621609	0.549416	-0.000065
1326	1.3184e+02	-12.7777	-31.572420	0.000284	2.837815	0.961478	-0.000114
1327	1.3194e+02	-12.8274	-31.649126	0.000193	1.925660	0.652431	-0.000077
1328	1.3204e+02	-12.8595	-31.770240	0.000304	3.040516	1.030155	-0.000122
1329	1.3214e+02	-12.9061	-31.774277	0.000010	0.101351	0.034338	-0.000004
1330	1.3224e+02	-12.9462	-31.907502	0.000334	3.344568	1.133170	-0.000134
1331	1.3234e+02	-12.9702	-31.968059	0.000152	1.520258	0.515077	-0.000061
1332	1.3243e+02	-13.0151	-32.040728	0.000182	1.824310	0.618093	-0.000073
1333	1.3253e+02	-13.0649	-32.153768	0.000284	2.837815	0.961478	-0.000114
1334	1.3263e+02	-13.1066	-32.282956	0.000324	3.243218	1.098832	-0.000130
1335	1.3273e+02	-13.1435	-32.371773	0.000223	2.229712	0.755447	-0.000089
1336	1.3283e+02	-13.1804	-32.488850	0.000294	2.939166	0.995816	-0.000118
1337	1.3293e+02	-13.2173	-32.593815	0.000264	2.635114	0.892801	-0.000105
1338	1.3303e+02	-13.2606	-32.718967	0.000314	3.141867	1.064493	-0.000126
1339	1.3313e+02	-13.3071	-32.836044	0.000294	2.939166	0.995816	-0.000118
1340	1.3323e+02	-13.3392	-32.892563	0.000142	1.418908	0.480739	-0.000057
1341	1.3333e+02	-13.3841	-33.029826	0.000345	3.445919	1.167509	-0.000138
1342	1.3343e+02	-13.4178	-33.090383	0.000152	1.520258	0.515077	-0.000061
1343	1.3353e+02	-13.4707	-33.207460	0.000294	2.939166	0.995816	-0.000118
1344	1.3363e+02	-13.4996	-33.308388	0.000253	2.533764	0.858462	-0.000101
1345	1.3373e+02	-13.5445	-33.377020	0.000172	1.722959	0.583754	-0.000069
1346	1.3383e+02	-13.5750	-33.469874	0.000233	2.331063	0.789785	-0.000093
1347	1.3393e+02	-13.6199	-33.570802	0.000253	2.533764	0.858462	-0.000101
1348	1.3403e+02	-13.6520	-33.663656	0.000233	2.331063	0.789785	-0.000093
1349	1.3413e+02	-13.7001	-33.720176	0.000142	1.418908	0.480739	-0.000057
1350	1.3423e+02	-13.7322	-33.837253	0.000294	2.939166	0.995816	-0.000118
1351	1.3432e+02	-13.7804	-33.922033	0.000213	2.128362	0.721108	-0.000085
1352	1.3442e+02	-13.8237	-34.010850	0.000223	2.229712	0.755447	-0.000089
1353	1.3452e+02	-13.8574	-34.131964	0.000304	3.040516	1.030155	-0.000122
1354	1.3462e+02	-13.9007	-34.224818	0.000233	2.331063	0.789785	-0.000093
1355	1.3472e+02	-13.9328	-34.366118	0.000355	3.547269	1.201847	-0.000142
1356	1.3482e+02	-13.9761	-34.495306	0.000324	3.243218	1.098832	-0.000130
1357	1.3492e+02	-14.0226	-34.555863	0.000152	1.520258	0.515077	-0.000061
1358	1.3502e+02	-14.0499	-34.664866	0.000274	2.736465	0.927139	-0.000110
1359	1.3512e+02	-14.0948	-34.765794	0.000253	2.533764	0.858462	-0.000101
1360	1.3522e+02	-14.1269	-34.866723	0.000253	2.533764	0.858462	-0.000101
1361	1.3532e+02	-14.1734	-34.947466	0.000203	2.027011	0.686770	-0.000081
1362	1.3542e+02	-14.2167	-35.076654	0.000324	3.243218	1.098832	-0.000130
1363	1.3552e+02	-14.2584	-35.141248	0.000162	1.621609	0.549416	-0.000065
1364	1.3562e+02	-14.2953	-35.242176	0.000253	2.533764	0.858462	-0.000101
1365	1.3572e+02	-14.3370	-35.278511	0.000091	0.912155	0.309046	-0.000037
1366	1.3582e+02	-14.3723	-35.399625	0.000304	3.040516	1.030155	-0.000122
1367	1.3592e+02	-14.4204	-35.460182	0.000152	1.520258	0.515077	-0.000061
1368	1.3602e+02	-14.4590	-35.553036	0.000233	2.331063	0.789785	-0.000093
1369	1.3612e+02	-14.4942	-35.637816	0.000213	2.128362	0.721108	-0.000085
1370	1.3622e+02	-14.5327	-35.779115	0.000355	3.547269	1.201847	-0.000142
1371	1.3631e+02	-14.5696	-35.867932	0.000223	2.229712	0.755447	-0.000089
1372	1.3641e+02	-14.6114	-35.936564	0.000172	1.722959	0.583754	-0.000069
1373	1.3651e+02	-14.6531	-36.053641	0.000294	2.939166	0.995816	-0.000118
1374	1.3661e+02	-14.6964	-36.178792	0.000314	3.141867	1.064493	-0.000126
1375	1.3671e+02	-14.7333	-36.267609	0.000223	2.229712	0.755447	-0.000089
1376	1.3681e+02	-14.7750	-36.388723	0.000304	3.040516	1.030155	-0.000122
1377	1.3691e+02	-14.8071	-36.493689	0.000264	2.635114	0.892801	-0.000105
1378	1.3701e+02	-14.8552	-36.570394	0.000193	1.925660	0.652431	-0.000077
1379	1.3711e+02	-14.8937	-36.683434	0.000284	2.837815	0.961478	-0.000114
1380	1.3721e+02	-14.9338	-36.743991	0.000152	1.520258	0.515077	-0.000061
1381	1.3731e+02	-14.9755	-36.844919	0.000253	2.533764	0.858462	-0.000101
1382	1.3741e+02	-15.0172	-36.929699	0.000213	2.128362	0.721108	-0.000085
1383	1.3751e+02	-15.0541	-37.034665	0.000264	2.635114	0.892801	-0.000105
1384	1.3761e+02	-15.0910	-37.083110	0.000122	1.216207	0.412062	-0.000049
1385	1.3771e+02	-15.1359	-37.192113	0.000274	2.736465	0.927139	-0.000110
1386	1.3781e+02	-15.1712	-37.289004	0.000243	2.432413	0.824124	-0.000097
1387	1.3791e+02	-15.2145	-37.369747	0.000203	2.027011	0.686770	-0.000081
1388	1.3801e+02	-15.2498	-37.482787	0.000284	2.837815	0.961478	-0.000114
1389	1.3811e+02	-15.2996	-37.551418	0.000172	1.722959	0.583754	-0.000069
1390	1.3821e+02	-15.3381	-37.624087	0.000182	1.824310	0.618093	-0.000073
1391	1.3831e+02	-15.3750	-37.777498	0.000385	3.851321	1.304863	-0.000154
1392	1.3840e+02	-15.4151	-37.894575	0.000294	2.939166	0.995816	-0.000118
1393	1.3850e+02	-15.4488	-37.995503	0.000253	2.533764	0.858462	-0.000101
1394	1.3860e+02	-15.4792	-38.072209	0.000193	1.925660	0.652431	-0.000077
1395	1.3870e+02	-15.5386	-38.185248	0.000284	2.837815	0.961478	-0.000114
1396	1.3880e+02	-15.5691	-38.302325	0.000294	2.939166	0.995816	-0.000118
1397	1.3890e+02	-15.6060	-38.419402	0.000294	2.939166	0.995816	-0.000118
1398	1.3900e+02	-15.6589	-38.496108	0.000193	1.925660	0.652431	-0.000077
1399	1.3910e+02	-15.6958	-38.613185	0.000294	2.939166	0.995816	-0.000118
1400	1.3920e+02	-15.7375	-38.702002	0.000223	2.229712	0.755447	-0.000089
1401	1.3930e+02	-15.7712	-38.746410	0.000111	1.114856	0.377723	-0.000045
1402	1.3940e+02	-15.8113	-38.835227	0.000223	2.229712	0.755447	-0.000089
1403	1.3950e+02	-15.8578	-38.924044	0.000223	2.229712	0.755447	-0.000089
1404	1.3960e+02	-15.8899	-39.000750	0.000193	1.925660	0.652431	-0.000077
1405	1.3970e+02	-15.9413	-39.093604	0.000233	2.331063	0.789785	-0.000093
1406	1.3980e+02	-15.9733	-39.182421	0.000223	2.229712	0.755447	-0.000089
1407	1.3990e+02	-16.0183	-39.251052	0.000172	1.722959	0.583754	-0.000069
1408	1.4000e+02	-16.0536	-39.396389	0.000365	3.648620	1.236186	-0.000146
1409	1.4010e+02	-16.0856	-39.477132	0.000203	2.027011	0.686770	-0.000081
1410	1.4020e+02	-16.1177	-39.569986	0.000233	2.331063	0.789785	-0.000093
1411	1.4029e+02	-16.1691	-39.703211	0.000334	3.344568	1.133170	-0.000134
1412	1.4039e+02	-16.2108	-39.779917	0.000193	1.925660	0.652431	-0.000077
1413	1.4049e+02	-16.2477	-39.856623	0.000193	1.925660	0.652431	-0.000077
1414	1.4059e+02	-16.2862	-39.945440	0.000223	2.229712	0.755447	-0.000089
1415	1.4069e+02	-16.3391	-40.066554	0.000304	3.040516	1.030155	-0.000122
1416	1.4079e+02	-16.3616	-40.171519	0.000264	2.635114	0.892801	-0.000105
1417	1.4089e+02	-16.4113	-40.264373	0.000233	2.331063	0.789785	-0.000093
1418	1.4099e+02	-16.4514	-40.353190	0.000223	2.229712	0.755447	-0.000089
1419	1.4109e+02	-16.4883	-40.421822	0.000172	1.722959	0.583754	-0.000069
1420	1.4119e+02	-16.5204	-40.514676	0.000233	2.331063	0.789785	-0.000093
1421	1.4129e+02	-16.5669	-40.583307	0.000172	1.722959	0.583754	-0.000069
1422	1.4139e+02	-16.6102	-40.672124	0.000223	2.229712	0.755447	-0.000089
1423	1.4149e+02	-16.6503	-40.740755	0.000172	1.722959	0.583754	-0.000069
1424	1.4159e+02	-16.6888	-40.817461	0.000193	1.925660	0.652431	-0.000077
1425	1.4169e+02	-16.7338	-40.914352	0.000243	2.432413	0.824124	-0.000097
1426	1.4179e+02	-16.7690	-41.011243	0.000243	2.432413	0.824124	-0.000097
1427	1.4189e+02	-16.8059	-41.124283	0.000284	2.837815	0.961478	-0.000114
1428	1.4199e+02	-16.8412	-41.213100	0.000223	2.229712	0.755447	-0.000089
1429	1.4209e+02	-16.8846	-41.362474	0.000375	3.749970	1.270524	-0.000150
1430	1.4219e+02	-16.9343	-41.410920	0.000122	1.216207	0.412062	-0.000049
1431	1.4228e+02	-16.9599	-41.479551	0.000172	1.722959	0.583754	-0.000069
1432	1.4238e+02	-16.9985	-41.568368	0.000223	2.229712	0.755447	-0.000089
1433	1.4248e+02	-17.0418	-41.661222	0.000233	2.331063	0.789785	-0.000093
1434	1.4258e+02	-17.0819	-41.770225	0.000274	2.736465	0.927139	-0.000110
1435	1.4268e+02	-17.1220	-41.846930	0.000193	1.925660	0.652431	-0.000077
1436	1.4278e+02	-17.1749	-41.992267	0.000365	3.648620	1.236186	-0.000146
1437	1.4288e+02	-17.2086	-42.040713	0.000122	1.216207	0.412062	-0.000049
1438	1.4298e+02	-17.2519	-42.133567	0.000233	2.331063	0.789785	-0.000093
1439	1.4308e+02	-17.2856	-42.218347	0.000213	2.128362	0.721108	-0.000085
1440	1.4318e+02	-17.3209	-42.307164	0.000223	2.229712	0.755447	-0.000089
1441	1.4328e+02	-17.3658	-42.355610	0.000122	1.216207	0.412062	-0.000049
1442	1.4338e+02	-17.4027	-42.436352	0.000203	2.027011	0.686770	-0.000081
1443	1.4348e+02	-17.4541	-42.537281	0.000253	2.533764	0.858462	-0.000101
1444	1.4358e+02	-17.4797	-42.630135	0.000233	2.331063	0.789785	-0.000093
1445	1.4368e+02	-17.5182	-42.747212	0.000294	2.939166	0.995816	-0.000118
1446	1.4378e+02	-17.5712	-42.884474	0.000345	3.445919	1.167509	-0.000138
1447	1.4388e+02	-17.6145	-42.953106	0.000172	1.722959	0.583754	-0.000069
1448	1.4398e+02	-17.6289	-43.001551	0.000122	1.216207	0.412062	-0.000049
1449	1.4408e+02	-17.6738	-43.154962	0.000385	3.851321	1.304863	-0.000154
1450	1.4418e+02	-17.7252	-43.231668	0.000193	1.925660	0.652431	-0.000077
1451	1.4428e+02	-17.7685	-43.344708	0.000284	2.837815	0.961478	-0.000114
1452	1.4437e+02	-17.8102	-43.401228	0.000142	1.418908	0.480739	-0.000057
1453	1.4447e+02	-17.8407	-43.449673	0.000122	1.216207	0.412062	-0.000049
1454	1.4457e+02	-17.8792	-43.607122	0.000395	3.952671	1.339201	-0.000158
1455	1.4467e+02	-17.9257	-43.675753	0.000172	1.722959	0.583754	-0.000069
1456	1.4477e+02	-17.9642	-43.744384	0.000172	1.722959	0.583754	-0.000069
1457	1.4487e+02	-18.0091	-43.881647	0.000345	3.445919	1.167509	-0.000138
1458	1.4497e+02	-18.0396	-43.909907	0.000071	0.709454	0.240369	-0.000028
1459	1.4507e+02	-18.0829	-44.018910	0.000274	2.736465	0.927139	-0.000110
1460	1.4517e+02	-18.1246	-44.135986	0.000294	2.939166	0.995816	-0.000118
1461	1.4527e+02	-18.1679	-44.144061	0.000020	0.202701	0.068677	-0.000008
1462	1.4537e+02	-18.2048	-44.244989	0.000253	2.533764	0.858462	-0.000101
1463	1.4547e+02	-18.2449	-44.382252	0.000345	3.445919	1.167509	-0.000138
1464	1.4557e+02	-18.2850	-44.487217	0.000264	2.635114	0.892801	-0.000105
1465	1.4567e+02	-18.3107	-44.588146	0.000253	2.533764	0.858462	-0.000101
1466	1.4577e+02	-18.3604	-44.624480	0.000091	0.912155	0.309046	-0.000037
1467	1.4587e+02	-18.3973	-44.785965	0.000405	4.054022	1.373540	-0.000162
1468	1.4597e+02	-18.4439	-44.866708	0.000203	2.027011	0.686770	-0.000081
1469	1.4607e+02	-18.4824	-44.959562	0.000233	2.331063	0.789785	-0.000093
1470	1.4617e+02	-18.5225	-45.064528	0.000264	2.635114	0.892801	-0.000105
1471	1.4626e+02	-18.5658	-45.141233	0.000193	1.925660	0.652431	-0.000077
1472	1.4636e+02	-18.6075	-45.181605	0.000101	1.013505	0.343385	-0.000041
1473	1.4646e+02	-18.6412	-45.318867	0.000345	3.445919	1.167509	-0.000138
1474	1.4656e+02	-18.6877	-45.383461	0.000162	1.621609	0.549416	-0.000065
1475	1.4666e+02	-18.7182	-45.484390	0.000253	2.533764	0.858462	-0.000101
1476	1.4676e+02	-18.7647	-45.565133	0.000203	2.027011	0.686770	-0.000081
1477	1.4686e+02	-18.8080	-45.657987	0.000233	2.331063	0.789785	-0.000093
1478	1.4696e+02	-18.8353	-45.746804	0.000223	2.229712	0.755447	-0.000089
1479	1.4706e+02	-18.8802	-45.819472	0.000182	1.824310	0.618093	-0.000073
1480	1.4716e+02	-18.9155	-45.884066	0.000162	1.621609	0.549416	-0.000065
1481	1.4726e+02	-18.9556	-45.948660	0.000162	1.621609	0.549416	-0.000065
1482	1.4736e+02	-19.0070	-46.081886	0.000334	3.344568	1.133170	-0.000134
1483	1.4746e+02	-19.0390	-46.166666	0.000213	2.128362	0.721108	-0.000085
1484	1.4756e+02	-19.0743	-46.283743	0.000294	2.939166	0.995816	-0.000118
1485	1.4766e+02	-19.1080	-46.384671	0.000253	2.533764	0.858462	-0.000101
1486	1.4776e+02	-19.1626	-46.485599	0.000253	2.533764	0.858462	-0.000101
1487	1.4786e+02	-19.1898	-46.618825	0.000334	3.344568	1.133170	-0.000134
1488	1.4796e+02	-19.2444	-46.639011	0.000051	0.506753	0.171692	-0.000020
1489	1.4806e+02	-19.2765	-46.756088	0.000294	2.939166	0.995816	-0.000118
1490	1.4816e+02	-19.3198	-46.852979	0.000243	2.432413	0.824124	-0.000097
1491	1.4825e+02	-19.3519	-46.970056	0.000294	2.939166	0.995816	-0.000118
1492	1.4835e+02	-19.4064	-47.058873	0.000223	2.229712	0.755447	-0.000089
1493	1.4845e+02	-19.4401	-47.147690	0.000223	2.229712	0.755447	-0.000089
1494	1.4855e+02	-19.4738	-47.228432	0.000203	2.027011	0.686770	-0.000081
1495	1.4865e+02	-19.5075	-47.321287	0.000233	2.331063	0.789785	-0.000093
1496	1.4875e+02	-19.5572	-47.410104	0.000223	2.229712	0.755447	-0.000089
1497	1.4885e+02	-19.5973	-47.470661	0.000152	1.520258	0.515077	-0.000061
1498	1.4895e+02	-19.6326	-47.543329	0.000182	1.824310	0.618093	-0.000073
1499	1.4905e+02	-19.6631	-47.652332	0.000274	2.736465	0.927139	-0.000110
1500	1.4915e+02	-19.7080	-47.777483	0.000314	3.141867	1.064493	-0.000126
1501	1.4925e+02	-19.7513	-47.829966	0.000132	1.317557	0.446400	-0.000053
1502	1.4935e+02	-19.7866	-47.967228	0.000345	3.445919	1.167509	-0.000138
1503	1.4945e+02	-19.8331	-48.052008	0.000213	2.128362	0.721108	-0.000085
1504	1.4955e+02	-19.8700	-48.161011	0.000274	2.736465	0.927139	-0.000110
1505	1.4965e+02	-19.9133	-48.253865	0.000233	2.331063	0.789785	-0.000093
1506	1.4975e+02	-19.9583	-48.346719	0.000233	2.331063	0.789785	-0.000093
1507	1.4985e+02	-19.9887	-48.407276	0.000152	1.520258	0.515077	-0.000061
1508	1.4995e+02	-19.9647	-48.379016	0.000071	0.709454	0.240369	0.000028
1509	1.5005e+02	-19.9198	-48.330570	0.000122	1.216207	0.412062	0.000049
1510	1.5015e+02	-19.8732	-48.270013	0.000152	1.520258	0.515077	0.000061
1511	1.5025e+02	-19.8363	-48.221568	0.000122	1.216207	0.412062	0.000049
1512	1.5034e+02	-19.7978	-48.161011	0.000152	1.520258	0.515077	0.000061
1513	1.5044e+02	-19.7513	-48.092379	0.000172	1.722959	0.583754	0.000069
1514	1.5054e+02	-19.7128	-48.056045	0.000091	0.912155	0.309046	0.000037
1515	1.5064e+02	-19.6711	-48.015674	0.000101	1.013505	0.343385	0.000041
1516	1.5074e+02	-19.6374	-47.866300	0.000375	3.749970	1.270524	0.000150
1517	1.5084e+02	-19.5845	-47.846114	0.000051	0.506753	0.171692	0.000020
1518	1.5094e+02	-19.5492	-47.829966	0.000041	0.405402	0.137354	0.000016
1519	1.5104e+02	-19.5043	-47.761334	0.000172	1.722959	0.583754	0.000069
1520	1.5114e+02	-19.4626	-47.708852	0.000132	1.317557	0.446400	0.000053
1521	1.5124e+02	-19.4385	-47.640220	0.000172	1.722959	0.583754	0.000069
1522	1.5134e+02	-19.3904	-47.571589	0.000172	1.722959	0.583754	0.000069
1523	1.5144e+02	-19.3583	-47.502958	0.000172	1.722959	0.583754	0.000069
1524	1.5154e+02	-19.3069	-47.466623	0.000091	0.912155	0.309046	0.000037
1525	1.5164e+02	-19.2733	-47.418178	0.000122	1.216207	0.412062	0.000049
1526	1.5174e+02	-19.2396	-47.333398	0.000213	2.128362	0.721108	0.000085
1527	1.5184e+02	-19.1946	-47.284952	0.000122	1.216207	0.412062	0.000049
1528	1.5194e+02	-19.1626	-47.196135	0.000223	2.229712	0.755447	0.000089
1529	1.5204e+02	-19.1192	-47.103281	0.000233	2.331063	0.789785	0.000093
1530	1.5214e+02	-19.0823	-47.046761	0.000142	1.418908	0.480739	0.000057
1531	1.5224e+02	-19.0374	-46.917573	0.000324	3.243218	1.098832	0.000130
1532	1.5233e+02	-19.0053	-46.933722	-0.000041	-0.405402	-0.137354	-0.000016
1533	1.5243e+02	-18.9668	-46.852979	0.000203	2.027011	0.686770	0.000081
1534	1.5253e+02	-18.9139	-46.792422	0.000152	1.520258	0.515077	0.000061
1535	1.5263e+02	-18.8802	-46.719753	0.000182	1.824310	0.618093	0.000073
1536	1.5273e+02	-18.8353	-46.622862	0.000243	2.432413	0.824124	0.000097
1537	1.5283e+02	-18.7888	-46.594602	0.000071	0.709454	0.240369	0.000028
1538	1.5293e+02	-18.7679	-46.525971	0.000172	1.722959	0.583754	0.000069
1539	1.5303e+02	-18.7166	-46.437154	0.000223	2.229712	0.755447	0.000089
1540	1.5313e+02	-18.6781	-46.396782	0.000101	1.013505	0.343385	0.000041
1541	1.5323e+02	-18.6380	-46.299891	0.000243	2.432413	0.824124	0.000097
1542	1.5333e+02	-18.6059	-46.239334	0.000152	1.520258	0.515077	0.000061
1543	1.5343e+02	-18.5642	-46.162629	0.000193	1.925660	0.652431	0.000077
1544	1.5353e+02	-18.5225	-46.089960	0.000182	1.824310	0.618093	0.000073
1545	1.5363e+02	-18.4872	-46.069774	0.000051	0.506753	0.171692	0.000020
1546	1.5373e+02	-18.4439	-45.989032	0.000203	2.027011	0.686770	0.000081
1547	1.5383e+02	-18.4054	-45.916363	0.000182	1.824310	0.618093	0.000073
1548	1.5393e+02	-18.3733	-45.831583	0.000213	2.128362	0.721108	0.000085
1549	1.5403e+02	-18.3219	-45.766989	0.000162	1.621609	0.549416	0.000065
1550	1.5413e+02	-18.2850	-45.694321	0.000182	1.824310	0.618093	0.000073
1551	1.5422e+02	-18.2481	-45.605504	0.000223	2.229712	0.755447	0.000089
1552	1.5432e+02	-18.1984	-45.540910	0.000162	1.621609	0.549416	0.000065
1553	1.5442e+02	-18.1631	-45.492464	0.000122	1.216207	0.412062	0.000049
1554	1.5452e+02	-18.1166	-45.403647	0.000223	2.229712	0.755447	0.000089
1555	1.5462e+02	-18.0797	-45.318867	0.000213	2.128362	0.721108	0.000085
1556	1.5472e+02	-18.0316	-45.262347	0.000142	1.418908	0.480739	0.000057
1557	1.5482e+02	-17.9995	-45.185642	0.000193	1.925660	0.652431	0.000077
1558	1.5492e+02	-17.9722	-45.117010	0.000172	1.722959	0.583754	0.000069
1559	1.5502e+02	-17.9257	-45.052416	0.000162	1.621609	0.549416	0.000065
1560	1.5512e+02	-17.8840	-44.975711	0.000193	1.925660	0.652431	0.000077
1561	1.5522e+02	-17.8567	-44.882857	0.000233	2.331063	0.789785	0.000093
1562	1.5532e+02	-17.8038	-44.830374	0.000132	1.317557	0.446400	0.000053
1563	1.5542e+02	-17.7621	-44.757705	0.000182	1.824310	0.618093	0.000073
1564	1.5552e+02	-17.7171	-44.681000	0.000193	1.925660	0.652431	0.000077
1565	1.5562e+02	-17.6754	-44.636591	0.000111	1.114856	0.377723	0.000045
1566	1.5572e+02	-17.6482	-44.555849	0.000203	2.027011	0.686770	0.000081
1567	1.5582e+02	-17.6065	-44.479143	0.000193	1.925660	0.652431	0.000077
1568	1.5592e+02	-17.5696	-44.414549	0.000162	1.621609	0.549416	0.000065
1569	1.5602e+02	-17.5311	-44.362066	0.000132	1.317557	0.446400	0.000053
1570	1.5612e+02	-17.4829	-44.257101	0.000264	2.635114	0.892801	0.000105
1571	1.5622e+02	-17.4396	-44.200581	0.000142	1.418908	0.480739	0.000057
1572	1.5631e+02	-17.3979	-44.135986	0.000162	1.621609	0.549416	0.000065
1573	1.5641e+02	-17.3530	-44.014872	0.000304	3.040516	1.030155	0.000122
1574	1.5651e+02	-17.3273	-43.922018	0.000233	2.331063	0.789785	0.000093
1575	1.5661e+02	-17.2808	-43.853387	0.000172	1.722959	0.583754	0.000069
1576	1.5671e+02	-17.2503	-43.772644	0.000203	2.027011	0.686770	0.000081
1577	1.5681e+02	-17.1958	-43.720161	0.000132	1.317557	0.446400	0.000053
1578	1.5691e+02	-17.1733	-43.615196	0.000264	2.635114	0.892801	0.000105
1579	1.5701e+02	-17.1220	-43.578862	0.000091	0.912155	0.309046	0.000037
1580	1.5711e+02	-17.0915	-43.486008	0.000233	2.331063	0.789785	0.000093
1581	1.5721e+02	-17.0514	-43.409302	0.000193	1.925660	0.652431	0.000077
1582	1.5731e+02	-17.0049	-43.348745	0.000152	1.520258	0.515077	0.000061
1583	1.5741e+02	-16.9616	-43.292225	0.000142	1.418908	0.480739	0.000057
1584	1.5751e+02	-16.9343	-43.219557	0.000182	1.824310	0.618093	0.000073
1585	1.5761e+02	-16.8910	-43.138814	0.000203	2.027011	0.686770	0.000081
1586	1.5771e+02	-16.8589	-43.033848	0.000264	2.635114	0.892801	0.000105
1587	1.5781e+02	-16.8092	-42.977328	0.000142	1.418908	0.480739	0.000057
1588	1.5791e+02	-16.7787	-42.916771	0.000152	1.520258	0.515077	0.000061
1589	1.5801e+02	-16.7305	-42.831992	0.000213	2.128362	0.721108	0.000085
1590	1.5811e+02	-16.6888	-42.767397	0.000162	1.621609	0.549416	0.000065
1591	1.5821e+02	-16.6455	-42.642246	0.000314	3.141867	1.064493	0.000126
1592	1.5830e+02	-16.6134	-42.533244	0.000274	2.736465	0.927139	0.000110
1593	1.5840e+02	-16.5669	-42.504984	0.000071	0.709454	0.240369	0.000028
1594	1.5850e+02	-16.5140	-42.408092	0.000243	2.432413	0.824124	0.000097
1595	1.5860e+02	-16.4883	-42.311201	0.000243	2.432413	0.824124	0.000097
1596	1.5870e+02	-16.4562	-42.250644	0.000152	1.520258	0.515077	0.000061
1597	1.5880e+02	-16.4065	-42.157790	0.000233	2.331063	0.789785	0.000093
1598	1.5890e+02	-16.3712	-42.089159	0.000172	1.722959	0.583754	0.000069
1599	1.5900e+02	-16.3263	-41.996305	0.000233	2.331063	0.789785	0.000093
1600	1.5910e+02	-16.3006	-41.919599	0.000193	1.925660	0.652431	0.000077
1601	1.5920e+02	-16.2493	-41.826745	0.000233	2.331063	0.789785	0.000093
1602	1.5930e+02	-16.2124	-41.750039	0.000193	1.925660	0.652431	0.000077
1603	1.5940e+02	-16.1675	-41.689482	0.000152	1.520258	0.515077	0.000061
1604	1.5950e+02	-16.1386	-41.584517	0.000264	2.635114	0.892801	0.000105
1605	1.5960e+02	-16.0889	-41.540108	0.000111	1.114856	0.377723	0.000045
1606	1.5970e+02	-16.0584	-41.418994	0.000304	3.040516	1.030155	0.000122
1607	1.5980e+02	-16.0054	-41.370548	0.000122	1.216207	0.412062	0.000049
1608	1.5990e+02	-15.9653	-41.297880	0.000182	1.824310	0.618093	0.000073
1609	1.6000e+02	-15.9348	-41.180803	0.000294	2.939166	0.995816	0.000118
1610	1.6010e+02	-15.8963	-41.108135	0.000182	1.824310	0.618093	0.000073
1611	1.6019e+02	-15.8530	-41.019318	0.000223	2.229712	0.755447	0.000089
1612	1.6029e+02	-15.8049	-40.954723	0.000162	1.621609	0.549416	0.000065
1613	1.6039e+02	-15.7616	-40.878018	0.000193	1.925660	0.652431	0.000077
1614	1.6049e+02	-15.7295	-40.736718	0.000355	3.547269	1.201847	0.000142
1615	1.6059e+02	-15.6990	-40.700384	0.000091	0.912155	0.309046	0.000037
1616	1.6069e+02	-15.6461	-40.631753	0.000172	1.722959	0.583754	0.000069
1617	1.6079e+02	-15.6140	-40.538899	0.000233	2.331063	0.789785	0.000093
1618	1.6089e+02	-15.5659	-40.458156	0.000203	2.027011	0.686770	0.000081
1619	1.6099e+02	-15.5402	-40.369339	0.000223	2.229712	0.755447	0.000089
1620	1.6109e+02	-15.4889	-40.292633	0.000193	1.925660	0.652431	0.000077
1621	1.6119e+02	-15.4488	-40.203816	0.000223	2.229712	0.755447	0.000089
1622	1.6129e+02	-15.4135	-40.151333	0.000132	1.317557	0.446400	0.000053
1623	1.6139e+02	-15.3798	-40.070591	0.000203	2.027011	0.686770	0.000081
1624	1.6149e+02	-15.3397	-40.001959	0.000172	1.722959	0.583754	0.000069
1625	1.6159e+02	-15.2883	-39.917180	0.000213	2.128362	0.721108	0.000085
1626	1.6169e+02	-15.2595	-39.844511	0.000182	1.824310	0.618093	0.000073
1627	1.6179e+02	-15.2049	-39.771843	0.000182	1.824310	0.618093	0.000073
1628	1.6189e+02	-15.1648	-39.707249	0.000162	1.621609	0.549416	0.000065
1629	1.6199e+02	-15.1391	-39.569986	0.000345	3.445919	1.167509	0.000138
1630	1.6209e+02	-15.1006	-39.481169	0.000223	2.229712	0.755447	0.000089
1631	1.6219e+02	-15.0525	-39.368129	0.000284	2.837815	0.961478	0.000114
1632	1.6228e+02	-15.0108	-39.339869	0.000071	0.709454	0.240369	0.000028
1633	1.6238e+02	-14.9723	-39.247015	0.000233	2.331063	0.789785	0.000093
1634	1.6248e+02	-14.9386	-39.142050	0.000264	2.635114	0.892801	0.000105
1635	1.6258e+02	-14.9001	-39.081493	0.000152	1.520258	0.515077	0.000061
1636	1.6268e+02	-14.8616	-38.996713	0.000213	2.128362	0.721108	0.000085
1637	1.6278e+02	-14.8199	-38.924044	0.000182	1.824310	0.618093	0.000073
1638	1.6288e+02	-14.7766	-38.811004	0.000284	2.837815	0.961478	0.000114
1639	1.6298e+02	-14.7365	-38.750447	0.000152	1.520258	0.515077	0.000061
1640	1.6308e+02	-14.7092	-38.641445	0.000274	2.736465	0.927139	0.000110
1641	1.6318e+02	-14.6579	-38.576851	0.000162	1.621609	0.549416	0.000065
1642	1.6328e+02	-14.6162	-38.496108	0.000203	2.027011	0.686770	0.000081
1643	1.6338e+02	-14.5632	-38.459774	0.000091	0.912155	0.309046	0.000037
1644	1.6348e+02	-14.5440	-38.370957	0.000223	2.229712	0.755447	0.000089
1645	1.6358e+02	-14.4878	-38.318474	0.000132	1.317557	0.446400	0.000053
1646	1.6368e+02	-14.4557	-38.181211	0.000345	3.445919	1.167509	0.000138
1647	1.6378e+02	-14.4108	-38.060097	0.000304	3.040516	1.030155	0.000122
1648	1.6388e+02	-14.3707	-37.999540	0.000152	1.520258	0.515077	0.000061
1649	1.6398e+02	-14.3338	-37.878426	0.000304	3.040516	1.030155	0.000122
1650	1.6408e+02	-14.3065	-37.809795	0.000172	1.722959	0.583754	0.000069
1651	1.6418e+02	-14.2456	-37.733089	0.000193	1.925660	0.652431	0.000077
1652	1.6427e+02	-14.2087	-37.672532	0.000152	1.520258	0.515077	0.000061
1653	1.6437e+02	-14.1894	-37.567567	0.000264	2.635114	0.892801	0.000105
1654	1.6447e+02	-14.1381	-37.462601	0.000264	2.635114	0.892801	0.000105
1655	1.6457e+02	-14.0980	-37.442415	0.000051	0.506753	0.171692	0.000020
1656	1.6467e+02	-14.0547	-37.301116	0.000355	3.547269	1.201847	0.000142
1657	1.6477e+02	-14.0242	-37.289004	0.000030	0.304052	0.103015	0.000012
1658	1.6487e+02	-13.9825	-37.163853	0.000314	3.141867	1.064493	0.000126
1659	1.6497e+02	-13.9344	-37.111370	0.000132	1.317557	0.446400	0.000053
1660	1.6507e+02	-13.9007	-36.990256	0.000304	3.040516	1.030155	0.000122
1661	1.6517e+02	-13.8445	-36.941811	0.000122	1.216207	0.412062	0.000049
1662	1.6527e+02	-13.8237	-36.885291	0.000142	1.418908	0.480739	0.000057
1663	1.6537e+02	-13.7836	-36.804548	0.000203	2.027011	0.686770	0.000081
1664	1.6547e+02	-13.7419	-36.707657	0.000243	2.432413	0.824124	0.000097
1665	1.6557e+02	-13.7018	-36.586543	0.000304	3.040516	1.030155	0.000122
1666	1.6567e+02	-13.6649	-36.546171	0.000101	1.013505	0.343385	0.000041
1667	1.6577e+02	-13.6199	-36.421020	0.000314	3.141867	1.064493	0.000126
1668	1.6587e+02	-13.5750	-36.348352	0.000182	1.824310	0.618093	0.000073
1669	1.6597e+02	-13.5397	-36.263572	0.000213	2.128362	0.721108	0.000085
1670	1.6607e+02	-13.4932	-36.126309	0.000345	3.445919	1.167509	0.000138
1671	1.6616e+02	-13.4515	-36.102086	0.000061	0.608103	0.206031	0.000024
1672	1.6626e+02	-13.4258	-36.033455	0.000172	1.722959	0.583754	0.000069
1673	1.6636e+02	-13.3905	-35.924452	0.000274	2.736465	0.927139	0.000110
1674	1.6646e+02	-13.3328	-35.835635	0.000223	2.229712	0.755447	0.000089
1675	1.6656e+02	-13.3023	-35.758930	0.000193	1.925660	0.652431	0.000077
1676	1.6666e+02	-13.2590	-35.710484	0.000122	1.216207	0.412062	0.000049
1677	1.6676e+02	-13.2269	-35.641853	0.000172	1.722959	0.583754	0.000069
1678	1.6686e+02	-13.1772	-35.524776	0.000294	2.939166	0.995816	0.000118
1679	1.6696e+02	-13.1371	-35.468256	0.000142	1.418908	0.480739	0.000057
1680	1.6706e+02	-13.0970	-35.431922	0.000091	0.912155	0.309046	0.000037
1681	1.6716e+02	-13.0552	-35.355216	0.000193	1.925660	0.652431	0.000077
1682	1.6726e+02	-13.0200	-35.258325	0.000243	2.432413	0.824124	0.000097
1683	1.6736e+02	-12.9782	-35.145285	0.000284	2.837815	0.961478	0.000114
1684	1.6746e+02	-12.9333	-35.088765	0.000142	1.418908	0.480739	0.000057
1685	1.6756e+02	-12.8964	-34.939391	0.000375	3.749970	1.270524	0.000150
1686	1.6766e+02	-12.8595	-34.890946	0.000122	1.216207	0.412062	0.000049
1687	1.6776e+02	-12.8355	-34.794054	0.000243	2.432413	0.824124	0.000097
1688	1.6786e+02	-12.7793	-34.705237	0.000223	2.229712	0.755447	0.000089
1689	1.6796e+02	-12.7360	-34.648717	0.000142	1.418908	0.480739	0.000057
1690	1.6806e+02	-12.7087	-34.555863	0.000233	2.331063	0.789785	0.000093
1691	1.6816e+02	-12.6670	-34.487232	0.000172	1.722959	0.583754	0.000069
1692	1.6825e+02	-12.6269	-34.410526	0.000193	1.925660	0.652431	0.000077
1693	1.6835e+02	-12.5964	-34.293450	0.000294	2.939166	0.995816	0.000118
1694	1.6845e+02	-12.5435	-34.232892	0.000152	1.520258	0.515077	0.000061
1695	1.6855e+02	-12.5098	-34.107741	0.000314	3.141867	1.064493	0.000126
1696	1.6865e+02	-12.4697	-34.091593	0.000041	0.405402	0.137354	0.000016
1697	1.6875e+02	-12.4184	-33.982590	0.000274	2.736465	0.927139	0.000110
1698	1.6885e+02	-12.3847	-33.922033	0.000152	1.520258	0.515077	0.000061
1699	1.6895e+02	-12.3526	-33.873587	0.000122	1.216207	0.412062	0.000049
1700	1.6905e+02	-12.3061	-33.784770	0.000223	2.229712	0.755447	0.000089
1701	1.6915e+02	-12.2676	-33.691916	0.000233	2.331063	0.789785	0.000093
1702	1.6925e+02	-12.2275	-33.586951	0.000264	2.635114	0.892801	0.000105
1703	1.6935e+02	-12.1825	-33.481985	0.000264	2.635114	0.892801	0.000105
1704	1.6945e+02	-12.1553	-33.356834	0.000314	3.141867	1.064493	0.000126
1705	1.6955e+02	-12.1104	-33.292240	0.000162	1.621609	0.549416	0.000065
1706	1.6965e+02	-12.0622	-33.203423	0.000223	2.229712	0.755447	0.000089
1707	1.6975e+02	-12.0253	-33.118643	0.000213	2.128362	0.721108	0.000085
1708	1.6985e+02	-11.9868	-33.005603	0.000284	2.837815	0.961478	0.000114
1709	1.6995e+02	-11.9451	-32.953120	0.000132	1.317557	0.446400	0.000053
1710	1.7005e+02	-11.9082	-32.924861	0.000071	0.709454	0.240369	0.000028
1711	1.7015e+02	-11.8713	-32.811821	0.000284	2.837815	0.961478	0.000114
1712	1.7024e+02	-11.8216	-32.678595	0.000334	3.344568	1.133170	0.000134
1713	1.7034e+02	-11.7895	-32.618038	0.000152	1.520258	0.515077	0.000061
1714	1.7044e+02	-11.7478	-32.517110	0.000253	2.533764	0.858462	0.000101
1715	1.7054e+02	-11.7077	-32.480776	0.000091	0.912155	0.309046	0.000037
1716	1.7064e+02	-11.6708	-32.420219	0.000152	1.520258	0.515077	0.000061
1717	1.7074e+02	-11.6355	-32.359662	0.000152	1.520258	0.515077	0.000061
1718	1.7084e+02	-11.5906	-32.226436	0.000334	3.344568	1.133170	0.000134
1719	1.7094e+02	-11.5585	-32.157805	0.000172	1.722959	0.583754	0.000069
1720	1.7104e+02	-11.5056	-32.077062	0.000203	2.027011	0.686770	0.000081
1721	1.7114e+02	-11.4638	-32.008431	0.000172	1.722959	0.583754	0.000069
1722	1.7124e+02	-11.4318	-31.883279	0.000314	3.141867	1.064493	0.000126
1723	1.7134e+02	-11.3852	-31.786388	0.000243	2.432413	0.824124	0.000097
1724	1.7144e+02	-11.3532	-31.681423	0.000264	2.635114	0.892801	0.000105
1725	1.7154e+02	-11.3147	-31.596643	0.000213	2.128362	0.721108	0.000085
1726	1.7164e+02	-11.2794	-31.540123	0.000142	1.418908	0.480739	0.000057
1727	1.7174e+02	-11.2200	-31.406897	0.000334	3.344568	1.133170	0.000134
1728	1.7184e+02	-11.1927	-31.326155	0.000203	2.027011	0.686770	0.000081
1729	1.7194e+02	-11.1590	-31.261561	0.000162	1.621609	0.549416	0.000065
1730	1.7204e+02	-11.1061	-31.164669	0.000243	2.432413	0.824124	0.000097
1731	1.7213e+02	-11.0740	-31.083927	0.000203	2.027011	0.686770	0.000081
1732	1.7223e+02	-11.0323	-31.011258	0.000182	1.824310	0.618093	0.000073
1733	1.7233e+02	-10.9890	-30.938590	0.000182	1.824310	0.618093	0.000073
1734	1.7243e+02	-10.9489	-30.902256	0.000091	0.912155	0.309046	0.000037
1735	1.7253e+02	-10.9136	-30.829587	0.000182	1.824310	0.618093	0.000073
1736	1.7263e+02	-10.8687	-30.752881	0.000193	1.925660	0.652431	0.000077
1737	1.7273e+02	-10.8318	-30.635805	0.000294	2.939166	0.995816	0.000118
1738	1.7283e+02	-10.7885	-30.538913	0.000243	2.432413	0.824124	0.000097
1739	1.7293e+02	-10.7548	-30.470282	0.000172	1.722959	0.583754	0.000069
1740	1.7303e+02	-10.7050	-30.312834	0.000395	3.952671	1.339201	0.000158
1741	1.7313e+02	-10.6762	-30.203831	0.000274	2.736465	0.927139	0.000110
1742	1.7323e+02	-10.6361	-30.115014	0.000223	2.229712	0.755447	0.000089
1743	1.7333e+02	-10.5927	-30.042346	0.000182	1.824310	0.618093	0.000073
1744	1.7343e+02	-10.5559	-29.969677	0.000182	1.824310	0.618093	0.000073
1745	1.7353e+02	-10.5254	-29.876823	0.000233	2.331063	0.789785	0.000093
1746	1.7363e+02	-10.4692	-29.779932	0.000243	2.432413	0.824124	0.000097
1747	1.7373e+02	-10.4291	-29.674966	0.000264	2.635114	0.892801	0.000105
1748	1.7383e+02	-10.4018	-29.606335	0.000172	1.722959	0.583754	0.000069
1749	1.7393e+02	-10.3441	-29.485221	0.000304	3.040516	1.030155	0.000122
1750	1.7403e+02	-10.3184	-29.452924	0.000081	0.810804	0.274708	0.000032
1751	1.7413e+02	-10.2703	-29.311624	0.000355	3.547269	1.201847	0.000142
1752	1.7422e+02	-10.2206	-29.287401	0.000061	0.608103	0.206031	0.000024
1753	1.7432e+02	-10.1917	-29.186473	0.000253	2.533764	0.858462	0.000101
1754	1.7442e+02	-10.1468	-29.138027	0.000122	1.216207	0.412062	0.000049
1755	1.7452e+02	-10.1083	-29.041136	0.000243	2.432413	0.824124	0.000097
1756	1.7462e+02	-10.0762	-28.952319	0.000223	2.229712	0.755447	0.000089
1757	1.7472e+02	-10.0281	-28.827168	0.000314	3.141867	1.064493	0.000126
1758	1.7482e+02	-9.9863	-28.746425	0.000203	2.027011	0.686770	0.000081
1759	1.7492e+02	-9.9527	-28.625311	0.000304	3.040516	1.030155	0.000122
1760	1.7502e+02	-9.9126	-28.564754	0.000152	1.520258	0.515077	0.000061
1761	1.7512e+02	-9.8805	-28.427491	0.000345	3.445919	1.167509	0.000138
1762	1.7522e+02	-9.8356	-28.338674	0.000223	2.229712	0.755447	0.000089
1763	1.7532e+02	-9.7874	-28.241783	0.000243	2.432413	0.824124	0.000097
1764	1.7542e+02	-9.7473	-28.116632	0.000314	3.141867	1.064493	0.000126
1765	1.7552e+02	-9.7265	-28.060112	0.000142	1.418908	0.480739	0.000057
1766	1.7562e+02	-9.6735	-27.938998	0.000304	3.040516	1.030155	0.000122
1767	1.7572e+02	-9.6414	-27.870367	0.000172	1.722959	0.583754	0.000069
1768	1.7582e+02	-9.5949	-27.785587	0.000213	2.128362	0.721108	0.000085
1769	1.7592e+02	-9.5644	-27.712918	0.000182	1.824310	0.618093	0.000073
1770	1.7602e+02	-9.5211	-27.579693	0.000334	3.344568	1.133170	0.000134
1771	1.7612e+02	-9.4746	-27.535284	0.000111	1.114856	0.377723	0.000045
1772	1.7621e+02	-9.4393	-27.458579	0.000193	1.925660	0.652431	0.000077
1773	1.7631e+02	-9.3976	-27.337465	0.000304	3.040516	1.030155	0.000122
1774	1.7641e+02	-9.3639	-27.264796	0.000182	1.824310	0.618093	0.000073
1775	1.7651e+02	-9.3206	-27.200202	0.000162	1.621609	0.549416	0.000065
1776	1.7661e+02	-9.2805	-27.079088	0.000304	3.040516	1.030155	0.000122
1777	1.7671e+02	-9.2388	-26.982197	0.000243	2.432413	0.824124	0.000097
1778	1.7681e+02	-9.1874	-26.869157	0.000284	2.837815	0.961478	0.000114
1779	1.7691e+02	-9.1586	-26.756117	0.000284	2.837815	0.961478	0.000114
1780	1.7701e+02	-9.1185	-26.655189	0.000253	2.533764	0.858462	0.000101
1781	1.7711e+02	-9.0832	-26.570409	0.000213	2.128362	0.721108	0.000085
1782	1.7721e+02	-9.0447	-26.457369	0.000284	2.837815	0.961478	0.000114
1783	1.7731e+02	-9.0030	-26.380663	0.000193	1.925660	0.652431	0.000077
1784	1.7741e+02	-8.9548	-26.263587	0.000294	2.939166	0.995816	0.000118
1785	1.7751e+02	-8.9211	-26.198992	0.000162	1.621609	0.549416	0.000065
1786	1.7761e+02	-8.8907	-26.126324	0.000182	1.824310	0.618093	0.000073
1787	1.7771e+02	-8.8506	-26.025396	0.000253	2.533764	0.858462	0.000101
1788	1.7781e+02	-8.7976	-25.948690	0.000193	1.925660	0.652431	0.000077
1789	1.7791e+02	-8.7591	-25.859873	0.000223	2.229712	0.755447	0.000089
1790	1.7801e+02	-8.7206	-25.775093	0.000213	2.128362	0.721108	0.000085
1791	1.7810e+02	-8.6789	-25.698388	0.000193	1.925660	0.652431	0.000077
1792	1.7820e+02	-8.6388	-25.605533	0.000233	2.331063	0.789785	0.000093
1793	1.7830e+02	-8.6003	-25.520754	0.000213	2.128362	0.721108	0.000085
1794	1.7840e+02	-8.5650	-25.448085	0.000182	1.824310	0.618093	0.000073
1795	1.7850e+02	-8.5185	-25.343120	0.000264	2.635114	0.892801	0.000105
1796	1.7860e+02	-8.4896	-25.201820	0.000355	3.547269	1.201847	0.000142
1797	1.7870e+02	-8.4415	-25.080706	0.000304	3.040516	1.030155	0.000122
1798	1.7880e+02	-8.4062	-24.995926	0.000213	2.128362	0.721108	0.000085
1799	1.7890e+02	-8.3613	-24.890960	0.000264	2.635114	0.892801	0.000105
1800	1.7900e+02	-8.3244	-24.830403	0.000152	1.520258	0.515077	0.000061
1801	1.7910e+02	-8.2746	-24.729475	0.000253	2.533764	0.858462	0.000101
1802	1.7920e+02	-8.2361	-24.604324	0.000314	3.141867	1.064493	0.000126
1803	1.7930e+02	-8.2024	-24.559915	0.000111	1.114856	0.377723	0.000045
1804	1.7940e+02	-8.1671	-24.463024	0.000243	2.432413	0.824124	0.000097
1805	1.7950e+02	-8.1286	-24.370170	0.000233	2.331063	0.789785	0.000093
1806	1.7960e+02	-8.0773	-24.228870	0.000355	3.547269	1.201847	0.000142
1807	1.7970e+02	-8.0420	-24.204647	0.000061	0.608103	0.206031	0.000024
1808	1.7980e+02	-7.9987	-24.119867	0.000213	2.128362	0.721108	0.000085
1809	1.7990e+02	-7.9746	-24.043162	0.000193	1.925660	0.652431	0.000077
1810	1.8000e+02	-7.9233	-23.922048	0.000304	3.040516	1.030155	0.000122
1811	1.8009e+02	-7.8848	-23.825157	0.000243	2.432413	0.824124	0.000097
1812	1.8019e+02	-7.8335	-23.708080	0.000294	2.939166	0.995816	0.000118
1813	1.8029e+02	-7.8030	-23.615225	0.000233	2.331063	0.789785	0.000093
1814	1.8039e+02	-7.7613	-23.538520	0.000193	1.925660	0.652431	0.000077
1815	1.8049e+02	-7.7292	-23.409332	0.000324	3.243218	1.098832	0.000130
1816	1.8059e+02	-7.6891	-23.288218	0.000304	3.040516	1.030155	0.000122
1817	1.8069e+02	-7.6410	-23.235735	0.000132	1.317557	0.446400	0.000053
1818	1.8079e+02	-7.6105	-23.146918	0.000223	2.229712	0.755447	0.000089
1819	1.8089e+02	-7.5640	-23.017729	0.000324	3.243218	1.098832	0.000130
1820	1.8099e+02	-7.5271	-22.920838	0.000243	2.432413	0.824124	0.000097
1821	1.8109e+02	-7.4918	-22.864318	0.000142	1.418908	0.480739	0.000057
1822	1.8119e+02	-7.4501	-22.751278	0.000284	2.837815	0.961478	0.000114
1823	1.8129e+02	-7.4132	-22.650350	0.000253	2.533764	0.858462	0.000101
1824	1.8139e+02	-7.3634	-22.545385	0.000264	2.635114	0.892801	0.000105
1825	1.8149e+02	-7.3233	-22.476753	0.000172	1.722959	0.583754	0.000069
1826	1.8159e+02	-7.2864	-22.396011	0.000203	2.027011	0.686770	0.000081
1827	1.8169e+02	-7.2399	-22.351602	0.000111	1.114856	0.377723	0.000045
1828	1.8179e+02	-7.1998	-22.258748	0.000233	2.331063	0.789785	0.000093
1829	1.8189e+02	-7.1661	-22.178005	0.000203	2.027011	0.686770	0.000081
1830	1.8199e+02	-7.1308	-22.073040	0.000264	2.635114	0.892801	0.000105
1831	1.8209e+02	-7.0795	-21.972111	0.000253	2.533764	0.858462	0.000101
1832	1.8218e+02	-7.0458	-21.867146	0.000264	2.635114	0.892801	0.000105
1833	1.8228e+02	-7.0073	-21.717772	0.000375	3.749970	1.270524	0.000150
1834	1.8238e+02	-6.9656	-21.661252	0.000142	1.418908	0.480739	0.000057
1835	1.8248e+02	-6.9255	-21.548212	0.000284	2.837815	0.961478	0.000114
1836	1.8258e+02	-6.8870	-21.451321	0.000243	2.432413	0.824124	0.000097
1837	1.8268e+02	-6.8404	-21.342318	0.000274	2.736465	0.927139	0.000110
1838	1.8278e+02	-6.8132	-21.257538	0.000213	2.128362	0.721108	0.000085
1839	1.8288e+02	-6.7667	-21.168721	0.000223	2.229712	0.755447	0.000089
1840	1.8298e+02	-6.7298	-21.116238	0.000132	1.317557	0.446400	0.000053
1841	1.8308e+02	-6.6929	-20.983013	0.000334	3.344568	1.133170	0.000134
1842	1.8318e+02	-6.6415	-20.950716	0.000081	0.810804	0.274708	0.000032
1843	1.8328e+02	-6.6030	-20.813453	0.000345	3.445919	1.167509	0.000138
1844	1.8338e+02	-6.5741	-20.728673	0.000213	2.128362	0.721108	0.000085
1845	1.8348e+02	-6.5260	-20.680228	0.000122	1.216207	0.412062	0.000049
1846	1.8358e+02	-6.4827	-20.579299	0.000253	2.533764	0.858462	0.000101
1847	1.8368e+02	-6.4490	-20.534891	0.000111	1.114856	0.377723	0.000045
1848	1.8378e+02	-6.4121	-20.417814	0.000294	2.939166	0.995816	0.000118
1849	1.8388e+02	-6.3720	-20.337071	0.000203	2.027011	0.686770	0.000081
1850	1.8398e+02	-6.3287	-20.195772	0.000355	3.547269	1.201847	0.000142
1851	1.8407e+02	-6.2870	-20.078695	0.000294	2.939166	0.995816	0.000118
1852	1.8417e+02	-6.2469	-20.026212	0.000132	1.317557	0.446400	0.000053
1853	1.8427e+02	-6.2068	-19.884912	0.000355	3.547269	1.201847	0.000142
1854	1.8437e+02	-6.1667	-19.860689	0.000061	0.608103	0.206031	0.000024
1855	1.8447e+02	-6.1282	-19.691130	0.000426	4.256723	1.442217	0.000170
1856	1.8457e+02	-6.0865	-19.658832	0.000081	0.810804	0.274708	0.000032
1857	1.8467e+02	-6.0528	-19.541756	0.000294	2.939166	0.995816	0.000118
1858	1.8477e+02	-6.0111	-19.461013	0.000203	2.027011	0.686770	0.000081
1859	1.8487e+02	-5.9694	-19.343936	0.000294	2.939166	0.995816	0.000118
1860	1.8497e+02	-5.9389	-19.267230	0.000193	1.925660	0.652431	0.000077
1861	1.8507e+02	-5.9036	-19.182450	0.000213	2.128362	0.721108	0.000085
1862	1.8517e+02	-5.8603	-19.097671	0.000213	2.128362	0.721108	0.000085
1863	1.8527e+02	-5.8089	-19.025002	0.000182	1.824310	0.618093	0.000073
1864	1.8537e+02	-5.7672	-18.992705	0.000081	0.810804	0.274708	0.000032
1865	1.8547e+02	-5.7287	-18.879665	0.000284	2.837815	0.961478	0.000114
1866	1.8557e+02	-5.6918	-18.774700	0.000264	2.635114	0.892801	0.000105
1867	1.8567e+02	-5.6533	-18.633400	0.000355	3.547269	1.201847	0.000142
1868	1.8577e+02	-5.6084	-18.508249	0.000314	3.141867	1.064493	0.000126
1869	1.8587e+02	-5.5715	-18.479989	0.000071	0.709454	0.240369	0.000028
1870	1.8597e+02	-5.5314	-18.326578	0.000385	3.851321	1.304863	0.000154
1871	1.8606e+02	-5.4913	-18.241798	0.000213	2.128362	0.721108	0.000085
1872	1.8616e+02	-5.4416	-18.148944	0.000233	2.331063	0.789785	0.000093
1873	1.8626e+02	-5.4175	-18.039941	0.000274	2.736465	0.927139	0.000110
1874	1.8636e+02	-5.3774	-17.967273	0.000182	1.824310	0.618093	0.000073
1875	1.8646e+02	-5.3373	-17.894604	0.000182	1.824310	0.618093	0.000073
1876	1.8656e+02	-5.2940	-17.797713	0.000243	2.432413	0.824124	0.000097
1877	1.8666e+02	-5.2635	-17.660450	0.000345	3.445919	1.167509	0.000138
1878	1.8676e+02	-5.2186	-17.567596	0.000233	2.331063	0.789785	0.000093
1879	1.8686e+02	-5.1817	-17.527225	0.000101	1.013505	0.343385	0.000041
1880	1.8696e+02	-5.1432	-17.402074	0.000314	3.141867	1.064493	0.000126
1881	1.8706e+02	-5.0886	-17.337479	0.000162	1.621609	0.549416	0.000065
1882	1.8716e+02	-5.0485	-17.248662	0.000223	2.229712	0.755447	0.000089
1883	1.8726e+02	-5.0212	-17.163883	0.000213	2.128362	0.721108	0.000085
1884	1.8736e+02	-4.9699	-17.075066	0.000223	2.229712	0.755447	0.000089
1885	1.8746e+02	-4.9298	-16.945877	0.000324	3.243218	1.098832	0.000130
1886	1.8756e+02	-4.8913	-16.877246	0.000172	1.722959	0.583754	0.000069
1887	1.8766e+02	-4.8528	-16.744020	0.000334	3.344568	1.133170	0.000134
1888	1.8776e+02	-4.8191	-16.639055	0.000264	2.635114	0.892801	0.000105
1889	1.8786e+02	-4.7742	-16.538127	0.000253	2.533764	0.858462	0.000101
1890	1.8796e+02	-4.7405	-16.425087	0.000284	2.837815	0.961478	0.000114
1891	1.8806e+02	-4.7036	-16.348381	0.000193	1.925660	0.652431	0.000077
1892	1.8815e+02	-4.6619	-16.259564	0.000223	2.229712	0.755447	0.000089
1893	1.8825e+02	-4.6218	-16.178821	0.000203	2.027011	0.686770	0.000081
1894	1.8835e+02	-4.5785	-16.053670	0.000314	3.141867	1.064493	0.000126
1895	1.8845e+02	-4.5384	-15.960816	0.000233	2.331063	0.789785	0.000093
1896	1.8855e+02	-4.4951	-15.908333	0.000132	1.317557	0.446400	0.000053
1897	1.8865e+02	-4.4614	-15.811442	0.000243	2.432413	0.824124	0.000097
1898	1.8875e+02	-4.4277	-15.682254	0.000324	3.243218	1.098832	0.000130
1899	1.8885e+02	-4.3844	-15.633808	0.000122	1.216207	0.412062	0.000049
1900	1.8895e+02	-4.3427	-15.536917	0.000243	2.432413	0.824124	0.000097
1901	1.8905e+02	-4.2929	-15.464248	0.000182	1.824310	0.618093	0.000073
1902	1.8915e+02	-4.2608	-15.339097	0.000314	3.141867	1.064493	0.000126
1903	1.8925e+02	-4.2191	-15.222020	0.000294	2.939166	0.995816	0.000118
1904	1.8935e+02	-4.1774	-15.104943	0.000294	2.939166	0.995816	0.000118
1905	1.8945e+02	-4.1357	-15.012089	0.000233	2.331063	0.789785	0.000093
1906	1.8955e+02	-4.1020	-14.975755	0.000091	0.912155	0.309046	0.000037
1907	1.8965e+02	-4.0699	-14.826381	0.000375	3.749970	1.270524	0.000150
1908	1.8975e+02	-4.0234	-14.701230	0.000314	3.141867	1.064493	0.000126
1909	1.8985e+02	-3.9945	-14.652784	0.000122	1.216207	0.412062	0.000049
1910	1.8995e+02	-3.9384	-14.491299	0.000405	4.054022	1.373540	0.000162
1911	1.9004e+02	-3.8983	-14.434779	0.000142	1.418908	0.480739	0.000057
1912	1.9014e+02	-3.8598	-14.329813	0.000264	2.635114	0.892801	0.000105
1913	1.9024e+02	-3.8213	-14.208699	0.000304	3.040516	1.030155	0.000122
1914	1.9034e+02	-3.7844	-14.136031	0.000182	1.824310	0.618093	0.000073
1915	1.9044e+02	-3.7443	-14.039140	0.000243	2.432413	0.824124	0.000097
1916	1.9054e+02	-3.6913	-13.974545	0.000162	1.621609	0.549416	0.000065
1917	1.9064e+02	-3.6625	-13.857468	0.000294	2.939166	0.995816	0.000118
1918	1.9074e+02	-3.6175	-13.764614	0.000233	2.331063	0.789785	0.000093
1919	1.9084e+02	-3.5774	-13.700020	0.000162	1.621609	0.549416	0.000065
1920	1.9094e+02	-3.5454	-13.619277	0.000203	2.027011	0.686770	0.000081
1921	1.9104e+02	-3.4892	-13.457792	0.000405	4.054022	1.373540	0.000162
1922	1.9114e+02	-3.4619	-13.364938	0.000233	2.331063	0.789785	0.000093
1923	1.9124e+02	-3.4282	-13.280158	0.000213	2.128362	0.721108	0.000085
1924	1.9134e+02	-3.3881	-13.110598	0.000426	4.256723	1.442217	0.000170
1925	1.9144e+02	-3.3448	-13.058116	0.000132	1.317557	0.446400	0.000053
1926	1.9154e+02	-3.3079	-12.961224	0.000243	2.432413	0.824124	0.000097
1927	1.9164e+02	-3.2646	-12.856259	0.000264	2.635114	0.892801	0.000105
1928	1.9174e+02	-3.2261	-12.783590	0.000182	1.824310	0.618093	0.000073
1929	1.9184e+02	-3.1764	-12.626142	0.000395	3.952671	1.339201	0.000158
1930	1.9194e+02	-3.1475	-12.565585	0.000152	1.520258	0.515077	0.000061
1931	1.9203e+02	-3.1042	-12.432360	0.000334	3.344568	1.133170	0.000134
1932	1.9213e+02	-3.0737	-12.335468	0.000243	2.432413	0.824124	0.000097
1933	1.9223e+02	-3.0272	-12.214354	0.000304	3.040516	1.030155	0.000122
1934	1.9233e+02	-2.9919	-12.105352	0.000274	2.736465	0.927139	0.000110
1935	1.9243e+02	-2.9422	-12.064980	0.000101	1.013505	0.343385	0.000041
1936	1.9253e+02	-2.8908	-11.927718	0.000345	3.445919	1.167509	0.000138
1937	1.9263e+02	-2.8652	-11.879272	0.000122	1.216207	0.412062	0.000049
1938	1.9273e+02	-2.8202	-11.798529	0.000203	2.027011	0.686770	0.000081
1939	1.9283e+02	-2.7898	-11.669341	0.000324	3.243218	1.098832	0.000130
1940	1.9293e+02	-2.7513	-11.507855	0.000405	4.054022	1.373540	0.000162
1941	1.9303e+02	-2.6999	-11.402890	0.000264	2.635114	0.892801	0.000105
1942	1.9313e+02	-2.6678	-11.318110	0.000213	2.128362	0.721108	0.000085
1943	1.9323e+02	-2.6245	-11.192959	0.000314	3.141867	1.064493	0.000126
1944	1.9333e+02	-2.5924	-11.079919	0.000284	2.837815	0.961478	0.000114
1945	1.9343e+02	-2.5395	-10.991102	0.000223	2.229712	0.755447	0.000089
1946	1.9353e+02	-2.5122	-10.906322	0.000213	2.128362	0.721108	0.000085
1947	1.9363e+02	-2.4625	-10.829617	0.000193	1.925660	0.652431	0.000077
1948	1.9373e+02	-2.4336	-10.716577	0.000284	2.837815	0.961478	0.000114
1949	1.9383e+02	-2.3807	-10.611611	0.000264	2.635114	0.892801	0.000105
1950	1.9393e+02	-2.3470	-10.514720	0.000243	2.432413	0.824124	0.000097
1951	1.9403e+02	-2.3085	-10.385532	0.000324	3.243218	1.098832	0.000130
1952	1.9412e+02	-2.2668	-10.280566	0.000264	2.635114	0.892801	0.000105
1953	1.9422e+02	-2.2283	-10.195786	0.000213	2.128362	0.721108	0.000085
1954	1.9432e+02	-2.1930	-10.143304	0.000132	1.317557	0.446400	0.000053
1955	1.9442e+02	-2.1384	-10.022189	0.000304	3.040516	1.030155	0.000122
1956	1.9452e+02	-2.1112	-9.969707	0.000132	1.317557	0.446400	0.000053
1957	1.9462e+02	-2.0663	-9.868778	0.000253	2.533764	0.858462	0.000101
1958	1.9472e+02	-2.0197	-9.735553	0.000334	3.344568	1.133170	0.000134
1959	1.9482e+02	-1.9892	-9.598290	0.000345	3.445919	1.167509	0.000138
1960	1.9492e+02	-1.9411	-9.456990	0.000355	3.547269	1.201847	0.000142
1961	1.9502e+02	-1.9122	-9.376248	0.000203	2.027011	0.686770	0.000081
1962	1.9512e+02	-1.8641	-9.283394	0.000233	2.331063	0.789785	0.000093
1963	1.9522e+02	-1.8224	-9.186502	0.000243	2.432413	0.824124	0.000097
1964	1.9532e+02	-1.7951	-9.061351	0.000314	3.141867	1.064493	0.000126
1965	1.9542e+02	-1.7534	-8.996757	0.000162	1.621609	0.549416	0.000065
1966	1.9552e+02	-1.7053	-8.883717	0.000284	2.837815	0.961478	0.000114
1967	1.9562e+02	-1.6700	-8.762603	0.000304	3.040516	1.030155	0.000122
1968	1.9572e+02	-1.6331	-8.685898	0.000193	1.925660	0.652431	0.000077
1969	1.9582e+02	-1.5898	-8.576895	0.000274	2.736465	0.927139	0.000110
1970	1.9592e+02	-1.5545	-8.480004	0.000243	2.432413	0.824124	0.000097
1971	1.9601e+02	-1.5144	-8.391187	0.000223	2.229712	0.755447	0.000089
1972	1.9611e+02	-1.4550	-8.306407	0.000213	2.128362	0.721108	0.000085
1973	1.9621e+02	-1.4262	-8.221627	0.000213	2.128362	0.721108	0.000085
1974	1.9631e+02	-1.3861	-8.132810	0.000223	2.229712	0.755447	0.000089
1975	1.9641e+02	-1.3492	-8.015733	0.000294	2.939166	0.995816	0.000118
1976	1.9651e+02	-1.3123	-7.870396	0.000365	3.648620	1.236186	0.000146
1977	1.9661e+02	-1.2689	-7.809839	0.000152	1.520258	0.515077	0.000061
1978	1.9671e+02	-1.2337	-7.664502	0.000365	3.648620	1.236186	0.000146
1979	1.9681e+02	-1.1871	-7.523202	0.000355	3.547269	1.201847	0.000142
1980	1.9691e+02	-1.1438	-7.426311	0.000243	2.432413	0.824124	0.000097
1981	1.9701e+02	-1.1117	-7.325383	0.000253	2.533764	0.858462	0.000101
1982	1.9711e+02	-1.0684	-7.232529	0.000233	2.331063	0.789785	0.000093
1983	1.9721e+02	-1.0315	-7.143712	0.000223	2.229712	0.755447	0.000089
1984	1.9731e+02	-0.9962	-7.014523	0.000324	3.243218	1.098832	0.000130
1985	1.9741e+02	-0.9674	-6.913595	0.000253	2.533764	0.858462	0.000101
1986	1.9751e+02	-0.9112	-6.772295	0.000355	3.547269	1.201847	0.000142
1987	1.9761e+02	-0.8727	-6.695590	0.000193	1.925660	0.652431	0.000077
1988	1.9771e+02	-0.8358	-6.651181	0.000111	1.114856	0.377723	0.000045
1989	1.9781e+02	-0.7813	-6.534104	0.000294	2.939166	0.995816	0.000118
1990	1.9791e+02	-0.7588	-6.449324	0.000213	2.128362	0.721108	0.000085
1991	1.9800e+02	-0.7155	-6.368582	0.000203	2.027011	0.686770	0.000081
1992	1.9810e+02	-0.6706	-6.263616	0.000264	2.635114	0.892801	0.000105
1993	1.9820e+02	-0.6337	-6.126353	0.000345	3.445919	1.167509	0.000138
1994	1.9830e+02	-0.5984	-6.049648	0.000193	1.925660	0.652431	0.000077
1995	1.9840e+02	-0.5567	-6.009277	0.000101	1.013505	0.343385	0.000041
1996	1.9850e+02	-0.5166	-5.880088	0.000324	3.243218	1.098832	0.000130
1997	1.9860e+02	-0.4716	-5.710529	0.000426	4.256723	1.442217	0.000170
1998	1.9870e+02	-0.4396	-5.621712	0.000223	2.229712	0.755447	0.000089
1999	1.9880e+02	-0.3962	-5.540969	0.000203	2.027011	0.686770	0.000081
2000	1.9890e+02	-0.3545	-5.423892	0.000294	2.939166	0.995816	0.000118
2001	1.9900e+02	-0.3192	-5.314889	0.000274	2.736465	0.927139	0.000110
2002	1.9910e+02	-0.2759	-5.226072	0.000223	2.229712	0.755447	0.000089
2003	1.9920e+02	-0.2422	-5.121107	0.000264	2.635114	0.892801	0.000105
2004	1.9930e+02	-0.1877	-4.975770	0.000365	3.648620	1.236186	0.000146
2005	1.9940e+02	-0.1588	-4.915213	0.000152	1.520258	0.515077	0.000061
2006	1.9950e+02	-0.1123	-4.802173	0.000284	2.837815	0.961478	0.000114
2007	1.9960e+02	-0.0770	-4.668947	0.000334	3.344568	1.133170	0.000134
2008	1.9970e+02	-0.0353	-4.612428	0.000142	1.418908	0.480739	0.000057
2009	1.9980e+02	0.0032	-4.523611	0.000142	1.418908	0.480739	0.000089

PMax (uC/cm2):	5.08e+01
Pr (uC/cm2):	2.85e+00
-Pr (uC/cm2):	-2.12e+00
PLoss (uC/cm2):	-2.05e+00
-Vc:	-1.08e+00
C (Max-Eff) (nF):	2.54e-01
K (Eff):	8.61e+02
Vert. (+/-Pr) Shift (uC/cm2):	3.67e-01
Offset (uC/cm2):	2.40e+00

A (Loop Area - uC/cm2·Volts):	8.11e-03



Hysteresis Version: 5.48.1 - Radiant Technologies, Inc., 1999 - 9/12/24

