»»»»»»»»»»»»»»»»»»»»»»»»»»»»»»»»»»»» Hysteresis ««««««««««««««««««««««««««««««««««««
»»»  Executed Version:	5.48.1
»»»  Vision Version:	5.48.4 (R)
»»»  Vision Compiled:	9/18/24
»»»  Driver Version:	5.47.0
»»»  Windows Version:	Windows 8 or 8.1
»»»  Processor Information:	x86 (AMD or Intel) - 32 Processors
»»»  Tester Name:	PMF21124-494 (100V)
»»»  Tester S/N:	PMF21124-494
»»»  Internal Amp Type:	100V RevK 270k
»»»  Internal Amp S/N:	iAB2-596/K     
»»»  Execution Count:	1
»»»»»»»»»»»»»»»»»»»»»»»»»»»»»»»»»»»»»»»»»»««««««««««««««««««««««««««««««««««««««««««

Stored:	6/19/2025 - 13:9:0
Configured:	06/19/25 10:04:32 AM
Executed:	06/19/25 01:08:36 PM

»»»»»»»»»»»»»»»»»»»»»»»»»»»»»»»»»»» Sample Info ««««««««««««««««««««««««««««««««««««
Sample Name:	
Lot Name:	
Wafer Name:	
Die Row/Column:	0/0
Capacitor Number:	0
Sample Area (cm2):	1.00e-04
Sample Thickness (microns):	3.00e-01

Amplifier:	Internal

»»»»»»»»»»»»»»»»»»»»»»»»»»»»»»»»»»» Tester Info «««««««««««««««««««««««««««««««««««
Tester Name:	PMF21124-494 (100V)
Tester Serial Number:	PMF21124-494
Return Signal Amp. Level:	1.79 [Index: 2]

»»»»»»»»»»»»»»»»»»»»»»»»»»»»»»»» Hysteresis Info ««««««««««««««««««««««««««««««««««
Task Name:	Hyst-1168
Volts:	20.00
Field:	666.67 (kV/cm)
DCBias:	0.00
DCField:	0.00 (kV/cm)
Hysteresis Period (ms):	1.00e+00
Preset:	Enabled
Preset Delay (ms):	1.00e+03
Profile:	Standard Bipolar

»»»»»»»»»»»»»»»»»»»»»»»»»»»»»»»»»»»»»» Data «««««««««««««««««««««««««««««««««««««««
Points:	2001

Valid Data

Point	Time (ms)	Drive Voltage	Measured Polarization (uC/cm2)	Capacitance (uF)	Normalized Capacitance (uF/cm2)	Dielectric Constant	Instantaneous Current (mA)
   1	0.0000e+00	0.0465	-1.872999	0.001151	11.514958	3.901373	0.092367
   2	5.0000e-04	0.0594	-1.411163	0.001151	11.514958	3.901373	0.092367
   3	1.0000e-03	0.1011	-1.452643	-0.000103	-1.034214	-0.350401	-0.008296
   4	1.5000e-03	0.1636	-1.598036	-0.000363	-3.625079	-1.228210	-0.029079
   5	2.0000e-03	0.2086	-1.365408	0.000580	5.800127	1.965136	0.046526
   6	2.5000e-03	0.2358	-1.252087	0.000283	2.825429	0.957281	0.022664
   7	3.0000e-03	0.2615	-1.038702	0.000532	5.320337	1.802579	0.042677
   8	3.5000e-03	0.3144	-1.132779	-0.000235	-2.345640	-0.794724	-0.018816
   9	4.0000e-03	0.3433	-0.991663	0.000352	3.518459	1.192086	0.028223
  10	4.5000e-03	0.3898	-0.887750	0.000259	2.590866	0.877809	0.020783
  11	5.0000e-03	0.4460	-0.874494	0.000033	0.330522	0.111984	0.002651
  12	5.5000e-03	0.4829	-0.643148	0.000577	5.768141	1.954299	0.046269
  13	6.0000e-03	0.5021	-0.680352	-0.000093	-0.927594	-0.314277	-0.007441
  14	6.5000e-03	0.5503	-0.548216	0.000329	3.294557	1.116226	0.026427
  15	7.0000e-03	0.5920	-0.476375	0.000179	1.791216	0.606880	0.014368
  16	7.5000e-03	0.6305	-0.387856	0.000221	2.207034	0.747763	0.017704
  17	8.0000e-03	0.6898	-0.410948	-0.000058	-0.575748	-0.195069	-0.004618
  18	8.5000e-03	0.7251	-0.376310	0.000086	0.863622	0.292603	0.006928
  19	9.0000e-03	0.7540	0.088946	0.001160	11.600254	3.930272	0.093051
  20	9.5000e-03	0.8005	-0.104341	-0.000482	-4.819223	-1.632797	-0.038657
  21	1.0000e-02	0.8326	0.135557	0.000598	5.981381	2.026547	0.047980
  22	1.0500e-02	0.8903	0.419500	0.000708	7.079567	2.398622	0.056789
  23	1.1000e-02	0.9080	0.284798	-0.000336	-3.358529	-1.137901	-0.026940
  24	1.1500e-02	0.9722	0.389567	0.000261	2.612190	0.885034	0.020954
  25	1.2000e-02	1.0042	0.400257	0.000027	0.266550	0.090310	0.002138
  26	1.2500e-02	1.0363	0.727391	0.000816	8.156428	2.763473	0.065427
  27	1.3000e-02	1.0813	0.614070	-0.000283	-2.825429	-0.957281	-0.022664
  28	1.3500e-02	1.1117	0.697884	0.000209	2.089752	0.708027	0.016763
  29	1.4000e-02	1.1663	0.725680	0.000069	0.693030	0.234805	0.005559
  30	1.4500e-02	1.1935	0.921105	0.000487	4.872533	1.650859	0.039085
  31	1.5000e-02	1.2369	0.989097	0.000170	1.695258	0.574369	0.013598
  32	1.5500e-02	1.2754	1.222153	0.000581	5.810789	1.968749	0.046611
  33	1.6000e-02	1.3091	1.329915	0.000269	2.686824	0.910320	0.021552
  34	1.6500e-02	1.3524	1.237975	-0.000229	-2.292330	-0.776662	-0.018388
  35	1.7000e-02	1.3909	1.628825	0.000975	9.745066	3.301718	0.078170
  36	1.7500e-02	1.4550	1.580503	-0.000120	-1.204806	-0.408199	-0.009664
  37	1.8000e-02	1.4454	1.610864	-0.000076	-0.757002	-0.256479	0.006072
  38	1.8500e-02	1.5128	1.820401	0.000522	5.224379	1.770068	0.041907
  39	1.9000e-02	1.5561	1.629252	-0.000477	-4.765913	-1.614735	-0.038230
  40	1.9500e-02	1.5898	2.076121	0.001114	11.141788	3.774940	0.089374
  41	2.0000e-02	1.6219	2.037207	-0.000097	-0.970242	-0.328727	-0.007783
  42	2.0500e-02	1.6604	2.105627	0.000171	1.705920	0.577981	0.013684
  43	2.1000e-02	1.7133	2.200987	0.000238	2.377626	0.805561	0.019072
  44	2.1500e-02	1.7743	2.358781	0.000393	3.934277	1.332969	0.031559
  45	2.2000e-02	1.7999	2.286512	-0.000180	-1.801878	-0.610493	-0.014454
  46	2.2500e-02	1.8368	2.571738	0.000711	7.111553	2.409459	0.057045
  47	2.3000e-02	1.8657	2.476806	-0.000237	-2.366964	-0.801949	-0.018987
  48	2.3500e-02	1.9122	2.766736	0.000723	7.228835	2.449195	0.057986
  49	2.4000e-02	1.9459	2.765453	-0.000003	-0.031986	-0.010837	-0.000257
  50	2.4500e-02	1.9876	2.661112	-0.000260	-2.601528	-0.881421	-0.020868
  51	2.5000e-02	2.0374	3.001929	0.000850	8.497612	2.879069	0.068163
  52	2.5500e-02	2.0791	3.004068	0.000005	0.053310	0.018062	0.000428
  53	2.6000e-02	2.1192	3.133638	0.000323	3.230585	1.094552	0.025914
  54	2.6500e-02	2.1545	3.190940	0.000143	1.428708	0.484059	0.011460
  55	2.7000e-02	2.1850	3.267912	0.000192	1.919160	0.650229	0.015395
  56	2.7500e-02	2.2299	3.432976	0.000412	4.115531	1.394380	0.033013
  57	2.8000e-02	2.2764	3.432976	0.000000	0.000000	0.000000	0.000000
  58	2.8500e-02	2.3085	3.679288	0.000614	6.141311	2.080732	0.049262
  59	2.9000e-02	2.3550	3.761820	0.000206	2.057766	0.697190	0.016506
  60	2.9500e-02	2.4128	3.697676	-0.000160	-1.599300	-0.541857	-0.012829
  61	3.0000e-02	2.4368	3.796885	0.000247	2.473584	0.838073	0.019842
  62	3.0500e-02	2.4898	3.951258	0.000385	3.848981	1.304070	0.030875
  63	3.1000e-02	2.5026	4.224510	0.000681	6.813017	2.308313	0.054651
  64	3.1500e-02	2.5331	4.185596	-0.000097	-0.970242	-0.328727	-0.007783
  65	3.2000e-02	2.5892	4.253589	0.000170	1.695258	0.574369	0.013598
  66	3.2500e-02	2.6454	4.259148	0.000014	0.138606	0.046961	0.001112
  67	3.3000e-02	2.6727	4.591413	0.000828	8.284372	2.806821	0.066453
  68	3.3500e-02	2.7160	4.592695	0.000003	0.031986	0.010837	0.000257
  69	3.4000e-02	2.7464	4.622202	0.000074	0.735678	0.249254	0.005901
  70	3.4500e-02	2.8170	4.806080	0.000458	4.584659	1.553325	0.036776
  71	3.5000e-02	2.8475	4.879204	0.000182	1.823202	0.617717	0.014625
  72	3.5500e-02	2.8780	4.988676	0.000273	2.729471	0.924770	0.021894
  73	3.6000e-02	2.9117	5.240975	0.000629	6.290579	2.131306	0.050460
  74	3.6500e-02	2.9598	5.099004	-0.000354	-3.539783	-1.199311	-0.028394
  75	3.7000e-02	2.9903	5.344461	0.000612	6.119987	2.073508	0.049091
  76	3.7500e-02	3.0320	5.361566	0.000043	0.426480	0.144495	0.003421
  77	3.8000e-02	3.0561	5.539458	0.000444	4.435391	1.502751	0.035578
  78	3.8500e-02	3.1154	5.446235	-0.000232	-2.324316	-0.787499	-0.018644
  79	3.9000e-02	3.1427	5.670311	0.000559	5.586887	1.892889	0.044815
  80	3.9500e-02	3.1796	5.853762	0.000457	4.573997	1.549712	0.036690
  81	4.0000e-02	3.2406	5.684850	-0.000421	-4.211489	-1.426891	-0.033782
  82	4.0500e-02	3.2534	5.983333	0.000744	7.442075	2.521443	0.059696
  83	4.1000e-02	3.3079	6.107772	0.000310	3.102641	1.051203	0.024888
  84	4.1500e-02	3.3496	6.165929	0.000145	1.450032	0.491284	0.011631
  85	4.2000e-02	3.3897	6.244612	0.000196	1.961808	0.664678	0.015737
  86	4.2500e-02	3.4411	6.170633	-0.000184	-1.844526	-0.624942	-0.014796
  87	4.3000e-02	3.4844	6.298920	0.000320	3.198599	1.083715	0.025658
  88	4.3500e-02	3.5293	6.412241	0.000283	2.825429	0.957281	0.022664
  89	4.4000e-02	3.5710	6.441747	0.000074	0.735678	0.249254	0.005901
  90	4.4500e-02	3.5903	6.766742	0.000810	8.103118	2.745411	0.064999
  91	4.5000e-02	3.6143	6.641021	-0.000313	-3.134627	-1.062041	-0.025144
  92	4.5500e-02	3.6721	7.051113	0.001022	10.224856	3.464275	0.082019
  93	4.6000e-02	3.7298	6.802663	-0.000619	-6.194621	-2.098794	-0.049690
  94	4.6500e-02	3.7363	7.074633	0.000678	6.781031	2.297475	0.054394
  95	4.7000e-02	3.7924	7.137066	0.000156	1.556652	0.527408	0.012487
  96	4.7500e-02	3.8229	7.273478	0.000340	3.401177	1.152350	0.027282
  97	4.8000e-02	3.8582	7.447949	0.000435	4.350095	1.473852	0.034894
  98	4.8500e-02	3.9143	7.367128	-0.000202	-2.015118	-0.682740	-0.016164
  99	4.9000e-02	3.9576	7.627552	0.000649	6.493157	2.199941	0.052085
 100	4.9500e-02	4.0042	7.521501	-0.000264	-2.644176	-0.895871	-0.021210
 101	5.0000e-02	4.0218	7.782780	0.000651	6.514481	2.207166	0.052256
 102	5.0500e-02	4.0699	7.983336	0.000500	5.000477	1.694207	0.040111
 103	5.1000e-02	4.1068	7.804161	-0.000447	-4.467377	-1.513588	-0.035835
 104	5.1500e-02	4.1646	8.004290	0.000499	4.989815	1.690595	0.040026
 105	5.2000e-02	4.2031	8.063302	0.000147	1.471356	0.498509	0.011802
 106	5.2500e-02	4.2223	8.235208	0.000429	4.286123	1.452178	0.034381
 107	5.3000e-02	4.2753	8.367771	0.000331	3.305219	1.119839	0.026513
 108	5.3500e-02	4.3314	8.298924	-0.000172	-1.716582	-0.581594	-0.013770
 109	5.4000e-02	4.3667	8.410106	0.000277	2.772119	0.939220	0.022237
 110	5.4500e-02	4.4052	8.541815	0.000328	3.283895	1.112614	0.026342
 111	5.5000e-02	4.4293	8.723128	0.000452	4.520687	1.531650	0.036263
 112	5.5500e-02	4.4598	8.855692	0.000331	3.305219	1.119839	0.026513
 113	5.6000e-02	4.5320	8.821909	-0.000084	-0.842298	-0.285378	-0.006756
 114	5.6500e-02	4.5608	8.944638	0.000306	3.059993	1.036754	0.024546
 115	5.7000e-02	4.5929	9.108846	0.000409	4.094207	1.387155	0.032842
 116	5.7500e-02	4.6314	9.149898	0.000102	1.023552	0.346789	0.008210
 117	5.8000e-02	4.6683	9.220884	0.000177	1.769892	0.599656	0.014197
 118	5.8500e-02	4.7229	9.305126	0.000210	2.100414	0.711639	0.016848
 119	5.9000e-02	4.7566	9.416309	0.000277	2.772119	0.939220	0.022237
 120	5.9500e-02	4.7902	9.601898	0.000463	4.627307	1.567774	0.037118
 121	6.0000e-02	4.8352	9.559135	-0.000107	-1.066200	-0.361238	-0.008553
 122	6.0500e-02	4.8705	9.733179	0.000434	4.339433	1.470240	0.034809
 123	6.1000e-02	4.9122	9.864887	0.000328	3.283895	1.112614	0.026342
 124	6.1500e-02	4.9603	9.853769	-0.000028	-0.277212	-0.093922	-0.002224
 125	6.2000e-02	4.9908	10.051760	0.000494	4.936505	1.672533	0.039598
 126	6.2500e-02	5.0373	10.088108	0.000091	0.906270	0.307053	0.007270
 127	6.3000e-02	5.0726	10.206132	0.000294	2.942711	0.997018	0.023605
 128	6.3500e-02	5.0983	10.321164	0.000287	2.868077	0.971731	0.023006
 129	6.4000e-02	5.1704	10.460142	0.000347	3.465149	1.174024	0.027796
 130	6.4500e-02	5.1913	10.480240	0.000050	0.501114	0.169782	0.004020
 131	6.5000e-02	5.2362	10.571752	0.000228	2.281668	0.773050	0.018302
 132	6.5500e-02	5.2731	10.730829	0.000397	3.966263	1.343806	0.031815
 133	6.6000e-02	5.3244	10.827472	0.000241	2.409612	0.816398	0.019329
 134	6.6500e-02	5.3565	10.884346	0.000142	1.418046	0.480447	0.011375
 135	6.7000e-02	5.4015	10.842866	-0.000103	-1.034214	-0.350401	-0.008296
 136	6.7500e-02	5.4512	11.117402	0.000685	6.845003	2.319150	0.054907
 137	6.8000e-02	5.4833	11.240130	0.000306	3.059993	1.036754	0.024546
 138	6.8500e-02	5.5057	11.362859	0.000306	3.059993	1.036754	0.024546
 139	6.9000e-02	5.5474	11.447101	0.000210	2.100414	0.711639	0.016848
 140	6.9500e-02	5.5843	11.582231	0.000337	3.369191	1.141513	0.027026
 141	7.0000e-02	5.6325	11.503120	-0.000197	-1.972470	-0.668291	-0.015822
 142	7.0500e-02	5.6678	11.713084	0.000524	5.235041	1.773680	0.041993
 143	7.1000e-02	5.7063	11.855483	0.000355	3.550445	1.202923	0.028480
 144	7.1500e-02	5.7624	11.892259	0.000092	0.916932	0.310665	0.007355
 145	7.2000e-02	5.8057	11.927752	0.000088	0.884946	0.299828	0.007099
 146	7.2500e-02	5.8186	12.224524	0.000740	7.399427	2.506994	0.059354
 147	7.3000e-02	5.8795	12.140709	-0.000209	-2.089752	-0.708027	-0.016763
 148	7.3500e-02	5.9100	12.274556	0.000334	3.337205	1.130676	0.026769
 149	7.4000e-02	5.9549	12.497776	0.000557	5.565563	1.885664	0.044644
 150	7.4500e-02	5.9838	12.589716	0.000229	2.292330	0.776662	0.018388
 151	7.5000e-02	6.0480	12.626919	0.000093	0.927594	0.314277	0.007441
 152	7.5500e-02	6.0736	12.626491	-0.000001	-0.010662	-0.003612	-0.000086
 153	7.6000e-02	6.1153	12.710306	0.000209	2.089752	0.708027	0.016763
 154	7.6500e-02	6.1795	12.888626	0.000445	4.446053	1.506364	0.035664
 155	7.7000e-02	6.2116	12.843297	-0.000113	-1.130172	-0.382913	-0.009066
 156	7.7500e-02	6.2292	13.096452	0.000631	6.311903	2.138531	0.050631
 157	7.8000e-02	6.2902	13.242272	0.000364	3.635741	1.231823	0.029164
 158	7.8500e-02	6.3255	13.271778	0.000074	0.735678	0.249254	0.005901
 159	7.9000e-02	6.3447	13.349606	0.000194	1.940484	0.657454	0.015566
 160	7.9500e-02	6.3752	13.638253	0.000720	7.196849	2.438358	0.057729
 161	8.0000e-02	6.4330	13.496709	-0.000353	-3.529121	-1.195699	-0.028309
 162	8.0500e-02	6.4859	13.519801	0.000058	0.575748	0.195069	0.004618
 163	8.1000e-02	6.4955	13.820849	0.000751	7.506047	2.543117	0.060210
 164	8.1500e-02	6.5549	13.814007	-0.000017	-0.170592	-0.057798	-0.001368
 165	8.2000e-02	6.6030	14.002590	0.000470	4.701941	1.593061	0.037717
 166	8.2500e-02	6.6463	14.074003	0.000178	1.780554	0.603268	0.014283
 167	8.3000e-02	6.6752	14.128739	0.000136	1.364736	0.462385	0.010947
 168	8.3500e-02	6.7185	14.233935	0.000262	2.622852	0.888646	0.021039
 169	8.4000e-02	6.7410	14.488372	0.000634	6.343889	2.149368	0.050887
 170	8.4500e-02	6.8003	14.436202	-0.000130	-1.300764	-0.440711	-0.010434
 171	8.5000e-02	6.8485	14.452024	0.000039	0.394494	0.133658	0.003164
 172	8.5500e-02	6.8661	14.565772	0.000284	2.836091	0.960894	0.022750
 173	8.6000e-02	6.9303	14.616660	0.000127	1.268778	0.429874	0.010177
 174	8.6500e-02	6.9479	14.848005	0.000577	5.768141	1.954299	0.046269
 175	8.7000e-02	7.0009	14.803104	-0.000112	-1.119510	-0.379300	-0.008980
 176	8.7500e-02	7.0330	14.949352	0.000365	3.646403	1.235435	0.029250
 177	8.8000e-02	7.0682	15.155895	0.000515	5.149745	1.744781	0.041309
 178	8.8500e-02	7.1196	15.104152	-0.000129	-1.290102	-0.437098	-0.010349
 179	8.9000e-02	7.1517	15.327800	0.000558	5.576225	1.889276	0.044730
 180	8.9500e-02	7.1757	15.287176	-0.000101	-1.012890	-0.343176	-0.008125
 181	9.0000e-02	7.2415	15.575823	0.000720	7.196849	2.438358	0.057729
 182	9.0500e-02	7.2752	15.527074	-0.000122	-1.215468	-0.411812	-0.009750
 183	9.1000e-02	7.3185	15.623289	0.000240	2.398950	0.812786	0.019243
 184	9.1500e-02	7.3426	15.869174	0.000613	6.130649	2.077120	0.049177
 185	9.2000e-02	7.3795	16.041935	0.000431	4.307447	1.459403	0.034552
 186	9.2500e-02	7.4372	15.974370	-0.000168	-1.684596	-0.570756	-0.013513
 187	9.3000e-02	7.4757	16.029106	0.000136	1.364736	0.462385	0.010947
 188	9.3500e-02	7.5110	16.215978	0.000466	4.659293	1.578611	0.037374
 189	9.4000e-02	7.5495	16.213412	-0.000006	-0.063972	-0.021674	-0.000513
 190	9.4500e-02	7.5912	16.280977	0.000168	1.684596	0.570756	0.013513
 191	9.5000e-02	7.6490	16.496928	0.000538	5.384309	1.824253	0.043190
 192	9.5500e-02	7.6779	16.610676	0.000284	2.836091	0.960894	0.022750
 193	9.6000e-02	7.7132	16.594426	-0.000041	-0.405156	-0.137271	-0.003250
 194	9.6500e-02	7.7517	16.836462	0.000603	6.034691	2.044609	0.048407
 195	9.7000e-02	7.7886	17.037446	0.000501	5.011139	1.697820	0.040197
 196	9.7500e-02	7.8399	17.039584	0.000005	0.053310	0.018062	0.000428
 197	9.8000e-02	7.8784	16.984848	-0.000136	-1.364736	-0.462385	-0.010947
 198	9.8500e-02	7.9169	17.061393	0.000191	1.908498	0.646617	0.015309
 199	9.9000e-02	7.9442	17.323100	0.000653	6.525143	2.210778	0.052341
 200	9.9500e-02	7.9843	17.451815	0.000321	3.209261	1.087327	0.025743
 201	1.0000e-01	8.0324	17.249121	-0.000505	-5.053787	-1.712269	-0.040539
 202	1.0050e-01	8.0805	17.595497	0.000864	8.636218	2.926030	0.069275
 203	1.0100e-01	8.1110	17.679312	0.000209	2.089752	0.708027	0.016763
 204	1.0150e-01	8.1623	17.695134	0.000039	0.394494	0.133658	0.003164
 205	1.0200e-01	8.1816	17.921348	0.000564	5.640197	1.910950	0.045243
 206	1.0250e-01	8.2377	18.042366	0.000302	3.017345	1.022304	0.024204
 207	1.0300e-01	8.2923	17.961544	-0.000202	-2.015118	-0.682740	-0.016164
 208	1.0350e-01	8.3083	18.190752	0.000571	5.714831	1.936237	0.045841
 209	1.0400e-01	8.3516	18.344269	0.000383	3.827657	1.296845	0.030703
 210	1.0450e-01	8.3982	18.165949	-0.000445	-4.446053	-1.506364	-0.035664
 211	1.0500e-01	8.4254	18.453313	0.000716	7.164863	2.427521	0.057473
 212	1.0550e-01	8.4687	18.614101	0.000401	4.008911	1.358256	0.032157
 213	1.0600e-01	8.5185	18.672685	0.000146	1.460694	0.494896	0.011717
 214	1.0650e-01	8.5682	18.697915	0.000063	0.629058	0.213131	0.005046
 215	1.0700e-01	8.6019	18.768901	0.000177	1.769892	0.599656	0.014197
 216	1.0750e-01	8.6564	18.876235	0.000268	2.676162	0.906708	0.021467
 217	1.0800e-01	8.6629	18.855281	-0.000052	-0.522438	-0.177007	-0.004191
 218	1.0850e-01	8.7078	19.196954	0.000852	8.518936	2.886294	0.068335
 219	1.0900e-01	8.7238	19.217907	0.000052	0.522438	0.177007	0.004191
 220	1.0950e-01	8.8040	19.265374	0.000118	1.183482	0.400974	0.009493
 221	1.1000e-01	8.8377	19.249552	-0.000039	-0.394494	-0.133658	-0.003164
 222	1.1050e-01	8.8602	19.512969	0.000657	6.567791	2.225228	0.052683
 223	1.1100e-01	8.9163	19.684019	0.000426	4.264799	1.444953	0.034210
 224	1.1150e-01	8.9468	19.642539	-0.000103	-1.034214	-0.350401	-0.008296
 225	1.1200e-01	8.9917	19.795629	0.000382	3.816995	1.293233	0.030618
 226	1.1250e-01	9.0447	19.940594	0.000361	3.614417	1.224598	0.028993
 227	1.1300e-01	9.0864	19.860201	-0.000200	-2.004456	-0.679128	-0.016079
 228	1.1350e-01	9.1217	20.017139	0.000391	3.912953	1.325744	0.031388
 229	1.1400e-01	9.1794	20.139012	0.000304	3.038669	1.029529	0.024375
 230	1.1450e-01	9.2147	20.258747	0.000299	2.985359	1.011467	0.023947
 231	1.1500e-01	9.2243	20.489665	0.000576	5.757479	1.950687	0.046184
 232	1.1550e-01	9.2853	20.413975	-0.000189	-1.887174	-0.639392	-0.015138
 233	1.1600e-01	9.3110	20.481540	0.000168	1.684596	0.570756	0.013513
 234	1.1650e-01	9.3414	20.703905	0.000554	5.544239	1.878439	0.044473
 235	1.1700e-01	9.3864	20.833903	0.000324	3.241247	1.098164	0.026000
 236	1.1750e-01	9.4377	20.818509	-0.000038	-0.383832	-0.130046	-0.003079
 237	1.1800e-01	9.4971	21.071235	0.000630	6.301241	2.134918	0.050545
 238	1.1850e-01	9.5163	21.093044	0.000054	0.543762	0.184232	0.004362
 239	1.1900e-01	9.5741	21.005809	-0.000218	-2.175048	-0.736926	-0.017447
 240	1.1950e-01	9.5837	21.357317	0.000876	8.764162	2.969379	0.070302
 241	1.2000e-01	9.6414	21.333797	-0.000059	-0.586410	-0.198681	-0.004704
 242	1.2050e-01	9.6719	21.428730	0.000237	2.366964	0.801949	0.018987
 243	1.2100e-01	9.7088	21.614747	0.000464	4.637969	1.571386	0.037203
 244	1.2150e-01	9.7473	21.632280	0.000044	0.437142	0.148108	0.003507
 245	1.2200e-01	9.7890	21.736193	0.000259	2.590866	0.877809	0.020783
 246	1.2250e-01	9.8339	21.899546	0.000407	4.072883	1.379930	0.032671
 247	1.2300e-01	9.8869	21.847375	-0.000130	-1.300764	-0.440711	-0.010434
 248	1.2350e-01	9.9222	21.935038	0.000219	2.185710	0.740538	0.017533
 249	1.2400e-01	9.9511	22.048787	0.000284	2.836091	0.960894	0.022750
 250	1.2450e-01	9.9960	22.307928	0.000646	6.461171	2.189104	0.051828
 251	1.2500e-01	10.0297	22.390032	0.000205	2.047104	0.693577	0.016421
 252	1.2550e-01	10.0666	22.464866	0.000187	1.865850	0.632167	0.014967
 253	1.2600e-01	10.1067	22.527727	0.000157	1.567314	0.531020	0.012572
 254	1.2650e-01	10.1468	22.641903	0.000285	2.846753	0.964506	0.022835
 255	1.2700e-01	10.1692	22.755651	0.000284	2.836091	0.960894	0.022750
 256	1.2750e-01	10.2462	22.648317	-0.000268	-2.676162	-0.906708	-0.021467
 257	1.2800e-01	10.2783	22.933971	0.000712	7.122215	2.413072	0.057131
 258	1.2850e-01	10.3168	23.016075	0.000205	2.047104	0.693577	0.016421
 259	1.2900e-01	10.3409	23.103311	0.000218	2.175048	0.736926	0.017447
 260	1.2950e-01	10.4018	23.325676	0.000554	5.544239	1.878439	0.044473
 261	1.3000e-01	10.4387	23.308143	-0.000044	-0.437142	-0.148108	-0.003507
 262	1.3050e-01	10.4837	23.416760	0.000271	2.708147	0.917545	0.021723
 263	1.3100e-01	10.5109	23.310709	-0.000264	-2.644176	-0.895871	-0.021210
 264	1.3150e-01	10.5414	23.669487	0.000895	8.945416	3.030789	0.071756
 265	1.3200e-01	10.5831	23.819583	0.000374	3.742361	1.267946	0.030019
 266	1.3250e-01	10.6184	23.833695	0.000035	0.351846	0.119209	0.002822
 267	1.3300e-01	10.6746	24.082145	0.000619	6.194621	2.098794	0.049690
 268	1.3350e-01	10.7099	24.021422	-0.000151	-1.514004	-0.512958	-0.012145
 269	1.3400e-01	10.7468	24.172802	0.000377	3.774347	1.278783	0.030276
 270	1.3450e-01	10.8109	24.130039	-0.000107	-1.066200	-0.361238	-0.008553
 271	1.3500e-01	10.8254	24.089415	-0.000101	-1.012890	-0.343176	-0.008125
 272	1.3550e-01	10.8703	24.380627	0.000726	7.260821	2.460033	0.058243
 273	1.3600e-01	10.9072	24.626512	0.000613	6.130649	2.077120	0.049177
 274	1.3650e-01	10.9601	24.524737	-0.000254	-2.537556	-0.859747	-0.020355
 275	1.3700e-01	11.0034	24.577335	0.000131	1.311426	0.444323	0.010520
 276	1.3750e-01	11.0179	24.860851	0.000707	7.068905	2.395010	0.056703
 277	1.3800e-01	11.0660	24.956639	0.000239	2.388288	0.809174	0.019158
 278	1.3850e-01	11.1270	24.868548	-0.000220	-2.196372	-0.744151	-0.017618
 279	1.3900e-01	11.1655	24.975027	0.000265	2.654838	0.899483	0.021296
 280	1.3950e-01	11.1783	25.124695	0.000373	3.731699	1.264334	0.029934
 281	1.4000e-01	11.2473	25.343640	0.000546	5.458943	1.849540	0.043789
 282	1.4050e-01	11.2826	25.463375	0.000299	2.985359	1.011467	0.023947
 283	1.4100e-01	11.3259	25.302160	-0.000402	-4.019573	-1.361868	-0.032243
 284	1.4150e-01	11.3435	25.594656	0.000729	7.292807	2.470870	0.058499
 285	1.4200e-01	11.3965	25.616037	0.000053	0.533100	0.180619	0.004276
 286	1.4250e-01	11.4542	25.559163	-0.000142	-1.418046	-0.480447	-0.011375
 287	1.4300e-01	11.4895	25.870901	0.000777	7.772597	2.633427	0.062348
 288	1.4350e-01	11.5072	25.954288	0.000208	2.079090	0.704415	0.016677
 289	1.4400e-01	11.5392	26.078727	0.000310	3.102641	1.051203	0.024888
 290	1.4450e-01	11.6050	25.997479	-0.000203	-2.025780	-0.686353	-0.016250
 291	1.4500e-01	11.6307	26.261751	0.000659	6.589115	2.232453	0.052854
 292	1.4550e-01	11.6949	26.259185	-0.000006	-0.063972	-0.021674	-0.000513
 293	1.4600e-01	11.7173	26.306652	0.000118	1.183482	0.400974	0.009493
 294	1.4650e-01	11.7526	26.454610	0.000369	3.689051	1.249884	0.029592
 295	1.4700e-01	11.8136	26.652600	0.000494	4.936505	1.672533	0.039598
 296	1.4750e-01	11.8441	26.722303	0.000174	1.737906	0.588818	0.013941
 297	1.4800e-01	11.8697	26.796283	0.000184	1.844526	0.624942	0.014796
 298	1.4850e-01	11.9066	26.946807	0.000375	3.753023	1.271559	0.030105
 299	1.4900e-01	11.9387	27.035753	0.000222	2.217696	0.751376	0.017789
 300	1.4950e-01	11.9900	27.252131	0.000539	5.394971	1.827866	0.043276
 301	1.5000e-01	12.0334	27.318841	0.000166	1.663272	0.563532	0.013342
 302	1.5050e-01	12.0831	27.297459	-0.000053	-0.533100	-0.180619	-0.004276
 303	1.5100e-01	12.1216	27.495022	0.000493	4.925843	1.668921	0.039513
 304	1.5150e-01	12.1392	27.381274	-0.000284	-2.836091	-0.960894	-0.022750
 305	1.5200e-01	12.1986	27.593804	0.000530	5.299013	1.795354	0.042506
 306	1.5250e-01	12.2243	27.713111	0.000297	2.974697	1.007855	0.023861
 307	1.5300e-01	12.2772	27.855083	0.000354	3.539783	1.199311	0.028394
 308	1.5350e-01	12.3269	27.977384	0.000305	3.049331	1.033141	0.024460
 309	1.5400e-01	12.3446	27.950871	-0.000066	-0.661044	-0.223968	-0.005303
 310	1.5450e-01	12.3911	28.112513	0.000403	4.030235	1.365481	0.032328
 311	1.5500e-01	12.4264	28.334451	0.000553	5.533577	1.874827	0.044388
 312	1.5550e-01	12.4890	28.224551	-0.000274	-2.740133	-0.928382	-0.021980
 313	1.5600e-01	12.4938	28.511060	0.000714	7.143539	2.420296	0.057302
 314	1.5650e-01	12.5178	28.496948	-0.000035	-0.351846	-0.119209	-0.002822
 315	1.5700e-01	12.5820	28.736846	0.000598	5.981381	2.026547	0.047980
 316	1.5750e-01	12.6221	28.649183	-0.000219	-2.185710	-0.740538	-0.017533
 317	1.5800e-01	12.6799	28.919442	0.000674	6.738383	2.283026	0.054052
 318	1.5850e-01	12.7248	28.912172	-0.000018	-0.181254	-0.061411	-0.001454
 319	1.5900e-01	12.7392	29.000691	0.000221	2.207034	0.747763	0.017704
 320	1.5950e-01	12.7986	29.130261	0.000323	3.230585	1.094552	0.025914
 321	1.6000e-01	12.8290	29.154636	0.000061	0.607734	0.205906	0.004875
 322	1.6050e-01	12.8692	29.310719	0.000389	3.891629	1.318520	0.031217
 323	1.6100e-01	12.9237	29.351771	0.000102	1.023552	0.346789	0.008210
 324	1.6150e-01	12.9253	29.431737	0.000199	1.993794	0.675516	0.015993
 325	1.6200e-01	12.9750	29.563018	0.000327	3.273233	1.109001	0.026256
 326	1.6250e-01	13.0344	29.686174	0.000307	3.070655	1.040366	0.024631
 327	1.6300e-01	13.0889	29.721239	0.000087	0.874284	0.296215	0.007013
 328	1.6350e-01	13.1130	29.835843	0.000286	2.857415	0.968119	0.022921
 329	1.6400e-01	13.1451	29.840547	0.000012	0.117282	0.039736	0.000941
 330	1.6450e-01	13.1916	30.018867	0.000445	4.446053	1.506364	0.035664
 331	1.6500e-01	13.2317	30.088997	0.000175	1.748568	0.592431	0.014026
 332	1.6550e-01	13.2590	30.262613	0.000433	4.328771	1.466627	0.034723
 333	1.6600e-01	13.3264	30.310935	0.000120	1.204806	0.408199	0.009664
 334	1.6650e-01	13.3568	30.418696	0.000269	2.686824	0.910320	0.021552
 335	1.6700e-01	13.3649	30.650469	0.000578	5.778803	1.957911	0.046355
 336	1.6750e-01	13.4242	30.690238	0.000099	0.991566	0.335952	0.007954
 337	1.6800e-01	13.4772	30.806980	0.000291	2.910725	0.986180	0.023348
 338	1.6850e-01	13.5189	30.837341	0.000076	0.757002	0.256479	0.006072
 339	1.6900e-01	13.5333	30.984872	0.000368	3.678389	1.246272	0.029506
 340	1.6950e-01	13.5927	31.049444	0.000161	1.609962	0.545470	0.012914
 341	1.7000e-01	13.6312	31.146942	0.000243	2.430936	0.823623	0.019500
 342	1.7050e-01	13.6568	31.090068	-0.000142	-1.418046	-0.480447	-0.011375
 343	1.7100e-01	13.7114	31.471082	0.000950	9.499840	3.218633	0.076203
 344	1.7150e-01	13.7499	31.250000	-0.000551	-5.512253	-1.867602	-0.044216
 345	1.7200e-01	13.7804	31.606639	0.000889	8.892106	3.012727	0.071328
 346	1.7250e-01	13.8285	31.625882	0.000048	0.479790	0.162557	0.003849
 347	1.7300e-01	13.8814	31.680191	0.000135	1.354074	0.458773	0.010862
 348	1.7350e-01	13.9087	31.753315	0.000182	1.823202	0.617717	0.014625
 349	1.7400e-01	13.9504	31.912391	0.000397	3.966263	1.343806	0.031815
 350	1.7450e-01	13.9777	32.031699	0.000297	2.974697	1.007855	0.023861
 351	1.7500e-01	14.0130	32.192486	0.000401	4.008911	1.358256	0.032157
 352	1.7550e-01	14.0659	32.223703	0.000078	0.778326	0.263704	0.006243
 353	1.7600e-01	14.1156	32.466594	0.000606	6.056015	2.051833	0.048578
 354	1.7650e-01	14.1590	32.248932	-0.000543	-5.426957	-1.838703	-0.043532
 355	1.7700e-01	14.1878	32.611559	0.000904	9.041374	3.063301	0.072525
 356	1.7750e-01	14.2311	32.536724	-0.000187	-1.865850	-0.632167	-0.014967
 357	1.7800e-01	14.2504	32.706064	0.000422	4.222151	1.430504	0.033868
 358	1.7850e-01	14.3001	32.810832	0.000261	2.612190	0.885034	0.020954
 359	1.7900e-01	14.3370	32.898923	0.000220	2.196372	0.744151	0.017618
 360	1.7950e-01	14.3755	32.922870	0.000060	0.597072	0.202293	0.004789
 361	1.8000e-01	14.4317	33.192701	0.000673	6.727721	2.279413	0.053966
 362	1.8050e-01	14.4670	33.238885	0.000115	1.151496	0.390137	0.009237
 363	1.8100e-01	14.5071	33.168327	-0.000176	-1.759230	-0.596043	-0.014112
 364	1.8150e-01	14.5360	33.545492	0.000940	9.403882	3.186122	0.075433
 365	1.8200e-01	14.5761	33.509999	-0.000088	-0.884946	-0.299828	-0.007099
 366	1.8250e-01	14.6354	33.586117	0.000190	1.897836	0.643004	0.015223
 367	1.8300e-01	14.6691	33.519835	-0.000165	-1.652610	-0.559919	-0.013256
 368	1.8350e-01	14.7349	33.667365	0.000368	3.678389	1.246272	0.029506
 369	1.8400e-01	14.7557	33.882461	0.000536	5.362985	1.817029	0.043019
 370	1.8450e-01	14.7958	33.843547	-0.000097	-0.970242	-0.328727	-0.007783
 371	1.8500e-01	14.8151	34.099267	0.000638	6.375875	2.160205	0.051144
 372	1.8550e-01	14.8648	34.204890	0.000263	2.633514	0.892259	0.021125
 373	1.8600e-01	14.9258	34.262192	0.000143	1.428708	0.484059	0.011460
 374	1.8650e-01	14.9482	34.356270	0.000235	2.345640	0.794724	0.018816
 375	1.8700e-01	14.9867	34.288277	-0.000170	-1.695258	-0.574369	-0.013598
 376	1.8750e-01	15.0381	34.418703	0.000325	3.251909	1.101777	0.026085
 377	1.8800e-01	15.0830	34.585905	0.000417	4.168841	1.412442	0.033440
 378	1.8850e-01	15.0990	34.600016	0.000035	0.351846	0.119209	0.002822
 379	1.8900e-01	15.1552	34.823664	0.000558	5.576225	1.889276	0.044730
 380	1.8950e-01	15.1825	34.852315	0.000071	0.714354	0.242030	0.005730
 381	1.9000e-01	15.2258	34.910900	0.000146	1.460694	0.494896	0.011717
 382	1.9050e-01	15.2707	35.125568	0.000535	5.352323	1.813416	0.042934
 383	1.9100e-01	15.3284	35.090930	-0.000086	-0.863622	-0.292603	-0.006928
 384	1.9150e-01	15.3509	35.213231	0.000305	3.049331	1.033141	0.024460
 385	1.9200e-01	15.3878	35.393261	0.000449	4.488701	1.520813	0.036006
 386	1.9250e-01	15.4279	35.494608	0.000253	2.526894	0.856135	0.020269
 387	1.9300e-01	15.4600	35.590396	0.000239	2.388288	0.809174	0.019158
 388	1.9350e-01	15.5145	35.581844	-0.000021	-0.213240	-0.072248	-0.001711
 389	1.9400e-01	15.5514	35.897859	0.000788	7.879217	2.669551	0.063203
 390	1.9450e-01	15.5819	35.872201	-0.000064	-0.639720	-0.216743	-0.005132
 391	1.9500e-01	15.6124	36.088580	0.000539	5.394971	1.827866	0.043276
 392	1.9550e-01	15.6573	36.075323	-0.000033	-0.330522	-0.111984	-0.002651
 393	1.9600e-01	15.7183	36.192493	0.000292	2.921387	0.989793	0.023434
 394	1.9650e-01	15.7471	36.264761	0.000180	1.801878	0.610493	0.014454
 395	1.9700e-01	15.7921	36.264334	-0.000001	-0.010662	-0.003612	-0.000086
 396	1.9750e-01	15.8338	36.514495	0.000624	6.237269	2.113244	0.050032
 397	1.9800e-01	15.8530	36.457620	-0.000142	-1.418046	-0.480447	-0.011375
 398	1.9850e-01	15.9124	36.731301	0.000682	6.823679	2.311925	0.054736
 399	1.9900e-01	15.9300	36.749261	0.000045	0.447804	0.151720	0.003592
 400	1.9950e-01	15.9862	36.868141	0.000296	2.964035	1.004242	0.023776
 401	2.0000e-01	16.0135	36.984882	0.000291	2.910725	0.986180	0.023348
 402	2.0050e-01	16.0632	36.873272	-0.000278	-2.782781	-0.942832	-0.022322
 403	2.0100e-01	16.1161	37.194846	0.000802	8.017823	2.716512	0.064315
 404	2.0150e-01	16.1498	37.188432	-0.000016	-0.159930	-0.054186	-0.001283
 405	2.0200e-01	16.1626	37.400107	0.000528	5.277689	1.788129	0.042335
 406	2.0250e-01	16.2300	37.399251	-0.000002	-0.021324	-0.007225	-0.000171
 407	2.0300e-01	16.2637	37.416356	0.000043	0.426480	0.144495	0.003421
 408	2.0350e-01	16.3038	37.659247	0.000606	6.056015	2.051833	0.048578
 409	2.0400e-01	16.3359	37.752042	0.000231	2.313654	0.783887	0.018559
 410	2.0450e-01	16.3904	37.830725	0.000196	1.961808	0.664678	0.015737
 411	2.0500e-01	16.4161	37.934210	0.000258	2.580204	0.874197	0.020697
 412	2.0550e-01	16.4851	37.852534	-0.000204	-2.036442	-0.689965	-0.016335
 413	2.0600e-01	16.4995	38.105688	0.000631	6.311903	2.138531	0.050631
 414	2.0650e-01	16.5477	38.147596	0.000104	1.044876	0.354014	0.008381
 415	2.0700e-01	16.5749	38.334040	0.000465	4.648631	1.574999	0.037289
 416	2.0750e-01	16.6391	38.379796	0.000114	1.140834	0.386525	0.009151
 417	2.0800e-01	16.6760	38.354994	-0.000062	-0.618396	-0.209518	-0.004960
 418	2.0850e-01	16.7257	38.374237	0.000048	0.479790	0.162557	0.003849
 419	2.0900e-01	16.7466	38.600451	0.000564	5.640197	1.910950	0.045243
 420	2.0950e-01	16.7995	38.714199	0.000284	2.836091	0.960894	0.022750
 421	2.1000e-01	16.8172	38.896795	0.000455	4.552673	1.542487	0.036519
 422	2.1050e-01	16.8733	38.961366	0.000161	1.609962	0.545470	0.012914
 423	2.1100e-01	16.9054	38.954524	-0.000017	-0.170592	-0.057798	-0.001368
 424	2.1150e-01	16.9327	39.152515	0.000494	4.936505	1.672533	0.039598
 425	2.1200e-01	16.9936	39.431327	0.000695	6.951623	2.355274	0.055762
 426	2.1250e-01	17.0129	39.188435	-0.000606	-6.056015	-2.051833	-0.048578
 427	2.1300e-01	17.0594	39.563890	0.000936	9.361234	3.171672	0.075091
 428	2.1350e-01	17.1172	39.358203	-0.000513	-5.128421	-1.737556	-0.041138
 429	2.1400e-01	17.1188	39.666093	0.000768	7.676639	2.600916	0.061578
 430	2.1450e-01	17.2086	39.710566	0.000111	1.108848	0.375688	0.008895
 431	2.1500e-01	17.2391	39.734085	0.000059	0.586410	0.198681	0.004704
 432	2.1550e-01	17.2760	39.680632	-0.000133	-1.332750	-0.451548	-0.010691
 433	2.1600e-01	17.3097	40.001779	0.000801	8.007161	2.712899	0.064229
 434	2.1650e-01	17.3369	40.219440	0.000543	5.426957	1.838703	0.043532
 435	2.1700e-01	17.3770	40.236973	0.000044	0.437142	0.148108	0.003507
 436	2.1750e-01	17.4332	40.255788	0.000047	0.469128	0.158945	0.003763
 437	2.1800e-01	17.4444	40.385359	0.000323	3.230585	1.094552	0.025914
 438	2.1850e-01	17.4974	40.559402	0.000434	4.339433	1.470240	0.034809
 439	2.1900e-01	17.5631	40.610289	0.000127	1.268778	0.429874	0.010177
 440	2.1950e-01	17.5936	40.588481	-0.000054	-0.543762	-0.184232	-0.004362
 441	2.2000e-01	17.6434	40.659894	0.000178	1.780554	0.603268	0.014283
 442	2.2050e-01	17.6706	40.741998	0.000205	2.047104	0.693577	0.016421
 443	2.2100e-01	17.7027	40.814267	0.000180	1.801878	0.610493	0.014454
 444	2.2150e-01	17.7573	41.023803	0.000522	5.224379	1.770068	0.041907
 445	2.2200e-01	17.7797	41.090513	0.000166	1.663272	0.563532	0.013342
 446	2.2250e-01	17.8150	41.267550	0.000441	4.414067	1.495526	0.035407
 447	2.2300e-01	17.8647	41.355640	0.000220	2.196372	0.744151	0.017618
 448	2.2350e-01	17.9257	41.373173	0.000044	0.437142	0.148108	0.003507
 449	2.2400e-01	17.9241	41.491625	-0.000295	-2.953373	-1.000630	0.023690
 450	2.2450e-01	17.9738	41.740931	0.000622	6.215945	2.106019	0.049861
 451	2.2500e-01	18.0284	41.718267	-0.000057	-0.565086	-0.191456	-0.004533
 452	2.2550e-01	18.0637	41.808923	0.000226	2.260344	0.765825	0.018131
 453	2.2600e-01	18.1262	41.946618	0.000343	3.433163	1.163187	0.027539
 454	2.2650e-01	18.1711	41.903001	-0.000109	-1.087524	-0.368463	-0.008724
 455	2.2700e-01	18.1968	41.937211	0.000085	0.852960	0.288991	0.006842
 456	2.2750e-01	18.2353	42.257502	0.000799	7.985837	2.705675	0.064058
 457	2.2800e-01	18.2626	42.350724	0.000232	2.324316	0.787499	0.018644
 458	2.2850e-01	18.3123	42.382369	0.000079	0.788988	0.267316	0.006329
 459	2.2900e-01	18.3396	42.506808	0.000310	3.102641	1.051203	0.024888
 460	2.2950e-01	18.3877	42.589339	0.000206	2.057766	0.697190	0.016506
 461	2.3000e-01	18.4391	42.701377	0.000279	2.793443	0.946444	0.022408
 462	2.3050e-01	18.4808	42.642792	-0.000146	-1.460694	-0.494896	-0.011717
 463	2.3100e-01	18.5145	42.761672	0.000296	2.964035	1.004242	0.023776
 464	2.3150e-01	18.5465	42.808711	0.000117	1.172820	0.397362	0.009408
 465	2.3200e-01	18.5963	42.967788	0.000397	3.966263	1.343806	0.031815
 466	2.3250e-01	18.6492	43.061438	0.000233	2.334978	0.791112	0.018730
 467	2.3300e-01	18.6797	43.127292	0.000164	1.641948	0.556307	0.013171
 468	2.3350e-01	18.7070	43.372749	0.000612	6.119987	2.073508	0.049091
 469	2.3400e-01	18.7535	43.455708	0.000207	2.068428	0.700802	0.016592
 470	2.3450e-01	18.7920	43.457846	0.000005	0.053310	0.018062	0.000428
 471	2.3500e-01	18.8321	43.626758	0.000421	4.211489	1.426891	0.033782
 472	2.3550e-01	18.8674	43.763171	0.000340	3.401177	1.152350	0.027282
 473	2.3600e-01	18.9235	43.695606	-0.000168	-1.684596	-0.570756	-0.013513
 474	2.3650e-01	18.9588	43.809782	0.000285	2.846753	0.964506	0.022835
 475	2.3700e-01	18.9829	43.963727	0.000384	3.838319	1.300458	0.030789
 476	2.3750e-01	19.0374	44.068067	0.000260	2.601528	0.881421	0.020868
 477	2.3800e-01	19.0775	44.171125	0.000257	2.569542	0.870584	0.020612
 478	2.3850e-01	19.0984	44.236979	0.000164	1.641948	0.556307	0.013171
 479	2.3900e-01	19.1353	44.370398	0.000333	3.326543	1.127063	0.026684
 480	2.3950e-01	19.1770	44.377241	0.000017	0.170592	0.057798	0.001368
 481	2.4000e-01	19.2091	44.635526	0.000644	6.439847	2.181879	0.051657
 482	2.4050e-01	19.2716	44.683848	0.000120	1.204806	0.408199	0.009664
 483	2.4100e-01	19.3021	44.650065	-0.000084	-0.842298	-0.285378	-0.006756
 484	2.4150e-01	19.3438	44.910062	0.000648	6.482495	2.196329	0.051999
 485	2.4200e-01	19.3823	44.932726	0.000057	0.565086	0.191456	0.004533
 486	2.4250e-01	19.4080	45.297918	0.000911	9.105346	3.084975	0.073038
 487	2.4300e-01	19.4642	45.105486	-0.000480	-4.797899	-1.625572	-0.038486
 488	2.4350e-01	19.5139	45.271833	0.000415	4.147517	1.405217	0.033269
 489	2.4400e-01	19.5460	45.123874	-0.000369	-3.689051	-1.249884	-0.029592
 490	2.4450e-01	19.5668	45.359923	0.000589	5.885423	1.994035	0.047210
 491	2.4500e-01	19.6214	45.482224	0.000305	3.049331	1.033141	0.024460
 492	2.4550e-01	19.6647	45.600249	0.000294	2.942711	0.997018	0.023605
 493	2.4600e-01	19.7048	45.613933	0.000034	0.341184	0.115596	0.002737
 494	2.4650e-01	19.7609	45.727253	0.000283	2.825429	0.957281	0.022664
 495	2.4700e-01	19.7690	45.770016	0.000107	1.066200	0.361238	0.008553
 496	2.4750e-01	19.8235	45.915409	0.000363	3.625079	1.228210	0.029079
 497	2.4800e-01	19.8764	45.979552	0.000160	1.599300	0.541857	0.012829
 498	2.4850e-01	19.8989	46.136491	0.000391	3.912953	1.325744	0.031388
 499	2.4900e-01	19.9374	46.317804	0.000452	4.520687	1.531650	0.036263
 500	2.4950e-01	20.0016	46.300699	-0.000043	-0.426480	-0.144495	-0.003421
 501	2.5000e-01	20.0497	46.192082	-0.000271	-2.708147	-0.917545	-0.021723
 502	2.5050e-01	19.9855	46.230141	-0.000095	-0.948918	-0.321502	0.007612
 503	2.5100e-01	19.9262	46.121096	0.000272	2.718809	0.921158	-0.021809
 504	2.5150e-01	19.9005	46.217312	-0.000240	-2.398950	-0.812786	0.019243
 505	2.5200e-01	19.8604	46.102708	0.000286	2.857415	0.968119	-0.022921
 506	2.5250e-01	19.8412	45.810213	0.000729	7.292807	2.470870	-0.058499
 507	2.5300e-01	19.7946	45.826035	-0.000039	-0.394494	-0.133658	0.003164
 508	2.5350e-01	19.7609	45.753339	0.000181	1.812540	0.614105	-0.014539
 509	2.5400e-01	19.7048	45.799522	-0.000115	-1.151496	-0.390137	0.009237
 510	2.5450e-01	19.6567	45.551927	0.000617	6.173297	2.091570	-0.049519
 511	2.5500e-01	19.6230	45.525414	0.000066	0.661044	0.223968	-0.005303
 512	2.5550e-01	19.5829	45.475382	0.000125	1.247454	0.422649	-0.010006
 513	2.5600e-01	19.5331	45.475382	-0.000000	-0.000000	-0.000000	0.000000
 514	2.5650e-01	19.4994	45.239761	0.000587	5.874761	1.990423	-0.047124
 515	2.5700e-01	19.4770	45.188018	0.000129	1.290102	0.437098	-0.010349
 516	2.5750e-01	19.4305	45.117887	0.000175	1.748568	0.592431	-0.014026
 517	2.5800e-01	19.4224	44.923746	0.000484	4.840547	1.640022	-0.038828
 518	2.5850e-01	19.3374	44.913910	0.000025	0.245226	0.083085	-0.001967
 519	2.5900e-01	19.3053	44.968219	-0.000135	-1.354074	-0.458773	0.010862
 520	2.5950e-01	19.2428	44.770228	0.000494	4.936505	1.672533	-0.039598
 521	2.6000e-01	19.2267	44.643223	0.000317	3.166613	1.072878	-0.025401
 522	2.6050e-01	19.1818	44.655197	-0.000030	-0.298536	-0.101147	0.002395
 523	2.6100e-01	19.1577	44.445233	0.000524	5.235041	1.773680	-0.041993
 524	2.6150e-01	19.1016	44.420003	0.000063	0.629058	0.213131	-0.005046
 525	2.6200e-01	19.0711	44.491844	-0.000179	-1.791216	-0.606880	0.014368
 526	2.6250e-01	19.0358	44.171553	0.000799	7.985837	2.705675	-0.064058
 527	2.6300e-01	19.0070	44.075765	0.000239	2.388288	0.809174	-0.019158
 528	2.6350e-01	18.9652	43.911984	0.000408	4.083545	1.383543	-0.032756
 529	2.6400e-01	18.9043	43.920964	-0.000022	-0.223902	-0.075860	0.001796
 530	2.6450e-01	18.8818	43.792677	0.000320	3.198599	1.083715	-0.025658
 531	2.6500e-01	18.8080	43.781986	0.000027	0.266550	0.090310	-0.002138
 532	2.6550e-01	18.7888	43.698172	0.000209	2.089752	0.708027	-0.016763
 533	2.6600e-01	18.7471	43.642153	0.000140	1.396722	0.473222	-0.011204
 534	2.6650e-01	18.7118	43.480938	0.000402	4.019573	1.361868	-0.032243
 535	2.6700e-01	18.6765	43.429623	0.000128	1.279440	0.433486	-0.010263
 536	2.6750e-01	18.6396	43.350512	0.000197	1.972470	0.668291	-0.015822
 537	2.6800e-01	18.5866	43.232060	0.000295	2.953373	1.000630	-0.023690
 538	2.6850e-01	18.5594	43.076404	0.000388	3.880967	1.314907	-0.031131
 539	2.6900e-01	18.4968	43.114035	-0.000094	-0.938256	-0.317890	0.007526
 540	2.6950e-01	18.4519	43.083674	0.000076	0.757002	0.256479	-0.006072
 541	2.7000e-01	18.4246	42.876276	0.000517	5.171069	1.752006	-0.041480
 542	2.7050e-01	18.3861	42.948544	-0.000180	-1.801878	-0.610493	0.014454
 543	2.7100e-01	18.3572	42.826671	0.000304	3.038669	1.029529	-0.024375
 544	2.7150e-01	18.3235	42.608582	0.000544	5.437619	1.842315	-0.043618
 545	2.7200e-01	18.2594	42.556412	0.000130	1.300764	0.440711	-0.010434
 546	2.7250e-01	18.2225	42.593615	-0.000093	-0.927594	-0.314277	0.007441
 547	2.7300e-01	18.1792	42.471742	0.000304	3.038669	1.029529	-0.024375
 548	2.7350e-01	18.1455	42.357994	0.000284	2.836091	0.960894	-0.022750
 549	2.7400e-01	18.1022	42.208753	0.000372	3.721037	1.260722	-0.029848
 550	2.7450e-01	18.0717	42.217733	-0.000022	-0.223902	-0.075860	0.001796
 551	2.7500e-01	18.0348	41.929513	0.000719	7.186187	2.434746	-0.057644
 552	2.7550e-01	17.9770	42.044117	-0.000286	-2.857415	-0.968119	0.022921
 553	2.7600e-01	17.9530	41.717839	0.000814	8.135104	2.756248	-0.065256
 554	2.7650e-01	17.9241	41.653268	0.000161	1.609962	0.545470	-0.012914
 555	2.7700e-01	17.8728	41.687905	-0.000086	-0.863622	-0.292603	0.006928
 556	2.7750e-01	17.8166	41.756753	-0.000172	-1.716582	-0.581594	0.013770
 557	2.7800e-01	17.7877	41.537381	0.000547	5.469605	1.853152	-0.043874
 558	2.7850e-01	17.7380	41.366331	0.000426	4.264799	1.444953	-0.034210
 559	2.7900e-01	17.7027	41.354785	0.000029	0.287874	0.097534	-0.002309
 560	2.7950e-01	17.6658	41.217090	0.000343	3.433163	1.163187	-0.027539
 561	2.8000e-01	17.6209	41.098210	0.000296	2.964035	1.004242	-0.023776
 562	2.8050e-01	17.5856	41.167913	-0.000174	-1.737906	-0.588818	0.013941
 563	2.8100e-01	17.5647	40.925449	0.000605	6.045353	2.048221	-0.048493
 564	2.8150e-01	17.5198	40.775353	0.000374	3.742361	1.267946	-0.030019
 565	2.8200e-01	17.4685	40.794596	-0.000048	-0.479790	-0.162557	0.003849
 566	2.8250e-01	17.4204	40.724465	0.000175	1.748568	0.592431	-0.014026
 567	2.8300e-01	17.3722	40.539304	0.000462	4.616645	1.564162	-0.037032
 568	2.8350e-01	17.3402	40.632098	-0.000231	-2.313654	-0.783887	0.018559
 569	2.8400e-01	17.3065	40.363550	0.000670	6.695735	2.268576	-0.053710
 570	2.8450e-01	17.2808	40.328484	0.000087	0.874284	0.296215	-0.007013
 571	2.8500e-01	17.2263	40.244670	0.000209	2.089752	0.708027	-0.016763
 572	2.8550e-01	17.1910	40.119803	0.000311	3.113303	1.054816	-0.024973
 573	2.8600e-01	17.1348	40.015463	0.000260	2.601528	0.881421	-0.020868
 574	2.8650e-01	17.0979	40.184802	-0.000422	-4.222151	-1.430504	0.033868
 575	2.8700e-01	17.0658	39.976976	0.000518	5.181731	1.755618	-0.041565
 576	2.8750e-01	17.0402	39.771716	0.000512	5.117759	1.733944	-0.041052
 577	2.8800e-01	16.9968	39.685764	0.000214	2.143062	0.726089	-0.017191
 578	2.8850e-01	16.9375	39.658823	0.000067	0.671706	0.227580	-0.005388
 579	2.8900e-01	16.9038	39.552772	0.000264	2.644176	0.895871	-0.021210
 580	2.8950e-01	16.8717	39.396689	0.000389	3.891629	1.318520	-0.031217
 581	2.9000e-01	16.8509	39.211955	0.000461	4.605983	1.560549	-0.036947
 582	2.9050e-01	16.7947	38.996004	0.000538	5.384309	1.824253	-0.043190
 583	2.9100e-01	16.7338	39.151660	-0.000388	-3.880967	-1.314907	0.031131
 584	2.9150e-01	16.6985	39.217942	-0.000165	-1.652610	-0.559919	0.013256
 585	2.9200e-01	16.6760	38.922452	0.000737	7.367441	2.496156	-0.059098
 586	2.9250e-01	16.6263	38.812125	0.000275	2.750795	0.931995	-0.022065
 587	2.9300e-01	16.6070	38.766369	0.000114	1.140834	0.386525	-0.009151
 588	2.9350e-01	16.5541	38.623115	0.000357	3.571769	1.210148	-0.028651
 589	2.9400e-01	16.5188	38.606865	0.000041	0.405156	0.137271	-0.003250
 590	2.9450e-01	16.4546	38.507656	0.000247	2.473584	0.838073	-0.019842
 591	2.9500e-01	16.4289	38.300258	0.000517	5.171069	1.752006	-0.041480
 592	2.9550e-01	16.3921	38.284008	0.000041	0.405156	0.137271	-0.003250
 593	2.9600e-01	16.3584	38.079603	0.000510	5.096435	1.726719	-0.040881
 594	2.9650e-01	16.3150	38.003913	0.000189	1.887174	0.639392	-0.015138
 595	2.9700e-01	16.2637	38.028288	-0.000061	-0.607734	-0.205906	0.004875
 596	2.9750e-01	16.2348	37.984670	0.000109	1.087524	0.368463	-0.008724
 597	2.9800e-01	16.2156	37.829442	0.000387	3.870305	1.311295	-0.031046
 598	2.9850e-01	16.1418	37.706286	0.000307	3.070655	1.040366	-0.024631
 599	2.9900e-01	16.0937	37.496750	0.000522	5.224379	1.770068	-0.041907
 600	2.9950e-01	16.0552	37.748621	-0.000628	-6.279917	-2.127693	0.050374
 601	3.0000e-01	16.0295	37.446290	0.000754	7.538033	2.553955	-0.060466
 602	3.0050e-01	16.0022	37.350502	0.000239	2.388288	0.809174	-0.019158
 603	3.0100e-01	15.9589	37.214090	0.000340	3.401177	1.152350	-0.027282
 604	3.0150e-01	15.9220	37.264977	-0.000127	-1.268778	-0.429874	0.010177
 605	3.0200e-01	15.8482	37.128564	0.000340	3.401177	1.152350	-0.027282
 606	3.0250e-01	15.8322	37.087512	0.000102	1.023552	0.346789	-0.008210
 607	3.0300e-01	15.7728	36.848042	0.000597	5.970719	2.022934	-0.047894
 608	3.0350e-01	15.7391	36.962218	-0.000285	-2.846753	-0.964506	0.022835
 609	3.0400e-01	15.7231	36.705215	0.000641	6.407861	2.171042	-0.051401
 610	3.0450e-01	15.6669	36.787747	-0.000206	-2.057766	-0.697190	0.016506
 611	3.0500e-01	15.6557	36.600447	0.000467	4.669955	1.582224	-0.037460
 612	3.0550e-01	15.5867	36.489692	0.000276	2.761457	0.935607	-0.022151
 613	3.0600e-01	15.5418	36.434101	0.000139	1.386060	0.469610	-0.011118
 614	3.0650e-01	15.4905	36.422555	0.000029	0.287874	0.097534	-0.002309
 615	3.0700e-01	15.4504	36.422555	-0.000000	-0.000000	-0.000000	0.000000
 616	3.0750e-01	15.4263	36.158710	0.000658	6.578453	2.228840	-0.052769
 617	3.0800e-01	15.3814	36.073185	0.000213	2.132400	0.722477	-0.017105
 618	3.0850e-01	15.3236	36.074041	-0.000002	-0.021324	-0.007225	0.000171
 619	3.0900e-01	15.2948	35.967134	0.000267	2.665500	0.903096	-0.021381
 620	3.0950e-01	15.2466	35.780690	0.000465	4.648631	1.574999	-0.037289
 621	3.1000e-01	15.2322	35.703717	0.000192	1.919160	0.650229	-0.015395
 622	3.1050e-01	15.1776	35.740065	-0.000091	-0.906270	-0.307053	0.007270
 623	3.1100e-01	15.1568	35.482635	0.000642	6.418523	2.174654	-0.051486
 624	3.1150e-01	15.0942	35.486483	-0.000010	-0.095958	-0.032511	0.000770
 625	3.1200e-01	15.0637	35.432603	0.000134	1.343412	0.455160	-0.010776
 626	3.1250e-01	15.0236	35.264546	0.000419	4.190165	1.419666	-0.033611
 627	3.1300e-01	14.9803	35.155929	0.000271	2.708147	0.917545	-0.021723
 628	3.1350e-01	14.9418	34.982313	0.000433	4.328771	1.466627	-0.034723
 629	3.1400e-01	14.9162	34.862578	0.000299	2.985359	1.011467	-0.023947
 630	3.1450e-01	14.8744	34.801000	0.000154	1.535328	0.520183	-0.012316
 631	3.1500e-01	14.8231	34.752678	0.000120	1.204806	0.408199	-0.009664
 632	3.1550e-01	14.7990	34.565806	0.000466	4.659293	1.578611	-0.037374
 633	3.1600e-01	14.7349	34.544425	0.000053	0.533100	0.180619	-0.004276
 634	3.1650e-01	14.7108	34.580345	-0.000090	-0.895608	-0.303440	0.007184
 635	3.1700e-01	14.6707	34.266041	0.000784	7.836569	2.655101	-0.062861
 636	3.1750e-01	14.6354	34.236535	0.000074	0.735678	0.249254	-0.005901
 637	3.1800e-01	14.5873	34.263048	-0.000066	-0.661044	-0.223968	0.005303
 638	3.1850e-01	14.5408	34.042820	0.000549	5.490929	1.860377	-0.044045
 639	3.1900e-01	14.5135	34.037261	0.000014	0.138606	0.046961	-0.001112
 640	3.1950e-01	14.4638	33.954302	0.000207	2.068428	0.700802	-0.016592
 641	3.2000e-01	14.4188	33.796081	0.000394	3.944939	1.336582	-0.031644
 642	3.2050e-01	14.3948	33.733220	0.000157	1.567314	0.531020	-0.012572
 643	3.2100e-01	14.3402	33.683188	0.000125	1.247454	0.422649	-0.010006
 644	3.2150e-01	14.3017	33.706707	-0.000059	-0.586410	-0.198681	0.004704
 645	3.2200e-01	14.2680	33.533091	0.000433	4.328771	1.466627	-0.034723
 646	3.2250e-01	14.2199	33.446283	0.000216	2.164386	0.733314	-0.017362
 647	3.2300e-01	14.1734	33.327403	0.000296	2.964035	1.004242	-0.023776
 648	3.2350e-01	14.1622	33.186287	0.000352	3.518459	1.192086	-0.028223
 649	3.2400e-01	14.0964	33.107604	0.000196	1.961808	0.664678	-0.015737
 650	3.2450e-01	14.0643	32.967343	0.000350	3.497135	1.184862	-0.028052
 651	3.2500e-01	14.0386	32.796720	0.000425	4.254137	1.441341	-0.034124
 652	3.2550e-01	13.9873	32.757379	0.000098	0.980904	0.332339	-0.007868
 653	3.2600e-01	13.9408	32.626953	0.000325	3.251909	1.101777	-0.026085
 654	3.2650e-01	13.8943	32.611986	0.000037	0.373170	0.126433	-0.002993
 655	3.2700e-01	13.8638	32.493962	0.000294	2.942711	0.997018	-0.023605
 656	3.2750e-01	13.8221	32.518336	-0.000061	-0.607734	-0.205906	0.004875
 657	3.2800e-01	13.7884	32.482416	0.000090	0.895608	0.303440	-0.007184
 658	3.2850e-01	13.7322	32.201894	0.000699	6.994271	2.369723	-0.056104
 659	3.2900e-01	13.6921	32.105250	0.000241	2.409612	0.816398	-0.019329
 660	3.2950e-01	13.6649	32.009890	0.000238	2.377626	0.805561	-0.019072
 661	3.3000e-01	13.6264	31.964989	0.000112	1.119510	0.379300	-0.008980
 662	3.3050e-01	13.5943	31.836274	0.000321	3.209261	1.087327	-0.025743
 663	3.3100e-01	13.5237	31.947884	-0.000278	-2.782781	-0.942832	0.022322
 664	3.3150e-01	13.5012	31.692164	0.000638	6.375875	2.160205	-0.051144
 665	3.3200e-01	13.4740	31.621179	0.000177	1.769892	0.599656	-0.014197
 666	3.3250e-01	13.4210	31.535654	0.000213	2.132400	0.722477	-0.017105
 667	3.3300e-01	13.3729	31.581409	-0.000114	-1.140834	-0.386525	0.009151
 668	3.3350e-01	13.3376	31.368880	0.000530	5.299013	1.795354	-0.042506
 669	3.3400e-01	13.3087	31.142666	0.000564	5.640197	1.910950	-0.045243
 670	3.3450e-01	13.2670	31.252566	-0.000274	-2.740133	-0.928382	0.021980
 671	3.3500e-01	13.2189	31.078950	0.000433	4.328771	1.466627	-0.034723
 672	3.3550e-01	13.1804	30.988293	0.000226	2.260344	0.765825	-0.018131
 673	3.3600e-01	13.1322	30.852308	0.000339	3.390515	1.148738	-0.027197
 674	3.3650e-01	13.1018	30.881387	-0.000073	-0.725016	-0.245642	0.005816
 675	3.3700e-01	13.0649	30.620108	0.000651	6.514481	2.207166	-0.052256
 676	3.3750e-01	13.0151	30.592740	0.000068	0.682368	0.231192	-0.005474
 677	3.3800e-01	12.9879	30.555536	0.000093	0.927594	0.314277	-0.007441
 678	3.3850e-01	12.9478	30.459748	0.000239	2.388288	0.809174	-0.019158
 679	3.3900e-01	12.9301	30.185641	0.000683	6.834341	2.315537	-0.054822
 680	3.3950e-01	12.8659	30.292119	-0.000265	-2.654838	-0.899483	0.021296
 681	3.4000e-01	12.8162	30.142023	0.000374	3.742361	1.267946	-0.030019
 682	3.4050e-01	12.7889	29.987650	0.000385	3.848981	1.304070	-0.030875
 683	3.4100e-01	12.7296	30.088570	-0.000252	-2.516232	-0.852522	0.020184
 684	3.4150e-01	12.6879	29.832850	0.000638	6.375875	2.160205	-0.051144
 685	3.4200e-01	12.6670	29.896993	-0.000160	-1.599300	-0.541857	0.012829
 686	3.4250e-01	12.6333	29.742193	0.000386	3.859643	1.307683	-0.030960
 687	3.4300e-01	12.5900	29.557887	0.000460	4.595321	1.556937	-0.036861
 688	3.4350e-01	12.5563	29.388975	0.000421	4.211489	1.426891	-0.033782
 689	3.4400e-01	12.5162	29.223484	0.000413	4.126193	1.397992	-0.033098
 690	3.4450e-01	12.4665	29.251707	-0.000070	-0.703692	-0.238417	0.005645
 691	3.4500e-01	12.4103	29.150787	0.000252	2.516232	0.852522	-0.020184
 692	3.4550e-01	12.3927	29.227760	-0.000192	-1.919160	-0.650229	0.015395
 693	3.4600e-01	12.3590	28.927139	0.000750	7.495385	2.539505	-0.060124
 694	3.4650e-01	12.3013	28.820233	0.000267	2.665500	0.903096	-0.021381
 695	3.4700e-01	12.2692	28.731287	0.000222	2.217696	0.751376	-0.017789
 696	3.4750e-01	12.2275	28.817240	-0.000214	-2.143062	-0.726089	0.017191
 697	3.4800e-01	12.1649	28.741122	0.000190	1.897836	0.643004	-0.015223
 698	3.4850e-01	12.1617	28.425535	0.000787	7.868555	2.665938	-0.063117
 699	3.4900e-01	12.1104	28.490106	-0.000161	-1.609962	-0.545470	0.012914
 700	3.4950e-01	12.0638	28.268596	0.000552	5.522915	1.871214	-0.044302
 701	3.5000e-01	12.0173	28.175802	0.000231	2.313654	0.783887	-0.018559
 702	3.5050e-01	11.9756	28.145440	0.000076	0.757002	0.256479	-0.006072
 703	3.5100e-01	11.9451	28.031692	0.000284	2.836091	0.960894	-0.022750
 704	3.5150e-01	11.9050	27.904260	0.000318	3.177275	1.076490	-0.025486
 705	3.5200e-01	11.8681	27.896990	0.000018	0.181254	0.061411	-0.001454
 706	3.5250e-01	11.7959	27.796498	0.000251	2.505570	0.848910	-0.020098
 707	3.5300e-01	11.7751	27.784097	0.000031	0.309198	0.104759	-0.002480
 708	3.5350e-01	11.7334	27.595087	0.000471	4.712603	1.596673	-0.037802
 709	3.5400e-01	11.7157	27.551041	0.000110	1.098186	0.372075	-0.008809
 710	3.5450e-01	11.6564	27.328676	0.000554	5.544239	1.878439	-0.044473
 711	3.5500e-01	11.6162	27.359037	-0.000076	-0.757002	-0.256479	0.006072
 712	3.5550e-01	11.5777	27.154633	0.000510	5.096435	1.726719	-0.040881
 713	3.5600e-01	11.5585	27.105028	0.000124	1.236792	0.419036	-0.009921
 714	3.5650e-01	11.4991	26.987431	0.000293	2.932049	0.993405	-0.023519
 715	3.5700e-01	11.4574	26.825789	0.000403	4.030235	1.365481	-0.032328
 716	3.5750e-01	11.4205	26.825789	-0.000000	-0.000000	-0.000000	0.000000
 717	3.5800e-01	11.3868	26.832203	-0.000016	-0.159930	-0.054186	0.001283
 718	3.5850e-01	11.3628	26.640627	0.000478	4.776575	1.618347	-0.038315
 719	3.5900e-01	11.3163	26.434512	0.000514	5.139083	1.741168	-0.041223
 720	3.5950e-01	11.2441	26.511057	-0.000191	-1.908498	-0.646617	0.015309
 721	3.6000e-01	11.2328	26.355401	0.000388	3.880967	1.314907	-0.031131
 722	3.6050e-01	11.1959	26.222837	0.000331	3.305219	1.119839	-0.026513
 723	3.6100e-01	11.1735	26.105668	0.000292	2.921387	0.989793	-0.023434
 724	3.6150e-01	11.1077	26.056063	0.000124	1.236792	0.419036	-0.009921
 725	3.6200e-01	11.0548	26.103102	-0.000117	-1.172820	-0.397362	0.009408
 726	3.6250e-01	11.0307	25.818731	0.000709	7.090229	2.402235	-0.056874
 727	3.6300e-01	10.9730	25.769554	0.000123	1.226130	0.415424	-0.009835
 728	3.6350e-01	10.9425	25.858500	-0.000222	-2.217696	-0.751376	0.017789
 729	3.6400e-01	10.8976	25.673339	0.000462	4.616645	1.564162	-0.037032
 730	3.6450e-01	10.8671	25.619458	0.000134	1.343412	0.455160	-0.010776
 731	3.6500e-01	10.8238	25.407783	0.000528	5.277689	1.788129	-0.042335
 732	3.6550e-01	10.7885	25.446270	-0.000096	-0.959580	-0.325114	0.007697
 733	3.6600e-01	10.7355	25.221339	0.000561	5.608211	1.900113	-0.044986
 734	3.6650e-01	10.7018	25.156340	0.000162	1.620624	0.549082	-0.013000
 735	3.6700e-01	10.6681	25.018644	0.000343	3.433163	1.163187	-0.027539
 736	3.6750e-01	10.6296	25.053282	-0.000086	-0.863622	-0.292603	0.006928
 737	3.6800e-01	10.5783	24.929698	0.000308	3.081317	1.043979	-0.024717
 738	3.6850e-01	10.5542	24.707761	0.000553	5.533577	1.874827	-0.044388
 739	3.6900e-01	10.5029	24.638058	0.000174	1.737906	0.588818	-0.013941
 740	3.6950e-01	10.4532	24.514902	0.000307	3.070655	1.040366	-0.024631
 741	3.7000e-01	10.4147	24.421679	0.000232	2.324316	0.787499	-0.018644
 742	3.7050e-01	10.4002	24.368654	0.000132	1.322088	0.447935	-0.010605
 743	3.7100e-01	10.3537	24.243360	0.000312	3.123965	1.058428	-0.025059
 744	3.7150e-01	10.3297	24.159118	0.000210	2.100414	0.711639	-0.016848
 745	3.7200e-01	10.2655	24.104809	0.000135	1.354074	0.458773	-0.010862
 746	3.7250e-01	10.2270	23.998330	0.000265	2.654838	0.899483	-0.021296
 747	3.7300e-01	10.1821	24.021422	-0.000058	-0.575748	-0.195069	0.004618
 748	3.7350e-01	10.1708	23.799485	0.000553	5.533577	1.874827	-0.044388
 749	3.7400e-01	10.1067	23.658796	0.000351	3.507797	1.188474	-0.028138
 750	3.7450e-01	10.0698	23.604915	0.000134	1.343412	0.455160	-0.010776
 751	3.7500e-01	10.0232	23.563436	0.000103	1.034214	0.350401	-0.008296
 752	3.7550e-01	9.9976	23.421036	0.000355	3.550445	1.202923	-0.028480
 753	3.7600e-01	9.9446	23.260677	0.000400	3.998249	1.354644	-0.032072
 754	3.7650e-01	9.9142	23.246993	0.000034	0.341184	0.115596	-0.002737
 755	3.7700e-01	9.8628	23.137948	0.000272	2.718809	0.921158	-0.021809
 756	3.7750e-01	9.8420	22.973313	0.000410	4.104869	1.390767	-0.032927
 757	3.7800e-01	9.7987	22.921998	0.000128	1.279440	0.433486	-0.010263
 758	3.7850e-01	9.7569	22.936537	-0.000036	-0.362508	-0.122821	0.002908
 759	3.7900e-01	9.7152	22.733415	0.000506	5.064449	1.715882	-0.040624
 760	3.7950e-01	9.6815	22.635061	0.000245	2.452260	0.830848	-0.019671
 761	3.8000e-01	9.6318	22.517464	0.000293	2.932049	0.993405	-0.023519
 762	3.8050e-01	9.5773	22.553385	-0.000090	-0.895608	-0.303440	0.007184
 763	3.8100e-01	9.5500	22.484109	0.000173	1.727244	0.585206	-0.013855
 764	3.8150e-01	9.5147	22.320756	0.000407	4.072883	1.379930	-0.032671
 765	3.8200e-01	9.4602	22.189476	0.000327	3.273233	1.109001	-0.026256
 766	3.8250e-01	9.4185	22.198028	-0.000021	-0.213240	-0.072248	0.001711
 767	3.8300e-01	9.3799	22.024412	0.000433	4.328771	1.466627	-0.034723
 768	3.8350e-01	9.3431	21.807179	0.000542	5.416295	1.835090	-0.043447
 769	3.8400e-01	9.3078	21.709252	0.000244	2.441598	0.827236	-0.019585
 770	3.8450e-01	9.2580	21.825994	-0.000291	-2.910725	-0.986180	0.023348
 771	3.8500e-01	9.2243	21.636984	0.000471	4.712603	1.596673	-0.037802
 772	3.8550e-01	9.1987	21.483894	0.000382	3.816995	1.293233	-0.030618
 773	3.8600e-01	9.1409	21.375705	0.000270	2.697485	0.913933	-0.021638
 774	3.8650e-01	9.0928	21.430868	-0.000138	-1.375398	-0.465997	0.011033
 775	3.8700e-01	9.0816	21.086630	0.000858	8.582908	2.907968	-0.068848
 776	3.8750e-01	9.0078	21.118702	-0.000080	-0.799650	-0.270929	0.006414
 777	3.8800e-01	8.9741	21.287186	-0.000420	-4.200827	-1.423279	0.033697
 778	3.8850e-01	8.9516	20.856140	0.001075	10.747294	3.641282	-0.086209
 779	3.8900e-01	8.9099	20.837752	0.000046	0.458466	0.155332	-0.003678
 780	3.8950e-01	8.8907	20.695353	0.000355	3.550445	1.202923	-0.028480
 781	3.9000e-01	8.8265	20.437922	0.000642	6.418523	2.174654	-0.051486
 782	3.9050e-01	8.7896	20.453317	-0.000038	-0.383832	-0.130046	0.003079
 783	3.9100e-01	8.7463	20.274142	0.000447	4.467377	1.513588	-0.035835
 784	3.9150e-01	8.6965	20.440488	-0.000415	-4.147517	-1.405217	0.033269
 785	3.9200e-01	8.6596	20.319470	0.000302	3.017345	1.022304	-0.024204
 786	3.9250e-01	8.6228	20.111644	0.000518	5.181731	1.755618	-0.041565
 787	3.9300e-01	8.5762	20.112927	-0.000003	-0.031986	-0.010837	0.000257
 788	3.9350e-01	8.5393	19.934180	0.000446	4.456715	1.509976	-0.035749
 789	3.9400e-01	8.5137	19.885858	0.000120	1.204806	0.408199	-0.009664
 790	3.9450e-01	8.4752	19.727637	0.000394	3.944939	1.336582	-0.031644
 791	3.9500e-01	8.4206	19.650664	0.000192	1.919160	0.650229	-0.015395
 792	3.9550e-01	8.3645	19.657506	-0.000017	-0.170592	-0.057798	0.001368
 793	3.9600e-01	8.3420	19.525370	0.000329	3.294557	1.116226	-0.026427
 794	3.9650e-01	8.3147	19.470206	0.000138	1.375398	0.465997	-0.011033
 795	3.9700e-01	8.2586	19.347050	0.000307	3.070655	1.040366	-0.024631
 796	3.9750e-01	8.2201	19.176855	0.000424	4.243475	1.437728	-0.034039
 797	3.9800e-01	8.1784	19.193533	-0.000042	-0.415818	-0.140883	0.003335
 798	3.9850e-01	8.1447	18.908734	0.000710	7.100891	2.405847	-0.056960
 799	3.9900e-01	8.0901	19.016496	-0.000269	-2.686824	-0.910320	0.021552
 800	3.9950e-01	8.0565	18.942517	0.000184	1.844526	0.624942	-0.014796
 801	4.0000e-01	8.0083	18.787716	0.000386	3.859643	1.307683	-0.030960
 802	4.0050e-01	7.9875	18.641896	0.000364	3.635741	1.231823	-0.029164
 803	4.0100e-01	7.9538	18.554661	0.000218	2.175048	0.736926	-0.017447
 804	4.0150e-01	7.9025	18.474267	0.000200	2.004456	0.679128	-0.016079
 805	4.0200e-01	7.8463	18.413544	0.000151	1.514004	0.512958	-0.012145
 806	4.0250e-01	7.8174	18.277132	0.000340	3.401177	1.152350	-0.027282
 807	4.0300e-01	7.7966	18.047497	0.000573	5.725493	1.939850	-0.045927
 808	4.0350e-01	7.7436	17.914078	0.000333	3.326543	1.127063	-0.026684
 809	4.0400e-01	7.7019	18.014142	-0.000249	-2.494908	-0.845298	0.020013
 810	4.0450e-01	7.6827	17.926052	0.000220	2.196372	0.744151	-0.017618
 811	4.0500e-01	7.6474	17.710956	0.000536	5.362985	1.817029	-0.043019
 812	4.0550e-01	7.5848	17.570267	0.000351	3.507797	1.188474	-0.028138
 813	4.0600e-01	7.5559	17.514676	0.000139	1.386060	0.469610	-0.011118
 814	4.0650e-01	7.5110	17.530071	-0.000038	-0.383832	-0.130046	0.003079
 815	4.0700e-01	7.4565	17.421881	0.000270	2.697485	0.913933	-0.021638
 816	4.0750e-01	7.4276	17.255963	0.000414	4.136855	1.401604	-0.033184
 817	4.0800e-01	7.3827	17.133234	0.000306	3.059993	1.036754	-0.024546
 818	4.0850e-01	7.3265	17.212773	-0.000198	-1.983132	-0.671903	0.015908
 819	4.0900e-01	7.3201	16.862547	0.000873	8.732176	2.958541	-0.070045
 820	4.0950e-01	7.2784	16.787713	0.000187	1.865850	0.632167	-0.014967
 821	4.1000e-01	7.2271	16.848436	-0.000151	-1.514004	-0.512958	0.012145
 822	4.1050e-01	7.1934	16.602124	0.000614	6.141311	2.080732	-0.049262
 823	4.1100e-01	7.1533	16.579032	0.000058	0.575748	0.195069	-0.004618
 824	4.1150e-01	7.1100	16.452027	0.000317	3.166613	1.072878	-0.025401
 825	4.1200e-01	7.0650	16.288247	0.000408	4.083545	1.383543	-0.032756
 826	4.1250e-01	7.0249	16.328016	-0.000099	-0.991566	-0.335952	0.007954
 827	4.1300e-01	6.9768	16.185189	0.000356	3.561107	1.206536	-0.028565
 828	4.1350e-01	6.9415	16.159959	0.000063	0.629058	0.213131	-0.005046
 829	4.1400e-01	6.9094	16.014567	0.000363	3.625079	1.228210	-0.029079
 830	4.1450e-01	6.8709	15.975225	0.000098	0.980904	0.332339	-0.007868
 831	4.1500e-01	6.8308	15.819569	0.000388	3.880967	1.314907	-0.031131
 832	4.1550e-01	6.7907	15.666907	0.000381	3.806333	1.289621	-0.030532
 833	4.1600e-01	6.7506	15.558290	0.000271	2.708147	0.917545	-0.021723
 834	4.1650e-01	6.7105	15.512107	0.000115	1.151496	0.390137	-0.009237
 835	4.1700e-01	6.6816	15.341057	0.000426	4.264799	1.444953	-0.034210
 836	4.1750e-01	6.6367	15.308130	0.000082	0.820974	0.278153	-0.006585
 837	4.1800e-01	6.5774	15.216618	0.000228	2.281668	0.773050	-0.018302
 838	4.1850e-01	6.5340	15.119547	0.000242	2.420274	0.820011	-0.019414
 839	4.1900e-01	6.4987	15.135369	-0.000039	-0.394494	-0.133658	0.003164
 840	4.1950e-01	6.4955	14.758203	0.000940	9.403882	3.186122	-0.075433
 841	4.2000e-01	6.4394	14.840308	-0.000205	-2.047104	-0.693577	0.016421
 842	4.2050e-01	6.3865	14.757348	0.000207	2.068428	0.700802	-0.016592
 843	4.2100e-01	6.3351	14.720572	0.000092	0.916932	0.310665	-0.007355
 844	4.2150e-01	6.3207	14.689783	0.000077	0.767664	0.260092	-0.006158
 845	4.2200e-01	6.2613	14.448603	0.000601	6.013367	2.037384	-0.048236
 846	4.2250e-01	6.2533	14.322881	0.000313	3.134627	1.062041	-0.025144
 847	4.2300e-01	6.1811	14.250612	0.000180	1.801878	0.610493	-0.014454
 848	4.2350e-01	6.1378	14.267290	-0.000042	-0.415818	-0.140883	0.003335
 849	4.2400e-01	6.1105	13.946143	0.000801	8.007161	2.712899	-0.064229
 850	4.2450e-01	6.0849	13.760554	0.000463	4.627307	1.567774	-0.037118
 851	4.2500e-01	6.0367	13.755422	0.000013	0.127944	0.043349	-0.001026
 852	4.2550e-01	5.9934	13.670325	0.000212	2.121738	0.718864	-0.017019
 853	4.2600e-01	5.9549	13.670752	-0.000001	-0.010662	-0.003612	0.000086
 854	4.2650e-01	5.9132	13.657496	0.000033	0.330522	0.111984	-0.002651
 855	4.2700e-01	5.8538	13.616444	0.000102	1.023552	0.346789	-0.008210
 856	4.2750e-01	5.8410	13.366711	0.000623	6.226607	2.109632	-0.049947
 857	4.2800e-01	5.7801	13.238423	0.000320	3.198599	1.083715	-0.025658
 858	4.2850e-01	5.7480	13.193095	0.000113	1.130172	0.382913	-0.009066
 859	4.2900e-01	5.7223	13.028887	0.000409	4.094207	1.387155	-0.032842
 860	4.2950e-01	5.6758	12.968164	0.000151	1.514004	0.512958	-0.012145
 861	4.3000e-01	5.6148	12.908297	0.000149	1.492680	0.505734	-0.011974
 862	4.3050e-01	5.5779	12.862541	0.000114	1.140834	0.386525	-0.009151
 863	4.3100e-01	5.5378	12.745799	0.000291	2.910725	0.986180	-0.023348
 864	4.3150e-01	5.5121	12.621360	0.000310	3.102641	1.051203	-0.024888
 865	4.3200e-01	5.4656	12.539256	0.000205	2.047104	0.693577	-0.016421
 866	4.3250e-01	5.4335	12.425935	0.000283	2.825429	0.957281	-0.022664
 867	4.3300e-01	5.3822	12.345969	0.000199	1.993794	0.675516	-0.015993
 868	4.3350e-01	5.3469	12.260444	0.000213	2.132400	0.722477	-0.017105
 869	4.3400e-01	5.3212	12.092388	0.000419	4.190165	1.419666	-0.033611
 870	4.3450e-01	5.2587	11.972225	0.000300	2.996021	1.015080	-0.024033
 871	4.3500e-01	5.2378	11.895252	0.000192	1.919160	0.650229	-0.015395
 872	4.3550e-01	5.2138	11.787491	0.000269	2.686824	0.910320	-0.021552
 873	4.3600e-01	5.1576	11.664762	0.000306	3.059993	1.036754	-0.024546
 874	4.3650e-01	5.1063	11.639960	0.000062	0.618396	0.209518	-0.004960
 875	4.3700e-01	5.0662	11.548448	0.000228	2.281668	0.773050	-0.018302
 876	4.3750e-01	5.0245	11.479173	0.000173	1.727244	0.585206	-0.013855
 877	4.3800e-01	4.9827	11.306840	0.000430	4.296785	1.455790	-0.034467
 878	4.3850e-01	4.9394	11.312827	-0.000015	-0.149268	-0.050573	0.001197
 879	4.3900e-01	4.8993	11.134079	0.000446	4.456715	1.509976	-0.035749
 880	4.3950e-01	4.8849	11.019903	0.000285	2.846753	0.964506	-0.022835
 881	4.4000e-01	4.8319	10.940793	0.000197	1.972470	0.668291	-0.015822
 882	4.4050e-01	4.7854	10.882208	0.000146	1.460694	0.494896	-0.011717
 883	4.4100e-01	4.7614	10.729973	0.000380	3.795671	1.286008	-0.030447
 884	4.4150e-01	4.7068	10.701322	0.000071	0.714354	0.242030	-0.005730
 885	4.4200e-01	4.6731	10.470405	0.000576	5.757479	1.950687	-0.046184
 886	4.4250e-01	4.6186	10.522148	-0.000129	-1.290102	-0.437098	0.010349
 887	4.4300e-01	4.5833	10.469550	0.000131	1.311426	0.444323	-0.010520
 888	4.4350e-01	4.5352	10.301920	0.000418	4.179503	1.416054	-0.033526
 889	4.4400e-01	4.5095	10.079128	0.000555	5.554901	1.882051	-0.044559
 890	4.4450e-01	4.4598	10.171922	-0.000231	-2.313654	-0.783887	0.018559
 891	4.4500e-01	4.4213	9.921334	0.000625	6.247931	2.116856	-0.050118
 892	4.4550e-01	4.3715	9.915347	0.000015	0.149268	0.050573	-0.001197
 893	4.4600e-01	4.3427	9.831105	0.000210	2.100414	0.711639	-0.016848
 894	4.4650e-01	4.3186	9.565122	0.000663	6.631763	2.246902	-0.053197
 895	4.4700e-01	4.2977	9.574958	-0.000025	-0.245226	-0.083085	0.001967
 896	4.4750e-01	4.2191	9.500978	0.000184	1.844526	0.624942	-0.014796
 897	4.4800e-01	4.1646	9.507393	-0.000016	-0.159930	-0.054186	0.001283
 898	4.4850e-01	4.1437	9.274337	0.000581	5.810789	1.968749	-0.046611
 899	4.4900e-01	4.1133	9.137497	0.000341	3.411839	1.155962	-0.027368
 900	4.4950e-01	4.0780	9.133221	0.000011	0.106620	0.036124	-0.000855
 901	4.5000e-01	4.0266	9.086182	0.000117	1.172820	0.397362	-0.009408
 902	4.5050e-01	3.9657	8.993387	0.000231	2.313654	0.783887	-0.018559
 903	4.5100e-01	3.9480	8.905724	0.000219	2.185710	0.740538	-0.017533
 904	4.5150e-01	3.9159	8.586716	0.000795	7.953851	2.694838	-0.063802
 905	4.5200e-01	3.8742	8.628623	-0.000104	-1.044876	-0.354014	0.008381
 906	4.5250e-01	3.8453	8.414383	0.000534	5.341661	1.809804	-0.042848
 907	4.5300e-01	3.7764	8.475105	-0.000151	-1.514004	-0.512958	0.012145
 908	4.5350e-01	3.7363	8.445172	0.000075	0.746340	0.252867	-0.005987
 909	4.5400e-01	3.6945	8.389153	0.000140	1.396722	0.473222	-0.011204
 910	4.5450e-01	3.6625	8.268135	0.000302	3.017345	1.022304	-0.024204
 911	4.5500e-01	3.6272	8.066723	0.000502	5.021801	1.701432	-0.040282
 912	4.5550e-01	3.5839	7.947416	0.000297	2.974697	1.007855	-0.023861
 913	4.5600e-01	3.5518	7.799030	0.000370	3.699713	1.253497	-0.029677
 914	4.5650e-01	3.5069	7.688275	0.000276	2.761457	0.935607	-0.022151
 915	4.5700e-01	3.4603	7.605316	0.000207	2.068428	0.700802	-0.016592
 916	4.5750e-01	3.4315	7.598901	0.000016	0.159930	0.054186	-0.001283
 917	4.5800e-01	3.3721	7.489857	0.000272	2.718809	0.921158	-0.021809
 918	4.5850e-01	3.3496	7.435548	0.000135	1.354074	0.458773	-0.010862
 919	4.5900e-01	3.3192	7.221308	0.000534	5.341661	1.809804	-0.042848
 920	4.5950e-01	3.2678	7.132362	0.000222	2.217696	0.751376	-0.017789
 921	4.6000e-01	3.2341	6.931806	0.000500	5.000477	1.694207	-0.040111
 922	4.6050e-01	3.1892	6.911280	0.000051	0.511776	0.173394	-0.004105
 923	4.6100e-01	3.1459	6.772301	0.000347	3.465149	1.174024	-0.027796
 924	4.6150e-01	3.1154	6.664968	0.000268	2.676162	0.906708	-0.021467
 925	4.6200e-01	3.0801	6.667106	-0.000005	-0.053310	-0.018062	0.000428
 926	4.6250e-01	3.0192	6.462273	0.000511	5.107097	1.730331	-0.040967
 927	4.6300e-01	2.9823	6.504608	-0.000106	-1.055538	-0.357626	0.008467
 928	4.6350e-01	2.9438	6.427636	0.000192	1.919160	0.650229	-0.015395
 929	4.6400e-01	2.9101	6.299348	0.000320	3.198599	1.083715	-0.025658
 930	4.6450e-01	2.8732	6.053463	0.000613	6.130649	2.077120	-0.049177
 931	4.6500e-01	2.8347	6.053463	-0.000000	-0.000000	-0.000000	0.000000
 932	4.6550e-01	2.7946	5.808862	0.000610	6.098663	2.066283	-0.048920
 933	4.6600e-01	2.7481	5.889255	-0.000200	-2.004456	-0.679128	0.016079
 934	4.6650e-01	2.7063	5.699817	0.000472	4.723265	1.600286	-0.037888
 935	4.6700e-01	2.6646	5.604884	0.000237	2.366964	0.801949	-0.018987
 936	4.6750e-01	2.6245	5.463341	0.000353	3.529121	1.195699	-0.028309
 937	4.6800e-01	2.5924	5.454360	0.000022	0.223902	0.075860	-0.001796
 938	4.6850e-01	2.5459	5.253376	0.000501	5.011139	1.697820	-0.040197
 939	4.6900e-01	2.5122	5.285021	-0.000079	-0.788988	-0.267316	0.006329
 940	4.6950e-01	2.4753	5.255087	0.000075	0.746340	0.252867	-0.005987
 941	4.7000e-01	2.4449	5.115681	0.000348	3.475811	1.177637	-0.027881
 942	4.7050e-01	2.3855	4.825751	0.000723	7.228835	2.449195	-0.057986
 943	4.7100e-01	2.3358	4.904434	-0.000196	-1.961808	-0.664678	0.015737
 944	4.7150e-01	2.2989	4.719273	0.000462	4.616645	1.564162	-0.037032
 945	4.7200e-01	2.2780	4.703878	0.000038	0.383832	0.130046	-0.003079
 946	4.7250e-01	2.2187	4.597399	0.000265	2.654838	0.899483	-0.021296
 947	4.7300e-01	2.1882	4.338258	0.000646	6.461171	2.189104	-0.051828
 948	4.7350e-01	2.1384	4.390429	-0.000130	-1.300764	-0.440711	0.010434
 949	4.7400e-01	2.1048	4.280529	0.000274	2.740133	0.928382	-0.021980
 950	4.7450e-01	2.0727	4.280529	-0.000000	-0.000000	-0.000000	0.000000
 951	4.7500e-01	2.0294	4.177899	0.000256	2.558880	0.866972	-0.020526
 952	4.7550e-01	1.9941	3.929449	0.000619	6.194621	2.098794	-0.049690
 953	4.7600e-01	1.9443	3.739155	0.000474	4.744589	1.607510	-0.038059
 954	4.7650e-01	1.8978	3.917048	-0.000444	-4.435391	-1.502751	0.035578
 955	4.7700e-01	1.8802	3.671163	0.000613	6.130649	2.077120	-0.049177
 956	4.7750e-01	1.8352	3.695538	-0.000061	-0.607734	-0.205906	0.004875
 957	4.7800e-01	1.7823	3.465903	0.000573	5.725493	1.939850	-0.045927
 958	4.7850e-01	1.7326	3.518928	-0.000132	-1.322088	-0.447935	0.010605
 959	4.7900e-01	1.7181	3.318800	0.000499	4.989815	1.690595	-0.040026
 960	4.7950e-01	1.6877	3.158440	0.000400	3.998249	1.354644	-0.032072
 961	4.8000e-01	1.6139	3.196071	-0.000094	-0.938256	-0.317890	0.007526
 962	4.8050e-01	1.5962	2.974561	0.000552	5.522915	1.871214	-0.044302
 963	4.8100e-01	1.5385	2.883477	0.000227	2.271006	0.769438	-0.018217
 964	4.8150e-01	1.4951	2.830024	0.000133	1.332750	0.451548	-0.010691
 965	4.8200e-01	1.4823	2.691901	0.000344	3.443825	1.166800	-0.027625
 966	4.8250e-01	1.4149	2.648283	0.000109	1.087524	0.368463	-0.008724
 967	4.8300e-01	1.3861	2.443451	0.000511	5.107097	1.730331	-0.040967
 968	4.8350e-01	1.3460	2.578153	-0.000336	-3.358529	-1.137901	0.026940
 969	4.8400e-01	1.2994	2.340393	0.000593	5.928071	2.008485	-0.047552
 970	4.8450e-01	1.2497	2.424635	-0.000210	-2.100414	-0.711639	0.016848
 971	4.8500e-01	1.2272	2.172336	0.000629	6.290579	2.131306	-0.050460
 972	4.8550e-01	1.1855	2.041055	0.000327	3.273233	1.109001	-0.026256
 973	4.8600e-01	1.1534	1.988458	0.000131	1.311426	0.444323	-0.010520
 974	4.8650e-01	1.1069	1.702376	0.000713	7.132877	2.416684	-0.057216
 975	4.8700e-01	1.0572	1.637805	0.000161	1.609962	0.545470	-0.012914
 976	4.8750e-01	1.0411	1.689120	-0.000128	-1.279440	-0.433486	0.010263
 977	4.8800e-01	0.9802	1.577082	0.000279	2.793443	0.946444	-0.022408
 978	4.8850e-01	0.9449	1.511655	0.000163	1.631286	0.552695	-0.013085
 979	4.8900e-01	0.9112	1.363269	0.000370	3.699713	1.253497	-0.029677
 980	4.8950e-01	0.8743	1.214028	0.000372	3.721037	1.260722	-0.029848
 981	4.9000e-01	0.8406	0.981828	0.000579	5.789465	1.961524	-0.046440
 982	4.9050e-01	0.7893	1.096004	-0.000285	-2.846753	-0.964506	0.022835
 983	4.9100e-01	0.7460	1.007913	0.000220	2.196372	0.744151	-0.017618
 984	4.9150e-01	0.7235	0.762028	0.000613	6.130649	2.077120	-0.049177
 985	4.9200e-01	0.6625	0.828738	-0.000166	-1.663272	-0.563532	0.013342
 986	4.9250e-01	0.6401	0.593544	0.000586	5.864099	1.986810	-0.047039
 987	4.9300e-01	0.5920	0.476802	0.000291	2.910725	0.986180	-0.023348
 988	4.9350e-01	0.5775	0.294206	0.000455	4.552673	1.542487	-0.036519
 989	4.9400e-01	0.4989	0.323285	-0.000073	-0.725016	-0.245642	0.005816
 990	4.9450e-01	0.4652	0.392132	-0.000172	-1.716582	-0.581594	0.013770
 991	4.9500e-01	0.4396	0.200129	0.000479	4.787237	1.621960	-0.038401
 992	4.9550e-01	0.3962	0.129143	0.000177	1.769892	0.599656	-0.014197
 993	4.9600e-01	0.3497	0.018816	0.000275	2.750795	0.931995	-0.022065
 994	4.9650e-01	0.3080	-0.165919	0.000461	4.605983	1.560549	-0.036947
 995	4.9700e-01	0.2679	-0.203550	0.000094	0.938256	0.317890	-0.007526
 996	4.9750e-01	0.2374	-0.408810	0.000512	5.117759	1.733944	-0.041052
 997	4.9800e-01	0.1909	-0.438744	0.000075	0.746340	0.252867	-0.005987
 998	4.9850e-01	0.1396	-0.579005	0.000350	3.497135	1.184862	-0.028052
 999	4.9900e-01	0.1027	-0.546933	-0.000080	-0.799650	-0.270929	0.006414
1000	4.9950e-01	0.0706	-0.711568	0.000410	4.104869	1.390767	-0.032927
1001	5.0000e-01	0.0850	-1.049392	-0.000842	-8.422978	-2.853782	-0.067565
1002	5.0050e-01	0.0032	-0.965150	-0.000210	-2.100414	-0.711639	0.016848
1003	5.0100e-01	-0.0273	-1.098569	0.000333	3.326543	1.127063	-0.026684
1004	5.0150e-01	-0.0979	-0.989097	-0.000273	-2.729471	-0.924770	0.021894
1005	5.0200e-01	-0.1380	-1.198206	0.000521	5.213717	1.766455	-0.041822
1006	5.0250e-01	-0.1813	-1.216166	0.000045	0.447804	0.151720	-0.003592
1007	5.0300e-01	-0.2069	-1.272613	0.000141	1.407384	0.476835	-0.011289
1008	5.0350e-01	-0.2567	-1.482149	0.000522	5.224379	1.770068	-0.041907
1009	5.0400e-01	-0.2856	-1.433400	-0.000122	-1.215468	-0.411812	0.009750
1010	5.0450e-01	-0.3545	-1.730599	0.000741	7.410089	2.510606	-0.059440
1011	5.0500e-01	-0.3834	-1.793033	0.000156	1.556652	0.527408	-0.012487
1012	5.0550e-01	-0.4059	-1.994444	0.000502	5.021801	1.701432	-0.040282
1013	5.0600e-01	-0.4428	-2.011549	0.000043	0.426480	0.144495	-0.003421
1014	5.0650e-01	-0.5053	-2.061581	0.000125	1.247454	0.422649	-0.010006
1015	5.0700e-01	-0.5342	-1.987602	-0.000184	-1.844526	-0.624942	0.014796
1016	5.0750e-01	-0.5486	-2.333979	0.000864	8.636218	2.926030	-0.069275
1017	5.0800e-01	-0.5920	-2.441313	0.000268	2.676162	0.906708	-0.021467
1018	5.0850e-01	-0.6593	-2.482792	0.000103	1.034214	0.350401	-0.008296
1019	5.0900e-01	-0.6914	-2.514009	0.000078	0.778326	0.263704	-0.006243
1020	5.0950e-01	-0.7059	-2.654270	0.000350	3.497135	1.184862	-0.028052
1021	5.1000e-01	-0.7508	-2.825748	0.000428	4.275461	1.448565	-0.034296
1022	5.1050e-01	-0.8085	-2.800518	-0.000063	-0.629058	-0.213131	0.005046
1023	5.1100e-01	-0.8390	-2.953608	0.000382	3.816995	1.293233	-0.030618
1024	5.1150e-01	-0.8759	-3.139197	0.000463	4.627307	1.567774	-0.037118
1025	5.1200e-01	-0.9433	-3.170841	0.000079	0.788988	0.267316	-0.006329
1026	5.1250e-01	-0.9754	-3.176401	0.000014	0.138606	0.046961	-0.001112
1027	5.1300e-01	-0.9962	-3.289721	0.000283	2.825429	0.957281	-0.022664
1028	5.1350e-01	-1.0588	-3.439390	0.000373	3.731699	1.264334	-0.029934
1029	5.1400e-01	-1.0748	-3.488567	0.000123	1.226130	0.415424	-0.009835
1030	5.1450e-01	-1.1310	-3.541593	0.000132	1.322088	0.447935	-0.010605
1031	5.1500e-01	-1.1791	-3.820832	0.000696	6.962285	2.358886	-0.055848
1032	5.1550e-01	-1.2144	-3.814845	-0.000015	-0.149268	-0.050573	0.001197
1033	5.1600e-01	-1.2770	-3.752839	-0.000155	-1.545990	-0.523795	0.012401
1034	5.1650e-01	-1.2738	-3.995303	-0.000605	-6.045353	-2.048221	-0.048493
1035	5.1700e-01	-1.3074	-4.037210	0.000104	1.044876	0.354014	-0.008381
1036	5.1750e-01	-1.3684	-4.232207	0.000486	4.861871	1.647247	-0.038999
1037	5.1800e-01	-1.4214	-4.242470	0.000026	0.255888	0.086697	-0.002053
1038	5.1850e-01	-1.4438	-4.397271	0.000386	3.859643	1.307683	-0.030960
1039	5.1900e-01	-1.5032	-4.394705	-0.000006	-0.063972	-0.021674	0.000513
1040	5.1950e-01	-1.5385	-4.508881	0.000285	2.846753	0.964506	-0.022835
1041	5.2000e-01	-1.5593	-4.735522	0.000565	5.650859	1.914563	-0.045328
1042	5.2050e-01	-1.5802	-4.921967	0.000465	4.648631	1.574999	-0.037289
1043	5.2100e-01	-1.6620	-4.875356	-0.000116	-1.162158	-0.393750	0.009322
1044	5.2150e-01	-1.6973	-5.048972	0.000433	4.328771	1.466627	-0.034723
1045	5.2200e-01	-1.7165	-4.989104	-0.000149	-1.492680	-0.505734	0.011974
1046	5.2250e-01	-1.7663	-5.180680	0.000478	4.776575	1.618347	-0.038315
1047	5.2300e-01	-1.8096	-5.164003	-0.000042	-0.415818	-0.140883	0.003335
1048	5.2350e-01	-1.8497	-5.285021	0.000302	3.017345	1.022304	-0.024204
1049	5.2400e-01	-1.8914	-5.492847	0.000518	5.181731	1.755618	-0.041565
1050	5.2450e-01	-1.9283	-5.481728	-0.000028	-0.277212	-0.093922	0.002224
1051	5.2500e-01	-1.9604	-5.587779	0.000264	2.644176	0.895871	-0.021210
1052	5.2550e-01	-1.9925	-5.868729	0.000700	7.004933	2.373335	-0.056190
1053	5.2600e-01	-2.0486	-5.889255	0.000051	0.511776	0.173394	-0.004105
1054	5.2650e-01	-2.0999	-5.818269	-0.000177	-1.769892	-0.599656	0.014197
1055	5.2700e-01	-2.1256	-6.177047	0.000895	8.945416	3.030789	-0.071756
1056	5.2750e-01	-2.1769	-6.068003	-0.000272	-2.718809	-0.921158	0.021809
1057	5.2800e-01	-2.2042	-6.149251	0.000203	2.025780	0.686353	-0.016250
1058	5.2850e-01	-2.2475	-6.463984	0.000785	7.847231	2.658714	-0.062946
1059	5.2900e-01	-2.2828	-6.425925	-0.000095	-0.948918	-0.321502	0.007612
1060	5.2950e-01	-2.3245	-6.540529	0.000286	2.857415	0.968119	-0.022921
1061	5.3000e-01	-2.3502	-6.569179	0.000071	0.714354	0.242030	-0.005730
1062	5.3050e-01	-2.3903	-6.796248	0.000566	5.661521	1.918175	-0.045414
1063	5.3100e-01	-2.4384	-6.832597	0.000091	0.906270	0.307053	-0.007270
1064	5.3150e-01	-2.4962	-6.957036	0.000310	3.102641	1.051203	-0.024888
1065	5.3200e-01	-2.5411	-6.865096	-0.000229	-2.292330	-0.776662	0.018388
1066	5.3250e-01	-2.5700	-6.986114	0.000302	3.017345	1.022304	-0.024204
1067	5.3300e-01	-2.5940	-7.284597	0.000744	7.442075	2.521443	-0.059696
1068	5.3350e-01	-2.6390	-7.339333	0.000136	1.364736	0.462385	-0.010947
1069	5.3400e-01	-2.6951	-7.302984	-0.000091	-0.906270	-0.307053	0.007270
1070	5.3450e-01	-2.7336	-7.504396	0.000502	5.021801	1.701432	-0.040282
1071	5.3500e-01	-2.7769	-7.592487	0.000220	2.196372	0.744151	-0.017618
1072	5.3550e-01	-2.7946	-7.675018	0.000206	2.057766	0.697190	-0.016506
1073	5.3600e-01	-2.8603	-7.589493	-0.000213	-2.132400	-0.722477	0.017105
1074	5.3650e-01	-2.9021	-7.841792	0.000629	6.290579	2.131306	-0.050460
1075	5.3700e-01	-2.9325	-8.002152	0.000400	3.998249	1.354644	-0.032072
1076	5.3750e-01	-2.9662	-8.066723	0.000161	1.609962	0.545470	-0.012914
1077	5.3800e-01	-3.0240	-8.198004	0.000327	3.273233	1.109001	-0.026256
1078	5.3850e-01	-3.0657	-8.238629	0.000101	1.012890	0.343176	-0.008125
1079	5.3900e-01	-3.0946	-8.350666	0.000279	2.793443	0.946444	-0.022408
1080	5.3950e-01	-3.1250	-8.398988	0.000120	1.204806	0.408199	-0.009664
1081	5.4000e-01	-3.1619	-8.496914	0.000244	2.441598	0.827236	-0.019585
1082	5.4050e-01	-3.1684	-8.737240	0.000599	5.992043	2.030159	-0.048065
1083	5.4100e-01	-3.2293	-8.851843	0.000286	2.857415	0.968119	-0.022921
1084	5.4150e-01	-3.2791	-8.910000	0.000145	1.450032	0.491284	-0.011631
1085	5.4200e-01	-3.3111	-8.911711	0.000004	0.042648	0.014450	-0.000342
1086	5.4250e-01	-3.3545	-9.002795	0.000227	2.271006	0.769438	-0.018217
1087	5.4300e-01	-3.3881	-9.181970	0.000447	4.467377	1.513588	-0.035835
1088	5.4350e-01	-3.4507	-9.198647	0.000042	0.415818	0.140883	-0.003335
1089	5.4400e-01	-3.4956	-9.318382	0.000299	2.985359	1.011467	-0.023947
1090	5.4450e-01	-3.5261	-9.370980	0.000131	1.311426	0.444323	-0.010520
1091	5.4500e-01	-3.5630	-9.440683	0.000174	1.737906	0.588818	-0.013941
1092	5.4550e-01	-3.6111	-9.667325	0.000565	5.650859	1.914563	-0.045328
1093	5.4600e-01	-3.6464	-9.568543	-0.000246	-2.462922	-0.834460	0.019756
1094	5.4650e-01	-3.6705	-9.794329	0.000563	5.629535	1.907338	-0.045157
1095	5.4700e-01	-3.7250	-9.819132	0.000062	0.618396	0.209518	-0.004960
1096	5.4750e-01	-3.7635	-9.923900	0.000261	2.612190	0.885034	-0.020954
1097	5.4800e-01	-3.8357	-10.144982	0.000551	5.512253	1.867602	-0.044216
1098	5.4850e-01	-3.8646	-10.177054	0.000080	0.799650	0.270929	-0.006414
1099	5.4900e-01	-3.8855	-10.308762	0.000328	3.283895	1.112614	-0.026342
1100	5.4950e-01	-3.9416	-10.307480	-0.000003	-0.031986	-0.010837	0.000257
1101	5.5000e-01	-3.9705	-10.416096	0.000271	2.708147	0.917545	-0.021723
1102	5.5050e-01	-4.0074	-10.530700	0.000286	2.857415	0.968119	-0.022921
1103	5.5100e-01	-4.0443	-10.703033	0.000430	4.296785	1.455790	-0.034467
1104	5.5150e-01	-4.0940	-10.751355	0.000120	1.204806	0.408199	-0.009664
1105	5.5200e-01	-4.1165	-10.796683	0.000113	1.130172	0.382913	-0.009066
1106	5.5250e-01	-4.1710	-10.975858	0.000447	4.467377	1.513588	-0.035835
1107	5.5300e-01	-4.2143	-11.114836	0.000347	3.465149	1.174024	-0.027796
1108	5.5350e-01	-4.2608	-11.043423	-0.000178	-1.780554	-0.603268	0.014283
1109	5.5400e-01	-4.3026	-11.294439	0.000626	6.258593	2.120469	-0.050203
1110	5.5450e-01	-4.3202	-11.299998	0.000014	0.138606	0.046961	-0.001112
1111	5.5500e-01	-4.3667	-11.376115	0.000190	1.897836	0.643004	-0.015223
1112	5.5550e-01	-4.3908	-11.497561	0.000303	3.028007	1.025917	-0.024289
1113	5.5600e-01	-4.4373	-11.725485	0.000568	5.682845	1.925400	-0.045585
1114	5.5650e-01	-4.4967	-11.808444	0.000207	2.068428	0.700802	-0.016592
1115	5.5700e-01	-4.5416	-11.791339	-0.000043	-0.426480	-0.144495	0.003421
1116	5.5750e-01	-4.5656	-11.816997	0.000064	0.639720	0.216743	-0.005132
1117	5.5800e-01	-4.6041	-11.973080	0.000389	3.891629	1.318520	-0.031217
1118	5.5850e-01	-4.6330	-12.145413	0.000430	4.296785	1.455790	-0.034467
1119	5.5900e-01	-4.6812	-12.309621	0.000409	4.094207	1.387155	-0.032842
1120	5.5950e-01	-4.7148	-12.428929	0.000297	2.974697	1.007855	-0.023861
1121	5.6000e-01	-4.7405	-12.498204	0.000173	1.727244	0.585206	-0.013855
1122	5.6050e-01	-4.7967	-12.662412	0.000409	4.094207	1.387155	-0.032842
1123	5.6100e-01	-4.8544	-12.605110	-0.000143	-1.428708	-0.484059	0.011460
1124	5.6150e-01	-4.8753	-12.727411	0.000305	3.049331	1.033141	-0.024460
1125	5.6200e-01	-4.9170	-12.698333	-0.000073	-0.725016	-0.245642	0.005816
1126	5.6250e-01	-4.9940	-12.763332	0.000162	1.620624	0.549082	-0.013000
1127	5.6300e-01	-5.0309	-12.987407	0.000559	5.586887	1.892889	-0.044815
1128	5.6350e-01	-5.0485	-13.245265	0.000643	6.429185	2.178267	-0.051572
1129	5.6400e-01	-5.0902	-13.282896	0.000094	0.938256	0.317890	-0.007526
1130	5.6450e-01	-5.1031	-13.198226	-0.000211	-2.111076	-0.715252	0.016934
1131	5.6500e-01	-5.1801	-13.355165	0.000391	3.912953	1.325744	-0.031388
1132	5.6550e-01	-5.2089	-13.311120	-0.000110	-1.098186	-0.372075	0.008809
1133	5.6600e-01	-5.2442	-13.448387	0.000342	3.422501	1.159575	-0.027454
1134	5.6650e-01	-5.2859	-13.548452	0.000249	2.494908	0.845298	-0.020013
1135	5.6700e-01	-5.3293	-13.601049	0.000131	1.311426	0.444323	-0.010520
1136	5.6750e-01	-5.3710	-13.787494	0.000465	4.648631	1.574999	-0.037289
1137	5.6800e-01	-5.4223	-13.927328	0.000349	3.486473	1.181249	-0.027967
1138	5.6850e-01	-5.4335	-14.114200	0.000466	4.659293	1.578611	-0.037374
1139	5.6900e-01	-5.4785	-14.199725	0.000213	2.132400	0.722477	-0.017105
1140	5.6950e-01	-5.5218	-14.177488	-0.000055	-0.554424	-0.187844	0.004447
1141	5.7000e-01	-5.5651	-14.161666	-0.000039	-0.394494	-0.133658	0.003164
1142	5.7050e-01	-5.5859	-14.347256	0.000463	4.627307	1.567774	-0.037118
1143	5.7100e-01	-5.6341	-14.622646	0.000687	6.866327	2.326374	-0.055078
1144	5.7150e-01	-5.6998	-14.630344	0.000019	0.191916	0.065023	-0.001539
1145	5.7200e-01	-5.7223	-14.713730	0.000208	2.079090	0.704415	-0.016677
1146	5.7250e-01	-5.7608	-14.730835	0.000043	0.426480	0.144495	-0.003421
1147	5.7300e-01	-5.8041	-14.830045	0.000247	2.473584	0.838073	-0.019842
1148	5.7350e-01	-5.8426	-14.989976	0.000399	3.987587	1.351031	-0.031986
1149	5.7400e-01	-5.8795	-15.074646	0.000211	2.111076	0.715252	-0.016934
1150	5.7450e-01	-5.9244	-15.188395	0.000284	2.836091	0.960894	-0.022750
1151	5.7500e-01	-5.9677	-15.314116	0.000313	3.134627	1.062041	-0.025144
1152	5.7550e-01	-6.0079	-15.248262	-0.000164	-1.641948	-0.556307	0.013171
1153	5.7600e-01	-6.0335	-15.426582	0.000445	4.446053	1.506364	-0.035664
1154	5.7650e-01	-6.0929	-15.539902	0.000283	2.825429	0.957281	-0.022664
1155	5.7700e-01	-6.1169	-15.622434	0.000206	2.057766	0.697190	-0.016506
1156	5.7750e-01	-6.1715	-15.735755	0.000283	2.825429	0.957281	-0.022664
1157	5.7800e-01	-6.2324	-15.743024	0.000018	0.181254	0.061411	-0.001454
1158	5.7850e-01	-6.2677	-15.898680	0.000388	3.880967	1.314907	-0.031131
1159	5.7900e-01	-6.3046	-15.943581	0.000112	1.119510	0.379300	-0.008980
1160	5.7950e-01	-6.3319	-15.910226	-0.000083	-0.831636	-0.281766	0.006671
1161	5.8000e-01	-6.3640	-16.072724	0.000405	4.051559	1.372705	-0.032500
1162	5.8050e-01	-6.4121	-16.237787	0.000412	4.115531	1.394380	-0.033013
1163	5.8100e-01	-6.4330	-16.461007	0.000557	5.565563	1.885664	-0.044644
1164	5.8150e-01	-6.4891	-16.523868	0.000157	1.567314	0.531020	-0.012572
1165	5.8200e-01	-6.5116	-16.549098	0.000063	0.629058	0.213131	-0.005046
1166	5.8250e-01	-6.5453	-16.681662	0.000331	3.305219	1.119839	-0.026513
1167	5.8300e-01	-6.5934	-16.711168	0.000074	0.735678	0.249254	-0.005901
1168	5.8350e-01	-6.6415	-16.716300	0.000013	0.127944	0.043349	-0.001026
1169	5.8400e-01	-6.6816	-16.878370	0.000404	4.040897	1.369093	-0.032414
1170	5.8450e-01	-6.7137	-16.957480	0.000197	1.972470	0.668291	-0.015822
1171	5.8500e-01	-6.7426	-17.211917	0.000634	6.343889	2.149368	-0.050887
1172	5.8550e-01	-6.8019	-17.237147	0.000063	0.629058	0.213131	-0.005046
1173	5.8600e-01	-6.8453	-17.339777	0.000256	2.558880	0.866972	-0.020526
1174	5.8650e-01	-6.8870	-17.384250	0.000111	1.108848	0.375688	-0.008895
1175	5.8700e-01	-6.9078	-17.531781	0.000368	3.678389	1.246272	-0.029506
1176	5.8750e-01	-6.9672	-17.629280	0.000243	2.430936	0.823623	-0.019500
1177	5.8800e-01	-6.9993	-17.545037	-0.000210	-2.100414	-0.711639	0.016848
1178	5.8850e-01	-7.0570	-17.665628	0.000301	3.006683	1.018692	-0.024118
1179	5.8900e-01	-7.0827	-17.808027	0.000355	3.550445	1.202923	-0.028480
1180	5.8950e-01	-7.1196	-17.966676	0.000396	3.955601	1.340194	-0.031730
1181	5.9000e-01	-7.1709	-17.973946	0.000018	0.181254	0.061411	-0.001454
1182	5.9050e-01	-7.2126	-17.999603	0.000064	0.639720	0.216743	-0.005132
1183	5.9100e-01	-7.2559	-18.097957	0.000245	2.452260	0.830848	-0.019671
1184	5.9150e-01	-7.2736	-18.378907	0.000700	7.004933	2.373335	-0.056190
1185	5.9200e-01	-7.3233	-18.389597	0.000027	0.266550	0.090310	-0.002138
1186	5.9250e-01	-7.3570	-18.494793	0.000262	2.622852	0.888646	-0.021039
1187	5.9300e-01	-7.4100	-18.590581	0.000239	2.388288	0.809174	-0.019158
1188	5.9350e-01	-7.4324	-18.658146	0.000168	1.684596	0.570756	-0.013513
1189	5.9400e-01	-7.4902	-18.748375	0.000225	2.249682	0.762213	-0.018046
1190	5.9450e-01	-7.5383	-18.909162	0.000401	4.008911	1.358256	-0.032157
1191	5.9500e-01	-7.5768	-18.937385	0.000070	0.703692	0.238417	-0.005645
1192	5.9550e-01	-7.5944	-19.102449	0.000412	4.115531	1.394380	-0.033013
1193	5.9600e-01	-7.6426	-19.189257	0.000216	2.164386	0.733314	-0.017362
1194	5.9650e-01	-7.6907	-19.214059	0.000062	0.618396	0.209518	-0.004960
1195	5.9700e-01	-7.7308	-19.290604	0.000191	1.908498	0.646617	-0.015309
1196	5.9750e-01	-7.7565	-19.353892	0.000158	1.577976	0.534633	-0.012658
1197	5.9800e-01	-7.8174	-19.519811	0.000414	4.136855	1.401604	-0.033184
1198	5.9850e-01	-7.8367	-19.493726	-0.000065	-0.650382	-0.220355	0.005217
1199	5.9900e-01	-7.8992	-19.680598	0.000466	4.659293	1.578611	-0.037374
1200	5.9950e-01	-7.9297	-19.719512	0.000097	0.970242	0.328727	-0.007783
1201	6.0000e-01	-7.9778	-19.922206	0.000505	5.053787	1.712269	-0.040539
1202	6.0050e-01	-8.0131	-20.186479	0.000659	6.589115	2.232453	-0.052854
1203	6.0100e-01	-8.0516	-20.080855	-0.000263	-2.633514	-0.892259	0.021125
1204	6.0150e-01	-8.0757	-20.159111	0.000195	1.951146	0.661066	-0.015651
1205	6.0200e-01	-8.1319	-20.256609	0.000243	2.430936	0.823623	-0.019500
1206	6.0250e-01	-8.1543	-20.449896	0.000482	4.819223	1.632797	-0.038657
1207	6.0300e-01	-8.1992	-20.425521	-0.000061	-0.607734	-0.205906	0.004875
1208	6.0350e-01	-8.2442	-20.431508	0.000015	0.149268	0.050573	-0.001197
1209	6.0400e-01	-8.2955	-20.617097	0.000463	4.627307	1.567774	-0.037118
1210	6.0450e-01	-8.3244	-20.791141	0.000434	4.339433	1.470240	-0.034809
1211	6.0500e-01	-8.3581	-20.753937	-0.000093	-0.927594	-0.314277	0.007441
1212	6.0550e-01	-8.3933	-20.931402	0.000442	4.424729	1.499139	-0.035493
1213	6.0600e-01	-8.4318	-20.993408	0.000155	1.545990	0.523795	-0.012401
1214	6.0650e-01	-8.4864	-21.102452	0.000272	2.718809	0.921158	-0.021809
1215	6.0700e-01	-8.5281	-21.176431	0.000184	1.844526	0.624942	-0.014796
1216	6.0750e-01	-8.5634	-21.446690	0.000674	6.738383	2.283026	-0.054052
1217	6.0800e-01	-8.6131	-21.266233	-0.000450	-4.499363	-1.524426	0.036092
1218	6.0850e-01	-8.6404	-21.455671	0.000472	4.723265	1.600286	-0.037888
1219	6.0900e-01	-8.6773	-21.532215	0.000191	1.908498	0.646617	-0.015309
1220	6.0950e-01	-8.7302	-21.716094	0.000458	4.584659	1.553325	-0.036776
1221	6.1000e-01	-8.7655	-21.801619	0.000213	2.132400	0.722477	-0.017105
1222	6.1050e-01	-8.8185	-21.796915	-0.000012	-0.117282	-0.039736	0.000941
1223	6.1100e-01	-8.8457	-21.881585	0.000211	2.111076	0.715252	-0.016934
1224	6.1150e-01	-8.8842	-22.089839	0.000519	5.192393	1.759230	-0.041651
1225	6.1200e-01	-8.9131	-22.171943	0.000205	2.047104	0.693577	-0.016421
1226	6.1250e-01	-8.9789	-22.175791	0.000010	0.095958	0.032511	-0.000770
1227	6.1300e-01	-8.9885	-22.228389	0.000131	1.311426	0.444323	-0.010520
1228	6.1350e-01	-9.0415	-22.507629	0.000696	6.962285	2.358886	-0.055848
1229	6.1400e-01	-9.0800	-22.561937	0.000135	1.354074	0.458773	-0.010862
1230	6.1450e-01	-9.1201	-22.472136	-0.000224	-2.239020	-0.758600	0.017960
1231	6.1500e-01	-9.1554	-22.581180	0.000272	2.718809	0.921158	-0.021809
1232	6.1550e-01	-9.2067	-22.685093	0.000259	2.590866	0.877809	-0.020783
1233	6.1600e-01	-9.2677	-22.803973	0.000296	2.964035	1.004242	-0.023776
1234	6.1650e-01	-9.2997	-22.893774	0.000224	2.239020	0.758600	-0.017960
1235	6.1700e-01	-9.3270	-23.044298	0.000375	3.753023	1.271559	-0.030105
1236	6.1750e-01	-9.3607	-23.159330	0.000287	2.868077	0.971731	-0.023006
1237	6.1800e-01	-9.4040	-23.231171	0.000179	1.791216	0.606880	-0.014368
1238	6.1850e-01	-9.4634	-23.282486	0.000128	1.279440	0.433486	-0.010263
1239	6.1900e-01	-9.4922	-23.451825	0.000422	4.222151	1.430504	-0.033868
1240	6.1950e-01	-9.5307	-23.391958	-0.000149	-1.492680	-0.505734	0.011974
1241	6.2000e-01	-9.5692	-23.642119	0.000624	6.237269	2.113244	-0.050032
1242	6.2050e-01	-9.6078	-23.726788	0.000211	2.111076	0.715252	-0.016934
1243	6.2100e-01	-9.6254	-23.869188	0.000355	3.550445	1.202923	-0.028480
1244	6.2150e-01	-9.6815	-23.938463	0.000173	1.727244	0.585206	-0.013855
1245	6.2200e-01	-9.7217	-23.967541	0.000073	0.725016	0.245642	-0.005816
1246	6.2250e-01	-9.7521	-24.037244	0.000174	1.737906	0.588818	-0.013941
1247	6.2300e-01	-9.8003	-24.149710	0.000280	2.804105	0.950057	-0.022493
1248	6.2350e-01	-9.8516	-24.276714	0.000317	3.166613	1.072878	-0.025401
1249	6.2400e-01	-9.8853	-24.289971	0.000033	0.330522	0.111984	-0.002651
1250	6.2450e-01	-9.9206	-24.251912	-0.000095	-0.948918	-0.321502	0.007612
1251	6.2500e-01	-9.9639	-24.490527	0.000595	5.949395	2.015710	-0.047723
1252	6.2550e-01	-10.0216	-24.550395	0.000149	1.492680	0.505734	-0.011974
1253	6.2600e-01	-10.0377	-24.588881	0.000096	0.959580	0.325114	-0.007697
1254	6.2650e-01	-10.0842	-24.784733	0.000488	4.883195	1.654471	-0.039170
1255	6.2700e-01	-10.1227	-24.825358	0.000101	1.012890	0.343176	-0.008125
1256	6.2750e-01	-10.1564	-25.050716	0.000562	5.618873	1.903726	-0.045072
1257	6.2800e-01	-10.2029	-25.010092	-0.000101	-1.012890	-0.343176	0.008125
1258	6.2850e-01	-10.2462	-25.224332	0.000534	5.341661	1.809804	-0.042848
1259	6.2900e-01	-10.2879	-25.123413	-0.000252	-2.516232	-0.852522	0.020184
1260	6.2950e-01	-10.3120	-25.270088	0.000366	3.657065	1.239047	-0.029335
1261	6.3000e-01	-10.3633	-25.448408	0.000445	4.446053	1.506364	-0.035664
1262	6.3050e-01	-10.4051	-25.531367	0.000207	2.068428	0.700802	-0.016592
1263	6.3100e-01	-10.4468	-25.650674	0.000297	2.974697	1.007855	-0.023861
1264	6.3150e-01	-10.4805	-25.587386	-0.000158	-1.577976	-0.534633	0.012658
1265	6.3200e-01	-10.5270	-25.787515	0.000499	4.989815	1.690595	-0.040026
1266	6.3250e-01	-10.5687	-25.798633	0.000028	0.277212	0.093922	-0.002224
1267	6.3300e-01	-10.5847	-25.908105	0.000273	2.729471	0.924770	-0.021894
1268	6.3350e-01	-10.6569	-26.012018	0.000259	2.590866	0.877809	-0.020783
1269	6.3400e-01	-10.6986	-26.108661	0.000241	2.409612	0.816398	-0.019329
1270	6.3450e-01	-10.7243	-26.180930	0.000180	1.801878	0.610493	-0.014454
1271	6.3500e-01	-10.7580	-26.192903	0.000030	0.298536	0.101147	-0.002395
1272	6.3550e-01	-10.7901	-26.400302	0.000517	5.171069	1.752006	-0.041480
1273	6.3600e-01	-10.8382	-26.463590	0.000158	1.577976	0.534633	-0.012658
1274	6.3650e-01	-10.8879	-26.498655	0.000087	0.874284	0.296215	-0.007013
1275	6.3700e-01	-10.9345	-26.626088	0.000318	3.177275	1.076490	-0.025486
1276	6.3750e-01	-10.9489	-26.838617	0.000530	5.299013	1.795354	-0.042506
1277	6.3800e-01	-10.9938	-26.776184	-0.000156	-1.556652	-0.527408	0.012487
1278	6.3850e-01	-11.0500	-26.928419	0.000380	3.795671	1.286008	-0.030447
1279	6.3900e-01	-11.1029	-26.945951	0.000044	0.437142	0.148108	-0.003507
1280	6.3950e-01	-11.1270	-26.989142	0.000108	1.076862	0.364851	-0.008638
1281	6.4000e-01	-11.1687	-27.140093	0.000376	3.763685	1.275171	-0.030190
1282	6.4050e-01	-11.1975	-27.335090	0.000486	4.861871	1.647247	-0.038999
1283	6.4100e-01	-11.2393	-27.347064	0.000030	0.298536	0.101147	-0.002395
1284	6.4150e-01	-11.2810	-27.452260	0.000262	2.622852	0.888646	-0.021039
1285	6.4200e-01	-11.3147	-27.625876	0.000433	4.328771	1.466627	-0.034723
1286	6.4250e-01	-11.3660	-27.609198	-0.000042	-0.415818	-0.140883	0.003335
1287	6.4300e-01	-11.4109	-27.638277	0.000073	0.725016	0.245642	-0.005816
1288	6.4350e-01	-11.4430	-27.814886	0.000440	4.403405	1.491914	-0.035322
1289	6.4400e-01	-11.4815	-27.958568	0.000358	3.582431	1.213761	-0.028736
1290	6.4450e-01	-11.5553	-27.913667	-0.000112	-1.119510	-0.379300	0.008980
1291	6.4500e-01	-11.5713	-28.069323	0.000388	3.880967	1.314907	-0.031131
1292	6.4550e-01	-11.5906	-28.303234	0.000583	5.832113	1.975973	-0.046782
1293	6.4600e-01	-11.6708	-28.299813	-0.000009	-0.085296	-0.028899	0.000684
1294	6.4650e-01	-11.6949	-28.360108	0.000150	1.503342	0.509346	-0.012059
1295	6.4700e-01	-11.7237	-28.433660	0.000183	1.833864	0.621330	-0.014710
1296	6.4750e-01	-11.7735	-28.520040	0.000215	2.153724	0.729701	-0.017276
1297	6.4800e-01	-11.8136	-28.594874	0.000187	1.865850	0.632167	-0.014967
1298	6.4850e-01	-11.8617	-28.784312	0.000472	4.723265	1.600286	-0.037888
1299	6.4900e-01	-11.8858	-28.814246	0.000075	0.746340	0.252867	-0.005987
1300	6.4950e-01	-11.9275	-28.956645	0.000355	3.550445	1.202923	-0.028480
1301	6.5000e-01	-11.9644	-29.062697	0.000264	2.644176	0.895871	-0.021210
1302	6.5050e-01	-12.0013	-28.965198	-0.000243	-2.430936	-0.823623	0.019500
1303	6.5100e-01	-12.0558	-29.061414	0.000240	2.398950	0.812786	-0.019243
1304	6.5150e-01	-12.0799	-29.199964	0.000345	3.454487	1.170412	-0.027710
1305	6.5200e-01	-12.1296	-29.310719	0.000276	2.761457	0.935607	-0.022151
1306	6.5250e-01	-12.1617	-29.476638	0.000414	4.136855	1.401604	-0.033184
1307	6.5300e-01	-12.2002	-29.545913	0.000173	1.727244	0.585206	-0.013855
1308	6.5350e-01	-12.2451	-29.602787	0.000142	1.418046	0.480447	-0.011375
1309	6.5400e-01	-12.2740	-29.740483	0.000343	3.433163	1.163187	-0.027539
1310	6.5450e-01	-12.3237	-29.768706	0.000070	0.703692	0.238417	-0.005645
1311	6.5500e-01	-12.3622	-29.877323	0.000271	2.708147	0.917545	-0.021723
1312	6.5550e-01	-12.4168	-29.835415	-0.000104	-1.044876	-0.354014	0.008381
1313	6.5600e-01	-12.4296	-30.096267	0.000650	6.503819	2.203553	-0.052170
1314	6.5650e-01	-12.4922	-30.195904	0.000248	2.484246	0.841685	-0.019927
1315	6.5700e-01	-12.5307	-30.307941	0.000279	2.793443	0.946444	-0.022408
1316	6.5750e-01	-12.5676	-30.473432	0.000413	4.126193	1.397992	-0.033098
1317	6.5800e-01	-12.5836	-30.411427	-0.000155	-1.545990	-0.523795	0.012401
1318	6.5850e-01	-12.6478	-30.493958	0.000206	2.057766	0.697190	-0.016506
1319	6.5900e-01	-12.6766	-30.603003	0.000272	2.718809	0.921158	-0.021809
1320	6.5950e-01	-12.7312	-30.497807	-0.000262	-2.622852	-0.888646	0.021039
1321	6.6000e-01	-12.7681	-30.679120	0.000452	4.520687	1.531650	-0.036263
1322	6.6050e-01	-12.8098	-30.817671	0.000345	3.454487	1.170412	-0.027710
1323	6.6100e-01	-12.8676	-30.910465	0.000231	2.313654	0.783887	-0.018559
1324	6.6150e-01	-12.8627	-31.041746	-0.000327	-3.273233	-1.109001	-0.026256
1325	6.6200e-01	-12.9269	-31.199112	0.000392	3.923615	1.329357	-0.031473
1326	6.6250e-01	-12.9766	-31.090068	-0.000272	-2.718809	-0.921158	0.021809
1327	6.6300e-01	-13.0103	-31.170462	0.000200	2.004456	0.679128	-0.016079
1328	6.6350e-01	-13.0488	-31.256842	0.000215	2.153724	0.729701	-0.017276
1329	6.6400e-01	-13.0970	-31.378715	0.000304	3.038669	1.029529	-0.024375
1330	6.6450e-01	-13.1178	-31.600225	0.000552	5.522915	1.871214	-0.044302
1331	6.6500e-01	-13.1659	-31.576278	-0.000060	-0.597072	-0.202293	0.004789
1332	6.6550e-01	-13.2157	-31.733216	0.000391	3.912953	1.325744	-0.031388
1333	6.6600e-01	-13.2333	-31.744762	0.000029	0.287874	0.097534	-0.002309
1334	6.6650e-01	-13.2638	-31.834991	0.000225	2.249682	0.762213	-0.018046
1335	6.6700e-01	-13.3039	-32.035547	0.000500	5.000477	1.694207	-0.040111
1336	6.6750e-01	-13.3552	-32.132618	0.000242	2.420274	0.820011	-0.019414
1337	6.6800e-01	-13.4114	-32.221564	0.000222	2.217696	0.751376	-0.017789
1338	6.6850e-01	-13.4435	-32.244229	0.000057	0.565086	0.191456	-0.004533
1339	6.6900e-01	-13.4932	-32.264755	0.000051	0.511776	0.173394	-0.004105
1340	6.6950e-01	-13.5317	-32.381496	0.000291	2.910725	0.986180	-0.023348
1341	6.7000e-01	-13.5622	-32.405443	0.000060	0.597072	0.202293	-0.004789
1342	6.7050e-01	-13.6071	-32.547843	0.000355	3.550445	1.202923	-0.028480
1343	6.7100e-01	-13.6376	-32.777905	0.000574	5.736155	1.943462	-0.046012
1344	6.7150e-01	-13.6873	-32.814253	0.000091	0.906270	0.307053	-0.007270
1345	6.7200e-01	-13.7467	-32.836917	0.000057	0.565086	0.191456	-0.004533
1346	6.7250e-01	-13.7691	-33.050302	0.000532	5.320337	1.802579	-0.042677
1347	6.7300e-01	-13.8140	-33.099052	0.000122	1.215468	0.411812	-0.009750
1348	6.7350e-01	-13.8526	-33.228194	0.000322	3.219923	1.090940	-0.025829
1349	6.7400e-01	-13.8782	-33.269674	0.000103	1.034214	0.350401	-0.008296
1350	6.7450e-01	-13.9296	-33.346219	0.000191	1.908498	0.646617	-0.015309
1351	6.7500e-01	-13.9777	-33.472796	0.000316	3.155951	1.069265	-0.025315
1352	6.7550e-01	-14.0066	-33.663944	0.000477	4.765913	1.614735	-0.038230
1353	6.7600e-01	-14.0515	-33.465099	-0.000496	-4.957829	-1.679758	0.039769
1354	6.7650e-01	-14.0916	-33.639997	0.000436	4.360757	1.477465	-0.034980
1355	6.7700e-01	-14.1381	-33.796081	0.000389	3.891629	1.318520	-0.031217
1356	6.7750e-01	-14.1670	-33.787528	-0.000021	-0.213240	-0.072248	0.001711
1357	6.7800e-01	-14.2023	-33.942756	0.000387	3.870305	1.311295	-0.031046
1358	6.7850e-01	-14.2504	-34.081734	0.000347	3.465149	1.174024	-0.027796
1359	6.7900e-01	-14.2905	-34.023150	-0.000146	-1.460694	-0.494896	0.011717
1360	6.7950e-01	-14.3146	-34.170680	0.000368	3.678389	1.246272	-0.029506
1361	6.8000e-01	-14.3434	-34.229693	0.000147	1.471356	0.498509	-0.011802
1362	6.8050e-01	-14.4221	-34.359691	0.000324	3.241247	1.098164	-0.026000
1363	6.8100e-01	-14.4397	-34.478143	0.000295	2.953373	1.000630	-0.023690
1364	6.8150e-01	-14.4686	-34.726166	0.000618	6.183959	2.095182	-0.049605
1365	6.8200e-01	-14.5424	-34.586332	-0.000349	-3.486473	-1.181249	0.027967
1366	6.8250e-01	-14.5729	-34.643206	0.000142	1.418046	0.480447	-0.011375
1367	6.8300e-01	-14.6290	-34.738139	0.000237	2.366964	0.801949	-0.018987
1368	6.8350e-01	-14.6370	-34.977182	0.000596	5.960057	2.019322	-0.047809
1369	6.8400e-01	-14.6819	-35.085799	0.000271	2.708147	0.917545	-0.021723
1370	6.8450e-01	-14.7253	-35.055010	-0.000077	-0.767664	-0.260092	0.006158
1371	6.8500e-01	-14.7670	-35.124712	0.000174	1.737906	0.588818	-0.013941
1372	6.8550e-01	-14.8263	-35.184152	0.000148	1.482018	0.502121	-0.011888
1373	6.8600e-01	-14.8359	-35.254711	0.000176	1.759230	0.596043	-0.014112
1374	6.8650e-01	-14.8761	-35.369314	0.000286	2.857415	0.968119	-0.022921
1375	6.8700e-01	-14.9370	-35.495891	0.000316	3.155951	1.069265	-0.025315
1376	6.8750e-01	-14.9659	-35.576285	0.000200	2.004456	0.679128	-0.016079
1377	6.8800e-01	-15.0076	-35.682763	0.000265	2.654838	0.899483	-0.021296
1378	6.8850e-01	-15.0557	-35.771709	0.000222	2.217696	0.751376	-0.017789
1379	6.8900e-01	-15.0798	-35.706710	-0.000162	-1.620624	-0.549082	0.013000
1380	6.8950e-01	-15.1231	-35.929503	0.000555	5.554901	1.882051	-0.044559
1381	6.9000e-01	-15.1584	-35.991936	0.000156	1.556652	0.527408	-0.012487
1382	6.9050e-01	-15.2001	-36.079172	0.000218	2.175048	0.736926	-0.017447
1383	6.9100e-01	-15.2354	-36.178381	0.000247	2.473584	0.838073	-0.019842
1384	6.9150e-01	-15.2899	-36.306241	0.000319	3.187937	1.080102	-0.025572
1385	6.9200e-01	-15.3477	-36.354990	0.000122	1.215468	0.411812	-0.009750
1386	6.9250e-01	-15.3236	-36.457620	-0.000256	-2.558880	-0.866972	-0.020526
1387	6.9300e-01	-15.4022	-36.519198	0.000154	1.535328	0.520183	-0.012316
1388	6.9350e-01	-15.4472	-36.620546	0.000253	2.526894	0.856135	-0.020269
1389	6.9400e-01	-15.4760	-36.670578	0.000125	1.247454	0.422649	-0.010006
1390	6.9450e-01	-15.5306	-36.791168	0.000301	3.006683	1.018692	-0.024118
1391	6.9500e-01	-15.5675	-36.788602	-0.000006	-0.063972	-0.021674	0.000513
1392	6.9550e-01	-15.6076	-36.984882	0.000489	4.893857	1.658084	-0.039256
1393	6.9600e-01	-15.6477	-37.071263	0.000215	2.153724	0.729701	-0.017276
1394	6.9650e-01	-15.6798	-37.117019	0.000114	1.140834	0.386525	-0.009151
1395	6.9700e-01	-15.7247	-37.261984	0.000361	3.614417	1.224598	-0.028993
1396	6.9750e-01	-15.7616	-37.333397	0.000178	1.780554	0.603268	-0.014283
1397	6.9800e-01	-15.8113	-37.414218	0.000202	2.015118	0.682740	-0.016164
1398	6.9850e-01	-15.8434	-37.486487	0.000180	1.801878	0.610493	-0.014454
1399	6.9900e-01	-15.8835	-37.531387	0.000112	1.119510	0.379300	-0.008980
1400	6.9950e-01	-15.9124	-37.626320	0.000237	2.366964	0.801949	-0.018987
1401	7.0000e-01	-15.9766	-37.806351	0.000449	4.488701	1.520813	-0.036006
1402	7.0050e-01	-16.0118	-37.898290	0.000229	2.292330	0.776662	-0.018388
1403	7.0100e-01	-16.0664	-37.837995	-0.000150	-1.503342	-0.509346	0.012059
1404	7.0150e-01	-16.0824	-37.932072	0.000235	2.345640	0.794724	-0.018816
1405	7.0200e-01	-16.1001	-38.109964	0.000444	4.435391	1.502751	-0.035578
1406	7.0250e-01	-16.1642	-38.136477	0.000066	0.661044	0.223968	-0.005303
1407	7.0300e-01	-16.2156	-38.309238	0.000431	4.307447	1.459403	-0.034552
1408	7.0350e-01	-16.2348	-38.305817	-0.000009	-0.085296	-0.028899	0.000684
1409	7.0400e-01	-16.2830	-38.387921	0.000205	2.047104	0.693577	-0.016421
1410	7.0450e-01	-16.3263	-38.574793	0.000466	4.659293	1.578611	-0.037374
1411	7.0500e-01	-16.3552	-38.710350	0.000338	3.379853	1.145125	-0.027111
1412	7.0550e-01	-16.4097	-38.596602	-0.000284	-2.836091	-0.960894	0.022750
1413	7.0600e-01	-16.4434	-38.763804	0.000417	4.168841	1.412442	-0.033440
1414	7.0650e-01	-16.4963	-38.959228	0.000487	4.872533	1.650859	-0.039085
1415	7.0700e-01	-16.5348	-39.004129	0.000112	1.119510	0.379300	-0.008980
1416	7.0750e-01	-16.5701	-38.918604	-0.000213	-2.132400	-0.722477	0.017105
1417	7.0800e-01	-16.6086	-38.960084	0.000103	1.034214	0.350401	-0.008296
1418	7.0850e-01	-16.6279	-39.141824	0.000453	4.531349	1.535263	-0.036348
1419	7.0900e-01	-16.6840	-39.247020	0.000262	2.622852	0.888646	-0.021039
1420	7.0950e-01	-16.7321	-39.386854	0.000349	3.486473	1.181249	-0.027967
1421	7.1000e-01	-16.7642	-39.545930	0.000397	3.966263	1.343806	-0.031815
1422	7.1050e-01	-16.7867	-39.579713	0.000084	0.842298	0.285378	-0.006756
1423	7.1100e-01	-16.8557	-39.645994	0.000165	1.652610	0.559919	-0.013256
1424	7.1150e-01	-16.8829	-39.686619	0.000101	1.012890	0.343176	-0.008125
1425	7.1200e-01	-16.9375	-39.768295	0.000204	2.036442	0.689965	-0.016335
1426	7.1250e-01	-16.9776	-39.862373	0.000235	2.345640	0.794724	-0.018816
1427	7.1300e-01	-17.0113	-39.879050	0.000042	0.415818	0.140883	-0.003335
1428	7.1350e-01	-17.0321	-39.973555	0.000236	2.356302	0.798337	-0.018901
1429	7.1400e-01	-17.1011	-39.978687	0.000013	0.127944	0.043349	-0.001026
1430	7.1450e-01	-17.1172	-40.343879	0.000911	9.105346	3.084975	-0.073038
1431	7.1500e-01	-17.1653	-40.349438	0.000014	0.138606	0.046961	-0.001112
1432	7.1550e-01	-17.2182	-40.387069	0.000094	0.938256	0.317890	-0.007526
1433	7.1600e-01	-17.2583	-40.452923	0.000164	1.641948	0.556307	-0.013171
1434	7.1650e-01	-17.2856	-40.371247	-0.000204	-2.036442	-0.689965	0.016335
1435	7.1700e-01	-17.3289	-40.594895	0.000558	5.576225	1.889276	-0.044730
1436	7.1750e-01	-17.3626	-40.747985	0.000382	3.816995	1.293233	-0.030618
1437	7.1800e-01	-17.4268	-40.817260	0.000173	1.727244	0.585206	-0.013855
1438	7.1850e-01	-17.4364	-40.836931	0.000049	0.490452	0.166170	-0.003934
1439	7.1900e-01	-17.5118	-40.932291	0.000238	2.377626	0.805561	-0.019072
1440	7.1950e-01	-17.5487	-41.053309	0.000302	3.017345	1.022304	-0.024204
1441	7.2000e-01	-17.5583	-41.100776	0.000118	1.183482	0.400974	-0.009493
1442	7.2050e-01	-17.5920	-41.336825	0.000589	5.885423	1.994035	-0.047210
1443	7.2100e-01	-17.6417	-41.247023	-0.000224	-2.239020	-0.758600	0.017960
1444	7.2150e-01	-17.7027	-41.351364	0.000260	2.601528	0.881421	-0.020868
1445	7.2200e-01	-17.7252	-41.524552	0.000432	4.318109	1.463015	-0.034638
1446	7.2250e-01	-17.7701	-41.555769	0.000078	0.778326	0.263704	-0.006243
1447	7.2300e-01	-17.8086	-41.654123	0.000245	2.452260	0.830848	-0.019671
1448	7.2350e-01	-17.8391	-41.674221	0.000050	0.501114	0.169782	-0.004020
1449	7.2400e-01	-17.8695	-41.961585	0.000716	7.164863	2.427521	-0.057473
1450	7.2450e-01	-17.9401	-41.843133	-0.000295	-2.953373	-1.000630	0.023690
1451	7.2500e-01	-17.9530	-41.921389	0.000195	1.951146	0.661066	-0.015651
1452	7.2550e-01	-17.9899	-42.187799	0.000664	6.642425	2.250514	-0.053282
1453	7.2600e-01	-18.0524	-42.124083	-0.000159	-1.588638	-0.538245	0.012743
1454	7.2650e-01	-18.0893	-42.121517	-0.000006	-0.063972	-0.021674	0.000513
1455	7.2700e-01	-18.1134	-42.375954	0.000634	6.343889	2.149368	-0.050887
1456	7.2750e-01	-18.1776	-42.413585	0.000094	0.938256	0.317890	-0.007526
1457	7.2800e-01	-18.2016	-42.589767	0.000439	4.392743	1.488302	-0.035236
1458	7.2850e-01	-18.2514	-42.612431	0.000057	0.565086	0.191456	-0.004533
1459	7.2900e-01	-18.2866	-42.697956	0.000213	2.132400	0.722477	-0.017105
1460	7.2950e-01	-18.3284	-42.811704	0.000284	2.836091	0.960894	-0.022750
1461	7.3000e-01	-18.3781	-42.909203	0.000243	2.430936	0.823623	-0.019500
1462	7.3050e-01	-18.4102	-42.901078	-0.000020	-0.202578	-0.068635	0.001625
1463	7.3100e-01	-18.4326	-42.999432	0.000245	2.452260	0.830848	-0.019671
1464	7.3150e-01	-18.4808	-43.120022	0.000301	3.006683	1.018692	-0.024118
1465	7.3200e-01	-18.5353	-43.188870	0.000172	1.716582	0.581594	-0.013770
1466	7.3250e-01	-18.5834	-43.159791	-0.000073	-0.725016	-0.245642	0.005816
1467	7.3300e-01	-18.6011	-43.320151	0.000400	3.998249	1.354644	-0.032072
1468	7.3350e-01	-18.6348	-43.481366	0.000402	4.019573	1.361868	-0.032243
1469	7.3400e-01	-18.7102	-43.579292	0.000244	2.441598	0.827236	-0.019585
1470	7.3450e-01	-18.7246	-43.510016	-0.000173	-1.727244	-0.585206	0.013855
1471	7.3500e-01	-18.7711	-43.654554	0.000360	3.603755	1.220985	-0.028907
1472	7.3550e-01	-18.8080	-43.780703	0.000315	3.145289	1.065653	-0.025230
1473	7.3600e-01	-18.8433	-43.879912	0.000247	2.473584	0.838073	-0.019842
1474	7.3650e-01	-18.8850	-43.981687	0.000254	2.537556	0.859747	-0.020355
1475	7.3700e-01	-18.9283	-44.058232	0.000191	1.908498	0.646617	-0.015309
1476	7.3750e-01	-18.9540	-44.178822	0.000301	3.006683	1.018692	-0.024118
1477	7.3800e-01	-19.0262	-44.092870	-0.000214	-2.143062	-0.726089	0.017191
1478	7.3850e-01	-19.0519	-44.189085	0.000240	2.398950	0.812786	-0.019243
1479	7.3900e-01	-19.0856	-44.307538	0.000295	2.953373	1.000630	-0.023690
1480	7.3950e-01	-19.1112	-44.450364	0.000356	3.561107	1.206536	-0.028565
1481	7.4000e-01	-19.1754	-44.531186	0.000202	2.015118	0.682740	-0.016164
1482	7.4050e-01	-19.2267	-44.550856	0.000049	0.490452	0.166170	-0.003934
1483	7.4100e-01	-19.2620	-44.781346	0.000575	5.746817	1.947074	-0.046098
1484	7.4150e-01	-19.2733	-44.852332	0.000177	1.769892	0.599656	-0.014197
1485	7.4200e-01	-19.2925	-44.942133	0.000224	2.239020	0.758600	-0.017960
1486	7.4250e-01	-19.3695	-44.975488	0.000083	0.831636	0.281766	-0.006671
1487	7.4300e-01	-19.4208	-44.946837	-0.000071	-0.714354	-0.242030	0.005730
1488	7.4350e-01	-19.4497	-44.945982	-0.000002	-0.021324	-0.007225	0.000171
1489	7.4400e-01	-19.4754	-45.251734	0.000762	7.623329	2.582854	-0.061150
1490	7.4450e-01	-19.5363	-45.302194	0.000126	1.258116	0.426261	-0.010092
1491	7.4500e-01	-19.5716	-45.293641	-0.000021	-0.213240	-0.072248	0.001711
1492	7.4550e-01	-19.5829	-45.480514	0.000466	4.659293	1.578611	-0.037374
1493	7.4600e-01	-19.6631	-45.658833	0.000445	4.446053	1.506364	-0.035664
1494	7.4650e-01	-19.6839	-45.707583	0.000122	1.215468	0.411812	-0.009750
1495	7.4700e-01	-19.7064	-45.861955	0.000385	3.848981	1.304070	-0.030875
1496	7.4750e-01	-19.7609	-45.814489	-0.000118	-1.183482	-0.400974	0.009493
1497	7.4800e-01	-19.8075	-45.813634	-0.000002	-0.021324	-0.007225	0.000171
1498	7.4850e-01	-19.8428	-45.819621	0.000015	0.149268	0.050573	-0.001197
1499	7.4900e-01	-19.8845	-46.099287	0.000697	6.972947	2.362498	-0.055933
1500	7.4950e-01	-19.9133	-46.241687	0.000355	3.550445	1.202923	-0.028480
1501	7.5000e-01	-19.9807	-46.317804	0.000190	1.897836	0.643004	-0.015223
1502	7.5050e-01	-19.9342	-46.096294	0.000552	5.522915	1.871214	0.044302
1503	7.5100e-01	-19.8925	-45.987250	0.000272	2.718809	0.921158	0.021809
1504	7.5150e-01	-19.8684	-45.874784	0.000280	2.804105	0.950057	0.022493
1505	7.5200e-01	-19.7946	-45.906001	-0.000078	-0.778326	-0.263704	-0.006243
1506	7.5250e-01	-19.7529	-45.879488	0.000066	0.661044	0.223968	0.005303
1507	7.5300e-01	-19.7369	-45.852975	0.000066	0.661044	0.223968	0.005303
1508	7.5350e-01	-19.7016	-45.656695	0.000489	4.893857	1.658084	0.039256
1509	7.5400e-01	-19.6486	-45.622913	0.000084	0.842298	0.285378	0.006756
1510	7.5450e-01	-19.6053	-45.468540	0.000385	3.848981	1.304070	0.030875
1511	7.5500e-01	-19.5813	-45.578868	-0.000275	-2.750795	-0.931995	-0.022065
1512	7.5550e-01	-19.5508	-45.409956	0.000421	4.211489	1.426891	0.033782
1513	7.5600e-01	-19.4914	-45.214531	0.000487	4.872533	1.650859	0.039085
1514	7.5650e-01	-19.4417	-45.298345	-0.000209	-2.089752	-0.708027	-0.016763
1515	7.5700e-01	-19.4144	-45.188873	0.000273	2.729471	0.924770	0.021894
1516	7.5750e-01	-19.3663	-45.126868	0.000155	1.545990	0.523795	0.012401
1517	7.5800e-01	-19.3374	-45.046474	0.000200	2.004456	0.679128	0.016079
1518	7.5850e-01	-19.3246	-44.889108	0.000392	3.923615	1.329357	0.031473
1519	7.5900e-01	-19.2572	-44.871148	0.000045	0.447804	0.151720	0.003592
1520	7.5950e-01	-19.2315	-44.847628	0.000059	0.586410	0.198681	0.004704
1521	7.6000e-01	-19.1770	-44.733452	0.000285	2.846753	0.964506	0.022835
1522	7.6050e-01	-19.1353	-44.508949	0.000560	5.597549	1.896501	0.044901
1523	7.6100e-01	-19.0759	-44.540593	-0.000079	-0.788988	-0.267316	-0.006329
1524	7.6150e-01	-19.0727	-44.391780	0.000371	3.710375	1.257109	0.029763
1525	7.6200e-01	-19.0134	-44.372537	0.000048	0.479790	0.162557	0.003849
1526	7.6250e-01	-18.9733	-44.323787	0.000122	1.215468	0.411812	0.009750
1527	7.6300e-01	-18.9107	-44.349017	-0.000063	-0.629058	-0.213131	-0.005046
1528	7.6350e-01	-18.8914	-44.280170	0.000172	1.716582	0.581594	0.013770
1529	7.6400e-01	-18.8578	-44.149744	0.000325	3.251909	1.101777	0.026085
1530	7.6450e-01	-18.8193	-44.086455	0.000158	1.577976	0.534633	0.012658
1531	7.6500e-01	-18.7775	-43.911129	0.000437	4.371419	1.481077	0.035065
1532	7.6550e-01	-18.7326	-43.881623	0.000074	0.735678	0.249254	0.005901
1533	7.6600e-01	-18.6893	-43.784979	0.000241	2.409612	0.816398	0.019329
1534	7.6650e-01	-18.6492	-43.745638	0.000098	0.980904	0.332339	0.007868
1535	7.6700e-01	-18.6251	-43.645146	0.000251	2.505570	0.848910	0.020098
1536	7.6750e-01	-18.5834	-43.604949	0.000100	1.002228	0.339564	0.008039
1537	7.6800e-01	-18.5321	-43.510872	0.000235	2.345640	0.794724	0.018816
1538	7.6850e-01	-18.4808	-43.397123	0.000284	2.836091	0.960894	0.022750
1539	7.6900e-01	-18.4391	-43.484359	-0.000218	-2.175048	-0.736926	-0.017447
1540	7.6950e-01	-18.4150	-43.266698	0.000543	5.426957	1.838703	0.043532
1541	7.7000e-01	-18.3781	-43.162785	0.000259	2.590866	0.877809	0.020783
1542	7.7050e-01	-18.3348	-42.966077	0.000490	4.904519	1.661696	0.039342
1543	7.7100e-01	-18.2947	-43.032787	-0.000166	-1.663272	-0.563532	-0.013342
1544	7.7150e-01	-18.2530	-42.972919	0.000149	1.492680	0.505734	0.011974
1545	7.7200e-01	-18.2305	-42.826671	0.000365	3.646403	1.235435	0.029250
1546	7.7250e-01	-18.1760	-42.763810	0.000157	1.567314	0.531020	0.012572
1547	7.7300e-01	-18.1375	-42.702660	0.000152	1.524666	0.516571	0.012230
1548	7.7350e-01	-18.1102	-42.590194	0.000280	2.804105	0.950057	0.022493
1549	7.7400e-01	-18.0428	-42.742001	-0.000379	-3.785009	-1.282396	-0.030361
1550	7.7450e-01	-18.0075	-42.601740	0.000350	3.497135	1.184862	0.028052
1551	7.7500e-01	-17.9867	-42.413158	0.000470	4.701941	1.593061	0.037717
1552	7.7550e-01	-17.9514	-42.331054	0.000205	2.047104	0.693577	0.016421
1553	7.7600e-01	-17.9064	-42.031716	0.000746	7.463399	2.528668	0.059868
1554	7.7650e-01	-17.8519	-42.212174	-0.000450	-4.499363	-1.524426	-0.036092
1555	7.7700e-01	-17.8134	-42.142043	0.000175	1.748568	0.592431	0.014026
1556	7.7750e-01	-17.7717	-41.998361	0.000358	3.582431	1.213761	0.028736
1557	7.7800e-01	-17.7252	-41.972704	0.000064	0.639720	0.216743	0.005132
1558	7.7850e-01	-17.6786	-41.859383	0.000283	2.825429	0.957281	0.022664
1559	7.7900e-01	-17.6674	-41.780700	0.000196	1.961808	0.664678	0.015737
1560	7.7950e-01	-17.6113	-41.742641	0.000095	0.948918	0.321502	0.007612
1561	7.8000e-01	-17.5840	-41.598531	0.000359	3.593093	1.217373	0.028822
1562	7.8050e-01	-17.5246	-41.617347	-0.000047	-0.469128	-0.158945	-0.003763
1563	7.8100e-01	-17.4877	-41.537381	0.000199	1.993794	0.675516	0.015993
1564	7.8150e-01	-17.4621	-41.412514	0.000311	3.113303	1.054816	0.024973
1565	7.8200e-01	-17.4059	-41.358634	0.000134	1.343412	0.455160	0.010776
1566	7.8250e-01	-17.3722	-41.206399	0.000380	3.795671	1.286008	0.030447
1567	7.8300e-01	-17.3225	-41.258142	-0.000129	-1.290102	-0.437098	-0.010349
1568	7.8350e-01	-17.3000	-41.154229	0.000259	2.590866	0.877809	0.020783
1569	7.8400e-01	-17.2583	-41.021665	0.000331	3.305219	1.119839	0.026513
1570	7.8450e-01	-17.2295	-40.917324	0.000260	2.601528	0.881421	0.020868
1571	7.8500e-01	-17.1878	-41.011402	-0.000235	-2.345640	-0.794724	-0.018816
1572	7.8550e-01	-17.1284	-40.777919	0.000582	5.821451	1.972361	0.046697
1573	7.8600e-01	-17.1011	-40.698380	0.000198	1.983132	0.671903	0.015908
1574	7.8650e-01	-17.0402	-40.579500	0.000296	2.964035	1.004242	0.023776
1575	7.8700e-01	-17.0177	-40.529041	0.000126	1.258116	0.426261	0.010092
1576	7.8750e-01	-16.9680	-40.494831	0.000085	0.852960	0.288991	0.006842
1577	7.8800e-01	-16.9279	-40.463614	0.000078	0.778326	0.263704	0.006243
1578	7.8850e-01	-16.9006	-40.313090	0.000375	3.753023	1.271559	0.030105
1579	7.8900e-01	-16.8477	-40.279735	0.000083	0.831636	0.281766	0.006671
1580	7.8950e-01	-16.8188	-40.050100	0.000573	5.725493	1.939850	0.045927
1581	7.9000e-01	-16.7803	-40.034706	0.000038	0.383832	0.130046	0.003079
1582	7.9050e-01	-16.7321	-40.042831	-0.000020	-0.202578	-0.068635	-0.001625
1583	7.9100e-01	-16.6953	-39.835432	0.000517	5.171069	1.752006	0.041480
1584	7.9150e-01	-16.6439	-39.695599	0.000349	3.486473	1.181249	0.027967
1585	7.9200e-01	-16.6038	-39.770006	-0.000186	-1.855188	-0.628555	-0.014881
1586	7.9250e-01	-16.5573	-39.770006	0.000000	0.000000	0.000000	0.000000
1587	7.9300e-01	-16.5332	-39.592541	0.000442	4.424729	1.499139	0.035493
1588	7.9350e-01	-16.4707	-39.455701	0.000341	3.411839	1.155962	0.027368
1589	7.9400e-01	-16.4418	-39.351361	0.000260	2.601528	0.881421	0.020868
1590	7.9450e-01	-16.4097	-39.324848	0.000066	0.661044	0.223968	0.005303
1591	7.9500e-01	-16.3792	-39.090509	0.000584	5.842775	1.979586	0.046868
1592	7.9550e-01	-16.3247	-39.091792	-0.000003	-0.031986	-0.010837	-0.000257
1593	7.9600e-01	-16.2942	-39.112318	-0.000051	-0.511776	-0.173394	-0.004105
1594	7.9650e-01	-16.2525	-38.999853	0.000280	2.804105	0.950057	0.022493
1595	7.9700e-01	-16.2140	-38.986169	0.000034	0.341184	0.115596	0.002737
1596	7.9750e-01	-16.1659	-38.926301	0.000149	1.492680	0.505734	0.011974
1597	7.9800e-01	-16.1290	-38.758244	0.000419	4.190165	1.419666	0.033611
1598	7.9850e-01	-16.1161	-38.609858	0.000370	3.699713	1.253497	0.029677
1599	7.9900e-01	-16.0407	-38.501242	0.000271	2.708147	0.917545	0.021723
1600	7.9950e-01	-15.9974	-38.508511	-0.000018	-0.181254	-0.061411	-0.001454
1601	8.0000e-01	-15.9846	-38.378086	0.000325	3.251909	1.101777	0.026085
1602	8.0050e-01	-15.9364	-38.314369	0.000159	1.588638	0.538245	0.012743
1603	8.0100e-01	-15.8915	-38.374665	-0.000150	-1.503342	-0.509346	-0.012059
1604	8.0150e-01	-15.8578	-38.162135	0.000530	5.299013	1.795354	0.042506
1605	8.0200e-01	-15.8001	-38.071906	0.000225	2.249682	0.762213	0.018046
1606	8.0250e-01	-15.7824	-38.042400	0.000074	0.735678	0.249254	0.005901
1607	8.0300e-01	-15.7359	-37.964144	0.000195	1.951146	0.661066	0.015651
1608	8.0350e-01	-15.6862	-37.905560	0.000146	1.460694	0.494896	0.011717
1609	8.0400e-01	-15.6413	-37.788390	0.000292	2.921387	0.989793	0.023434
1610	8.0450e-01	-15.6012	-37.774706	0.000034	0.341184	0.115596	0.002737
1611	8.0500e-01	-15.5691	-37.655826	0.000296	2.964035	1.004242	0.023776
1612	8.0550e-01	-15.5306	-37.503592	0.000380	3.795671	1.286008	0.030447
1613	8.0600e-01	-15.4985	-37.359910	0.000358	3.582431	1.213761	0.028736
1614	8.0650e-01	-15.4584	-37.282082	0.000194	1.940484	0.657454	0.015566
1615	8.0700e-01	-15.4119	-37.208958	0.000182	1.823202	0.617717	0.014625
1616	8.0750e-01	-15.3589	-37.214090	-0.000013	-0.127944	-0.043349	-0.001026
1617	8.0800e-01	-15.3365	-37.092644	0.000303	3.028007	1.025917	0.024289
1618	8.0850e-01	-15.2932	-37.069125	0.000059	0.586410	0.198681	0.004704
1619	8.0900e-01	-15.2370	-37.023369	0.000114	1.140834	0.386525	0.009151
1620	8.0950e-01	-15.2065	-36.951955	0.000178	1.780554	0.603268	0.014283
1621	8.1000e-01	-15.1825	-36.705215	0.000615	6.151973	2.084345	0.049348
1622	8.1050e-01	-15.1311	-36.784754	-0.000198	-1.983132	-0.671903	-0.015908
1623	8.1100e-01	-15.0942	-36.618835	0.000414	4.136855	1.401604	0.033184
1624	8.1150e-01	-15.0557	-36.511074	0.000269	2.686824	0.910320	0.021552
1625	8.1200e-01	-15.0012	-36.495679	0.000038	0.383832	0.130046	0.003079
1626	8.1250e-01	-14.9595	-36.356701	0.000347	3.465149	1.174024	0.027796
1627	8.1300e-01	-14.9290	-36.363970	-0.000018	-0.181254	-0.061411	-0.001454
1628	8.1350e-01	-14.9017	-36.247656	0.000290	2.900063	0.982568	0.023263
1629	8.1400e-01	-14.8504	-36.094139	0.000383	3.827657	1.296845	0.030703
1630	8.1450e-01	-14.8167	-36.083021	0.000028	0.277212	0.093922	0.002224
1631	8.1500e-01	-14.7750	-35.949602	0.000333	3.326543	1.127063	0.026684
1632	8.1550e-01	-14.7236	-35.879471	0.000175	1.748568	0.592431	0.014026
1633	8.1600e-01	-14.6819	-35.848254	0.000078	0.778326	0.263704	0.006243
1634	8.1650e-01	-14.6691	-35.655823	0.000480	4.797899	1.625572	0.038486
1635	8.1700e-01	-14.6258	-35.595955	0.000149	1.492680	0.505734	0.011974
1636	8.1750e-01	-14.5632	-35.616482	-0.000051	-0.511776	-0.173394	-0.004105
1637	8.1800e-01	-14.5295	-35.480497	0.000339	3.390515	1.148738	0.027197
1638	8.1850e-01	-14.4975	-35.420201	0.000150	1.503342	0.509346	0.012059
1639	8.1900e-01	-14.4590	-35.235895	0.000460	4.595321	1.556937	0.036861
1640	8.1950e-01	-14.3932	-35.244875	-0.000022	-0.223902	-0.075860	-0.001796
1641	8.2000e-01	-14.3739	-35.305598	-0.000151	-1.514004	-0.512958	-0.012145
1642	8.2050e-01	-14.3210	-35.112739	0.000481	4.808561	1.629185	0.038572
1643	8.2100e-01	-14.2841	-34.995997	0.000291	2.910725	0.986180	0.023348
1644	8.2150e-01	-14.2520	-34.844618	0.000377	3.774347	1.278783	0.030276
1645	8.2200e-01	-14.2039	-34.842480	0.000005	0.053310	0.018062	0.000428
1646	8.2250e-01	-14.1606	-34.857019	-0.000036	-0.362508	-0.122821	-0.002908
1647	8.2300e-01	-14.1654	-34.733008	-0.000309	-3.091979	-1.047591	0.024802
1648	8.2350e-01	-14.0595	-34.544425	0.000470	4.701941	1.593061	0.037717
1649	8.2400e-01	-14.0691	-34.512353	-0.000080	-0.799650	-0.270929	0.006414
1650	8.2450e-01	-14.0114	-34.275449	0.000591	5.906747	2.001260	0.047381
1651	8.2500e-01	-13.9713	-34.433670	-0.000394	-3.944939	-1.336582	-0.031644
1652	8.2550e-01	-13.9231	-34.284429	0.000372	3.721037	1.260722	0.029848
1653	8.2600e-01	-13.9023	-34.117655	0.000416	4.158179	1.408829	0.033355
1654	8.2650e-01	-13.8413	-34.112523	0.000013	0.127944	0.043349	0.001026
1655	8.2700e-01	-13.8189	-34.012031	0.000251	2.505570	0.848910	0.020098
1656	8.2750e-01	-13.7707	-33.913678	0.000245	2.452260	0.830848	0.019671
1657	8.2800e-01	-13.7258	-33.767430	0.000365	3.646403	1.235435	0.029250
1658	8.2850e-01	-13.6953	-33.725095	0.000106	1.055538	0.357626	0.008467
1659	8.2900e-01	-13.6456	-33.688319	0.000092	0.916932	0.310665	0.007355
1660	8.2950e-01	-13.5991	-33.571150	0.000292	2.921387	0.989793	0.023434
1661	8.3000e-01	-13.5782	-33.602366	-0.000078	-0.778326	-0.263704	-0.006243
1662	8.3050e-01	-13.5285	-33.358192	0.000609	6.088001	2.062671	0.048835
1663	8.3100e-01	-13.4868	-33.370594	-0.000031	-0.309198	-0.104759	-0.002480
1664	8.3150e-01	-13.4403	-33.256845	0.000284	2.836091	0.960894	0.022750
1665	8.3200e-01	-13.4066	-33.137965	0.000296	2.964035	1.004242	0.023776
1666	8.3250e-01	-13.3601	-32.996421	0.000353	3.529121	1.195699	0.028309
1667	8.3300e-01	-13.3536	-33.023789	-0.000068	-0.682368	-0.231192	-0.005474
1668	8.3350e-01	-13.2991	-32.826654	0.000492	4.915181	1.665308	0.039427
1669	8.3400e-01	-13.2494	-32.752247	0.000186	1.855188	0.628555	0.014881
1670	8.3450e-01	-13.1996	-32.805273	-0.000132	-1.322088	-0.447935	-0.010605
1671	8.3500e-01	-13.1756	-32.673564	0.000328	3.283895	1.112614	0.026342
1672	8.3550e-01	-13.1306	-32.679123	-0.000014	-0.138606	-0.046961	-0.001112
1673	8.3600e-01	-13.0697	-32.575211	0.000259	2.590866	0.877809	0.020783
1674	8.3650e-01	-13.0376	-32.541428	0.000084	0.842298	0.285378	0.006756
1675	8.3700e-01	-12.9975	-32.357122	0.000460	4.595321	1.556937	0.036861
1676	8.3750e-01	-12.9542	-32.223703	0.000333	3.326543	1.127063	0.026684
1677	8.3800e-01	-12.9205	-32.078738	0.000361	3.614417	1.224598	0.028993
1678	8.3850e-01	-12.8932	-32.000482	0.000195	1.951146	0.661066	0.015651
1679	8.3900e-01	-12.8916	-31.849958	0.000375	3.753023	1.271559	0.030105
1680	8.3950e-01	-12.8002	-31.786242	0.000159	1.588638	0.538245	0.012743
1681	8.4000e-01	-12.7777	-31.844399	-0.000145	-1.450032	-0.491284	-0.011631
1682	8.4050e-01	-12.7440	-31.780683	0.000159	1.588638	0.538245	0.012743
1683	8.4100e-01	-12.7039	-31.711835	0.000172	1.716582	0.581594	0.013770
1684	8.4150e-01	-12.6381	-31.560883	0.000376	3.763685	1.275171	0.030190
1685	8.4200e-01	-12.6061	-31.498450	0.000156	1.556652	0.527408	0.012487
1686	8.4250e-01	-12.5740	-31.380426	0.000294	2.942711	0.997018	0.023605
1687	8.4300e-01	-12.5355	-31.351347	0.000073	0.725016	0.245642	0.005816
1688	8.4350e-01	-12.4906	-31.241447	0.000274	2.740133	0.928382	0.021980
1689	8.4400e-01	-12.4537	-31.078094	0.000407	4.072883	1.379930	0.032671
1690	8.4450e-01	-12.4200	-31.060562	0.000044	0.437142	0.148108	0.003507
1691	8.4500e-01	-12.3686	-31.005398	0.000138	1.375398	0.465997	0.011033
1692	8.4550e-01	-12.3173	-30.967767	0.000094	0.938256	0.317890	0.007526
1693	8.4600e-01	-12.2997	-30.921584	0.000115	1.151496	0.390137	0.009237
1694	8.4650e-01	-12.2483	-30.701784	0.000548	5.480267	1.856765	0.043960
1695	8.4700e-01	-12.2114	-30.511491	0.000474	4.744589	1.607510	0.038059
1696	8.4750e-01	-12.1841	-30.480274	0.000078	0.778326	0.263704	0.006243
1697	8.4800e-01	-12.1392	-30.487544	-0.000018	-0.181254	-0.061411	-0.001454
1698	8.4850e-01	-12.0686	-30.260903	0.000565	5.650859	1.914563	0.045328
1699	8.4900e-01	-12.0446	-30.323336	-0.000156	-1.556652	-0.527408	-0.012487
1700	8.4950e-01	-12.0109	-30.150148	0.000432	4.318109	1.463015	0.034638
1701	8.5000e-01	-11.9547	-30.126201	0.000060	0.597072	0.202293	0.004789
1702	8.5050e-01	-11.9339	-30.077451	0.000122	1.215468	0.411812	0.009750
1703	8.5100e-01	-11.8569	-30.144161	-0.000166	-1.663272	-0.563532	-0.013342
1704	8.5150e-01	-11.8344	-29.908112	0.000589	5.885423	1.994035	0.047210
1705	8.5200e-01	-11.7991	-29.829429	0.000196	1.961808	0.664678	0.015737
1706	8.5250e-01	-11.7719	-29.693871	0.000338	3.379853	1.145125	0.027111
1707	8.5300e-01	-11.7109	-29.690878	0.000007	0.074634	0.025287	0.000599
1708	8.5350e-01	-11.6933	-29.547196	0.000358	3.582431	1.213761	0.028736
1709	8.5400e-01	-11.6467	-29.479631	0.000168	1.684596	0.570756	0.013513
1710	8.5450e-01	-11.6098	-29.303022	0.000440	4.403405	1.491914	0.035322
1711	8.5500e-01	-11.5777	-29.198681	0.000260	2.601528	0.881421	0.020868
1712	8.5550e-01	-11.5216	-29.149932	0.000122	1.215468	0.411812	0.009750
1713	8.5600e-01	-11.4831	-29.084933	0.000162	1.620624	0.549082	0.013000
1714	8.5650e-01	-11.4510	-28.971612	0.000283	2.825429	0.957281	0.022664
1715	8.5700e-01	-11.4253	-28.853160	0.000295	2.953373	1.000630	0.023690
1716	8.5750e-01	-11.3676	-28.754806	0.000245	2.452260	0.830848	0.019671
1717	8.5800e-01	-11.3355	-28.704347	0.000126	1.258116	0.426261	0.010092
1718	8.5850e-01	-11.2906	-28.635071	0.000173	1.727244	0.585206	0.013855
1719	8.5900e-01	-11.2505	-28.522178	0.000281	2.814767	0.953669	0.022579
1720	8.5950e-01	-11.1959	-28.558526	-0.000091	-0.906270	-0.307053	-0.007270
1721	8.6000e-01	-11.1639	-28.539283	0.000048	0.479790	0.162557	0.003849
1722	8.6050e-01	-11.1350	-28.298103	0.000601	6.013367	2.037384	0.048236
1723	8.6100e-01	-11.0917	-28.161262	0.000341	3.411839	1.155962	0.027368
1724	8.6150e-01	-11.0451	-28.125770	0.000088	0.884946	0.299828	0.007099
1725	8.6200e-01	-11.0098	-28.034685	0.000227	2.271006	0.769438	0.018217
1726	8.6250e-01	-10.9842	-27.928207	0.000265	2.654838	0.899483	0.021296
1727	8.6300e-01	-10.9345	-27.833702	0.000236	2.356302	0.798337	0.018901
1728	8.6350e-01	-10.8783	-27.700710	0.000332	3.315881	1.123451	0.026598
1729	8.6400e-01	-10.8510	-27.806761	-0.000264	-2.644176	-0.895871	-0.021210
1730	8.6450e-01	-10.8093	-27.670776	0.000339	3.390515	1.148738	0.027197
1731	8.6500e-01	-10.7596	-27.562159	0.000271	2.708147	0.917545	0.021723
1732	8.6550e-01	-10.7291	-27.490746	0.000178	1.780554	0.603268	0.014283
1733	8.6600e-01	-10.7034	-27.284203	0.000515	5.149745	1.744781	0.041309
1734	8.6650e-01	-10.6489	-27.140949	0.000357	3.571769	1.210148	0.028651
1735	8.6700e-01	-10.6072	-27.265815	-0.000311	-3.113303	-1.054816	-0.024973
1736	8.6750e-01	-10.5623	-27.152922	0.000281	2.814767	0.953669	0.022579
1737	8.6800e-01	-10.5478	-27.025062	0.000319	3.187937	1.080102	0.025572
1738	8.6850e-01	-10.4949	-26.864275	0.000401	4.008911	1.358256	0.032157
1739	8.6900e-01	-10.4420	-26.776184	0.000220	2.196372	0.744151	0.017618
1740	8.6950e-01	-10.4291	-26.744968	0.000078	0.778326	0.263704	0.006243
1741	8.7000e-01	-10.3633	-26.599575	0.000363	3.625079	1.228210	0.029079
1742	8.7050e-01	-10.3281	-26.587174	0.000031	0.309198	0.104759	0.002480
1743	8.7100e-01	-10.2719	-26.595299	-0.000020	-0.202578	-0.068635	-0.001625
1744	8.7150e-01	-10.2559	-26.332309	0.000656	6.557129	2.221615	0.052598
1745	8.7200e-01	-10.1997	-26.394742	-0.000156	-1.556652	-0.527408	-0.012487
1746	8.7250e-01	-10.1692	-26.231390	0.000407	4.072883	1.379930	0.032671
1747	8.7300e-01	-10.1420	-26.107806	0.000308	3.081317	1.043979	0.024717
1748	8.7350e-01	-10.0986	-26.028268	0.000198	1.983132	0.671903	0.015908
1749	8.7400e-01	-10.0393	-25.950440	0.000194	1.940484	0.657454	0.015566
1750	8.7450e-01	-10.0120	-25.823863	0.000316	3.155951	1.069265	0.025315
1751	8.7500e-01	-9.9799	-25.763140	0.000151	1.514004	0.512958	0.012145
1752	8.7550e-01	-9.9286	-25.636563	0.000316	3.155951	1.069265	0.025315
1753	8.7600e-01	-9.8949	-25.563011	0.000183	1.833864	0.621330	0.014710
1754	8.7650e-01	-9.8388	-25.541202	0.000054	0.543762	0.184232	0.004362
1755	8.7700e-01	-9.8147	-25.439855	0.000253	2.526894	0.856135	0.020269
1756	8.7750e-01	-9.7634	-25.431303	0.000021	0.213240	0.072248	0.001711
1757	8.7800e-01	-9.7200	-25.124268	0.000766	7.655315	2.593691	0.061407
1758	8.7850e-01	-9.7152	-25.164465	-0.000100	-1.002228	-0.339564	-0.008039
1759	8.7900e-01	-9.6495	-24.903185	0.000651	6.514481	2.207166	0.052256
1760	8.7950e-01	-9.6174	-24.956211	-0.000132	-1.322088	-0.447935	-0.010605
1761	8.8000e-01	-9.5612	-24.824930	0.000327	3.273233	1.109001	0.026256
1762	8.8050e-01	-9.5452	-24.854436	-0.000074	-0.735678	-0.249254	-0.005901
1763	8.8100e-01	-9.4746	-24.783450	0.000177	1.769892	0.599656	0.014197
1764	8.8150e-01	-9.4570	-24.564506	0.000546	5.458943	1.849540	0.043789
1765	8.8200e-01	-9.4120	-24.498224	0.000165	1.652610	0.559919	0.013256
1766	8.8250e-01	-9.3623	-24.617104	-0.000296	-2.964035	-1.004242	-0.023776
1767	8.8300e-01	-9.3398	-24.385331	0.000578	5.778803	1.957911	0.046355
1768	8.8350e-01	-9.2869	-24.280135	0.000262	2.622852	0.888646	0.021039
1769	8.8400e-01	-9.2436	-24.246781	0.000083	0.831636	0.281766	0.006671
1770	8.8450e-01	-9.1987	-24.191189	0.000139	1.386060	0.469610	0.011118
1771	8.8500e-01	-9.1489	-24.175795	0.000038	0.383832	0.130046	0.003079
1772	8.8550e-01	-9.1008	-24.089842	0.000214	2.143062	0.726089	0.017191
1773	8.8600e-01	-9.0671	-24.017574	0.000180	1.801878	0.610493	0.014454
1774	8.8650e-01	-9.0366	-23.802478	0.000536	5.362985	1.817029	0.043019
1775	8.8700e-01	-9.0062	-23.819155	-0.000042	-0.415818	-0.140883	-0.003335
1776	8.8750e-01	-8.9725	-23.616889	0.000504	5.043125	1.708657	0.040453
1777	8.8800e-01	-8.9356	-23.395806	0.000551	5.512253	1.867602	0.044216
1778	8.8850e-01	-8.8923	-23.292749	0.000257	2.569542	0.870584	0.020612
1779	8.8900e-01	-8.8746	-23.185842	0.000267	2.665500	0.903096	0.021381
1780	8.8950e-01	-8.8088	-23.198244	-0.000031	-0.309198	-0.104759	-0.002480
1781	8.9000e-01	-8.7607	-23.251697	-0.000133	-1.332750	-0.451548	-0.010691
1782	8.9050e-01	-8.7511	-23.071666	0.000449	4.488701	1.520813	0.036006
1783	8.9100e-01	-8.7030	-22.867262	0.000510	5.096435	1.726719	0.040881
1784	8.9150e-01	-8.6420	-22.849729	0.000044	0.437142	0.148108	0.003507
1785	8.9200e-01	-8.6179	-22.766770	0.000207	2.068428	0.700802	0.016592
1786	8.9250e-01	-8.5698	-22.644041	0.000306	3.059993	1.036754	0.024546
1787	8.9300e-01	-8.5297	-22.633351	0.000027	0.266550	0.090310	0.002138
1788	8.9350e-01	-8.4720	-22.588878	0.000111	1.108848	0.375688	0.008895
1789	8.9400e-01	-8.4575	-22.481971	0.000267	2.665500	0.903096	0.021381
1790	8.9450e-01	-8.4078	-22.387466	0.000236	2.356302	0.798337	0.018901
1791	8.9500e-01	-8.3532	-22.378058	0.000023	0.234564	0.079472	0.001882
1792	8.9550e-01	-8.3244	-22.146285	0.000578	5.778803	1.957911	0.046355
1793	8.9600e-01	-8.2602	-22.018853	0.000318	3.177275	1.076490	0.025486
1794	8.9650e-01	-8.2297	-21.982505	0.000091	0.906270	0.307053	0.007270
1795	8.9700e-01	-8.2089	-21.933756	0.000122	1.215468	0.411812	0.009750
1796	8.9750e-01	-8.1607	-21.961551	-0.000069	-0.693030	-0.234805	-0.005559
1797	8.9800e-01	-8.1046	-21.797343	0.000409	4.094207	1.387155	0.032842
1798	8.9850e-01	-8.0741	-21.705404	0.000229	2.292330	0.776662	0.018388
1799	8.9900e-01	-8.0613	-21.557445	0.000369	3.689051	1.249884	0.029592
1800	8.9950e-01	-8.0164	-21.454388	0.000257	2.569542	0.870584	0.020612
1801	9.0000e-01	-7.9650	-21.355179	0.000247	2.473584	0.838073	0.019842
1802	9.0050e-01	-7.9281	-21.311988	0.000108	1.076862	0.364851	0.008638
1803	9.0100e-01	-7.8880	-21.146925	0.000412	4.115531	1.394380	0.033013
1804	9.0150e-01	-7.8495	-21.131103	0.000039	0.394494	0.133658	0.003164
1805	9.0200e-01	-7.7918	-20.971171	0.000399	3.987587	1.351031	0.031986
1806	9.0250e-01	-7.7549	-20.899330	0.000179	1.791216	0.606880	0.014368
1807	9.0300e-01	-7.7099	-20.840745	0.000146	1.460694	0.494896	0.011717
1808	9.0350e-01	-7.6698	-20.779167	0.000154	1.535328	0.520183	0.012316
1809	9.0400e-01	-7.6137	-20.808673	-0.000074	-0.735678	-0.249254	-0.005901
1810	9.0450e-01	-7.5912	-20.576045	0.000580	5.800127	1.965136	0.046526
1811	9.0500e-01	-7.5447	-20.569631	0.000016	0.159930	0.054186	0.001283
1812	9.0550e-01	-7.5287	-20.499928	0.000174	1.737906	0.588818	0.013941
1813	9.0600e-01	-7.4773	-20.311345	0.000470	4.701941	1.593061	0.037717
1814	9.0650e-01	-7.4388	-20.175788	0.000338	3.379853	1.145125	0.027111
1815	9.0700e-01	-7.3891	-20.140295	0.000088	0.884946	0.299828	0.007099
1816	9.0750e-01	-7.3602	-20.017994	0.000305	3.049331	1.033141	0.024460
1817	9.0800e-01	-7.3346	-19.913654	0.000260	2.601528	0.881421	0.020868
1818	9.0850e-01	-7.2688	-19.868326	0.000113	1.130172	0.382913	0.009066
1819	9.0900e-01	-7.2399	-19.740893	0.000318	3.177275	1.076490	0.025486
1820	9.0950e-01	-7.2062	-19.622013	0.000296	2.964035	1.004242	0.023776
1821	9.1000e-01	-7.1725	-19.625862	-0.000010	-0.095958	-0.032511	-0.000770
1822	9.1050e-01	-7.1068	-19.520666	0.000262	2.622852	0.888646	0.021039
1823	9.1100e-01	-7.0779	-19.457805	0.000157	1.567314	0.531020	0.012572
1824	9.1150e-01	-7.0362	-19.292314	0.000413	4.126193	1.397992	0.033098
1825	9.1200e-01	-7.0057	-19.327807	-0.000088	-0.884946	-0.299828	-0.007099
1826	9.1250e-01	-6.9495	-19.171296	0.000390	3.902291	1.322132	0.031302
1827	9.1300e-01	-6.9142	-19.148205	0.000058	0.575748	0.195069	0.004618
1828	9.1350e-01	-6.8757	-19.010082	0.000344	3.443825	1.166800	0.027625
1829	9.1400e-01	-6.8549	-18.807387	0.000505	5.053787	1.712269	0.040539
1830	9.1450e-01	-6.8052	-18.702191	0.000262	2.622852	0.888646	0.021039
1831	9.1500e-01	-6.7747	-18.754789	-0.000131	-1.311426	-0.444323	-0.010520
1832	9.1550e-01	-6.7073	-18.567489	0.000467	4.669955	1.582224	0.037460
1833	9.1600e-01	-6.6528	-18.467425	0.000249	2.494908	0.845298	0.020013
1834	9.1650e-01	-6.6255	-18.453741	0.000034	0.341184	0.115596	0.002737
1835	9.1700e-01	-6.6014	-18.413117	0.000101	1.012890	0.343176	0.008125
1836	9.1750e-01	-6.5661	-18.242922	0.000424	4.243475	1.437728	0.034039
1837	9.1800e-01	-6.5100	-18.187758	0.000138	1.375398	0.465997	0.011033
1838	9.1850e-01	-6.4683	-18.042793	0.000361	3.614417	1.224598	0.028993
1839	9.1900e-01	-6.4442	-17.850789	0.000479	4.787237	1.621960	0.038401
1840	9.1950e-01	-6.4105	-17.623293	0.000567	5.672183	1.921788	0.045499
1841	9.2000e-01	-6.3447	-17.813158	-0.000473	-4.733927	-1.603898	-0.037973
1842	9.2050e-01	-6.3078	-17.666483	0.000366	3.657065	1.239047	0.029335
1843	9.2100e-01	-6.2838	-17.625859	0.000101	1.012890	0.343176	0.008125
1844	9.2150e-01	-6.2437	-17.592076	0.000084	0.842298	0.285378	0.006756
1845	9.2200e-01	-6.1859	-17.364152	0.000568	5.682845	1.925400	0.045585
1846	9.2250e-01	-6.1586	-17.376125	-0.000030	-0.298536	-0.101147	-0.002395
1847	9.2300e-01	-6.1153	-17.273495	0.000256	2.558880	0.866972	0.020526
1848	9.2350e-01	-6.1025	-17.242706	0.000077	0.767664	0.260092	0.006158
1849	9.2400e-01	-6.0431	-17.082774	0.000399	3.987587	1.351031	0.031986
1850	9.2450e-01	-6.0095	-16.910014	0.000431	4.307447	1.459403	0.034552
1851	9.2500e-01	-5.9694	-16.780871	0.000322	3.219923	1.090940	0.025829
1852	9.2550e-01	-5.8923	-16.745806	0.000087	0.874284	0.296215	0.007013
1853	9.2600e-01	-5.8843	-16.735543	0.000026	0.255888	0.086697	0.002053
1854	9.2650e-01	-5.8266	-16.605545	0.000324	3.241247	1.098164	0.026000
1855	9.2700e-01	-5.7929	-16.407127	0.000495	4.947167	1.676146	0.039684
1856	9.2750e-01	-5.7255	-16.428935	-0.000054	-0.543762	-0.184232	-0.004362
1857	9.2800e-01	-5.7239	-16.346831	0.000205	2.047104	0.693577	0.016421
1858	9.2850e-01	-5.6662	-16.230517	0.000290	2.900063	0.982568	0.023263
1859	9.2900e-01	-5.6309	-16.031244	0.000497	4.968491	1.683370	0.039855
1860	9.2950e-01	-5.5924	-16.027395	0.000010	0.095958	0.032511	0.000770
1861	9.3000e-01	-5.5506	-15.969666	0.000144	1.439370	0.487672	0.011546
1862	9.3050e-01	-5.5186	-15.870029	0.000248	2.484246	0.841685	0.019927
1863	9.3100e-01	-5.4688	-15.754570	0.000288	2.878739	0.975343	0.023092
1864	9.3150e-01	-5.4367	-15.666052	0.000221	2.207034	0.747763	0.017704
1865	9.3200e-01	-5.3998	-15.543751	0.000305	3.049331	1.033141	0.024460
1866	9.3250e-01	-5.3517	-15.404345	0.000348	3.475811	1.177637	0.027881
1867	9.3300e-01	-5.3068	-15.335925	0.000171	1.705920	0.577981	0.013684
1868	9.3350e-01	-5.2731	-15.271781	0.000160	1.599300	0.541857	0.012829
1869	9.3400e-01	-5.2507	-15.249117	0.000057	0.565086	0.191456	0.004533
1870	9.3450e-01	-5.2041	-15.202079	0.000117	1.172820	0.397362	0.009408
1871	9.3500e-01	-5.1384	-15.088758	0.000283	2.825429	0.957281	0.022664
1872	9.3550e-01	-5.0999	-14.993397	0.000238	2.377626	0.805561	0.019072
1873	9.3600e-01	-5.0822	-14.688928	0.000759	7.591343	2.572016	0.060894
1874	9.3650e-01	-5.0485	-14.780440	-0.000228	-2.281668	-0.773050	-0.018302
1875	9.3700e-01	-4.9972	-14.554654	0.000563	5.629535	1.907338	0.045157
1876	9.3750e-01	-4.9475	-14.535411	0.000048	0.479790	0.162557	0.003849
1877	9.3800e-01	-4.9282	-14.407978	0.000318	3.177275	1.076490	0.025486
1878	9.3850e-01	-4.8833	-14.472977	-0.000162	-1.620624	-0.549082	-0.013000
1879	9.3900e-01	-4.8368	-14.181337	0.000727	7.271483	2.463645	0.058328
1880	9.3950e-01	-4.7999	-14.229231	-0.000119	-1.194144	-0.404587	-0.009579
1881	9.4000e-01	-4.7453	-14.087259	0.000354	3.539783	1.199311	0.028394
1882	9.4050e-01	-4.7180	-14.031668	0.000139	1.386060	0.469610	0.011118
1883	9.4100e-01	-4.6812	-13.962820	0.000172	1.716582	0.581594	0.013770
1884	9.4150e-01	-4.6346	-13.832822	0.000324	3.241247	1.098164	0.026000
1885	9.4200e-01	-4.5977	-13.797757	0.000087	0.874284	0.296215	0.007013
1886	9.4250e-01	-4.5608	-13.622431	0.000437	4.371419	1.481077	0.035065
1887	9.4300e-01	-4.5127	-13.597201	0.000063	0.629058	0.213131	0.005046
1888	9.4350e-01	-4.4790	-13.488584	0.000271	2.708147	0.917545	0.021723
1889	9.4400e-01	-4.4485	-13.394934	0.000233	2.334978	0.791112	0.018730
1890	9.4450e-01	-4.4036	-13.164016	0.000576	5.757479	1.950687	0.046184
1891	9.4500e-01	-4.3523	-13.143063	0.000052	0.522438	0.177007	0.004191
1892	9.4550e-01	-4.3009	-13.082768	0.000150	1.503342	0.509346	0.012059
1893	9.4600e-01	-4.2592	-13.026321	0.000141	1.407384	0.476835	0.011289
1894	9.4650e-01	-4.2223	-12.845863	0.000450	4.499363	1.524426	0.036092
1895	9.4700e-01	-4.1822	-12.726128	0.000299	2.985359	1.011467	0.023947
1896	9.4750e-01	-4.1453	-12.635044	0.000227	2.271006	0.769438	0.018217
1897	9.4800e-01	-4.1277	-12.568762	0.000165	1.652610	0.559919	0.013256
1898	9.4850e-01	-4.0892	-12.606393	-0.000094	-0.938256	-0.317890	-0.007526
1899	9.4900e-01	-4.0186	-12.445606	0.000401	4.008911	1.358256	0.032157
1900	9.4950e-01	-3.9994	-12.403271	0.000106	1.055538	0.357626	0.008467
1901	9.5000e-01	-3.9400	-12.233931	0.000422	4.222151	1.430504	0.033868
1902	9.5050e-01	-3.9272	-11.992323	0.000602	6.024029	2.040996	0.048322
1903	9.5100e-01	-3.8806	-11.949561	0.000107	1.066200	0.361238	0.008553
1904	9.5150e-01	-3.8261	-11.971797	-0.000055	-0.554424	-0.187844	-0.004447
1905	9.5200e-01	-3.7780	-11.806306	0.000413	4.126193	1.397992	0.033098
1906	9.5250e-01	-3.7539	-11.707525	0.000246	2.462922	0.834460	0.019756
1907	9.5300e-01	-3.6962	-11.771241	-0.000159	-1.588638	-0.538245	-0.012743
1908	9.5350e-01	-3.6673	-11.586934	0.000460	4.595321	1.556937	0.036861
1909	9.5400e-01	-3.6272	-11.392365	0.000485	4.851209	1.643634	0.038914
1910	9.5450e-01	-3.5903	-11.376543	0.000039	0.394494	0.133658	0.003164
1911	9.5500e-01	-3.5646	-11.181973	0.000485	4.851209	1.643634	0.038914
1912	9.5550e-01	-3.4940	-11.175131	0.000017	0.170592	0.057798	0.001368
1913	9.5600e-01	-3.4635	-11.206348	-0.000078	-0.778326	-0.263704	-0.006243
1914	9.5650e-01	-3.4298	-11.001088	0.000512	5.117759	1.733944	0.041052
1915	9.5700e-01	-3.3994	-10.833031	0.000419	4.190165	1.419666	0.033611
1916	9.5750e-01	-3.3480	-10.850564	-0.000044	-0.437142	-0.148108	-0.003507
1917	9.5800e-01	-3.3192	-10.737243	0.000283	2.825429	0.957281	0.022664
1918	9.5850e-01	-3.2742	-10.492641	0.000610	6.098663	2.066283	0.048920
1919	9.5900e-01	-3.2357	-10.430208	0.000156	1.556652	0.527408	0.012487
1920	9.5950e-01	-3.1908	-10.378893	0.000128	1.279440	0.433486	0.010263
1921	9.6000e-01	-3.1619	-10.339124	0.000099	0.991566	0.335952	0.007954
1922	9.6050e-01	-3.1186	-10.250178	0.000222	2.217696	0.751376	0.017789
1923	9.6100e-01	-3.0641	-10.065871	0.000460	4.595321	1.556937	0.036861
1924	9.6150e-01	-3.0240	-10.090246	-0.000061	-0.607734	-0.205906	-0.004875
1925	9.6200e-01	-2.9887	-9.919623	0.000425	4.254137	1.441341	0.034124
1926	9.6250e-01	-2.9534	-9.892683	0.000067	0.671706	0.227580	0.005388
1927	9.6300e-01	-2.9213	-9.629266	0.000657	6.567791	2.225228	0.052683
1928	9.6350e-01	-2.8571	-9.738310	-0.000272	-2.718809	-0.921158	-0.021809
1929	9.6400e-01	-2.8234	-9.643805	0.000236	2.356302	0.798337	0.018901
1930	9.6450e-01	-2.8042	-9.364566	0.000696	6.962285	2.358886	0.055848
1931	9.6500e-01	-2.7529	-9.277330	0.000218	2.175048	0.736926	0.017447
1932	9.6550e-01	-2.7176	-9.181115	0.000240	2.398950	0.812786	0.019243
1933	9.6600e-01	-2.6807	-9.195226	-0.000035	-0.351846	-0.119209	-0.002822
1934	9.6650e-01	-2.6261	-9.045557	0.000373	3.731699	1.264334	0.029934
1935	9.6700e-01	-2.6117	-9.034439	0.000028	0.277212	0.093922	0.002224
1936	9.6750e-01	-2.5427	-8.618787	0.001036	10.363462	3.511236	0.083130
1937	9.6800e-01	-2.5026	-8.798818	-0.000449	-4.488701	-1.520813	-0.036006
1938	9.6850e-01	-2.4737	-8.531552	0.000666	6.663749	2.257739	0.053453
1939	9.6900e-01	-2.4224	-8.593130	-0.000154	-1.535328	-0.520183	-0.012316
1940	9.6950e-01	-2.3807	-8.570893	0.000055	0.554424	0.187844	0.004447
1941	9.7000e-01	-2.3358	-8.499052	0.000179	1.791216	0.606880	0.014368
1942	9.7050e-01	-2.3101	-8.303200	0.000488	4.883195	1.654471	0.039170
1943	9.7100e-01	-2.2748	-8.161656	0.000353	3.529121	1.195699	0.028309
1944	9.7150e-01	-2.2251	-8.082545	0.000197	1.972470	0.668291	0.015822
1945	9.7200e-01	-2.1834	-8.171491	-0.000222	-2.217696	-0.751376	-0.017789
1946	9.7250e-01	-2.1449	-7.930738	0.000600	6.002705	2.033771	0.048151
1947	9.7300e-01	-2.0887	-7.862318	0.000171	1.705920	0.577981	0.013684
1948	9.7350e-01	-2.0550	-7.811859	0.000126	1.258116	0.426261	0.010092
1949	9.7400e-01	-2.0406	-7.674591	0.000342	3.422501	1.159575	0.027454
1950	9.7450e-01	-1.9796	-7.626697	0.000119	1.194144	0.404587	0.009579
1951	9.7500e-01	-1.9491	-7.464627	0.000404	4.040897	1.369093	0.032414
1952	9.7550e-01	-1.9026	-7.410746	0.000134	1.343412	0.455160	0.010776
1953	9.7600e-01	-1.8673	-7.322655	0.000220	2.196372	0.744151	0.017618
1954	9.7650e-01	-1.8449	-7.152888	0.000423	4.232813	1.434116	0.033953
1955	9.7700e-01	-1.7807	-7.226012	-0.000182	-1.823202	-0.617717	-0.014625
1956	9.7750e-01	-1.7454	-7.012199	0.000533	5.330999	1.806191	0.042763
1957	9.7800e-01	-1.7149	-6.832597	0.000448	4.478039	1.517201	0.035921
1958	9.7850e-01	-1.6524	-6.973285	-0.000351	-3.507797	-1.188474	-0.028138
1959	9.7900e-01	-1.6267	-6.664540	0.000770	7.697963	2.608140	0.061749
1960	9.7950e-01	-1.5850	-6.513161	0.000377	3.774347	1.278783	0.030276
1961	9.8000e-01	-1.5577	-6.554213	-0.000102	-1.023552	-0.346789	-0.008210
1962	9.8050e-01	-1.4935	-6.428063	0.000315	3.145289	1.065653	0.025230
1963	9.8100e-01	-1.4823	-6.329709	0.000245	2.452260	0.830848	0.019671
1964	9.8150e-01	-1.4069	-6.335696	-0.000015	-0.149268	-0.050573	-0.001197
1965	9.8200e-01	-1.3700	-6.033793	0.000753	7.527371	2.550342	0.060381
1966	9.8250e-01	-1.3443	-5.898235	0.000338	3.379853	1.145125	0.027111
1967	9.8300e-01	-1.3010	-5.947840	-0.000124	-1.236792	-0.419036	-0.009921
1968	9.8350e-01	-1.2786	-5.773796	0.000434	4.339433	1.470240	0.034809
1969	9.8400e-01	-1.2321	-5.765672	0.000020	0.202578	0.068635	0.001625
1970	9.8450e-01	-1.1855	-5.670311	0.000238	2.377626	0.805561	0.019072
1971	9.8500e-01	-1.1374	-5.381664	0.000720	7.196849	2.438358	0.057729
1972	9.8550e-01	-1.0861	-5.321369	0.000150	1.503342	0.509346	0.012059
1973	9.8600e-01	-1.0668	-5.436828	-0.000288	-2.878739	-0.975343	-0.023092
1974	9.8650e-01	-1.0283	-5.370546	0.000165	1.652610	0.559919	0.013256
1975	9.8700e-01	-0.9914	-5.287587	0.000207	2.068428	0.700802	0.016592
1976	9.8750e-01	-0.9641	-5.082326	0.000512	5.117759	1.733944	0.041052
1977	9.8800e-01	-0.9256	-4.817199	0.000661	6.610439	2.239677	0.053026
1978	9.8850e-01	-0.8535	-4.863382	-0.000115	-1.151496	-0.390137	-0.009237
1979	9.8900e-01	-0.8005	-4.804370	0.000147	1.471356	0.498509	0.011802
1980	9.8950e-01	-0.7813	-4.670096	0.000335	3.347867	1.134288	0.026855
1981	9.9000e-01	-0.7363	-4.547367	0.000306	3.059993	1.036754	0.024546
1982	9.9050e-01	-0.6914	-4.398554	0.000371	3.710375	1.257109	0.029763
1983	9.9100e-01	-0.6481	-4.424639	-0.000065	-0.650382	-0.220355	-0.005217
1984	9.9150e-01	-0.6240	-4.302338	0.000305	3.049331	1.033141	0.024460
1985	9.9200e-01	-0.5775	-4.286516	0.000039	0.394494	0.133658	0.003164
1986	9.9250e-01	-0.5390	-4.068854	0.000543	5.426957	1.838703	0.043532
1987	9.9300e-01	-0.5101	-4.035500	0.000083	0.831636	0.281766	0.006671
1988	9.9350e-01	-0.4700	-3.761392	0.000683	6.834341	2.315537	0.054822
1989	9.9400e-01	-0.4091	-3.884976	-0.000308	-3.081317	-1.043979	-0.024717
1990	9.9450e-01	-0.3690	-3.730175	0.000386	3.859643	1.307683	0.030960
1991	9.9500e-01	-0.3449	-3.575375	0.000386	3.859643	1.307683	0.030960
1992	9.9550e-01	-0.3289	-3.426989	0.000370	3.699713	1.253497	0.029677
1993	9.9600e-01	-0.2631	-3.447515	-0.000051	-0.511776	-0.173394	-0.004105
1994	9.9650e-01	-0.2118	-3.240972	0.000515	5.149745	1.744781	0.041309
1995	9.9700e-01	-0.1684	-3.213176	0.000069	0.693030	0.234805	0.005559
1996	9.9750e-01	-0.1476	-3.079330	0.000334	3.337205	1.130676	0.026769
1997	9.9800e-01	-0.1155	-3.036139	0.000108	1.076862	0.364851	0.008638
1998	9.9850e-01	-0.0610	-2.874497	0.000403	4.030235	1.365481	0.032328
1999	9.9900e-01	-0.0273	-2.879629	-0.000013	-0.127944	-0.043349	-0.001026
2000	9.9950e-01	0.0144	-2.795814	0.000209	2.089752	0.708027	0.016763
2001	1.0000e+00	0.0561	-2.582429	0.000209	2.089752	0.708027	0.042677

PMax (uC/cm2):	4.79e+01
Pr (uC/cm2):	7.46e-01
-Pr (uC/cm2):	-8.57e-01
PLoss (uC/cm2):	-7.09e-01
-Vc:	-3.53e-01
C (Max-Eff) (nF):	2.39e-01
K (Eff):	8.10e+02
Vert. (+/-Pr) Shift (uC/cm2):	-5.53e-02
Offset (uC/cm2):	1.73e+00

A (Loop Area - uC/cm2·Volts):	-2.74e-01



Hysteresis Version: 5.48.1 - Radiant Technologies, Inc., 1999 - 9/12/24

