»»»»»»»»»»»»»»»»»»»»»»»»»»»»»»»»»»»» Hysteresis ««««««««««««««««««««««««««««««««««««
»»»  Executed Version:	5.48.1
»»»  Vision Version:	5.48.4 (R)
»»»  Vision Compiled:	9/18/24
»»»  Driver Version:	5.47.0
»»»  Windows Version:	Windows 8 or 8.1
»»»  Processor Information:	x86 (AMD or Intel) - 32 Processors
»»»  Tester Name:	PMF21124-494 (100V)
»»»  Tester S/N:	PMF21124-494
»»»  Internal Amp Type:	100V RevK 270k
»»»  Internal Amp S/N:	iAB2-596/K     
»»»  Execution Count:	1
»»»»»»»»»»»»»»»»»»»»»»»»»»»»»»»»»»»»»»»»»»««««««««««««««««««««««««««««««««««««««««««

Stored:	6/19/2025 - 14:28:43
Configured:	06/19/25 10:04:32 AM
Executed:	06/19/25 02:28:23 PM

»»»»»»»»»»»»»»»»»»»»»»»»»»»»»»»»»»» Sample Info ««««««««««««««««««««««««««««««««««««
Sample Name:	
Lot Name:	
Wafer Name:	
Die Row/Column:	0/0
Capacitor Number:	0
Sample Area (cm2):	1.00e-04
Sample Thickness (microns):	3.00e-01

Amplifier:	Internal

»»»»»»»»»»»»»»»»»»»»»»»»»»»»»»»»»»» Tester Info «««««««««««««««««««««««««««««««««««
Tester Name:	PMF21124-494 (100V)
Tester Serial Number:	PMF21124-494
Return Signal Amp. Level:	1.79 [Index: 2]

»»»»»»»»»»»»»»»»»»»»»»»»»»»»»»»» Hysteresis Info ««««««««««««««««««««««««««««««««««
Task Name:	Hyst-1168
Volts:	20.00
Field:	666.67 (kV/cm)
DCBias:	0.00
DCField:	0.00 (kV/cm)
Hysteresis Period (ms):	1.00e+00
Preset:	Enabled
Preset Delay (ms):	1.00e+03
Profile:	Standard Bipolar

»»»»»»»»»»»»»»»»»»»»»»»»»»»»»»»»»»»»»» Data «««««««««««««««««««««««««««««««««««««««
Points:	2001

Valid Data

Point	Time (ms)	Drive Voltage	Measured Polarization (uC/cm2)	Capacitance (uF)	Normalized Capacitance (uF/cm2)	Dielectric Constant	Instantaneous Current (mA)
   1	0.0000e+00	0.0289	-2.062223	0.001115	11.150323	3.777832	0.089630
   2	5.0000e-04	0.0337	-1.614072	0.001115	11.150323	3.777832	0.089630
   3	1.0000e-03	0.0995	-1.812917	-0.000495	-4.947424	-1.676233	-0.039769
   4	1.5000e-03	0.1620	-1.839002	-0.000065	-0.649017	-0.219893	-0.005217
   5	2.0000e-03	0.1700	-1.638019	0.000500	5.000622	1.694257	0.040197
   6	2.5000e-03	0.2230	-1.402397	0.000586	5.862431	1.986246	0.047124
   7	3.0000e-03	0.2647	-1.577296	-0.000435	-4.351605	-1.474364	-0.034980
   8	3.5000e-03	0.2936	-1.458844	0.000295	2.947175	0.998530	0.023690
   9	4.0000e-03	0.3465	-1.268550	0.000473	4.734632	1.604137	0.038059
  10	4.5000e-03	0.3866	-1.193288	0.000187	1.872573	0.634445	0.015052
  11	5.0000e-03	0.4235	-1.160361	0.000082	0.819251	0.277570	0.006585
  12	5.5000e-03	0.4732	-1.078685	0.000203	2.032168	0.688517	0.016335
  13	6.0000e-03	0.5118	-1.039771	0.000097	0.968206	0.328037	0.007783
  14	6.5000e-03	0.5486	-1.006416	0.000083	0.829890	0.281175	0.006671
  15	7.0000e-03	0.5663	-0.697671	0.000768	7.681807	2.602667	0.061749
  16	7.5000e-03	0.6385	-0.772933	-0.000187	-1.872573	-0.634445	-0.015052
  17	8.0000e-03	0.6513	-0.466753	0.000762	7.617969	2.581038	0.061236
  18	8.5000e-03	0.7107	-0.607014	-0.000349	-3.489796	-1.182375	-0.028052
  19	9.0000e-03	0.7732	-0.488134	0.000296	2.957815	1.002135	0.023776
  20	9.5000e-03	0.7797	-0.290571	0.000492	4.915505	1.665418	0.039513
  21	1.0000e-02	0.8053	-0.057088	0.000581	5.809233	1.968222	0.046697
  22	1.0500e-02	0.8390	0.026299	0.000207	2.074726	0.702936	0.016677
  23	1.1000e-02	0.9096	-0.001497	-0.000069	-0.691575	-0.234312	-0.005559
  24	1.1500e-02	0.9224	0.021595	0.000057	0.574540	0.194659	0.004618
  25	1.2000e-02	0.9786	0.090015	0.000170	1.702339	0.576768	0.013684
  26	1.2500e-02	1.0139	0.322643	0.000579	5.787954	1.961012	0.046526
  27	1.3000e-02	1.0620	0.365833	0.000107	1.074602	0.364085	0.008638
  28	1.3500e-02	1.1037	0.426556	0.000151	1.510826	0.511882	0.012145
  29	1.4000e-02	1.1470	0.340176	-0.000215	-2.149204	-0.728170	-0.017276
  30	1.4500e-02	1.1807	0.432971	0.000231	2.308798	0.782242	0.018559
  31	1.5000e-02	1.2176	0.673724	0.000599	5.990107	2.029503	0.048151
  32	1.5500e-02	1.2593	0.683987	0.000026	0.255351	0.086515	0.002053
  33	1.6000e-02	1.2978	0.799445	0.000287	2.872698	0.973296	0.023092
  34	1.6500e-02	1.3347	0.957239	0.000393	3.926020	1.330172	0.031559
  35	1.7000e-02	1.3732	1.119309	0.000403	4.032417	1.366220	0.032414
  36	1.7500e-02	1.4326	1.296774	0.000442	4.415443	1.495993	0.035493
  37	1.8000e-02	1.4743	1.199703	-0.000242	-2.415194	-0.818290	-0.019414
  38	1.8500e-02	1.4903	1.312168	0.000280	2.798220	0.948063	0.022493
  39	1.9000e-02	1.5433	1.574302	0.000652	6.522088	2.209743	0.052427
  40	1.9500e-02	1.5850	1.669663	0.000237	2.372636	0.803871	0.019072
  41	2.0000e-02	1.6106	1.702162	0.000081	0.808611	0.273965	0.006500
  42	2.0500e-02	1.6636	1.593118	-0.000271	-2.713103	-0.919224	-0.021809
  43	2.1000e-02	1.7037	1.883476	0.000722	7.224303	2.447660	0.058072
  44	2.1500e-02	1.7614	1.832588	-0.000127	-1.266115	-0.428971	-0.010177
  45	2.2000e-02	1.7791	2.010908	0.000444	4.436722	1.503202	0.035664
  46	2.2500e-02	1.8224	1.973277	-0.000094	-0.936287	-0.317223	-0.007526
  47	2.3000e-02	1.8577	2.222582	0.000620	6.202899	2.101599	0.049861
  48	2.3500e-02	1.8946	2.320509	0.000244	2.436473	0.825500	0.019585
  49	2.4000e-02	1.9331	2.444520	0.000309	3.085490	1.045392	0.024802
  50	2.4500e-02	1.9828	2.333337	-0.000277	-2.766302	-0.937248	-0.022237
  51	2.5000e-02	2.0213	2.351725	0.000046	0.457504	0.155006	0.003678
  52	2.5500e-02	2.0326	2.594616	0.000604	6.043305	2.047527	0.048578
  53	2.6000e-02	2.1048	2.661754	0.000167	1.670421	0.565954	0.013427
  54	2.6500e-02	2.1481	2.737016	0.000187	1.872573	0.634445	0.015052
  55	2.7000e-02	2.1769	2.905500	0.000419	4.192011	1.420292	0.033697
  56	2.7500e-02	2.2058	3.014544	0.000271	2.713103	0.919224	0.021809
  57	2.8000e-02	2.2636	3.104773	0.000224	2.244960	0.760613	0.018046
  58	2.8500e-02	2.3053	3.147536	0.000106	1.063962	0.360480	0.008553
  59	2.9000e-02	2.3518	3.264278	0.000290	2.904617	0.984111	0.023348
  60	2.9500e-02	2.3807	3.336546	0.000180	1.798096	0.609211	0.014454
  61	3.0000e-02	2.4288	3.421644	0.000212	2.117285	0.717355	0.017019
  62	3.0500e-02	2.4737	3.293356	-0.000319	-3.191886	-1.081440	-0.025658
  63	3.1000e-02	2.4962	3.647857	0.000882	8.820246	2.988380	0.070900
  64	3.1500e-02	2.5491	3.673943	0.000065	0.649017	0.219893	0.005217
  65	3.2000e-02	2.5780	3.751343	0.000193	1.925771	0.652469	0.015480
  66	3.2500e-02	2.6342	3.990385	0.000595	5.947548	2.015084	0.047809
  67	3.3000e-02	2.6646	3.862953	-0.000317	-3.170607	-1.074231	-0.025486
  68	3.3500e-02	2.7208	3.907854	0.000112	1.117160	0.378504	0.008980
  69	3.4000e-02	2.7481	4.048542	0.000350	3.500435	1.185980	0.028138
  70	3.4500e-02	2.7737	4.334196	0.000711	7.107267	2.408007	0.057131
  71	3.5000e-02	2.8299	4.306828	-0.000068	-0.680936	-0.230707	-0.005474
  72	3.5500e-02	2.8555	4.474885	0.000418	4.181371	1.416687	0.033611
  73	3.6000e-02	2.9245	4.608731	0.000333	3.330202	1.128303	0.026769
  74	3.6500e-02	2.9502	4.669454	0.000151	1.510826	0.511882	0.012145
  75	3.7000e-02	2.9791	4.758400	0.000221	2.213041	0.749799	0.017789
  76	3.7500e-02	3.0352	4.882412	0.000309	3.085490	1.045392	0.024802
  77	3.8000e-02	3.0625	4.930733	0.000120	1.202277	0.407343	0.009664
  78	3.8500e-02	3.1010	4.968792	0.000095	0.946926	0.320827	0.007612
  79	3.9000e-02	3.1363	5.113757	0.000361	3.606832	1.222028	0.028993
  80	3.9500e-02	3.1812	5.241617	0.000318	3.181247	1.077836	0.025572
  81	4.0000e-02	3.2181	5.554639	0.000779	7.788203	2.638715	0.062604
  82	4.0500e-02	3.2470	5.592270	0.000094	0.936287	0.317223	0.007526
  83	4.1000e-02	3.3176	5.517435	-0.000186	-1.861934	-0.630840	-0.014967
  84	4.1500e-02	3.3609	5.528553	0.000028	0.276630	0.093725	0.002224
  85	4.2000e-02	3.4026	5.565757	0.000093	0.925647	0.313618	0.007441
  86	4.2500e-02	3.4347	5.783846	0.000543	5.426207	1.838449	0.043618
  87	4.3000e-02	3.4651	5.944633	0.000400	4.000498	1.355405	0.032157
  88	4.3500e-02	3.5004	5.936508	-0.000020	-0.202153	-0.068491	-0.001625
  89	4.4000e-02	3.5405	6.097723	0.000401	4.011137	1.359010	0.032243
  90	4.4500e-02	3.5710	6.245681	0.000368	3.681309	1.247261	0.029592
  91	4.5000e-02	3.6320	6.402192	0.000389	3.894101	1.319357	0.031302
  92	4.5500e-02	3.6737	6.263214	-0.000346	-3.457877	-1.171560	-0.027796
  93	4.6000e-02	3.7138	6.258082	-0.000013	-0.127675	-0.043258	-0.001026
  94	4.6500e-02	3.7475	6.559130	0.000749	7.490294	2.537780	0.060210
  95	4.7000e-02	3.7764	6.662188	0.000256	2.564149	0.868757	0.020612
  96	4.7500e-02	3.8181	6.836659	0.000434	4.340966	1.470759	0.034894
  97	4.8000e-02	3.8614	6.716924	-0.000298	-2.979094	-1.009344	-0.023947
  98	4.8500e-02	3.9031	6.938006	0.000550	5.500684	1.863682	0.044216
  99	4.9000e-02	3.9368	7.032939	0.000236	2.361996	0.800266	0.018987
 100	4.9500e-02	3.9865	7.049189	0.000040	0.404306	0.136982	0.003250
 101	5.0000e-02	4.0266	7.181325	0.000329	3.287643	1.113884	0.026427
 102	5.0500e-02	4.0635	7.359645	0.000444	4.436722	1.503202	0.035664
 103	5.1000e-02	4.0988	7.403263	0.000109	1.085241	0.367690	0.008724
 104	5.1500e-02	4.1437	7.573030	0.000422	4.223930	1.431106	0.033953
 105	5.2000e-02	4.1790	7.620496	0.000118	1.180998	0.400133	0.009493
 106	5.2500e-02	4.2127	7.803947	0.000456	4.564398	1.546460	0.036690
 107	5.3000e-02	4.2705	7.842006	0.000095	0.946926	0.320827	0.007612
 108	5.3500e-02	4.3090	7.828322	-0.000034	-0.340468	-0.115354	-0.002737
 109	5.4000e-02	4.3411	8.130653	0.000752	7.522212	2.548595	0.060466
 110	5.4500e-02	4.3780	8.237987	0.000267	2.670545	0.904805	0.021467
 111	5.5000e-02	4.4325	8.222593	-0.000038	-0.383026	-0.129773	-0.003079
 112	5.5500e-02	4.4710	8.161870	-0.000151	-1.510826	-0.511882	-0.012145
 113	5.6000e-02	4.5063	8.450089	0.000717	7.171105	2.429636	0.057644
 114	5.6500e-02	4.5432	8.509529	0.000148	1.478907	0.501067	0.011888
 115	5.7000e-02	4.5817	8.765677	0.000637	6.373133	2.159276	0.051230
 116	5.7500e-02	4.6378	8.599758	-0.000413	-4.128173	-1.398663	-0.033184
 117	5.8000e-02	4.6619	8.805446	0.000512	5.117658	1.733909	0.041138
 118	5.8500e-02	4.7197	8.796893	-0.000021	-0.212792	-0.072096	-0.001711
 119	5.9000e-02	4.7421	8.964522	0.000417	4.170732	1.413082	0.033526
 120	5.9500e-02	4.7822	8.868307	-0.000239	-2.393915	-0.811080	-0.019243
 121	6.0000e-02	4.8175	9.259584	0.000974	9.735254	3.298393	0.078255
 122	6.0500e-02	4.8801	9.223236	-0.000090	-0.904368	-0.306408	-0.007270
 123	6.1000e-02	4.8993	9.410963	0.000467	4.670794	1.582508	0.037545
 124	6.1500e-02	4.9458	9.403694	-0.000018	-0.180874	-0.061282	-0.001454
 125	6.2000e-02	4.9811	9.311754	-0.000229	-2.287519	-0.775032	-0.018388
 126	6.2500e-02	5.0212	9.562343	0.000623	6.234818	2.112414	0.050118
 127	6.3000e-02	5.0646	9.677801	0.000287	2.872698	0.973296	0.023092
 128	6.3500e-02	5.0983	9.720992	0.000107	1.074602	0.364085	0.008638
 129	6.4000e-02	5.1544	9.976711	0.000636	6.362494	2.155671	0.051144
 130	6.4500e-02	5.1737	10.015625	0.000097	0.968206	0.328037	0.007783
 131	6.5000e-02	5.2378	10.140492	0.000311	3.106769	1.052602	0.024973
 132	6.5500e-02	5.2651	10.325226	0.000460	4.596316	1.557274	0.036947
 133	6.6000e-02	5.3004	10.367989	0.000106	1.063962	0.360480	0.008553
 134	6.6500e-02	5.3373	10.381245	0.000033	0.329828	0.111749	0.002651
 135	6.7000e-02	5.3774	10.504829	0.000307	3.074851	1.041788	0.024717
 136	6.7500e-02	5.4223	10.606176	0.000252	2.521590	0.854338	0.020269
 137	6.8000e-02	5.4544	10.724200	0.000294	2.936536	0.994925	0.023605
 138	6.8500e-02	5.5009	10.948704	0.000559	5.585801	1.892521	0.044901
 139	6.9000e-02	5.5587	10.885843	-0.000156	-1.564024	-0.529906	-0.012572
 140	6.9500e-02	5.5779	11.006861	0.000301	3.011013	1.020159	0.024204
 141	7.0000e-02	5.6068	11.171496	0.000410	4.096254	1.387849	0.032927
 142	7.0500e-02	5.6726	11.118471	-0.000132	-1.319313	-0.446995	-0.010605
 143	7.1000e-02	5.7063	11.232647	0.000284	2.840779	0.962482	0.022835
 144	7.1500e-02	5.7560	11.321165	0.000220	2.202402	0.746194	0.017704
 145	7.2000e-02	5.7849	11.426361	0.000262	2.617347	0.886781	0.021039
 146	7.2500e-02	5.8089	11.576030	0.000372	3.723868	1.261680	0.029934
 147	7.3000e-02	5.8490	11.833033	0.000639	6.394413	2.166486	0.051401
 148	7.3500e-02	5.9020	11.719284	-0.000283	-2.830139	-0.958877	-0.022750
 149	7.4000e-02	5.9485	11.818921	0.000248	2.479032	0.839919	0.019927
 150	7.4500e-02	5.9966	12.012635	0.000482	4.819749	1.632975	0.038743
 151	7.5000e-02	6.0207	12.015629	0.000007	0.074477	0.025234	0.000599
 152	7.5500e-02	6.0752	12.220034	0.000509	5.085739	1.723095	0.040881
 153	7.6000e-02	6.1089	12.161449	-0.000146	-1.457628	-0.493858	-0.011717
 154	7.6500e-02	6.1538	12.194804	0.000083	0.829890	0.281175	0.006671
 155	7.7000e-02	6.1859	12.408189	0.000531	5.309171	1.798796	0.042677
 156	7.7500e-02	6.2292	12.371413	-0.000092	-0.915007	-0.310013	-0.007355
 157	7.8000e-02	6.2549	12.635258	0.000656	6.564646	2.224162	0.052769
 158	7.8500e-02	6.2966	12.713086	0.000194	1.936411	0.656074	0.015566
 159	7.9000e-02	6.3415	12.847788	0.000335	3.351481	1.135512	0.026940
 160	7.9500e-02	6.3688	12.911931	0.000160	1.595943	0.540720	0.012829
 161	8.0000e-02	6.4217	13.017982	0.000264	2.638626	0.893991	0.021210
 162	8.0500e-02	6.4875	13.101369	0.000207	2.074726	0.702936	0.016677
 163	8.1000e-02	6.4602	13.360083	-0.000644	-6.436971	-2.180905	0.051743
 164	8.1500e-02	6.5228	13.283538	-0.000190	-1.904492	-0.645259	-0.015309
 165	8.2000e-02	6.5950	13.341267	0.000144	1.436349	0.486648	0.011546
 166	8.2500e-02	6.6287	13.450739	0.000272	2.723743	0.922829	0.021894
 167	8.3000e-02	6.6447	13.589290	0.000345	3.447237	1.167956	0.027710
 168	8.3500e-02	6.6929	13.683795	0.000235	2.351356	0.796661	0.018901
 169	8.4000e-02	6.7474	13.800537	0.000290	2.904617	0.984111	0.023348
 170	8.4500e-02	6.7715	13.974153	0.000432	4.319686	1.463549	0.034723
 171	8.5000e-02	6.8324	14.090467	0.000289	2.893977	0.980506	0.023263
 172	8.5500e-02	6.8613	14.210629	0.000299	2.989734	1.012949	0.024033
 173	8.6000e-02	6.9110	14.103295	-0.000267	-2.670545	-0.904805	-0.021467
 174	8.6500e-02	6.9383	14.137933	0.000086	0.861809	0.291989	0.006928
 175	8.7000e-02	6.9768	14.320529	0.000454	4.543118	1.539250	0.036519
 176	8.7500e-02	7.0458	14.427008	0.000265	2.649266	0.897596	0.021296
 177	8.8000e-02	7.0570	14.562137	0.000336	3.362120	1.139117	0.027026
 178	8.8500e-02	7.1276	14.517664	-0.000111	-1.106521	-0.374899	-0.008895
 179	8.9000e-02	7.1661	14.657498	0.000348	3.479156	1.178770	0.027967
 180	8.9500e-02	7.1918	14.851212	0.000482	4.819749	1.632975	0.038743
 181	9.0000e-02	7.2239	14.969237	0.000294	2.936536	0.994925	0.023605
 182	9.0500e-02	7.2640	15.000026	0.000077	0.766053	0.259546	0.006158
 183	9.1000e-02	7.3025	15.149694	0.000372	3.723868	1.261680	0.029934
 184	9.1500e-02	7.3538	15.192885	0.000107	1.074602	0.364085	0.008638
 185	9.2000e-02	7.3939	15.384033	0.000476	4.755911	1.611346	0.038230
 186	9.2500e-02	7.4292	15.387454	0.000009	0.085117	0.028838	0.000684
 187	9.3000e-02	7.4565	15.498209	0.000276	2.755662	0.933644	0.022151
 188	9.3500e-02	7.5062	15.788567	0.000722	7.224303	2.447660	0.058072
 189	9.4000e-02	7.5511	15.620510	-0.000418	-4.181371	-1.416687	-0.033611
 190	9.4500e-02	7.5896	15.645312	0.000062	0.617098	0.209078	0.004960
 191	9.5000e-02	7.6201	15.865539	0.000548	5.479405	1.856473	0.044045
 192	9.5500e-02	7.6442	15.840737	-0.000062	-0.617098	-0.209078	-0.004960
 193	9.6000e-02	7.6987	16.332934	0.001225	12.246204	4.149126	0.098439
 194	9.6500e-02	7.7452	16.221323	-0.000278	-2.776941	-0.940853	-0.022322
 195	9.7000e-02	7.7789	16.413327	0.000478	4.777190	1.618556	0.038401
 196	9.7500e-02	7.8110	16.375268	-0.000095	-0.946926	-0.320827	-0.007612
 197	9.8000e-02	7.8591	16.607469	0.000578	5.777314	1.957407	0.046440
 198	9.8500e-02	7.9025	16.583950	-0.000059	-0.585179	-0.198264	-0.004704
 199	9.9000e-02	7.9297	16.801611	0.000542	5.415567	1.834844	0.043532
 200	9.9500e-02	7.9859	16.811446	0.000024	0.244711	0.082910	0.001967
 201	1.0000e-01	8.0324	16.824275	0.000032	0.319189	0.108144	0.002566
 202	1.0050e-01	8.0693	17.064600	0.000598	5.979467	2.025898	0.048065
 203	1.0100e-01	8.1174	17.019700	-0.000112	-1.117160	-0.378504	-0.008980
 204	1.0150e-01	8.1254	17.284827	0.000660	6.596565	2.234977	0.053026
 205	1.0200e-01	8.1880	17.274992	-0.000024	-0.244711	-0.082910	-0.001967
 206	1.0250e-01	8.2425	17.484528	0.000521	5.213415	1.766353	0.041907
 207	1.0300e-01	8.2650	17.442194	-0.000105	-1.053323	-0.356875	-0.008467
 208	1.0350e-01	8.3228	17.549955	0.000268	2.681185	0.908410	0.021552
 209	1.0400e-01	8.3468	17.651302	0.000252	2.521590	0.854338	0.020269
 210	1.0450e-01	8.3837	17.840313	0.000470	4.702713	1.593322	0.037802
 211	1.0500e-01	8.4254	17.915575	0.000187	1.872573	0.634445	0.015052
 212	1.0550e-01	8.4543	17.990837	0.000187	1.872573	0.634445	0.015052
 213	1.0600e-01	8.5201	18.153334	0.000404	4.043056	1.369825	0.032500
 214	1.0650e-01	8.5490	18.041724	-0.000278	-2.776941	-0.940853	-0.022322
 215	1.0700e-01	8.5682	18.315404	0.000681	6.809358	2.307073	0.054736
 216	1.0750e-01	8.6211	18.489020	0.000432	4.319686	1.463549	0.034723
 217	1.0800e-01	8.6805	18.466356	-0.000056	-0.563900	-0.191054	-0.004533
 218	1.0850e-01	8.7222	18.428297	-0.000095	-0.946926	-0.320827	-0.007612
 219	1.0900e-01	8.7527	18.531355	0.000256	2.564149	0.868757	0.020612
 220	1.0950e-01	8.7864	18.669050	0.000343	3.425958	1.160746	0.027539
 221	1.1000e-01	8.8265	18.899968	0.000575	5.745396	1.946593	0.046184
 222	1.1050e-01	8.8489	19.015855	0.000288	2.883337	0.976901	0.023177
 223	1.1100e-01	8.9003	19.085557	0.000173	1.734258	0.587583	0.013941
 224	1.1150e-01	8.9516	19.251476	0.000413	4.128173	1.398663	0.033184
 225	1.1200e-01	8.9869	19.354534	0.000256	2.564149	0.868757	0.020612
 226	1.1250e-01	9.0190	19.256180	-0.000245	-2.447113	-0.829104	-0.019671
 227	1.1300e-01	9.0382	19.540123	0.000706	7.064709	2.393588	0.056789
 228	1.1350e-01	9.1008	19.769758	0.000571	5.713477	1.935778	0.045927
 229	1.1400e-01	9.1409	19.713311	-0.000140	-1.404430	-0.475834	-0.011289
 230	1.1450e-01	9.1602	19.979294	0.000662	6.617845	2.242186	0.053197
 231	1.1500e-01	9.2211	19.941663	-0.000094	-0.936287	-0.317223	-0.007526
 232	1.1550e-01	9.2644	20.101595	0.000398	3.979218	1.348196	0.031986
 233	1.1600e-01	9.2981	20.179851	0.000195	1.947051	0.659679	0.015651
 234	1.1650e-01	9.3334	20.228600	0.000121	1.212917	0.410947	0.009750
 235	1.1700e-01	9.3880	20.424452	0.000487	4.872947	1.650999	0.039170
 236	1.1750e-01	9.4104	20.381262	-0.000107	-1.074602	-0.364085	-0.008638
 237	1.1800e-01	9.4441	20.568134	0.000465	4.649515	1.575298	0.037374
 238	1.1850e-01	9.5099	20.573266	0.000013	0.127675	0.043258	0.001026
 239	1.1900e-01	9.5500	20.577114	0.000010	0.095757	0.032443	0.000770
 240	1.1950e-01	9.5773	20.839676	0.000653	6.532728	2.213348	0.052512
 241	1.2000e-01	9.6045	20.930333	0.000226	2.255600	0.764218	0.018131
 242	1.2050e-01	9.6687	21.271578	0.000849	8.490418	2.876631	0.068249
 243	1.2100e-01	9.6815	21.145001	-0.000315	-3.149328	-1.067021	-0.025315
 244	1.2150e-01	9.7168	21.269440	0.000310	3.096130	1.048997	0.024888
 245	1.2200e-01	9.7954	21.182632	-0.000216	-2.159843	-0.731775	-0.017362
 246	1.2250e-01	9.8388	21.387464	0.000510	5.096379	1.726700	0.040967
 247	1.2300e-01	9.8789	21.507199	0.000298	2.979094	1.009344	0.023947
 248	1.2350e-01	9.9029	21.520456	0.000033	0.329828	0.111749	0.002651
 249	1.2400e-01	9.9366	21.674401	0.000383	3.830264	1.297728	0.030789
 250	1.2450e-01	9.9735	21.669697	-0.000012	-0.117036	-0.039653	-0.000941
 251	1.2500e-01	10.0152	21.930121	0.000648	6.479529	2.195324	0.052085
 252	1.2550e-01	10.0505	22.040020	0.000273	2.734383	0.926434	0.021980
 253	1.2600e-01	10.0954	22.135381	0.000237	2.372636	0.803871	0.019072
 254	1.2650e-01	10.1275	22.298306	0.000405	4.053696	1.373429	0.032585
 255	1.2700e-01	10.1821	22.285050	-0.000033	-0.329828	-0.111749	-0.002651
 256	1.2750e-01	10.2142	22.335937	0.000127	1.266115	0.428971	0.010177
 257	1.2800e-01	10.2575	22.642544	0.000763	7.628609	2.584643	0.061321
 258	1.2850e-01	10.3152	22.663498	0.000052	0.521341	0.176635	0.004191
 259	1.2900e-01	10.3361	22.758431	0.000236	2.361996	0.800266	0.018987
 260	1.2950e-01	10.3858	22.862771	0.000260	2.596068	0.879572	0.020868
 261	1.3000e-01	10.4420	22.629288	-0.000581	-5.809233	-1.968222	-0.046697
 262	1.3050e-01	10.4805	23.059479	0.001070	10.703459	3.626430	0.086038
 263	1.3100e-01	10.5077	22.917080	-0.000354	-3.542994	-1.200399	-0.028480
 264	1.3150e-01	10.5366	23.049216	0.000329	3.287643	1.113884	0.026427
 265	1.3200e-01	10.6040	23.163392	0.000284	2.840779	0.962482	0.022835
 266	1.3250e-01	10.6425	23.186484	0.000057	0.574540	0.194659	0.004618
 267	1.3300e-01	10.6665	23.511051	0.000808	8.075473	2.736044	0.064914
 268	1.3350e-01	10.6938	23.671411	0.000399	3.989858	1.351801	0.032072
 269	1.3400e-01	10.7355	23.647464	-0.000060	-0.595819	-0.201869	-0.004789
 270	1.3450e-01	10.7901	23.773186	0.000313	3.128049	1.059812	0.025144
 271	1.3500e-01	10.8286	23.969466	0.000488	4.883586	1.654604	0.039256
 272	1.3550e-01	10.8735	23.863415	-0.000264	-2.638626	-0.893991	-0.021210
 273	1.3600e-01	10.8976	24.125549	0.000652	6.522088	2.209743	0.052427
 274	1.3650e-01	10.9393	24.049004	-0.000190	-1.904492	-0.645259	-0.015309
 275	1.3700e-01	10.9665	24.350052	0.000749	7.490294	2.537780	0.060210
 276	1.3750e-01	11.0291	24.306434	-0.000109	-1.085241	-0.367690	-0.008724
 277	1.3800e-01	11.0708	24.384262	0.000194	1.936411	0.656074	0.015566
 278	1.3850e-01	11.0901	24.672054	0.000716	7.160465	2.426031	0.057558
 279	1.3900e-01	11.1462	24.643831	-0.000070	-0.702215	-0.237917	-0.005645
 280	1.3950e-01	11.1879	24.880735	0.000589	5.894350	1.997060	0.047381
 281	1.4000e-01	11.2344	24.748171	-0.000330	-3.298283	-1.117488	-0.026513
 282	1.4050e-01	11.2713	24.872610	0.000310	3.096130	1.048997	0.024888
 283	1.4100e-01	11.2986	25.120633	0.000617	6.170980	2.090785	0.049605
 284	1.4150e-01	11.3227	25.194612	0.000184	1.840655	0.623631	0.014796
 285	1.4200e-01	11.3804	25.254052	0.000148	1.478907	0.501067	0.011888
 286	1.4250e-01	11.4205	25.316058	0.000154	1.542745	0.522696	0.012401
 287	1.4300e-01	11.4671	25.340432	0.000061	0.606458	0.205474	0.004875
 288	1.4350e-01	11.5168	25.548686	0.000518	5.181496	1.755538	0.041651
 289	1.4400e-01	11.5409	25.484970	-0.000159	-1.585304	-0.537115	-0.012743
 290	1.4450e-01	11.5826	25.753518	0.000668	6.681682	2.263815	0.053710
 291	1.4500e-01	11.6371	25.862563	0.000271	2.713103	0.919224	0.021809
 292	1.4550e-01	11.6628	26.103316	0.000599	5.990107	2.029503	0.048151
 293	1.4600e-01	11.6916	26.076375	-0.000067	-0.670296	-0.227102	-0.005388
 294	1.4650e-01	11.7494	26.162756	0.000215	2.149204	0.728170	0.017276
 295	1.4700e-01	11.7847	26.226044	0.000157	1.574664	0.533511	0.012658
 296	1.4750e-01	11.8088	26.293609	0.000168	1.681060	0.569559	0.013513
 297	1.4800e-01	11.8489	26.451403	0.000393	3.926020	1.330172	0.031559
 298	1.4850e-01	11.8906	26.740905	0.000720	7.203024	2.440451	0.057900
 299	1.4900e-01	11.9275	26.687024	-0.000134	-1.340592	-0.454205	-0.010776
 300	1.4950e-01	11.9997	26.778109	0.000227	2.266239	0.767823	0.018217
 301	1.5000e-01	12.0366	26.835838	0.000144	1.436349	0.486648	0.011546
 302	1.5050e-01	12.0735	26.831989	-0.000010	-0.095757	-0.032443	-0.000770
 303	1.5100e-01	12.1120	27.056065	0.000558	5.575162	1.888916	0.044815
 304	1.5150e-01	12.1328	27.201030	0.000361	3.606832	1.222028	0.028993
 305	1.5200e-01	12.1777	27.221556	0.000051	0.510702	0.173030	0.004105
 306	1.5250e-01	12.2323	27.365238	0.000357	3.574913	1.211213	0.028736
 307	1.5300e-01	12.2772	27.420402	0.000137	1.372511	0.465019	0.011033
 308	1.5350e-01	12.3061	27.499940	0.000198	1.978970	0.670493	0.015908
 309	1.5400e-01	12.3542	27.558097	0.000145	1.446989	0.490253	0.011631
 310	1.5450e-01	12.3751	27.725726	0.000417	4.170732	1.413082	0.033526
 311	1.5500e-01	12.4200	27.847599	0.000303	3.032292	1.027368	0.024375
 312	1.5550e-01	12.4809	27.925855	0.000195	1.947051	0.659679	0.015651
 313	1.5600e-01	12.5130	28.084076	0.000394	3.936660	1.333776	0.031644
 314	1.5650e-01	12.5371	28.146082	0.000154	1.542745	0.522696	0.012401
 315	1.5700e-01	12.5916	28.316277	0.000423	4.234569	1.434711	0.034039
 316	1.5750e-01	12.6189	28.408644	0.000230	2.298158	0.778637	0.018473
 317	1.5800e-01	12.6622	28.564299	0.000387	3.872822	1.312148	0.031131
 318	1.5850e-01	12.6975	28.639134	0.000186	1.861934	0.630840	0.014967
 319	1.5900e-01	12.7328	28.575418	-0.000159	-1.585304	-0.537115	-0.012743
 320	1.5950e-01	12.7905	28.716106	0.000350	3.500435	1.185980	0.028138
 321	1.6000e-01	12.8226	28.773836	0.000144	1.436349	0.486648	0.011546
 322	1.6050e-01	12.8676	29.013306	0.000596	5.958188	2.018689	0.047894
 323	1.6100e-01	12.8916	28.984655	-0.000071	-0.712855	-0.241522	-0.005730
 324	1.6150e-01	12.9109	29.267743	0.000704	7.043429	2.386378	0.056618
 325	1.6200e-01	12.9718	29.294256	0.000066	0.659657	0.223498	0.005303
 326	1.6250e-01	13.0167	29.306229	0.000030	0.297909	0.100934	0.002395
 327	1.6300e-01	13.0729	29.272019	-0.000085	-0.851170	-0.288384	-0.006842
 328	1.6350e-01	13.0954	29.426819	0.000385	3.851543	1.304938	0.030960
 329	1.6400e-01	13.1451	29.682539	0.000636	6.362494	2.155671	0.051144
 330	1.6450e-01	13.1852	29.555535	-0.000316	-3.159968	-1.070626	-0.025401
 331	1.6500e-01	13.2093	29.827504	0.000677	6.766799	2.292654	0.054394
 332	1.6550e-01	13.2847	29.869839	0.000105	1.053323	0.356875	0.008467
 333	1.6600e-01	13.3199	29.922437	0.000131	1.308673	0.443391	0.010520
 334	1.6650e-01	13.3601	30.075099	0.000380	3.798345	1.286914	0.030532
 335	1.6700e-01	13.3873	30.270952	0.000487	4.872947	1.650999	0.039170
 336	1.6750e-01	13.4419	30.380424	0.000272	2.723743	0.922829	0.021894
 337	1.6800e-01	13.4723	30.444995	0.000161	1.606583	0.544325	0.012914
 338	1.6850e-01	13.5044	30.465521	0.000051	0.510702	0.173030	0.004105
 339	1.6900e-01	13.5253	30.574566	0.000271	2.713103	0.919224	0.021809
 340	1.6950e-01	13.5830	30.708412	0.000333	3.330202	1.128303	0.026769
 341	1.7000e-01	13.6392	30.814036	0.000263	2.627987	0.890386	0.021125
 342	1.7050e-01	13.6665	30.727656	-0.000215	-2.149204	-0.728170	-0.017276
 343	1.7100e-01	13.6953	31.002191	0.000683	6.830637	2.314282	0.054907
 344	1.7150e-01	13.7403	31.023572	0.000053	0.531981	0.180240	0.004276
 345	1.7200e-01	13.7916	31.136465	0.000281	2.808860	0.951668	0.022579
 346	1.7250e-01	13.8124	31.239095	0.000255	2.553509	0.865152	0.020526
 347	1.7300e-01	13.8638	31.519618	0.000698	6.979592	2.364750	0.056104
 348	1.7350e-01	13.9071	31.527742	0.000020	0.202153	0.068491	0.001625
 349	1.7400e-01	13.9392	31.719319	0.000477	4.766550	1.614951	0.038315
 350	1.7450e-01	13.9665	31.684253	-0.000087	-0.872449	-0.295594	-0.007013
 351	1.7500e-01	14.0322	31.784745	0.000250	2.500311	0.847128	0.020098
 352	1.7550e-01	14.0595	31.978032	0.000481	4.809109	1.629370	0.038657
 353	1.7600e-01	14.1044	31.984874	0.000017	0.170234	0.057677	0.001368
 354	1.7650e-01	14.1333	32.061846	0.000192	1.915132	0.648864	0.015395
 355	1.7700e-01	14.1798	32.238883	0.000440	4.404803	1.492388	0.035407
 356	1.7750e-01	14.2167	32.289343	0.000126	1.255475	0.425367	0.010092
 357	1.7800e-01	14.2713	32.518978	0.000571	5.713477	1.935778	0.045927
 358	1.7850e-01	14.3146	32.509142	-0.000024	-0.244711	-0.082910	-0.001967
 359	1.7900e-01	14.3258	32.532234	0.000057	0.574540	0.194659	0.004618
 360	1.7950e-01	14.3932	32.700719	0.000419	4.192011	1.420292	0.033697
 361	1.8000e-01	14.4188	32.746902	0.000115	1.149079	0.389319	0.009237
 362	1.8050e-01	14.4445	32.919663	0.000430	4.298407	1.456340	0.034552
 363	1.8100e-01	14.4766	33.028707	0.000271	2.713103	0.919224	0.021809
 364	1.8150e-01	14.5311	33.082588	0.000134	1.340592	0.454205	0.010776
 365	1.8200e-01	14.5729	33.376794	0.000732	7.320060	2.480103	0.058841
 366	1.8250e-01	14.6338	33.263901	-0.000281	-2.808860	-0.951668	-0.022579
 367	1.8300e-01	14.6707	33.380215	0.000289	2.893977	0.980506	0.023263
 368	1.8350e-01	14.7044	33.543140	0.000405	4.053696	1.373429	0.032585
 369	1.8400e-01	14.7493	33.378505	-0.000410	-4.096254	-1.387849	-0.032927
 370	1.8450e-01	14.7670	33.574357	0.000487	4.872947	1.650999	0.039170
 371	1.8500e-01	14.8231	33.878826	0.000758	7.575411	2.566619	0.060894
 372	1.8550e-01	14.8728	33.876688	-0.000005	-0.053198	-0.018024	-0.000428
 373	1.8600e-01	14.9065	33.839485	-0.000093	-0.925647	-0.313618	-0.007441
 374	1.8650e-01	14.9306	33.894221	0.000136	1.361872	0.461415	0.010947
 375	1.8700e-01	14.9964	34.080665	0.000464	4.638875	1.571693	0.037289
 376	1.8750e-01	15.0124	34.243591	0.000405	4.053696	1.373429	0.032585
 377	1.8800e-01	15.0734	34.297471	0.000134	1.340592	0.454205	0.010776
 378	1.8850e-01	15.1039	34.428325	0.000326	3.255724	1.103069	0.026171
 379	1.8900e-01	15.1343	34.589967	0.000402	4.021777	1.362615	0.032328
 380	1.8950e-01	15.1841	34.729373	0.000347	3.468517	1.175165	0.027881
 381	1.9000e-01	15.2065	34.775984	0.000116	1.159719	0.392923	0.009322
 382	1.9050e-01	15.2675	34.753320	-0.000056	-0.563900	-0.191054	-0.004533
 383	1.9100e-01	15.2948	34.917100	0.000407	4.074975	1.380639	0.032756
 384	1.9150e-01	15.3365	35.129203	0.000528	5.277252	1.787981	0.042420
 385	1.9200e-01	15.3862	35.219859	0.000226	2.255600	0.764218	0.018131
 386	1.9250e-01	15.4311	35.092427	-0.000317	-3.170607	-1.074231	-0.025486
 387	1.9300e-01	15.4488	35.390054	0.000741	7.405177	2.508942	0.059525
 388	1.9350e-01	15.5017	35.407159	0.000043	0.425585	0.144192	0.003421
 389	1.9400e-01	15.5514	35.402883	-0.000011	-0.106396	-0.036048	-0.000855
 390	1.9450e-01	15.5819	35.525184	0.000304	3.042932	1.030973	0.024460
 391	1.9500e-01	15.6332	35.702648	0.000442	4.415443	1.495993	0.035493
 392	1.9550e-01	15.6589	35.701793	-0.000002	-0.021279	-0.007210	-0.000171
 393	1.9600e-01	15.7038	35.995999	0.000732	7.320060	2.480103	0.058841
 394	1.9650e-01	15.7407	36.100339	0.000260	2.596068	0.879572	0.020868
 395	1.9700e-01	15.7889	36.185437	0.000212	2.117285	0.717355	0.017019
 396	1.9750e-01	15.8258	36.181588	-0.000010	-0.095757	-0.032443	-0.000770
 397	1.9800e-01	15.8723	36.392835	0.000526	5.255973	1.780772	0.042249
 398	1.9850e-01	15.8947	36.429183	0.000090	0.904368	0.306408	0.007270
 399	1.9900e-01	15.9509	36.519840	0.000226	2.255600	0.764218	0.018131
 400	1.9950e-01	15.9878	36.696877	0.000440	4.404803	1.492388	0.035407
 401	2.0000e-01	16.0102	36.699443	0.000006	0.063838	0.021629	0.000513
 402	2.0050e-01	16.0616	36.727666	0.000070	0.702215	0.237917	0.005645
 403	2.0100e-01	16.1145	36.916249	0.000469	4.692073	1.589717	0.037717
 404	2.0150e-01	16.1434	36.961149	0.000112	1.117160	0.378504	0.008980
 405	2.0200e-01	16.1707	37.281441	0.000797	7.969077	2.699996	0.064058
 406	2.0250e-01	16.2284	37.401603	0.000299	2.989734	1.012949	0.024033
 407	2.0300e-01	16.2637	37.197626	-0.000508	-5.075099	-1.719490	-0.040795
 408	2.0350e-01	16.2910	37.584199	0.000962	9.618218	3.258740	0.077315
 409	2.0400e-01	16.3375	37.546568	-0.000094	-0.936287	-0.317223	-0.007526
 410	2.0450e-01	16.3937	37.632948	0.000215	2.149204	0.728170	0.017276
 411	2.0500e-01	16.4081	37.711632	0.000196	1.957690	0.663283	0.015737
 412	2.0550e-01	16.4514	38.006265	0.000733	7.330699	2.483708	0.058927
 413	2.0600e-01	16.5011	37.918602	-0.000218	-2.181122	-0.738984	-0.017533
 414	2.0650e-01	16.5428	37.999851	0.000202	2.021528	0.684912	0.016250
 415	2.0700e-01	16.5749	38.074258	0.000185	1.851294	0.627235	0.014881
 416	2.0750e-01	16.6199	38.267117	0.000480	4.798469	1.625765	0.038572
 417	2.0800e-01	16.6567	38.364188	0.000242	2.415194	0.818290	0.019414
 418	2.0850e-01	16.7017	38.418924	0.000136	1.361872	0.461415	0.010947
 419	2.0900e-01	16.7338	38.466390	0.000118	1.180998	0.400133	0.009493
 420	2.0950e-01	16.7883	38.581421	0.000286	2.862058	0.969692	0.023006
 421	2.1000e-01	16.8220	38.726386	0.000361	3.606832	1.222028	0.028993
 422	2.1050e-01	16.8493	38.844839	0.000295	2.947175	0.998530	0.023690
 423	2.1100e-01	16.9086	38.973554	0.000320	3.202526	1.085045	0.025743
 424	2.1150e-01	16.9455	39.072335	0.000246	2.457753	0.832709	0.019756
 425	2.1200e-01	16.9760	39.149735	0.000193	1.925771	0.652469	0.015480
 426	2.1250e-01	17.0225	39.037270	-0.000280	-2.798220	-0.948063	-0.022493
 427	2.1300e-01	17.0530	39.132203	0.000236	2.361996	0.800266	0.018987
 428	2.1350e-01	17.0995	39.193353	0.000152	1.521466	0.515487	0.012230
 429	2.1400e-01	17.1428	39.316082	0.000305	3.053571	1.034578	0.024546
 430	2.1450e-01	17.1990	39.696240	0.000946	9.458624	3.204668	0.076032
 431	2.1500e-01	17.2038	39.563677	-0.000330	-3.298283	-1.117488	-0.026513
 432	2.1550e-01	17.2599	39.952388	0.000967	9.671416	3.276764	0.077742
 433	2.1600e-01	17.3065	39.851041	-0.000252	-2.521590	-0.854338	-0.020269
 434	2.1650e-01	17.3546	39.860021	0.000022	0.223432	0.075701	0.001796
 435	2.1700e-01	17.3899	40.073406	0.000531	5.309171	1.798796	0.042677
 436	2.1750e-01	17.4236	40.172187	0.000246	2.457753	0.832709	0.019756
 437	2.1800e-01	17.4653	40.221364	0.000122	1.223556	0.414552	0.009835
 438	2.1850e-01	17.4893	40.309027	0.000218	2.181122	0.738984	0.017533
 439	2.1900e-01	17.5439	40.506590	0.000492	4.915505	1.665418	0.039513
 440	2.1950e-01	17.5776	40.591688	0.000212	2.117285	0.717355	0.017019
 441	2.2000e-01	17.6097	40.568596	-0.000057	-0.574540	-0.194659	-0.004618
 442	2.2050e-01	17.6819	40.675502	0.000266	2.659905	0.901200	0.021381
 443	2.2100e-01	17.7027	40.758034	0.000205	2.053447	0.695727	0.016506
 444	2.2150e-01	17.7316	40.973130	0.000535	5.351730	1.813215	0.043019
 445	2.2200e-01	17.7909	40.987669	0.000036	0.361747	0.122563	0.002908
 446	2.2250e-01	17.8054	41.095430	0.000268	2.681185	0.908410	0.021552
 447	2.2300e-01	17.8663	41.277599	0.000453	4.532479	1.535645	0.036434
 448	2.2350e-01	17.9081	41.285296	0.000019	0.191513	0.064886	0.001539
 449	2.2400e-01	17.9305	41.428550	0.000356	3.564273	1.207608	0.028651
 450	2.2450e-01	17.9706	41.486280	0.000144	1.436349	0.486648	0.011546
 451	2.2500e-01	18.0123	41.699237	0.000530	5.298532	1.795191	0.042591
 452	2.2550e-01	18.0524	41.651343	-0.000119	-1.191638	-0.403738	-0.009579
 453	2.2600e-01	18.1150	41.895090	0.000606	6.064584	2.054737	0.048749
 454	2.2650e-01	18.1615	41.963510	0.000170	1.702339	0.576768	0.013684
 455	2.2700e-01	18.1952	41.966931	0.000009	0.085117	0.028838	0.000684
 456	2.2750e-01	18.2337	42.043048	0.000189	1.893853	0.641655	0.015223
 457	2.2800e-01	18.2738	42.267124	0.000558	5.575162	1.888916	0.044815
 458	2.2850e-01	18.3011	42.315873	0.000121	1.212917	0.410947	0.009750
 459	2.2900e-01	18.3428	42.465969	0.000373	3.734507	1.265285	0.030019
 460	2.2950e-01	18.3813	42.392845	-0.000182	-1.819375	-0.616421	-0.014625
 461	2.3000e-01	18.4054	42.581001	0.000468	4.681433	1.586113	0.037631
 462	2.3050e-01	18.4776	42.769156	0.000468	4.681433	1.586113	0.037631
 463	2.3100e-01	18.5048	42.829023	0.000149	1.489547	0.504672	0.011974
 464	2.3150e-01	18.5273	42.853398	0.000061	0.606458	0.205474	0.004875
 465	2.3200e-01	18.5850	43.069349	0.000537	5.373009	1.820425	0.043190
 466	2.3250e-01	18.6235	43.048395	-0.000052	-0.521341	-0.176635	-0.004191
 467	2.3300e-01	18.6620	43.103131	0.000136	1.361872	0.461415	0.010947
 468	2.3350e-01	18.7166	43.244675	0.000352	3.521715	1.193189	0.028309
 469	2.3400e-01	18.7471	43.202340	-0.000105	-1.053323	-0.356875	-0.008467
 470	2.3450e-01	18.7695	43.511941	0.000770	7.703086	2.609876	0.061920
 471	2.3500e-01	18.8144	43.682136	0.000423	4.234569	1.434711	0.034039
 472	2.3550e-01	18.8738	43.769799	0.000218	2.181122	0.738984	0.017533
 473	2.3600e-01	18.9155	43.637663	-0.000329	-3.287643	-1.113884	-0.026427
 474	2.3650e-01	18.9364	43.928875	0.000725	7.245582	2.454870	0.058243
 475	2.3700e-01	18.9717	43.884830	-0.000110	-1.095881	-0.371295	-0.008809
 476	2.3750e-01	19.0438	43.998151	0.000282	2.819500	0.955272	0.022664
 477	2.3800e-01	19.0583	44.048183	0.000124	1.244836	0.421762	0.010006
 478	2.3850e-01	19.1064	44.217095	0.000420	4.202650	1.423897	0.033782
 479	2.3900e-01	19.1449	44.349231	0.000329	3.287643	1.113884	0.026427
 480	2.3950e-01	19.1706	44.474525	0.000312	3.117409	1.056207	0.025059
 481	2.4000e-01	19.2267	44.483933	0.000023	0.234072	0.079306	0.001882
 482	2.4050e-01	19.2700	44.643010	0.000396	3.957939	1.340986	0.031815
 483	2.4100e-01	19.2941	44.781988	0.000346	3.457877	1.171560	0.027796
 484	2.4150e-01	19.3390	44.939354	0.000392	3.915381	1.326567	0.031473
 485	2.4200e-01	19.3872	44.914124	-0.000063	-0.627738	-0.212683	-0.005046
 486	2.4250e-01	19.3823	45.245961	-0.000826	-8.256346	-2.797326	0.066367
 487	2.4300e-01	19.4577	45.195929	-0.000124	-1.244836	-0.421762	-0.010006
 488	2.4350e-01	19.5059	45.239547	0.000109	1.085241	0.367690	0.008724
 489	2.4400e-01	19.5508	45.384512	0.000361	3.606832	1.222028	0.028993
 490	2.4450e-01	19.5748	45.460629	0.000189	1.893853	0.641655	0.015223
 491	2.4500e-01	19.6182	45.508523	0.000119	1.191638	0.403738	0.009579
 492	2.4550e-01	19.6663	45.571384	0.000156	1.564024	0.529906	0.012572
 493	2.4600e-01	19.6855	45.657337	0.000214	2.138564	0.724565	0.017191
 494	2.4650e-01	19.7641	45.704803	0.000118	1.180998	0.400133	0.009493
 495	2.4700e-01	19.7802	45.878847	0.000433	4.330326	1.467154	0.034809
 496	2.4750e-01	19.8139	45.974635	0.000238	2.383275	0.807476	0.019158
 497	2.4800e-01	19.8797	46.043482	0.000171	1.712979	0.580373	0.013770
 498	2.4850e-01	19.9021	46.116179	0.000181	1.808736	0.612816	0.014539
 499	2.4900e-01	19.9342	46.147395	0.000078	0.776692	0.263150	0.006243
 500	2.4950e-01	19.9631	46.394563	0.000615	6.149701	2.083575	0.049433
 501	2.5000e-01	20.0240	46.520712	0.000314	3.138688	1.063416	0.025230
 502	2.5050e-01	19.9887	46.204697	0.000786	7.862680	2.663948	-0.063203
 503	2.5100e-01	19.9374	46.097791	0.000266	2.659905	0.901200	-0.021381
 504	2.5150e-01	19.9214	46.174763	-0.000192	-1.915132	-0.648864	0.015395
 505	2.5200e-01	19.8604	46.038779	0.000338	3.383400	1.146327	-0.027197
 506	2.5250e-01	19.8219	46.037496	0.000003	0.031919	0.010814	-0.000257
 507	2.5300e-01	19.7994	45.929734	0.000268	2.681185	0.908410	-0.021552
 508	2.5350e-01	19.7497	45.813848	0.000288	2.883337	0.976901	-0.023177
 509	2.5400e-01	19.7064	45.725329	0.000220	2.202402	0.746194	-0.017704
 510	2.5450e-01	19.6839	45.544016	0.000451	4.511200	1.528436	-0.036263
 511	2.5500e-01	19.6342	45.560693	-0.000041	-0.414945	-0.140587	0.003335
 512	2.5550e-01	19.5925	45.433689	0.000316	3.159968	1.070626	-0.025401
 513	2.5600e-01	19.5235	45.534608	-0.000251	-2.510951	-0.850733	0.020184
 514	2.5650e-01	19.5075	45.372111	0.000404	4.043056	1.369825	-0.032500
 515	2.5700e-01	19.4738	45.250665	0.000302	3.021653	1.023764	-0.024289
 516	2.5750e-01	19.4241	45.078332	0.000429	4.287767	1.452735	-0.034467
 517	2.5800e-01	19.4096	44.920966	0.000392	3.915381	1.326567	-0.031473
 518	2.5850e-01	19.3519	45.008629	-0.000218	-2.181122	-0.738984	0.017533
 519	2.5900e-01	19.3150	44.812777	0.000487	4.872947	1.650999	-0.039170
 520	2.5950e-01	19.2765	44.754192	0.000146	1.457628	0.493858	-0.011717
 521	2.6000e-01	19.2139	44.789257	-0.000087	-0.872449	-0.295594	0.007013
 522	2.6050e-01	19.1930	44.730245	0.000147	1.468268	0.497463	-0.011802
 523	2.6100e-01	19.1610	44.388573	0.000850	8.501058	2.880236	-0.068335
 524	2.6150e-01	19.0984	44.424493	-0.000089	-0.893728	-0.302803	0.007184
 525	2.6200e-01	19.0599	44.506170	-0.000203	-2.032168	-0.688517	0.016335
 526	2.6250e-01	19.0358	44.343672	0.000404	4.043056	1.369825	-0.032500
 527	2.6300e-01	18.9845	44.112754	0.000575	5.745396	1.946593	-0.046184
 528	2.6350e-01	18.9508	44.151668	-0.000097	-0.968206	-0.328037	0.007783
 529	2.6400e-01	18.9139	43.966934	0.000460	4.596316	1.557274	-0.036947
 530	2.6450e-01	18.8754	43.937000	0.000074	0.744774	0.252336	-0.005987
 531	2.6500e-01	18.8225	43.877988	0.000147	1.468268	0.497463	-0.011802
 532	2.6550e-01	18.7824	43.740720	0.000342	3.415319	1.157141	-0.027454
 533	2.6600e-01	18.7583	43.601314	0.000347	3.468517	1.175165	-0.027881
 534	2.6650e-01	18.7102	43.611150	-0.000024	-0.244711	-0.082910	0.001967
 535	2.6700e-01	18.6701	43.403752	0.000516	5.160216	1.748329	-0.041480
 536	2.6750e-01	18.6171	43.552993	-0.000371	-3.713228	-1.258076	0.029848
 537	2.6800e-01	18.5915	43.509803	0.000107	1.074602	0.364085	-0.008638
 538	2.6850e-01	18.5626	43.207044	0.000753	7.532852	2.552199	-0.060552
 539	2.6900e-01	18.4920	43.245958	-0.000097	-0.968206	-0.328037	0.007783
 540	2.6950e-01	18.4551	43.319509	-0.000183	-1.830015	-0.620026	0.014710
 541	2.7000e-01	18.4262	43.149315	0.000423	4.234569	1.434711	-0.034039
 542	2.7050e-01	18.3973	42.852115	0.000739	7.394537	2.505337	-0.059440
 543	2.7100e-01	18.3428	42.879055	-0.000067	-0.670296	-0.227102	0.005388
 544	2.7150e-01	18.3043	42.800372	0.000196	1.957690	0.663283	-0.015737
 545	2.7200e-01	18.2690	42.633171	0.000416	4.160092	1.409477	-0.033440
 546	2.7250e-01	18.2337	42.605803	0.000068	0.680936	0.230707	-0.005474
 547	2.7300e-01	18.1856	42.623763	-0.000045	-0.446864	-0.151402	0.003592
 548	2.7350e-01	18.1326	42.590836	0.000082	0.819251	0.277570	-0.006585
 549	2.7400e-01	18.1150	42.380444	0.000523	5.234694	1.773562	-0.042078
 550	2.7450e-01	18.0829	42.134560	0.000612	6.117782	2.072761	-0.049177
 551	2.7500e-01	18.0091	42.270117	-0.000337	-3.372760	-1.142722	0.027111
 552	2.7550e-01	18.0123	42.002851	-0.000665	-6.649763	-2.253001	-0.053453
 553	2.7600e-01	17.9594	41.968214	0.000086	0.861809	0.291989	-0.006928
 554	2.7650e-01	17.9113	41.799302	0.000420	4.202650	1.423897	-0.033782
 555	2.7700e-01	17.8695	41.869432	-0.000174	-1.744898	-0.591187	0.014026
 556	2.7750e-01	17.8375	41.774927	0.000235	2.351356	0.796661	-0.018901
 557	2.7800e-01	17.7813	41.730454	0.000111	1.106521	0.374899	-0.008895
 558	2.7850e-01	17.7829	41.440524	-0.000721	-7.213663	-2.444055	-0.057986
 559	2.7900e-01	17.7139	41.423419	0.000043	0.425585	0.144192	-0.003421
 560	2.7950e-01	17.6610	41.501247	-0.000194	-1.936411	-0.656074	0.015566
 561	2.8000e-01	17.6273	41.154870	0.000862	8.618093	2.919889	-0.069275
 562	2.8050e-01	17.5840	41.180528	-0.000064	-0.638377	-0.216288	0.005132
 563	2.8100e-01	17.5487	41.019313	0.000401	4.011137	1.359010	-0.032243
 564	2.8150e-01	17.5214	41.087305	-0.000169	-1.691700	-0.573163	0.013598
 565	2.8200e-01	17.4845	40.871355	0.000537	5.373009	1.820425	-0.043190
 566	2.8250e-01	17.4220	40.685765	0.000462	4.617596	1.564484	-0.037118
 567	2.8300e-01	17.3883	40.662674	0.000057	0.574540	0.194659	-0.004618
 568	2.8350e-01	17.3562	40.603661	0.000147	1.468268	0.497463	-0.011802
 569	2.8400e-01	17.3193	40.511294	0.000230	2.298158	0.778637	-0.018473
 570	2.8450e-01	17.2664	40.515570	-0.000011	-0.106396	-0.036048	0.000855
 571	2.8500e-01	17.2263	40.374882	0.000350	3.500435	1.185980	-0.028138
 572	2.8550e-01	17.1942	40.388993	-0.000035	-0.351108	-0.118958	0.002822
 573	2.8600e-01	17.1557	40.190148	0.000495	4.947424	1.676233	-0.039769
 574	2.8650e-01	17.1059	40.159359	0.000077	0.766053	0.259546	-0.006158
 575	2.8700e-01	17.0803	40.025940	0.000332	3.319562	1.124698	-0.026684
 576	2.8750e-01	17.0482	39.806140	0.000547	5.468765	1.852868	-0.043960
 577	2.8800e-01	16.9840	39.926730	-0.000300	-3.000373	-1.016554	0.024118
 578	2.8850e-01	16.9519	39.765516	0.000401	4.011137	1.359010	-0.032243
 579	2.8900e-01	16.8878	39.732589	0.000082	0.819251	0.277570	-0.006585
 580	2.8950e-01	16.8717	39.593610	0.000346	3.457877	1.171560	-0.027796
 581	2.9000e-01	16.8268	39.507658	0.000214	2.138564	0.724565	-0.017191
 582	2.9050e-01	16.7915	39.491408	0.000040	0.404306	0.136982	-0.003250
 583	2.9100e-01	16.7498	39.324634	0.000415	4.149452	1.405873	-0.033355
 584	2.9150e-01	16.7081	39.172399	0.000379	3.787705	1.283309	-0.030447
 585	2.9200e-01	16.6728	39.094144	0.000195	1.947051	0.659679	-0.015651
 586	2.9250e-01	16.6503	38.899147	0.000485	4.851667	1.643789	-0.038999
 587	2.9300e-01	16.5926	38.944475	-0.000113	-1.127800	-0.382109	0.009066
 588	2.9350e-01	16.5589	38.882470	0.000154	1.542745	0.522696	-0.012401
 589	2.9400e-01	16.5076	38.758886	0.000307	3.074851	1.041788	-0.024717
 590	2.9450e-01	16.4658	38.775136	-0.000040	-0.404306	-0.136982	0.003250
 591	2.9500e-01	16.4514	38.505304	0.000671	6.713601	2.274630	-0.053966
 592	2.9550e-01	16.3872	38.413792	0.000228	2.276879	0.771427	-0.018302
 593	2.9600e-01	16.3407	38.468528	-0.000136	-1.361872	-0.461415	0.010947
 594	2.9650e-01	16.2910	38.425766	0.000106	1.063962	0.360480	-0.008553
 595	2.9700e-01	16.2637	38.249157	0.000439	4.394164	1.488783	-0.035322
 596	2.9750e-01	16.2284	38.246163	0.000007	0.074477	0.025234	-0.000599
 597	2.9800e-01	16.1626	38.137546	0.000270	2.702464	0.915620	-0.021723
 598	2.9850e-01	16.1626	37.910050	0.000566	5.660279	1.917754	-0.045499
 599	2.9900e-01	16.0696	38.098632	-0.000469	-4.692073	-1.589717	0.037717
 600	2.9950e-01	16.0760	37.781334	-0.000789	-7.894599	-2.674763	-0.063460
 601	3.0000e-01	16.0231	37.656040	0.000312	3.117409	1.056207	-0.025059
 602	3.0050e-01	15.9814	37.633804	0.000055	0.553260	0.187450	-0.004447
 603	3.0100e-01	15.9509	37.540154	0.000233	2.330077	0.789451	-0.018730
 604	3.0150e-01	15.8996	37.390913	0.000371	3.713228	1.258076	-0.029848
 605	3.0200e-01	15.8659	37.458477	-0.000168	-1.681060	-0.569559	0.013513
 606	3.0250e-01	15.8530	37.346440	0.000279	2.787581	0.944458	-0.022408
 607	3.0300e-01	15.7776	37.227987	0.000295	2.947175	0.998530	-0.023690
 608	3.0350e-01	15.7455	37.152725	0.000187	1.872573	0.634445	-0.015052
 609	3.0400e-01	15.7135	37.098845	0.000134	1.340592	0.454205	-0.010776
 610	3.0450e-01	15.6509	36.823454	0.000685	6.851916	2.321492	-0.055078
 611	3.0500e-01	15.6220	36.835855	-0.000031	-0.308549	-0.104539	0.002480
 612	3.0550e-01	15.5931	36.801645	0.000085	0.851170	0.288384	-0.006842
 613	3.0600e-01	15.5450	36.680627	0.000301	3.011013	1.020159	-0.024204
 614	3.0650e-01	15.5129	36.511287	0.000421	4.213290	1.427501	-0.033868
 615	3.0700e-01	15.4728	36.397111	0.000284	2.840779	0.962482	-0.022835
 616	3.0750e-01	15.4247	36.377013	0.000050	0.500062	0.169426	-0.004020
 617	3.0800e-01	15.3942	36.308165	0.000171	1.712979	0.580373	-0.013770
 618	3.0850e-01	15.3557	36.150372	0.000393	3.926020	1.330172	-0.031559
 619	3.0900e-01	15.3124	36.010111	0.000349	3.489796	1.182375	-0.028052
 620	3.0950e-01	15.2723	36.053728	-0.000109	-1.085241	-0.367690	0.008724
 621	3.1000e-01	15.2290	35.923730	0.000323	3.234445	1.095860	-0.026000
 622	3.1050e-01	15.1857	35.913895	0.000024	0.244711	0.082910	-0.001967
 623	3.1100e-01	15.1343	35.675280	0.000594	5.936909	2.011479	-0.047723
 624	3.1150e-01	15.1071	35.730016	-0.000136	-1.361872	-0.461415	0.010947
 625	3.1200e-01	15.0766	35.538868	0.000476	4.755911	1.611346	-0.038230
 626	3.1250e-01	15.0317	35.488408	0.000126	1.255475	0.425367	-0.010092
 627	3.1300e-01	14.9835	35.451204	0.000093	0.925647	0.313618	-0.007441
 628	3.1350e-01	14.9595	35.207458	0.000606	6.064584	2.054737	-0.048749
 629	3.1400e-01	14.9097	35.186077	0.000053	0.531981	0.180240	-0.004276
 630	3.1450e-01	14.8696	35.104828	0.000202	2.021528	0.684912	-0.016250
 631	3.1500e-01	14.8215	35.070618	0.000085	0.851170	0.288384	-0.006842
 632	3.1550e-01	14.7846	35.065914	0.000012	0.117036	0.039653	-0.000941
 633	3.1600e-01	14.7429	34.805490	0.000648	6.479529	2.195324	-0.052085
 634	3.1650e-01	14.7172	34.723386	0.000204	2.042807	0.692122	-0.016421
 635	3.1700e-01	14.6627	34.565165	0.000394	3.936660	1.333776	-0.031644
 636	3.1750e-01	14.6210	34.604506	-0.000098	-0.978845	-0.331642	0.007868
 637	3.1800e-01	14.5568	34.603651	0.000002	0.021279	0.007210	-0.000171
 638	3.1850e-01	14.5616	34.439443	-0.000409	-4.085615	-1.384244	-0.032842
 639	3.1900e-01	14.4910	34.345793	0.000233	2.330077	0.789451	-0.018730
 640	3.1950e-01	14.4654	34.262834	0.000206	2.064087	0.699331	-0.016592
 641	3.2000e-01	14.4349	34.083659	0.000446	4.458001	1.510412	-0.035835
 642	3.2050e-01	14.3836	34.107178	-0.000059	-0.585179	-0.198264	0.004704
 643	3.2100e-01	14.3434	33.841195	0.000662	6.617845	2.242186	-0.053197
 644	3.2150e-01	14.2985	33.731723	0.000272	2.723743	0.922829	-0.021894
 645	3.2200e-01	14.2648	33.724453	0.000018	0.180874	0.061282	-0.001454
 646	3.2250e-01	14.2344	33.686395	0.000095	0.946926	0.320827	-0.007612
 647	3.2300e-01	14.1959	33.624817	0.000153	1.532105	0.519091	-0.012316
 648	3.2350e-01	14.1686	33.385347	0.000596	5.958188	2.018689	-0.047894
 649	3.2400e-01	14.1205	33.240809	0.000360	3.596192	1.218423	-0.028907
 650	3.2450e-01	14.0579	33.359689	-0.000296	-2.957815	-1.002135	0.023776
 651	3.2500e-01	14.0178	33.306236	0.000133	1.329953	0.450600	-0.010691
 652	3.2550e-01	13.9905	33.144166	0.000403	4.032417	1.366220	-0.032414
 653	3.2600e-01	13.9552	32.959432	0.000460	4.596316	1.557274	-0.036947
 654	3.2650e-01	13.9167	32.962425	-0.000007	-0.074477	-0.025234	0.000599
 655	3.2700e-01	13.8654	32.796507	0.000413	4.128173	1.398663	-0.033184
 656	3.2750e-01	13.8285	32.696442	0.000249	2.489671	0.843524	-0.020013
 657	3.2800e-01	13.7868	32.641279	0.000137	1.372511	0.465019	-0.011033
 658	3.2850e-01	13.7595	32.508715	0.000330	3.298283	1.117488	-0.026513
 659	3.2900e-01	13.6953	32.376579	0.000329	3.287643	1.113884	-0.026427
 660	3.2950e-01	13.6520	32.497597	-0.000301	-3.011013	-1.020159	0.024204
 661	3.3000e-01	13.6199	32.282073	0.000536	5.362369	1.816820	-0.043105
 662	3.3050e-01	13.5911	32.195265	0.000216	2.159843	0.731775	-0.017362
 663	3.3100e-01	13.5445	32.220068	-0.000062	-0.617098	-0.209078	0.004960
 664	3.3150e-01	13.5157	31.818528	0.000999	9.990605	3.384908	-0.080308
 665	3.3200e-01	13.4547	31.961354	-0.000355	-3.553634	-1.204004	0.028565
 666	3.3250e-01	13.4194	31.804416	0.000390	3.904741	1.322962	-0.031388
 667	3.3300e-01	13.3905	31.801850	0.000006	0.063838	0.021629	-0.000513
 668	3.3350e-01	13.3456	31.725305	0.000190	1.904492	0.645259	-0.015309
 669	3.3400e-01	13.3071	31.521328	0.000508	5.075099	1.719490	-0.040795
 670	3.3450e-01	13.2670	31.490111	0.000078	0.776692	0.263150	-0.006243
 671	3.3500e-01	13.2413	31.301956	0.000468	4.681433	1.586113	-0.037631
 672	3.3550e-01	13.1788	31.259621	0.000105	1.053323	0.356875	-0.008467
 673	3.3600e-01	13.1451	31.257911	0.000004	0.042558	0.014419	-0.000342
 674	3.3650e-01	13.1114	31.021006	0.000589	5.894350	1.997060	-0.047381
 675	3.3700e-01	13.0552	30.900844	0.000299	2.989734	1.012949	-0.024033
 676	3.3750e-01	13.0248	31.035546	-0.000335	-3.351481	-1.135512	0.026940
 677	3.3800e-01	12.9895	30.878607	0.000390	3.904741	1.322962	-0.031388
 678	3.3850e-01	12.9413	30.622460	0.000637	6.373133	2.159276	-0.051230
 679	3.3900e-01	12.9333	30.515981	0.000265	2.649266	0.897596	-0.021296
 680	3.3950e-01	12.8708	30.447133	0.000171	1.712979	0.580373	-0.013770
 681	3.4000e-01	12.8242	30.408647	0.000096	0.957566	0.324432	-0.007697
 682	3.4050e-01	12.7681	30.339372	0.000172	1.723619	0.583978	-0.013855
 683	3.4100e-01	12.7344	30.276939	0.000155	1.553385	0.526301	-0.012487
 684	3.4150e-01	12.7200	30.069968	0.000515	5.149577	1.744724	-0.041394
 685	3.4200e-01	12.6831	29.966055	0.000259	2.585428	0.875967	-0.020783
 686	3.4250e-01	12.6237	29.810399	0.000387	3.872822	1.312148	-0.031131
 687	3.4300e-01	12.5772	30.021219	-0.000525	-5.245333	-1.777167	0.042164
 688	3.4350e-01	12.5660	29.606422	0.001032	10.320433	3.496657	-0.082959
 689	3.4400e-01	12.5226	29.812965	-0.000514	-5.138937	-1.741119	0.041309
 690	3.4450e-01	12.4713	29.610698	0.000503	5.032541	1.705071	-0.040453
 691	3.4500e-01	12.4184	29.534153	0.000190	1.904492	0.645259	-0.015309
 692	3.4550e-01	12.3863	29.324189	0.000522	5.224054	1.769957	-0.041993
 693	3.4600e-01	12.3366	29.384057	-0.000149	-1.489547	-0.504672	0.011974
 694	3.4650e-01	12.3157	29.213007	0.000426	4.255849	1.441921	-0.034210
 695	3.4700e-01	12.2579	29.059917	0.000381	3.808984	1.290519	-0.030618
 696	3.4750e-01	12.2307	29.122350	-0.000155	-1.553385	-0.526301	0.012487
 697	3.4800e-01	12.1874	29.020575	0.000253	2.532230	0.857943	-0.020355
 698	3.4850e-01	12.1489	28.849098	0.000427	4.266488	1.445525	-0.034296
 699	3.4900e-01	12.1152	28.747323	0.000253	2.532230	0.857943	-0.020355
 700	3.4950e-01	12.0751	28.612193	0.000336	3.362120	1.139117	-0.027026
 701	3.5000e-01	12.0366	28.437722	0.000434	4.340966	1.470759	-0.034894
 702	3.5050e-01	11.9788	28.491603	-0.000134	-1.340592	-0.454205	0.010776
 703	3.5100e-01	11.9515	28.339796	0.000378	3.777066	1.279704	-0.030361
 704	3.5150e-01	11.9130	28.232890	0.000266	2.659905	0.901200	-0.021381
 705	3.5200e-01	11.8553	28.093056	0.000348	3.479156	1.178770	-0.027967
 706	3.5250e-01	11.8328	28.117858	-0.000062	-0.617098	-0.209078	0.004960
 707	3.5300e-01	11.7670	28.100753	0.000043	0.425585	0.144192	-0.003421
 708	3.5350e-01	11.7302	28.015228	0.000213	2.127924	0.720960	-0.017105
 709	3.5400e-01	11.7029	27.826218	0.000470	4.702713	1.593322	-0.037802
 710	3.5450e-01	11.6612	27.842040	-0.000039	-0.393666	-0.133378	0.003164
 711	3.5500e-01	11.6323	27.503361	0.000843	8.426580	2.855003	-0.067736
 712	3.5550e-01	11.5890	27.624379	-0.000301	-3.011013	-1.020159	0.024204
 713	3.5600e-01	11.5441	27.378494	0.000612	6.117782	2.072761	-0.049177
 714	3.5650e-01	11.5056	27.325896	0.000131	1.308673	0.443391	-0.010520
 715	3.5700e-01	11.4526	27.265601	0.000150	1.500187	0.508277	-0.012059
 716	3.5750e-01	11.4334	27.138597	0.000316	3.159968	1.070626	-0.025401
 717	3.5800e-01	11.3997	26.929488	0.000520	5.202775	1.762748	-0.041822
 718	3.5850e-01	11.3564	26.823437	0.000264	2.638626	0.893991	-0.021210
 719	3.5900e-01	11.3098	26.943599	-0.000299	-2.989734	-1.012949	0.024033
 720	3.5950e-01	11.2778	26.690445	0.000630	6.298656	2.134042	-0.050631
 721	3.6000e-01	11.2425	26.667781	0.000056	0.563900	0.191054	-0.004533
 722	3.6050e-01	11.1975	26.583111	0.000211	2.106645	0.713751	-0.016934
 723	3.6100e-01	11.1526	26.617749	-0.000086	-0.861809	-0.291989	0.006928
 724	3.6150e-01	11.1029	26.323115	0.000733	7.330699	2.483708	-0.058927
 725	3.6200e-01	11.0740	26.423607	-0.000250	-2.500311	-0.847128	0.020098
 726	3.6250e-01	11.0435	26.162328	0.000650	6.500809	2.202534	-0.052256
 727	3.6300e-01	10.9986	26.208939	-0.000116	-1.159719	-0.392923	0.009322
 728	3.6350e-01	10.9617	26.027199	0.000452	4.521839	1.532041	-0.036348
 729	3.6400e-01	10.9072	26.005817	0.000053	0.531981	0.180240	-0.004276
 730	3.6450e-01	10.8751	25.848451	0.000392	3.915381	1.326567	-0.031473
 731	3.6500e-01	10.8157	25.702631	0.000363	3.628111	1.229237	-0.029164
 732	3.6550e-01	10.8157	25.708190	-0.000014	-0.138315	-0.046862	0.001112
 733	3.6600e-01	10.7452	25.413129	0.000734	7.341339	2.487313	-0.059012
 734	3.6650e-01	10.6938	25.502930	-0.000223	-2.234321	-0.757008	0.017960
 735	3.6700e-01	10.6698	25.506779	-0.000010	-0.095757	-0.032443	0.000770
 736	3.6750e-01	10.6008	25.334873	0.000428	4.277128	1.449130	-0.034381
 737	3.6800e-01	10.5671	25.270729	0.000160	1.595943	0.540720	-0.012829
 738	3.6850e-01	10.5478	25.032542	0.000593	5.926269	2.007874	-0.047637
 739	3.6900e-01	10.4949	24.966688	0.000164	1.638502	0.555139	-0.013171
 740	3.6950e-01	10.4676	25.013727	-0.000117	-1.170358	-0.396528	0.009408
 741	3.7000e-01	10.4291	24.758862	0.000634	6.341214	2.148462	-0.050973
 742	3.7050e-01	10.3906	24.707547	0.000128	1.276755	0.432576	-0.010263
 743	3.7100e-01	10.3601	24.614325	0.000232	2.319437	0.785847	-0.018644
 744	3.7150e-01	10.3104	24.483899	0.000325	3.245085	1.099464	-0.026085
 745	3.7200e-01	10.2815	24.346631	0.000342	3.415319	1.157141	-0.027454
 746	3.7250e-01	10.2318	24.372716	-0.000065	-0.649017	-0.219893	0.005217
 747	3.7300e-01	10.1756	24.176009	0.000489	4.894226	1.658209	-0.039342
 748	3.7350e-01	10.1580	24.236304	-0.000150	-1.500187	-0.508277	0.012059
 749	3.7400e-01	10.1115	24.007524	0.000569	5.692198	1.928569	-0.045756
 750	3.7450e-01	10.0826	23.875816	0.000328	3.277003	1.110279	-0.026342
 751	3.7500e-01	10.0377	23.791574	0.000210	2.096005	0.710146	-0.016848
 752	3.7550e-01	9.9831	23.685095	0.000265	2.649266	0.897596	-0.021296
 753	3.7600e-01	9.9382	23.696641	-0.000029	-0.287270	-0.097330	0.002309
 754	3.7650e-01	9.8981	23.591873	0.000261	2.606707	0.883176	-0.020954
 755	3.7700e-01	9.8404	23.523453	0.000170	1.702339	0.576768	-0.013684
 756	3.7750e-01	9.8035	23.529439	-0.000015	-0.148955	-0.050467	0.001197
 757	3.7800e-01	9.7810	23.298522	0.000575	5.745396	1.946593	-0.046184
 758	3.7850e-01	9.7329	23.227963	0.000176	1.755538	0.594792	-0.014112
 759	3.7900e-01	9.7088	22.941455	0.000713	7.128546	2.415217	-0.057302
 760	3.7950e-01	9.6719	23.090696	-0.000371	-3.713228	-1.258076	0.029848
 761	3.8000e-01	9.6270	22.884580	0.000513	5.128298	1.737514	-0.041223
 762	3.8050e-01	9.5965	22.790930	0.000233	2.330077	0.789451	-0.018730
 763	3.8100e-01	9.5420	22.760997	0.000074	0.744774	0.252336	-0.005987
 764	3.8150e-01	9.5179	22.571559	0.000471	4.713352	1.596927	-0.037888
 765	3.8200e-01	9.4698	22.472777	0.000246	2.457753	0.832709	-0.019756
 766	3.8250e-01	9.4537	22.442416	0.000076	0.755413	0.255941	-0.006072
 767	3.8300e-01	9.3864	22.326957	0.000287	2.872698	0.973296	-0.023092
 768	3.8350e-01	9.3495	22.270083	0.000142	1.415070	0.479439	-0.011375
 769	3.8400e-01	9.3046	22.222189	0.000119	1.191638	0.403738	-0.009579
 770	3.8450e-01	9.2612	22.107585	0.000285	2.851419	0.966087	-0.022921
 771	3.8500e-01	9.2243	22.010514	0.000242	2.415194	0.818290	-0.019414
 772	3.8550e-01	9.2003	21.898049	0.000280	2.798220	0.948063	-0.022493
 773	3.8600e-01	9.1650	21.691506	0.000514	5.138937	1.741119	-0.041309
 774	3.8650e-01	9.1104	21.503351	0.000468	4.681433	1.586113	-0.037631
 775	3.8700e-01	9.0784	21.468713	0.000086	0.861809	0.291989	-0.006928
 776	3.8750e-01	9.0302	21.477266	-0.000021	-0.212792	-0.072096	0.001711
 777	3.8800e-01	8.9965	21.347268	0.000323	3.234445	1.095860	-0.026000
 778	3.8850e-01	8.9564	21.251052	0.000239	2.393915	0.811080	-0.019243
 779	3.8900e-01	8.9115	21.040233	0.000525	5.245333	1.777167	-0.042164
 780	3.8950e-01	8.8618	21.158685	-0.000295	-2.947175	-0.998530	0.023690
 781	3.9000e-01	8.8361	21.036384	0.000304	3.042932	1.030973	-0.024460
 782	3.9050e-01	8.7719	20.948721	0.000218	2.181122	0.738984	-0.017533
 783	3.9100e-01	8.7463	20.798197	0.000375	3.745147	1.268890	-0.030105
 784	3.9150e-01	8.7238	20.631423	0.000415	4.149452	1.405873	-0.033355
 785	3.9200e-01	8.6757	20.501852	0.000322	3.223805	1.092255	-0.025914
 786	3.9250e-01	8.6195	20.522378	-0.000051	-0.510702	-0.173030	0.004105
 787	3.9300e-01	8.5746	20.520240	0.000005	0.053198	0.018024	-0.000428
 788	3.9350e-01	8.5377	20.409485	0.000276	2.755662	0.933644	-0.022151
 789	3.9400e-01	8.5024	20.402643	0.000017	0.170234	0.057677	-0.001368
 790	3.9450e-01	8.4752	20.229455	0.000431	4.309047	1.459945	-0.034638
 791	3.9500e-01	8.4543	20.010939	0.000544	5.436847	1.842053	-0.043703
 792	3.9550e-01	8.3982	19.735120	0.000686	6.862556	2.325097	-0.055164
 793	3.9600e-01	8.3452	19.754363	-0.000048	-0.478783	-0.162216	0.003849
 794	3.9650e-01	8.3163	19.707325	0.000117	1.170358	0.396528	-0.009408
 795	3.9700e-01	8.2794	19.602556	0.000261	2.606707	0.883176	-0.020954
 796	3.9750e-01	8.2233	19.518742	0.000209	2.085366	0.706541	-0.016763
 797	3.9800e-01	8.1912	19.360093	0.000395	3.947300	1.337381	-0.031730
 798	3.9850e-01	8.1399	19.384468	-0.000061	-0.606458	-0.205474	0.004875
 799	3.9900e-01	8.1014	19.392592	-0.000020	-0.202153	-0.068491	0.001625
 800	3.9950e-01	8.0805	19.156116	0.000588	5.883711	1.993455	-0.047295
 801	4.0000e-01	8.0372	19.080854	0.000187	1.872573	0.634445	-0.015052
 802	4.0050e-01	7.9859	19.060755	0.000050	0.500062	0.169426	-0.004020
 803	4.0100e-01	7.9329	18.763128	0.000741	7.405177	2.508942	-0.059525
 804	4.0150e-01	7.9008	18.840956	-0.000194	-1.936411	-0.656074	0.015566
 805	4.0200e-01	7.8848	18.771680	0.000172	1.723619	0.583978	-0.013855
 806	4.0250e-01	7.8319	18.601486	0.000423	4.234569	1.434711	-0.034039
 807	4.0300e-01	7.7918	18.366292	0.000585	5.851792	1.982641	-0.047039
 808	4.0350e-01	7.7292	18.510829	-0.000360	-3.596192	-1.218423	0.028907
 809	4.0400e-01	7.7148	18.495007	0.000039	0.393666	0.133378	-0.003164
 810	4.0450e-01	7.6650	18.329516	0.000412	4.117534	1.395058	-0.033098
 811	4.0500e-01	7.6313	18.147348	0.000453	4.532479	1.535645	-0.036434
 812	4.0550e-01	7.5928	17.916430	0.000575	5.745396	1.946593	-0.046184
 813	4.0600e-01	7.5575	17.928403	-0.000030	-0.297909	-0.100934	0.002395
 814	4.0650e-01	7.5030	17.644460	0.000706	7.064709	2.393588	-0.056789
 815	4.0700e-01	7.4773	17.782156	-0.000343	-3.425958	-1.160746	0.027539
 816	4.0750e-01	7.4340	17.542258	0.000597	5.968828	2.022294	-0.047980
 817	4.0800e-01	7.4035	17.404562	0.000343	3.425958	1.160746	-0.027539
 818	4.0850e-01	7.3394	17.452457	-0.000119	-1.191638	-0.403738	0.009579
 819	4.0900e-01	7.3073	17.361372	0.000227	2.266239	0.767823	-0.018217
 820	4.0950e-01	7.2720	17.267295	0.000234	2.340717	0.793056	-0.018816
 821	4.1000e-01	7.2223	17.269005	-0.000004	-0.042558	-0.014419	0.000342
 822	4.1050e-01	7.1854	17.127034	0.000353	3.532354	1.196794	-0.028394
 823	4.1100e-01	7.1453	16.973089	0.000383	3.830264	1.297728	-0.030789
 824	4.1150e-01	7.1100	16.806315	0.000415	4.149452	1.405873	-0.033355
 825	4.1200e-01	7.0602	16.727204	0.000197	1.968330	0.666888	-0.015822
 826	4.1250e-01	7.0314	16.534773	0.000479	4.787830	1.622161	-0.038486
 827	4.1300e-01	6.9912	16.642534	-0.000268	-2.681185	-0.908410	0.021552
 828	4.1350e-01	6.9640	16.485168	0.000392	3.915381	1.326567	-0.031473
 829	4.1400e-01	6.9030	16.301717	0.000456	4.564398	1.546460	-0.036690
 830	4.1450e-01	6.8517	16.290599	0.000028	0.276630	0.093725	-0.002224
 831	4.1500e-01	6.8180	16.261093	0.000073	0.734134	0.248731	-0.005901
 832	4.1550e-01	6.7795	16.146489	0.000285	2.851419	0.966087	-0.022921
 833	4.1600e-01	6.7490	16.089187	0.000143	1.425709	0.483043	-0.011460
 834	4.1650e-01	6.7169	16.019057	0.000174	1.744898	0.591187	-0.014026
 835	4.1700e-01	6.6736	15.858697	0.000399	3.989858	1.351801	-0.032072
 836	4.1750e-01	6.6255	15.559787	0.000744	7.437095	2.519756	-0.059782
 837	4.1800e-01	6.5934	15.564491	-0.000012	-0.117036	-0.039653	0.000941
 838	4.1850e-01	6.5725	15.393441	0.000426	4.255849	1.441921	-0.034210
 839	4.1900e-01	6.5164	15.233081	0.000399	3.989858	1.351801	-0.032072
 840	4.1950e-01	6.5020	15.244627	-0.000029	-0.287270	-0.097330	0.002309
 841	4.2000e-01	6.4346	15.244200	0.000001	0.010640	0.003605	-0.000086
 842	4.2050e-01	6.3832	15.128313	0.000288	2.883337	0.976901	-0.023177
 843	4.2100e-01	6.3592	15.000026	0.000319	3.191886	1.081440	-0.025658
 844	4.2150e-01	6.3175	14.984631	0.000038	0.383026	0.129773	-0.003079
 845	4.2200e-01	6.2693	14.816147	0.000419	4.192011	1.420292	-0.033697
 846	4.2250e-01	6.2405	14.760555	0.000138	1.383151	0.468624	-0.011118
 847	4.2300e-01	6.1747	14.849501	-0.000221	-2.213041	-0.749799	0.017789
 848	4.2350e-01	6.1715	14.634834	0.000534	5.341090	1.809610	-0.042934
 849	4.2400e-01	6.1121	14.400923	0.000582	5.819873	1.971826	-0.046782
 850	4.2450e-01	6.0656	14.334641	0.000165	1.649141	0.558744	-0.013256
 851	4.2500e-01	6.0464	14.249116	0.000213	2.127924	0.720960	-0.017105
 852	4.2550e-01	5.9854	14.054974	0.000483	4.830388	1.636580	-0.038828
 853	4.2600e-01	5.9437	14.007507	0.000118	1.180998	0.400133	-0.009493
 854	4.2650e-01	5.8859	14.010073	-0.000006	-0.063838	-0.021629	0.000513
 855	4.2700e-01	5.8651	13.958330	0.000129	1.287394	0.436181	-0.010349
 856	4.2750e-01	5.8186	13.978856	-0.000051	-0.510702	-0.173030	0.004105
 857	4.2800e-01	5.7913	13.637611	0.000849	8.490418	2.876631	-0.068249
 858	4.2850e-01	5.7464	13.566626	0.000177	1.766177	0.598397	-0.014197
 859	4.2900e-01	5.7095	13.449884	0.000290	2.904617	0.984111	-0.023348
 860	4.2950e-01	5.6758	13.254887	0.000485	4.851667	1.643789	-0.038999
 861	4.3000e-01	5.6052	13.269854	-0.000037	-0.372387	-0.126168	0.002993
 862	4.3050e-01	5.5988	13.209986	0.000149	1.489547	0.504672	-0.011974
 863	4.3100e-01	5.5731	12.953411	0.000638	6.383773	2.162881	-0.051315
 864	4.3150e-01	5.5137	12.892688	0.000151	1.510826	0.511882	-0.012145
 865	4.3200e-01	5.4785	12.737033	0.000387	3.872822	1.312148	-0.031131
 866	4.3250e-01	5.4271	12.884136	-0.000366	-3.660030	-1.240052	0.029421
 867	4.3300e-01	5.4111	12.513385	0.000922	9.224552	3.125363	-0.074150
 868	4.3350e-01	5.3630	12.429142	0.000210	2.096005	0.710146	-0.016848
 869	4.3400e-01	5.3132	12.466346	-0.000093	-0.925647	-0.313618	0.007441
 870	4.3450e-01	5.2699	12.462070	0.000011	0.106396	0.036048	-0.000855
 871	4.3500e-01	5.2362	12.299144	0.000405	4.053696	1.373429	-0.032585
 872	4.3550e-01	5.1913	12.127239	0.000428	4.277128	1.449130	-0.034381
 873	4.3600e-01	5.1416	12.110134	0.000043	0.425585	0.144192	-0.003421
 874	4.3650e-01	5.1063	12.121252	-0.000028	-0.276630	-0.093725	0.002224
 875	4.3700e-01	5.0742	12.077207	0.000110	1.095881	0.371295	-0.008809
 876	4.3750e-01	5.0309	11.835171	0.000602	6.022026	2.040318	-0.048407
 877	4.3800e-01	4.9635	11.931387	-0.000239	-2.393915	-0.811080	0.019243
 878	4.3850e-01	4.9523	11.731258	0.000498	4.979343	1.687047	-0.040026
 879	4.3900e-01	4.8993	11.496919	0.000583	5.830513	1.975431	-0.046868
 880	4.3950e-01	4.8688	11.647871	-0.000376	-3.755786	-1.272495	0.030190
 881	4.4000e-01	4.8239	11.363500	0.000708	7.075348	2.397193	-0.056874
 882	4.4050e-01	4.7838	11.365211	-0.000004	-0.042558	-0.014419	0.000342
 883	4.4100e-01	4.7325	11.246331	0.000296	2.957815	1.002135	-0.023776
 884	4.4150e-01	4.7213	11.112057	0.000334	3.340841	1.131908	-0.026855
 885	4.4200e-01	4.6731	10.908507	0.000506	5.064460	1.715885	-0.040710
 886	4.4250e-01	4.6410	10.820416	0.000219	2.191762	0.742589	-0.017618
 887	4.4300e-01	4.5993	10.733181	0.000217	2.170483	0.735379	-0.017447
 888	4.4350e-01	4.5528	10.527920	0.000511	5.107018	1.730305	-0.041052
 889	4.4400e-01	4.5127	10.535618	-0.000019	-0.191513	-0.064886	0.001539
 890	4.4450e-01	4.4758	10.309832	0.000562	5.617720	1.903335	-0.045157
 891	4.4500e-01	4.4373	10.308549	0.000003	0.031919	0.010814	-0.000257
 892	4.4550e-01	4.3860	10.284602	0.000060	0.595819	0.201869	-0.004789
 893	4.4600e-01	4.3282	10.316246	-0.000079	-0.787332	-0.266755	0.006329
 894	4.4650e-01	4.3042	10.240129	0.000189	1.893853	0.641655	-0.015223
 895	4.4700e-01	4.2785	10.079769	0.000399	3.989858	1.351801	-0.032072
 896	4.4750e-01	4.2239	9.831747	0.000617	6.170980	2.090785	-0.049605
 897	4.4800e-01	4.1822	9.880496	-0.000121	-1.212917	-0.410947	0.009750
 898	4.4850e-01	4.1550	9.690630	0.000472	4.723992	1.600532	-0.037973
 899	4.4900e-01	4.1181	9.577737	0.000281	2.808860	0.951668	-0.022579
 900	4.4950e-01	4.0699	9.402411	0.000436	4.362245	1.477969	-0.035065
 901	4.5000e-01	4.0314	9.513166	-0.000276	-2.755662	-0.933644	0.022151
 902	4.5050e-01	3.9833	9.304485	0.000519	5.192135	1.759143	-0.041736
 903	4.5100e-01	3.9432	9.151822	0.000380	3.798345	1.286914	-0.030532
 904	4.5150e-01	3.9095	9.066297	0.000213	2.127924	0.720960	-0.017105
 905	4.5200e-01	3.8742	9.100935	-0.000086	-0.861809	-0.291989	0.006928
 906	4.5250e-01	3.8486	8.876004	0.000560	5.596441	1.896126	-0.044986
 907	4.5300e-01	3.7844	8.692553	0.000456	4.564398	1.546460	-0.036690
 908	4.5350e-01	3.7555	8.651501	0.000102	1.021404	0.346061	-0.008210
 909	4.5400e-01	3.7010	8.564693	0.000216	2.159843	0.731775	-0.017362
 910	4.5450e-01	3.6673	8.556568	0.000020	0.202153	0.068491	-0.001625
 911	4.5500e-01	3.6288	8.418017	0.000345	3.447237	1.167956	-0.027710
 912	4.5550e-01	3.5887	8.326506	0.000228	2.276879	0.771427	-0.018302
 913	4.5600e-01	3.5742	8.095588	0.000575	5.745396	1.946593	-0.046184
 914	4.5650e-01	3.5069	8.110555	-0.000037	-0.372387	-0.126168	0.002993
 915	4.5700e-01	3.4700	8.141344	-0.000077	-0.766053	-0.259546	0.006158
 916	4.5750e-01	3.4347	7.907005	0.000583	5.830513	1.975431	-0.046868
 917	4.5800e-01	3.3962	7.853124	0.000134	1.340592	0.454205	-0.010776
 918	4.5850e-01	3.3464	7.765889	0.000217	2.170483	0.735379	-0.017447
 919	4.5900e-01	3.3031	7.579017	0.000465	4.649515	1.575298	-0.037374
 920	4.5950e-01	3.2823	7.408394	0.000425	4.245209	1.438316	-0.034124
 921	4.6000e-01	3.2454	7.385730	0.000056	0.563900	0.191054	-0.004533
 922	4.6050e-01	3.1876	7.425927	-0.000100	-1.000124	-0.338851	0.008039
 923	4.6100e-01	3.1555	7.268988	0.000390	3.904741	1.322962	-0.031388
 924	4.6150e-01	3.1074	7.035077	0.000582	5.819873	1.971826	-0.046782
 925	4.6200e-01	3.0561	7.084254	-0.000122	-1.223556	-0.414552	0.009835
 926	4.6250e-01	3.0368	6.917480	0.000415	4.149452	1.405873	-0.033355
 927	4.6300e-01	2.9807	6.910638	0.000017	0.170234	0.057677	-0.001368
 928	4.6350e-01	2.9662	6.627123	0.000705	7.054069	2.389983	-0.056703
 929	4.6400e-01	2.9037	6.567255	0.000149	1.489547	0.504672	-0.011974
 930	4.6450e-01	2.8603	6.544591	0.000056	0.563900	0.191054	-0.004533
 931	4.6500e-01	2.8347	6.569821	-0.000063	-0.627738	-0.212683	0.005046
 932	4.6550e-01	2.7898	6.424428	0.000362	3.617471	1.225632	-0.029079
 933	4.6600e-01	2.7432	6.195221	0.000570	5.702837	1.932174	-0.045841
 934	4.6650e-01	2.7015	6.183248	0.000030	0.297909	0.100934	-0.002395
 935	4.6700e-01	2.6534	6.187096	-0.000010	-0.095757	-0.032443	0.000770
 936	4.6750e-01	2.6470	5.888186	0.000744	7.437095	2.519756	-0.059782
 937	4.6800e-01	2.6053	5.777431	0.000276	2.755662	0.933644	-0.022151
 938	4.6850e-01	2.5507	5.739800	0.000094	0.936287	0.317223	-0.007526
 939	4.6900e-01	2.5042	5.590987	0.000370	3.702588	1.254471	-0.029763
 940	4.6950e-01	2.4625	5.679933	-0.000221	-2.213041	-0.749799	0.017789
 941	4.7000e-01	2.4481	5.464410	0.000536	5.362369	1.816820	-0.043105
 942	4.7050e-01	2.3935	5.261715	0.000504	5.043181	1.708676	-0.040539
 943	4.7100e-01	2.3390	5.310892	-0.000122	-1.223556	-0.414552	0.009835
 944	4.7150e-01	2.2989	5.094514	0.000538	5.383648	1.824029	-0.043276
 945	4.7200e-01	2.2732	4.945700	0.000370	3.702588	1.254471	-0.029763
 946	4.7250e-01	2.2443	4.904220	0.000103	1.032043	0.349666	-0.008296
 947	4.7300e-01	2.1914	4.853333	0.000127	1.266115	0.428971	-0.010177
 948	4.7350e-01	2.1545	4.725045	0.000319	3.191886	1.081440	-0.025658
 949	4.7400e-01	2.0999	4.683566	0.000103	1.032043	0.349666	-0.008296
 950	4.7450e-01	2.0695	4.695967	-0.000031	-0.308549	-0.104539	0.002480
 951	4.7500e-01	2.0470	4.243967	0.001125	11.246080	3.810275	-0.090400
 952	4.7550e-01	1.9828	4.293999	-0.000124	-1.244836	-0.421762	0.010006
 953	4.7600e-01	1.9395	4.381662	-0.000218	-2.181122	-0.738984	0.017533
 954	4.7650e-01	1.9251	4.137916	0.000606	6.064584	2.054737	-0.048749
 955	4.7700e-01	1.8673	4.129363	0.000021	0.212792	0.072096	-0.001711
 956	4.7750e-01	1.8304	3.981405	0.000368	3.681309	1.247261	-0.029592
 957	4.7800e-01	1.7823	3.953182	0.000070	0.702215	0.237917	-0.005645
 958	4.7850e-01	1.7566	3.815487	0.000343	3.425958	1.160746	-0.027539
 959	4.7900e-01	1.7133	3.718843	0.000240	2.404554	0.814685	-0.019329
 960	4.7950e-01	1.6572	3.630325	0.000220	2.202402	0.746194	-0.017704
 961	4.8000e-01	1.6315	3.452860	0.000442	4.415443	1.495993	-0.035493
 962	4.8050e-01	1.5978	3.269837	0.000455	4.553758	1.542855	-0.036605
 963	4.8100e-01	1.5705	3.206548	0.000157	1.574664	0.533511	-0.012658
 964	4.8150e-01	1.5176	3.094510	0.000279	2.787581	0.944458	-0.022408
 965	4.8200e-01	1.4631	3.112043	-0.000044	-0.436224	-0.147797	0.003507
 966	4.8250e-01	1.4310	2.975203	0.000340	3.404679	1.153536	-0.027368
 967	4.8300e-01	1.3893	3.079116	-0.000259	-2.585428	-0.875967	0.020783
 968	4.8350e-01	1.3476	2.909776	0.000421	4.213290	1.427501	-0.033868
 969	4.8400e-01	1.2978	2.760963	0.000370	3.702588	1.254471	-0.029763
 970	4.8450e-01	1.2625	2.693825	0.000167	1.670421	0.565954	-0.013427
 971	4.8500e-01	1.2385	2.566393	0.000317	3.170607	1.074231	-0.025486
 972	4.8550e-01	1.2064	2.412876	0.000382	3.819624	1.294124	-0.030703
 973	4.8600e-01	1.1583	2.178109	0.000584	5.841152	1.979036	-0.046953
 974	4.8650e-01	1.1182	2.108406	0.000173	1.734258	0.587583	-0.013941
 975	4.8700e-01	1.0572	2.111400	-0.000007	-0.074477	-0.025234	0.000599
 976	4.8750e-01	1.0219	2.063933	0.000118	1.180998	0.400133	-0.009493
 977	4.8800e-01	0.9834	1.869792	0.000483	4.830388	1.636580	-0.038828
 978	4.8850e-01	0.9433	1.842851	0.000067	0.670296	0.227102	-0.005388
 979	4.8900e-01	0.9016	1.742359	0.000250	2.500311	0.847128	-0.020098
 980	4.8950e-01	0.8647	1.667952	0.000185	1.851294	0.627235	-0.014881
 981	4.9000e-01	0.8374	1.591835	0.000189	1.893853	0.641655	-0.015223
 982	4.9050e-01	0.7781	1.413943	0.000443	4.426083	1.499597	-0.035578
 983	4.9100e-01	0.7604	1.430193	-0.000040	-0.404306	-0.136982	0.003250
 984	4.9150e-01	0.6946	1.154802	0.000685	6.851916	2.321492	-0.055078
 985	4.9200e-01	0.6625	1.208683	-0.000134	-1.340592	-0.454205	0.010776
 986	4.9250e-01	0.6369	0.995725	0.000530	5.298532	1.795191	-0.042591
 987	4.9300e-01	0.6064	0.955956	0.000099	0.989485	0.335247	-0.007954
 988	4.9350e-01	0.5631	0.840497	0.000287	2.872698	0.973296	-0.023092
 989	4.9400e-01	0.5021	0.870004	-0.000073	-0.734134	-0.248731	0.005901
 990	4.9450e-01	0.4684	0.674151	0.000487	4.872947	1.650999	-0.039170
 991	4.9500e-01	0.4299	0.638231	0.000089	0.893728	0.302803	-0.007184
 992	4.9550e-01	0.3834	0.514219	0.000309	3.085490	1.045392	-0.024802
 993	4.9600e-01	0.3192	0.385932	0.000319	3.191886	1.081440	-0.025658
 994	4.9650e-01	0.3048	0.369682	0.000040	0.404306	0.136982	-0.003250
 995	4.9700e-01	0.2727	0.179816	0.000472	4.723992	1.600532	-0.037973
 996	4.9750e-01	0.2262	0.143041	0.000092	0.915007	0.310013	-0.007355
 997	4.9800e-01	0.1909	0.035707	0.000267	2.670545	0.904805	-0.021467
 998	4.9850e-01	0.1380	-0.013043	0.000121	1.212917	0.410947	-0.009750
 999	4.9900e-01	0.0995	-0.216592	0.000506	5.064460	1.715885	-0.040710
1000	4.9950e-01	0.0738	-0.380373	0.000407	4.074975	1.380639	-0.032756
1001	5.0000e-01	0.0882	-0.683559	-0.000754	-7.543492	-2.555804	-0.060637
1002	5.0050e-01	-0.0016	-0.641224	-0.000105	-1.053323	-0.356875	0.008467
1003	5.0100e-01	-0.0337	-0.664743	0.000059	0.585179	0.198264	-0.004704
1004	5.0150e-01	-0.0818	-0.759676	0.000236	2.361996	0.800266	-0.018987
1005	5.0200e-01	-0.1283	-0.825958	0.000165	1.649141	0.558744	-0.013256
1006	5.0250e-01	-0.1652	-0.915332	0.000222	2.223681	0.753403	-0.017875
1007	5.0300e-01	-0.2037	-1.061580	0.000364	3.638751	1.232842	-0.029250
1008	5.0350e-01	-0.2567	-0.976910	-0.000211	-2.106645	-0.713751	0.016934
1009	5.0400e-01	-0.2631	-1.208255	0.000576	5.756035	1.950198	-0.046269
1010	5.0450e-01	-0.3273	-1.356214	0.000368	3.681309	1.247261	-0.029592
1011	5.0500e-01	-0.3593	-1.319865	-0.000090	-0.904368	-0.306408	0.007270
1012	5.0550e-01	-0.4267	-1.433186	0.000282	2.819500	0.955272	-0.022664
1013	5.0600e-01	-0.4508	-1.517856	0.000211	2.106645	0.713751	-0.016934
1014	5.0650e-01	-0.4829	-1.760747	0.000604	6.043305	2.047527	-0.048578
1015	5.0700e-01	-0.5230	-1.866371	0.000263	2.627987	0.890386	-0.021125
1016	5.0750e-01	-0.5647	-1.788543	-0.000194	-1.936411	-0.656074	0.015566
1017	5.0800e-01	-0.5968	-1.993375	0.000510	5.096379	1.726700	-0.040967
1018	5.0850e-01	-0.6497	-2.034427	0.000102	1.021404	0.346061	-0.008210
1019	5.0900e-01	-0.6898	-2.072486	0.000095	0.946926	0.320827	-0.007612
1020	5.0950e-01	-0.7155	-2.147748	0.000187	1.872573	0.634445	-0.015052
1021	5.1000e-01	-0.7460	-2.308963	0.000401	4.011137	1.359010	-0.032243
1022	5.1050e-01	-0.8037	-2.455638	0.000365	3.649390	1.236447	-0.029335
1023	5.1100e-01	-0.8502	-2.403040	-0.000131	-1.308673	-0.443391	0.010520
1024	5.1150e-01	-0.8743	-2.602314	0.000496	4.958064	1.679837	-0.039855
1025	5.1200e-01	-0.9112	-2.786192	0.000458	4.575037	1.550065	-0.036776
1026	5.1250e-01	-0.9657	-2.787475	0.000003	0.031919	0.010814	-0.000257
1027	5.1300e-01	-1.0123	-2.728463	-0.000147	-1.468268	-0.497463	0.011802
1028	5.1350e-01	-1.0604	-2.963657	0.000585	5.851792	1.982641	-0.047039
1029	5.1400e-01	-1.0861	-3.164641	0.000500	5.000622	1.694257	-0.040197
1030	5.1450e-01	-1.1326	-3.238620	0.000184	1.840655	0.623631	-0.014796
1031	5.1500e-01	-1.1631	-3.206120	-0.000081	-0.808611	-0.273965	0.006500
1032	5.1550e-01	-1.1887	-3.494768	0.000718	7.181745	2.433241	-0.057729
1033	5.1600e-01	-1.2529	-3.542662	0.000119	1.191638	0.403738	-0.009579
1034	5.1650e-01	-1.2770	-3.546510	0.000010	0.095757	0.032443	-0.000770
1035	5.1700e-01	-1.3251	-3.704304	0.000393	3.926020	1.330172	-0.031559
1036	5.1750e-01	-1.3556	-3.838151	0.000333	3.330202	1.128303	-0.026769
1037	5.1800e-01	-1.4117	-3.996372	0.000394	3.936660	1.333776	-0.031644
1038	5.1850e-01	-1.4647	-3.931801	-0.000161	-1.606583	-0.544325	0.012914
1039	5.1900e-01	-1.4871	-4.146041	0.000533	5.330450	1.806005	-0.042848
1040	5.1950e-01	-1.5256	-4.198639	0.000131	1.308673	0.443391	-0.010520
1041	5.2000e-01	-1.5705	-4.227290	0.000071	0.712855	0.241522	-0.005730
1042	5.2050e-01	-1.5994	-4.385939	0.000395	3.947300	1.337381	-0.031730
1043	5.2100e-01	-1.6604	-4.397912	0.000030	0.297909	0.100934	-0.002395
1044	5.2150e-01	-1.6668	-4.517220	0.000297	2.968454	1.005740	-0.023861
1045	5.2200e-01	-1.7438	-4.609159	0.000229	2.287519	0.775032	-0.018388
1046	5.2250e-01	-1.7631	-4.751131	0.000353	3.532354	1.196794	-0.028394
1047	5.2300e-01	-1.7919	-4.871721	0.000300	3.000373	1.016554	-0.024118
1048	5.2350e-01	-1.8304	-5.057310	0.000462	4.617596	1.564484	-0.037118
1049	5.2400e-01	-1.8914	-5.142835	0.000213	2.127924	0.720960	-0.017105
1050	5.2450e-01	-1.9267	-5.252735	0.000273	2.734383	0.926434	-0.021980
1051	5.2500e-01	-1.9540	-5.136849	-0.000288	-2.883337	-0.976901	0.023177
1052	5.2550e-01	-1.9957	-5.418654	0.000701	7.011511	2.375564	-0.056361
1053	5.2600e-01	-2.0598	-5.408391	-0.000026	-0.255351	-0.086515	0.002053
1054	5.2650e-01	-2.0807	-5.434903	0.000066	0.659657	0.223498	-0.005303
1055	5.2700e-01	-2.1224	-5.434903	-0.000000	-0.000000	-0.000000	0.000000
1056	5.2750e-01	-2.1625	-5.768879	0.000831	8.309544	2.815350	-0.066795
1057	5.2800e-01	-2.2026	-5.821477	0.000131	1.308673	0.443391	-0.010520
1058	5.2850e-01	-2.2523	-5.868088	0.000116	1.159719	0.392923	-0.009322
1059	5.2900e-01	-2.2732	-5.930949	0.000156	1.564024	0.529906	-0.012572
1060	5.2950e-01	-2.3293	-6.153742	0.000554	5.543243	1.878102	-0.044559
1061	5.3000e-01	-2.3598	-6.233707	0.000199	1.989609	0.674098	-0.015993
1062	5.3050e-01	-2.4063	-6.338476	0.000261	2.606707	0.883176	-0.020954
1063	5.3100e-01	-2.4625	-6.347028	0.000021	0.212792	0.072096	-0.001711
1064	5.3150e-01	-2.4962	-6.585215	0.000593	5.926269	2.007874	-0.047637
1065	5.3200e-01	-2.5411	-6.598044	0.000032	0.319189	0.108144	-0.002566
1066	5.3250e-01	-2.5684	-6.871724	0.000681	6.809358	2.307073	-0.054736
1067	5.3300e-01	-2.6374	-6.658339	-0.000531	-5.309171	-1.798796	0.042677
1068	5.3350e-01	-2.6325	-6.849488	-0.000476	-4.755911	-1.611346	-0.038230
1069	5.3400e-01	-2.7015	-6.998301	0.000370	3.702588	1.254471	-0.029763
1070	5.3450e-01	-2.7192	-7.064583	0.000165	1.649141	0.558744	-0.013256
1071	5.3500e-01	-2.7785	-7.115471	0.000127	1.266115	0.428971	-0.010177
1072	5.3550e-01	-2.8122	-7.153529	0.000095	0.946926	0.320827	-0.007612
1073	5.3600e-01	-2.8347	-7.486222	0.000828	8.277626	2.804535	-0.066538
1074	5.3650e-01	-2.8684	-7.551649	0.000163	1.627862	0.551535	-0.013085
1075	5.3700e-01	-2.9117	-7.596122	0.000111	1.106521	0.374899	-0.008895
1076	5.3750e-01	-2.9646	-7.649575	0.000133	1.329953	0.450600	-0.010691
1077	5.3800e-01	-3.0160	-7.732534	0.000206	2.064087	0.699331	-0.016592
1078	5.3850e-01	-3.0513	-7.834309	0.000253	2.532230	0.857943	-0.020355
1079	5.3900e-01	-3.0914	-7.964307	0.000323	3.234445	1.095860	-0.026000
1080	5.3950e-01	-3.1299	-8.076772	0.000280	2.798220	0.948063	-0.022493
1081	5.4000e-01	-3.1668	-8.216606	0.000348	3.479156	1.178770	-0.027967
1082	5.4050e-01	-3.2020	-8.202494	-0.000035	-0.351108	-0.118958	0.002822
1083	5.4100e-01	-3.2373	-8.275618	0.000182	1.819375	0.616421	-0.014625
1084	5.4150e-01	-3.2967	-8.482161	0.000514	5.138937	1.741119	-0.041309
1085	5.4200e-01	-3.3272	-8.460780	-0.000053	-0.531981	-0.180240	0.004276
1086	5.4250e-01	-3.3593	-8.663902	0.000505	5.053820	1.712281	-0.040624
1087	5.4300e-01	-3.4058	-8.643803	-0.000050	-0.500062	-0.169426	0.004020
1088	5.4350e-01	-3.4395	-8.793900	0.000373	3.734507	1.265285	-0.030019
1089	5.4400e-01	-3.4860	-8.868734	0.000186	1.861934	0.630840	-0.014967
1090	5.4450e-01	-3.5117	-8.978634	0.000273	2.734383	0.926434	-0.021980
1091	5.4500e-01	-3.5598	-9.082975	0.000260	2.596068	0.879572	-0.020868
1092	5.4550e-01	-3.6047	-9.287807	0.000510	5.096379	1.726700	-0.040967
1093	5.4600e-01	-3.6448	-9.315603	0.000069	0.691575	0.234312	-0.005559
1094	5.4650e-01	-3.6945	-9.349385	0.000084	0.840530	0.284779	-0.006756
1095	5.4700e-01	-3.7106	-9.473824	0.000310	3.096130	1.048997	-0.024888
1096	5.4750e-01	-3.7635	-9.576882	0.000256	2.564149	0.868757	-0.020612
1097	5.4800e-01	-3.8068	-9.686354	0.000272	2.723743	0.922829	-0.021894
1098	5.4850e-01	-3.8309	-9.778721	0.000230	2.298158	0.778637	-0.018473
1099	5.4900e-01	-3.8838	-9.936087	0.000392	3.915381	1.326567	-0.031473
1100	5.4950e-01	-3.9368	-10.081480	0.000362	3.617471	1.225632	-0.029079
1101	5.5000e-01	-3.9737	-10.043421	-0.000095	-0.946926	-0.320827	0.007612
1102	5.5050e-01	-3.9897	-10.182399	0.000346	3.457877	1.171560	-0.027796
1103	5.5100e-01	-4.0443	-10.308549	0.000314	3.138688	1.063416	-0.025230
1104	5.5150e-01	-4.0860	-10.246543	-0.000154	-1.542745	-0.522696	0.012401
1105	5.5200e-01	-4.1084	-10.390653	0.000359	3.585552	1.214818	-0.028822
1106	5.5250e-01	-4.1534	-10.510815	0.000299	2.989734	1.012949	-0.024033
1107	5.5300e-01	-4.2143	-10.632261	0.000302	3.021653	1.023764	-0.024289
1108	5.5350e-01	-4.2448	-10.824692	0.000479	4.787830	1.622161	-0.038486
1109	5.5400e-01	-4.2801	-10.820844	-0.000010	-0.095757	-0.032443	0.000770
1110	5.5450e-01	-4.3266	-11.083833	0.000654	6.543367	2.216953	-0.052598
1111	5.5500e-01	-4.3715	-11.071005	-0.000032	-0.319189	-0.108144	0.002566
1112	5.5550e-01	-4.4148	-11.132155	0.000152	1.521466	0.515487	-0.012230
1113	5.5600e-01	-4.4582	-11.227088	0.000236	2.361996	0.800266	-0.018987
1114	5.5650e-01	-4.5159	-11.274982	0.000119	1.191638	0.403738	-0.009579
1115	5.5700e-01	-4.5223	-11.390013	0.000286	2.862058	0.969692	-0.023006
1116	5.5750e-01	-4.5753	-11.538399	0.000369	3.691949	1.250866	-0.029677
1117	5.5800e-01	-4.5993	-11.558925	0.000051	0.510702	0.173030	-0.004105
1118	5.5850e-01	-4.6443	-11.517873	-0.000102	-1.021404	-0.346061	0.008210
1119	5.5900e-01	-4.6988	-11.732541	0.000534	5.341090	1.809610	-0.042934
1120	5.5950e-01	-4.7373	-11.898887	0.000414	4.138813	1.402268	-0.033269
1121	5.6000e-01	-4.7614	-12.015629	0.000290	2.904617	0.984111	-0.023348
1122	5.6050e-01	-4.7838	-12.106713	0.000227	2.266239	0.767823	-0.018217
1123	5.6100e-01	-4.8400	-12.254671	0.000368	3.681309	1.247261	-0.029592
1124	5.6150e-01	-4.8865	-12.283322	0.000071	0.712855	0.241522	-0.005730
1125	5.6200e-01	-4.9282	-12.205494	-0.000194	-1.936411	-0.656074	0.015566
1126	5.6250e-01	-4.9619	-12.378255	0.000430	4.298407	1.456340	-0.034552
1127	5.6300e-01	-4.9844	-12.589502	0.000526	5.255973	1.780772	-0.042249
1128	5.6350e-01	-5.0662	-12.521509	-0.000169	-1.691700	-0.573163	0.013598
1129	5.6400e-01	-5.0870	-12.729763	0.000518	5.181496	1.755538	-0.041651
1130	5.6450e-01	-5.1239	-12.770387	0.000101	1.010764	0.342456	-0.008125
1131	5.6500e-01	-5.1833	-12.944003	0.000432	4.319686	1.463549	-0.034723
1132	5.6550e-01	-5.2138	-12.998739	0.000136	1.361872	0.461415	-0.010947
1133	5.6600e-01	-5.2458	-13.186467	0.000467	4.670794	1.582508	-0.037545
1134	5.6650e-01	-5.2731	-13.501199	0.000783	7.830761	2.653134	-0.062946
1135	5.6700e-01	-5.3212	-13.342978	-0.000394	-3.936660	-1.333776	0.031644
1136	5.6750e-01	-5.3694	-13.373767	0.000077	0.766053	0.259546	-0.006158
1137	5.6800e-01	-5.4047	-13.537975	0.000409	4.085615	1.384244	-0.032842
1138	5.6850e-01	-5.4560	-13.731689	0.000482	4.819749	1.632975	-0.038743
1139	5.6900e-01	-5.4897	-13.703893	-0.000069	-0.691575	-0.234312	0.005559
1140	5.6950e-01	-5.5202	-13.911719	0.000517	5.170856	1.751933	-0.041565
1141	5.7000e-01	-5.5651	-13.848858	-0.000156	-1.564024	-0.529906	0.012572
1142	5.7050e-01	-5.5956	-14.134084	0.000710	7.096628	2.404403	-0.057045
1143	5.7100e-01	-5.6341	-14.104578	-0.000073	-0.734134	-0.248731	0.005901
1144	5.7150e-01	-5.6918	-14.190531	0.000214	2.138564	0.724565	-0.017191
1145	5.7200e-01	-5.7303	-14.315398	0.000311	3.106769	1.052602	-0.024973
1146	5.7250e-01	-5.7656	-14.375693	0.000150	1.500187	0.508277	-0.012059
1147	5.7300e-01	-5.8073	-14.397074	0.000053	0.531981	0.180240	-0.004276
1148	5.7350e-01	-5.8394	-14.582663	0.000462	4.617596	1.564484	-0.037118
1149	5.7400e-01	-5.8907	-14.701116	0.000295	2.947175	0.998530	-0.023690
1150	5.7450e-01	-5.9212	-14.748582	0.000118	1.180998	0.400133	-0.009493
1151	5.7500e-01	-5.9661	-14.862758	0.000284	2.840779	0.962482	-0.022835
1152	5.7550e-01	-6.0111	-14.941441	0.000196	1.957690	0.663283	-0.015737
1153	5.7600e-01	-6.0496	-15.189036	0.000616	6.160341	2.087180	-0.049519
1154	5.7650e-01	-6.0849	-15.092393	-0.000240	-2.404554	-0.814685	0.019329
1155	5.7700e-01	-6.1234	-15.205286	0.000281	2.808860	0.951668	-0.022579
1156	5.7750e-01	-6.1522	-15.426796	0.000551	5.511324	1.867287	-0.044302
1157	5.7800e-01	-6.2068	-15.301074	-0.000313	-3.128049	-1.059812	0.025144
1158	5.7850e-01	-6.2581	-15.247193	-0.000134	-1.340592	-0.454205	0.010776
1159	5.7900e-01	-6.2886	-15.651299	0.001005	10.054442	3.406537	-0.080821
1160	5.7950e-01	-6.2998	-15.697482	0.000115	1.149079	0.389319	-0.009237
1161	5.8000e-01	-6.3768	-15.836461	0.000346	3.457877	1.171560	-0.027796
1162	5.8050e-01	-6.4009	-15.865112	0.000071	0.712855	0.241522	-0.005730
1163	5.8100e-01	-6.4185	-16.163594	0.000743	7.426456	2.516151	-0.059696
1164	5.8150e-01	-6.4538	-16.172574	0.000022	0.223432	0.075701	-0.001796
1165	5.8200e-01	-6.5260	-16.152903	-0.000049	-0.489423	-0.165821	0.003934
1166	5.8250e-01	-6.5693	-16.315401	0.000404	4.043056	1.369825	-0.032500
1167	5.8300e-01	-6.5950	-16.425301	0.000273	2.734383	0.926434	-0.021980
1168	5.8350e-01	-6.6335	-16.406057	-0.000048	-0.478783	-0.162216	0.003849
1169	5.8400e-01	-6.6816	-16.522799	0.000290	2.904617	0.984111	-0.023348
1170	5.8450e-01	-6.7298	-16.577535	0.000136	1.361872	0.461415	-0.010947
1171	5.8500e-01	-6.7715	-16.701547	0.000309	3.085490	1.045392	-0.024802
1172	5.8550e-01	-6.7987	-16.765690	0.000160	1.595943	0.540720	-0.012829
1173	5.8600e-01	-6.8388	-16.813584	0.000119	1.191638	0.403738	-0.009579
1174	5.8650e-01	-6.8741	-17.015423	0.000502	5.021901	1.701466	-0.040368
1175	5.8700e-01	-6.9142	-17.079995	0.000161	1.606583	0.544325	-0.012914
1176	5.8750e-01	-6.9576	-17.289104	0.000520	5.202775	1.762748	-0.041822
1177	5.8800e-01	-7.0137	-17.266012	-0.000057	-0.574540	-0.194659	0.004618
1178	5.8850e-01	-7.0474	-17.370352	0.000260	2.596068	0.879572	-0.020868
1179	5.8900e-01	-7.0747	-17.580744	0.000523	5.234694	1.773562	-0.042078
1180	5.8950e-01	-7.1356	-17.526436	-0.000135	-1.351232	-0.457810	0.010862
1181	5.9000e-01	-7.1693	-17.556797	0.000076	0.755413	0.255941	-0.006072
1182	5.9050e-01	-7.2110	-17.790708	0.000582	5.819873	1.971826	-0.046782
1183	5.9100e-01	-7.2367	-17.829194	0.000096	0.957566	0.324432	-0.007697
1184	5.9150e-01	-7.2768	-18.011363	0.000453	4.532479	1.535645	-0.036434
1185	5.9200e-01	-7.3105	-18.120835	0.000272	2.723743	0.922829	-0.021894
1186	5.9250e-01	-7.3554	-18.105013	-0.000039	-0.393666	-0.133378	0.003164
1187	5.9300e-01	-7.3714	-18.229879	0.000311	3.106769	1.052602	-0.024973
1188	5.9350e-01	-7.4292	-18.258103	0.000070	0.702215	0.237917	-0.005645
1189	5.9400e-01	-7.4854	-18.330799	0.000181	1.808736	0.612816	-0.014539
1190	5.9450e-01	-7.5206	-18.514250	0.000456	4.564398	1.546460	-0.036690
1191	5.9500e-01	-7.5367	-18.531355	0.000043	0.425585	0.144192	-0.003421
1192	5.9550e-01	-7.6137	-18.777667	0.000613	6.128422	2.076366	-0.049262
1193	5.9600e-01	-7.6378	-18.752865	-0.000062	-0.617098	-0.209078	0.004960
1194	5.9650e-01	-7.6650	-18.986776	0.000582	5.819873	1.971826	-0.046782
1195	5.9700e-01	-7.6955	-19.095393	0.000270	2.702464	0.915620	-0.021723
1196	5.9750e-01	-7.7549	-19.153550	0.000145	1.446989	0.490253	-0.011631
1197	5.9800e-01	-7.8110	-19.201872	0.000120	1.202277	0.407343	-0.009664
1198	5.9850e-01	-7.8447	-19.124471	-0.000193	-1.925771	-0.652469	0.015480
1199	5.9900e-01	-7.8768	-19.322462	0.000493	4.926145	1.669023	-0.039598
1200	5.9950e-01	-7.9265	-19.406276	0.000209	2.085366	0.706541	-0.016763
1201	6.0000e-01	-7.9345	-19.615385	0.000520	5.202775	1.762748	-0.041822
1202	6.0050e-01	-8.0003	-19.653444	0.000095	0.946926	0.320827	-0.007612
1203	6.0100e-01	-8.0452	-19.697489	0.000110	1.095881	0.371295	-0.008809
1204	6.0150e-01	-8.0805	-19.941236	0.000606	6.064584	2.054737	-0.048749
1205	6.0200e-01	-8.1126	-19.917716	-0.000059	-0.585179	-0.198264	0.004704
1206	6.0250e-01	-8.1752	-20.056267	0.000345	3.447237	1.167956	-0.027710
1207	6.0300e-01	-8.1944	-20.180706	0.000310	3.096130	1.048997	-0.024888
1208	6.0350e-01	-8.2425	-20.215343	0.000086	0.861809	0.291989	-0.006928
1209	6.0400e-01	-8.2810	-20.348763	0.000332	3.319562	1.124698	-0.026684
1210	6.0450e-01	-8.3196	-20.431722	0.000206	2.064087	0.699331	-0.016592
1211	6.0500e-01	-8.3532	-20.498431	0.000166	1.659781	0.562349	-0.013342
1212	6.0550e-01	-8.3950	-20.569845	0.000178	1.776817	0.602002	-0.014283
1213	6.0600e-01	-8.4222	-20.677606	0.000268	2.681185	0.908410	-0.021552
1214	6.0650e-01	-8.4687	-20.621160	-0.000140	-1.404430	-0.475834	0.011289
1215	6.0700e-01	-8.5089	-20.861058	0.000597	5.968828	2.022294	-0.047980
1216	6.0750e-01	-8.5586	-20.936747	0.000188	1.883213	0.638050	-0.015138
1217	6.0800e-01	-8.6035	-20.890991	-0.000114	-1.138440	-0.385714	0.009151
1218	6.0850e-01	-8.6292	-21.272861	0.000950	9.501182	3.219088	-0.076374
1219	6.0900e-01	-8.6677	-21.292959	0.000050	0.500062	0.169426	-0.004020
1220	6.0950e-01	-8.7030	-21.304077	0.000028	0.276630	0.093725	-0.002224
1221	6.1000e-01	-8.7671	-21.333584	0.000073	0.734134	0.248731	-0.005901
1222	6.1050e-01	-8.8040	-21.456740	0.000306	3.064211	1.038183	-0.024631
1223	6.1100e-01	-8.8522	-21.466147	0.000023	0.234072	0.079306	-0.001882
1224	6.1150e-01	-8.8746	-21.789432	0.000804	8.043554	2.725230	-0.064657
1225	6.1200e-01	-8.9324	-21.763775	-0.000064	-0.638377	-0.216288	0.005132
1226	6.1250e-01	-8.9645	-21.796702	0.000082	0.819251	0.277570	-0.006585
1227	6.1300e-01	-9.0190	-21.887786	0.000227	2.266239	0.767823	-0.018217
1228	6.1350e-01	-9.0350	-22.006238	0.000295	2.947175	0.998530	-0.023690
1229	6.1400e-01	-9.0623	-22.132388	0.000314	3.138688	1.063416	-0.025230
1230	6.1450e-01	-9.1201	-22.233735	0.000252	2.521590	0.854338	-0.020269
1231	6.1500e-01	-9.1746	-22.133243	-0.000250	-2.500311	-0.847128	0.020098
1232	6.1550e-01	-9.1971	-22.386397	0.000630	6.298656	2.134042	-0.050631
1233	6.1600e-01	-9.2275	-22.601065	0.000534	5.341090	1.809610	-0.042934
1234	6.1650e-01	-9.2917	-22.513829	-0.000217	-2.170483	-0.735379	0.017447
1235	6.1700e-01	-9.3126	-22.601920	0.000219	2.191762	0.742589	-0.017618
1236	6.1750e-01	-9.3511	-22.766556	0.000410	4.096254	1.387849	-0.032927
1237	6.1800e-01	-9.4056	-23.017999	0.000626	6.256097	2.119623	-0.050289
1238	6.1850e-01	-9.4409	-23.110794	0.000231	2.308798	0.782242	-0.018559
1239	6.1900e-01	-9.4730	-23.146715	0.000089	0.893728	0.302803	-0.007184
1240	6.1950e-01	-9.5243	-23.245496	0.000246	2.457753	0.832709	-0.019756
1241	6.2000e-01	-9.5420	-23.237371	-0.000020	-0.202153	-0.068491	0.001625
1242	6.2050e-01	-9.6013	-23.347699	0.000275	2.745022	0.930039	-0.022065
1243	6.2100e-01	-9.6286	-23.522597	0.000435	4.351605	1.474364	-0.034980
1244	6.2150e-01	-9.6687	-23.515755	-0.000017	-0.170234	-0.057677	0.001368
1245	6.2200e-01	-9.7233	-23.519176	0.000009	0.085117	0.028838	-0.000684
1246	6.2250e-01	-9.7457	-23.846310	0.000814	8.139310	2.757673	-0.065427
1247	6.2300e-01	-9.7874	-23.862987	0.000041	0.414945	0.140587	-0.003335
1248	6.2350e-01	-9.8436	-23.917295	0.000135	1.351232	0.457810	-0.010862
1249	6.2400e-01	-9.8933	-24.030616	0.000282	2.819500	0.955272	-0.022664
1250	6.2450e-01	-9.9190	-24.072096	0.000103	1.032043	0.349666	-0.008296
1251	6.2500e-01	-9.9655	-24.253837	0.000452	4.521839	1.532041	-0.036348
1252	6.2550e-01	-10.0024	-24.278639	0.000062	0.617098	0.209078	-0.004960
1253	6.2600e-01	-10.0441	-24.344065	0.000163	1.627862	0.551535	-0.013085
1254	6.2650e-01	-10.0682	-24.496728	0.000380	3.798345	1.286914	-0.030532
1255	6.2700e-01	-10.1227	-24.681034	0.000459	4.585677	1.553669	-0.036861
1256	6.2750e-01	-10.1596	-24.672909	-0.000020	-0.202153	-0.068491	0.001625
1257	6.2800e-01	-10.2045	-24.816164	0.000356	3.564273	1.207608	-0.028651
1258	6.2850e-01	-10.2350	-24.952576	0.000339	3.394039	1.149932	-0.027282
1259	6.2900e-01	-10.2847	-24.912379	-0.000100	-1.000124	-0.338851	0.008039
1260	6.2950e-01	-10.3248	-24.942313	0.000074	0.744774	0.252336	-0.005987
1261	6.3000e-01	-10.3521	-25.052213	0.000273	2.734383	0.926434	-0.021980
1262	6.3050e-01	-10.4018	-25.106094	0.000134	1.340592	0.454205	-0.010776
1263	6.3100e-01	-10.4420	-25.287407	0.000451	4.511200	1.528436	-0.036263
1264	6.3150e-01	-10.4788	-25.369938	0.000205	2.053447	0.695727	-0.016506
1265	6.3200e-01	-10.5141	-25.431944	0.000154	1.542745	0.522696	-0.012401
1266	6.3250e-01	-10.5639	-25.597008	0.000411	4.106894	1.391453	-0.033013
1267	6.3300e-01	-10.5847	-25.684243	0.000217	2.170483	0.735379	-0.017447
1268	6.3350e-01	-10.6377	-25.810820	0.000315	3.149328	1.067021	-0.025315
1269	6.3400e-01	-10.6681	-26.003252	0.000479	4.787830	1.622161	-0.038486
1270	6.3450e-01	-10.7259	-26.080224	0.000192	1.915132	0.648864	-0.015395
1271	6.3500e-01	-10.7548	-25.996410	-0.000209	-2.085366	-0.706541	0.016763
1272	6.3550e-01	-10.8109	-26.148644	0.000379	3.787705	1.283309	-0.030447
1273	6.3600e-01	-10.8334	-26.157197	0.000021	0.212792	0.072096	-0.001711
1274	6.3650e-01	-10.8863	-26.323970	0.000415	4.149452	1.405873	-0.033355
1275	6.3700e-01	-10.9232	-26.531796	0.000517	5.170856	1.751933	-0.041565
1276	6.3750e-01	-10.9553	-26.476205	-0.000138	-1.383151	-0.468624	0.011118
1277	6.3800e-01	-10.9970	-26.590381	0.000284	2.840779	0.962482	-0.022835
1278	6.3850e-01	-11.0516	-26.513408	-0.000192	-1.915132	-0.648864	0.015395
1279	6.3900e-01	-11.0692	-26.928205	0.001032	10.320433	3.496657	-0.082959
1280	6.3950e-01	-11.1125	-26.942744	0.000036	0.361747	0.122563	-0.002908
1281	6.4000e-01	-11.1590	-26.872186	-0.000176	-1.755538	-0.594792	0.014112
1282	6.4050e-01	-11.2040	-27.062052	0.000472	4.723992	1.600532	-0.037973
1283	6.4100e-01	-11.2360	-27.248069	0.000463	4.628235	1.568089	-0.037203
1284	6.4150e-01	-11.2745	-27.318627	0.000176	1.755538	0.594792	-0.014112
1285	6.4200e-01	-11.3082	-27.370797	0.000130	1.298034	0.439786	-0.010434
1286	6.4250e-01	-11.3580	-27.441783	0.000177	1.766177	0.598397	-0.014197
1287	6.4300e-01	-11.3772	-27.472144	0.000076	0.755413	0.255941	-0.006072
1288	6.4350e-01	-11.4286	-27.611978	0.000348	3.479156	1.178770	-0.027967
1289	6.4400e-01	-11.4863	-27.842040	0.000572	5.724116	1.939383	-0.046012
1290	6.4450e-01	-11.5232	-27.820659	-0.000053	-0.531981	-0.180240	0.004276
1291	6.4500e-01	-11.5457	-27.915164	0.000235	2.351356	0.796661	-0.018901
1292	6.4550e-01	-11.6179	-27.885658	-0.000073	-0.734134	-0.248731	0.005901
1293	6.4600e-01	-11.6660	-27.989571	0.000259	2.585428	0.875967	-0.020783
1294	6.4650e-01	-11.6740	-28.066116	0.000190	1.904492	0.645259	-0.015309
1295	6.4700e-01	-11.7061	-28.270521	0.000509	5.085739	1.723095	-0.040881
1296	6.4750e-01	-11.7478	-28.427032	0.000389	3.894101	1.319357	-0.031302
1297	6.4800e-01	-11.7847	-28.339368	-0.000218	-2.181122	-0.738984	0.017533
1298	6.4850e-01	-11.8376	-28.511274	0.000428	4.277128	1.449130	-0.034381
1299	6.4900e-01	-11.8777	-28.516405	0.000013	0.127675	0.043258	-0.001026
1300	6.4950e-01	-11.9194	-28.748178	0.000577	5.766675	1.953802	-0.046355
1301	6.5000e-01	-11.9403	-28.739198	-0.000022	-0.223432	-0.075701	0.001796
1302	6.5050e-01	-12.0029	-28.896992	0.000393	3.926020	1.330172	-0.031559
1303	6.5100e-01	-12.0269	-29.021003	0.000309	3.085490	1.045392	-0.024802
1304	6.5150e-01	-12.0606	-28.974392	-0.000116	-1.159719	-0.392923	0.009322
1305	6.5200e-01	-12.1216	-29.165968	0.000477	4.766550	1.614951	-0.038315
1306	6.5250e-01	-12.1456	-29.356689	0.000475	4.745271	1.607741	-0.038144
1307	6.5300e-01	-12.2130	-29.295966	-0.000151	-1.510826	-0.511882	0.012145
1308	6.5350e-01	-12.2291	-29.446918	0.000376	3.755786	1.272495	-0.030190
1309	6.5400e-01	-12.2772	-29.373366	-0.000183	-1.830015	-0.620026	0.014710
1310	6.5450e-01	-12.3157	-29.455898	0.000205	2.053447	0.695727	-0.016506
1311	6.5500e-01	-12.3462	-29.721026	0.000660	6.596565	2.234977	-0.053026
1312	6.5550e-01	-12.3927	-29.753953	0.000082	0.819251	0.277570	-0.006585
1313	6.5600e-01	-12.4376	-29.800136	0.000115	1.149079	0.389319	-0.009237
1314	6.5650e-01	-12.4841	-29.921154	0.000301	3.011013	1.020159	-0.024204
1315	6.5700e-01	-12.5178	-30.131118	0.000522	5.224054	1.769957	-0.041993
1316	6.5750e-01	-12.5676	-30.207236	0.000189	1.893853	0.641655	-0.015223
1317	6.5800e-01	-12.5788	-30.287629	0.000200	2.000249	0.677703	-0.016079
1318	6.5850e-01	-12.6237	-30.305589	0.000045	0.446864	0.151402	-0.003592
1319	6.5900e-01	-12.6847	-30.295326	-0.000026	-0.255351	-0.086515	0.002053
1320	6.5950e-01	-12.7039	-30.504435	0.000520	5.202775	1.762748	-0.041822
1321	6.6000e-01	-12.7617	-30.725945	0.000551	5.511324	1.867287	-0.044302
1322	6.6050e-01	-12.8162	-30.826437	0.000250	2.500311	0.847128	-0.020098
1323	6.6100e-01	-12.8226	-30.726800	-0.000248	-2.479032	-0.839919	0.019927
1324	6.6150e-01	-12.8531	-30.999625	0.000679	6.788079	2.299863	-0.054565
1325	6.6200e-01	-12.8996	-31.012026	0.000031	0.308549	0.104539	-0.002480
1326	6.6250e-01	-12.9381	-31.061203	0.000122	1.223556	0.414552	-0.009835
1327	6.6300e-01	-12.9766	-31.221563	0.000399	3.989858	1.351801	-0.032072
1328	6.6350e-01	-13.0360	-31.171531	-0.000124	-1.244836	-0.421762	0.010006
1329	6.6400e-01	-13.0841	-31.199754	0.000070	0.702215	0.237917	-0.005645
1330	6.6450e-01	-13.1146	-31.396889	0.000490	4.904866	1.661813	-0.039427
1331	6.6500e-01	-13.1387	-31.399455	0.000006	0.063838	0.021629	-0.000513
1332	6.6550e-01	-13.1724	-31.611557	0.000528	5.277252	1.787981	-0.042420
1333	6.6600e-01	-13.2237	-31.764647	0.000381	3.808984	1.290519	-0.030618
1334	6.6650e-01	-13.2686	-31.794153	0.000073	0.734134	0.248731	-0.005901
1335	6.6700e-01	-13.3039	-31.857014	0.000156	1.564024	0.529906	-0.012572
1336	6.6750e-01	-13.3440	-31.902342	0.000113	1.127800	0.382109	-0.009066
1337	6.6800e-01	-13.4210	-32.076386	0.000433	4.330326	1.467154	-0.034809
1338	6.6850e-01	-13.4290	-32.107602	0.000078	0.776692	0.263150	-0.006243
1339	6.6900e-01	-13.4740	-32.127701	0.000050	0.500062	0.169426	-0.004020
1340	6.6950e-01	-13.5189	-32.318422	0.000475	4.745271	1.607741	-0.038144
1341	6.7000e-01	-13.5638	-32.363750	0.000113	1.127800	0.382109	-0.009066
1342	6.7050e-01	-13.5911	-32.478781	0.000286	2.862058	0.969692	-0.023006
1343	6.7100e-01	-13.6344	-32.638285	0.000397	3.968579	1.344591	-0.031901
1344	6.7150e-01	-13.6937	-32.546773	-0.000228	-2.276879	-0.771427	0.018302
1345	6.7200e-01	-13.7146	-32.608779	0.000154	1.542745	0.522696	-0.012401
1346	6.7250e-01	-13.7499	-32.781540	0.000430	4.298407	1.456340	-0.034552
1347	6.7300e-01	-13.7595	-32.938906	0.000392	3.915381	1.326567	-0.031473
1348	6.7350e-01	-13.8493	-33.039398	0.000250	2.500311	0.847128	-0.020098
1349	6.7400e-01	-13.8654	-33.180086	0.000350	3.500435	1.185980	-0.028138
1350	6.7450e-01	-13.9007	-33.222421	0.000105	1.053323	0.356875	-0.008467
1351	6.7500e-01	-13.9456	-33.306664	0.000210	2.096005	0.710146	-0.016848
1352	6.7550e-01	-13.9889	-33.394327	0.000218	2.181122	0.738984	-0.017533
1353	6.7600e-01	-14.0338	-33.348143	-0.000115	-1.149079	-0.389319	0.009237
1354	6.7650e-01	-14.0691	-33.638073	0.000721	7.213663	2.444055	-0.057986
1355	6.7700e-01	-14.1156	-33.735144	0.000242	2.415194	0.818290	-0.019414
1356	6.7750e-01	-14.1590	-33.662875	-0.000180	-1.798096	-0.609211	0.014454
1357	6.7800e-01	-14.1894	-33.758663	0.000238	2.383275	0.807476	-0.019158
1358	6.7850e-01	-14.2376	-33.893365	0.000335	3.351481	1.135512	-0.026940
1359	6.7900e-01	-14.2793	-34.072968	0.000447	4.468641	1.514017	-0.035921
1360	6.7950e-01	-14.3210	-34.055435	-0.000044	-0.436224	-0.147797	0.003507
1361	6.8000e-01	-14.3499	-34.137112	0.000203	2.032168	0.688517	-0.016335
1362	6.8050e-01	-14.3900	-34.290629	0.000382	3.819624	1.294124	-0.030703
1363	6.8100e-01	-14.4204	-34.345793	0.000137	1.372511	0.465019	-0.011033
1364	6.8150e-01	-14.4670	-34.410364	0.000161	1.606583	0.544325	-0.012914
1365	6.8200e-01	-14.5135	-34.451844	0.000103	1.032043	0.349666	-0.008296
1366	6.8250e-01	-14.5440	-34.626315	0.000434	4.340966	1.470759	-0.034894
1367	6.8300e-01	-14.5889	-34.631874	0.000014	0.138315	0.046862	-0.001112
1368	6.8350e-01	-14.6226	-34.817464	0.000462	4.617596	1.564484	-0.037118
1369	6.8400e-01	-14.6771	-34.879469	0.000154	1.542745	0.522696	-0.012401
1370	6.8450e-01	-14.7349	-35.049664	0.000423	4.234569	1.434711	-0.034039
1371	6.8500e-01	-14.7333	-35.058217	-0.000021	-0.212792	-0.072096	-0.001711
1372	6.8550e-01	-14.8039	-35.150584	0.000230	2.298158	0.778637	-0.018473
1373	6.8600e-01	-14.8424	-35.286141	0.000337	3.372760	1.142722	-0.027111
1374	6.8650e-01	-14.8600	-35.468309	0.000453	4.532479	1.535645	-0.036434
1375	6.8700e-01	-14.9049	-35.443507	-0.000062	-0.617098	-0.209078	0.004960
1376	6.8750e-01	-14.9498	-35.499098	0.000138	1.383151	0.468624	-0.011118
1377	6.8800e-01	-14.9964	-35.617551	0.000295	2.947175	0.998530	-0.023690
1378	6.8850e-01	-14.9916	-35.782186	-0.000410	-4.096254	-1.387849	-0.032927
1379	6.8900e-01	-15.0605	-35.673997	-0.000269	-2.691824	-0.912015	0.021638
1380	6.8950e-01	-15.1343	-35.873698	0.000497	4.968703	1.683442	-0.039940
1381	6.9000e-01	-15.1440	-35.874981	0.000003	0.031919	0.010814	-0.000257
1382	6.9050e-01	-15.2065	-36.015242	0.000349	3.489796	1.182375	-0.028052
1383	6.9100e-01	-15.2354	-36.009255	-0.000015	-0.148955	-0.050467	0.001197
1384	6.9150e-01	-15.2964	-36.214943	0.000512	5.117658	1.733909	-0.041138
1385	6.9200e-01	-15.3060	-36.356059	0.000351	3.511075	1.189584	-0.028223
1386	6.9250e-01	-15.3477	-36.453130	0.000242	2.415194	0.818290	-0.019414
1387	6.9300e-01	-15.3878	-36.595957	0.000355	3.553634	1.204004	-0.028565
1388	6.9350e-01	-15.4552	-36.497603	-0.000245	-2.447113	-0.829104	0.019671
1389	6.9400e-01	-15.4616	-36.633161	0.000337	3.372760	1.142722	-0.027111
1390	6.9450e-01	-15.5193	-36.690462	0.000143	1.425709	0.483043	-0.011460
1391	6.9500e-01	-15.5691	-36.778126	0.000218	2.181122	0.738984	-0.017533
1392	6.9550e-01	-15.5964	-36.897005	0.000296	2.957815	1.002135	-0.023776
1393	6.9600e-01	-15.6413	-37.041115	0.000359	3.585552	1.214818	-0.028822
1394	6.9650e-01	-15.6734	-36.971840	-0.000172	-1.723619	-0.583978	0.013855
1395	6.9700e-01	-15.6990	-36.973123	0.000003	0.031919	0.010814	-0.000257
1396	6.9750e-01	-15.7728	-37.103976	0.000326	3.255724	1.103069	-0.026171
1397	6.9800e-01	-15.8242	-37.362262	0.000643	6.426331	2.177300	-0.051657
1398	6.9850e-01	-15.8258	-37.408873	0.000116	1.159719	0.392923	-0.009322
1399	6.9900e-01	-15.8707	-37.544002	0.000336	3.362120	1.139117	-0.027026
1400	6.9950e-01	-15.9188	-37.586765	0.000106	1.063962	0.360480	-0.008553
1401	7.0000e-01	-15.9589	-37.743703	0.000390	3.904741	1.322962	-0.031388
1402	7.0050e-01	-15.9894	-37.890379	0.000365	3.649390	1.236447	-0.029335
1403	7.0100e-01	-16.0295	-37.823669	-0.000166	-1.659781	-0.562349	0.013342
1404	7.0150e-01	-16.0536	-38.001989	0.000444	4.436722	1.503202	-0.035664
1405	7.0200e-01	-16.1306	-38.165342	0.000406	4.064335	1.377034	-0.032671
1406	7.0250e-01	-16.1562	-38.171329	0.000015	0.148955	0.050467	-0.001197
1407	7.0300e-01	-16.2140	-38.258992	0.000218	2.181122	0.738984	-0.017533
1408	7.0350e-01	-16.2172	-38.285077	0.000065	0.649017	0.219893	-0.005217
1409	7.0400e-01	-16.2477	-38.475370	0.000473	4.734632	1.604137	-0.038059
1410	7.0450e-01	-16.3118	-38.542080	0.000166	1.659781	0.562349	-0.013342
1411	7.0500e-01	-16.3584	-38.681058	0.000346	3.457877	1.171560	-0.027796
1412	7.0550e-01	-16.4081	-38.635730	-0.000113	-1.127800	-0.382109	0.009066
1413	7.0600e-01	-16.4418	-38.682341	0.000116	1.159719	0.392923	-0.009322
1414	7.0650e-01	-16.4707	-38.860661	0.000444	4.436722	1.503202	-0.035664
1415	7.0700e-01	-16.5252	-38.881614	0.000052	0.521341	0.176635	-0.004191
1416	7.0750e-01	-16.5621	-39.112532	0.000575	5.745396	1.946593	-0.046184
1417	7.0800e-01	-16.5765	-39.016744	-0.000238	-2.383275	-0.807476	0.019158
1418	7.0850e-01	-16.6455	-39.085164	0.000170	1.702339	0.576768	-0.013684
1419	7.0900e-01	-16.6535	-39.320785	0.000586	5.862431	1.986246	-0.047124
1420	7.0950e-01	-16.7113	-39.443942	0.000306	3.064211	1.038183	-0.024631
1421	7.1000e-01	-16.7578	-39.470454	0.000066	0.659657	0.223498	-0.005303
1422	7.1050e-01	-16.7995	-39.561966	0.000228	2.276879	0.771427	-0.018302
1423	7.1100e-01	-16.8300	-39.683412	0.000302	3.021653	1.023764	-0.024289
1424	7.1150e-01	-16.8894	-39.759957	0.000190	1.904492	0.645259	-0.015309
1425	7.1200e-01	-16.9102	-39.931862	0.000428	4.277128	1.449130	-0.034381
1426	7.1250e-01	-16.9616	-39.830515	-0.000252	-2.521590	-0.854338	0.020269
1427	7.1300e-01	-16.9920	-39.992157	0.000402	4.021777	1.362615	-0.032328
1428	7.1350e-01	-17.0402	-40.031071	0.000097	0.968206	0.328037	-0.007783
1429	7.1400e-01	-17.0899	-40.061005	0.000074	0.744774	0.252336	-0.005987
1430	7.1450e-01	-17.1075	-40.325705	0.000659	6.585926	2.231372	-0.052940
1431	7.1500e-01	-17.1220	-40.318863	-0.000017	-0.170234	-0.057677	0.001368
1432	7.1550e-01	-17.1894	-40.389421	0.000176	1.755538	0.594792	-0.014112
1433	7.1600e-01	-17.2182	-40.655404	0.000662	6.617845	2.242186	-0.053197
1434	7.1650e-01	-17.2760	-40.668233	0.000032	0.319189	0.108144	-0.002566
1435	7.1700e-01	-17.3161	-40.692180	0.000060	0.595819	0.201869	-0.004789
1436	7.1750e-01	-17.3770	-40.807211	0.000286	2.862058	0.969692	-0.023006
1437	7.1800e-01	-17.3931	-40.888460	0.000202	2.021528	0.684912	-0.016250
1438	7.1850e-01	-17.4011	-40.886322	-0.000005	-0.053198	-0.018024	0.000428
1439	7.1900e-01	-17.5038	-41.038129	0.000378	3.777066	1.279704	-0.030361
1440	7.1950e-01	-17.5086	-41.092437	0.000135	1.351232	0.457810	-0.010862
1441	7.2000e-01	-17.5551	-41.305822	0.000531	5.309171	1.798796	-0.042677
1442	7.2050e-01	-17.6193	-41.308388	0.000006	0.063838	0.021629	-0.000513
1443	7.2100e-01	-17.6161	-41.376808	-0.000170	-1.702339	-0.576768	-0.013684
1444	7.2150e-01	-17.6706	-41.538450	0.000402	4.021777	1.362615	-0.032328
1445	7.2200e-01	-17.7107	-41.517069	-0.000053	-0.531981	-0.180240	0.004276
1446	7.2250e-01	-17.7476	-41.651343	0.000334	3.340841	1.131908	-0.026855
1447	7.2300e-01	-17.8134	-41.671869	0.000051	0.510702	0.173030	-0.004105
1448	7.2350e-01	-17.8102	-41.823249	-0.000377	-3.766426	-1.276100	-0.030276
1449	7.2400e-01	-17.8984	-41.886109	0.000156	1.564024	0.529906	-0.012572
1450	7.2450e-01	-17.9097	-42.008838	0.000305	3.053571	1.034578	-0.024546
1451	7.2500e-01	-17.9369	-42.013969	0.000013	0.127675	0.043258	-0.001026
1452	7.2550e-01	-18.0107	-42.255578	0.000601	6.011386	2.036713	-0.048322
1453	7.2600e-01	-18.0203	-42.246598	-0.000022	-0.223432	-0.075701	0.001796
1454	7.2650e-01	-18.0621	-42.283373	0.000092	0.915007	0.310013	-0.007355
1455	7.2700e-01	-18.1118	-42.324425	0.000102	1.021404	0.346061	-0.008210
1456	7.2750e-01	-18.1471	-42.533962	0.000521	5.213415	1.766353	-0.041907
1457	7.2800e-01	-18.2064	-42.524982	-0.000022	-0.223432	-0.075701	0.001796
1458	7.2850e-01	-18.2257	-42.591691	0.000166	1.659781	0.562349	-0.013342
1459	7.2900e-01	-18.2786	-42.801228	0.000521	5.213415	1.766353	-0.041907
1460	7.2950e-01	-18.3219	-42.957311	0.000388	3.883462	1.315752	-0.031217
1461	7.3000e-01	-18.3460	-43.146321	0.000470	4.702713	1.593322	-0.037802
1462	7.3050e-01	-18.3973	-43.064217	-0.000204	-2.042807	-0.692122	0.016421
1463	7.3100e-01	-18.4374	-43.104841	0.000101	1.010764	0.342456	-0.008125
1464	7.3150e-01	-18.4711	-43.103559	-0.000003	-0.031919	-0.010814	0.000257
1465	7.3200e-01	-18.5177	-43.420001	0.000787	7.873320	2.667553	-0.063289
1466	7.3250e-01	-18.5594	-43.417863	-0.000005	-0.053198	-0.018024	0.000428
1467	7.3300e-01	-18.5850	-43.477303	0.000148	1.478907	0.501067	-0.011888
1468	7.3350e-01	-18.6364	-43.603025	0.000313	3.128049	1.059812	-0.025144
1469	7.3400e-01	-18.6733	-43.721905	0.000296	2.957815	1.002135	-0.023776
1470	7.3450e-01	-18.7038	-43.741148	0.000048	0.478783	0.162216	-0.003849
1471	7.3500e-01	-18.7567	-43.893383	0.000379	3.787705	1.283309	-0.030447
1472	7.3550e-01	-18.7872	-43.934862	0.000103	1.032043	0.349666	-0.008296
1473	7.3600e-01	-18.8385	-44.053314	0.000295	2.947175	0.998530	-0.023690
1474	7.3650e-01	-18.8930	-44.099498	0.000115	1.149079	0.389319	-0.009237
1475	7.3700e-01	-18.9027	-44.183740	0.000210	2.096005	0.710146	-0.016848
1476	7.3750e-01	-18.9556	-44.285943	0.000254	2.542870	0.861548	-0.020440
1477	7.3800e-01	-18.9781	-44.259002	-0.000067	-0.670296	-0.227102	0.005388
1478	7.3850e-01	-19.0455	-44.279528	0.000051	0.510702	0.173030	-0.004105
1479	7.3900e-01	-19.0840	-44.480512	0.000500	5.000622	1.694257	-0.040197
1480	7.3950e-01	-19.1176	-44.619918	0.000347	3.468517	1.175165	-0.027881
1481	7.4000e-01	-19.1465	-44.758896	0.000346	3.457877	1.171560	-0.027796
1482	7.4050e-01	-19.1946	-44.793534	0.000086	0.861809	0.291989	-0.006928
1483	7.4100e-01	-19.2315	-44.893598	0.000249	2.489671	0.843524	-0.020013
1484	7.4150e-01	-19.3037	-44.953893	0.000150	1.500187	0.508277	-0.012059
1485	7.4200e-01	-19.2829	-45.120239	-0.000414	-4.138813	-1.402268	-0.033269
1486	7.4250e-01	-19.3599	-45.173265	0.000132	1.319313	0.446995	-0.010605
1487	7.4300e-01	-19.4128	-45.332342	0.000396	3.957939	1.340986	-0.031815
1488	7.4350e-01	-19.4224	-45.274612	-0.000144	-1.436349	-0.486648	0.011546
1489	7.4400e-01	-19.4642	-45.399906	0.000312	3.117409	1.056207	-0.025059
1490	7.4450e-01	-19.5059	-45.502109	0.000254	2.542870	0.861548	-0.020440
1491	7.4500e-01	-19.5572	-45.688981	0.000465	4.649515	1.575298	-0.037374
1492	7.4550e-01	-19.5845	-45.636811	-0.000130	-1.298034	-0.439786	0.010434
1493	7.4600e-01	-19.6198	-45.742862	0.000264	2.638626	0.893991	-0.021210
1494	7.4650e-01	-19.6791	-45.842926	0.000249	2.489671	0.843524	-0.020013
1495	7.4700e-01	-19.7016	-46.028516	0.000462	4.617596	1.564484	-0.037118
1496	7.4750e-01	-19.7609	-46.022101	-0.000016	-0.159594	-0.054072	0.001283
1497	7.4800e-01	-19.7866	-46.152527	0.000325	3.245085	1.099464	-0.026085
1498	7.4850e-01	-19.8363	-46.229927	0.000193	1.925771	0.652469	-0.015480
1499	7.4900e-01	-19.8877	-46.240618	0.000027	0.265991	0.090120	-0.002138
1500	7.4950e-01	-19.8941	-46.520712	0.000697	6.968952	2.361145	-0.056019
1501	7.5000e-01	-19.9839	-46.519002	-0.000004	-0.042558	-0.014419	0.000342
1502	7.5050e-01	-19.8893	-46.433904	0.000212	2.117285	0.717355	0.017019
1503	7.5100e-01	-19.8668	-46.340682	0.000232	2.319437	0.785847	0.018644
1504	7.5150e-01	-19.8235	-46.218809	0.000303	3.032292	1.027368	0.024375
1505	7.5200e-01	-19.7754	-46.318018	-0.000247	-2.468392	-0.836314	-0.019842
1506	7.5250e-01	-19.7513	-46.175619	0.000354	3.542994	1.200399	0.028480
1507	7.5300e-01	-19.7016	-46.210684	-0.000087	-0.872449	-0.295594	-0.007013
1508	7.5350e-01	-19.6358	-46.073844	0.000340	3.404679	1.153536	0.027368
1509	7.5400e-01	-19.5989	-46.110620	-0.000092	-0.915007	-0.310013	-0.007355
1510	7.5450e-01	-19.5909	-45.945556	0.000411	4.106894	1.391453	0.033013
1511	7.5500e-01	-19.5556	-45.883978	0.000153	1.532105	0.519091	0.012316
1512	7.5550e-01	-19.4914	-45.798025	0.000214	2.138564	0.724565	0.017191
1513	7.5600e-01	-19.4658	-45.610298	0.000467	4.670794	1.582508	0.037545
1514	7.5650e-01	-19.4096	-45.753552	-0.000356	-3.564273	-1.207608	-0.028651
1515	7.5700e-01	-19.3823	-45.550003	0.000506	5.064460	1.715885	0.040710
1516	7.5750e-01	-19.3230	-45.499543	0.000126	1.255475	0.425367	0.010092
1517	7.5800e-01	-19.2877	-45.449511	0.000124	1.244836	0.421762	0.010006
1518	7.5850e-01	-19.2684	-45.353723	0.000238	2.383275	0.807476	0.019158
1519	7.5900e-01	-19.2187	-45.188232	0.000412	4.117534	1.395058	0.033098
1520	7.5950e-01	-19.1914	-45.339611	-0.000377	-3.766426	-1.276100	-0.030276
1521	7.6000e-01	-19.1417	-45.275895	0.000159	1.585304	0.537115	0.012743
1522	7.6050e-01	-19.0791	-45.065931	0.000522	5.224054	1.769957	0.041993
1523	7.6100e-01	-19.0679	-44.993235	0.000181	1.808736	0.612816	0.014539
1524	7.6150e-01	-19.0182	-44.949617	0.000109	1.085241	0.367690	0.008724
1525	7.6200e-01	-18.9877	-44.819619	0.000323	3.234445	1.095860	0.026000
1526	7.6250e-01	-18.9235	-44.901723	-0.000204	-2.042807	-0.692122	-0.016421
1527	7.6300e-01	-18.9123	-44.778567	0.000306	3.064211	1.038183	0.024631
1528	7.6350e-01	-18.8578	-44.863237	-0.000211	-2.106645	-0.713751	-0.016934
1529	7.6400e-01	-18.8241	-44.616497	0.000614	6.139062	2.079970	0.049348
1530	7.6450e-01	-18.7647	-44.512584	0.000259	2.585428	0.875967	0.020783
1531	7.6500e-01	-18.7310	-44.400546	0.000279	2.787581	0.944458	0.022408
1532	7.6550e-01	-18.6989	-44.406105	-0.000014	-0.138315	-0.046862	-0.001112
1533	7.6600e-01	-18.6508	-44.362915	0.000107	1.074602	0.364085	0.008638
1534	7.6650e-01	-18.6171	-44.220088	0.000355	3.553634	1.204004	0.028565
1535	7.6700e-01	-18.5770	-44.138412	0.000203	2.032168	0.688517	0.016335
1536	7.6750e-01	-18.5417	-44.037492	0.000251	2.510951	0.850733	0.020184
1537	7.6800e-01	-18.5161	-44.019104	0.000046	0.457504	0.155006	0.003678
1538	7.6850e-01	-18.4631	-43.968645	0.000126	1.255475	0.425367	0.010092
1539	7.6900e-01	-18.4214	-43.774930	0.000482	4.819749	1.632975	0.038743
1540	7.6950e-01	-18.3797	-43.747135	0.000069	0.691575	0.234312	0.005559
1541	7.7000e-01	-18.3412	-43.820686	-0.000183	-1.830015	-0.620026	-0.014710
1542	7.7050e-01	-18.2963	-43.626544	0.000483	4.830388	1.636580	0.038828
1543	7.7100e-01	-18.2722	-43.591907	0.000086	0.861809	0.291989	0.006928
1544	7.7150e-01	-18.2177	-43.426416	0.000412	4.117534	1.395058	0.033098
1545	7.7200e-01	-18.1840	-43.482435	-0.000139	-1.393790	-0.472229	-0.011204
1546	7.7250e-01	-18.1439	-43.463191	0.000048	0.478783	0.162216	0.003849
1547	7.7300e-01	-18.1070	-43.316944	0.000364	3.638751	1.232842	0.029250
1548	7.7350e-01	-18.0637	-43.172834	0.000359	3.585552	1.214818	0.028822
1549	7.7400e-01	-18.0059	-43.127933	0.000112	1.117160	0.378504	0.008980
1550	7.7450e-01	-17.9786	-43.022737	0.000262	2.617347	0.886781	0.021039
1551	7.7500e-01	-17.9514	-43.093723	-0.000177	-1.766177	-0.598397	-0.014197
1552	7.7550e-01	-17.9000	-42.929943	0.000407	4.074975	1.380639	0.032756
1553	7.7600e-01	-17.8567	-42.863233	0.000166	1.659781	0.562349	0.013342
1554	7.7650e-01	-17.8294	-42.555343	0.000766	7.660527	2.595457	0.061578
1555	7.7700e-01	-17.7813	-42.628039	-0.000181	-1.808736	-0.612816	-0.014539
1556	7.7750e-01	-17.7637	-42.592974	0.000087	0.872449	0.295594	0.007013
1557	7.7800e-01	-17.7011	-42.471528	0.000302	3.021653	1.023764	0.024289
1558	7.7850e-01	-17.6385	-42.425773	0.000114	1.138440	0.385714	0.009151
1559	7.7900e-01	-17.6273	-42.408668	0.000043	0.425585	0.144192	0.003421
1560	7.7950e-01	-17.5776	-42.235907	0.000430	4.298407	1.456340	0.034552
1561	7.8000e-01	-17.5327	-42.115744	0.000299	2.989734	1.012949	0.024033
1562	7.8050e-01	-17.4893	-42.055021	0.000151	1.510826	0.511882	0.012145
1563	7.8100e-01	-17.4508	-41.911767	0.000356	3.564273	1.207608	0.028651
1564	7.8150e-01	-17.4107	-41.913477	-0.000004	-0.042558	-0.014419	-0.000342
1565	7.8200e-01	-17.3787	-41.883544	0.000074	0.744774	0.252336	0.005987
1566	7.8250e-01	-17.3289	-41.740289	0.000356	3.564273	1.207608	0.028651
1567	7.8300e-01	-17.3065	-41.674435	0.000164	1.638502	0.555139	0.013171
1568	7.8350e-01	-17.2519	-41.674435	0.000000	0.000000	0.000000	0.000000
1569	7.8400e-01	-17.2279	-41.569667	0.000261	2.606707	0.883176	0.020954
1570	7.8450e-01	-17.1861	-41.464471	0.000262	2.617347	0.886781	0.021039
1571	7.8500e-01	-17.1236	-41.479438	-0.000037	-0.372387	-0.126168	-0.002993
1572	7.8550e-01	-17.0995	-41.324637	0.000385	3.851543	1.304938	0.030960
1573	7.8600e-01	-17.0434	-41.295559	0.000072	0.723494	0.245126	0.005816
1574	7.8650e-01	-17.0257	-41.193357	0.000254	2.542870	0.861548	0.020440
1575	7.8700e-01	-16.9744	-41.087733	0.000263	2.627987	0.890386	0.021125
1576	7.8750e-01	-16.9311	-41.006057	0.000203	2.032168	0.688517	0.016335
1577	7.8800e-01	-16.9054	-41.000925	0.000013	0.127675	0.043258	0.001026
1578	7.8850e-01	-16.8541	-40.892308	0.000270	2.702464	0.915620	0.021723
1579	7.8900e-01	-16.8188	-40.687903	0.000509	5.085739	1.723095	0.040881
1580	7.8950e-01	-16.7787	-40.679351	0.000021	0.212792	0.072096	0.001711
1581	7.9000e-01	-16.7514	-40.744350	-0.000162	-1.617222	-0.547930	-0.013000
1582	7.9050e-01	-16.6872	-40.564320	0.000448	4.479281	1.517621	0.036006
1583	7.9100e-01	-16.6696	-40.475374	0.000221	2.213041	0.749799	0.017789
1584	7.9150e-01	-16.6279	-40.374026	0.000252	2.521590	0.854338	0.020269
1585	7.9200e-01	-16.5814	-40.291922	0.000204	2.042807	0.692122	0.016421
1586	7.9250e-01	-16.5364	-40.288074	0.000010	0.095757	0.032443	0.000770
1587	7.9300e-01	-16.5108	-40.319290	-0.000078	-0.776692	-0.263150	-0.006243
1588	7.9350e-01	-16.4450	-40.063571	0.000636	6.362494	2.155671	0.051144
1589	7.9400e-01	-16.4129	-39.944263	0.000297	2.968454	1.005740	0.023861
1590	7.9450e-01	-16.3904	-39.953671	-0.000023	-0.234072	-0.079306	-0.001882
1591	7.9500e-01	-16.3215	-39.709069	0.000609	6.085864	2.061946	0.048920
1592	7.9550e-01	-16.2942	-39.736437	-0.000068	-0.680936	-0.230707	-0.005474
1593	7.9600e-01	-16.2605	-39.699661	0.000092	0.915007	0.310013	0.007355
1594	7.9650e-01	-16.2268	-39.658609	0.000102	1.021404	0.346061	0.008210
1595	7.9700e-01	-16.1771	-39.585913	0.000181	1.808736	0.612816	0.014539
1596	7.9750e-01	-16.1482	-39.530749	0.000137	1.372511	0.465019	0.011033
1597	7.9800e-01	-16.1017	-39.310522	0.000548	5.479405	1.856473	0.044045
1598	7.9850e-01	-16.0536	-39.279306	0.000078	0.776692	0.263150	0.006243
1599	7.9900e-01	-16.0263	-39.205754	0.000183	1.830015	0.620026	0.014710
1600	7.9950e-01	-15.9750	-39.123650	0.000204	2.042807	0.692122	0.016421
1601	8.0000e-01	-15.9316	-39.041974	0.000203	2.032168	0.688517	0.016335
1602	8.0050e-01	-15.9140	-39.023586	0.000046	0.457504	0.155006	0.003678
1603	8.0100e-01	-15.8514	-38.937206	0.000215	2.149204	0.728170	0.017276
1604	8.0150e-01	-15.8322	-38.877766	0.000148	1.478907	0.501067	0.011888
1605	8.0200e-01	-15.7680	-38.805925	0.000179	1.787456	0.605607	0.014368
1606	8.0250e-01	-15.7455	-38.436456	0.000919	9.192633	3.114548	0.073894
1607	8.0300e-01	-15.6958	-38.502738	-0.000165	-1.649141	-0.558744	-0.013256
1608	8.0350e-01	-15.6557	-38.374878	0.000318	3.181247	1.077836	0.025572
1609	8.0400e-01	-15.6300	-38.383858	-0.000022	-0.223432	-0.075701	-0.001796
1610	8.0450e-01	-15.5739	-38.290209	0.000233	2.330077	0.789451	0.018730
1611	8.0500e-01	-15.5530	-38.085376	0.000510	5.096379	1.726700	0.040967
1612	8.0550e-01	-15.4953	-38.132415	-0.000117	-1.170358	-0.396528	-0.009408
1613	8.0600e-01	-15.4825	-37.975049	0.000392	3.915381	1.326567	0.031473
1614	8.0650e-01	-15.4119	-38.013107	-0.000095	-0.946926	-0.320827	-0.007612
1615	8.0700e-01	-15.3702	-37.893372	0.000298	2.979094	1.009344	0.023947
1616	8.0750e-01	-15.3333	-37.914326	-0.000052	-0.521341	-0.176635	-0.004191
1617	8.0800e-01	-15.3028	-37.881826	0.000081	0.808611	0.273965	0.006500
1618	8.0850e-01	-15.2322	-37.660744	0.000550	5.500684	1.863682	0.044216
1619	8.0900e-01	-15.2290	-37.545285	0.000287	2.872698	0.973296	0.023092
1620	8.0950e-01	-15.1664	-37.602587	-0.000143	-1.425709	-0.483043	-0.011460
1621	8.1000e-01	-15.1311	-37.426405	0.000438	4.383524	1.485178	0.035236
1622	8.1050e-01	-15.0734	-37.534595	-0.000269	-2.691824	-0.912015	-0.021638
1623	8.1100e-01	-15.0621	-37.264335	0.000672	6.724241	2.278234	0.054052
1624	8.1150e-01	-15.0076	-37.268184	-0.000010	-0.095757	-0.032443	-0.000770
1625	8.1200e-01	-14.9691	-37.141607	0.000315	3.149328	1.067021	0.025315
1626	8.1250e-01	-14.9386	-36.797796	0.000855	8.554256	2.898260	0.068762
1627	8.1300e-01	-14.9194	-36.852105	-0.000135	-1.351232	-0.457810	-0.010862
1628	8.1350e-01	-14.8600	-36.914966	-0.000156	-1.564024	-0.529906	-0.012572
1629	8.1400e-01	-14.8087	-36.839276	0.000188	1.883213	0.638050	0.015138
1630	8.1450e-01	-14.7686	-36.683620	0.000387	3.872822	1.312148	0.031131
1631	8.1500e-01	-14.7269	-36.694739	-0.000028	-0.276630	-0.093725	-0.002224
1632	8.1550e-01	-14.6755	-36.538228	0.000389	3.894101	1.319357	0.031302
1633	8.1600e-01	-14.6515	-36.370171	0.000418	4.181371	1.416687	0.033611
1634	8.1650e-01	-14.6130	-36.296620	0.000183	1.830015	0.620026	0.014710
1635	8.1700e-01	-14.5664	-36.240173	0.000140	1.404430	0.475834	0.011289
1636	8.1750e-01	-14.5247	-36.214943	0.000063	0.627738	0.212683	0.005046
1637	8.1800e-01	-14.5039	-36.249581	-0.000086	-0.861809	-0.291989	-0.006928
1638	8.1850e-01	-14.4525	-35.945112	0.000758	7.575411	2.566619	0.060894
1639	8.1900e-01	-14.4365	-35.897645	0.000118	1.180998	0.400133	0.009493
1640	8.1950e-01	-14.3723	-35.956230	-0.000146	-1.457628	-0.493858	-0.011717
1641	8.2000e-01	-14.3146	-35.702220	0.000632	6.319935	2.141252	0.050802
1642	8.2050e-01	-14.3178	-35.747121	0.000112	1.117160	0.378504	-0.008980
1643	8.2100e-01	-14.2664	-35.659885	0.000217	2.170483	0.735379	0.017447
1644	8.2150e-01	-14.2247	-35.494394	0.000412	4.117534	1.395058	0.033098
1645	8.2200e-01	-14.1718	-35.460184	0.000085	0.851170	0.288384	0.006842
1646	8.2250e-01	-14.1397	-35.501664	-0.000103	-1.032043	-0.349666	-0.008296
1647	8.2300e-01	-14.0980	-35.247227	0.000633	6.330575	2.144857	0.050887
1648	8.2350e-01	-14.0435	-35.380219	-0.000331	-3.308922	-1.121093	-0.026598
1649	8.2400e-01	-14.0114	-35.162130	0.000543	5.426207	1.838449	0.043618
1650	8.2450e-01	-13.9873	-34.946179	0.000537	5.373009	1.820425	0.043190
1651	8.2500e-01	-13.9456	-35.020158	-0.000184	-1.840655	-0.623631	-0.014796
1652	8.2550e-01	-13.9119	-34.955159	0.000162	1.617222	0.547930	0.013000
1653	8.2600e-01	-13.8590	-34.851674	0.000257	2.574788	0.872362	0.020697
1654	8.2650e-01	-13.7964	-34.795227	0.000140	1.404430	0.475834	0.011289
1655	8.2700e-01	-13.7659	-34.645558	0.000372	3.723868	1.261680	0.029934
1656	8.2750e-01	-13.7467	-34.565165	0.000200	2.000249	0.677703	0.016079
1657	8.2800e-01	-13.7001	-34.529672	0.000088	0.883089	0.299199	0.007099
1658	8.2850e-01	-13.6552	-34.503159	0.000066	0.659657	0.223498	0.005303
1659	8.2900e-01	-13.6280	-34.380003	0.000306	3.064211	1.038183	0.024631
1660	8.2950e-01	-13.5846	-34.316287	0.000159	1.585304	0.537115	0.012743
1661	8.3000e-01	-13.5397	-34.219216	0.000242	2.415194	0.818290	0.019414
1662	8.3050e-01	-13.5060	-34.014811	0.000509	5.085739	1.723095	0.040881
1663	8.3100e-01	-13.4403	-34.022508	-0.000019	-0.191513	-0.064886	-0.001539
1664	8.3150e-01	-13.4210	-33.868991	0.000382	3.819624	1.294124	0.030703
1665	8.3200e-01	-13.3504	-33.942115	-0.000182	-1.819375	-0.616421	-0.014625
1666	8.3250e-01	-13.3312	-33.612416	0.000820	8.203148	2.779302	0.065940
1667	8.3300e-01	-13.3055	-33.868563	-0.000637	-6.373133	-2.159276	-0.051230
1668	8.3350e-01	-13.2445	-33.697085	0.000427	4.266488	1.445525	0.034296
1669	8.3400e-01	-13.2237	-33.424261	0.000679	6.788079	2.299863	0.054565
1670	8.3450e-01	-13.1868	-33.389195	0.000087	0.872449	0.295594	0.007013
1671	8.3500e-01	-13.1371	-33.297683	0.000228	2.276879	0.771427	0.018302
1672	8.3550e-01	-13.1066	-33.216435	0.000202	2.021528	0.684912	0.016250
1673	8.3600e-01	-13.0440	-33.120647	0.000238	2.383275	0.807476	0.019158
1674	8.3650e-01	-13.0055	-33.052654	0.000169	1.691700	0.573163	0.013598
1675	8.3700e-01	-12.9766	-32.950879	0.000253	2.532230	0.857943	0.020355
1676	8.3750e-01	-12.9381	-32.950452	0.000001	0.010640	0.003605	0.000086
1677	8.3800e-01	-12.8916	-32.892722	0.000144	1.436349	0.486648	0.011546
1678	8.3850e-01	-12.8499	-32.769139	0.000307	3.074851	1.041788	0.024717
1679	8.3900e-01	-12.8242	-32.415920	0.000879	8.788327	2.977566	0.070644
1680	8.3950e-01	-12.7697	-32.665226	-0.000620	-6.202899	-2.101599	-0.049861
1681	8.4000e-01	-12.7472	-32.532234	0.000331	3.308922	1.121093	0.026598
1682	8.4050e-01	-12.6991	-32.293192	0.000595	5.947548	2.015084	0.047809
1683	8.4100e-01	-12.6462	-32.419341	-0.000314	-3.138688	-1.063416	-0.025230
1684	8.4150e-01	-12.6349	-32.266679	0.000380	3.798345	1.286914	0.030532
1685	8.4200e-01	-12.5852	-32.282929	-0.000040	-0.404306	-0.136982	-0.003250
1686	8.4250e-01	-12.5226	-32.152503	0.000325	3.245085	1.099464	0.026085
1687	8.4300e-01	-12.4857	-32.059281	0.000232	2.319437	0.785847	0.018644
1688	8.4350e-01	-12.4633	-31.969907	0.000222	2.223681	0.753403	0.017875
1689	8.4400e-01	-12.4103	-31.911750	0.000145	1.446989	0.490253	0.011631
1690	8.4450e-01	-12.3815	-31.752673	0.000396	3.957939	1.340986	0.031815
1691	8.4500e-01	-12.3799	-31.884382	-0.000328	-3.277003	-1.110279	-0.026342
1692	8.4550e-01	-12.2884	-31.546986	0.000839	8.394661	2.844188	0.067479
1693	8.4600e-01	-12.2579	-31.446066	0.000251	2.510951	0.850733	0.020184
1694	8.4650e-01	-12.2226	-31.404586	0.000103	1.032043	0.349666	0.008296
1695	8.4700e-01	-12.1825	-31.345146	0.000148	1.478907	0.501067	0.011888
1696	8.4750e-01	-12.1328	-31.214721	0.000325	3.245085	1.099464	0.026085
1697	8.4800e-01	-12.0799	-31.105249	0.000272	2.723743	0.922829	0.021894
1698	8.4850e-01	-12.0638	-31.135610	-0.000076	-0.755413	-0.255941	-0.006072
1699	8.4900e-01	-12.0350	-30.977816	0.000393	3.926020	1.330172	0.031559
1700	8.4950e-01	-11.9628	-30.955580	0.000055	0.553260	0.187450	0.004447
1701	8.5000e-01	-11.9227	-30.840976	0.000285	2.851419	0.966087	0.022921
1702	8.5050e-01	-11.8842	-30.756306	0.000211	2.106645	0.713751	0.016934
1703	8.5100e-01	-11.8617	-30.604927	0.000377	3.766426	1.276100	0.030276
1704	8.5150e-01	-11.8104	-30.563875	0.000102	1.021404	0.346061	0.008210
1705	8.5200e-01	-11.7751	-30.517692	0.000115	1.149079	0.389319	0.009237
1706	8.5250e-01	-11.7350	-30.376575	0.000351	3.511075	1.189584	0.028223
1707	8.5300e-01	-11.6900	-30.345786	0.000077	0.766053	0.259546	0.006158
1708	8.5350e-01	-11.6644	-30.090494	0.000635	6.351854	2.152066	0.051058
1709	8.5400e-01	-11.6130	-30.035758	0.000136	1.361872	0.461415	0.010947
1710	8.5450e-01	-11.6082	-30.021646	0.000035	0.351108	0.118958	0.002822
1711	8.5500e-01	-11.5200	-29.876254	0.000362	3.617471	1.225632	0.029079
1712	8.5550e-01	-11.5007	-29.826649	0.000123	1.234196	0.418157	0.009921
1713	8.5600e-01	-11.4687	-29.826221	0.000001	0.010640	0.003605	0.000086
1714	8.5650e-01	-11.4125	-29.692802	0.000332	3.319562	1.124698	0.026684
1715	8.5700e-01	-11.3580	-29.696223	-0.000009	-0.085117	-0.028838	-0.000684
1716	8.5750e-01	-11.3355	-29.607705	0.000220	2.202402	0.746194	0.017704
1717	8.5800e-01	-11.2842	-29.507641	0.000249	2.489671	0.843524	0.020013
1718	8.5850e-01	-11.2633	-29.400307	0.000267	2.670545	0.904805	0.021467
1719	8.5900e-01	-11.2120	-29.307940	0.000230	2.298158	0.778637	0.018473
1720	8.5950e-01	-11.2008	-29.241658	0.000165	1.649141	0.558744	0.013256
1721	8.6000e-01	-11.1366	-29.119357	0.000304	3.042932	1.030973	0.024460
1722	8.6050e-01	-11.0917	-29.051364	0.000169	1.691700	0.573163	0.013598
1723	8.6100e-01	-11.0451	-28.953011	0.000245	2.447113	0.829104	0.019671
1724	8.6150e-01	-11.0275	-28.675909	0.000689	6.894475	2.335911	0.055420
1725	8.6200e-01	-10.9810	-28.805908	-0.000323	-3.234445	-1.095860	-0.026000
1726	8.6250e-01	-10.9473	-28.688738	0.000292	2.915256	0.987716	0.023434
1727	8.6300e-01	-10.9088	-28.511701	0.000440	4.404803	1.492388	0.035407
1728	8.6350e-01	-10.8510	-28.420617	0.000227	2.266239	0.767823	0.018217
1729	8.6400e-01	-10.8173	-28.411637	0.000022	0.223432	0.075701	0.001796
1730	8.6450e-01	-10.7628	-28.312000	0.000248	2.479032	0.839919	0.019927
1731	8.6500e-01	-10.7500	-28.302593	0.000023	0.234072	0.079306	0.001882
1732	8.6550e-01	-10.7034	-28.205949	0.000240	2.404554	0.814685	0.019329
1733	8.6600e-01	-10.6633	-28.029768	0.000438	4.383524	1.485178	0.035236
1734	8.6650e-01	-10.6200	-28.131970	-0.000254	-2.542870	-0.861548	-0.020440
1735	8.6700e-01	-10.5751	-27.871546	0.000648	6.479529	2.195324	0.052085
1736	8.6750e-01	-10.5398	-27.851876	0.000049	0.489423	0.165821	0.003934
1737	8.6800e-01	-10.4997	-27.777469	0.000185	1.851294	0.627235	0.014881
1738	8.6850e-01	-10.4644	-27.575202	0.000503	5.032541	1.705071	0.040453
1739	8.6900e-01	-10.4339	-27.568788	0.000016	0.159594	0.054072	0.001283
1740	8.6950e-01	-10.3746	-27.436651	0.000329	3.287643	1.113884	0.026427
1741	8.7000e-01	-10.3088	-27.421685	0.000037	0.372387	0.126168	0.002993
1742	8.7050e-01	-10.3040	-27.282279	0.000347	3.468517	1.175165	0.027881
1743	8.7100e-01	-10.2398	-27.282706	-0.000001	-0.010640	-0.003605	-0.000086
1744	8.7150e-01	-10.2061	-27.174517	0.000269	2.691824	0.912015	0.021638
1745	8.7200e-01	-10.1773	-27.061624	0.000281	2.808860	0.951668	0.022579
1746	8.7250e-01	-10.1307	-26.873041	0.000469	4.692073	1.589717	0.037717
1747	8.7300e-01	-10.0874	-26.949586	-0.000190	-1.904492	-0.645259	-0.015309
1748	8.7350e-01	-10.0489	-26.753306	0.000488	4.883586	1.654604	0.039256
1749	8.7400e-01	-10.0249	-26.680182	0.000182	1.819375	0.616421	0.014625
1750	8.7450e-01	-9.9703	-26.494165	0.000463	4.628235	1.568089	0.037203
1751	8.7500e-01	-9.9511	-26.414199	0.000199	1.989609	0.674098	0.015993
1752	8.7550e-01	-9.8949	-26.539494	-0.000312	-3.117409	-1.056207	-0.025059
1753	8.7600e-01	-9.8773	-26.227327	0.000777	7.766924	2.631505	0.062433
1754	8.7650e-01	-9.8003	-26.132822	0.000235	2.351356	0.796661	0.018901
1755	8.7700e-01	-9.7810	-26.183282	-0.000126	-1.255475	-0.425367	-0.010092
1756	8.7750e-01	-9.7441	-26.255123	-0.000179	-1.787456	-0.605607	-0.014368
1757	8.7800e-01	-9.7040	-25.984008	0.000675	6.745520	2.285444	0.054223
1758	8.7850e-01	-9.6864	-25.902332	0.000203	2.032168	0.688517	0.016335
1759	8.7900e-01	-9.5997	-25.706907	0.000486	4.862307	1.647394	0.039085
1760	8.7950e-01	-9.5757	-25.629079	0.000194	1.936411	0.656074	0.015566
1761	8.8000e-01	-9.5372	-25.671842	-0.000106	-1.063962	-0.360480	-0.008553
1762	8.8050e-01	-9.4922	-25.540989	0.000326	3.255724	1.103069	0.026171
1763	8.8100e-01	-9.4457	-25.541844	-0.000002	-0.021279	-0.007210	-0.000171
1764	8.8150e-01	-9.4185	-25.410135	0.000328	3.277003	1.110279	0.026342
1765	8.8200e-01	-9.3735	-25.121916	0.000717	7.171105	2.429636	0.057644
1766	8.8250e-01	-9.3463	-25.219842	-0.000244	-2.436473	-0.825500	-0.019585
1767	8.8300e-01	-9.2981	-25.136455	0.000207	2.074726	0.702936	0.016677
1768	8.8350e-01	-9.2516	-25.000898	0.000337	3.372760	1.142722	0.027111
1769	8.8400e-01	-9.1923	-25.054351	-0.000133	-1.329953	-0.450600	-0.010691
1770	8.8450e-01	-9.1810	-24.950866	0.000257	2.574788	0.872362	0.020697
1771	8.8500e-01	-9.1361	-24.888005	0.000156	1.564024	0.529906	0.012572
1772	8.8550e-01	-9.0928	-24.738764	0.000371	3.713228	1.258076	0.029848
1773	8.8600e-01	-9.0623	-24.612186	0.000315	3.149328	1.067021	0.025315
1774	8.8650e-01	-9.0254	-24.485609	0.000315	3.149328	1.067021	0.025315
1775	8.8700e-01	-8.9741	-24.369723	0.000288	2.883337	0.976901	0.023177
1776	8.8750e-01	-8.9388	-24.184989	0.000460	4.596316	1.557274	0.036947
1777	8.8800e-01	-8.8842	-24.252554	-0.000168	-1.681060	-0.569559	-0.013513
1778	8.8850e-01	-8.8522	-24.115714	0.000340	3.404679	1.153536	0.027368
1779	8.8900e-01	-8.8121	-24.172588	-0.000142	-1.415070	-0.479439	-0.011375
1780	8.8950e-01	-8.8024	-24.051997	0.000300	3.000373	1.016554	0.024118
1781	8.9000e-01	-8.7383	-23.787725	0.000658	6.575286	2.227767	0.052854
1782	8.9050e-01	-8.7030	-23.741114	0.000116	1.159719	0.392923	0.009322
1783	8.9100e-01	-8.6500	-23.769337	-0.000070	-0.702215	-0.237917	-0.005645
1784	8.9150e-01	-8.6115	-23.585031	0.000459	4.585677	1.553669	0.036861
1785	8.9200e-01	-8.5698	-23.576050	0.000022	0.223432	0.075701	0.001796
1786	8.9250e-01	-8.5361	-23.467006	0.000271	2.713103	0.919224	0.021809
1787	8.9300e-01	-8.4864	-23.277140	0.000472	4.723992	1.600532	0.037973
1788	8.9350e-01	-8.4736	-23.257042	0.000050	0.500062	0.169426	0.004020
1789	8.9400e-01	-8.4094	-23.314771	-0.000144	-1.436349	-0.486648	-0.011546
1790	8.9450e-01	-8.3677	-23.136879	0.000443	4.426083	1.499597	0.035578
1791	8.9500e-01	-8.3532	-23.003460	0.000332	3.319562	1.124698	0.026684
1792	8.9550e-01	-8.3003	-22.949152	0.000135	1.351232	0.457810	0.010862
1793	8.9600e-01	-8.2570	-22.805470	0.000357	3.574913	1.211213	0.028736
1794	8.9650e-01	-8.2265	-22.845239	-0.000099	-0.989485	-0.335247	-0.007954
1795	8.9700e-01	-8.1704	-22.573697	0.000676	6.756160	2.289049	0.054308
1796	8.9750e-01	-8.1254	-22.544618	0.000072	0.723494	0.245126	0.005816
1797	8.9800e-01	-8.1014	-22.537776	0.000017	0.170234	0.057677	0.001368
1798	8.9850e-01	-8.0629	-22.366299	0.000427	4.266488	1.445525	0.034296
1799	8.9900e-01	-8.0067	-22.301300	0.000162	1.617222	0.547930	0.013000
1800	8.9950e-01	-7.9666	-22.273504	0.000069	0.691575	0.234312	0.005559
1801	9.0000e-01	-7.9442	-22.151631	0.000303	3.032292	1.027368	0.024375
1802	9.0050e-01	-7.9057	-22.037027	0.000285	2.851419	0.966087	0.022921
1803	9.0100e-01	-7.8447	-22.004955	0.000080	0.797972	0.270360	0.006414
1804	9.0150e-01	-7.8190	-21.930121	0.000186	1.861934	0.630840	0.014967
1805	9.0200e-01	-7.7517	-21.757788	0.000429	4.287767	1.452735	0.034467
1806	9.0250e-01	-7.7500	-21.570916	0.000465	4.649515	1.575298	0.037374
1807	9.0300e-01	-7.6955	-21.730420	-0.000397	-3.968579	-1.344591	-0.031901
1808	9.0350e-01	-7.6586	-21.544403	0.000463	4.628235	1.568089	0.037203
1809	9.0400e-01	-7.5944	-21.478548	0.000164	1.638502	0.555139	0.013171
1810	9.0450e-01	-7.5800	-21.301512	0.000440	4.404803	1.492388	0.035407
1811	9.0500e-01	-7.5287	-21.359241	-0.000144	-1.436349	-0.486648	-0.011546
1812	9.0550e-01	-7.4982	-21.120626	0.000594	5.936909	2.011479	0.047723
1813	9.0600e-01	-7.4677	-21.026121	0.000235	2.351356	0.796661	0.018901
1814	9.0650e-01	-7.4067	-20.918787	0.000267	2.670545	0.904805	0.021467
1815	9.0700e-01	-7.3907	-20.810170	0.000270	2.702464	0.915620	0.021723
1816	9.0750e-01	-7.3265	-20.764414	0.000114	1.138440	0.385714	0.009151
1817	9.0800e-01	-7.2880	-20.672902	0.000228	2.276879	0.771427	0.018302
1818	9.0850e-01	-7.3009	-20.606621	-0.000165	-1.649141	-0.558744	0.013256
1819	9.0900e-01	-7.2142	-20.457807	0.000370	3.702588	1.254471	0.029763
1820	9.0950e-01	-7.1597	-20.462511	-0.000012	-0.117036	-0.039653	-0.000941
1821	9.1000e-01	-7.1372	-20.342776	0.000298	2.979094	1.009344	0.023947
1822	9.1050e-01	-7.1019	-20.178568	0.000409	4.085615	1.384244	0.032842
1823	9.1100e-01	-7.0570	-20.162318	0.000040	0.404306	0.136982	0.003250
1824	9.1150e-01	-7.0025	-20.225606	-0.000157	-1.574664	-0.533511	-0.012658
1825	9.1200e-01	-6.9768	-20.065247	0.000399	3.989858	1.351801	0.032072
1826	9.1250e-01	-6.9479	-19.795415	0.000671	6.713601	2.274630	0.053966
1827	9.1300e-01	-6.9030	-19.877519	-0.000204	-2.042807	-0.692122	-0.016421
1828	9.1350e-01	-6.8613	-19.693213	0.000459	4.585677	1.553669	0.036861
1829	9.1400e-01	-6.7987	-19.604695	0.000220	2.202402	0.746194	0.017704
1830	9.1450e-01	-6.7715	-19.518314	0.000215	2.149204	0.728170	0.017276
1831	9.1500e-01	-6.7330	-19.437065	0.000202	2.021528	0.684912	0.016250
1832	9.1550e-01	-6.6945	-19.387889	0.000122	1.223556	0.414552	0.009835
1833	9.1600e-01	-6.6576	-19.168089	0.000547	5.468765	1.852868	0.043960
1834	9.1650e-01	-6.6062	-19.299798	-0.000328	-3.277003	-1.110279	-0.026342
1835	9.1700e-01	-6.5934	-19.089834	0.000522	5.224054	1.769957	0.041993
1836	9.1750e-01	-6.5276	-19.080854	0.000022	0.223432	0.075701	0.001796
1837	9.1800e-01	-6.4971	-18.904672	0.000438	4.383524	1.485178	0.035236
1838	9.1850e-01	-6.4683	-18.732767	0.000428	4.277128	1.449130	0.034381
1839	9.1900e-01	-6.4153	-18.713523	0.000048	0.478783	0.162216	0.003849
1840	9.1950e-01	-6.3752	-18.465073	0.000618	6.181620	2.094390	0.049690
1841	9.2000e-01	-6.3560	-18.515961	-0.000127	-1.266115	-0.428971	-0.010177
1842	9.2050e-01	-6.3078	-18.491586	0.000061	0.606458	0.205474	0.004875
1843	9.2100e-01	-6.2581	-18.384252	0.000267	2.670545	0.904805	0.021467
1844	9.2150e-01	-6.2164	-18.326950	0.000143	1.425709	0.483043	0.011460
1845	9.2200e-01	-6.1715	-18.179847	0.000366	3.660030	1.240052	0.029421
1846	9.2250e-01	-6.1506	-18.041297	0.000345	3.447237	1.167956	0.027710
1847	9.2300e-01	-6.1041	-18.065244	-0.000060	-0.595819	-0.201869	-0.004789
1848	9.2350e-01	-6.0736	-17.917285	0.000368	3.681309	1.247261	0.029592
1849	9.2400e-01	-6.0223	-17.751367	0.000413	4.128173	1.398663	0.033184
1850	9.2450e-01	-5.9774	-17.703473	0.000119	1.191638	0.403738	0.009579
1851	9.2500e-01	-5.9389	-17.717157	-0.000034	-0.340468	-0.115354	-0.002737
1852	9.2550e-01	-5.9100	-17.688506	0.000071	0.712855	0.241522	0.005730
1853	9.2600e-01	-5.8843	-17.421668	0.000664	6.639124	2.249396	0.053368
1854	9.2650e-01	-5.8266	-17.329300	0.000230	2.298158	0.778637	0.018473
1855	9.2700e-01	-5.7881	-17.288248	0.000102	1.021404	0.346061	0.008210
1856	9.2750e-01	-5.7415	-17.212131	0.000189	1.893853	0.641655	0.015223
1857	9.2800e-01	-5.7095	-17.106080	0.000264	2.638626	0.893991	0.021210
1858	9.2850e-01	-5.6565	-16.930326	0.000437	4.372884	1.481573	0.035151
1859	9.2900e-01	-5.6260	-16.911938	0.000046	0.457504	0.155006	0.003678
1860	9.2950e-01	-5.5731	-16.917070	-0.000013	-0.127675	-0.043258	-0.001026
1861	9.3000e-01	-5.5378	-16.746447	0.000425	4.245209	1.438316	0.034124
1862	9.3050e-01	-5.5170	-16.706678	0.000099	0.989485	0.335247	0.007954
1863	9.3100e-01	-5.4624	-16.469774	0.000589	5.894350	1.997060	0.047381
1864	9.3150e-01	-5.4287	-16.427011	0.000106	1.063962	0.360480	0.008553
1865	9.3200e-01	-5.3806	-16.307704	0.000297	2.968454	1.005740	0.023861
1866	9.3250e-01	-5.3293	-16.287605	0.000050	0.500062	0.169426	0.004020
1867	9.3300e-01	-5.2892	-16.185403	0.000254	2.542870	0.861548	0.020440
1868	9.3350e-01	-5.2811	-16.040438	0.000361	3.606832	1.222028	0.028993
1869	9.3400e-01	-5.2250	-15.905308	0.000336	3.362120	1.139117	0.027026
1870	9.3450e-01	-5.1785	-15.802678	0.000255	2.553509	0.865152	0.020526
1871	9.3500e-01	-5.1287	-15.732120	0.000176	1.755538	0.594792	0.014112
1872	9.3550e-01	-5.0902	-15.762054	-0.000074	-0.744774	-0.252336	-0.005987
1873	9.3600e-01	-5.0485	-15.559787	0.000503	5.032541	1.705071	0.040453
1874	9.3650e-01	-5.0148	-15.524294	0.000088	0.883089	0.299199	0.007099
1875	9.3700e-01	-4.9811	-15.452453	0.000179	1.787456	0.605607	0.014368
1876	9.3750e-01	-4.9651	-15.258311	0.000483	4.830388	1.636580	0.038828
1877	9.3800e-01	-4.8801	-15.378474	-0.000299	-2.989734	-1.012949	-0.024033
1878	9.3850e-01	-4.8801	-15.295515	-0.000206	-2.064087	-0.699331	0.016592
1879	9.3900e-01	-4.8336	-14.880290	0.001033	10.331072	3.500262	0.083045
1880	9.3950e-01	-4.7902	-14.994894	-0.000285	-2.851419	-0.966087	-0.022921
1881	9.4000e-01	-4.7421	-14.948711	0.000115	1.149079	0.389319	0.009237
1882	9.4050e-01	-4.6860	-14.964105	-0.000038	-0.383026	-0.129773	-0.003079
1883	9.4100e-01	-4.6619	-14.567269	0.000987	9.873569	3.345256	0.079367
1884	9.4150e-01	-4.6410	-14.625426	-0.000145	-1.446989	-0.490253	-0.011631
1885	9.4200e-01	-4.5865	-14.549309	0.000189	1.893853	0.641655	0.015223
1886	9.4250e-01	-4.5159	-14.444968	0.000260	2.596068	0.879572	0.020868
1887	9.4300e-01	-4.4935	-14.293589	0.000377	3.766426	1.276100	0.030276
1888	9.4350e-01	-4.4694	-14.223886	0.000173	1.734258	0.587583	0.013941
1889	9.4400e-01	-4.4293	-14.167439	0.000140	1.404430	0.475834	0.011289
1890	9.4450e-01	-4.3780	-13.931390	0.000587	5.873071	1.989850	0.047210
1891	9.4500e-01	-4.3475	-13.908726	0.000056	0.563900	0.191054	0.004533
1892	9.4550e-01	-4.3058	-13.844154	0.000161	1.606583	0.544325	0.012914
1893	9.4600e-01	-4.2592	-13.707742	0.000339	3.394039	1.149932	0.027282
1894	9.4650e-01	-4.2304	-13.678663	0.000072	0.723494	0.245126	0.005816
1895	9.4700e-01	-4.1790	-13.629487	0.000122	1.223556	0.414552	0.009835
1896	9.4750e-01	-4.1213	-13.504192	0.000312	3.117409	1.056207	0.025059
1897	9.4800e-01	-4.1020	-13.228802	0.000685	6.851916	2.321492	0.055078
1898	9.4850e-01	-4.0507	-13.282255	-0.000133	-1.329953	-0.450600	-0.010691
1899	9.4900e-01	-4.0090	-13.132158	0.000373	3.734507	1.265285	0.030019
1900	9.4950e-01	-3.9817	-13.268143	-0.000338	-3.383400	-1.146327	-0.027197
1901	9.5000e-01	-3.9512	-13.053048	0.000535	5.351730	1.813215	0.043019
1902	9.5050e-01	-3.8855	-12.800321	0.000629	6.288016	2.130438	0.050545
1903	9.5100e-01	-3.8614	-12.819137	-0.000047	-0.468143	-0.158611	-0.003763
1904	9.5150e-01	-3.7972	-12.836669	-0.000044	-0.436224	-0.147797	-0.003507
1905	9.5200e-01	-3.7764	-12.636968	0.000497	4.968703	1.683442	0.039940
1906	9.5250e-01	-3.7523	-12.615587	0.000053	0.531981	0.180240	0.004276
1907	9.5300e-01	-3.6994	-12.342762	0.000679	6.788079	2.299863	0.054565
1908	9.5350e-01	-3.6512	-12.536904	-0.000483	-4.830388	-1.636580	-0.038828
1909	9.5400e-01	-3.6288	-12.199080	0.000841	8.405301	2.847793	0.067565
1910	9.5450e-01	-3.5774	-12.343617	-0.000360	-3.596192	-1.218423	-0.028907
1911	9.5500e-01	-3.5550	-12.099016	0.000609	6.085864	2.061946	0.048920
1912	9.5550e-01	-3.4956	-11.984412	0.000285	2.851419	0.966087	0.022921
1913	9.5600e-01	-3.4587	-11.992537	-0.000020	-0.202153	-0.068491	-0.001625
1914	9.5650e-01	-3.4170	-11.929676	0.000156	1.564024	0.529906	0.012572
1915	9.5700e-01	-3.3865	-11.732541	0.000490	4.904866	1.661813	0.039427
1916	9.5750e-01	-3.3464	-11.697476	0.000087	0.872449	0.295594	0.007013
1917	9.5800e-01	-3.2903	-11.604253	0.000232	2.319437	0.785847	0.018644
1918	9.5850e-01	-3.2758	-11.467841	0.000339	3.394039	1.149932	0.027282
1919	9.5900e-01	-3.2245	-11.398993	0.000171	1.712979	0.580373	0.013770
1920	9.5950e-01	-3.1780	-11.273271	0.000313	3.128049	1.059812	0.025144
1921	9.6000e-01	-3.1395	-11.107780	0.000412	4.117534	1.395058	0.033098
1922	9.6050e-01	-3.1026	-11.099655	0.000020	0.202153	0.068491	0.001625
1923	9.6100e-01	-3.0769	-10.920053	0.000447	4.468641	1.514017	0.035921
1924	9.6150e-01	-3.0288	-10.844363	0.000188	1.883213	0.638050	0.015138
1925	9.6200e-01	-2.9598	-10.638248	0.000513	5.128298	1.737514	0.041223
1926	9.6250e-01	-2.9422	-10.503118	0.000336	3.362120	1.139117	0.027026
1927	9.6300e-01	-2.8908	-10.723773	-0.000549	-5.490045	-1.860077	-0.044131
1928	9.6350e-01	-2.8652	-10.569828	0.000383	3.830264	1.297728	0.030789
1929	9.6400e-01	-2.8267	-10.178123	0.000975	9.745893	3.301998	0.078341
1930	9.6450e-01	-2.7930	-10.427001	-0.000619	-6.192260	-2.097994	-0.049776
1931	9.6500e-01	-2.7513	-10.291016	0.000338	3.383400	1.146327	0.027197
1932	9.6550e-01	-2.7031	-10.067796	0.000555	5.553882	1.881706	0.044644
1933	9.6600e-01	-2.6422	-10.087466	-0.000049	-0.489423	-0.165821	-0.003934
1934	9.6650e-01	-2.6309	-9.845431	0.000602	6.022026	2.040318	0.048407
1935	9.6700e-01	-2.5924	-9.939936	-0.000235	-2.351356	-0.796661	-0.018901
1936	9.6750e-01	-2.5475	-9.722274	0.000542	5.415567	1.834844	0.043532
1937	9.6800e-01	-2.4962	-9.609381	0.000281	2.808860	0.951668	0.022579
1938	9.6850e-01	-2.4368	-9.472969	0.000339	3.394039	1.149932	0.027282
1939	9.6900e-01	-2.4352	-9.311327	0.000402	4.021777	1.362615	0.032328
1940	9.6950e-01	-2.3695	-9.520435	-0.000520	-5.202775	-1.762748	-0.041822
1941	9.7000e-01	-2.3310	-9.222380	0.000742	7.415816	2.512547	0.059611
1942	9.7050e-01	-2.2989	-9.219387	0.000007	0.074477	0.025234	0.000599
1943	9.7100e-01	-2.2652	-9.108205	0.000277	2.766302	0.937248	0.022237
1944	9.7150e-01	-2.2379	-9.096659	0.000029	0.287270	0.097330	0.002309
1945	9.7200e-01	-2.1721	-8.975213	0.000302	3.021653	1.023764	0.024289
1946	9.7250e-01	-2.1545	-8.837090	0.000344	3.436598	1.164351	0.027625
1947	9.7300e-01	-2.0951	-8.901234	-0.000160	-1.595943	-0.540720	-0.012829
1948	9.7350e-01	-2.0470	-8.585219	0.000786	7.862680	2.663948	0.063203
1949	9.7400e-01	-2.0213	-8.499266	0.000214	2.138564	0.724565	0.017191
1950	9.7450e-01	-2.0069	-8.324367	0.000435	4.351605	1.474364	0.034980
1951	9.7500e-01	-1.9556	-8.296999	0.000068	0.680936	0.230707	0.005474
1952	9.7550e-01	-1.9026	-8.199073	0.000244	2.436473	0.825500	0.019585
1953	9.7600e-01	-1.8561	-8.066509	0.000330	3.298283	1.117488	0.026513
1954	9.7650e-01	-1.8272	-8.003648	0.000156	1.564024	0.529906	0.012572
1955	9.7700e-01	-1.7919	-7.724837	0.000694	6.937033	2.350330	0.055762
1956	9.7750e-01	-1.7390	-7.937367	-0.000529	-5.287892	-1.791586	-0.042506
1957	9.7800e-01	-1.7117	-7.738948	0.000494	4.936784	1.672628	0.039684
1958	9.7850e-01	-1.6636	-7.754771	-0.000039	-0.393666	-0.133378	-0.003164
1959	9.7900e-01	-1.6139	-7.568754	0.000463	4.628235	1.568089	0.037203
1960	9.7950e-01	-1.5930	-7.437473	0.000327	3.266364	1.106674	0.026256
1961	9.8000e-01	-1.5369	-7.351520	0.000214	2.138564	0.724565	0.017191
1962	9.8050e-01	-1.5336	-7.218528	0.000331	3.308922	1.121093	0.026598
1963	9.8100e-01	-1.4582	-7.098366	0.000299	2.989734	1.012949	0.024033
1964	9.8150e-01	-1.3989	-7.166358	-0.000169	-1.691700	-0.573163	-0.013598
1965	9.8200e-01	-1.3748	-7.118037	0.000120	1.202277	0.407343	0.009664
1966	9.8250e-01	-1.3235	-6.969651	0.000369	3.691949	1.250866	0.029677
1967	9.8300e-01	-1.2882	-6.944421	0.000063	0.627738	0.212683	0.005046
1968	9.8350e-01	-1.2689	-6.617715	0.000813	8.128671	2.754068	0.065341
1969	9.8400e-01	-1.2144	-6.682286	-0.000161	-1.606583	-0.544325	-0.012914
1970	9.8450e-01	-1.1743	-6.569393	0.000281	2.808860	0.951668	0.022579
1971	9.8500e-01	-1.1422	-6.442816	0.000315	3.149328	1.067021	0.025315
1972	9.8550e-01	-1.1053	-6.327357	0.000287	2.872698	0.973296	0.023092
1973	9.8600e-01	-1.0604	-6.323081	0.000011	0.106396	0.036048	0.000855
1974	9.8650e-01	-1.0283	-6.120387	0.000504	5.043181	1.708676	0.040539
1975	9.8700e-01	-0.9850	-5.968152	0.000379	3.787705	1.283309	0.030447
1976	9.8750e-01	-0.9289	-5.917265	0.000127	1.266115	0.428971	0.010177
1977	9.8800e-01	-0.9096	-5.814207	0.000256	2.564149	0.868757	0.020612
1978	9.8850e-01	-0.8599	-5.638025	0.000438	4.383524	1.485178	0.035236
1979	9.8900e-01	-0.8198	-5.634177	0.000010	0.095757	0.032443	0.000770
1980	9.8950e-01	-0.7877	-5.662828	-0.000071	-0.712855	-0.241522	-0.005730
1981	9.9000e-01	-0.7412	-5.539672	0.000306	3.064211	1.038183	0.024631
1982	9.9050e-01	-0.6946	-5.421647	0.000294	2.936536	0.994925	0.023605
1983	9.9100e-01	-0.6625	-5.294642	0.000316	3.159968	1.070626	0.025401
1984	9.9150e-01	-0.6176	-5.086389	0.000518	5.181496	1.755538	0.041651
1985	9.9200e-01	-0.5823	-5.242900	-0.000389	-3.894101	-1.319357	-0.031302
1986	9.9250e-01	-0.5422	-5.017969	0.000560	5.596441	1.896126	0.044986
1987	9.9300e-01	-0.5021	-4.888826	0.000321	3.213166	1.088650	0.025829
1988	9.9350e-01	-0.4684	-4.710506	0.000444	4.436722	1.503202	0.035664
1989	9.9400e-01	-0.4283	-4.745571	-0.000087	-0.872449	-0.295594	-0.007013
1990	9.9450e-01	-0.3706	-4.697250	0.000120	1.202277	0.407343	0.009664
1991	9.9500e-01	-0.3385	-4.503108	0.000483	4.830388	1.636580	0.038828
1992	9.9550e-01	-0.3032	-4.500542	0.000006	0.063838	0.021629	0.000513
1993	9.9600e-01	-0.2647	-4.159725	0.000848	8.479778	2.873027	0.068163
1994	9.9650e-01	-0.2150	-4.293999	-0.000334	-3.340841	-1.131908	-0.026855
1995	9.9700e-01	-0.1973	-4.135350	0.000395	3.947300	1.337381	0.031730
1996	9.9750e-01	-0.1299	-4.146041	-0.000027	-0.265991	-0.090120	-0.002138
1997	9.9800e-01	-0.1171	-3.842427	0.000755	7.554131	2.559409	0.060723
1998	9.9850e-01	-0.0545	-3.895025	-0.000131	-1.308673	-0.443391	-0.010520
1999	9.9900e-01	-0.0096	-3.855256	0.000099	0.989485	0.335247	0.007954
2000	9.9950e-01	0.0128	-3.563615	0.000726	7.256222	2.458475	0.058328
2001	1.0000e+00	0.0417	-3.718416	0.000726	7.256222	2.458475	-0.030960

PMax (uC/cm2):	4.86e+01
Pr (uC/cm2):	1.42e+00
-Pr (uC/cm2):	-1.66e+00
PLoss (uC/cm2):	-1.66e+00
-Vc:	-6.74e-01
C (Max-Eff) (nF):	2.43e-01
K (Eff):	8.22e+02
Vert. (+/-Pr) Shift (uC/cm2):	-1.23e-01
Offset (uC/cm2):	2.06e+00

A (Loop Area - uC/cm2·Volts):	-2.72e-01



Hysteresis Version: 5.48.1 - Radiant Technologies, Inc., 1999 - 9/12/24

