»»»»»»»»»»»»»»»»»»»»»»»»»»»»»»»»»»»» Hysteresis ««««««««««««««««««««««««««««««««««««
»»»  Executed Version:	5.48.1
»»»  Vision Version:	5.48.4 (R)
»»»  Vision Compiled:	9/18/24
»»»  Driver Version:	5.47.0
»»»  Windows Version:	Windows 8 or 8.1
»»»  Processor Information:	x86 (AMD or Intel) - 32 Processors
»»»  Tester Name:	PMF21124-494 (100V)
»»»  Tester S/N:	PMF21124-494
»»»  Internal Amp Type:	100V RevK 270k
»»»  Internal Amp S/N:	iAB2-596/K     
»»»  Execution Count:	1
»»»»»»»»»»»»»»»»»»»»»»»»»»»»»»»»»»»»»»»»»»««««««««««««««««««««««««««««««««««««««««««

Stored:	6/19/2025 - 15:23:31
Configured:	06/19/25 10:04:32 AM
Executed:	06/19/25 03:23:05 PM

»»»»»»»»»»»»»»»»»»»»»»»»»»»»»»»»»»» Sample Info ««««««««««««««««««««««««««««««««««««
Sample Name:	
Lot Name:	
Wafer Name:	
Die Row/Column:	0/0
Capacitor Number:	0
Sample Area (cm2):	1.00e-04
Sample Thickness (microns):	3.00e-01

Amplifier:	Internal

»»»»»»»»»»»»»»»»»»»»»»»»»»»»»»»»»»» Tester Info «««««««««««««««««««««««««««««««««««
Tester Name:	PMF21124-494 (100V)
Tester Serial Number:	PMF21124-494
Return Signal Amp. Level:	0.19 [Index: 3]

»»»»»»»»»»»»»»»»»»»»»»»»»»»»»»»» Hysteresis Info ««««««««««««««««««««««««««««««««««
Task Name:	Hyst-1168
Volts:	20.00
Field:	666.67 (kV/cm)
DCBias:	0.00
DCField:	0.00 (kV/cm)
Hysteresis Period (ms):	1.00e+00
Preset:	Enabled
Preset Delay (ms):	1.00e+03
Profile:	Standard Bipolar

»»»»»»»»»»»»»»»»»»»»»»»»»»»»»»»»»»»»»» Data «««««««««««««««««««««««««««««««««««««««
Points:	2001

Valid Data

Point	Time (ms)	Drive Voltage	Measured Polarization (uC/cm2)	Capacitance (uF)	Normalized Capacitance (uF/cm2)	Dielectric Constant	Instantaneous Current (mA)
   1	0.0000e+00	0.0112	-2.665878	0.000444	4.442214	1.505063	0.035491
   2	5.0000e-04	0.0417	-2.488422	0.000444	4.442214	1.505063	0.035491
   3	1.0000e-03	0.0594	-2.706209	-0.000545	-5.451808	-1.847123	-0.043557
   4	1.5000e-03	0.0946	-2.492455	0.000535	5.350849	1.812917	0.042751
   5	2.0000e-03	0.1396	-2.730408	-0.000596	-5.956605	-2.018152	-0.047591
   6	2.5000e-03	0.1813	-2.476323	0.000636	6.360443	2.154976	0.050817
   7	3.0000e-03	0.2214	-2.282734	0.000485	4.846052	1.641887	0.038718
   8	3.5000e-03	0.2535	-2.218204	0.000162	1.615351	0.547296	0.012906
   9	4.0000e-03	0.3032	-2.198039	0.000050	0.504797	0.171030	0.004033
  10	4.5000e-03	0.3385	-2.060913	0.000343	3.432620	1.163003	0.027425
  11	5.0000e-03	0.3770	-2.024615	0.000091	0.908635	0.307854	0.007260
  12	5.5000e-03	0.4203	-1.701968	0.000808	8.076753	2.736478	0.064530
  13	6.0000e-03	0.4604	-1.681802	0.000050	0.504797	0.171030	0.004033
  14	6.5000e-03	0.4941	-1.665670	0.000040	0.403838	0.136824	0.003226
  15	7.0000e-03	0.5438	-1.355121	0.000777	7.773875	2.633860	0.062110
  16	7.5000e-03	0.5823	-1.318823	0.000091	0.908635	0.307854	0.007260
  17	8.0000e-03	0.6192	-1.302691	0.000040	0.403838	0.136824	0.003226
  18	8.5000e-03	0.6625	-1.109102	0.000485	4.846052	1.641887	0.038718
  19	9.0000e-03	0.6914	-1.222029	-0.000283	-2.826863	-0.957767	-0.022585
  20	9.5000e-03	0.7444	-0.992142	0.000575	5.754686	1.949741	0.045977
  21	1.0000e-02	0.7829	-0.754189	0.000596	5.956605	2.018152	0.047591
  22	1.0500e-02	0.8198	-0.758223	-0.000010	-0.100959	-0.034206	-0.000807
  23	1.1000e-02	0.8518	-0.354913	0.001010	10.095941	3.420597	0.080662
  24	1.1500e-02	0.9016	-0.524303	-0.000424	-4.240295	-1.436651	-0.033878
  25	1.2000e-02	0.9305	-0.233920	0.000727	7.269077	2.462830	0.058077
  26	1.2500e-02	0.9754	-0.270218	-0.000091	-0.908635	-0.307854	-0.007260
  27	1.3000e-02	1.0155	-0.137125	0.000333	3.331661	1.128797	0.026618
  28	1.3500e-02	1.0588	0.064530	0.000505	5.047970	1.710299	0.040331
  29	1.4000e-02	1.0989	0.092761	0.000071	0.706716	0.239442	0.005646
  30	1.4500e-02	1.1326	0.161324	0.000172	1.716310	0.581502	0.013713
  31	1.5000e-02	1.1663	0.354913	0.000485	4.846052	1.641887	0.038718
  32	1.5500e-02	1.2192	0.564634	0.000525	5.249889	1.778711	0.041944
  33	1.6000e-02	1.2577	0.488005	-0.000192	-1.918229	-0.649914	-0.015326
  34	1.6500e-02	1.2930	0.806620	0.000798	7.975793	2.702272	0.063723
  35	1.7000e-02	1.3379	0.883249	0.000192	1.918229	0.649914	0.015326
  36	1.7500e-02	1.3796	0.996175	0.000283	2.826863	0.957767	0.022585
  37	1.8000e-02	1.4149	1.028440	0.000081	0.807675	0.273648	0.006453
  38	1.8500e-02	1.4615	0.943745	-0.000212	-2.120148	-0.718325	-0.016939
  39	1.9000e-02	1.5064	1.246227	0.000757	7.571956	2.565448	0.060496
  40	1.9500e-02	1.5449	1.181698	-0.000162	-1.615351	-0.547296	-0.012906
  41	2.0000e-02	1.5770	1.468048	0.000717	7.168118	2.428624	0.057270
  42	2.0500e-02	1.6155	1.484180	0.000040	0.403838	0.136824	0.003226
  43	2.1000e-02	1.6588	1.754398	0.000676	6.764280	2.291800	0.054044
  44	2.1500e-02	1.6973	1.677769	-0.000192	-1.918229	-0.649914	-0.015326
  45	2.2000e-02	1.7438	1.875391	0.000495	4.947011	1.676093	0.039524
  46	2.2500e-02	1.7791	1.911689	0.000091	0.908635	0.307854	0.007260
  47	2.3000e-02	1.8192	2.278701	0.000919	9.187306	3.112744	0.073402
  48	2.3500e-02	1.8545	2.198039	-0.000202	-2.019188	-0.684119	-0.016132
  49	2.4000e-02	1.8962	2.355330	0.000394	3.937417	1.334033	0.031458
  50	2.4500e-02	1.9395	2.444058	0.000222	2.221107	0.752531	0.017746
  51	2.5000e-02	1.9764	2.637646	0.000485	4.846052	1.641887	0.038718
  52	2.5500e-02	2.0197	2.819136	0.000454	4.543173	1.539269	0.036298
  53	2.6000e-02	2.0614	2.661845	-0.000394	-3.937417	-1.334033	-0.031458
  54	2.6500e-02	2.0951	2.863500	0.000505	5.047970	1.710299	0.040331
  55	2.7000e-02	2.1352	3.032890	0.000424	4.240295	1.436651	0.033878
  56	2.7500e-02	2.1834	3.190181	0.000394	3.937417	1.334033	0.031458
  57	2.8000e-02	2.2283	3.129685	-0.000151	-1.514391	-0.513090	-0.012099
  58	2.8500e-02	2.2539	3.379737	0.000626	6.259483	2.120770	0.050010
  59	2.9000e-02	2.2957	3.734649	0.000888	8.884428	3.010126	0.070983
  60	2.9500e-02	2.3358	3.718517	-0.000040	-0.403838	-0.136824	-0.003226
  61	3.0000e-02	2.3743	3.678186	-0.000101	-1.009594	-0.342060	-0.008066
  62	3.0500e-02	2.4192	4.016966	0.000848	8.480590	2.873302	0.067756
  63	3.1000e-02	2.4593	3.956470	-0.000151	-1.514391	-0.513090	-0.012099
  64	3.1500e-02	2.4898	4.004867	0.000121	1.211513	0.410472	0.009679
  65	3.2000e-02	2.5363	4.154092	0.000374	3.735498	1.265621	0.029845
  66	3.2500e-02	2.5716	4.436408	0.000707	7.067159	2.394418	0.056463
  67	3.3000e-02	2.6165	4.476739	0.000101	1.009594	0.342060	0.008066
  68	3.3500e-02	2.6550	4.480773	0.000010	0.100959	0.034206	0.000807
  69	3.4000e-02	2.6983	4.690494	0.000525	5.249889	1.778711	0.041944
  70	3.4500e-02	2.7400	4.948612	0.000646	6.461402	2.189182	0.051624
  71	3.5000e-02	2.7785	4.851818	-0.000242	-2.423026	-0.820943	-0.019359
  72	3.5500e-02	2.8186	5.049439	0.000495	4.947011	1.676093	0.039524
  73	3.6000e-02	2.8587	5.113969	0.000162	1.615351	0.547296	0.012906
  74	3.6500e-02	2.8972	5.109936	-0.000010	-0.100959	-0.034206	-0.000807
  75	3.7000e-02	2.9438	5.343856	0.000586	5.855646	1.983946	0.046784
  76	3.7500e-02	2.9726	5.521312	0.000444	4.442214	1.505063	0.035491
  77	3.8000e-02	3.0256	5.569709	0.000121	1.211513	0.410472	0.009679
  78	3.8500e-02	3.0609	5.622139	0.000131	1.312472	0.444678	0.010486
  79	3.9000e-02	3.0978	5.783463	0.000404	4.038376	1.368239	0.032265
  80	3.9500e-02	3.1363	6.081913	0.000747	7.470996	2.531242	0.059690
  81	4.0000e-02	3.1748	6.247270	0.000414	4.139336	1.402445	0.033071
  82	4.0500e-02	3.2293	6.150475	-0.000242	-2.423026	-0.820943	-0.019359
  83	4.1000e-02	3.2630	6.360196	0.000525	5.249889	1.778711	0.041944
  84	4.1500e-02	3.2999	6.553785	0.000485	4.846052	1.641887	0.038718
  85	4.2000e-02	3.3304	6.456991	-0.000242	-2.423026	-0.820943	-0.019359
  86	4.2500e-02	3.3849	6.739308	0.000707	7.067159	2.394418	0.056463
  87	4.3000e-02	3.4186	6.872400	0.000333	3.331661	1.128797	0.026618
  88	4.3500e-02	3.4555	6.860301	-0.000030	-0.302878	-0.102618	-0.002420
  89	4.4000e-02	3.4956	7.017592	0.000394	3.937417	1.334033	0.031458
  90	4.4500e-02	3.5405	7.364438	0.000868	8.682509	2.941714	0.069369
  91	4.5000e-02	3.5855	7.182949	-0.000454	-4.543173	-1.539269	-0.036298
  92	4.5500e-02	3.6208	7.457199	0.000687	6.865240	2.326006	0.054850
  93	4.6000e-02	3.6609	7.562060	0.000262	2.624945	0.889355	0.020972
  94	4.6500e-02	3.6897	7.606424	0.000111	1.110554	0.376266	0.008873
  95	4.7000e-02	3.7427	7.812112	0.000515	5.148930	1.744505	0.041138
  96	4.7500e-02	3.7764	7.961337	0.000374	3.735498	1.265621	0.029845
  97	4.8000e-02	3.8117	8.235587	0.000687	6.865240	2.326006	0.054850
  98	4.8500e-02	3.8662	7.993601	-0.000606	-6.057565	-2.052358	-0.048397
  99	4.9000e-02	3.9047	8.082330	0.000222	2.221107	0.752531	0.017746
 100	4.9500e-02	3.9368	8.396911	0.000787	7.874834	2.668066	0.062916
 101	5.0000e-02	3.9785	8.538070	0.000353	3.533579	1.197209	0.028232
 102	5.0500e-02	4.0186	8.743758	0.000515	5.148930	1.744505	0.041138
 103	5.1000e-02	4.0523	8.856685	0.000283	2.826863	0.957767	0.022585
 104	5.1500e-02	4.0924	8.659063	-0.000495	-4.947011	-1.676093	-0.039524
 105	5.2000e-02	4.1485	8.965578	0.000767	7.672915	2.599654	0.061303
 106	5.2500e-02	4.1790	9.034141	0.000172	1.716310	0.581502	0.013713
 107	5.3000e-02	4.2175	9.143035	0.000273	2.725904	0.923561	0.021779
 108	5.3500e-02	4.2592	9.534245	0.000979	9.793063	3.317979	0.078242
 109	5.4000e-02	4.3026	9.453583	-0.000202	-2.019188	-0.684119	-0.016132
 110	5.4500e-02	4.3459	9.647172	0.000485	4.846052	1.641887	0.038718
 111	5.5000e-02	4.3876	9.840761	0.000485	4.846052	1.641887	0.038718
 112	5.5500e-02	4.4100	9.848827	0.000020	0.201919	0.068412	0.001613
 113	5.6000e-02	4.4534	10.006118	0.000394	3.937417	1.334033	0.031458
 114	5.6500e-02	4.5015	10.034349	0.000071	0.706716	0.239442	0.005646
 115	5.7000e-02	4.5496	10.135177	0.000252	2.523985	0.855149	0.020165
 116	5.7500e-02	4.5849	10.312633	0.000444	4.442214	1.505063	0.035491
 117	5.8000e-02	4.6058	10.429593	0.000293	2.927823	0.991973	0.023392
 118	5.8500e-02	4.6683	10.506222	0.000192	1.918229	0.649914	0.015326
 119	5.9000e-02	4.6972	10.853068	0.000868	8.682509	2.941714	0.069369
 120	5.9500e-02	4.7373	10.780473	-0.000182	-1.817269	-0.615708	-0.014519
 121	6.0000e-02	4.7678	10.897432	0.000293	2.927823	0.991973	0.023392
 122	6.0500e-02	4.8207	11.046657	0.000374	3.735498	1.265621	0.029845
 123	6.1000e-02	4.8656	11.143451	0.000242	2.423026	0.820943	0.019359
 124	6.1500e-02	4.8913	11.296709	0.000384	3.836458	1.299827	0.030652
 125	6.2000e-02	4.9378	11.579026	0.000707	7.067159	2.394418	0.056463
 126	6.2500e-02	4.9860	11.409636	-0.000424	-4.240295	-1.436651	-0.033878
 127	6.3000e-02	5.0180	11.679854	0.000676	6.764280	2.291800	0.054044
 128	6.3500e-02	5.0646	11.776648	0.000242	2.423026	0.820943	0.019359
 129	6.4000e-02	5.0983	11.829078	0.000131	1.312472	0.444678	0.010486
 130	6.4500e-02	5.1384	11.933939	0.000262	2.624945	0.889355	0.020972
 131	6.5000e-02	5.1865	12.087197	0.000384	3.836458	1.299827	0.030652
 132	6.5500e-02	5.2154	12.248520	0.000404	4.038376	1.368239	0.032265
 133	6.6000e-02	5.2571	12.224322	-0.000061	-0.605756	-0.205236	-0.004840
 134	6.6500e-02	5.2972	12.555036	0.000828	8.278672	2.804890	0.066143
 135	6.7000e-02	5.3341	12.599400	0.000111	1.110554	0.376266	0.008873
 136	6.7500e-02	5.3790	12.817187	0.000545	5.451808	1.847123	0.043557
 137	6.8000e-02	5.4159	12.865585	0.000121	1.211513	0.410472	0.009679
 138	6.8500e-02	5.4624	12.877684	0.000030	0.302878	0.102618	0.002420
 139	6.9000e-02	5.5009	13.022875	0.000363	3.634539	1.231415	0.029038
 140	6.9500e-02	5.5346	13.252762	0.000575	5.754686	1.949741	0.045977
 141	7.0000e-02	5.5779	13.164034	-0.000222	-2.221107	-0.752531	-0.017746
 142	7.0500e-02	5.6148	13.478616	0.000787	7.874834	2.668066	0.062916
 143	7.1000e-02	5.6549	13.563311	0.000212	2.120148	0.718325	0.016939
 144	7.1500e-02	5.7063	13.672204	0.000273	2.725904	0.923561	0.021779
 145	7.2000e-02	5.7367	13.712535	0.000101	1.009594	0.342060	0.008066
 146	7.2500e-02	5.7736	14.083580	0.000929	9.288266	3.146950	0.074209
 147	7.3000e-02	5.8137	14.051316	-0.000081	-0.807675	-0.273648	-0.006453
 148	7.3500e-02	5.8603	14.063415	0.000030	0.302878	0.102618	0.002420
 149	7.4000e-02	5.8923	14.313467	0.000626	6.259483	2.120770	0.050010
 150	7.4500e-02	5.9421	14.652247	0.000848	8.480590	2.873302	0.067756
 151	7.5000e-02	5.9854	14.446559	-0.000515	-5.148930	-1.744505	-0.041138
 152	7.5500e-02	6.0127	14.648214	0.000505	5.047970	1.710299	0.040331
 153	7.6000e-02	6.0656	14.745008	0.000242	2.423026	0.820943	0.019359
 154	7.6500e-02	6.1009	15.015226	0.000676	6.764280	2.291800	0.054044
 155	7.7000e-02	6.1394	15.152351	0.000343	3.432620	1.163003	0.027425
 156	7.7500e-02	6.1859	15.285444	0.000333	3.331661	1.128797	0.026618
 157	7.8000e-02	6.2180	15.398370	0.000283	2.826863	0.957767	0.022585
 158	7.8500e-02	6.2549	15.547595	0.000374	3.735498	1.265621	0.029845
 159	7.9000e-02	6.2934	15.648423	0.000252	2.523985	0.855149	0.020165
 160	7.9500e-02	6.3335	15.878309	0.000575	5.754686	1.949741	0.045977
 161	8.0000e-02	6.3736	15.765382	-0.000283	-2.826863	-0.957767	-0.022585
 162	8.0500e-02	6.4233	16.043666	0.000697	6.966199	2.360212	0.055657
 163	8.1000e-02	6.4602	16.293718	0.000626	6.259483	2.120770	0.050010
 164	8.1500e-02	6.5004	16.217089	-0.000192	-1.918229	-0.649914	-0.015326
 165	8.2000e-02	6.5453	16.277586	0.000151	1.514391	0.513090	0.012099
 166	8.2500e-02	6.5758	16.491340	0.000535	5.350849	1.812917	0.042751
 167	8.3000e-02	6.6207	16.378413	-0.000283	-2.826863	-0.957767	-0.022585
 168	8.3500e-02	6.6608	16.781723	0.001010	10.095941	3.420597	0.080662
 169	8.4000e-02	6.6929	16.842220	0.000151	1.514391	0.513090	0.012099
 170	8.4500e-02	6.7410	17.136636	0.000737	7.370037	2.497036	0.058883
 171	8.5000e-02	6.7779	17.136636	0.000000	0.000000	0.000000	0.000000
 172	8.5500e-02	6.8196	17.229397	0.000232	2.322066	0.786737	0.018552
 173	8.6000e-02	6.8613	17.350390	0.000303	3.028782	1.026179	0.024199
 174	8.6500e-02	6.9014	17.463317	0.000283	2.826863	0.957767	0.022585
 175	8.7000e-02	6.9351	17.709336	0.000616	6.158524	2.086564	0.049204
 176	8.7500e-02	6.9848	17.660939	-0.000121	-1.211513	-0.410472	-0.009679
 177	8.8000e-02	7.0201	17.648839	-0.000030	-0.302878	-0.102618	-0.002420
 178	8.8500e-02	7.0634	17.906958	0.000646	6.461402	2.189182	0.051624
 179	8.9000e-02	7.0859	17.910991	0.000010	0.100959	0.034206	0.000807
 180	8.9500e-02	7.1485	18.326400	0.001040	10.398819	3.523215	0.083082
 181	9.0000e-02	7.1757	18.330433	0.000010	0.100959	0.034206	0.000807
 182	9.0500e-02	7.2174	18.499823	0.000424	4.240295	1.436651	0.033878
 183	9.1000e-02	7.2575	18.580485	0.000202	2.019188	0.684119	0.016132
 184	9.1500e-02	7.2912	18.709544	0.000323	3.230701	1.094591	0.025812
 185	9.2000e-02	7.3394	18.826504	0.000293	2.927823	0.991973	0.023392
 186	9.2500e-02	7.3811	19.032192	0.000515	5.148930	1.744505	0.041138
 187	9.3000e-02	7.4244	18.927332	-0.000262	-2.624945	-0.889355	-0.020972
 188	9.3500e-02	7.4581	19.205616	0.000697	6.966199	2.360212	0.055657
 189	9.4000e-02	7.5062	19.375006	0.000424	4.240295	1.436651	0.033878
 190	9.4500e-02	7.5415	19.306443	-0.000172	-1.716310	-0.581502	-0.013713
 191	9.5000e-02	7.5768	19.616992	0.000777	7.773875	2.633860	0.062110
 192	9.5500e-02	7.6185	19.786382	0.000424	4.240295	1.436651	0.033878
 193	9.6000e-02	7.6538	19.923507	0.000343	3.432620	1.163003	0.027425
 194	9.6500e-02	7.6971	20.088864	0.000414	4.139336	1.402445	0.033071
 195	9.7000e-02	7.7308	20.068699	-0.000050	-0.504797	-0.171030	-0.004033
 196	9.7500e-02	7.7805	20.117096	0.000121	1.211513	0.410472	0.009679
 197	9.8000e-02	7.8126	20.262287	0.000363	3.634539	1.231415	0.029038
 198	9.8500e-02	7.8607	20.625266	0.000909	9.086347	3.078538	0.072596
 199	9.9000e-02	7.9041	20.601068	-0.000061	-0.605756	-0.205236	-0.004840
 200	9.9500e-02	7.9393	20.637366	0.000091	0.908635	0.307854	0.007260
 201	1.0000e-01	7.9795	20.903550	0.000666	6.663321	2.257594	0.053237
 202	1.0050e-01	8.0115	20.984212	0.000202	2.019188	0.684119	0.016132
 203	1.0100e-01	8.0645	21.105205	0.000303	3.028782	1.026179	0.024199
 204	1.0150e-01	8.1014	21.343158	0.000596	5.956605	2.018152	0.047591
 205	1.0200e-01	8.1399	21.306860	-0.000091	-0.908635	-0.307854	-0.007260
 206	1.0250e-01	8.1816	21.427853	0.000303	3.028782	1.026179	0.024199
 207	1.0300e-01	8.2153	21.597243	0.000424	4.240295	1.436651	0.033878
 208	1.0350e-01	8.2618	21.734368	0.000343	3.432620	1.163003	0.027425
 209	1.0400e-01	8.2971	21.996520	0.000656	6.562362	2.223388	0.052430
 210	1.0450e-01	8.3340	22.065082	0.000172	1.716310	0.581502	0.013713
 211	1.0500e-01	8.3741	22.282870	0.000545	5.451808	1.847123	0.043557
 212	1.0550e-01	8.4222	22.161877	-0.000303	-3.028782	-1.026179	-0.024199
 213	1.0600e-01	8.4607	22.557120	0.000989	9.894022	3.352185	0.079049
 214	1.0650e-01	8.5024	22.540988	-0.000040	-0.403838	-0.136824	-0.003226
 215	1.0700e-01	8.5345	22.657948	0.000293	2.927823	0.991973	0.023392
 216	1.0750e-01	8.5891	22.787007	0.000323	3.230701	1.094591	0.025812
 217	1.0800e-01	8.6228	23.037059	0.000626	6.259483	2.120770	0.050010
 218	1.0850e-01	8.6548	23.049159	0.000030	0.302878	0.102618	0.002420
 219	1.0900e-01	8.6998	23.154019	0.000262	2.624945	0.889355	0.020972
 220	1.0950e-01	8.7318	23.371806	0.000545	5.451808	1.847123	0.043557
 221	1.1000e-01	8.7848	23.448435	0.000192	1.918229	0.649914	0.015326
 222	1.1050e-01	8.8265	23.605726	0.000394	3.937417	1.334033	0.031458
 223	1.1100e-01	8.8538	23.670256	0.000162	1.615351	0.547296	0.012906
 224	1.1150e-01	8.8987	23.888043	0.000545	5.451808	1.847123	0.043557
 225	1.1200e-01	8.9404	23.823513	-0.000162	-1.615351	-0.547296	-0.012906
 226	1.1250e-01	8.9789	24.117930	0.000737	7.370037	2.497036	0.058883
 227	1.1300e-01	9.0014	23.980804	-0.000343	-3.432620	-1.163003	-0.027425
 228	1.1350e-01	9.0591	24.238923	0.000646	6.461402	2.189182	0.051624
 229	1.1400e-01	9.1056	24.420412	0.000454	4.543173	1.539269	0.036298
 230	1.1450e-01	9.1297	24.722894	0.000757	7.571956	2.565448	0.060496
 231	1.1500e-01	9.1810	24.944715	0.000555	5.552768	1.881329	0.044364
 232	1.1550e-01	9.2227	24.771292	-0.000434	-4.341255	-1.470857	-0.034685
 233	1.1600e-01	9.2596	24.904384	0.000333	3.331661	1.128797	0.026618
 234	1.1650e-01	9.2997	25.089906	0.000464	4.644133	1.573475	0.037105
 235	1.1700e-01	9.3431	25.069741	-0.000050	-0.504797	-0.171030	-0.004033
 236	1.1750e-01	9.3783	25.222999	0.000384	3.836458	1.299827	0.030652
 237	1.1800e-01	9.4217	25.396422	0.000434	4.341255	1.470857	0.034685
 238	1.1850e-01	9.4553	25.702937	0.000767	7.672915	2.599654	0.061303
 239	1.1900e-01	9.4938	25.670673	-0.000081	-0.807675	-0.273648	-0.006453
 240	1.1950e-01	9.5452	25.715037	0.000111	1.110554	0.376266	0.008873
 241	1.2000e-01	9.5901	25.981221	0.000666	6.663321	2.257594	0.053237
 242	1.2050e-01	9.6222	26.078016	0.000242	2.423026	0.820943	0.019359
 243	1.2100e-01	9.6671	26.098181	0.000050	0.504797	0.171030	0.004033
 244	1.2150e-01	9.6976	26.420829	0.000808	8.076753	2.736478	0.064530
 245	1.2200e-01	9.7361	26.489392	0.000172	1.716310	0.581502	0.013713
 246	1.2250e-01	9.7778	26.622484	0.000333	3.331661	1.128797	0.026618
 247	1.2300e-01	9.8211	26.711212	0.000222	2.221107	0.752531	0.017746
 248	1.2350e-01	9.8580	26.904801	0.000485	4.846052	1.641887	0.038718
 249	1.2400e-01	9.8981	26.860437	-0.000111	-1.110554	-0.376266	-0.008873
 250	1.2450e-01	9.9478	27.316177	0.001141	11.408413	3.865275	0.091148
 251	1.2500e-01	9.9799	27.259713	-0.000141	-1.413432	-0.478884	-0.011293
 252	1.2550e-01	10.0168	27.417004	0.000394	3.937417	1.334033	0.031458
 253	1.2600e-01	10.0553	27.433137	0.000040	0.403838	0.136824	0.003226
 254	1.2650e-01	10.1002	27.481534	0.000121	1.211513	0.410472	0.009679
 255	1.2700e-01	10.1371	27.667056	0.000464	4.644133	1.573475	0.037105
 256	1.2750e-01	10.1821	28.038101	0.000929	9.288266	3.146950	0.074209
 257	1.2800e-01	10.2270	28.155061	0.000293	2.927823	0.991973	0.023392
 258	1.2850e-01	10.2623	28.130863	-0.000061	-0.605756	-0.205236	-0.004840
 259	1.2900e-01	10.3072	28.199425	0.000172	1.716310	0.581502	0.013713
 260	1.2950e-01	10.3409	28.284120	0.000212	2.120148	0.718325	0.016939
 261	1.3000e-01	10.3746	28.292187	0.000020	0.201919	0.068412	0.001613
 262	1.3050e-01	10.4099	28.723728	0.001080	10.802657	3.660039	0.086308
 263	1.3100e-01	10.4580	28.844721	0.000303	3.028782	1.026179	0.024199
 264	1.3150e-01	10.4997	28.965714	0.000303	3.028782	1.026179	0.024199
 265	1.3200e-01	10.5430	29.010078	0.000111	1.110554	0.376266	0.008873
 266	1.3250e-01	10.5735	29.219799	0.000525	5.249889	1.778711	0.041944
 267	1.3300e-01	10.6184	29.252064	0.000081	0.807675	0.273648	0.006453
 268	1.3350e-01	10.6617	29.421454	0.000424	4.240295	1.436651	0.033878
 269	1.3400e-01	10.7099	29.651341	0.000575	5.754686	1.949741	0.045977
 270	1.3450e-01	10.7387	29.619076	-0.000081	-0.807675	-0.273648	-0.006453
 271	1.3500e-01	10.7804	29.917525	0.000747	7.470996	2.531242	0.059690
 272	1.3550e-01	10.8045	30.026419	0.000273	2.725904	0.923561	0.021779
 273	1.3600e-01	10.8558	30.034485	0.000020	0.201919	0.068412	0.001613
 274	1.3650e-01	10.9088	30.272438	0.000596	5.956605	2.018152	0.047591
 275	1.3700e-01	10.9377	30.506358	0.000586	5.855646	1.983946	0.046784
 276	1.3750e-01	10.9810	30.639450	0.000333	3.331661	1.128797	0.026618
 277	1.3800e-01	11.0227	30.671715	0.000081	0.807675	0.273648	0.006453
 278	1.3850e-01	11.0564	30.921767	0.000626	6.259483	2.120770	0.050010
 279	1.3900e-01	11.1157	30.800774	-0.000303	-3.028782	-1.026179	-0.024199
 280	1.3950e-01	11.1382	31.038727	0.000596	5.956605	2.018152	0.047591
 281	1.4000e-01	11.1831	31.058892	0.000050	0.504797	0.171030	0.004033
 282	1.4050e-01	11.2184	31.240382	0.000454	4.543173	1.539269	0.036298
 283	1.4100e-01	11.2553	31.522699	0.000707	7.067159	2.394418	0.056463
 284	1.4150e-01	11.2954	31.502533	-0.000050	-0.504797	-0.171030	-0.004033
 285	1.4200e-01	11.3323	31.567063	0.000162	1.615351	0.547296	0.012906
 286	1.4250e-01	11.3756	31.772751	0.000515	5.148930	1.744505	0.041138
 287	1.4300e-01	11.4157	31.982472	0.000525	5.249889	1.778711	0.041944
 288	1.4350e-01	11.4622	32.059101	0.000192	1.918229	0.649914	0.015326
 289	1.4400e-01	11.5056	32.123630	0.000162	1.615351	0.547296	0.012906
 290	1.4450e-01	11.5441	32.180094	0.000141	1.413432	0.478884	0.011293
 291	1.4500e-01	11.5890	32.309153	0.000323	3.230701	1.094591	0.025812
 292	1.4550e-01	11.6179	32.559205	0.000626	6.259483	2.120770	0.050010
 293	1.4600e-01	11.6628	32.462411	-0.000242	-2.423026	-0.820943	-0.019359
 294	1.4650e-01	11.6981	32.825390	0.000909	9.086347	3.078538	0.072596
 295	1.4700e-01	11.7334	32.760860	-0.000162	-1.615351	-0.547296	-0.012906
 296	1.4750e-01	11.7751	33.018978	0.000646	6.461402	2.189182	0.051624
 297	1.4800e-01	11.8039	33.148037	0.000323	3.230701	1.094591	0.025812
 298	1.4850e-01	11.8489	33.204501	0.000141	1.413432	0.478884	0.011293
 299	1.4900e-01	11.8922	33.289196	0.000212	2.120148	0.718325	0.016939
 300	1.4950e-01	11.9323	33.668307	0.000949	9.490185	3.215362	0.075822
 301	1.5000e-01	11.9724	33.595711	-0.000182	-1.817269	-0.615708	-0.014519
 302	1.5050e-01	12.0237	33.813499	0.000545	5.451808	1.847123	0.043557
 303	1.5100e-01	12.0574	34.019187	0.000515	5.148930	1.744505	0.041138
 304	1.5150e-01	12.1087	34.120014	0.000252	2.523985	0.855149	0.020165
 305	1.5200e-01	12.1440	34.236974	0.000293	2.927823	0.991973	0.023392
 306	1.5250e-01	12.1761	34.216809	-0.000050	-0.504797	-0.171030	-0.004033
 307	1.5300e-01	12.2226	34.398298	0.000454	4.543173	1.539269	0.036298
 308	1.5350e-01	12.2628	34.676582	0.000697	6.966199	2.360212	0.055657
 309	1.5400e-01	12.2932	34.720946	0.000111	1.110554	0.376266	0.008873
 310	1.5450e-01	12.3317	34.716913	-0.000010	-0.100959	-0.034206	-0.000807
 311	1.5500e-01	12.3831	35.067792	0.000878	8.783469	2.975920	0.070176
 312	1.5550e-01	12.4232	35.176686	0.000273	2.725904	0.923561	0.021779
 313	1.5600e-01	12.4488	35.321878	0.000363	3.634539	1.231415	0.029038
 314	1.5650e-01	12.4922	35.297679	-0.000061	-0.605756	-0.205236	-0.004840
 315	1.5700e-01	12.5467	35.446904	0.000374	3.735498	1.265621	0.029845
 316	1.5750e-01	12.5772	35.801816	0.000888	8.884428	3.010126	0.070983
 317	1.5800e-01	12.6189	35.785684	-0.000040	-0.403838	-0.136824	-0.003226
 318	1.5850e-01	12.6606	35.914743	0.000323	3.230701	1.094591	0.025812
 319	1.5900e-01	12.6991	36.172861	0.000646	6.461402	2.189182	0.051624
 320	1.5950e-01	12.7472	36.112365	-0.000151	-1.514391	-0.513090	-0.012099
 321	1.6000e-01	12.7825	36.176894	0.000162	1.615351	0.547296	0.012906
 322	1.6050e-01	12.8242	36.499542	0.000808	8.076753	2.736478	0.064530
 323	1.6100e-01	12.8547	36.551973	0.000131	1.312472	0.444678	0.010486
 324	1.6150e-01	12.8996	36.737495	0.000464	4.644133	1.573475	0.037105
 325	1.6200e-01	12.9381	36.729429	-0.000020	-0.201919	-0.068412	-0.001613
 326	1.6250e-01	12.9782	36.906885	0.000444	4.442214	1.505063	0.035491
 327	1.6300e-01	13.0151	36.773793	-0.000333	-3.331661	-1.128797	-0.026618
 328	1.6350e-01	13.0504	37.068209	0.000737	7.370037	2.497036	0.058883
 329	1.6400e-01	13.0905	37.443287	0.000939	9.389225	3.181156	0.075016
 330	1.6450e-01	13.1274	37.511850	0.000172	1.716310	0.581502	0.013713
 331	1.6500e-01	13.1788	37.419089	-0.000232	-2.322066	-0.786737	-0.018552
 332	1.6550e-01	13.2044	37.745770	0.000818	8.177712	2.770684	0.065336
 333	1.6600e-01	13.2494	37.870796	0.000313	3.129742	1.060385	0.025005
 334	1.6650e-01	13.3087	37.878862	0.000020	0.201919	0.068412	0.001613
 335	1.6700e-01	13.3360	38.015987	0.000343	3.432620	1.163003	0.027425
 336	1.6750e-01	13.3809	38.189411	0.000434	4.341255	1.470857	0.034685
 337	1.6800e-01	13.4226	38.443496	0.000636	6.360443	2.154976	0.050817
 338	1.6850e-01	13.4499	38.584654	0.000353	3.533579	1.197209	0.028232
 339	1.6900e-01	13.4948	38.491893	-0.000232	-2.322066	-0.786737	-0.018552
 340	1.6950e-01	13.5461	38.524158	0.000081	0.807675	0.273648	0.006453
 341	1.7000e-01	13.5814	38.818574	0.000737	7.370037	2.497036	0.058883
 342	1.7050e-01	13.6231	38.983931	0.000414	4.139336	1.402445	0.033071
 343	1.7100e-01	13.6552	39.088792	0.000262	2.624945	0.889355	0.020972
 344	1.7150e-01	13.6921	39.242049	0.000384	3.836458	1.299827	0.030652
 345	1.7200e-01	13.7354	39.350943	0.000273	2.725904	0.923561	0.021779
 346	1.7250e-01	13.7788	39.415473	0.000162	1.615351	0.547296	0.012906
 347	1.7300e-01	13.8124	39.637293	0.000555	5.552768	1.881329	0.044364
 348	1.7350e-01	13.8493	39.584863	-0.000131	-1.312472	-0.444678	-0.010486
 349	1.7400e-01	13.8991	39.826849	0.000606	6.057565	2.052358	0.048397
 350	1.7450e-01	13.9440	39.847014	0.000050	0.504797	0.171030	0.004033
 351	1.7500e-01	13.9793	40.076901	0.000575	5.754686	1.949741	0.045977
 352	1.7550e-01	14.0194	40.343085	0.000666	6.663321	2.257594	0.053237
 353	1.7600e-01	14.0627	40.427780	0.000212	2.120148	0.718325	0.016939
 354	1.7650e-01	14.0932	40.516509	0.000222	2.221107	0.752531	0.017746
 355	1.7700e-01	14.1429	40.572972	0.000141	1.413432	0.478884	0.011293
 356	1.7750e-01	14.1750	40.750428	0.000444	4.442214	1.505063	0.035491
 357	1.7800e-01	14.2135	40.818991	0.000172	1.716310	0.581502	0.013713
 358	1.7850e-01	14.2504	41.359426	0.001353	13.528561	4.583601	0.108087
 359	1.7900e-01	14.2937	41.113407	-0.000616	-6.158524	-2.086564	-0.049204
 360	1.7950e-01	14.3306	41.359426	0.000616	6.158524	2.086564	0.049204
 361	1.8000e-01	14.3771	41.484452	0.000313	3.129742	1.060385	0.025005
 362	1.8050e-01	14.4140	41.500585	0.000040	0.403838	0.136824	0.003226
 363	1.8100e-01	14.4638	41.621578	0.000303	3.028782	1.026179	0.024199
 364	1.8150e-01	14.4991	41.653842	0.000081	0.807675	0.273648	0.006453
 365	1.8200e-01	14.5392	41.956325	0.000757	7.571956	2.565448	0.060496
 366	1.8250e-01	14.5825	41.903894	-0.000131	-1.312472	-0.444678	-0.010486
 367	1.8300e-01	14.6130	42.077318	0.000434	4.341255	1.470857	0.034685
 368	1.8350e-01	14.6499	42.157980	0.000202	2.019188	0.684119	0.016132
 369	1.8400e-01	14.6996	42.399966	0.000606	6.057565	2.052358	0.048397
 370	1.8450e-01	14.7429	42.444330	0.000111	1.110554	0.376266	0.008873
 371	1.8500e-01	14.7718	42.900070	0.001141	11.408413	3.865275	0.091148
 372	1.8550e-01	14.8231	42.690349	-0.000525	-5.249889	-1.778711	-0.041944
 373	1.8600e-01	14.8616	42.799242	0.000273	2.725904	0.923561	0.021779
 374	1.8650e-01	14.8937	43.025096	0.000565	5.653727	1.915535	0.045171
 375	1.8700e-01	14.9354	43.061394	0.000091	0.908635	0.307854	0.007260
 376	1.8750e-01	14.9739	43.299347	0.000596	5.956605	2.018152	0.047591
 377	1.8800e-01	15.0060	43.581663	0.000707	7.067159	2.394418	0.056463
 378	1.8850e-01	15.0589	43.573597	-0.000020	-0.201919	-0.068412	-0.001613
 379	1.8900e-01	15.0942	43.726855	0.000384	3.836458	1.299827	0.030652
 380	1.8950e-01	15.1424	43.872047	0.000363	3.634539	1.231415	0.029038
 381	1.9000e-01	15.1793	43.763153	-0.000273	-2.725904	-0.923561	-0.021779
 382	1.9050e-01	15.2129	43.989006	0.000565	5.653727	1.915535	0.045171
 383	1.9100e-01	15.2579	44.243092	0.000636	6.360443	2.154976	0.050817
 384	1.9150e-01	15.2996	44.440713	0.000495	4.947011	1.676093	0.039524
 385	1.9200e-01	15.3365	44.521375	0.000202	2.019188	0.684119	0.016132
 386	1.9250e-01	15.3782	44.642368	0.000303	3.028782	1.026179	0.024199
 387	1.9300e-01	15.4103	44.686733	0.000111	1.110554	0.376266	0.008873
 388	1.9350e-01	15.4536	44.936785	0.000626	6.259483	2.120770	0.050010
 389	1.9400e-01	15.4969	44.989215	0.000131	1.312472	0.444678	0.010486
 390	1.9450e-01	15.5338	45.122307	0.000333	3.331661	1.128797	0.026618
 391	1.9500e-01	15.5739	45.202969	0.000202	2.019188	0.684119	0.016132
 392	1.9550e-01	15.6156	45.436889	0.000586	5.855646	1.983946	0.046784
 393	1.9600e-01	15.6589	45.537716	0.000252	2.523985	0.855149	0.020165
 394	1.9650e-01	15.7054	45.545783	0.000020	0.201919	0.068412	0.001613
 395	1.9700e-01	15.7391	45.763570	0.000545	5.451808	1.847123	0.043557
 396	1.9750e-01	15.7776	45.807934	0.000111	1.110554	0.376266	0.008873
 397	1.9800e-01	15.8129	45.912794	0.000262	2.624945	0.889355	0.020972
 398	1.9850e-01	15.8578	46.146714	0.000586	5.855646	1.983946	0.046784
 399	1.9900e-01	15.9028	46.275773	0.000323	3.230701	1.094591	0.025812
 400	1.9950e-01	15.9397	46.207211	-0.000172	-1.716310	-0.581502	-0.013713
 401	2.0000e-01	15.9701	46.477428	0.000676	6.764280	2.291800	0.054044
 402	2.0050e-01	16.0167	46.550024	0.000182	1.817269	0.615708	0.014519
 403	2.0100e-01	16.0552	46.517759	-0.000081	-0.807675	-0.273648	-0.006453
 404	2.0150e-01	16.0985	46.937202	0.001050	10.499779	3.557421	0.083888
 405	2.0200e-01	16.1354	47.122724	0.000464	4.644133	1.573475	0.037105
 406	2.0250e-01	16.1707	47.223552	0.000252	2.523985	0.855149	0.020165
 407	2.0300e-01	16.2172	47.219518	-0.000010	-0.100959	-0.034206	-0.000807
 408	2.0350e-01	16.2573	47.437306	0.000545	5.451808	1.847123	0.043557
 409	2.0400e-01	16.2926	47.542166	0.000262	2.624945	0.889355	0.020972
 410	2.0450e-01	16.3391	47.687358	0.000363	3.634539	1.231415	0.029038
 411	2.0500e-01	16.3696	47.852715	0.000414	4.139336	1.402445	0.033071
 412	2.0550e-01	16.4225	47.763987	-0.000222	-2.221107	-0.752531	-0.017746
 413	2.0600e-01	16.4626	47.828516	0.000162	1.615351	0.547296	0.012906
 414	2.0650e-01	16.4947	48.372985	0.001363	13.629520	4.617806	0.108894
 415	2.0700e-01	16.5412	48.340720	-0.000081	-0.807675	-0.273648	-0.006453
 416	2.0750e-01	16.5765	48.405249	0.000162	1.615351	0.547296	0.012906
 417	2.0800e-01	16.6182	48.594805	0.000475	4.745092	1.607681	0.037911
 418	2.0850e-01	16.6632	48.550441	-0.000111	-1.110554	-0.376266	-0.008873
 419	2.0900e-01	16.7017	48.796460	0.000616	6.158524	2.086564	0.049204
 420	2.0950e-01	16.7321	48.961817	0.000414	4.139336	1.402445	0.033071
 421	2.1000e-01	16.7803	48.901321	-0.000151	-1.514391	-0.513090	-0.012099
 422	2.1050e-01	16.8252	49.094909	0.000485	4.846052	1.641887	0.038718
 423	2.1100e-01	16.8493	49.292531	0.000495	4.947011	1.676093	0.039524
 424	2.1150e-01	16.9006	49.417557	0.000313	3.129742	1.060385	0.025005
 425	2.1200e-01	16.9391	49.615179	0.000495	4.947011	1.676093	0.039524
 426	2.1250e-01	16.9760	49.780536	0.000414	4.139336	1.402445	0.033071
 427	2.1300e-01	17.0129	49.776503	-0.000010	-0.100959	-0.034206	-0.000807
 428	2.1350e-01	17.0610	49.861198	0.000212	2.120148	0.718325	0.016939
 429	2.1400e-01	17.0947	50.212078	0.000878	8.783469	2.975920	0.070176
 430	2.1450e-01	17.1396	50.199978	-0.000030	-0.302878	-0.102618	-0.002420
 431	2.1500e-01	17.1733	50.308872	0.000273	2.725904	0.923561	0.021779
 432	2.1550e-01	17.2166	50.256442	-0.000131	-1.312472	-0.444678	-0.010486
 433	2.1600e-01	17.2599	50.454064	0.000495	4.947011	1.676093	0.039524
 434	2.1650e-01	17.3033	50.623454	0.000424	4.240295	1.436651	0.033878
 435	2.1700e-01	17.3289	50.796877	0.000434	4.341255	1.470857	0.034685
 436	2.1750e-01	17.3722	51.022730	0.000565	5.653727	1.915535	0.045171
 437	2.1800e-01	17.4139	50.994499	-0.000071	-0.706716	-0.239442	-0.005646
 438	2.1850e-01	17.4541	51.079194	0.000212	2.120148	0.718325	0.016939
 439	2.1900e-01	17.4990	51.321180	0.000606	6.057565	2.052358	0.048397
 440	2.1950e-01	17.5391	51.490570	0.000424	4.240295	1.436651	0.033878
 441	2.2000e-01	17.5776	51.534934	0.000111	1.110554	0.376266	0.008873
 442	2.2050e-01	17.6129	51.708357	0.000434	4.341255	1.470857	0.034685
 443	2.2100e-01	17.6626	51.825317	0.000293	2.927823	0.991973	0.023392
 444	2.2150e-01	17.6899	51.845483	0.000050	0.504797	0.171030	0.004033
 445	2.2200e-01	17.7412	52.156031	0.000777	7.773875	2.633860	0.062110
 446	2.2250e-01	17.7765	52.240726	0.000212	2.120148	0.718325	0.016939
 447	2.2300e-01	17.8118	52.333487	0.000232	2.322066	0.786737	0.018552
 448	2.2350e-01	17.8663	52.490778	0.000394	3.937417	1.334033	0.031458
 449	2.2400e-01	17.8936	52.712599	0.000555	5.552768	1.881329	0.044364
 450	2.2450e-01	17.9482	52.898121	0.000464	4.644133	1.573475	0.037105
 451	2.2500e-01	17.9770	52.817459	-0.000202	-2.019188	-0.684119	-0.016132
 452	2.2550e-01	18.0203	52.966684	0.000374	3.735498	1.265621	0.029845
 453	2.2600e-01	18.0524	52.974750	0.000020	0.201919	0.068412	0.001613
 454	2.2650e-01	18.0990	53.111875	0.000343	3.432620	1.163003	0.027425
 455	2.2700e-01	18.1310	53.515185	0.001010	10.095941	3.420597	0.080662
 456	2.2750e-01	18.1808	53.357895	-0.000394	-3.937417	-1.334033	-0.031458
 457	2.2800e-01	18.2209	53.660377	0.000757	7.571956	2.565448	0.060496
 458	2.2850e-01	18.2578	53.737006	0.000192	1.918229	0.649914	0.015326
 459	2.2900e-01	18.2995	53.749105	0.000030	0.302878	0.102618	0.002420
 460	2.2950e-01	18.3412	54.075786	0.000818	8.177712	2.770684	0.065336
 461	2.3000e-01	18.3781	54.237110	0.000404	4.038376	1.368239	0.032265
 462	2.3050e-01	18.4262	54.168547	-0.000172	-1.716310	-0.581502	-0.013713
 463	2.3100e-01	18.4599	54.325838	0.000394	3.937417	1.334033	0.031458
 464	2.3150e-01	18.4904	54.491195	0.000414	4.139336	1.402445	0.033071
 465	2.3200e-01	18.5449	54.632354	0.000353	3.533579	1.197209	0.028232
 466	2.3250e-01	18.5706	54.793678	0.000404	4.038376	1.368239	0.032265
 467	2.3300e-01	18.6171	54.910637	0.000293	2.927823	0.991973	0.023392
 468	2.3350e-01	18.6669	54.983233	0.000182	1.817269	0.615708	0.014519
 469	2.3400e-01	18.6925	55.245385	0.000656	6.562362	2.223388	0.052430
 470	2.3450e-01	18.7358	55.483337	0.000596	5.956605	2.018152	0.047591
 471	2.3500e-01	18.7711	55.326047	-0.000394	-3.937417	-1.334033	-0.031458
 472	2.3550e-01	18.8160	55.543834	0.000545	5.451808	1.847123	0.043557
 473	2.3600e-01	18.8642	55.624496	0.000202	2.019188	0.684119	0.016132
 474	2.3650e-01	18.8930	55.757588	0.000333	3.331661	1.128797	0.026618
 475	2.3700e-01	18.9332	55.801952	0.000111	1.110554	0.376266	0.008873
 476	2.3750e-01	18.9861	55.793886	-0.000020	-0.201919	-0.068412	-0.001613
 477	2.3800e-01	19.0182	56.035872	0.000606	6.057565	2.052358	0.048397
 478	2.3850e-01	19.0503	56.390785	0.000888	8.884428	3.010126	0.070983
 479	2.3900e-01	19.1032	56.318189	-0.000182	-1.817269	-0.615708	-0.014519
 480	2.3950e-01	19.1401	56.410950	0.000232	2.322066	0.786737	0.018552
 481	2.4000e-01	19.1738	56.773929	0.000909	9.086347	3.078538	0.072596
 482	2.4050e-01	19.2203	56.761830	-0.000030	-0.302878	-0.102618	-0.002420
 483	2.4100e-01	19.2556	56.826359	0.000162	1.615351	0.547296	0.012906
 484	2.4150e-01	19.3037	56.931220	0.000262	2.624945	0.889355	0.020972
 485	2.4200e-01	19.3374	57.076411	0.000363	3.634539	1.231415	0.029038
 486	2.4250e-01	19.3807	57.378894	0.000757	7.571956	2.565448	0.060496
 487	2.4300e-01	19.4160	57.366795	-0.000030	-0.302878	-0.102618	-0.002420
 488	2.4350e-01	19.4577	57.374861	0.000020	0.201919	0.068412	0.001613
 489	2.4400e-01	19.5011	57.661211	0.000717	7.168118	2.428624	0.057270
 490	2.4450e-01	19.5363	57.802369	0.000353	3.533579	1.197209	0.028232
 491	2.4500e-01	19.5797	57.927395	0.000313	3.129742	1.060385	0.025005
 492	2.4550e-01	19.6182	57.967726	0.000101	1.009594	0.342060	0.008066
 493	2.4600e-01	19.6535	58.250043	0.000707	7.067159	2.394418	0.056463
 494	2.4650e-01	19.7064	58.330705	0.000202	2.019188	0.684119	0.016132
 495	2.4700e-01	19.7369	58.395235	0.000162	1.615351	0.547296	0.012906
 496	2.4750e-01	19.7722	58.592856	0.000495	4.947011	1.676093	0.039524
 497	2.4800e-01	19.8155	58.520261	-0.000182	-1.817269	-0.615708	-0.014519
 498	2.4850e-01	19.8572	58.713849	0.000485	4.846052	1.641887	0.038718
 499	2.4900e-01	19.9021	58.641254	-0.000182	-1.817269	-0.615708	-0.014519
 500	2.4950e-01	19.9422	58.855008	0.000535	5.350849	1.812917	0.042751
 501	2.5000e-01	19.9743	59.020365	0.000414	4.139336	1.402445	0.033071
 502	2.5050e-01	19.9743	59.024398	-0.000010	-0.100959	-0.034206	0.000807
 503	2.5100e-01	19.9583	58.967935	0.000141	1.413432	0.478884	-0.011293
 504	2.5150e-01	19.9133	59.141358	-0.000434	-4.341255	-1.470857	0.034685
 505	2.5200e-01	19.8716	58.971968	0.000424	4.240295	1.436651	-0.033878
 506	2.5250e-01	19.8347	58.943736	0.000071	0.706716	0.239442	-0.005646
 507	2.5300e-01	19.7850	58.826776	0.000293	2.927823	0.991973	-0.023392
 508	2.5350e-01	19.7449	58.778379	0.000121	1.211513	0.410472	-0.009679
 509	2.5400e-01	19.7192	58.721916	0.000141	1.413432	0.478884	-0.011293
 510	2.5450e-01	19.6743	58.665452	0.000141	1.413432	0.478884	-0.011293
 511	2.5500e-01	19.6390	58.524294	0.000353	3.533579	1.197209	-0.028232
 512	2.5550e-01	19.6021	58.375069	0.000374	3.735498	1.265621	-0.029845
 513	2.5600e-01	19.5572	58.229878	0.000363	3.634539	1.231415	-0.029038
 514	2.5650e-01	19.5155	58.278275	-0.000121	-1.211513	-0.410472	0.009679
 515	2.5700e-01	19.4770	58.193580	0.000212	2.120148	0.718325	-0.016939
 516	2.5750e-01	19.4465	58.120984	0.000182	1.817269	0.615708	-0.014519
 517	2.5800e-01	19.3968	57.931428	0.000475	4.745092	1.607681	-0.037911
 518	2.5850e-01	19.3583	57.814468	0.000293	2.927823	0.991973	-0.023392
 519	2.5900e-01	19.3230	57.826568	-0.000030	-0.302878	-0.102618	0.002420
 520	2.5950e-01	19.2733	57.778171	0.000121	1.211513	0.410472	-0.009679
 521	2.6000e-01	19.2331	57.741873	0.000091	0.908635	0.307854	-0.007260
 522	2.6050e-01	19.2059	57.584582	0.000394	3.937417	1.334033	-0.031458
 523	2.6100e-01	19.1561	57.499887	0.000212	2.120148	0.718325	-0.016939
 524	2.6150e-01	19.1176	57.503920	-0.000010	-0.100959	-0.034206	0.000807
 525	2.6200e-01	19.0791	57.249835	0.000636	6.360443	2.154976	-0.050817
 526	2.6250e-01	19.0310	57.278066	-0.000071	-0.706716	-0.239442	0.005646
 527	2.6300e-01	19.0021	57.193371	0.000212	2.120148	0.718325	-0.016939
 528	2.6350e-01	18.9460	57.056246	0.000343	3.432620	1.163003	-0.027425
 529	2.6400e-01	18.9171	56.947352	0.000273	2.725904	0.923561	-0.021779
 530	2.6450e-01	18.8786	56.878790	0.000172	1.716310	0.581502	-0.013713
 531	2.6500e-01	18.8417	56.769896	0.000273	2.725904	0.923561	-0.021779
 532	2.6550e-01	18.7968	56.777962	-0.000020	-0.201919	-0.068412	0.001613
 533	2.6600e-01	18.7599	56.495645	0.000707	7.067159	2.394418	-0.056463
 534	2.6650e-01	18.7262	56.471447	0.000061	0.605756	0.205236	-0.004840
 535	2.6700e-01	18.6781	56.342387	0.000323	3.230701	1.094591	-0.025812
 536	2.6750e-01	18.6332	56.160898	0.000454	4.543173	1.539269	-0.036298
 537	2.6800e-01	18.5979	56.177030	-0.000040	-0.403838	-0.136824	0.003226
 538	2.6850e-01	18.5578	56.092335	0.000212	2.120148	0.718325	-0.016939
 539	2.6900e-01	18.5161	55.935045	0.000394	3.937417	1.334033	-0.031458
 540	2.6950e-01	18.4711	55.882614	0.000131	1.312472	0.444678	-0.010486
 541	2.7000e-01	18.4358	55.931011	-0.000121	-1.211513	-0.410472	0.009679
 542	2.7050e-01	18.3893	55.810018	0.000303	3.028782	1.026179	-0.024199
 543	2.7100e-01	18.3604	55.527702	0.000707	7.067159	2.394418	-0.056463
 544	2.7150e-01	18.3203	55.797919	-0.000676	-6.764280	-2.291800	0.054044
 545	2.7200e-01	18.2834	55.459139	0.000848	8.480590	2.873302	-0.067756
 546	2.7250e-01	18.2401	55.285716	0.000434	4.341255	1.470857	-0.034685
 547	2.7300e-01	18.1984	55.217153	0.000172	1.716310	0.581502	-0.013713
 548	2.7350e-01	18.1535	54.979200	0.000596	5.956605	2.018152	-0.047591
 549	2.7400e-01	18.1166	54.946935	0.000081	0.807675	0.273648	-0.006453
 550	2.7450e-01	18.0893	54.942902	0.000010	0.100959	0.034206	-0.000807
 551	2.7500e-01	18.0396	54.648486	0.000737	7.370037	2.497036	-0.058883
 552	2.7550e-01	17.9995	54.729148	-0.000202	-2.019188	-0.684119	0.016132
 553	2.7600e-01	17.9514	54.592023	0.000343	3.432620	1.163003	-0.027425
 554	2.7650e-01	17.9241	54.676718	-0.000212	-2.120148	-0.718325	0.016939
 555	2.7700e-01	17.8776	54.491195	0.000464	4.644133	1.573475	-0.037105
 556	2.7750e-01	17.8407	54.370202	0.000303	3.028782	1.026179	-0.024199
 557	2.7800e-01	17.7925	54.261309	0.000273	2.725904	0.923561	-0.021779
 558	2.7850e-01	17.7605	54.132249	0.000323	3.230701	1.094591	-0.025812
 559	2.7900e-01	17.7091	54.047554	0.000212	2.120148	0.718325	-0.016939
 560	2.7950e-01	17.6786	53.910429	0.000343	3.432620	1.163003	-0.027425
 561	2.8000e-01	17.6337	53.866065	0.000111	1.110554	0.376266	-0.008873
 562	2.8050e-01	17.6032	53.845899	0.000050	0.504797	0.171030	-0.004033
 563	2.8100e-01	17.5663	53.543417	0.000757	7.571956	2.565448	-0.060496
 564	2.8150e-01	17.5295	53.543417	-0.000000	-0.000000	-0.000000	0.000000
 565	2.8200e-01	17.4813	53.289332	0.000636	6.360443	2.154976	-0.050817
 566	2.8250e-01	17.4460	53.208670	0.000202	2.019188	0.684119	-0.016132
 567	2.8300e-01	17.4059	53.172372	0.000091	0.908635	0.307854	-0.007260
 568	2.8350e-01	17.3562	52.990883	0.000454	4.543173	1.539269	-0.036298
 569	2.8400e-01	17.3257	52.926353	0.000162	1.615351	0.547296	-0.012906
 570	2.8450e-01	17.2856	52.934419	-0.000020	-0.201919	-0.068412	0.001613
 571	2.8500e-01	17.2391	52.865856	0.000172	1.716310	0.581502	-0.013713
 572	2.8550e-01	17.1974	52.587573	0.000697	6.966199	2.360212	-0.055657
 573	2.8600e-01	17.1589	52.567407	0.000050	0.504797	0.171030	-0.004033
 574	2.8650e-01	17.1156	52.438348	0.000323	3.230701	1.094591	-0.025812
 575	2.8700e-01	17.0835	52.531109	-0.000232	-2.322066	-0.786737	0.018552
 576	2.8750e-01	17.0418	52.313322	0.000545	5.451808	1.847123	-0.043557
 577	2.8800e-01	16.9952	52.297190	0.000040	0.403838	0.136824	-0.003226
 578	2.8850e-01	16.9632	52.002773	0.000737	7.370037	2.497036	-0.058883
 579	2.8900e-01	16.9214	52.127799	-0.000313	-3.129742	-1.060385	0.025005
 580	2.8950e-01	16.8813	51.845483	0.000707	7.067159	2.394418	-0.056463
 581	2.9000e-01	16.8332	51.764821	0.000202	2.019188	0.684119	-0.016132
 582	2.9050e-01	16.8043	51.575265	0.000475	4.745092	1.607681	-0.037911
 583	2.9100e-01	16.7610	51.603497	-0.000071	-0.706716	-0.239442	0.005646
 584	2.9150e-01	16.7209	51.426040	0.000444	4.442214	1.505063	-0.035491
 585	2.9200e-01	16.6824	51.264716	0.000404	4.038376	1.368239	-0.032265
 586	2.9250e-01	16.6359	51.256650	0.000020	0.201919	0.068412	-0.001613
 587	2.9300e-01	16.5958	51.059028	0.000495	4.947011	1.676093	-0.039524
 588	2.9350e-01	16.5669	50.857373	0.000505	5.047970	1.710299	-0.040331
 589	2.9400e-01	16.5124	51.038863	-0.000454	-4.543173	-1.539269	0.036298
 590	2.9450e-01	16.4803	50.897704	0.000353	3.533579	1.197209	-0.028232
 591	2.9500e-01	16.4354	50.607321	0.000727	7.269077	2.462830	-0.058077
 592	2.9550e-01	16.3937	50.752513	-0.000363	-3.634539	-1.231415	0.029038
 593	2.9600e-01	16.3568	50.357269	0.000989	9.894022	3.352185	-0.079049
 594	2.9650e-01	16.3134	50.429865	-0.000182	-1.817269	-0.615708	0.014519
 595	2.9700e-01	16.2669	50.312905	0.000293	2.927823	0.991973	-0.023392
 596	2.9750e-01	16.2413	50.062853	0.000626	6.259483	2.120770	-0.050010
 597	2.9800e-01	16.2028	50.195945	-0.000333	-3.331661	-1.128797	0.026618
 598	2.9850e-01	16.1562	49.764404	0.001080	10.802657	3.660039	-0.086308
 599	2.9900e-01	16.1193	49.857165	-0.000232	-2.322066	-0.786737	0.018552
 600	2.9950e-01	16.0808	49.792635	0.000162	1.615351	0.547296	-0.012906
 601	3.0000e-01	16.0423	49.820867	-0.000071	-0.706716	-0.239442	0.005646
 602	3.0050e-01	16.0006	49.490153	0.000828	8.278672	2.804890	-0.066143
 603	3.0100e-01	15.9573	49.369160	0.000303	3.028782	1.026179	-0.024199
 604	3.0150e-01	15.9188	49.264299	0.000262	2.624945	0.889355	-0.020972
 605	3.0200e-01	15.8899	49.179604	0.000212	2.120148	0.718325	-0.016939
 606	3.0250e-01	15.8466	49.010214	0.000424	4.240295	1.436651	-0.033878
 607	3.0300e-01	15.8081	48.921486	0.000222	2.221107	0.752531	-0.017746
 608	3.0350e-01	15.7616	48.844857	0.000192	1.918229	0.649914	-0.015326
 609	3.0400e-01	15.7183	48.623037	0.000555	5.552768	1.881329	-0.044364
 610	3.0450e-01	15.6798	48.731930	-0.000273	-2.725904	-0.923561	0.021779
 611	3.0500e-01	15.6349	48.534309	0.000495	4.947011	1.676093	-0.039524
 612	3.0550e-01	15.5964	48.372985	0.000404	4.038376	1.368239	-0.032265
 613	3.0600e-01	15.5595	48.344753	0.000071	0.706716	0.239442	-0.005646
 614	3.0650e-01	15.5258	48.139065	0.000515	5.148930	1.744505	-0.041138
 615	3.0700e-01	15.4857	47.893046	0.000616	6.158524	2.086564	-0.049204
 616	3.0750e-01	15.4375	47.965642	-0.000182	-1.817269	-0.615708	0.014519
 617	3.0800e-01	15.3958	47.763987	0.000505	5.047970	1.710299	-0.040331
 618	3.0850e-01	15.3669	47.808351	-0.000111	-1.110554	-0.376266	0.008873
 619	3.0900e-01	15.3252	47.538133	0.000676	6.764280	2.291800	-0.054044
 620	3.0950e-01	15.2819	47.509902	0.000071	0.706716	0.239442	-0.005646
 621	3.1000e-01	15.2434	47.562332	-0.000131	-1.312472	-0.444678	0.010486
 622	3.1050e-01	15.1969	47.320346	0.000606	6.057565	2.052358	-0.048397
 623	3.1100e-01	15.1520	47.110625	0.000525	5.249889	1.778711	-0.041944
 624	3.1150e-01	15.1151	47.138856	-0.000071	-0.706716	-0.239442	0.005646
 625	3.1200e-01	15.0750	46.933168	0.000515	5.148930	1.744505	-0.041138
 626	3.1250e-01	15.0397	46.937202	-0.000010	-0.100959	-0.034206	0.000807
 627	3.1300e-01	14.9964	46.691183	0.000616	6.158524	2.086564	-0.049204
 628	3.1350e-01	14.9563	46.739580	-0.000121	-1.211513	-0.410472	0.009679
 629	3.1400e-01	14.9226	46.598421	0.000353	3.533579	1.197209	-0.028232
 630	3.1450e-01	14.8793	46.429031	0.000424	4.240295	1.436651	-0.033878
 631	3.1500e-01	14.8440	46.235442	0.000485	4.846052	1.641887	-0.038718
 632	3.1550e-01	14.8039	46.154780	0.000202	2.019188	0.684119	-0.016132
 633	3.1600e-01	14.7525	46.211244	-0.000141	-1.413432	-0.478884	0.011293
 634	3.1650e-01	14.7188	46.150747	0.000151	1.514391	0.513090	-0.012099
 635	3.1700e-01	14.6835	45.860364	0.000727	7.269077	2.462830	-0.058077
 636	3.1750e-01	14.6466	45.735338	0.000313	3.129742	1.060385	-0.025005
 637	3.1800e-01	14.5985	45.565948	0.000424	4.240295	1.436651	-0.033878
 638	3.1850e-01	14.5584	45.517551	0.000121	1.211513	0.410472	-0.009679
 639	3.1900e-01	14.5215	45.400591	0.000293	2.927823	0.991973	-0.023392
 640	3.1950e-01	14.4814	45.368326	0.000081	0.807675	0.273648	-0.006453
 641	3.2000e-01	14.4349	45.400591	-0.000081	-0.807675	-0.273648	0.006453
 642	3.2050e-01	14.4060	45.094075	0.000767	7.672915	2.599654	-0.061303
 643	3.2100e-01	14.3627	45.005347	0.000222	2.221107	0.752531	-0.017746
 644	3.2150e-01	14.3162	44.896454	0.000273	2.725904	0.923561	-0.021779
 645	3.2200e-01	14.2761	44.686733	0.000525	5.249889	1.778711	-0.041944
 646	3.2250e-01	14.2360	44.662534	0.000061	0.605756	0.205236	-0.004840
 647	3.2300e-01	14.1910	44.489111	0.000434	4.341255	1.470857	-0.034685
 648	3.2350e-01	14.1590	44.497177	-0.000020	-0.201919	-0.068412	0.001613
 649	3.2400e-01	14.1253	44.283423	0.000535	5.350849	1.812917	-0.042751
 650	3.2450e-01	14.0852	44.154363	0.000323	3.230701	1.094591	-0.025812
 651	3.2500e-01	14.0354	44.089834	0.000162	1.615351	0.547296	-0.012906
 652	3.2550e-01	14.0066	43.779285	0.000777	7.773875	2.633860	-0.062110
 653	3.2600e-01	13.9713	43.847848	-0.000172	-1.716310	-0.581502	0.013713
 654	3.2650e-01	13.9215	43.662325	0.000464	4.644133	1.573475	-0.037105
 655	3.2700e-01	13.8718	43.698623	-0.000091	-0.908635	-0.307854	0.007260
 656	3.2750e-01	13.8461	43.557465	0.000353	3.533579	1.197209	-0.028232
 657	3.2800e-01	13.8060	43.283214	0.000687	6.865240	2.326006	-0.054850
 658	3.2850e-01	13.7627	43.166254	0.000293	2.927823	0.991973	-0.023392
 659	3.2900e-01	13.7146	43.242883	-0.000192	-1.918229	-0.649914	0.015326
 660	3.2950e-01	13.6729	43.150122	0.000232	2.322066	0.786737	-0.018552
 661	3.3000e-01	13.6376	42.956533	0.000485	4.846052	1.641887	-0.038718
 662	3.3050e-01	13.5895	42.835540	0.000303	3.028782	1.026179	-0.024199
 663	3.3100e-01	13.5590	42.847640	-0.000030	-0.302878	-0.102618	0.002420
 664	3.3150e-01	13.5173	42.613720	0.000586	5.855646	1.983946	-0.046784
 665	3.3200e-01	13.4804	42.573389	0.000101	1.009594	0.342060	-0.008066
 666	3.3250e-01	13.4354	42.395933	0.000444	4.442214	1.505063	-0.035491
 667	3.3300e-01	13.3937	42.299138	0.000242	2.423026	0.820943	-0.019359
 668	3.3350e-01	13.3729	42.129748	0.000424	4.240295	1.436651	-0.033878
 669	3.3400e-01	13.3167	41.948259	0.000454	4.543173	1.539269	-0.036298
 670	3.3450e-01	13.2847	41.924060	0.000061	0.605756	0.205236	-0.004840
 671	3.3500e-01	13.2365	41.835332	0.000222	2.221107	0.752531	-0.017746
 672	3.3550e-01	13.1948	41.569147	0.000666	6.663321	2.257594	-0.053237
 673	3.3600e-01	13.1595	41.540916	0.000071	0.706716	0.239442	-0.005646
 674	3.3650e-01	13.1114	41.496552	0.000111	1.110554	0.376266	-0.008873
 675	3.3700e-01	13.0825	41.492518	0.000010	0.100959	0.034206	-0.000807
 676	3.3750e-01	13.0408	41.105341	0.000969	9.692103	3.283773	-0.077435
 677	3.3800e-01	12.9959	41.073076	0.000081	0.807675	0.273648	-0.006453
 678	3.3850e-01	12.9638	41.024679	0.000121	1.211513	0.410472	-0.009679
 679	3.3900e-01	12.9173	40.859322	0.000414	4.139336	1.402445	-0.033071
 680	3.3950e-01	12.8740	40.750428	0.000273	2.725904	0.923561	-0.021779
 681	3.4000e-01	12.8467	40.710097	0.000101	1.009594	0.342060	-0.008066
 682	3.4050e-01	12.8066	40.496343	0.000535	5.350849	1.812917	-0.042751
 683	3.4100e-01	12.7665	40.641535	-0.000363	-3.634539	-1.231415	0.029038
 684	3.4150e-01	12.7248	40.363251	0.000697	6.966199	2.360212	-0.055657
 685	3.4200e-01	12.6879	40.306787	0.000141	1.413432	0.478884	-0.011293
 686	3.4250e-01	12.6365	40.032537	0.000687	6.865240	2.326006	-0.054850
 687	3.4300e-01	12.6045	39.842981	0.000475	4.745092	1.607681	-0.037911
 688	3.4350e-01	12.5644	39.625194	0.000545	5.451808	1.847123	-0.043557
 689	3.4400e-01	12.5258	39.649392	-0.000061	-0.605756	-0.205236	0.004840
 690	3.4450e-01	12.4906	39.661492	-0.000030	-0.302878	-0.102618	0.002420
 691	3.4500e-01	12.4392	39.492102	0.000424	4.240295	1.436651	-0.033878
 692	3.4550e-01	12.4055	39.201718	0.000727	7.269077	2.462830	-0.058077
 693	3.4600e-01	12.3638	39.225917	-0.000061	-0.605756	-0.205236	0.004840
 694	3.4650e-01	12.3317	39.165421	0.000151	1.514391	0.513090	-0.012099
 695	3.4700e-01	12.2788	39.092825	0.000182	1.817269	0.615708	-0.014519
 696	3.4750e-01	12.2515	38.875037	0.000545	5.451808	1.847123	-0.043557
 697	3.4800e-01	12.1986	38.842773	0.000081	0.807675	0.273648	-0.006453
 698	3.4850e-01	12.1585	38.657250	0.000464	4.644133	1.573475	-0.037105
 699	3.4900e-01	12.1071	38.552390	0.000262	2.624945	0.889355	-0.020972
 700	3.4950e-01	12.0799	38.387032	0.000414	4.139336	1.402445	-0.033071
 701	3.5000e-01	12.0430	38.302337	0.000212	2.120148	0.718325	-0.016939
 702	3.5050e-01	11.9965	38.217642	0.000212	2.120148	0.718325	-0.016939
 703	3.5100e-01	11.9563	38.274106	-0.000141	-1.413432	-0.478884	0.011293
 704	3.5150e-01	11.9194	38.056318	0.000545	5.451808	1.847123	-0.043557
 705	3.5200e-01	11.8842	37.669141	0.000969	9.692103	3.283773	-0.077435
 706	3.5250e-01	11.8441	37.818366	-0.000374	-3.735498	-1.265621	0.029845
 707	3.5300e-01	11.8055	37.757869	0.000151	1.514391	0.513090	-0.012099
 708	3.5350e-01	11.7574	37.487652	0.000676	6.764280	2.291800	-0.054044
 709	3.5400e-01	11.7157	37.471519	0.000040	0.403838	0.136824	-0.003226
 710	3.5450e-01	11.6868	37.136772	0.000838	8.379631	2.839096	-0.066949
 711	3.5500e-01	11.6467	37.136772	-0.000000	-0.000000	-0.000000	0.000000
 712	3.5550e-01	11.5954	36.947216	0.000475	4.745092	1.607681	-0.037911
 713	3.5600e-01	11.5537	37.027878	-0.000202	-2.019188	-0.684119	0.016132
 714	3.5650e-01	11.5248	36.745561	0.000707	7.067159	2.394418	-0.056463
 715	3.5700e-01	11.4847	36.676999	0.000172	1.716310	0.581502	-0.013713
 716	3.5750e-01	11.4286	36.531807	0.000363	3.634539	1.231415	-0.029038
 717	3.5800e-01	11.3949	36.531807	-0.000000	-0.000000	-0.000000	0.000000
 718	3.5850e-01	11.3612	36.221259	0.000777	7.773875	2.633860	-0.062110
 719	3.5900e-01	11.3130	36.136563	0.000212	2.120148	0.718325	-0.016939
 720	3.5950e-01	11.2794	36.043802	0.000232	2.322066	0.786737	-0.018552
 721	3.6000e-01	11.2360	36.043802	-0.000000	-0.000000	-0.000000	0.000000
 722	3.6050e-01	11.2040	35.882478	0.000404	4.038376	1.368239	-0.032265
 723	3.6100e-01	11.1558	35.826015	0.000141	1.413432	0.478884	-0.011293
 724	3.6150e-01	11.1221	35.805849	0.000050	0.504797	0.171030	-0.004033
 725	3.6200e-01	11.0756	35.612261	0.000485	4.846052	1.641887	-0.038718
 726	3.6250e-01	11.0467	35.450937	0.000404	4.038376	1.368239	-0.032265
 727	3.6300e-01	11.0050	35.281547	0.000424	4.240295	1.436651	-0.033878
 728	3.6350e-01	10.9601	35.237182	0.000111	1.110554	0.376266	-0.008873
 729	3.6400e-01	10.9200	35.188785	0.000121	1.211513	0.410472	-0.009679
 730	3.6450e-01	10.8799	34.878237	0.000777	7.773875	2.633860	-0.062110
 731	3.6500e-01	10.8382	34.922601	-0.000111	-1.110554	-0.376266	0.008873
 732	3.6550e-01	10.7997	34.575754	0.000868	8.682509	2.941714	-0.069369
 733	3.6600e-01	10.7660	34.591887	-0.000040	-0.403838	-0.136824	0.003226
 734	3.6650e-01	10.7259	34.519291	0.000182	1.817269	0.615708	-0.014519
 735	3.6700e-01	10.6810	34.458794	0.000151	1.514391	0.513090	-0.012099
 736	3.6750e-01	10.6377	34.341835	0.000293	2.927823	0.991973	-0.023392
 737	3.6800e-01	10.5960	34.035319	0.000767	7.672915	2.599654	-0.061303
 738	3.6850e-01	10.5623	33.926425	0.000273	2.725904	0.923561	-0.021779
 739	3.6900e-01	10.5190	33.865929	0.000151	1.514391	0.513090	-0.012099
 740	3.6950e-01	10.4788	33.740903	0.000313	3.129742	1.060385	-0.025005
 741	3.7000e-01	10.4323	33.648142	0.000232	2.322066	0.786737	-0.018552
 742	3.7050e-01	10.3938	33.474718	0.000434	4.341255	1.470857	-0.034685
 743	3.7100e-01	10.3537	33.478751	-0.000010	-0.100959	-0.034206	0.000807
 744	3.7150e-01	10.3136	33.264997	0.000535	5.350849	1.812917	-0.042751
 745	3.7200e-01	10.2799	33.281130	-0.000040	-0.403838	-0.136824	0.003226
 746	3.7250e-01	10.2366	33.067375	0.000535	5.350849	1.812917	-0.042751
 747	3.7300e-01	10.1949	32.966548	0.000252	2.523985	0.855149	-0.020165
 748	3.7350e-01	10.1532	32.785059	0.000454	4.543173	1.539269	-0.036298
 749	3.7400e-01	10.1163	32.631801	0.000384	3.836458	1.299827	-0.030652
 750	3.7450e-01	10.0762	32.575337	0.000141	1.413432	0.478884	-0.011293
 751	3.7500e-01	10.0393	32.401914	0.000434	4.341255	1.470857	-0.034685
 752	3.7550e-01	9.9944	32.228491	0.000434	4.341255	1.470857	-0.034685
 753	3.7600e-01	9.9575	32.248656	-0.000050	-0.504797	-0.171030	0.004033
 754	3.7650e-01	9.9206	32.131697	0.000293	2.927823	0.991973	-0.023392
 755	3.7700e-01	9.8757	31.897777	0.000586	5.855646	1.983946	-0.046784
 756	3.7750e-01	9.8420	31.796949	0.000252	2.523985	0.855149	-0.020165
 757	3.7800e-01	9.8051	31.792916	0.000010	0.100959	0.034206	-0.000807
 758	3.7850e-01	9.7634	31.692089	0.000252	2.523985	0.855149	-0.020165
 759	3.7900e-01	9.7136	31.409772	0.000707	7.067159	2.394418	-0.056463
 760	3.7950e-01	9.6880	31.232316	0.000444	4.442214	1.505063	-0.035491
 761	3.8000e-01	9.6511	31.200051	0.000081	0.807675	0.273648	-0.006453
 762	3.8050e-01	9.6013	31.167786	0.000081	0.807675	0.273648	-0.006453
 763	3.8100e-01	9.5644	31.196018	-0.000071	-0.706716	-0.239442	0.005646
 764	3.8150e-01	9.5195	30.962098	0.000586	5.855646	1.983946	-0.046784
 765	3.8200e-01	9.4842	30.829006	0.000333	3.331661	1.128797	-0.026618
 766	3.8250e-01	9.4345	30.764476	0.000162	1.615351	0.547296	-0.012906
 767	3.8300e-01	9.3992	30.466027	0.000747	7.470996	2.531242	-0.059690
 768	3.8350e-01	9.3671	30.413597	0.000131	1.312472	0.444678	-0.010486
 769	3.8400e-01	9.3190	30.328901	0.000212	2.120148	0.718325	-0.016939
 770	3.8450e-01	9.2773	30.070783	0.000646	6.461402	2.189182	-0.051624
 771	3.8500e-01	9.2388	30.123213	-0.000131	-1.312472	-0.444678	0.010486
 772	3.8550e-01	9.2035	30.038518	0.000212	2.120148	0.718325	-0.016939
 773	3.8600e-01	9.1538	29.844930	0.000485	4.846052	1.641887	-0.038718
 774	3.8650e-01	9.1185	29.477918	0.000919	9.187306	3.112744	-0.073402
 775	3.8700e-01	9.0784	29.449686	0.000071	0.706716	0.239442	-0.005646
 776	3.8750e-01	9.0350	29.377090	0.000182	1.817269	0.615708	-0.014519
 777	3.8800e-01	8.9965	29.425487	-0.000121	-1.211513	-0.410472	0.009679
 778	3.8850e-01	8.9516	29.110906	0.000787	7.874834	2.668066	-0.062916
 779	3.8900e-01	8.9179	28.925383	0.000464	4.644133	1.573475	-0.037105
 780	3.8950e-01	8.8842	28.840688	0.000212	2.120148	0.718325	-0.016939
 781	3.9000e-01	8.8377	28.772125	0.000172	1.716310	0.581502	-0.013713
 782	3.9050e-01	8.8072	28.598702	0.000434	4.341255	1.470857	-0.034685
 783	3.9100e-01	8.7543	28.590636	0.000020	0.201919	0.068412	-0.001613
 784	3.9150e-01	8.7254	28.473676	0.000293	2.927823	0.991973	-0.023392
 785	3.9200e-01	8.6805	28.272021	0.000505	5.047970	1.710299	-0.040331
 786	3.9250e-01	8.6372	28.151028	0.000303	3.028782	1.026179	-0.024199
 787	3.9300e-01	8.6019	28.134896	0.000040	0.403838	0.136824	-0.003226
 788	3.9350e-01	8.5586	27.884844	0.000626	6.259483	2.120770	-0.050010
 789	3.9400e-01	8.5185	27.872744	0.000030	0.302878	0.102618	-0.002420
 790	3.9450e-01	8.4784	27.779983	0.000232	2.322066	0.786737	-0.018552
 791	3.9500e-01	8.4318	27.537997	0.000606	6.057565	2.052358	-0.048397
 792	3.9550e-01	8.3998	27.412971	0.000313	3.129742	1.060385	-0.025005
 793	3.9600e-01	8.3613	27.392806	0.000050	0.504797	0.171030	-0.004033
 794	3.9650e-01	8.3163	27.033860	0.000899	8.985387	3.044332	-0.071789
 795	3.9700e-01	8.2810	27.106456	-0.000182	-1.817269	-0.615708	0.014519
 796	3.9750e-01	8.2361	26.924966	0.000454	4.543173	1.539269	-0.036298
 797	3.9800e-01	8.2057	26.884635	0.000101	1.009594	0.342060	-0.008066
 798	3.9850e-01	8.1623	26.711212	0.000434	4.341255	1.470857	-0.034685
 799	3.9900e-01	8.1222	26.638616	0.000182	1.817269	0.615708	-0.014519
 800	3.9950e-01	8.0805	26.392597	0.000616	6.158524	2.086564	-0.049204
 801	4.0000e-01	8.0420	26.521656	-0.000323	-3.230701	-1.094591	0.025812
 802	4.0050e-01	7.9923	26.271604	0.000626	6.259483	2.120770	-0.050010
 803	4.0100e-01	7.9602	25.973155	0.000747	7.470996	2.531242	-0.059690
 804	4.0150e-01	7.9185	26.033651	-0.000151	-1.514391	-0.513090	0.012099
 805	4.0200e-01	7.8688	25.900559	0.000333	3.331661	1.128797	-0.026618
 806	4.0250e-01	7.8463	25.698904	0.000505	5.047970	1.710299	-0.040331
 807	4.0300e-01	7.8014	25.553713	0.000363	3.634539	1.231415	-0.029038
 808	4.0350e-01	7.7613	25.610176	-0.000141	-1.413432	-0.478884	0.011293
 809	4.0400e-01	7.7115	25.509349	0.000252	2.523985	0.855149	-0.020165
 810	4.0450e-01	7.6827	25.392389	0.000293	2.927823	0.991973	-0.023392
 811	4.0500e-01	7.6442	25.061675	0.000828	8.278672	2.804890	-0.066143
 812	4.0550e-01	7.5848	24.972947	0.000222	2.221107	0.752531	-0.017746
 813	4.0600e-01	7.5575	24.932616	0.000101	1.009594	0.342060	-0.008066
 814	4.0650e-01	7.5206	24.839854	0.000232	2.322066	0.786737	-0.018552
 815	4.0700e-01	7.4757	24.751126	0.000222	2.221107	0.752531	-0.017746
 816	4.0750e-01	7.4388	24.529306	0.000555	5.552768	1.881329	-0.044364
 817	4.0800e-01	7.4003	24.376048	0.000384	3.836458	1.299827	-0.030652
 818	4.0850e-01	7.3554	24.255055	0.000303	3.028782	1.026179	-0.024199
 819	4.0900e-01	7.3185	24.109863	0.000363	3.634539	1.231415	-0.029038
 820	4.0950e-01	7.2832	24.033235	0.000192	1.918229	0.649914	-0.015326
 821	4.1000e-01	7.2447	24.017102	0.000040	0.403838	0.136824	-0.003226
 822	4.1050e-01	7.1998	23.839646	0.000444	4.442214	1.505063	-0.035491
 823	4.1100e-01	7.1533	23.686388	0.000384	3.836458	1.299827	-0.030652
 824	4.1150e-01	7.1212	23.516998	0.000424	4.240295	1.436651	-0.033878
 825	4.1200e-01	7.0811	23.525064	-0.000020	-0.201919	-0.068412	0.001613
 826	4.1250e-01	7.0394	23.343575	0.000454	4.543173	1.539269	-0.036298
 827	4.1300e-01	6.9961	23.105622	0.000596	5.956605	2.018152	-0.047591
 828	4.1350e-01	6.9608	23.125787	-0.000050	-0.504797	-0.171030	0.004033
 829	4.1400e-01	6.9191	23.028993	0.000242	2.423026	0.820943	-0.019359
 830	4.1450e-01	6.8677	22.597451	0.001080	10.802657	3.660039	-0.086308
 831	4.1500e-01	6.8340	22.609551	-0.000030	-0.302878	-0.102618	0.002420
 832	4.1550e-01	6.8052	22.419995	0.000475	4.745092	1.607681	-0.037911
 833	4.1600e-01	6.7618	22.428061	-0.000020	-0.201919	-0.068412	0.001613
 834	4.1650e-01	6.7265	22.246572	0.000454	4.543173	1.539269	-0.036298
 835	4.1700e-01	6.6800	22.182042	0.000162	1.615351	0.547296	-0.012906
 836	4.1750e-01	6.6479	22.109447	0.000182	1.817269	0.615708	-0.014519
 837	4.1800e-01	6.5950	21.923924	0.000464	4.644133	1.573475	-0.037105
 838	4.1850e-01	6.5645	21.754534	0.000424	4.240295	1.436651	-0.033878
 839	4.1900e-01	6.5132	21.685971	0.000172	1.716310	0.581502	-0.013713
 840	4.1950e-01	6.4731	21.290728	0.000989	9.894022	3.352185	-0.079049
 841	4.2000e-01	6.4346	21.371389	-0.000202	-2.019188	-0.684119	0.016132
 842	4.2050e-01	6.4073	21.197966	0.000434	4.341255	1.470857	-0.034685
 843	4.2100e-01	6.3608	21.177801	0.000050	0.504797	0.171030	-0.004033
 844	4.2150e-01	6.3223	20.911616	0.000666	6.663321	2.257594	-0.053237
 845	4.2200e-01	6.2693	20.895484	0.000040	0.403838	0.136824	-0.003226
 846	4.2250e-01	6.2485	20.895484	-0.000000	-0.000000	-0.000000	0.000000
 847	4.2300e-01	6.2036	20.681730	0.000535	5.350849	1.812917	-0.042751
 848	4.2350e-01	6.1586	20.629299	0.000131	1.312472	0.444678	-0.010486
 849	4.2400e-01	6.1218	20.451843	0.000444	4.442214	1.505063	-0.035491
 850	4.2450e-01	6.0881	20.306651	0.000363	3.634539	1.231415	-0.029038
 851	4.2500e-01	6.0399	20.258254	0.000121	1.211513	0.410472	-0.009679
 852	4.2550e-01	6.0046	19.971904	0.000717	7.168118	2.428624	-0.057270
 853	4.2600e-01	5.9581	19.919474	0.000131	1.312472	0.444678	-0.010486
 854	4.2650e-01	5.9180	19.939639	-0.000050	-0.504797	-0.171030	0.004033
 855	4.2700e-01	5.8827	19.778316	0.000404	4.038376	1.368239	-0.032265
 856	4.2750e-01	5.8458	19.629091	0.000374	3.735498	1.265621	-0.029845
 857	4.2800e-01	5.8009	19.463734	0.000414	4.139336	1.402445	-0.033071
 858	4.2850e-01	5.7688	19.221748	0.000606	6.057565	2.052358	-0.048397
 859	4.2900e-01	5.7175	19.056391	0.000414	4.139336	1.402445	-0.033071
 860	4.2950e-01	5.6918	19.060424	-0.000010	-0.100959	-0.034206	0.000807
 861	4.3000e-01	5.6357	18.693412	0.000919	9.187306	3.112744	-0.073402
 862	4.3050e-01	5.6004	18.995894	-0.000757	-7.571956	-2.565448	0.060496
 863	4.3100e-01	5.5555	18.814405	0.000454	4.543173	1.539269	-0.036298
 864	4.3150e-01	5.5170	18.628882	0.000464	4.644133	1.573475	-0.037105
 865	4.3200e-01	5.4752	18.346566	0.000707	7.067159	2.394418	-0.056463
 866	4.3250e-01	5.4512	18.229606	0.000293	2.927823	0.991973	-0.023392
 867	4.3300e-01	5.4047	18.007785	0.000555	5.552768	1.881329	-0.044364
 868	4.3350e-01	5.3662	18.031984	-0.000061	-0.605756	-0.205236	0.004840
 869	4.3400e-01	5.3212	17.890825	0.000353	3.533579	1.197209	-0.028232
 870	4.3450e-01	5.2843	17.789998	0.000252	2.523985	0.855149	-0.020165
 871	4.3500e-01	5.2362	17.745634	0.000111	1.110554	0.376266	-0.008873
 872	4.3550e-01	5.1961	17.539946	0.000515	5.148930	1.744505	-0.041138
 873	4.3600e-01	5.1640	17.507681	0.000081	0.807675	0.273648	-0.006453
 874	4.3650e-01	5.1239	17.060007	0.001121	11.206494	3.796863	-0.089535
 875	4.3700e-01	5.0918	17.132603	-0.000182	-1.817269	-0.615708	0.014519
 876	4.3750e-01	5.0341	16.947080	0.000464	4.644133	1.573475	-0.037105
 877	4.3800e-01	4.9924	17.039842	-0.000232	-2.322066	-0.786737	0.018552
 878	4.3850e-01	4.9603	16.688962	0.000878	8.783469	2.975920	-0.070176
 879	4.3900e-01	4.9218	16.592168	0.000242	2.423026	0.820943	-0.019359
 880	4.3950e-01	4.8833	16.592168	-0.000000	-0.000000	-0.000000	0.000000
 881	4.4000e-01	4.8416	16.543770	0.000121	1.211513	0.410472	-0.009679
 882	4.4050e-01	4.7983	16.321950	0.000555	5.552768	1.881329	-0.044364
 883	4.4100e-01	4.7646	16.225156	0.000242	2.423026	0.820943	-0.019359
 884	4.4150e-01	4.7229	15.991236	0.000586	5.855646	1.983946	-0.046784
 885	4.4200e-01	4.6812	15.854111	0.000343	3.432620	1.163003	-0.027425
 886	4.4250e-01	4.6378	15.773449	0.000202	2.019188	0.684119	-0.016132
 887	4.4300e-01	4.6041	15.652456	0.000303	3.028782	1.026179	-0.024199
 888	4.4350e-01	4.5608	15.527430	0.000313	3.129742	1.060385	-0.025005
 889	4.4400e-01	4.5223	15.301576	0.000565	5.653727	1.915535	-0.045171
 890	4.4450e-01	4.4854	15.281411	0.000050	0.504797	0.171030	-0.004033
 891	4.4500e-01	4.4389	15.120087	0.000404	4.038376	1.368239	-0.032265
 892	4.4550e-01	4.4036	14.995061	0.000313	3.129742	1.060385	-0.025005
 893	4.4600e-01	4.3603	14.878101	0.000293	2.927823	0.991973	-0.023392
 894	4.4650e-01	4.3202	14.849869	0.000071	0.706716	0.239442	-0.005646
 895	4.4700e-01	4.2801	14.704678	0.000363	3.634539	1.231415	-0.029038
 896	4.4750e-01	4.2336	14.648214	0.000141	1.413432	0.478884	-0.011293
 897	4.4800e-01	4.2063	14.434460	0.000535	5.350849	1.812917	-0.042751
 898	4.4850e-01	4.1598	14.168275	0.000666	6.663321	2.257594	-0.053237
 899	4.4900e-01	4.1229	14.083580	0.000212	2.120148	0.718325	-0.016939
 900	4.4950e-01	4.0844	14.002918	0.000202	2.019188	0.684119	-0.016132
 901	4.5000e-01	4.0395	13.829495	0.000434	4.341255	1.470857	-0.034685
 902	4.5050e-01	4.0074	13.736734	0.000232	2.322066	0.786737	-0.018552
 903	4.5100e-01	3.9544	13.522980	0.000535	5.350849	1.812917	-0.042751
 904	4.5150e-01	3.9304	13.454417	0.000172	1.716310	0.581502	-0.013713
 905	4.5200e-01	3.8790	13.329391	0.000313	3.129742	1.060385	-0.025005
 906	4.5250e-01	3.8405	13.289060	0.000101	1.009594	0.342060	-0.008066
 907	4.5300e-01	3.8052	13.289060	-0.000000	-0.000000	-0.000000	0.000000
 908	4.5350e-01	3.7603	13.091438	0.000495	4.947011	1.676093	-0.039524
 909	4.5400e-01	3.7170	12.998677	0.000232	2.322066	0.786737	-0.018552
 910	4.5450e-01	3.6753	12.801055	0.000495	4.947011	1.676093	-0.039524
 911	4.5500e-01	3.6304	12.704261	0.000242	2.423026	0.820943	-0.019359
 912	4.5550e-01	3.5919	12.526804	0.000444	4.442214	1.505063	-0.035491
 913	4.5600e-01	3.5630	12.591334	-0.000162	-1.615351	-0.547296	0.012906
 914	4.5650e-01	3.5165	12.276752	0.000787	7.874834	2.668066	-0.062916
 915	4.5700e-01	3.4812	12.018634	0.000646	6.461402	2.189182	-0.051624
 916	4.5750e-01	3.4411	11.921839	0.000242	2.423026	0.820943	-0.019359
 917	4.5800e-01	3.3946	11.853277	0.000172	1.716310	0.581502	-0.013713
 918	4.5850e-01	3.3609	11.861343	-0.000020	-0.201919	-0.068412	0.001613
 919	4.5900e-01	3.3176	11.574993	0.000717	7.168118	2.428624	-0.057270
 920	4.5950e-01	3.2807	11.405603	0.000424	4.240295	1.436651	-0.033878
 921	4.6000e-01	3.2422	11.224113	0.000454	4.543173	1.539269	-0.036298
 922	4.6050e-01	3.1940	11.349139	-0.000313	-3.129742	-1.060385	0.025005
 923	4.6100e-01	3.1539	11.054723	0.000737	7.370037	2.497036	-0.058883
 924	4.6150e-01	3.1234	10.889366	0.000414	4.139336	1.402445	-0.033071
 925	4.6200e-01	3.0801	10.853068	0.000091	0.908635	0.307854	-0.007260
 926	4.6250e-01	3.0352	10.764340	0.000222	2.221107	0.752531	-0.017746
 927	4.6300e-01	3.0031	10.562685	0.000505	5.047970	1.710299	-0.040331
 928	4.6350e-01	2.9662	10.361030	0.000505	5.047970	1.710299	-0.040331
 929	4.6400e-01	2.9277	10.268269	0.000232	2.322066	0.786737	-0.018552
 930	4.6450e-01	2.8812	10.139210	0.000323	3.230701	1.094591	-0.025812
 931	4.6500e-01	2.8395	10.183574	-0.000111	-1.110554	-0.376266	0.008873
 932	4.6550e-01	2.7978	9.784297	0.000999	9.994982	3.386391	-0.079855
 933	4.6600e-01	2.7561	9.800430	-0.000040	-0.403838	-0.136824	0.003226
 934	4.6650e-01	2.7256	9.497947	0.000757	7.571956	2.565448	-0.060496
 935	4.6700e-01	2.6871	9.558444	-0.000151	-1.514391	-0.513090	0.012099
 936	4.6750e-01	2.6502	9.247895	0.000777	7.773875	2.633860	-0.062110
 937	4.6800e-01	2.5989	9.264027	-0.000040	-0.403838	-0.136824	0.003226
 938	4.6850e-01	2.5620	9.147068	0.000293	2.927823	0.991973	-0.023392
 939	4.6900e-01	2.5219	9.203531	-0.000141	-1.413432	-0.478884	0.011293
 940	4.6950e-01	2.4817	8.901049	0.000757	7.571956	2.565448	-0.060496
 941	4.7000e-01	2.4432	8.675195	0.000565	5.653727	1.915535	-0.045171
 942	4.7050e-01	2.4031	8.493706	0.000454	4.543173	1.539269	-0.036298
 943	4.7100e-01	2.3646	8.457408	0.000091	0.908635	0.307854	-0.007260
 944	4.7150e-01	2.3149	8.453375	0.000010	0.100959	0.034206	-0.000807
 945	4.7200e-01	2.2812	8.324316	0.000323	3.230701	1.094591	-0.025812
 946	4.7250e-01	2.2411	8.118627	0.000515	5.148930	1.744505	-0.041138
 947	4.7300e-01	2.2010	8.005701	0.000283	2.826863	0.957767	-0.022585
 948	4.7350e-01	2.1609	7.892774	0.000283	2.826863	0.957767	-0.022585
 949	4.7400e-01	2.1176	7.654821	0.000596	5.956605	2.018152	-0.047591
 950	4.7450e-01	2.0839	7.437034	0.000545	5.451808	1.847123	-0.043557
 951	4.7500e-01	2.0326	7.614490	-0.000444	-4.442214	-1.505063	0.035491
 952	4.7550e-01	2.0005	7.493497	0.000303	3.028782	1.026179	-0.024199
 953	4.7600e-01	1.9636	7.299908	0.000485	4.846052	1.641887	-0.038718
 954	4.7650e-01	1.9203	7.150684	0.000374	3.735498	1.265621	-0.029845
 955	4.7700e-01	1.8753	7.082121	0.000172	1.716310	0.581502	-0.013713
 956	4.7750e-01	1.8417	6.824003	0.000646	6.461402	2.189182	-0.051624
 957	4.7800e-01	1.7935	6.707043	0.000293	2.927823	0.991973	-0.023392
 958	4.7850e-01	1.7598	6.658646	0.000121	1.211513	0.410472	-0.009679
 959	4.7900e-01	1.7133	6.602182	0.000141	1.413432	0.478884	-0.011293
 960	4.7950e-01	1.6844	6.436825	0.000414	4.139336	1.402445	-0.033071
 961	4.8000e-01	1.6363	6.263402	0.000434	4.341255	1.470857	-0.034685
 962	4.8050e-01	1.6058	6.005284	0.000646	6.461402	2.189182	-0.051624
 963	4.8100e-01	1.5625	6.041582	-0.000091	-0.908635	-0.307854	0.007260
 964	4.8150e-01	1.5224	5.936721	0.000262	2.624945	0.889355	-0.020972
 965	4.8200e-01	1.4839	5.646338	0.000727	7.269077	2.462830	-0.058077
 966	4.8250e-01	1.4406	5.710868	-0.000162	-1.615351	-0.547296	0.012906
 967	4.8300e-01	1.4037	5.565676	0.000363	3.634539	1.231415	-0.029038
 968	4.8350e-01	1.3668	5.436617	0.000323	3.230701	1.094591	-0.025812
 969	4.8400e-01	1.3267	5.085737	0.000878	8.783469	2.975920	-0.070176
 970	4.8450e-01	1.2882	5.061539	0.000061	0.605756	0.205236	-0.004840
 971	4.8500e-01	1.2417	4.960711	0.000252	2.523985	0.855149	-0.020165
 972	4.8550e-01	1.1984	4.698560	0.000656	6.562362	2.223388	-0.052430
 973	4.8600e-01	1.1599	4.642096	0.000141	1.413432	0.478884	-0.011293
 974	4.8650e-01	1.1198	4.521104	0.000303	3.028782	1.026179	-0.024199
 975	4.8700e-01	1.0813	4.315416	0.000515	5.148930	1.744505	-0.041138
 976	4.8750e-01	1.0428	4.275085	0.000101	1.009594	0.342060	-0.008066
 977	4.8800e-01	0.9978	4.170224	0.000262	2.624945	0.889355	-0.020972
 978	4.8850e-01	0.9625	4.041165	0.000323	3.230701	1.094591	-0.025812
 979	4.8900e-01	0.9208	3.863708	0.000444	4.442214	1.505063	-0.035491
 980	4.8950e-01	0.8839	3.932271	-0.000172	-1.716310	-0.581502	0.013713
 981	4.9000e-01	0.8406	3.653987	0.000697	6.966199	2.360212	-0.055657
 982	4.9050e-01	0.8021	3.488630	0.000414	4.139336	1.402445	-0.033071
 983	4.9100e-01	0.7540	3.351505	0.000343	3.432620	1.163003	-0.027425
 984	4.9150e-01	0.7267	3.371670	-0.000050	-0.504797	-0.171030	0.004033
 985	4.9200e-01	0.6802	3.044989	0.000818	8.177712	2.770684	-0.065336
 986	4.9250e-01	0.6433	3.032890	0.000030	0.302878	0.102618	-0.002420
 987	4.9300e-01	0.5920	3.097420	-0.000162	-1.615351	-0.547296	0.012906
 988	4.9350e-01	0.5583	2.843335	0.000636	6.360443	2.154976	-0.050817
 989	4.9400e-01	0.5198	2.694110	0.000374	3.735498	1.265621	-0.029845
 990	4.9450e-01	0.4829	2.532786	0.000404	4.038376	1.368239	-0.032265
 991	4.9500e-01	0.4428	2.431958	0.000252	2.523985	0.855149	-0.020165
 992	4.9550e-01	0.3914	2.169807	0.000656	6.562362	2.223388	-0.052430
 993	4.9600e-01	0.3626	2.290800	-0.000303	-3.028782	-1.026179	0.024199
 994	4.9650e-01	0.3225	1.903623	0.000969	9.692103	3.283773	-0.077435
 995	4.9700e-01	0.2904	1.770530	0.000333	3.331661	1.128797	-0.026618
 996	4.9750e-01	0.2422	1.742299	0.000071	0.706716	0.239442	-0.005646
 997	4.9800e-01	0.2037	1.548710	0.000485	4.846052	1.641887	-0.038718
 998	4.9850e-01	0.1588	1.286558	0.000656	6.562362	2.223388	-0.052430
 999	4.9900e-01	0.1203	1.173632	0.000283	2.826863	0.957767	-0.022585
1000	4.9950e-01	0.0770	1.105069	0.000172	1.716310	0.581502	-0.013713
1001	5.0000e-01	0.0369	1.068771	0.000091	0.908635	0.307854	-0.007260
1002	5.0050e-01	0.0032	1.012308	0.000141	1.413432	0.478884	-0.011293
1003	5.0100e-01	-0.0273	0.790487	0.000555	5.552768	1.881329	-0.044364
1004	5.0150e-01	-0.0786	0.766289	0.000061	0.605756	0.205236	-0.004840
1005	5.0200e-01	-0.1123	0.822752	-0.000141	-1.413432	-0.478884	0.011293
1006	5.0250e-01	-0.1620	0.403310	0.001050	10.499779	3.557421	-0.083888
1007	5.0300e-01	-0.2021	0.375078	0.000071	0.706716	0.239442	-0.005646
1008	5.0350e-01	-0.2294	0.185523	0.000475	4.745092	1.607681	-0.037911
1009	5.0400e-01	-0.2647	0.145192	0.000101	1.009594	0.342060	-0.008066
1010	5.0450e-01	-0.3128	-0.100827	0.000616	6.158524	2.086564	-0.049204
1011	5.0500e-01	-0.3513	-0.080662	-0.000050	-0.504797	-0.171030	0.004033
1012	5.0550e-01	-0.3978	-0.423475	0.000858	8.581550	2.907508	-0.068563
1013	5.0600e-01	-0.4283	-0.346846	-0.000192	-1.918229	-0.649914	0.015326
1014	5.0650e-01	-0.4684	-0.496071	0.000374	3.735498	1.265621	-0.029845
1015	5.0700e-01	-0.5101	-0.758223	0.000656	6.562362	2.223388	-0.052430
1016	5.0750e-01	-0.5519	-0.532369	-0.000565	-5.653727	-1.915535	0.045171
1017	5.0800e-01	-0.5952	-1.000208	0.001171	11.711292	3.967893	-0.093568
1018	5.0850e-01	-0.6337	-1.080870	0.000202	2.019188	0.684119	-0.016132
1019	5.0900e-01	-0.6754	-1.181698	0.000252	2.523985	0.855149	-0.020165
1020	5.0950e-01	-0.7171	-1.375287	0.000485	4.846052	1.641887	-0.038718
1021	5.1000e-01	-0.7476	-1.609206	0.000586	5.855646	1.983946	-0.046784
1022	5.1050e-01	-0.7941	-1.548710	-0.000151	-1.514391	-0.513090	0.012099
1023	5.1100e-01	-0.8278	-1.669703	0.000303	3.028782	1.026179	-0.024199
1024	5.1150e-01	-0.8759	-1.903623	0.000586	5.855646	1.983946	-0.046784
1025	5.1200e-01	-0.9128	-2.052847	0.000374	3.735498	1.265621	-0.029845
1026	5.1250e-01	-0.9497	-2.089145	0.000091	0.908635	0.307854	-0.007260
1027	5.1300e-01	-0.9930	-2.153675	0.000162	1.615351	0.547296	-0.012906
1028	5.1350e-01	-1.0347	-2.323065	0.000424	4.240295	1.436651	-0.033878
1029	5.1400e-01	-1.0748	-2.504554	0.000454	4.543173	1.539269	-0.036298
1030	5.1450e-01	-1.1117	-2.782838	0.000697	6.966199	2.360212	-0.055657
1031	5.1500e-01	-1.1534	-2.798970	0.000040	0.403838	0.136824	-0.003226
1032	5.1550e-01	-1.1919	-2.952228	0.000384	3.836458	1.299827	-0.030652
1033	5.1600e-01	-1.2449	-2.948195	-0.000010	-0.100959	-0.034206	0.000807
1034	5.1650e-01	-1.2689	-3.036923	0.000222	2.221107	0.752531	-0.017746
1035	5.1700e-01	-1.3123	-3.319240	0.000707	7.067159	2.394418	-0.056463
1036	5.1750e-01	-1.3540	-3.363604	0.000111	1.110554	0.376266	-0.008873
1037	5.1800e-01	-1.4005	-3.420068	0.000141	1.413432	0.478884	-0.011293
1038	5.1850e-01	-1.4230	-3.645921	0.000565	5.653727	1.915535	-0.045171
1039	5.1900e-01	-1.4711	-3.835477	0.000475	4.745092	1.607681	-0.037911
1040	5.1950e-01	-1.5096	-3.815311	-0.000050	-0.504797	-0.171030	0.004033
1041	5.2000e-01	-1.5577	-4.194423	0.000949	9.490185	3.215362	-0.075822
1042	5.2050e-01	-1.5962	-4.279118	0.000212	2.120148	0.718325	-0.016939
1043	5.2100e-01	-1.6299	-4.295250	0.000040	0.403838	0.136824	-0.003226
1044	5.2150e-01	-1.6700	-4.327515	0.000081	0.807675	0.273648	-0.006453
1045	5.2200e-01	-1.7165	-4.500938	0.000434	4.341255	1.470857	-0.034685
1046	5.2250e-01	-1.7518	-4.888116	0.000969	9.692103	3.283773	-0.077435
1047	5.2300e-01	-1.7983	-4.863917	-0.000061	-0.605756	-0.205236	0.004840
1048	5.2350e-01	-1.8288	-4.863917	-0.000000	-0.000000	-0.000000	0.000000
1049	5.2400e-01	-1.8657	-5.134135	0.000676	6.764280	2.291800	-0.054044
1050	5.2450e-01	-1.9171	-5.279326	0.000363	3.634539	1.231415	-0.029038
1051	5.2500e-01	-1.9475	-5.303525	0.000061	0.605756	0.205236	-0.004840
1052	5.2550e-01	-1.9909	-5.581808	0.000697	6.966199	2.360212	-0.055657
1053	5.2600e-01	-2.0261	-5.662470	0.000202	2.019188	0.684119	-0.016132
1054	5.2650e-01	-2.0727	-5.743132	0.000202	2.019188	0.684119	-0.016132
1055	5.2700e-01	-2.1160	-5.884291	0.000353	3.533579	1.197209	-0.028232
1056	5.2750e-01	-2.1497	-5.964953	0.000202	2.019188	0.684119	-0.016132
1057	5.2800e-01	-2.1946	-6.146442	0.000454	4.543173	1.539269	-0.036298
1058	5.2850e-01	-2.2299	-6.299700	0.000384	3.836458	1.299827	-0.030652
1059	5.2900e-01	-2.2668	-6.327932	0.000071	0.706716	0.239442	-0.005646
1060	5.2950e-01	-2.3117	-6.348097	0.000050	0.504797	0.171030	-0.004033
1061	5.3000e-01	-2.3534	-6.590083	0.000606	6.057565	2.052358	-0.048397
1062	5.3050e-01	-2.3871	-6.690911	0.000252	2.523985	0.855149	-0.020165
1063	5.3100e-01	-2.4368	-6.807870	0.000293	2.927823	0.991973	-0.023392
1064	5.3150e-01	-2.4785	-6.896599	0.000222	2.221107	0.752531	-0.017746
1065	5.3200e-01	-2.5186	-7.154717	0.000646	6.461402	2.189182	-0.051624
1066	5.3250e-01	-2.5588	-7.299908	0.000363	3.634539	1.231415	-0.029038
1067	5.3300e-01	-2.5940	-7.150684	-0.000374	-3.735498	-1.265621	0.029845
1068	5.3350e-01	-2.6261	-7.384604	0.000586	5.855646	1.983946	-0.046784
1069	5.3400e-01	-2.6775	-7.521729	0.000343	3.432620	1.163003	-0.027425
1070	5.3450e-01	-2.7128	-7.832277	0.000777	7.773875	2.633860	-0.062110
1071	5.3500e-01	-2.7561	-7.836311	0.000010	0.100959	0.034206	-0.000807
1072	5.3550e-01	-2.7978	-7.945204	0.000273	2.725904	0.923561	-0.021779
1073	5.3600e-01	-2.8299	-8.215422	0.000676	6.764280	2.291800	-0.054044
1074	5.3650e-01	-2.8764	-8.437242	0.000555	5.552768	1.881329	-0.044364
1075	5.3700e-01	-2.9197	-8.340448	-0.000242	-2.423026	-0.820943	0.019359
1076	5.3750e-01	-2.9662	-8.509838	0.000424	4.240295	1.436651	-0.033878
1077	5.3800e-01	-3.0015	-8.630831	0.000303	3.028782	1.026179	-0.024199
1078	5.3850e-01	-3.0336	-8.751824	0.000303	3.028782	1.026179	-0.024199
1079	5.3900e-01	-3.0769	-8.872817	0.000303	3.028782	1.026179	-0.024199
1080	5.3950e-01	-3.1138	-9.171266	0.000747	7.470996	2.531242	-0.059690
1081	5.4000e-01	-3.1587	-9.231763	0.000151	1.514391	0.513090	-0.012099
1082	5.4050e-01	-3.2020	-9.348723	0.000293	2.927823	0.991973	-0.023392
1083	5.4100e-01	-3.2325	-9.401153	0.000131	1.312472	0.444678	-0.010486
1084	5.4150e-01	-3.2758	-9.510047	0.000273	2.725904	0.923561	-0.021779
1085	5.4200e-01	-3.3095	-9.824628	0.000787	7.874834	2.668066	-0.062916
1086	5.4250e-01	-3.3561	-9.679437	-0.000363	-3.634539	-1.231415	0.029038
1087	5.4300e-01	-3.3978	-9.885125	0.000515	5.148930	1.744505	-0.041138
1088	5.4350e-01	-3.4347	-10.127111	0.000606	6.057565	2.052358	-0.048397
1089	5.4400e-01	-3.4764	-10.300534	0.000434	4.341255	1.470857	-0.034685
1090	5.4450e-01	-3.4972	-10.344898	0.000111	1.110554	0.376266	-0.008873
1091	5.4500e-01	-3.5454	-10.635281	0.000727	7.269077	2.462830	-0.058077
1092	5.4550e-01	-3.5935	-10.715943	0.000202	2.019188	0.684119	-0.016132
1093	5.4600e-01	-3.6336	-10.853068	0.000343	3.432620	1.163003	-0.027425
1094	5.4650e-01	-3.6641	-10.836936	-0.000040	-0.403838	-0.136824	0.003226
1095	5.4700e-01	-3.7106	-11.123286	0.000717	7.168118	2.428624	-0.057270
1096	5.4750e-01	-3.7571	-11.107154	-0.000040	-0.403838	-0.136824	0.003226
1097	5.4800e-01	-3.7940	-11.034558	-0.000182	-1.817269	-0.615708	0.014519
1098	5.4850e-01	-3.8277	-11.385437	0.000878	8.783469	2.975920	-0.070176
1099	5.4900e-01	-3.8742	-11.445934	0.000151	1.514391	0.513090	-0.012099
1100	5.4950e-01	-3.9015	-11.655655	0.000525	5.249889	1.778711	-0.041944
1101	5.5000e-01	-3.9560	-11.603225	-0.000131	-1.312472	-0.444678	0.010486
1102	5.5050e-01	-3.9865	-11.925873	0.000808	8.076753	2.736478	-0.064530
1103	5.5100e-01	-4.0411	-11.946038	0.000050	0.504797	0.171030	-0.004033
1104	5.5150e-01	-4.0699	-12.026700	0.000202	2.019188	0.684119	-0.016132
1105	5.5200e-01	-4.1133	-12.341282	0.000787	7.874834	2.668066	-0.062916
1106	5.5250e-01	-4.1550	-12.446142	0.000262	2.624945	0.889355	-0.020972
1107	5.5300e-01	-4.1983	-12.603433	0.000394	3.937417	1.334033	-0.031458
1108	5.5350e-01	-4.2255	-12.788956	0.000464	4.644133	1.573475	-0.037105
1109	5.5400e-01	-4.2689	-12.776856	-0.000030	-0.302878	-0.102618	0.002420
1110	5.5450e-01	-4.3202	-13.107570	0.000828	8.278672	2.804890	-0.066143
1111	5.5500e-01	-4.3523	-13.022875	-0.000212	-2.120148	-0.718325	0.016939
1112	5.5550e-01	-4.4036	-13.107570	0.000212	2.120148	0.718325	-0.016939
1113	5.5600e-01	-4.4309	-13.317292	0.000525	5.249889	1.778711	-0.041944
1114	5.5650e-01	-4.4694	-13.276961	-0.000101	-1.009594	-0.342060	0.008066
1115	5.5700e-01	-4.5143	-13.547178	0.000676	6.764280	2.291800	-0.054044
1116	5.5750e-01	-4.5464	-13.575410	0.000071	0.706716	0.239442	-0.005646
1117	5.5800e-01	-4.5897	-13.728668	0.000384	3.836458	1.299827	-0.030652
1118	5.5850e-01	-4.6330	-13.934356	0.000515	5.148930	1.744505	-0.041138
1119	5.5900e-01	-4.6683	-14.232805	0.000747	7.470996	2.531242	-0.059690
1120	5.5950e-01	-4.7116	-14.273136	0.000101	1.009594	0.342060	-0.008066
1121	5.6000e-01	-4.7517	-14.257004	-0.000040	-0.403838	-0.136824	0.003226
1122	5.6050e-01	-4.7967	-14.373963	0.000293	2.927823	0.991973	-0.023392
1123	5.6100e-01	-4.8287	-14.591751	0.000545	5.451808	1.847123	-0.043557
1124	5.6150e-01	-4.8672	-14.547387	-0.000111	-1.110554	-0.376266	0.008873
1125	5.6200e-01	-4.9138	-14.898266	0.000878	8.783469	2.975920	-0.070176
1126	5.6250e-01	-4.9555	-14.894233	-0.000010	-0.100959	-0.034206	0.000807
1127	5.6300e-01	-4.9956	-15.172517	0.000697	6.966199	2.360212	-0.055657
1128	5.6350e-01	-5.0309	-15.374172	0.000505	5.047970	1.710299	-0.040331
1129	5.6400e-01	-5.0742	-15.345940	-0.000071	-0.706716	-0.239442	0.005646
1130	5.6450e-01	-5.1111	-15.446768	0.000252	2.523985	0.855149	-0.020165
1131	5.6500e-01	-5.1480	-15.515330	0.000172	1.716310	0.581502	-0.013713
1132	5.6550e-01	-5.1833	-15.801680	0.000717	7.168118	2.428624	-0.057270
1133	5.6600e-01	-5.2314	-15.809747	0.000020	0.201919	0.068412	-0.001613
1134	5.6650e-01	-5.2699	-15.878309	0.000172	1.716310	0.581502	-0.013713
1135	5.6700e-01	-5.3180	-16.144494	0.000666	6.663321	2.257594	-0.053237
1136	5.6750e-01	-5.3533	-16.164659	0.000050	0.504797	0.171030	-0.004033
1137	5.6800e-01	-5.3998	-16.305818	0.000353	3.533579	1.197209	-0.028232
1138	5.6850e-01	-5.4319	-16.656697	0.000878	8.783469	2.975920	-0.070176
1139	5.6900e-01	-5.4704	-16.749458	0.000232	2.322066	0.786737	-0.018552
1140	5.6950e-01	-5.5186	-16.781723	0.000081	0.807675	0.273648	-0.006453
1141	5.7000e-01	-5.5555	-16.878518	0.000242	2.423026	0.820943	-0.019359
1142	5.7050e-01	-5.5891	-16.902716	0.000061	0.605756	0.205236	-0.004840
1143	5.7100e-01	-5.6325	-17.124537	0.000555	5.552768	1.881329	-0.044364
1144	5.7150e-01	-5.6726	-17.354423	0.000575	5.754686	1.949741	-0.045977
1145	5.7200e-01	-5.7175	-17.338291	-0.000040	-0.403838	-0.136824	0.003226
1146	5.7250e-01	-5.7560	-17.503648	0.000414	4.139336	1.402445	-0.033071
1147	5.7300e-01	-5.7977	-17.733535	0.000575	5.754686	1.949741	-0.045977
1148	5.7350e-01	-5.8314	-17.495582	-0.000596	-5.956605	-2.018152	0.047591
1149	5.7400e-01	-5.8715	-17.862594	0.000919	9.187306	3.112744	-0.073402
1150	5.7450e-01	-5.9084	-17.971487	0.000273	2.725904	0.923561	-0.021779
1151	5.7500e-01	-5.9533	-18.108613	0.000343	3.432620	1.163003	-0.027425
1152	5.7550e-01	-5.9982	-18.189275	0.000202	2.019188	0.684119	-0.016132
1153	5.7600e-01	-6.0383	-18.338499	0.000374	3.735498	1.265621	-0.029845
1154	5.7650e-01	-6.0784	-18.511923	0.000434	4.341255	1.470857	-0.034685
1155	5.7700e-01	-6.1169	-18.600651	0.000222	2.221107	0.752531	-0.017746
1156	5.7750e-01	-6.1538	-18.838604	0.000596	5.956605	2.018152	-0.047591
1157	5.7800e-01	-6.1923	-18.806339	-0.000081	-0.807675	-0.273648	0.006453
1158	5.7850e-01	-6.2357	-19.044292	0.000596	5.956605	2.018152	-0.047591
1159	5.7900e-01	-6.2758	-19.020093	-0.000061	-0.605756	-0.205236	0.004840
1160	5.7950e-01	-6.3078	-19.326609	0.000767	7.672915	2.599654	-0.061303
1161	5.8000e-01	-6.3479	-19.475833	0.000374	3.735498	1.265621	-0.029845
1162	5.8050e-01	-6.3913	-19.403237	-0.000182	-1.817269	-0.615708	0.014519
1163	5.8100e-01	-6.4474	-19.721852	0.000798	7.975793	2.702272	-0.063723
1164	5.8150e-01	-6.4683	-19.689587	-0.000081	-0.807675	-0.273648	0.006453
1165	5.8200e-01	-6.5148	-19.766216	0.000192	1.918229	0.649914	-0.015326
1166	5.8250e-01	-6.5485	-20.036434	0.000676	6.764280	2.291800	-0.054044
1167	5.8300e-01	-6.5902	-20.234056	0.000495	4.947011	1.676093	-0.039524
1168	5.8350e-01	-6.6351	-20.298585	0.000162	1.615351	0.547296	-0.012906
1169	5.8400e-01	-6.6784	-20.435711	0.000343	3.432620	1.163003	-0.027425
1170	5.8450e-01	-6.7201	-20.310685	-0.000313	-3.129742	-1.060385	0.025005
1171	5.8500e-01	-6.7554	-20.649465	0.000848	8.480590	2.873302	-0.067756
1172	5.8550e-01	-6.7907	-20.689796	0.000101	1.009594	0.342060	-0.008066
1173	5.8600e-01	-6.8196	-20.859186	0.000424	4.240295	1.436651	-0.033878
1174	5.8650e-01	-6.8693	-21.016477	0.000394	3.937417	1.334033	-0.031458
1175	5.8700e-01	-6.9175	-20.814822	-0.000505	-5.047970	-1.710299	0.040331
1176	5.8750e-01	-6.9431	-21.214099	0.000999	9.994982	3.386391	-0.079855
1177	5.8800e-01	-6.9880	-21.331059	0.000293	2.927823	0.991973	-0.023392
1178	5.8850e-01	-7.0297	-21.540780	0.000525	5.249889	1.778711	-0.041944
1179	5.8900e-01	-7.0634	-21.633541	0.000232	2.322066	0.786737	-0.018552
1180	5.8950e-01	-7.1132	-21.653706	0.000050	0.504797	0.171030	-0.004033
1181	5.9000e-01	-7.1533	-21.750501	0.000242	2.423026	0.820943	-0.019359
1182	5.9050e-01	-7.1902	-22.016685	0.000666	6.663321	2.257594	-0.053237
1183	5.9100e-01	-7.2271	-21.992487	-0.000061	-0.605756	-0.205236	0.004840
1184	5.9150e-01	-7.2752	-22.194142	0.000505	5.047970	1.710299	-0.040331
1185	5.9200e-01	-7.3105	-22.238506	0.000111	1.110554	0.376266	-0.008873
1186	5.9250e-01	-7.3522	-22.395797	0.000394	3.937417	1.334033	-0.031458
1187	5.9300e-01	-7.3955	-22.565187	0.000424	4.240295	1.436651	-0.033878
1188	5.9350e-01	-7.4356	-22.702312	0.000343	3.432620	1.163003	-0.027425
1189	5.9400e-01	-7.4773	-22.924132	0.000555	5.552768	1.881329	-0.044364
1190	5.9450e-01	-7.5110	-22.948331	0.000061	0.605756	0.205236	-0.004840
1191	5.9500e-01	-7.5527	-23.125787	0.000444	4.442214	1.505063	-0.035491
1192	5.9550e-01	-7.5944	-23.194350	0.000172	1.716310	0.581502	-0.013713
1193	5.9600e-01	-7.6361	-23.339542	0.000363	3.634539	1.231415	-0.029038
1194	5.9650e-01	-7.6746	-23.496832	0.000394	3.937417	1.334033	-0.031458
1195	5.9700e-01	-7.7115	-23.742851	0.000616	6.158524	2.086564	-0.049204
1196	5.9750e-01	-7.7468	-23.815447	0.000182	1.817269	0.615708	-0.014519
1197	5.9800e-01	-7.7902	-23.896109	0.000202	2.019188	0.684119	-0.016132
1198	5.9850e-01	-7.8335	-23.964672	0.000172	1.716310	0.581502	-0.013713
1199	5.9900e-01	-7.8720	-24.089698	0.000313	3.129742	1.060385	-0.025005
1200	5.9950e-01	-7.9185	-24.198592	0.000273	2.725904	0.923561	-0.021779
1201	6.0000e-01	-7.9586	-24.319585	0.000303	3.028782	1.026179	-0.024199
1202	6.0050e-01	-7.9939	-24.517206	0.000495	4.947011	1.676093	-0.039524
1203	6.0100e-01	-8.0308	-24.601901	0.000212	2.120148	0.718325	-0.016939
1204	6.0150e-01	-8.0693	-24.779358	0.000444	4.442214	1.505063	-0.035491
1205	6.0200e-01	-8.1190	-24.787424	0.000020	0.201919	0.068412	-0.001613
1206	6.0250e-01	-8.1543	-24.876152	0.000222	2.221107	0.752531	-0.017746
1207	6.0300e-01	-8.1896	-25.206866	0.000828	8.278672	2.804890	-0.066143
1208	6.0350e-01	-8.2345	-25.267363	0.000151	1.514391	0.513090	-0.012099
1209	6.0400e-01	-8.2730	-25.299628	0.000081	0.807675	0.273648	-0.006453
1210	6.0450e-01	-8.3179	-25.368190	0.000172	1.716310	0.581502	-0.013713
1211	6.0500e-01	-8.3516	-25.622275	0.000636	6.360443	2.154976	-0.050817
1212	6.0550e-01	-8.3901	-25.626309	0.000010	0.100959	0.034206	-0.000807
1213	6.0600e-01	-8.4302	-25.662606	0.000091	0.908635	0.307854	-0.007260
1214	6.0650e-01	-8.4671	-26.057850	0.000989	9.894022	3.352185	-0.079049
1215	6.0700e-01	-8.5217	-26.174810	0.000293	2.927823	0.991973	-0.023392
1216	6.0750e-01	-8.5490	-26.295803	0.000303	3.028782	1.026179	-0.024199
1217	6.0800e-01	-8.5987	-26.295803	-0.000000	-0.000000	-0.000000	0.000000
1218	6.0850e-01	-8.6404	-26.239340	-0.000141	-1.413432	-0.478884	0.011293
1219	6.0900e-01	-8.6580	-26.586186	0.000868	8.682509	2.941714	-0.069369
1220	6.0950e-01	-8.7062	-26.707179	0.000303	3.028782	1.026179	-0.024199
1221	6.1000e-01	-8.7479	-26.727344	0.000050	0.504797	0.171030	-0.004033
1222	6.1050e-01	-8.7896	-26.977397	0.000626	6.259483	2.120770	-0.050010
1223	6.1100e-01	-8.8409	-26.912867	-0.000162	-1.615351	-0.547296	0.012906
1224	6.1150e-01	-8.8682	-27.170985	0.000646	6.461402	2.189182	-0.051624
1225	6.1200e-01	-8.9099	-27.404905	0.000586	5.855646	1.983946	-0.046784
1226	6.1250e-01	-8.9468	-27.287945	-0.000293	-2.927823	-0.991973	0.023392
1227	6.1300e-01	-8.9981	-27.667056	0.000949	9.490185	3.215362	-0.075822
1228	6.1350e-01	-9.0366	-27.840480	0.000434	4.341255	1.470857	-0.034685
1229	6.1400e-01	-9.0719	-27.731586	-0.000273	-2.725904	-0.923561	0.021779
1230	6.1450e-01	-9.1072	-27.832413	0.000252	2.523985	0.855149	-0.020165
1231	6.1500e-01	-9.1602	-27.929208	0.000242	2.423026	0.820943	-0.019359
1232	6.1550e-01	-9.1971	-28.215558	0.000717	7.168118	2.428624	-0.057270
1233	6.1600e-01	-9.2356	-28.255889	0.000101	1.009594	0.342060	-0.008066
1234	6.1650e-01	-9.2660	-28.526106	0.000676	6.764280	2.291800	-0.054044
1235	6.1700e-01	-9.3126	-28.485775	-0.000101	-1.009594	-0.342060	0.008066
1236	6.1750e-01	-9.3543	-28.639033	0.000384	3.836458	1.299827	-0.030652
1237	6.1800e-01	-9.3912	-28.723728	0.000212	2.120148	0.718325	-0.016939
1238	6.1850e-01	-9.4377	-29.074608	0.000878	8.783469	2.975920	-0.070176
1239	6.1900e-01	-9.4778	-28.969747	-0.000262	-2.624945	-0.889355	0.020972
1240	6.1950e-01	-9.5147	-29.127038	0.000394	3.937417	1.334033	-0.031458
1241	6.2000e-01	-9.5628	-29.159303	0.000081	0.807675	0.273648	-0.006453
1242	6.2050e-01	-9.5917	-29.433554	0.000687	6.865240	2.326006	-0.054850
1243	6.2100e-01	-9.6270	-29.619076	0.000464	4.644133	1.573475	-0.037105
1244	6.2150e-01	-9.6783	-29.586811	-0.000081	-0.807675	-0.273648	0.006453
1245	6.2200e-01	-9.7168	-29.631175	0.000111	1.110554	0.376266	-0.008873
1246	6.2250e-01	-9.7521	-30.062717	0.001080	10.802657	3.660039	-0.086308
1247	6.2300e-01	-9.7987	-30.070783	0.000020	0.201919	0.068412	-0.001613
1248	6.2350e-01	-9.8372	-30.135313	0.000162	1.615351	0.547296	-0.012906
1249	6.2400e-01	-9.8724	-30.155478	0.000050	0.504797	0.171030	-0.004033
1250	6.2450e-01	-9.9126	-30.268405	0.000283	2.826863	0.957767	-0.022585
1251	6.2500e-01	-9.9511	-30.506358	0.000596	5.956605	2.018152	-0.047591
1252	6.2550e-01	-9.9847	-30.570887	0.000162	1.615351	0.547296	-0.012906
1253	6.2600e-01	-10.0329	-30.804807	0.000586	5.855646	1.983946	-0.046784
1254	6.2650e-01	-10.0778	-30.990330	0.000464	4.644133	1.573475	-0.037105
1255	6.2700e-01	-10.1035	-30.966131	-0.000061	-0.605756	-0.205236	0.004840
1256	6.2750e-01	-10.1532	-30.982263	0.000040	0.403838	0.136824	-0.003226
1257	6.2800e-01	-10.1981	-31.252481	0.000676	6.764280	2.291800	-0.054044
1258	6.2850e-01	-10.2350	-31.486401	0.000586	5.855646	1.983946	-0.046784
1259	6.2900e-01	-10.2735	-31.308944	-0.000444	-4.442214	-1.505063	0.035491
1260	6.2950e-01	-10.3072	-31.615460	0.000767	7.672915	2.599654	-0.061303
1261	6.3000e-01	-10.3569	-31.696122	0.000202	2.019188	0.684119	-0.016132
1262	6.3050e-01	-10.3986	-31.873578	0.000444	4.442214	1.505063	-0.035491
1263	6.3100e-01	-10.4339	-31.849380	-0.000061	-0.605756	-0.205236	0.004840
1264	6.3150e-01	-10.4821	-32.079266	0.000575	5.754686	1.949741	-0.045977
1265	6.3200e-01	-10.5157	-32.244623	0.000414	4.139336	1.402445	-0.033071
1266	6.3250e-01	-10.5542	-32.385782	0.000353	3.533579	1.197209	-0.028232
1267	6.3300e-01	-10.5879	-32.381749	-0.000010	-0.100959	-0.034206	0.000807
1268	6.3350e-01	-10.6345	-32.623735	0.000606	6.057565	2.052358	-0.048397
1269	6.3400e-01	-10.6810	-32.623735	-0.000000	-0.000000	-0.000000	0.000000
1270	6.3450e-01	-10.7179	-32.720529	0.000242	2.423026	0.820943	-0.019359
1271	6.3500e-01	-10.7452	-33.018978	0.000747	7.470996	2.531242	-0.059690
1272	6.3550e-01	-10.7949	-33.063342	0.000111	1.110554	0.376266	-0.008873
1273	6.3600e-01	-10.8302	-33.176269	0.000283	2.826863	0.957767	-0.022585
1274	6.3650e-01	-10.8719	-33.220633	0.000111	1.110554	0.376266	-0.008873
1275	6.3700e-01	-10.9184	-33.333560	0.000283	2.826863	0.957767	-0.022585
1276	6.3750e-01	-10.9489	-33.567480	0.000586	5.855646	1.983946	-0.046784
1277	6.3800e-01	-10.9906	-33.728804	0.000404	4.038376	1.368239	-0.032265
1278	6.3850e-01	-11.0419	-33.789300	0.000151	1.514391	0.513090	-0.012099
1279	6.3900e-01	-11.0708	-33.753002	-0.000091	-0.908635	-0.307854	0.007260
1280	6.3950e-01	-11.1077	-33.938525	0.000464	4.644133	1.573475	-0.037105
1281	6.4000e-01	-11.1510	-34.228908	0.000727	7.269077	2.462830	-0.058077
1282	6.4050e-01	-11.1927	-34.317636	0.000222	2.221107	0.752531	-0.017746
1283	6.4100e-01	-11.2312	-34.353934	0.000091	0.908635	0.307854	-0.007260
1284	6.4150e-01	-11.2697	-34.386199	0.000081	0.807675	0.273648	-0.006453
1285	6.4200e-01	-11.3179	-34.579787	0.000485	4.846052	1.641887	-0.038718
1286	6.4250e-01	-11.3516	-34.777409	0.000495	4.947011	1.676093	-0.039524
1287	6.4300e-01	-11.3965	-34.712880	-0.000162	-1.615351	-0.547296	0.012906
1288	6.4350e-01	-11.4382	-34.902435	0.000475	4.745092	1.607681	-0.037911
1289	6.4400e-01	-11.4751	-35.083925	0.000454	4.543173	1.539269	-0.036298
1290	6.4450e-01	-11.5072	-35.229116	0.000363	3.634539	1.231415	-0.029038
1291	6.4500e-01	-11.5505	-35.354142	0.000313	3.129742	1.060385	-0.025005
1292	6.4550e-01	-11.5954	-35.378341	0.000061	0.605756	0.205236	-0.004840
1293	6.4600e-01	-11.6339	-35.668724	0.000727	7.269077	2.462830	-0.058077
1294	6.4650e-01	-11.6692	-35.749386	0.000202	2.019188	0.684119	-0.016132
1295	6.4700e-01	-11.7125	-35.793750	0.000111	1.110554	0.376266	-0.008873
1296	6.4750e-01	-11.7526	-35.995405	0.000505	5.047970	1.710299	-0.040331
1297	6.4800e-01	-11.8007	-36.128497	0.000333	3.331661	1.128797	-0.026618
1298	6.4850e-01	-11.8360	-36.136563	0.000020	0.201919	0.068412	-0.001613
1299	6.4900e-01	-11.8729	-36.293854	0.000394	3.937417	1.334033	-0.031458
1300	6.4950e-01	-11.9162	-36.507609	0.000535	5.350849	1.812917	-0.042751
1301	6.5000e-01	-11.9483	-36.418880	-0.000222	-2.221107	-0.752531	0.017746
1302	6.5050e-01	-12.0045	-36.511642	0.000232	2.322066	0.786737	-0.018552
1303	6.5100e-01	-12.0334	-36.576171	0.000162	1.615351	0.547296	-0.012906
1304	6.5150e-01	-12.0735	-36.927051	0.000878	8.783469	2.975920	-0.070176
1305	6.5200e-01	-12.1136	-37.060143	0.000333	3.331661	1.128797	-0.026618
1306	6.5250e-01	-12.1521	-37.044011	-0.000040	-0.403838	-0.136824	0.003226
1307	6.5300e-01	-12.1986	-37.193235	0.000374	3.735498	1.265621	-0.029845
1308	6.5350e-01	-12.2371	-37.294063	0.000252	2.523985	0.855149	-0.020165
1309	6.5400e-01	-12.2724	-37.342460	0.000121	1.211513	0.410472	-0.009679
1310	6.5450e-01	-12.3109	-37.499751	0.000394	3.937417	1.334033	-0.031458
1311	6.5500e-01	-12.3574	-37.713505	0.000535	5.350849	1.812917	-0.042751
1312	6.5550e-01	-12.3911	-37.677207	-0.000091	-0.908635	-0.307854	0.007260
1313	6.5600e-01	-12.4312	-37.983723	0.000767	7.672915	2.599654	-0.061303
1314	6.5650e-01	-12.4697	-38.153113	0.000424	4.240295	1.436651	-0.033878
1315	6.5700e-01	-12.5082	-38.233775	0.000202	2.019188	0.684119	-0.016132
1316	6.5750e-01	-12.5467	-38.266040	0.000081	0.807675	0.273648	-0.006453
1317	6.5800e-01	-12.5884	-38.576588	0.000777	7.773875	2.633860	-0.062110
1318	6.5850e-01	-12.6398	-38.423330	-0.000384	-3.836458	-1.299827	0.030652
1319	6.5900e-01	-12.6686	-38.508025	0.000212	2.120148	0.718325	-0.016939
1320	6.5950e-01	-12.7087	-38.806475	0.000747	7.470996	2.531242	-0.059690
1321	6.6000e-01	-12.7601	-38.975865	0.000424	4.240295	1.436651	-0.033878
1322	6.6050e-01	-12.7938	-39.036361	0.000151	1.514391	0.513090	-0.012099
1323	6.6100e-01	-12.8419	-39.068626	0.000081	0.807675	0.273648	-0.006453
1324	6.6150e-01	-12.8740	-39.375142	0.000767	7.672915	2.599654	-0.061303
1325	6.6200e-01	-12.9109	-39.524366	0.000374	3.735498	1.265621	-0.029845
1326	6.6250e-01	-12.9526	-39.467903	-0.000141	-1.413432	-0.478884	0.011293
1327	6.6300e-01	-12.9847	-39.415473	-0.000131	-1.312472	-0.444678	0.010486
1328	6.6350e-01	-13.0248	-39.738121	0.000808	8.076753	2.736478	-0.064530
1329	6.6400e-01	-13.0633	-39.726021	-0.000030	-0.302878	-0.102618	0.002420
1330	6.6450e-01	-13.1114	-39.834915	0.000273	2.725904	0.923561	-0.021779
1331	6.6500e-01	-13.1451	-40.072868	0.000596	5.956605	2.018152	-0.047591
1332	6.6550e-01	-13.1900	-40.161596	0.000222	2.221107	0.752531	-0.017746
1333	6.6600e-01	-13.2269	-40.153530	-0.000020	-0.201919	-0.068412	0.001613
1334	6.6650e-01	-13.2702	-40.318887	0.000414	4.139336	1.402445	-0.033071
1335	6.6700e-01	-13.3183	-40.447946	0.000323	3.230701	1.094591	-0.025812
1336	6.6750e-01	-13.3568	-40.532641	0.000212	2.120148	0.718325	-0.016939
1337	6.6800e-01	-13.4018	-40.673799	0.000353	3.533579	1.197209	-0.028232
1338	6.6850e-01	-13.4387	-40.948050	0.000687	6.865240	2.326006	-0.054850
1339	6.6900e-01	-13.4756	-41.101308	0.000384	3.836458	1.299827	-0.030652
1340	6.6950e-01	-13.5221	-41.121473	0.000050	0.504797	0.171030	-0.004033
1341	6.7000e-01	-13.5526	-41.210202	0.000222	2.221107	0.752531	-0.017746
1342	6.7050e-01	-13.5959	-41.306996	0.000242	2.423026	0.820943	-0.019359
1343	6.7100e-01	-13.6199	-41.500585	0.000485	4.846052	1.641887	-0.038718
1344	6.7150e-01	-13.6761	-41.653842	0.000384	3.836458	1.299827	-0.030652
1345	6.7200e-01	-13.7146	-41.823233	0.000424	4.240295	1.436651	-0.033878
1346	6.7250e-01	-13.7563	-41.782902	-0.000101	-1.009594	-0.342060	0.008066
1347	6.7300e-01	-13.7980	-41.928093	0.000363	3.634539	1.231415	-0.029038
1348	6.7350e-01	-13.8333	-42.053119	0.000313	3.129742	1.060385	-0.025005
1349	6.7400e-01	-13.8734	-42.065218	0.000030	0.302878	0.102618	-0.002420
1350	6.7450e-01	-13.9087	-42.299138	0.000586	5.855646	1.983946	-0.046784
1351	6.7500e-01	-13.9568	-42.387866	0.000222	2.221107	0.752531	-0.017746
1352	6.7550e-01	-13.9889	-42.460462	0.000182	1.817269	0.615708	-0.014519
1353	6.7600e-01	-14.0386	-42.613720	0.000384	3.836458	1.299827	-0.030652
1354	6.7650e-01	-14.0675	-42.662117	0.000121	1.211513	0.410472	-0.009679
1355	6.7700e-01	-14.0980	-42.992831	0.000828	8.278672	2.804890	-0.066143
1356	6.7750e-01	-14.1525	-43.021063	0.000071	0.706716	0.239442	-0.005646
1357	6.7800e-01	-14.1878	-43.194486	0.000434	4.341255	1.470857	-0.034685
1358	6.7850e-01	-14.2279	-43.138023	-0.000141	-1.413432	-0.478884	0.011293
1359	6.7900e-01	-14.2761	-43.371942	0.000586	5.855646	1.983946	-0.046784
1360	6.7950e-01	-14.3114	-43.533266	0.000404	4.038376	1.368239	-0.032265
1361	6.8000e-01	-14.3531	-43.476803	-0.000141	-1.413432	-0.478884	0.011293
1362	6.8050e-01	-14.3948	-43.694590	0.000545	5.451808	1.847123	-0.043557
1363	6.8100e-01	-14.4349	-43.654259	-0.000101	-1.009594	-0.342060	0.008066
1364	6.8150e-01	-14.4702	-43.888179	0.000586	5.855646	1.983946	-0.046784
1365	6.8200e-01	-14.5119	-44.013205	0.000313	3.129742	1.060385	-0.025005
1366	6.8250e-01	-14.5536	-44.118066	0.000262	2.624945	0.889355	-0.020972
1367	6.8300e-01	-14.6001	-44.218893	0.000252	2.523985	0.855149	-0.020165
1368	6.8350e-01	-14.6434	-44.315687	0.000242	2.423026	0.820943	-0.019359
1369	6.8400e-01	-14.6723	-44.299555	-0.000040	-0.403838	-0.136824	0.003226
1370	6.8450e-01	-14.7108	-44.529442	0.000575	5.754686	1.949741	-0.045977
1371	6.8500e-01	-14.7541	-44.686733	0.000394	3.937417	1.334033	-0.031458
1372	6.8550e-01	-14.8023	-44.932752	0.000616	6.158524	2.086564	-0.049204
1373	6.8600e-01	-14.8247	-44.799659	-0.000333	-3.331661	-1.128797	0.026618
1374	6.8650e-01	-14.8728	-44.973083	0.000434	4.341255	1.470857	-0.034685
1375	6.8700e-01	-14.9146	-45.065844	0.000232	2.322066	0.786737	-0.018552
1376	6.8750e-01	-14.9547	-45.271532	0.000515	5.148930	1.744505	-0.041138
1377	6.8800e-01	-14.9883	-45.303797	0.000081	0.807675	0.273648	-0.006453
1378	6.8850e-01	-15.0301	-45.396558	0.000232	2.322066	0.786737	-0.018552
1379	6.8900e-01	-15.0686	-45.634511	0.000596	5.956605	2.018152	-0.047591
1380	6.8950e-01	-15.1151	-45.690974	0.000141	1.413432	0.478884	-0.011293
1381	6.9000e-01	-15.1536	-45.820033	0.000323	3.230701	1.094591	-0.025812
1382	6.9050e-01	-15.1921	-45.969258	0.000374	3.735498	1.265621	-0.029845
1383	6.9100e-01	-15.2386	-45.989423	0.000050	0.504797	0.171030	-0.004033
1384	6.9150e-01	-15.2851	-46.110416	0.000303	3.028782	1.026179	-0.024199
1385	6.9200e-01	-15.3124	-46.275773	0.000414	4.139336	1.402445	-0.033071
1386	6.9250e-01	-15.3445	-46.485494	0.000525	5.249889	1.778711	-0.041944
1387	6.9300e-01	-15.3974	-46.525825	0.000101	1.009594	0.342060	-0.008066
1388	6.9350e-01	-15.4327	-46.602454	0.000192	1.918229	0.649914	-0.015326
1389	6.9400e-01	-15.4712	-46.844440	0.000606	6.057565	2.052358	-0.048397
1390	6.9450e-01	-15.5081	-46.929135	0.000212	2.120148	0.718325	-0.016939
1391	6.9500e-01	-15.5627	-47.021897	0.000232	2.322066	0.786737	-0.018552
1392	6.9550e-01	-15.5931	-47.050128	0.000071	0.706716	0.239442	-0.005646
1393	6.9600e-01	-15.6461	-47.292114	0.000606	6.057565	2.052358	-0.048397
1394	6.9650e-01	-15.6685	-47.171121	-0.000303	-3.028782	-1.026179	0.024199
1395	6.9700e-01	-15.6990	-47.485703	0.000787	7.874834	2.668066	-0.062916
1396	6.9750e-01	-15.7536	-47.538133	0.000131	1.312472	0.444678	-0.010486
1397	6.9800e-01	-15.7937	-47.812384	0.000687	6.865240	2.326006	-0.054850
1398	6.9850e-01	-15.8370	-47.711556	-0.000252	-2.523985	-0.855149	0.020165
1399	6.9900e-01	-15.8723	-48.038237	0.000818	8.177712	2.770684	-0.065336
1400	6.9950e-01	-15.9156	-47.965642	-0.000182	-1.817269	-0.615708	0.014519
1401	7.0000e-01	-15.9525	-48.074535	0.000273	2.725904	0.923561	-0.021779
1402	7.0050e-01	-15.9878	-48.155197	0.000202	2.019188	0.684119	-0.016132
1403	7.0100e-01	-16.0359	-48.340720	0.000464	4.644133	1.573475	-0.037105
1404	7.0150e-01	-16.0616	-48.558507	0.000545	5.451808	1.847123	-0.043557
1405	7.0200e-01	-16.1113	-48.739997	0.000454	4.543173	1.539269	-0.036298
1406	7.0250e-01	-16.1514	-48.699666	-0.000101	-1.009594	-0.342060	0.008066
1407	7.0300e-01	-16.1979	-48.885188	0.000464	4.644133	1.573475	-0.037105
1408	7.0350e-01	-16.2348	-48.824692	-0.000151	-1.514391	-0.513090	0.012099
1409	7.0400e-01	-16.2765	-49.042479	0.000545	5.451808	1.847123	-0.043557
1410	7.0450e-01	-16.3231	-48.957784	-0.000212	-2.120148	-0.718325	0.016939
1411	7.0500e-01	-16.3519	-49.135240	0.000444	4.442214	1.505063	-0.035491
1412	7.0550e-01	-16.3953	-49.143306	0.000020	0.201919	0.068412	-0.001613
1413	7.0600e-01	-16.4338	-49.244134	0.000252	2.523985	0.855149	-0.020165
1414	7.0650e-01	-16.4707	-49.619212	0.000939	9.389225	3.181156	-0.075016
1415	7.0700e-01	-16.5076	-49.667609	0.000121	1.211513	0.410472	-0.009679
1416	7.0750e-01	-16.5509	-50.002356	0.000838	8.379631	2.839096	-0.066949
1417	7.0800e-01	-16.5846	-49.841033	-0.000404	-4.038376	-1.368239	0.032265
1418	7.0850e-01	-16.6295	-49.998323	0.000394	3.937417	1.334033	-0.031458
1419	7.0900e-01	-16.6712	-50.034621	0.000091	0.908635	0.307854	-0.007260
1420	7.0950e-01	-16.7161	-50.066886	0.000081	0.807675	0.273648	-0.006453
1421	7.1000e-01	-16.7530	-50.349203	0.000707	7.067159	2.394418	-0.056463
1422	7.1050e-01	-16.7883	-50.433898	0.000212	2.120148	0.718325	-0.016939
1423	7.1100e-01	-16.8236	-50.700083	0.000666	6.663321	2.257594	-0.053237
1424	7.1150e-01	-16.8733	-50.792844	0.000232	2.322066	0.786737	-0.018552
1425	7.1200e-01	-16.9102	-50.829142	0.000091	0.908635	0.307854	-0.007260
1426	7.1250e-01	-16.9567	-50.897704	0.000172	1.716310	0.581502	-0.013713
1427	7.1300e-01	-16.9936	-51.054995	0.000394	3.937417	1.334033	-0.031458
1428	7.1350e-01	-17.0386	-51.143723	0.000222	2.221107	0.752531	-0.017746
1429	7.1400e-01	-17.0803	-51.163889	0.000050	0.504797	0.171030	-0.004033
1430	7.1450e-01	-17.1107	-51.296981	0.000333	3.331661	1.128797	-0.026618
1431	7.1500e-01	-17.1557	-51.309080	0.000030	0.302878	0.102618	-0.002420
1432	7.1550e-01	-17.1942	-51.567199	0.000646	6.461402	2.189182	-0.051624
1433	7.1600e-01	-17.2230	-51.764821	0.000495	4.947011	1.676093	-0.039524
1434	7.1650e-01	-17.2648	-51.926145	0.000404	4.038376	1.368239	-0.032265
1435	7.1700e-01	-17.3161	-52.006806	0.000202	2.019188	0.684119	-0.016132
1436	7.1750e-01	-17.3466	-51.986641	-0.000050	-0.504797	-0.171030	0.004033
1437	7.1800e-01	-17.3899	-52.071336	0.000212	2.120148	0.718325	-0.016939
1438	7.1850e-01	-17.4380	-52.381885	0.000777	7.773875	2.633860	-0.062110
1439	7.1900e-01	-17.4749	-52.559341	0.000444	4.442214	1.505063	-0.035491
1440	7.1950e-01	-17.5086	-52.644036	0.000212	2.120148	0.718325	-0.016939
1441	7.2000e-01	-17.5535	-52.595639	-0.000121	-1.211513	-0.410472	0.009679
1442	7.2050e-01	-17.5968	-52.781161	0.000464	4.644133	1.573475	-0.037105
1443	7.2100e-01	-17.6289	-52.781161	-0.000000	-0.000000	-0.000000	0.000000
1444	7.2150e-01	-17.6690	-52.998949	0.000545	5.451808	1.847123	-0.043557
1445	7.2200e-01	-17.7155	-53.039280	0.000101	1.009594	0.342060	-0.008066
1446	7.2250e-01	-17.7621	-53.152206	0.000283	2.826863	0.957767	-0.022585
1447	7.2300e-01	-17.8054	-53.168339	0.000040	0.403838	0.136824	-0.003226
1448	7.2350e-01	-17.8262	-53.341762	0.000434	4.341255	1.470857	-0.034685
1449	7.2400e-01	-17.8695	-53.378060	0.000091	0.908635	0.307854	-0.007260
1450	7.2450e-01	-17.9129	-53.587781	0.000525	5.249889	1.778711	-0.041944
1451	7.2500e-01	-17.9642	-53.632145	0.000111	1.110554	0.376266	-0.008873
1452	7.2550e-01	-17.9883	-53.962859	0.000828	8.278672	2.804890	-0.066143
1453	7.2600e-01	-18.0300	-53.853966	-0.000273	-2.725904	-0.923561	0.021779
1454	7.2650e-01	-18.0829	-54.011256	0.000394	3.937417	1.334033	-0.031458
1455	7.2700e-01	-18.1150	-53.978992	-0.000081	-0.807675	-0.273648	0.006453
1456	7.2750e-01	-18.1583	-54.245176	0.000666	6.663321	2.257594	-0.053237
1457	7.2800e-01	-18.1968	-54.370202	0.000313	3.129742	1.060385	-0.025005
1458	7.2850e-01	-18.2289	-54.571857	0.000505	5.047970	1.710299	-0.040331
1459	7.2900e-01	-18.2722	-54.600089	0.000071	0.706716	0.239442	-0.005646
1460	7.2950e-01	-18.3123	-54.430699	-0.000424	-4.240295	-1.436651	0.033878
1461	7.3000e-01	-18.3460	-54.745280	0.000787	7.874834	2.668066	-0.062916
1462	7.3050e-01	-18.3861	-54.971134	0.000565	5.653727	1.915535	-0.045171
1463	7.3100e-01	-18.4246	-54.950968	-0.000050	-0.504797	-0.171030	0.004033
1464	7.3150e-01	-18.4759	-55.172789	0.000555	5.552768	1.881329	-0.044364
1465	7.3200e-01	-18.5128	-55.217153	0.000111	1.110554	0.376266	-0.008873
1466	7.3250e-01	-18.5594	-55.285716	0.000172	1.716310	0.581502	-0.013713
1467	7.3300e-01	-18.5915	-55.511569	0.000565	5.653727	1.915535	-0.045171
1468	7.3350e-01	-18.6396	-55.390576	-0.000303	-3.028782	-1.026179	0.024199
1469	7.3400e-01	-18.6765	-55.753555	0.000909	9.086347	3.078538	-0.072596
1470	7.3450e-01	-18.7086	-55.910846	0.000394	3.937417	1.334033	-0.031458
1471	7.3500e-01	-18.7615	-56.003607	0.000232	2.322066	0.786737	-0.018552
1472	7.3550e-01	-18.7936	-56.043938	0.000101	1.009594	0.342060	-0.008066
1473	7.3600e-01	-18.8353	-56.100402	0.000141	1.413432	0.478884	-0.011293
1474	7.3650e-01	-18.8690	-56.120567	0.000050	0.504797	0.171030	-0.004033
1475	7.3700e-01	-18.9027	-56.427083	0.000767	7.672915	2.599654	-0.061303
1476	7.3750e-01	-18.9588	-56.431116	0.000010	0.100959	0.034206	-0.000807
1477	7.3800e-01	-18.9973	-56.410950	-0.000050	-0.504797	-0.171030	0.004033
1478	7.3850e-01	-19.0342	-56.656969	0.000616	6.158524	2.086564	-0.049204
1479	7.3900e-01	-19.0695	-56.701333	0.000111	1.110554	0.376266	-0.008873
1480	7.3950e-01	-19.1160	-56.967518	0.000666	6.663321	2.257594	-0.053237
1481	7.4000e-01	-19.1561	-57.165140	0.000495	4.947011	1.676093	-0.039524
1482	7.4050e-01	-19.2011	-57.056246	-0.000273	-2.725904	-0.923561	0.021779
1483	7.4100e-01	-19.2364	-57.157073	0.000252	2.523985	0.855149	-0.020165
1484	7.4150e-01	-19.2668	-57.346629	0.000475	4.745092	1.607681	-0.037911
1485	7.4200e-01	-19.3102	-57.487787	0.000353	3.533579	1.197209	-0.028232
1486	7.4250e-01	-19.3454	-57.665244	0.000444	4.442214	1.505063	-0.035491
1487	7.4300e-01	-19.4016	-57.584582	-0.000202	-2.019188	-0.684119	0.016132
1488	7.4350e-01	-19.4305	-57.649111	0.000162	1.615351	0.547296	-0.012906
1489	7.4400e-01	-19.4706	-57.923362	0.000687	6.865240	2.326006	-0.054850
1490	7.4450e-01	-19.5091	-57.951594	0.000071	0.706716	0.239442	-0.005646
1491	7.4500e-01	-19.5428	-58.092752	0.000353	3.533579	1.197209	-0.028232
1492	7.4550e-01	-19.5989	-58.104852	0.000030	0.302878	0.102618	-0.002420
1493	7.4600e-01	-19.6326	-58.217778	0.000283	2.826863	0.957767	-0.022585
1494	7.4650e-01	-19.6775	-58.286341	0.000172	1.716310	0.581502	-0.013713
1495	7.4700e-01	-19.7096	-58.633187	0.000868	8.682509	2.941714	-0.069369
1496	7.4750e-01	-19.7609	-58.633187	-0.000000	-0.000000	-0.000000	0.000000
1497	7.4800e-01	-19.7914	-58.717883	0.000212	2.120148	0.718325	-0.016939
1498	7.4850e-01	-19.8299	-58.693684	-0.000061	-0.605756	-0.205236	0.004840
1499	7.4900e-01	-19.8748	-59.028431	0.000838	8.379631	2.839096	-0.066949
1500	7.4950e-01	-19.9133	-58.963902	-0.000162	-1.615351	-0.547296	0.012906
1501	7.5000e-01	-19.9631	-59.068762	0.000262	2.624945	0.889355	-0.020972
1502	7.5050e-01	-19.9551	-59.068762	0.000000	0.000000	0.000000	0.000000
1503	7.5100e-01	-19.9326	-59.141358	-0.000182	-1.817269	-0.615708	-0.014519
1504	7.5150e-01	-19.8941	-59.092961	0.000121	1.211513	0.410472	0.009679
1505	7.5200e-01	-19.8572	-59.020365	0.000182	1.817269	0.615708	0.014519
1506	7.5250e-01	-19.8235	-58.895339	0.000313	3.129742	1.060385	0.025005
1507	7.5300e-01	-19.7818	-58.891306	0.000010	0.100959	0.034206	0.000807
1508	7.5350e-01	-19.7353	-58.923571	-0.000081	-0.807675	-0.273648	-0.006453
1509	7.5400e-01	-19.6952	-58.742081	0.000454	4.543173	1.539269	0.036298
1510	7.5450e-01	-19.6567	-58.826776	-0.000212	-2.120148	-0.718325	-0.016939
1511	7.5500e-01	-19.6069	-58.838876	-0.000030	-0.302878	-0.102618	-0.002420
1512	7.5550e-01	-19.5781	-58.524294	0.000787	7.874834	2.668066	0.062916
1513	7.5600e-01	-19.5299	-58.435566	0.000222	2.221107	0.752531	0.017746
1514	7.5650e-01	-19.4978	-58.487996	-0.000131	-1.312472	-0.444678	-0.010486
1515	7.5700e-01	-19.4513	-58.459764	0.000071	0.706716	0.239442	0.005646
1516	7.5750e-01	-19.4128	-58.375069	0.000212	2.120148	0.718325	0.016939
1517	7.5800e-01	-19.3791	-58.435566	-0.000151	-1.514391	-0.513090	-0.012099
1518	7.5850e-01	-19.3358	-58.032256	0.001010	10.095941	3.420597	0.080662
1519	7.5900e-01	-19.2973	-58.004024	0.000071	0.706716	0.239442	0.005646
1520	7.5950e-01	-19.2556	-58.064521	-0.000151	-1.514391	-0.513090	-0.012099
1521	7.6000e-01	-19.2091	-58.048388	0.000040	0.403838	0.136824	0.003226
1522	7.6050e-01	-19.1754	-57.943528	0.000262	2.624945	0.889355	0.020972
1523	7.6100e-01	-19.1337	-57.701542	0.000606	6.057565	2.052358	0.048397
1524	7.6150e-01	-19.0952	-57.745906	-0.000111	-1.110554	-0.376266	-0.008873
1525	7.6200e-01	-19.0599	-57.701542	0.000111	1.110554	0.376266	0.008873
1526	7.6250e-01	-19.0230	-57.649111	0.000131	1.312472	0.444678	0.010486
1527	7.6300e-01	-18.9813	-57.346629	0.000757	7.571956	2.565448	0.060496
1528	7.6350e-01	-18.9364	-57.407126	-0.000151	-1.514391	-0.513090	-0.012099
1529	7.6400e-01	-18.8995	-57.338563	0.000172	1.716310	0.581502	0.013713
1530	7.6450e-01	-18.8594	-57.165140	0.000434	4.341255	1.470857	0.034685
1531	7.6500e-01	-18.8128	-57.265967	-0.000252	-2.523985	-0.855149	-0.020165
1532	7.6550e-01	-18.7791	-57.157073	0.000273	2.725904	0.923561	0.021779
1533	7.6600e-01	-18.7390	-56.846525	0.000777	7.773875	2.633860	0.062110
1534	7.6650e-01	-18.6941	-56.874756	-0.000071	-0.706716	-0.239442	-0.005646
1535	7.6700e-01	-18.6524	-56.915087	-0.000101	-1.009594	-0.342060	-0.008066
1536	7.6750e-01	-18.6171	-56.890889	0.000061	0.605756	0.205236	0.004840
1537	7.6800e-01	-18.5738	-56.753764	0.000343	3.432620	1.163003	0.027425
1538	7.6850e-01	-18.5289	-56.632771	0.000303	3.028782	1.026179	0.024199
1539	7.6900e-01	-18.4888	-56.717466	-0.000212	-2.120148	-0.718325	-0.016939
1540	7.6950e-01	-18.4583	-56.402884	0.000787	7.874834	2.668066	0.062916
1541	7.7000e-01	-18.4198	-56.370619	0.000081	0.807675	0.273648	0.006453
1542	7.7050e-01	-18.3733	-56.160898	0.000525	5.249889	1.778711	0.041944
1543	7.7100e-01	-18.3412	-56.197196	-0.000091	-0.908635	-0.307854	-0.007260
1544	7.7150e-01	-18.2963	-56.064104	0.000333	3.331661	1.128797	0.026618
1545	7.7200e-01	-18.2530	-56.080236	-0.000040	-0.403838	-0.136824	-0.003226
1546	7.7250e-01	-18.2177	-55.959243	0.000303	3.028782	1.026179	0.024199
1547	7.7300e-01	-18.1792	-55.705158	0.000636	6.360443	2.154976	0.050817
1548	7.7350e-01	-18.1423	-55.826151	-0.000303	-3.028782	-1.026179	-0.024199
1549	7.7400e-01	-18.0974	-55.697092	0.000323	3.230701	1.094591	0.025812
1550	7.7450e-01	-18.0524	-55.676926	0.000050	0.504797	0.171030	0.004033
1551	7.7500e-01	-18.0203	-55.680959	-0.000010	-0.100959	-0.034206	-0.000807
1552	7.7550e-01	-17.9834	-55.483337	0.000495	4.947011	1.676093	0.039524
1553	7.7600e-01	-17.9369	-55.317980	0.000414	4.139336	1.402445	0.033071
1554	7.7650e-01	-17.8904	-55.164723	0.000384	3.836458	1.299827	0.030652
1555	7.7700e-01	-17.8519	-55.156656	0.000020	0.201919	0.068412	0.001613
1556	7.7750e-01	-17.8150	-55.184888	-0.000071	-0.706716	-0.239442	-0.005646
1557	7.7800e-01	-17.7829	-54.842075	0.000858	8.581550	2.907508	0.068563
1558	7.7850e-01	-17.7316	-54.959035	-0.000293	-2.927823	-0.991973	-0.023392
1559	7.7900e-01	-17.6947	-54.773512	0.000464	4.644133	1.573475	0.037105
1560	7.7950e-01	-17.6674	-54.785611	-0.000030	-0.302878	-0.102618	-0.002420
1561	7.8000e-01	-17.6161	-54.688817	0.000242	2.423026	0.820943	0.019359
1562	7.8050e-01	-17.5824	-54.551692	0.000343	3.432620	1.163003	0.027425
1563	7.8100e-01	-17.5311	-54.527493	0.000061	0.605756	0.205236	0.004840
1564	7.8150e-01	-17.5006	-54.648486	-0.000303	-3.028782	-1.026179	-0.024199
1565	7.8200e-01	-17.4653	-54.180647	0.001171	11.711292	3.967893	0.093568
1566	7.8250e-01	-17.4139	-54.075786	0.000262	2.624945	0.889355	0.020972
1567	7.8300e-01	-17.3770	-54.184680	-0.000273	-2.725904	-0.923561	-0.021779
1568	7.8350e-01	-17.3385	-54.075786	0.000273	2.725904	0.923561	0.021779
1569	7.8400e-01	-17.3000	-54.015290	0.000151	1.514391	0.513090	0.012099
1570	7.8450e-01	-17.2615	-53.906396	0.000273	2.725904	0.923561	0.021779
1571	7.8500e-01	-17.2182	-53.801535	0.000262	2.624945	0.889355	0.020972
1572	7.8550e-01	-17.1861	-53.724906	0.000192	1.918229	0.649914	0.015326
1573	7.8600e-01	-17.1300	-53.628112	0.000242	2.423026	0.820943	0.019359
1574	7.8650e-01	-17.0963	-53.680542	-0.000131	-1.312472	-0.444678	-0.010486
1575	7.8700e-01	-17.0610	-53.317564	0.000909	9.086347	3.078538	0.072596
1576	7.8750e-01	-17.0145	-53.285299	0.000081	0.807675	0.273648	0.006453
1577	7.8800e-01	-16.9792	-53.269166	0.000040	0.403838	0.136824	0.003226
1578	7.8850e-01	-16.9423	-53.216736	0.000131	1.312472	0.444678	0.010486
1579	7.8900e-01	-16.8878	-52.890055	0.000818	8.177712	2.770684	0.065336
1580	7.8950e-01	-16.8557	-52.974750	-0.000212	-2.120148	-0.718325	-0.016939
1581	7.9000e-01	-16.8124	-52.886022	0.000222	2.221107	0.752531	0.017746
1582	7.9050e-01	-16.7851	-52.732764	0.000384	3.836458	1.299827	0.030652
1583	7.9100e-01	-16.7370	-52.748897	-0.000040	-0.403838	-0.136824	-0.003226
1584	7.9150e-01	-16.6920	-52.660168	0.000222	2.221107	0.752531	0.017746
1585	7.9200e-01	-16.6567	-52.514977	0.000363	3.634539	1.231415	0.029038
1586	7.9250e-01	-16.6134	-52.462547	0.000131	1.312472	0.444678	0.010486
1587	7.9300e-01	-16.5717	-52.410116	0.000131	1.312472	0.444678	0.010486
1588	7.9350e-01	-16.5348	-52.111667	0.000747	7.470996	2.531242	0.059690
1589	7.9400e-01	-16.4963	-52.103601	0.000020	0.201919	0.068412	0.001613
1590	7.9450e-01	-16.4578	-52.006806	0.000242	2.423026	0.820943	0.019359
1591	7.9500e-01	-16.4273	-51.998740	0.000020	0.201919	0.068412	0.001613
1592	7.9550e-01	-16.3696	-51.845483	0.000384	3.836458	1.299827	0.030652
1593	7.9600e-01	-16.3407	-51.756754	0.000222	2.221107	0.752531	0.017746
1594	7.9650e-01	-16.2878	-51.615596	0.000353	3.533579	1.197209	0.028232
1595	7.9700e-01	-16.2605	-51.623662	-0.000020	-0.201919	-0.068412	-0.001613
1596	7.9750e-01	-16.2236	-51.470404	0.000384	3.836458	1.299827	0.030652
1597	7.9800e-01	-16.1739	-51.216319	0.000636	6.360443	2.154976	0.050817
1598	7.9850e-01	-16.1370	-51.284882	-0.000172	-1.716310	-0.581502	-0.013713
1599	7.9900e-01	-16.0953	-51.155823	0.000323	3.230701	1.094591	0.025812
1600	7.9950e-01	-16.0552	-51.196154	-0.000101	-1.009594	-0.342060	-0.008066
1601	8.0000e-01	-16.0215	-51.099359	0.000242	2.423026	0.820943	0.019359
1602	8.0050e-01	-15.9798	-50.877539	0.000555	5.552768	1.881329	0.044364
1603	8.0100e-01	-15.9413	-50.853340	0.000061	0.605756	0.205236	0.004840
1604	8.0150e-01	-15.9044	-50.772678	0.000202	2.019188	0.684119	0.016132
1605	8.0200e-01	-15.8594	-50.599255	0.000434	4.341255	1.470857	0.034685
1606	8.0250e-01	-15.8129	-50.454064	0.000363	3.634539	1.231415	0.029038
1607	8.0300e-01	-15.7776	-50.494395	-0.000101	-1.009594	-0.342060	-0.008066
1608	8.0350e-01	-15.7439	-50.264508	0.000575	5.754686	1.949741	0.045977
1609	8.0400e-01	-15.6958	-50.256442	0.000020	0.201919	0.068412	0.001613
1610	8.0450e-01	-15.6557	-50.353236	-0.000242	-2.423026	-0.820943	-0.019359
1611	8.0500e-01	-15.6252	-50.087052	0.000666	6.663321	2.257594	0.053237
1612	8.0550e-01	-15.5819	-49.957992	0.000323	3.230701	1.094591	0.025812
1613	8.0600e-01	-15.5418	-50.022522	-0.000162	-1.615351	-0.547296	-0.012906
1614	8.0650e-01	-15.5081	-49.796668	0.000565	5.653727	1.915535	0.045171
1615	8.0700e-01	-15.4568	-49.752304	0.000111	1.110554	0.376266	0.008873
1616	8.0750e-01	-15.4103	-49.457888	0.000737	7.370037	2.497036	0.058883
1617	8.0800e-01	-15.3766	-49.586947	-0.000323	-3.230701	-1.094591	-0.025812
1618	8.0850e-01	-15.3397	-49.361094	0.000565	5.653727	1.915535	0.045171
1619	8.0900e-01	-15.3012	-49.292531	0.000172	1.716310	0.581502	0.013713
1620	8.0950e-01	-15.2514	-49.167505	0.000313	3.129742	1.060385	0.025005
1621	8.1000e-01	-15.2178	-49.256233	-0.000222	-2.221107	-0.752531	-0.017746
1622	8.1050e-01	-15.1760	-48.885188	0.000929	9.288266	3.146950	0.074209
1623	8.1100e-01	-15.1391	-49.022314	-0.000343	-3.432620	-1.163003	-0.027425
1624	8.1150e-01	-15.0974	-48.865023	0.000394	3.937417	1.334033	0.031458
1625	8.1200e-01	-15.0589	-48.852923	0.000030	0.302878	0.102618	0.002420
1626	8.1250e-01	-15.0172	-48.510110	0.000858	8.581550	2.907508	0.068563
1627	8.1300e-01	-14.9819	-48.433481	0.000192	1.918229	0.649914	0.015326
1628	8.1350e-01	-14.9370	-48.409283	0.000061	0.605756	0.205236	0.004840
1629	8.1400e-01	-14.8937	-48.405249	0.000010	0.100959	0.034206	0.000807
1630	8.1450e-01	-14.8600	-48.187462	0.000545	5.451808	1.847123	0.043557
1631	8.1500e-01	-14.8215	-48.034204	0.000384	3.836458	1.299827	0.030652
1632	8.1550e-01	-14.7798	-48.038237	-0.000010	-0.100959	-0.034206	-0.000807
1633	8.1600e-01	-14.7285	-47.905145	0.000333	3.331661	1.128797	0.026618
1634	8.1650e-01	-14.6980	-47.691391	0.000535	5.350849	1.812917	0.042751
1635	8.1700e-01	-14.6611	-47.723656	-0.000081	-0.807675	-0.273648	-0.006453
1636	8.1750e-01	-14.6146	-47.703490	0.000050	0.504797	0.171030	0.004033
1637	8.1800e-01	-14.5825	-47.505868	0.000495	4.947011	1.676093	0.039524
1638	8.1850e-01	-14.5376	-47.602663	-0.000242	-2.423026	-0.820943	-0.019359
1639	8.1900e-01	-14.5039	-47.348578	0.000636	6.360443	2.154976	0.050817
1640	8.1950e-01	-14.4638	-47.332445	0.000040	0.403838	0.136824	0.003226
1641	8.2000e-01	-14.4204	-47.263883	0.000172	1.716310	0.581502	0.013713
1642	8.2050e-01	-14.3643	-47.070294	0.000485	4.846052	1.641887	0.038718
1643	8.2100e-01	-14.3354	-46.957367	0.000283	2.826863	0.957767	0.022585
1644	8.2150e-01	-14.2985	-46.937202	0.000050	0.504797	0.171030	0.004033
1645	8.2200e-01	-14.2600	-46.800076	0.000343	3.432620	1.163003	0.027425
1646	8.2250e-01	-14.2151	-46.626653	0.000434	4.341255	1.470857	0.034685
1647	8.2300e-01	-14.1798	-46.654885	-0.000071	-0.706716	-0.239442	-0.005646
1648	8.2350e-01	-14.1317	-46.412899	0.000606	6.057565	2.052358	0.048397
1649	8.2400e-01	-14.0964	-46.396766	0.000040	0.403838	0.136824	0.003226
1650	8.2450e-01	-14.0563	-46.372568	0.000061	0.605756	0.205236	0.004840
1651	8.2500e-01	-14.0178	-46.283840	0.000222	2.221107	0.752531	0.017746
1652	8.2550e-01	-13.9825	-46.025721	0.000646	6.461402	2.189182	0.051624
1653	8.2600e-01	-13.9424	-46.110416	-0.000212	-2.120148	-0.718325	-0.016939
1654	8.2650e-01	-13.8959	-45.811967	0.000747	7.470996	2.531242	0.059690
1655	8.2700e-01	-13.8638	-45.932960	-0.000303	-3.028782	-1.026179	-0.024199
1656	8.2750e-01	-13.8124	-45.594180	0.000848	8.480590	2.873302	0.067756
1657	8.2800e-01	-13.7772	-45.553849	0.000101	1.009594	0.342060	0.008066
1658	8.2850e-01	-13.7370	-45.594180	-0.000101	-1.009594	-0.342060	-0.008066
1659	8.2900e-01	-13.6969	-45.287664	0.000767	7.672915	2.599654	0.061303
1660	8.2950e-01	-13.6633	-45.178771	0.000273	2.725904	0.923561	0.021779
1661	8.3000e-01	-13.6231	-45.150539	0.000071	0.706716	0.239442	0.005646
1662	8.3050e-01	-13.5718	-45.142473	0.000020	0.201919	0.068412	0.001613
1663	8.3100e-01	-13.5413	-44.924685	0.000545	5.451808	1.847123	0.043557
1664	8.3150e-01	-13.4996	-44.791593	0.000333	3.331661	1.128797	0.026618
1665	8.3200e-01	-13.4611	-44.815792	-0.000061	-0.605756	-0.205236	-0.004840
1666	8.3250e-01	-13.4114	-44.848056	-0.000081	-0.807675	-0.273648	-0.006453
1667	8.3300e-01	-13.3761	-44.678666	0.000424	4.240295	1.436651	0.033878
1668	8.3350e-01	-13.3360	-44.545574	0.000333	3.331661	1.128797	0.026618
1669	8.3400e-01	-13.2911	-44.279390	0.000666	6.663321	2.257594	0.053237
1670	8.3450e-01	-13.2510	-44.235025	0.000111	1.110554	0.376266	0.008873
1671	8.3500e-01	-13.2189	-44.174529	0.000151	1.514391	0.513090	0.012099
1672	8.3550e-01	-13.1756	-44.029337	0.000363	3.634539	1.231415	0.029038
1673	8.3600e-01	-13.1355	-43.980940	0.000121	1.211513	0.410472	0.009679
1674	8.3650e-01	-13.0986	-44.013205	-0.000081	-0.807675	-0.273648	-0.006453
1675	8.3700e-01	-13.0536	-43.730888	0.000707	7.067159	2.394418	0.056463
1676	8.3750e-01	-13.0087	-43.589730	0.000353	3.533579	1.197209	0.028232
1677	8.3800e-01	-12.9831	-43.569564	0.000050	0.504797	0.171030	0.004033
1678	8.3850e-01	-12.9301	-43.577630	-0.000020	-0.201919	-0.068412	-0.001613
1679	8.3900e-01	-12.9028	-43.452604	0.000313	3.129742	1.060385	0.025005
1680	8.3950e-01	-12.8499	-43.263049	0.000475	4.745092	1.607681	0.037911
1681	8.4000e-01	-12.8242	-43.089625	0.000434	4.341255	1.470857	0.034685
1682	8.4050e-01	-12.7745	-43.085592	0.000010	0.100959	0.034206	0.000807
1683	8.4100e-01	-12.7408	-42.924268	0.000404	4.038376	1.368239	0.032265
1684	8.4150e-01	-12.6831	-43.077526	-0.000384	-3.836458	-1.299827	-0.030652
1685	8.4200e-01	-12.6558	-42.791176	0.000717	7.168118	2.428624	0.057270
1686	8.4250e-01	-12.6269	-42.726647	0.000162	1.615351	0.547296	0.012906
1687	8.4300e-01	-12.5820	-42.658084	0.000172	1.716310	0.581502	0.013713
1688	8.4350e-01	-12.5403	-42.504826	0.000384	3.836458	1.299827	0.030652
1689	8.4400e-01	-12.4922	-42.371734	0.000333	3.331661	1.128797	0.026618
1690	8.4450e-01	-12.4585	-42.274940	0.000242	2.423026	0.820943	0.019359
1691	8.4500e-01	-12.4055	-42.295105	-0.000050	-0.504797	-0.171030	-0.004033
1692	8.4550e-01	-12.3799	-42.214443	0.000202	2.019188	0.684119	0.016132
1693	8.4600e-01	-12.3446	-41.859530	0.000888	8.884428	3.010126	0.070983
1694	8.4650e-01	-12.2932	-41.875663	-0.000040	-0.403838	-0.136824	-0.003226
1695	8.4700e-01	-12.2676	-41.911961	-0.000091	-0.908635	-0.307854	-0.007260
1696	8.4750e-01	-12.2194	-41.528816	0.000959	9.591144	3.249568	0.076629
1697	8.4800e-01	-12.1761	-41.585280	-0.000141	-1.413432	-0.478884	-0.011293
1698	8.4850e-01	-12.1376	-41.407823	0.000444	4.442214	1.505063	0.035491
1699	8.4900e-01	-12.1039	-41.331194	0.000192	1.918229	0.649914	0.015326
1700	8.4950e-01	-12.0542	-41.250533	0.000202	2.019188	0.684119	0.016132
1701	8.5000e-01	-12.0237	-41.254566	-0.000010	-0.100959	-0.034206	-0.000807
1702	8.5050e-01	-11.9804	-40.948050	0.000767	7.672915	2.599654	0.061303
1703	8.5100e-01	-11.9387	-40.935951	0.000030	0.302878	0.102618	0.002420
1704	8.5150e-01	-11.8954	-40.637502	0.000747	7.470996	2.531242	0.059690
1705	8.5200e-01	-11.8585	-40.802859	-0.000414	-4.139336	-1.402445	-0.033071
1706	8.5250e-01	-11.8072	-40.520542	0.000707	7.067159	2.394418	0.056463
1707	8.5300e-01	-11.7751	-40.504409	0.000040	0.403838	0.136824	0.003226
1708	8.5350e-01	-11.7446	-40.363251	0.000353	3.533579	1.197209	0.028232
1709	8.5400e-01	-11.6997	-40.262423	0.000252	2.523985	0.855149	0.020165
1710	8.5450e-01	-11.6644	-40.222092	0.000101	1.009594	0.342060	0.008066
1711	8.5500e-01	-11.6114	-40.230159	-0.000020	-0.201919	-0.068412	-0.001613
1712	8.5550e-01	-11.5729	-40.084967	0.000363	3.634539	1.231415	0.029038
1713	8.5600e-01	-11.5376	-39.939775	0.000363	3.634539	1.231415	0.029038
1714	8.5650e-01	-11.4943	-39.693756	0.000616	6.158524	2.086564	0.049204
1715	8.5700e-01	-11.4638	-39.520333	0.000434	4.341255	1.470857	0.034685
1716	8.5750e-01	-11.4125	-39.459837	0.000151	1.514391	0.513090	0.012099
1717	8.5800e-01	-11.3692	-39.431605	0.000071	0.706716	0.239442	0.005646
1718	8.5850e-01	-11.3355	-39.363042	0.000172	1.716310	0.581502	0.013713
1719	8.5900e-01	-11.2986	-39.193652	0.000424	4.240295	1.436651	0.033878
1720	8.5950e-01	-11.2521	-39.225917	-0.000081	-0.807675	-0.273648	-0.006453
1721	8.6000e-01	-11.2232	-38.987964	0.000596	5.956605	2.018152	0.047591
1722	8.6050e-01	-11.1719	-38.887137	0.000252	2.523985	0.855149	0.020165
1723	8.6100e-01	-11.1334	-38.798409	0.000222	2.221107	0.752531	0.017746
1724	8.6150e-01	-11.0949	-38.725813	0.000182	1.817269	0.615708	0.014519
1725	8.6200e-01	-11.0660	-38.544323	0.000454	4.543173	1.539269	0.036298
1726	8.6250e-01	-11.0163	-38.294271	0.000626	6.259483	2.120770	0.050010
1727	8.6300e-01	-10.9794	-38.322503	-0.000071	-0.706716	-0.239442	-0.005646
1728	8.6350e-01	-10.9393	-38.374933	-0.000131	-1.312472	-0.444678	-0.010486
1729	8.6400e-01	-10.8943	-38.274106	0.000252	2.523985	0.855149	0.020165
1730	8.6450e-01	-10.8542	-38.161179	0.000283	2.826863	0.957767	0.022585
1731	8.6500e-01	-10.8206	-37.999855	0.000404	4.038376	1.368239	0.032265
1732	8.6550e-01	-10.7724	-37.890961	0.000273	2.725904	0.923561	0.021779
1733	8.6600e-01	-10.7387	-37.600578	0.000727	7.269077	2.462830	0.058077
1734	8.6650e-01	-10.7018	-37.576380	0.000061	0.605756	0.205236	0.004840
1735	8.6700e-01	-10.6553	-37.548148	0.000071	0.706716	0.239442	0.005646
1736	8.6750e-01	-10.6088	-37.447321	0.000252	2.523985	0.855149	0.020165
1737	8.6800e-01	-10.5767	-37.326328	0.000303	3.028782	1.026179	0.024199
1738	8.6850e-01	-10.5334	-37.156937	0.000424	4.240295	1.436651	0.033878
1739	8.6900e-01	-10.5045	-37.060143	0.000242	2.423026	0.820943	0.019359
1740	8.6950e-01	-10.4484	-36.995613	0.000162	1.615351	0.547296	0.012906
1741	8.7000e-01	-10.4131	-36.878654	0.000293	2.927823	0.991973	0.023392
1742	8.7050e-01	-10.3730	-36.725396	0.000384	3.836458	1.299827	0.030652
1743	8.7100e-01	-10.3361	-36.596337	0.000323	3.230701	1.094591	0.025812
1744	8.7150e-01	-10.2928	-36.539873	0.000141	1.413432	0.478884	0.011293
1745	8.7200e-01	-10.2623	-36.281755	0.000646	6.461402	2.189182	0.051624
1746	8.7250e-01	-10.2206	-36.225292	0.000141	1.413432	0.478884	0.011293
1747	8.7300e-01	-10.1773	-35.955074	0.000676	6.764280	2.291800	0.054044
1748	8.7350e-01	-10.1339	-36.039769	-0.000212	-2.120148	-0.718325	-0.016939
1749	8.7400e-01	-10.0874	-35.963140	0.000192	1.918229	0.649914	0.015326
1750	8.7450e-01	-10.0585	-35.866346	0.000242	2.423026	0.820943	0.019359
1751	8.7500e-01	-10.0200	-35.741320	0.000313	3.129742	1.060385	0.025005
1752	8.7550e-01	-9.9751	-35.700989	0.000101	1.009594	0.342060	0.008066
1753	8.7600e-01	-9.9366	-35.604194	0.000242	2.423026	0.820943	0.019359
1754	8.7650e-01	-9.8965	-35.430771	0.000434	4.341255	1.470857	0.034685
1755	8.7700e-01	-9.8596	-35.350109	0.000202	2.019188	0.684119	0.016132
1756	8.7750e-01	-9.8195	-35.156521	0.000485	4.846052	1.641887	0.038718
1757	8.7800e-01	-9.7794	-35.136355	0.000050	0.504797	0.171030	0.004033
1758	8.7850e-01	-9.7345	-35.007296	0.000323	3.230701	1.094591	0.025812
1759	8.7900e-01	-9.6976	-34.825806	0.000454	4.543173	1.539269	0.036298
1760	8.7950e-01	-9.6511	-34.652383	0.000434	4.341255	1.470857	0.034685
1761	8.8000e-01	-9.6174	-34.757244	-0.000262	-2.624945	-0.889355	-0.020972
1762	8.8050e-01	-9.5741	-34.737078	0.000050	0.504797	0.171030	0.004033
1763	8.8100e-01	-9.5340	-34.503159	0.000586	5.855646	1.983946	0.046784
1764	8.8150e-01	-9.4955	-34.357967	0.000363	3.634539	1.231415	0.029038
1765	8.8200e-01	-9.4521	-34.261173	0.000242	2.423026	0.820943	0.019359
1766	8.8250e-01	-9.4104	-34.224875	0.000091	0.908635	0.307854	0.007260
1767	8.8300e-01	-9.3735	-34.309570	-0.000212	-2.120148	-0.718325	-0.016939
1768	8.8350e-01	-9.3302	-34.035319	0.000687	6.865240	2.326006	0.054850
1769	8.8400e-01	-9.2917	-34.035319	0.000000	0.000000	0.000000	0.000000
1770	8.8450e-01	-9.2644	-33.704605	0.000828	8.278672	2.804890	0.066143
1771	8.8500e-01	-9.2115	-33.426321	0.000697	6.966199	2.360212	0.055657
1772	8.8550e-01	-9.1794	-33.478751	-0.000131	-1.312472	-0.444678	-0.010486
1773	8.8600e-01	-9.1441	-33.486818	-0.000020	-0.201919	-0.068412	-0.001613
1774	8.8650e-01	-9.1040	-33.430354	0.000141	1.413432	0.478884	0.011293
1775	8.8700e-01	-9.0559	-32.974614	0.001141	11.408413	3.865275	0.091148
1776	8.8750e-01	-9.0222	-33.115773	-0.000353	-3.533579	-1.197209	-0.028232
1777	8.8800e-01	-8.9741	-32.845555	0.000676	6.764280	2.291800	0.054044
1778	8.8850e-01	-8.9356	-32.861687	-0.000040	-0.403838	-0.136824	-0.003226
1779	8.8900e-01	-8.8955	-32.926217	-0.000162	-1.615351	-0.547296	-0.012906
1780	8.8950e-01	-8.8602	-32.607602	0.000798	7.975793	2.702272	0.063723
1781	8.9000e-01	-8.8153	-32.418047	0.000475	4.745092	1.607681	0.037911
1782	8.9050e-01	-8.7848	-32.482576	-0.000162	-1.615351	-0.547296	-0.012906
1783	8.9100e-01	-8.7463	-32.252690	0.000575	5.754686	1.949741	0.045977
1784	8.9150e-01	-8.6901	-32.155895	0.000242	2.423026	0.820943	0.019359
1785	8.9200e-01	-8.6613	-31.788883	0.000919	9.187306	3.112744	0.073402
1786	8.9250e-01	-8.6195	-31.913909	-0.000313	-3.129742	-1.060385	-0.025005
1787	8.9300e-01	-8.5746	-31.825181	0.000222	2.221107	0.752531	0.017746
1788	8.9350e-01	-8.5361	-31.885678	-0.000151	-1.514391	-0.513090	-0.012099
1789	8.9400e-01	-8.4976	-31.619493	0.000666	6.663321	2.257594	0.053237
1790	8.9450e-01	-8.4527	-31.563030	0.000141	1.413432	0.478884	0.011293
1791	8.9500e-01	-8.4174	-31.446070	0.000293	2.927823	0.991973	0.023392
1792	8.9550e-01	-8.3805	-31.212150	0.000586	5.855646	1.983946	0.046784
1793	8.9600e-01	-8.3340	-30.990330	0.000555	5.552768	1.881329	0.044364
1794	8.9650e-01	-8.2987	-31.187951	-0.000495	-4.947011	-1.676093	-0.039524
1795	8.9700e-01	-8.2586	-30.925800	0.000656	6.562362	2.223388	0.052430
1796	8.9750e-01	-8.2201	-30.800774	0.000313	3.129742	1.060385	0.025005
1797	8.9800e-01	-8.1800	-30.691880	0.000273	2.725904	0.923561	0.021779
1798	8.9850e-01	-8.1383	-30.639450	0.000131	1.312472	0.444678	0.010486
1799	8.9900e-01	-8.0982	-30.522490	0.000293	2.927823	0.991973	0.023392
1800	8.9950e-01	-8.0565	-30.385365	0.000343	3.432620	1.163003	0.027425
1801	9.0000e-01	-8.0196	-30.147412	0.000596	5.956605	2.018152	0.047591
1802	9.0050e-01	-7.9714	-30.054651	0.000232	2.322066	0.786737	0.018552
1803	9.0100e-01	-7.9345	-30.014320	0.000101	1.009594	0.342060	0.008066
1804	9.0150e-01	-7.8960	-29.707804	0.000767	7.672915	2.599654	0.061303
1805	9.0200e-01	-7.8559	-29.808632	-0.000252	-2.523985	-0.855149	-0.020165
1806	9.0250e-01	-7.8174	-29.723937	0.000212	2.120148	0.718325	0.016939
1807	9.0300e-01	-7.7789	-29.566646	0.000394	3.937417	1.334033	0.031458
1808	9.0350e-01	-7.7340	-29.582778	-0.000040	-0.403838	-0.136824	-0.003226
1809	9.0400e-01	-7.6923	-29.235932	0.000868	8.682509	2.941714	0.069369
1810	9.0450e-01	-7.6570	-29.163336	0.000182	1.817269	0.615708	0.014519
1811	9.0500e-01	-7.6201	-29.034277	0.000323	3.230701	1.094591	0.025812
1812	9.0550e-01	-7.5720	-28.905218	0.000323	3.230701	1.094591	0.025812
1813	9.0600e-01	-7.5463	-28.852787	0.000131	1.312472	0.444678	0.010486
1814	9.0650e-01	-7.5030	-28.655166	0.000495	4.947011	1.676093	0.039524
1815	9.0700e-01	-7.4629	-28.614835	0.000101	1.009594	0.342060	0.008066
1816	9.0750e-01	-7.4132	-28.469643	0.000363	3.634539	1.231415	0.029038
1817	9.0800e-01	-7.3731	-28.259922	0.000525	5.249889	1.778711	0.041944
1818	9.0850e-01	-7.3394	-28.292187	-0.000081	-0.807675	-0.273648	-0.006453
1819	9.0900e-01	-7.2944	-28.155061	0.000343	3.432620	1.163003	0.027425
1820	9.0950e-01	-7.2511	-28.058267	0.000242	2.423026	0.820943	0.019359
1821	9.1000e-01	-7.2239	-27.909042	0.000374	3.735498	1.265621	0.029845
1822	9.1050e-01	-7.1789	-27.751751	0.000394	3.937417	1.334033	0.031458
1823	9.1100e-01	-7.1324	-27.703354	0.000121	1.211513	0.410472	0.009679
1824	9.1150e-01	-7.0923	-27.558163	0.000363	3.634539	1.231415	0.029038
1825	9.1200e-01	-7.0538	-27.586394	-0.000071	-0.706716	-0.239442	-0.005646
1826	9.1250e-01	-7.0217	-27.421037	0.000414	4.139336	1.402445	0.033071
1827	9.1300e-01	-6.9736	-27.356508	0.000162	1.615351	0.547296	0.012906
1828	9.1350e-01	-6.9399	-27.118555	0.000596	5.956605	2.018152	0.047591
1829	9.1400e-01	-6.9014	-27.130654	-0.000030	-0.302878	-0.102618	-0.002420
1830	9.1450e-01	-6.8517	-26.852370	0.000697	6.966199	2.360212	0.055657
1831	9.1500e-01	-6.8228	-26.912867	-0.000151	-1.514391	-0.513090	-0.012099
1832	9.1550e-01	-6.7779	-26.719278	0.000485	4.846052	1.641887	0.038718
1833	9.1600e-01	-6.7410	-26.566020	0.000384	3.836458	1.299827	0.030652
1834	9.1650e-01	-6.7009	-26.594252	-0.000071	-0.706716	-0.239442	-0.005646
1835	9.1700e-01	-6.6576	-26.340167	0.000636	6.360443	2.154976	0.050817
1836	9.1750e-01	-6.6143	-26.154644	0.000464	4.644133	1.573475	0.037105
1837	9.1800e-01	-6.5725	-26.170777	-0.000040	-0.403838	-0.136824	-0.003226
1838	9.1850e-01	-6.5340	-25.985254	0.000464	4.644133	1.573475	0.037105
1839	9.1900e-01	-6.5004	-25.924758	0.000151	1.514391	0.513090	0.012099
1840	9.1950e-01	-6.4442	-25.723103	0.000505	5.047970	1.710299	0.040331
1841	9.2000e-01	-6.4105	-25.553713	0.000424	4.240295	1.436651	0.033878
1842	9.2050e-01	-6.3848	-25.263330	0.000727	7.269077	2.462830	0.058077
1843	9.2100e-01	-6.3335	-25.380290	-0.000293	-2.927823	-0.991973	-0.023392
1844	9.2150e-01	-6.2998	-25.384323	-0.000010	-0.100959	-0.034206	-0.000807
1845	9.2200e-01	-6.2645	-25.041509	0.000858	8.581550	2.907508	0.068563
1846	9.2250e-01	-6.2260	-25.154436	-0.000283	-2.826863	-0.957767	-0.022585
1847	9.2300e-01	-6.1731	-25.049575	0.000262	2.624945	0.889355	0.020972
1848	9.2350e-01	-6.1394	-24.860020	0.000475	4.745092	1.607681	0.037911
1849	9.2400e-01	-6.1089	-24.864053	-0.000010	-0.100959	-0.034206	-0.000807
1850	9.2450e-01	-6.0624	-24.517206	0.000868	8.682509	2.941714	0.069369
1851	9.2500e-01	-6.0175	-24.351849	0.000414	4.139336	1.402445	0.033071
1852	9.2550e-01	-5.9822	-24.416379	-0.000162	-1.615351	-0.547296	-0.012906
1853	9.2600e-01	-5.9389	-24.412346	0.000010	0.100959	0.034206	0.000807
1854	9.2650e-01	-5.9004	-24.105830	0.000767	7.672915	2.599654	0.061303
1855	9.2700e-01	-5.8603	-24.202625	-0.000242	-2.423026	-0.820943	-0.019359
1856	9.2750e-01	-5.8266	-23.904175	0.000747	7.470996	2.531242	0.059690
1857	9.2800e-01	-5.7817	-23.859811	0.000111	1.110554	0.376266	0.008873
1858	9.2850e-01	-5.7303	-23.593627	0.000666	6.663321	2.257594	0.053237
1859	9.2900e-01	-5.6998	-23.658156	-0.000162	-1.615351	-0.547296	-0.012906
1860	9.2950e-01	-5.6613	-23.464568	0.000485	4.846052	1.641887	0.038718
1861	9.3000e-01	-5.6228	-23.416170	0.000121	1.211513	0.410472	0.009679
1862	9.3050e-01	-5.5811	-23.303244	0.000283	2.826863	0.957767	0.022585
1863	9.3100e-01	-5.5314	-23.109655	0.000485	4.846052	1.641887	0.038718
1864	9.3150e-01	-5.5025	-22.855570	0.000636	6.360443	2.154976	0.050817
1865	9.3200e-01	-5.4560	-22.819272	0.000091	0.908635	0.307854	0.007260
1866	9.3250e-01	-5.4143	-22.815239	0.000010	0.100959	0.034206	0.000807
1867	9.3300e-01	-5.3678	-22.653915	0.000404	4.038376	1.368239	0.032265
1868	9.3350e-01	-5.3373	-22.363532	0.000727	7.269077	2.462830	0.058077
1869	9.3400e-01	-5.3004	-22.230439	0.000333	3.331661	1.128797	0.026618
1870	9.3450e-01	-5.2539	-22.194142	0.000091	0.908635	0.307854	0.007260
1871	9.3500e-01	-5.2186	-22.129612	0.000162	1.615351	0.547296	0.012906
1872	9.3550e-01	-5.1801	-22.121546	0.000020	0.201919	0.068412	0.001613
1873	9.3600e-01	-5.1335	-22.097347	0.000061	0.605756	0.205236	0.004840
1874	9.3650e-01	-5.0966	-21.843262	0.000636	6.360443	2.154976	0.050817
1875	9.3700e-01	-5.0533	-21.613375	0.000575	5.754686	1.949741	0.045977
1876	9.3750e-01	-5.0196	-21.443985	0.000424	4.240295	1.436651	0.033878
1877	9.3800e-01	-4.9779	-21.375423	0.000172	1.716310	0.581502	0.013713
1878	9.3850e-01	-4.9426	-21.270562	0.000262	2.624945	0.889355	0.020972
1879	9.3900e-01	-4.8913	-21.097139	0.000434	4.341255	1.470857	0.034685
1880	9.3950e-01	-4.8624	-20.988245	0.000273	2.725904	0.923561	0.021779
1881	9.4000e-01	-4.8271	-20.903550	0.000212	2.120148	0.718325	0.016939
1882	9.4050e-01	-4.7886	-20.847087	0.000141	1.413432	0.478884	0.011293
1883	9.4100e-01	-4.7389	-20.613167	0.000586	5.855646	1.983946	0.046784
1884	9.4150e-01	-4.6956	-20.593001	0.000050	0.504797	0.171030	0.004033
1885	9.4200e-01	-4.6539	-20.520406	0.000182	1.817269	0.615708	0.014519
1886	9.4250e-01	-4.6186	-20.463942	0.000141	1.413432	0.478884	0.011293
1887	9.4300e-01	-4.5737	-20.217923	0.000616	6.158524	2.086564	0.049204
1888	9.4350e-01	-4.5368	-20.387313	-0.000424	-4.240295	-1.436651	-0.033878
1889	9.4400e-01	-4.4935	-20.092897	0.000737	7.370037	2.497036	0.058883
1890	9.4450e-01	-4.4550	-20.096930	-0.000010	-0.100959	-0.034206	-0.000807
1891	9.4500e-01	-4.4197	-19.737985	0.000899	8.985387	3.044332	0.071789
1892	9.4550e-01	-4.3796	-19.544396	0.000485	4.846052	1.641887	0.038718
1893	9.4600e-01	-4.3427	-19.661356	-0.000293	-2.927823	-0.991973	-0.023392
1894	9.4650e-01	-4.3074	-19.298377	0.000909	9.086347	3.078538	0.072596
1895	9.4700e-01	-4.2641	-19.221748	0.000192	1.918229	0.649914	0.015326
1896	9.4750e-01	-4.2175	-19.181417	0.000101	1.009594	0.342060	0.008066
1897	9.4800e-01	-4.1806	-19.024126	0.000394	3.937417	1.334033	0.031458
1898	9.4850e-01	-4.1325	-18.911199	0.000283	2.826863	0.957767	0.022585
1899	9.4900e-01	-4.1052	-18.778107	0.000333	3.331661	1.128797	0.026618
1900	9.4950e-01	-4.0555	-18.459492	0.000798	7.975793	2.702272	0.063723
1901	9.5000e-01	-4.0218	-18.560320	-0.000252	-2.523985	-0.855149	-0.020165
1902	9.5050e-01	-3.9769	-18.475625	0.000212	2.120148	0.718325	0.016939
1903	9.5100e-01	-3.9448	-18.128778	0.000868	8.682509	2.941714	0.069369
1904	9.5150e-01	-3.8983	-18.084414	0.000111	1.110554	0.376266	0.008873
1905	9.5200e-01	-3.8630	-18.064249	0.000050	0.504797	0.171030	0.004033
1906	9.5250e-01	-3.8133	-17.898892	0.000414	4.139336	1.402445	0.033071
1907	9.5300e-01	-3.7748	-17.906958	-0.000020	-0.201919	-0.068412	-0.001613
1908	9.5350e-01	-3.7363	-17.592376	0.000787	7.874834	2.668066	0.062916
1909	9.5400e-01	-3.7010	-17.584310	0.000020	0.201919	0.068412	0.001613
1910	9.5450e-01	-3.6480	-17.535913	0.000121	1.211513	0.410472	0.009679
1911	9.5500e-01	-3.6208	-17.394754	0.000353	3.533579	1.197209	0.028232
1912	9.5550e-01	-3.5839	-17.225364	0.000424	4.240295	1.436651	0.033878
1913	9.5600e-01	-3.5373	-16.902716	0.000808	8.076753	2.736478	0.064530
1914	9.5650e-01	-3.5036	-17.023709	-0.000303	-3.028782	-1.026179	-0.024199
1915	9.5700e-01	-3.4571	-16.737359	0.000717	7.168118	2.428624	0.057270
1916	9.5750e-01	-3.4234	-16.777690	-0.000101	-1.009594	-0.342060	-0.008066
1917	9.5800e-01	-3.3785	-16.572002	0.000515	5.148930	1.744505	0.041138
1918	9.5850e-01	-3.3384	-16.547804	0.000061	0.605756	0.205236	0.004840
1919	9.5900e-01	-3.2967	-16.430844	0.000293	2.927823	0.991973	0.023392
1920	9.5950e-01	-3.2630	-16.297751	0.000333	3.331661	1.128797	0.026618
1921	9.6000e-01	-3.2165	-16.229189	0.000172	1.716310	0.581502	0.013713
1922	9.6050e-01	-3.1748	-15.914607	0.000787	7.874834	2.668066	0.062916
1923	9.6100e-01	-3.1283	-15.918640	-0.000010	-0.100959	-0.034206	-0.000807
1924	9.6150e-01	-3.1170	-15.894442	0.000061	0.605756	0.205236	0.004840
1925	9.6200e-01	-3.0593	-15.462900	0.001080	10.802657	3.660039	0.086308
1926	9.6250e-01	-3.0095	-15.595992	-0.000333	-3.331661	-1.128797	-0.026618
1927	9.6300e-01	-2.9887	-15.382238	0.000535	5.350849	1.812917	0.042751
1928	9.6350e-01	-2.9357	-15.180583	0.000505	5.047970	1.710299	0.040331
1929	9.6400e-01	-2.8940	-15.039425	0.000353	3.533579	1.197209	0.028232
1930	9.6450e-01	-2.8620	-14.982961	0.000141	1.413432	0.478884	0.011293
1931	9.6500e-01	-2.8283	-14.878101	0.000262	2.624945	0.889355	0.020972
1932	9.6550e-01	-2.7769	-14.732909	0.000363	3.634539	1.231415	0.029038
1933	9.6600e-01	-2.7384	-14.575618	0.000394	3.937417	1.334033	0.031458
1934	9.6650e-01	-2.6983	-14.390096	0.000464	4.644133	1.573475	0.037105
1935	9.6700e-01	-2.6566	-14.430427	-0.000101	-1.009594	-0.342060	-0.008066
1936	9.6750e-01	-2.6229	-14.220706	0.000525	5.249889	1.778711	0.041944
1937	9.6800e-01	-2.5860	-14.047282	0.000434	4.341255	1.470857	0.034685
1938	9.6850e-01	-2.5363	-13.970654	0.000192	1.918229	0.649914	0.015326
1939	9.6900e-01	-2.5010	-13.724635	0.000616	6.158524	2.086564	0.049204
1940	9.6950e-01	-2.4561	-13.768999	-0.000111	-1.110554	-0.376266	-0.008873
1941	9.7000e-01	-2.4160	-13.768999	0.000000	0.000000	0.000000	0.000000
1942	9.7050e-01	-2.3711	-13.446351	0.000808	8.076753	2.736478	0.064530
1943	9.7100e-01	-2.3390	-13.293093	0.000384	3.836458	1.299827	0.030652
1944	9.7150e-01	-2.2989	-13.289060	0.000010	0.100959	0.034206	0.000807
1945	9.7200e-01	-2.2556	-13.139835	0.000374	3.735498	1.265621	0.029845
1946	9.7250e-01	-2.2187	-13.010776	0.000323	3.230701	1.094591	0.025812
1947	9.7300e-01	-2.1769	-12.857518	0.000384	3.836458	1.299827	0.030652
1948	9.7350e-01	-2.1433	-12.805088	0.000131	1.312472	0.444678	0.010486
1949	9.7400e-01	-2.0999	-12.611499	0.000485	4.846052	1.641887	0.038718
1950	9.7450e-01	-2.0534	-12.643764	-0.000081	-0.807675	-0.273648	-0.006453
1951	9.7500e-01	-2.0197	-12.292885	0.000878	8.783469	2.975920	0.070176
1952	9.7550e-01	-1.9844	-12.304984	-0.000030	-0.302878	-0.102618	-0.002420
1953	9.7600e-01	-1.9379	-12.058965	0.000616	6.158524	2.086564	0.049204
1954	9.7650e-01	-1.9042	-11.857310	0.000505	5.047970	1.710299	0.040331
1955	9.7700e-01	-1.8577	-11.845211	0.000030	0.302878	0.102618	0.002420
1956	9.7750e-01	-1.8096	-11.925873	-0.000202	-2.019188	-0.684119	-0.016132
1957	9.7800e-01	-1.7791	-11.659688	0.000666	6.663321	2.257594	0.053237
1958	9.7850e-01	-1.7374	-11.542728	0.000293	2.927823	0.991973	0.023392
1959	9.7900e-01	-1.6957	-11.175716	0.000919	9.187306	3.112744	0.073402
1960	9.7950e-01	-1.6508	-11.357206	-0.000454	-4.543173	-1.539269	-0.036298
1961	9.8000e-01	-1.6123	-11.252345	0.000262	2.624945	0.889355	0.020972
1962	9.8050e-01	-1.5802	-10.889366	0.000909	9.086347	3.078538	0.072596
1963	9.8100e-01	-1.5449	-10.812737	0.000192	1.918229	0.649914	0.015326
1964	9.8150e-01	-1.5000	-10.800638	0.000030	0.302878	0.102618	0.002420
1965	9.8200e-01	-1.4566	-10.611082	0.000475	4.745092	1.607681	0.037911
1966	9.8250e-01	-1.4214	-10.530420	0.000202	2.019188	0.684119	0.016132
1967	9.8300e-01	-1.3861	-10.365063	0.000414	4.139336	1.402445	0.033071
1968	9.8350e-01	-1.3379	-10.373130	-0.000020	-0.201919	-0.068412	-0.001613
1969	9.8400e-01	-1.3010	-10.268269	0.000262	2.624945	0.889355	0.020972
1970	9.8450e-01	-1.2497	-10.018217	0.000626	6.259483	2.120770	0.050010
1971	9.8500e-01	-1.2144	-9.840761	0.000444	4.442214	1.505063	0.035491
1972	9.8550e-01	-1.1839	-9.772198	0.000172	1.716310	0.581502	0.013713
1973	9.8600e-01	-1.1454	-9.570543	0.000505	5.047970	1.710299	0.040331
1974	9.8650e-01	-1.0973	-9.461649	0.000273	2.725904	0.923561	0.021779
1975	9.8700e-01	-1.0524	-9.304358	0.000394	3.937417	1.334033	0.031458
1976	9.8750e-01	-1.0155	-9.276127	0.000071	0.706716	0.239442	0.005646
1977	9.8800e-01	-0.9802	-9.139001	0.000343	3.432620	1.163003	0.027425
1978	9.8850e-01	-0.9433	-9.018008	0.000303	3.028782	1.026179	0.024199
1979	9.8900e-01	-0.8968	-9.026075	-0.000020	-0.201919	-0.068412	-0.001613
1980	9.8950e-01	-0.8583	-8.703427	0.000808	8.076753	2.736478	0.064530
1981	9.9000e-01	-0.8198	-8.594533	0.000273	2.725904	0.923561	0.021779
1982	9.9050e-01	-0.7781	-8.590500	0.000010	0.100959	0.034206	0.000807
1983	9.9100e-01	-0.7412	-8.356580	0.000586	5.855646	1.983946	0.046784
1984	9.9150e-01	-0.6978	-8.409011	-0.000131	-1.312472	-0.444678	-0.010486
1985	9.9200e-01	-0.6577	-8.175091	0.000586	5.855646	1.983946	0.046784
1986	9.9250e-01	-0.6176	-8.126694	0.000121	1.211513	0.410472	0.009679
1987	9.9300e-01	-0.5807	-7.896807	0.000575	5.754686	1.949741	0.045977
1988	9.9350e-01	-0.5390	-7.703218	0.000485	4.846052	1.641887	0.038718
1989	9.9400e-01	-0.5005	-7.549961	0.000384	3.836458	1.299827	0.030652
1990	9.9450e-01	-0.4652	-7.400736	0.000374	3.735498	1.265621	0.029845
1991	9.9500e-01	-0.4139	-7.412835	-0.000030	-0.302878	-0.102618	-0.002420
1992	9.9550e-01	-0.3706	-7.299908	0.000283	2.826863	0.957767	0.022585
1993	9.9600e-01	-0.3369	-7.130518	0.000424	4.240295	1.436651	0.033878
1994	9.9650e-01	-0.2952	-7.041790	0.000222	2.221107	0.752531	0.017746
1995	9.9700e-01	-0.2631	-6.884499	0.000394	3.937417	1.334033	0.031458
1996	9.9750e-01	-0.2102	-6.856268	0.000071	0.706716	0.239442	0.005646
1997	9.9800e-01	-0.1733	-6.497322	0.000899	8.985387	3.044332	0.071789
1998	9.9850e-01	-0.1364	-6.444892	0.000131	1.312472	0.444678	0.010486
1999	9.9900e-01	-0.0963	-6.465057	-0.000050	-0.504797	-0.171030	-0.004033
2000	9.9950e-01	-0.0626	-6.303733	0.000404	4.038376	1.368239	0.032265
2001	1.0000e+00	-0.0080	-6.134343	0.000404	4.038376	1.368239	0.033878

PMax (uC/cm2):	6.18e+01
Pr (uC/cm2):	3.78e+00
-Pr (uC/cm2):	-3.34e+00
PLoss (uC/cm2):	-3.47e+00
-Vc:	-1.14e+00
C (Max-Eff) (nF):	3.09e-01
K (Eff):	1.05e+03
Vert. (+/-Pr) Shift (uC/cm2):	2.22e-01
Offset (uC/cm2):	2.79e+00

A (Loop Area - uC/cm2·Volts):	-2.90e-01



Hysteresis Version: 5.48.1 - Radiant Technologies, Inc., 1999 - 9/12/24

