»»»»»»»»»»»»»»»»»»»»»»»»»»»»»»»»»»»» Hysteresis ««««««««««««««««««««««««««««««««««««
»»»  Executed Version:	5.48.1
»»»  Vision Version:	5.48.4 (R)
»»»  Vision Compiled:	9/18/24
»»»  Driver Version:	5.47.0
»»»  Windows Version:	Windows 8 or 8.1
»»»  Processor Information:	x86 (AMD or Intel) - 32 Processors
»»»  Tester Name:	PMF21124-494 (100V)
»»»  Tester S/N:	PMF21124-494
»»»  Internal Amp Type:	100V RevK 270k
»»»  Internal Amp S/N:	iAB2-596/K     
»»»  Execution Count:	1
»»»»»»»»»»»»»»»»»»»»»»»»»»»»»»»»»»»»»»»»»»««««««««««««««««««««««««««««««««««««««««««

Stored:	6/30/2025 - 11:45:17
Configured:	06/30/25 10:19:58 AM
Executed:	06/30/25 11:44:54 AM

»»»»»»»»»»»»»»»»»»»»»»»»»»»»»»»»»»» Sample Info ««««««««««««««««««««««««««««««««««««
Sample Name:	
Lot Name:	
Wafer Name:	
Die Row/Column:	0/0
Capacitor Number:	0
Sample Area (cm2):	1.00e-04
Sample Thickness (microns):	1.50e-01

Amplifier:	Internal

»»»»»»»»»»»»»»»»»»»»»»»»»»»»»»»»»»» Tester Info «««««««««««««««««««««««««««««««««««
Tester Name:	PMF21124-494 (100V)
Tester Serial Number:	PMF21124-494
Return Signal Amp. Level:	1.79 [Index: 2]

»»»»»»»»»»»»»»»»»»»»»»»»»»»»»»»» Hysteresis Info ««««««««««««««««««««««««««««««««««
Task Name:	Hyst-1804
Volts:	10.00
Field:	666.67 (kV/cm)
DCBias:	0.00
DCField:	0.00 (kV/cm)
Hysteresis Period (ms):	1.00e+00
Preset:	Enabled
Preset Delay (ms):	1.00e+03
Profile:	Standard Monopolar

»»»»»»»»»»»»»»»»»»»»»»»»»»»»»»»»»»»»»» Data «««««««««««««««««««««««««««««««««««««««
Points:	2001

Valid Data

Point	Time (ms)	Drive Voltage	Measured Polarization (uC/cm2)	Capacitance (uF)	Normalized Capacitance (uF/cm2)	Dielectric Constant	Instantaneous Current (mA)
   1	0.0000e+00	-0.0018	-18.107792	0.000684	6.841770	1.159027	0.013684
   2	5.0000e-04	0.0043	-18.039372	0.000684	6.841770	1.159027	0.013684
   3	1.0000e-03	0.0147	-17.981643	0.000577	5.772743	0.977929	0.011546
   4	1.5000e-03	0.0246	-17.944439	0.000372	3.720212	0.630221	0.007441
   5	2.0000e-03	0.0368	-17.907664	0.000368	3.677451	0.622977	0.007355
   6	2.5000e-03	0.0460	-17.868322	0.000393	3.934017	0.666441	0.007868
   7	3.0000e-03	0.0547	-17.811020	0.000573	5.729982	0.970685	0.011460
   8	3.5000e-03	0.0632	-17.756284	0.000547	5.473416	0.927222	0.010947
   9	4.0000e-03	0.0768	-17.705397	0.000509	5.088566	0.862026	0.010177
  10	4.5000e-03	0.0869	-17.674608	0.000308	3.078796	0.521562	0.006158
  11	5.0000e-03	0.0965	-17.622438	0.000522	5.216849	0.883758	0.010434
  12	5.5000e-03	0.1055	-17.587800	0.000346	3.463646	0.586757	0.006928
  13	6.0000e-03	0.1168	-17.545465	0.000423	4.233345	0.717148	0.008467
  14	6.5000e-03	0.1270	-17.493722	0.000517	5.174088	0.876514	0.010349
  15	7.0000e-03	0.1356	-17.453098	0.000406	4.062301	0.688172	0.008125
  16	7.5000e-03	0.1464	-17.415467	0.000376	3.762973	0.637465	0.007526
  17	8.0000e-03	0.1575	-17.335929	0.000795	7.953557	1.347369	0.015908
  18	8.5000e-03	0.1694	-17.319679	0.000162	1.624920	0.275269	0.003250
  19	9.0000e-03	0.1788	-17.248693	0.000710	7.098336	1.202491	0.014197
  20	9.5000e-03	0.1856	-17.237575	0.000111	1.111788	0.188342	0.002224
  21	1.0000e-02	0.1979	-17.197378	0.000402	4.019540	0.680928	0.008039
  22	1.0500e-02	0.2081	-17.133234	0.000641	6.414159	1.086588	0.012829
  23	1.1000e-02	0.2168	-17.091755	0.000415	4.147823	0.702660	0.008296
  24	1.1500e-02	0.2277	-17.040867	0.000509	5.088566	0.862026	0.010177
  25	1.2000e-02	0.2352	-16.999815	0.000411	4.105062	0.695416	0.008210
  26	1.2500e-02	0.2459	-16.945934	0.000539	5.387893	0.912734	0.010776
  27	1.3000e-02	0.2558	-16.898896	0.000470	4.703717	0.796831	0.009408
  28	1.3500e-02	0.2649	-16.867251	0.000316	3.164318	0.536050	0.006329
  29	1.4000e-02	0.2747	-16.840311	0.000269	2.693947	0.456367	0.005388
  30	1.4500e-02	0.2850	-16.773174	0.000671	6.713486	1.137295	0.013427
  31	1.5000e-02	0.2979	-16.692353	0.000808	8.081840	1.369101	0.016164
  32	1.5500e-02	0.3061	-16.686793	0.000056	0.555894	0.094171	0.001112
  33	1.6000e-02	0.3174	-16.631630	0.000552	5.516177	0.934466	0.011033
  34	1.6500e-02	0.3255	-16.581170	0.000505	5.045805	0.854783	0.010092
  35	1.7000e-02	0.3367	-16.535414	0.000458	4.575433	0.775099	0.009151
  36	1.7500e-02	0.3454	-16.502487	0.000329	3.292602	0.557782	0.006585
  37	1.8000e-02	0.3580	-16.460152	0.000423	4.233345	0.717148	0.008467
  38	1.8500e-02	0.3636	-16.417817	0.000423	4.233345	0.717148	0.008467
  39	1.9000e-02	0.3745	-16.366502	0.000513	5.131327	0.869270	0.010263
  40	1.9500e-02	0.3861	-16.315615	0.000509	5.088566	0.862026	0.010177
  41	2.0000e-02	0.3968	-16.281405	0.000342	3.420885	0.579514	0.006842
  42	2.0500e-02	0.4045	-16.233938	0.000475	4.746478	0.804075	0.009493
  43	2.1000e-02	0.4173	-16.181340	0.000526	5.259610	0.891002	0.010520
  44	2.1500e-02	0.4266	-16.131308	0.000500	5.003044	0.847539	0.010006
  45	2.2000e-02	0.4405	-16.113348	0.000180	1.795964	0.304245	0.003592
  46	2.2500e-02	0.4455	-16.046638	0.000667	6.670725	1.130051	0.013342
  47	2.3000e-02	0.4568	-15.991475	0.000552	5.516177	0.934466	0.011033
  48	2.3500e-02	0.4673	-15.969238	0.000222	2.223575	0.376684	0.004447
  49	2.4000e-02	0.4771	-15.898680	0.000706	7.055575	1.195247	0.014112
  50	2.4500e-02	0.4846	-15.865753	0.000329	3.292602	0.557782	0.006585
  51	2.5000e-02	0.4956	-15.843089	0.000227	2.266336	0.383928	0.004533
  52	2.5500e-02	0.5044	-15.767399	0.000757	7.568708	1.282174	0.015138
  53	2.6000e-02	0.5157	-15.740459	0.000269	2.693947	0.456367	0.005388
  54	2.6500e-02	0.5263	-15.680591	0.000599	5.986548	1.014149	0.011974
  55	2.7000e-02	0.5378	-15.620296	0.000603	6.029309	1.021393	0.012059
  56	2.7500e-02	0.5495	-15.599342	0.000210	2.095292	0.354952	0.004191
  57	2.8000e-02	0.5582	-15.556152	0.000432	4.318867	0.731636	0.008638
  58	2.8500e-02	0.5658	-15.499278	0.000569	5.687221	0.963441	0.011375
  59	2.9000e-02	0.5750	-15.454377	0.000449	4.489911	0.760612	0.008980
  60	2.9500e-02	0.5862	-15.405201	0.000492	4.917522	0.833051	0.009835
  61	3.0000e-02	0.5972	-15.373556	0.000316	3.164318	0.536050	0.006329
  62	3.0500e-02	0.6061	-15.293163	0.000804	8.039079	1.361857	0.016079
  63	3.1000e-02	0.6134	-15.275630	0.000175	1.753203	0.297001	0.003507
  64	3.1500e-02	0.6266	-15.223887	0.000517	5.174088	0.876514	0.010349
  65	3.2000e-02	0.6387	-15.184974	0.000389	3.891256	0.659197	0.007783
  66	3.2500e-02	0.6470	-15.155467	0.000295	2.950513	0.499830	0.005901
  67	3.3000e-02	0.6557	-15.115698	0.000398	3.976779	0.673685	0.007954
  68	3.3500e-02	0.6667	-15.076784	0.000389	3.891256	0.659197	0.007783
  69	3.4000e-02	0.6754	-15.016489	0.000603	6.029309	1.021393	0.012059
  70	3.4500e-02	0.6859	-14.960898	0.000556	5.558938	0.941710	0.011118
  71	3.5000e-02	0.6947	-14.927115	0.000338	3.378124	0.572270	0.006756
  72	3.5500e-02	0.7062	-14.879649	0.000475	4.746478	0.804075	0.009493
  73	3.6000e-02	0.7166	-14.824485	0.000552	5.516177	0.934466	0.011033
  74	3.6500e-02	0.7259	-14.783006	0.000415	4.147823	0.702660	0.008296
  75	3.7000e-02	0.7364	-14.708599	0.000744	7.440424	1.260442	0.014881
  76	3.7500e-02	0.7482	-14.673106	0.000355	3.549168	0.601245	0.007099
  77	3.8000e-02	0.7569	-14.658567	0.000145	1.453876	0.246293	0.002908
  78	3.8500e-02	0.7664	-14.608107	0.000505	5.045805	0.854783	0.010092
  79	3.9000e-02	0.7774	-14.572614	0.000355	3.549168	0.601245	0.007099
  80	3.9500e-02	0.7856	-14.516595	0.000560	5.601699	0.948953	0.011204
  81	4.0000e-02	0.7982	-14.461859	0.000547	5.473416	0.927222	0.010947
  82	4.0500e-02	0.8045	-14.437485	0.000244	2.437380	0.412903	0.004875
  83	4.1000e-02	0.8157	-14.375051	0.000624	6.243115	1.057612	0.012487
  84	4.1500e-02	0.8273	-14.319460	0.000556	5.558938	0.941710	0.011118
  85	4.2000e-02	0.8372	-14.268573	0.000509	5.088566	0.862026	0.010177
  86	4.2500e-02	0.8459	-14.246764	0.000218	2.180814	0.369440	0.004362
  87	4.3000e-02	0.8556	-14.199725	0.000470	4.703717	0.796831	0.009408
  88	4.3500e-02	0.8659	-14.147982	0.000517	5.174088	0.876514	0.010349
  89	4.4000e-02	0.8765	-14.118476	0.000295	2.950513	0.499830	0.005901
  90	4.4500e-02	0.8862	-14.079562	0.000389	3.891256	0.659197	0.007783
  91	4.5000e-02	0.8939	-14.011570	0.000680	6.799008	1.151783	0.013598
  92	4.5500e-02	0.9035	-13.973083	0.000385	3.848495	0.651953	0.007697
  93	4.6000e-02	0.9174	-13.923479	0.000496	4.960283	0.840295	0.009921
  94	4.6500e-02	0.9280	-13.891407	0.000321	3.207079	0.543294	0.006414
  95	4.7000e-02	0.9344	-13.833678	0.000577	5.772743	0.977929	0.011546
  96	4.7500e-02	0.9446	-13.790487	0.000432	4.318867	0.731636	0.008638
  97	4.8000e-02	0.9579	-13.760126	0.000304	3.036035	0.514318	0.006072
  98	4.8500e-02	0.9674	-13.711377	0.000487	4.874761	0.825807	0.009750
  99	4.9000e-02	0.9773	-13.656641	0.000547	5.473416	0.927222	0.010947
 100	4.9500e-02	0.9877	-13.597628	0.000590	5.901026	0.999661	0.011802
 101	5.0000e-02	0.9958	-13.586938	0.000107	1.069026	0.181098	0.002138
 102	5.0500e-02	1.0062	-13.538616	0.000483	4.832000	0.818563	0.009664
 103	5.1000e-02	1.0199	-13.463354	0.000753	7.525946	1.274930	0.015052
 104	5.1500e-02	1.0268	-13.427006	0.000363	3.634690	0.615733	0.007270
 105	5.2000e-02	1.0367	-13.379540	0.000475	4.746478	0.804075	0.009493
 106	5.2500e-02	1.0463	-13.335067	0.000445	4.447150	0.753368	0.008895
 107	5.3000e-02	1.0580	-13.304278	0.000308	3.078796	0.521562	0.006158
 108	5.3500e-02	1.0646	-13.274771	0.000295	2.950513	0.499830	0.005901
 109	5.4000e-02	1.0798	-13.207207	0.000676	6.756247	1.144539	0.013513
 110	5.4500e-02	1.0884	-13.160168	0.000470	4.703717	0.796831	0.009408
 111	5.5000e-02	1.0983	-13.131089	0.000291	2.907752	0.492587	0.005816
 112	5.5500e-02	1.1068	-13.070367	0.000607	6.072070	1.028637	0.012145
 113	5.6000e-02	1.1176	-13.031880	0.000385	3.848495	0.651953	0.007697
 114	5.6500e-02	1.1282	-12.989545	0.000423	4.233345	0.717148	0.008467
 115	5.7000e-02	1.1369	-12.936947	0.000526	5.259610	0.891002	0.010520
 116	5.7500e-02	1.1475	-12.921125	0.000158	1.582159	0.268025	0.003164
 117	5.8000e-02	1.1574	-12.856982	0.000641	6.414159	1.086588	0.012829
 118	5.8500e-02	1.1666	-12.823627	0.000334	3.335363	0.565026	0.006671
 119	5.9000e-02	1.1803	-12.741095	0.000825	8.252884	1.398076	0.016506
 120	5.9500e-02	1.1893	-12.713299	0.000278	2.779469	0.470855	0.005559
 121	6.0000e-02	1.1966	-12.677807	0.000355	3.549168	0.601245	0.007099
 122	6.0500e-02	1.2072	-12.647445	0.000304	3.036035	0.514318	0.006072
 123	6.1000e-02	1.2167	-12.573894	0.000735	7.354902	1.245954	0.014710
 124	6.1500e-02	1.2269	-12.549091	0.000248	2.480141	0.420147	0.004960
 125	6.2000e-02	1.2392	-12.503335	0.000458	4.575433	0.775099	0.009151
 126	6.2500e-02	1.2466	-12.452448	0.000509	5.088566	0.862026	0.010177
 127	6.3000e-02	1.2563	-12.419521	0.000329	3.292602	0.557782	0.006585
 128	6.3500e-02	1.2681	-12.381890	0.000376	3.762973	0.637465	0.007526
 129	6.4000e-02	1.2767	-12.319457	0.000624	6.243115	1.057612	0.012487
 130	6.4500e-02	1.2845	-12.283536	0.000359	3.591929	0.608489	0.007184
 131	6.5000e-02	1.2950	-12.248898	0.000346	3.463646	0.586757	0.006928
 132	6.5500e-02	1.3079	-12.184327	0.000646	6.456920	1.093832	0.012914
 133	6.6000e-02	1.3169	-12.142420	0.000419	4.190584	0.709904	0.008381
 134	6.6500e-02	1.3272	-12.103506	0.000389	3.891256	0.659197	0.007783
 135	6.7000e-02	1.3329	-12.046632	0.000569	5.687221	0.963441	0.011375
 136	6.7500e-02	1.3446	-12.006007	0.000406	4.062301	0.688172	0.008125
 137	6.8000e-02	1.3548	-11.967521	0.000385	3.848495	0.651953	0.007697
 138	6.8500e-02	1.3640	-11.922620	0.000449	4.489911	0.760612	0.008980
 139	6.9000e-02	1.3765	-11.878147	0.000445	4.447150	0.753368	0.008895
 140	6.9500e-02	1.3864	-11.822128	0.000560	5.601699	0.948953	0.011204
 141	7.0000e-02	1.3951	-11.804168	0.000180	1.795964	0.304245	0.003592
 142	7.0500e-02	1.4078	-11.762688	0.000415	4.147823	0.702660	0.008296
 143	7.1000e-02	1.4162	-11.695979	0.000667	6.670725	1.130051	0.013342
 144	7.1500e-02	1.4290	-11.649368	0.000466	4.660955	0.789587	0.009322
 145	7.2000e-02	1.4384	-11.604467	0.000449	4.489911	0.760612	0.008980
 146	7.2500e-02	1.4436	-11.557001	0.000475	4.746478	0.804075	0.009493
 147	7.3000e-02	1.4577	-11.529205	0.000278	2.779469	0.470855	0.005559
 148	7.3500e-02	1.4690	-11.478318	0.000509	5.088566	0.862026	0.010177
 149	7.4000e-02	1.4752	-11.439831	0.000385	3.848495	0.651953	0.007697
 150	7.4500e-02	1.4885	-11.412891	0.000269	2.693947	0.456367	0.005388
 151	7.5000e-02	1.4967	-11.357300	0.000556	5.558938	0.941710	0.011118
 152	7.5500e-02	1.5076	-11.305557	0.000517	5.174088	0.876514	0.010349
 153	7.6000e-02	1.5184	-11.253814	0.000517	5.174088	0.876514	0.010349
 154	7.6500e-02	1.5277	-11.223881	0.000299	2.993274	0.507074	0.005987
 155	7.7000e-02	1.5398	-11.170427	0.000535	5.345132	0.905490	0.010691
 156	7.7500e-02	1.5469	-11.126382	0.000440	4.404389	0.746124	0.008809
 157	7.8000e-02	1.5564	-11.085758	0.000406	4.062301	0.688172	0.008125
 158	7.8500e-02	1.5671	-11.060955	0.000248	2.480141	0.420147	0.004960
 159	7.9000e-02	1.5764	-10.992963	0.000680	6.799008	1.151783	0.013598
 160	7.9500e-02	1.5861	-10.962174	0.000308	3.078796	0.521562	0.006158
 161	8.0000e-02	1.5973	-10.902734	0.000594	5.943787	1.006905	0.011888
 162	8.0500e-02	1.6078	-10.871945	0.000308	3.078796	0.521562	0.006158
 163	8.1000e-02	1.6160	-10.817637	0.000543	5.430655	0.919978	0.010862
 164	8.1500e-02	1.6257	-10.794117	0.000235	2.351858	0.398416	0.004704
 165	8.2000e-02	1.6360	-10.752210	0.000419	4.190584	0.709904	0.008381
 166	8.2500e-02	1.6455	-10.686356	0.000659	6.585203	1.115564	0.013171
 167	8.3000e-02	1.6623	-10.644448	0.000419	4.190584	0.709904	0.008381
 168	8.3500e-02	1.6672	-10.612804	0.000316	3.164318	0.536050	0.006329
 169	8.4000e-02	1.6771	-10.570042	0.000428	4.276106	0.724392	0.008553
 170	8.4500e-02	1.6861	-10.512740	0.000573	5.729982	0.970685	0.011460
 171	8.5000e-02	1.6960	-10.474681	0.000381	3.805734	0.644709	0.007612
 172	8.5500e-02	1.7068	-10.439616	0.000351	3.506407	0.594001	0.007013
 173	8.6000e-02	1.7162	-10.374189	0.000654	6.542442	1.108320	0.013085
 174	8.6500e-02	1.7268	-10.354946	0.000192	1.924248	0.325976	0.003849
 175	8.7000e-02	1.7361	-10.301920	0.000530	5.302371	0.898246	0.010605
 176	8.7500e-02	1.7476	-10.259586	0.000423	4.233345	0.717148	0.008467
 177	8.8000e-02	1.7578	-10.223665	0.000359	3.591929	0.608489	0.007184
 178	8.8500e-02	1.7659	-10.174916	0.000487	4.874761	0.825807	0.009750
 179	8.9000e-02	1.7774	-10.128305	0.000466	4.660955	0.789587	0.009322
 180	8.9500e-02	1.7841	-10.083404	0.000449	4.489911	0.760612	0.008980
 181	9.0000e-02	1.7944	-10.033799	0.000496	4.960283	0.840295	0.009921
 182	9.0500e-02	1.8073	-9.991892	0.000419	4.190584	0.709904	0.008381
 183	9.1000e-02	1.8163	-9.949985	0.000419	4.190584	0.709904	0.008381
 184	9.1500e-02	1.8267	-9.910216	0.000398	3.976779	0.673685	0.007954
 185	9.2000e-02	1.8365	-9.870019	0.000402	4.019540	0.680928	0.008039
 186	9.2500e-02	1.8486	-9.819987	0.000500	5.003044	0.847539	0.010006
 187	9.3000e-02	1.8561	-9.773376	0.000466	4.660955	0.789587	0.009322
 188	9.3500e-02	1.8654	-9.730613	0.000428	4.276106	0.724392	0.008553
 189	9.4000e-02	1.8769	-9.701962	0.000286	2.864991	0.485343	0.005730
 190	9.4500e-02	1.8875	-9.649364	0.000526	5.259610	0.891002	0.010520
 191	9.5000e-02	1.8998	-9.598905	0.000505	5.045805	0.854783	0.010092
 192	9.5500e-02	1.9095	-9.563412	0.000355	3.549168	0.601245	0.007099
 193	9.6000e-02	1.9177	-9.524498	0.000389	3.891256	0.659197	0.007783
 194	9.6500e-02	1.9261	-9.468479	0.000560	5.601699	0.948953	0.011204
 195	9.7000e-02	1.9388	-9.434269	0.000342	3.420885	0.579514	0.006842
 196	9.7500e-02	1.9504	-9.386802	0.000475	4.746478	0.804075	0.009493
 197	9.8000e-02	1.9574	-9.348744	0.000381	3.805734	0.644709	0.007612
 198	9.8500e-02	1.9695	-9.299994	0.000487	4.874761	0.825807	0.009750
 199	9.9000e-02	1.9788	-9.258087	0.000419	4.190584	0.709904	0.008381
 200	9.9500e-02	1.9878	-9.229436	0.000286	2.864991	0.485343	0.005730
 201	1.0000e-01	1.9975	-9.181542	0.000479	4.789239	0.811319	0.009579
 202	1.0050e-01	2.0052	-9.142628	0.000389	3.891256	0.659197	0.007783
 203	1.0100e-01	2.0167	-9.097300	0.000453	4.532672	0.767855	0.009066
 204	1.0150e-01	2.0258	-9.050689	0.000466	4.660955	0.789587	0.009322
 205	1.0200e-01	2.0355	-9.019900	0.000308	3.078796	0.521562	0.006158
 206	1.0250e-01	2.0511	-8.957894	0.000620	6.200354	1.050368	0.012401
 207	1.0300e-01	2.0544	-8.916415	0.000415	4.147823	0.702660	0.008296
 208	1.0350e-01	2.0658	-8.874080	0.000423	4.233345	0.717148	0.008467
 209	1.0400e-01	2.0753	-8.836021	0.000381	3.805734	0.644709	0.007612
 210	1.0450e-01	2.0869	-8.791120	0.000449	4.489911	0.760612	0.008980
 211	1.0500e-01	2.0950	-8.742799	0.000483	4.832000	0.818563	0.009664
 212	1.0550e-01	2.1066	-8.690201	0.000526	5.259610	0.891002	0.010520
 213	1.0600e-01	2.1164	-8.668392	0.000218	2.180814	0.369440	0.004362
 214	1.0650e-01	2.1289	-8.614084	0.000543	5.430655	0.919978	0.010862
 215	1.0700e-01	2.1359	-8.562768	0.000513	5.131327	0.869270	0.010263
 216	1.0750e-01	2.1471	-8.529841	0.000329	3.292602	0.557782	0.006585
 217	1.0800e-01	2.1591	-8.481947	0.000479	4.789239	0.811319	0.009579
 218	1.0850e-01	2.1677	-8.444744	0.000372	3.720212	0.630221	0.007441
 219	1.0900e-01	2.1765	-8.408823	0.000359	3.591929	0.608489	0.007184
 220	1.0950e-01	2.1860	-8.352804	0.000560	5.601699	0.948953	0.011204
 221	1.1000e-01	2.1969	-8.324154	0.000286	2.864991	0.485343	0.005730
 222	1.1050e-01	2.2115	-8.275404	0.000487	4.874761	0.825807	0.009750
 223	1.1100e-01	2.2182	-8.232214	0.000432	4.318867	0.731636	0.008638
 224	1.1150e-01	2.2254	-8.208267	0.000239	2.394619	0.405659	0.004789
 225	1.1200e-01	2.2369	-8.156524	0.000517	5.174088	0.876514	0.010349
 226	1.1250e-01	2.2467	-8.106492	0.000500	5.003044	0.847539	0.010006
 227	1.1300e-01	2.2568	-8.057315	0.000492	4.917522	0.833051	0.009835
 228	1.1350e-01	2.2679	-8.029947	0.000274	2.736708	0.463611	0.005474
 229	1.1400e-01	2.2762	-7.982481	0.000475	4.746478	0.804075	0.009493
 230	1.1450e-01	2.2886	-7.927317	0.000552	5.516177	0.934466	0.011033
 231	1.1500e-01	2.2986	-7.918765	0.000086	0.855221	0.144878	0.001711
 232	1.1550e-01	2.3090	-7.857187	0.000616	6.157593	1.043124	0.012316
 233	1.1600e-01	2.3163	-7.811859	0.000453	4.532672	0.767855	0.009066
 234	1.1650e-01	2.3285	-7.760116	0.000517	5.174088	0.876514	0.010349
 235	1.1700e-01	2.3367	-7.737452	0.000227	2.266336	0.383928	0.004533
 236	1.1750e-01	2.3468	-7.670742	0.000667	6.670725	1.130051	0.013342
 237	1.1800e-01	2.3566	-7.652354	0.000184	1.838726	0.311489	0.003678
 238	1.1850e-01	2.3688	-7.614296	0.000381	3.805734	0.644709	0.007612
 239	1.1900e-01	2.3775	-7.548014	0.000663	6.627964	1.122808	0.013256
 240	1.1950e-01	2.3857	-7.519790	0.000282	2.822230	0.478099	0.005645
 241	1.2000e-01	2.3969	-7.457357	0.000624	6.243115	1.057612	0.012487
 242	1.2050e-01	2.4057	-7.427851	0.000295	2.950513	0.499830	0.005901
 243	1.2100e-01	2.4142	-7.376964	0.000509	5.088566	0.862026	0.010177
 244	1.2150e-01	2.4281	-7.348313	0.000286	2.864991	0.485343	0.005730
 245	1.2200e-01	2.4361	-7.317951	0.000304	3.036035	0.514318	0.006072
 246	1.2250e-01	2.4465	-7.276472	0.000415	4.147823	0.702660	0.008296
 247	1.2300e-01	2.4574	-7.227295	0.000492	4.917522	0.833051	0.009835
 248	1.2350e-01	2.4683	-7.187953	0.000393	3.934017	0.666441	0.007868
 249	1.2400e-01	2.4761	-7.128086	0.000599	5.986548	1.014149	0.011974
 250	1.2450e-01	2.4886	-7.098152	0.000299	2.993274	0.507074	0.005987
 251	1.2500e-01	2.4963	-7.050686	0.000475	4.746478	0.804075	0.009493
 252	1.2550e-01	2.5090	-7.010916	0.000398	3.976779	0.673685	0.007954
 253	1.2600e-01	2.5175	-6.972002	0.000389	3.891256	0.659197	0.007783
 254	1.2650e-01	2.5255	-6.925819	0.000462	4.618194	0.782343	0.009237
 255	1.2700e-01	2.5369	-6.884339	0.000415	4.147823	0.702660	0.008296
 256	1.2750e-01	2.5488	-6.844570	0.000398	3.976779	0.673685	0.007954
 257	1.2800e-01	2.5568	-6.796676	0.000479	4.789239	0.811319	0.009579
 258	1.2850e-01	2.5656	-6.763321	0.000334	3.335363	0.565026	0.006671
 259	1.2900e-01	2.5763	-6.719276	0.000440	4.404389	0.746124	0.008809
 260	1.2950e-01	2.5873	-6.677796	0.000415	4.147823	0.702660	0.008296
 261	1.3000e-01	2.5958	-6.654277	0.000235	2.351858	0.398416	0.004704
 262	1.3050e-01	2.6045	-6.596975	0.000573	5.729982	0.970685	0.011460
 263	1.3100e-01	2.6136	-6.551647	0.000453	4.532672	0.767855	0.009066
 264	1.3150e-01	2.6257	-6.511450	0.000402	4.019540	0.680928	0.008039
 265	1.3200e-01	2.6361	-6.481089	0.000304	3.036035	0.514318	0.006072
 266	1.3250e-01	2.6459	-6.419083	0.000620	6.200354	1.050368	0.012401
 267	1.3300e-01	2.6527	-6.367340	0.000517	5.174088	0.876514	0.010349
 268	1.3350e-01	2.6648	-6.354084	0.000133	1.325593	0.224562	0.002651
 269	1.3400e-01	2.6778	-6.302341	0.000517	5.174088	0.876514	0.010349
 270	1.3450e-01	2.6875	-6.251026	0.000513	5.131327	0.869270	0.010263
 271	1.3500e-01	2.6987	-6.220665	0.000304	3.036035	0.514318	0.006072
 272	1.3550e-01	2.7054	-6.195863	0.000248	2.480141	0.420147	0.004960
 273	1.3600e-01	2.7155	-6.147969	0.000479	4.789239	0.811319	0.009579
 274	1.3650e-01	2.7271	-6.117180	0.000308	3.078796	0.521562	0.006158
 275	1.3700e-01	2.7362	-6.041062	0.000761	7.611469	1.289418	0.015223
 276	1.3750e-01	2.7460	-6.000438	0.000406	4.062301	0.688172	0.008125
 277	1.3800e-01	2.7554	-5.977774	0.000227	2.266336	0.383928	0.004533
 278	1.3850e-01	2.7661	-5.929452	0.000483	4.832000	0.818563	0.009664
 279	1.3900e-01	2.7769	-5.885834	0.000436	4.361628	0.738880	0.008724
 280	1.3950e-01	2.7854	-5.867446	0.000184	1.838726	0.311489	0.003678
 281	1.4000e-01	2.7966	-5.805868	0.000616	6.157593	1.043124	0.012316
 282	1.4050e-01	2.8076	-5.780638	0.000252	2.522903	0.427391	0.005046
 283	1.4100e-01	2.8149	-5.730179	0.000505	5.045805	0.854783	0.010092
 284	1.4150e-01	2.8291	-5.701100	0.000291	2.907752	0.492587	0.005816
 285	1.4200e-01	2.8369	-5.643371	0.000577	5.772743	0.977929	0.011546
 286	1.4250e-01	2.8461	-5.592483	0.000509	5.088566	0.862026	0.010177
 287	1.4300e-01	2.8578	-5.563832	0.000286	2.864991	0.485343	0.005730
 288	1.4350e-01	2.8670	-5.524491	0.000393	3.934017	0.666441	0.007868
 289	1.4400e-01	2.8801	-5.497551	0.000269	2.693947	0.456367	0.005388
 290	1.4450e-01	2.8857	-5.446235	0.000513	5.131327	0.869270	0.010263
 291	1.4500e-01	2.8970	-5.390644	0.000556	5.558938	0.941710	0.011118
 292	1.4550e-01	2.9080	-5.350875	0.000398	3.976779	0.673685	0.007954
 293	1.4600e-01	2.9171	-5.317948	0.000329	3.292602	0.557782	0.006585
 294	1.4650e-01	2.9248	-5.278606	0.000393	3.934017	0.666441	0.007868
 295	1.4700e-01	2.9370	-5.223443	0.000552	5.516177	0.934466	0.011033
 296	1.4750e-01	2.9486	-5.187522	0.000359	3.591929	0.608489	0.007184
 297	1.4800e-01	2.9562	-5.160582	0.000269	2.693947	0.456367	0.005388
 298	1.4850e-01	2.9672	-5.127227	0.000334	3.335363	0.565026	0.006671
 299	1.4900e-01	2.9742	-5.067787	0.000594	5.943787	1.006905	0.011888
 300	1.4950e-01	2.9871	-5.046833	0.000210	2.095292	0.354952	0.004191
 301	1.5000e-01	2.9987	-4.988676	0.000582	5.815504	0.985173	0.011631
 302	1.5050e-01	3.0090	-4.954039	0.000346	3.463646	0.586757	0.006928
 303	1.5100e-01	3.0174	-4.918118	0.000359	3.591929	0.608489	0.007184
 304	1.5150e-01	3.0298	-4.885619	0.000325	3.249841	0.550538	0.006500
 305	1.5200e-01	3.0396	-4.833448	0.000522	5.216849	0.883758	0.010434
 306	1.5250e-01	3.0472	-4.787265	0.000462	4.618194	0.782343	0.009237
 307	1.5300e-01	3.0573	-4.759897	0.000274	2.736708	0.463611	0.005474
 308	1.5350e-01	3.0667	-4.706444	0.000535	5.345132	0.905490	0.010691
 309	1.5400e-01	3.0757	-4.669668	0.000368	3.677451	0.622977	0.007355
 310	1.5450e-01	3.0856	-4.633747	0.000359	3.591929	0.608489	0.007184
 311	1.5500e-01	3.1013	-4.586281	0.000475	4.746478	0.804075	0.009493
 312	1.5550e-01	3.1079	-4.543519	0.000428	4.276106	0.724392	0.008553
 313	1.5600e-01	3.1169	-4.508026	0.000355	3.549168	0.601245	0.007099
 314	1.5650e-01	3.1258	-4.475098	0.000329	3.292602	0.557782	0.006585
 315	1.5700e-01	3.1354	-4.424211	0.000509	5.088566	0.862026	0.010177
 316	1.5750e-01	3.1482	-4.395133	0.000291	2.907752	0.492587	0.005816
 317	1.5800e-01	3.1601	-4.356219	0.000389	3.891256	0.659197	0.007783
 318	1.5850e-01	3.1689	-4.303193	0.000530	5.302371	0.898246	0.010605
 319	1.5900e-01	3.1769	-4.267273	0.000359	3.591929	0.608489	0.007184
 320	1.5950e-01	3.1873	-4.230924	0.000363	3.634690	0.615733	0.007270
 321	1.6000e-01	3.1952	-4.182175	0.000487	4.874761	0.825807	0.009750
 322	1.6050e-01	3.2077	-4.145827	0.000363	3.634690	0.615733	0.007270
 323	1.6100e-01	3.2153	-4.101782	0.000440	4.404389	0.746124	0.008809
 324	1.6150e-01	3.2271	-4.073558	0.000282	2.822230	0.478099	0.005645
 325	1.6200e-01	3.2397	-4.039348	0.000342	3.420885	0.579514	0.006842
 326	1.6250e-01	3.2492	-3.992310	0.000470	4.703717	0.796831	0.009408
 327	1.6300e-01	3.2552	-3.955534	0.000368	3.677451	0.622977	0.007355
 328	1.6350e-01	3.2684	-3.898232	0.000573	5.729982	0.970685	0.011460
 329	1.6400e-01	3.2779	-3.879416	0.000188	1.881487	0.318732	0.003763
 330	1.6450e-01	3.2877	-3.842641	0.000368	3.677451	0.622977	0.007355
 331	1.6500e-01	3.2977	-3.797740	0.000449	4.489911	0.760612	0.008980
 332	1.6550e-01	3.3076	-3.762247	0.000355	3.549168	0.601245	0.007099
 333	1.6600e-01	3.3160	-3.692117	0.000701	7.012814	1.188003	0.014026
 334	1.6650e-01	3.3270	-3.673301	0.000188	1.881487	0.318732	0.003763
 335	1.6700e-01	3.3396	-3.635670	0.000376	3.762973	0.637465	0.007526
 336	1.6750e-01	3.3490	-3.586921	0.000487	4.874761	0.825807	0.009750
 337	1.6800e-01	3.3563	-3.541593	0.000453	4.532672	0.767855	0.009066
 338	1.6850e-01	3.3679	-3.541165	0.000004	0.042761	0.007244	0.000086
 339	1.6900e-01	3.3768	-3.497547	0.000436	4.361628	0.738880	0.008724
 340	1.6950e-01	3.3859	-3.449653	0.000479	4.789239	0.811319	0.009579
 341	1.7000e-01	3.3979	-3.412022	0.000376	3.762973	0.637465	0.007526
 342	1.7050e-01	3.4058	-3.354293	0.000577	5.772743	0.977929	0.011546
 343	1.7100e-01	3.4164	-3.323504	0.000308	3.078796	0.521562	0.006158
 344	1.7150e-01	3.4264	-3.269195	0.000543	5.430655	0.919978	0.010862
 345	1.7200e-01	3.4393	-3.243110	0.000261	2.608425	0.441879	0.005217
 346	1.7250e-01	3.4472	-3.189229	0.000539	5.387893	0.912734	0.010776
 347	1.7300e-01	3.4549	-3.140480	0.000487	4.874761	0.825807	0.009750
 348	1.7350e-01	3.4676	-3.126368	0.000141	1.411115	0.239049	0.002822
 349	1.7400e-01	3.4775	-3.064790	0.000616	6.157593	1.043124	0.012316
 350	1.7450e-01	3.4879	-3.047258	0.000175	1.753203	0.297001	0.003507
 351	1.7500e-01	3.4967	-3.001074	0.000462	4.618194	0.782343	0.009237
 352	1.7550e-01	3.5071	-2.959595	0.000415	4.147823	0.702660	0.008296
 353	1.7600e-01	3.5187	-2.951470	0.000081	0.812460	0.137634	0.001625
 354	1.7650e-01	3.5272	-2.883477	0.000680	6.799008	1.151783	0.013598
 355	1.7700e-01	3.5374	-2.840715	0.000428	4.276106	0.724392	0.008553
 356	1.7750e-01	3.5471	-2.793676	0.000470	4.703717	0.796831	0.009408
 357	1.7800e-01	3.5547	-2.772722	0.000210	2.095292	0.354952	0.004191
 358	1.7850e-01	3.5654	-2.724828	0.000479	4.789239	0.811319	0.009579
 359	1.7900e-01	3.5773	-2.680355	0.000445	4.447150	0.753368	0.008895
 360	1.7950e-01	3.5883	-2.625619	0.000547	5.473416	0.927222	0.010947
 361	1.8000e-01	3.5956	-2.602100	0.000235	2.351858	0.398416	0.004704
 362	1.8050e-01	3.6041	-2.579863	0.000222	2.223575	0.376684	0.004447
 363	1.8100e-01	3.6183	-2.524700	0.000552	5.516177	0.934466	0.011033
 364	1.8150e-01	3.6252	-2.483220	0.000415	4.147823	0.702660	0.008296
 365	1.8200e-01	3.6368	-2.455424	0.000278	2.779469	0.470855	0.005559
 366	1.8250e-01	3.6478	-2.404965	0.000505	5.045805	0.854783	0.010092
 367	1.8300e-01	3.6578	-2.379307	0.000257	2.565664	0.434635	0.005132
 368	1.8350e-01	3.6658	-2.351084	0.000282	2.822230	0.478099	0.005645
 369	1.8400e-01	3.6792	-2.304473	0.000466	4.660955	0.789587	0.009322
 370	1.8450e-01	3.6890	-2.234770	0.000697	6.970053	1.180759	0.013941
 371	1.8500e-01	3.6986	-2.215527	0.000192	1.924248	0.325976	0.003849
 372	1.8550e-01	3.7061	-2.180034	0.000355	3.549168	0.601245	0.007099
 373	1.8600e-01	3.7167	-2.140692	0.000393	3.934017	0.666441	0.007868
 374	1.8650e-01	3.7268	-2.091515	0.000492	4.917522	0.833051	0.009835
 375	1.8700e-01	3.7364	-2.062009	0.000295	2.950513	0.499830	0.005901
 376	1.8750e-01	3.7468	-2.035924	0.000261	2.608425	0.441879	0.005217
 377	1.8800e-01	3.7579	-1.979050	0.000569	5.687221	0.963441	0.011375
 378	1.8850e-01	3.7686	-1.948261	0.000308	3.078796	0.521562	0.006158
 379	1.8900e-01	3.7756	-1.905498	0.000428	4.276106	0.724392	0.008553
 380	1.8950e-01	3.7869	-1.847769	0.000577	5.772743	0.977929	0.011546
 381	1.9000e-01	3.7978	-1.849479	-0.000017	-0.171044	-0.028976	-0.000342
 382	1.9050e-01	3.8060	-1.790895	0.000586	5.858265	0.992417	0.011717
 383	1.9100e-01	3.8174	-1.755402	0.000355	3.549168	0.601245	0.007099
 384	1.9150e-01	3.8251	-1.721192	0.000342	3.420885	0.579514	0.006842
 385	1.9200e-01	3.8355	-1.674153	0.000470	4.703717	0.796831	0.009408
 386	1.9250e-01	3.8480	-1.651916	0.000222	2.223575	0.376684	0.004447
 387	1.9300e-01	3.8565	-1.588200	0.000637	6.371398	1.079344	0.012743
 388	1.9350e-01	3.8623	-1.568957	0.000192	1.924248	0.325976	0.003849
 389	1.9400e-01	3.8766	-1.519353	0.000496	4.960283	0.840295	0.009921
 390	1.9450e-01	3.8876	-1.491129	0.000282	2.822230	0.478099	0.005645
 391	1.9500e-01	3.8989	-1.454781	0.000363	3.634690	0.615733	0.007270
 392	1.9550e-01	3.9069	-1.411591	0.000432	4.318867	0.731636	0.008638
 393	1.9600e-01	3.9148	-1.391920	0.000197	1.967009	0.333220	0.003934
 394	1.9650e-01	3.9235	-1.311954	0.000800	7.996318	1.354613	0.015993
 395	1.9700e-01	3.9349	-1.284586	0.000274	2.736708	0.463611	0.005474
 396	1.9750e-01	3.9451	-1.254225	0.000304	3.036035	0.514318	0.006072
 397	1.9800e-01	3.9572	-1.233699	0.000205	2.052531	0.347708	0.004105
 398	1.9850e-01	3.9655	-1.170838	0.000629	6.285876	1.064856	0.012572
 399	1.9900e-01	3.9743	-1.146463	0.000244	2.437380	0.412903	0.004875
 400	1.9950e-01	3.9871	-1.114819	0.000316	3.164318	0.536050	0.006329
 401	2.0000e-01	3.9975	-1.050675	0.000641	6.414159	1.086588	0.012829
 402	2.0050e-01	4.0073	-1.036991	0.000137	1.368354	0.231805	0.002737
 403	2.0100e-01	4.0186	-0.991235	0.000458	4.575433	0.775099	0.009151
 404	2.0150e-01	4.0265	-0.947618	0.000436	4.361628	0.738880	0.008724
 405	2.0200e-01	4.0384	-0.905710	0.000419	4.190584	0.709904	0.008381
 406	2.0250e-01	4.0454	-0.862520	0.000432	4.318867	0.731636	0.008638
 407	2.0300e-01	4.0573	-0.841994	0.000205	2.052531	0.347708	0.004105
 408	2.0350e-01	4.0674	-0.792817	0.000492	4.917522	0.833051	0.009835
 409	2.0400e-01	4.0775	-0.759890	0.000329	3.292602	0.557782	0.006585
 410	2.0450e-01	4.0863	-0.717555	0.000423	4.233345	0.717148	0.008467
 411	2.0500e-01	4.0997	-0.696174	0.000214	2.138053	0.362196	0.004276
 412	2.0550e-01	4.1084	-0.640583	0.000556	5.558938	0.941710	0.011118
 413	2.0600e-01	4.1153	-0.611504	0.000291	2.907752	0.492587	0.005816
 414	2.0650e-01	4.1291	-0.561900	0.000496	4.960283	0.840295	0.009921
 415	2.0700e-01	4.1376	-0.534959	0.000269	2.693947	0.456367	0.005388
 416	2.0750e-01	4.1507	-0.494335	0.000406	4.062301	0.688172	0.008125
 417	2.0800e-01	4.1550	-0.466539	0.000278	2.779469	0.470855	0.005559
 418	2.0850e-01	4.1714	-0.434467	0.000321	3.207079	0.543294	0.006414
 419	2.0900e-01	4.1757	-0.380159	0.000543	5.430655	0.919978	0.010862
 420	2.0950e-01	4.1870	-0.350653	0.000295	2.950513	0.499830	0.005901
 421	2.1000e-01	4.1957	-0.319436	0.000312	3.121557	0.528806	0.006243
 422	2.1050e-01	4.2087	-0.268549	0.000509	5.088566	0.862026	0.010177
 423	2.1100e-01	4.2175	-0.224931	0.000436	4.361628	0.738880	0.008724
 424	2.1150e-01	4.2303	-0.217234	0.000077	0.769699	0.130391	0.001539
 425	2.1200e-01	4.2395	-0.164208	0.000530	5.302371	0.898246	0.010605
 426	2.1250e-01	4.2462	-0.124867	0.000393	3.934017	0.666441	0.007868
 427	2.1300e-01	4.2583	-0.073124	0.000517	5.174088	0.876514	0.010349
 428	2.1350e-01	4.2697	-0.037203	0.000359	3.591929	0.608489	0.007184
 429	2.1400e-01	4.2780	-0.017105	0.000201	2.009770	0.340464	0.004020
 430	2.1450e-01	4.2865	0.024802	0.000419	4.190584	0.709904	0.008381
 431	2.1500e-01	4.2975	0.065854	0.000411	4.105062	0.695416	0.008210
 432	2.1550e-01	4.3067	0.085097	0.000192	1.924248	0.325976	0.003849
 433	2.1600e-01	4.3188	0.135557	0.000505	5.045805	0.854783	0.010092
 434	2.1650e-01	4.3262	0.158221	0.000227	2.266336	0.383928	0.004533
 435	2.1700e-01	4.3384	0.221938	0.000637	6.371398	1.079344	0.012743
 436	2.1750e-01	4.3469	0.248450	0.000265	2.651186	0.449123	0.005303
 437	2.1800e-01	4.3567	0.285654	0.000372	3.720212	0.630221	0.007441
 438	2.1850e-01	4.3707	0.308318	0.000227	2.266336	0.383928	0.004533
 439	2.1900e-01	4.3784	0.357922	0.000496	4.960283	0.840295	0.009921
 440	2.1950e-01	4.3866	0.402823	0.000449	4.489911	0.760612	0.008980
 441	2.2000e-01	4.4012	0.418218	0.000154	1.539398	0.260781	0.003079
 442	2.2050e-01	4.4083	0.443875	0.000257	2.565664	0.434635	0.005132
 443	2.2100e-01	4.4177	0.511867	0.000680	6.799008	1.151783	0.013598
 444	2.2150e-01	4.4263	0.535387	0.000235	2.351858	0.398416	0.004704
 445	2.2200e-01	4.4366	0.581570	0.000462	4.618194	0.782343	0.009237
 446	2.2250e-01	4.4476	0.606373	0.000248	2.480141	0.420147	0.004960
 447	2.2300e-01	4.4565	0.641438	0.000351	3.506407	0.594001	0.007013
 448	2.2350e-01	4.4684	0.691042	0.000496	4.960283	0.840295	0.009921
 449	2.2400e-01	4.4791	0.743213	0.000522	5.216849	0.883758	0.010434
 450	2.2450e-01	4.4855	0.782127	0.000389	3.891256	0.659197	0.007783
 451	2.2500e-01	4.4968	0.812488	0.000304	3.036035	0.514318	0.006072
 452	2.2550e-01	4.5084	0.829165	0.000167	1.667681	0.282513	0.003335
 453	2.2600e-01	4.5190	0.879198	0.000500	5.003044	0.847539	0.010006
 454	2.2650e-01	4.5267	0.906993	0.000278	2.779469	0.470855	0.005559
 455	2.2700e-01	4.5380	0.951039	0.000440	4.404389	0.746124	0.008809
 456	2.2750e-01	4.5465	0.987814	0.000368	3.677451	0.622977	0.007355
 457	2.2800e-01	4.5546	0.999360	0.000115	1.154549	0.195586	0.002309
 458	2.2850e-01	4.5673	1.038274	0.000389	3.891256	0.659197	0.007783
 459	2.2900e-01	4.5761	1.096859	0.000586	5.858265	0.992417	0.011717
 460	2.2950e-01	4.5862	1.131069	0.000342	3.420885	0.579514	0.006842
 461	2.3000e-01	4.5972	1.178963	0.000479	4.789239	0.811319	0.009579
 462	2.3050e-01	4.6069	1.220870	0.000419	4.190584	0.709904	0.008381
 463	2.3100e-01	4.6169	1.241824	0.000210	2.095292	0.354952	0.004191
 464	2.3150e-01	4.6277	1.282448	0.000406	4.062301	0.688172	0.008125
 465	2.3200e-01	4.6391	1.319652	0.000372	3.720212	0.630221	0.007441
 466	2.3250e-01	4.6451	1.349585	0.000299	2.993274	0.507074	0.005987
 467	2.3300e-01	4.6588	1.379947	0.000304	3.036035	0.514318	0.006072
 468	2.3350e-01	4.6687	1.435538	0.000556	5.558938	0.941710	0.011118
 469	2.3400e-01	4.6759	1.461623	0.000261	2.608425	0.441879	0.005217
 470	2.3450e-01	4.6881	1.498827	0.000372	3.720212	0.630221	0.007441
 471	2.3500e-01	4.6948	1.546293	0.000475	4.746478	0.804075	0.009493
 472	2.3550e-01	4.7061	1.562970	0.000167	1.667681	0.282513	0.003335
 473	2.3600e-01	4.7183	1.595042	0.000321	3.207079	0.543294	0.006414
 474	2.3650e-01	4.7278	1.627114	0.000321	3.207079	0.543294	0.006414
 475	2.3700e-01	4.7388	1.664318	0.000372	3.720212	0.630221	0.007441
 476	2.3750e-01	4.7443	1.716488	0.000522	5.216849	0.883758	0.010434
 477	2.3800e-01	4.7565	1.747704	0.000312	3.121557	0.528806	0.006243
 478	2.3850e-01	4.7681	1.788329	0.000406	4.062301	0.688172	0.008125
 479	2.3900e-01	4.7778	1.820828	0.000325	3.249841	0.550538	0.006500
 480	2.3950e-01	4.7871	1.873426	0.000526	5.259610	0.891002	0.010520
 481	2.4000e-01	4.7980	1.896946	0.000235	2.351858	0.398416	0.004704
 482	2.4050e-01	4.8065	1.915334	0.000184	1.838726	0.311489	0.003678
 483	2.4100e-01	4.8181	1.973063	0.000577	5.772743	0.977929	0.011546
 484	2.4150e-01	4.8279	1.983326	0.000103	1.026265	0.173854	0.002053
 485	2.4200e-01	4.8392	2.023095	0.000398	3.976779	0.673685	0.007954
 486	2.4250e-01	4.8468	2.085528	0.000624	6.243115	1.057612	0.012487
 487	2.4300e-01	4.8590	2.094081	0.000086	0.855221	0.144878	0.001711
 488	2.4350e-01	4.8657	2.141120	0.000470	4.703717	0.796831	0.009408
 489	2.4400e-01	4.8749	2.195856	0.000547	5.473416	0.927222	0.010947
 490	2.4450e-01	4.8871	2.212106	0.000162	1.624920	0.275269	0.003250
 491	2.4500e-01	4.8969	2.235625	0.000235	2.351858	0.398416	0.004704
 492	2.4550e-01	4.9078	2.290789	0.000552	5.516177	0.934466	0.011033
 493	2.4600e-01	4.9164	2.337400	0.000466	4.660955	0.789587	0.009322
 494	2.4650e-01	4.9292	2.378879	0.000415	4.147823	0.702660	0.008296
 495	2.4700e-01	4.9362	2.383156	0.000043	0.427611	0.072439	0.000855
 496	2.4750e-01	4.9483	2.449010	0.000659	6.585203	1.115564	0.013171
 497	2.4800e-01	4.9593	2.475523	0.000265	2.651186	0.449123	0.005303
 498	2.4850e-01	4.9677	2.508022	0.000325	3.249841	0.550538	0.006500
 499	2.4900e-01	4.9799	2.523417	0.000154	1.539398	0.260781	0.003079
 500	2.4950e-01	4.9875	2.596113	0.000727	7.269380	1.231466	0.014539
 501	2.5000e-01	4.9969	2.626474	0.000304	3.036035	0.514318	0.006072
 502	2.5050e-01	5.0073	2.664533	0.000381	3.805734	0.644709	0.007612
 503	2.5100e-01	5.0172	2.687197	0.000227	2.266336	0.383928	0.004533
 504	2.5150e-01	5.0293	2.702592	0.000154	1.539398	0.260781	0.003079
 505	2.5200e-01	5.0397	2.730815	0.000282	2.822230	0.478099	0.005645
 506	2.5250e-01	5.0491	2.775288	0.000445	4.447150	0.753368	0.008895
 507	2.5300e-01	5.0607	2.823610	0.000483	4.832000	0.818563	0.009664
 508	2.5350e-01	5.0656	2.850978	0.000274	2.736708	0.463611	0.005474
 509	2.5400e-01	5.0761	2.892885	0.000419	4.190584	0.709904	0.008381
 510	2.5450e-01	5.0882	2.929661	0.000368	3.677451	0.622977	0.007355
 511	2.5500e-01	5.0998	2.969430	0.000398	3.976779	0.673685	0.007954
 512	2.5550e-01	5.1068	3.011337	0.000419	4.190584	0.709904	0.008381
 513	2.5600e-01	5.1178	3.048968	0.000376	3.762973	0.637465	0.007526
 514	2.5650e-01	5.1276	3.053244	0.000043	0.427611	0.072439	0.000855
 515	2.5700e-01	5.1382	3.093441	0.000402	4.019540	0.680928	0.008039
 516	2.5750e-01	5.1495	3.129789	0.000363	3.634690	0.615733	0.007270
 517	2.5800e-01	5.1584	3.166565	0.000368	3.677451	0.622977	0.007355
 518	2.5850e-01	5.1654	3.221729	0.000552	5.516177	0.934466	0.011033
 519	2.5900e-01	5.1801	3.252090	0.000304	3.036035	0.514318	0.006072
 520	2.5950e-01	5.1874	3.296991	0.000449	4.489911	0.760612	0.008980
 521	2.6000e-01	5.1984	3.323504	0.000265	2.651186	0.449123	0.005303
 522	2.6050e-01	5.2084	3.335905	0.000124	1.240071	0.210074	0.002480
 523	2.6100e-01	5.2179	3.390641	0.000547	5.473416	0.927222	0.010947
 524	2.6150e-01	5.2277	3.412877	0.000222	2.223575	0.376684	0.004447
 525	2.6200e-01	5.2408	3.463337	0.000505	5.045805	0.854783	0.010092
 526	2.6250e-01	5.2490	3.494126	0.000308	3.078796	0.521562	0.006158
 527	2.6300e-01	5.2551	3.543731	0.000496	4.960283	0.840295	0.009921
 528	2.6350e-01	5.2679	3.560836	0.000171	1.710442	0.289757	0.003421
 529	2.6400e-01	5.2765	3.590342	0.000295	2.950513	0.499830	0.005901
 530	2.6450e-01	5.2859	3.640374	0.000500	5.003044	0.847539	0.010006
 531	2.6500e-01	5.2972	3.663038	0.000227	2.266336	0.383928	0.004533
 532	2.6550e-01	5.3107	3.707511	0.000445	4.447150	0.753368	0.008895
 533	2.6600e-01	5.3180	3.743004	0.000355	3.549168	0.601245	0.007099
 534	2.6650e-01	5.3284	3.774221	0.000312	3.121557	0.528806	0.006243
 535	2.6700e-01	5.3386	3.788332	0.000141	1.411115	0.239049	0.002822
 536	2.6750e-01	5.3485	3.844351	0.000560	5.601699	0.948953	0.011204
 537	2.6800e-01	5.3589	3.873857	0.000295	2.950513	0.499830	0.005901
 538	2.6850e-01	5.3671	3.905929	0.000321	3.207079	0.543294	0.006414
 539	2.6900e-01	5.3772	3.951685	0.000458	4.575433	0.775099	0.009151
 540	2.6950e-01	5.3851	3.974777	0.000231	2.309097	0.391172	0.004618
 541	2.7000e-01	5.3943	4.012836	0.000381	3.805734	0.644709	0.007612
 542	2.7050e-01	5.4065	4.065861	0.000530	5.302371	0.898246	0.010605
 543	2.7100e-01	5.4193	4.081683	0.000158	1.582159	0.268025	0.003164
 544	2.7150e-01	5.4248	4.106913	0.000252	2.522903	0.427391	0.005046
 545	2.7200e-01	5.4364	4.163787	0.000569	5.687221	0.963441	0.011375
 546	2.7250e-01	5.4456	4.175761	0.000120	1.197310	0.202830	0.002395
 547	2.7300e-01	5.4559	4.215530	0.000398	3.976779	0.673685	0.007954
 548	2.7350e-01	5.4659	4.257437	0.000419	4.190584	0.709904	0.008381
 549	2.7400e-01	5.4816	4.293358	0.000359	3.591929	0.608489	0.007184
 550	2.7450e-01	5.4895	4.335265	0.000419	4.190584	0.709904	0.008381
 551	2.7500e-01	5.4962	4.363488	0.000282	2.822230	0.478099	0.005645
 552	2.7550e-01	5.5087	4.386580	0.000231	2.309097	0.391172	0.004618
 553	2.7600e-01	5.5203	4.429770	0.000432	4.318867	0.731636	0.008638
 554	2.7650e-01	5.5273	4.471677	0.000419	4.190584	0.709904	0.008381
 555	2.7700e-01	5.5389	4.501184	0.000295	2.950513	0.499830	0.005901
 556	2.7750e-01	5.5469	4.509309	0.000081	0.812460	0.137634	0.001625
 557	2.7800e-01	5.5585	4.573880	0.000646	6.456920	1.093832	0.012914
 558	2.7850e-01	5.5664	4.610228	0.000363	3.634690	0.615733	0.007270
 559	2.7900e-01	5.5777	4.634603	0.000244	2.437380	0.412903	0.004875
 560	2.7950e-01	5.5853	4.671379	0.000368	3.677451	0.622977	0.007355
 561	2.8000e-01	5.5960	4.706016	0.000346	3.463646	0.586757	0.006928
 562	2.8050e-01	5.6079	4.755193	0.000492	4.917522	0.833051	0.009835
 563	2.8100e-01	5.6165	4.765456	0.000103	1.026265	0.173854	0.002053
 564	2.8150e-01	5.6287	4.802659	0.000372	3.720212	0.630221	0.007441
 565	2.8200e-01	5.6360	4.838580	0.000359	3.591929	0.608489	0.007184
 566	2.8250e-01	5.6494	4.871080	0.000325	3.249841	0.550538	0.006500
 567	2.8300e-01	5.6558	4.900158	0.000291	2.907752	0.492587	0.005816
 568	2.8350e-01	5.6671	4.942493	0.000423	4.233345	0.717148	0.008467
 569	2.8400e-01	5.6781	4.974992	0.000325	3.249841	0.550538	0.006500
 570	2.8450e-01	5.6863	5.014762	0.000398	3.976779	0.673685	0.007954
 571	2.8500e-01	5.6989	5.055814	0.000411	4.105062	0.695416	0.008210
 572	2.8550e-01	5.7062	5.074629	0.000188	1.881487	0.318732	0.003763
 573	2.8600e-01	5.7166	5.130220	0.000556	5.558938	0.941710	0.011118
 574	2.8650e-01	5.7291	5.158444	0.000282	2.822230	0.478099	0.005645
 575	2.8700e-01	5.7382	5.175976	0.000175	1.753203	0.297001	0.003507
 576	2.8750e-01	5.7492	5.226008	0.000500	5.003044	0.847539	0.010006
 577	2.8800e-01	5.7581	5.260646	0.000346	3.463646	0.586757	0.006928
 578	2.8850e-01	5.7684	5.299988	0.000393	3.934017	0.666441	0.007868
 579	2.8900e-01	5.7755	5.316665	0.000167	1.667681	0.282513	0.003335
 580	2.8950e-01	5.7895	5.350875	0.000342	3.420885	0.579514	0.006842
 581	2.9000e-01	5.7965	5.387651	0.000368	3.677451	0.622977	0.007355
 582	2.9050e-01	5.8066	5.428703	0.000411	4.105062	0.695416	0.008210
 583	2.9100e-01	5.8170	5.453078	0.000244	2.437380	0.412903	0.004875
 584	2.9150e-01	5.8237	5.466762	0.000137	1.368354	0.231805	0.002737
 585	2.9200e-01	5.8362	5.518504	0.000517	5.174088	0.876514	0.010349
 586	2.9250e-01	5.8459	5.563405	0.000449	4.489911	0.760612	0.008980
 587	2.9300e-01	5.8566	5.570674	0.000073	0.726938	0.123147	0.001454
 588	2.9350e-01	5.8685	5.599753	0.000291	2.907752	0.492587	0.005816
 589	2.9400e-01	5.8789	5.650640	0.000509	5.088566	0.862026	0.010177
 590	2.9450e-01	5.8881	5.693831	0.000432	4.318867	0.731636	0.008638
 591	2.9500e-01	5.8978	5.727185	0.000334	3.335363	0.565026	0.006671
 592	2.9550e-01	5.9100	5.757974	0.000308	3.078796	0.521562	0.006158
 593	2.9600e-01	5.9167	5.788763	0.000308	3.078796	0.521562	0.006158
 594	2.9650e-01	5.9274	5.799026	0.000103	1.026265	0.173854	0.002053
 595	2.9700e-01	5.9393	5.859322	0.000603	6.029309	1.021393	0.012059
 596	2.9750e-01	5.9488	5.903795	0.000445	4.447150	0.753368	0.008895
 597	2.9800e-01	5.9570	5.935439	0.000316	3.164318	0.536050	0.006329
 598	2.9850e-01	5.9668	5.980339	0.000449	4.489911	0.760612	0.008980
 599	2.9900e-01	5.9767	5.997872	0.000175	1.753203	0.297001	0.003507
 600	2.9950e-01	5.9872	6.038924	0.000411	4.105062	0.695416	0.008210
 601	3.0000e-01	6.0010	6.070141	0.000312	3.121557	0.528806	0.006243
 602	3.0050e-01	6.0046	6.091522	0.000214	2.138053	0.362196	0.004276
 603	3.0100e-01	6.0178	6.132574	0.000411	4.105062	0.695416	0.008210
 604	3.0150e-01	6.0278	6.160370	0.000278	2.779469	0.470855	0.005559
 605	3.0200e-01	6.0394	6.204843	0.000445	4.447150	0.753368	0.008895
 606	3.0250e-01	6.0495	6.225369	0.000205	2.052531	0.347708	0.004105
 607	3.0300e-01	6.0583	6.261717	0.000363	3.634690	0.615733	0.007270
 608	3.0350e-01	6.0681	6.287374	0.000257	2.565664	0.434635	0.005132
 609	3.0400e-01	6.0822	6.312604	0.000252	2.522903	0.427391	0.005046
 610	3.0450e-01	6.0870	6.365630	0.000530	5.302371	0.898246	0.010605
 611	3.0500e-01	6.0989	6.400695	0.000351	3.506407	0.594001	0.007013
 612	3.0550e-01	6.1078	6.421221	0.000205	2.052531	0.347708	0.004105
 613	3.0600e-01	6.1176	6.461846	0.000406	4.062301	0.688172	0.008125
 614	3.0650e-01	6.1298	6.480233	0.000184	1.838726	0.311489	0.003678
 615	3.0700e-01	6.1371	6.524706	0.000445	4.447150	0.753368	0.008895
 616	3.0750e-01	6.1426	6.570890	0.000462	4.618194	0.782343	0.009237
 617	3.0800e-01	6.1575	6.570890	0.000000	0.000000	0.000000	0.000000
 618	3.0850e-01	6.1676	6.625198	0.000543	5.430655	0.919978	0.010862
 619	3.0900e-01	6.1771	6.644442	0.000192	1.924248	0.325976	0.003849
 620	3.0950e-01	6.1877	6.684211	0.000398	3.976779	0.673685	0.007954
 621	3.1000e-01	6.1987	6.719276	0.000351	3.506407	0.594001	0.007013
 622	3.1050e-01	6.2091	6.756479	0.000372	3.720212	0.630221	0.007441
 623	3.1100e-01	6.2207	6.779143	0.000227	2.266336	0.383928	0.004533
 624	3.1150e-01	6.2271	6.803946	0.000248	2.480141	0.420147	0.004960
 625	3.1200e-01	6.2390	6.838156	0.000342	3.420885	0.579514	0.006842
 626	3.1250e-01	6.2497	6.891181	0.000530	5.302371	0.898246	0.010605
 627	3.1300e-01	6.2569	6.909997	0.000188	1.881487	0.318732	0.003763
 628	3.1350e-01	6.2671	6.963878	0.000539	5.387893	0.912734	0.010776
 629	3.1400e-01	6.2769	6.977134	0.000133	1.325593	0.224562	0.002651
 630	3.1450e-01	6.2872	7.027594	0.000505	5.045805	0.854783	0.010092
 631	3.1500e-01	6.2964	7.041705	0.000141	1.411115	0.239049	0.002822
 632	3.1550e-01	6.3095	7.071212	0.000295	2.950513	0.499830	0.005901
 633	3.1600e-01	6.3177	7.123382	0.000522	5.216849	0.883758	0.010434
 634	3.1650e-01	6.3275	7.160158	0.000368	3.677451	0.622977	0.007355
 635	3.1700e-01	6.3358	7.198644	0.000385	3.848495	0.651953	0.007697
 636	3.1750e-01	6.3483	7.206769	0.000081	0.812460	0.137634	0.001625
 637	3.1800e-01	6.3562	7.246110	0.000393	3.934017	0.666441	0.007868
 638	3.1850e-01	6.3672	7.273051	0.000269	2.693947	0.456367	0.005388
 639	3.1900e-01	6.3763	7.312820	0.000398	3.976779	0.673685	0.007954
 640	3.1950e-01	6.3875	7.333773	0.000210	2.095292	0.354952	0.004191
 641	3.2000e-01	6.3977	7.388937	0.000552	5.516177	0.934466	0.011033
 642	3.2050e-01	6.4056	7.389365	0.000004	0.042761	0.007244	0.000086
 643	3.2100e-01	6.4200	7.436831	0.000475	4.746478	0.804075	0.009493
 644	3.2150e-01	6.4272	7.476173	0.000393	3.934017	0.666441	0.007868
 645	3.2200e-01	6.4374	7.504396	0.000282	2.822230	0.478099	0.005645
 646	3.2250e-01	6.4471	7.542027	0.000376	3.762973	0.637465	0.007526
 647	3.2300e-01	6.4557	7.565974	0.000239	2.394619	0.405659	0.004789
 648	3.2350e-01	6.4685	7.610875	0.000449	4.489911	0.760612	0.008980
 649	3.2400e-01	6.4783	7.627552	0.000167	1.667681	0.282513	0.003335
 650	3.2450e-01	6.4890	7.660479	0.000329	3.292602	0.557782	0.006585
 651	3.2500e-01	6.4960	7.698110	0.000376	3.762973	0.637465	0.007526
 652	3.2550e-01	6.5088	7.732320	0.000342	3.420885	0.579514	0.006842
 653	3.2600e-01	6.5182	7.751991	0.000197	1.967009	0.333220	0.003934
 654	3.2650e-01	6.5277	7.787912	0.000359	3.591929	0.608489	0.007184
 655	3.2700e-01	6.5381	7.826825	0.000389	3.891256	0.659197	0.007783
 656	3.2750e-01	6.5479	7.869588	0.000428	4.276106	0.724392	0.008553
 657	3.2800e-01	6.5573	7.890542	0.000210	2.095292	0.354952	0.004191
 658	3.2850e-01	6.5704	7.930311	0.000398	3.976779	0.673685	0.007954
 659	3.2900e-01	6.5771	7.961527	0.000312	3.121557	0.528806	0.006243
 660	3.2950e-01	6.5839	8.007283	0.000458	4.575433	0.775099	0.009151
 661	3.3000e-01	6.5967	7.999158	-0.000081	-0.812460	-0.137634	-0.001625
 662	3.3050e-01	6.6089	8.064157	0.000650	6.499681	1.101076	0.013000
 663	3.3100e-01	6.6162	8.097085	0.000329	3.292602	0.557782	0.006585
 664	3.3150e-01	6.6296	8.122742	0.000257	2.565664	0.434635	0.005132
 665	3.3200e-01	6.6382	8.157807	0.000351	3.506407	0.594001	0.007013
 666	3.3250e-01	6.6473	8.189024	0.000312	3.121557	0.528806	0.006243
 667	3.3300e-01	6.6583	8.213399	0.000244	2.437380	0.412903	0.004875
 668	3.3350e-01	6.6675	8.251885	0.000385	3.848495	0.651953	0.007697
 669	3.3400e-01	6.6769	8.272411	0.000205	2.052531	0.347708	0.004105
 670	3.3450e-01	6.6870	8.323726	0.000513	5.131327	0.869270	0.010263
 671	3.3500e-01	6.6971	8.344680	0.000210	2.095292	0.354952	0.004191
 672	3.3550e-01	6.7090	8.392574	0.000479	4.789239	0.811319	0.009579
 673	3.3600e-01	6.7163	8.404120	0.000115	1.154549	0.195586	0.002309
 674	3.3650e-01	6.7261	8.438330	0.000342	3.420885	0.579514	0.006842
 675	3.3700e-01	6.7361	8.468263	0.000299	2.993274	0.507074	0.005987
 676	3.3750e-01	6.7462	8.513592	0.000453	4.532672	0.767855	0.009066
 677	3.3800e-01	6.7563	8.543525	0.000299	2.993274	0.507074	0.005987
 678	3.3850e-01	6.7645	8.558065	0.000145	1.453876	0.246293	0.002908
 679	3.3900e-01	6.7798	8.602538	0.000445	4.447150	0.753368	0.008895
 680	3.3950e-01	6.7883	8.625202	0.000227	2.266336	0.383928	0.004533
 681	3.4000e-01	6.7937	8.675662	0.000505	5.045805	0.854783	0.010092
 682	3.4050e-01	6.8060	8.692767	0.000171	1.710442	0.289757	0.003421
 683	3.4100e-01	6.8176	8.726121	0.000334	3.335363	0.565026	0.006671
 684	3.4150e-01	6.8280	8.757766	0.000316	3.164318	0.536050	0.006329
 685	3.4200e-01	6.8396	8.789410	0.000316	3.164318	0.536050	0.006329
 686	3.4250e-01	6.8463	8.814212	0.000248	2.480141	0.420147	0.004960
 687	3.4300e-01	6.8536	8.853126	0.000389	3.891256	0.659197	0.007783
 688	3.4350e-01	6.8657	8.871086	0.000180	1.795964	0.304245	0.003592
 689	3.4400e-01	6.8843	8.908290	0.000372	3.720212	0.630221	0.007441
 690	3.4450e-01	6.8854	8.947204	0.000389	3.891256	0.659197	0.007783
 691	3.4500e-01	6.8970	8.974144	0.000269	2.693947	0.456367	0.005388
 692	3.4550e-01	6.9067	8.993387	0.000192	1.924248	0.325976	0.003849
 693	3.4600e-01	6.9171	9.036577	0.000432	4.318867	0.731636	0.008638
 694	3.4650e-01	6.9269	9.076774	0.000402	4.019540	0.680928	0.008039
 695	3.4700e-01	6.9405	9.086609	0.000098	0.983504	0.166610	0.001967
 696	3.4750e-01	6.9464	9.156740	0.000701	7.012814	1.188003	0.014026
 697	3.4800e-01	6.9565	9.171279	0.000145	1.453876	0.246293	0.002908
 698	3.4850e-01	6.9669	9.202924	0.000316	3.164318	0.536050	0.006329
 699	3.4900e-01	6.9766	9.237561	0.000346	3.463646	0.586757	0.006928
 700	3.4950e-01	6.9864	9.253383	0.000158	1.582159	0.268025	0.003164
 701	3.5000e-01	6.9971	9.295718	0.000423	4.233345	0.717148	0.008467
 702	3.5050e-01	7.0081	9.313251	0.000175	1.753203	0.297001	0.003507
 703	3.5100e-01	7.0181	9.364994	0.000517	5.174088	0.876514	0.010349
 704	3.5150e-01	7.0264	9.371408	0.000064	0.641416	0.108659	0.001283
 705	3.5200e-01	7.0364	9.411177	0.000398	3.976779	0.673685	0.007954
 706	3.5250e-01	7.0456	9.450519	0.000393	3.934017	0.666441	0.007868
 707	3.5300e-01	7.0589	9.457361	0.000068	0.684177	0.115903	0.001368
 708	3.5350e-01	7.0691	9.512524	0.000552	5.516177	0.934466	0.011033
 709	3.5400e-01	7.0776	9.555714	0.000432	4.318867	0.731636	0.008638
 710	3.5450e-01	7.0850	9.574958	0.000192	1.924248	0.325976	0.003849
 711	3.5500e-01	7.0966	9.612161	0.000372	3.720212	0.630221	0.007441
 712	3.5550e-01	7.1088	9.642522	0.000304	3.036035	0.514318	0.006072
 713	3.5600e-01	7.1198	9.660483	0.000180	1.795964	0.304245	0.003592
 714	3.5650e-01	7.1286	9.701535	0.000411	4.105062	0.695416	0.008210
 715	3.5700e-01	7.1393	9.737455	0.000359	3.591929	0.608489	0.007184
 716	3.5750e-01	7.1478	9.756698	0.000192	1.924248	0.325976	0.003849
 717	3.5800e-01	7.1582	9.813572	0.000569	5.687221	0.963441	0.011375
 718	3.5850e-01	7.1667	9.832816	0.000192	1.924248	0.325976	0.003849
 719	3.5900e-01	7.1802	9.852059	0.000192	1.924248	0.325976	0.003849
 720	3.5950e-01	7.1877	9.878571	0.000265	2.651186	0.449123	0.005303
 721	3.6000e-01	7.1967	9.914492	0.000359	3.591929	0.608489	0.007184
 722	3.6050e-01	7.2086	9.934590	0.000201	2.009770	0.340464	0.004020
 723	3.6100e-01	7.2192	9.956827	0.000222	2.223575	0.376684	0.004447
 724	3.6150e-01	7.2272	10.002155	0.000453	4.532672	0.767855	0.009066
 725	3.6200e-01	7.2345	10.023109	0.000210	2.095292	0.354952	0.004191
 726	3.6250e-01	7.2467	10.068009	0.000449	4.489911	0.760612	0.008980
 727	3.6300e-01	7.2589	10.117186	0.000492	4.917522	0.833051	0.009835
 728	3.6350e-01	7.2656	10.126167	0.000090	0.897982	0.152122	0.001796
 729	3.6400e-01	7.2766	10.168501	0.000423	4.233345	0.717148	0.008467
 730	3.6450e-01	7.2852	10.203139	0.000346	3.463646	0.586757	0.006928
 731	3.6500e-01	7.2968	10.206988	0.000038	0.384850	0.065195	0.000770
 732	3.6550e-01	7.3059	10.252744	0.000458	4.575433	0.775099	0.009151
 733	3.6600e-01	7.3187	10.286954	0.000342	3.420885	0.579514	0.006842
 734	3.6650e-01	7.3279	10.316032	0.000291	2.907752	0.492587	0.005816
 735	3.6700e-01	7.3419	10.331854	0.000158	1.582159	0.268025	0.003164
 736	3.6750e-01	7.3492	10.382314	0.000505	5.045805	0.854783	0.010092
 737	3.6800e-01	7.3584	10.418662	0.000363	3.634690	0.615733	0.007270
 738	3.6850e-01	7.3694	10.438333	0.000197	1.967009	0.333220	0.003934
 739	3.6900e-01	7.3767	10.481095	0.000428	4.276106	0.724392	0.008553
 740	3.6950e-01	7.3871	10.497345	0.000162	1.624920	0.275269	0.003250
 741	3.7000e-01	7.3975	10.509746	0.000124	1.240071	0.210074	0.002480
 742	3.7050e-01	7.4072	10.572607	0.000629	6.285876	1.064856	0.012572
 743	3.7100e-01	7.4182	10.604252	0.000316	3.164318	0.536050	0.006329
 744	3.7150e-01	7.4268	10.621357	0.000171	1.710442	0.289757	0.003421
 745	3.7200e-01	7.4380	10.644021	0.000227	2.266336	0.383928	0.004533
 746	3.7250e-01	7.4463	10.695336	0.000513	5.131327	0.869270	0.010263
 747	3.7300e-01	7.4588	10.714579	0.000192	1.924248	0.325976	0.003849
 748	3.7350e-01	7.4701	10.731256	0.000167	1.667681	0.282513	0.003335
 749	3.7400e-01	7.4792	10.776157	0.000449	4.489911	0.760612	0.008980
 750	3.7450e-01	7.4847	10.824479	0.000483	4.832000	0.818563	0.009664
 751	3.7500e-01	7.4973	10.836880	0.000124	1.240071	0.210074	0.002480
 752	3.7550e-01	7.5092	10.865531	0.000286	2.864991	0.485343	0.005730
 753	3.7600e-01	7.5177	10.900168	0.000346	3.463646	0.586757	0.006928
 754	3.7650e-01	7.5293	10.916846	0.000167	1.667681	0.282513	0.003335
 755	3.7700e-01	7.5409	10.976713	0.000599	5.986548	1.014149	0.011974
 756	3.7750e-01	7.5494	11.002371	0.000257	2.565664	0.434635	0.005132
 757	3.7800e-01	7.5586	11.040002	0.000376	3.762973	0.637465	0.007526
 758	3.7850e-01	7.5708	11.035298	-0.000047	-0.470372	-0.079683	-0.000941
 759	3.7900e-01	7.5800	11.083619	0.000483	4.832000	0.818563	0.009664
 760	3.7950e-01	7.5851	11.094310	0.000107	1.069026	0.181098	0.002138
 761	3.8000e-01	7.5974	11.154178	0.000599	5.986548	1.014149	0.011974
 762	3.8050e-01	7.6074	11.167006	0.000128	1.282832	0.217318	0.002566
 763	3.8100e-01	7.6166	11.193092	0.000261	2.608425	0.441879	0.005217
 764	3.8150e-01	7.6259	11.226019	0.000329	3.292602	0.557782	0.006585
 765	3.8200e-01	7.6385	11.270492	0.000445	4.447150	0.753368	0.008895
 766	3.8250e-01	7.6477	11.287169	0.000167	1.667681	0.282513	0.003335
 767	3.8300e-01	7.6563	11.341905	0.000547	5.473416	0.927222	0.010947
 768	3.8350e-01	7.6660	11.359010	0.000171	1.710442	0.289757	0.003421
 769	3.8400e-01	7.6758	11.370556	0.000115	1.154549	0.195586	0.002309
 770	3.8450e-01	7.6874	11.424437	0.000539	5.387893	0.912734	0.010776
 771	3.8500e-01	7.6953	11.450094	0.000257	2.565664	0.434635	0.005132
 772	3.8550e-01	7.7075	11.474897	0.000248	2.480141	0.420147	0.004960
 773	3.8600e-01	7.7158	11.503120	0.000282	2.822230	0.478099	0.005645
 774	3.8650e-01	7.7277	11.530060	0.000269	2.693947	0.456367	0.005388
 775	3.8700e-01	7.7393	11.581803	0.000517	5.174088	0.876514	0.010349
 776	3.8750e-01	7.7478	11.586507	0.000047	0.470372	0.079683	0.000941
 777	3.8800e-01	7.7570	11.619434	0.000329	3.292602	0.557782	0.006585
 778	3.8850e-01	7.7661	11.659631	0.000402	4.019540	0.680928	0.008039
 779	3.8900e-01	7.7777	11.702821	0.000432	4.318867	0.731636	0.008638
 780	3.8950e-01	7.7875	11.716505	0.000137	1.368354	0.231805	0.002737
 781	3.9000e-01	7.7966	11.748149	0.000316	3.164318	0.536050	0.006329
 782	3.9050e-01	7.8073	11.770386	0.000222	2.223575	0.376684	0.004447
 783	3.9100e-01	7.8186	11.815286	0.000449	4.489911	0.760612	0.008980
 784	3.9150e-01	7.8284	11.834529	0.000192	1.924248	0.325976	0.003849
 785	3.9200e-01	7.8357	11.868739	0.000342	3.420885	0.579514	0.006842
 786	3.9250e-01	7.8461	11.902094	0.000334	3.335363	0.565026	0.006671
 787	3.9300e-01	7.8564	11.904232	0.000021	0.213805	0.036220	0.000428
 788	3.9350e-01	7.8668	11.967949	0.000637	6.371398	1.079344	0.012743
 789	3.9400e-01	7.8784	12.006862	0.000389	3.891256	0.659197	0.007783
 790	3.9450e-01	7.8870	11.997882	-0.000090	-0.897982	-0.152122	-0.001796
 791	3.9500e-01	7.8958	12.054329	0.000564	5.644460	0.956197	0.011289
 792	3.9550e-01	7.9065	12.085973	0.000316	3.164318	0.536050	0.006329
 793	3.9600e-01	7.9181	12.108210	0.000222	2.223575	0.376684	0.004447
 794	3.9650e-01	7.9297	12.131301	0.000231	2.309097	0.391172	0.004618
 795	3.9700e-01	7.9364	12.173209	0.000419	4.190584	0.709904	0.008381
 796	3.9750e-01	7.9480	12.192879	0.000197	1.967009	0.333220	0.003934
 797	3.9800e-01	7.9578	12.238635	0.000458	4.575433	0.775099	0.009151
 798	3.9850e-01	7.9675	12.255740	0.000171	1.710442	0.289757	0.003421
 799	3.9900e-01	7.9791	12.284819	0.000291	2.907752	0.492587	0.005816
 800	3.9950e-01	7.9889	12.293799	0.000090	0.897982	0.152122	0.001796
 801	4.0000e-01	7.9979	12.328009	0.000342	3.420885	0.579514	0.006842
 802	4.0050e-01	8.0054	12.398995	0.000710	7.098336	1.202491	0.014197
 803	4.0100e-01	8.0188	12.375048	-0.000239	-2.394619	-0.405659	-0.004789
 804	4.0150e-01	8.0249	12.425935	0.000509	5.088566	0.862026	0.010177
 805	4.0200e-01	8.0377	12.449455	0.000235	2.351858	0.398416	0.004704
 806	4.0250e-01	8.0481	12.499914	0.000505	5.045805	0.854783	0.010092
 807	4.0300e-01	8.0597	12.485375	-0.000145	-1.453876	-0.246293	-0.002908
 808	4.0350e-01	8.0682	12.531559	0.000462	4.618194	0.782343	0.009237
 809	4.0400e-01	8.0774	12.584584	0.000530	5.302371	0.898246	0.010605
 810	4.0450e-01	8.0865	12.602544	0.000180	1.795964	0.304245	0.003592
 811	4.0500e-01	8.0969	12.638465	0.000359	3.591929	0.608489	0.007184
 812	4.0550e-01	8.1049	12.678662	0.000402	4.019540	0.680928	0.008039
 813	4.0600e-01	8.1244	12.685931	0.000073	0.726938	0.123147	0.001454
 814	4.0650e-01	8.1256	12.725273	0.000393	3.934017	0.666441	0.007868
 815	4.0700e-01	8.1372	12.757345	0.000321	3.207079	0.543294	0.006414
 816	4.0750e-01	8.1494	12.801390	0.000440	4.404389	0.746124	0.008809
 817	4.0800e-01	8.1580	12.818923	0.000175	1.753203	0.297001	0.003507
 818	4.0850e-01	8.1665	12.845008	0.000261	2.608425	0.441879	0.005217
 819	4.0900e-01	8.1793	12.880929	0.000359	3.591929	0.608489	0.007184
 820	4.0950e-01	8.1873	12.897606	0.000167	1.667681	0.282513	0.003335
 821	4.1000e-01	8.1970	12.933526	0.000359	3.591929	0.608489	0.007184
 822	4.1050e-01	8.2074	12.951059	0.000175	1.753203	0.297001	0.003507
 823	4.1100e-01	8.2178	13.008361	0.000573	5.729982	0.970685	0.011460
 824	4.1150e-01	8.2281	13.023755	0.000154	1.539398	0.260781	0.003079
 825	4.1200e-01	8.2343	13.058393	0.000346	3.463646	0.586757	0.006928
 826	4.1250e-01	8.2471	13.078064	0.000197	1.967009	0.333220	0.003934
 827	4.1300e-01	8.2574	13.106287	0.000282	2.822230	0.478099	0.005645
 828	4.1350e-01	8.2700	13.129379	0.000231	2.309097	0.391172	0.004618
 829	4.1400e-01	8.2788	13.168720	0.000393	3.934017	0.666441	0.007868
 830	4.1450e-01	8.2898	13.198654	0.000299	2.993274	0.507074	0.005987
 831	4.1500e-01	8.2965	13.223884	0.000252	2.522903	0.427391	0.005046
 832	4.1550e-01	8.3084	13.266647	0.000428	4.276106	0.724392	0.008553
 833	4.1600e-01	8.3167	13.293159	0.000265	2.651186	0.449123	0.005303
 834	4.1650e-01	8.3270	13.319244	0.000261	2.608425	0.441879	0.005217
 835	4.1700e-01	8.3386	13.346612	0.000274	2.736708	0.463611	0.005474
 836	4.1750e-01	8.3461	13.376546	0.000299	2.993274	0.507074	0.005987
 837	4.1800e-01	8.3557	13.418026	0.000415	4.147823	0.702660	0.008296
 838	4.1850e-01	8.3679	13.433420	0.000154	1.539398	0.260781	0.003079
 839	4.1900e-01	8.3795	13.479604	0.000462	4.618194	0.782343	0.009237
 840	4.1950e-01	8.3899	13.492433	0.000128	1.282832	0.217318	0.002566
 841	4.2000e-01	8.3984	13.524932	0.000325	3.249841	0.550538	0.006500
 842	4.2050e-01	8.4082	13.558287	0.000334	3.335363	0.565026	0.006671
 843	4.2100e-01	8.4195	13.576247	0.000180	1.795964	0.304245	0.003592
 844	4.2150e-01	8.4253	13.625852	0.000496	4.960283	0.840295	0.009921
 845	4.2200e-01	8.4375	13.612168	-0.000137	-1.368354	-0.231805	-0.002737
 846	4.2250e-01	8.4485	13.669470	0.000573	5.729982	0.970685	0.011460
 847	4.2300e-01	8.4564	13.685292	0.000158	1.582159	0.268025	0.003164
 848	4.2350e-01	8.4659	13.734041	0.000487	4.874761	0.825807	0.009750
 849	4.2400e-01	8.4778	13.771672	0.000376	3.762973	0.637465	0.007526
 850	4.2450e-01	8.4854	13.786639	0.000150	1.496637	0.253537	0.002993
 851	4.2500e-01	8.4985	13.819566	0.000329	3.292602	0.557782	0.006585
 852	4.2550e-01	8.5101	13.834105	0.000145	1.453876	0.246293	0.002908
 853	4.2600e-01	8.5219	13.862329	0.000282	2.822230	0.478099	0.005645
 854	4.2650e-01	8.5272	13.888414	0.000261	2.608425	0.441879	0.005217
 855	4.2700e-01	8.5364	13.921341	0.000329	3.292602	0.557782	0.006585
 856	4.2750e-01	8.5480	13.946571	0.000252	2.522903	0.427391	0.005046
 857	4.2800e-01	8.5583	13.981636	0.000351	3.506407	0.594001	0.007013
 858	4.2850e-01	8.5645	14.021833	0.000402	4.019540	0.680928	0.008039
 859	4.2900e-01	8.5779	14.048773	0.000269	2.693947	0.456367	0.005388
 860	4.2950e-01	8.5870	14.075286	0.000265	2.651186	0.449123	0.005303
 861	4.3000e-01	8.5980	14.107358	0.000321	3.207079	0.543294	0.006414
 862	4.3050e-01	8.6084	14.148410	0.000411	4.105062	0.695416	0.008210
 863	4.3100e-01	8.6188	14.179626	0.000312	3.121557	0.528806	0.006243
 864	4.3150e-01	8.6261	14.181765	0.000021	0.213805	0.036220	0.000428
 865	4.3200e-01	8.6377	14.226665	0.000449	4.489911	0.760612	0.008980
 866	4.3250e-01	8.6487	14.240349	0.000137	1.368354	0.231805	0.002737
 867	4.3300e-01	8.6560	14.290381	0.000500	5.003044	0.847539	0.010006
 868	4.3350e-01	8.6670	14.306631	0.000162	1.624920	0.275269	0.003250
 869	4.3400e-01	8.6798	14.347256	0.000406	4.062301	0.688172	0.008125
 870	4.3450e-01	8.6890	14.376334	0.000291	2.907752	0.492587	0.005816
 871	4.3500e-01	8.6963	14.397288	0.000210	2.095292	0.354952	0.004191
 872	4.3550e-01	8.7106	14.419097	0.000218	2.180814	0.369440	0.004362
 873	4.3600e-01	8.7180	14.445609	0.000265	2.651186	0.449123	0.005303
 874	4.3650e-01	8.7280	14.482813	0.000372	3.720212	0.630221	0.007441
 875	4.3700e-01	8.7384	14.507615	0.000248	2.480141	0.420147	0.004960
 876	4.3750e-01	8.7457	14.549522	0.000419	4.190584	0.709904	0.008381
 877	4.3800e-01	8.7610	14.560213	0.000107	1.069026	0.181098	0.002138
 878	4.3850e-01	8.7666	14.591002	0.000308	3.078796	0.521562	0.006158
 879	4.3900e-01	8.7787	14.627778	0.000368	3.677451	0.622977	0.007355
 880	4.3950e-01	8.7915	14.631199	0.000034	0.342088	0.057951	0.000684
 881	4.4000e-01	8.7979	14.692777	0.000616	6.157593	1.043124	0.012316
 882	4.4050e-01	8.8098	14.696198	0.000034	0.342088	0.057951	0.000684
 883	4.4100e-01	8.8168	14.735539	0.000393	3.934017	0.666441	0.007868
 884	4.4150e-01	8.8281	14.756065	0.000205	2.052531	0.347708	0.004105
 885	4.4200e-01	8.8376	14.787282	0.000312	3.121557	0.528806	0.006243
 886	4.4250e-01	8.8470	14.823203	0.000359	3.591929	0.608489	0.007184
 887	4.4300e-01	8.8574	14.847150	0.000239	2.394619	0.405659	0.004789
 888	4.4350e-01	8.8651	14.895044	0.000479	4.789239	0.811319	0.009579
 889	4.4400e-01	8.8794	14.904879	0.000098	0.983504	0.166610	0.001967
 890	4.4450e-01	8.8849	14.959187	0.000543	5.430655	0.919978	0.010862
 891	4.4500e-01	8.8962	14.969450	0.000103	1.026265	0.173854	0.002053
 892	4.4550e-01	8.9105	14.995108	0.000257	2.565664	0.434635	0.005132
 893	4.4600e-01	8.9160	15.017772	0.000227	2.266336	0.383928	0.004533
 894	4.4650e-01	8.9270	15.060535	0.000428	4.276106	0.724392	0.008553
 895	4.4700e-01	8.9380	15.089185	0.000286	2.864991	0.485343	0.005730
 896	4.4750e-01	8.9473	15.109284	0.000201	2.009770	0.340464	0.004020
 897	4.4800e-01	8.9584	15.149481	0.000402	4.019540	0.680928	0.008039
 898	4.4850e-01	8.9661	15.184546	0.000351	3.506407	0.594001	0.007013
 899	4.4900e-01	8.9795	15.196519	0.000120	1.197310	0.202830	0.002395
 900	4.4950e-01	8.9850	15.235006	0.000385	3.848495	0.651953	0.007697
 901	4.5000e-01	8.9990	15.262374	0.000274	2.736708	0.463611	0.005474
 902	4.5050e-01	9.0051	15.316682	0.000543	5.430655	0.919978	0.010862
 903	4.5100e-01	9.0179	15.313689	-0.000030	-0.299327	-0.050707	-0.000599
 904	4.5150e-01	9.0283	15.350892	0.000372	3.720212	0.630221	0.007441
 905	4.5200e-01	9.0405	15.365431	0.000145	1.453876	0.246293	0.002908
 906	4.5250e-01	9.0466	15.405628	0.000402	4.019540	0.680928	0.008039
 907	4.5300e-01	9.0564	15.429575	0.000239	2.394619	0.405659	0.004789
 908	4.5350e-01	9.0668	15.466351	0.000368	3.677451	0.622977	0.007355
 909	4.5400e-01	9.0765	15.484311	0.000180	1.795964	0.304245	0.003592
 910	4.5450e-01	9.0881	15.514245	0.000299	2.993274	0.507074	0.005987
 911	4.5500e-01	9.0967	15.542896	0.000286	2.864991	0.485343	0.005730
 912	4.5550e-01	9.1077	15.572402	0.000295	2.950513	0.499830	0.005901
 913	4.5600e-01	9.1162	15.614309	0.000419	4.190584	0.709904	0.008381
 914	4.5650e-01	9.1266	15.613454	-0.000009	-0.085522	-0.014488	-0.000171
 915	4.5700e-01	9.1357	15.659210	0.000458	4.575433	0.775099	0.009151
 916	4.5750e-01	9.1498	15.675887	0.000167	1.667681	0.282513	0.003335
 917	4.5800e-01	9.1608	15.713091	0.000372	3.720212	0.630221	0.007441
 918	4.5850e-01	9.1672	15.751149	0.000381	3.805734	0.644709	0.007612
 919	4.5900e-01	9.1769	15.749439	-0.000017	-0.171044	-0.028976	-0.000342
 920	4.5950e-01	9.1864	15.800754	0.000513	5.131327	0.869270	0.010263
 921	4.6000e-01	9.1980	15.825984	0.000252	2.522903	0.427391	0.005046
 922	4.6050e-01	9.2093	15.867463	0.000415	4.147823	0.702660	0.008296
 923	4.6100e-01	9.2181	15.874305	0.000068	0.684177	0.115903	0.001368
 924	4.6150e-01	9.2255	15.920917	0.000466	4.660955	0.789587	0.009322
 925	4.6200e-01	9.2377	15.936311	0.000154	1.539398	0.260781	0.003079
 926	4.6250e-01	9.2480	15.956409	0.000201	2.009770	0.340464	0.004020
 927	4.6300e-01	9.2584	15.996606	0.000402	4.019540	0.680928	0.008039
 928	4.6350e-01	9.2670	16.045783	0.000492	4.917522	0.833051	0.009835
 929	4.6400e-01	9.2786	16.062461	0.000167	1.667681	0.282513	0.003335
 930	4.6450e-01	9.2859	16.079138	0.000167	1.667681	0.282513	0.003335
 931	4.6500e-01	9.2999	16.113776	0.000346	3.463646	0.586757	0.006928
 932	4.6550e-01	9.3060	16.137723	0.000239	2.394619	0.405659	0.004789
 933	4.6600e-01	9.3159	16.175354	0.000376	3.762973	0.637465	0.007526
 934	4.6650e-01	9.3286	16.210419	0.000351	3.506407	0.594001	0.007013
 935	4.6700e-01	9.3378	16.240353	0.000299	2.993274	0.507074	0.005987
 936	4.6750e-01	9.3483	16.262162	0.000218	2.180814	0.369440	0.004362
 937	4.6800e-01	9.3591	16.288674	0.000265	2.651186	0.449123	0.005303
 938	4.6850e-01	9.3689	16.307490	0.000188	1.881487	0.318732	0.003763
 939	4.6900e-01	9.3774	16.335285	0.000278	2.779469	0.470855	0.005559
 940	4.6950e-01	9.3869	16.361371	0.000261	2.608425	0.441879	0.005217
 941	4.7000e-01	9.4006	16.394725	0.000334	3.335363	0.565026	0.006671
 942	4.7050e-01	9.4116	16.428935	0.000342	3.420885	0.579514	0.006842
 943	4.7100e-01	9.4180	16.451600	0.000227	2.266336	0.383928	0.004533
 944	4.7150e-01	9.4250	16.488375	0.000368	3.677451	0.622977	0.007355
 945	4.7200e-01	9.4373	16.505053	0.000167	1.667681	0.282513	0.003335
 946	4.7250e-01	9.4473	16.525151	0.000201	2.009770	0.340464	0.004020
 947	4.7300e-01	9.4540	16.573045	0.000479	4.789239	0.811319	0.009579
 948	4.7350e-01	9.4687	16.594854	0.000218	2.180814	0.369440	0.004362
 949	4.7400e-01	9.4763	16.635051	0.000402	4.019540	0.680928	0.008039
 950	4.7450e-01	9.4873	16.644459	0.000094	0.940743	0.159366	0.001882
 951	4.7500e-01	9.4949	16.684228	0.000398	3.976779	0.673685	0.007954
 952	4.7550e-01	9.5065	16.717155	0.000329	3.292602	0.557782	0.006585
 953	4.7600e-01	9.5172	16.742385	0.000252	2.522903	0.427391	0.005046
 954	4.7650e-01	9.5276	16.770608	0.000282	2.822230	0.478099	0.005645
 955	4.7700e-01	9.5367	16.794983	0.000244	2.437380	0.412903	0.004875
 956	4.7750e-01	9.5483	16.824061	0.000291	2.907752	0.492587	0.005816
 957	4.7800e-01	9.5593	16.876231	0.000522	5.216849	0.883758	0.010434
 958	4.7850e-01	9.5667	16.894619	0.000184	1.838726	0.311489	0.003678
 959	4.7900e-01	9.5801	16.895902	0.000013	0.128283	0.021732	0.000257
 960	4.7950e-01	9.5892	16.921560	0.000257	2.565664	0.434635	0.005132
 961	4.8000e-01	9.5972	16.965178	0.000436	4.361628	0.738880	0.008724
 962	4.8050e-01	9.6069	17.018203	0.000530	5.302371	0.898246	0.010605
 963	4.8100e-01	9.6194	17.024190	0.000060	0.598655	0.101415	0.001197
 964	4.8150e-01	9.6271	17.054124	0.000299	2.993274	0.507074	0.005987
 965	4.8200e-01	9.6384	17.074650	0.000205	2.052531	0.347708	0.004105
 966	4.8250e-01	9.6466	17.099879	0.000252	2.522903	0.427391	0.005046
 967	4.8300e-01	9.6600	17.138793	0.000389	3.891256	0.659197	0.007783
 968	4.8350e-01	9.6674	17.155043	0.000162	1.624920	0.275269	0.003250
 969	4.8400e-01	9.6756	17.188398	0.000334	3.335363	0.565026	0.006671
 970	4.8450e-01	9.6863	17.223463	0.000351	3.506407	0.594001	0.007013
 971	4.8500e-01	9.6960	17.252114	0.000286	2.864991	0.485343	0.005730
 972	4.8550e-01	9.7064	17.283758	0.000316	3.164318	0.536050	0.006329
 973	4.8600e-01	9.7174	17.309843	0.000261	2.608425	0.441879	0.005217
 974	4.8650e-01	9.7278	17.310271	0.000004	0.042761	0.007244	0.000086
 975	4.8700e-01	9.7363	17.370566	0.000603	6.029309	1.021393	0.012059
 976	4.8750e-01	9.7473	17.396224	0.000257	2.565664	0.434635	0.005132
 977	4.8800e-01	9.7571	17.420598	0.000244	2.437380	0.412903	0.004875
 978	4.8850e-01	9.7681	17.443263	0.000227	2.266336	0.383928	0.004533
 979	4.8900e-01	9.7800	17.473196	0.000299	2.993274	0.507074	0.005987
 980	4.8950e-01	9.7888	17.517669	0.000445	4.447150	0.753368	0.008895
 981	4.9000e-01	9.7968	17.525367	0.000077	0.769699	0.130391	0.001539
 982	4.9050e-01	9.8047	17.567274	0.000419	4.190584	0.709904	0.008381
 983	4.9100e-01	9.8199	17.563853	-0.000034	-0.342088	-0.057951	-0.000684
 984	4.9150e-01	9.8291	17.609609	0.000458	4.575433	0.775099	0.009151
 985	4.9200e-01	9.8370	17.635266	0.000257	2.565664	0.434635	0.005132
 986	4.9250e-01	9.8502	17.659213	0.000239	2.394619	0.405659	0.004789
 987	4.9300e-01	9.8560	17.706680	0.000475	4.746478	0.804075	0.009493
 988	4.9350e-01	9.8663	17.744738	0.000381	3.805734	0.644709	0.007612
 989	4.9400e-01	9.8785	17.772534	0.000278	2.779469	0.470855	0.005559
 990	4.9450e-01	9.8865	17.798619	0.000261	2.608425	0.441879	0.005217
 991	4.9500e-01	9.8969	17.821711	0.000231	2.309097	0.391172	0.004618
 992	4.9550e-01	9.9060	17.835823	0.000141	1.411115	0.239049	0.002822
 993	4.9600e-01	9.9176	17.877730	0.000419	4.190584	0.709904	0.008381
 994	4.9650e-01	9.9274	17.906808	0.000291	2.907752	0.492587	0.005816
 995	4.9700e-01	9.9365	17.933321	0.000265	2.651186	0.449123	0.005303
 996	4.9750e-01	9.9463	17.957268	0.000239	2.394619	0.405659	0.004789
 997	4.9800e-01	9.9591	18.008156	0.000509	5.088566	0.862026	0.010177
 998	4.9850e-01	9.9670	18.012432	0.000043	0.427611	0.072439	0.000855
 999	4.9900e-01	9.9820	18.032103	0.000197	1.967009	0.333220	0.003934
1000	4.9950e-01	9.9857	18.066740	0.000346	3.463646	0.586757	0.006928
1001	5.0000e-01	9.9969	18.107792	0.000411	4.105062	0.695416	0.008210
1002	5.0050e-01	9.9861	18.041938	0.000659	6.585203	1.115564	-0.013171
1003	5.0100e-01	9.9768	18.041938	-0.000000	-0.000000	-0.000000	0.000000
1004	5.0150e-01	9.9652	18.021412	0.000205	2.052531	0.347708	-0.004105
1005	5.0200e-01	9.9567	18.000458	0.000210	2.095292	0.354952	-0.004191
1006	5.0250e-01	9.9438	17.976511	0.000239	2.394619	0.405659	-0.004789
1007	5.0300e-01	9.9387	17.945295	0.000312	3.121557	0.528806	-0.006243
1008	5.0350e-01	9.9249	17.920492	0.000248	2.480141	0.420147	-0.004960
1009	5.0400e-01	9.9164	17.895690	0.000248	2.480141	0.420147	-0.004960
1010	5.0450e-01	9.9072	17.893552	0.000021	0.213805	0.036220	-0.000428
1011	5.0500e-01	9.8962	17.864473	0.000291	2.907752	0.492587	-0.005816
1012	5.0550e-01	9.8877	17.838816	0.000257	2.565664	0.434635	-0.005132
1013	5.0600e-01	9.8767	17.807172	0.000316	3.164318	0.536050	-0.006329
1014	5.0650e-01	9.8660	17.797764	0.000094	0.940743	0.159366	-0.001882
1015	5.0700e-01	9.8553	17.763982	0.000338	3.378124	0.572270	-0.006756
1016	5.0750e-01	9.8450	17.755857	0.000081	0.812460	0.137634	-0.001625
1017	5.0800e-01	9.8358	17.713094	0.000428	4.276106	0.724392	-0.008553
1018	5.0850e-01	9.8248	17.725495	-0.000124	-1.240071	-0.210074	0.002480
1019	5.0900e-01	9.8160	17.719081	0.000064	0.641416	0.108659	-0.001283
1020	5.0950e-01	9.8022	17.686581	0.000325	3.249841	0.550538	-0.006500
1021	5.1000e-01	9.7940	17.646812	0.000398	3.976779	0.673685	-0.007954
1022	5.1050e-01	9.7879	17.618161	0.000286	2.864991	0.485343	-0.005730
1023	5.1100e-01	9.7760	17.598491	0.000197	1.967009	0.333220	-0.003934
1024	5.1150e-01	9.7650	17.584379	0.000141	1.411115	0.239049	-0.002822
1025	5.1200e-01	9.7577	17.566419	0.000180	1.795964	0.304245	-0.003592
1026	5.1250e-01	9.7461	17.522801	0.000436	4.361628	0.738880	-0.008724
1027	5.1300e-01	9.7363	17.516387	0.000064	0.641416	0.108659	-0.001283
1028	5.1350e-01	9.7253	17.497571	0.000188	1.881487	0.318732	-0.003763
1029	5.1400e-01	9.7150	17.476190	0.000214	2.138053	0.362196	-0.004276
1030	5.1450e-01	9.7040	17.439842	0.000363	3.634690	0.615733	-0.007270
1031	5.1500e-01	9.6964	17.408625	0.000312	3.121557	0.528806	-0.006243
1032	5.1550e-01	9.6844	17.408197	0.000004	0.042761	0.007244	-0.000086
1033	5.1600e-01	9.6777	17.359020	0.000492	4.917522	0.833051	-0.009835
1034	5.1650e-01	9.6671	17.339777	0.000192	1.924248	0.325976	-0.003849
1035	5.1700e-01	9.6558	17.328659	0.000111	1.111788	0.188342	-0.002224
1036	5.1750e-01	9.6454	17.327376	0.000013	0.128283	0.021732	-0.000257
1037	5.1800e-01	9.6362	17.282903	0.000445	4.447150	0.753368	-0.008895
1038	5.1850e-01	9.6246	17.266226	0.000167	1.667681	0.282513	-0.003335
1039	5.1900e-01	9.6173	17.237147	0.000291	2.907752	0.492587	-0.005816
1040	5.1950e-01	9.6066	17.209779	0.000274	2.736708	0.463611	-0.005474
1041	5.2000e-01	9.5978	17.180273	0.000295	2.950513	0.499830	-0.005901
1042	5.2050e-01	9.5850	17.146918	0.000334	3.335363	0.565026	-0.006671
1043	5.2100e-01	9.5758	17.131096	0.000158	1.582159	0.268025	-0.003164
1044	5.2150e-01	9.5648	17.135800	-0.000047	-0.470372	-0.079683	0.000941
1045	5.2200e-01	9.5538	17.096031	0.000398	3.976779	0.673685	-0.007954
1046	5.2250e-01	9.5465	17.066097	0.000299	2.993274	0.507074	-0.005987
1047	5.2300e-01	9.5349	17.040440	0.000257	2.565664	0.434635	-0.005132
1048	5.2350e-01	9.5276	17.019486	0.000210	2.095292	0.354952	-0.004191
1049	5.2400e-01	9.5160	17.009223	0.000103	1.026265	0.173854	-0.002053
1050	5.2450e-01	9.5062	16.960046	0.000492	4.917522	0.833051	-0.009835
1051	5.2500e-01	9.4971	16.928402	0.000316	3.164318	0.536050	-0.006329
1052	5.2550e-01	9.4849	16.928402	-0.000000	-0.000000	-0.000000	0.000000
1053	5.2600e-01	9.4754	16.923270	0.000051	0.513133	0.086927	-0.001026
1054	5.2650e-01	9.4659	16.891626	0.000316	3.164318	0.536050	-0.006329
1055	5.2700e-01	9.4547	16.853567	0.000381	3.805734	0.644709	-0.007612
1056	5.2750e-01	9.4458	16.839883	0.000137	1.368354	0.231805	-0.002737
1057	5.2800e-01	9.4339	16.808239	0.000316	3.164318	0.536050	-0.006329
1058	5.2850e-01	9.4250	16.789851	0.000184	1.838726	0.311489	-0.003678
1059	5.2900e-01	9.4196	16.769325	0.000205	2.052531	0.347708	-0.004105
1060	5.2950e-01	9.4061	16.738536	0.000308	3.078796	0.521562	-0.006158
1061	5.3000e-01	9.3951	16.716300	0.000222	2.223575	0.376684	-0.004447
1062	5.3050e-01	9.3854	16.677386	0.000389	3.891256	0.659197	-0.007783
1063	5.3100e-01	9.3756	16.651301	0.000261	2.608425	0.441879	-0.005217
1064	5.3150e-01	9.3640	16.652156	-0.000009	-0.085522	-0.014488	0.000171
1065	5.3200e-01	9.3561	16.602551	0.000496	4.960283	0.840295	-0.009921
1066	5.3250e-01	9.3448	16.589295	0.000133	1.325593	0.224562	-0.002651
1067	5.3300e-01	9.3347	16.582453	0.000068	0.684177	0.115903	-0.001368
1068	5.3350e-01	9.3274	16.558078	0.000244	2.437380	0.412903	-0.004875
1069	5.3400e-01	9.3164	16.516171	0.000419	4.190584	0.709904	-0.008381
1070	5.3450e-01	9.3051	16.500349	0.000158	1.582159	0.268025	-0.003164
1071	5.3500e-01	9.2957	16.478112	0.000222	2.223575	0.376684	-0.004447
1072	5.3550e-01	9.2865	16.449034	0.000291	2.907752	0.492587	-0.005816
1073	5.3600e-01	9.2764	16.425514	0.000235	2.351858	0.398416	-0.004704
1074	5.3650e-01	9.2670	16.396008	0.000295	2.950513	0.499830	-0.005901
1075	5.3700e-01	9.2560	16.356239	0.000398	3.976779	0.673685	-0.007954
1076	5.3750e-01	9.2462	16.360088	-0.000038	-0.384850	-0.065195	0.000770
1077	5.3800e-01	9.2365	16.328443	0.000316	3.164318	0.536050	-0.006329
1078	5.3850e-01	9.2267	16.297654	0.000308	3.078796	0.521562	-0.006158
1079	5.3900e-01	9.2163	16.288674	0.000090	0.897982	0.152122	-0.001796
1080	5.3950e-01	9.2056	16.246767	0.000419	4.190584	0.709904	-0.008381
1081	5.4000e-01	9.1992	16.199728	0.000470	4.703717	0.796831	-0.009408
1082	5.4050e-01	9.1846	16.185617	0.000141	1.411115	0.239049	-0.002822
1083	5.4100e-01	9.1772	16.168084	0.000175	1.753203	0.297001	-0.003507
1084	5.4150e-01	9.1656	16.157821	0.000103	1.026265	0.173854	-0.002053
1085	5.4200e-01	9.1559	16.139005	0.000188	1.881487	0.318732	-0.003763
1086	5.4250e-01	9.1437	16.112920	0.000261	2.608425	0.441879	-0.005217
1087	5.4300e-01	9.1367	16.067592	0.000453	4.532672	0.767855	-0.009066
1088	5.4350e-01	9.1266	16.049204	0.000184	1.838726	0.311489	-0.003678
1089	5.4400e-01	9.1174	16.004731	0.000445	4.447150	0.753368	-0.008895
1090	5.4450e-01	9.1071	15.988054	0.000167	1.667681	0.282513	-0.003335
1091	5.4500e-01	9.0967	15.982495	0.000056	0.555894	0.094171	-0.001112
1092	5.4550e-01	9.0857	15.947857	0.000346	3.463646	0.586757	-0.006928
1093	5.4600e-01	9.0762	15.923055	0.000248	2.480141	0.420147	-0.004960
1094	5.4650e-01	9.0668	15.884996	0.000381	3.805734	0.644709	-0.007612
1095	5.4700e-01	9.0558	15.877726	0.000073	0.726938	0.123147	-0.001454
1096	5.4750e-01	9.0472	15.844799	0.000329	3.292602	0.557782	-0.006585
1097	5.4800e-01	9.0356	15.824273	0.000205	2.052531	0.347708	-0.004105
1098	5.4850e-01	9.0289	15.781511	0.000428	4.276106	0.724392	-0.008553
1099	5.4900e-01	9.0161	15.775524	0.000060	0.598655	0.101415	-0.001197
1100	5.4950e-01	9.0063	15.756708	0.000188	1.881487	0.318732	-0.003763
1101	5.5000e-01	8.9960	15.730623	0.000261	2.608425	0.441879	-0.005217
1102	5.5050e-01	8.9835	15.715656	0.000150	1.496637	0.253537	-0.002993
1103	5.5100e-01	8.9746	15.671611	0.000440	4.404389	0.746124	-0.008809
1104	5.5150e-01	8.9673	15.647664	0.000239	2.394619	0.405659	-0.004789
1105	5.5200e-01	8.9575	15.624145	0.000235	2.351858	0.398416	-0.004704
1106	5.5250e-01	8.9444	15.595066	0.000291	2.907752	0.492587	-0.005816
1107	5.5300e-01	8.9362	15.566415	0.000286	2.864991	0.485343	-0.005730
1108	5.5350e-01	8.9267	15.545462	0.000210	2.095292	0.354952	-0.004191
1109	5.5400e-01	8.9178	15.522797	0.000227	2.266336	0.383928	-0.004533
1110	5.5450e-01	8.9050	15.496285	0.000265	2.651186	0.449123	-0.005303
1111	5.5500e-01	8.8983	15.472338	0.000239	2.394619	0.405659	-0.004789
1112	5.5550e-01	8.8885	15.435990	0.000363	3.634690	0.615733	-0.007270
1113	5.5600e-01	8.8770	15.427009	0.000090	0.897982	0.152122	-0.001796
1114	5.5650e-01	8.8635	15.395365	0.000316	3.164318	0.536050	-0.006329
1115	5.5700e-01	8.8562	15.379115	0.000162	1.624920	0.275269	-0.003250
1116	5.5750e-01	8.8464	15.347043	0.000321	3.207079	0.543294	-0.006414
1117	5.5800e-01	8.8379	15.330366	0.000167	1.667681	0.282513	-0.003335
1118	5.5850e-01	8.8251	15.297439	0.000329	3.292602	0.557782	-0.006585
1119	5.5900e-01	8.8147	15.282472	0.000150	1.496637	0.253537	-0.002993
1120	5.5950e-01	8.8071	15.223032	0.000594	5.943787	1.006905	-0.011888
1121	5.6000e-01	8.7964	15.221749	0.000013	0.128283	0.021732	-0.000257
1122	5.6050e-01	8.7866	15.174283	0.000475	4.746478	0.804075	-0.009493
1123	5.6100e-01	8.7744	15.170434	0.000038	0.384850	0.065195	-0.000770
1124	5.6150e-01	8.7665	15.126389	0.000440	4.404389	0.746124	-0.008809
1125	5.6200e-01	8.7579	15.089185	0.000372	3.720212	0.630221	-0.007441
1126	5.6250e-01	8.7439	15.081488	0.000077	0.769699	0.130391	-0.001539
1127	5.6300e-01	8.7378	15.041719	0.000398	3.976779	0.673685	-0.007954
1128	5.6350e-01	8.7286	15.028890	0.000128	1.282832	0.217318	-0.002566
1129	5.6400e-01	8.7164	14.998101	0.000308	3.078796	0.521562	-0.006158
1130	5.6450e-01	8.7070	14.988694	0.000094	0.940743	0.159366	-0.001882
1131	5.6500e-01	8.6987	14.952345	0.000363	3.634690	0.615733	-0.007270
1132	5.6550e-01	8.6871	14.924977	0.000274	2.736708	0.463611	-0.005474
1133	5.6600e-01	8.6792	14.907445	0.000175	1.753203	0.297001	-0.003507
1134	5.6650e-01	8.6664	14.863827	0.000436	4.361628	0.738880	-0.008724
1135	5.6700e-01	8.6584	14.853136	0.000107	1.069026	0.181098	-0.002138
1136	5.6750e-01	8.6456	14.822775	0.000304	3.036035	0.514318	-0.006072
1137	5.6800e-01	8.6371	14.799683	0.000231	2.309097	0.391172	-0.004618
1138	5.6850e-01	8.6255	14.778302	0.000214	2.138053	0.362196	-0.004276
1139	5.6900e-01	8.6169	14.751789	0.000265	2.651186	0.449123	-0.005303
1140	5.6950e-01	8.6047	14.717151	0.000346	3.463646	0.586757	-0.006928
1141	5.7000e-01	8.5950	14.709027	0.000081	0.812460	0.137634	-0.001625
1142	5.7050e-01	8.5876	14.672251	0.000368	3.677451	0.622977	-0.007355
1143	5.7100e-01	8.5797	14.638041	0.000342	3.420885	0.579514	-0.006842
1144	5.7150e-01	8.5663	14.607679	0.000304	3.036035	0.514318	-0.006072
1145	5.7200e-01	8.5599	14.574325	0.000334	3.335363	0.565026	-0.006671
1146	5.7250e-01	8.5455	14.569193	0.000051	0.513133	0.086927	-0.001026
1147	5.7300e-01	8.5382	14.543536	0.000257	2.565664	0.434635	-0.005132
1148	5.7350e-01	8.5278	14.499063	0.000445	4.447150	0.753368	-0.008895
1149	5.7400e-01	8.5168	14.487089	0.000120	1.197310	0.202830	-0.002395
1150	5.7450e-01	8.5083	14.461004	0.000261	2.608425	0.441879	-0.005217
1151	5.7500e-01	8.4961	14.430215	0.000308	3.078796	0.521562	-0.006158
1152	5.7550e-01	8.4863	14.423373	0.000068	0.684177	0.115903	-0.001368
1153	5.7600e-01	8.4729	14.392584	0.000308	3.078796	0.521562	-0.006158
1154	5.7650e-01	8.4656	14.355380	0.000372	3.720212	0.630221	-0.007441
1155	5.7700e-01	8.4537	14.320743	0.000346	3.463646	0.586757	-0.006928
1156	5.7750e-01	8.4460	14.301072	0.000197	1.967009	0.333220	-0.003934
1157	5.7800e-01	8.4369	14.273276	0.000278	2.779469	0.470855	-0.005559
1158	5.7850e-01	8.4241	14.241205	0.000321	3.207079	0.543294	-0.006414
1159	5.7900e-01	8.4174	14.216830	0.000244	2.437380	0.412903	-0.004875
1160	5.7950e-01	8.4082	14.200152	0.000167	1.667681	0.282513	-0.003335
1161	5.8000e-01	8.3978	14.150976	0.000492	4.917522	0.833051	-0.009835
1162	5.8050e-01	8.3875	14.128311	0.000227	2.266336	0.383928	-0.004533
1163	5.8100e-01	8.3783	14.127029	0.000013	0.128283	0.021732	-0.000257
1164	5.8150e-01	8.3652	14.086404	0.000406	4.062301	0.688172	-0.008125
1165	5.8200e-01	8.3563	14.076996	0.000094	0.940743	0.159366	-0.001882
1166	5.8250e-01	8.3472	14.035089	0.000419	4.190584	0.709904	-0.008381
1167	5.8300e-01	8.3368	14.011142	0.000239	2.394619	0.405659	-0.004789
1168	5.8350e-01	8.3282	13.980353	0.000308	3.078796	0.521562	-0.006158
1169	5.8400e-01	8.3173	13.949136	0.000312	3.121557	0.528806	-0.006243
1170	5.8450e-01	8.3063	13.918775	0.000304	3.036035	0.514318	-0.006072
1171	5.8500e-01	8.2959	13.886703	0.000321	3.207079	0.543294	-0.006414
1172	5.8550e-01	8.2864	13.866605	0.000201	2.009770	0.340464	-0.004020
1173	5.8600e-01	8.2758	13.850355	0.000162	1.624920	0.275269	-0.003250
1174	5.8650e-01	8.2666	13.825125	0.000252	2.522903	0.427391	-0.005046
1175	5.8700e-01	8.2565	13.784501	0.000406	4.062301	0.688172	-0.008125
1176	5.8750e-01	8.2471	13.757560	0.000269	2.693947	0.456367	-0.005388
1177	5.8800e-01	8.2379	13.728909	0.000286	2.864991	0.485343	-0.005730
1178	5.8850e-01	8.2260	13.738745	-0.000098	-0.983504	-0.166610	0.001967
1179	5.8900e-01	8.2172	13.707101	0.000316	3.164318	0.536050	-0.006329
1180	5.8950e-01	8.2031	13.670325	0.000368	3.677451	0.622977	-0.007355
1181	5.9000e-01	8.1970	13.615161	0.000552	5.516177	0.934466	-0.011033
1182	5.9050e-01	8.1897	13.607891	0.000073	0.726938	0.123147	-0.001454
1183	5.9100e-01	8.1750	13.581379	0.000265	2.651186	0.449123	-0.005303
1184	5.9150e-01	8.1659	13.559142	0.000222	2.223575	0.376684	-0.004447
1185	5.9200e-01	8.1567	13.505261	0.000539	5.387893	0.912734	-0.010776
1186	5.9250e-01	8.1458	13.507400	-0.000021	-0.213805	-0.036220	0.000428
1187	5.9300e-01	8.1366	13.462499	0.000449	4.489911	0.760612	-0.008980
1188	5.9350e-01	8.1250	13.454802	0.000077	0.769699	0.130391	-0.001539
1189	5.9400e-01	8.1189	13.438980	0.000158	1.582159	0.268025	-0.003164
1190	5.9450e-01	8.1055	13.390658	0.000483	4.832000	0.818563	-0.009664
1191	5.9500e-01	8.0988	13.337632	0.000530	5.302371	0.898246	-0.010605
1192	5.9550e-01	8.0858	13.354310	-0.000167	-1.667681	-0.282513	0.003335
1193	5.9600e-01	8.0786	13.305133	0.000492	4.917522	0.833051	-0.009835
1194	5.9650e-01	8.0670	13.273489	0.000316	3.164318	0.536050	-0.006329
1195	5.9700e-01	8.0594	13.242272	0.000312	3.121557	0.528806	-0.006243
1196	5.9750e-01	8.0457	13.226877	0.000154	1.539398	0.260781	-0.003079
1197	5.9800e-01	8.0371	13.212338	0.000145	1.453876	0.246293	-0.002908
1198	5.9850e-01	8.0289	13.169148	0.000432	4.318867	0.731636	-0.008638
1199	5.9900e-01	8.0176	13.136221	0.000329	3.292602	0.557782	-0.006585
1200	5.9950e-01	8.0078	13.105004	0.000312	3.121557	0.528806	-0.006243
1201	6.0000e-01	7.9980	13.074643	0.000304	3.036035	0.514318	-0.006072
1202	6.0050e-01	7.9865	13.051551	0.000231	2.309097	0.391172	-0.004618
1203	6.0100e-01	7.9767	13.054972	-0.000034	-0.342088	-0.057951	0.000684
1204	6.0150e-01	7.9651	13.002802	0.000522	5.216849	0.883758	-0.010434
1205	6.0200e-01	7.9578	12.984414	0.000184	1.838726	0.311489	-0.003678
1206	6.0250e-01	7.9468	12.960039	0.000244	2.437380	0.412903	-0.004875
1207	6.0300e-01	7.9364	12.921981	0.000381	3.805734	0.644709	-0.007612
1208	6.0350e-01	7.9254	12.910435	0.000115	1.154549	0.195586	-0.002309
1209	6.0400e-01	7.9175	12.873659	0.000368	3.677451	0.622977	-0.007355
1210	6.0450e-01	7.9071	12.842870	0.000308	3.078796	0.521562	-0.006158
1211	6.0500e-01	7.8967	12.808660	0.000342	3.420885	0.579514	-0.006842
1212	6.0550e-01	7.8900	12.777016	0.000316	3.164318	0.536050	-0.006329
1213	6.0600e-01	7.8757	12.749220	0.000278	2.779469	0.470855	-0.005559
1214	6.0650e-01	7.8674	12.714155	0.000351	3.506407	0.594001	-0.007013
1215	6.0700e-01	7.8552	12.694056	0.000201	2.009770	0.340464	-0.004020
1216	6.0750e-01	7.8455	12.664123	0.000299	2.993274	0.507074	-0.005987
1217	6.0800e-01	7.8400	12.619649	0.000445	4.447150	0.753368	-0.008895
1218	6.0850e-01	7.8290	12.614518	0.000051	0.513133	0.086927	-0.001026
1219	6.0900e-01	7.8168	12.579453	0.000351	3.506407	0.594001	-0.007013
1220	6.0950e-01	7.8082	12.563203	0.000162	1.624920	0.275269	-0.003250
1221	6.1000e-01	7.7997	12.547381	0.000158	1.582159	0.268025	-0.003164
1222	6.1050e-01	7.7869	12.522151	0.000252	2.522903	0.427391	-0.005046
1223	6.1100e-01	7.7759	12.478106	0.000440	4.404389	0.746124	-0.008809
1224	6.1150e-01	7.7667	12.449882	0.000282	2.822230	0.478099	-0.005645
1225	6.1200e-01	7.7563	12.434915	0.000150	1.496637	0.253537	-0.002993
1226	6.1250e-01	7.7448	12.410113	0.000248	2.480141	0.420147	-0.004960
1227	6.1300e-01	7.7371	12.363074	0.000470	4.703717	0.796831	-0.009408
1228	6.1350e-01	7.7271	12.349390	0.000137	1.368354	0.231805	-0.002737
1229	6.1400e-01	7.7156	12.317318	0.000321	3.207079	0.543294	-0.006414
1230	6.1450e-01	7.7075	12.283536	0.000338	3.378124	0.572270	-0.006756
1231	6.1500e-01	7.6959	12.262155	0.000214	2.138053	0.362196	-0.004276
1232	6.1550e-01	7.6862	12.239918	0.000222	2.223575	0.376684	-0.004447
1233	6.1600e-01	7.6776	12.188176	0.000517	5.174088	0.876514	-0.010349
1234	6.1650e-01	7.6663	12.167650	0.000205	2.052531	0.347708	-0.004105
1235	6.1700e-01	7.6575	12.134295	0.000334	3.335363	0.565026	-0.006671
1236	6.1750e-01	7.6450	12.129163	0.000051	0.513133	0.086927	-0.001026
1237	6.1800e-01	7.6373	12.076138	0.000530	5.302371	0.898246	-0.010605
1238	6.1850e-01	7.6270	12.057750	0.000184	1.838726	0.311489	-0.003678
1239	6.1900e-01	7.6178	12.032092	0.000257	2.565664	0.434635	-0.005132
1240	6.1950e-01	7.6062	12.010283	0.000218	2.180814	0.369440	-0.004362
1241	6.2000e-01	7.5977	11.984626	0.000257	2.565664	0.434635	-0.005132
1242	6.2050e-01	7.5882	11.939725	0.000449	4.489911	0.760612	-0.008980
1243	6.2100e-01	7.5757	11.913640	0.000261	2.608425	0.441879	-0.005217
1244	6.2150e-01	7.5659	11.887127	0.000265	2.651186	0.449123	-0.005303
1245	6.2200e-01	7.5549	11.860615	0.000265	2.651186	0.449123	-0.005303
1246	6.2250e-01	7.5458	11.824694	0.000359	3.591929	0.608489	-0.007184
1247	6.2300e-01	7.5394	11.802030	0.000227	2.266336	0.383928	-0.004533
1248	6.2350e-01	7.5253	11.783642	0.000184	1.838726	0.311489	-0.003678
1249	6.2400e-01	7.5189	11.734893	0.000487	4.874761	0.825807	-0.009750
1250	6.2450e-01	7.5085	11.711373	0.000235	2.351858	0.398416	-0.004704
1251	6.2500e-01	7.4951	11.697689	0.000137	1.368354	0.231805	-0.002737
1252	6.2550e-01	7.4875	11.656210	0.000415	4.147823	0.702660	-0.008296
1253	6.2600e-01	7.4753	11.640815	0.000154	1.539398	0.260781	-0.003079
1254	6.2650e-01	7.4677	11.612592	0.000282	2.822230	0.478099	-0.005645
1255	6.2700e-01	7.4591	11.585652	0.000269	2.693947	0.456367	-0.005388
1256	6.2750e-01	7.4487	11.560849	0.000248	2.480141	0.420147	-0.004960
1257	6.2800e-01	7.4384	11.530916	0.000299	2.993274	0.507074	-0.005987
1258	6.2850e-01	7.4274	11.492857	0.000381	3.805734	0.644709	-0.007612
1259	6.2900e-01	7.4170	11.464206	0.000286	2.864991	0.485343	-0.005730
1260	6.2950e-01	7.4042	11.423154	0.000411	4.105062	0.695416	-0.008210
1261	6.3000e-01	7.3965	11.415029	0.000081	0.812460	0.137634	-0.001625
1262	6.3050e-01	7.3889	11.374405	0.000406	4.062301	0.688172	-0.008125
1263	6.3100e-01	7.3773	11.347037	0.000274	2.736708	0.463611	-0.005474
1264	6.3150e-01	7.3669	11.319241	0.000278	2.779469	0.470855	-0.005559
1265	6.3200e-01	7.3563	11.302991	0.000162	1.624920	0.275269	-0.003250
1266	6.3250e-01	7.3444	11.257663	0.000453	4.532672	0.767855	-0.009066
1267	6.3300e-01	7.3383	11.221742	0.000359	3.591929	0.608489	-0.007184
1268	6.3350e-01	7.3267	11.207631	0.000141	1.411115	0.239049	-0.002822
1269	6.3400e-01	7.3175	11.164868	0.000428	4.276106	0.724392	-0.008553
1270	6.3450e-01	7.3065	11.152040	0.000128	1.282832	0.217318	-0.002566
1271	6.3500e-01	7.2949	11.120823	0.000312	3.121557	0.528806	-0.006243
1272	6.3550e-01	7.2839	11.095593	0.000252	2.522903	0.427391	-0.005046
1273	6.3600e-01	7.2768	11.058817	0.000368	3.677451	0.622977	-0.007355
1274	6.3650e-01	7.2650	11.028456	0.000304	3.036035	0.514318	-0.006072
1275	6.3700e-01	7.2585	11.003654	0.000248	2.480141	0.420147	-0.004960
1276	6.3750e-01	7.2476	10.982272	0.000214	2.138053	0.362196	-0.004276
1277	6.3800e-01	7.2345	10.969016	0.000133	1.325593	0.224562	-0.002651
1278	6.3850e-01	7.2278	10.913852	0.000552	5.516177	0.934466	-0.011033
1279	6.3900e-01	7.2156	10.877504	0.000363	3.634690	0.615733	-0.007270
1280	6.3950e-01	7.2055	10.848426	0.000291	2.907752	0.492587	-0.005816
1281	6.4000e-01	7.1945	10.837735	0.000107	1.069026	0.181098	-0.002138
1282	6.4050e-01	7.1857	10.786848	0.000509	5.088566	0.862026	-0.010177
1283	6.4100e-01	7.1744	10.776157	0.000107	1.069026	0.181098	-0.002138
1284	6.4150e-01	7.1661	10.747506	0.000286	2.864991	0.485343	-0.005730
1285	6.4200e-01	7.1558	10.717145	0.000304	3.036035	0.514318	-0.006072
1286	6.4250e-01	7.1474	10.684645	0.000325	3.249841	0.550538	-0.006500
1287	6.4300e-01	7.1356	10.649580	0.000351	3.506407	0.594001	-0.007013
1288	6.4350e-01	7.1252	10.623922	0.000257	2.565664	0.434635	-0.005132
1289	6.4400e-01	7.1167	10.606390	0.000175	1.753203	0.297001	-0.003507
1290	6.4450e-01	7.1085	10.579449	0.000269	2.693947	0.456367	-0.005388
1291	6.4500e-01	7.0984	10.534976	0.000445	4.447150	0.753368	-0.008895
1292	6.4550e-01	7.0862	10.515306	0.000197	1.967009	0.333220	-0.003934
1293	6.4600e-01	7.0764	10.472115	0.000432	4.318867	0.731636	-0.008638
1294	6.4650e-01	7.0670	10.446885	0.000252	2.522903	0.427391	-0.005046
1295	6.4700e-01	7.0572	10.434912	0.000120	1.197310	0.202830	-0.002395
1296	6.4750e-01	7.0465	10.388728	0.000462	4.618194	0.782343	-0.009237
1297	6.4800e-01	7.0355	10.371196	0.000175	1.753203	0.297001	-0.003507
1298	6.4850e-01	7.0258	10.339552	0.000316	3.164318	0.536050	-0.006329
1299	6.4900e-01	7.0172	10.300210	0.000393	3.934017	0.666441	-0.007868
1300	6.4950e-01	7.0068	10.285671	0.000145	1.453876	0.246293	-0.002908
1301	6.5000e-01	6.9928	10.241198	0.000445	4.447150	0.753368	-0.008895
1302	6.5050e-01	6.9867	10.197152	0.000440	4.404389	0.746124	-0.008809
1303	6.5100e-01	6.9794	10.191166	0.000060	0.598655	0.101415	-0.001197
1304	6.5150e-01	6.9666	10.154817	0.000363	3.634690	0.615733	-0.007270
1305	6.5200e-01	6.9562	10.116759	0.000381	3.805734	0.644709	-0.007612
1306	6.5250e-01	6.9452	10.117614	-0.000009	-0.085522	-0.014488	0.000171
1307	6.5300e-01	6.9354	10.070575	0.000470	4.703717	0.796831	-0.009408
1308	6.5350e-01	6.9250	10.053043	0.000175	1.753203	0.297001	-0.003507
1309	6.5400e-01	6.9165	9.999589	0.000535	5.345132	0.905490	-0.010691
1310	6.5450e-01	6.9055	9.975215	0.000244	2.437380	0.412903	-0.004875
1311	6.5500e-01	6.8939	9.952123	0.000231	2.309097	0.391172	-0.004618
1312	6.5550e-01	6.8860	9.918341	0.000338	3.378124	0.572270	-0.006756
1313	6.5600e-01	6.8744	9.920479	-0.000021	-0.213805	-0.036220	0.000428
1314	6.5650e-01	6.8658	9.875578	0.000449	4.489911	0.760612	-0.008980
1315	6.5700e-01	6.8567	9.821697	0.000539	5.387893	0.912734	-0.010776
1316	6.5750e-01	6.8475	9.802882	0.000188	1.881487	0.318732	-0.003763
1317	6.5800e-01	6.8359	9.758836	0.000440	4.404389	0.746124	-0.008809
1318	6.5850e-01	6.8250	9.749856	0.000090	0.897982	0.152122	-0.001796
1319	6.5900e-01	6.8155	9.709232	0.000406	4.062301	0.688172	-0.008125
1320	6.5950e-01	6.8060	9.673311	0.000359	3.591929	0.608489	-0.007184
1321	6.6000e-01	6.7957	9.654068	0.000192	1.924248	0.325976	-0.003849
1322	6.6050e-01	6.7874	9.633970	0.000201	2.009770	0.340464	-0.004020
1323	6.6100e-01	6.7746	9.608740	0.000252	2.522903	0.427391	-0.005046
1324	6.6150e-01	6.7642	9.564695	0.000440	4.404389	0.746124	-0.008809
1325	6.6200e-01	6.7566	9.554432	0.000103	1.026265	0.173854	-0.002053
1326	6.6250e-01	6.7468	9.506537	0.000479	4.789239	0.811319	-0.009579
1327	6.6300e-01	6.7352	9.480025	0.000265	2.651186	0.449123	-0.005303
1328	6.6350e-01	6.7236	9.459926	0.000201	2.009770	0.340464	-0.004020
1329	6.6400e-01	6.7133	9.395355	0.000646	6.456920	1.093832	-0.012914
1330	6.6450e-01	6.7036	9.387658	0.000077	0.769699	0.130391	-0.001539
1331	6.6500e-01	6.6949	9.343185	0.000445	4.447150	0.753368	-0.008895
1332	6.6550e-01	6.6864	9.336770	0.000064	0.641416	0.108659	-0.001283
1333	6.6600e-01	6.6766	9.301277	0.000355	3.549168	0.601245	-0.007099
1334	6.6650e-01	6.6653	9.296146	0.000051	0.513133	0.086927	-0.001026
1335	6.6700e-01	6.6577	9.240982	0.000552	5.516177	0.934466	-0.011033
1336	6.6750e-01	6.6461	9.208910	0.000321	3.207079	0.543294	-0.006414
1337	6.6800e-01	6.6364	9.169141	0.000398	3.976779	0.673685	-0.007954
1338	6.6850e-01	6.6255	9.156740	0.000124	1.240071	0.210074	-0.002480
1339	6.6900e-01	6.6162	9.111412	0.000453	4.532672	0.767855	-0.009066
1340	6.6950e-01	6.6042	9.088748	0.000227	2.266336	0.383928	-0.004533
1341	6.7000e-01	6.5967	9.060097	0.000286	2.864991	0.485343	-0.005730
1342	6.7050e-01	6.5878	9.029735	0.000304	3.036035	0.514318	-0.006072
1343	6.7100e-01	6.5759	8.986973	0.000428	4.276106	0.724392	-0.008553
1344	6.7150e-01	6.5662	8.970723	0.000162	1.624920	0.275269	-0.003250
1345	6.7200e-01	6.5582	8.943783	0.000269	2.693947	0.456367	-0.005388
1346	6.7250e-01	6.5454	8.911711	0.000321	3.207079	0.543294	-0.006414
1347	6.7300e-01	6.5356	8.868948	0.000428	4.276106	0.724392	-0.008553
1348	6.7350e-01	6.5277	8.845429	0.000235	2.351858	0.398416	-0.004704
1349	6.7400e-01	6.5140	8.822765	0.000227	2.266336	0.383928	-0.004533
1350	6.7450e-01	6.5076	8.761187	0.000616	6.157593	1.043124	-0.012316
1351	6.7500e-01	6.4948	8.764608	-0.000034	-0.342088	-0.057951	0.000684
1352	6.7550e-01	6.4856	8.727404	0.000372	3.720212	0.630221	-0.007441
1353	6.7600e-01	6.4758	8.680365	0.000470	4.703717	0.796831	-0.009408
1354	6.7650e-01	6.4670	8.672241	0.000081	0.812460	0.137634	-0.001625
1355	6.7700e-01	6.4575	8.640596	0.000316	3.164318	0.536050	-0.006329
1356	6.7750e-01	6.4455	8.590137	0.000505	5.045805	0.854783	-0.010092
1357	6.7800e-01	6.4365	8.557209	0.000329	3.292602	0.557782	-0.006585
1358	6.7850e-01	6.4264	8.535400	0.000218	2.180814	0.369440	-0.004362
1359	6.7900e-01	6.4160	8.525137	0.000103	1.026265	0.173854	-0.002053
1360	6.7950e-01	6.4081	8.484513	0.000406	4.062301	0.688172	-0.008125
1361	6.8000e-01	6.3985	8.444316	0.000402	4.019540	0.680928	-0.008039
1362	6.8050e-01	6.3867	8.422080	0.000222	2.223575	0.376684	-0.004447
1363	6.8100e-01	6.3770	8.387015	0.000351	3.506407	0.594001	-0.007013
1364	6.8150e-01	6.3673	8.355370	0.000316	3.164318	0.536050	-0.006329
1365	6.8200e-01	6.3568	8.317312	0.000381	3.805734	0.644709	-0.007612
1366	6.8250e-01	6.3483	8.294220	0.000231	2.309097	0.391172	-0.004618
1367	6.8300e-01	6.3358	8.260437	0.000338	3.378124	0.572270	-0.006756
1368	6.8350e-01	6.3260	8.253595	0.000068	0.684177	0.115903	-0.001368
1369	6.8400e-01	6.3147	8.206129	0.000475	4.746478	0.804075	-0.009493
1370	6.8450e-01	6.3055	8.165505	0.000406	4.062301	0.688172	-0.008125
1371	6.8500e-01	6.2955	8.138137	0.000274	2.736708	0.463611	-0.005474
1372	6.8550e-01	6.2874	8.101788	0.000363	3.634690	0.615733	-0.007270
1373	6.8600e-01	6.2759	8.073993	0.000278	2.779469	0.470855	-0.005559
1374	6.8650e-01	6.2659	8.042776	0.000312	3.121557	0.528806	-0.006243
1375	6.8700e-01	6.2544	8.005573	0.000372	3.720212	0.630221	-0.007441
1376	6.8750e-01	6.2491	7.997876	0.000077	0.769699	0.130391	-0.001539
1377	6.8800e-01	6.2372	7.944422	0.000535	5.345132	0.905490	-0.010691
1378	6.8850e-01	6.2283	7.923469	0.000210	2.095292	0.354952	-0.004191
1379	6.8900e-01	6.2158	7.905081	0.000184	1.838726	0.311489	-0.003678
1380	6.8950e-01	6.2048	7.886693	0.000184	1.838726	0.311489	-0.003678
1381	6.9000e-01	6.1966	7.831529	0.000552	5.516177	0.934466	-0.011033
1382	6.9050e-01	6.1859	7.808865	0.000227	2.266336	0.383928	-0.004533
1383	6.9100e-01	6.1774	7.769096	0.000398	3.976779	0.673685	-0.007954
1384	6.9150e-01	6.1659	7.754557	0.000145	1.453876	0.246293	-0.002908
1385	6.9200e-01	6.1578	7.714360	0.000402	4.019540	0.680928	-0.008039
1386	6.9250e-01	6.1481	7.673736	0.000406	4.062301	0.688172	-0.008125
1387	6.9300e-01	6.1368	7.649789	0.000239	2.394619	0.405659	-0.004789
1388	6.9350e-01	6.1255	7.618144	0.000316	3.164318	0.536050	-0.006329
1389	6.9400e-01	6.1176	7.595480	0.000227	2.266336	0.383928	-0.004533
1390	6.9450e-01	6.1060	7.559560	0.000359	3.591929	0.608489	-0.007184
1391	6.9500e-01	6.0931	7.519363	0.000402	4.019540	0.680928	-0.008039
1392	6.9550e-01	6.0840	7.465054	0.000543	5.430655	0.919978	-0.010862
1393	6.9600e-01	6.0760	7.457357	0.000077	0.769699	0.130391	-0.001539
1394	6.9650e-01	6.0651	7.431700	0.000257	2.565664	0.434635	-0.005132
1395	6.9700e-01	6.0547	7.391503	0.000402	4.019540	0.680928	-0.008039
1396	6.9750e-01	6.0486	7.380385	0.000111	1.111788	0.188342	-0.002224
1397	6.9800e-01	6.0378	7.334629	0.000458	4.575433	0.775099	-0.009151
1398	6.9850e-01	6.0248	7.294860	0.000398	3.976779	0.673685	-0.007954
1399	6.9900e-01	6.0150	7.241406	0.000535	5.345132	0.905490	-0.010691
1400	6.9950e-01	6.0089	7.258511	-0.000171	-1.710442	-0.289757	0.003421
1401	7.0000e-01	5.9955	7.198644	0.000599	5.986548	1.014149	-0.011974
1402	7.0050e-01	5.9857	7.163151	0.000355	3.549168	0.601245	-0.007099
1403	7.0100e-01	5.9756	7.157592	0.000056	0.555894	0.094171	-0.001112
1404	7.0150e-01	5.9657	7.120816	0.000368	3.677451	0.622977	-0.007355
1405	7.0200e-01	5.9552	7.069501	0.000513	5.131327	0.869270	-0.010263
1406	7.0250e-01	5.9479	7.052824	0.000167	1.667681	0.282513	-0.003335
1407	7.0300e-01	5.9387	7.012627	0.000402	4.019540	0.680928	-0.008039
1408	7.0350e-01	5.9265	6.985259	0.000274	2.736708	0.463611	-0.005474
1409	7.0400e-01	5.9186	6.951904	0.000334	3.335363	0.565026	-0.006671
1410	7.0450e-01	5.9058	6.905293	0.000466	4.660955	0.789587	-0.009322
1411	7.0500e-01	5.8978	6.874076	0.000312	3.121557	0.528806	-0.006243
1412	7.0550e-01	5.8881	6.857399	0.000167	1.667681	0.282513	-0.003335
1413	7.0600e-01	5.8755	6.808222	0.000492	4.917522	0.833051	-0.009835
1414	7.0650e-01	5.8667	6.806511	0.000017	0.171044	0.028976	-0.000342
1415	7.0700e-01	5.8582	6.752631	0.000539	5.387893	0.912734	-0.010776
1416	7.0750e-01	5.8466	6.744933	0.000077	0.769699	0.130391	-0.001539
1417	7.0800e-01	5.8368	6.709441	0.000355	3.549168	0.601245	-0.007099
1418	7.0850e-01	5.8258	6.670527	0.000389	3.891256	0.659197	-0.007783
1419	7.0900e-01	5.8167	6.625198	0.000453	4.532672	0.767855	-0.009066
1420	7.0950e-01	5.8075	6.596547	0.000286	2.864991	0.485343	-0.005730
1421	7.1000e-01	5.7977	6.587567	0.000090	0.897982	0.152122	-0.001796
1422	7.1050e-01	5.7849	6.534542	0.000530	5.302371	0.898246	-0.010605
1423	7.1100e-01	5.7745	6.514871	0.000197	1.967009	0.333220	-0.003934
1424	7.1150e-01	5.7678	6.464411	0.000505	5.045805	0.854783	-0.010092
1425	7.1200e-01	5.7544	6.448589	0.000158	1.582159	0.268025	-0.003164
1426	7.1250e-01	5.7434	6.403688	0.000449	4.489911	0.760612	-0.008980
1427	7.1300e-01	5.7361	6.364347	0.000393	3.934017	0.666441	-0.007868
1428	7.1350e-01	5.7260	6.330565	0.000338	3.378124	0.572270	-0.006756
1429	7.1400e-01	5.7175	6.298493	0.000321	3.207079	0.543294	-0.006414
1430	7.1450e-01	5.7056	6.289085	0.000094	0.940743	0.159366	-0.001882
1431	7.1500e-01	5.6985	6.249743	0.000393	3.934017	0.666441	-0.007868
1432	7.1550e-01	5.6879	6.214250	0.000355	3.549168	0.601245	-0.007099
1433	7.1600e-01	5.6754	6.209119	0.000051	0.513133	0.086927	-0.001026
1434	7.1650e-01	5.6654	6.166356	0.000428	4.276106	0.724392	-0.008553
1435	7.1700e-01	5.6552	6.122739	0.000436	4.361628	0.738880	-0.008724
1436	7.1750e-01	5.6451	6.107344	0.000154	1.539398	0.260781	-0.003079
1437	7.1800e-01	5.6366	6.055602	0.000517	5.174088	0.876514	-0.010349
1438	7.1850e-01	5.6238	6.030799	0.000248	2.480141	0.420147	-0.004960
1439	7.1900e-01	5.6189	6.001721	0.000291	2.907752	0.492587	-0.005816
1440	7.1950e-01	5.6067	5.962379	0.000393	3.934017	0.666441	-0.007868
1441	7.2000e-01	5.5988	5.939715	0.000227	2.266336	0.383928	-0.004533
1442	7.2050e-01	5.5847	5.906360	0.000334	3.335363	0.565026	-0.006671
1443	7.2100e-01	5.5750	5.875571	0.000308	3.078796	0.521562	-0.006158
1444	7.2150e-01	5.5658	5.837085	0.000385	3.848495	0.651953	-0.007697
1445	7.2200e-01	5.5579	5.798171	0.000389	3.891256	0.659197	-0.007783
1446	7.2250e-01	5.5481	5.766954	0.000312	3.121557	0.528806	-0.006243
1447	7.2300e-01	5.5377	5.737448	0.000295	2.950513	0.499830	-0.005901
1448	7.2350e-01	5.5264	5.699817	0.000376	3.762973	0.637465	-0.007526
1449	7.2400e-01	5.5153	5.671594	0.000282	2.822230	0.478099	-0.005645
1450	7.2450e-01	5.5072	5.626693	0.000449	4.489911	0.760612	-0.008980
1451	7.2500e-01	5.4964	5.610016	0.000167	1.667681	0.282513	-0.003335
1452	7.2550e-01	5.4868	5.561694	0.000483	4.832000	0.818563	-0.009664
1453	7.2600e-01	5.4758	5.546300	0.000154	1.539398	0.260781	-0.003079
1454	7.2650e-01	5.4660	5.502254	0.000440	4.404389	0.746124	-0.008809
1455	7.2700e-01	5.4565	5.483867	0.000184	1.838726	0.311489	-0.003678
1456	7.2750e-01	5.4495	5.423144	0.000607	6.072070	1.028637	-0.012145
1457	7.2800e-01	5.4376	5.380809	0.000423	4.233345	0.717148	-0.008467
1458	7.2850e-01	5.4248	5.381236	-0.000004	-0.042761	-0.007244	0.000086
1459	7.2900e-01	5.4144	5.341467	0.000398	3.976779	0.673685	-0.007954
1460	7.2950e-01	5.4077	5.317093	0.000244	2.437380	0.412903	-0.004875
1461	7.3000e-01	5.3983	5.255515	0.000616	6.157593	1.043124	-0.012316
1462	7.3050e-01	5.3870	5.236271	0.000192	1.924248	0.325976	-0.003849
1463	7.3100e-01	5.3754	5.205482	0.000308	3.078796	0.521562	-0.006158
1464	7.3150e-01	5.3651	5.177259	0.000282	2.822230	0.478099	-0.005645
1465	7.3200e-01	5.3552	5.148608	0.000286	2.864991	0.485343	-0.005730
1466	7.3250e-01	5.3467	5.111833	0.000368	3.677451	0.622977	-0.007355
1467	7.3300e-01	5.3354	5.071208	0.000406	4.062301	0.688172	-0.008125
1468	7.3350e-01	5.3259	5.036570	0.000346	3.463646	0.586757	-0.006928
1469	7.3400e-01	5.3177	5.015189	0.000214	2.138053	0.362196	-0.004276
1470	7.3450e-01	5.3076	4.972854	0.000423	4.233345	0.717148	-0.008467
1471	7.3500e-01	5.2969	4.933513	0.000393	3.934017	0.666441	-0.007868
1472	7.3550e-01	5.2863	4.911704	0.000218	2.180814	0.369440	-0.004362
1473	7.3600e-01	5.2795	4.884764	0.000269	2.693947	0.456367	-0.005388
1474	7.3650e-01	5.2673	4.853974	0.000308	3.078796	0.521562	-0.006158
1475	7.3700e-01	5.2545	4.788548	0.000654	6.542442	1.108320	-0.013085
1476	7.3750e-01	5.2466	4.778285	0.000103	1.026265	0.173854	-0.002053
1477	7.3800e-01	5.2365	4.761607	0.000167	1.667681	0.282513	-0.003335
1478	7.3850e-01	5.2255	4.709865	0.000517	5.174088	0.876514	-0.010349
1479	7.3900e-01	5.2165	4.676938	0.000329	3.292602	0.557782	-0.006585
1480	7.3950e-01	5.2087	4.649142	0.000278	2.779469	0.470855	-0.005559
1481	7.4000e-01	5.1959	4.617498	0.000316	3.164318	0.536050	-0.006329
1482	7.4050e-01	5.1837	4.580294	0.000372	3.720212	0.630221	-0.007441
1483	7.4100e-01	5.1794	4.546940	0.000334	3.335363	0.565026	-0.006671
1484	7.4150e-01	5.1672	4.515295	0.000316	3.164318	0.536050	-0.006329
1485	7.4200e-01	5.1550	4.484079	0.000312	3.121557	0.528806	-0.006243
1486	7.4250e-01	5.1447	4.456283	0.000278	2.779469	0.470855	-0.005559
1487	7.4300e-01	5.1357	4.385725	0.000706	7.055575	1.195247	-0.014112
1488	7.4350e-01	5.1263	4.389573	-0.000038	-0.384850	-0.065195	0.000770
1489	7.4400e-01	5.1160	4.340824	0.000487	4.874761	0.825807	-0.009750
1490	7.4450e-01	5.1035	4.322009	0.000188	1.881487	0.318732	-0.003763
1491	7.4500e-01	5.0925	4.287371	0.000346	3.463646	0.586757	-0.006928
1492	7.4550e-01	5.0854	4.222372	0.000650	6.499681	1.101076	-0.013000
1493	7.4600e-01	5.0732	4.225365	-0.000030	-0.299327	-0.050707	0.000599
1494	7.4650e-01	5.0671	4.173623	0.000517	5.174088	0.876514	-0.010349
1495	7.4700e-01	5.0540	4.145827	0.000278	2.779469	0.470855	-0.005559
1496	7.4750e-01	5.0439	4.118887	0.000269	2.693947	0.456367	-0.005388
1497	7.4800e-01	5.0339	4.103920	0.000150	1.496637	0.253537	-0.002993
1498	7.4850e-01	5.0256	4.061585	0.000423	4.233345	0.717148	-0.008467
1499	7.4900e-01	5.0177	4.013263	0.000483	4.832000	0.818563	-0.009664
1500	7.4950e-01	5.0052	3.978198	0.000351	3.506407	0.594001	-0.007013
1501	7.5000e-01	4.9969	3.958527	0.000197	1.967009	0.333220	-0.003934
1502	7.5050e-01	4.9867	3.914482	0.000440	4.404389	0.746124	-0.008809
1503	7.5100e-01	4.9768	3.888824	0.000257	2.565664	0.434635	-0.005132
1504	7.5150e-01	4.9646	3.837509	0.000513	5.131327	0.869270	-0.010263
1505	7.5200e-01	4.9557	3.796457	0.000411	4.105062	0.695416	-0.008210
1506	7.5250e-01	4.9475	3.773365	0.000231	2.309097	0.391172	-0.004618
1507	7.5300e-01	4.9359	3.728892	0.000445	4.447150	0.753368	-0.008895
1508	7.5350e-01	4.9249	3.674156	0.000547	5.473416	0.927222	-0.010947
1509	7.5400e-01	4.9188	3.645505	0.000286	2.864991	0.485343	-0.005730
1510	7.5450e-01	4.9069	3.626262	0.000192	1.924248	0.325976	-0.003849
1511	7.5500e-01	4.8962	3.581362	0.000449	4.489911	0.760612	-0.008980
1512	7.5550e-01	4.8853	3.562119	0.000192	1.924248	0.325976	-0.003849
1513	7.5600e-01	4.8752	3.542875	0.000192	1.924248	0.325976	-0.003849
1514	7.5650e-01	4.8639	3.501396	0.000415	4.147823	0.702660	-0.008296
1515	7.5700e-01	4.8563	3.467186	0.000342	3.420885	0.579514	-0.006842
1516	7.5750e-01	4.8462	3.434686	0.000325	3.249841	0.550538	-0.006500
1517	7.5800e-01	4.8358	3.399193	0.000355	3.549168	0.601245	-0.007099
1518	7.5850e-01	4.8230	3.385509	0.000137	1.368354	0.231805	-0.002737
1519	7.5900e-01	4.8132	3.327780	0.000577	5.772743	0.977929	-0.011546
1520	7.5950e-01	4.8064	3.290149	0.000376	3.762973	0.637465	-0.007526
1521	7.6000e-01	4.7974	3.252090	0.000381	3.805734	0.644709	-0.007612
1522	7.6050e-01	4.7882	3.233702	0.000184	1.838726	0.311489	-0.003678
1523	7.6100e-01	4.7760	3.188802	0.000449	4.489911	0.760612	-0.008980
1524	7.6150e-01	4.7665	3.169986	0.000188	1.881487	0.318732	-0.003763
1525	7.6200e-01	4.7560	3.155447	0.000145	1.453876	0.246293	-0.002908
1526	7.6250e-01	4.7472	3.079330	0.000761	7.611469	1.289418	-0.015223
1527	7.6300e-01	4.7369	3.048541	0.000308	3.078796	0.521562	-0.006158
1528	7.6350e-01	4.7241	3.022455	0.000261	2.608425	0.441879	-0.005217
1529	7.6400e-01	4.7192	2.974989	0.000475	4.746478	0.804075	-0.009493
1530	7.6450e-01	4.7079	2.947193	0.000278	2.779469	0.470855	-0.005559
1531	7.6500e-01	4.6936	2.924529	0.000227	2.266336	0.383928	-0.004533
1532	7.6550e-01	4.6858	2.883050	0.000415	4.147823	0.702660	-0.008296
1533	7.6600e-01	4.6759	2.851833	0.000312	3.121557	0.528806	-0.006243
1534	7.6650e-01	4.6674	2.803084	0.000487	4.874761	0.825807	-0.009750
1535	7.6700e-01	4.6588	2.782130	0.000210	2.095292	0.354952	-0.004191
1536	7.6750e-01	4.6458	2.727822	0.000543	5.430655	0.919978	-0.010862
1537	7.6800e-01	4.6362	2.701309	0.000265	2.651186	0.449123	-0.005303
1538	7.6850e-01	4.6271	2.664961	0.000363	3.634690	0.615733	-0.007270
1539	7.6900e-01	4.6167	2.648283	0.000167	1.667681	0.282513	-0.003335
1540	7.6950e-01	4.6078	2.586278	0.000620	6.200354	1.050368	-0.012401
1541	7.7000e-01	4.5956	2.565752	0.000205	2.052531	0.347708	-0.004105
1542	7.7050e-01	4.5847	2.547364	0.000184	1.838726	0.311489	-0.003678
1543	7.7100e-01	4.5789	2.476806	0.000706	7.055575	1.195247	-0.014112
1544	7.7150e-01	4.5685	2.454997	0.000218	2.180814	0.369440	-0.004362
1545	7.7200e-01	4.5557	2.425491	0.000295	2.950513	0.499830	-0.005901
1546	7.7250e-01	4.5471	2.375031	0.000505	5.045805	0.854783	-0.010092
1547	7.7300e-01	4.5386	2.350656	0.000244	2.437380	0.412903	-0.004875
1548	7.7350e-01	4.5276	2.317729	0.000329	3.292602	0.557782	-0.006585
1549	7.7400e-01	4.5160	2.280526	0.000372	3.720212	0.630221	-0.007441
1550	7.7450e-01	4.5074	2.259144	0.000214	2.138053	0.362196	-0.004276
1551	7.7500e-01	4.4965	2.212106	0.000470	4.703717	0.796831	-0.009408
1552	7.7550e-01	4.4861	2.176185	0.000359	3.591929	0.608489	-0.007184
1553	7.7600e-01	4.4763	2.141975	0.000342	3.420885	0.579514	-0.006842
1554	7.7650e-01	4.4664	2.125298	0.000167	1.667681	0.282513	-0.003335
1555	7.7700e-01	4.4571	2.058588	0.000667	6.670725	1.130051	-0.013342
1556	7.7750e-01	4.4467	2.023523	0.000351	3.506407	0.594001	-0.007013
1557	7.7800e-01	4.4370	1.985464	0.000381	3.805734	0.644709	-0.007612
1558	7.7850e-01	4.4275	1.949971	0.000355	3.549168	0.601245	-0.007099
1559	7.7900e-01	4.4129	1.927307	0.000227	2.266336	0.383928	-0.004533
1560	7.7950e-01	4.4044	1.889248	0.000381	3.805734	0.644709	-0.007612
1561	7.8000e-01	4.3983	1.858032	0.000312	3.121557	0.528806	-0.006243
1562	7.8050e-01	4.3842	1.833230	0.000248	2.480141	0.420147	-0.004960
1563	7.8100e-01	4.3765	1.773790	0.000594	5.943787	1.006905	-0.011888
1564	7.8150e-01	4.3616	1.769086	0.000047	0.470372	0.079683	-0.000941
1565	7.8200e-01	4.3607	1.709218	0.000599	5.986548	1.014149	-0.011974
1566	7.8250e-01	4.3494	1.681423	0.000278	2.779469	0.470855	-0.005559
1567	7.8300e-01	4.3384	1.643364	0.000381	3.805734	0.644709	-0.007612
1568	7.8350e-01	4.3265	1.602740	0.000406	4.062301	0.688172	-0.008125
1569	7.8400e-01	4.3164	1.578365	0.000244	2.437380	0.412903	-0.004875
1570	7.8450e-01	4.3079	1.533464	0.000449	4.489911	0.760612	-0.008980
1571	7.8500e-01	4.2940	1.510800	0.000227	2.266336	0.383928	-0.004533
1572	7.8550e-01	4.2877	1.432545	0.000783	7.825274	1.325637	-0.015651
1573	7.8600e-01	4.2764	1.444091	-0.000115	-1.154549	-0.195586	0.002309
1574	7.8650e-01	4.2650	1.397907	0.000462	4.618194	0.782343	-0.009237
1575	7.8700e-01	4.2542	1.348302	0.000496	4.960283	0.840295	-0.009921
1576	7.8750e-01	4.2450	1.335901	0.000124	1.240071	0.210074	-0.002480
1577	7.8800e-01	4.2383	1.293139	0.000428	4.276106	0.724392	-0.008553
1578	7.8850e-01	4.2261	1.263205	0.000299	2.993274	0.507074	-0.005987
1579	7.8900e-01	4.2159	1.221725	0.000415	4.147823	0.702660	-0.008296
1580	7.8950e-01	4.2078	1.179818	0.000419	4.190584	0.709904	-0.008381
1581	7.9000e-01	4.1965	1.143042	0.000368	3.677451	0.622977	-0.007355
1582	7.9050e-01	4.1864	1.104556	0.000385	3.848495	0.651953	-0.007697
1583	7.9100e-01	4.1760	1.066925	0.000376	3.762973	0.637465	-0.007526
1584	7.9150e-01	4.1666	1.023735	0.000432	4.318867	0.731636	-0.008638
1585	7.9200e-01	4.1553	0.993374	0.000304	3.036035	0.514318	-0.006072
1586	7.9250e-01	4.1461	0.948045	0.000453	4.532672	0.767855	-0.009066
1587	7.9300e-01	4.1385	0.917256	0.000308	3.078796	0.521562	-0.006158
1588	7.9350e-01	4.1260	0.880908	0.000363	3.634690	0.615733	-0.007270
1589	7.9400e-01	4.1148	0.837718	0.000432	4.318867	0.731636	-0.008638
1590	7.9450e-01	4.1074	0.808639	0.000291	2.907752	0.492587	-0.005816
1591	7.9500e-01	4.0958	0.778278	0.000304	3.036035	0.514318	-0.006072
1592	7.9550e-01	4.0877	0.733805	0.000445	4.447150	0.753368	-0.008895
1593	7.9600e-01	4.0761	0.701305	0.000325	3.249841	0.550538	-0.006500
1594	7.9650e-01	4.0633	0.681635	0.000197	1.967009	0.333220	-0.003934
1595	7.9700e-01	4.0558	0.638017	0.000436	4.361628	0.738880	-0.008724
1596	7.9750e-01	4.0454	0.608511	0.000295	2.950513	0.499830	-0.005901
1597	7.9800e-01	4.0372	0.564893	0.000436	4.361628	0.738880	-0.008724
1598	7.9850e-01	4.0259	0.525979	0.000389	3.891256	0.659197	-0.007783
1599	7.9900e-01	4.0143	0.478940	0.000470	4.703717	0.796831	-0.009408
1600	7.9950e-01	4.0057	0.452428	0.000265	2.651186	0.449123	-0.005303
1601	8.0000e-01	3.9957	0.426770	0.000257	2.565664	0.434635	-0.005132
1602	8.0050e-01	3.9859	0.389994	0.000368	3.677451	0.622977	-0.007355
1603	8.0100e-01	3.9772	0.345949	0.000440	4.404389	0.746124	-0.008809
1604	8.0150e-01	3.9648	0.311739	0.000342	3.420885	0.579514	-0.006842
1605	8.0200e-01	3.9551	0.263845	0.000479	4.789239	0.811319	-0.009579
1606	8.0250e-01	3.9468	0.226214	0.000376	3.762973	0.637465	-0.007526
1607	8.0300e-01	3.9354	0.197991	0.000282	2.822230	0.478099	-0.005645
1608	8.0350e-01	3.9230	0.155228	0.000428	4.276106	0.724392	-0.008553
1609	8.0400e-01	3.9151	0.111610	0.000436	4.361628	0.738880	-0.008724
1610	8.0450e-01	3.9053	0.059868	0.000517	5.174088	0.876514	-0.010349
1611	8.0500e-01	3.8940	0.055591	0.000043	0.427611	0.072439	-0.000855
1612	8.0550e-01	3.8844	0.024802	0.000308	3.078796	0.521562	-0.006158
1613	8.0600e-01	3.8771	-0.032927	0.000577	5.772743	0.977929	-0.011546
1614	8.0650e-01	3.8666	-0.050032	0.000171	1.710442	0.289757	-0.003421
1615	8.0700e-01	3.8571	-0.105196	0.000552	5.516177	0.934466	-0.011033
1616	8.0750e-01	3.8458	-0.135985	0.000308	3.078796	0.521562	-0.006158
1617	8.0800e-01	3.8370	-0.171050	0.000351	3.506407	0.594001	-0.007013
1618	8.0850e-01	3.8261	-0.201839	0.000308	3.078796	0.521562	-0.006158
1619	8.0900e-01	3.8164	-0.245029	0.000432	4.318867	0.731636	-0.008638
1620	8.0950e-01	3.8058	-0.282233	0.000372	3.720212	0.630221	-0.007441
1621	8.1000e-01	3.7930	-0.311311	0.000291	2.907752	0.492587	-0.005816
1622	8.1050e-01	3.7857	-0.357495	0.000462	4.618194	0.782343	-0.009237
1623	8.1100e-01	3.7727	-0.375455	0.000180	1.795964	0.304245	-0.003592
1624	8.1150e-01	3.7645	-0.417362	0.000419	4.190584	0.709904	-0.008381
1625	8.1200e-01	3.7567	-0.479796	0.000624	6.243115	1.057612	-0.012487
1626	8.1250e-01	3.7463	-0.506308	0.000265	2.651186	0.449123	-0.005303
1627	8.1300e-01	3.7366	-0.533249	0.000269	2.693947	0.456367	-0.005388
1628	8.1350e-01	3.7259	-0.581570	0.000483	4.832000	0.818563	-0.009664
1629	8.1400e-01	3.7167	-0.606800	0.000252	2.522903	0.427391	-0.005046
1630	8.1450e-01	3.7067	-0.653839	0.000470	4.703717	0.796831	-0.009408
1631	8.1500e-01	3.6972	-0.699167	0.000453	4.532672	0.767855	-0.009066
1632	8.1550e-01	3.6867	-0.733377	0.000342	3.420885	0.579514	-0.006842
1633	8.1600e-01	3.6780	-0.786831	0.000535	5.345132	0.905490	-0.010691
1634	8.1650e-01	3.6646	-0.809922	0.000231	2.309097	0.391172	-0.004618
1635	8.1700e-01	3.6537	-0.847981	0.000381	3.805734	0.644709	-0.007612
1636	8.1750e-01	3.6476	-0.892454	0.000445	4.447150	0.753368	-0.008895
1637	8.1800e-01	3.6362	-0.921532	0.000291	2.907752	0.492587	-0.005816
1638	8.1850e-01	3.6256	-0.962584	0.000411	4.105062	0.695416	-0.008210
1639	8.1900e-01	3.6182	-0.990380	0.000278	2.779469	0.470855	-0.005559
1640	8.1950e-01	3.6053	-1.035281	0.000449	4.489911	0.760612	-0.008980
1641	8.2000e-01	3.5944	-1.071629	0.000363	3.634690	0.615733	-0.007270
1642	8.2050e-01	3.5889	-1.106267	0.000346	3.463646	0.586757	-0.006928
1643	8.2100e-01	3.5782	-1.167417	0.000611	6.114831	1.035880	-0.012230
1644	8.2150e-01	3.5647	-1.192219	0.000248	2.480141	0.420147	-0.004960
1645	8.2200e-01	3.5573	-1.202910	0.000107	1.069026	0.181098	-0.002138
1646	8.2250e-01	3.5455	-1.283303	0.000804	8.039079	1.361857	-0.016079
1647	8.2300e-01	3.5361	-1.276461	-0.000068	-0.684177	-0.115903	0.001368
1648	8.2350e-01	3.5248	-1.341888	0.000654	6.542442	1.108320	-0.013085
1649	8.2400e-01	3.5168	-1.377381	0.000355	3.549168	0.601245	-0.007099
1650	8.2450e-01	3.5080	-1.412019	0.000346	3.463646	0.586757	-0.006928
1651	8.2500e-01	3.4973	-1.456064	0.000440	4.404389	0.746124	-0.008809
1652	8.2550e-01	3.4853	-1.494123	0.000381	3.805734	0.644709	-0.007612
1653	8.2600e-01	3.4749	-1.518070	0.000239	2.394619	0.405659	-0.004789
1654	8.2650e-01	3.4671	-1.560832	0.000428	4.276106	0.724392	-0.008553
1655	8.2700e-01	3.4564	-1.595042	0.000342	3.420885	0.579514	-0.006842
1656	8.2750e-01	3.4473	-1.648495	0.000535	5.345132	0.905490	-0.010691
1657	8.2800e-01	3.4349	-1.701521	0.000530	5.302371	0.898246	-0.010605
1658	8.2850e-01	3.4260	-1.717771	0.000162	1.624920	0.275269	-0.003250
1659	8.2900e-01	3.4149	-1.751553	0.000338	3.378124	0.572270	-0.006756
1660	8.2950e-01	3.4038	-1.785336	0.000338	3.378124	0.572270	-0.006756
1661	8.3000e-01	3.3945	-1.836223	0.000509	5.088566	0.862026	-0.010177
1662	8.3050e-01	3.3868	-1.883262	0.000470	4.703717	0.796831	-0.009408
1663	8.3100e-01	3.3759	-1.901222	0.000180	1.795964	0.304245	-0.003592
1664	8.3150e-01	3.3673	-1.945267	0.000440	4.404389	0.746124	-0.008809
1665	8.3200e-01	3.3570	-1.995727	0.000505	5.045805	0.854783	-0.010092
1666	8.3250e-01	3.3470	-2.025661	0.000299	2.993274	0.507074	-0.005987
1667	8.3300e-01	3.3359	-2.081252	0.000556	5.558938	0.941710	-0.011118
1668	8.3350e-01	3.3237	-2.098357	0.000171	1.710442	0.289757	-0.003421
1669	8.3400e-01	3.3167	-2.135561	0.000372	3.720212	0.630221	-0.007441
1670	8.3450e-01	3.3072	-2.183882	0.000483	4.832000	0.818563	-0.009664
1671	8.3500e-01	3.2954	-2.213816	0.000299	2.993274	0.507074	-0.005987
1672	8.3550e-01	3.2866	-2.264276	0.000505	5.045805	0.854783	-0.010092
1673	8.3600e-01	3.2767	-2.314308	0.000500	5.003044	0.847539	-0.010006
1674	8.3650e-01	3.2683	-2.339966	0.000257	2.565664	0.434635	-0.005132
1675	8.3700e-01	3.2562	-2.380162	0.000402	4.019540	0.680928	-0.008039
1676	8.3750e-01	3.2445	-2.412234	0.000321	3.207079	0.543294	-0.006414
1677	8.3800e-01	3.2367	-2.466543	0.000543	5.430655	0.919978	-0.010862
1678	8.3850e-01	3.2265	-2.483648	0.000171	1.710442	0.289757	-0.003421
1679	8.3900e-01	3.2173	-2.539667	0.000560	5.601699	0.948953	-0.011204
1680	8.3950e-01	3.2060	-2.577725	0.000381	3.805734	0.644709	-0.007612
1681	8.4000e-01	3.1972	-2.609797	0.000321	3.207079	0.543294	-0.006414
1682	8.4050e-01	3.1863	-2.657263	0.000475	4.746478	0.804075	-0.009493
1683	8.4100e-01	3.1744	-2.692756	0.000355	3.549168	0.601245	-0.007099
1684	8.4150e-01	3.1647	-2.731243	0.000385	3.848495	0.651953	-0.007697
1685	8.4200e-01	3.1564	-2.764597	0.000334	3.335363	0.565026	-0.006671
1686	8.4250e-01	3.1458	-2.797952	0.000334	3.335363	0.565026	-0.006671
1687	8.4300e-01	3.1355	-2.839004	0.000411	4.105062	0.695416	-0.008210
1688	8.4350e-01	3.1262	-2.882622	0.000436	4.361628	0.738880	-0.008724
1689	8.4400e-01	3.1152	-2.915549	0.000329	3.292602	0.557782	-0.006585
1690	8.4450e-01	3.1079	-2.959595	0.000440	4.404389	0.746124	-0.008809
1691	8.4500e-01	3.0991	-2.998081	0.000385	3.848495	0.651953	-0.007697
1692	8.4550e-01	3.0862	-3.042981	0.000449	4.489911	0.760612	-0.008980
1693	8.4600e-01	3.0763	-3.068639	0.000257	2.565664	0.434635	-0.005132
1694	8.4650e-01	3.0655	-3.129789	0.000611	6.114831	1.035880	-0.012230
1695	8.4700e-01	3.0543	-3.150315	0.000205	2.052531	0.347708	-0.004105
1696	8.4750e-01	3.0460	-3.194361	0.000440	4.404389	0.746124	-0.008809
1697	8.4800e-01	3.0356	-3.225150	0.000308	3.078796	0.521562	-0.006158
1698	8.4850e-01	3.0273	-3.282879	0.000577	5.772743	0.977929	-0.011546
1699	8.4900e-01	3.0157	-3.341036	0.000582	5.815504	0.985173	-0.011631
1700	8.4950e-01	3.0066	-3.357714	0.000167	1.667681	0.282513	-0.003335
1701	8.5000e-01	2.9963	-3.380378	0.000227	2.266336	0.383928	-0.004533
1702	8.5050e-01	2.9846	-3.424423	0.000440	4.404389	0.746124	-0.008809
1703	8.5100e-01	2.9759	-3.473172	0.000487	4.874761	0.825807	-0.009750
1704	8.5150e-01	2.9640	-3.509093	0.000359	3.591929	0.608489	-0.007184
1705	8.5200e-01	2.9541	-3.553566	0.000445	4.447150	0.753368	-0.008895
1706	8.5250e-01	2.9451	-3.598039	0.000445	4.447150	0.753368	-0.008895
1707	8.5300e-01	2.9362	-3.634387	0.000363	3.634690	0.615733	-0.007270
1708	8.5350e-01	2.9254	-3.681854	0.000475	4.746478	0.804075	-0.009493
1709	8.5400e-01	2.9189	-3.733169	0.000513	5.131327	0.869270	-0.010263
1710	8.5450e-01	2.9067	-3.748563	0.000154	1.539398	0.260781	-0.003079
1711	8.5500e-01	2.8958	-3.793036	0.000445	4.447150	0.753368	-0.008895
1712	8.5550e-01	2.8883	-3.853759	0.000607	6.072070	1.028637	-0.012145
1713	8.5600e-01	2.8769	-3.888824	0.000351	3.506407	0.594001	-0.007013
1714	8.5650e-01	2.8668	-3.921751	0.000329	3.292602	0.557782	-0.006585
1715	8.5700e-01	2.8565	-3.960238	0.000385	3.848495	0.651953	-0.007697
1716	8.5750e-01	2.8468	-3.992737	0.000325	3.249841	0.550538	-0.006500
1717	8.5800e-01	2.8363	-4.041914	0.000492	4.917522	0.833051	-0.009835
1718	8.5850e-01	2.8223	-4.078690	0.000368	3.677451	0.622977	-0.007355
1719	8.5900e-01	2.8133	-4.107341	0.000286	2.864991	0.485343	-0.005730
1720	8.5950e-01	2.8056	-4.137275	0.000299	2.993274	0.507074	-0.005987
1721	8.6000e-01	2.7957	-4.204839	0.000676	6.756247	1.144539	-0.013513
1722	8.6050e-01	2.7849	-4.248457	0.000436	4.361628	0.738880	-0.008724
1723	8.6100e-01	2.7718	-4.270694	0.000222	2.223575	0.376684	-0.004447
1724	8.6150e-01	2.7676	-4.301483	0.000308	3.078796	0.521562	-0.006158
1725	8.6200e-01	2.7560	-4.370330	0.000688	6.884531	1.166271	-0.013770
1726	8.6250e-01	2.7451	-4.398554	0.000282	2.822230	0.478099	-0.005645
1727	8.6300e-01	2.7347	-4.446875	0.000483	4.832000	0.818563	-0.009664
1728	8.6350e-01	2.7274	-4.478092	0.000312	3.121557	0.528806	-0.006243
1729	8.6400e-01	2.7153	-4.522137	0.000440	4.404389	0.746124	-0.008809
1730	8.6450e-01	2.7057	-4.558058	0.000359	3.591929	0.608489	-0.007184
1731	8.6500e-01	2.6947	-4.609800	0.000517	5.174088	0.876514	-0.010349
1732	8.6550e-01	2.6887	-4.628188	0.000184	1.838726	0.311489	-0.003678
1733	8.6600e-01	2.6732	-4.688484	0.000603	6.029309	1.021393	-0.012059
1734	8.6650e-01	2.6668	-4.713713	0.000252	2.522903	0.427391	-0.005046
1735	8.6700e-01	2.6549	-4.762463	0.000487	4.874761	0.825807	-0.009750
1736	8.6750e-01	2.6462	-4.808646	0.000462	4.618194	0.782343	-0.009237
1737	8.6800e-01	2.6344	-4.881343	0.000727	7.269380	1.231466	-0.014539
1738	8.6850e-01	2.6260	-4.889895	0.000086	0.855221	0.144878	-0.001711
1739	8.6900e-01	2.6151	-4.934368	0.000445	4.447150	0.753368	-0.008895
1740	8.6950e-01	2.6046	-4.977558	0.000432	4.318867	0.731636	-0.008638
1741	8.7000e-01	2.5952	-5.020321	0.000428	4.276106	0.724392	-0.008553
1742	8.7050e-01	2.5861	-5.051110	0.000308	3.078796	0.521562	-0.006158
1743	8.7100e-01	2.5759	-5.106701	0.000556	5.558938	0.941710	-0.011118
1744	8.7150e-01	2.5636	-5.151602	0.000449	4.489911	0.760612	-0.008980
1745	8.7200e-01	2.5549	-5.174266	0.000227	2.266336	0.383928	-0.004533
1746	8.7250e-01	2.5441	-5.234561	0.000603	6.029309	1.021393	-0.012059
1747	8.7300e-01	2.5354	-5.261501	0.000269	2.693947	0.456367	-0.005388
1748	8.7350e-01	2.5270	-5.291008	0.000295	2.950513	0.499830	-0.005901
1749	8.7400e-01	2.5127	-5.334625	0.000436	4.361628	0.738880	-0.008724
1750	8.7450e-01	2.5055	-5.384657	0.000500	5.003044	0.847539	-0.010006
1751	8.7500e-01	2.4953	-5.433834	0.000492	4.917522	0.833051	-0.009835
1752	8.7550e-01	2.4883	-5.482156	0.000483	4.832000	0.818563	-0.009664
1753	8.7600e-01	2.4759	-5.497123	0.000150	1.496637	0.253537	-0.002993
1754	8.7650e-01	2.4654	-5.541596	0.000445	4.447150	0.753368	-0.008895
1755	8.7700e-01	2.4551	-5.588207	0.000466	4.660955	0.789587	-0.009322
1756	8.7750e-01	2.4463	-5.630542	0.000423	4.233345	0.717148	-0.008467
1757	8.7800e-01	2.4384	-5.680574	0.000500	5.003044	0.847539	-0.010006
1758	8.7850e-01	2.4252	-5.714784	0.000342	3.420885	0.579514	-0.006842
1759	8.7900e-01	2.4149	-5.740014	0.000252	2.522903	0.427391	-0.005046
1760	8.7950e-01	2.4066	-5.804585	0.000646	6.456920	1.093832	-0.012914
1761	8.8000e-01	2.3914	-5.832809	0.000282	2.822230	0.478099	-0.005645
1762	8.8050e-01	2.3857	-5.877282	0.000445	4.447150	0.753368	-0.008895
1763	8.8100e-01	2.3753	-5.918761	0.000415	4.147823	0.702660	-0.008296
1764	8.8150e-01	2.3671	-5.973497	0.000547	5.473416	0.927222	-0.010947
1765	8.8200e-01	2.3541	-6.015832	0.000423	4.233345	0.717148	-0.008467
1766	8.8250e-01	2.3456	-6.038497	0.000227	2.266336	0.383928	-0.004533
1767	8.8300e-01	2.3352	-6.091094	0.000526	5.259610	0.891002	-0.010520
1768	8.8350e-01	2.3267	-6.131291	0.000402	4.019540	0.680928	-0.008039
1769	8.8400e-01	2.3170	-6.178330	0.000470	4.703717	0.796831	-0.009408
1770	8.8450e-01	2.3056	-6.209119	0.000308	3.078796	0.521562	-0.006158
1771	8.8500e-01	2.2946	-6.276684	0.000676	6.756247	1.144539	-0.013513
1772	8.8550e-01	2.2870	-6.299776	0.000231	2.309097	0.391172	-0.004618
1773	8.8600e-01	2.2762	-6.329282	0.000295	2.950513	0.499830	-0.005901
1774	8.8650e-01	2.2672	-6.376748	0.000475	4.746478	0.804075	-0.009493
1775	8.8700e-01	2.2562	-6.435333	0.000586	5.858265	0.992417	-0.011717
1776	8.8750e-01	2.2449	-6.461846	0.000265	2.651186	0.449123	-0.005303
1777	8.8800e-01	2.2363	-6.510167	0.000483	4.832000	0.818563	-0.009664
1778	8.8850e-01	2.2266	-6.561482	0.000513	5.131327	0.869270	-0.010263
1779	8.8900e-01	2.2154	-6.572600	0.000111	1.111788	0.188342	-0.002224
1780	8.8950e-01	2.2057	-6.667106	0.000945	9.450194	1.600906	-0.018901
1781	8.9000e-01	2.1947	-6.674803	0.000077	0.769699	0.130391	-0.001539
1782	8.9050e-01	2.1838	-6.711151	0.000363	3.634690	0.615733	-0.007270
1783	8.9100e-01	2.1758	-6.779571	0.000684	6.841770	1.159027	-0.013684
1784	8.9150e-01	2.1635	-6.804373	0.000248	2.480141	0.420147	-0.004960
1785	8.9200e-01	2.1560	-6.857399	0.000530	5.302371	0.898246	-0.010605
1786	8.9250e-01	2.1467	-6.897596	0.000402	4.019540	0.680928	-0.008039
1787	8.9300e-01	2.1336	-6.927102	0.000295	2.950513	0.499830	-0.005901
1788	8.9350e-01	2.1219	-6.979272	0.000522	5.216849	0.883758	-0.010434
1789	8.9400e-01	2.1143	-7.019897	0.000406	4.062301	0.688172	-0.008125
1790	8.9450e-01	2.1069	-7.045982	0.000261	2.608425	0.441879	-0.005217
1791	8.9500e-01	2.0930	-7.097724	0.000517	5.174088	0.876514	-0.010349
1792	8.9550e-01	2.0841	-7.157164	0.000594	5.943787	1.006905	-0.011888
1793	8.9600e-01	2.0752	-7.189236	0.000321	3.207079	0.543294	-0.006414
1794	8.9650e-01	2.0652	-7.234992	0.000458	4.575433	0.775099	-0.009151
1795	8.9700e-01	2.0575	-7.279465	0.000445	4.447150	0.753368	-0.008895
1796	8.9750e-01	2.0419	-7.303840	0.000244	2.437380	0.412903	-0.004875
1797	8.9800e-01	2.0370	-7.362424	0.000586	5.858265	0.992417	-0.011717
1798	8.9850e-01	2.0227	-7.392358	0.000299	2.993274	0.507074	-0.005987
1799	8.9900e-01	2.0181	-7.428279	0.000359	3.591929	0.608489	-0.007184
1800	8.9950e-01	2.0062	-7.486436	0.000582	5.815504	0.985173	-0.011631
1801	9.0000e-01	1.9998	-7.522356	0.000359	3.591929	0.608489	-0.007184
1802	9.0050e-01	1.9846	-7.572816	0.000505	5.045805	0.854783	-0.010092
1803	9.0100e-01	1.9733	-7.610875	0.000381	3.805734	0.644709	-0.007612
1804	9.0150e-01	1.9666	-7.647650	0.000368	3.677451	0.622977	-0.007355
1805	9.0200e-01	1.9530	-7.702386	0.000547	5.473416	0.927222	-0.010947
1806	9.0250e-01	1.9465	-7.752846	0.000505	5.045805	0.854783	-0.010092
1807	9.0300e-01	1.9345	-7.772089	0.000192	1.924248	0.325976	-0.003849
1808	9.0350e-01	1.9244	-7.832385	0.000603	6.029309	1.021393	-0.012059
1809	9.0400e-01	1.9153	-7.868733	0.000363	3.634690	0.615733	-0.007270
1810	9.0450e-01	1.9040	-7.936725	0.000680	6.799008	1.151783	-0.013598
1811	9.0500e-01	1.8942	-7.964093	0.000274	2.736708	0.463611	-0.005474
1812	9.0550e-01	1.8832	-7.998303	0.000342	3.420885	0.579514	-0.006842
1813	9.0600e-01	1.8761	-8.037217	0.000389	3.891256	0.659197	-0.007783
1814	9.0650e-01	1.8655	-8.100078	0.000629	6.285876	1.064856	-0.012572
1815	9.0700e-01	1.8562	-8.122742	0.000227	2.266336	0.383928	-0.004533
1816	9.0750e-01	1.8461	-8.177051	0.000543	5.430655	0.919978	-0.010862
1817	9.0800e-01	1.8332	-8.213399	0.000363	3.634690	0.615733	-0.007270
1818	9.0850e-01	1.8259	-8.280536	0.000671	6.713486	1.137295	-0.013427
1819	9.0900e-01	1.8132	-8.279253	-0.000013	-0.128283	-0.021732	0.000257
1820	9.0950e-01	1.8060	-8.344252	0.000650	6.499681	1.101076	-0.013000
1821	9.1000e-01	1.7969	-8.385732	0.000415	4.147823	0.702660	-0.008296
1822	9.1050e-01	1.7857	-8.434481	0.000487	4.874761	0.825807	-0.009750
1823	9.1100e-01	1.7740	-8.464842	0.000304	3.036035	0.514318	-0.006072
1824	9.1150e-01	1.7651	-8.524282	0.000594	5.943787	1.006905	-0.011888
1825	9.1200e-01	1.7574	-8.576453	0.000522	5.216849	0.883758	-0.010434
1826	9.1250e-01	1.7447	-8.618360	0.000419	4.190584	0.709904	-0.008381
1827	9.1300e-01	1.7343	-8.643590	0.000252	2.522903	0.427391	-0.005046
1828	9.1350e-01	1.7274	-8.697898	0.000543	5.430655	0.919978	-0.010862
1829	9.1400e-01	1.7136	-8.729542	0.000316	3.164318	0.536050	-0.006329
1830	9.1450e-01	1.7062	-8.779575	0.000500	5.003044	0.847539	-0.010006
1831	9.1500e-01	1.6937	-8.839442	0.000599	5.986548	1.014149	-0.011974
1832	9.1550e-01	1.6861	-8.858685	0.000192	1.924248	0.325976	-0.003849
1833	9.1600e-01	1.6753	-8.914704	0.000560	5.601699	0.948953	-0.011204
1834	9.1650e-01	1.6675	-8.966447	0.000517	5.174088	0.876514	-0.010349
1835	9.1700e-01	1.6571	-9.018189	0.000517	5.174088	0.876514	-0.010349
1836	9.1750e-01	1.6451	-9.059669	0.000415	4.147823	0.702660	-0.008296
1837	9.1800e-01	1.6398	-9.091313	0.000316	3.164318	0.536050	-0.006329
1838	9.1850e-01	1.6275	-9.150326	0.000590	5.901026	0.999661	-0.011802
1839	9.1900e-01	1.6180	-9.169996	0.000197	1.967009	0.333220	-0.003934
1840	9.1950e-01	1.6040	-9.218746	0.000487	4.874761	0.825807	-0.009750
1841	9.2000e-01	1.5971	-9.256377	0.000376	3.762973	0.637465	-0.007526
1842	9.2050e-01	1.5849	-9.327790	0.000714	7.141097	1.209735	-0.014283
1843	9.2100e-01	1.5700	-9.327362	-0.000004	-0.042761	-0.007244	0.000086
1844	9.2150e-01	1.5646	-9.422295	0.000949	9.492955	1.608150	-0.018987
1845	9.2200e-01	1.5565	-9.452229	0.000299	2.993274	0.507074	-0.005987
1846	9.2250e-01	1.5450	-9.497557	0.000453	4.532672	0.767855	-0.009066
1847	9.2300e-01	1.5334	-9.534761	0.000372	3.720212	0.630221	-0.007441
1848	9.2350e-01	1.5256	-9.571537	0.000368	3.677451	0.622977	-0.007355
1849	9.2400e-01	1.5180	-9.621569	0.000500	5.003044	0.847539	-0.010006
1850	9.2450e-01	1.5053	-9.645088	0.000235	2.351858	0.398416	-0.004704
1851	9.2500e-01	1.4941	-9.702817	0.000577	5.772743	0.977929	-0.011546
1852	9.2550e-01	1.4868	-9.754560	0.000517	5.174088	0.876514	-0.010349
1853	9.2600e-01	1.4746	-9.805448	0.000509	5.088566	0.862026	-0.010177
1854	9.2650e-01	1.4669	-9.841368	0.000359	3.591929	0.608489	-0.007184
1855	9.2700e-01	1.4564	-9.899525	0.000582	5.815504	0.985173	-0.011631
1856	9.2750e-01	1.4444	-9.940577	0.000411	4.105062	0.695416	-0.008210
1857	9.2800e-01	1.4410	-9.983767	0.000432	4.318867	0.731636	-0.008638
1858	9.2850e-01	1.4234	-10.022681	0.000389	3.891256	0.659197	-0.007783
1859	9.2900e-01	1.4178	-10.068437	0.000458	4.575433	0.775099	-0.009151
1860	9.2950e-01	1.4046	-10.125311	0.000569	5.687221	0.963441	-0.011375
1861	9.3000e-01	1.3934	-10.151396	0.000261	2.608425	0.441879	-0.005217
1862	9.3050e-01	1.3858	-10.197580	0.000462	4.618194	0.782343	-0.009237
1863	9.3100e-01	1.3750	-10.250178	0.000526	5.259610	0.891002	-0.010520
1864	9.3150e-01	1.3642	-10.301065	0.000509	5.088566	0.862026	-0.010177
1865	9.3200e-01	1.3558	-10.335703	0.000346	3.463646	0.586757	-0.006928
1866	9.3250e-01	1.3469	-10.377183	0.000415	4.147823	0.702660	-0.008296
1867	9.3300e-01	1.3350	-10.417379	0.000402	4.019540	0.680928	-0.008039
1868	9.3350e-01	1.3239	-10.466984	0.000496	4.960283	0.840295	-0.009921
1869	9.3400e-01	1.3179	-10.526424	0.000594	5.943787	1.006905	-0.011888
1870	9.3450e-01	1.3055	-10.559779	0.000334	3.335363	0.565026	-0.006671
1871	9.3500e-01	1.2967	-10.599120	0.000393	3.934017	0.666441	-0.007868
1872	9.3550e-01	1.2872	-10.659415	0.000603	6.029309	1.021393	-0.012059
1873	9.3600e-01	1.2750	-10.709447	0.000500	5.003044	0.847539	-0.010006
1874	9.3650e-01	1.2659	-10.753920	0.000445	4.447150	0.753368	-0.008895
1875	9.3700e-01	1.2540	-10.778723	0.000248	2.480141	0.420147	-0.004960
1876	9.3750e-01	1.2469	-10.816781	0.000381	3.805734	0.644709	-0.007612
1877	9.3800e-01	1.2372	-10.865531	0.000487	4.874761	0.825807	-0.009750
1878	9.3850e-01	1.2256	-10.939937	0.000744	7.440424	1.260442	-0.014881
1879	9.3900e-01	1.2157	-10.972865	0.000329	3.292602	0.557782	-0.006585
1880	9.3950e-01	1.2067	-11.025462	0.000526	5.259610	0.891002	-0.010520
1881	9.4000e-01	1.1958	-11.080626	0.000552	5.516177	0.934466	-0.011033
1882	9.4050e-01	1.1853	-11.120823	0.000402	4.019540	0.680928	-0.008039
1883	9.4100e-01	1.1743	-11.167434	0.000466	4.660955	0.789587	-0.009322
1884	9.4150e-01	1.1664	-11.205065	0.000376	3.762973	0.637465	-0.007526
1885	9.4200e-01	1.1590	-11.235426	0.000304	3.036035	0.514318	-0.006072
1886	9.4250e-01	1.1464	-11.294866	0.000594	5.943787	1.006905	-0.011888
1887	9.4300e-01	1.1353	-11.319241	0.000244	2.437380	0.412903	-0.004875
1888	9.4350e-01	1.1250	-11.372694	0.000535	5.345132	0.905490	-0.010691
1889	9.4400e-01	1.1154	-11.422299	0.000496	4.960283	0.840295	-0.009921
1890	9.4450e-01	1.1088	-11.486015	0.000637	6.371398	1.079344	-0.012743
1891	9.4500e-01	1.0953	-11.531771	0.000458	4.575433	0.775099	-0.009151
1892	9.4550e-01	1.0881	-11.578382	0.000466	4.660955	0.789587	-0.009322
1893	9.4600e-01	1.0767	-11.591211	0.000128	1.282832	0.217318	-0.002566
1894	9.4650e-01	1.0641	-11.641670	0.000505	5.045805	0.854783	-0.010092
1895	9.4700e-01	1.0538	-11.704531	0.000629	6.285876	1.064856	-0.012572
1896	9.4750e-01	1.0455	-11.751570	0.000470	4.703717	0.796831	-0.009408
1897	9.4800e-01	1.0358	-11.780221	0.000286	2.864991	0.485343	-0.005730
1898	9.4850e-01	1.0236	-11.832819	0.000526	5.259610	0.891002	-0.010520
1899	9.4900e-01	1.0153	-11.858476	0.000257	2.565664	0.434635	-0.005132
1900	9.4950e-01	1.0057	-11.924331	0.000659	6.585203	1.115564	-0.013171
1901	9.5000e-01	0.9960	-11.976073	0.000517	5.174088	0.876514	-0.010349
1902	9.5050e-01	0.9847	-12.020974	0.000449	4.489911	0.760612	-0.008980
1903	9.5100e-01	0.9758	-12.072717	0.000517	5.174088	0.876514	-0.010349
1904	9.5150e-01	0.9631	-12.109920	0.000372	3.720212	0.630221	-0.007441
1905	9.5200e-01	0.9543	-12.171926	0.000620	6.200354	1.050368	-0.012401
1906	9.5250e-01	0.9468	-12.185182	0.000133	1.325593	0.224562	-0.002651
1907	9.5300e-01	0.9389	-12.240346	0.000552	5.516177	0.934466	-0.011033
1908	9.5350e-01	0.9267	-12.280970	0.000406	4.062301	0.688172	-0.008125
1909	9.5400e-01	0.9143	-12.342121	0.000611	6.114831	1.035880	-0.012230
1910	9.5450e-01	0.9097	-12.389159	0.000470	4.703717	0.796831	-0.009408
1911	9.5500e-01	0.8934	-12.436198	0.000470	4.703717	0.796831	-0.009408
1912	9.5550e-01	0.8860	-12.485803	0.000496	4.960283	0.840295	-0.009921
1913	9.5600e-01	0.8780	-12.510605	0.000248	2.480141	0.420147	-0.004960
1914	9.5650e-01	0.8646	-12.552512	0.000419	4.190584	0.709904	-0.008381
1915	9.5700e-01	0.8553	-12.618794	0.000663	6.627964	1.122808	-0.013256
1916	9.5750e-01	0.8479	-12.643596	0.000248	2.480141	0.420147	-0.004960
1917	9.5800e-01	0.8388	-12.715865	0.000723	7.226619	1.224222	-0.014454
1918	9.5850e-01	0.8247	-12.753069	0.000372	3.720212	0.630221	-0.007441
1919	9.5900e-01	0.8160	-12.800963	0.000479	4.789239	0.811319	-0.009579
1920	9.5950e-01	0.8044	-12.836455	0.000355	3.549168	0.601245	-0.007099
1921	9.6000e-01	0.7936	-12.874942	0.000385	3.848495	0.651953	-0.007697
1922	9.6050e-01	0.7871	-12.945072	0.000701	7.012814	1.188003	-0.014026
1923	9.6100e-01	0.7757	-13.003229	0.000582	5.815504	0.985173	-0.011631
1924	9.6150e-01	0.7655	-13.028032	0.000248	2.480141	0.420147	-0.004960
1925	9.6200e-01	0.7586	-13.080202	0.000522	5.216849	0.883758	-0.010434
1926	9.6250e-01	0.7434	-13.129379	0.000492	4.917522	0.833051	-0.009835
1927	9.6300e-01	0.7354	-13.185825	0.000564	5.644460	0.956197	-0.011289
1928	9.6350e-01	0.7240	-13.226877	0.000411	4.105062	0.695416	-0.008210
1929	9.6400e-01	0.7150	-13.282896	0.000560	5.601699	0.948953	-0.011204
1930	9.6450e-01	0.7062	-13.314968	0.000321	3.207079	0.543294	-0.006414
1931	9.6500e-01	0.6965	-13.372270	0.000573	5.729982	0.970685	-0.011460
1932	9.6550e-01	0.6845	-13.406480	0.000342	3.420885	0.579514	-0.006842
1933	9.6600e-01	0.6752	-13.471479	0.000650	6.499681	1.101076	-0.013000
1934	9.6650e-01	0.6657	-13.502268	0.000308	3.078796	0.521562	-0.006158
1935	9.6700e-01	0.6557	-13.548452	0.000462	4.618194	0.782343	-0.009237
1936	9.6750e-01	0.6473	-13.593352	0.000449	4.489911	0.760612	-0.008980
1937	9.6800e-01	0.6358	-13.634404	0.000411	4.105062	0.695416	-0.008210
1938	9.6850e-01	0.6263	-13.683154	0.000487	4.874761	0.825807	-0.009750
1939	9.6900e-01	0.6169	-13.728482	0.000453	4.532672	0.767855	-0.009066
1940	9.6950e-01	0.6073	-13.784501	0.000560	5.601699	0.948953	-0.011204
1941	9.7000e-01	0.5950	-13.829401	0.000449	4.489911	0.760612	-0.008980
1942	9.7050e-01	0.5855	-13.891835	0.000624	6.243115	1.057612	-0.012487
1943	9.7100e-01	0.5754	-13.914071	0.000222	2.223575	0.376684	-0.004447
1944	9.7150e-01	0.5667	-13.961965	0.000479	4.789239	0.811319	-0.009579
1945	9.7200e-01	0.5579	-14.012853	0.000509	5.088566	0.862026	-0.010177
1946	9.7250e-01	0.5473	-14.065023	0.000522	5.216849	0.883758	-0.010434
1947	9.7300e-01	0.5357	-14.103082	0.000381	3.805734	0.644709	-0.007612
1948	9.7350e-01	0.5260	-14.160811	0.000577	5.772743	0.977929	-0.011546
1949	9.7400e-01	0.5123	-14.216402	0.000556	5.558938	0.941710	-0.011118
1950	9.7450e-01	0.5065	-14.253178	0.000368	3.677451	0.622977	-0.007355
1951	9.7500e-01	0.4954	-14.292947	0.000398	3.976779	0.673685	-0.007954
1952	9.7550e-01	0.4882	-14.356663	0.000637	6.371398	1.079344	-0.012743
1953	9.7600e-01	0.4741	-14.413965	0.000573	5.729982	0.970685	-0.011460
1954	9.7650e-01	0.4642	-14.433636	0.000197	1.967009	0.333220	-0.003934
1955	9.7700e-01	0.4558	-14.492648	0.000590	5.901026	0.999661	-0.011802
1956	9.7750e-01	0.4458	-14.526858	0.000342	3.420885	0.579514	-0.006842
1957	9.7800e-01	0.4347	-14.574325	0.000475	4.746478	0.804075	-0.009493
1958	9.7850e-01	0.4234	-14.629916	0.000556	5.558938	0.941710	-0.011118
1959	9.7900e-01	0.4192	-14.677382	0.000475	4.746478	0.804075	-0.009493
1960	9.7950e-01	0.4062	-14.726132	0.000487	4.874761	0.825807	-0.009750
1961	9.8000e-01	0.3976	-14.753927	0.000278	2.779469	0.470855	-0.005559
1962	9.8050e-01	0.3854	-14.827479	0.000735	7.354902	1.245954	-0.014710
1963	9.8100e-01	0.3740	-14.878366	0.000509	5.088566	0.862026	-0.010177
1964	9.8150e-01	0.3676	-14.897609	0.000192	1.924248	0.325976	-0.003849
1965	9.8200e-01	0.3544	-14.961753	0.000641	6.414159	1.086588	-0.012829
1966	9.8250e-01	0.3448	-15.025042	0.000633	6.328637	1.072100	-0.012658
1967	9.8300e-01	0.3358	-15.049844	0.000248	2.480141	0.420147	-0.004960
1968	9.8350e-01	0.3242	-15.108856	0.000590	5.901026	0.999661	-0.011802
1969	9.8400e-01	0.3141	-15.152902	0.000440	4.404389	0.746124	-0.008809
1970	9.8450e-01	0.3019	-15.188395	0.000355	3.549168	0.601245	-0.007099
1971	9.8500e-01	0.2964	-15.237999	0.000496	4.960283	0.840295	-0.009921
1972	9.8550e-01	0.2855	-15.299149	0.000611	6.114831	1.035880	-0.012230
1973	9.8600e-01	0.2760	-15.344478	0.000453	4.532672	0.767855	-0.009066
1974	9.8650e-01	0.2662	-15.386385	0.000419	4.190584	0.709904	-0.008381
1975	9.8700e-01	0.2551	-15.432569	0.000462	4.618194	0.782343	-0.009237
1976	9.8750e-01	0.2467	-15.475331	0.000428	4.276106	0.724392	-0.008553
1977	9.8800e-01	0.2361	-15.529639	0.000543	5.430655	0.919978	-0.010862
1978	9.8850e-01	0.2270	-15.589935	0.000603	6.029309	1.021393	-0.012059
1979	9.8900e-01	0.2159	-15.622862	0.000329	3.292602	0.557782	-0.006585
1980	9.8950e-01	0.2037	-15.667335	0.000445	4.447150	0.753368	-0.008895
1981	9.9000e-01	0.1955	-15.737038	0.000697	6.970053	1.180759	-0.013941
1982	9.9050e-01	0.1846	-15.769537	0.000325	3.249841	0.550538	-0.006500
1983	9.9100e-01	0.1733	-15.816576	0.000470	4.703717	0.796831	-0.009408
1984	9.9150e-01	0.1659	-15.855490	0.000389	3.891256	0.659197	-0.007783
1985	9.9200e-01	0.1573	-15.913219	0.000577	5.772743	0.977929	-0.011546
1986	9.9250e-01	0.1467	-15.965390	0.000522	5.216849	0.883758	-0.010434
1987	9.9300e-01	0.1360	-16.009863	0.000445	4.447150	0.753368	-0.008895
1988	9.9350e-01	0.1259	-16.061605	0.000517	5.174088	0.876514	-0.010349
1989	9.9400e-01	0.1147	-16.097953	0.000363	3.634690	0.615733	-0.007270
1990	9.9450e-01	0.1022	-16.153117	0.000552	5.516177	0.934466	-0.011033
1991	9.9500e-01	0.0946	-16.201439	0.000483	4.832000	0.818563	-0.009664
1992	9.9550e-01	0.0820	-16.236932	0.000355	3.549168	0.601245	-0.007099
1993	9.9600e-01	0.0784	-16.303214	0.000663	6.627964	1.122808	-0.013256
1994	9.9650e-01	0.0648	-16.330154	0.000269	2.693947	0.456367	-0.005388
1995	9.9700e-01	0.0532	-16.390449	0.000603	6.029309	1.021393	-0.012059
1996	9.9750e-01	0.0459	-16.448606	0.000582	5.815504	0.985173	-0.011631
1997	9.9800e-01	0.0333	-16.480250	0.000316	3.164318	0.536050	-0.006329
1998	9.9850e-01	0.0247	-16.547388	0.000671	6.713486	1.137295	-0.013427
1999	9.9900e-01	0.0168	-16.593571	0.000462	4.618194	0.782343	-0.009237
2000	9.9950e-01	0.0063	-16.638044	0.000445	4.447150	0.753368	-0.008895
2001	1.0000e+00	-0.0050	-16.676530	0.000445	4.447150	0.753368	-0.007697

PMax (uC/cm2):	3.62e+01
Pr (uC/cm2):	1.42e+00
-Pr (uC/cm2):	0.00e+00
PLoss (uC/cm2):	0.00e+00
C (Max-Eff) (nF):	3.62e-01
K (Eff):	6.14e+02
Vert. (+/-Pr) Shift (uC/cm2):	7.12e-01
Offset (uC/cm2):	1.81e+01

A (Loop Area - uC/cm2·Volts):	-1.55e-02



Hysteresis Version: 5.48.1 - Radiant Technologies, Inc., 1999 - 9/12/24

