»»»»»»»»»»»»»»»»»»»»»»»»»»»»»»»»»»»» Hysteresis ««««««««««««««««««««««««««««««««««««
»»»  Executed Version:	5.48.1
»»»  Vision Version:	5.48.4 (R)
»»»  Vision Compiled:	9/18/24
»»»  Driver Version:	5.47.0
»»»  Windows Version:	Windows 8 or 8.1
»»»  Processor Information:	x86 (AMD or Intel) - 32 Processors
»»»  Tester Name:	PMF21124-494 (100V)
»»»  Tester S/N:	PMF21124-494
»»»  Internal Amp Type:	100V RevK 270k
»»»  Internal Amp S/N:	iAB2-596/K     
»»»  Execution Count:	1
»»»»»»»»»»»»»»»»»»»»»»»»»»»»»»»»»»»»»»»»»»««««««««««««««««««««««««««««««««««««««««««

Stored:	6/30/2025 - 14:25:35
Configured:	06/30/25 10:19:58 AM
Executed:	06/30/25 02:25:14 PM

»»»»»»»»»»»»»»»»»»»»»»»»»»»»»»»»»»» Sample Info ««««««««««««««««««««««««««««««««««««
Sample Name:	
Lot Name:	
Wafer Name:	
Die Row/Column:	0/0
Capacitor Number:	0
Sample Area (cm2):	1.00e-04
Sample Thickness (microns):	1.50e-01

Amplifier:	Internal

»»»»»»»»»»»»»»»»»»»»»»»»»»»»»»»»»»» Tester Info «««««««««««««««««««««««««««««««««««
Tester Name:	PMF21124-494 (100V)
Tester Serial Number:	PMF21124-494
Return Signal Amp. Level:	1.79 [Index: 2]

»»»»»»»»»»»»»»»»»»»»»»»»»»»»»»»» Hysteresis Info ««««««««««««««««««««««««««««««««««
Task Name:	Hyst-1804
Volts:	10.00
Field:	666.67 (kV/cm)
DCBias:	0.00
DCField:	0.00 (kV/cm)
Hysteresis Period (ms):	1.00e+00
Preset:	Enabled
Preset Delay (ms):	1.00e+03
Profile:	Standard Monopolar

»»»»»»»»»»»»»»»»»»»»»»»»»»»»»»»»»»»»»» Data «««««««««««««««««««««««««««««««««««««««
Points:	2001

Valid Data

Point	Time (ms)	Drive Voltage	Measured Polarization (uC/cm2)	Capacitance (uF)	Normalized Capacitance (uF/cm2)	Dielectric Constant	Instantaneous Current (mA)
   1	0.0000e+00	-0.0026	-20.396443	0.000907	9.069565	1.536426	0.018131
   2	5.0000e-04	0.0055	-20.305786	0.000907	9.069565	1.536426	0.018131
   3	1.0000e-03	0.0182	-20.281839	0.000240	2.395734	0.405848	0.004789
   4	1.5000e-03	0.0253	-20.233517	0.000483	4.834249	0.818944	0.009664
   5	2.0000e-03	0.0418	-20.173222	0.000603	6.032117	1.021868	0.012059
   6	2.5000e-03	0.0473	-20.137302	0.000359	3.593601	0.608773	0.007184
   7	3.0000e-03	0.0558	-20.069309	0.000680	6.802174	1.152319	0.013598
   8	3.5000e-03	0.0662	-20.015429	0.000539	5.390402	0.913159	0.010776
   9	4.0000e-03	0.0786	-19.949574	0.000659	6.588269	1.116083	0.013171
  10	4.5000e-03	0.0849	-19.907667	0.000419	4.192535	0.710235	0.008381
  11	5.0000e-03	0.0934	-19.831550	0.000762	7.615012	1.290018	0.015223
  12	5.5000e-03	0.1096	-19.786649	0.000449	4.492002	0.760966	0.008980
  13	6.0000e-03	0.1157	-19.734051	0.000526	5.262059	0.891417	0.010520
  14	6.5000e-03	0.1245	-19.680598	0.000535	5.347621	0.905912	0.010691
  15	7.0000e-03	0.1352	-19.653230	0.000274	2.737982	0.463827	0.005474
  16	7.5000e-03	0.1447	-19.581389	0.000719	7.187203	1.217545	0.014368
  17	8.0000e-03	0.1579	-19.523232	0.000582	5.818212	0.985632	0.011631
  18	8.5000e-03	0.1652	-19.489450	0.000338	3.379697	0.572536	0.006756
  19	9.0000e-03	0.1745	-19.422312	0.000672	6.716612	1.137825	0.013427
  20	9.5000e-03	0.1871	-19.382543	0.000398	3.978630	0.673998	0.007954
  21	1.0000e-02	0.2003	-19.310702	0.000719	7.187203	1.217545	0.014368
  22	1.0500e-02	0.2095	-19.299156	0.000116	1.155086	0.195677	0.002309
  23	1.1000e-02	0.2168	-19.208500	0.000907	9.069565	1.536426	0.018131
  24	1.1500e-02	0.2254	-19.134948	0.000736	7.358327	1.246534	0.014710
  25	1.2000e-02	0.2386	-19.109718	0.000252	2.524077	0.427590	0.005046
  26	1.2500e-02	0.2467	-19.079785	0.000299	2.994668	0.507310	0.005987
  27	1.3000e-02	0.2553	-18.989556	0.000903	9.026784	1.529179	0.018046
  28	1.3500e-02	0.2639	-18.947221	0.000424	4.235316	0.717482	0.008467
  29	1.4000e-02	0.2746	-18.910445	0.000368	3.679163	0.623267	0.007355
  30	1.4500e-02	0.2850	-18.843308	0.000672	6.716612	1.137825	0.013427
  31	1.5000e-02	0.2978	-18.780019	0.000633	6.331583	1.072599	0.012658
  32	1.5500e-02	0.3035	-18.747092	0.000329	3.294135	0.558042	0.006585
  33	1.6000e-02	0.3151	-18.704757	0.000424	4.235316	0.717482	0.008467
  34	1.6500e-02	0.3249	-18.622653	0.000821	8.213946	1.391480	0.016421
  35	1.7000e-02	0.3384	-18.566634	0.000560	5.604307	0.949395	0.011204
  36	1.7500e-02	0.3478	-18.537556	0.000291	2.909106	0.492816	0.005816
  37	1.8000e-02	0.3587	-18.481109	0.000565	5.647088	0.956643	0.011289
  38	1.8500e-02	0.3645	-18.406275	0.000749	7.486670	1.268276	0.014967
  39	1.9000e-02	0.3761	-18.373775	0.000325	3.251354	0.550794	0.006500
  40	1.9500e-02	0.3860	-18.331013	0.000428	4.278097	0.724729	0.008553
  41	2.0000e-02	0.3976	-18.257889	0.000732	7.315546	1.239287	0.014625
  42	2.0500e-02	0.4046	-18.212133	0.000458	4.577564	0.775460	0.009151
  43	2.1000e-02	0.4148	-18.152265	0.000599	5.989336	1.014621	0.011974
  44	2.1500e-02	0.4259	-18.081279	0.000710	7.101641	1.203051	0.014197
  45	2.2000e-02	0.4343	-18.065030	0.000163	1.625677	0.275397	0.003250
  46	2.2500e-02	0.4497	-17.982926	0.000821	8.213946	1.391480	0.016421
  47	2.3000e-02	0.4548	-17.942729	0.000402	4.021411	0.681245	0.008039
  48	2.3500e-02	0.4654	-17.893552	0.000492	4.919811	0.833439	0.009835
  49	2.4000e-02	0.4780	-17.829836	0.000637	6.374364	1.079847	0.012743
  50	2.4500e-02	0.4848	-17.786646	0.000432	4.320878	0.731977	0.008638
  51	2.5000e-02	0.4967	-17.723785	0.000629	6.288802	1.065352	0.012572
  52	2.5500e-02	0.5062	-17.686154	0.000376	3.764725	0.637762	0.007526
  53	2.6000e-02	0.5148	-17.612602	0.000736	7.358327	1.246534	0.014710
  54	2.6500e-02	0.5238	-17.602767	0.000098	0.983962	0.166688	0.001967
  55	2.7000e-02	0.5351	-17.533064	0.000697	6.973298	1.181309	0.013941
  56	2.7500e-02	0.5463	-17.462933	0.000702	7.016079	1.188556	0.014026
  57	2.8000e-02	0.5571	-17.441124	0.000218	2.181829	0.369612	0.004362
  58	2.8500e-02	0.5640	-17.338922	0.001022	10.224652	1.732103	0.020440
  59	2.9000e-02	0.5719	-17.315830	0.000231	2.310172	0.391354	0.004618
  60	2.9500e-02	0.5869	-17.254680	0.000612	6.117679	1.036363	0.012230
  61	3.0000e-02	0.5957	-17.183266	0.000714	7.144422	1.210298	0.014283
  62	3.0500e-02	0.6050	-17.166161	0.000171	1.711239	0.289892	0.003421
  63	3.1000e-02	0.6176	-17.116557	0.000496	4.962592	0.840686	0.009921
  64	3.1500e-02	0.6256	-17.045143	0.000714	7.144422	1.210298	0.014283
  65	3.2000e-02	0.6376	-17.005802	0.000394	3.935849	0.666751	0.007868
  66	3.2500e-02	0.6466	-16.940803	0.000650	6.502707	1.101588	0.013000
  67	3.3000e-02	0.6570	-16.901461	0.000394	3.935849	0.666751	0.007868
  68	3.3500e-02	0.6635	-16.832614	0.000689	6.887736	1.166814	0.013770
  69	3.4000e-02	0.6735	-16.785147	0.000475	4.748688	0.804449	0.009493
  70	3.4500e-02	0.6873	-16.729984	0.000552	5.518745	0.934901	0.011033
  71	3.5000e-02	0.6947	-16.685511	0.000445	4.449221	0.753718	0.008895
  72	3.5500e-02	0.7072	-16.621367	0.000642	6.417145	1.087094	0.012829
  73	3.6000e-02	0.7162	-16.565348	0.000560	5.604307	0.949395	0.011204
  74	3.6500e-02	0.7247	-16.507618	0.000578	5.775431	0.978384	0.011546
  75	3.7000e-02	0.7363	-16.468277	0.000394	3.935849	0.666751	0.007868
  76	3.7500e-02	0.7452	-16.415251	0.000530	5.304840	0.898664	0.010605
  77	3.8000e-02	0.7575	-16.355812	0.000595	5.946555	1.007374	0.011888
  78	3.8500e-02	0.7677	-16.316470	0.000394	3.935849	0.666751	0.007868
  79	3.9000e-02	0.7763	-16.259596	0.000569	5.689869	0.963890	0.011375
  80	3.9500e-02	0.7860	-16.196307	0.000633	6.331583	1.072599	0.012658
  81	4.0000e-02	0.7973	-16.152689	0.000436	4.363659	0.739224	0.008724
  82	4.0500e-02	0.8036	-16.094960	0.000578	5.775431	0.978384	0.011546
  83	4.1000e-02	0.8151	-16.059040	0.000359	3.593601	0.608773	0.007184
  84	4.1500e-02	0.8253	-16.005159	0.000539	5.390402	0.913159	0.010776
  85	4.2000e-02	0.8355	-15.944864	0.000603	6.032117	1.021868	0.012059
  86	4.2500e-02	0.8480	-15.916640	0.000282	2.823544	0.478321	0.005645
  87	4.3000e-02	0.8548	-15.837530	0.000791	7.914479	1.340749	0.015822
  88	4.3500e-02	0.8661	-15.785787	0.000518	5.176497	0.876922	0.010349
  89	4.4000e-02	0.8770	-15.734900	0.000509	5.090935	0.862428	0.010177
  90	4.4500e-02	0.8856	-15.676315	0.000586	5.860993	0.992879	0.011717
  91	4.5000e-02	0.8976	-15.642960	0.000334	3.336916	0.565289	0.006671
  92	4.5500e-02	0.9062	-15.575395	0.000676	6.759393	1.145072	0.013513
  93	4.6000e-02	0.9165	-15.521087	0.000543	5.433183	0.920406	0.010862
  94	4.6500e-02	0.9264	-15.475759	0.000453	4.534783	0.768213	0.009066
  95	4.7000e-02	0.9381	-15.414181	0.000616	6.160459	1.043610	0.012316
  96	4.7500e-02	0.9457	-15.364576	0.000496	4.962592	0.840686	0.009921
  97	4.8000e-02	0.9547	-15.312833	0.000518	5.176497	0.876922	0.010349
  98	4.8500e-02	0.9686	-15.269643	0.000432	4.320878	0.731977	0.008638
  99	4.9000e-02	0.9755	-15.217901	0.000518	5.176497	0.876922	0.010349
 100	4.9500e-02	0.9852	-15.149481	0.000684	6.844955	1.159567	0.013684
 101	5.0000e-02	0.9949	-15.105435	0.000441	4.406440	0.746471	0.008809
 102	5.0500e-02	1.0047	-15.057114	0.000483	4.834249	0.818944	0.009664
 103	5.1000e-02	1.0143	-15.010502	0.000466	4.663126	0.789955	0.009322
 104	5.1500e-02	1.0272	-14.945931	0.000646	6.459926	1.094341	0.012914
 105	5.2000e-02	1.0347	-14.895899	0.000501	5.005373	0.847933	0.010006
 106	5.2500e-02	1.0489	-14.876228	0.000197	1.967925	0.333375	0.003934
 107	5.3000e-02	1.0545	-14.793696	0.000826	8.256727	1.398727	0.016506
 108	5.3500e-02	1.0652	-14.758631	0.000351	3.508039	0.594278	0.007013
 109	5.4000e-02	1.0756	-14.670968	0.000877	8.770099	1.485695	0.017533
 110	5.4500e-02	1.0858	-14.628205	0.000428	4.278097	0.724729	0.008553
 111	5.5000e-02	1.0950	-14.580311	0.000479	4.791468	0.811697	0.009579
 112	5.5500e-02	1.1086	-14.518733	0.000616	6.160459	1.043610	0.012316
 113	5.6000e-02	1.1151	-14.487944	0.000308	3.080230	0.521805	0.006158
 114	5.6500e-02	1.1295	-14.433208	0.000548	5.475964	0.927653	0.010947
 115	5.7000e-02	1.1353	-14.376762	0.000565	5.647088	0.956643	0.011289
 116	5.7500e-02	1.1462	-14.336137	0.000406	4.064192	0.688493	0.008125
 117	5.8000e-02	1.1562	-14.275415	0.000607	6.074898	1.029116	0.012145
 118	5.8500e-02	1.1660	-14.244198	0.000312	3.123011	0.529052	0.006243
 119	5.9000e-02	1.1742	-14.182192	0.000620	6.203240	1.050857	0.012401
 120	5.9500e-02	1.1862	-14.137292	0.000449	4.492002	0.760966	0.008980
 121	6.0000e-02	1.1940	-14.072293	0.000650	6.502707	1.101588	0.013000
 122	6.0500e-02	1.2067	-14.011142	0.000612	6.117679	1.036363	0.012230
 123	6.1000e-02	1.2135	-13.962393	0.000488	4.877030	0.826191	0.009750
 124	6.1500e-02	1.2276	-13.925617	0.000368	3.679163	0.623267	0.007355
 125	6.2000e-02	1.2363	-13.873019	0.000526	5.262059	0.891417	0.010520
 126	6.2500e-02	1.2445	-13.818283	0.000548	5.475964	0.927653	0.010947
 127	6.3000e-02	1.2543	-13.763975	0.000543	5.433183	0.920406	0.010862
 128	6.3500e-02	1.2685	-13.725916	0.000381	3.807506	0.645009	0.007612
 129	6.4000e-02	1.2788	-13.671180	0.000548	5.475964	0.927653	0.010947
 130	6.4500e-02	1.2886	-13.618582	0.000526	5.262059	0.891417	0.010520
 131	6.5000e-02	1.2946	-13.576247	0.000424	4.235316	0.717482	0.008467
 132	6.5500e-02	1.3044	-13.514242	0.000620	6.203240	1.050857	0.012401
 133	6.6000e-02	1.3159	-13.458223	0.000560	5.604307	0.949395	0.011204
 134	6.6500e-02	1.3251	-13.399638	0.000586	5.860993	0.992879	0.011717
 135	6.7000e-02	1.3322	-13.361152	0.000385	3.850287	0.652256	0.007697
 136	6.7500e-02	1.3460	-13.315823	0.000453	4.534783	0.768213	0.009066
 137	6.8000e-02	1.3557	-13.258949	0.000569	5.689869	0.963890	0.011375
 138	6.8500e-02	1.3651	-13.199937	0.000590	5.903774	1.000126	0.011802
 139	6.9000e-02	1.3750	-13.159313	0.000406	4.064192	0.688493	0.008125
 140	6.9500e-02	1.3858	-13.111419	0.000479	4.791468	0.811697	0.009579
 141	7.0000e-02	1.3947	-13.054972	0.000565	5.647088	0.956643	0.011289
 142	7.0500e-02	1.4038	-13.008361	0.000466	4.663126	0.789955	0.009322
 143	7.1000e-02	1.4142	-12.945928	0.000625	6.246021	1.058105	0.012487
 144	7.1500e-02	1.4253	-12.894613	0.000513	5.133716	0.869675	0.010263
 145	7.2000e-02	1.4395	-12.865962	0.000287	2.866325	0.485569	0.005730
 146	7.2500e-02	1.4465	-12.802673	0.000633	6.331583	1.072599	0.012658
 147	7.3000e-02	1.4545	-12.756062	0.000466	4.663126	0.789955	0.009322
 148	7.3500e-02	1.4642	-12.689780	0.000663	6.631050	1.123330	0.013256
 149	7.4000e-02	1.4798	-12.653860	0.000359	3.593601	0.608773	0.007184
 150	7.4500e-02	1.4841	-12.585012	0.000689	6.887736	1.166814	0.013770
 151	7.5000e-02	1.4984	-12.538828	0.000462	4.620345	0.782708	0.009237
 152	7.5500e-02	1.5046	-12.486658	0.000522	5.219278	0.884170	0.010434
 153	7.6000e-02	1.5164	-12.441330	0.000453	4.534783	0.768213	0.009066
 154	7.6500e-02	1.5253	-12.387449	0.000539	5.390402	0.913159	0.010776
 155	7.7000e-02	1.5353	-12.338700	0.000488	4.877030	0.826191	0.009750
 156	7.7500e-02	1.5470	-12.278832	0.000599	5.989336	1.014621	0.011974
 157	7.8000e-02	1.5558	-12.234359	0.000445	4.449221	0.753718	0.008895
 158	7.8500e-02	1.5659	-12.187320	0.000471	4.705907	0.797202	0.009408
 159	7.9000e-02	1.5800	-12.141564	0.000458	4.577564	0.775460	0.009151
 160	7.9500e-02	1.5865	-12.086828	0.000548	5.475964	0.927653	0.010947
 161	8.0000e-02	1.5973	-12.027388	0.000595	5.946555	1.007374	0.011888
 162	8.0500e-02	1.6068	-11.991040	0.000364	3.636382	0.616020	0.007270
 163	8.1000e-02	1.6144	-11.941436	0.000496	4.962592	0.840686	0.009921
 164	8.1500e-02	1.6269	-11.887983	0.000535	5.347621	0.905912	0.010691
 165	8.2000e-02	1.6352	-11.828970	0.000590	5.903774	1.000126	0.011802
 166	8.2500e-02	1.6426	-11.792195	0.000368	3.679163	0.623267	0.007355
 167	8.3000e-02	1.6550	-11.731044	0.000612	6.117679	1.036363	0.012230
 168	8.3500e-02	1.6678	-11.690847	0.000402	4.021411	0.681245	0.008039
 169	8.4000e-02	1.6779	-11.637822	0.000530	5.304840	0.898664	0.010605
 170	8.4500e-02	1.6855	-11.591211	0.000466	4.663126	0.789955	0.009322
 171	8.5000e-02	1.6949	-11.537758	0.000535	5.347621	0.905912	0.010691
 172	8.5500e-02	1.7049	-11.487725	0.000501	5.005373	0.847933	0.010006
 173	8.6000e-02	1.7169	-11.438976	0.000488	4.877030	0.826191	0.009750
 174	8.6500e-02	1.7291	-11.400490	0.000385	3.850287	0.652256	0.007697
 175	8.7000e-02	1.7352	-11.342333	0.000582	5.818212	0.985632	0.011631
 176	8.7500e-02	1.7458	-11.291873	0.000505	5.048154	0.855180	0.010092
 177	8.8000e-02	1.7575	-11.231578	0.000603	6.032117	1.021868	0.012059
 178	8.8500e-02	1.7638	-11.175559	0.000560	5.604307	0.949395	0.011204
 179	8.9000e-02	1.7767	-11.120823	0.000548	5.475964	0.927653	0.010947
 180	8.9500e-02	1.7859	-11.082337	0.000385	3.850287	0.652256	0.007697
 181	9.0000e-02	1.7967	-11.041285	0.000411	4.106973	0.695740	0.008210
 182	9.0500e-02	1.8059	-10.987831	0.000535	5.347621	0.905912	0.010691
 183	9.1000e-02	1.8140	-10.938655	0.000492	4.919811	0.833439	0.009835
 184	9.1500e-02	1.8267	-10.886484	0.000522	5.219278	0.884170	0.010434
 185	9.2000e-02	1.8372	-10.843294	0.000432	4.320878	0.731977	0.008638
 186	9.2500e-02	1.8447	-10.788558	0.000548	5.475964	0.927653	0.010947
 187	9.3000e-02	1.8558	-10.742375	0.000462	4.620345	0.782708	0.009237
 188	9.3500e-02	1.8663	-10.679941	0.000625	6.246021	1.058105	0.012487
 189	9.4000e-02	1.8769	-10.631620	0.000483	4.834249	0.818944	0.009664
 190	9.4500e-02	1.8877	-10.594844	0.000368	3.679163	0.623267	0.007355
 191	9.5000e-02	1.8953	-10.544812	0.000501	5.005373	0.847933	0.010006
 192	9.5500e-02	1.9055	-10.494352	0.000505	5.048154	0.855180	0.010092
 193	9.6000e-02	1.9189	-10.449879	0.000445	4.449221	0.753718	0.008895
 194	9.6500e-02	1.9252	-10.411820	0.000381	3.807506	0.645009	0.007612
 195	9.7000e-02	1.9368	-10.339979	0.000719	7.187203	1.217545	0.014368
 196	9.7500e-02	1.9443	-10.286526	0.000535	5.347621	0.905912	0.010691
 197	9.8000e-02	1.9533	-10.225803	0.000607	6.074898	1.029116	0.012145
 198	9.8500e-02	1.9652	-10.205277	0.000205	2.053486	0.347870	0.004105
 199	9.9000e-02	1.9774	-10.139851	0.000655	6.545488	1.108836	0.013085
 200	9.9500e-02	1.9865	-10.104358	0.000355	3.550820	0.601525	0.007099
 201	1.0000e-01	1.9946	-10.050049	0.000543	5.433183	0.920406	0.010862
 202	1.0050e-01	2.0082	-9.972221	0.000779	7.786136	1.319007	0.015566
 203	1.0100e-01	2.0169	-9.927321	0.000449	4.492002	0.760966	0.008980
 204	1.0150e-01	2.0287	-9.907650	0.000197	1.967925	0.333375	0.003934
 205	1.0200e-01	2.0361	-9.844361	0.000633	6.331583	1.072599	0.012658
 206	1.0250e-01	2.0483	-9.808441	0.000359	3.593601	0.608773	0.007184
 207	1.0300e-01	2.0591	-9.761402	0.000471	4.705907	0.797202	0.009408
 208	1.0350e-01	2.0660	-9.705811	0.000556	5.561526	0.942148	0.011118
 209	1.0400e-01	2.0792	-9.666469	0.000394	3.935849	0.666751	0.007868
 210	1.0450e-01	2.0863	-9.604464	0.000620	6.203240	1.050857	0.012401
 211	1.0500e-01	2.0992	-9.550583	0.000539	5.390402	0.913159	0.010776
 212	1.0550e-01	2.1060	-9.525353	0.000252	2.524077	0.427590	0.005046
 213	1.0600e-01	2.1170	-9.460782	0.000646	6.459926	1.094341	0.012914
 214	1.0650e-01	2.1232	-9.388085	0.000727	7.272765	1.232040	0.014539
 215	1.0700e-01	2.1368	-9.368415	0.000197	1.967925	0.333375	0.003934
 216	1.0750e-01	2.1445	-9.298284	0.000702	7.016079	1.188556	0.014026
 217	1.0800e-01	2.1567	-9.255949	0.000424	4.235316	0.717482	0.008467
 218	1.0850e-01	2.1667	-9.216180	0.000398	3.978630	0.673998	0.007954
 219	1.0900e-01	2.1782	-9.169996	0.000462	4.620345	0.782708	0.009237
 220	1.0950e-01	2.1866	-9.113122	0.000569	5.689869	0.963890	0.011375
 221	1.1000e-01	2.1967	-9.066511	0.000466	4.663126	0.789955	0.009322
 222	1.1050e-01	2.2084	-9.026314	0.000402	4.021411	0.681245	0.008039
 223	1.1100e-01	2.2177	-8.970295	0.000560	5.604307	0.949395	0.011204
 224	1.1150e-01	2.2244	-8.900592	0.000697	6.973298	1.181309	0.013941
 225	1.1200e-01	2.2362	-8.886908	0.000137	1.368991	0.231913	0.002737
 226	1.1250e-01	2.2498	-8.847995	0.000389	3.893068	0.659504	0.007783
 227	1.1300e-01	2.2565	-8.792831	0.000552	5.518745	0.934901	0.011033
 228	1.1350e-01	2.2675	-8.729115	0.000637	6.374364	1.079847	0.012743
 229	1.1400e-01	2.2755	-8.676517	0.000526	5.262059	0.891417	0.010520
 230	1.1450e-01	2.2881	-8.632899	0.000436	4.363659	0.739224	0.008724
 231	1.1500e-01	2.2988	-8.584150	0.000488	4.877030	0.826191	0.009750
 232	1.1550e-01	2.3062	-8.534118	0.000501	5.005373	0.847933	0.010006
 233	1.1600e-01	2.3175	-8.484085	0.000501	5.005373	0.847933	0.010006
 234	1.1650e-01	2.3257	-8.425928	0.000582	5.818212	0.985632	0.011631
 235	1.1700e-01	2.3398	-8.389580	0.000364	3.636382	0.616020	0.007270
 236	1.1750e-01	2.3450	-8.348101	0.000415	4.149754	0.702987	0.008296
 237	1.1800e-01	2.3553	-8.290371	0.000578	5.775431	0.978384	0.011546
 238	1.1850e-01	2.3654	-8.249319	0.000411	4.106973	0.695740	0.008210
 239	1.1900e-01	2.3741	-8.193300	0.000560	5.604307	0.949395	0.011204
 240	1.1950e-01	2.3890	-8.144123	0.000492	4.919811	0.833439	0.009835
 241	1.2000e-01	2.3950	-8.115045	0.000291	2.909106	0.492816	0.005816
 242	1.2050e-01	2.4069	-8.081262	0.000338	3.379697	0.572536	0.006756
 243	1.2100e-01	2.4167	-8.003007	0.000783	7.828917	1.326254	0.015651
 244	1.2150e-01	2.4288	-7.967942	0.000351	3.508039	0.594278	0.007013
 245	1.2200e-01	2.4365	-7.923041	0.000449	4.492002	0.760966	0.008980
 246	1.2250e-01	2.4466	-7.851628	0.000714	7.144422	1.210298	0.014283
 247	1.2300e-01	2.4586	-7.828108	0.000235	2.352953	0.398601	0.004704
 248	1.2350e-01	2.4681	-7.772517	0.000556	5.561526	0.942148	0.011118
 249	1.2400e-01	2.4753	-7.717353	0.000552	5.518745	0.934901	0.011033
 250	1.2450e-01	2.4840	-7.672880	0.000445	4.449221	0.753718	0.008895
 251	1.2500e-01	2.4988	-7.631401	0.000415	4.149754	0.702987	0.008296
 252	1.2550e-01	2.5067	-7.594625	0.000368	3.679163	0.623267	0.007355
 253	1.2600e-01	2.5180	-7.529626	0.000650	6.502707	1.101588	0.013000
 254	1.2650e-01	2.5299	-7.482587	0.000471	4.705907	0.797202	0.009408
 255	1.2700e-01	2.5372	-7.460351	0.000222	2.224610	0.376859	0.004447
 256	1.2750e-01	2.5446	-7.391075	0.000693	6.930517	1.174061	0.013855
 257	1.2800e-01	2.5549	-7.351306	0.000398	3.978630	0.673998	0.007954
 258	1.2850e-01	2.5653	-7.284169	0.000672	6.716612	1.137825	0.013427
 259	1.2900e-01	2.5806	-7.249959	0.000342	3.422477	0.579783	0.006842
 260	1.2950e-01	2.5861	-7.211473	0.000385	3.850287	0.652256	0.007697
 261	1.3000e-01	2.5970	-7.149039	0.000625	6.246021	1.058105	0.012487
 262	1.3050e-01	2.6059	-7.096014	0.000530	5.304840	0.898664	0.010605
 263	1.3100e-01	2.6181	-7.071639	0.000244	2.438515	0.413096	0.004875
 264	1.3150e-01	2.6245	-7.027166	0.000445	4.449221	0.753718	0.008895
 265	1.3200e-01	2.6361	-6.988252	0.000389	3.893068	0.659504	0.007783
 266	1.3250e-01	2.6466	-6.936082	0.000522	5.219278	0.884170	0.010434
 267	1.3300e-01	2.6556	-6.873649	0.000625	6.246021	1.058105	0.012487
 268	1.3350e-01	2.6671	-6.830031	0.000436	4.363659	0.739224	0.008724
 269	1.3400e-01	2.6788	-6.794110	0.000359	3.593601	0.608773	0.007184
 270	1.3450e-01	2.6887	-6.734243	0.000599	5.989336	1.014621	0.011974
 271	1.3500e-01	2.6967	-6.676941	0.000573	5.732650	0.971137	0.011460
 272	1.3550e-01	2.7069	-6.654705	0.000222	2.224610	0.376859	0.004447
 273	1.3600e-01	2.7174	-6.586284	0.000684	6.844955	1.159567	0.013684
 274	1.3650e-01	2.7253	-6.553357	0.000329	3.294135	0.558042	0.006585
 275	1.3700e-01	2.7365	-6.509740	0.000436	4.363659	0.739224	0.008724
 276	1.3750e-01	2.7463	-6.475530	0.000342	3.422477	0.579783	0.006842
 277	1.3800e-01	2.7592	-6.409248	0.000663	6.631050	1.123330	0.013256
 278	1.3850e-01	2.7663	-6.343393	0.000659	6.588269	1.116083	0.013171
 279	1.3900e-01	2.7792	-6.310039	0.000334	3.336916	0.565289	0.006671
 280	1.3950e-01	2.7852	-6.269414	0.000406	4.064192	0.688493	0.008125
 281	1.4000e-01	2.7954	-6.211257	0.000582	5.818212	0.985632	0.011631
 282	1.4050e-01	2.8070	-6.168067	0.000432	4.320878	0.731977	0.008638
 283	1.4100e-01	2.8172	-6.107344	0.000607	6.074898	1.029116	0.012145
 284	1.4150e-01	2.8278	-6.074845	0.000325	3.251354	0.550794	0.006500
 285	1.4200e-01	2.8370	-5.991885	0.000830	8.299508	1.405975	0.016592
 286	1.4250e-01	2.8482	-5.978629	0.000133	1.326210	0.224666	0.002651
 287	1.4300e-01	2.8558	-5.956820	0.000218	2.181829	0.369612	0.004362
 288	1.4350e-01	2.8668	-5.886690	0.000702	7.016079	1.188556	0.014026
 289	1.4400e-01	2.8748	-5.857183	0.000295	2.951887	0.500063	0.005901
 290	1.4450e-01	2.8882	-5.813138	0.000441	4.406440	0.746471	0.008809
 291	1.4500e-01	2.8943	-5.765244	0.000479	4.791468	0.811697	0.009579
 292	1.4550e-01	2.9077	-5.701955	0.000633	6.331583	1.072599	0.012658
 293	1.4600e-01	2.9158	-5.663469	0.000385	3.850287	0.652256	0.007697
 294	1.4650e-01	2.9262	-5.618568	0.000449	4.492002	0.760966	0.008980
 295	1.4700e-01	2.9359	-5.559984	0.000586	5.860993	0.992879	0.011717
 296	1.4750e-01	2.9456	-5.522353	0.000376	3.764725	0.637762	0.007526
 297	1.4800e-01	2.9565	-5.486432	0.000359	3.593601	0.608773	0.007184
 298	1.4850e-01	2.9643	-5.446235	0.000402	4.021411	0.681245	0.008039
 299	1.4900e-01	2.9776	-5.393210	0.000530	5.304840	0.898664	0.010605
 300	1.4950e-01	2.9855	-5.320086	0.000732	7.315546	1.239287	0.014625
 301	1.5000e-01	2.9993	-5.288442	0.000317	3.165792	0.536300	0.006329
 302	1.5050e-01	3.0084	-5.244396	0.000441	4.406440	0.746471	0.008809
 303	1.5100e-01	3.0180	-5.218739	0.000257	2.566858	0.434838	0.005132
 304	1.5150e-01	3.0261	-5.156733	0.000620	6.203240	1.050857	0.012401
 305	1.5200e-01	3.0397	-5.089168	0.000676	6.759393	1.145072	0.013513
 306	1.5250e-01	3.0453	-5.056241	0.000329	3.294135	0.558042	0.006585
 307	1.5300e-01	3.0575	-5.038281	0.000180	1.796801	0.304386	0.003592
 308	1.5350e-01	3.0666	-4.989959	0.000483	4.834249	0.818944	0.009664
 309	1.5400e-01	3.0783	-4.929664	0.000603	6.032117	1.021868	0.012059
 310	1.5450e-01	3.0859	-4.877066	0.000526	5.262059	0.891417	0.010520
 311	1.5500e-01	3.0963	-4.839863	0.000372	3.721944	0.630514	0.007441
 312	1.5550e-01	3.1070	-4.787265	0.000526	5.262059	0.891417	0.010520
 313	1.5600e-01	3.1149	-4.753910	0.000334	3.336916	0.565289	0.006671
 314	1.5650e-01	3.1268	-4.710292	0.000436	4.363659	0.739224	0.008724
 315	1.5700e-01	3.1358	-4.652135	0.000582	5.818212	0.985632	0.011631
 316	1.5750e-01	3.1421	-4.600393	0.000518	5.176497	0.876922	0.010349
 317	1.5800e-01	3.1567	-4.562762	0.000376	3.764725	0.637762	0.007526
 318	1.5850e-01	3.1671	-4.521282	0.000415	4.149754	0.702987	0.008296
 319	1.5900e-01	3.1750	-4.478520	0.000428	4.278097	0.724729	0.008553
 320	1.5950e-01	3.1812	-4.415231	0.000633	6.331583	1.072599	0.012658
 321	1.6000e-01	3.1982	-4.376745	0.000385	3.850287	0.652256	0.007697
 322	1.6050e-01	3.2086	-4.332272	0.000445	4.449221	0.753718	0.008895
 323	1.6100e-01	3.2145	-4.308752	0.000235	2.352953	0.398601	0.004704
 324	1.6150e-01	3.2251	-4.252306	0.000565	5.647088	0.956643	0.011289
 325	1.6200e-01	3.2385	-4.203984	0.000483	4.834249	0.818944	0.009664
 326	1.6250e-01	3.2470	-4.179182	0.000248	2.481296	0.420343	0.004960
 327	1.6300e-01	3.2562	-4.117176	0.000620	6.203240	1.050857	0.012401
 328	1.6350e-01	3.2672	-4.086387	0.000308	3.080230	0.521805	0.006158
 329	1.6400e-01	3.2761	-4.043625	0.000428	4.278097	0.724729	0.008553
 330	1.6450e-01	3.2846	-3.978626	0.000650	6.502707	1.101588	0.013000
 331	1.6500e-01	3.2983	-3.941850	0.000368	3.679163	0.623267	0.007355
 332	1.6550e-01	3.3083	-3.891818	0.000501	5.005373	0.847933	0.010006
 333	1.6600e-01	3.3176	-3.860173	0.000317	3.165792	0.536300	0.006329
 334	1.6650e-01	3.3235	-3.772083	0.000881	8.812880	1.492942	0.017618
 335	1.6700e-01	3.3374	-3.754978	0.000171	1.711239	0.289892	0.003421
 336	1.6750e-01	3.3472	-3.716064	0.000389	3.893068	0.659504	0.007783
 337	1.6800e-01	3.3594	-3.666887	0.000492	4.919811	0.833439	0.009835
 338	1.6850e-01	3.3673	-3.624979	0.000419	4.192535	0.710235	0.008381
 339	1.6900e-01	3.3766	-3.577085	0.000479	4.791468	0.811697	0.009579
 340	1.6950e-01	3.3858	-3.532612	0.000445	4.449221	0.753718	0.008895
 341	1.7000e-01	3.3961	-3.484718	0.000479	4.791468	0.811697	0.009579
 342	1.7050e-01	3.4083	-3.431265	0.000535	5.347621	0.905912	0.010691
 343	1.7100e-01	3.4177	-3.396200	0.000351	3.508039	0.594278	0.007013
 344	1.7150e-01	3.4277	-3.355148	0.000411	4.106973	0.695740	0.008210
 345	1.7200e-01	3.4382	-3.319227	0.000359	3.593601	0.608773	0.007184
 346	1.7250e-01	3.4464	-3.267057	0.000522	5.219278	0.884170	0.010434
 347	1.7300e-01	3.4552	-3.231137	0.000359	3.593601	0.608773	0.007184
 348	1.7350e-01	3.4692	-3.182387	0.000488	4.877030	0.826191	0.009750
 349	1.7400e-01	3.4772	-3.128507	0.000539	5.390402	0.913159	0.010776
 350	1.7450e-01	3.4854	-3.092586	0.000359	3.593601	0.608773	0.007184
 351	1.7500e-01	3.4998	-3.020317	0.000723	7.229984	1.224792	0.014454
 352	1.7550e-01	3.5083	-3.001074	0.000193	1.925144	0.326128	0.003849
 353	1.7600e-01	3.5144	-2.977127	0.000240	2.395734	0.405848	0.004789
 354	1.7650e-01	3.5249	-2.896306	0.000809	8.085603	1.369738	0.016164
 355	1.7700e-01	3.5397	-2.863806	0.000325	3.251354	0.550794	0.006500
 356	1.7750e-01	3.5468	-2.824037	0.000398	3.978630	0.673998	0.007954
 357	1.7800e-01	3.5574	-2.793248	0.000308	3.080230	0.521805	0.006158
 358	1.7850e-01	3.5660	-2.760749	0.000325	3.251354	0.550794	0.006500
 359	1.7900e-01	3.5750	-2.682066	0.000787	7.871698	1.333502	0.015737
 360	1.7950e-01	3.5854	-2.649994	0.000321	3.208573	0.543547	0.006414
 361	1.8000e-01	3.5963	-2.608514	0.000415	4.149754	0.702987	0.008296
 362	1.8050e-01	3.6078	-2.552495	0.000560	5.604307	0.949395	0.011204
 363	1.8100e-01	3.6137	-2.512726	0.000398	3.978630	0.673998	0.007954
 364	1.8150e-01	3.6267	-2.455852	0.000569	5.689869	0.963890	0.011375
 365	1.8200e-01	3.6374	-2.408813	0.000471	4.705907	0.797202	0.009408
 366	1.8250e-01	3.6462	-2.390425	0.000184	1.839582	0.311634	0.003678
 367	1.8300e-01	3.6588	-2.373320	0.000171	1.711239	0.289892	0.003421
 368	1.8350e-01	3.6667	-2.303190	0.000702	7.016079	1.188556	0.014026
 369	1.8400e-01	3.6781	-2.237335	0.000659	6.588269	1.116083	0.013171
 370	1.8450e-01	3.6868	-2.207829	0.000295	2.951887	0.500063	0.005901
 371	1.8500e-01	3.6972	-2.162501	0.000453	4.534783	0.768213	0.009066
 372	1.8550e-01	3.7068	-2.133422	0.000291	2.909106	0.492816	0.005816
 373	1.8600e-01	3.7170	-2.090232	0.000432	4.320878	0.731977	0.008638
 374	1.8650e-01	3.7268	-2.024378	0.000659	6.588269	1.116083	0.013171
 375	1.8700e-01	3.7369	-1.996155	0.000282	2.823544	0.478321	0.005645
 376	1.8750e-01	3.7498	-1.955958	0.000402	4.021411	0.681245	0.008039
 377	1.8800e-01	3.7585	-1.900794	0.000552	5.518745	0.934901	0.011033
 378	1.8850e-01	3.7635	-1.872999	0.000278	2.780763	0.471074	0.005559
 379	1.8900e-01	3.7735	-1.820401	0.000526	5.262059	0.891417	0.010520
 380	1.8950e-01	3.7894	-1.768231	0.000522	5.219278	0.884170	0.010434
 381	1.9000e-01	3.7955	-1.719054	0.000492	4.919811	0.833439	0.009835
 382	1.9050e-01	3.8031	-1.685699	0.000334	3.336916	0.565289	0.006671
 383	1.9100e-01	3.8156	-1.656193	0.000295	2.951887	0.500063	0.005901
 384	1.9150e-01	3.8269	-1.607871	0.000483	4.834249	0.818944	0.009664
 385	1.9200e-01	3.8367	-1.566819	0.000411	4.106973	0.695740	0.008210
 386	1.9250e-01	3.8463	-1.516359	0.000505	5.048154	0.855180	0.010092
 387	1.9300e-01	3.8578	-1.472741	0.000436	4.363659	0.739224	0.008724
 388	1.9350e-01	3.8692	-1.438531	0.000342	3.422477	0.579783	0.006842
 389	1.9400e-01	3.8782	-1.412019	0.000265	2.652420	0.449332	0.005303
 390	1.9450e-01	3.8880	-1.334191	0.000779	7.786136	1.319007	0.015566
 391	1.9500e-01	3.8965	-1.303402	0.000308	3.080230	0.521805	0.006158
 392	1.9550e-01	3.9050	-1.268337	0.000351	3.508039	0.594278	0.007013
 393	1.9600e-01	3.9173	-1.232416	0.000359	3.593601	0.608773	0.007184
 394	1.9650e-01	3.9261	-1.166989	0.000655	6.545488	1.108836	0.013085
 395	1.9700e-01	3.9360	-1.141332	0.000257	2.566858	0.434838	0.005132
 396	1.9750e-01	3.9436	-1.084458	0.000569	5.689869	0.963890	0.011375
 397	1.9800e-01	3.9563	-1.031005	0.000535	5.347621	0.905912	0.010691
 398	1.9850e-01	3.9703	-1.016893	0.000141	1.411772	0.239161	0.002822
 399	1.9900e-01	3.9761	-0.966005	0.000509	5.090935	0.862428	0.010177
 400	1.9950e-01	3.9868	-0.910414	0.000556	5.561526	0.942148	0.011118
 401	2.0000e-01	3.9960	-0.879625	0.000308	3.080230	0.521805	0.006158
 402	2.0050e-01	4.0073	-0.833014	0.000466	4.663126	0.789955	0.009322
 403	2.0100e-01	4.0149	-0.782554	0.000505	5.048154	0.855180	0.010092
 404	2.0150e-01	4.0262	-0.725252	0.000573	5.732650	0.971137	0.011460
 405	2.0200e-01	4.0350	-0.692753	0.000325	3.251354	0.550794	0.006500
 406	2.0250e-01	4.0469	-0.666240	0.000265	2.652420	0.449332	0.005303
 407	2.0300e-01	4.0555	-0.609794	0.000565	5.647088	0.956643	0.011289
 408	2.0350e-01	4.0671	-0.581143	0.000287	2.866325	0.485569	0.005730
 409	2.0400e-01	4.0759	-0.524696	0.000565	5.647088	0.956643	0.011289
 410	2.0450e-01	4.0865	-0.483217	0.000415	4.149754	0.702987	0.008296
 411	2.0500e-01	4.0987	-0.453710	0.000295	2.951887	0.500063	0.005901
 412	2.0550e-01	4.1056	-0.396409	0.000573	5.732650	0.971137	0.011460
 413	2.0600e-01	4.1168	-0.367758	0.000287	2.866325	0.485569	0.005730
 414	2.0650e-01	4.1254	-0.326706	0.000411	4.106973	0.695740	0.008210
 415	2.0700e-01	4.1382	-0.284798	0.000419	4.192535	0.710235	0.008381
 416	2.0750e-01	4.1476	-0.237332	0.000475	4.748688	0.804449	0.009493
 417	2.0800e-01	4.1568	-0.180885	0.000565	5.647088	0.956643	0.011289
 418	2.0850e-01	4.1663	-0.146248	0.000347	3.465258	0.587031	0.006928
 419	2.0900e-01	4.1754	-0.112893	0.000334	3.336916	0.565289	0.006671
 420	2.0950e-01	4.1840	-0.070986	0.000419	4.192535	0.710235	0.008381
 421	2.1000e-01	4.1980	-0.020526	0.000505	5.048154	0.855180	0.010092
 422	2.1050e-01	4.2065	-0.002138	0.000184	1.839582	0.311634	0.003678
 423	2.1100e-01	4.2166	0.047894	0.000501	5.005373	0.847933	0.010006
 424	2.1150e-01	4.2291	0.115031	0.000672	6.716612	1.137825	0.013427
 425	2.1200e-01	4.2383	0.152235	0.000372	3.721944	0.630514	0.007441
 426	2.1250e-01	4.2484	0.186017	0.000338	3.379697	0.572536	0.006756
 427	2.1300e-01	4.2584	0.224931	0.000389	3.893068	0.659504	0.007783
 428	2.1350e-01	4.2670	0.257003	0.000321	3.208573	0.543547	0.006414
 429	2.1400e-01	4.2773	0.315587	0.000586	5.860993	0.992879	0.011717
 430	2.1450e-01	4.2880	0.333548	0.000180	1.796801	0.304386	0.003592
 431	2.1500e-01	4.2960	0.402395	0.000689	6.887736	1.166814	0.013770
 432	2.1550e-01	4.3073	0.426770	0.000244	2.438515	0.413096	0.004875
 433	2.1600e-01	4.3158	0.457987	0.000312	3.123011	0.529052	0.006243
 434	2.1650e-01	4.3256	0.516571	0.000586	5.860993	0.992879	0.011717
 435	2.1700e-01	4.3353	0.558051	0.000415	4.149754	0.702987	0.008296
 436	2.1750e-01	4.3460	0.611077	0.000530	5.304840	0.898664	0.010605
 437	2.1800e-01	4.3549	0.629892	0.000188	1.882363	0.318881	0.003763
 438	2.1850e-01	4.3678	0.682062	0.000522	5.219278	0.884170	0.010434
 439	2.1900e-01	4.3765	0.733377	0.000513	5.133716	0.869675	0.010263
 440	2.1950e-01	4.3881	0.769298	0.000359	3.593601	0.608773	0.007184
 441	2.2000e-01	4.3951	0.813343	0.000441	4.406440	0.746471	0.008809
 442	2.2050e-01	4.4092	0.829593	0.000163	1.625677	0.275397	0.003250
 443	2.2100e-01	4.4177	0.886040	0.000565	5.647088	0.956643	0.011289
 444	2.2150e-01	4.4263	0.924526	0.000385	3.850287	0.652256	0.007697
 445	2.2200e-01	4.4360	0.966433	0.000419	4.192535	0.710235	0.008381
 446	2.2250e-01	4.4489	1.032287	0.000659	6.588269	1.116083	0.013171
 447	2.2300e-01	4.4568	1.054096	0.000218	2.181829	0.369612	0.004362
 448	2.2350e-01	4.4685	1.093865	0.000398	3.978630	0.673998	0.007954
 449	2.2400e-01	4.4751	1.149884	0.000560	5.604307	0.949395	0.011204
 450	2.2450e-01	4.4849	1.181101	0.000312	3.123011	0.529052	0.006243
 451	2.2500e-01	4.5004	1.226429	0.000453	4.534783	0.768213	0.009066
 452	2.2550e-01	4.5087	1.241824	0.000154	1.540115	0.260903	0.003079
 453	2.2600e-01	4.5181	1.307250	0.000655	6.545488	1.108836	0.013085
 454	2.2650e-01	4.5299	1.347875	0.000406	4.064192	0.688493	0.008125
 455	2.2700e-01	4.5374	1.373105	0.000252	2.524077	0.427590	0.005046
 456	2.2750e-01	4.5453	1.421854	0.000488	4.877030	0.826191	0.009750
 457	2.2800e-01	4.5557	1.454354	0.000325	3.251354	0.550794	0.006500
 458	2.2850e-01	4.5674	1.522774	0.000684	6.844955	1.159567	0.013684
 459	2.2900e-01	4.5773	1.543300	0.000205	2.053486	0.347870	0.004105
 460	2.2950e-01	4.5883	1.575799	0.000325	3.251354	0.550794	0.006500
 461	2.3000e-01	4.5963	1.627114	0.000513	5.133716	0.869675	0.010263
 462	2.3050e-01	4.6120	1.666883	0.000398	3.978630	0.673998	0.007954
 463	2.3100e-01	4.6170	1.717343	0.000505	5.048154	0.855180	0.010092
 464	2.3150e-01	4.6295	1.745139	0.000278	2.780763	0.471074	0.005559
 465	2.3200e-01	4.6368	1.786618	0.000415	4.149754	0.702987	0.008296
 466	2.3250e-01	4.6466	1.843065	0.000565	5.647088	0.956643	0.011289
 467	2.3300e-01	4.6591	1.883689	0.000406	4.064192	0.688493	0.008125
 468	2.3350e-01	4.6674	1.929018	0.000453	4.534783	0.768213	0.009066
 469	2.3400e-01	4.6774	1.951254	0.000222	2.224610	0.376859	0.004447
 470	2.3450e-01	4.6852	1.999576	0.000483	4.834249	0.818944	0.009664
 471	2.3500e-01	4.6948	2.033786	0.000342	3.422477	0.579783	0.006842
 472	2.3550e-01	4.7058	2.072272	0.000385	3.850287	0.652256	0.007697
 473	2.3600e-01	4.7174	2.112469	0.000402	4.021411	0.681245	0.008039
 474	2.3650e-01	4.7278	2.165922	0.000535	5.347621	0.905912	0.010691
 475	2.3700e-01	4.7369	2.202698	0.000368	3.679163	0.623267	0.007355
 476	2.3750e-01	4.7462	2.245460	0.000428	4.278097	0.724729	0.008553
 477	2.3800e-01	4.7592	2.287795	0.000424	4.235316	0.717482	0.008467
 478	2.3850e-01	4.7693	2.326709	0.000389	3.893068	0.659504	0.007783
 479	2.3900e-01	4.7762	2.359636	0.000329	3.294135	0.558042	0.006585
 480	2.3950e-01	4.7871	2.392563	0.000329	3.294135	0.558042	0.006585
 481	2.4000e-01	4.7983	2.445589	0.000530	5.304840	0.898664	0.010605
 482	2.4050e-01	4.8077	2.488351	0.000428	4.278097	0.724729	0.008553
 483	2.4100e-01	4.8169	2.531969	0.000436	4.363659	0.739224	0.008724
 484	2.4150e-01	4.8267	2.566607	0.000347	3.465258	0.587031	0.006928
 485	2.4200e-01	4.8346	2.602527	0.000359	3.593601	0.608773	0.007184
 486	2.4250e-01	4.8471	2.648283	0.000458	4.577564	0.775460	0.009151
 487	2.4300e-01	4.8576	2.690618	0.000424	4.235316	0.717482	0.008467
 488	2.4350e-01	4.8685	2.720552	0.000299	2.994668	0.507310	0.005987
 489	2.4400e-01	4.8773	2.756045	0.000355	3.550820	0.601525	0.007099
 490	2.4450e-01	4.8874	2.809498	0.000535	5.347621	0.905912	0.010691
 491	2.4500e-01	4.8956	2.823610	0.000141	1.411772	0.239161	0.002822
 492	2.4550e-01	4.9078	2.868510	0.000449	4.492002	0.760966	0.008980
 493	2.4600e-01	4.9170	2.916832	0.000483	4.834249	0.818944	0.009664
 494	2.4650e-01	4.9283	2.953608	0.000368	3.679163	0.623267	0.007355
 495	2.4700e-01	4.9382	3.013048	0.000595	5.946555	1.007374	0.011888
 496	2.4750e-01	4.9458	3.039988	0.000270	2.695201	0.456579	0.005388
 497	2.4800e-01	4.9597	3.082323	0.000424	4.235316	0.717482	0.008467
 498	2.4850e-01	4.9649	3.110974	0.000287	2.866325	0.485569	0.005730
 499	2.4900e-01	4.9792	3.163572	0.000526	5.262059	0.891417	0.010520
 500	2.4950e-01	4.9902	3.199065	0.000355	3.550820	0.601525	0.007099
 501	2.5000e-01	4.9951	3.221301	0.000222	2.224610	0.376859	0.004447
 502	2.5050e-01	5.0096	3.281596	0.000603	6.032117	1.021868	0.012059
 503	2.5100e-01	5.0146	3.310247	0.000287	2.866325	0.485569	0.005730
 504	2.5150e-01	5.0256	3.371825	0.000616	6.160459	1.043610	0.012316
 505	2.5200e-01	5.0372	3.389786	0.000180	1.796801	0.304386	0.003592
 506	2.5250e-01	5.0491	3.427417	0.000376	3.764725	0.637762	0.007526
 507	2.5300e-01	5.0568	3.458633	0.000312	3.123011	0.529052	0.006243
 508	2.5350e-01	5.0653	3.533895	0.000753	7.529450	1.275523	0.015052
 509	2.5400e-01	5.0751	3.543303	0.000094	0.941181	0.159440	0.001882
 510	2.5450e-01	5.0851	3.601888	0.000586	5.860993	0.992879	0.011717
 511	2.5500e-01	5.0977	3.629256	0.000274	2.737982	0.463827	0.005474
 512	2.5550e-01	5.1088	3.682709	0.000535	5.347621	0.905912	0.010691
 513	2.5600e-01	5.1160	3.707939	0.000252	2.524077	0.427590	0.005046
 514	2.5650e-01	5.1282	3.766523	0.000586	5.860993	0.992879	0.011717
 515	2.5700e-01	5.1382	3.787049	0.000205	2.053486	0.347870	0.004105
 516	2.5750e-01	5.1465	3.819977	0.000329	3.294135	0.558042	0.006585
 517	2.5800e-01	5.1559	3.864877	0.000449	4.492002	0.760966	0.008980
 518	2.5850e-01	5.1660	3.890535	0.000257	2.566858	0.434838	0.005132
 519	2.5900e-01	5.1770	3.944416	0.000539	5.390402	0.913159	0.010776
 520	2.5950e-01	5.1859	4.006849	0.000625	6.246021	1.058105	0.012487
 521	2.6000e-01	5.1962	4.012408	0.000056	0.556153	0.094215	0.001112
 522	2.6050e-01	5.2087	4.063723	0.000513	5.133716	0.869675	0.010263
 523	2.6100e-01	5.2188	4.094512	0.000308	3.080230	0.521805	0.006158
 524	2.6150e-01	5.2284	4.141978	0.000475	4.748688	0.804449	0.009493
 525	2.6200e-01	5.2365	4.186451	0.000445	4.449221	0.753718	0.008895
 526	2.6250e-01	5.2460	4.217240	0.000308	3.080230	0.521805	0.006158
 527	2.6300e-01	5.2576	4.273687	0.000565	5.647088	0.956643	0.011289
 528	2.6350e-01	5.2679	4.298489	0.000248	2.481296	0.420343	0.004960
 529	2.6400e-01	5.2783	4.327140	0.000287	2.866325	0.485569	0.005730
 530	2.6450e-01	5.2887	4.361778	0.000347	3.465258	0.587031	0.006928
 531	2.6500e-01	5.2975	4.404968	0.000432	4.320878	0.731977	0.008638
 532	2.6550e-01	5.3070	4.445165	0.000402	4.021411	0.681245	0.008039
 533	2.6600e-01	5.3169	4.503749	0.000586	5.860993	0.992879	0.011717
 534	2.6650e-01	5.3278	4.501611	-0.000021	-0.213905	-0.036236	-0.000428
 535	2.6700e-01	5.3369	4.575163	0.000736	7.358327	1.246534	0.014710
 536	2.6750e-01	5.3467	4.599110	0.000240	2.395734	0.405848	0.004789
 537	2.6800e-01	5.3592	4.654701	0.000556	5.561526	0.942148	0.011118
 538	2.6850e-01	5.3656	4.685918	0.000312	3.123011	0.529052	0.006243
 539	2.6900e-01	5.3766	4.712431	0.000265	2.652420	0.449332	0.005303
 540	2.6950e-01	5.3876	4.757331	0.000449	4.492002	0.760966	0.008980
 541	2.7000e-01	5.3951	4.783844	0.000265	2.652420	0.449332	0.005303
 542	2.7050e-01	5.4080	4.831310	0.000475	4.748688	0.804449	0.009493
 543	2.7100e-01	5.4169	4.865093	0.000338	3.379697	0.572536	0.006756
 544	2.7150e-01	5.4266	4.887757	0.000227	2.267391	0.384106	0.004533
 545	2.7200e-01	5.4388	4.957887	0.000702	7.016079	1.188556	0.014026
 546	2.7250e-01	5.4480	4.989959	0.000321	3.208573	0.543547	0.006414
 547	2.7300e-01	5.4562	5.020748	0.000308	3.080230	0.521805	0.006158
 548	2.7350e-01	5.4663	5.075484	0.000548	5.475964	0.927653	0.010947
 549	2.7400e-01	5.4800	5.122951	0.000475	4.748688	0.804449	0.009493
 550	2.7450e-01	5.4836	5.138345	0.000154	1.540115	0.260903	0.003079
 551	2.7500e-01	5.4980	5.170417	0.000321	3.208573	0.543547	0.006414
 552	2.7550e-01	5.5090	5.211897	0.000415	4.149754	0.702987	0.008296
 553	2.7600e-01	5.5170	5.253376	0.000415	4.149754	0.702987	0.008296
 554	2.7650e-01	5.5264	5.302553	0.000492	4.919811	0.833439	0.009835
 555	2.7700e-01	5.5365	5.337191	0.000347	3.465258	0.587031	0.006928
 556	2.7750e-01	5.5438	5.362849	0.000257	2.566858	0.434838	0.005132
 557	2.7800e-01	5.5573	5.415446	0.000526	5.262059	0.891417	0.010520
 558	2.7850e-01	5.5685	5.438111	0.000227	2.267391	0.384106	0.004533
 559	2.7900e-01	5.5777	5.487715	0.000496	4.962592	0.840686	0.009921
 560	2.7950e-01	5.5869	5.506958	0.000193	1.925144	0.326128	0.003849
 561	2.8000e-01	5.5957	5.576234	0.000693	6.930517	1.174061	0.013855
 562	2.8050e-01	5.6081	5.601036	0.000248	2.481296	0.420343	0.004960
 563	2.8100e-01	5.6165	5.640377	0.000394	3.935849	0.666751	0.007868
 564	2.8150e-01	5.6253	5.667318	0.000270	2.695201	0.456579	0.005388
 565	2.8200e-01	5.6367	5.707942	0.000406	4.064192	0.688493	0.008125
 566	2.8250e-01	5.6433	5.750705	0.000428	4.278097	0.724729	0.008553
 567	2.8300e-01	5.6583	5.782349	0.000317	3.165792	0.536300	0.006329
 568	2.8350e-01	5.6662	5.831098	0.000488	4.877030	0.826191	0.009750
 569	2.8400e-01	5.6769	5.868729	0.000376	3.764725	0.637762	0.007526
 570	2.8450e-01	5.6868	5.896097	0.000274	2.737982	0.463827	0.005474
 571	2.8500e-01	5.6976	5.952116	0.000560	5.604307	0.949395	0.011204
 572	2.8550e-01	5.7075	5.976491	0.000244	2.438515	0.413096	0.004875
 573	2.8600e-01	5.7172	5.999583	0.000231	2.310172	0.391354	0.004618
 574	2.8650e-01	5.7257	6.055602	0.000560	5.604307	0.949395	0.011204
 575	2.8700e-01	5.7364	6.096654	0.000411	4.106973	0.695740	0.008210
 576	2.8750e-01	5.7458	6.128298	0.000317	3.165792	0.536300	0.006329
 577	2.8800e-01	5.7556	6.149251	0.000210	2.096267	0.355117	0.004191
 578	2.8850e-01	5.7660	6.181751	0.000325	3.251354	0.550794	0.006500
 579	2.8900e-01	5.7751	6.233066	0.000513	5.133716	0.869675	0.010263
 580	2.8950e-01	5.7874	6.297210	0.000642	6.417145	1.087094	0.012829
 581	2.9000e-01	5.7983	6.298493	0.000013	0.128343	0.021742	0.000257
 582	2.9050e-01	5.8081	6.359643	0.000612	6.117679	1.036363	0.012230
 583	2.9100e-01	5.8154	6.366485	0.000068	0.684495	0.115957	0.001368
 584	2.9150e-01	5.8270	6.390004	0.000235	2.352953	0.398601	0.004704
 585	2.9200e-01	5.8368	6.465694	0.000757	7.572231	1.282771	0.015138
 586	2.9250e-01	5.8478	6.518720	0.000530	5.304840	0.898664	0.010605
 587	2.9300e-01	5.8545	6.565331	0.000466	4.663126	0.789955	0.009322
 588	2.9350e-01	5.8655	6.576877	0.000116	1.155086	0.195677	0.002309
 589	2.9400e-01	5.8740	6.607238	0.000304	3.037449	0.514558	0.006072
 590	2.9450e-01	5.8858	6.659836	0.000526	5.262059	0.891417	0.010520
 591	2.9500e-01	5.8954	6.682500	0.000227	2.267391	0.384106	0.004533
 592	2.9550e-01	5.9070	6.722269	0.000398	3.978630	0.673998	0.007954
 593	2.9600e-01	5.9155	6.767598	0.000453	4.534783	0.768213	0.009066
 594	2.9650e-01	5.9253	6.794966	0.000274	2.737982	0.463827	0.005474
 595	2.9700e-01	5.9399	6.821051	0.000261	2.609639	0.442085	0.005217
 596	2.9750e-01	5.9456	6.882201	0.000612	6.117679	1.036363	0.012230
 597	2.9800e-01	5.9576	6.902300	0.000201	2.010706	0.340623	0.004020
 598	2.9850e-01	5.9680	6.938648	0.000364	3.636382	0.616020	0.007270
 599	2.9900e-01	5.9767	6.980555	0.000419	4.192535	0.710235	0.008381
 600	2.9950e-01	5.9869	7.018614	0.000381	3.807506	0.645009	0.007612
 601	3.0000e-01	5.9973	7.044271	0.000257	2.566858	0.434838	0.005132
 602	3.0050e-01	6.0068	7.109698	0.000655	6.545488	1.108836	0.013085
 603	3.0100e-01	6.0168	7.135355	0.000257	2.566858	0.434838	0.005132
 604	3.0150e-01	6.0272	7.181111	0.000458	4.577564	0.775460	0.009151
 605	3.0200e-01	6.0388	7.180256	-0.000009	-0.085562	-0.014495	-0.000171
 606	3.0250e-01	6.0461	7.240124	0.000599	5.989336	1.014621	0.011974
 607	3.0300e-01	6.0562	7.273906	0.000338	3.379697	0.572536	0.006756
 608	3.0350e-01	6.0660	7.305123	0.000312	3.123011	0.529052	0.006243
 609	3.0400e-01	6.0779	7.336339	0.000312	3.123011	0.529052	0.006243
 610	3.0450e-01	6.0870	7.397490	0.000612	6.117679	1.036363	0.012230
 611	3.0500e-01	6.0968	7.410318	0.000128	1.283429	0.217419	0.002566
 612	3.0550e-01	6.1079	7.451798	0.000415	4.149754	0.702987	0.008296
 613	3.0600e-01	6.1194	7.489429	0.000376	3.764725	0.637762	0.007526
 614	3.0650e-01	6.1274	7.537751	0.000483	4.834249	0.818944	0.009664
 615	3.0700e-01	6.1371	7.562125	0.000244	2.438515	0.413096	0.004875
 616	3.0750e-01	6.1472	7.601467	0.000394	3.935849	0.666751	0.007868
 617	3.0800e-01	6.1566	7.660052	0.000586	5.860993	0.992879	0.011717
 618	3.0850e-01	6.1679	7.681433	0.000214	2.139048	0.362365	0.004276
 619	3.0900e-01	6.1743	7.717353	0.000359	3.593601	0.608773	0.007184
 620	3.0950e-01	6.1856	7.742156	0.000248	2.481296	0.420343	0.004960
 621	3.1000e-01	6.1993	7.801168	0.000590	5.903774	1.000126	0.011802
 622	3.1050e-01	6.2073	7.813997	0.000128	1.283429	0.217419	0.002566
 623	3.1100e-01	6.2164	7.860608	0.000466	4.663126	0.789955	0.009322
 624	3.1150e-01	6.2268	7.900377	0.000398	3.978630	0.673998	0.007954
 625	3.1200e-01	6.2347	7.940574	0.000402	4.021411	0.681245	0.008039
 626	3.1250e-01	6.2482	7.977777	0.000372	3.721944	0.630514	0.007441
 627	3.1300e-01	6.2582	8.011987	0.000342	3.422477	0.579783	0.006842
 628	3.1350e-01	6.2683	8.055605	0.000436	4.363659	0.739224	0.008724
 629	3.1400e-01	6.2750	8.081262	0.000257	2.566858	0.434838	0.005132
 630	3.1450e-01	6.2860	8.112479	0.000312	3.123011	0.529052	0.006243
 631	3.1500e-01	6.2964	8.169353	0.000569	5.689869	0.963890	0.011375
 632	3.1550e-01	6.3112	8.168926	-0.000004	-0.042781	-0.007247	-0.000086
 633	3.1600e-01	6.3159	8.221096	0.000522	5.219278	0.884170	0.010434
 634	3.1650e-01	6.3269	8.271128	0.000501	5.005373	0.847933	0.010006
 635	3.1700e-01	6.3342	8.292509	0.000214	2.139048	0.362365	0.004276
 636	3.1750e-01	6.3459	8.329713	0.000372	3.721944	0.630514	0.007441
 637	3.1800e-01	6.3544	8.353232	0.000235	2.352953	0.398601	0.004704
 638	3.1850e-01	6.3660	8.392146	0.000389	3.893068	0.659504	0.007783
 639	3.1900e-01	6.3770	8.439612	0.000475	4.748688	0.804449	0.009493
 640	3.1950e-01	6.3870	8.479382	0.000398	3.978630	0.673998	0.007954
 641	3.2000e-01	6.3992	8.508888	0.000295	2.951887	0.500063	0.005901
 642	3.2050e-01	6.4075	8.536683	0.000278	2.780763	0.471074	0.005559
 643	3.2100e-01	6.4166	8.577735	0.000411	4.106973	0.695740	0.008210
 644	3.2150e-01	6.4282	8.616649	0.000389	3.893068	0.659504	0.007783
 645	3.2200e-01	6.4362	8.643590	0.000270	2.695201	0.456579	0.005388
 646	3.2250e-01	6.4453	8.685925	0.000424	4.235316	0.717482	0.008467
 647	3.2300e-01	6.4578	8.720135	0.000342	3.422477	0.579783	0.006842
 648	3.2350e-01	6.4679	8.772305	0.000522	5.219278	0.884170	0.010434
 649	3.2400e-01	6.4764	8.801383	0.000291	2.909106	0.492816	0.005816
 650	3.2450e-01	6.4868	8.833028	0.000317	3.165792	0.536300	0.006329
 651	3.2500e-01	6.4966	8.875790	0.000428	4.278097	0.724729	0.008553
 652	3.2550e-01	6.5047	8.901448	0.000257	2.566858	0.434838	0.005132
 653	3.2600e-01	6.5164	8.933092	0.000317	3.165792	0.536300	0.006329
 654	3.2650e-01	6.5253	8.972434	0.000394	3.935849	0.666751	0.007868
 655	3.2700e-01	6.5369	9.003223	0.000308	3.080230	0.521805	0.006158
 656	3.2750e-01	6.5497	9.052399	0.000492	4.919811	0.833439	0.009835
 657	3.2800e-01	6.5602	9.084044	0.000317	3.165792	0.536300	0.006329
 658	3.2850e-01	6.5686	9.131938	0.000479	4.791468	0.811697	0.009579
 659	3.2900e-01	6.5744	9.155457	0.000235	2.352953	0.398601	0.004704
 660	3.2950e-01	6.5842	9.201213	0.000458	4.577564	0.775460	0.009151
 661	3.3000e-01	6.5985	9.214042	0.000128	1.283429	0.217419	0.002566
 662	3.3050e-01	6.6077	9.264929	0.000509	5.090935	0.862428	0.010177
 663	3.3100e-01	6.6183	9.289731	0.000248	2.481296	0.420343	0.004960
 664	3.3150e-01	6.6284	9.321803	0.000321	3.208573	0.543547	0.006414
 665	3.3200e-01	6.6388	9.372691	0.000509	5.090935	0.862428	0.010177
 666	3.3250e-01	6.6475	9.395355	0.000227	2.267391	0.384106	0.004533
 667	3.3300e-01	6.6534	9.425289	0.000299	2.994668	0.507310	0.005987
 668	3.3350e-01	6.6669	9.482163	0.000569	5.689869	0.963890	0.011375
 669	3.3400e-01	6.6772	9.491998	0.000098	0.983962	0.166688	0.001967
 670	3.3450e-01	6.6876	9.514235	0.000222	2.224610	0.376859	0.004447
 671	3.3500e-01	6.6974	9.584793	0.000706	7.058860	1.195803	0.014112
 672	3.3550e-01	6.7072	9.613016	0.000282	2.823544	0.478321	0.005645
 673	3.3600e-01	6.7194	9.660910	0.000479	4.791468	0.811697	0.009579
 674	3.3650e-01	6.7255	9.652785	-0.000081	-0.812838	-0.137699	-0.001625
 675	3.3700e-01	6.7365	9.703673	0.000509	5.090935	0.862428	0.010177
 676	3.3750e-01	6.7474	9.731896	0.000282	2.823544	0.478321	0.005645
 677	3.3800e-01	6.7566	9.779362	0.000475	4.748688	0.804449	0.009493
 678	3.3850e-01	6.7694	9.825974	0.000466	4.663126	0.789955	0.009322
 679	3.3900e-01	6.7767	9.874295	0.000483	4.834249	0.818944	0.009664
 680	3.3950e-01	6.7877	9.917058	0.000428	4.278097	0.724729	0.008553
 681	3.4000e-01	6.8005	9.932025	0.000150	1.497334	0.253655	0.002993
 682	3.4050e-01	6.8066	9.957255	0.000252	2.524077	0.427590	0.005046
 683	3.4100e-01	6.8167	10.008142	0.000509	5.090935	0.862428	0.010177
 684	3.4150e-01	6.8271	10.038076	0.000299	2.994668	0.507310	0.005987
 685	3.4200e-01	6.8341	10.056891	0.000188	1.882363	0.318881	0.003763
 686	3.4250e-01	6.8454	10.094950	0.000381	3.807506	0.645009	0.007612
 687	3.4300e-01	6.8579	10.130443	0.000355	3.550820	0.601525	0.007099
 688	3.4350e-01	6.8677	10.178764	0.000483	4.834249	0.818944	0.009664
 689	3.4400e-01	6.8774	10.217251	0.000385	3.850287	0.652256	0.007697
 690	3.4450e-01	6.8843	10.234356	0.000171	1.711239	0.289892	0.003421
 691	3.4500e-01	6.8988	10.270704	0.000364	3.636382	0.616020	0.007270
 692	3.4550e-01	6.9099	10.303203	0.000325	3.251354	0.550794	0.006500
 693	3.4600e-01	6.9171	10.365209	0.000620	6.203240	1.050857	0.012401
 694	3.4650e-01	6.9287	10.372906	0.000077	0.770057	0.130451	0.001539
 695	3.4700e-01	6.9379	10.424221	0.000513	5.133716	0.869675	0.010263
 696	3.4750e-01	6.9470	10.452872	0.000287	2.866325	0.485569	0.005730
 697	3.4800e-01	6.9543	10.471688	0.000188	1.882363	0.318881	0.003763
 698	3.4850e-01	6.9626	10.511029	0.000394	3.935849	0.666751	0.007868
 699	3.4900e-01	6.9763	10.538825	0.000278	2.780763	0.471074	0.005559
 700	3.4950e-01	6.9864	10.593561	0.000548	5.475964	0.927653	0.010947
 701	3.5000e-01	6.9989	10.617936	0.000244	2.438515	0.413096	0.004875
 702	3.5050e-01	7.0087	10.660270	0.000424	4.235316	0.717482	0.008467
 703	3.5100e-01	7.0178	10.697901	0.000376	3.764725	0.637762	0.007526
 704	3.5150e-01	7.0258	10.737243	0.000394	3.935849	0.666751	0.007868
 705	3.5200e-01	7.0380	10.771881	0.000347	3.465258	0.587031	0.006928
 706	3.5250e-01	7.0477	10.798393	0.000265	2.652420	0.449332	0.005303
 707	3.5300e-01	7.0544	10.835169	0.000368	3.679163	0.623267	0.007355
 708	3.5350e-01	7.0676	10.855695	0.000205	2.053486	0.347870	0.004105
 709	3.5400e-01	7.0795	10.872373	0.000167	1.668458	0.282644	0.003335
 710	3.5450e-01	7.0889	10.931385	0.000590	5.903774	1.000126	0.011802
 711	3.5500e-01	7.1017	10.956615	0.000252	2.524077	0.427590	0.005046
 712	3.5550e-01	7.1069	10.998094	0.000415	4.149754	0.702987	0.008296
 713	3.5600e-01	7.1173	11.025035	0.000270	2.695201	0.456579	0.005388
 714	3.5650e-01	7.1313	11.056679	0.000317	3.165792	0.536300	0.006329
 715	3.5700e-01	7.1399	11.127237	0.000706	7.058860	1.195803	0.014112
 716	3.5750e-01	7.1454	11.131086	0.000039	0.385029	0.065226	0.000770
 717	3.5800e-01	7.1570	11.176842	0.000458	4.577564	0.775460	0.009151
 718	3.5850e-01	7.1680	11.200361	0.000235	2.352953	0.398601	0.004704
 719	3.5900e-01	7.1777	11.229012	0.000287	2.866325	0.485569	0.005730
 720	3.5950e-01	7.1875	11.263650	0.000347	3.465258	0.587031	0.006928
 721	3.6000e-01	7.1979	11.289307	0.000257	2.566858	0.434838	0.005132
 722	3.6050e-01	7.2070	11.348320	0.000590	5.903774	1.000126	0.011802
 723	3.6100e-01	7.2168	11.377398	0.000291	2.909106	0.492816	0.005816
 724	3.6150e-01	7.2263	11.409470	0.000321	3.208573	0.543547	0.006414
 725	3.6200e-01	7.2369	11.438121	0.000287	2.866325	0.485569	0.005730
 726	3.6250e-01	7.2473	11.474041	0.000359	3.593601	0.608773	0.007184
 727	3.6300e-01	7.2559	11.500554	0.000265	2.652420	0.449332	0.005303
 728	3.6350e-01	7.2644	11.535619	0.000351	3.508039	0.594278	0.007013
 729	3.6400e-01	7.2742	11.588217	0.000526	5.262059	0.891417	0.010520
 730	3.6450e-01	7.2853	11.618579	0.000304	3.037449	0.514558	0.006072
 731	3.6500e-01	7.2961	11.622000	0.000034	0.342248	0.057978	0.000684
 732	3.6550e-01	7.3083	11.675025	0.000530	5.304840	0.898664	0.010605
 733	3.6600e-01	7.3157	11.718643	0.000436	4.363659	0.739224	0.008724
 734	3.6650e-01	7.3254	11.741307	0.000227	2.267391	0.384106	0.004533
 735	3.6700e-01	7.3376	11.767820	0.000265	2.652420	0.449332	0.005303
 736	3.6750e-01	7.3456	11.804168	0.000364	3.636382	0.616020	0.007270
 737	3.6800e-01	7.3547	11.842227	0.000381	3.807506	0.645009	0.007612
 738	3.6850e-01	7.3676	11.873016	0.000308	3.080230	0.521805	0.006158
 739	3.6900e-01	7.3763	11.913213	0.000402	4.021411	0.681245	0.008039
 740	3.6950e-01	7.3883	11.966238	0.000530	5.304840	0.898664	0.010605
 741	3.7000e-01	7.3975	11.990185	0.000240	2.395734	0.405848	0.004789
 742	3.7050e-01	7.4054	12.022685	0.000325	3.251354	0.550794	0.006500
 743	3.7100e-01	7.4158	12.062454	0.000398	3.978630	0.673998	0.007954
 744	3.7150e-01	7.4249	12.075710	0.000133	1.326210	0.224666	0.002651
 745	3.7200e-01	7.4356	12.139426	0.000637	6.374364	1.079847	0.012743
 746	3.7250e-01	7.4475	12.154393	0.000150	1.497334	0.253655	0.002993
 747	3.7300e-01	7.4597	12.176202	0.000218	2.181829	0.369612	0.004362
 748	3.7350e-01	7.4664	12.222813	0.000466	4.663126	0.789955	0.009322
 749	3.7400e-01	7.4774	12.254885	0.000321	3.208573	0.543547	0.006414
 750	3.7450e-01	7.4846	12.298931	0.000441	4.406440	0.746471	0.008809
 751	3.7500e-01	7.4982	12.323305	0.000244	2.438515	0.413096	0.004875
 752	3.7550e-01	7.5067	12.335706	0.000124	1.240648	0.210171	0.002480
 753	3.7600e-01	7.5198	12.379324	0.000436	4.363659	0.739224	0.008724
 754	3.7650e-01	7.5296	12.413962	0.000347	3.465258	0.587031	0.006928
 755	3.7700e-01	7.5385	12.458435	0.000445	4.449221	0.753718	0.008895
 756	3.7750e-01	7.5494	12.475540	0.000171	1.711239	0.289892	0.003421
 757	3.7800e-01	7.5580	12.514026	0.000385	3.850287	0.652256	0.007697
 758	3.7850e-01	7.5690	12.519585	0.000056	0.556153	0.094215	0.001112
 759	3.7900e-01	7.5769	12.598268	0.000787	7.871698	1.333502	0.015737
 760	3.7950e-01	7.5876	12.615373	0.000171	1.711239	0.289892	0.003421
 761	3.8000e-01	7.6007	12.648300	0.000329	3.294135	0.558042	0.006585
 762	3.8050e-01	7.6044	12.669682	0.000214	2.139048	0.362365	0.004276
 763	3.8100e-01	7.6175	12.716293	0.000466	4.663126	0.789955	0.009322
 764	3.8150e-01	7.6257	12.760766	0.000445	4.449221	0.753718	0.008895
 765	3.8200e-01	7.6379	12.791127	0.000304	3.037449	0.514558	0.006072
 766	3.8250e-01	7.6489	12.838594	0.000475	4.748688	0.804449	0.009493
 767	3.8300e-01	7.6599	12.847574	0.000090	0.898400	0.152193	0.001796
 768	3.8350e-01	7.6666	12.891192	0.000436	4.363659	0.739224	0.008724
 769	3.8400e-01	7.6788	12.919842	0.000287	2.866325	0.485569	0.005730
 770	3.8450e-01	7.6862	12.969019	0.000492	4.919811	0.833439	0.009835
 771	3.8500e-01	7.6941	12.983986	0.000150	1.497334	0.253655	0.002993
 772	3.8550e-01	7.7069	13.020334	0.000364	3.636382	0.616020	0.007270
 773	3.8600e-01	7.7155	13.043426	0.000231	2.310172	0.391354	0.004618
 774	3.8650e-01	7.7261	13.089182	0.000458	4.577564	0.775460	0.009151
 775	3.8700e-01	7.7362	13.114412	0.000252	2.524077	0.427590	0.005046
 776	3.8750e-01	7.7454	13.151188	0.000368	3.679163	0.623267	0.007355
 777	3.8800e-01	7.7545	13.201647	0.000505	5.048154	0.855180	0.010092
 778	3.8850e-01	7.7673	13.201220	-0.000004	-0.042781	-0.007247	-0.000086
 779	3.8900e-01	7.7771	13.252963	0.000518	5.176497	0.876922	0.010349
 780	3.8950e-01	7.7863	13.296153	0.000432	4.320878	0.731977	0.008638
 781	3.9000e-01	7.7979	13.328225	0.000321	3.208573	0.543547	0.006414
 782	3.9050e-01	7.8094	13.346612	0.000184	1.839582	0.311634	0.003678
 783	3.9100e-01	7.8192	13.390658	0.000441	4.406440	0.746471	0.008809
 784	3.9150e-01	7.8265	13.416315	0.000257	2.566858	0.434838	0.005132
 785	3.9200e-01	7.8354	13.432993	0.000167	1.668458	0.282644	0.003335
 786	3.9250e-01	7.8491	13.471907	0.000389	3.893068	0.659504	0.007783
 787	3.9300e-01	7.8580	13.520228	0.000483	4.834249	0.818944	0.009664
 788	3.9350e-01	7.8638	13.551017	0.000308	3.080230	0.521805	0.006158
 789	3.9400e-01	7.8772	13.564274	0.000133	1.326210	0.224666	0.002651
 790	3.9450e-01	7.8867	13.620720	0.000565	5.647088	0.956643	0.011289
 791	3.9500e-01	7.8973	13.658351	0.000376	3.764725	0.637762	0.007526
 792	3.9550e-01	7.9099	13.678022	0.000197	1.967925	0.333375	0.003934
 793	3.9600e-01	7.9193	13.723350	0.000453	4.534783	0.768213	0.009066
 794	3.9650e-01	7.9254	13.749863	0.000265	2.652420	0.449332	0.005303
 795	3.9700e-01	7.9367	13.776803	0.000270	2.695201	0.456579	0.005388
 796	3.9750e-01	7.9469	13.799468	0.000227	2.267391	0.384106	0.004533
 797	3.9800e-01	7.9565	13.839664	0.000402	4.021411	0.681245	0.008039
 798	3.9850e-01	7.9663	13.879434	0.000398	3.978630	0.673998	0.007954
 799	3.9900e-01	7.9791	13.920058	0.000406	4.064192	0.688493	0.008125
 800	3.9950e-01	7.9868	13.940584	0.000205	2.053486	0.347870	0.004105
 801	4.0000e-01	7.9974	13.970518	0.000299	2.994668	0.507310	0.005987
 802	4.0050e-01	8.0078	14.008576	0.000381	3.807506	0.645009	0.007612
 803	4.0100e-01	8.0145	14.047490	0.000389	3.893068	0.659504	0.007783
 804	4.0150e-01	8.0280	14.077852	0.000304	3.037449	0.514558	0.006072
 805	4.0200e-01	8.0365	14.112489	0.000347	3.465258	0.587031	0.006928
 806	4.0250e-01	8.0475	14.146272	0.000338	3.379697	0.572536	0.006756
 807	4.0300e-01	8.0566	14.167225	0.000210	2.096267	0.355117	0.004191
 808	4.0350e-01	8.0658	14.204001	0.000368	3.679163	0.623267	0.007355
 809	4.0400e-01	8.0801	14.234363	0.000304	3.037449	0.514558	0.006072
 810	4.0450e-01	8.0872	14.266862	0.000325	3.251354	0.550794	0.006500
 811	4.0500e-01	8.0963	14.284395	0.000175	1.754020	0.297139	0.003507
 812	4.0550e-01	8.1085	14.337848	0.000535	5.347621	0.905912	0.010691
 813	4.0600e-01	8.1152	14.347256	0.000094	0.941181	0.159440	0.001882
 814	4.0650e-01	8.1256	14.401136	0.000539	5.390402	0.913159	0.010776
 815	4.0700e-01	8.1375	14.427649	0.000265	2.652420	0.449332	0.005303
 816	4.0750e-01	8.1470	14.453307	0.000257	2.566858	0.434838	0.005132
 817	4.0800e-01	8.1561	14.505905	0.000526	5.262059	0.891417	0.010520
 818	4.0850e-01	8.1671	14.509753	0.000039	0.385029	0.065226	0.000770
 819	4.0900e-01	8.1763	14.543963	0.000342	3.422477	0.579783	0.006842
 820	4.0950e-01	8.1860	14.586298	0.000424	4.235316	0.717482	0.008467
 821	4.1000e-01	8.1976	14.616232	0.000299	2.994668	0.507310	0.005987
 822	4.1050e-01	8.2074	14.673106	0.000569	5.689869	0.963890	0.011375
 823	4.1100e-01	8.2172	14.671823	-0.000013	-0.128343	-0.021742	-0.000257
 824	4.1150e-01	8.2257	14.723138	0.000513	5.133716	0.869675	0.010263
 825	4.1200e-01	8.2385	14.757348	0.000342	3.422477	0.579783	0.006842
 826	4.1250e-01	8.2474	14.786854	0.000295	2.951887	0.500063	0.005901
 827	4.1300e-01	8.2544	14.813795	0.000270	2.695201	0.456579	0.005388
 828	4.1350e-01	8.2657	14.832183	0.000184	1.839582	0.311634	0.003678
 829	4.1400e-01	8.2764	14.870241	0.000381	3.807506	0.645009	0.007612
 830	4.1450e-01	8.2886	14.926260	0.000560	5.604307	0.949395	0.011204
 831	4.1500e-01	8.2959	14.947214	0.000210	2.096267	0.355117	0.004191
 832	4.1550e-01	8.3081	14.983134	0.000359	3.593601	0.608773	0.007184
 833	4.1600e-01	8.3154	15.025897	0.000428	4.278097	0.724729	0.008553
 834	4.1650e-01	8.3264	15.043002	0.000171	1.711239	0.289892	0.003421
 835	4.1700e-01	8.3374	15.079350	0.000364	3.636382	0.616020	0.007270
 836	4.1750e-01	8.3459	15.116981	0.000376	3.764725	0.637762	0.007526
 837	4.1800e-01	8.3594	15.127672	0.000107	1.069524	0.181182	0.002138
 838	4.1850e-01	8.3673	15.169151	0.000415	4.149754	0.702987	0.008296
 839	4.1900e-01	8.3783	15.220894	0.000518	5.176497	0.876922	0.010349
 840	4.1950e-01	8.3868	15.253394	0.000325	3.251354	0.550794	0.006500
 841	4.2000e-01	8.3957	15.282472	0.000291	2.909106	0.492816	0.005816
 842	4.2050e-01	8.4061	15.297011	0.000145	1.454553	0.246408	0.002908
 843	4.2100e-01	8.4167	15.323524	0.000265	2.652420	0.449332	0.005303
 844	4.2150e-01	8.4277	15.369280	0.000458	4.577564	0.775460	0.009151
 845	4.2200e-01	8.4369	15.400497	0.000312	3.123011	0.529052	0.006243
 846	4.2250e-01	8.4460	15.431286	0.000308	3.080230	0.521805	0.006158
 847	4.2300e-01	8.4598	15.459937	0.000287	2.866325	0.485569	0.005730
 848	4.2350e-01	8.4674	15.507831	0.000479	4.791468	0.811697	0.009579
 849	4.2400e-01	8.4778	15.530922	0.000231	2.310172	0.391354	0.004618
 850	4.2450e-01	8.4900	15.562139	0.000312	3.123011	0.529052	0.006243
 851	4.2500e-01	8.4979	15.609178	0.000471	4.705907	0.797202	0.009408
 852	4.2550e-01	8.5048	15.634408	0.000252	2.524077	0.427590	0.005046
 853	4.2600e-01	8.5168	15.660493	0.000261	2.609639	0.442085	0.005217
 854	4.2650e-01	8.5260	15.690427	0.000299	2.994668	0.507310	0.005987
 855	4.2700e-01	8.5364	15.717795	0.000274	2.737982	0.463827	0.005474
 856	4.2750e-01	8.5455	15.756708	0.000389	3.893068	0.659504	0.007783
 857	4.2800e-01	8.5590	15.769110	0.000124	1.240648	0.210171	0.002480
 858	4.2850e-01	8.5651	15.825556	0.000565	5.647088	0.956643	0.011289
 859	4.2900e-01	8.5764	15.849503	0.000240	2.395734	0.405848	0.004789
 860	4.2950e-01	8.5876	15.879865	0.000304	3.037449	0.514558	0.006072
 861	4.3000e-01	8.5968	15.910226	0.000304	3.037449	0.514558	0.006072
 862	4.3050e-01	8.6053	15.939732	0.000295	2.951887	0.500063	0.005901
 863	4.3100e-01	8.6163	15.973515	0.000338	3.379697	0.572536	0.006756
 864	4.3150e-01	8.6267	16.015849	0.000424	4.235316	0.717482	0.008467
 865	4.3200e-01	8.6383	16.047494	0.000317	3.165792	0.536300	0.006329
 866	4.3250e-01	8.6475	16.091539	0.000441	4.406440	0.746471	0.008809
 867	4.3300e-01	8.6584	16.100519	0.000090	0.898400	0.152193	0.001796
 868	4.3350e-01	8.6682	16.127887	0.000274	2.737982	0.463827	0.005474
 869	4.3400e-01	8.6774	16.170222	0.000424	4.235316	0.717482	0.008467
 870	4.3450e-01	8.6887	16.195452	0.000252	2.524077	0.427590	0.005046
 871	4.3500e-01	8.6975	16.242918	0.000475	4.748688	0.804449	0.009493
 872	4.3550e-01	8.7079	16.274563	0.000317	3.165792	0.536300	0.006329
 873	4.3600e-01	8.7186	16.314759	0.000402	4.021411	0.681245	0.008039
 874	4.3650e-01	8.7305	16.327588	0.000128	1.283429	0.217419	0.002566
 875	4.3700e-01	8.7347	16.369496	0.000419	4.192535	0.710235	0.008381
 876	4.3750e-01	8.7457	16.392160	0.000227	2.267391	0.384106	0.004533
 877	4.3800e-01	8.7573	16.412686	0.000205	2.053486	0.347870	0.004105
 878	4.3850e-01	8.7680	16.470843	0.000582	5.818212	0.985632	0.011631
 879	4.3900e-01	8.7775	16.497355	0.000265	2.652420	0.449332	0.005303
 880	4.3950e-01	8.7891	16.532848	0.000355	3.550820	0.601525	0.007099
 881	4.4000e-01	8.7970	16.563637	0.000308	3.080230	0.521805	0.006158
 882	4.4050e-01	8.8123	16.605117	0.000415	4.149754	0.702987	0.008296
 883	4.4100e-01	8.8184	16.620939	0.000158	1.582896	0.268150	0.003164
 884	4.4150e-01	8.8257	16.646597	0.000257	2.566858	0.434838	0.005132
 885	4.4200e-01	8.8367	16.678241	0.000317	3.165792	0.536300	0.006329
 886	4.4250e-01	8.8489	16.714161	0.000359	3.593601	0.608773	0.007184
 887	4.4300e-01	8.8547	16.746661	0.000325	3.251354	0.550794	0.006500
 888	4.4350e-01	8.8654	16.783009	0.000364	3.636382	0.616020	0.007270
 889	4.4400e-01	8.8776	16.814653	0.000317	3.165792	0.536300	0.006329
 890	4.4450e-01	8.8873	16.842449	0.000278	2.780763	0.471074	0.005559
 891	4.4500e-01	8.8965	16.878797	0.000364	3.636382	0.616020	0.007270
 892	4.4550e-01	8.9066	16.894619	0.000158	1.582896	0.268150	0.003164
 893	4.4600e-01	8.9166	16.942941	0.000483	4.834249	0.818944	0.009664
 894	4.4650e-01	8.9249	16.969454	0.000265	2.652420	0.449332	0.005303
 895	4.4700e-01	8.9359	17.026328	0.000569	5.689869	0.963890	0.011375
 896	4.4750e-01	8.9465	17.037446	0.000111	1.112305	0.188430	0.002224
 897	4.4800e-01	8.9563	17.059683	0.000222	2.224610	0.376859	0.004447
 898	4.4850e-01	8.9661	17.105866	0.000462	4.620345	0.782708	0.009237
 899	4.4900e-01	8.9777	17.139221	0.000334	3.336916	0.565289	0.006671
 900	4.4950e-01	8.9862	17.167444	0.000282	2.823544	0.478321	0.005645
 901	4.5000e-01	8.9984	17.175142	0.000077	0.770057	0.130451	0.001539
 902	4.5050e-01	9.0076	17.235009	0.000599	5.989336	1.014621	0.011974
 903	4.5100e-01	9.0161	17.272640	0.000376	3.764725	0.637762	0.007526
 904	4.5150e-01	9.0277	17.288035	0.000154	1.540115	0.260903	0.003079
 905	4.5200e-01	9.0350	17.343198	0.000552	5.518745	0.934901	0.011033
 906	4.5250e-01	9.0454	17.359448	0.000163	1.625677	0.275397	0.003250
 907	4.5300e-01	9.0576	17.393230	0.000338	3.379697	0.572536	0.006756
 908	4.5350e-01	9.0686	17.417177	0.000240	2.395734	0.405848	0.004789
 909	4.5400e-01	9.0771	17.443263	0.000261	2.609639	0.442085	0.005217
 910	4.5450e-01	9.0863	17.471913	0.000287	2.866325	0.485569	0.005730
 911	4.5500e-01	9.0973	17.506551	0.000347	3.465258	0.587031	0.006928
 912	4.5550e-01	9.1058	17.554018	0.000475	4.748688	0.804449	0.009493
 913	4.5600e-01	9.1168	17.565563	0.000116	1.155086	0.195677	0.002309
 914	4.5650e-01	9.1266	17.610892	0.000453	4.534783	0.768213	0.009066
 915	4.5700e-01	9.1364	17.631845	0.000210	2.096267	0.355117	0.004191
 916	4.5750e-01	9.1467	17.661351	0.000295	2.951887	0.500063	0.005901
 917	4.5800e-01	9.1553	17.700265	0.000389	3.893068	0.659504	0.007783
 918	4.5850e-01	9.1675	17.715232	0.000150	1.497334	0.253655	0.002993
 919	4.5900e-01	9.1754	17.761416	0.000462	4.620345	0.782708	0.009237
 920	4.5950e-01	9.1864	17.802895	0.000415	4.149754	0.702987	0.008296
 921	4.6000e-01	9.1968	17.836250	0.000334	3.336916	0.565289	0.006671
 922	4.6050e-01	9.2090	17.873454	0.000372	3.721944	0.630514	0.007441
 923	4.6100e-01	9.2188	17.886710	0.000133	1.326210	0.224666	0.002651
 924	4.6150e-01	9.2236	17.932894	0.000462	4.620345	0.782708	0.009237
 925	4.6200e-01	9.2383	17.931611	-0.000013	-0.128343	-0.021742	-0.000257
 926	4.6250e-01	9.2456	17.985491	0.000539	5.390402	0.913159	0.010776
 927	4.6300e-01	9.2566	18.020129	0.000347	3.465258	0.587031	0.006928
 928	4.6350e-01	9.2688	18.052629	0.000325	3.251354	0.550794	0.006500
 929	4.6400e-01	9.2780	18.071444	0.000188	1.882363	0.318881	0.003763
 930	4.6450e-01	9.2862	18.100523	0.000291	2.909106	0.492816	0.005816
 931	4.6500e-01	9.2932	18.136871	0.000364	3.636382	0.616020	0.007270
 932	4.6550e-01	9.3060	18.179206	0.000424	4.235316	0.717482	0.008467
 933	4.6600e-01	9.3219	18.206146	0.000270	2.695201	0.456579	0.005388
 934	4.6650e-01	9.3250	18.248053	0.000419	4.192535	0.710235	0.008381
 935	4.6700e-01	9.3359	18.280125	0.000321	3.208573	0.543547	0.006414
 936	4.6750e-01	9.3466	18.306638	0.000265	2.652420	0.449332	0.005303
 937	4.6800e-01	9.3604	18.339993	0.000334	3.336916	0.565289	0.006671
 938	4.6850e-01	9.3665	18.364795	0.000248	2.481296	0.420343	0.004960
 939	4.6900e-01	9.3756	18.411406	0.000466	4.663126	0.789955	0.009322
 940	4.6950e-01	9.3872	18.452031	0.000406	4.064192	0.688493	0.008125
 941	4.7000e-01	9.3964	18.469563	0.000175	1.754020	0.297139	0.003507
 942	4.7050e-01	9.4067	18.481109	0.000116	1.155086	0.195677	0.002309
 943	4.7100e-01	9.4171	18.533279	0.000522	5.219278	0.884170	0.010434
 944	4.7150e-01	9.4257	18.574759	0.000415	4.149754	0.702987	0.008296
 945	4.7200e-01	9.4354	18.588015	0.000133	1.326210	0.224666	0.002651
 946	4.7250e-01	9.4452	18.616239	0.000282	2.823544	0.478321	0.005645
 947	4.7300e-01	9.4574	18.662850	0.000466	4.663126	0.789955	0.009322
 948	4.7350e-01	9.4678	18.683804	0.000210	2.096267	0.355117	0.004191
 949	4.7400e-01	9.4745	18.728704	0.000449	4.492002	0.760966	0.008980
 950	4.7450e-01	9.4855	18.752651	0.000240	2.395734	0.405848	0.004789
 951	4.7500e-01	9.4946	18.806960	0.000543	5.433183	0.920406	0.010862
 952	4.7550e-01	9.5068	18.833472	0.000265	2.652420	0.449332	0.005303
 953	4.7600e-01	9.5142	18.851433	0.000180	1.796801	0.304386	0.003592
 954	4.7650e-01	9.5258	18.852288	0.000009	0.085562	0.014495	0.000171
 955	4.7700e-01	9.5355	18.913866	0.000616	6.160459	1.043610	0.012316
 956	4.7750e-01	9.5480	18.942517	0.000287	2.866325	0.485569	0.005730
 957	4.7800e-01	9.5587	18.976299	0.000338	3.379697	0.572536	0.006756
 958	4.7850e-01	9.5648	19.014785	0.000385	3.850287	0.652256	0.007697
 959	4.7900e-01	9.5764	19.048995	0.000342	3.422477	0.579783	0.006842
 960	4.7950e-01	9.5862	19.083206	0.000342	3.422477	0.579783	0.006842
 961	4.8000e-01	9.5996	19.108435	0.000252	2.524077	0.427590	0.005046
 962	4.8050e-01	9.6057	19.148205	0.000398	3.978630	0.673998	0.007954
 963	4.8100e-01	9.6188	19.162316	0.000141	1.411772	0.239161	0.002822
 964	4.8150e-01	9.6283	19.202941	0.000406	4.064192	0.688493	0.008125
 965	4.8200e-01	9.6368	19.258959	0.000560	5.604307	0.949395	0.011204
 966	4.8250e-01	9.6460	19.283334	0.000244	2.438515	0.413096	0.004875
 967	4.8300e-01	9.6552	19.320965	0.000376	3.764725	0.637762	0.007526
 968	4.8350e-01	9.6686	19.342774	0.000218	2.181829	0.369612	0.004362
 969	4.8400e-01	9.6771	19.362445	0.000197	1.967925	0.333375	0.003934
 970	4.8450e-01	9.6875	19.394517	0.000321	3.208573	0.543547	0.006414
 971	4.8500e-01	9.6948	19.426589	0.000321	3.208573	0.543547	0.006414
 972	4.8550e-01	9.7064	19.461226	0.000347	3.465258	0.587031	0.006928
 973	4.8600e-01	9.7168	19.483463	0.000222	2.224610	0.376859	0.004447
 974	4.8650e-01	9.7266	19.538199	0.000548	5.475964	0.927653	0.010947
 975	4.8700e-01	9.7369	19.561291	0.000231	2.310172	0.391354	0.004618
 976	4.8750e-01	9.7461	19.571554	0.000103	1.026743	0.173935	0.002053
 977	4.8800e-01	9.7552	19.624151	0.000526	5.262059	0.891417	0.010520
 978	4.8850e-01	9.7687	19.659644	0.000355	3.550820	0.601525	0.007099
 979	4.8900e-01	9.7784	19.684447	0.000248	2.481296	0.420343	0.004960
 980	4.8950e-01	9.7858	19.723788	0.000394	3.935849	0.666751	0.007868
 981	4.9000e-01	9.8004	19.747735	0.000240	2.395734	0.405848	0.004789
 982	4.9050e-01	9.8077	19.779379	0.000317	3.165792	0.536300	0.006329
 983	4.9100e-01	9.8151	19.817010	0.000376	3.764725	0.637762	0.007526
 984	4.9150e-01	9.8260	19.838392	0.000214	2.139048	0.362365	0.004276
 985	4.9200e-01	9.8364	19.874312	0.000359	3.593601	0.608773	0.007184
 986	4.9250e-01	9.8474	19.922634	0.000483	4.834249	0.818944	0.009664
 987	4.9300e-01	9.8584	19.940167	0.000175	1.754020	0.297139	0.003507
 988	4.9350e-01	9.8639	19.961120	0.000210	2.096267	0.355117	0.004191
 989	4.9400e-01	9.8779	20.030395	0.000693	6.930517	1.174061	0.013855
 990	4.9450e-01	9.8853	20.041514	0.000111	1.112305	0.188430	0.002224
 991	4.9500e-01	9.8969	20.075296	0.000338	3.379697	0.572536	0.006756
 992	4.9550e-01	9.9039	20.113355	0.000381	3.807506	0.645009	0.007612
 993	4.9600e-01	9.9146	20.149703	0.000364	3.636382	0.616020	0.007270
 994	4.9650e-01	9.9274	20.178354	0.000287	2.866325	0.485569	0.005730
 995	4.9700e-01	9.9359	20.208715	0.000304	3.037449	0.514558	0.006072
 996	4.9750e-01	9.9469	20.234373	0.000257	2.566858	0.434838	0.005132
 997	4.9800e-01	9.9542	20.257465	0.000231	2.310172	0.391354	0.004618
 998	4.9850e-01	9.9646	20.297661	0.000402	4.021411	0.681245	0.008039
 999	4.9900e-01	9.9750	20.319470	0.000218	2.181829	0.369612	0.004362
1000	4.9950e-01	9.9866	20.373351	0.000539	5.390402	0.913159	0.010776
1001	5.0000e-01	9.9939	20.396443	0.000231	2.310172	0.391354	0.004618
1002	5.0050e-01	9.9835	20.354963	0.000415	4.149754	0.702987	-0.008296
1003	5.0100e-01	9.9741	20.316477	0.000385	3.850287	0.652256	-0.007697
1004	5.0150e-01	9.9634	20.305786	0.000107	1.069524	0.181182	-0.002138
1005	5.0200e-01	9.9561	20.280556	0.000252	2.524077	0.427590	-0.005046
1006	5.0250e-01	9.9445	20.257465	0.000231	2.310172	0.391354	-0.004618
1007	5.0300e-01	9.9335	20.246346	0.000111	1.112305	0.188430	-0.002224
1008	5.0350e-01	9.9274	20.219406	0.000270	2.695201	0.456579	-0.005388
1009	5.0400e-01	9.9139	20.183913	0.000355	3.550820	0.601525	-0.007099
1010	5.0450e-01	9.9039	20.155690	0.000282	2.823544	0.478321	-0.005645
1011	5.0500e-01	9.8944	20.159966	-0.000043	-0.427810	-0.072473	0.000855
1012	5.0550e-01	9.8816	20.130460	0.000295	2.951887	0.500063	-0.005901
1013	5.0600e-01	9.8767	20.117203	0.000133	1.326210	0.224666	-0.002651
1014	5.0650e-01	9.8676	20.093256	0.000240	2.395734	0.405848	-0.004789
1015	5.0700e-01	9.8572	20.078717	0.000145	1.454553	0.246408	-0.002908
1016	5.0750e-01	9.8438	20.057764	0.000210	2.096267	0.355117	-0.004191
1017	5.0800e-01	9.8364	20.003883	0.000539	5.390402	0.913159	-0.010776
1018	5.0850e-01	9.8239	20.001745	0.000021	0.213905	0.036236	-0.000428
1019	5.0900e-01	9.8157	19.964969	0.000368	3.679163	0.623267	-0.007355
1020	5.0950e-01	9.8029	19.958982	0.000060	0.598934	0.101462	-0.001197
1021	5.1000e-01	9.7949	19.929904	0.000291	2.909106	0.492816	-0.005816
1022	5.1050e-01	9.7861	19.918785	0.000111	1.112305	0.188430	-0.002224
1023	5.1100e-01	9.7754	19.876878	0.000419	4.192535	0.710235	-0.008381
1024	5.1150e-01	9.7656	19.860628	0.000163	1.625677	0.275397	-0.003250
1025	5.1200e-01	9.7540	19.837536	0.000231	2.310172	0.391354	-0.004618
1026	5.1250e-01	9.7443	19.810596	0.000270	2.695201	0.456579	-0.005388
1027	5.1300e-01	9.7363	19.793491	0.000171	1.711239	0.289892	-0.003421
1028	5.1350e-01	9.7260	19.763985	0.000295	2.951887	0.500063	-0.005901
1029	5.1400e-01	9.7150	19.757143	0.000068	0.684495	0.115957	-0.001368
1030	5.1450e-01	9.7046	19.708821	0.000483	4.834249	0.818944	-0.009664
1031	5.1500e-01	9.7003	19.696420	0.000124	1.240648	0.210171	-0.002480
1032	5.1550e-01	9.6851	19.664776	0.000317	3.165792	0.536300	-0.006329
1033	5.1600e-01	9.6759	19.641256	0.000235	2.352953	0.398601	-0.004704
1034	5.1650e-01	9.6637	19.643822	-0.000026	-0.256686	-0.043484	0.000513
1035	5.1700e-01	9.6545	19.608329	0.000355	3.550820	0.601525	-0.007099
1036	5.1750e-01	9.6442	19.583527	0.000248	2.481296	0.420343	-0.004960
1037	5.1800e-01	9.6350	19.550172	0.000334	3.336916	0.565289	-0.006671
1038	5.1850e-01	9.6228	19.498002	0.000522	5.219278	0.884170	-0.010434
1039	5.1900e-01	9.6152	19.521949	-0.000240	-2.395734	-0.405848	0.004789
1040	5.1950e-01	9.6039	19.497147	0.000248	2.481296	0.420343	-0.004960
1041	5.2000e-01	9.5950	19.454384	0.000428	4.278097	0.724729	-0.008553
1042	5.2050e-01	9.5857	19.408628	0.000458	4.577564	0.775460	-0.009151
1043	5.2100e-01	9.5755	19.417608	-0.000090	-0.898400	-0.152193	0.001796
1044	5.2150e-01	9.5667	19.368859	0.000488	4.877030	0.826191	-0.009750
1045	5.2200e-01	9.5551	19.355603	0.000133	1.326210	0.224666	-0.002651
1046	5.2250e-01	9.5483	19.332511	0.000231	2.310172	0.391354	-0.004618
1047	5.2300e-01	9.5352	19.288466	0.000441	4.406440	0.746471	-0.008809
1048	5.2350e-01	9.5239	19.258532	0.000299	2.994668	0.507310	-0.005987
1049	5.2400e-01	9.5197	19.249552	0.000090	0.898400	0.152193	-0.001796
1050	5.2450e-01	9.5050	19.229881	0.000197	1.967925	0.333375	-0.003934
1051	5.2500e-01	9.4946	19.211065	0.000188	1.882363	0.318881	-0.003763
1052	5.2550e-01	9.4843	19.175573	0.000355	3.550820	0.601525	-0.007099
1053	5.2600e-01	9.4763	19.152053	0.000235	2.352953	0.398601	-0.004704
1054	5.2650e-01	9.4678	19.122975	0.000291	2.909106	0.492816	-0.005816
1055	5.2700e-01	9.4543	19.098600	0.000244	2.438515	0.413096	-0.004875
1056	5.2750e-01	9.4446	19.092186	0.000064	0.641715	0.108709	-0.001283
1057	5.2800e-01	9.4354	19.054127	0.000381	3.807506	0.645009	-0.007612
1058	5.2850e-01	9.4257	19.028897	0.000252	2.524077	0.427590	-0.005046
1059	5.2900e-01	9.4141	18.999391	0.000295	2.951887	0.500063	-0.005901
1060	5.2950e-01	9.4043	18.959194	0.000402	4.021411	0.681245	-0.008039
1061	5.3000e-01	9.3948	18.950214	0.000090	0.898400	0.152193	-0.001796
1062	5.3050e-01	9.3854	18.931399	0.000188	1.882363	0.318881	-0.003763
1063	5.3100e-01	9.3756	18.889064	0.000424	4.235316	0.717482	-0.008467
1064	5.3150e-01	9.3649	18.864261	0.000248	2.481296	0.420343	-0.004960
1065	5.3200e-01	9.3549	18.848012	0.000163	1.625677	0.275397	-0.003250
1066	5.3250e-01	9.3460	18.810808	0.000372	3.721944	0.630514	-0.007441
1067	5.3300e-01	9.3335	18.802683	0.000081	0.812838	0.137699	-0.001625
1068	5.3350e-01	9.3246	18.773605	0.000291	2.909106	0.492816	-0.005816
1069	5.3400e-01	9.3182	18.732125	0.000415	4.149754	0.702987	-0.008296
1070	5.3450e-01	9.3048	18.709033	0.000231	2.310172	0.391354	-0.004618
1071	5.3500e-01	9.2960	18.682093	0.000270	2.695201	0.456579	-0.005388
1072	5.3550e-01	9.2856	18.643607	0.000385	3.850287	0.652256	-0.007697
1073	5.3600e-01	9.2773	18.646600	-0.000030	-0.299467	-0.050731	0.000599
1074	5.3650e-01	9.2682	18.594002	0.000526	5.262059	0.891417	-0.010520
1075	5.3700e-01	9.2554	18.590581	0.000034	0.342248	0.057978	-0.000684
1076	5.3750e-01	9.2490	18.555944	0.000347	3.465258	0.587031	-0.006928
1077	5.3800e-01	9.2361	18.526010	0.000299	2.994668	0.507310	-0.005987
1078	5.3850e-01	9.2261	18.507622	0.000184	1.839582	0.311634	-0.003678
1079	5.3900e-01	9.2169	18.465287	0.000424	4.235316	0.717482	-0.008467
1080	5.3950e-01	9.2078	18.455024	0.000103	1.026743	0.173935	-0.002053
1081	5.4000e-01	9.1949	18.431077	0.000240	2.395734	0.405848	-0.004789
1082	5.4050e-01	9.1870	18.394729	0.000364	3.636382	0.616020	-0.007270
1083	5.4100e-01	9.1766	18.362229	0.000325	3.251354	0.550794	-0.006500
1084	5.4150e-01	9.1681	18.342986	0.000193	1.925144	0.326128	-0.003849
1085	5.4200e-01	9.1553	18.296375	0.000466	4.663126	0.789955	-0.009322
1086	5.4250e-01	9.1449	18.289105	0.000073	0.727276	0.123204	-0.001454
1087	5.4300e-01	9.1351	18.256178	0.000329	3.294135	0.558042	-0.006585
1088	5.4350e-01	9.1266	18.221541	0.000347	3.465258	0.587031	-0.006928
1089	5.4400e-01	9.1168	18.183910	0.000376	3.764725	0.637762	-0.007526
1090	5.4450e-01	9.1052	18.185192	-0.000013	-0.128343	-0.021742	0.000257
1091	5.4500e-01	9.0930	18.151410	0.000338	3.379697	0.572536	-0.006756
1092	5.4550e-01	9.0857	18.114207	0.000372	3.721944	0.630514	-0.007441
1093	5.4600e-01	9.0759	18.097102	0.000171	1.711239	0.289892	-0.003421
1094	5.4650e-01	9.0662	18.057760	0.000394	3.935849	0.666751	-0.007868
1095	5.4700e-01	9.0523	18.035524	0.000222	2.224610	0.376859	-0.004447
1096	5.4750e-01	9.0424	18.020557	0.000150	1.497334	0.253655	-0.002993
1097	5.4800e-01	9.0366	17.986347	0.000342	3.422477	0.579783	-0.006842
1098	5.4850e-01	9.0289	17.960689	0.000257	2.566858	0.434838	-0.005132
1099	5.4900e-01	9.0140	17.929900	0.000308	3.080230	0.521805	-0.006158
1100	5.4950e-01	9.0042	17.911085	0.000188	1.882363	0.318881	-0.003763
1101	5.5000e-01	8.9972	17.883717	0.000274	2.737982	0.463827	-0.005474
1102	5.5050e-01	8.9844	17.860625	0.000231	2.310172	0.391354	-0.004618
1103	5.5100e-01	8.9752	17.819145	0.000415	4.149754	0.702987	-0.008296
1104	5.5150e-01	8.9648	17.788356	0.000308	3.080230	0.521805	-0.006158
1105	5.5200e-01	8.9548	17.761843	0.000265	2.652420	0.449332	-0.005303
1106	5.5250e-01	8.9468	17.725923	0.000359	3.593601	0.608773	-0.007184
1107	5.5300e-01	8.9319	17.733620	-0.000077	-0.770057	-0.130451	0.001539
1108	5.5350e-01	8.9252	17.695561	0.000381	3.807506	0.645009	-0.007612
1109	5.5400e-01	8.9157	17.657075	0.000385	3.850287	0.652256	-0.007697
1110	5.5450e-01	8.9050	17.650233	0.000068	0.684495	0.115957	-0.001368
1111	5.5500e-01	8.8940	17.622010	0.000282	2.823544	0.478321	-0.005645
1112	5.5550e-01	8.8849	17.578392	0.000436	4.363659	0.739224	-0.008724
1113	5.5600e-01	8.8727	17.542899	0.000355	3.550820	0.601525	-0.007099
1114	5.5650e-01	8.8666	17.518525	0.000244	2.438515	0.413096	-0.004875
1115	5.5700e-01	8.8565	17.495860	0.000227	2.267391	0.384106	-0.004533
1116	5.5750e-01	8.8446	17.471486	0.000244	2.438515	0.413096	-0.004875
1117	5.5800e-01	8.8354	17.422309	0.000492	4.919811	0.833439	-0.009835
1118	5.5850e-01	8.8257	17.400500	0.000218	2.181829	0.369612	-0.004362
1119	5.5900e-01	8.8177	17.399217	0.000013	0.128343	0.021742	-0.000257
1120	5.5950e-01	8.8055	17.341915	0.000573	5.732650	0.971137	-0.011460
1121	5.6000e-01	8.7946	17.334646	0.000073	0.727276	0.123204	-0.001454
1122	5.6050e-01	8.7848	17.310699	0.000240	2.395734	0.405848	-0.004789
1123	5.6100e-01	8.7793	17.257673	0.000530	5.304840	0.898664	-0.010605
1124	5.6150e-01	8.7665	17.253397	0.000043	0.427810	0.072473	-0.000855
1125	5.6200e-01	8.7549	17.225601	0.000278	2.780763	0.471074	-0.005559
1126	5.6250e-01	8.7469	17.168300	0.000573	5.732650	0.971137	-0.011460
1127	5.6300e-01	8.7326	17.155043	0.000133	1.326210	0.224666	-0.002651
1128	5.6350e-01	8.7274	17.107577	0.000475	4.748688	0.804449	-0.009493
1129	5.6400e-01	8.7170	17.092610	0.000150	1.497334	0.253655	-0.002993
1130	5.6450e-01	8.7082	17.077215	0.000154	1.540115	0.260903	-0.003079
1131	5.6500e-01	8.6981	17.051558	0.000257	2.566858	0.434838	-0.005132
1132	5.6550e-01	8.6874	16.996822	0.000548	5.475964	0.927653	-0.010947
1133	5.6600e-01	8.6758	17.001953	-0.000051	-0.513372	-0.086968	0.001026
1134	5.6650e-01	8.6676	16.960901	0.000411	4.106973	0.695740	-0.008210
1135	5.6700e-01	8.6548	16.938665	0.000222	2.224610	0.376859	-0.004447
1136	5.6750e-01	8.6453	16.912152	0.000265	2.652420	0.449332	-0.005303
1137	5.6800e-01	8.6371	16.886494	0.000257	2.566858	0.434838	-0.005132
1138	5.6850e-01	8.6261	16.847581	0.000389	3.893068	0.659504	-0.007783
1139	5.6900e-01	8.6133	16.818074	0.000295	2.951887	0.500063	-0.005901
1140	5.6950e-01	8.6060	16.769325	0.000488	4.877030	0.826191	-0.009750
1141	5.7000e-01	8.5962	16.764194	0.000051	0.513372	0.086968	-0.001026
1142	5.7050e-01	8.5889	16.750510	0.000137	1.368991	0.231913	-0.002737
1143	5.7100e-01	8.5779	16.721003	0.000295	2.951887	0.500063	-0.005901
1144	5.7150e-01	8.5675	16.664557	0.000565	5.647088	0.956643	-0.011289
1145	5.7200e-01	8.5565	16.646597	0.000180	1.796801	0.304386	-0.003592
1146	5.7250e-01	8.5458	16.603407	0.000432	4.320878	0.731977	-0.008638
1147	5.7300e-01	8.5376	16.617518	-0.000141	-1.411772	-0.239161	0.002822
1148	5.7350e-01	8.5266	16.577749	0.000398	3.978630	0.673998	-0.007954
1149	5.7400e-01	8.5175	16.527717	0.000501	5.005373	0.847933	-0.010006
1150	5.7450e-01	8.5040	16.505480	0.000222	2.224610	0.376859	-0.004447
1151	5.7500e-01	8.4952	16.489231	0.000163	1.625677	0.275397	-0.003250
1152	5.7550e-01	8.4875	16.464856	0.000244	2.438515	0.413096	-0.004875
1153	5.7600e-01	8.4753	16.419955	0.000449	4.492002	0.760966	-0.008980
1154	5.7650e-01	8.4662	16.388739	0.000312	3.123011	0.529052	-0.006243
1155	5.7700e-01	8.4558	16.361371	0.000274	2.737982	0.463827	-0.005474
1156	5.7750e-01	8.4479	16.321174	0.000402	4.021411	0.681245	-0.008039
1157	5.7800e-01	8.4387	16.295944	0.000252	2.524077	0.427590	-0.005046
1158	5.7850e-01	8.4259	16.283115	0.000128	1.283429	0.217419	-0.002566
1159	5.7900e-01	8.4149	16.256175	0.000270	2.695201	0.456579	-0.005388
1160	5.7950e-01	8.4070	16.218116	0.000381	3.807506	0.645009	-0.007612
1161	5.8000e-01	8.3954	16.186044	0.000321	3.208573	0.543547	-0.006414
1162	5.8050e-01	8.3899	16.161670	0.000244	2.438515	0.413096	-0.004875
1163	5.8100e-01	8.3783	16.128742	0.000329	3.294135	0.558042	-0.006585
1164	5.8150e-01	8.3661	16.095815	0.000329	3.294135	0.558042	-0.006585
1165	5.8200e-01	8.3563	16.073579	0.000222	2.224610	0.376859	-0.004447
1166	5.8250e-01	8.3490	16.069303	0.000043	0.427810	0.072473	-0.000855
1167	5.8300e-01	8.3374	16.012428	0.000569	5.689869	0.963890	-0.011375
1168	5.8350e-01	8.3246	16.000027	0.000124	1.240648	0.210171	-0.002480
1169	5.8400e-01	8.3167	15.946146	0.000539	5.390402	0.913159	-0.010776
1170	5.8450e-01	8.3081	15.917496	0.000287	2.866325	0.485569	-0.005730
1171	5.8500e-01	8.2977	15.915785	0.000017	0.171124	0.028989	-0.000342
1172	5.8550e-01	8.2861	15.859766	0.000560	5.604307	0.949395	-0.011204
1173	5.8600e-01	8.2767	15.848220	0.000116	1.155086	0.195677	-0.002309
1174	5.8650e-01	8.2654	15.802464	0.000458	4.577564	0.775460	-0.009151
1175	5.8700e-01	8.2556	15.786642	0.000158	1.582896	0.268150	-0.003164
1176	5.8750e-01	8.2458	15.748156	0.000385	3.850287	0.652256	-0.007697
1177	5.8800e-01	8.2355	15.725492	0.000227	2.267391	0.384106	-0.004533
1178	5.8850e-01	8.2269	15.694275	0.000312	3.123011	0.529052	-0.006243
1179	5.8900e-01	8.2153	15.673749	0.000205	2.053486	0.347870	-0.004105
1180	5.8950e-01	8.2040	15.632697	0.000411	4.106973	0.695740	-0.008210
1181	5.9000e-01	8.1940	15.598060	0.000347	3.465258	0.587031	-0.006928
1182	5.9050e-01	8.1839	15.568981	0.000291	2.909106	0.492816	-0.005816
1183	5.9100e-01	8.1775	15.529639	0.000394	3.935849	0.666751	-0.007868
1184	5.9150e-01	8.1665	15.525791	0.000039	0.385029	0.065226	-0.000770
1185	5.9200e-01	8.1555	15.501416	0.000244	2.438515	0.413096	-0.004875
1186	5.9250e-01	8.1464	15.447108	0.000543	5.433183	0.920406	-0.010862
1187	5.9300e-01	8.1381	15.437272	0.000098	0.983962	0.166688	-0.001967
1188	5.9350e-01	8.1274	15.392372	0.000449	4.492002	0.760966	-0.008980
1189	5.9400e-01	8.1158	15.373129	0.000193	1.925144	0.326128	-0.003849
1190	5.9450e-01	8.1046	15.345761	0.000274	2.737982	0.463827	-0.005474
1191	5.9500e-01	8.0975	15.301715	0.000441	4.406440	0.746471	-0.008809
1192	5.9550e-01	8.0872	15.294018	0.000077	0.770057	0.130451	-0.001539
1193	5.9600e-01	8.0762	15.237999	0.000560	5.604307	0.949395	-0.011204
1194	5.9650e-01	8.0664	15.232868	0.000051	0.513372	0.086968	-0.001026
1195	5.9700e-01	8.0560	15.175993	0.000569	5.689869	0.963890	-0.011375
1196	5.9750e-01	8.0469	15.150336	0.000257	2.566858	0.434838	-0.005132
1197	5.9800e-01	8.0347	15.129382	0.000210	2.096267	0.355117	-0.004191
1198	5.9850e-01	8.0267	15.095600	0.000338	3.379697	0.572536	-0.006756
1199	5.9900e-01	8.0139	15.081916	0.000137	1.368991	0.231913	-0.002737
1200	5.9950e-01	8.0060	15.042147	0.000398	3.978630	0.673998	-0.007954
1201	6.0000e-01	7.9959	15.017344	0.000248	2.481296	0.420343	-0.004960
1202	6.0050e-01	7.9846	14.998529	0.000188	1.882363	0.318881	-0.003763
1203	6.0100e-01	7.9767	14.960043	0.000385	3.850287	0.652256	-0.007697
1204	6.0150e-01	7.9633	14.914714	0.000453	4.534783	0.768213	-0.009066
1205	6.0200e-01	7.9541	14.877083	0.000376	3.764725	0.637762	-0.007526
1206	6.0250e-01	7.9425	14.853564	0.000235	2.352953	0.398601	-0.004704
1207	6.0300e-01	7.9346	14.836031	0.000175	1.754020	0.297139	-0.003507
1208	6.0350e-01	7.9254	14.802249	0.000338	3.379697	0.572536	-0.006756
1209	6.0400e-01	7.9181	14.783433	0.000188	1.882363	0.318881	-0.003763
1210	6.0450e-01	7.9071	14.744519	0.000389	3.893068	0.659504	-0.007783
1211	6.0500e-01	7.8967	14.685507	0.000590	5.903774	1.000126	-0.011802
1212	6.0550e-01	7.8853	14.679093	0.000064	0.641715	0.108709	-0.001283
1213	6.0600e-01	7.8748	14.659422	0.000197	1.967925	0.333375	-0.003934
1214	6.0650e-01	7.8647	14.626495	0.000329	3.294135	0.558042	-0.006585
1215	6.0700e-01	7.8555	14.589719	0.000368	3.679163	0.623267	-0.007355
1216	6.0750e-01	7.8436	14.550805	0.000389	3.893068	0.659504	-0.007783
1217	6.0800e-01	7.8351	14.521727	0.000291	2.909106	0.492816	-0.005816
1218	6.0850e-01	7.8235	14.512319	0.000094	0.941181	0.159440	-0.001882
1219	6.0900e-01	7.8143	14.478109	0.000342	3.422477	0.579783	-0.006842
1220	6.0950e-01	7.8070	14.433636	0.000445	4.449221	0.753718	-0.008895
1221	6.1000e-01	7.7966	14.402847	0.000308	3.080230	0.521805	-0.006158
1222	6.1050e-01	7.7844	14.377617	0.000252	2.524077	0.427590	-0.005046
1223	6.1100e-01	7.7747	14.357519	0.000201	2.010706	0.340623	-0.004020
1224	6.1150e-01	7.7661	14.316467	0.000411	4.106973	0.695740	-0.008210
1225	6.1200e-01	7.7570	14.304493	0.000120	1.197867	0.202924	-0.002395
1226	6.1250e-01	7.7435	14.273276	0.000312	3.123011	0.529052	-0.006243
1227	6.1300e-01	7.7357	14.197587	0.000757	7.572231	1.282771	-0.015138
1228	6.1350e-01	7.7274	14.192883	0.000047	0.470591	0.079720	-0.000941
1229	6.1400e-01	7.7161	14.168081	0.000248	2.481296	0.420343	-0.004960
1230	6.1450e-01	7.7034	14.143706	0.000244	2.438515	0.413096	-0.004875
1231	6.1500e-01	7.6962	14.094101	0.000496	4.962592	0.840686	-0.009921
1232	6.1550e-01	7.6862	14.052622	0.000415	4.149754	0.702987	-0.008296
1233	6.1600e-01	7.6740	14.058181	-0.000056	-0.556153	-0.094215	0.001112
1234	6.1650e-01	7.6691	13.997458	0.000607	6.074898	1.029116	-0.012145
1235	6.1700e-01	7.6581	13.987195	0.000103	1.026743	0.173935	-0.002053
1236	6.1750e-01	7.6465	13.938446	0.000488	4.877030	0.826191	-0.009750
1237	6.1800e-01	7.6373	13.914926	0.000235	2.352953	0.398601	-0.004704
1238	6.1850e-01	7.6241	13.884137	0.000308	3.080230	0.521805	-0.006158
1239	6.1900e-01	7.6178	13.870881	0.000133	1.326210	0.224666	-0.002651
1240	6.1950e-01	7.6041	13.843085	0.000278	2.780763	0.471074	-0.005559
1241	6.2000e-01	7.5946	13.807592	0.000355	3.550820	0.601525	-0.007099
1242	6.2050e-01	7.5848	13.760981	0.000466	4.663126	0.789955	-0.009322
1243	6.2100e-01	7.5745	13.726771	0.000342	3.422477	0.579783	-0.006842
1244	6.2150e-01	7.5662	13.692561	0.000342	3.422477	0.579783	-0.006842
1245	6.2200e-01	7.5549	13.683154	0.000094	0.941181	0.159440	-0.001882
1246	6.2250e-01	7.5465	13.662628	0.000205	2.053486	0.347870	-0.004105
1247	6.2300e-01	7.5372	13.593780	0.000689	6.887736	1.166814	-0.013770
1248	6.2350e-01	7.5272	13.584372	0.000094	0.941181	0.159440	-0.001882
1249	6.2400e-01	7.5189	13.547596	0.000368	3.679163	0.623267	-0.007355
1250	6.2450e-01	7.5050	13.523222	0.000244	2.438515	0.413096	-0.004875
1251	6.2500e-01	7.4957	13.478749	0.000445	4.449221	0.753718	-0.008895
1252	6.2550e-01	7.4857	13.435131	0.000436	4.363659	0.739224	-0.008724
1253	6.2600e-01	7.4762	13.434703	0.000004	0.042781	0.007247	-0.000086
1254	6.2650e-01	7.4652	13.392796	0.000419	4.192535	0.710235	-0.008381
1255	6.2700e-01	7.4548	13.368849	0.000240	2.395734	0.405848	-0.004789
1256	6.2750e-01	7.4445	13.340198	0.000287	2.866325	0.485569	-0.005730
1257	6.2800e-01	7.4371	13.302995	0.000372	3.721944	0.630514	-0.007441
1258	6.2850e-01	7.4263	13.269212	0.000338	3.379697	0.572536	-0.006756
1259	6.2900e-01	7.4152	13.234575	0.000347	3.465258	0.587031	-0.006928
1260	6.2950e-01	7.4054	13.207207	0.000274	2.737982	0.463827	-0.005474
1261	6.3000e-01	7.3944	13.175990	0.000312	3.123011	0.529052	-0.006243
1262	6.3050e-01	7.3889	13.154609	0.000214	2.139048	0.362365	-0.004276
1263	6.3100e-01	7.3755	13.124247	0.000304	3.037449	0.514558	-0.006072
1264	6.3150e-01	7.3645	13.096024	0.000282	2.823544	0.478321	-0.005645
1265	6.3200e-01	7.3560	13.045992	0.000501	5.005373	0.847933	-0.010006
1266	6.3250e-01	7.3459	13.030170	0.000158	1.582896	0.268150	-0.003164
1267	6.3300e-01	7.3358	12.983131	0.000471	4.705907	0.797202	-0.009408
1268	6.3350e-01	7.3248	12.973296	0.000098	0.983962	0.166688	-0.001967
1269	6.3400e-01	7.3145	12.920270	0.000530	5.304840	0.898664	-0.010605
1270	6.3450e-01	7.3035	12.898034	0.000222	2.224610	0.376859	-0.004447
1271	6.3500e-01	7.2961	12.865534	0.000325	3.251354	0.550794	-0.006500
1272	6.3550e-01	7.2882	12.814219	0.000513	5.133716	0.869675	-0.010263
1273	6.3600e-01	7.2780	12.809515	0.000047	0.470591	0.079720	-0.000941
1274	6.3650e-01	7.2641	12.770601	0.000389	3.893068	0.659504	-0.007783
1275	6.3700e-01	7.2552	12.729549	0.000411	4.106973	0.695740	-0.008210
1276	6.3750e-01	7.2452	12.705175	0.000244	2.438515	0.413096	-0.004875
1277	6.3800e-01	7.2339	12.655570	0.000496	4.962592	0.840686	-0.009921
1278	6.3850e-01	7.2253	12.648300	0.000073	0.727276	0.123204	-0.001454
1279	6.3900e-01	7.2168	12.606821	0.000415	4.149754	0.702987	-0.008296
1280	6.3950e-01	7.2052	12.560210	0.000466	4.663126	0.789955	-0.009322
1281	6.4000e-01	7.1968	12.548236	0.000120	1.197867	0.202924	-0.002395
1282	6.4050e-01	7.1851	12.512743	0.000355	3.550820	0.601525	-0.007099
1283	6.4100e-01	7.1759	12.484092	0.000287	2.866325	0.485569	-0.005730
1284	6.4150e-01	7.1660	12.463139	0.000210	2.096267	0.355117	-0.004191
1285	6.4200e-01	7.1548	12.423369	0.000398	3.978630	0.673998	-0.007954
1286	6.4250e-01	7.1463	12.384883	0.000385	3.850287	0.652256	-0.007697
1287	6.4300e-01	7.1368	12.346825	0.000381	3.807506	0.645009	-0.007612
1288	6.4350e-01	7.1262	12.335279	0.000116	1.155086	0.195677	-0.002309
1289	6.4400e-01	7.1155	12.292089	0.000432	4.320878	0.731977	-0.008638
1290	6.4450e-01	7.1072	12.263865	0.000282	2.823544	0.478321	-0.005645
1291	6.4500e-01	7.0943	12.225807	0.000381	3.807506	0.645009	-0.007612
1292	6.4550e-01	7.0880	12.203998	0.000218	2.181829	0.369612	-0.004362
1293	6.4600e-01	7.0746	12.178340	0.000257	2.566858	0.434838	-0.005132
1294	6.4650e-01	7.0648	12.138999	0.000394	3.935849	0.666751	-0.007868
1295	6.4700e-01	7.0554	12.093243	0.000458	4.577564	0.775460	-0.009151
1296	6.4750e-01	7.0471	12.064164	0.000291	2.909106	0.492816	-0.005816
1297	6.4800e-01	7.0358	12.035513	0.000287	2.866325	0.485569	-0.005730
1298	6.4850e-01	7.0233	12.008145	0.000274	2.737982	0.463827	-0.005474
1299	6.4900e-01	7.0149	11.988475	0.000197	1.967925	0.333375	-0.003934
1300	6.4950e-01	7.0056	11.952126	0.000364	3.636382	0.616020	-0.007270
1301	6.5000e-01	6.9946	11.890548	0.000616	6.160459	1.043610	-0.012316
1302	6.5050e-01	6.9849	11.853345	0.000372	3.721944	0.630514	-0.007441
1303	6.5100e-01	6.9766	11.840089	0.000133	1.326210	0.224666	-0.002651
1304	6.5150e-01	6.9678	11.798181	0.000419	4.192535	0.710235	-0.008381
1305	6.5200e-01	6.9574	11.762261	0.000359	3.593601	0.608773	-0.007184
1306	6.5250e-01	6.9440	11.762261	-0.000000	-0.000000	-0.000000	0.000000
1307	6.5300e-01	6.9336	11.711801	0.000505	5.048154	0.855180	-0.010092
1308	6.5350e-01	6.9246	11.678874	0.000329	3.294135	0.558042	-0.006585
1309	6.5400e-01	6.9153	11.650651	0.000282	2.823544	0.478321	-0.005645
1310	6.5450e-01	6.9057	11.616013	0.000347	3.465258	0.587031	-0.006928
1311	6.5500e-01	6.9003	11.595487	0.000205	2.053486	0.347870	-0.004105
1312	6.5550e-01	6.8848	11.535619	0.000599	5.989336	1.014621	-0.011974
1313	6.5600e-01	6.8765	11.499699	0.000359	3.593601	0.608773	-0.007184
1314	6.5650e-01	6.8665	11.500127	-0.000004	-0.042781	-0.007247	0.000086
1315	6.5700e-01	6.8579	11.454371	0.000458	4.577564	0.775460	-0.009151
1316	6.5750e-01	6.8448	11.424437	0.000299	2.994668	0.507310	-0.005987
1317	6.5800e-01	6.8402	11.385523	0.000389	3.893068	0.659504	-0.007783
1318	6.5850e-01	6.8286	11.339339	0.000462	4.620345	0.782708	-0.009237
1319	6.5900e-01	6.8152	11.329076	0.000103	1.026743	0.173935	-0.002053
1320	6.5950e-01	6.8057	11.281182	0.000479	4.791468	0.811697	-0.009579
1321	6.6000e-01	6.7932	11.264505	0.000167	1.668458	0.282644	-0.003335
1322	6.6050e-01	6.7822	11.226019	0.000385	3.850287	0.652256	-0.007697
1323	6.6100e-01	6.7734	11.196940	0.000291	2.909106	0.492816	-0.005816
1324	6.6150e-01	6.7670	11.155888	0.000411	4.106973	0.695740	-0.008210
1325	6.6200e-01	6.7566	11.118685	0.000372	3.721944	0.630514	-0.007441
1326	6.6250e-01	6.7453	11.086613	0.000321	3.208573	0.543547	-0.006414
1327	6.6300e-01	6.7346	11.060100	0.000265	2.652420	0.449332	-0.005303
1328	6.6350e-01	6.7244	11.029311	0.000308	3.080230	0.521805	-0.006158
1329	6.6400e-01	6.7136	10.994246	0.000351	3.508039	0.594278	-0.007013
1330	6.6450e-01	6.7050	10.967733	0.000265	2.652420	0.449332	-0.005303
1331	6.6500e-01	6.6974	10.921122	0.000466	4.663126	0.789955	-0.009322
1332	6.6550e-01	6.6876	10.880070	0.000411	4.106973	0.695740	-0.008210
1333	6.6600e-01	6.6742	10.872373	0.000077	0.770057	0.130451	-0.001539
1334	6.6650e-01	6.6669	10.830038	0.000424	4.235316	0.717482	-0.008467
1335	6.6700e-01	6.6553	10.789841	0.000402	4.021411	0.681245	-0.008039
1336	6.6750e-01	6.6455	10.762473	0.000274	2.737982	0.463827	-0.005474
1337	6.6800e-01	6.6370	10.730829	0.000317	3.165792	0.536300	-0.006329
1338	6.6850e-01	6.6267	10.683790	0.000471	4.705907	0.797202	-0.009408
1339	6.6900e-01	6.6139	10.671816	0.000120	1.197867	0.202924	-0.002395
1340	6.6950e-01	6.6060	10.617936	0.000539	5.390402	0.913159	-0.010776
1341	6.7000e-01	6.5933	10.602541	0.000154	1.540115	0.260903	-0.003079
1342	6.7050e-01	6.5857	10.572180	0.000304	3.037449	0.514558	-0.006072
1343	6.7100e-01	6.5762	10.514023	0.000582	5.818212	0.985632	-0.011631
1344	6.7150e-01	6.5656	10.487082	0.000270	2.695201	0.456579	-0.005388
1345	6.7200e-01	6.5573	10.456721	0.000304	3.037449	0.514558	-0.006072
1346	6.7250e-01	6.5479	10.416524	0.000402	4.021411	0.681245	-0.008039
1347	6.7300e-01	6.5393	10.385307	0.000312	3.123011	0.529052	-0.006243
1348	6.7350e-01	6.5253	10.345966	0.000394	3.935849	0.666751	-0.007868
1349	6.7400e-01	6.5149	10.341262	0.000047	0.470591	0.079720	-0.000941
1350	6.7450e-01	6.5063	10.299782	0.000415	4.149754	0.702987	-0.008296
1351	6.7500e-01	6.4966	10.247184	0.000526	5.262059	0.891417	-0.010520
1352	6.7550e-01	6.4868	10.212547	0.000347	3.465258	0.587031	-0.006928
1353	6.7600e-01	6.4764	10.196725	0.000158	1.582896	0.268150	-0.003164
1354	6.7650e-01	6.4673	10.150541	0.000462	4.620345	0.782708	-0.009237
1355	6.7700e-01	6.4563	10.125311	0.000252	2.524077	0.427590	-0.005046
1356	6.7750e-01	6.4478	10.085114	0.000402	4.021411	0.681245	-0.008039
1357	6.7800e-01	6.4359	10.063306	0.000218	2.181829	0.369612	-0.004362
1358	6.7850e-01	6.4258	10.026530	0.000368	3.679163	0.623267	-0.007355
1359	6.7900e-01	6.4175	9.974787	0.000518	5.176497	0.876922	-0.010349
1360	6.7950e-01	6.4069	9.957682	0.000171	1.711239	0.289892	-0.003421
1361	6.8000e-01	6.3989	9.943143	0.000145	1.454553	0.246408	-0.002908
1362	6.8050e-01	6.3855	9.896532	0.000466	4.663126	0.789955	-0.009322
1363	6.8100e-01	6.3763	9.859756	0.000368	3.679163	0.623267	-0.007355
1364	6.8150e-01	6.3666	9.813572	0.000462	4.620345	0.782708	-0.009237
1365	6.8200e-01	6.3556	9.779362	0.000342	3.422477	0.579783	-0.006842
1366	6.8250e-01	6.3440	9.752850	0.000265	2.652420	0.449332	-0.005303
1367	6.8300e-01	6.3324	9.733179	0.000197	1.967925	0.333375	-0.003934
1368	6.8350e-01	6.3245	9.680153	0.000530	5.304840	0.898664	-0.010605
1369	6.8400e-01	6.3135	9.658344	0.000218	2.181829	0.369612	-0.004362
1370	6.8450e-01	6.3026	9.618148	0.000402	4.021411	0.681245	-0.008039
1371	6.8500e-01	6.2939	9.605319	0.000128	1.283429	0.217419	-0.002566
1372	6.8550e-01	6.2845	9.566405	0.000389	3.893068	0.659504	-0.007783
1373	6.8600e-01	6.2775	9.514235	0.000522	5.219278	0.884170	-0.010434
1374	6.8650e-01	6.2666	9.485156	0.000291	2.909106	0.492816	-0.005816
1375	6.8700e-01	6.2555	9.470189	0.000150	1.497334	0.253655	-0.002993
1376	6.8750e-01	6.2466	9.410322	0.000599	5.989336	1.014621	-0.011974
1377	6.8800e-01	6.2360	9.394072	0.000163	1.625677	0.275397	-0.003250
1378	6.8850e-01	6.2265	9.352592	0.000415	4.149754	0.702987	-0.008296
1379	6.8900e-01	6.2161	9.316244	0.000364	3.636382	0.616020	-0.007270
1380	6.8950e-01	6.2054	9.278186	0.000381	3.807506	0.645009	-0.007612
1381	6.9000e-01	6.1981	9.245258	0.000329	3.294135	0.558042	-0.006585
1382	6.9050e-01	6.1890	9.223022	0.000222	2.224610	0.376859	-0.004447
1383	6.9100e-01	6.1755	9.177266	0.000458	4.577564	0.775460	-0.009151
1384	6.9150e-01	6.1652	9.149043	0.000282	2.823544	0.478321	-0.005645
1385	6.9200e-01	6.1566	9.109701	0.000394	3.935849	0.666751	-0.007868
1386	6.9250e-01	6.1450	9.088320	0.000214	2.139048	0.362365	-0.004276
1387	6.9300e-01	6.1365	9.029308	0.000590	5.903774	1.000126	-0.011802
1388	6.9350e-01	6.1246	9.012630	0.000167	1.668458	0.282644	-0.003335
1389	6.9400e-01	6.1142	8.983979	0.000287	2.866325	0.485569	-0.005730
1390	6.9450e-01	6.1024	8.930099	0.000539	5.390402	0.913159	-0.010776
1391	6.9500e-01	6.0962	8.907007	0.000231	2.310172	0.391354	-0.004618
1392	6.9550e-01	6.0852	8.866810	0.000402	4.021411	0.681245	-0.008039
1393	6.9600e-01	6.0770	8.824903	0.000419	4.192535	0.710235	-0.008381
1394	6.9650e-01	6.0651	8.794541	0.000304	3.037449	0.514558	-0.006072
1395	6.9700e-01	6.0559	8.760331	0.000342	3.422477	0.579783	-0.006842
1396	6.9750e-01	6.0474	8.731680	0.000287	2.866325	0.485569	-0.005730
1397	6.9800e-01	6.0358	8.739378	-0.000077	-0.770057	-0.130451	0.001539
1398	6.9850e-01	6.0291	8.671813	0.000676	6.759393	1.145072	-0.013513
1399	6.9900e-01	6.0168	8.630333	0.000415	4.149754	0.702987	-0.008296
1400	6.9950e-01	6.0059	8.590137	0.000402	4.021411	0.681245	-0.008039
1401	7.0000e-01	5.9967	8.555499	0.000347	3.465258	0.587031	-0.006928
1402	7.0050e-01	5.9857	8.525993	0.000295	2.951887	0.500063	-0.005901
1403	7.0100e-01	5.9741	8.488789	0.000372	3.721944	0.630514	-0.007441
1404	7.0150e-01	5.9674	8.441323	0.000475	4.748688	0.804449	-0.009493
1405	7.0200e-01	5.9564	8.414810	0.000265	2.652420	0.449332	-0.005303
1406	7.0250e-01	5.9473	8.384876	0.000299	2.994668	0.507310	-0.005987
1407	7.0300e-01	5.9357	8.345962	0.000389	3.893068	0.659504	-0.007783
1408	7.0350e-01	5.9244	8.312608	0.000334	3.336916	0.565289	-0.006671
1409	7.0400e-01	5.9149	8.291226	0.000214	2.139048	0.362365	-0.004276
1410	7.0450e-01	5.9016	8.226655	0.000646	6.459926	1.094341	-0.012914
1411	7.0500e-01	5.8932	8.186886	0.000398	3.978630	0.673998	-0.007954
1412	7.0550e-01	5.8841	8.166360	0.000205	2.053486	0.347870	-0.004105
1413	7.0600e-01	5.8740	8.145406	0.000210	2.096267	0.355117	-0.004191
1414	7.0650e-01	5.8685	8.117611	0.000278	2.780763	0.471074	-0.005559
1415	7.0700e-01	5.8551	8.068006	0.000496	4.962592	0.840686	-0.009921
1416	7.0750e-01	5.8467	8.027382	0.000406	4.064192	0.688493	-0.008125
1417	7.0800e-01	5.8344	8.003435	0.000240	2.395734	0.405848	-0.004789
1418	7.0850e-01	5.8249	7.971790	0.000317	3.165792	0.536300	-0.006329
1419	7.0900e-01	5.8182	7.936297	0.000355	3.550820	0.601525	-0.007099
1420	7.0950e-01	5.8060	7.891824	0.000445	4.449221	0.753718	-0.008895
1421	7.1000e-01	5.7971	7.858042	0.000338	3.379697	0.572536	-0.006756
1422	7.1050e-01	5.7849	7.823404	0.000347	3.465258	0.587031	-0.006928
1423	7.1100e-01	5.7761	7.786629	0.000368	3.679163	0.623267	-0.007355
1424	7.1150e-01	5.7666	7.750708	0.000359	3.593601	0.608773	-0.007184
1425	7.1200e-01	5.7526	7.714788	0.000359	3.593601	0.608773	-0.007184
1426	7.1250e-01	5.7462	7.675446	0.000394	3.935849	0.666751	-0.007868
1427	7.1300e-01	5.7349	7.659196	0.000163	1.625677	0.275397	-0.003250
1428	7.1350e-01	5.7245	7.606598	0.000526	5.262059	0.891417	-0.010520
1429	7.1400e-01	5.7159	7.586072	0.000205	2.053486	0.347870	-0.004105
1430	7.1450e-01	5.7071	7.526632	0.000595	5.946555	1.007374	-0.011888
1431	7.1500e-01	5.6934	7.513804	0.000128	1.283429	0.217419	-0.002566
1432	7.1550e-01	5.6842	7.459923	0.000539	5.390402	0.913159	-0.010776
1433	7.1600e-01	5.6763	7.426568	0.000334	3.336916	0.565289	-0.006671
1434	7.1650e-01	5.6641	7.403049	0.000235	2.352953	0.398601	-0.004704
1435	7.1700e-01	5.6564	7.353872	0.000492	4.919811	0.833439	-0.009835
1436	7.1750e-01	5.6441	7.320945	0.000329	3.294135	0.558042	-0.006585
1437	7.1800e-01	5.6354	7.276044	0.000449	4.492002	0.760966	-0.008980
1438	7.1850e-01	5.6250	7.243117	0.000329	3.294135	0.558042	-0.006585
1439	7.1900e-01	5.6158	7.214038	0.000291	2.909106	0.492816	-0.005816
1440	7.1950e-01	5.6039	7.182822	0.000312	3.123011	0.529052	-0.006243
1441	7.2000e-01	5.5951	7.142197	0.000406	4.064192	0.688493	-0.008125
1442	7.2050e-01	5.5872	7.087889	0.000543	5.433183	0.920406	-0.010862
1443	7.2100e-01	5.5750	7.086178	0.000017	0.171124	0.028989	-0.000342
1444	7.2150e-01	5.5652	7.045554	0.000406	4.064192	0.688493	-0.008125
1445	7.2200e-01	5.5574	7.010061	0.000355	3.550820	0.601525	-0.007099
1446	7.2250e-01	5.5457	6.965588	0.000445	4.449221	0.753718	-0.008895
1447	7.2300e-01	5.5359	6.933516	0.000321	3.208573	0.543547	-0.006414
1448	7.2350e-01	5.5237	6.885195	0.000483	4.834249	0.818944	-0.009664
1449	7.2400e-01	5.5165	6.833024	0.000522	5.219278	0.884170	-0.010434
1450	7.2450e-01	5.5049	6.809505	0.000235	2.352953	0.398601	-0.004704
1451	7.2500e-01	5.4956	6.782137	0.000274	2.737982	0.463827	-0.005474
1452	7.2550e-01	5.4865	6.750493	0.000317	3.165792	0.536300	-0.006329
1453	7.2600e-01	5.4779	6.706020	0.000445	4.449221	0.753718	-0.008895
1454	7.2650e-01	5.4626	6.664968	0.000411	4.106973	0.695740	-0.008210
1455	7.2700e-01	5.4553	6.619639	0.000453	4.534783	0.768213	-0.009066
1456	7.2750e-01	5.4449	6.616218	0.000034	0.342248	0.057978	-0.000684
1457	7.2800e-01	5.4376	6.573028	0.000432	4.320878	0.731977	-0.008638
1458	7.2850e-01	5.4262	6.531976	0.000411	4.106973	0.695740	-0.008210
1459	7.2900e-01	5.4135	6.482799	0.000492	4.919811	0.833439	-0.009835
1460	7.2950e-01	5.4053	6.457142	0.000257	2.566858	0.434838	-0.005132
1461	7.3000e-01	5.3931	6.412669	0.000445	4.449221	0.753718	-0.008895
1462	7.3050e-01	5.3854	6.370334	0.000424	4.235316	0.717482	-0.008467
1463	7.3100e-01	5.3760	6.348525	0.000218	2.181829	0.369612	-0.004362
1464	7.3150e-01	5.3653	6.304052	0.000445	4.449221	0.753718	-0.008895
1465	7.3200e-01	5.3571	6.285664	0.000184	1.839582	0.311634	-0.003678
1466	7.3250e-01	5.3442	6.238198	0.000475	4.748688	0.804449	-0.009493
1467	7.3300e-01	5.3372	6.209547	0.000287	2.866325	0.485569	-0.005730
1468	7.3350e-01	5.3265	6.170205	0.000394	3.935849	0.666751	-0.007868
1469	7.3400e-01	5.3137	6.108627	0.000616	6.160459	1.043610	-0.012316
1470	7.3450e-01	5.3059	6.111193	-0.000026	-0.256686	-0.043484	0.000513
1471	7.3500e-01	5.2954	6.067147	0.000441	4.406440	0.746471	-0.008809
1472	7.3550e-01	5.2866	6.036358	0.000308	3.080230	0.521805	-0.006158
1473	7.3600e-01	5.2753	5.976063	0.000603	6.032117	1.021868	-0.012059
1474	7.3650e-01	5.2637	5.951689	0.000244	2.438515	0.413096	-0.004875
1475	7.3700e-01	5.2562	5.900374	0.000513	5.133716	0.869675	-0.010263
1476	7.3750e-01	5.2469	5.872578	0.000278	2.780763	0.471074	-0.005559
1477	7.3800e-01	5.2350	5.818269	0.000543	5.433183	0.920406	-0.010862
1478	7.3850e-01	5.2271	5.807151	0.000111	1.112305	0.188430	-0.002224
1479	7.3900e-01	5.2139	5.757119	0.000501	5.005373	0.847933	-0.010006
1480	7.3950e-01	5.2051	5.727185	0.000299	2.994668	0.507310	-0.005987
1481	7.4000e-01	5.1938	5.685278	0.000419	4.192535	0.710235	-0.008381
1482	7.4050e-01	5.1874	5.644654	0.000406	4.064192	0.688493	-0.008125
1483	7.4100e-01	5.1729	5.624555	0.000201	2.010706	0.340623	-0.004020
1484	7.4150e-01	5.1648	5.571530	0.000530	5.304840	0.898664	-0.010605
1485	7.4200e-01	5.1559	5.532616	0.000389	3.893068	0.659504	-0.007783
1486	7.4250e-01	5.1447	5.497978	0.000347	3.465258	0.587031	-0.006928
1487	7.4300e-01	5.1337	5.455643	0.000424	4.235316	0.717482	-0.008467
1488	7.4350e-01	5.1254	5.435545	0.000201	2.010706	0.340623	-0.004020
1489	7.4400e-01	5.1151	5.385085	0.000505	5.048154	0.855180	-0.010092
1490	7.4450e-01	5.1050	5.350875	0.000342	3.422477	0.579783	-0.006842
1491	7.4500e-01	5.0952	5.307685	0.000432	4.320878	0.731977	-0.008638
1492	7.4550e-01	5.0864	5.254232	0.000535	5.347621	0.905912	-0.010691
1493	7.4600e-01	5.0751	5.235416	0.000188	1.882363	0.318881	-0.003763
1494	7.4650e-01	5.0620	5.208903	0.000265	2.652420	0.449332	-0.005303
1495	7.4700e-01	5.0525	5.157588	0.000513	5.133716	0.869675	-0.010263
1496	7.4750e-01	5.0452	5.137062	0.000205	2.053486	0.347870	-0.004105
1497	7.4800e-01	5.0314	5.089168	0.000479	4.791468	0.811697	-0.009579
1498	7.4850e-01	5.0262	5.057952	0.000312	3.123011	0.529052	-0.006243
1499	7.4900e-01	5.0134	5.015617	0.000424	4.235316	0.717482	-0.008467
1500	7.4950e-01	5.0073	4.970289	0.000453	4.534783	0.768213	-0.009066
1501	7.5000e-01	4.9976	4.939072	0.000312	3.123011	0.529052	-0.006243
1502	7.5050e-01	4.9878	4.901869	0.000372	3.721944	0.630514	-0.007441
1503	7.5100e-01	4.9765	4.868086	0.000338	3.379697	0.572536	-0.006756
1504	7.5150e-01	4.9652	4.821475	0.000466	4.663126	0.789955	-0.009322
1505	7.5200e-01	4.9536	4.803942	0.000175	1.754020	0.297139	-0.003507
1506	7.5250e-01	4.9457	4.743220	0.000607	6.074898	1.029116	-0.012145
1507	7.5300e-01	4.9384	4.724404	0.000188	1.882363	0.318881	-0.003763
1508	7.5350e-01	4.9269	4.662826	0.000616	6.160459	1.043610	-0.012316
1509	7.5400e-01	4.9170	4.635030	0.000278	2.780763	0.471074	-0.005559
1510	7.5450e-01	4.9109	4.601248	0.000338	3.379697	0.572536	-0.006756
1511	7.5500e-01	4.8947	4.556347	0.000449	4.492002	0.760966	-0.008980
1512	7.5550e-01	4.8871	4.525131	0.000312	3.123011	0.529052	-0.006243
1513	7.5600e-01	4.8758	4.488355	0.000368	3.679163	0.623267	-0.007355
1514	7.5650e-01	4.8660	4.449869	0.000385	3.850287	0.652256	-0.007697
1515	7.5700e-01	4.8544	4.408389	0.000415	4.149754	0.702987	-0.008296
1516	7.5750e-01	4.8444	4.369475	0.000389	3.893068	0.659504	-0.007783
1517	7.5800e-01	4.8370	4.333982	0.000355	3.550820	0.601525	-0.007099
1518	7.5850e-01	4.8264	4.298489	0.000355	3.550820	0.601525	-0.007099
1519	7.5900e-01	4.8138	4.251023	0.000475	4.748688	0.804449	-0.009493
1520	7.5950e-01	4.8053	4.215102	0.000359	3.593601	0.608773	-0.007184
1521	7.6000e-01	4.7946	4.168919	0.000462	4.620345	0.782708	-0.009237
1522	7.6050e-01	4.7852	4.156945	0.000120	1.197867	0.202924	-0.002395
1523	7.6100e-01	4.7781	4.102637	0.000543	5.433183	0.920406	-0.010862
1524	7.6150e-01	4.7655	4.061157	0.000415	4.149754	0.702987	-0.008296
1525	7.6200e-01	4.7560	4.033362	0.000278	2.780763	0.471074	-0.005559
1526	7.6250e-01	4.7468	3.979908	0.000535	5.347621	0.905912	-0.010691
1527	7.6300e-01	4.7354	3.941422	0.000385	3.850287	0.652256	-0.007697
1528	7.6350e-01	4.7284	3.896094	0.000453	4.534783	0.768213	-0.009066
1529	7.6400e-01	4.7138	3.878134	0.000180	1.796801	0.304386	-0.003592
1530	7.6450e-01	4.7058	3.831522	0.000466	4.663126	0.789955	-0.009322
1531	7.6500e-01	4.6964	3.791326	0.000402	4.021411	0.681245	-0.008039
1532	7.6550e-01	4.6863	3.770372	0.000210	2.096267	0.355117	-0.004191
1533	7.6600e-01	4.6753	3.707939	0.000625	6.246021	1.058105	-0.012487
1534	7.6650e-01	4.6677	3.682709	0.000252	2.524077	0.427590	-0.005046
1535	7.6700e-01	4.6518	3.646361	0.000364	3.636382	0.616020	-0.007270
1536	7.6750e-01	4.6472	3.607874	0.000385	3.850287	0.652256	-0.007697
1537	7.6800e-01	4.6341	3.555704	0.000522	5.219278	0.884170	-0.010434
1538	7.6850e-01	4.6240	3.487712	0.000680	6.802174	1.152319	-0.013598
1539	7.6900e-01	4.6156	3.476166	0.000116	1.155086	0.195677	-0.002309
1540	7.6950e-01	4.6082	3.439390	0.000368	3.679163	0.623267	-0.007355
1541	7.7000e-01	4.5959	3.403897	0.000355	3.550820	0.601525	-0.007099
1542	7.7050e-01	4.5840	3.376529	0.000274	2.737982	0.463827	-0.005474
1543	7.7100e-01	4.5767	3.337615	0.000389	3.893068	0.659504	-0.007783
1544	7.7150e-01	4.5650	3.296563	0.000411	4.106973	0.695740	-0.008210
1545	7.7200e-01	4.5554	3.240972	0.000556	5.561526	0.942148	-0.011118
1546	7.7250e-01	4.5474	3.188374	0.000526	5.262059	0.891417	-0.010520
1547	7.7300e-01	4.5364	3.174262	0.000141	1.411772	0.239161	-0.002822
1548	7.7350e-01	4.5258	3.120382	0.000539	5.390402	0.913159	-0.010776
1549	7.7400e-01	4.5169	3.090448	0.000299	2.994668	0.507310	-0.005987
1550	7.7450e-01	4.5056	3.041699	0.000488	4.877030	0.826191	-0.009750
1551	7.7500e-01	4.4934	3.027159	0.000145	1.454553	0.246408	-0.002908
1552	7.7550e-01	4.4844	2.985252	0.000419	4.192535	0.710235	-0.008381
1553	7.7600e-01	4.4739	2.927095	0.000582	5.818212	0.985632	-0.011631
1554	7.7650e-01	4.4650	2.883905	0.000432	4.320878	0.731977	-0.008638
1555	7.7700e-01	4.4543	2.849267	0.000347	3.465258	0.587031	-0.006928
1556	7.7750e-01	4.4467	2.809498	0.000398	3.978630	0.673998	-0.007954
1557	7.7800e-01	4.4350	2.765880	0.000436	4.363659	0.739224	-0.008724
1558	7.7850e-01	4.4217	2.744071	0.000218	2.181829	0.369612	-0.004362
1559	7.7900e-01	4.4156	2.709006	0.000351	3.508039	0.594278	-0.007013
1560	7.7950e-01	4.4043	2.655981	0.000530	5.304840	0.898664	-0.010605
1561	7.8000e-01	4.3977	2.629895	0.000261	2.609639	0.442085	-0.005217
1562	7.8050e-01	4.3857	2.577298	0.000526	5.262059	0.891417	-0.010520
1563	7.8100e-01	4.3738	2.534963	0.000424	4.235316	0.717482	-0.008467
1564	7.8150e-01	4.3668	2.488779	0.000462	4.620345	0.782708	-0.009237
1565	7.8200e-01	4.3573	2.443878	0.000449	4.492002	0.760966	-0.008980
1566	7.8250e-01	4.3430	2.429767	0.000141	1.411772	0.239161	-0.002822
1567	7.8300e-01	4.3353	2.384011	0.000458	4.577564	0.775460	-0.009151
1568	7.8350e-01	4.3262	2.329275	0.000548	5.475964	0.927653	-0.010947
1569	7.8400e-01	4.3143	2.295065	0.000342	3.422477	0.579783	-0.006842
1570	7.8450e-01	4.3066	2.259144	0.000359	3.593601	0.608773	-0.007184
1571	7.8500e-01	4.2978	2.215527	0.000436	4.363659	0.739224	-0.008724
1572	7.8550e-01	4.2842	2.168060	0.000475	4.748688	0.804449	-0.009493
1573	7.8600e-01	4.2740	2.131712	0.000364	3.636382	0.616020	-0.007270
1574	7.8650e-01	4.2651	2.083390	0.000483	4.834249	0.818944	-0.009664
1575	7.8700e-01	4.2535	2.060726	0.000227	2.267391	0.384106	-0.004533
1576	7.8750e-01	4.2468	2.020102	0.000406	4.064192	0.688493	-0.008125
1577	7.8800e-01	4.2352	1.979050	0.000411	4.106973	0.695740	-0.008210
1578	7.8850e-01	4.2267	1.937998	0.000411	4.106973	0.695740	-0.008210
1579	7.8900e-01	4.2169	1.886255	0.000518	5.176497	0.876922	-0.010349
1580	7.8950e-01	4.2065	1.870005	0.000163	1.625677	0.275397	-0.003250
1581	7.9000e-01	4.1980	1.815697	0.000543	5.433183	0.920406	-0.010862
1582	7.9050e-01	4.1855	1.763099	0.000526	5.262059	0.891417	-0.010520
1583	7.9100e-01	4.1763	1.740007	0.000231	2.310172	0.391354	-0.004618
1584	7.9150e-01	4.1664	1.691258	0.000488	4.877030	0.826191	-0.009750
1585	7.9200e-01	4.1544	1.651489	0.000398	3.978630	0.673998	-0.007954
1586	7.9250e-01	4.1431	1.615141	0.000364	3.636382	0.616020	-0.007270
1587	7.9300e-01	4.1346	1.583924	0.000312	3.123011	0.529052	-0.006243
1588	7.9350e-01	4.1248	1.538596	0.000453	4.534783	0.768213	-0.009066
1589	7.9400e-01	4.1138	1.499254	0.000394	3.935849	0.666751	-0.007868
1590	7.9450e-01	4.1019	1.450505	0.000488	4.877030	0.826191	-0.009750
1591	7.9500e-01	4.0948	1.414157	0.000364	3.636382	0.616020	-0.007270
1592	7.9550e-01	4.0840	1.379519	0.000347	3.465258	0.587031	-0.006928
1593	7.9600e-01	4.0756	1.329487	0.000501	5.005373	0.847933	-0.010006
1594	7.9650e-01	4.0637	1.288435	0.000411	4.106973	0.695740	-0.008210
1595	7.9700e-01	4.0582	1.240541	0.000479	4.791468	0.811697	-0.009579
1596	7.9750e-01	4.0475	1.218732	0.000218	2.181829	0.369612	-0.004362
1597	7.9800e-01	4.0369	1.185805	0.000329	3.294135	0.558042	-0.006585
1598	7.9850e-01	4.0234	1.114391	0.000714	7.144422	1.210298	-0.014283
1599	7.9900e-01	4.0176	1.072912	0.000415	4.149754	0.702987	-0.008296
1600	7.9950e-01	4.0082	1.042978	0.000299	2.994668	0.507310	-0.005987
1601	8.0000e-01	3.9957	0.983538	0.000595	5.946555	1.007374	-0.011888
1602	8.0050e-01	3.9862	0.966433	0.000171	1.711239	0.289892	-0.003421
1603	8.0100e-01	3.9772	0.913835	0.000526	5.262059	0.891417	-0.010520
1604	8.0150e-01	3.9662	0.883046	0.000308	3.080230	0.521805	-0.006158
1605	8.0200e-01	3.9551	0.855251	0.000278	2.780763	0.471074	-0.005559
1606	8.0250e-01	3.9447	0.795383	0.000599	5.989336	1.014621	-0.011974
1607	8.0300e-01	3.9368	0.766304	0.000291	2.909106	0.492816	-0.005816
1608	8.0350e-01	3.9258	0.715845	0.000505	5.048154	0.855180	-0.010092
1609	8.0400e-01	3.9139	0.685483	0.000304	3.037449	0.514558	-0.006072
1610	8.0450e-01	3.9029	0.646997	0.000385	3.850287	0.652256	-0.007697
1611	8.0500e-01	3.8974	0.600814	0.000462	4.620345	0.782708	-0.009237
1612	8.0550e-01	3.8849	0.568742	0.000321	3.208573	0.543547	-0.006414
1613	8.0600e-01	3.8779	0.502460	0.000663	6.631050	1.123330	-0.013256
1614	8.0650e-01	3.8641	0.457131	0.000453	4.534783	0.768213	-0.009066
1615	8.0700e-01	3.8544	0.421639	0.000355	3.550820	0.601525	-0.007099
1616	8.0750e-01	3.8446	0.384863	0.000368	3.679163	0.623267	-0.007355
1617	8.0800e-01	3.8342	0.349797	0.000351	3.508039	0.594278	-0.007013
1618	8.0850e-01	3.8223	0.288219	0.000616	6.160459	1.043610	-0.012316
1619	8.0900e-01	3.8151	0.270687	0.000175	1.754020	0.297139	-0.003507
1620	8.0950e-01	3.8055	0.213813	0.000569	5.689869	0.963890	-0.011375
1621	8.1000e-01	3.7962	0.201412	0.000124	1.240648	0.210171	-0.002480
1622	8.1050e-01	3.7880	0.163780	0.000376	3.764725	0.637762	-0.007526
1623	8.1100e-01	3.7772	0.096216	0.000676	6.759393	1.145072	-0.013513
1624	8.1150e-01	3.7665	0.041052	0.000552	5.518745	0.934901	-0.011033
1625	8.1200e-01	3.7561	0.011118	0.000299	2.994668	0.507310	-0.005987
1626	8.1250e-01	3.7439	-0.024375	0.000355	3.550820	0.601525	-0.007099
1627	8.1300e-01	3.7363	-0.084242	0.000599	5.989336	1.014621	-0.011974
1628	8.1350e-01	3.7247	-0.113321	0.000291	2.909106	0.492816	-0.005816
1629	8.1400e-01	3.7170	-0.122301	0.000090	0.898400	0.152193	-0.001796
1630	8.1450e-01	3.7119	-0.188155	0.000659	6.588269	1.116083	-0.013171
1631	8.1500e-01	3.6975	-0.235194	0.000471	4.705907	0.797202	-0.009408
1632	8.1550e-01	3.6841	-0.264272	0.000291	2.909106	0.492816	-0.005816
1633	8.1600e-01	3.6751	-0.327989	0.000637	6.374364	1.079847	-0.012743
1634	8.1650e-01	3.6673	-0.360916	0.000329	3.294135	0.558042	-0.006585
1635	8.1700e-01	3.6578	-0.399402	0.000385	3.850287	0.652256	-0.007697
1636	8.1750e-01	3.6476	-0.436605	0.000372	3.721944	0.630514	-0.007441
1637	8.1800e-01	3.6365	-0.492624	0.000560	5.604307	0.949395	-0.011204
1638	8.1850e-01	3.6275	-0.557623	0.000650	6.502707	1.101588	-0.013000
1639	8.1900e-01	3.6157	-0.561044	0.000034	0.342248	0.057978	-0.000684
1640	8.1950e-01	3.6050	-0.614498	0.000535	5.347621	0.905912	-0.010691
1641	8.2000e-01	3.5945	-0.654267	0.000398	3.978630	0.673998	-0.007954
1642	8.2050e-01	3.5840	-0.702588	0.000483	4.834249	0.818944	-0.009664
1643	8.2100e-01	3.5754	-0.725252	0.000227	2.267391	0.384106	-0.004533
1644	8.2150e-01	3.5646	-0.802225	0.000770	7.700574	1.304513	-0.015395
1645	8.2200e-01	3.5544	-0.830876	0.000287	2.866325	0.485569	-0.005730
1646	8.2250e-01	3.5419	-0.861665	0.000308	3.080230	0.521805	-0.006158
1647	8.2300e-01	3.5358	-0.917684	0.000560	5.604307	0.949395	-0.011204
1648	8.2350e-01	3.5229	-0.945052	0.000274	2.737982	0.463827	-0.005474
1649	8.2400e-01	3.5172	-0.992946	0.000479	4.791468	0.811697	-0.009579
1650	8.2450e-01	3.5077	-1.067353	0.000744	7.443889	1.261029	-0.014881
1651	8.2500e-01	3.4949	-1.080609	0.000133	1.326210	0.224666	-0.002651
1652	8.2550e-01	3.4839	-1.123799	0.000432	4.320878	0.731977	-0.008638
1653	8.2600e-01	3.4744	-1.176397	0.000526	5.262059	0.891417	-0.010520
1654	8.2650e-01	3.4644	-1.203338	0.000270	2.695201	0.456579	-0.005388
1655	8.2700e-01	3.4561	-1.266626	0.000633	6.331583	1.072599	-0.012658
1656	8.2750e-01	3.4436	-1.281165	0.000145	1.454553	0.246408	-0.002908
1657	8.2800e-01	3.4363	-1.354289	0.000732	7.315546	1.239287	-0.014625
1658	8.2850e-01	3.4283	-1.378664	0.000244	2.438515	0.413096	-0.004875
1659	8.2900e-01	3.4137	-1.424420	0.000458	4.577564	0.775460	-0.009151
1660	8.2950e-01	3.4064	-1.470176	0.000458	4.577564	0.775460	-0.009151
1661	8.3000e-01	3.3939	-1.521063	0.000509	5.090935	0.862428	-0.010177
1662	8.3050e-01	3.3844	-1.562970	0.000419	4.192535	0.710235	-0.008381
1663	8.3100e-01	3.3743	-1.591621	0.000287	2.866325	0.485569	-0.005730
1664	8.3150e-01	3.3637	-1.635667	0.000441	4.406440	0.746471	-0.008809
1665	8.3200e-01	3.3557	-1.690403	0.000548	5.475964	0.927653	-0.010947
1666	8.3250e-01	3.3447	-1.750698	0.000603	6.032117	1.021868	-0.012059
1667	8.3300e-01	3.3350	-1.766948	0.000163	1.625677	0.275397	-0.003250
1668	8.3350e-01	3.3253	-1.814414	0.000475	4.748688	0.804449	-0.009493
1669	8.3400e-01	3.3154	-1.863163	0.000488	4.877030	0.826191	-0.009750
1670	8.3450e-01	3.3038	-1.887538	0.000244	2.438515	0.413096	-0.004875
1671	8.3500e-01	3.2959	-1.937998	0.000505	5.048154	0.855180	-0.010092
1672	8.3550e-01	3.2851	-2.000431	0.000625	6.246021	1.058105	-0.012487
1673	8.3600e-01	3.2751	-2.033358	0.000329	3.294135	0.558042	-0.006585
1674	8.3650e-01	3.2660	-2.091088	0.000578	5.775431	0.978384	-0.011546
1675	8.3700e-01	3.2544	-2.128291	0.000372	3.721944	0.630514	-0.007441
1676	8.3750e-01	3.2462	-2.192007	0.000637	6.374364	1.079847	-0.012743
1677	8.3800e-01	3.2355	-2.206119	0.000141	1.411772	0.239161	-0.002822
1678	8.3850e-01	3.2240	-2.265131	0.000590	5.903774	1.000126	-0.011802
1679	8.3900e-01	3.2160	-2.304900	0.000398	3.978630	0.673998	-0.007954
1680	8.3950e-01	3.2047	-2.366051	0.000612	6.117679	1.036363	-0.012230
1681	8.4000e-01	3.1946	-2.389570	0.000235	2.352953	0.398601	-0.004704
1682	8.4050e-01	3.1850	-2.427629	0.000381	3.807506	0.645009	-0.007612
1683	8.4100e-01	3.1744	-2.455424	0.000278	2.780763	0.471074	-0.005559
1684	8.4150e-01	3.1665	-2.504174	0.000488	4.877030	0.826191	-0.009750
1685	8.4200e-01	3.1549	-2.546509	0.000424	4.235316	0.717482	-0.008467
1686	8.4250e-01	3.1442	-2.607659	0.000612	6.117679	1.036363	-0.012230
1687	8.4300e-01	3.1378	-2.646145	0.000385	3.850287	0.652256	-0.007697
1688	8.4350e-01	3.1238	-2.689763	0.000436	4.363659	0.739224	-0.008724
1689	8.4400e-01	3.1174	-2.730387	0.000406	4.064192	0.688493	-0.008125
1690	8.4450e-01	3.1067	-2.776999	0.000466	4.663126	0.789955	-0.009322
1691	8.4500e-01	3.0969	-2.827886	0.000509	5.090935	0.862428	-0.010177
1692	8.4550e-01	3.0865	-2.856964	0.000291	2.909106	0.492816	-0.005816
1693	8.4600e-01	3.0759	-2.921108	0.000642	6.417145	1.087094	-0.012829
1694	8.4650e-01	3.0649	-2.975417	0.000543	5.433183	0.920406	-0.010862
1695	8.4700e-01	3.0551	-3.007061	0.000317	3.165792	0.536300	-0.006329
1696	8.4750e-01	3.0444	-3.051534	0.000445	4.449221	0.753718	-0.008895
1697	8.4800e-01	3.0363	-3.094724	0.000432	4.320878	0.731977	-0.008638
1698	8.4850e-01	3.0255	-3.132783	0.000381	3.807506	0.645009	-0.007612
1699	8.4900e-01	3.0151	-3.181532	0.000488	4.877030	0.826191	-0.009750
1700	8.4950e-01	3.0063	-3.219591	0.000381	3.807506	0.645009	-0.007612
1701	8.5000e-01	2.9974	-3.262353	0.000428	4.278097	0.724729	-0.008553
1702	8.5050e-01	2.9834	-3.318800	0.000565	5.647088	0.956643	-0.011289
1703	8.5100e-01	2.9738	-3.366266	0.000475	4.748688	0.804449	-0.009493
1704	8.5150e-01	2.9639	-3.411594	0.000453	4.534783	0.768213	-0.009066
1705	8.5200e-01	2.9596	-3.441528	0.000299	2.994668	0.507310	-0.005987
1706	8.5250e-01	2.9465	-3.516790	0.000753	7.529450	1.275523	-0.015052
1707	8.5300e-01	2.9358	-3.544158	0.000274	2.737982	0.463827	-0.005474
1708	8.5350e-01	2.9247	-3.590769	0.000466	4.663126	0.789955	-0.009322
1709	8.5400e-01	2.9173	-3.611295	0.000205	2.053486	0.347870	-0.004105
1710	8.5450e-01	2.9037	-3.662183	0.000509	5.090935	0.862428	-0.010177
1711	8.5500e-01	2.8957	-3.713926	0.000518	5.176497	0.876922	-0.010349
1712	8.5550e-01	2.8845	-3.763958	0.000501	5.005373	0.847933	-0.010006
1713	8.5600e-01	2.8735	-3.815700	0.000518	5.176497	0.876922	-0.010349
1714	8.5650e-01	2.8648	-3.847772	0.000321	3.208573	0.543547	-0.006414
1715	8.5700e-01	2.8561	-3.883265	0.000355	3.550820	0.601525	-0.007099
1716	8.5750e-01	2.8442	-3.953396	0.000702	7.016079	1.188556	-0.014026
1717	8.5800e-01	2.8357	-3.975205	0.000218	2.181829	0.369612	-0.004362
1718	8.5850e-01	2.8270	-4.048328	0.000732	7.315546	1.239287	-0.014625
1719	8.5900e-01	2.8142	-4.082966	0.000347	3.465258	0.587031	-0.006928
1720	8.5950e-01	2.8055	-4.138985	0.000560	5.604307	0.949395	-0.011204
1721	8.6000e-01	2.7937	-4.166781	0.000278	2.780763	0.471074	-0.005559
1722	8.6050e-01	2.7830	-4.215530	0.000488	4.877030	0.826191	-0.009750
1723	8.6100e-01	2.7753	-4.264279	0.000488	4.877030	0.826191	-0.009750
1724	8.6150e-01	2.7650	-4.299772	0.000355	3.550820	0.601525	-0.007099
1725	8.6200e-01	2.7563	-4.362205	0.000625	6.246021	1.058105	-0.012487
1726	8.6250e-01	2.7424	-4.405823	0.000436	4.363659	0.739224	-0.008724
1727	8.6300e-01	2.7350	-4.451579	0.000458	4.577564	0.775460	-0.009151
1728	8.6350e-01	2.7212	-4.490921	0.000394	3.935849	0.666751	-0.007868
1729	8.6400e-01	2.7149	-4.531545	0.000406	4.064192	0.688493	-0.008125
1730	8.6450e-01	2.7048	-4.591413	0.000599	5.989336	1.014621	-0.011974
1731	8.6500e-01	2.6947	-4.643155	0.000518	5.176497	0.876922	-0.010349
1732	8.6550e-01	2.6854	-4.675227	0.000321	3.208573	0.543547	-0.006414
1733	8.6600e-01	2.6761	-4.734239	0.000590	5.903774	1.000126	-0.011802
1734	8.6650e-01	2.6633	-4.768877	0.000347	3.465258	0.587031	-0.006928
1735	8.6700e-01	2.6553	-4.818482	0.000496	4.962592	0.840686	-0.009921
1736	8.6750e-01	2.6465	-4.883481	0.000650	6.502707	1.101588	-0.013000
1737	8.6800e-01	2.6347	-4.917691	0.000342	3.422477	0.579783	-0.006842
1738	8.6850e-01	2.6257	-4.955749	0.000381	3.807506	0.645009	-0.007612
1739	8.6900e-01	2.6157	-4.994663	0.000389	3.893068	0.659504	-0.007783
1740	8.6950e-01	2.6062	-5.030584	0.000359	3.593601	0.608773	-0.007184
1741	8.7000e-01	2.5961	-5.091734	0.000612	6.117679	1.036363	-0.012230
1742	8.7050e-01	2.5856	-5.159727	0.000680	6.802174	1.152319	-0.013598
1743	8.7100e-01	2.5735	-5.164858	0.000051	0.513372	0.086968	-0.001026
1744	8.7150e-01	2.5644	-5.216601	0.000518	5.176497	0.876922	-0.010349
1745	8.7200e-01	2.5543	-5.274330	0.000578	5.775431	0.978384	-0.011546
1746	8.7250e-01	2.5458	-5.326500	0.000522	5.219278	0.884170	-0.010434
1747	8.7300e-01	2.5358	-5.364559	0.000381	3.807506	0.645009	-0.007612
1748	8.7350e-01	2.5250	-5.431269	0.000667	6.673831	1.130578	-0.013342
1749	8.7400e-01	2.5128	-5.471038	0.000398	3.978630	0.673998	-0.007954
1750	8.7450e-01	2.5073	-5.511235	0.000402	4.021411	0.681245	-0.008039
1751	8.7500e-01	2.4951	-5.553997	0.000428	4.278097	0.724729	-0.008553
1752	8.7550e-01	2.4870	-5.594194	0.000402	4.021411	0.681245	-0.008039
1753	8.7600e-01	2.4739	-5.659621	0.000655	6.545488	1.108836	-0.013085
1754	8.7650e-01	2.4658	-5.706232	0.000466	4.663126	0.789955	-0.009322
1755	8.7700e-01	2.4543	-5.742152	0.000359	3.593601	0.608773	-0.007184
1756	8.7750e-01	2.4445	-5.787053	0.000449	4.492002	0.760966	-0.008980
1757	8.7800e-01	2.4318	-5.861032	0.000740	7.401108	1.253782	-0.014796
1758	8.7850e-01	2.4243	-5.887545	0.000265	2.652420	0.449332	-0.005303
1759	8.7900e-01	2.4158	-5.930735	0.000432	4.320878	0.731977	-0.008638
1760	8.7950e-01	2.4043	-5.975208	0.000445	4.449221	0.753718	-0.008895
1761	8.8000e-01	2.3949	-6.035076	0.000599	5.989336	1.014621	-0.011974
1762	8.8050e-01	2.3864	-6.097509	0.000625	6.246021	1.058105	-0.012487
1763	8.8100e-01	2.3744	-6.130864	0.000334	3.336916	0.565289	-0.006671
1764	8.8150e-01	2.3642	-6.183889	0.000530	5.304840	0.898664	-0.010605
1765	8.8200e-01	2.3546	-6.201849	0.000180	1.796801	0.304386	-0.003592
1766	8.8250e-01	2.3461	-6.266421	0.000646	6.459926	1.094341	-0.012914
1767	8.8300e-01	2.3392	-6.322867	0.000565	5.647088	0.956643	-0.011289
1768	8.8350e-01	2.3260	-6.341683	0.000188	1.882363	0.318881	-0.003763
1769	8.8400e-01	2.3152	-6.403261	0.000616	6.160459	1.043610	-0.012316
1770	8.8450e-01	2.3077	-6.439181	0.000359	3.593601	0.608773	-0.007184
1771	8.8500e-01	2.2962	-6.498621	0.000595	5.946555	1.007374	-0.011888
1772	8.8550e-01	2.2845	-6.563620	0.000650	6.502707	1.101588	-0.013000
1773	8.8600e-01	2.2765	-6.612797	0.000492	4.919811	0.833439	-0.009835
1774	8.8650e-01	2.2649	-6.646580	0.000338	3.379697	0.572536	-0.006756
1775	8.8700e-01	2.2556	-6.682500	0.000359	3.593601	0.608773	-0.007184
1776	8.8750e-01	2.2441	-6.753058	0.000706	7.058860	1.195803	-0.014112
1777	8.8800e-01	2.2336	-6.784275	0.000312	3.123011	0.529052	-0.006243
1778	8.8850e-01	2.2249	-6.841577	0.000573	5.732650	0.971137	-0.011460
1779	8.8900e-01	2.2145	-6.878353	0.000368	3.679163	0.623267	-0.007355
1780	8.8950e-01	2.2049	-6.914273	0.000359	3.593601	0.608773	-0.007184
1781	8.9000e-01	2.1939	-6.985686	0.000714	7.144422	1.210298	-0.014283
1782	8.9050e-01	2.1858	-7.037002	0.000513	5.133716	0.869675	-0.010263
1783	8.9100e-01	2.1767	-7.073350	0.000364	3.636382	0.616020	-0.007270
1784	8.9150e-01	2.1643	-7.127230	0.000539	5.390402	0.913159	-0.010776
1785	8.9200e-01	2.1536	-7.187526	0.000603	6.032117	1.021868	-0.012059
1786	8.9250e-01	2.1466	-7.239268	0.000518	5.176497	0.876922	-0.010349
1787	8.9300e-01	2.1344	-7.249104	0.000098	0.983962	0.166688	-0.001967
1788	8.9350e-01	2.1255	-7.309399	0.000603	6.032117	1.021868	-0.012059
1789	8.9400e-01	2.1143	-7.368839	0.000595	5.946555	1.007374	-0.011888
1790	8.9450e-01	2.1054	-7.403049	0.000342	3.422477	0.579783	-0.006842
1791	8.9500e-01	2.0960	-7.462489	0.000595	5.946555	1.007374	-0.011888
1792	8.9550e-01	2.0844	-7.492850	0.000304	3.037449	0.514558	-0.006072
1793	8.9600e-01	2.0760	-7.554000	0.000612	6.117679	1.036363	-0.012230
1794	8.9650e-01	2.0654	-7.611302	0.000573	5.732650	0.971137	-0.011460
1795	8.9700e-01	2.0541	-7.652782	0.000415	4.149754	0.702987	-0.008296
1796	8.9750e-01	2.0453	-7.689558	0.000368	3.679163	0.623267	-0.007355
1797	8.9800e-01	2.0374	-7.742583	0.000530	5.304840	0.898664	-0.010605
1798	8.9850e-01	2.0258	-7.799885	0.000573	5.732650	0.971137	-0.011460
1799	8.9900e-01	2.0149	-7.845213	0.000453	4.534783	0.768213	-0.009066
1800	8.9950e-01	2.0049	-7.886693	0.000415	4.149754	0.702987	-0.008296
1801	9.0000e-01	1.9959	-7.946133	0.000595	5.946555	1.007374	-0.011888
1802	9.0050e-01	1.9839	-7.992316	0.000462	4.620345	0.782708	-0.009237
1803	9.0100e-01	1.9751	-8.051756	0.000595	5.946555	1.007374	-0.011888
1804	9.0150e-01	1.9631	-8.070144	0.000184	1.839582	0.311634	-0.003678
1805	9.0200e-01	1.9550	-8.137709	0.000676	6.759393	1.145072	-0.013513
1806	9.0250e-01	1.9460	-8.177478	0.000398	3.978630	0.673998	-0.007954
1807	9.0300e-01	1.9351	-8.227083	0.000496	4.962592	0.840686	-0.009921
1808	9.0350e-01	1.9250	-8.280108	0.000530	5.304840	0.898664	-0.010605
1809	9.0400e-01	1.9142	-8.342114	0.000620	6.203240	1.050857	-0.012401
1810	9.0450e-01	1.9046	-8.385732	0.000436	4.363659	0.739224	-0.008724
1811	9.0500e-01	1.8964	-8.449020	0.000633	6.331583	1.072599	-0.012658
1812	9.0550e-01	1.8850	-8.491783	0.000428	4.278097	0.724729	-0.008553
1813	9.0600e-01	1.8749	-8.555926	0.000642	6.417145	1.087094	-0.012829
1814	9.0650e-01	1.8649	-8.580729	0.000248	2.481296	0.420343	-0.004960
1815	9.0700e-01	1.8552	-8.632471	0.000518	5.176497	0.876922	-0.010349
1816	9.0750e-01	1.8451	-8.698753	0.000663	6.631050	1.123330	-0.013256
1817	9.0800e-01	1.8344	-8.706451	0.000077	0.770057	0.130451	-0.001539
1818	9.0850e-01	1.8262	-8.764608	0.000582	5.818212	0.985632	-0.011631
1819	9.0900e-01	1.8159	-8.813785	0.000492	4.919811	0.833439	-0.009835
1820	9.0950e-01	1.8062	-8.882632	0.000689	6.887736	1.166814	-0.013770
1821	9.1000e-01	1.7918	-8.923684	0.000411	4.106973	0.695740	-0.008210
1822	9.1050e-01	1.7867	-8.971151	0.000475	4.748688	0.804449	-0.009493
1823	9.1100e-01	1.7737	-9.042564	0.000714	7.144422	1.210298	-0.014283
1824	9.1150e-01	1.7661	-9.071215	0.000287	2.866325	0.485569	-0.005730
1825	9.1200e-01	1.7559	-9.113977	0.000428	4.278097	0.724729	-0.008553
1826	9.1250e-01	1.7426	-9.175983	0.000620	6.203240	1.050857	-0.012401
1827	9.1300e-01	1.7329	-9.217463	0.000415	4.149754	0.702987	-0.008296
1828	9.1350e-01	1.7262	-9.286310	0.000689	6.887736	1.166814	-0.013770
1829	9.1400e-01	1.7157	-9.315389	0.000291	2.909106	0.492816	-0.005816
1830	9.1450e-01	1.7075	-9.382099	0.000667	6.673831	1.130578	-0.013342
1831	9.1500e-01	1.6946	-9.427427	0.000453	4.534783	0.768213	-0.009066
1832	9.1550e-01	1.6841	-9.479169	0.000518	5.176497	0.876922	-0.010349
1833	9.1600e-01	1.6727	-9.520649	0.000415	4.149754	0.702987	-0.008296
1834	9.1650e-01	1.6644	-9.572819	0.000522	5.219278	0.884170	-0.010434
1835	9.1700e-01	1.6562	-9.633115	0.000603	6.032117	1.021868	-0.012059
1836	9.1750e-01	1.6460	-9.667325	0.000342	3.422477	0.579783	-0.006842
1837	9.1800e-01	1.6370	-9.732751	0.000655	6.545488	1.108836	-0.013085
1838	9.1850e-01	1.6243	-9.775514	0.000428	4.278097	0.724729	-0.008553
1839	9.1900e-01	1.6159	-9.831105	0.000556	5.561526	0.942148	-0.011118
1840	9.1950e-01	1.6013	-9.875578	0.000445	4.449221	0.753718	-0.008895
1841	9.2000e-01	1.5976	-9.926466	0.000509	5.090935	0.862428	-0.010177
1842	9.2050e-01	1.5866	-9.988044	0.000616	6.160459	1.043610	-0.012316
1843	9.2100e-01	1.5756	-10.016694	0.000287	2.866325	0.485569	-0.005730
1844	9.2150e-01	1.5636	-10.064161	0.000475	4.748688	0.804449	-0.009493
1845	9.2200e-01	1.5540	-10.132153	0.000680	6.802174	1.152319	-0.013598
1846	9.2250e-01	1.5473	-10.179620	0.000475	4.748688	0.804449	-0.009493
1847	9.2300e-01	1.5344	-10.236921	0.000573	5.732650	0.971137	-0.011460
1848	9.2350e-01	1.5259	-10.285243	0.000483	4.834249	0.818944	-0.009664
1849	9.2400e-01	1.5181	-10.335275	0.000501	5.005373	0.847933	-0.010006
1850	9.2450e-01	1.5058	-10.387873	0.000526	5.262059	0.891417	-0.010520
1851	9.2500e-01	1.4943	-10.442609	0.000548	5.475964	0.927653	-0.010947
1852	9.2550e-01	1.4852	-10.496062	0.000535	5.347621	0.905912	-0.010691
1853	9.2600e-01	1.4766	-10.532838	0.000368	3.679163	0.623267	-0.007355
1854	9.2650e-01	1.4683	-10.596982	0.000642	6.417145	1.087094	-0.012829
1855	9.2700e-01	1.4540	-10.635896	0.000389	3.893068	0.659504	-0.007783
1856	9.2750e-01	1.4446	-10.670106	0.000342	3.422477	0.579783	-0.006842
1857	9.2800e-01	1.4349	-10.745368	0.000753	7.529450	1.275523	-0.015052
1858	9.2850e-01	1.4217	-10.786420	0.000411	4.106973	0.695740	-0.008210
1859	9.2900e-01	1.4143	-10.861682	0.000753	7.529450	1.275523	-0.015052
1860	9.2950e-01	1.4062	-10.898458	0.000368	3.679163	0.623267	-0.007355
1861	9.3000e-01	1.3940	-10.932240	0.000338	3.379697	0.572536	-0.006756
1862	9.3050e-01	1.3843	-10.986976	0.000548	5.475964	0.927653	-0.010947
1863	9.3100e-01	1.3768	-11.046416	0.000595	5.946555	1.007374	-0.011888
1864	9.3150e-01	1.3647	-11.107994	0.000616	6.160459	1.043610	-0.012316
1865	9.3200e-01	1.3548	-11.157171	0.000492	4.919811	0.833439	-0.009835
1866	9.3250e-01	1.3455	-11.204637	0.000475	4.748688	0.804449	-0.009493
1867	9.3300e-01	1.3336	-11.245262	0.000406	4.064192	0.688493	-0.008125
1868	9.3350e-01	1.3254	-11.289735	0.000445	4.449221	0.753718	-0.008895
1869	9.3400e-01	1.3138	-11.360293	0.000706	7.058860	1.195803	-0.014112
1870	9.3450e-01	1.3066	-11.406904	0.000466	4.663126	0.789955	-0.009322
1871	9.3500e-01	1.2964	-11.466344	0.000595	5.946555	1.007374	-0.011888
1872	9.3550e-01	1.2842	-11.521080	0.000548	5.475964	0.927653	-0.010947
1873	9.3600e-01	1.2743	-11.568119	0.000471	4.705907	0.797202	-0.009408
1874	9.3650e-01	1.2646	-11.634401	0.000663	6.631050	1.123330	-0.013256
1875	9.3700e-01	1.2546	-11.678446	0.000441	4.406440	0.746471	-0.008809
1876	9.3750e-01	1.2440	-11.723347	0.000449	4.492002	0.760966	-0.008980
1877	9.3800e-01	1.2361	-11.763544	0.000402	4.021411	0.681245	-0.008039
1878	9.3850e-01	1.2250	-11.792195	0.000287	2.866325	0.485569	-0.005730
1879	9.3900e-01	1.2158	-11.887555	0.000954	9.540156	1.616146	-0.019072
1880	9.3950e-01	1.2062	-11.944002	0.000565	5.647088	0.956643	-0.011289
1881	9.4000e-01	1.1939	-11.993178	0.000492	4.919811	0.833439	-0.009835
1882	9.4050e-01	1.1821	-12.040645	0.000475	4.748688	0.804449	-0.009493
1883	9.4100e-01	1.1746	-12.065447	0.000248	2.481296	0.420343	-0.004960
1884	9.4150e-01	1.1639	-12.138143	0.000727	7.272765	1.232040	-0.014539
1885	9.4200e-01	1.1549	-12.180478	0.000424	4.235316	0.717482	-0.008467
1886	9.4250e-01	1.1452	-12.226234	0.000458	4.577564	0.775460	-0.009151
1887	9.4300e-01	1.1366	-12.305773	0.000796	7.957260	1.347996	-0.015908
1888	9.4350e-01	1.1240	-12.350673	0.000449	4.492002	0.760966	-0.008980
1889	9.4400e-01	1.1159	-12.398140	0.000475	4.748688	0.804449	-0.009493
1890	9.4450e-01	1.1061	-12.429784	0.000317	3.165792	0.536300	-0.006329
1891	9.4500e-01	1.0958	-12.508895	0.000791	7.914479	1.340749	-0.015822
1892	9.4550e-01	1.0887	-12.562775	0.000539	5.390402	0.913159	-0.010776
1893	9.4600e-01	1.0761	-12.591854	0.000291	2.909106	0.492816	-0.005816
1894	9.4650e-01	1.0641	-12.674813	0.000830	8.299508	1.405975	-0.016592
1895	9.4700e-01	1.0536	-12.716293	0.000415	4.149754	0.702987	-0.008296
1896	9.4750e-01	1.0448	-12.756490	0.000402	4.021411	0.681245	-0.008039
1897	9.4800e-01	1.0336	-12.828331	0.000719	7.187203	1.217545	-0.014368
1898	9.4850e-01	1.0263	-12.851422	0.000231	2.310172	0.391354	-0.004618
1899	9.4900e-01	1.0170	-12.912573	0.000612	6.117679	1.036363	-0.012230
1900	9.4950e-01	1.0044	-12.964743	0.000522	5.219278	0.884170	-0.010434
1901	9.5000e-01	0.9937	-13.042143	0.000774	7.743355	1.311760	-0.015480
1902	9.5050e-01	0.9840	-13.082340	0.000402	4.021411	0.681245	-0.008039
1903	9.5100e-01	0.9744	-13.129379	0.000471	4.705907	0.797202	-0.009408
1904	9.5150e-01	0.9670	-13.202930	0.000736	7.358327	1.246534	-0.014710
1905	9.5200e-01	0.9555	-13.224739	0.000218	2.181829	0.369612	-0.004362
1906	9.5250e-01	0.9438	-13.292304	0.000676	6.759393	1.145072	-0.013513
1907	9.5300e-01	0.9384	-13.360296	0.000680	6.802174	1.152319	-0.013598
1908	9.5350e-01	0.9265	-13.408618	0.000483	4.834249	0.818944	-0.009664
1909	9.5400e-01	0.9147	-13.450953	0.000424	4.235316	0.717482	-0.008467
1910	9.5450e-01	0.9074	-13.496281	0.000453	4.534783	0.768213	-0.009066
1911	9.5500e-01	0.8918	-13.554011	0.000578	5.775431	0.978384	-0.011546
1912	9.5550e-01	0.8851	-13.597201	0.000432	4.320878	0.731977	-0.008638
1913	9.5600e-01	0.8767	-13.656213	0.000590	5.903774	1.000126	-0.011802
1914	9.5650e-01	0.8626	-13.705818	0.000496	4.962592	0.840686	-0.009921
1915	9.5700e-01	0.8545	-13.760981	0.000552	5.518745	0.934901	-0.011033
1916	9.5750e-01	0.8460	-13.823415	0.000625	6.246021	1.058105	-0.012487
1917	9.5800e-01	0.8351	-13.858480	0.000351	3.508039	0.594278	-0.007013
1918	9.5850e-01	0.8254	-13.929038	0.000706	7.058860	1.195803	-0.014112
1919	9.5900e-01	0.8156	-13.964959	0.000359	3.593601	0.608773	-0.007184
1920	9.5950e-01	0.8041	-14.033379	0.000684	6.844955	1.159567	-0.013684
1921	9.6000e-01	0.7996	-14.082983	0.000496	4.962592	0.840686	-0.009921
1922	9.6050e-01	0.7840	-14.139430	0.000565	5.647088	0.956643	-0.011289
1923	9.6100e-01	0.7742	-14.206567	0.000672	6.716612	1.137825	-0.013427
1924	9.6150e-01	0.7647	-14.239494	0.000329	3.294135	0.558042	-0.006585
1925	9.6200e-01	0.7569	-14.312618	0.000732	7.315546	1.239287	-0.014625
1926	9.6250e-01	0.7439	-14.362222	0.000496	4.962592	0.840686	-0.009921
1927	9.6300e-01	0.7367	-14.410972	0.000488	4.877030	0.826191	-0.009750
1928	9.6350e-01	0.7280	-14.460149	0.000492	4.919811	0.833439	-0.009835
1929	9.6400e-01	0.7153	-14.517878	0.000578	5.775431	0.978384	-0.011546
1930	9.6450e-01	0.7052	-14.588009	0.000702	7.016079	1.188556	-0.014026
1931	9.6500e-01	0.6971	-14.637613	0.000496	4.962592	0.840686	-0.009921
1932	9.6550e-01	0.6821	-14.689356	0.000518	5.176497	0.876922	-0.010349
1933	9.6600e-01	0.6776	-14.737250	0.000479	4.791468	0.811697	-0.009579
1934	9.6650e-01	0.6655	-14.788137	0.000509	5.090935	0.862428	-0.010177
1935	9.6700e-01	0.6570	-14.859978	0.000719	7.187203	1.217545	-0.014368
1936	9.6750e-01	0.6467	-14.890340	0.000304	3.037449	0.514558	-0.006072
1937	9.6800e-01	0.6348	-14.952773	0.000625	6.246021	1.058105	-0.012487
1938	9.6850e-01	0.6236	-15.006654	0.000539	5.390402	0.913159	-0.010776
1939	9.6900e-01	0.6189	-15.059679	0.000530	5.304840	0.898664	-0.010605
1940	9.6950e-01	0.6038	-15.098593	0.000389	3.893068	0.659504	-0.007783
1941	9.7000e-01	0.5958	-15.161882	0.000633	6.331583	1.072599	-0.012658
1942	9.7050e-01	0.5849	-15.214052	0.000522	5.219278	0.884170	-0.010434
1943	9.7100e-01	0.5739	-15.271354	0.000573	5.732650	0.971137	-0.011460
1944	9.7150e-01	0.5643	-15.319675	0.000483	4.834249	0.818944	-0.009664
1945	9.7200e-01	0.5552	-15.376550	0.000569	5.689869	0.963890	-0.011375
1946	9.7250e-01	0.5443	-15.427009	0.000505	5.048154	0.855180	-0.010092
1947	9.7300e-01	0.5365	-15.504837	0.000779	7.786136	1.319007	-0.015566
1948	9.7350e-01	0.5223	-15.550593	0.000458	4.577564	0.775460	-0.009151
1949	9.7400e-01	0.5129	-15.595494	0.000449	4.492002	0.760966	-0.008980
1950	9.7450e-01	0.5065	-15.657072	0.000616	6.160459	1.043610	-0.012316
1951	9.7500e-01	0.4956	-15.708387	0.000513	5.133716	0.869675	-0.010263
1952	9.7550e-01	0.4861	-15.761840	0.000535	5.347621	0.905912	-0.010691
1953	9.7600e-01	0.4765	-15.820425	0.000586	5.860993	0.992879	-0.011717
1954	9.7650e-01	0.4666	-15.860621	0.000402	4.021411	0.681245	-0.008039
1955	9.7700e-01	0.4557	-15.923055	0.000625	6.246021	1.058105	-0.012487
1956	9.7750e-01	0.4453	-15.970949	0.000479	4.791468	0.811697	-0.009579
1957	9.7800e-01	0.4343	-16.042790	0.000719	7.187203	1.217545	-0.014368
1958	9.7850e-01	0.4241	-16.080848	0.000381	3.807506	0.645009	-0.007612
1959	9.7900e-01	0.4146	-16.144565	0.000637	6.374364	1.079847	-0.012743
1960	9.7950e-01	0.4101	-16.200584	0.000560	5.604307	0.949395	-0.011204
1961	9.8000e-01	0.3959	-16.254464	0.000539	5.390402	0.913159	-0.010776
1962	9.8050e-01	0.3855	-16.301503	0.000471	4.705907	0.797202	-0.009408
1963	9.8100e-01	0.3754	-16.349397	0.000479	4.791468	0.811697	-0.009579
1964	9.8150e-01	0.3629	-16.422949	0.000736	7.358327	1.246534	-0.014710
1965	9.8200e-01	0.3575	-16.482816	0.000599	5.989336	1.014621	-0.011974
1966	9.8250e-01	0.3433	-16.527289	0.000445	4.449221	0.753718	-0.008895
1967	9.8300e-01	0.3332	-16.582025	0.000548	5.475964	0.927653	-0.010947
1968	9.8350e-01	0.3271	-16.627781	0.000458	4.577564	0.775460	-0.009151
1969	9.8400e-01	0.3152	-16.697912	0.000702	7.016079	1.188556	-0.014026
1970	9.8450e-01	0.3062	-16.747516	0.000496	4.962592	0.840686	-0.009921
1971	9.8500e-01	0.2957	-16.792845	0.000453	4.534783	0.768213	-0.009066
1972	9.8550e-01	0.2844	-16.863403	0.000706	7.058860	1.195803	-0.014112
1973	9.8600e-01	0.2748	-16.910441	0.000471	4.705907	0.797202	-0.009408
1974	9.8650e-01	0.2647	-16.969454	0.000590	5.903774	1.000126	-0.011802
1975	9.8700e-01	0.2577	-17.031459	0.000620	6.203240	1.050857	-0.012401
1976	9.8750e-01	0.2457	-17.085340	0.000539	5.390402	0.913159	-0.010776
1977	9.8800e-01	0.2356	-17.131096	0.000458	4.577564	0.775460	-0.009151
1978	9.8850e-01	0.2237	-17.183266	0.000522	5.219278	0.884170	-0.010434
1979	9.8900e-01	0.2139	-17.249121	0.000659	6.588269	1.116083	-0.013171
1980	9.8950e-01	0.2070	-17.306422	0.000573	5.732650	0.971137	-0.011460
1981	9.9000e-01	0.1965	-17.341915	0.000355	3.550820	0.601525	-0.007099
1982	9.9050e-01	0.1841	-17.413329	0.000714	7.144422	1.210298	-0.014283
1983	9.9100e-01	0.1736	-17.472769	0.000595	5.946555	1.007374	-0.011888
1984	9.9150e-01	0.1651	-17.535202	0.000625	6.246021	1.058105	-0.012487
1985	9.9200e-01	0.1550	-17.586517	0.000513	5.133716	0.869675	-0.010263
1986	9.9250e-01	0.1457	-17.639543	0.000530	5.304840	0.898664	-0.010605
1987	9.9300e-01	0.1349	-17.685298	0.000458	4.577564	0.775460	-0.009151
1988	9.9350e-01	0.1267	-17.757995	0.000727	7.272765	1.232040	-0.014539
1989	9.9400e-01	0.1144	-17.793488	0.000355	3.550820	0.601525	-0.007099
1990	9.9450e-01	0.1017	-17.857631	0.000642	6.417145	1.087094	-0.012829
1991	9.9500e-01	0.0954	-17.920065	0.000625	6.246021	1.058105	-0.012487
1992	9.9550e-01	0.0823	-17.961544	0.000415	4.149754	0.702987	-0.008296
1993	9.9600e-01	0.0755	-18.027399	0.000659	6.588269	1.116083	-0.013171
1994	9.9650e-01	0.0655	-18.071872	0.000445	4.449221	0.753718	-0.008895
1995	9.9700e-01	0.0578	-18.136443	0.000646	6.459926	1.094341	-0.012914
1996	9.9750e-01	0.0467	-18.186475	0.000501	5.005373	0.847933	-0.010006
1997	9.9800e-01	0.0347	-18.234797	0.000483	4.834249	0.818944	-0.009664
1998	9.9850e-01	0.0233	-18.293382	0.000586	5.860993	0.992879	-0.011717
1999	9.9900e-01	0.0134	-18.367361	0.000740	7.401108	1.253782	-0.014796
2000	9.9950e-01	0.0053	-18.410979	0.000436	4.363659	0.739224	-0.008724
2001	1.0000e+00	-0.0010	-18.475122	0.000436	4.363659	0.739224	-0.012829

PMax (uC/cm2):	4.08e+01
Pr (uC/cm2):	1.92e+00
-Pr (uC/cm2):	0.00e+00
PLoss (uC/cm2):	0.00e+00
C (Max-Eff) (nF):	4.08e-01
K (Eff):	6.92e+02
Vert. (+/-Pr) Shift (uC/cm2):	9.62e-01
Offset (uC/cm2):	2.04e+01

A (Loop Area - uC/cm2·Volts):	-1.82e-02



Hysteresis Version: 5.48.1 - Radiant Technologies, Inc., 1999 - 9/12/24

