»»»»»»»»»»»»»»»»»»»»»»»»»»»»»»»»»»»» Hysteresis ««««««««««««««««««««««««««««««««««««
»»»  Executed Version:	5.48.1
»»»  Vision Version:	5.48.4 (R)
»»»  Vision Compiled:	9/18/24
»»»  Driver Version:	5.47.0
»»»  Windows Version:	Windows 8 or 8.1
»»»  Processor Information:	x86 (AMD or Intel) - 32 Processors
»»»  Tester Name:	PMF21124-494 (100V)
»»»  Tester S/N:	PMF21124-494
»»»  Internal Amp Type:	100V RevK 270k
»»»  Internal Amp S/N:	iAB2-596/K     
»»»  Execution Count:	1
»»»»»»»»»»»»»»»»»»»»»»»»»»»»»»»»»»»»»»»»»»««««««««««««««««««««««««««««««««««««««««««

Stored:	6/30/2025 - 17:9:9
Configured:	06/30/25 10:19:58 AM
Executed:	06/30/25 05:08:36 PM

»»»»»»»»»»»»»»»»»»»»»»»»»»»»»»»»»»» Sample Info ««««««««««««««««««««««««««««««««««««
Sample Name:	
Lot Name:	
Wafer Name:	
Die Row/Column:	0/0
Capacitor Number:	0
Sample Area (cm2):	1.00e-04
Sample Thickness (microns):	1.50e-01

Amplifier:	Internal

»»»»»»»»»»»»»»»»»»»»»»»»»»»»»»»»»»» Tester Info «««««««««««««««««««««««««««««««««««
Tester Name:	PMF21124-494 (100V)
Tester Serial Number:	PMF21124-494
Return Signal Amp. Level:	1.79 [Index: 2]

»»»»»»»»»»»»»»»»»»»»»»»»»»»»»»»» Hysteresis Info ««««««««««««««««««««««««««««««««««
Task Name:	Hyst-1804
Volts:	10.00
Field:	666.67 (kV/cm)
DCBias:	0.00
DCField:	0.00 (kV/cm)
Hysteresis Period (ms):	1.00e+00
Preset:	Enabled
Preset Delay (ms):	1.00e+03
Profile:	Standard Monopolar

»»»»»»»»»»»»»»»»»»»»»»»»»»»»»»»»»»»»»» Data «««««««««««««««««««««««««««««««««««««««
Points:	2001

Valid Data

Point	Time (ms)	Drive Voltage	Measured Polarization (uC/cm2)	Capacitance (uF)	Normalized Capacitance (uF/cm2)	Dielectric Constant	Instantaneous Current (mA)
   1	0.0000e+00	-0.0058	-21.765699	0.000791	7.909197	1.339854	0.015822
   2	5.0000e-04	0.0035	-21.686588	0.000791	7.909197	1.339854	0.015822
   3	1.0000e-03	0.0157	-21.635273	0.000513	5.130290	0.869095	0.010263
   4	1.5000e-03	0.0253	-21.586096	0.000492	4.916528	0.832882	0.009835
   5	2.0000e-03	0.0364	-21.528794	0.000573	5.728824	0.970489	0.011460
   6	2.5000e-03	0.0467	-21.463368	0.000654	6.541120	1.108096	0.013085
   7	3.0000e-03	0.0567	-21.406494	0.000569	5.686071	0.963247	0.011375
   8	3.5000e-03	0.0663	-21.360310	0.000462	4.617261	0.782185	0.009237
   9	4.0000e-03	0.0768	-21.300443	0.000599	5.985338	1.013944	0.011974
  10	4.5000e-03	0.0877	-21.248700	0.000517	5.173042	0.876337	0.010349
  11	5.0000e-03	0.0966	-21.178569	0.000701	7.011396	1.187763	0.014026
  12	5.5000e-03	0.1057	-21.115281	0.000633	6.327358	1.071883	0.012658
  13	6.0000e-03	0.1160	-21.086630	0.000286	2.864412	0.485245	0.005730
  14	6.5000e-03	0.1243	-21.012223	0.000744	7.438920	1.260187	0.014881
  15	7.0000e-03	0.1394	-20.965612	0.000466	4.660013	0.789428	0.009322
  16	7.5000e-03	0.1437	-20.915152	0.000504	5.044785	0.854610	0.010092
  17	8.0000e-03	0.1579	-20.830910	0.000842	8.422226	1.426764	0.016848
  18	8.5000e-03	0.1649	-20.784726	0.000462	4.617261	0.782185	0.009237
  19	9.0000e-03	0.1781	-20.732129	0.000526	5.258547	0.890822	0.010520
  20	9.5000e-03	0.1872	-20.679531	0.000526	5.258547	0.890822	0.010520
  21	1.0000e-02	0.1968	-20.624367	0.000552	5.515062	0.934277	0.011033
  22	1.0500e-02	0.2032	-20.568776	0.000556	5.557814	0.941519	0.011118
  23	1.1000e-02	0.2162	-20.507625	0.000611	6.113595	1.035671	0.012230
  24	1.1500e-02	0.2252	-20.451179	0.000564	5.643319	0.956004	0.011289
  25	1.2000e-02	0.2374	-20.390028	0.000611	6.113595	1.035671	0.012230
  26	1.2500e-02	0.2443	-20.344700	0.000453	4.531756	0.767700	0.009066
  27	1.3000e-02	0.2566	-20.260458	0.000842	8.422226	1.426764	0.016848
  28	1.3500e-02	0.2695	-20.244636	0.000158	1.581839	0.267971	0.003164
  29	1.4000e-02	0.2773	-20.178354	0.000663	6.626624	1.122581	0.013256
  30	1.4500e-02	0.2853	-20.108223	0.000701	7.011396	1.187763	0.014026
  31	1.5000e-02	0.2957	-20.058619	0.000496	4.959280	0.840125	0.009921
  32	1.5500e-02	0.3062	-19.988488	0.000701	7.011396	1.187763	0.014026
  33	1.6000e-02	0.3175	-19.954706	0.000338	3.377441	0.572154	0.006756
  34	1.6500e-02	0.3259	-19.858063	0.000966	9.662046	1.636795	0.019329
  35	1.7000e-02	0.3365	-19.859345	-0.000013	-0.128257	-0.021727	-0.000257
  36	1.7500e-02	0.3466	-19.766551	0.000928	9.277274	1.571613	0.018559
  37	1.8000e-02	0.3555	-19.708821	0.000577	5.771576	0.977731	0.011546
  38	1.8500e-02	0.3683	-19.667342	0.000415	4.146984	0.702518	0.008296
  39	1.9000e-02	0.3759	-19.587376	0.000799	7.994702	1.354339	0.015993
  40	1.9500e-02	0.3864	-19.559580	0.000278	2.778907	0.470760	0.005559
  41	2.0000e-02	0.3948	-19.482180	0.000774	7.738187	1.310884	0.015480
  42	2.0500e-02	0.4063	-19.420174	0.000620	6.199100	1.050156	0.012401
  43	2.1000e-02	0.4178	-19.392806	0.000274	2.736155	0.463517	0.005474
  44	2.1500e-02	0.4252	-19.315406	0.000774	7.738187	1.310884	0.015480
  45	2.2000e-02	0.4349	-19.279486	0.000359	3.591203	0.608366	0.007184
  46	2.2500e-02	0.4453	-19.215342	0.000641	6.412862	1.086368	0.012829
  47	2.3000e-02	0.4530	-19.149487	0.000658	6.583872	1.115338	0.013171
  48	2.3500e-02	0.4672	-19.103732	0.000457	4.574509	0.774943	0.009151
  49	2.4000e-02	0.4778	-19.040443	0.000633	6.327358	1.071883	0.012658
  50	2.4500e-02	0.4877	-18.996398	0.000440	4.403499	0.745973	0.008809
  51	2.5000e-02	0.4996	-18.938668	0.000577	5.771576	0.977731	0.011546
  52	2.5500e-02	0.5037	-18.864261	0.000744	7.438920	1.260187	0.014881
  53	2.6000e-02	0.5154	-18.822782	0.000415	4.146984	0.702518	0.008296
  54	2.6500e-02	0.5276	-18.751368	0.000714	7.139653	1.209490	0.014283
  55	2.7000e-02	0.5352	-18.680382	0.000710	7.096901	1.202248	0.014197
  56	2.7500e-02	0.5476	-18.653442	0.000269	2.693402	0.456275	0.005388
  57	2.8000e-02	0.5549	-18.590154	0.000633	6.327358	1.071883	0.012658
  58	2.8500e-02	0.5666	-18.534135	0.000560	5.600567	0.948762	0.011204
  59	2.9000e-02	0.5774	-18.483247	0.000509	5.087538	0.861852	0.010177
  60	2.9500e-02	0.5873	-18.417821	0.000654	6.541120	1.108096	0.013085
  61	3.0000e-02	0.5948	-18.367788	0.000500	5.002033	0.847367	0.010006
  62	3.0500e-02	0.6057	-18.307066	0.000607	6.070843	1.028429	0.012145
  63	3.1000e-02	0.6150	-18.258316	0.000487	4.873775	0.825640	0.009750
  64	3.1500e-02	0.6252	-18.206574	0.000517	5.173042	0.876337	0.010349
  65	3.2000e-02	0.6385	-18.152265	0.000543	5.429557	0.919792	0.010862
  66	3.2500e-02	0.6438	-18.099667	0.000526	5.258547	0.890822	0.010520
  67	3.3000e-02	0.6567	-18.036379	0.000633	6.327358	1.071883	0.012658
  68	3.3500e-02	0.6653	-17.976084	0.000603	6.028091	1.021186	0.012059
  69	3.4000e-02	0.6763	-17.924341	0.000517	5.173042	0.876337	0.010349
  70	3.4500e-02	0.6844	-17.875164	0.000492	4.916528	0.832882	0.009835
  71	3.5000e-02	0.6971	-17.816579	0.000586	5.857081	0.992216	0.011717
  72	3.5500e-02	0.7067	-17.743456	0.000731	7.310663	1.238460	0.014625
  73	3.6000e-02	0.7132	-17.714377	0.000291	2.907164	0.492487	0.005816
  74	3.6500e-02	0.7236	-17.645529	0.000688	6.883139	1.166035	0.013770
  75	3.7000e-02	0.7347	-17.563853	0.000817	8.165711	1.383309	0.016335
  76	3.7500e-02	0.7477	-17.527932	0.000359	3.591203	0.608366	0.007184
  77	3.8000e-02	0.7569	-17.473196	0.000547	5.472309	0.927034	0.010947
  78	3.8500e-02	0.7670	-17.433855	0.000393	3.933222	0.666306	0.007868
  79	3.9000e-02	0.7747	-17.379974	0.000539	5.386804	0.912549	0.010776
  80	3.9500e-02	0.7854	-17.317541	0.000624	6.241853	1.057398	0.012487
  81	4.0000e-02	0.7945	-17.256390	0.000611	6.113595	1.035671	0.012230
  82	4.0500e-02	0.8037	-17.214483	0.000419	4.189737	0.709761	0.008381
  83	4.1000e-02	0.8150	-17.134945	0.000795	7.951949	1.347097	0.015908
  84	4.1500e-02	0.8260	-17.100307	0.000346	3.462946	0.586639	0.006928
  85	4.2000e-02	0.8363	-17.036163	0.000641	6.412862	1.086368	0.012829
  86	4.2500e-02	0.8456	-16.956625	0.000795	7.951949	1.347097	0.015908
  87	4.3000e-02	0.8562	-16.912152	0.000445	4.446251	0.753215	0.008895
  88	4.3500e-02	0.8636	-16.875804	0.000363	3.633955	0.615609	0.007270
  89	4.4000e-02	0.8755	-16.806956	0.000688	6.883139	1.166035	0.013770
  90	4.4500e-02	0.8871	-16.741530	0.000654	6.541120	1.108096	0.013085
  91	4.5000e-02	0.8975	-16.730411	0.000111	1.111563	0.188304	0.002224
  92	4.5500e-02	0.9090	-16.658998	0.000714	7.139653	1.209490	0.014283
  93	4.6000e-02	0.9184	-16.603407	0.000556	5.557814	0.941519	0.011118
  94	4.6500e-02	0.9256	-16.526862	0.000765	7.652682	1.296400	0.015309
  95	4.7000e-02	0.9354	-16.479823	0.000470	4.702766	0.796670	0.009408
  96	4.7500e-02	0.9481	-16.404133	0.000757	7.567178	1.281915	0.015138
  97	4.8000e-02	0.9558	-16.371206	0.000329	3.291936	0.557669	0.006585
  98	4.8500e-02	0.9644	-16.306207	0.000650	6.498367	1.100853	0.013000
  99	4.9000e-02	0.9782	-16.277128	0.000291	2.907164	0.492487	0.005816
 100	4.9500e-02	0.9847	-16.215123	0.000620	6.199100	1.050156	0.012401
 101	5.0000e-02	0.9969	-16.155255	0.000599	5.985338	1.013944	0.011974
 102	5.0500e-02	1.0063	-16.091967	0.000633	6.327358	1.071883	0.012658
 103	5.1000e-02	1.0166	-16.040224	0.000517	5.173042	0.876337	0.010349
 104	5.1500e-02	1.0248	-16.005586	0.000346	3.462946	0.586639	0.006928
 105	5.2000e-02	1.0365	-15.927759	0.000778	7.780940	1.318127	0.015566
 106	5.2500e-02	1.0463	-15.882430	0.000453	4.531756	0.767700	0.009066
 107	5.3000e-02	1.0555	-15.830688	0.000517	5.173042	0.876337	0.010349
 108	5.3500e-02	1.0661	-15.763550	0.000671	6.712129	1.137065	0.013427
 109	5.4000e-02	1.0758	-15.718222	0.000453	4.531756	0.767700	0.009066
 110	5.4500e-02	1.0876	-15.675887	0.000423	4.232489	0.717003	0.008467
 111	5.5000e-02	1.0940	-15.583093	0.000928	9.277274	1.571613	0.018559
 112	5.5500e-02	1.1084	-15.555725	0.000274	2.736155	0.463517	0.005474
 113	5.6000e-02	1.1160	-15.497995	0.000577	5.771576	0.977731	0.011546
 114	5.6500e-02	1.1252	-15.453522	0.000445	4.446251	0.753215	0.008895
 115	5.7000e-02	1.1387	-15.376977	0.000765	7.652682	1.296400	0.015309
 116	5.7500e-02	1.1484	-15.335498	0.000415	4.146984	0.702518	0.008296
 117	5.8000e-02	1.1572	-15.293163	0.000423	4.232489	0.717003	0.008467
 118	5.8500e-02	1.1640	-15.229447	0.000637	6.370110	1.079126	0.012743
 119	5.9000e-02	1.1752	-15.173428	0.000560	5.600567	0.948762	0.011204
 120	5.9500e-02	1.1861	-15.116553	0.000569	5.686071	0.963247	0.011375
 121	6.0000e-02	1.1948	-15.063956	0.000526	5.258547	0.890822	0.010520
 122	6.0500e-02	1.2060	-14.998957	0.000650	6.498367	1.100853	0.013000
 123	6.1000e-02	1.2183	-14.951490	0.000475	4.745518	0.803913	0.009493
 124	6.1500e-02	1.2266	-14.902741	0.000487	4.873775	0.825640	0.009750
 125	6.2000e-02	1.2335	-14.846294	0.000564	5.643319	0.956004	0.011289
 126	6.2500e-02	1.2457	-14.796690	0.000496	4.959280	0.840125	0.009921
 127	6.3000e-02	1.2560	-14.741954	0.000547	5.472309	0.927034	0.010947
 128	6.3500e-02	1.2672	-14.688928	0.000530	5.301300	0.898064	0.010605
 129	6.4000e-02	1.2744	-14.651297	0.000376	3.762213	0.637336	0.007526
 130	6.4500e-02	1.2852	-14.579884	0.000714	7.139653	1.209490	0.014283
 131	6.5000e-02	1.2931	-14.520444	0.000594	5.942586	1.006701	0.011888
 132	6.5500e-02	1.3055	-14.487517	0.000329	3.291936	0.557669	0.006585
 133	6.6000e-02	1.3162	-14.418669	0.000688	6.883139	1.166035	0.013770
 134	6.6500e-02	1.3272	-14.369064	0.000496	4.959280	0.840125	0.009921
 135	6.7000e-02	1.3365	-14.313046	0.000560	5.600567	0.948762	0.011204
 136	6.7500e-02	1.3472	-14.250612	0.000624	6.241853	1.057398	0.012487
 137	6.8000e-02	1.3559	-14.225382	0.000252	2.522393	0.427305	0.005046
 138	6.8500e-02	1.3673	-14.169363	0.000560	5.600567	0.948762	0.011204
 139	6.9000e-02	1.3747	-14.097522	0.000718	7.182406	1.216732	0.014368
 140	6.9500e-02	1.3857	-14.059036	0.000385	3.847717	0.651821	0.007697
 141	7.0000e-02	1.3932	-13.988906	0.000701	7.011396	1.187763	0.014026
 142	7.0500e-02	1.4061	-13.926472	0.000624	6.241853	1.057398	0.012487
 143	7.1000e-02	1.4157	-13.875585	0.000509	5.087538	0.861852	0.010177
 144	7.1500e-02	1.4262	-13.858480	0.000171	1.710097	0.289698	0.003421
 145	7.2000e-02	1.4349	-13.784073	0.000744	7.438920	1.260187	0.014881
 146	7.2500e-02	1.4454	-13.711804	0.000723	7.225158	1.223975	0.014454
 147	7.3000e-02	1.4536	-13.664766	0.000470	4.702766	0.796670	0.009408
 148	7.3500e-02	1.4693	-13.627562	0.000372	3.719460	0.630094	0.007441
 149	7.4000e-02	1.4747	-13.568978	0.000586	5.857081	0.992216	0.011717
 150	7.4500e-02	1.4876	-13.516807	0.000522	5.215795	0.883580	0.010434
 151	7.5000e-02	1.4982	-13.455229	0.000616	6.156348	1.042914	0.012316
 152	7.5500e-02	1.5034	-13.403059	0.000522	5.215795	0.883580	0.010434
 153	7.6000e-02	1.5152	-13.353454	0.000496	4.959280	0.840125	0.009921
 154	7.6500e-02	1.5239	-13.291876	0.000616	6.156348	1.042914	0.012316
 155	7.7000e-02	1.5347	-13.248686	0.000432	4.317994	0.731488	0.008638
 156	7.7500e-02	1.5455	-13.194378	0.000543	5.429557	0.919792	0.010862
 157	7.8000e-02	1.5571	-13.147767	0.000466	4.660013	0.789428	0.009322
 158	7.8500e-02	1.5668	-13.095169	0.000526	5.258547	0.890822	0.010520
 159	7.9000e-02	1.5759	-13.016058	0.000791	7.909197	1.339854	0.015822
 160	7.9500e-02	1.5876	-12.986124	0.000299	2.992669	0.506972	0.005987
 161	8.0000e-02	1.5959	-12.921553	0.000646	6.455615	1.093611	0.012914
 162	8.0500e-02	1.6060	-12.877935	0.000436	4.360746	0.738730	0.008724
 163	8.1000e-02	1.6182	-12.812508	0.000654	6.541120	1.108096	0.013085
 164	8.1500e-02	1.6273	-12.795403	0.000171	1.710097	0.289698	0.003421
 165	8.2000e-02	1.6370	-12.708596	0.000868	8.678740	1.470218	0.017362
 166	8.2500e-02	1.6444	-12.684649	0.000239	2.394135	0.405577	0.004789
 167	8.3000e-02	1.6544	-12.606393	0.000782	7.823692	1.325369	0.015651
 168	8.3500e-02	1.6635	-12.555933	0.000504	5.044785	0.854610	0.010092
 169	8.4000e-02	1.6748	-12.515737	0.000402	4.018727	0.680791	0.008039
 170	8.4500e-02	1.6849	-12.454158	0.000616	6.156348	1.042914	0.012316
 171	8.5000e-02	1.6953	-12.402416	0.000517	5.173042	0.876337	0.010349
 172	8.5500e-02	1.7059	-12.334423	0.000680	6.797634	1.151550	0.013598
 173	8.6000e-02	1.7183	-12.318601	0.000158	1.581839	0.267971	0.003164
 174	8.6500e-02	1.7241	-12.236925	0.000817	8.165711	1.383309	0.016335
 175	8.7000e-02	1.7390	-12.174919	0.000620	6.199100	1.050156	0.012401
 176	8.7500e-02	1.7492	-12.131301	0.000436	4.360746	0.738730	0.008724
 177	8.8000e-02	1.7572	-12.085546	0.000457	4.574509	0.774943	0.009151
 178	8.8500e-02	1.7658	-12.031237	0.000543	5.429557	0.919792	0.010862
 179	8.9000e-02	1.7776	-11.975218	0.000560	5.600567	0.948762	0.011204
 180	8.9500e-02	1.7854	-11.922193	0.000530	5.301300	0.898064	0.010605
 181	9.0000e-02	1.7940	-11.870450	0.000517	5.173042	0.876337	0.010349
 182	9.0500e-02	1.8068	-11.816997	0.000534	5.344052	0.905307	0.010691
 183	9.1000e-02	1.8154	-11.770386	0.000466	4.660013	0.789428	0.009322
 184	9.1500e-02	1.8288	-11.708380	0.000620	6.199100	1.050156	0.012401
 185	9.2000e-02	1.8378	-11.670749	0.000376	3.762213	0.637336	0.007526
 186	9.2500e-02	1.8459	-11.610454	0.000603	6.028091	1.021186	0.012059
 187	9.3000e-02	1.8555	-11.556145	0.000543	5.429557	0.919792	0.010862
 188	9.3500e-02	1.8646	-11.516804	0.000393	3.933222	0.666306	0.007868
 189	9.4000e-02	1.8747	-11.452660	0.000641	6.412862	1.086368	0.012829
 190	9.4500e-02	1.8854	-11.405621	0.000470	4.702766	0.796670	0.009408
 191	9.5000e-02	1.8948	-11.352168	0.000534	5.344052	0.905307	0.010691
 192	9.5500e-02	1.9095	-11.305557	0.000466	4.660013	0.789428	0.009322
 193	9.6000e-02	1.9162	-11.258091	0.000475	4.745518	0.803913	0.009493
 194	9.6500e-02	1.9262	-11.202499	0.000556	5.557814	0.941519	0.011118
 195	9.7000e-02	1.9365	-11.142632	0.000599	5.985338	1.013944	0.011974
 196	9.7500e-02	1.9462	-11.093883	0.000487	4.873775	0.825640	0.009750
 197	9.8000e-02	1.9562	-11.045988	0.000479	4.788271	0.811155	0.009579
 198	9.8500e-02	1.9688	-10.983983	0.000620	6.199100	1.050156	0.012401
 199	9.9000e-02	1.9756	-10.934806	0.000492	4.916528	0.832882	0.009835
 200	9.9500e-02	1.9868	-10.886484	0.000483	4.831023	0.818397	0.009664
 201	1.0000e-01	1.9971	-10.851419	0.000351	3.505698	0.593881	0.007013
 202	1.0050e-01	2.0085	-10.800104	0.000513	5.130290	0.869095	0.010263
 203	1.0100e-01	2.0178	-10.721421	0.000787	7.866445	1.332612	0.015737
 204	1.0150e-01	2.0263	-10.694908	0.000265	2.650650	0.449032	0.005303
 205	1.0200e-01	2.0377	-10.608528	0.000864	8.635988	1.462976	0.017276
 206	1.0250e-01	2.0453	-10.598265	0.000103	1.026058	0.173819	0.002053
 207	1.0300e-01	2.0542	-10.541391	0.000569	5.686071	0.963247	0.011375
 208	1.0350e-01	2.0660	-10.461852	0.000795	7.951949	1.347097	0.015908
 209	1.0400e-01	2.0776	-10.437478	0.000244	2.436888	0.412820	0.004875
 210	1.0450e-01	2.0854	-10.381031	0.000564	5.643319	0.956004	0.011289
 211	1.0500e-01	2.0941	-10.318598	0.000624	6.241853	1.057398	0.012487
 212	1.0550e-01	2.1082	-10.256165	0.000624	6.241853	1.057398	0.012487
 213	1.0600e-01	2.1169	-10.224948	0.000312	3.120926	0.528699	0.006243
 214	1.0650e-01	2.1259	-10.165080	0.000599	5.985338	1.013944	0.011974
 215	1.0700e-01	2.1375	-10.122746	0.000423	4.232489	0.717003	0.008467
 216	1.0750e-01	2.1445	-10.081266	0.000415	4.146984	0.702518	0.008296
 217	1.0800e-01	2.1573	-10.014556	0.000667	6.669377	1.129823	0.013342
 218	1.0850e-01	2.1678	-9.967090	0.000475	4.745518	0.803913	0.009493
 219	1.0900e-01	2.1749	-9.921762	0.000453	4.531756	0.767700	0.009066
 220	1.0950e-01	2.1863	-9.856763	0.000650	6.498367	1.100853	0.013000
 221	1.1000e-01	2.1986	-9.793046	0.000637	6.370110	1.079126	0.012743
 222	1.1050e-01	2.2117	-9.780645	0.000124	1.239820	0.210031	0.002480
 223	1.1100e-01	2.2166	-9.712653	0.000680	6.797634	1.151550	0.013598
 224	1.1150e-01	2.2265	-9.666897	0.000457	4.574509	0.774943	0.009151
 225	1.1200e-01	2.2392	-9.599760	0.000671	6.712129	1.137065	0.013427
 226	1.1250e-01	2.2468	-9.559135	0.000406	4.061480	0.688033	0.008125
 227	1.1300e-01	2.2578	-9.499695	0.000594	5.942586	1.006701	0.011888
 228	1.1350e-01	2.2658	-9.449236	0.000504	5.044785	0.854610	0.010092
 229	1.1400e-01	2.2792	-9.406046	0.000432	4.317994	0.731488	0.008638
 230	1.1450e-01	2.2858	-9.356441	0.000496	4.959280	0.840125	0.009921
 231	1.1500e-01	2.2945	-9.310685	0.000457	4.574509	0.774943	0.009151
 232	1.1550e-01	2.3060	-9.267495	0.000432	4.317994	0.731488	0.008638
 233	1.1600e-01	2.3180	-9.220029	0.000475	4.745518	0.803913	0.009493
 234	1.1650e-01	2.3286	-9.157168	0.000628	6.284605	1.064641	0.012572
 235	1.1700e-01	2.3386	-9.124668	0.000325	3.249184	0.550427	0.006500
 236	1.1750e-01	2.3465	-9.056248	0.000684	6.840387	1.158793	0.013684
 237	1.1800e-01	2.3578	-9.007071	0.000492	4.916528	0.832882	0.009835
 238	1.1850e-01	2.3672	-8.961315	0.000457	4.574509	0.774943	0.009151
 239	1.1900e-01	2.3761	-8.899737	0.000616	6.156348	1.042914	0.012316
 240	1.1950e-01	2.3854	-8.850133	0.000496	4.959280	0.840125	0.009921
 241	1.2000e-01	2.3965	-8.805232	0.000449	4.489004	0.760458	0.008980
 242	1.2050e-01	2.4084	-8.741943	0.000633	6.327358	1.071883	0.012658
 243	1.2100e-01	2.4158	-8.699181	0.000428	4.275242	0.724246	0.008553
 244	1.2150e-01	2.4280	-8.639741	0.000594	5.942586	1.006701	0.011888
 245	1.2200e-01	2.4351	-8.602965	0.000368	3.676708	0.622851	0.007355
 246	1.2250e-01	2.4457	-8.551650	0.000513	5.130290	0.869095	0.010263
 247	1.2300e-01	2.4567	-8.490500	0.000611	6.113595	1.035671	0.012230
 248	1.2350e-01	2.4699	-8.452869	0.000376	3.762213	0.637336	0.007526
 249	1.2400e-01	2.4788	-8.400699	0.000522	5.215795	0.883580	0.010434
 250	1.2450e-01	2.4866	-8.363067	0.000376	3.762213	0.637336	0.007526
 251	1.2500e-01	2.4936	-8.292082	0.000710	7.096901	1.202248	0.014197
 252	1.2550e-01	2.5040	-8.265141	0.000269	2.693402	0.456275	0.005388
 253	1.2600e-01	2.5171	-8.219813	0.000453	4.531756	0.767700	0.009066
 254	1.2650e-01	2.5294	-8.172774	0.000470	4.702766	0.796670	0.009408
 255	1.2700e-01	2.5373	-8.113334	0.000594	5.942586	1.006701	0.011888
 256	1.2750e-01	2.5494	-8.060309	0.000530	5.301300	0.898064	0.010605
 257	1.2800e-01	2.5545	-8.012842	0.000475	4.745518	0.803913	0.009493
 258	1.2850e-01	2.5659	-7.961100	0.000517	5.173042	0.876337	0.010349
 259	1.2900e-01	2.5793	-7.898239	0.000628	6.284605	1.064641	0.012572
 260	1.2950e-01	2.5842	-7.862746	0.000355	3.548451	0.601124	0.007099
 261	1.3000e-01	2.5961	-7.811003	0.000517	5.173042	0.876337	0.010349
 262	1.3050e-01	2.6068	-7.758833	0.000522	5.215795	0.883580	0.010434
 263	1.3100e-01	2.6160	-7.726333	0.000325	3.249184	0.550427	0.006500
 264	1.3150e-01	2.6276	-7.655775	0.000705	7.054149	1.195005	0.014112
 265	1.3200e-01	2.6373	-7.607881	0.000479	4.788271	0.811155	0.009579
 266	1.3250e-01	2.6462	-7.546303	0.000616	6.156348	1.042914	0.012316
 267	1.3300e-01	2.6564	-7.518508	0.000278	2.778907	0.470760	0.005559
 268	1.3350e-01	2.6639	-7.480877	0.000376	3.762213	0.637336	0.007526
 269	1.3400e-01	2.6755	-7.422292	0.000586	5.857081	0.992216	0.011717
 270	1.3450e-01	2.6901	-7.364562	0.000577	5.771576	0.977731	0.011546
 271	1.3500e-01	2.6971	-7.293149	0.000714	7.139653	1.209490	0.014283
 272	1.3550e-01	2.7045	-7.266636	0.000265	2.650650	0.449032	0.005303
 273	1.3600e-01	2.7177	-7.222591	0.000440	4.403499	0.745973	0.008809
 274	1.3650e-01	2.7237	-7.155026	0.000675	6.754882	1.144308	0.013513
 275	1.3700e-01	2.7348	-7.106277	0.000487	4.873775	0.825640	0.009750
 276	1.3750e-01	2.7478	-7.066935	0.000393	3.933222	0.666306	0.007868
 277	1.3800e-01	2.7571	-7.023318	0.000436	4.360746	0.738730	0.008724
 278	1.3850e-01	2.7658	-6.962167	0.000611	6.113595	1.035671	0.012230
 279	1.3900e-01	2.7778	-6.910852	0.000513	5.130290	0.869095	0.010263
 280	1.3950e-01	2.7884	-6.896313	0.000145	1.453582	0.246243	0.002908
 281	1.4000e-01	2.7979	-6.829603	0.000667	6.669377	1.129823	0.013342
 282	1.4050e-01	2.8035	-6.786841	0.000428	4.275242	0.724246	0.008553
 283	1.4100e-01	2.8192	-6.743223	0.000436	4.360746	0.738730	0.008724
 284	1.4150e-01	2.8293	-6.680790	0.000624	6.241853	1.057398	0.012487
 285	1.4200e-01	2.8383	-6.626909	0.000539	5.386804	0.912549	0.010776
 286	1.4250e-01	2.8448	-6.579015	0.000479	4.788271	0.811155	0.009579
 287	1.4300e-01	2.8574	-6.532404	0.000466	4.660013	0.789428	0.009322
 288	1.4350e-01	2.8677	-6.481516	0.000509	5.087538	0.861852	0.010177
 289	1.4400e-01	2.8738	-6.442602	0.000389	3.890470	0.659063	0.007783
 290	1.4450e-01	2.8873	-6.387011	0.000556	5.557814	0.941519	0.011118
 291	1.4500e-01	2.8921	-6.325005	0.000620	6.199100	1.050156	0.012401
 292	1.4550e-01	2.9047	-6.277111	0.000479	4.788271	0.811155	0.009579
 293	1.4600e-01	2.9184	-6.259151	0.000180	1.795601	0.304183	0.003592
 294	1.4650e-01	2.9254	-6.193297	0.000658	6.583872	1.115338	0.013171
 295	1.4700e-01	2.9373	-6.125304	0.000680	6.797634	1.151550	0.013598
 296	1.4750e-01	2.9471	-6.081687	0.000436	4.360746	0.738730	0.008724
 297	1.4800e-01	2.9572	-6.035076	0.000466	4.660013	0.789428	0.009322
 298	1.4850e-01	2.9663	-6.018398	0.000167	1.667344	0.282456	0.003335
 299	1.4900e-01	2.9761	-5.940570	0.000778	7.780940	1.318127	0.015566
 300	1.4950e-01	2.9858	-5.905933	0.000346	3.462946	0.586639	0.006928
 301	1.5000e-01	2.9967	-5.852480	0.000534	5.344052	0.905307	0.010691
 302	1.5050e-01	3.0054	-5.797316	0.000552	5.515062	0.934277	0.011033
 303	1.5100e-01	3.0164	-5.760112	0.000372	3.719460	0.630094	0.007441
 304	1.5150e-01	3.0292	-5.709653	0.000504	5.044785	0.854610	0.010092
 305	1.5200e-01	3.0383	-5.653206	0.000564	5.643319	0.956004	0.011289
 306	1.5250e-01	3.0469	-5.616003	0.000372	3.719460	0.630094	0.007441
 307	1.5300e-01	3.0558	-5.568109	0.000479	4.788271	0.811155	0.009579
 308	1.5350e-01	3.0682	-5.527912	0.000402	4.018727	0.680791	0.008039
 309	1.5400e-01	3.0786	-5.466762	0.000611	6.113595	1.035671	0.012230
 310	1.5450e-01	3.0829	-5.424854	0.000419	4.189737	0.709761	0.008381
 311	1.5500e-01	3.0923	-5.354296	0.000705	7.054149	1.195005	0.014112
 312	1.5550e-01	3.1084	-5.335908	0.000184	1.838354	0.311426	0.003678
 313	1.5600e-01	3.1152	-5.267916	0.000680	6.797634	1.151550	0.013598
 314	1.5650e-01	3.1256	-5.223443	0.000445	4.446251	0.753215	0.008895
 315	1.5700e-01	3.1348	-5.186667	0.000368	3.676708	0.622851	0.007355
 316	1.5750e-01	3.1454	-5.124661	0.000620	6.199100	1.050156	0.012401
 317	1.5800e-01	3.1570	-5.090879	0.000338	3.377441	0.572154	0.006756
 318	1.5850e-01	3.1664	-5.037426	0.000534	5.344052	0.905307	0.010691
 319	1.5900e-01	3.1766	-4.991242	0.000462	4.617261	0.782185	0.009237
 320	1.5950e-01	3.1862	-4.952756	0.000385	3.847717	0.651821	0.007697
 321	1.6000e-01	3.1989	-4.902724	0.000500	5.002033	0.847367	0.010006
 322	1.6050e-01	3.2058	-4.850126	0.000526	5.258547	0.890822	0.010520
 323	1.6100e-01	3.2178	-4.810784	0.000393	3.933222	0.666306	0.007868
 324	1.6150e-01	3.2285	-4.762463	0.000483	4.831023	0.818397	0.009664
 325	1.6200e-01	3.2364	-4.722694	0.000398	3.975975	0.673548	0.007954
 326	1.6250e-01	3.2486	-4.670096	0.000526	5.258547	0.890822	0.010520
 327	1.6300e-01	3.2571	-4.616215	0.000539	5.386804	0.912549	0.010776
 328	1.6350e-01	3.2684	-4.560196	0.000560	5.600567	0.948762	0.011204
 329	1.6400e-01	3.2770	-4.503749	0.000564	5.643319	0.956004	0.011289
 330	1.6450e-01	3.2846	-4.487500	0.000162	1.624592	0.275213	0.003250
 331	1.6500e-01	3.2996	-4.431481	0.000560	5.600567	0.948762	0.011204
 332	1.6550e-01	3.3066	-4.385725	0.000457	4.574509	0.774943	0.009151
 333	1.6600e-01	3.3167	-4.334410	0.000513	5.130290	0.869095	0.010263
 334	1.6650e-01	3.3279	-4.283522	0.000509	5.087538	0.861852	0.010177
 335	1.6700e-01	3.3362	-4.254444	0.000291	2.907164	0.492487	0.005816
 336	1.6750e-01	3.3447	-4.210398	0.000440	4.403499	0.745973	0.008809
 337	1.6800e-01	3.3546	-4.146682	0.000637	6.370110	1.079126	0.012743
 338	1.6850e-01	3.3673	-4.109907	0.000368	3.676708	0.622851	0.007355
 339	1.6900e-01	3.3772	-4.064151	0.000457	4.574509	0.774943	0.009151
 340	1.6950e-01	3.3850	-3.996158	0.000680	6.797634	1.151550	0.013598
 341	1.7000e-01	3.3966	-3.946554	0.000496	4.959280	0.840125	0.009921
 342	1.7050e-01	3.4058	-3.892673	0.000539	5.386804	0.912549	0.010776
 343	1.7100e-01	3.4167	-3.870436	0.000222	2.223126	0.376608	0.004447
 344	1.7150e-01	3.4235	-3.836654	0.000338	3.377441	0.572154	0.006756
 345	1.7200e-01	3.4367	-3.769517	0.000671	6.712129	1.137065	0.013427
 346	1.7250e-01	3.4479	-3.713926	0.000556	5.557814	0.941519	0.011118
 347	1.7300e-01	3.4604	-3.693399	0.000205	2.052116	0.347638	0.004105
 348	1.7350e-01	3.4659	-3.650637	0.000428	4.275242	0.724246	0.008553
 349	1.7400e-01	3.4741	-3.593763	0.000569	5.686071	0.963247	0.011375
 350	1.7450e-01	3.4854	-3.544158	0.000496	4.959280	0.840125	0.009921
 351	1.7500e-01	3.4973	-3.500113	0.000440	4.403499	0.745973	0.008809
 352	1.7550e-01	3.5052	-3.438535	0.000616	6.156348	1.042914	0.012316
 353	1.7600e-01	3.5156	-3.406891	0.000316	3.163679	0.535942	0.006329
 354	1.7650e-01	3.5267	-3.374391	0.000325	3.249184	0.550427	0.006500
 355	1.7700e-01	3.5364	-3.321793	0.000526	5.258547	0.890822	0.010520
 356	1.7750e-01	3.5489	-3.274754	0.000470	4.702766	0.796670	0.009408
 357	1.7800e-01	3.5553	-3.224722	0.000500	5.002033	0.847367	0.010006
 358	1.7850e-01	3.5675	-3.159723	0.000650	6.498367	1.100853	0.013000
 359	1.7900e-01	3.5759	-3.136204	0.000235	2.351383	0.398335	0.004704
 360	1.7950e-01	3.5851	-3.084461	0.000517	5.173042	0.876337	0.010349
 361	1.8000e-01	3.5980	-3.039988	0.000445	4.446251	0.753215	0.008895
 362	1.8050e-01	3.6096	-3.002785	0.000372	3.719460	0.630094	0.007441
 363	1.8100e-01	3.6188	-2.947193	0.000556	5.557814	0.941519	0.011118
 364	1.8150e-01	3.6273	-2.875352	0.000718	7.182406	1.216732	0.014368
 365	1.8200e-01	3.6415	-2.864662	0.000107	1.068810	0.181061	0.002138
 366	1.8250e-01	3.6477	-2.800946	0.000637	6.370110	1.079126	0.012743
 367	1.8300e-01	3.6572	-2.765453	0.000355	3.548451	0.601124	0.007099
 368	1.8350e-01	3.6658	-2.710289	0.000552	5.515062	0.934277	0.011033
 369	1.8400e-01	3.6771	-2.673086	0.000372	3.719460	0.630094	0.007441
 370	1.8450e-01	3.6861	-2.615784	0.000573	5.728824	0.970489	0.011460
 371	1.8500e-01	3.6990	-2.579008	0.000368	3.676708	0.622851	0.007355
 372	1.8550e-01	3.7067	-2.537101	0.000419	4.189737	0.709761	0.008381
 373	1.8600e-01	3.7160	-2.473385	0.000637	6.370110	1.079126	0.012743
 374	1.8650e-01	3.7280	-2.442596	0.000308	3.078174	0.521457	0.006158
 375	1.8700e-01	3.7349	-2.389998	0.000526	5.258547	0.890822	0.010520
 376	1.8750e-01	3.7469	-2.331413	0.000586	5.857081	0.992216	0.011717
 377	1.8800e-01	3.7601	-2.285229	0.000462	4.617261	0.782185	0.009237
 378	1.8850e-01	3.7653	-2.287795	-0.000026	-0.256514	-0.043455	-0.000513
 379	1.8900e-01	3.7756	-2.227500	0.000603	6.028091	1.021186	0.012059
 380	1.8950e-01	3.7900	-2.167633	0.000599	5.985338	1.013944	0.011974
 381	1.9000e-01	3.7970	-2.130429	0.000372	3.719460	0.630094	0.007441
 382	1.9050e-01	3.8028	-2.073555	0.000569	5.686071	0.963247	0.011375
 383	1.9100e-01	3.8171	-2.050891	0.000227	2.265878	0.383850	0.004533
 384	1.9150e-01	3.8258	-1.991023	0.000599	5.985338	1.013944	0.011974
 385	1.9200e-01	3.8358	-1.946978	0.000440	4.403499	0.745973	0.008809
 386	1.9250e-01	3.8486	-1.885400	0.000616	6.156348	1.042914	0.012316
 387	1.9300e-01	3.8568	-1.846058	0.000393	3.933222	0.666306	0.007868
 388	1.9350e-01	3.8672	-1.810993	0.000351	3.505698	0.593881	0.007013
 389	1.9400e-01	3.8739	-1.769513	0.000415	4.146984	0.702518	0.008296
 390	1.9450e-01	3.8867	-1.716060	0.000534	5.344052	0.905307	0.010691
 391	1.9500e-01	3.8965	-1.694251	0.000218	2.180373	0.369365	0.004362
 392	1.9550e-01	3.9063	-1.642936	0.000513	5.130290	0.869095	0.010263
 393	1.9600e-01	3.9156	-1.565536	0.000774	7.738187	1.310884	0.015480
 394	1.9650e-01	3.9265	-1.541161	0.000244	2.436888	0.412820	0.004875
 395	1.9700e-01	3.9343	-1.506524	0.000346	3.462946	0.586639	0.006928
 396	1.9750e-01	3.9465	-1.437676	0.000688	6.883139	1.166035	0.013770
 397	1.9800e-01	3.9554	-1.404321	0.000333	3.334688	0.564912	0.006671
 398	1.9850e-01	3.9688	-1.358993	0.000453	4.531756	0.767700	0.009066
 399	1.9900e-01	3.9737	-1.330770	0.000282	2.821659	0.478002	0.005645
 400	1.9950e-01	3.9853	-1.279882	0.000509	5.087538	0.861852	0.010177
 401	2.0000e-01	3.9957	-1.225574	0.000543	5.429557	0.919792	0.010862
 402	2.0050e-01	4.0076	-1.176397	0.000492	4.916528	0.832882	0.009835
 403	2.0100e-01	4.0178	-1.139194	0.000372	3.719460	0.630094	0.007441
 404	2.0150e-01	4.0260	-1.088306	0.000509	5.087538	0.861852	0.010177
 405	2.0200e-01	4.0375	-1.049392	0.000389	3.890470	0.659063	0.007783
 406	2.0250e-01	4.0460	-0.999360	0.000500	5.002033	0.847367	0.010006
 407	2.0300e-01	4.0564	-0.948473	0.000509	5.087538	0.861852	0.010177
 408	2.0350e-01	4.0683	-0.924098	0.000244	2.436888	0.412820	0.004875
 409	2.0400e-01	4.0805	-0.877487	0.000466	4.660013	0.789428	0.009322
 410	2.0450e-01	4.0863	-0.811633	0.000658	6.583872	1.115338	0.013171
 411	2.0500e-01	4.0950	-0.780844	0.000308	3.078174	0.521457	0.006158
 412	2.0550e-01	4.1061	-0.723542	0.000573	5.728824	0.970489	0.011460
 413	2.0600e-01	4.1150	-0.683773	0.000398	3.975975	0.673548	0.007954
 414	2.0650e-01	4.1273	-0.638445	0.000453	4.531756	0.767700	0.009066
 415	2.0700e-01	4.1371	-0.622195	0.000162	1.624592	0.275213	0.003250
 416	2.0750e-01	4.1463	-0.574728	0.000475	4.745518	0.803913	0.009493
 417	2.0800e-01	4.1544	-0.513578	0.000611	6.113595	1.035671	0.012230
 418	2.0850e-01	4.1687	-0.479796	0.000338	3.377441	0.572154	0.006756
 419	2.0900e-01	4.1803	-0.440454	0.000393	3.933222	0.666306	0.007868
 420	2.0950e-01	4.1861	-0.392132	0.000483	4.831023	0.818397	0.009664
 421	2.1000e-01	4.1983	-0.335686	0.000564	5.643319	0.956004	0.011289
 422	2.1050e-01	4.2062	-0.276246	0.000594	5.942586	1.006701	0.011888
 423	2.1100e-01	4.2145	-0.252299	0.000239	2.394135	0.405577	0.004789
 424	2.1150e-01	4.2245	-0.221510	0.000308	3.078174	0.521457	0.006158
 425	2.1200e-01	4.2386	-0.164636	0.000569	5.686071	0.963247	0.011375
 426	2.1250e-01	4.2456	-0.133847	0.000308	3.078174	0.521457	0.006158
 427	2.1300e-01	4.2548	-0.074834	0.000590	5.899833	0.999459	0.011802
 428	2.1350e-01	4.2700	-0.037203	0.000376	3.762213	0.637336	0.007526
 429	2.1400e-01	4.2764	0.018388	0.000556	5.557814	0.941519	0.011118
 430	2.1450e-01	4.2872	0.068420	0.000500	5.002033	0.847367	0.010006
 431	2.1500e-01	4.2979	0.092367	0.000239	2.394135	0.405577	0.004789
 432	2.1550e-01	4.3063	0.151807	0.000594	5.942586	1.006701	0.011888
 433	2.1600e-01	4.3188	0.206543	0.000547	5.472309	0.927034	0.010947
 434	2.1650e-01	4.3275	0.220227	0.000137	1.368077	0.231759	0.002737
 435	2.1700e-01	4.3402	0.245457	0.000252	2.522393	0.427305	0.005046
 436	2.1750e-01	4.3488	0.317726	0.000723	7.225158	1.223975	0.014454
 437	2.1800e-01	4.3564	0.354074	0.000363	3.633955	0.615609	0.007270
 438	2.1850e-01	4.3666	0.385290	0.000312	3.120926	0.528699	0.006243
 439	2.1900e-01	4.3763	0.446013	0.000607	6.070843	1.028429	0.012145
 440	2.1950e-01	4.3845	0.488348	0.000423	4.232489	0.717003	0.008467
 441	2.2000e-01	4.3994	0.542229	0.000539	5.386804	0.912549	0.010776
 442	2.2050e-01	4.4080	0.568742	0.000265	2.650650	0.449032	0.005303
 443	2.2100e-01	4.4189	0.618774	0.000500	5.002033	0.847367	0.010006
 444	2.2150e-01	4.4275	0.659398	0.000406	4.061480	0.688033	0.008125
 445	2.2200e-01	4.4360	0.707720	0.000483	4.831023	0.818397	0.009664
 446	2.2250e-01	4.4489	0.725252	0.000175	1.752849	0.296941	0.003507
 447	2.2300e-01	4.4586	0.797521	0.000723	7.225158	1.223975	0.014454
 448	2.2350e-01	4.4682	0.832586	0.000351	3.505698	0.593881	0.007013
 449	2.2400e-01	4.4788	0.871500	0.000389	3.890470	0.659063	0.007783
 450	2.2450e-01	4.4873	0.901434	0.000299	2.992669	0.506972	0.005987
 451	2.2500e-01	4.4951	0.977124	0.000757	7.567178	1.281915	0.015138
 452	2.2550e-01	4.5078	1.009196	0.000321	3.206431	0.543184	0.006414
 453	2.2600e-01	4.5160	1.035281	0.000261	2.607897	0.441790	0.005217
 454	2.2650e-01	4.5276	1.091300	0.000560	5.600567	0.948762	0.011204
 455	2.2700e-01	4.5351	1.119095	0.000278	2.778907	0.470760	0.005559
 456	2.2750e-01	4.5472	1.162713	0.000436	4.360746	0.738730	0.008724
 457	2.2800e-01	4.5560	1.207614	0.000449	4.489004	0.760458	0.008980
 458	2.2850e-01	4.5667	1.257646	0.000500	5.002033	0.847367	0.010006
 459	2.2900e-01	4.5782	1.322645	0.000650	6.498367	1.100853	0.013000
 460	2.2950e-01	4.5892	1.346592	0.000239	2.394135	0.405577	0.004789
 461	2.3000e-01	4.6002	1.362414	0.000158	1.581839	0.267971	0.003164
 462	2.3050e-01	4.6060	1.413302	0.000509	5.087538	0.861852	0.010177
 463	2.3100e-01	4.6170	1.459913	0.000466	4.660013	0.789428	0.009322
 464	2.3150e-01	4.6262	1.519353	0.000594	5.942586	1.006701	0.011888
 465	2.3200e-01	4.6363	1.544155	0.000248	2.479640	0.420062	0.004960
 466	2.3250e-01	4.6461	1.593332	0.000492	4.916528	0.832882	0.009835
 467	2.3300e-01	4.6561	1.632673	0.000393	3.933222	0.666306	0.007868
 468	2.3350e-01	4.6683	1.689120	0.000564	5.643319	0.956004	0.011289
 469	2.3400e-01	4.6777	1.744711	0.000556	5.557814	0.941519	0.011118
 470	2.3450e-01	4.6884	1.770796	0.000261	2.607897	0.441790	0.005217
 471	2.3500e-01	4.6980	1.819546	0.000487	4.873775	0.825640	0.009750
 472	2.3550e-01	4.7058	1.835795	0.000162	1.624592	0.275213	0.003250
 473	2.3600e-01	4.7180	1.880696	0.000449	4.489004	0.760458	0.008980
 474	2.3650e-01	4.7266	1.950399	0.000697	6.968644	1.180520	0.013941
 475	2.3700e-01	4.7374	1.975629	0.000252	2.522393	0.427305	0.005046
 476	2.3750e-01	4.7473	2.010694	0.000351	3.505698	0.593881	0.007013
 477	2.3800e-01	4.7578	2.067996	0.000573	5.728824	0.970489	0.011460
 478	2.3850e-01	4.7667	2.086384	0.000184	1.838354	0.311426	0.003678
 479	2.3900e-01	4.7794	2.132995	0.000466	4.660013	0.789428	0.009322
 480	2.3950e-01	4.7882	2.181317	0.000483	4.831023	0.818397	0.009664
 481	2.4000e-01	4.7968	2.220658	0.000393	3.933222	0.666306	0.007868
 482	2.4050e-01	4.8071	2.270263	0.000496	4.959280	0.840125	0.009921
 483	2.4100e-01	4.8148	2.311742	0.000415	4.146984	0.702518	0.008296
 484	2.4150e-01	4.8254	2.372893	0.000611	6.113595	1.035671	0.012230
 485	2.4200e-01	4.8364	2.392991	0.000201	2.009364	0.340395	0.004020
 486	2.4250e-01	4.8480	2.450293	0.000573	5.728824	0.970489	0.011460
 487	2.4300e-01	4.8547	2.492628	0.000423	4.232489	0.717003	0.008467
 488	2.4350e-01	4.8694	2.508877	0.000162	1.624592	0.275213	0.003250
 489	2.4400e-01	4.8763	2.579863	0.000710	7.096901	1.202248	0.014197
 490	2.4450e-01	4.8895	2.602527	0.000227	2.265878	0.383850	0.004533
 491	2.4500e-01	4.8982	2.648711	0.000462	4.617261	0.782185	0.009237
 492	2.4550e-01	4.9091	2.679928	0.000312	3.120926	0.528699	0.006243
 493	2.4600e-01	4.9170	2.721835	0.000419	4.189737	0.709761	0.008381
 494	2.4650e-01	4.9255	2.774860	0.000530	5.301300	0.898064	0.010605
 495	2.4700e-01	4.9374	2.806932	0.000321	3.206431	0.543184	0.006414
 496	2.4750e-01	4.9475	2.862524	0.000556	5.557814	0.941519	0.011118
 497	2.4800e-01	4.9568	2.882622	0.000201	2.009364	0.340395	0.004020
 498	2.4850e-01	4.9666	2.921536	0.000389	3.890470	0.659063	0.007783
 499	2.4900e-01	4.9750	2.967719	0.000462	4.617261	0.782185	0.009237
 500	2.4950e-01	4.9860	3.029725	0.000620	6.199100	1.050156	0.012401
 501	2.5000e-01	4.9966	3.071205	0.000415	4.146984	0.702518	0.008296
 502	2.5050e-01	5.0082	3.086172	0.000150	1.496335	0.253486	0.002993
 503	2.5100e-01	5.0185	3.142618	0.000564	5.643319	0.956004	0.011289
 504	2.5150e-01	5.0278	3.170841	0.000282	2.821659	0.478002	0.005645
 505	2.5200e-01	5.0389	3.208900	0.000380	3.804965	0.644579	0.007612
 506	2.5250e-01	5.0494	3.261070	0.000522	5.215795	0.883580	0.010434
 507	2.5300e-01	5.0574	3.289294	0.000282	2.821659	0.478002	0.005645
 508	2.5350e-01	5.0671	3.338898	0.000496	4.959280	0.840125	0.009921
 509	2.5400e-01	5.0778	3.379095	0.000402	4.018727	0.680791	0.008039
 510	2.5450e-01	5.0870	3.414160	0.000351	3.505698	0.593881	0.007013
 511	2.5500e-01	5.0946	3.465475	0.000513	5.130290	0.869095	0.010263
 512	2.5550e-01	5.1050	3.501823	0.000363	3.633955	0.615609	0.007270
 513	2.5600e-01	5.1154	3.543731	0.000419	4.189737	0.709761	0.008381
 514	2.5650e-01	5.1245	3.580934	0.000372	3.719460	0.630094	0.007441
 515	2.5700e-01	5.1358	3.609585	0.000286	2.864412	0.485245	0.005730
 516	2.5750e-01	5.1443	3.669880	0.000603	6.028091	1.021186	0.012059
 517	2.5800e-01	5.1578	3.713070	0.000432	4.317994	0.731488	0.008638
 518	2.5850e-01	5.1678	3.745997	0.000329	3.291936	0.557669	0.006585
 519	2.5900e-01	5.1766	3.804582	0.000586	5.857081	0.992216	0.011717
 520	2.5950e-01	5.1900	3.844351	0.000398	3.975975	0.673548	0.007954
 521	2.6000e-01	5.1959	3.864022	0.000197	1.966611	0.333153	0.003934
 522	2.6050e-01	5.2057	3.900798	0.000368	3.676708	0.622851	0.007355
 523	2.6100e-01	5.2173	3.943988	0.000432	4.317994	0.731488	0.008638
 524	2.6150e-01	5.2283	3.998724	0.000547	5.472309	0.927034	0.010947
 525	2.6200e-01	5.2386	4.042769	0.000440	4.403499	0.745973	0.008809
 526	2.6250e-01	5.2466	4.050894	0.000081	0.812296	0.137607	0.001625
 527	2.6300e-01	5.2563	4.100071	0.000492	4.916528	0.832882	0.009835
 528	2.6350e-01	5.2667	4.158656	0.000586	5.857081	0.992216	0.011717
 529	2.6400e-01	5.2762	4.182603	0.000239	2.394135	0.405577	0.004789
 530	2.6450e-01	5.2844	4.217240	0.000346	3.462946	0.586639	0.006928
 531	2.6500e-01	5.2936	4.281812	0.000646	6.455615	1.093611	0.012914
 532	2.6550e-01	5.3073	4.308325	0.000265	2.650650	0.449032	0.005303
 533	2.6600e-01	5.3168	4.357502	0.000492	4.916528	0.832882	0.009835
 534	2.6650e-01	5.3271	4.382731	0.000252	2.522393	0.427305	0.005046
 535	2.6700e-01	5.3363	4.431908	0.000492	4.916528	0.832882	0.009835
 536	2.6750e-01	5.3479	4.461414	0.000295	2.949917	0.499729	0.005901
 537	2.6800e-01	5.3564	4.512302	0.000509	5.087538	0.861852	0.010177
 538	2.6850e-01	5.3699	4.549933	0.000376	3.762213	0.637336	0.007526
 539	2.6900e-01	5.3790	4.579011	0.000291	2.907164	0.492487	0.005816
 540	2.6950e-01	5.3851	4.627333	0.000483	4.831023	0.818397	0.009664
 541	2.7000e-01	5.3995	4.658122	0.000308	3.078174	0.521457	0.006158
 542	2.7050e-01	5.4059	4.706444	0.000483	4.831023	0.818397	0.009664
 543	2.7100e-01	5.4156	4.747923	0.000415	4.146984	0.702518	0.008296
 544	2.7150e-01	5.4260	4.784272	0.000363	3.633955	0.615609	0.007270
 545	2.7200e-01	5.4370	4.824468	0.000402	4.018727	0.680791	0.008039
 546	2.7250e-01	5.4456	4.876211	0.000517	5.173042	0.876337	0.010349
 547	2.7300e-01	5.4544	4.900586	0.000244	2.436888	0.412820	0.004875
 548	2.7350e-01	5.4636	4.930947	0.000304	3.035422	0.514214	0.006072
 549	2.7400e-01	5.4774	4.990815	0.000599	5.985338	1.013944	0.011974
 550	2.7450e-01	5.4877	5.034432	0.000436	4.360746	0.738730	0.008724
 551	2.7500e-01	5.4974	5.076767	0.000423	4.232489	0.717003	0.008467
 552	2.7550e-01	5.5057	5.112688	0.000359	3.591203	0.608366	0.007184
 553	2.7600e-01	5.5148	5.148608	0.000359	3.591203	0.608366	0.007184
 554	2.7650e-01	5.5256	5.191798	0.000432	4.317994	0.731488	0.008638
 555	2.7700e-01	5.5354	5.239265	0.000475	4.745518	0.803913	0.009493
 556	2.7750e-01	5.5457	5.257225	0.000180	1.795601	0.304183	0.003592
 557	2.7800e-01	5.5554	5.302126	0.000449	4.489004	0.760458	0.008980
 558	2.7850e-01	5.5670	5.368408	0.000663	6.626624	1.122581	0.013256
 559	2.7900e-01	5.5789	5.385940	0.000175	1.752849	0.296941	0.003507
 560	2.7950e-01	5.5884	5.412881	0.000269	2.693402	0.456275	0.005388
 561	2.8000e-01	5.5933	5.446235	0.000333	3.334688	0.564912	0.006671
 562	2.8050e-01	5.6079	5.495840	0.000496	4.959280	0.840125	0.009921
 563	2.8100e-01	5.6168	5.527484	0.000316	3.163679	0.535942	0.006329
 564	2.8150e-01	5.6287	5.566826	0.000393	3.933222	0.666306	0.007868
 565	2.8200e-01	5.6378	5.616858	0.000500	5.002033	0.847367	0.010006
 566	2.8250e-01	5.6482	5.653634	0.000368	3.676708	0.622851	0.007355
 567	2.8300e-01	5.6580	5.686989	0.000333	3.334688	0.564912	0.006671
 568	2.8350e-01	5.6671	5.734455	0.000475	4.745518	0.803913	0.009493
 569	2.8400e-01	5.6802	5.766099	0.000316	3.163679	0.535942	0.006329
 570	2.8450e-01	5.6854	5.802875	0.000368	3.676708	0.622851	0.007355
 571	2.8500e-01	5.6967	5.849914	0.000470	4.702766	0.796670	0.009408
 572	2.8550e-01	5.7069	5.897808	0.000479	4.788271	0.811155	0.009579
 573	2.8600e-01	5.7159	5.932018	0.000342	3.420193	0.579396	0.006842
 574	2.8650e-01	5.7275	5.979057	0.000470	4.702766	0.796670	0.009408
 575	2.8700e-01	5.7367	6.005997	0.000269	2.693402	0.456275	0.005388
 576	2.8750e-01	5.7468	6.040635	0.000346	3.462946	0.586639	0.006928
 577	2.8800e-01	5.7544	6.084680	0.000440	4.403499	0.745973	0.008809
 578	2.8850e-01	5.7660	6.118462	0.000338	3.377441	0.572154	0.006756
 579	2.8900e-01	5.7745	6.163363	0.000449	4.489004	0.760458	0.008980
 580	2.8950e-01	5.7849	6.231783	0.000684	6.840387	1.158793	0.013684
 581	2.9000e-01	5.7947	6.235204	0.000034	0.342019	0.057940	0.000684
 582	2.9050e-01	5.8081	6.278822	0.000436	4.360746	0.738730	0.008724
 583	2.9100e-01	5.8185	6.315170	0.000363	3.633955	0.615609	0.007270
 584	2.9150e-01	5.8264	6.335268	0.000201	2.009364	0.340395	0.004020
 585	2.9200e-01	5.8374	6.400267	0.000650	6.498367	1.100853	0.013000
 586	2.9250e-01	5.8478	6.436616	0.000363	3.633955	0.615609	0.007270
 587	2.9300e-01	5.8575	6.474247	0.000376	3.762213	0.637336	0.007526
 588	2.9350e-01	5.8631	6.502898	0.000286	2.864412	0.485245	0.005730
 589	2.9400e-01	5.8783	6.527272	0.000244	2.436888	0.412820	0.004875
 590	2.9450e-01	5.8875	6.591416	0.000641	6.412862	1.086368	0.012829
 591	2.9500e-01	5.8972	6.633751	0.000423	4.232489	0.717003	0.008467
 592	2.9550e-01	5.9064	6.682928	0.000492	4.916528	0.832882	0.009835
 593	2.9600e-01	5.9161	6.723980	0.000410	4.104232	0.695276	0.008210
 594	2.9650e-01	5.9265	6.733815	0.000098	0.983306	0.166576	0.001967
 595	2.9700e-01	5.9357	6.791545	0.000577	5.771576	0.977731	0.011546
 596	2.9750e-01	5.9457	6.815919	0.000244	2.436888	0.412820	0.004875
 597	2.9800e-01	5.9583	6.850129	0.000342	3.420193	0.579396	0.006842
 598	2.9850e-01	5.9662	6.877925	0.000278	2.778907	0.470760	0.005559
 599	2.9900e-01	5.9775	6.924964	0.000470	4.702766	0.796670	0.009408
 600	2.9950e-01	5.9894	6.955753	0.000308	3.078174	0.521457	0.006158
 601	3.0000e-01	5.9964	6.998088	0.000423	4.232489	0.717003	0.008467
 602	3.0050e-01	6.0056	7.049403	0.000513	5.130290	0.869095	0.010263
 603	3.0100e-01	6.0144	7.075915	0.000265	2.650650	0.449032	0.005303
 604	3.0150e-01	6.0254	7.104994	0.000291	2.907164	0.492487	0.005816
 605	3.0200e-01	6.0364	7.165717	0.000607	6.070843	1.028429	0.012145
 606	3.0250e-01	6.0443	7.205486	0.000398	3.975975	0.673548	0.007954
 607	3.0300e-01	6.0577	7.246966	0.000415	4.146984	0.702518	0.008296
 608	3.0350e-01	6.0669	7.273051	0.000261	2.607897	0.441790	0.005217
 609	3.0400e-01	6.0779	7.308544	0.000355	3.548451	0.601124	0.007099
 610	3.0450e-01	6.0907	7.335484	0.000269	2.693402	0.456275	0.005388
 611	3.0500e-01	6.0986	7.379529	0.000440	4.403499	0.745973	0.008809
 612	3.0550e-01	6.1053	7.432983	0.000534	5.344052	0.905307	0.010691
 613	3.0600e-01	6.1176	7.479166	0.000462	4.617261	0.782185	0.009237
 614	3.0650e-01	6.1255	7.509955	0.000308	3.078174	0.521457	0.006158
 615	3.0700e-01	6.1353	7.532619	0.000227	2.265878	0.383850	0.004533
 616	3.0750e-01	6.1462	7.567257	0.000346	3.462946	0.586639	0.006928
 617	3.0800e-01	6.1549	7.613013	0.000457	4.574509	0.774943	0.009151
 618	3.0850e-01	6.1664	7.648078	0.000351	3.505698	0.593881	0.007013
 619	3.0900e-01	6.1768	7.692551	0.000445	4.446251	0.753215	0.008895
 620	3.0950e-01	6.1859	7.710511	0.000180	1.795601	0.304183	0.003592
 621	3.1000e-01	6.1960	7.758405	0.000479	4.788271	0.811155	0.009579
 622	3.1050e-01	6.2097	7.793043	0.000346	3.462946	0.586639	0.006928
 623	3.1100e-01	6.2164	7.855476	0.000624	6.241853	1.057398	0.012487
 624	3.1150e-01	6.2262	7.884982	0.000295	2.949917	0.499729	0.005901
 625	3.1200e-01	6.2354	7.914916	0.000299	2.992669	0.506972	0.005987
 626	3.1250e-01	6.2454	7.952547	0.000376	3.762213	0.637336	0.007526
 627	3.1300e-01	6.2576	8.000869	0.000483	4.831023	0.818397	0.009664
 628	3.1350e-01	6.2671	8.034651	0.000338	3.377441	0.572154	0.006756
 629	3.1400e-01	6.2750	8.059881	0.000252	2.522393	0.427305	0.005046
 630	3.1450e-01	6.2866	8.115472	0.000556	5.557814	0.941519	0.011118
 631	3.1500e-01	6.2988	8.123597	0.000081	0.812296	0.137607	0.001625
 632	3.1550e-01	6.3080	8.148827	0.000252	2.522393	0.427305	0.005046
 633	3.1600e-01	6.3153	8.226227	0.000774	7.738187	1.310884	0.015480
 634	3.1650e-01	6.3275	8.263431	0.000372	3.719460	0.630094	0.007441
 635	3.1700e-01	6.3379	8.292509	0.000291	2.907164	0.492487	0.005816
 636	3.1750e-01	6.3467	8.333134	0.000406	4.061480	0.688033	0.008125
 637	3.1800e-01	6.3544	8.367344	0.000342	3.420193	0.579396	0.006842
 638	3.1850e-01	6.3660	8.387442	0.000201	2.009364	0.340395	0.004020
 639	3.1900e-01	6.3794	8.430632	0.000432	4.317994	0.731488	0.008638
 640	3.1950e-01	6.3864	8.488789	0.000581	5.814329	0.984974	0.011631
 641	3.2000e-01	6.3959	8.496487	0.000077	0.769543	0.130364	0.001539
 642	3.2050e-01	6.4084	8.543953	0.000475	4.745518	0.803913	0.009493
 643	3.2100e-01	6.4172	8.587571	0.000436	4.360746	0.738730	0.008724
 644	3.2150e-01	6.4258	8.636320	0.000487	4.873775	0.825640	0.009750
 645	3.2200e-01	6.4374	8.629906	-0.000064	-0.641286	-0.108637	-0.001283
 646	3.2250e-01	6.4468	8.697898	0.000680	6.797634	1.151550	0.013598
 647	3.2300e-01	6.4569	8.741088	0.000432	4.317994	0.731488	0.008638
 648	3.2350e-01	6.4673	8.766318	0.000252	2.522393	0.427305	0.005046
 649	3.2400e-01	6.4771	8.800528	0.000342	3.420193	0.579396	0.006842
 650	3.2450e-01	6.4844	8.824475	0.000239	2.394135	0.405577	0.004789
 651	3.2500e-01	6.4957	8.877928	0.000534	5.344052	0.905307	0.010691
 652	3.2550e-01	6.5063	8.908717	0.000308	3.078174	0.521457	0.006158
 653	3.2600e-01	6.5173	8.948914	0.000402	4.018727	0.680791	0.008039
 654	3.2650e-01	6.5273	8.979703	0.000308	3.078174	0.521457	0.006158
 655	3.2700e-01	6.5363	9.042136	0.000624	6.241853	1.057398	0.012487
 656	3.2750e-01	6.5491	9.055393	0.000133	1.325325	0.224516	0.002651
 657	3.2800e-01	6.5582	9.107991	0.000526	5.258547	0.890822	0.010520
 658	3.2850e-01	6.5657	9.142628	0.000346	3.462946	0.586639	0.006928
 659	3.2900e-01	6.5787	9.182825	0.000402	4.018727	0.680791	0.008039
 660	3.2950e-01	6.5869	9.191805	0.000090	0.897801	0.152092	0.001796
 661	3.3000e-01	6.5955	9.244403	0.000526	5.258547	0.890822	0.010520
 662	3.3050e-01	6.6055	9.277330	0.000329	3.291936	0.557669	0.006585
 663	3.3100e-01	6.6176	9.310685	0.000333	3.334688	0.564912	0.006671
 664	3.3150e-01	6.6281	9.365849	0.000552	5.515062	0.934277	0.011033
 665	3.3200e-01	6.6400	9.385947	0.000201	2.009364	0.340395	0.004020
 666	3.3250e-01	6.6461	9.426144	0.000402	4.018727	0.680791	0.008039
 667	3.3300e-01	6.6579	9.453084	0.000269	2.693402	0.456275	0.005388
 668	3.3350e-01	6.6644	9.509958	0.000569	5.686071	0.963247	0.011375
 669	3.3400e-01	6.6779	9.529202	0.000192	1.923859	0.325910	0.003849
 670	3.3450e-01	6.6882	9.573675	0.000445	4.446251	0.753215	0.008895
 671	3.3500e-01	6.6980	9.616437	0.000428	4.275242	0.724246	0.008553
 672	3.3550e-01	6.7059	9.653213	0.000368	3.676708	0.622851	0.007355
 673	3.3600e-01	6.7188	9.679298	0.000261	2.607897	0.441790	0.005217
 674	3.3650e-01	6.7261	9.728903	0.000496	4.959280	0.840125	0.009921
 675	3.3700e-01	6.7371	9.753705	0.000248	2.479640	0.420062	0.004960
 676	3.3750e-01	6.7459	9.797323	0.000436	4.360746	0.738730	0.008724
 677	3.3800e-01	6.7554	9.826401	0.000291	2.907164	0.492487	0.005816
 678	3.3850e-01	6.7664	9.860611	0.000342	3.420193	0.579396	0.006842
 679	3.3900e-01	6.7740	9.903374	0.000428	4.275242	0.724246	0.008553
 680	3.3950e-01	6.7896	9.925610	0.000222	2.223126	0.376608	0.004447
 681	3.4000e-01	6.7960	9.953406	0.000278	2.778907	0.470760	0.005559
 682	3.4050e-01	6.8066	10.003010	0.000496	4.959280	0.840125	0.009921
 683	3.4100e-01	6.8164	10.048766	0.000457	4.574509	0.774943	0.009151
 684	3.4150e-01	6.8219	10.085970	0.000372	3.719460	0.630094	0.007441
 685	3.4200e-01	6.8365	10.117186	0.000312	3.120926	0.528699	0.006243
 686	3.4250e-01	6.8469	10.155245	0.000380	3.804965	0.644579	0.007612
 687	3.4300e-01	6.8570	10.183468	0.000282	2.821659	0.478002	0.005645
 688	3.4350e-01	6.8642	10.229224	0.000457	4.574509	0.774943	0.009151
 689	3.4400e-01	6.8781	10.280112	0.000509	5.087538	0.861852	0.010177
 690	3.4450e-01	6.8863	10.306197	0.000261	2.607897	0.441790	0.005217
 691	3.4500e-01	6.8964	10.333137	0.000269	2.693402	0.456275	0.005388
 692	3.4550e-01	6.9052	10.383169	0.000500	5.002033	0.847367	0.010006
 693	3.4600e-01	6.9196	10.406689	0.000235	2.351383	0.398335	0.004704
 694	3.4650e-01	6.9287	10.432346	0.000257	2.565145	0.434547	0.005132
 695	3.4700e-01	6.9366	10.472971	0.000406	4.061480	0.688033	0.008125
 696	3.4750e-01	6.9482	10.516161	0.000432	4.317994	0.731488	0.008638
 697	3.4800e-01	6.9568	10.533693	0.000175	1.752849	0.296941	0.003507
 698	3.4850e-01	6.9672	10.582015	0.000483	4.831023	0.818397	0.009664
 699	3.4900e-01	6.9766	10.631192	0.000492	4.916528	0.832882	0.009835
 700	3.4950e-01	6.9885	10.658988	0.000278	2.778907	0.470760	0.005559
 701	3.5000e-01	6.9958	10.703461	0.000445	4.446251	0.753215	0.008895
 702	3.5050e-01	7.0056	10.736815	0.000333	3.334688	0.564912	0.006671
 703	3.5100e-01	7.0154	10.752210	0.000154	1.539087	0.260728	0.003079
 704	3.5150e-01	7.0276	10.801814	0.000496	4.959280	0.840125	0.009921
 705	3.5200e-01	7.0392	10.848853	0.000470	4.702766	0.796670	0.009408
 706	3.5250e-01	7.0465	10.889478	0.000406	4.061480	0.688033	0.008125
 707	3.5300e-01	7.0605	10.900168	0.000107	1.068810	0.181061	0.002138
 708	3.5350e-01	7.0667	10.945497	0.000453	4.531756	0.767700	0.009066
 709	3.5400e-01	7.0776	10.975430	0.000299	2.992669	0.506972	0.005987
 710	3.5450e-01	7.0868	11.003226	0.000278	2.778907	0.470760	0.005559
 711	3.5500e-01	7.0972	11.046844	0.000436	4.360746	0.738730	0.008724
 712	3.5550e-01	7.1069	11.099014	0.000522	5.215795	0.883580	0.010434
 713	3.5600e-01	7.1167	11.093455	-0.000056	-0.555781	-0.094152	-0.001112
 714	3.5650e-01	7.1259	11.167434	0.000740	7.396168	1.252945	0.014796
 715	3.5700e-01	7.1362	11.186250	0.000188	1.881106	0.318668	0.003763
 716	3.5750e-01	7.1472	11.222598	0.000363	3.633955	0.615609	0.007270
 717	3.5800e-01	7.1545	11.243551	0.000209	2.094868	0.354880	0.004191
 718	3.5850e-01	7.1680	11.305129	0.000616	6.156348	1.042914	0.012316
 719	3.5900e-01	7.1756	11.330787	0.000257	2.565145	0.434547	0.005132
 720	3.5950e-01	7.1854	11.386378	0.000556	5.557814	0.941519	0.011118
 721	3.6000e-01	7.1973	11.420161	0.000338	3.377441	0.572154	0.006756
 722	3.6050e-01	7.2058	11.438548	0.000184	1.838354	0.311426	0.003678
 723	3.6100e-01	7.2174	11.494995	0.000564	5.643319	0.956004	0.011289
 724	3.6150e-01	7.2266	11.527495	0.000325	3.249184	0.550427	0.006500
 725	3.6200e-01	7.2375	11.551869	0.000244	2.436888	0.412820	0.004875
 726	3.6250e-01	7.2461	11.556573	0.000047	0.470277	0.079667	0.000941
 727	3.6300e-01	7.2571	11.628414	0.000718	7.182406	1.216732	0.014368
 728	3.6350e-01	7.2684	11.667328	0.000389	3.890470	0.659063	0.007783
 729	3.6400e-01	7.2760	11.690420	0.000231	2.308630	0.391093	0.004618
 730	3.6450e-01	7.2852	11.737031	0.000466	4.660013	0.789428	0.009322
 731	3.6500e-01	7.2961	11.769530	0.000325	3.249184	0.550427	0.006500
 732	3.6550e-01	7.3071	11.785780	0.000162	1.624592	0.275213	0.003250
 733	3.6600e-01	7.3169	11.824266	0.000385	3.847717	0.651821	0.007697
 734	3.6650e-01	7.3273	11.875582	0.000513	5.130290	0.869095	0.010263
 735	3.6700e-01	7.3347	11.928179	0.000526	5.258547	0.890822	0.010520
 736	3.6750e-01	7.3468	11.944857	0.000167	1.667344	0.282456	0.003335
 737	3.6800e-01	7.3563	11.992751	0.000479	4.788271	0.811155	0.009579
 738	3.6850e-01	7.3621	12.030382	0.000376	3.762213	0.637336	0.007526
 739	3.6900e-01	7.3749	12.036796	0.000064	0.641286	0.108637	0.001283
 740	3.6950e-01	7.3865	12.093243	0.000564	5.643319	0.956004	0.011289
 741	3.7000e-01	7.3975	12.134722	0.000415	4.146984	0.702518	0.008296
 742	3.7050e-01	7.4060	12.169788	0.000351	3.505698	0.593881	0.007013
 743	3.7100e-01	7.4200	12.188603	0.000188	1.881106	0.318668	0.003763
 744	3.7150e-01	7.4265	12.232649	0.000440	4.403499	0.745973	0.008809
 745	3.7200e-01	7.4353	12.268997	0.000363	3.633955	0.615609	0.007270
 746	3.7250e-01	7.4466	12.292089	0.000231	2.308630	0.391093	0.004618
 747	3.7300e-01	7.4554	12.322878	0.000308	3.078174	0.521457	0.006158
 748	3.7350e-01	7.4646	12.369916	0.000470	4.702766	0.796670	0.009408
 749	3.7400e-01	7.4774	12.398995	0.000291	2.907164	0.492487	0.005816
 750	3.7450e-01	7.4872	12.447744	0.000487	4.873775	0.825640	0.009750
 751	3.7500e-01	7.4954	12.478106	0.000304	3.035422	0.514214	0.006072
 752	3.7550e-01	7.5073	12.519158	0.000410	4.104232	0.695276	0.008210
 753	3.7600e-01	7.5165	12.549091	0.000299	2.992669	0.506972	0.005987
 754	3.7650e-01	7.5269	12.595275	0.000462	4.617261	0.782185	0.009237
 755	3.7700e-01	7.5348	12.618367	0.000231	2.308630	0.391093	0.004618
 756	3.7750e-01	7.5470	12.662840	0.000445	4.446251	0.753215	0.008895
 757	3.7800e-01	7.5571	12.692773	0.000299	2.992669	0.506972	0.005987
 758	3.7850e-01	7.5665	12.715865	0.000231	2.308630	0.391093	0.004618
 759	3.7900e-01	7.5757	12.735536	0.000197	1.966611	0.333153	0.003934
 760	3.7950e-01	7.5836	12.768035	0.000325	3.249184	0.550427	0.006500
 761	3.8000e-01	7.5964	12.825337	0.000573	5.728824	0.970489	0.011460
 762	3.8050e-01	7.6044	12.871948	0.000466	4.660013	0.789428	0.009322
 763	3.8100e-01	7.6155	12.879646	0.000077	0.769543	0.130364	0.001539
 764	3.8150e-01	7.6248	12.932671	0.000530	5.301300	0.898064	0.010605
 765	3.8200e-01	7.6379	12.969447	0.000368	3.676708	0.622851	0.007355
 766	3.8250e-01	7.6453	12.980565	0.000111	1.111563	0.188304	0.002224
 767	3.8300e-01	7.6556	13.030170	0.000496	4.959280	0.840125	0.009921
 768	3.8350e-01	7.6672	13.075070	0.000449	4.489004	0.760458	0.008980
 769	3.8400e-01	7.6788	13.113129	0.000380	3.804965	0.644579	0.007612
 770	3.8450e-01	7.6874	13.138787	0.000257	2.565145	0.434547	0.005132
 771	3.8500e-01	7.6956	13.186253	0.000475	4.745518	0.803913	0.009493
 772	3.8550e-01	7.7054	13.209345	0.000231	2.308630	0.391093	0.004618
 773	3.8600e-01	7.7185	13.249114	0.000398	3.975975	0.673548	0.007954
 774	3.8650e-01	7.7271	13.294870	0.000457	4.574509	0.774943	0.009151
 775	3.8700e-01	7.7335	13.317534	0.000227	2.265878	0.383850	0.004533
 776	3.8750e-01	7.7449	13.347468	0.000299	2.992669	0.506972	0.005987
 777	3.8800e-01	7.7557	13.399638	0.000522	5.215795	0.883580	0.010434
 778	3.8850e-01	7.7667	13.436414	0.000368	3.676708	0.622851	0.007355
 779	3.8900e-01	7.7774	13.469341	0.000329	3.291936	0.557669	0.006585
 780	3.8950e-01	7.7856	13.495426	0.000261	2.607897	0.441790	0.005217
 781	3.9000e-01	7.7960	13.517663	0.000222	2.223126	0.376608	0.004447
 782	3.9050e-01	7.8076	13.560425	0.000428	4.275242	0.724246	0.008553
 783	3.9100e-01	7.8183	13.610030	0.000496	4.959280	0.840125	0.009921
 784	3.9150e-01	7.8278	13.645095	0.000351	3.505698	0.593881	0.007013
 785	3.9200e-01	7.8358	13.667759	0.000227	2.265878	0.383850	0.004533
 786	3.9250e-01	7.8468	13.731048	0.000633	6.327358	1.071883	0.012658
 787	3.9300e-01	7.8564	13.743449	0.000124	1.239820	0.210031	0.002480
 788	3.9350e-01	7.8668	13.785784	0.000423	4.232489	0.717003	0.008467
 789	3.9400e-01	7.8763	13.812296	0.000265	2.650650	0.449032	0.005303
 790	3.9450e-01	7.8870	13.855059	0.000428	4.275242	0.724246	0.008553
 791	3.9500e-01	7.8986	13.892690	0.000376	3.762213	0.637336	0.007526
 792	3.9550e-01	7.9077	13.934597	0.000419	4.189737	0.709761	0.008381
 793	3.9600e-01	7.9175	13.943577	0.000090	0.897801	0.152092	0.001796
 794	3.9650e-01	7.9260	13.982064	0.000385	3.847717	0.651821	0.007697
 795	3.9700e-01	7.9382	14.033379	0.000513	5.130290	0.869095	0.010263
 796	3.9750e-01	7.9474	14.074431	0.000410	4.104232	0.695276	0.008210
 797	3.9800e-01	7.9590	14.115910	0.000415	4.146984	0.702518	0.008296
 798	3.9850e-01	7.9694	14.121897	0.000060	0.598534	0.101394	0.001197
 799	3.9900e-01	7.9785	14.169363	0.000475	4.745518	0.803913	0.009493
 800	3.9950e-01	7.9871	14.200580	0.000312	3.120926	0.528699	0.006243
 801	4.0000e-01	7.9956	14.247619	0.000470	4.702766	0.796670	0.009408
 802	4.0050e-01	8.0072	14.284822	0.000372	3.719460	0.630094	0.007441
 803	4.0100e-01	8.0170	14.319460	0.000346	3.462946	0.586639	0.006928
 804	4.0150e-01	8.0304	14.331861	0.000124	1.239820	0.210031	0.002480
 805	4.0200e-01	8.0353	14.394722	0.000628	6.284605	1.064641	0.012572
 806	4.0250e-01	8.0463	14.417814	0.000231	2.308630	0.391093	0.004618
 807	4.0300e-01	8.0557	14.460576	0.000428	4.275242	0.724246	0.008553
 808	4.0350e-01	8.0688	14.507615	0.000470	4.702766	0.796670	0.009408
 809	4.0400e-01	8.0798	14.527713	0.000201	2.009364	0.340395	0.004020
 810	4.0450e-01	8.0872	14.561068	0.000333	3.334688	0.564912	0.006671
 811	4.0500e-01	8.0969	14.585443	0.000244	2.436888	0.412820	0.004875
 812	4.0550e-01	8.1049	14.641034	0.000556	5.557814	0.941519	0.011118
 813	4.0600e-01	8.1183	14.654291	0.000133	1.325325	0.224516	0.002651
 814	4.0650e-01	8.1274	14.709882	0.000556	5.557814	0.941519	0.011118
 815	4.0700e-01	8.1360	14.734256	0.000244	2.436888	0.412820	0.004875
 816	4.0750e-01	8.1445	14.779157	0.000449	4.489004	0.760458	0.008980
 817	4.0800e-01	8.1561	14.829617	0.000504	5.044785	0.854610	0.010092
 818	4.0850e-01	8.1635	14.861261	0.000316	3.163679	0.535942	0.006329
 819	4.0900e-01	8.1781	14.880077	0.000188	1.881106	0.318668	0.003763
 820	4.0950e-01	8.1873	14.910010	0.000299	2.992669	0.506972	0.005987
 821	4.1000e-01	8.1982	14.964746	0.000547	5.472309	0.927034	0.010947
 822	4.1050e-01	8.2098	14.976720	0.000120	1.197068	0.202789	0.002395
 823	4.1100e-01	8.2166	15.019055	0.000423	4.232489	0.717003	0.008467
 824	4.1150e-01	8.2288	15.048561	0.000295	2.949917	0.499729	0.005901
 825	4.1200e-01	8.2397	15.094745	0.000462	4.617261	0.782185	0.009237
 826	4.1250e-01	8.2474	15.108856	0.000141	1.410830	0.239001	0.002822
 827	4.1300e-01	8.2571	15.180697	0.000718	7.182406	1.216732	0.014368
 828	4.1350e-01	8.2651	15.203361	0.000227	2.265878	0.383850	0.004533
 829	4.1400e-01	8.2758	15.255959	0.000526	5.258547	0.890822	0.010520
 830	4.1450e-01	8.2877	15.268788	0.000128	1.282572	0.217274	0.002566
 831	4.1500e-01	8.2980	15.302998	0.000342	3.420193	0.579396	0.006842
 832	4.1550e-01	8.3069	15.320531	0.000175	1.752849	0.296941	0.003507
 833	4.1600e-01	8.3163	15.378688	0.000581	5.814329	0.984974	0.011631
 834	4.1650e-01	8.3258	15.414181	0.000355	3.548451	0.601124	0.007099
 835	4.1700e-01	8.3350	15.452239	0.000380	3.804965	0.644579	0.007612
 836	4.1750e-01	8.3441	15.482601	0.000304	3.035422	0.514214	0.006072
 837	4.1800e-01	8.3563	15.532205	0.000496	4.959280	0.840125	0.009921
 838	4.1850e-01	8.3682	15.550593	0.000184	1.838354	0.311426	0.003678
 839	4.1900e-01	8.3777	15.599770	0.000492	4.916528	0.832882	0.009835
 840	4.1950e-01	8.3881	15.634835	0.000351	3.505698	0.593881	0.007013
 841	4.2000e-01	8.3975	15.654934	0.000201	2.009364	0.340395	0.004020
 842	4.2050e-01	8.4076	15.710525	0.000556	5.557814	0.941519	0.011118
 843	4.2100e-01	8.4152	15.732761	0.000222	2.223126	0.376608	0.004447
 844	4.2150e-01	8.4268	15.786215	0.000534	5.344052	0.905307	0.010691
 845	4.2200e-01	8.4375	15.811445	0.000252	2.522393	0.427305	0.005046
 846	4.2250e-01	8.4470	15.830260	0.000188	1.881106	0.318668	0.003763
 847	4.2300e-01	8.4570	15.898680	0.000684	6.840387	1.158793	0.013684
 848	4.2350e-01	8.4662	15.916213	0.000175	1.752849	0.296941	0.003507
 849	4.2400e-01	8.4741	15.958975	0.000428	4.275242	0.724246	0.008553
 850	4.2450e-01	8.4882	15.990620	0.000316	3.163679	0.535942	0.006329
 851	4.2500e-01	8.4985	16.014994	0.000244	2.436888	0.412820	0.004875
 852	4.2550e-01	8.5089	16.074434	0.000594	5.942586	1.006701	0.011888
 853	4.2600e-01	8.5193	16.073151	-0.000013	-0.128257	-0.021727	-0.000257
 854	4.2650e-01	8.5260	16.154828	0.000817	8.165711	1.383309	0.016335
 855	4.2700e-01	8.5400	16.164663	0.000098	0.983306	0.166576	0.001967
 856	4.2750e-01	8.5486	16.216833	0.000522	5.215795	0.883580	0.010434
 857	4.2800e-01	8.5577	16.234794	0.000180	1.795601	0.304183	0.003592
 858	4.2850e-01	8.5657	16.248050	0.000133	1.325325	0.224516	0.002651
 859	4.2900e-01	8.5773	16.316898	0.000688	6.883139	1.166035	0.013770
 860	4.2950e-01	8.5858	16.348542	0.000316	3.163679	0.535942	0.006329
 861	4.3000e-01	8.5974	16.393015	0.000445	4.446251	0.753215	0.008895
 862	4.3050e-01	8.6053	16.417817	0.000248	2.479640	0.420062	0.004960
 863	4.3100e-01	8.6157	16.470843	0.000530	5.301300	0.898064	0.010605
 864	4.3150e-01	8.6267	16.471698	0.000009	0.085505	0.014485	0.000171
 865	4.3200e-01	8.6377	16.524296	0.000526	5.258547	0.890822	0.010520
 866	4.3250e-01	8.6478	16.559361	0.000351	3.505698	0.593881	0.007013
 867	4.3300e-01	8.6566	16.608966	0.000496	4.959280	0.840125	0.009921
 868	4.3350e-01	8.6652	16.629492	0.000205	2.052116	0.347638	0.004105
 869	4.3400e-01	8.6780	16.679524	0.000500	5.002033	0.847367	0.010006
 870	4.3450e-01	8.6847	16.707319	0.000278	2.778907	0.470760	0.005559
 871	4.3500e-01	8.6960	16.752220	0.000449	4.489004	0.760458	0.008980
 872	4.3550e-01	8.7061	16.784720	0.000325	3.249184	0.550427	0.006500
 873	4.3600e-01	8.7167	16.815936	0.000312	3.120926	0.528699	0.006243
 874	4.3650e-01	8.7256	16.861692	0.000457	4.574509	0.774943	0.009151
 875	4.3700e-01	8.7378	16.890771	0.000291	2.907164	0.492487	0.005816
 876	4.3750e-01	8.7469	16.941231	0.000504	5.044785	0.854610	0.010092
 877	4.3800e-01	8.7561	16.965605	0.000244	2.436888	0.412820	0.004875
 878	4.3850e-01	8.7671	16.981855	0.000162	1.624592	0.275213	0.003250
 879	4.3900e-01	8.7775	17.038301	0.000564	5.643319	0.956004	0.011289
 880	4.3950e-01	8.7872	17.082774	0.000445	4.446251	0.753215	0.008895
 881	4.4000e-01	8.7970	17.126392	0.000436	4.360746	0.738730	0.008724
 882	4.4050e-01	8.8049	17.165734	0.000393	3.933222	0.666306	0.007868
 883	4.4100e-01	8.8159	17.177280	0.000115	1.154315	0.195546	0.002309
 884	4.4150e-01	8.8269	17.191391	0.000141	1.410830	0.239001	0.002822
 885	4.4200e-01	8.8354	17.266653	0.000752	7.524425	1.274672	0.015052
 886	4.4250e-01	8.8458	17.311126	0.000445	4.446251	0.753215	0.008895
 887	4.4300e-01	8.8574	17.309416	-0.000017	-0.171010	-0.028970	-0.000342
 888	4.4350e-01	8.8678	17.378264	0.000688	6.883139	1.166035	0.013770
 889	4.4400e-01	8.8776	17.418888	0.000406	4.061480	0.688033	0.008125
 890	4.4450e-01	8.8843	17.432144	0.000133	1.325325	0.224516	0.002651
 891	4.4500e-01	8.8940	17.470203	0.000380	3.804965	0.644579	0.007612
 892	4.4550e-01	8.9063	17.531781	0.000616	6.156348	1.042914	0.012316
 893	4.4600e-01	8.9166	17.575399	0.000436	4.360746	0.738730	0.008724
 894	4.4650e-01	8.9240	17.589083	0.000137	1.368077	0.231759	0.002737
 895	4.4700e-01	8.9392	17.612602	0.000235	2.351383	0.398335	0.004704
 896	4.4750e-01	8.9441	17.650233	0.000376	3.762213	0.637336	0.007526
 897	4.4800e-01	8.9575	17.702403	0.000522	5.215795	0.883580	0.010434
 898	4.4850e-01	8.9673	17.738324	0.000359	3.591203	0.608366	0.007184
 899	4.4900e-01	8.9752	17.784508	0.000462	4.617261	0.782185	0.009237
 900	4.4950e-01	8.9899	17.795198	0.000107	1.068810	0.181061	0.002138
 901	4.5000e-01	8.9972	17.840954	0.000457	4.574509	0.774943	0.009151
 902	4.5050e-01	9.0042	17.890131	0.000492	4.916528	0.832882	0.009835
 903	4.5100e-01	9.0167	17.926479	0.000363	3.633955	0.615609	0.007270
 904	4.5150e-01	9.0265	17.964110	0.000376	3.762213	0.637336	0.007526
 905	4.5200e-01	9.0363	17.985064	0.000209	2.094868	0.354880	0.004191
 906	4.5250e-01	9.0448	18.050918	0.000658	6.583872	1.115338	0.013171
 907	4.5300e-01	9.0561	18.064602	0.000137	1.368077	0.231759	0.002737
 908	4.5350e-01	9.0692	18.112496	0.000479	4.788271	0.811155	0.009579
 909	4.5400e-01	9.0765	18.164239	0.000517	5.173042	0.876337	0.010349
 910	4.5450e-01	9.0851	18.196738	0.000325	3.249184	0.550427	0.006500
 911	4.5500e-01	9.0985	18.218975	0.000222	2.223126	0.376608	0.004447
 912	4.5550e-01	9.1052	18.251474	0.000325	3.249184	0.550427	0.006500
 913	4.5600e-01	9.1144	18.280553	0.000291	2.907164	0.492487	0.005816
 914	4.5650e-01	9.1260	18.345980	0.000654	6.541120	1.108096	0.013085
 915	4.5700e-01	9.1376	18.375486	0.000295	2.949917	0.499729	0.005901
 916	4.5750e-01	9.1455	18.416110	0.000406	4.061480	0.688033	0.008125
 917	4.5800e-01	9.1571	18.451175	0.000351	3.505698	0.593881	0.007013
 918	4.5850e-01	9.1687	18.494366	0.000432	4.317994	0.731488	0.008638
 919	4.5900e-01	9.1754	18.515747	0.000214	2.137621	0.362123	0.004276
 920	4.5950e-01	9.1864	18.555944	0.000402	4.018727	0.680791	0.008039
 921	4.6000e-01	9.1971	18.596996	0.000410	4.104232	0.695276	0.008210
 922	4.6050e-01	9.2056	18.635482	0.000385	3.847717	0.651821	0.007697
 923	4.6100e-01	9.2133	18.672685	0.000372	3.719460	0.630094	0.007441
 924	4.6150e-01	9.2249	18.706895	0.000342	3.420193	0.579396	0.006842
 925	4.6200e-01	9.2340	18.735119	0.000282	2.821659	0.478002	0.005645
 926	4.6250e-01	9.2474	18.789855	0.000547	5.472309	0.927034	0.010947
 927	4.6300e-01	9.2578	18.826203	0.000363	3.633955	0.615609	0.007270
 928	4.6350e-01	9.2682	18.849294	0.000231	2.308630	0.391093	0.004618
 929	4.6400e-01	9.2761	18.908307	0.000590	5.899833	0.999459	0.011802
 930	4.6450e-01	9.2859	18.955773	0.000475	4.745518	0.803913	0.009493
 931	4.6500e-01	9.2966	18.981003	0.000252	2.522393	0.427305	0.005046
 932	4.6550e-01	9.3042	19.030608	0.000496	4.959280	0.840125	0.009921
 933	4.6600e-01	9.3158	19.071660	0.000410	4.104232	0.695276	0.008210
 934	4.6650e-01	9.3286	19.099028	0.000274	2.736155	0.463517	0.005474
 935	4.6700e-01	9.3402	19.137942	0.000389	3.890470	0.659063	0.007783
 936	4.6750e-01	9.3451	19.176000	0.000380	3.804965	0.644579	0.007612
 937	4.6800e-01	9.3573	19.209355	0.000333	3.334688	0.564912	0.006671
 938	4.6850e-01	9.3665	19.234157	0.000248	2.479640	0.420062	0.004960
 939	4.6900e-01	9.3774	19.289321	0.000552	5.515062	0.934277	0.011033
 940	4.6950e-01	9.3860	19.321393	0.000321	3.206431	0.543184	0.006414
 941	4.7000e-01	9.3958	19.349616	0.000282	2.821659	0.478002	0.005645
 942	4.7050e-01	9.4055	19.401359	0.000517	5.173042	0.876337	0.010349
 943	4.7100e-01	9.4141	19.469351	0.000680	6.797634	1.151550	0.013598
 944	4.7150e-01	9.4281	19.477476	0.000081	0.812296	0.137607	0.001625
 945	4.7200e-01	9.4342	19.531357	0.000539	5.386804	0.912549	0.010776
 946	4.7250e-01	9.4470	19.552738	0.000214	2.137621	0.362123	0.004276
 947	4.7300e-01	9.4562	19.586520	0.000338	3.377441	0.572154	0.006756
 948	4.7350e-01	9.4647	19.649381	0.000628	6.284605	1.064641	0.012572
 949	4.7400e-01	9.4775	19.690861	0.000415	4.146984	0.702518	0.008296
 950	4.7450e-01	9.4855	19.705400	0.000145	1.453582	0.246243	0.002908
 951	4.7500e-01	9.4934	19.741748	0.000363	3.633955	0.615609	0.007270
 952	4.7550e-01	9.5087	19.793491	0.000517	5.173042	0.876337	0.010349
 953	4.7600e-01	9.5154	19.826418	0.000329	3.291936	0.557669	0.006585
 954	4.7650e-01	9.5251	19.856780	0.000304	3.035422	0.514214	0.006072
 955	4.7700e-01	9.5355	19.898687	0.000419	4.189737	0.709761	0.008381
 956	4.7750e-01	9.5465	19.947436	0.000487	4.873775	0.825640	0.009750
 957	4.7800e-01	9.5551	19.984640	0.000372	3.719460	0.630094	0.007441
 958	4.7850e-01	9.5660	20.032534	0.000479	4.788271	0.811155	0.009579
 959	4.7900e-01	9.5746	20.065888	0.000333	3.334688	0.564912	0.006671
 960	4.7950e-01	9.5880	20.099671	0.000338	3.377441	0.572154	0.006756
 961	4.8000e-01	9.5984	20.134308	0.000346	3.462946	0.586639	0.006928
 962	4.8050e-01	9.6057	20.186051	0.000517	5.173042	0.876337	0.010349
 963	4.8100e-01	9.6143	20.230524	0.000445	4.446251	0.753215	0.008895
 964	4.8150e-01	9.6274	20.256609	0.000261	2.607897	0.441790	0.005217
 965	4.8200e-01	9.6362	20.292530	0.000359	3.591203	0.608366	0.007184
 966	4.8250e-01	9.6466	20.337858	0.000453	4.531756	0.767700	0.009066
 967	4.8300e-01	9.6539	20.389601	0.000517	5.173042	0.876337	0.010349
 968	4.8350e-01	9.6677	20.421245	0.000316	3.163679	0.535942	0.006329
 969	4.8400e-01	9.6747	20.467001	0.000457	4.574509	0.774943	0.009151
 970	4.8450e-01	9.6887	20.513612	0.000466	4.660013	0.789428	0.009322
 971	4.8500e-01	9.6954	20.538842	0.000252	2.522393	0.427305	0.005046
 972	4.8550e-01	9.7046	20.587591	0.000487	4.873775	0.825640	0.009750
 973	4.8600e-01	9.7144	20.624795	0.000372	3.719460	0.630094	0.007441
 974	4.8650e-01	9.7296	20.654728	0.000299	2.992669	0.506972	0.005987
 975	4.8700e-01	9.7363	20.698774	0.000440	4.403499	0.745973	0.008809
 976	4.8750e-01	9.7467	20.749661	0.000509	5.087538	0.861852	0.010177
 977	4.8800e-01	9.7559	20.793707	0.000440	4.403499	0.745973	0.008809
 978	4.8850e-01	9.7681	20.833048	0.000393	3.933222	0.666306	0.007868
 979	4.8900e-01	9.7787	20.867686	0.000346	3.462946	0.586639	0.006928
 980	4.8950e-01	9.7858	20.904462	0.000368	3.676708	0.622851	0.007355
 981	4.9000e-01	9.7961	20.945514	0.000410	4.104232	0.695276	0.008210
 982	4.9050e-01	9.8059	20.975875	0.000304	3.035422	0.514214	0.006072
 983	4.9100e-01	9.8163	21.038736	0.000628	6.284605	1.064641	0.012572
 984	4.9150e-01	9.8242	21.069953	0.000312	3.120926	0.528699	0.006243
 985	4.9200e-01	9.8349	21.099459	0.000295	2.949917	0.499729	0.005901
 986	4.9250e-01	9.8450	21.158471	0.000590	5.899833	0.999459	0.011802
 987	4.9300e-01	9.8547	21.173010	0.000145	1.453582	0.246243	0.002908
 988	4.9350e-01	9.8676	21.230312	0.000573	5.728824	0.970489	0.011460
 989	4.9400e-01	9.8767	21.278206	0.000479	4.788271	0.811155	0.009579
 990	4.9450e-01	9.8853	21.320113	0.000419	4.189737	0.709761	0.008381
 991	4.9500e-01	9.8956	21.343633	0.000235	2.351383	0.398335	0.004704
 992	4.9550e-01	9.9060	21.381264	0.000376	3.762213	0.637336	0.007526
 993	4.9600e-01	9.9158	21.433006	0.000517	5.173042	0.876337	0.010349
 994	4.9650e-01	9.9246	21.480900	0.000479	4.788271	0.811155	0.009579
 995	4.9700e-01	9.9353	21.528794	0.000479	4.788271	0.811155	0.009579
 996	4.9750e-01	9.9438	21.565998	0.000372	3.719460	0.630094	0.007441
 997	4.9800e-01	9.9576	21.607478	0.000415	4.146984	0.702518	0.008296
 998	4.9850e-01	9.9689	21.657082	0.000496	4.959280	0.840125	0.009921
 999	4.9900e-01	9.9744	21.693858	0.000368	3.676708	0.622851	0.007355
1000	4.9950e-01	9.9854	21.728923	0.000351	3.505698	0.593881	0.007013
1001	5.0000e-01	9.9976	21.765699	0.000368	3.676708	0.622851	0.007355
1002	5.0050e-01	9.9841	21.733199	0.000325	3.249184	0.550427	-0.006500
1003	5.0100e-01	9.9756	21.719088	0.000141	1.410830	0.239001	-0.002822
1004	5.0150e-01	9.9658	21.710963	0.000081	0.812296	0.137607	-0.001625
1005	5.0200e-01	9.9567	21.713101	-0.000021	-0.213762	-0.036212	0.000428
1006	5.0250e-01	9.9432	21.675042	0.000380	3.804965	0.644579	-0.007612
1007	5.0300e-01	9.9353	21.676753	-0.000017	-0.171010	-0.028970	0.000342
1008	5.0350e-01	9.9261	21.664352	0.000124	1.239820	0.210031	-0.002480
1009	5.0400e-01	9.9152	21.632280	0.000321	3.206431	0.543184	-0.006414
1010	5.0450e-01	9.9036	21.624155	0.000081	0.812296	0.137607	-0.001625
1011	5.0500e-01	9.8920	21.632280	-0.000081	-0.812296	-0.137607	0.001625
1012	5.0550e-01	9.8853	21.608333	0.000239	2.394135	0.405577	-0.004789
1013	5.0600e-01	9.8758	21.600208	0.000081	0.812296	0.137607	-0.001625
1014	5.0650e-01	9.8615	21.576261	0.000239	2.394135	0.405577	-0.004789
1015	5.0700e-01	9.8547	21.576261	-0.000000	-0.000000	-0.000000	0.000000
1016	5.0750e-01	9.8468	21.557018	0.000192	1.923859	0.325910	-0.003849
1017	5.0800e-01	9.8383	21.528794	0.000282	2.821659	0.478002	-0.005645
1018	5.0850e-01	9.8254	21.515110	0.000137	1.368077	0.231759	-0.002737
1019	5.0900e-01	9.8145	21.520670	-0.000056	-0.555781	-0.094152	0.001112
1020	5.0950e-01	9.8065	21.482183	0.000385	3.847717	0.651821	-0.007697
1021	5.1000e-01	9.7968	21.479190	0.000030	0.299267	0.050697	-0.000599
1022	5.1050e-01	9.7855	21.450539	0.000286	2.864412	0.485245	-0.005730
1023	5.1100e-01	9.7754	21.441987	0.000086	0.855048	0.144849	-0.001711
1024	5.1150e-01	9.7641	21.434717	0.000073	0.726791	0.123122	-0.001454
1025	5.1200e-01	9.7546	21.393665	0.000410	4.104232	0.695276	-0.008210
1026	5.1250e-01	9.7491	21.376132	0.000175	1.752849	0.296941	-0.003507
1027	5.1300e-01	9.7375	21.374849	0.000013	0.128257	0.021727	-0.000257
1028	5.1350e-01	9.7260	21.352613	0.000222	2.223126	0.376608	-0.004447
1029	5.1400e-01	9.7156	21.315409	0.000372	3.719460	0.630094	-0.007441
1030	5.1450e-01	9.7040	21.317975	-0.000026	-0.256514	-0.043455	0.000513
1031	5.1500e-01	9.6936	21.299160	0.000188	1.881106	0.318668	-0.003763
1032	5.1550e-01	9.6826	21.268798	0.000304	3.035422	0.514214	-0.006072
1033	5.1600e-01	9.6747	21.260673	0.000081	0.812296	0.137607	-0.001625
1034	5.1650e-01	9.6643	21.228602	0.000321	3.206431	0.543184	-0.006414
1035	5.1700e-01	9.6570	21.216628	0.000120	1.197068	0.202789	-0.002395
1036	5.1750e-01	9.6448	21.200806	0.000158	1.581839	0.267971	-0.003164
1037	5.1800e-01	9.6375	21.181563	0.000192	1.923859	0.325910	-0.003849
1038	5.1850e-01	9.6271	21.162747	0.000188	1.881106	0.318668	-0.003763
1039	5.1900e-01	9.6164	21.132386	0.000304	3.035422	0.514214	-0.006072
1040	5.1950e-01	9.6057	21.131958	0.000004	0.042752	0.007242	-0.000086
1041	5.2000e-01	9.5966	21.096465	0.000355	3.548451	0.601124	-0.007099
1042	5.2050e-01	9.5868	21.072946	0.000235	2.351383	0.398335	-0.004704
1043	5.2100e-01	9.5767	21.034460	0.000385	3.847717	0.651821	-0.007697
1044	5.2150e-01	9.5642	21.031039	0.000034	0.342019	0.057940	-0.000684
1045	5.2200e-01	9.5560	21.025907	0.000051	0.513029	0.086909	-0.001026
1046	5.2250e-01	9.5477	20.997256	0.000286	2.864412	0.485245	-0.005730
1047	5.2300e-01	9.5349	20.972882	0.000244	2.436888	0.412820	-0.004875
1048	5.2350e-01	9.5245	20.942520	0.000304	3.035422	0.514214	-0.006072
1049	5.2400e-01	9.5178	20.928836	0.000137	1.368077	0.231759	-0.002737
1050	5.2450e-01	9.5056	20.915580	0.000133	1.325325	0.224516	-0.002651
1051	5.2500e-01	9.4946	20.859133	0.000564	5.643319	0.956004	-0.011289
1052	5.2550e-01	9.4867	20.866831	-0.000077	-0.769543	-0.130364	0.001539
1053	5.2600e-01	9.4781	20.825779	0.000410	4.104232	0.695276	-0.008210
1054	5.2650e-01	9.4656	20.813377	0.000124	1.239820	0.210031	-0.002480
1055	5.2700e-01	9.4531	20.814233	-0.000009	-0.085505	-0.014485	0.000171
1056	5.2750e-01	9.4476	20.773608	0.000406	4.061480	0.688033	-0.008125
1057	5.2800e-01	9.4336	20.759924	0.000137	1.368077	0.231759	-0.002737
1058	5.2850e-01	9.4247	20.735977	0.000239	2.394135	0.405577	-0.004789
1059	5.2900e-01	9.4138	20.706899	0.000291	2.907164	0.492487	-0.005816
1060	5.2950e-01	9.4025	20.681669	0.000252	2.522393	0.427305	-0.005046
1061	5.3000e-01	9.3964	20.670978	0.000107	1.068810	0.181061	-0.002138
1062	5.3050e-01	9.3866	20.646604	0.000244	2.436888	0.412820	-0.004875
1063	5.3100e-01	9.3768	20.615387	0.000312	3.120926	0.528699	-0.006243
1064	5.3150e-01	9.3634	20.601275	0.000141	1.410830	0.239001	-0.002822
1065	5.3200e-01	9.3549	20.573907	0.000274	2.736155	0.463517	-0.005474
1066	5.3250e-01	9.3469	20.566638	0.000073	0.726791	0.123122	-0.001454
1067	5.3300e-01	9.3359	20.530717	0.000359	3.591203	0.608366	-0.007184
1068	5.3350e-01	9.3243	20.491803	0.000389	3.890470	0.659063	-0.007783
1069	5.3400e-01	9.3134	20.474271	0.000175	1.752849	0.296941	-0.003507
1070	5.3450e-01	9.3073	20.460159	0.000141	1.410830	0.239001	-0.002822
1071	5.3500e-01	9.2944	20.434074	0.000261	2.607897	0.441790	-0.005217
1072	5.3550e-01	9.2853	20.410127	0.000239	2.394135	0.405577	-0.004789
1073	5.3600e-01	9.2758	20.368219	0.000419	4.189737	0.709761	-0.008381
1074	5.3650e-01	9.2657	20.385324	-0.000171	-1.710097	-0.289698	0.003421
1075	5.3700e-01	9.2557	20.336148	0.000492	4.916528	0.832882	-0.009835
1076	5.3750e-01	9.2465	20.306214	0.000299	2.992669	0.506972	-0.005987
1077	5.3800e-01	9.2352	20.280556	0.000257	2.565145	0.434547	-0.005132
1078	5.3850e-01	9.2249	20.269438	0.000111	1.111563	0.188304	-0.002224
1079	5.3900e-01	9.2163	20.225820	0.000436	4.360746	0.738730	-0.008724
1080	5.3950e-01	9.2065	20.204011	0.000218	2.180373	0.369365	-0.004362
1081	5.4000e-01	9.1949	20.191183	0.000128	1.282572	0.217274	-0.002566
1082	5.4050e-01	9.1827	20.185623	0.000056	0.555781	0.094152	-0.001112
1083	5.4100e-01	9.1760	20.159538	0.000261	2.607897	0.441790	-0.005217
1084	5.4150e-01	9.1650	20.130460	0.000291	2.907164	0.492487	-0.005816
1085	5.4200e-01	9.1547	20.097105	0.000333	3.334688	0.564912	-0.006671
1086	5.4250e-01	9.1425	20.072303	0.000248	2.479640	0.420062	-0.004960
1087	5.4300e-01	9.1354	20.060329	0.000120	1.197068	0.202789	-0.002395
1088	5.4350e-01	9.1260	20.037665	0.000227	2.265878	0.383850	-0.004533
1089	5.4400e-01	9.1153	19.982074	0.000556	5.557814	0.941519	-0.011118
1090	5.4450e-01	9.1071	19.982074	-0.000000	-0.000000	-0.000000	0.000000
1091	5.4500e-01	9.0958	19.967535	0.000145	1.453582	0.246243	-0.002908
1092	5.4550e-01	9.0851	19.928193	0.000393	3.933222	0.666306	-0.007868
1093	5.4600e-01	9.0747	19.890562	0.000376	3.762213	0.637336	-0.007526
1094	5.4650e-01	9.0659	19.855069	0.000355	3.548451	0.601124	-0.007099
1095	5.4700e-01	9.0576	19.817866	0.000372	3.719460	0.630094	-0.007441
1096	5.4750e-01	9.0460	19.838819	-0.000209	-2.094868	-0.354880	0.004191
1097	5.4800e-01	9.0369	19.810168	0.000286	2.864412	0.485245	-0.005730
1098	5.4850e-01	9.0247	19.758426	0.000517	5.173042	0.876337	-0.010349
1099	5.4900e-01	9.0152	19.739183	0.000192	1.923859	0.325910	-0.003849
1100	5.4950e-01	9.0039	19.737045	0.000021	0.213762	0.036212	-0.000428
1101	5.5000e-01	8.9966	19.690433	0.000466	4.660013	0.789428	-0.009322
1102	5.5050e-01	8.9862	19.663493	0.000269	2.693402	0.456275	-0.005388
1103	5.5100e-01	8.9786	19.639974	0.000235	2.351383	0.398335	-0.004704
1104	5.5150e-01	8.9655	19.625434	0.000145	1.453582	0.246243	-0.002908
1105	5.5200e-01	8.9554	19.595928	0.000295	2.949917	0.499729	-0.005901
1106	5.5250e-01	8.9441	19.576685	0.000192	1.923859	0.325910	-0.003849
1107	5.5300e-01	8.9334	19.554021	0.000227	2.265878	0.383850	-0.004533
1108	5.5350e-01	8.9249	19.523660	0.000304	3.035422	0.514214	-0.006072
1109	5.5400e-01	8.9166	19.509976	0.000137	1.368077	0.231759	-0.002737
1110	5.5450e-01	8.9063	19.458233	0.000517	5.173042	0.876337	-0.010349
1111	5.5500e-01	8.8925	19.440273	0.000180	1.795601	0.304183	-0.003592
1112	5.5550e-01	8.8855	19.408628	0.000316	3.163679	0.535942	-0.006329
1113	5.5600e-01	8.8760	19.393661	0.000150	1.496335	0.253486	-0.002993
1114	5.5650e-01	8.8644	19.353465	0.000402	4.018727	0.680791	-0.008039
1115	5.5700e-01	8.8568	19.336787	0.000167	1.667344	0.282456	-0.003335
1116	5.5750e-01	8.8501	19.316261	0.000205	2.052116	0.347638	-0.004105
1117	5.5800e-01	8.8351	19.288893	0.000274	2.736155	0.463517	-0.005474
1118	5.5850e-01	8.8245	19.255538	0.000333	3.334688	0.564912	-0.006671
1119	5.5900e-01	8.8104	19.253400	0.000021	0.213762	0.036212	-0.000428
1120	5.5950e-01	8.8028	19.207217	0.000462	4.617261	0.782185	-0.009237
1121	5.6000e-01	8.7939	19.184980	0.000222	2.223126	0.376608	-0.004447
1122	5.6050e-01	8.7866	19.143501	0.000415	4.146984	0.702518	-0.008296
1123	5.6100e-01	8.7775	19.125113	0.000184	1.838354	0.311426	-0.003678
1124	5.6150e-01	8.7665	19.105442	0.000197	1.966611	0.333153	-0.003934
1125	5.6200e-01	8.7589	19.083206	0.000222	2.223126	0.376608	-0.004447
1126	5.6250e-01	8.7457	19.054127	0.000291	2.907164	0.492487	-0.005816
1127	5.6300e-01	8.7363	19.024621	0.000295	2.949917	0.499729	-0.005901
1128	5.6350e-01	8.7259	18.992549	0.000321	3.206431	0.543184	-0.006414
1129	5.6400e-01	8.7170	18.968602	0.000239	2.394135	0.405577	-0.004789
1130	5.6450e-01	8.7061	18.943372	0.000252	2.522393	0.427305	-0.005046
1131	5.6500e-01	8.6975	18.903175	0.000402	4.018727	0.680791	-0.008039
1132	5.6550e-01	8.6850	18.887353	0.000158	1.581839	0.267971	-0.003164
1133	5.6600e-01	8.6761	18.887781	-0.000004	-0.042752	-0.007242	0.000086
1134	5.6650e-01	8.6664	18.848867	0.000389	3.890470	0.659063	-0.007783
1135	5.6700e-01	8.6560	18.808670	0.000402	4.018727	0.680791	-0.008039
1136	5.6750e-01	8.6441	18.780874	0.000278	2.778907	0.470760	-0.005559
1137	5.6800e-01	8.6346	18.765052	0.000158	1.581839	0.267971	-0.003164
1138	5.6850e-01	8.6282	18.730842	0.000342	3.420193	0.579396	-0.006842
1139	5.6900e-01	8.6163	18.685942	0.000449	4.489004	0.760458	-0.008980
1140	5.6950e-01	8.6047	18.672685	0.000133	1.325325	0.224516	-0.002651
1141	5.7000e-01	8.5974	18.655580	0.000171	1.710097	0.289698	-0.003421
1142	5.7050e-01	8.5876	18.635482	0.000201	2.009364	0.340395	-0.004020
1143	5.7100e-01	8.5767	18.576897	0.000586	5.857081	0.992216	-0.011717
1144	5.7150e-01	8.5638	18.560647	0.000162	1.624592	0.275213	-0.003250
1145	5.7200e-01	8.5541	18.539266	0.000214	2.137621	0.362123	-0.004276
1146	5.7250e-01	8.5455	18.536700	0.000026	0.256514	0.043455	-0.000513
1147	5.7300e-01	8.5388	18.475550	0.000611	6.113595	1.035671	-0.012230
1148	5.7350e-01	8.5236	18.470418	0.000051	0.513029	0.086909	-0.001026
1149	5.7400e-01	8.5132	18.421242	0.000492	4.916528	0.832882	-0.009835
1150	5.7450e-01	8.5040	18.404992	0.000162	1.624592	0.275213	-0.003250
1151	5.7500e-01	8.4955	18.395156	0.000098	0.983306	0.166576	-0.001967
1152	5.7550e-01	8.4863	18.356243	0.000389	3.890470	0.659063	-0.007783
1153	5.7600e-01	8.4766	18.316473	0.000398	3.975975	0.673548	-0.007954
1154	5.7650e-01	8.4644	18.283974	0.000325	3.249184	0.550427	-0.006500
1155	5.7700e-01	8.4546	18.271573	0.000124	1.239820	0.210031	-0.002480
1156	5.7750e-01	8.4454	18.236080	0.000355	3.548451	0.601124	-0.007099
1157	5.7800e-01	8.4360	18.204436	0.000316	3.163679	0.535942	-0.006329
1158	5.7850e-01	8.4250	18.192462	0.000120	1.197068	0.202789	-0.002395
1159	5.7900e-01	8.4158	18.163811	0.000286	2.864412	0.485245	-0.005730
1160	5.7950e-01	8.4052	18.144140	0.000197	1.966611	0.333153	-0.003934
1161	5.8000e-01	8.3954	18.105654	0.000385	3.847717	0.651821	-0.007697
1162	5.8050e-01	8.3850	18.074437	0.000312	3.120926	0.528699	-0.006243
1163	5.8100e-01	8.3765	18.042793	0.000316	3.163679	0.535942	-0.006329
1164	5.8150e-01	8.3667	18.017136	0.000257	2.565145	0.434547	-0.005132
1165	5.8200e-01	8.3557	18.002169	0.000150	1.496335	0.253486	-0.002993
1166	5.8250e-01	8.3447	17.952137	0.000500	5.002033	0.847367	-0.010006
1167	5.8300e-01	8.3350	17.938453	0.000137	1.368077	0.231759	-0.002737
1168	5.8350e-01	8.3289	17.909374	0.000291	2.907164	0.492487	-0.005816
1169	5.8400e-01	8.3160	17.893552	0.000158	1.581839	0.267971	-0.003164
1170	5.8450e-01	8.3057	17.831974	0.000616	6.156348	1.042914	-0.012316
1171	5.8500e-01	8.2971	17.821711	0.000103	1.026058	0.173819	-0.002053
1172	5.8550e-01	8.2886	17.818290	0.000034	0.342019	0.057940	-0.000684
1173	5.8600e-01	8.2751	17.767403	0.000509	5.087538	0.861852	-0.010177
1174	5.8650e-01	8.2672	17.728061	0.000393	3.933222	0.666306	-0.007868
1175	5.8700e-01	8.2581	17.706252	0.000218	2.180373	0.369365	-0.004362
1176	5.8750e-01	8.2477	17.672897	0.000333	3.334688	0.564912	-0.006671
1177	5.8800e-01	8.2358	17.667766	0.000051	0.513029	0.086909	-0.001026
1178	5.8850e-01	8.2257	17.614313	0.000534	5.344052	0.905307	-0.010691
1179	5.8900e-01	8.2159	17.585662	0.000286	2.864412	0.485245	-0.005730
1180	5.8950e-01	8.2034	17.559577	0.000261	2.607897	0.441790	-0.005217
1181	5.9000e-01	8.1964	17.552307	0.000073	0.726791	0.123122	-0.001454
1182	5.9050e-01	8.1818	17.524084	0.000282	2.821659	0.478002	-0.005645
1183	5.9100e-01	8.1757	17.492867	0.000312	3.120926	0.528699	-0.006243
1184	5.9150e-01	8.1674	17.447111	0.000457	4.574509	0.774943	-0.009151
1185	5.9200e-01	8.1561	17.415467	0.000316	3.163679	0.535942	-0.006329
1186	5.9250e-01	8.1445	17.393658	0.000218	2.180373	0.369365	-0.004362
1187	5.9300e-01	8.1357	17.389809	0.000038	0.384772	0.065182	-0.000770
1188	5.9350e-01	8.1262	17.354317	0.000355	3.548451	0.601124	-0.007099
1189	5.9400e-01	8.1142	17.319679	0.000346	3.462946	0.586639	-0.006928
1190	5.9450e-01	8.1049	17.275633	0.000440	4.403499	0.745973	-0.008809
1191	5.9500e-01	8.0920	17.256818	0.000188	1.881106	0.318668	-0.003763
1192	5.9550e-01	8.0841	17.217049	0.000398	3.975975	0.673548	-0.007954
1193	5.9600e-01	8.0750	17.194812	0.000222	2.223126	0.376608	-0.004447
1194	5.9650e-01	8.0621	17.173859	0.000209	2.094868	0.354880	-0.004191
1195	5.9700e-01	8.0560	17.148201	0.000257	2.565145	0.434547	-0.005132
1196	5.9750e-01	8.0463	17.122544	0.000257	2.565145	0.434547	-0.005132
1197	5.9800e-01	8.0353	17.079781	0.000428	4.275242	0.724246	-0.008553
1198	5.9850e-01	8.0255	17.076360	0.000034	0.342019	0.057940	-0.000684
1199	5.9900e-01	8.0145	17.026756	0.000496	4.959280	0.840125	-0.009921
1200	5.9950e-01	8.0072	16.999388	0.000274	2.736155	0.463517	-0.005474
1201	6.0000e-01	7.9974	16.973730	0.000257	2.565145	0.434547	-0.005132
1202	6.0050e-01	7.9849	16.956197	0.000175	1.752849	0.296941	-0.003507
1203	6.0100e-01	7.9742	16.906165	0.000500	5.002033	0.847367	-0.010006
1204	6.0150e-01	7.9651	16.888205	0.000180	1.795601	0.304183	-0.003592
1205	6.0200e-01	7.9565	16.856988	0.000312	3.120926	0.528699	-0.006243
1206	6.0250e-01	7.9449	16.830476	0.000265	2.650650	0.449032	-0.005303
1207	6.0300e-01	7.9358	16.797548	0.000329	3.291936	0.557669	-0.006585
1208	6.0350e-01	7.9254	16.776167	0.000214	2.137621	0.362123	-0.004276
1209	6.0400e-01	7.9181	16.746661	0.000295	2.949917	0.499729	-0.005901
1210	6.0450e-01	7.9047	16.686366	0.000603	6.028091	1.021186	-0.012059
1211	6.0500e-01	7.8961	16.674392	0.000120	1.197068	0.202789	-0.002395
1212	6.0550e-01	7.8839	16.645314	0.000291	2.907164	0.492487	-0.005816
1213	6.0600e-01	7.8748	16.624360	0.000209	2.094868	0.354880	-0.004191
1214	6.0650e-01	7.8656	16.600841	0.000235	2.351383	0.398335	-0.004704
1215	6.0700e-01	7.8566	16.551664	0.000492	4.916528	0.832882	-0.009835
1216	6.0750e-01	7.8455	16.525151	0.000265	2.650650	0.449032	-0.005303
1217	6.0800e-01	7.8351	16.515743	0.000094	0.940553	0.159334	-0.001882
1218	6.0850e-01	7.8259	16.465284	0.000504	5.044785	0.854610	-0.010092
1219	6.0900e-01	7.8157	16.433639	0.000316	3.163679	0.535942	-0.006329
1220	6.0950e-01	7.8049	16.419528	0.000141	1.410830	0.239001	-0.002822
1221	6.1000e-01	7.7954	16.385318	0.000342	3.420193	0.579396	-0.006842
1222	6.1050e-01	7.7850	16.367357	0.000180	1.795601	0.304183	-0.003592
1223	6.1100e-01	7.7748	16.328443	0.000389	3.890470	0.659063	-0.007783
1224	6.1150e-01	7.7667	16.304496	0.000239	2.394135	0.405577	-0.004789
1225	6.1200e-01	7.7570	16.267721	0.000368	3.676708	0.622851	-0.007355
1226	6.1250e-01	7.7451	16.230517	0.000372	3.719460	0.630094	-0.007441
1227	6.1300e-01	7.7365	16.212557	0.000180	1.795601	0.304183	-0.003592
1228	6.1350e-01	7.7228	16.189465	0.000231	2.308630	0.391093	-0.004618
1229	6.1400e-01	7.7133	16.144992	0.000445	4.446251	0.753215	-0.008895
1230	6.1450e-01	7.7069	16.108216	0.000368	3.676708	0.622851	-0.007355
1231	6.1500e-01	7.6965	16.091967	0.000162	1.624592	0.275213	-0.003250
1232	6.1550e-01	7.6851	16.057757	0.000342	3.420193	0.579396	-0.006842
1233	6.1600e-01	7.6767	16.019698	0.000380	3.804965	0.644579	-0.007612
1234	6.1650e-01	7.6624	15.990192	0.000295	2.949917	0.499729	-0.005901
1235	6.1700e-01	7.6572	15.955127	0.000351	3.505698	0.593881	-0.007013
1236	6.1750e-01	7.6477	15.934601	0.000205	2.052116	0.347638	-0.004105
1237	6.1800e-01	7.6367	15.910654	0.000239	2.394135	0.405577	-0.004789
1238	6.1850e-01	7.6236	15.864898	0.000457	4.574509	0.774943	-0.009151
1239	6.1900e-01	7.6161	15.852924	0.000120	1.197068	0.202789	-0.002395
1240	6.1950e-01	7.6068	15.828977	0.000239	2.394135	0.405577	-0.004789
1241	6.2000e-01	7.6001	15.783649	0.000453	4.531756	0.767700	-0.009066
1242	6.2050e-01	7.5854	15.755426	0.000282	2.821659	0.478002	-0.005645
1243	6.2100e-01	7.5745	15.744735	0.000107	1.068810	0.181061	-0.002138
1244	6.2150e-01	7.5674	15.687006	0.000577	5.771576	0.977731	-0.011546
1245	6.2200e-01	7.5537	15.687433	-0.000004	-0.042752	-0.007242	0.000086
1246	6.2250e-01	7.5453	15.649802	0.000376	3.762213	0.637336	-0.007526
1247	6.2300e-01	7.5354	15.601053	0.000487	4.873775	0.825640	-0.009750
1248	6.2350e-01	7.5238	15.552731	0.000483	4.831023	0.818397	-0.009664
1249	6.2400e-01	7.5146	15.552731	-0.000000	-0.000000	-0.000000	0.000000
1250	6.2450e-01	7.5055	15.506548	0.000462	4.617261	0.782185	-0.009237
1251	6.2500e-01	7.4951	15.490298	0.000162	1.624592	0.275213	-0.003250
1252	6.2550e-01	7.4849	15.463785	0.000265	2.650650	0.449032	-0.005303
1253	6.2600e-01	7.4768	15.414608	0.000492	4.916528	0.832882	-0.009835
1254	6.2650e-01	7.4658	15.385957	0.000286	2.864412	0.485245	-0.005730
1255	6.2700e-01	7.4562	15.356451	0.000295	2.949917	0.499729	-0.005901
1256	6.2750e-01	7.4445	15.327800	0.000286	2.864412	0.485245	-0.005730
1257	6.2800e-01	7.4359	15.311551	0.000162	1.624592	0.275213	-0.003250
1258	6.2850e-01	7.4274	15.279479	0.000321	3.206431	0.543184	-0.006414
1259	6.2900e-01	7.4158	15.243131	0.000363	3.633955	0.615609	-0.007270
1260	6.2950e-01	7.4066	15.196519	0.000466	4.660013	0.789428	-0.009322
1261	6.3000e-01	7.3969	15.191388	0.000051	0.513029	0.086909	-0.001026
1262	6.3050e-01	7.3846	15.175993	0.000154	1.539087	0.260728	-0.003079
1263	6.3100e-01	7.3740	15.110994	0.000650	6.498367	1.100853	-0.013000
1264	6.3150e-01	7.3688	15.085764	0.000252	2.522393	0.427305	-0.005046
1265	6.3200e-01	7.3553	15.060107	0.000257	2.565145	0.434547	-0.005132
1266	6.3250e-01	7.3474	15.028890	0.000312	3.120926	0.528699	-0.006243
1267	6.3300e-01	7.3366	15.001522	0.000274	2.736155	0.463517	-0.005474
1268	6.3350e-01	7.3273	14.985272	0.000162	1.624592	0.275213	-0.003250
1269	6.3400e-01	7.3145	14.949352	0.000359	3.591203	0.608366	-0.007184
1270	6.3450e-01	7.3059	14.909155	0.000402	4.018727	0.680791	-0.008039
1271	6.3500e-01	7.2968	14.873235	0.000359	3.591203	0.608366	-0.007184
1272	6.3550e-01	7.2852	14.846294	0.000269	2.693402	0.456275	-0.005388
1273	6.3600e-01	7.2791	14.812940	0.000333	3.334688	0.564912	-0.006671
1274	6.3650e-01	7.2652	14.786427	0.000265	2.650650	0.449032	-0.005303
1275	6.3700e-01	7.2559	14.744947	0.000415	4.146984	0.702518	-0.008296
1276	6.3750e-01	7.2449	14.733401	0.000115	1.154315	0.195546	-0.002309
1277	6.3800e-01	7.2327	14.711592	0.000218	2.180373	0.369365	-0.004362
1278	6.3850e-01	7.2256	14.670540	0.000410	4.104232	0.695276	-0.008210
1279	6.3900e-01	7.2144	14.647876	0.000227	2.265878	0.383850	-0.004533
1280	6.3950e-01	7.2067	14.599555	0.000483	4.831023	0.818397	-0.009664
1281	6.4000e-01	7.1979	14.573469	0.000261	2.607897	0.441790	-0.005217
1282	6.4050e-01	7.1899	14.527286	0.000462	4.617261	0.782185	-0.009237
1283	6.4100e-01	7.1759	14.512319	0.000150	1.496335	0.253486	-0.002993
1284	6.4150e-01	7.1643	14.479392	0.000329	3.291936	0.557669	-0.006585
1285	6.4200e-01	7.1577	14.449458	0.000299	2.992669	0.506972	-0.005987
1286	6.4250e-01	7.1478	14.436202	0.000133	1.325325	0.224516	-0.002651
1287	6.4300e-01	7.1362	14.374624	0.000616	6.156348	1.042914	-0.012316
1288	6.4350e-01	7.1228	14.351959	0.000227	2.265878	0.383850	-0.004533
1289	6.4400e-01	7.1143	14.344262	0.000077	0.769543	0.130364	-0.001539
1290	6.4450e-01	7.1057	14.292947	0.000513	5.130290	0.869095	-0.010263
1291	6.4500e-01	7.0972	14.261731	0.000312	3.120926	0.528699	-0.006243
1292	6.4550e-01	7.0862	14.225810	0.000359	3.591203	0.608366	-0.007184
1293	6.4600e-01	7.0746	14.207422	0.000184	1.838354	0.311426	-0.003678
1294	6.4650e-01	7.0686	14.159956	0.000475	4.745518	0.803913	-0.009493
1295	6.4700e-01	7.0546	14.143706	0.000162	1.624592	0.275213	-0.003250
1296	6.4750e-01	7.0499	14.098378	0.000453	4.531756	0.767700	-0.009066
1297	6.4800e-01	7.0351	14.068444	0.000299	2.992669	0.506972	-0.005987
1298	6.4850e-01	7.0251	14.037655	0.000308	3.078174	0.521457	-0.006158
1299	6.4900e-01	7.0160	14.014991	0.000227	2.265878	0.383850	-0.004533
1300	6.4950e-01	7.0056	13.969235	0.000457	4.574509	0.774943	-0.009151
1301	6.5000e-01	6.9946	13.930321	0.000389	3.890470	0.659063	-0.007783
1302	6.5050e-01	6.9867	13.901670	0.000286	2.864412	0.485245	-0.005730
1303	6.5100e-01	6.9769	13.887986	0.000137	1.368077	0.231759	-0.002737
1304	6.5150e-01	6.9644	13.840520	0.000475	4.745518	0.803913	-0.009493
1305	6.5200e-01	6.9574	13.823842	0.000167	1.667344	0.282456	-0.003335
1306	6.5250e-01	6.9458	13.767396	0.000564	5.643319	0.956004	-0.011289
1307	6.5300e-01	6.9360	13.755850	0.000115	1.154315	0.195546	-0.002309
1308	6.5350e-01	6.9217	13.732758	0.000231	2.308630	0.391093	-0.004618
1309	6.5400e-01	6.9147	13.681871	0.000509	5.087538	0.861852	-0.010177
1310	6.5450e-01	6.9052	13.639963	0.000419	4.189737	0.709761	-0.008381
1311	6.5500e-01	6.8958	13.633121	0.000068	0.684039	0.115879	-0.001368
1312	6.5550e-01	6.8835	13.594635	0.000385	3.847717	0.651821	-0.007697
1313	6.5600e-01	6.8758	13.563846	0.000308	3.078174	0.521457	-0.006158
1314	6.5650e-01	6.8652	13.517663	0.000462	4.617261	0.782185	-0.009237
1315	6.5700e-01	6.8561	13.492433	0.000252	2.522393	0.427305	-0.005046
1316	6.5750e-01	6.8439	13.468913	0.000235	2.351383	0.398335	-0.004704
1317	6.5800e-01	6.8362	13.429572	0.000393	3.933222	0.666306	-0.007868
1318	6.5850e-01	6.8256	13.394506	0.000351	3.505698	0.593881	-0.007013
1319	6.5900e-01	6.8146	13.352599	0.000419	4.189737	0.709761	-0.008381
1320	6.5950e-01	6.8060	13.337205	0.000154	1.539087	0.260728	-0.003079
1321	6.6000e-01	6.7947	13.300001	0.000372	3.719460	0.630094	-0.007441
1322	6.6050e-01	6.7828	13.258522	0.000415	4.146984	0.702518	-0.008296
1323	6.6100e-01	6.7749	13.264936	-0.000064	-0.641286	-0.108637	0.001283
1324	6.6150e-01	6.7651	13.229443	0.000355	3.548451	0.601124	-0.007099
1325	6.6200e-01	6.7546	13.187536	0.000419	4.189737	0.709761	-0.008381
1326	6.6250e-01	6.7453	13.139642	0.000479	4.788271	0.811155	-0.009579
1327	6.6300e-01	6.7360	13.087472	0.000522	5.215795	0.883580	-0.010434
1328	6.6350e-01	6.7238	13.074215	0.000133	1.325325	0.224516	-0.002651
1329	6.6400e-01	6.7163	13.046847	0.000274	2.736155	0.463517	-0.005474
1330	6.6450e-01	6.7053	13.021190	0.000257	2.565145	0.434547	-0.005132
1331	6.6500e-01	6.6986	12.983559	0.000376	3.762213	0.637336	-0.007526
1332	6.6550e-01	6.6846	12.939086	0.000445	4.446251	0.753215	-0.008895
1333	6.6600e-01	6.6739	12.904876	0.000342	3.420193	0.579396	-0.006842
1334	6.6650e-01	6.6656	12.876652	0.000282	2.821659	0.478002	-0.005645
1335	6.6700e-01	6.6559	12.828331	0.000483	4.831023	0.818397	-0.009664
1336	6.6750e-01	6.6443	12.817212	0.000111	1.111563	0.188304	-0.002224
1337	6.6800e-01	6.6345	12.777016	0.000402	4.018727	0.680791	-0.008039
1338	6.6850e-01	6.6260	12.746654	0.000304	3.035422	0.514214	-0.006072
1339	6.6900e-01	6.6150	12.720997	0.000257	2.565145	0.434547	-0.005132
1340	6.6950e-01	6.6078	12.687642	0.000333	3.334688	0.564912	-0.006671
1341	6.7000e-01	6.5948	12.640603	0.000470	4.702766	0.796670	-0.009408
1342	6.7050e-01	6.5828	12.614090	0.000265	2.650650	0.449032	-0.005303
1343	6.7100e-01	6.5753	12.581163	0.000329	3.291936	0.557669	-0.006585
1344	6.7150e-01	6.5643	12.549091	0.000321	3.206431	0.543184	-0.006414
1345	6.7200e-01	6.5570	12.502480	0.000466	4.660013	0.789428	-0.009322
1346	6.7250e-01	6.5442	12.488369	0.000141	1.410830	0.239001	-0.002822
1347	6.7300e-01	6.5344	12.452020	0.000363	3.633955	0.615609	-0.007270
1348	6.7350e-01	6.5253	12.421659	0.000304	3.035422	0.514214	-0.006072
1349	6.7400e-01	6.5149	12.393863	0.000278	2.778907	0.470760	-0.005559
1350	6.7450e-01	6.5051	12.353667	0.000402	4.018727	0.680791	-0.008039
1351	6.7500e-01	6.4966	12.322878	0.000308	3.078174	0.521457	-0.006158
1352	6.7550e-01	6.4827	12.281398	0.000415	4.146984	0.702518	-0.008296
1353	6.7600e-01	6.4755	12.243767	0.000376	3.762213	0.637336	-0.007526
1354	6.7650e-01	6.4668	12.229228	0.000145	1.453582	0.246243	-0.002908
1355	6.7700e-01	6.4569	12.210412	0.000188	1.881106	0.318668	-0.003763
1356	6.7750e-01	6.4413	12.164229	0.000462	4.617261	0.782185	-0.009237
1357	6.7800e-01	6.4357	12.123604	0.000406	4.061480	0.688033	-0.008125
1358	6.7850e-01	6.4261	12.071862	0.000517	5.173042	0.876337	-0.010349
1359	6.7900e-01	6.4136	12.033803	0.000380	3.804965	0.644579	-0.007612
1360	6.7950e-01	6.4059	12.006435	0.000274	2.736155	0.463517	-0.005474
1361	6.8000e-01	6.3925	11.995744	0.000107	1.068810	0.181061	-0.002138
1362	6.8050e-01	6.3837	11.952982	0.000428	4.275242	0.724246	-0.008553
1363	6.8100e-01	6.3745	11.926041	0.000269	2.693402	0.456275	-0.005388
1364	6.8150e-01	6.3651	11.887127	0.000389	3.890470	0.659063	-0.007783
1365	6.8200e-01	6.3535	11.844365	0.000428	4.275242	0.724246	-0.008553
1366	6.8250e-01	6.3446	11.814003	0.000304	3.035422	0.514214	-0.006072
1367	6.8300e-01	6.3334	11.796471	0.000175	1.752849	0.296941	-0.003507
1368	6.8350e-01	6.3239	11.757557	0.000389	3.890470	0.659063	-0.007783
1369	6.8400e-01	6.3147	11.698545	0.000590	5.899833	0.999459	-0.011802
1370	6.8450e-01	6.3062	11.681440	0.000171	1.710097	0.289698	-0.003421
1371	6.8500e-01	6.2933	11.660058	0.000214	2.137621	0.362123	-0.004276
1372	6.8550e-01	6.2842	11.623283	0.000368	3.676708	0.622851	-0.007355
1373	6.8600e-01	6.2732	11.580520	0.000428	4.275242	0.724246	-0.008553
1374	6.8650e-01	6.2677	11.542461	0.000380	3.804965	0.644579	-0.007612
1375	6.8700e-01	6.2567	11.517659	0.000248	2.479640	0.420062	-0.004960
1376	6.8750e-01	6.2469	11.470193	0.000475	4.745518	0.803913	-0.009493
1377	6.8800e-01	6.2357	11.455226	0.000150	1.496335	0.253486	-0.002993
1378	6.8850e-01	6.2250	11.420588	0.000346	3.462946	0.586639	-0.006928
1379	6.8900e-01	6.2152	11.379964	0.000406	4.061480	0.688033	-0.008125
1380	6.8950e-01	6.2048	11.341478	0.000385	3.847717	0.651821	-0.007697
1381	6.9000e-01	6.1963	11.338912	0.000026	0.256514	0.043455	-0.000513
1382	6.9050e-01	6.1852	11.289735	0.000492	4.916528	0.832882	-0.009835
1383	6.9100e-01	6.1743	11.257235	0.000325	3.249184	0.550427	-0.006500
1384	6.9150e-01	6.1646	11.212762	0.000445	4.446251	0.753215	-0.008895
1385	6.9200e-01	6.1555	11.182401	0.000304	3.035422	0.514214	-0.006072
1386	6.9250e-01	6.1470	11.158026	0.000244	2.436888	0.412820	-0.004875
1387	6.9300e-01	6.1377	11.122106	0.000359	3.591203	0.608366	-0.007184
1388	6.9350e-01	6.1250	11.102007	0.000201	2.009364	0.340395	-0.004020
1389	6.9400e-01	6.1151	11.051548	0.000504	5.044785	0.854610	-0.010092
1390	6.9450e-01	6.1066	11.014344	0.000372	3.719460	0.630094	-0.007441
1391	6.9500e-01	6.0971	10.980562	0.000338	3.377441	0.572154	-0.006756
1392	6.9550e-01	6.0852	10.951056	0.000295	2.949917	0.499729	-0.005901
1393	6.9600e-01	6.0767	10.938227	0.000128	1.282572	0.217274	-0.002566
1394	6.9650e-01	6.0638	10.876221	0.000620	6.199100	1.050156	-0.012401
1395	6.9700e-01	6.0587	10.827044	0.000492	4.916528	0.832882	-0.009835
1396	6.9750e-01	6.0463	10.816354	0.000107	1.068810	0.181061	-0.002138
1397	6.9800e-01	6.0352	10.771025	0.000453	4.531756	0.767700	-0.009066
1398	6.9850e-01	6.0287	10.741519	0.000295	2.949917	0.499729	-0.005901
1399	6.9900e-01	6.0168	10.694053	0.000475	4.745518	0.803913	-0.009493
1400	6.9950e-01	6.0101	10.675237	0.000188	1.881106	0.318668	-0.003763
1401	7.0000e-01	5.9950	10.633758	0.000415	4.146984	0.702518	-0.008296
1402	7.0050e-01	5.9872	10.591850	0.000419	4.189737	0.709761	-0.008381
1403	7.0100e-01	5.9729	10.581587	0.000103	1.026058	0.173819	-0.002053
1404	7.0150e-01	5.9650	10.525996	0.000556	5.557814	0.941519	-0.011118
1405	7.0200e-01	5.9558	10.517016	0.000090	0.897801	0.152092	-0.001796
1406	7.0250e-01	5.9447	10.474253	0.000428	4.275242	0.724246	-0.008553
1407	7.0300e-01	5.9369	10.422511	0.000517	5.173042	0.876337	-0.010349
1408	7.0350e-01	5.9253	10.404978	0.000175	1.752849	0.296941	-0.003507
1409	7.0400e-01	5.9152	10.360505	0.000445	4.446251	0.753215	-0.008895
1410	7.0450e-01	5.9082	10.318598	0.000419	4.189737	0.709761	-0.008381
1411	7.0500e-01	5.8948	10.295078	0.000235	2.351383	0.398335	-0.004704
1412	7.0550e-01	5.8862	10.268993	0.000261	2.607897	0.441790	-0.005217
1413	7.0600e-01	5.8768	10.227514	0.000415	4.146984	0.702518	-0.008296
1414	7.0650e-01	5.8649	10.213830	0.000137	1.368077	0.231759	-0.002737
1415	7.0700e-01	5.8557	10.144554	0.000693	6.925891	1.173278	-0.013855
1416	7.0750e-01	5.8456	10.122318	0.000222	2.223126	0.376608	-0.004447
1417	7.0800e-01	5.8344	10.096660	0.000257	2.565145	0.434547	-0.005132
1418	7.0850e-01	5.8247	10.043635	0.000530	5.301300	0.898064	-0.010605
1419	7.0900e-01	5.8185	10.006859	0.000368	3.676708	0.622851	-0.007355
1420	7.0950e-01	5.8051	9.964524	0.000423	4.232489	0.717003	-0.008467
1421	7.1000e-01	5.7938	9.947847	0.000167	1.667344	0.282456	-0.003335
1422	7.1050e-01	5.7874	9.912354	0.000355	3.548451	0.601124	-0.007099
1423	7.1100e-01	5.7721	9.853769	0.000586	5.857081	0.992216	-0.011717
1424	7.1150e-01	5.7635	9.845217	0.000086	0.855048	0.144849	-0.001711
1425	7.1200e-01	5.7587	9.808869	0.000363	3.633955	0.615609	-0.007270
1426	7.1250e-01	5.7452	9.759692	0.000492	4.916528	0.832882	-0.009835
1427	7.1300e-01	5.7375	9.743870	0.000158	1.581839	0.267971	-0.003164
1428	7.1350e-01	5.7239	9.702817	0.000410	4.104232	0.695276	-0.008210
1429	7.1400e-01	5.7129	9.670318	0.000325	3.249184	0.550427	-0.006500
1430	7.1450e-01	5.7043	9.622852	0.000475	4.745518	0.803913	-0.009493
1431	7.1500e-01	5.6955	9.610450	0.000124	1.239820	0.210031	-0.002480
1432	7.1550e-01	5.6848	9.552293	0.000581	5.814329	0.984974	-0.011631
1433	7.1600e-01	5.6747	9.527919	0.000244	2.436888	0.412820	-0.004875
1434	7.1650e-01	5.6677	9.482590	0.000453	4.531756	0.767700	-0.009066
1435	7.1700e-01	5.6580	9.447953	0.000346	3.462946	0.586639	-0.006928
1436	7.1750e-01	5.6445	9.427854	0.000201	2.009364	0.340395	-0.004020
1437	7.1800e-01	5.6322	9.390223	0.000376	3.762213	0.637336	-0.007526
1438	7.1850e-01	5.6287	9.327790	0.000624	6.241853	1.057398	-0.012487
1439	7.1900e-01	5.6166	9.312823	0.000150	1.496335	0.253486	-0.002993
1440	7.1950e-01	5.6061	9.285455	0.000274	2.736155	0.463517	-0.005474
1441	7.2000e-01	5.5963	9.234568	0.000509	5.087538	0.861852	-0.010177
1442	7.2050e-01	5.5847	9.210193	0.000244	2.436888	0.412820	-0.004875
1443	7.2100e-01	5.5750	9.166575	0.000436	4.360746	0.738730	-0.008724
1444	7.2150e-01	5.5670	9.149043	0.000175	1.752849	0.296941	-0.003507
1445	7.2200e-01	5.5545	9.081478	0.000675	6.754882	1.144308	-0.013513
1446	7.2250e-01	5.5453	9.039143	0.000423	4.232489	0.717003	-0.008467
1447	7.2300e-01	5.5362	9.027170	0.000120	1.197068	0.202789	-0.002395
1448	7.2350e-01	5.5249	8.980558	0.000466	4.660013	0.789428	-0.009322
1449	7.2400e-01	5.5164	8.938223	0.000423	4.232489	0.717003	-0.008467
1450	7.2450e-01	5.5029	8.907434	0.000308	3.078174	0.521457	-0.006158
1451	7.2500e-01	5.4965	8.863389	0.000440	4.403499	0.745973	-0.008809
1452	7.2550e-01	5.4889	8.841153	0.000222	2.223126	0.376608	-0.004447
1453	7.2600e-01	5.4758	8.819771	0.000214	2.137621	0.362123	-0.004276
1454	7.2650e-01	5.4663	8.743654	0.000761	7.609930	1.289157	-0.015223
1455	7.2700e-01	5.4536	8.737667	0.000060	0.598534	0.101394	-0.001197
1456	7.2750e-01	5.4477	8.707733	0.000299	2.992669	0.506972	-0.005987
1457	7.2800e-01	5.4364	8.658984	0.000487	4.873775	0.825640	-0.009750
1458	7.2850e-01	5.4262	8.637603	0.000214	2.137621	0.362123	-0.004276
1459	7.2900e-01	5.4169	8.594413	0.000432	4.317994	0.731488	-0.008638
1460	7.2950e-01	5.4036	8.543953	0.000504	5.044785	0.854610	-0.010092
1461	7.3000e-01	5.3955	8.500335	0.000436	4.360746	0.738730	-0.008724
1462	7.3050e-01	5.3839	8.478526	0.000218	2.180373	0.369365	-0.004362
1463	7.3100e-01	5.3741	8.430632	0.000479	4.788271	0.811155	-0.009579
1464	7.3150e-01	5.3641	8.395567	0.000351	3.505698	0.593881	-0.007013
1465	7.3200e-01	5.3561	8.380173	0.000154	1.539087	0.260728	-0.003079
1466	7.3250e-01	5.3436	8.312608	0.000675	6.754882	1.144308	-0.013513
1467	7.3300e-01	5.3345	8.301062	0.000115	1.154315	0.195546	-0.002309
1468	7.3350e-01	5.3278	8.259582	0.000415	4.146984	0.702518	-0.008296
1469	7.3400e-01	5.3162	8.239056	0.000205	2.052116	0.347638	-0.004105
1470	7.3450e-01	5.3058	8.196721	0.000423	4.232489	0.717003	-0.008467
1471	7.3500e-01	5.2986	8.152248	0.000445	4.446251	0.753215	-0.008895
1472	7.3550e-01	5.2859	8.118038	0.000342	3.420193	0.579396	-0.006842
1473	7.3600e-01	5.2765	8.071855	0.000462	4.617261	0.782185	-0.009237
1474	7.3650e-01	5.2634	8.064585	0.000073	0.726791	0.123122	-0.001454
1475	7.3700e-01	5.2570	8.021823	0.000428	4.275242	0.724246	-0.008553
1476	7.3750e-01	5.2438	7.963238	0.000586	5.857081	0.992216	-0.011717
1477	7.3800e-01	5.2350	7.924324	0.000389	3.890470	0.659063	-0.007783
1478	7.3850e-01	5.2237	7.874719	0.000496	4.959280	0.840125	-0.009921
1479	7.3900e-01	5.2148	7.858897	0.000158	1.581839	0.267971	-0.003164
1480	7.3950e-01	5.2032	7.825543	0.000333	3.334688	0.564912	-0.006671
1481	7.4000e-01	5.1941	7.782780	0.000428	4.275242	0.724246	-0.008553
1482	7.4050e-01	5.1859	7.748998	0.000338	3.377441	0.572154	-0.006756
1483	7.4100e-01	5.1754	7.714360	0.000346	3.462946	0.586639	-0.006928
1484	7.4150e-01	5.1672	7.669459	0.000449	4.489004	0.760458	-0.008980
1485	7.4200e-01	5.1556	7.628835	0.000406	4.061480	0.688033	-0.008125
1486	7.4250e-01	5.1445	7.615151	0.000137	1.368077	0.231759	-0.002737
1487	7.4300e-01	5.1324	7.568112	0.000470	4.702766	0.796670	-0.009408
1488	7.4350e-01	5.1260	7.530909	0.000372	3.719460	0.630094	-0.007441
1489	7.4400e-01	5.1160	7.489429	0.000415	4.146984	0.702518	-0.008296
1490	7.4450e-01	5.1068	7.447522	0.000419	4.189737	0.709761	-0.008381
1491	7.4500e-01	5.0937	7.419299	0.000282	2.821659	0.478002	-0.005645
1492	7.4550e-01	5.0838	7.379957	0.000393	3.933222	0.666306	-0.007868
1493	7.4600e-01	5.0745	7.336767	0.000432	4.317994	0.731488	-0.008638
1494	7.4650e-01	5.0635	7.303412	0.000333	3.334688	0.564912	-0.006671
1495	7.4700e-01	5.0577	7.252097	0.000513	5.130290	0.869095	-0.010263
1496	7.4750e-01	5.0458	7.214894	0.000372	3.719460	0.630094	-0.007441
1497	7.4800e-01	5.0330	7.208479	0.000064	0.641286	0.108637	-0.001283
1498	7.4850e-01	5.0262	7.155454	0.000530	5.301300	0.898064	-0.010605
1499	7.4900e-01	5.0180	7.113119	0.000423	4.232489	0.717003	-0.008467
1500	7.4950e-01	5.0055	7.097724	0.000154	1.539087	0.260728	-0.003079
1501	7.5000e-01	4.9966	7.037002	0.000607	6.070843	1.028429	-0.012145
1502	7.5050e-01	4.9832	7.001936	0.000351	3.505698	0.593881	-0.007013
1503	7.5100e-01	4.9765	6.949338	0.000526	5.258547	0.890822	-0.010520
1504	7.5150e-01	4.9646	6.924108	0.000252	2.522393	0.427305	-0.005046
1505	7.5200e-01	4.9591	6.886477	0.000376	3.762213	0.637336	-0.007526
1506	7.5250e-01	4.9451	6.852695	0.000338	3.377441	0.572154	-0.006756
1507	7.5300e-01	4.9335	6.829176	0.000235	2.351383	0.398335	-0.004704
1508	7.5350e-01	4.9286	6.753058	0.000761	7.609930	1.289157	-0.015223
1509	7.5400e-01	4.9124	6.726973	0.000261	2.607897	0.441790	-0.005217
1510	7.5450e-01	4.9072	6.691053	0.000359	3.591203	0.608366	-0.007184
1511	7.5500e-01	4.8981	6.644014	0.000470	4.702766	0.796670	-0.009408
1512	7.5550e-01	4.8862	6.615363	0.000286	2.864412	0.485245	-0.005730
1513	7.5600e-01	4.8752	6.571318	0.000440	4.403499	0.745973	-0.008809
1514	7.5650e-01	4.8679	6.542667	0.000286	2.864412	0.485245	-0.005730
1515	7.5700e-01	4.8547	6.512733	0.000299	2.992669	0.506972	-0.005987
1516	7.5750e-01	4.8459	6.484082	0.000286	2.864412	0.485245	-0.005730
1517	7.5800e-01	4.8355	6.443458	0.000406	4.061480	0.688033	-0.008125
1518	7.5850e-01	4.8254	6.416090	0.000274	2.736155	0.463517	-0.005474
1519	7.5900e-01	4.8157	6.360926	0.000552	5.515062	0.934277	-0.011033
1520	7.5950e-01	4.8050	6.324150	0.000368	3.676708	0.622851	-0.007355
1521	7.6000e-01	4.7958	6.273263	0.000509	5.087538	0.861852	-0.010177
1522	7.6050e-01	4.7859	6.240336	0.000329	3.291936	0.557669	-0.006585
1523	7.6100e-01	4.7760	6.201849	0.000385	3.847717	0.651821	-0.007697
1524	7.6150e-01	4.7668	6.175337	0.000265	2.650650	0.449032	-0.005303
1525	7.6200e-01	4.7589	6.122311	0.000530	5.301300	0.898064	-0.010605
1526	7.6250e-01	4.7455	6.100502	0.000218	2.180373	0.369365	-0.004362
1527	7.6300e-01	4.7345	6.033365	0.000671	6.712129	1.137065	-0.013427
1528	7.6350e-01	4.7253	6.012411	0.000209	2.094868	0.354880	-0.004191
1529	7.6400e-01	4.7150	5.984616	0.000278	2.778907	0.470760	-0.005559
1530	7.6450e-01	4.7043	5.929452	0.000552	5.515062	0.934277	-0.011033
1531	7.6500e-01	4.6949	5.902939	0.000265	2.650650	0.449032	-0.005303
1532	7.6550e-01	4.6851	5.851197	0.000517	5.173042	0.876337	-0.010349
1533	7.6600e-01	4.6796	5.837513	0.000137	1.368077	0.231759	-0.002737
1534	7.6650e-01	4.6680	5.792184	0.000453	4.531756	0.767700	-0.009066
1535	7.6700e-01	4.6558	5.751132	0.000410	4.104232	0.695276	-0.008210
1536	7.6750e-01	4.6445	5.701955	0.000492	4.916528	0.832882	-0.009835
1537	7.6800e-01	4.6353	5.672449	0.000295	2.949917	0.499729	-0.005901
1538	7.6850e-01	4.6251	5.624983	0.000475	4.745518	0.803913	-0.009493
1539	7.6900e-01	4.6152	5.584786	0.000402	4.018727	0.680791	-0.008039
1540	7.6950e-01	4.6075	5.548010	0.000368	3.676708	0.622851	-0.007355
1541	7.7000e-01	4.5956	5.517649	0.000304	3.035422	0.514214	-0.006072
1542	7.7050e-01	4.5862	5.481301	0.000363	3.633955	0.615609	-0.007270
1543	7.7100e-01	4.5746	5.444525	0.000368	3.676708	0.622851	-0.007355
1544	7.7150e-01	4.5667	5.366697	0.000778	7.780940	1.318127	-0.015566
1545	7.7200e-01	4.5538	5.345316	0.000214	2.137621	0.362123	-0.004276
1546	7.7250e-01	4.5441	5.302126	0.000432	4.317994	0.731488	-0.008638
1547	7.7300e-01	4.5377	5.272620	0.000295	2.949917	0.499729	-0.005901
1548	7.7350e-01	4.5270	5.243113	0.000295	2.949917	0.499729	-0.005901
1549	7.7400e-01	4.5142	5.201634	0.000415	4.146984	0.702518	-0.008296
1550	7.7450e-01	4.5041	5.152885	0.000487	4.873775	0.825640	-0.009750
1551	7.7500e-01	4.4971	5.107556	0.000453	4.531756	0.767700	-0.009066
1552	7.7550e-01	4.4843	5.083609	0.000239	2.394135	0.405577	-0.004789
1553	7.7600e-01	4.4739	5.060945	0.000227	2.265878	0.383850	-0.004533
1554	7.7650e-01	4.4647	5.004071	0.000569	5.686071	0.963247	-0.011375
1555	7.7700e-01	4.4562	4.961736	0.000423	4.232489	0.717003	-0.008467
1556	7.7750e-01	4.4458	4.904434	0.000573	5.728824	0.970489	-0.011460
1557	7.7800e-01	4.4388	4.893316	0.000111	1.111563	0.188304	-0.002224
1558	7.7850e-01	4.4266	4.838580	0.000547	5.472309	0.927034	-0.010947
1559	7.7900e-01	4.4165	4.784272	0.000543	5.429557	0.919792	-0.010862
1560	7.7950e-01	4.4037	4.765456	0.000188	1.881106	0.318668	-0.003763
1561	7.8000e-01	4.3970	4.718417	0.000470	4.702766	0.796670	-0.009408
1562	7.8050e-01	4.3829	4.688911	0.000295	2.949917	0.499729	-0.005901
1563	7.8100e-01	4.3750	4.641872	0.000470	4.702766	0.796670	-0.009408
1564	7.8150e-01	4.3671	4.614504	0.000274	2.736155	0.463517	-0.005474
1565	7.8200e-01	4.3549	4.567466	0.000470	4.702766	0.796670	-0.009408
1566	7.8250e-01	4.3473	4.533256	0.000342	3.420193	0.579396	-0.006842
1567	7.8300e-01	4.3344	4.501611	0.000316	3.163679	0.535942	-0.006329
1568	7.8350e-01	4.3250	4.449013	0.000526	5.258547	0.890822	-0.010520
1569	7.8400e-01	4.3134	4.408817	0.000402	4.018727	0.680791	-0.008039
1570	7.8450e-01	4.3054	4.378883	0.000299	2.992669	0.506972	-0.005987
1571	7.8500e-01	4.2978	4.320298	0.000586	5.857081	0.992216	-0.011717
1572	7.8550e-01	4.2859	4.301055	0.000192	1.923859	0.325910	-0.003849
1573	7.8600e-01	4.2762	4.240332	0.000607	6.070843	1.028429	-0.012145
1574	7.8650e-01	4.2679	4.206550	0.000338	3.377441	0.572154	-0.006756
1575	7.8700e-01	4.2535	4.178327	0.000282	2.821659	0.478002	-0.005645
1576	7.8750e-01	4.2432	4.132143	0.000462	4.617261	0.782185	-0.009237
1577	7.8800e-01	4.2360	4.084677	0.000475	4.745518	0.803913	-0.009493
1578	7.8850e-01	4.2267	4.061585	0.000231	2.308630	0.391093	-0.004618
1579	7.8900e-01	4.2163	4.003000	0.000586	5.857081	0.992216	-0.011717
1580	7.8950e-01	4.2062	3.967507	0.000355	3.548451	0.601124	-0.007099
1581	7.9000e-01	4.1945	3.922607	0.000449	4.489004	0.760458	-0.008980
1582	7.9050e-01	4.1858	3.890107	0.000325	3.249184	0.550427	-0.006500
1583	7.9100e-01	4.1742	3.836226	0.000539	5.386804	0.912549	-0.010776
1584	7.9150e-01	4.1653	3.808858	0.000274	2.736155	0.463517	-0.005474
1585	7.9200e-01	4.1554	3.756688	0.000522	5.215795	0.883580	-0.010434
1586	7.9250e-01	4.1443	3.725899	0.000308	3.078174	0.521457	-0.006158
1587	7.9300e-01	4.1351	3.703235	0.000227	2.265878	0.383850	-0.004533
1588	7.9350e-01	4.1254	3.641657	0.000616	6.156348	1.042914	-0.012316
1589	7.9400e-01	4.1147	3.598894	0.000428	4.275242	0.724246	-0.008553
1590	7.9450e-01	4.1077	3.556559	0.000423	4.232489	0.717003	-0.008467
1591	7.9500e-01	4.0958	3.523632	0.000329	3.291936	0.557669	-0.006585
1592	7.9550e-01	4.0851	3.483008	0.000406	4.061480	0.688033	-0.008125
1593	7.9600e-01	4.0755	3.418436	0.000646	6.455615	1.093611	-0.012914
1594	7.9650e-01	4.0662	3.383799	0.000346	3.462946	0.586639	-0.006928
1595	7.9700e-01	4.0576	3.339326	0.000445	4.446251	0.753215	-0.008895
1596	7.9750e-01	4.0460	3.314096	0.000252	2.522393	0.427305	-0.005046
1597	7.9800e-01	4.0366	3.275610	0.000385	3.847717	0.651821	-0.007697
1598	7.9850e-01	4.0265	3.219591	0.000560	5.600567	0.948762	-0.011204
1599	7.9900e-01	4.0134	3.177683	0.000419	4.189737	0.709761	-0.008381
1600	7.9950e-01	4.0034	3.153736	0.000239	2.394135	0.405577	-0.004789
1601	8.0000e-01	3.9960	3.107980	0.000457	4.574509	0.774943	-0.009151
1602	8.0050e-01	3.9851	3.060942	0.000470	4.702766	0.796670	-0.009408
1603	8.0100e-01	3.9752	3.019890	0.000410	4.104232	0.695276	-0.008210
1604	8.0150e-01	3.9658	2.978410	0.000415	4.146984	0.702518	-0.008296
1605	8.0200e-01	3.9575	2.946338	0.000321	3.206431	0.543184	-0.006414
1606	8.0250e-01	3.9429	2.883905	0.000624	6.241853	1.057398	-0.012487
1607	8.0300e-01	3.9331	2.850122	0.000338	3.377441	0.572154	-0.006756
1608	8.0350e-01	3.9256	2.785123	0.000650	6.498367	1.100853	-0.013000
1609	8.0400e-01	3.9183	2.775288	0.000098	0.983306	0.166576	-0.001967
1610	8.0450e-01	3.9041	2.724828	0.000504	5.044785	0.854610	-0.010092
1611	8.0500e-01	3.8956	2.697033	0.000278	2.778907	0.470760	-0.005559
1612	8.0550e-01	3.8840	2.655981	0.000410	4.104232	0.695276	-0.008210
1613	8.0600e-01	3.8736	2.608942	0.000470	4.702766	0.796670	-0.009408
1614	8.0650e-01	3.8666	2.554206	0.000547	5.472309	0.927034	-0.010947
1615	8.0700e-01	3.8562	2.517430	0.000368	3.676708	0.622851	-0.007355
1616	8.0750e-01	3.8449	2.477661	0.000398	3.975975	0.673548	-0.007954
1617	8.0800e-01	3.8354	2.437036	0.000406	4.061480	0.688033	-0.008125
1618	8.0850e-01	3.8260	2.400688	0.000363	3.633955	0.615609	-0.007270
1619	8.0900e-01	3.8162	2.371610	0.000291	2.907164	0.492487	-0.005816
1620	8.0950e-01	3.8049	2.326281	0.000453	4.531756	0.767700	-0.009066
1621	8.1000e-01	3.7941	2.266414	0.000599	5.985338	1.013944	-0.011974
1622	8.1050e-01	3.7851	2.239046	0.000274	2.736155	0.463517	-0.005474
1623	8.1100e-01	3.7755	2.198422	0.000406	4.061480	0.688033	-0.008125
1624	8.1150e-01	3.7656	2.138126	0.000603	6.028091	1.021186	-0.012059
1625	8.1200e-01	3.7537	2.105199	0.000329	3.291936	0.557669	-0.006585
1626	8.1250e-01	3.7473	2.065430	0.000398	3.975975	0.673548	-0.007954
1627	8.1300e-01	3.7350	2.012832	0.000526	5.258547	0.890822	-0.010520
1628	8.1350e-01	3.7268	1.988885	0.000239	2.394135	0.405577	-0.004789
1629	8.1400e-01	3.7172	1.937570	0.000513	5.130290	0.869095	-0.010263
1630	8.1450e-01	3.7050	1.903360	0.000342	3.420193	0.579396	-0.006842
1631	8.1500e-01	3.6934	1.878558	0.000248	2.479640	0.420062	-0.004960
1632	8.1550e-01	3.6859	1.802013	0.000765	7.652682	1.296400	-0.015309
1633	8.1600e-01	3.6780	1.784908	0.000171	1.710097	0.289698	-0.003421
1634	8.1650e-01	3.6649	1.739580	0.000453	4.531756	0.767700	-0.009066
1635	8.1700e-01	3.6531	1.695534	0.000440	4.403499	0.745973	-0.008809
1636	8.1750e-01	3.6470	1.648495	0.000470	4.702766	0.796670	-0.009408
1637	8.1800e-01	3.6337	1.608299	0.000402	4.018727	0.680791	-0.008039
1638	8.1850e-01	3.6284	1.583924	0.000244	2.436888	0.412820	-0.004875
1639	8.1900e-01	3.6147	1.524912	0.000590	5.899833	0.999459	-0.011802
1640	8.1950e-01	3.6063	1.463761	0.000611	6.113595	1.035671	-0.012230
1641	8.2000e-01	3.5950	1.445373	0.000184	1.838354	0.311426	-0.003678
1642	8.2050e-01	3.5883	1.390210	0.000552	5.515062	0.934277	-0.011033
1643	8.2100e-01	3.5764	1.346592	0.000436	4.360746	0.738730	-0.008724
1644	8.2150e-01	3.5633	1.298698	0.000479	4.788271	0.811155	-0.009579
1645	8.2200e-01	3.5553	1.251232	0.000475	4.745518	0.803913	-0.009493
1646	8.2250e-01	3.5449	1.226429	0.000248	2.479640	0.420062	-0.004960
1647	8.2300e-01	3.5324	1.165279	0.000611	6.113595	1.035671	-0.012230
1648	8.2350e-01	3.5236	1.132779	0.000325	3.249184	0.550427	-0.006500
1649	8.2400e-01	3.5147	1.098142	0.000346	3.462946	0.586639	-0.006928
1650	8.2450e-01	3.5042	1.045544	0.000526	5.258547	0.890822	-0.010520
1651	8.2500e-01	3.4949	0.993374	0.000522	5.215795	0.883580	-0.010434
1652	8.2550e-01	3.4857	0.948473	0.000449	4.489004	0.760458	-0.008980
1653	8.2600e-01	3.4756	0.888605	0.000599	5.985338	1.013944	-0.011974
1654	8.2650e-01	3.4637	0.884329	0.000043	0.427524	0.072425	-0.000855
1655	8.2700e-01	3.4544	0.840284	0.000440	4.403499	0.745973	-0.008809
1656	8.2750e-01	3.4430	0.797094	0.000432	4.317994	0.731488	-0.008638
1657	8.2800e-01	3.4369	0.727391	0.000697	6.968644	1.180520	-0.013941
1658	8.2850e-01	3.4241	0.712424	0.000150	1.496335	0.253486	-0.002993
1659	8.2900e-01	3.4137	0.650418	0.000620	6.199100	1.050156	-0.012401
1660	8.2950e-01	3.4064	0.614070	0.000363	3.633955	0.615609	-0.007270
1661	8.3000e-01	3.3948	0.577722	0.000363	3.633955	0.615609	-0.007270
1662	8.3050e-01	3.3854	0.518282	0.000594	5.942586	1.006701	-0.011888
1663	8.3100e-01	3.3740	0.473381	0.000449	4.489004	0.760458	-0.008980
1664	8.3150e-01	3.3655	0.429763	0.000436	4.360746	0.738730	-0.008724
1665	8.3200e-01	3.3548	0.388284	0.000415	4.146984	0.702518	-0.008296
1666	8.3250e-01	3.3470	0.335686	0.000526	5.258547	0.890822	-0.010520
1667	8.3300e-01	3.3362	0.306180	0.000295	2.949917	0.499729	-0.005901
1668	8.3350e-01	3.3284	0.251871	0.000543	5.429557	0.919792	-0.010862
1669	8.3400e-01	3.3173	0.200556	0.000513	5.130290	0.869095	-0.010263
1670	8.3450e-01	3.3063	0.142827	0.000577	5.771576	0.977731	-0.011546
1671	8.3500e-01	3.2935	0.133847	0.000090	0.897801	0.152092	-0.001796
1672	8.3550e-01	3.2855	0.076117	0.000577	5.771576	0.977731	-0.011546
1673	8.3600e-01	3.2733	0.020098	0.000560	5.600567	0.948762	-0.011204
1674	8.3650e-01	3.2635	-0.002993	0.000231	2.308630	0.391093	-0.004618
1675	8.3700e-01	3.2553	-0.060295	0.000573	5.728824	0.970489	-0.011460
1676	8.3750e-01	3.2440	-0.101347	0.000410	4.104232	0.695276	-0.008210
1677	8.3800e-01	3.2365	-0.131281	0.000299	2.992669	0.506972	-0.005987
1678	8.3850e-01	3.2223	-0.187727	0.000564	5.643319	0.956004	-0.011289
1679	8.3900e-01	3.2159	-0.218944	0.000312	3.120926	0.528699	-0.006243
1680	8.3950e-01	3.2050	-0.275391	0.000564	5.643319	0.956004	-0.011289
1681	8.4000e-01	3.1964	-0.308745	0.000333	3.334688	0.564912	-0.006671
1682	8.4050e-01	3.1857	-0.363481	0.000547	5.472309	0.927034	-0.010947
1683	8.4100e-01	3.1747	-0.405389	0.000419	4.189737	0.709761	-0.008381
1684	8.4150e-01	3.1665	-0.460552	0.000552	5.515062	0.934277	-0.011033
1685	8.4200e-01	3.1557	-0.519992	0.000594	5.942586	1.006701	-0.011888
1686	8.4250e-01	3.1439	-0.542656	0.000227	2.265878	0.383850	-0.004533
1687	8.4300e-01	3.1332	-0.595254	0.000526	5.258547	0.890822	-0.010520
1688	8.4350e-01	3.1230	-0.668378	0.000731	7.310663	1.238460	-0.014625
1689	8.4400e-01	3.1152	-0.667951	-0.000004	-0.042752	-0.007242	0.000086
1690	8.4450e-01	3.1052	-0.731239	0.000633	6.327358	1.071883	-0.012658
1691	8.4500e-01	3.0917	-0.771008	0.000398	3.975975	0.673548	-0.007954
1692	8.4550e-01	3.0853	-0.804791	0.000338	3.377441	0.572154	-0.006756
1693	8.4600e-01	3.0756	-0.862093	0.000573	5.728824	0.970489	-0.011460
1694	8.4650e-01	3.0652	-0.906993	0.000449	4.489004	0.760458	-0.008980
1695	8.4700e-01	3.0539	-0.935644	0.000286	2.864412	0.485245	-0.005730
1696	8.4750e-01	3.0450	-0.984821	0.000492	4.916528	0.832882	-0.009835
1697	8.4800e-01	3.0377	-1.041695	0.000569	5.686071	0.963247	-0.011375
1698	8.4850e-01	3.0243	-1.096004	0.000543	5.429557	0.919792	-0.010862
1699	8.4900e-01	3.0154	-1.119951	0.000239	2.394135	0.405577	-0.004789
1700	8.4950e-01	3.0042	-1.177252	0.000573	5.728824	0.970489	-0.011460
1701	8.5000e-01	2.9953	-1.203338	0.000261	2.607897	0.441790	-0.005217
1702	8.5050e-01	2.9843	-1.265343	0.000620	6.199100	1.050156	-0.012401
1703	8.5100e-01	2.9749	-1.290573	0.000252	2.522393	0.427305	-0.005046
1704	8.5150e-01	2.9654	-1.349158	0.000586	5.857081	0.992216	-0.011717
1705	8.5200e-01	2.9514	-1.395769	0.000466	4.660013	0.789428	-0.009322
1706	8.5250e-01	2.9428	-1.466327	0.000705	7.054149	1.195005	-0.014112
1707	8.5300e-01	2.9341	-1.498399	0.000321	3.206431	0.543184	-0.006414
1708	8.5350e-01	2.9248	-1.552280	0.000539	5.386804	0.912549	-0.010776
1709	8.5400e-01	2.9181	-1.595042	0.000428	4.275242	0.724246	-0.008553
1710	8.5450e-01	2.9059	-1.618562	0.000235	2.351383	0.398335	-0.004704
1711	8.5500e-01	2.8938	-1.678429	0.000599	5.985338	1.013944	-0.011974
1712	8.5550e-01	2.8851	-1.720764	0.000423	4.232489	0.717003	-0.008467
1713	8.5600e-01	2.8743	-1.765665	0.000449	4.489004	0.760458	-0.008980
1714	8.5650e-01	2.8662	-1.810993	0.000453	4.531756	0.767700	-0.009066
1715	8.5700e-01	2.8552	-1.857177	0.000462	4.617261	0.782185	-0.009237
1716	8.5750e-01	2.8458	-1.901222	0.000440	4.403499	0.745973	-0.008809
1717	8.5800e-01	2.8381	-1.955530	0.000543	5.429557	0.919792	-0.010862
1718	8.5850e-01	2.8247	-1.998721	0.000432	4.317994	0.731488	-0.008638
1719	8.5900e-01	2.8168	-2.038062	0.000393	3.933222	0.666306	-0.007868
1720	8.5950e-01	2.8036	-2.094081	0.000560	5.600567	0.948762	-0.011204
1721	8.6000e-01	2.7933	-2.133850	0.000398	3.975975	0.673548	-0.007954
1722	8.6050e-01	2.7856	-2.188159	0.000543	5.429557	0.919792	-0.010862
1723	8.6100e-01	2.7749	-2.242039	0.000539	5.386804	0.912549	-0.010776
1724	8.6150e-01	2.7647	-2.282236	0.000402	4.018727	0.680791	-0.008039
1725	8.6200e-01	2.7579	-2.333979	0.000517	5.173042	0.876337	-0.010349
1726	8.6250e-01	2.7422	-2.373748	0.000398	3.975975	0.673548	-0.007954
1727	8.6300e-01	2.7356	-2.428484	0.000547	5.472309	0.927034	-0.010947
1728	8.6350e-01	2.7264	-2.472529	0.000440	4.403499	0.745973	-0.008809
1729	8.6400e-01	2.7153	-2.525982	0.000534	5.344052	0.905307	-0.010691
1730	8.6450e-01	2.7049	-2.574304	0.000483	4.831023	0.818397	-0.009664
1731	8.6500e-01	2.6965	-2.610652	0.000363	3.633955	0.615609	-0.007270
1732	8.6550e-01	2.6855	-2.655553	0.000449	4.489004	0.760458	-0.008980
1733	8.6600e-01	2.6740	-2.699598	0.000440	4.403499	0.745973	-0.008809
1734	8.6650e-01	2.6628	-2.737229	0.000376	3.762213	0.637336	-0.007526
1735	8.6700e-01	2.6556	-2.794104	0.000569	5.686071	0.963247	-0.011375
1736	8.6750e-01	2.6450	-2.847557	0.000534	5.344052	0.905307	-0.010691
1737	8.6800e-01	2.6362	-2.889892	0.000423	4.232489	0.717003	-0.008467
1738	8.6850e-01	2.6269	-2.913411	0.000235	2.351383	0.398335	-0.004704
1739	8.6900e-01	2.6167	-2.984824	0.000714	7.139653	1.209490	-0.014283
1740	8.6950e-01	2.6050	-3.019890	0.000351	3.505698	0.593881	-0.007013
1741	8.7000e-01	2.5939	-3.097290	0.000774	7.738187	1.310884	-0.015480
1742	8.7050e-01	2.5867	-3.125941	0.000286	2.864412	0.485245	-0.005730
1743	8.7100e-01	2.5761	-3.171697	0.000457	4.574509	0.774943	-0.009151
1744	8.7150e-01	2.5655	-3.220446	0.000487	4.873775	0.825640	-0.009750
1745	8.7200e-01	2.5571	-3.259360	0.000389	3.890470	0.659063	-0.007783
1746	8.7250e-01	2.5446	-3.314096	0.000547	5.472309	0.927034	-0.010947
1747	8.7300e-01	2.5381	-3.347023	0.000329	3.291936	0.557669	-0.006585
1748	8.7350e-01	2.5305	-3.412022	0.000650	6.498367	1.100853	-0.013000
1749	8.7400e-01	2.5139	-3.458633	0.000466	4.660013	0.789428	-0.009322
1750	8.7450e-01	2.5037	-3.515080	0.000564	5.643319	0.956004	-0.011289
1751	8.7500e-01	2.4946	-3.546724	0.000316	3.163679	0.535942	-0.006329
1752	8.7550e-01	2.4872	-3.605309	0.000586	5.857081	0.992216	-0.011717
1753	8.7600e-01	2.4757	-3.646361	0.000410	4.104232	0.695276	-0.008210
1754	8.7650e-01	2.4672	-3.705801	0.000594	5.942586	1.006701	-0.011888
1755	8.7700e-01	2.4558	-3.741721	0.000359	3.591203	0.608366	-0.007184
1756	8.7750e-01	2.4466	-3.796885	0.000552	5.515062	0.934277	-0.011033
1757	8.7800e-01	2.4353	-3.842641	0.000457	4.574509	0.774943	-0.009151
1758	8.7850e-01	2.4243	-3.892245	0.000496	4.959280	0.840125	-0.009921
1759	8.7900e-01	2.4146	-3.924745	0.000325	3.249184	0.550427	-0.006500
1760	8.7950e-01	2.4054	-3.989316	0.000646	6.455615	1.093611	-0.012914
1761	8.8000e-01	2.3965	-4.025664	0.000363	3.633955	0.615609	-0.007270
1762	8.8050e-01	2.3835	-4.101354	0.000757	7.567178	1.281915	-0.015138
1763	8.8100e-01	2.3743	-4.125301	0.000239	2.394135	0.405577	-0.004789
1764	8.8150e-01	2.3655	-4.186451	0.000611	6.113595	1.035671	-0.012230
1765	8.8200e-01	2.3551	-4.234345	0.000479	4.788271	0.811155	-0.009579
1766	8.8250e-01	2.3444	-4.277108	0.000428	4.275242	0.724246	-0.008553
1767	8.8300e-01	2.3364	-4.327568	0.000504	5.044785	0.854610	-0.010092
1768	8.8350e-01	2.3245	-4.372896	0.000453	4.531756	0.767700	-0.009066
1769	8.8400e-01	2.3154	-4.438323	0.000654	6.541120	1.108096	-0.013085
1770	8.8450e-01	2.3049	-4.476809	0.000385	3.847717	0.651821	-0.007697
1771	8.8500e-01	2.2955	-4.525131	0.000483	4.831023	0.818397	-0.009664
1772	8.8550e-01	2.2870	-4.557630	0.000325	3.249184	0.550427	-0.006500
1773	8.8600e-01	2.2740	-4.602103	0.000445	4.446251	0.753215	-0.008895
1774	8.8650e-01	2.2640	-4.666247	0.000641	6.412862	1.086368	-0.012829
1775	8.8700e-01	2.2566	-4.716279	0.000500	5.002033	0.847367	-0.010006
1776	8.8750e-01	2.2455	-4.768022	0.000517	5.173042	0.876337	-0.010349
1777	8.8800e-01	2.2345	-4.807791	0.000398	3.975975	0.673548	-0.007954
1778	8.8850e-01	2.2253	-4.862099	0.000543	5.429557	0.919792	-0.010862
1779	8.8900e-01	2.2163	-4.915980	0.000539	5.386804	0.912549	-0.010776
1780	8.8950e-01	2.2066	-4.955322	0.000393	3.933222	0.666306	-0.007868
1781	8.9000e-01	2.1936	-4.999795	0.000445	4.446251	0.753215	-0.008895
1782	8.9050e-01	2.1890	-5.070353	0.000705	7.054149	1.195005	-0.014112
1783	8.9100e-01	2.1741	-5.108839	0.000385	3.847717	0.651821	-0.007697
1784	8.9150e-01	2.1648	-5.171272	0.000624	6.241853	1.057398	-0.012487
1785	8.9200e-01	2.1564	-5.215318	0.000440	4.403499	0.745973	-0.008809
1786	8.9250e-01	2.1463	-5.261501	0.000462	4.617261	0.782185	-0.009237
1787	8.9300e-01	2.1375	-5.326500	0.000650	6.498367	1.100853	-0.013000
1788	8.9350e-01	2.1219	-5.361138	0.000346	3.462946	0.586639	-0.006928
1789	8.9400e-01	2.1161	-5.416729	0.000556	5.557814	0.941519	-0.011118
1790	8.9450e-01	2.1048	-5.460775	0.000440	4.403499	0.745973	-0.008809
1791	8.9500e-01	2.0949	-5.502254	0.000415	4.146984	0.702518	-0.008296
1792	8.9550e-01	2.0822	-5.540313	0.000380	3.804965	0.644579	-0.007612
1793	8.9600e-01	2.0758	-5.598470	0.000581	5.814329	0.984974	-0.011631
1794	8.9650e-01	2.0671	-5.647647	0.000492	4.916528	0.832882	-0.009835
1795	8.9700e-01	2.0541	-5.701100	0.000534	5.344052	0.905307	-0.010691
1796	8.9750e-01	2.0420	-5.752843	0.000517	5.173042	0.876337	-0.010349
1797	8.9800e-01	2.0361	-5.805868	0.000530	5.301300	0.898064	-0.010605
1798	8.9850e-01	2.0254	-5.864881	0.000590	5.899833	0.999459	-0.011802
1799	8.9900e-01	2.0129	-5.909354	0.000445	4.446251	0.753215	-0.008895
1800	8.9950e-01	2.0078	-5.958958	0.000496	4.959280	0.840125	-0.009921
1801	9.0000e-01	1.9940	-6.026523	0.000675	6.754882	1.144308	-0.013513
1802	9.0050e-01	1.9839	-6.050898	0.000244	2.436888	0.412820	-0.004875
1803	9.0100e-01	1.9754	-6.123594	0.000727	7.267911	1.231217	-0.014539
1804	9.0150e-01	1.9678	-6.164646	0.000410	4.104232	0.695276	-0.008210
1805	9.0200e-01	1.9546	-6.224941	0.000603	6.028091	1.021186	-0.012059
1806	9.0250e-01	1.9456	-6.272408	0.000475	4.745518	0.803913	-0.009493
1807	9.0300e-01	1.9348	-6.310894	0.000385	3.847717	0.651821	-0.007697
1808	9.0350e-01	1.9276	-6.361354	0.000504	5.044785	0.854610	-0.010092
1809	9.0400e-01	1.9159	-6.404116	0.000428	4.275242	0.724246	-0.008553
1810	9.0450e-01	1.9051	-6.470398	0.000663	6.626624	1.122581	-0.013256
1811	9.0500e-01	1.8942	-6.520430	0.000500	5.002033	0.847367	-0.010006
1812	9.0550e-01	1.8830	-6.569607	0.000492	4.916528	0.832882	-0.009835
1813	9.0600e-01	1.8771	-6.623060	0.000534	5.344052	0.905307	-0.010691
1814	9.0650e-01	1.8649	-6.668389	0.000453	4.531756	0.767700	-0.009066
1815	9.0700e-01	1.8552	-6.706875	0.000385	3.847717	0.651821	-0.007697
1816	9.0750e-01	1.8449	-6.776150	0.000693	6.925891	1.173278	-0.013855
1817	9.0800e-01	1.8381	-6.837728	0.000616	6.156348	1.042914	-0.012316
1818	9.0850e-01	1.8254	-6.883056	0.000453	4.531756	0.767700	-0.009066
1819	9.0900e-01	1.8149	-6.927102	0.000440	4.403499	0.745973	-0.008809
1820	9.0950e-01	1.8040	-6.990818	0.000637	6.370110	1.079126	-0.012743
1821	9.1000e-01	1.7958	-7.037002	0.000462	4.617261	0.782185	-0.009237
1822	9.1050e-01	1.7860	-7.095586	0.000586	5.857081	0.992216	-0.011717
1823	9.1100e-01	1.7746	-7.130651	0.000351	3.505698	0.593881	-0.007013
1824	9.1150e-01	1.7632	-7.169565	0.000389	3.890470	0.659063	-0.007783
1825	9.1200e-01	1.7563	-7.223446	0.000539	5.386804	0.912549	-0.010776
1826	9.1250e-01	1.7467	-7.276899	0.000534	5.344052	0.905307	-0.010691
1827	9.1300e-01	1.7366	-7.329497	0.000526	5.258547	0.890822	-0.010520
1828	9.1350e-01	1.7269	-7.397062	0.000675	6.754882	1.144308	-0.013513
1829	9.1400e-01	1.7185	-7.435121	0.000380	3.804965	0.644579	-0.007612
1830	9.1450e-01	1.7064	-7.505251	0.000701	7.011396	1.187763	-0.014026
1831	9.1500e-01	1.6946	-7.557421	0.000522	5.215795	0.883580	-0.010434
1832	9.1550e-01	1.6872	-7.603605	0.000462	4.617261	0.782185	-0.009237
1833	9.1600e-01	1.6734	-7.669459	0.000658	6.583872	1.115338	-0.013171
1834	9.1650e-01	1.6646	-7.710084	0.000406	4.061480	0.688033	-0.008125
1835	9.1700e-01	1.6547	-7.763537	0.000534	5.344052	0.905307	-0.010691
1836	9.1750e-01	1.6473	-7.797747	0.000342	3.420193	0.579396	-0.006842
1837	9.1800e-01	1.6341	-7.857614	0.000599	5.985338	1.013944	-0.011974
1838	9.1850e-01	1.6248	-7.916627	0.000590	5.899833	0.999459	-0.011802
1839	9.1900e-01	1.6162	-7.971363	0.000547	5.472309	0.927034	-0.010947
1840	9.1950e-01	1.6011	-8.036789	0.000654	6.541120	1.108096	-0.013085
1841	9.2000e-01	1.5961	-8.060736	0.000239	2.394135	0.405577	-0.004789
1842	9.2050e-01	1.5851	-8.103071	0.000423	4.232489	0.717003	-0.008467
1843	9.2100e-01	1.5753	-8.175340	0.000723	7.225158	1.223975	-0.014454
1844	9.2150e-01	1.5614	-8.227938	0.000526	5.258547	0.890822	-0.010520
1845	9.2200e-01	1.5546	-8.279681	0.000517	5.173042	0.876337	-0.010349
1846	9.2250e-01	1.5454	-8.348101	0.000684	6.840387	1.158793	-0.013684
1847	9.2300e-01	1.5352	-8.375041	0.000269	2.693402	0.456275	-0.005388
1848	9.2350e-01	1.5241	-8.446882	0.000718	7.182406	1.216732	-0.014368
1849	9.2400e-01	1.5154	-8.494776	0.000479	4.788271	0.811155	-0.009579
1850	9.2450e-01	1.5072	-8.550795	0.000560	5.600567	0.948762	-0.011204
1851	9.2500e-01	1.4967	-8.601255	0.000504	5.044785	0.854610	-0.010092
1852	9.2550e-01	1.4847	-8.648721	0.000475	4.745518	0.803913	-0.009493
1853	9.2600e-01	1.4768	-8.696188	0.000475	4.745518	0.803913	-0.009493
1854	9.2650e-01	1.4631	-8.752206	0.000560	5.600567	0.948762	-0.011204
1855	9.2700e-01	1.4554	-8.808225	0.000560	5.600567	0.948762	-0.011204
1856	9.2750e-01	1.4450	-8.873652	0.000654	6.541120	1.108096	-0.013085
1857	9.2800e-01	1.4381	-8.927105	0.000534	5.344052	0.905307	-0.010691
1858	9.2850e-01	1.4235	-8.986545	0.000594	5.942586	1.006701	-0.011888
1859	9.2900e-01	1.4134	-9.039143	0.000526	5.258547	0.890822	-0.010520
1860	9.2950e-01	1.4035	-9.094734	0.000556	5.557814	0.941519	-0.011118
1861	9.3000e-01	1.3941	-9.125096	0.000304	3.035422	0.514214	-0.006072
1862	9.3050e-01	1.3862	-9.199503	0.000744	7.438920	1.260187	-0.014881
1863	9.3100e-01	1.3733	-9.237989	0.000385	3.847717	0.651821	-0.007697
1864	9.3150e-01	1.3634	-9.289304	0.000513	5.130290	0.869095	-0.010263
1865	9.3200e-01	1.3551	-9.355586	0.000663	6.626624	1.122581	-0.013256
1866	9.3250e-01	1.3460	-9.407756	0.000522	5.215795	0.883580	-0.010434
1867	9.3300e-01	1.3327	-9.453084	0.000453	4.531756	0.767700	-0.009066
1868	9.3350e-01	1.3243	-9.534761	0.000817	8.165711	1.383309	-0.016335
1869	9.3400e-01	1.3127	-9.579661	0.000449	4.489004	0.760458	-0.008980
1870	9.3450e-01	1.3032	-9.610878	0.000312	3.120926	0.528699	-0.006243
1871	9.3500e-01	1.2962	-9.679298	0.000684	6.840387	1.158793	-0.013684
1872	9.3550e-01	1.2833	-9.754560	0.000752	7.524425	1.274672	-0.015052
1873	9.3600e-01	1.2753	-9.801171	0.000466	4.660013	0.789428	-0.009322
1874	9.3650e-01	1.2634	-9.847782	0.000466	4.660013	0.789428	-0.009322
1875	9.3700e-01	1.2510	-9.906367	0.000586	5.857081	0.992216	-0.011717
1876	9.3750e-01	1.2477	-9.947419	0.000410	4.104232	0.695276	-0.008210
1877	9.3800e-01	1.2344	-9.992747	0.000453	4.531756	0.767700	-0.009066
1878	9.3850e-01	1.2270	-10.048339	0.000556	5.557814	0.941519	-0.011118
1879	9.3900e-01	1.2160	-10.096660	0.000483	4.831023	0.818397	-0.009664
1880	9.3950e-01	1.2054	-10.181758	0.000851	8.507731	1.441249	-0.017019
1881	9.4000e-01	1.1940	-10.233073	0.000513	5.130290	0.869095	-0.010263
1882	9.4050e-01	1.1858	-10.287809	0.000547	5.472309	0.927034	-0.010947
1883	9.4100e-01	1.1754	-10.340834	0.000530	5.301300	0.898064	-0.010605
1884	9.4150e-01	1.1659	-10.401985	0.000611	6.113595	1.035671	-0.012230
1885	9.4200e-01	1.1561	-10.444320	0.000423	4.232489	0.717003	-0.008467
1886	9.4250e-01	1.1480	-10.493069	0.000487	4.873775	0.825640	-0.009750
1887	9.4300e-01	1.1370	-10.553792	0.000607	6.070843	1.028429	-0.012145
1888	9.4350e-01	1.1257	-10.616653	0.000628	6.284605	1.064641	-0.012572
1889	9.4400e-01	1.1163	-10.656422	0.000398	3.975975	0.673548	-0.007954
1890	9.4450e-01	1.1059	-10.719283	0.000628	6.284605	1.064641	-0.012572
1891	9.4500e-01	1.0968	-10.793262	0.000740	7.396168	1.252945	-0.014796
1892	9.4550e-01	1.0880	-10.815926	0.000227	2.265878	0.383850	-0.004533
1893	9.4600e-01	1.0748	-10.888622	0.000727	7.267911	1.231217	-0.014539
1894	9.4650e-01	1.0633	-10.954049	0.000654	6.541120	1.108096	-0.013085
1895	9.4700e-01	1.0531	-10.995529	0.000415	4.146984	0.702518	-0.008296
1896	9.4750e-01	1.0461	-11.038291	0.000428	4.275242	0.724246	-0.008553
1897	9.4800e-01	1.0375	-11.105856	0.000675	6.754882	1.144308	-0.013513
1898	9.4850e-01	1.0260	-11.166579	0.000607	6.070843	1.028429	-0.012145
1899	9.4900e-01	1.0162	-11.207631	0.000410	4.104232	0.695276	-0.008210
1900	9.4950e-01	1.0059	-11.274340	0.000667	6.669377	1.129823	-0.013342
1901	9.5000e-01	0.9991	-11.326938	0.000526	5.258547	0.890822	-0.010520
1902	9.5050e-01	0.9851	-11.397924	0.000710	7.096901	1.202248	-0.014197
1903	9.5100e-01	0.9744	-11.452660	0.000547	5.472309	0.927034	-0.010947
1904	9.5150e-01	0.9647	-11.500982	0.000483	4.831023	0.818397	-0.009664
1905	9.5200e-01	0.9541	-11.573250	0.000723	7.225158	1.223975	-0.014454
1906	9.5250e-01	0.9451	-11.612592	0.000393	3.933222	0.666306	-0.007868
1907	9.5300e-01	0.9335	-11.692986	0.000804	8.037454	1.361582	-0.016079
1908	9.5350e-01	0.9274	-11.730189	0.000372	3.719460	0.630094	-0.007441
1909	9.5400e-01	0.9151	-11.772096	0.000419	4.189737	0.709761	-0.008381
1910	9.5450e-01	0.9074	-11.826832	0.000547	5.472309	0.927034	-0.010947
1911	9.5500e-01	0.8982	-11.902522	0.000757	7.567178	1.281915	-0.015138
1912	9.5550e-01	0.8818	-11.956830	0.000543	5.429557	0.919792	-0.010862
1913	9.5600e-01	0.8755	-12.014560	0.000577	5.771576	0.977731	-0.011546
1914	9.5650e-01	0.8630	-12.054329	0.000398	3.975975	0.673548	-0.007954
1915	9.5700e-01	0.8554	-12.136861	0.000825	8.251216	1.397794	-0.016506
1916	9.5750e-01	0.8471	-12.211267	0.000744	7.438920	1.260187	-0.014881
1917	9.5800e-01	0.8361	-12.231366	0.000201	2.009364	0.340395	-0.004020
1918	9.5850e-01	0.8244	-12.296365	0.000650	6.498367	1.100853	-0.013000
1919	9.5900e-01	0.8168	-12.358370	0.000620	6.199100	1.050156	-0.012401
1920	9.5950e-01	0.8021	-12.396429	0.000380	3.804965	0.644579	-0.007612
1921	9.6000e-01	0.7943	-12.470408	0.000740	7.396168	1.252945	-0.014796
1922	9.6050e-01	0.7867	-12.541822	0.000714	7.139653	1.209490	-0.014283
1923	9.6100e-01	0.7745	-12.586722	0.000449	4.489004	0.760458	-0.008980
1924	9.6150e-01	0.7634	-12.633761	0.000470	4.702766	0.796670	-0.009408
1925	9.6200e-01	0.7543	-12.694484	0.000607	6.070843	1.028429	-0.012145
1926	9.6250e-01	0.7474	-12.755207	0.000607	6.070843	1.028429	-0.012145
1927	9.6300e-01	0.7375	-12.796686	0.000415	4.146984	0.702518	-0.008296
1928	9.6350e-01	0.7264	-12.854843	0.000581	5.814329	0.984974	-0.011631
1929	9.6400e-01	0.7168	-12.923691	0.000688	6.883139	1.166035	-0.013770
1930	9.6450e-01	0.7027	-12.981420	0.000577	5.771576	0.977731	-0.011546
1931	9.6500e-01	0.6924	-13.047702	0.000663	6.626624	1.122581	-0.013256
1932	9.6550e-01	0.6830	-13.105004	0.000573	5.728824	0.970489	-0.011460
1933	9.6600e-01	0.6762	-13.128524	0.000235	2.351383	0.398335	-0.004704
1934	9.6650e-01	0.6639	-13.200792	0.000723	7.225158	1.223975	-0.014454
1935	9.6700e-01	0.6538	-13.274344	0.000735	7.353416	1.245702	-0.014710
1936	9.6750e-01	0.6458	-13.341909	0.000675	6.754882	1.144308	-0.013513
1937	9.6800e-01	0.6331	-13.384671	0.000428	4.275242	0.724246	-0.008553
1938	9.6850e-01	0.6248	-13.470624	0.000859	8.593236	1.455734	-0.017191
1939	9.6900e-01	0.6152	-13.507827	0.000372	3.719460	0.630094	-0.007441
1940	9.6950e-01	0.6064	-13.558715	0.000509	5.087538	0.861852	-0.010177
1941	9.7000e-01	0.5971	-13.646378	0.000876	8.764245	1.484703	-0.017533
1942	9.7050e-01	0.5846	-13.678022	0.000316	3.163679	0.535942	-0.006329
1943	9.7100e-01	0.5752	-13.738317	0.000603	6.028091	1.021186	-0.012059
1944	9.7150e-01	0.5673	-13.803744	0.000654	6.541120	1.108096	-0.013085
1945	9.7200e-01	0.5560	-13.851638	0.000479	4.788271	0.811155	-0.009579
1946	9.7250e-01	0.5445	-13.919203	0.000675	6.754882	1.144308	-0.013513
1947	9.7300e-01	0.5376	-13.974366	0.000552	5.515062	0.934277	-0.011033
1948	9.7350e-01	0.5247	-14.042786	0.000684	6.840387	1.158793	-0.013684
1949	9.7400e-01	0.5152	-14.094101	0.000513	5.130290	0.869095	-0.010263
1950	9.7450e-01	0.5062	-14.163804	0.000697	6.968644	1.180520	-0.013941
1951	9.7500e-01	0.4955	-14.224100	0.000603	6.028091	1.021186	-0.012059
1952	9.7550e-01	0.4862	-14.272421	0.000483	4.831023	0.818397	-0.009664
1953	9.7600e-01	0.4742	-14.336565	0.000641	6.412862	1.086368	-0.012829
1954	9.7650e-01	0.4684	-14.407123	0.000705	7.054149	1.195005	-0.014112
1955	9.7700e-01	0.4555	-14.436202	0.000291	2.907164	0.492487	-0.005816
1956	9.7750e-01	0.4456	-14.494359	0.000581	5.814329	0.984974	-0.011631
1957	9.7800e-01	0.4359	-14.572614	0.000782	7.823692	1.325369	-0.015651
1958	9.7850e-01	0.4246	-14.612383	0.000398	3.975975	0.673548	-0.007954
1959	9.7900e-01	0.4146	-14.690639	0.000782	7.823692	1.325369	-0.015651
1960	9.7950e-01	0.4049	-14.745802	0.000552	5.515062	0.934277	-0.011033
1961	9.8000e-01	0.3943	-14.828334	0.000825	8.251216	1.397794	-0.016506
1962	9.8050e-01	0.3859	-14.861689	0.000333	3.334688	0.564912	-0.006671
1963	9.8100e-01	0.3766	-14.920273	0.000586	5.857081	0.992216	-0.011717
1964	9.8150e-01	0.3651	-14.998101	0.000778	7.780940	1.318127	-0.015566
1965	9.8200e-01	0.3544	-15.039581	0.000415	4.146984	0.702518	-0.008296
1966	9.8250e-01	0.3442	-15.094317	0.000547	5.472309	0.927034	-0.010947
1967	9.8300e-01	0.3355	-15.149053	0.000547	5.472309	0.927034	-0.010947
1968	9.8350e-01	0.3259	-15.219611	0.000705	7.054149	1.195005	-0.014112
1969	9.8400e-01	0.3152	-15.301288	0.000817	8.165711	1.383309	-0.016335
1970	9.8450e-01	0.3056	-15.329083	0.000278	2.778907	0.470760	-0.005559
1971	9.8500e-01	0.2961	-15.412898	0.000838	8.379474	1.419521	-0.016763
1972	9.8550e-01	0.2847	-15.465068	0.000522	5.215795	0.883580	-0.010434
1973	9.8600e-01	0.2766	-15.548883	0.000838	8.379474	1.419521	-0.016763
1974	9.8650e-01	0.2655	-15.583520	0.000346	3.462946	0.586639	-0.006928
1975	9.8700e-01	0.2584	-15.639112	0.000556	5.557814	0.941519	-0.011118
1976	9.8750e-01	0.2457	-15.696841	0.000577	5.771576	0.977731	-0.011546
1977	9.8800e-01	0.2352	-15.747301	0.000504	5.044785	0.854610	-0.010092
1978	9.8850e-01	0.2244	-15.843944	0.000966	9.662046	1.636795	-0.019329
1979	9.8900e-01	0.2158	-15.885851	0.000419	4.189737	0.709761	-0.008381
1980	9.8950e-01	0.2056	-15.933318	0.000475	4.745518	0.803913	-0.009493
1981	9.9000e-01	0.1976	-16.017132	0.000838	8.379474	1.419521	-0.016763
1982	9.9050e-01	0.1850	-16.079138	0.000620	6.199100	1.050156	-0.012401
1983	9.9100e-01	0.1756	-16.127887	0.000487	4.873775	0.825640	-0.009750
1984	9.9150e-01	0.1639	-16.193314	0.000654	6.541120	1.108096	-0.013085
1985	9.9200e-01	0.1559	-16.244629	0.000513	5.130290	0.869095	-0.010263
1986	9.9250e-01	0.1453	-16.303214	0.000586	5.857081	0.992216	-0.011717
1987	9.9300e-01	0.1332	-16.379331	0.000761	7.609930	1.289157	-0.015223
1988	9.9350e-01	0.1263	-16.442192	0.000628	6.284605	1.064641	-0.012572
1989	9.9400e-01	0.1150	-16.495217	0.000530	5.301300	0.898064	-0.010605
1990	9.9450e-01	0.1020	-16.548671	0.000534	5.344052	0.905307	-0.010691
1991	9.9500e-01	0.0933	-16.614952	0.000663	6.626624	1.122581	-0.013256
1992	9.9550e-01	0.0848	-16.671399	0.000564	5.643319	0.956004	-0.011289
1993	9.9600e-01	0.0740	-16.749227	0.000778	7.780940	1.318127	-0.015566
1994	9.9650e-01	0.0644	-16.804818	0.000556	5.557814	0.941519	-0.011118
1995	9.9700e-01	0.0543	-16.869817	0.000650	6.498367	1.100853	-0.013000
1996	9.9750e-01	0.0446	-16.929685	0.000599	5.985338	1.013944	-0.011974
1997	9.9800e-01	0.0340	-16.971592	0.000419	4.189737	0.709761	-0.008381
1998	9.9850e-01	0.0282	-17.041295	0.000697	6.968644	1.180520	-0.013941
1999	9.9900e-01	0.0163	-17.111425	0.000701	7.011396	1.187763	-0.014026
2000	9.9950e-01	0.0038	-17.172576	0.000611	6.113595	1.035671	-0.012230
2001	1.0000e+00	-0.0038	-17.236720	0.000611	6.113595	1.035671	-0.012829

PMax (uC/cm2):	4.35e+01
Pr (uC/cm2):	4.53e+00
-Pr (uC/cm2):	0.00e+00
PLoss (uC/cm2):	0.00e+00
C (Max-Eff) (nF):	4.35e-01
K (Eff):	7.38e+02
Vert. (+/-Pr) Shift (uC/cm2):	2.26e+00
Offset (uC/cm2):	2.18e+01

A (Loop Area - uC/cm2·Volts):	-4.37e-02



Hysteresis Version: 5.48.1 - Radiant Technologies, Inc., 1999 - 9/12/24

