»»»»»»»»»»»»»»»»»»»»»»»»»»»»»»»»»»»» Hysteresis ««««««««««««««««««««««««««««««««««««
»»»  Executed Version:	5.48.1
»»»  Vision Version:	5.48.4 (R)
»»»  Vision Compiled:	9/18/24
»»»  Driver Version:	5.47.0
»»»  Windows Version:	Windows 8 or 8.1
»»»  Processor Information:	x86 (AMD or Intel) - 32 Processors
»»»  Tester Name:	PMF21124-494 (100V)
»»»  Tester S/N:	PMF21124-494
»»»  Internal Amp Type:	100V RevK 270k
»»»  Internal Amp S/N:	iAB2-596/K     
»»»  Execution Count:	1
»»»»»»»»»»»»»»»»»»»»»»»»»»»»»»»»»»»»»»»»»»««««««««««««««««««««««««««««««««««««««««««

Stored:	6/13/2025 - 10:58:27
Configured:	06/13/25 10:12:58 AM
Executed:	06/13/25 10:57:53 AM

»»»»»»»»»»»»»»»»»»»»»»»»»»»»»»»»»»» Sample Info ««««««««««««««««««««««««««««««««««««
Sample Name:	
Lot Name:	
Wafer Name:	
Die Row/Column:	0/0
Capacitor Number:	0
Sample Area (cm2):	1.00e-04
Sample Thickness (microns):	3.00e-01

Amplifier:	Internal

»»»»»»»»»»»»»»»»»»»»»»»»»»»»»»»»»»» Tester Info «««««««««««««««««««««««««««««««««««
Tester Name:	PMF21124-494 (100V)
Tester Serial Number:	PMF21124-494
Return Signal Amp. Level:	0.19 [Index: 3]

»»»»»»»»»»»»»»»»»»»»»»»»»»»»»»»» Hysteresis Info ««««««««««««««««««««««««««««««««««
Task Name:	Hyst-1704
Volts:	20.00
Field:	666.67 (kV/cm)
DCBias:	0.00
DCField:	0.00 (kV/cm)
Hysteresis Period (ms):	1.00e+00
Preset:	Enabled
Preset Delay (ms):	1.00e+03
Profile:	Standard Bipolar

»»»»»»»»»»»»»»»»»»»»»»»»»»»»»»»»»»»»»» Data «««««««««««««««««««««««««««««««««««««««
Points:	2001

Valid Data

Point	Time (ms)	Drive Voltage	Measured Polarization (uC/cm2)	Capacitance (uF)	Normalized Capacitance (uF/cm2)	Dielectric Constant	Instantaneous Current (mA)
   1	0.0000e+00	0.0160	-1.972185	0.000969	9.694635	3.284631	0.077435
   2	5.0000e-04	0.0273	-1.585008	0.000969	9.694635	3.284631	0.077435
   3	1.0000e-03	0.0561	-1.689868	-0.000263	-2.625630	-0.889588	-0.020972
   4	1.5000e-03	0.0963	-1.722133	-0.000081	-0.807886	-0.273719	-0.006453
   5	2.0000e-03	0.1315	-1.395452	0.000818	8.179848	2.771408	0.065336
   6	2.5000e-03	0.1717	-1.411585	-0.000040	-0.403943	-0.136860	-0.003226
   7	3.0000e-03	0.2134	-1.290592	0.000303	3.029573	1.026447	0.024199
   8	3.5000e-03	0.2583	-1.004242	0.000717	7.169991	2.429259	0.057270
   9	4.0000e-03	0.2952	-1.242194	-0.000596	-5.958161	-2.018680	-0.047591
  10	4.5000e-03	0.3321	-0.907447	0.000838	8.381820	2.839837	0.066949
  11	5.0000e-03	0.3642	-0.427508	0.001202	12.017308	4.071574	0.095988
  12	5.5000e-03	0.4091	-0.403310	0.000061	0.605915	0.205289	0.004840
  13	6.0000e-03	0.4540	-0.104861	0.000747	7.472948	2.531903	0.059690
  14	6.5000e-03	0.4893	-0.000000	0.000263	2.625630	0.889588	0.020972
  15	7.0000e-03	0.5230	0.024199	0.000061	0.605915	0.205289	0.004840
  16	7.5000e-03	0.5695	0.161324	0.000343	3.433517	1.163307	0.027425
  17	8.0000e-03	0.6064	0.443641	0.000707	7.069005	2.395044	0.056463
  18	8.5000e-03	0.6449	0.362979	-0.000202	-2.019716	-0.684298	-0.016132
  19	9.0000e-03	0.6802	0.508170	0.000364	3.635488	1.231737	0.029038
  20	9.5000e-03	0.7251	0.790487	0.000707	7.069005	2.395044	0.056463
  21	1.0000e-02	0.7652	0.766289	-0.000061	-0.605915	-0.205289	-0.004840
  22	1.0500e-02	0.8005	1.145400	0.000949	9.492664	3.216201	0.075822
  23	1.1000e-02	0.8502	1.427717	0.000707	7.069005	2.395044	0.056463
  24	1.1500e-02	0.8855	1.359154	-0.000172	-1.716758	-0.581653	-0.013713
  25	1.2000e-02	0.9305	1.685835	0.000818	8.179848	2.771408	0.065336
  26	1.2500e-02	0.9593	1.855225	0.000424	4.241403	1.437026	0.033878
  27	1.3000e-02	1.0091	1.996384	0.000353	3.534502	1.197522	0.028232
  28	1.3500e-02	1.0572	1.871358	-0.000313	-3.130559	-1.060662	-0.025005
  29	1.4000e-02	1.0861	2.032682	0.000404	4.039431	1.368596	0.032265
  30	1.4500e-02	1.1422	2.198039	0.000414	4.140417	1.402811	0.033071
  31	1.5000e-02	1.1663	2.452124	0.000636	6.362104	2.155539	0.050817
  32	1.5500e-02	1.2096	2.516654	0.000162	1.615773	0.547439	0.012906
  33	1.6000e-02	1.2561	2.536819	0.000050	0.504929	0.171075	0.004033
  34	1.6500e-02	1.2946	2.798970	0.000656	6.564076	2.223969	0.052430
  35	1.7000e-02	1.3299	3.008692	0.000525	5.251261	1.779175	0.041944
  36	1.7500e-02	1.3652	2.984493	-0.000061	-0.605915	-0.205289	-0.004840
  37	1.8000e-02	1.4165	2.928030	-0.000141	-1.413801	-0.479009	-0.011293
  38	1.8500e-02	1.4534	3.347472	0.001050	10.502521	3.558351	0.083888
  39	1.9000e-02	1.4984	3.508796	0.000404	4.039431	1.368596	0.032265
  40	1.9500e-02	1.5336	3.605590	0.000242	2.423659	0.821158	0.019359
  41	2.0000e-02	1.5657	3.722550	0.000293	2.928588	0.992232	0.023392
  42	2.0500e-02	1.6042	3.968569	0.000616	6.160133	2.087109	0.049204
  43	2.1000e-02	1.6524	4.206522	0.000596	5.958161	2.018680	0.047591
  44	2.1500e-02	1.6957	4.359780	0.000384	3.837460	1.300167	0.030652
  45	2.2000e-02	1.7278	4.327515	-0.000081	-0.807886	-0.273719	-0.006453
  46	2.2500e-02	1.7807	4.363813	0.000091	0.908872	0.307934	0.007260
  47	2.3000e-02	1.8080	4.759056	0.000990	9.896607	3.353061	0.079049
  48	2.3500e-02	1.8449	5.013142	0.000636	6.362104	2.155539	0.050817
  49	2.4000e-02	1.8962	5.134135	0.000303	3.029573	1.026447	0.024199
  50	2.4500e-02	1.9299	5.388220	0.000636	6.362104	2.155539	0.050817
  51	2.5000e-02	1.9684	5.279326	-0.000273	-2.726616	-0.923803	-0.021779
  52	2.5500e-02	1.9989	5.355955	0.000192	1.918730	0.650083	0.015326
  53	2.6000e-02	2.0438	5.553577	0.000495	4.948303	1.676531	0.039524
  54	2.6500e-02	2.0855	5.573742	0.000050	0.504929	0.171075	0.004033
  55	2.7000e-02	2.1288	5.787496	0.000535	5.352246	1.813390	0.042751
  56	2.7500e-02	2.1721	6.021416	0.000586	5.857175	1.984465	0.046784
  57	2.8000e-02	2.2122	6.202906	0.000454	4.544360	1.539671	0.036298
  58	2.8500e-02	2.2588	6.311799	0.000273	2.726616	0.923803	0.021779
  59	2.9000e-02	2.2812	6.440858	0.000323	3.231545	1.094877	0.025812
  60	2.9500e-02	2.3358	6.747374	0.000767	7.674920	2.600333	0.061303
  61	3.0000e-02	2.3678	6.690911	-0.000141	-1.413801	-0.479009	-0.011293
  62	3.0500e-02	2.4096	6.872400	0.000454	4.544360	1.539671	0.036298
  63	3.1000e-02	2.4432	6.864334	-0.000020	-0.201972	-0.068430	-0.001613
  64	3.1500e-02	2.4882	7.263611	0.001000	9.997593	3.387276	0.079855
  65	3.2000e-02	2.5331	7.271677	0.000020	0.201972	0.068430	0.001613
  66	3.2500e-02	2.5716	7.493497	0.000555	5.554218	1.881820	0.044364
  67	3.3000e-02	2.6053	7.602391	0.000273	2.726616	0.923803	0.021779
  68	3.3500e-02	2.6470	7.937138	0.000838	8.381820	2.839837	0.066949
  69	3.4000e-02	2.6887	7.981502	0.000111	1.110844	0.376364	0.008873
  70	3.4500e-02	2.7288	7.929072	-0.000131	-1.312815	-0.444794	-0.010486
  71	3.5000e-02	2.7785	8.175091	0.000616	6.160133	2.087109	0.049204
  72	3.5500e-02	2.8026	8.283985	0.000273	2.726616	0.923803	0.021779
  73	3.6000e-02	2.8539	8.671162	0.000969	9.694635	3.284631	0.077435
  74	3.6500e-02	2.8956	8.646963	-0.000061	-0.605915	-0.205289	-0.004840
  75	3.7000e-02	2.9309	8.876850	0.000576	5.756190	1.950250	0.045977
  76	3.7500e-02	2.9791	8.699394	-0.000444	-4.443374	-1.505456	-0.035491
  77	3.8000e-02	3.0144	9.046240	0.000868	8.684777	2.942482	0.069369
  78	3.8500e-02	3.0464	9.433418	0.000969	9.694635	3.284631	0.077435
  79	3.9000e-02	3.0898	9.417285	-0.000040	-0.403943	-0.136860	-0.003226
  80	3.9500e-02	3.1347	9.348723	-0.000172	-1.716758	-0.581653	-0.013713
  81	4.0000e-02	3.1684	9.465682	0.000293	2.928588	0.992232	0.023392
  82	4.0500e-02	3.2181	9.743966	0.000697	6.968019	2.360829	0.055657
  83	4.1000e-02	3.2630	9.836727	0.000232	2.322673	0.786943	0.018552
  84	4.1500e-02	3.2919	10.292468	0.001141	11.411393	3.866285	0.091148
  85	4.2000e-02	3.3288	10.127111	-0.000414	-4.140417	-1.402811	-0.033071
  86	4.2500e-02	3.3689	10.199706	0.000182	1.817744	0.615868	0.014519
  87	4.3000e-02	3.4138	10.187607	-0.000030	-0.302957	-0.102645	-0.002420
  88	4.3500e-02	3.4459	10.566718	0.000949	9.492664	3.216201	0.075822
  89	4.4000e-02	3.4924	10.667546	0.000252	2.524645	0.855373	0.020165
  90	4.4500e-02	3.5373	10.812737	0.000364	3.635488	1.231737	0.029038
  91	4.5000e-02	3.5646	11.054723	0.000606	6.059147	2.052895	0.048397
  92	4.5500e-02	3.6143	11.280577	0.000566	5.655204	1.916035	0.045171
  93	4.6000e-02	3.6448	11.252345	-0.000071	-0.706900	-0.239504	-0.005646
  94	4.6500e-02	3.6945	11.458033	0.000515	5.150275	1.744960	0.041138
  95	4.7000e-02	3.7298	11.752449	0.000737	7.371962	2.497688	0.058883
  96	4.7500e-02	3.7683	11.829078	0.000192	1.918730	0.650083	0.015326
  97	4.8000e-02	3.8036	11.615324	-0.000535	-5.352246	-1.813390	-0.042751
  98	4.8500e-02	3.8502	11.966204	0.000879	8.785763	2.976697	0.070176
  99	4.9000e-02	3.8855	12.224322	0.000646	6.463090	2.189754	0.051624
 100	4.9500e-02	3.9304	12.256587	0.000081	0.807886	0.273719	0.006453
 101	5.0000e-02	3.9705	12.304984	0.000121	1.211829	0.410579	0.009679
 102	5.0500e-02	4.0122	12.514705	0.000525	5.251261	1.779175	0.041944
 103	5.1000e-02	4.0491	12.627632	0.000283	2.827602	0.958017	0.022585
 104	5.1500e-02	4.0860	12.926081	0.000747	7.472948	2.531903	0.059690
 105	5.2000e-02	4.1325	12.857518	-0.000172	-1.716758	-0.581653	-0.013713
 106	5.2500e-02	4.1710	13.022875	0.000414	4.140417	1.402811	0.033071
 107	5.3000e-02	4.2127	13.155968	0.000333	3.332531	1.129092	0.026618
 108	5.3500e-02	4.2432	13.143868	-0.000030	-0.302957	-0.102645	-0.002420
 109	5.4000e-02	4.2945	13.607675	0.001161	11.613365	3.934715	0.092761
 110	5.4500e-02	4.3314	13.567344	-0.000101	-1.009858	-0.342149	-0.008066
 111	5.5000e-02	4.3619	13.857727	0.000727	7.270976	2.463473	0.058077
 112	5.5500e-02	4.4100	13.942422	0.000212	2.120701	0.718513	0.016939
 113	5.6000e-02	4.4501	14.148110	0.000515	5.150275	1.744960	0.041138
 114	5.6500e-02	4.4983	14.341699	0.000485	4.847318	1.642316	0.038718
 115	5.7000e-02	4.5304	14.406228	0.000162	1.615773	0.547439	0.012906
 116	5.7500e-02	4.5721	14.236838	-0.000424	-4.241403	-1.437026	-0.033878
 117	5.8000e-02	4.6074	14.527221	0.000727	7.270976	2.463473	0.058077
 118	5.8500e-02	4.6603	14.849869	0.000808	8.078863	2.737193	0.064530
 119	5.9000e-02	4.6956	14.926498	0.000192	1.918730	0.650083	0.015326
 120	5.9500e-02	4.7341	14.991028	0.000162	1.615773	0.547439	0.012906
 121	6.0000e-02	4.7694	15.144285	0.000384	3.837460	1.300167	0.030652
 122	6.0500e-02	4.8095	15.164451	0.000050	0.504929	0.171075	0.004033
 123	6.1000e-02	4.8608	15.325775	0.000404	4.039431	1.368596	0.032265
 124	6.1500e-02	4.8881	15.555661	0.000576	5.756190	1.950250	0.045977
 125	6.2000e-02	4.9266	15.664555	0.000273	2.726616	0.923803	0.021779
 126	6.2500e-02	4.9635	15.866210	0.000505	5.049289	1.710745	0.040331
 127	6.3000e-02	5.0052	15.862177	-0.000010	-0.100986	-0.034215	-0.000807
 128	6.3500e-02	5.0565	15.926706	0.000162	1.615773	0.547439	0.012906
 129	6.4000e-02	5.0870	16.233222	0.000767	7.674920	2.600333	0.061303
 130	6.4500e-02	5.1351	16.273553	0.000101	1.009858	0.342149	0.008066
 131	6.5000e-02	5.1785	16.527638	0.000636	6.362104	2.155539	0.050817
 132	6.5500e-02	5.2218	16.612333	0.000212	2.120701	0.718513	0.016939
 133	6.6000e-02	5.2603	16.826087	0.000535	5.352246	1.813390	0.042751
 134	6.6500e-02	5.2859	17.019676	0.000485	4.847318	1.642316	0.038718
 135	6.7000e-02	5.3373	16.947080	-0.000182	-1.817744	-0.615868	-0.014519
 136	6.7500e-02	5.3694	17.245530	0.000747	7.472948	2.531903	0.059690
 137	6.8000e-02	5.4079	17.269728	0.000061	0.605915	0.205289	0.004840
 138	6.8500e-02	5.4464	17.382655	0.000283	2.827602	0.958017	0.022585
 139	6.9000e-02	5.4913	17.431052	0.000121	1.211829	0.410579	0.009679
 140	6.9500e-02	5.5314	17.798064	0.000919	9.189706	3.113557	0.073402
 141	7.0000e-02	5.5715	17.818230	0.000050	0.504929	0.171075	0.004033
 142	7.0500e-02	5.6116	17.927123	0.000273	2.726616	0.923803	0.021779
 143	7.1000e-02	5.6549	17.963421	0.000091	0.908872	0.307934	0.007260
 144	7.1500e-02	5.6918	18.108613	0.000364	3.635488	1.231737	0.029038
 145	7.2000e-02	5.7351	18.475625	0.000919	9.189706	3.113557	0.073402
 146	7.2500e-02	5.7817	18.463525	-0.000030	-0.302957	-0.102645	-0.002420
 147	7.3000e-02	5.8137	18.794239	0.000828	8.280834	2.805623	0.066143
 148	7.3500e-02	5.8554	18.878935	0.000212	2.120701	0.718513	0.016939
 149	7.4000e-02	5.8972	18.846670	-0.000081	-0.807886	-0.273719	-0.006453
 150	7.4500e-02	5.9341	18.870868	0.000061	0.605915	0.205289	0.004840
 151	7.5000e-02	5.9742	19.149152	0.000697	6.968019	2.360829	0.055657
 152	7.5500e-02	6.0159	19.007994	-0.000353	-3.534502	-1.197522	-0.028232
 153	7.6000e-02	6.0528	19.209649	0.000505	5.049289	1.710745	0.040331
 154	7.6500e-02	6.1041	19.419370	0.000525	5.251261	1.779175	0.041944
 155	7.7000e-02	6.1250	19.770249	0.000879	8.785763	2.976697	0.070176
 156	7.7500e-02	6.1779	19.608925	-0.000404	-4.039431	-1.368596	-0.032265
 157	7.8000e-02	6.2164	19.830746	0.000555	5.554218	1.881820	0.044364
 158	7.8500e-02	6.2693	19.935606	0.000263	2.625630	0.889588	0.020972
 159	7.9000e-02	6.2934	20.189692	0.000636	6.362104	2.155539	0.050817
 160	7.9500e-02	6.3351	20.314718	0.000313	3.130559	1.060662	0.025005
 161	8.0000e-02	6.3768	20.443777	0.000323	3.231545	1.094877	0.025812
 162	8.0500e-02	6.4025	20.576869	0.000333	3.332531	1.129092	0.026618
 163	8.1000e-02	6.4586	21.165701	0.001474	14.743924	4.995377	0.117766
 164	8.1500e-02	6.4987	20.972113	-0.000485	-4.847318	-1.642316	-0.038718
 165	8.2000e-02	6.5292	20.863219	-0.000273	-2.726616	-0.923803	-0.021779
 166	8.2500e-02	6.5693	21.351224	0.001222	12.219280	4.140004	0.097601
 167	8.3000e-02	6.6110	21.197966	-0.000384	-3.837460	-1.300167	-0.030652
 168	8.3500e-02	6.6511	21.456085	0.000646	6.463090	2.189754	0.051624
 169	8.4000e-02	6.6929	21.500449	0.000111	1.110844	0.376364	0.008873
 170	8.4500e-02	6.7330	21.601276	0.000252	2.524645	0.855373	0.020165
 171	8.5000e-02	6.7763	21.835196	0.000586	5.857175	1.984465	0.046784
 172	8.5500e-02	6.8100	21.855361	0.000050	0.504929	0.171075	0.004033
 173	8.6000e-02	6.8501	21.972321	0.000293	2.928588	0.992232	0.023392
 174	8.6500e-02	6.8870	22.141711	0.000424	4.241403	1.437026	0.033878
 175	8.7000e-02	6.9303	22.351432	0.000525	5.251261	1.779175	0.041944
 176	8.7500e-02	6.9640	22.311101	-0.000101	-1.009858	-0.342149	-0.008066
 177	8.8000e-02	7.0025	22.609551	0.000747	7.472948	2.531903	0.059690
 178	8.8500e-02	7.0522	22.661981	0.000131	1.312815	0.444794	0.010486
 179	8.9000e-02	7.0907	22.678113	0.000040	0.403943	0.136860	0.003226
 180	8.9500e-02	7.1292	22.952364	0.000687	6.867033	2.326614	0.054850
 181	9.0000e-02	7.1709	22.952364	0.000000	0.000000	0.000000	0.000000
 182	9.0500e-02	7.2094	23.299211	0.000868	8.684777	2.942482	0.069369
 183	9.1000e-02	7.2559	23.113688	-0.000465	-4.645346	-1.573886	-0.037105
 184	9.1500e-02	7.2816	23.609759	0.001242	12.421251	4.208434	0.099214
 185	9.2000e-02	7.3281	23.436336	-0.000434	-4.342389	-1.471241	-0.034685
 186	9.2500e-02	7.3666	23.541197	0.000263	2.625630	0.889588	0.020972
 187	9.3000e-02	7.4164	23.529097	-0.000030	-0.302957	-0.102645	-0.002420
 188	9.3500e-02	7.4485	23.807381	0.000697	6.968019	2.360829	0.055657
 189	9.4000e-02	7.4982	23.859811	0.000131	1.312815	0.444794	0.010486
 190	9.4500e-02	7.5255	24.158261	0.000747	7.472948	2.531903	0.059690
 191	9.5000e-02	7.5704	24.533339	0.000939	9.391678	3.181987	0.075016
 192	9.5500e-02	7.6121	24.400247	-0.000333	-3.332531	-1.129092	-0.026618
 193	9.6000e-02	7.6522	24.622067	0.000555	5.554218	1.881820	0.044364
 194	9.6500e-02	7.6971	24.597868	-0.000061	-0.605915	-0.205289	-0.004840
 195	9.7000e-02	7.7212	24.702729	0.000263	2.625630	0.889588	0.020972
 196	9.7500e-02	7.7709	25.085873	0.000959	9.593649	3.250416	0.076629
 197	9.8000e-02	7.8078	25.122171	0.000091	0.908872	0.307934	0.007260
 198	9.8500e-02	7.8607	25.093940	-0.000071	-0.706900	-0.239504	-0.005646
 199	9.9000e-02	7.8976	25.372223	0.000697	6.968019	2.360829	0.055657
 200	9.9500e-02	7.9313	25.477084	0.000263	2.625630	0.889588	0.020972
 201	1.0000e-01	7.9698	25.739235	0.000656	6.564076	2.223969	0.052430
 202	1.0050e-01	8.0131	25.590011	-0.000374	-3.736474	-1.265952	-0.029845
 203	1.0100e-01	8.0500	25.795699	0.000515	5.150275	1.744960	0.041138
 204	1.0150e-01	8.0901	25.618242	-0.000444	-4.443374	-1.505456	-0.035491
 205	1.0200e-01	8.1351	25.981221	0.000909	9.088720	3.079342	0.072596
 206	1.0250e-01	8.1704	26.352266	0.000929	9.290692	3.147772	0.074209
 207	1.0300e-01	8.2040	26.404697	0.000131	1.312815	0.444794	0.010486
 208	1.0350e-01	8.2538	26.412763	0.000020	0.201972	0.068430	0.001613
 209	1.0400e-01	8.2923	26.336134	-0.000192	-1.918730	-0.650083	-0.015326
 210	1.0450e-01	8.3324	26.658782	0.000808	8.078863	2.737193	0.064530
 211	1.0500e-01	8.3805	26.719278	0.000151	1.514787	0.513224	0.012099
 212	1.0550e-01	8.4190	26.868503	0.000374	3.736474	1.265952	0.029845
 213	1.0600e-01	8.4559	26.977397	0.000273	2.726616	0.923803	0.021779
 214	1.0650e-01	8.4944	27.175018	0.000495	4.948303	1.676531	0.039524
 215	1.0700e-01	8.5297	27.312144	0.000343	3.433517	1.163307	0.027425
 216	1.0750e-01	8.5794	27.445236	0.000333	3.332531	1.129092	0.026618
 217	1.0800e-01	8.6147	27.421037	-0.000061	-0.605915	-0.205289	-0.004840
 218	1.0850e-01	8.6532	27.590428	0.000424	4.241403	1.437026	0.033878
 219	1.0900e-01	8.6853	27.824347	0.000586	5.857175	1.984465	0.046784
 220	1.0950e-01	8.7383	27.715454	-0.000273	-2.726616	-0.923803	-0.021779
 221	1.1000e-01	8.7703	27.864678	0.000374	3.736474	1.265952	0.029845
 222	1.1050e-01	8.8137	28.159094	0.000737	7.371962	2.497688	0.058883
 223	1.1100e-01	8.8634	28.207492	0.000121	1.211829	0.410579	0.009679
 224	1.1150e-01	8.8987	28.219591	0.000030	0.302957	0.102645	0.002420
 225	1.1200e-01	8.9308	28.348650	0.000323	3.231545	1.094877	0.025812
 226	1.1250e-01	8.9709	28.772125	0.001060	10.603507	3.592565	0.084695
 227	1.1300e-01	9.0142	28.808423	0.000091	0.908872	0.307934	0.007260
 228	1.1350e-01	9.0607	29.054442	0.000616	6.160133	2.087109	0.049204
 229	1.1400e-01	9.0944	28.901185	-0.000384	-3.837460	-1.300167	-0.030652
 230	1.1450e-01	9.1313	28.957648	0.000141	1.413801	0.479009	0.011293
 231	1.1500e-01	9.1730	29.239965	0.000707	7.069005	2.395044	0.056463
 232	1.1550e-01	9.2051	29.469851	0.000576	5.756190	1.950250	0.045977
 233	1.1600e-01	9.2484	29.477918	0.000020	0.201972	0.068430	0.001613
 234	1.1650e-01	9.2885	29.699738	0.000555	5.554218	1.881820	0.044364
 235	1.1700e-01	9.3286	29.957856	0.000646	6.463090	2.189754	0.051624
 236	1.1750e-01	9.3767	30.018353	0.000151	1.514787	0.513224	0.012099
 237	1.1800e-01	9.4185	30.111114	0.000232	2.322673	0.786943	0.018552
 238	1.1850e-01	9.4586	29.949790	-0.000404	-4.039431	-1.368596	-0.032265
 239	1.1900e-01	9.4922	30.159511	0.000525	5.251261	1.779175	0.041944
 240	1.1950e-01	9.5340	30.203875	0.000111	1.110844	0.376364	0.008873
 241	1.2000e-01	9.5725	30.393431	0.000475	4.746332	1.608101	0.037911
 242	1.2050e-01	9.6110	30.562821	0.000424	4.241403	1.437026	0.033878
 243	1.2100e-01	9.6559	30.619285	0.000141	1.413801	0.479009	0.011293
 244	1.2150e-01	9.6960	30.869337	0.000626	6.261119	2.121324	0.050010
 245	1.2200e-01	9.7265	31.147621	0.000697	6.968019	2.360829	0.055657
 246	1.2250e-01	9.7778	30.893535	-0.000636	-6.362104	-2.155539	-0.050817
 247	1.2300e-01	9.8131	31.155687	0.000656	6.564076	2.223969	0.052430
 248	1.2350e-01	9.8516	31.228282	0.000182	1.817744	0.615868	0.014519
 249	1.2400e-01	9.8917	31.474301	0.000616	6.160133	2.087109	0.049204
 250	1.2450e-01	9.9254	31.421871	-0.000131	-1.312815	-0.444794	-0.010486
 251	1.2500e-01	9.9735	31.510599	0.000222	2.221687	0.752728	0.017746
 252	1.2550e-01	10.0136	31.792916	0.000707	7.069005	2.395044	0.056463
 253	1.2600e-01	10.0537	31.756618	-0.000091	-0.908872	-0.307934	-0.007260
 254	1.2650e-01	10.0986	32.014737	0.000646	6.463090	2.189754	0.051624
 255	1.2700e-01	10.1275	32.151862	0.000343	3.433517	1.163307	0.027425
 256	1.2750e-01	10.1773	32.115564	-0.000091	-0.908872	-0.307934	-0.007260
 257	1.2800e-01	10.2142	32.409980	0.000737	7.371962	2.497688	0.058883
 258	1.2850e-01	10.2575	32.466444	0.000141	1.413801	0.479009	0.011293
 259	1.2900e-01	10.2879	32.341418	-0.000313	-3.130559	-1.060662	-0.025005
 260	1.2950e-01	10.3281	32.692297	0.000879	8.785763	2.976697	0.070176
 261	1.3000e-01	10.3730	32.865721	0.000434	4.342389	1.471241	0.034685
 262	1.3050e-01	10.4147	32.732628	-0.000333	-3.332531	-1.129092	-0.026618
 263	1.3100e-01	10.4500	32.861687	0.000323	3.231545	1.094877	0.025812
 264	1.3150e-01	10.4901	33.180302	0.000798	7.977877	2.702978	0.063723
 265	1.3200e-01	10.5286	33.329527	0.000374	3.736474	1.265952	0.029845
 266	1.3250e-01	10.5735	33.490851	0.000404	4.039431	1.368596	0.032265
 267	1.3300e-01	10.6136	33.523116	0.000081	0.807886	0.273719	0.006453
 268	1.3350e-01	10.6489	33.390023	-0.000333	-3.332531	-1.129092	-0.026618
 269	1.3400e-01	10.6986	33.640075	0.000626	6.261119	2.121324	0.050010
 270	1.3450e-01	10.7419	33.656208	0.000040	0.403943	0.136860	0.003226
 271	1.3500e-01	10.7692	34.140180	0.001212	12.118294	4.105789	0.096794
 272	1.3550e-01	10.8141	33.938525	-0.000505	-5.049289	-1.710745	-0.040331
 273	1.3600e-01	10.8558	34.220842	0.000707	7.069005	2.395044	0.056463
 274	1.3650e-01	10.8911	34.503159	0.000707	7.069005	2.395044	0.056463
 275	1.3700e-01	10.9296	34.370066	-0.000333	-3.332531	-1.129092	-0.026618
 276	1.3750e-01	10.9665	34.616085	0.000616	6.160133	2.087109	0.049204
 277	1.3800e-01	11.0211	34.535423	-0.000202	-2.019716	-0.684298	-0.016132
 278	1.3850e-01	11.0548	34.612052	0.000192	1.918730	0.650083	0.015326
 279	1.3900e-01	11.0901	34.684648	0.000182	1.817744	0.615868	0.014519
 280	1.3950e-01	11.1366	34.930667	0.000616	6.160133	2.087109	0.049204
 281	1.4000e-01	11.1767	35.071825	0.000353	3.534502	1.197522	0.028232
 282	1.4050e-01	11.2152	35.217017	0.000364	3.635488	1.231737	0.029038
 283	1.4100e-01	11.2537	35.459003	0.000606	6.059147	2.052895	0.048397
 284	1.4150e-01	11.2922	35.571930	0.000283	2.827602	0.958017	0.022585
 285	1.4200e-01	11.3419	35.717121	0.000364	3.635488	1.231737	0.029038
 286	1.4250e-01	11.3772	35.882478	0.000414	4.140417	1.402811	0.033071
 287	1.4300e-01	11.4157	35.648559	-0.000586	-5.857175	-1.984465	-0.046784
 288	1.4350e-01	11.4542	35.688890	0.000101	1.009858	0.342149	0.008066
 289	1.4400e-01	11.4895	35.862313	0.000434	4.342389	1.471241	0.034685
 290	1.4450e-01	11.5376	35.979273	0.000293	2.928588	0.992232	0.023392
 291	1.4500e-01	11.5777	36.233358	0.000636	6.362104	2.155539	0.050817
 292	1.4550e-01	11.6162	36.346285	0.000283	2.827602	0.958017	0.022585
 293	1.4600e-01	11.6580	36.745561	0.001000	9.997593	3.387276	0.079855
 294	1.4650e-01	11.6949	36.773793	0.000071	0.706900	0.239504	0.005646
 295	1.4700e-01	11.7382	36.697164	-0.000192	-1.918730	-0.650083	-0.015326
 296	1.4750e-01	11.7751	36.955282	0.000646	6.463090	2.189754	0.051624
 297	1.4800e-01	11.8104	36.987547	0.000081	0.807886	0.273719	0.006453
 298	1.4850e-01	11.8585	37.120640	0.000333	3.332531	1.129092	0.026618
 299	1.4900e-01	11.8970	37.402956	0.000707	7.069005	2.395044	0.056463
 300	1.4950e-01	11.9403	37.467486	0.000162	1.615773	0.547439	0.012906
 301	1.5000e-01	11.9660	37.475552	0.000020	0.201972	0.068430	0.001613
 302	1.5050e-01	12.0189	37.495718	0.000050	0.504929	0.171075	0.004033
 303	1.5100e-01	12.0574	37.532016	0.000091	0.908872	0.307934	0.007260
 304	1.5150e-01	12.0943	37.749803	0.000545	5.453232	1.847605	0.043557
 305	1.5200e-01	12.1280	37.846597	0.000242	2.423659	0.821158	0.019359
 306	1.5250e-01	12.1681	37.802233	-0.000111	-1.110844	-0.376364	-0.008873
 307	1.5300e-01	12.2194	37.814332	0.000030	0.302957	0.102645	0.002420
 308	1.5350e-01	12.2531	37.979690	0.000414	4.140417	1.402811	0.033071
 309	1.5400e-01	12.2964	38.092616	0.000283	2.827602	0.958017	0.022585
 310	1.5450e-01	12.3317	38.282172	0.000475	4.746332	1.608101	0.037911
 311	1.5500e-01	12.3783	38.524158	0.000606	6.059147	2.052895	0.048397
 312	1.5550e-01	12.4039	38.745978	0.000555	5.554218	1.881820	0.044364
 313	1.5600e-01	12.4569	38.596754	-0.000374	-3.736474	-1.265952	-0.029845
 314	1.5650e-01	12.4954	38.830673	0.000586	5.857175	1.984465	0.046784
 315	1.5700e-01	12.5387	38.879071	0.000121	1.211829	0.410579	0.009679
 316	1.5750e-01	12.5756	39.072659	0.000485	4.847318	1.642316	0.038718
 317	1.5800e-01	12.6141	39.121056	0.000121	1.211829	0.410579	0.009679
 318	1.5850e-01	12.6542	39.145255	0.000061	0.605915	0.205289	0.004840
 319	1.5900e-01	12.6959	39.359009	0.000535	5.352246	1.813390	0.042751
 320	1.5950e-01	12.7344	39.516300	0.000394	3.938446	1.334381	0.031458
 321	1.6000e-01	12.7697	39.669558	0.000384	3.837460	1.300167	0.030652
 322	1.6050e-01	12.8130	39.855080	0.000465	4.645346	1.573886	0.037105
 323	1.6100e-01	12.8611	39.778452	-0.000192	-1.918730	-0.650083	-0.015326
 324	1.6150e-01	12.8980	40.193861	0.001040	10.401536	3.524136	0.083082
 325	1.6200e-01	12.9301	40.060768	-0.000333	-3.332531	-1.129092	-0.026618
 326	1.6250e-01	12.9718	39.968007	-0.000232	-2.322673	-0.786943	-0.018552
 327	1.6300e-01	13.0119	40.246291	0.000697	6.968019	2.360829	0.055657
 328	1.6350e-01	13.0569	40.403582	0.000394	3.938446	1.334381	0.031458
 329	1.6400e-01	13.0937	40.472144	0.000172	1.716758	0.581653	0.013713
 330	1.6450e-01	13.1290	40.512475	0.000101	1.009858	0.342149	0.008066
 331	1.6500e-01	13.1740	40.750428	0.000596	5.958161	2.018680	0.047591
 332	1.6550e-01	13.2189	40.875454	0.000313	3.130559	1.060662	0.025005
 333	1.6600e-01	13.2429	40.806892	-0.000172	-1.716758	-0.581653	-0.013713
 334	1.6650e-01	13.2991	41.089209	0.000707	7.069005	2.395044	0.056463
 335	1.6700e-01	13.3344	41.105341	0.000040	0.403943	0.136860	0.003226
 336	1.6750e-01	13.3697	41.270698	0.000414	4.140417	1.402811	0.033071
 337	1.6800e-01	13.4082	41.440088	0.000424	4.241403	1.437026	0.033878
 338	1.6850e-01	13.4467	41.504618	0.000162	1.615773	0.547439	0.012906
 339	1.6900e-01	13.4868	41.553015	0.000121	1.211829	0.410579	0.009679
 340	1.6950e-01	13.5301	41.867597	0.000788	7.876891	2.668763	0.062916
 341	1.7000e-01	13.5750	41.855497	-0.000030	-0.302957	-0.102645	-0.002420
 342	1.7050e-01	13.6103	41.972457	0.000293	2.928588	0.992232	0.023392
 343	1.7100e-01	13.6536	42.238642	0.000667	6.665062	2.258184	0.053237
 344	1.7150e-01	13.6873	42.246708	0.000020	0.201972	0.068430	0.001613
 345	1.7200e-01	13.7290	42.266873	0.000050	0.504929	0.171075	0.004033
 346	1.7250e-01	13.7739	42.391899	0.000313	3.130559	1.060662	0.025005
 347	1.7300e-01	13.8108	42.299138	-0.000232	-2.322673	-0.786943	-0.018552
 348	1.7350e-01	13.8381	42.605654	0.000767	7.674920	2.600333	0.061303
 349	1.7400e-01	13.8927	42.577422	-0.000071	-0.706900	-0.239504	-0.005646
 350	1.7450e-01	13.9344	42.617753	0.000101	1.009858	0.342149	0.008066
 351	1.7500e-01	13.9697	42.851673	0.000586	5.857175	1.984465	0.046784
 352	1.7550e-01	14.0082	42.791176	-0.000151	-1.514787	-0.513224	-0.012099
 353	1.7600e-01	14.0531	42.960566	0.000424	4.241403	1.437026	0.033878
 354	1.7650e-01	14.0804	43.355810	0.000990	9.896607	3.353061	0.079049
 355	1.7700e-01	14.1253	43.089625	-0.000667	-6.665062	-2.258184	-0.053237
 356	1.7750e-01	14.1654	43.472770	0.000959	9.593649	3.250416	0.076629
 357	1.7800e-01	14.2151	43.517134	0.000111	1.110844	0.376364	0.008873
 358	1.7850e-01	14.2648	43.537299	0.000050	0.504929	0.171075	0.004033
 359	1.7900e-01	14.2889	43.468737	-0.000172	-1.716758	-0.581653	-0.013713
 360	1.7950e-01	14.3322	43.775252	0.000767	7.674920	2.600333	0.061303
 361	1.8000e-01	14.3595	43.944642	0.000424	4.241403	1.437026	0.033878
 362	1.8050e-01	14.4156	43.936576	-0.000020	-0.201972	-0.068430	-0.001613
 363	1.8100e-01	14.4365	43.880113	-0.000141	-1.413801	-0.479009	-0.011293
 364	1.8150e-01	14.4910	44.077735	0.000495	4.948303	1.676531	0.039524
 365	1.8200e-01	14.5295	44.481044	0.001010	10.098578	3.421491	0.080662
 366	1.8250e-01	14.5777	44.384250	-0.000242	-2.423659	-0.821158	-0.019359
 367	1.8300e-01	14.6130	44.602037	0.000545	5.453232	1.847605	0.043557
 368	1.8350e-01	14.6434	44.771428	0.000424	4.241403	1.437026	0.033878
 369	1.8400e-01	14.6884	44.493144	-0.000697	-6.968019	-2.360829	-0.055657
 370	1.8450e-01	14.7349	44.860156	0.000919	9.189706	3.113557	0.073402
 371	1.8500e-01	14.7734	44.811759	-0.000121	-1.211829	-0.410579	-0.009679
 372	1.8550e-01	14.8087	44.981149	0.000424	4.241403	1.437026	0.033878
 373	1.8600e-01	14.8552	45.106175	0.000313	3.130559	1.060662	0.025005
 374	1.8650e-01	14.8937	45.368326	0.000656	6.564076	2.223969	0.052430
 375	1.8700e-01	14.9290	45.299764	-0.000172	-1.716758	-0.581653	-0.013713
 376	1.8750e-01	14.9771	45.380425	0.000202	2.019716	0.684298	0.016132
 377	1.8800e-01	15.0044	45.606279	0.000566	5.655204	1.916035	0.045171
 378	1.8850e-01	15.0493	45.457054	-0.000374	-3.736474	-1.265952	-0.029845
 379	1.8900e-01	15.0830	45.610312	0.000384	3.837460	1.300167	0.030652
 380	1.8950e-01	15.1295	46.009589	0.001000	9.997593	3.387276	0.079855
 381	1.9000e-01	15.1632	45.876497	-0.000333	-3.332531	-1.129092	-0.026618
 382	1.9050e-01	15.2097	46.021688	0.000364	3.635488	1.231737	0.029038
 383	1.9100e-01	15.2563	46.223343	0.000505	5.049289	1.710745	0.040331
 384	1.9150e-01	15.2867	46.340303	0.000293	2.928588	0.992232	0.023392
 385	1.9200e-01	15.3317	46.445164	0.000263	2.625630	0.889588	0.020972
 386	1.9250e-01	15.3734	46.400799	-0.000111	-1.110844	-0.376364	-0.008873
 387	1.9300e-01	15.4135	46.602454	0.000505	5.049289	1.710745	0.040331
 388	1.9350e-01	15.4568	46.695216	0.000232	2.322673	0.786943	0.018552
 389	1.9400e-01	15.4905	46.650852	-0.000111	-1.110844	-0.376364	-0.008873
 390	1.9450e-01	15.5370	46.804109	0.000384	3.837460	1.300167	0.030652
 391	1.9500e-01	15.5659	47.122724	0.000798	7.977877	2.702978	0.063723
 392	1.9550e-01	15.6124	47.102559	-0.000050	-0.504929	-0.171075	-0.004033
 393	1.9600e-01	15.6573	47.195320	0.000232	2.322673	0.786943	0.018552
 394	1.9650e-01	15.6878	47.566365	0.000929	9.290692	3.147772	0.074209
 395	1.9700e-01	15.7247	47.546199	-0.000050	-0.504929	-0.171075	-0.004033
 396	1.9750e-01	15.7776	47.493769	-0.000131	-1.312815	-0.444794	-0.010486
 397	1.9800e-01	15.8209	47.457471	-0.000091	-0.908872	-0.307934	-0.007260
 398	1.9850e-01	15.8434	47.808351	0.000879	8.785763	2.976697	0.070176
 399	1.9900e-01	15.8947	47.755921	-0.000131	-1.312815	-0.444794	-0.010486
 400	1.9950e-01	15.9316	47.808351	0.000131	1.312815	0.444794	0.010486
 401	2.0000e-01	15.9750	47.941443	0.000333	3.332531	1.129092	0.026618
 402	2.0050e-01	16.0118	48.038237	0.000242	2.423659	0.821158	0.019359
 403	2.0100e-01	16.0520	48.086635	0.000121	1.211829	0.410579	0.009679
 404	2.0150e-01	16.0953	48.280223	0.000485	4.847318	1.642316	0.038718
 405	2.0200e-01	16.1322	48.502044	0.000555	5.554218	1.881820	0.044364
 406	2.0250e-01	16.1803	48.578673	0.000192	1.918730	0.650083	0.015326
 407	2.0300e-01	16.2108	48.377018	-0.000505	-5.049289	-1.710745	-0.040331
 408	2.0350e-01	16.2589	48.453647	0.000192	1.918730	0.650083	0.015326
 409	2.0400e-01	16.2910	48.635136	0.000454	4.544360	1.539671	0.036298
 410	2.0450e-01	16.3343	48.792427	0.000394	3.938446	1.334381	0.031458
 411	2.0500e-01	16.3696	49.022314	0.000576	5.756190	1.950250	0.045977
 412	2.0550e-01	16.4161	49.312697	0.000727	7.270976	2.463473	0.058077
 413	2.0600e-01	16.4530	49.207836	-0.000263	-2.625630	-0.889588	-0.020972
 414	2.0650e-01	16.4931	49.344961	0.000343	3.433517	1.163307	0.027425
 415	2.0700e-01	16.5236	49.312697	-0.000081	-0.807886	-0.273719	-0.006453
 416	2.0750e-01	16.5717	49.526451	0.000535	5.352246	1.813390	0.042751
 417	2.0800e-01	16.6150	49.586947	0.000151	1.514787	0.513224	0.012099
 418	2.0850e-01	16.6616	49.607113	0.000050	0.504929	0.171075	0.004033
 419	2.0900e-01	16.7065	49.909595	0.000757	7.573934	2.566118	0.060496
 420	2.0950e-01	16.7354	49.832966	-0.000192	-1.918730	-0.650083	-0.015326
 421	2.1000e-01	16.7723	50.034621	0.000505	5.049289	1.710745	0.040331
 422	2.1050e-01	16.8140	50.074952	0.000101	1.009858	0.342149	0.008066
 423	2.1100e-01	16.8525	50.224177	0.000374	3.736474	1.265952	0.029845
 424	2.1150e-01	16.8910	50.345170	0.000303	3.029573	1.026447	0.024199
 425	2.1200e-01	16.9359	50.530692	0.000465	4.645346	1.573886	0.037105
 426	2.1250e-01	16.9728	50.571023	0.000101	1.009858	0.342149	0.008066
 427	2.1300e-01	17.0097	50.792844	0.000555	5.554218	1.881820	0.044364
 428	2.1350e-01	17.0514	50.534725	-0.000646	-6.463090	-2.189754	-0.051624
 429	2.1400e-01	17.0979	50.704116	0.000424	4.241403	1.437026	0.033878
 430	2.1450e-01	17.1316	50.712182	0.000020	0.201972	0.068430	0.001613
 431	2.1500e-01	17.1765	50.998532	0.000717	7.169991	2.429259	0.057270
 432	2.1550e-01	17.2166	51.127591	0.000323	3.231545	1.094877	0.025812
 433	2.1600e-01	17.2423	51.071128	-0.000141	-1.413801	-0.479009	-0.011293
 434	2.1650e-01	17.3017	51.405875	0.000838	8.381820	2.839837	0.066949
 435	2.1700e-01	17.3321	51.248584	-0.000394	-3.938446	-1.334381	-0.031458
 436	2.1750e-01	17.3754	51.284882	0.000091	0.908872	0.307934	0.007260
 437	2.1800e-01	17.4059	51.603497	0.000798	7.977877	2.702978	0.063723
 438	2.1850e-01	17.4605	51.736589	0.000333	3.332531	1.129092	0.026618
 439	2.1900e-01	17.5022	51.974542	0.000596	5.958161	2.018680	0.047591
 440	2.1950e-01	17.5295	51.809185	-0.000414	-4.140417	-1.402811	-0.033071
 441	2.2000e-01	17.5760	51.905979	0.000242	2.423659	0.821158	0.019359
 442	2.2050e-01	17.6145	52.071336	0.000414	4.140417	1.402811	0.033071
 443	2.2100e-01	17.6578	52.248792	0.000444	4.443374	1.505456	0.035491
 444	2.2150e-01	17.6979	51.942277	-0.000767	-7.674920	-2.600333	-0.061303
 445	2.2200e-01	17.7284	52.252825	0.000778	7.775905	2.634548	0.062110
 446	2.2250e-01	17.7765	52.426249	0.000434	4.342389	1.471241	0.034685
 447	2.2300e-01	17.8150	52.406083	-0.000050	-0.504929	-0.171075	-0.004033
 448	2.2350e-01	17.8519	52.490778	0.000212	2.120701	0.718513	0.016939
 449	2.2400e-01	17.8936	52.894088	0.001010	10.098578	3.421491	0.080662
 450	2.2450e-01	17.9353	52.877956	-0.000040	-0.403943	-0.136860	-0.003226
 451	2.2500e-01	17.9738	52.970717	0.000232	2.322673	0.786943	0.018552
 452	2.2550e-01	18.0107	52.898121	-0.000182	-1.817744	-0.615868	-0.014519
 453	2.2600e-01	18.0476	53.164306	0.000667	6.665062	2.258184	0.053237
 454	2.2650e-01	18.0925	53.325630	0.000404	4.039431	1.368596	0.032265
 455	2.2700e-01	18.1262	53.273199	-0.000131	-1.312815	-0.444794	-0.010486
 456	2.2750e-01	18.1744	53.365961	0.000232	2.322673	0.786943	0.018552
 457	2.2800e-01	18.2096	53.462755	0.000242	2.423659	0.821158	0.019359
 458	2.2850e-01	18.2578	53.450656	-0.000030	-0.302957	-0.102645	-0.002420
 459	2.2900e-01	18.2995	53.724906	0.000687	6.867033	2.326614	0.054850
 460	2.2950e-01	18.3380	53.930595	0.000515	5.150275	1.744960	0.041138
 461	2.3000e-01	18.3733	53.922528	-0.000020	-0.201972	-0.068430	-0.001613
 462	2.3050e-01	18.4118	54.011256	0.000222	2.221687	0.752728	0.017746
 463	2.3100e-01	18.4551	53.910429	-0.000252	-2.524645	-0.855373	-0.020165
 464	2.3150e-01	18.5000	54.112084	0.000505	5.049289	1.710745	0.040331
 465	2.3200e-01	18.5417	54.261309	0.000374	3.736474	1.265952	0.029845
 466	2.3250e-01	18.5626	54.414566	0.000384	3.837460	1.300167	0.030652
 467	2.3300e-01	18.6043	54.479096	0.000162	1.615773	0.547439	0.012906
 468	2.3350e-01	18.6476	54.620254	0.000353	3.534502	1.197522	0.028232
 469	2.3400e-01	18.6941	54.704949	0.000212	2.120701	0.718513	0.016939
 470	2.3450e-01	18.7342	55.051796	0.000868	8.684777	2.942482	0.069369
 471	2.3500e-01	18.7791	54.995333	-0.000141	-1.413801	-0.479009	-0.011293
 472	2.3550e-01	18.8193	54.918704	-0.000192	-1.918730	-0.650083	-0.015326
 473	2.3600e-01	18.8594	55.031630	0.000283	2.827602	0.958017	0.022585
 474	2.3650e-01	18.8995	55.084061	0.000131	1.312815	0.444794	0.010486
 475	2.3700e-01	18.9316	55.192954	0.000273	2.726616	0.923803	0.021779
 476	2.3750e-01	18.9701	55.156656	-0.000091	-0.908872	-0.307934	-0.007260
 477	2.3800e-01	19.0118	55.342179	0.000465	4.645346	1.573886	0.037105
 478	2.3850e-01	19.0503	55.519635	0.000444	4.443374	1.505456	0.035491
 479	2.3900e-01	19.1000	55.644661	0.000313	3.130559	1.060662	0.025005
 480	2.3950e-01	19.1385	55.672893	0.000071	0.706900	0.239504	0.005646
 481	2.4000e-01	19.1818	55.761621	0.000222	2.221687	0.752728	0.017746
 482	2.4050e-01	19.2075	55.818085	0.000141	1.413801	0.479009	0.011293
 483	2.4100e-01	19.2524	55.878581	0.000151	1.514787	0.513224	0.012099
 484	2.4150e-01	19.2877	55.898747	0.000050	0.504929	0.171075	0.004033
 485	2.4200e-01	19.3342	56.128633	0.000576	5.756190	1.950250	0.045977
 486	2.4250e-01	19.3855	56.334321	0.000515	5.150275	1.744960	0.041138
 487	2.4300e-01	19.4192	56.318189	-0.000040	-0.403943	-0.136860	-0.003226
 488	2.4350e-01	19.4529	56.439182	0.000303	3.029573	1.026447	0.024199
 489	2.4400e-01	19.4994	56.560175	0.000303	3.029573	1.026447	0.024199
 490	2.4450e-01	19.5347	56.471447	-0.000222	-2.221687	-0.752728	-0.017746
 491	2.4500e-01	19.5748	56.757797	0.000717	7.169991	2.429259	0.057270
 492	2.4550e-01	19.6117	56.866690	0.000273	2.726616	0.923803	0.021779
 493	2.4600e-01	19.6615	56.894922	0.000071	0.706900	0.239504	0.005646
 494	2.4650e-01	19.6871	56.749730	-0.000364	-3.635488	-1.231737	-0.029038
 495	2.4700e-01	19.7385	57.011882	0.000656	6.564076	2.223969	0.052430
 496	2.4750e-01	19.7754	57.036080	0.000061	0.605915	0.205289	0.004840
 497	2.4800e-01	19.8043	57.185305	0.000374	3.736474	1.265952	0.029845
 498	2.4850e-01	19.8540	57.197404	0.000030	0.302957	0.102645	0.002420
 499	2.4900e-01	19.8925	57.370828	0.000434	4.342389	1.471241	0.034685
 500	2.4950e-01	19.9342	57.479721	0.000273	2.726616	0.923803	0.021779
 501	2.5000e-01	19.9679	57.467622	-0.000030	-0.302957	-0.102645	-0.002420
 502	2.5050e-01	19.9711	57.443423	-0.000061	-0.605915	-0.205289	-0.004840
 503	2.5100e-01	19.9518	57.370828	0.000182	1.817744	0.615868	-0.014519
 504	2.5150e-01	19.9214	57.435357	-0.000162	-1.615773	-0.547439	0.012906
 505	2.5200e-01	19.8684	57.366795	0.000172	1.716758	0.581653	-0.013713
 506	2.5250e-01	19.8460	57.326464	0.000101	1.009858	0.342149	-0.008066
 507	2.5300e-01	19.7914	57.108676	0.000545	5.453232	1.847605	-0.043557
 508	2.5350e-01	19.7593	57.032047	0.000192	1.918730	0.650083	-0.015326
 509	2.5400e-01	19.7176	56.995749	0.000091	0.908872	0.307934	-0.007260
 510	2.5450e-01	19.6759	56.753764	0.000606	6.059147	2.052895	-0.048397
 511	2.5500e-01	19.6374	56.745697	0.000020	0.201972	0.068430	-0.001613
 512	2.5550e-01	19.5925	56.685201	0.000151	1.514787	0.513224	-0.012099
 513	2.5600e-01	19.5508	56.725532	-0.000101	-1.009858	-0.342149	0.008066
 514	2.5650e-01	19.5107	56.701333	0.000061	0.605915	0.205289	-0.004840
 515	2.5700e-01	19.4770	56.689234	0.000030	0.302957	0.102645	-0.002420
 516	2.5750e-01	19.4337	56.330288	0.000899	8.987735	3.045127	-0.071789
 517	2.5800e-01	19.3952	56.064104	0.000667	6.665062	2.258184	-0.053237
 518	2.5850e-01	19.3519	56.289957	-0.000566	-5.655204	-1.916035	0.045171
 519	2.5900e-01	19.3166	56.221395	0.000172	1.716758	0.581653	-0.013713
 520	2.5950e-01	19.2781	55.818085	0.001010	10.098578	3.421491	-0.080662
 521	2.6000e-01	19.2412	56.035872	-0.000545	-5.453232	-1.847605	0.043557
 522	2.6050e-01	19.1979	56.124600	-0.000222	-2.221687	-0.752728	0.017746
 523	2.6100e-01	19.1626	55.697092	0.001070	10.704493	3.626780	-0.085502
 524	2.6150e-01	19.1209	55.854383	-0.000394	-3.938446	-1.334381	0.031458
 525	2.6200e-01	19.0807	55.620463	0.000586	5.857175	1.984465	-0.046784
 526	2.6250e-01	19.0390	55.487371	0.000333	3.332531	1.129092	-0.026618
 527	2.6300e-01	19.0005	55.418808	0.000172	1.716758	0.581653	-0.013713
 528	2.6350e-01	18.9572	55.285716	0.000333	3.332531	1.129092	-0.026618
 529	2.6400e-01	18.9139	55.253451	0.000081	0.807886	0.273719	-0.006453
 530	2.6450e-01	18.8738	55.180855	0.000182	1.817744	0.615868	-0.014519
 531	2.6500e-01	18.8321	55.309914	-0.000323	-3.231545	-1.094877	0.025812
 532	2.6550e-01	18.8000	55.136491	0.000434	4.342389	1.471241	-0.034685
 533	2.6600e-01	18.7503	54.950968	0.000465	4.645346	1.573886	-0.037105
 534	2.6650e-01	18.7134	54.890472	0.000151	1.514787	0.513224	-0.012099
 535	2.6700e-01	18.6717	54.817876	0.000182	1.817744	0.615868	-0.014519
 536	2.6750e-01	18.6332	54.838042	-0.000050	-0.504929	-0.171075	0.004033
 537	2.6800e-01	18.5898	54.676718	0.000404	4.039431	1.368596	-0.032265
 538	2.6850e-01	18.5562	54.737214	-0.000151	-1.514787	-0.513224	0.012099
 539	2.6900e-01	18.5257	54.507328	0.000576	5.756190	1.950250	-0.045977
 540	2.6950e-01	18.4808	54.281474	0.000566	5.655204	1.916035	-0.045171
 541	2.7000e-01	18.4326	54.216945	0.000162	1.615773	0.547439	-0.012906
 542	2.7050e-01	18.3941	54.208878	0.000020	0.201972	0.068430	-0.001613
 543	2.7100e-01	18.3588	54.281474	-0.000182	-1.817744	-0.615868	0.014519
 544	2.7150e-01	18.3139	54.120150	0.000404	4.039431	1.368596	-0.032265
 545	2.7200e-01	18.2706	53.821701	0.000747	7.472948	2.531903	-0.059690
 546	2.7250e-01	18.2289	53.737006	0.000212	2.120701	0.718513	-0.016939
 547	2.7300e-01	18.1936	53.708774	0.000071	0.706900	0.239504	-0.005646
 548	2.7350e-01	18.1567	53.603914	0.000263	2.625630	0.889588	-0.020972
 549	2.7400e-01	18.1166	53.644245	-0.000101	-1.009858	-0.342149	0.008066
 550	2.7450e-01	18.0749	53.684575	-0.000101	-1.009858	-0.342149	0.008066
 551	2.7500e-01	18.0332	53.466788	0.000545	5.453232	1.847605	-0.043557
 552	2.7550e-01	17.9947	53.390159	0.000192	1.918730	0.650083	-0.015326
 553	2.7600e-01	17.9498	53.071545	0.000798	7.977877	2.702978	-0.063723
 554	2.7650e-01	17.9129	53.293365	-0.000555	-5.554218	-1.881820	0.044364
 555	2.7700e-01	17.8808	53.269166	0.000061	0.605915	0.205289	-0.004840
 556	2.7750e-01	17.8359	52.958618	0.000778	7.775905	2.634548	-0.062110
 557	2.7800e-01	17.7942	53.115909	-0.000394	-3.938446	-1.334381	0.031458
 558	2.7850e-01	17.7476	52.910221	0.000515	5.150275	1.744960	-0.041138
 559	2.7900e-01	17.7107	52.894088	0.000040	0.403943	0.136860	-0.003226
 560	2.7950e-01	17.6738	52.652102	0.000606	6.059147	2.052895	-0.048397
 561	2.8000e-01	17.6305	52.623871	0.000071	0.706900	0.239504	-0.005646
 562	2.8050e-01	17.5936	52.486745	0.000343	3.433517	1.163307	-0.027425
 563	2.8100e-01	17.5631	52.490778	-0.000010	-0.100986	-0.034215	0.000807
 564	2.8150e-01	17.5166	52.406083	0.000212	2.120701	0.718513	-0.016939
 565	2.8200e-01	17.4685	52.305256	0.000252	2.524645	0.855373	-0.020165
 566	2.8250e-01	17.4300	52.079402	0.000566	5.655204	1.916035	-0.045171
 567	2.8300e-01	17.3931	52.176197	-0.000242	-2.423659	-0.821158	0.019359
 568	2.8350e-01	17.3466	51.853549	0.000808	8.078863	2.737193	-0.064530
 569	2.8400e-01	17.3161	51.716423	0.000343	3.433517	1.163307	-0.027425
 570	2.8450e-01	17.2696	51.837416	-0.000303	-3.029573	-1.026447	0.024199
 571	2.8500e-01	17.2311	51.498636	0.000848	8.482806	2.874052	-0.067756
 572	2.8550e-01	17.1958	51.595430	-0.000242	-2.423659	-0.821158	0.019359
 573	2.8600e-01	17.1476	51.502669	0.000232	2.322673	0.786943	-0.018552
 574	2.8650e-01	17.1156	51.426040	0.000192	1.918730	0.650083	-0.015326
 575	2.8700e-01	17.0642	51.514768	-0.000222	-2.221687	-0.752728	0.017746
 576	2.8750e-01	17.0402	51.256650	0.000646	6.463090	2.189754	-0.051624
 577	2.8800e-01	16.9920	51.180021	0.000192	1.918730	0.650083	-0.015326
 578	2.8850e-01	16.9551	51.054995	0.000313	3.130559	1.060662	-0.025005
 579	2.8900e-01	16.9134	50.962234	0.000232	2.322673	0.786943	-0.018552
 580	2.8950e-01	16.8781	50.934002	0.000071	0.706900	0.239504	-0.005646
 581	2.9000e-01	16.8348	50.817042	0.000293	2.928588	0.992232	-0.023392
 582	2.9050e-01	16.7915	50.800910	0.000040	0.403943	0.136860	-0.003226
 583	2.9100e-01	16.7514	50.554891	0.000616	6.160133	2.087109	-0.049204
 584	2.9150e-01	16.7145	50.571023	-0.000040	-0.403943	-0.136860	0.003226
 585	2.9200e-01	16.6808	50.252409	0.000798	7.977877	2.702978	-0.063723
 586	2.9250e-01	16.6343	50.393567	-0.000353	-3.534502	-1.197522	0.028232
 587	2.9300e-01	16.5878	50.433898	-0.000101	-1.009858	-0.342149	0.008066
 588	2.9350e-01	16.5557	50.006390	0.001070	10.704493	3.626780	-0.085502
 589	2.9400e-01	16.5140	50.167714	-0.000404	-4.039431	-1.368596	0.032265
 590	2.9450e-01	16.4707	49.909595	0.000646	6.463090	2.189754	-0.051624
 591	2.9500e-01	16.4273	49.667609	0.000606	6.059147	2.052895	-0.048397
 592	2.9550e-01	16.3888	49.707940	-0.000101	-1.009858	-0.342149	0.008066
 593	2.9600e-01	16.3584	49.772470	-0.000162	-1.615773	-0.547439	0.012906
 594	2.9650e-01	16.3102	49.675675	0.000242	2.423659	0.821158	-0.019359
 595	2.9700e-01	16.2749	49.449822	0.000566	5.655204	1.916035	-0.045171
 596	2.9750e-01	16.2252	49.357061	0.000232	2.322673	0.786943	-0.018552
 597	2.9800e-01	16.1947	49.316730	0.000101	1.009858	0.342149	-0.008066
 598	2.9850e-01	16.1514	49.098942	0.000545	5.453232	1.847605	-0.043557
 599	2.9900e-01	16.1097	49.135240	-0.000091	-0.908872	-0.307934	0.007260
 600	2.9950e-01	16.0760	49.070711	0.000162	1.615773	0.547439	-0.012906
 601	3.0000e-01	16.0359	49.143306	-0.000182	-1.817744	-0.615868	0.014519
 602	3.0050e-01	15.9958	48.973916	0.000424	4.241403	1.437026	-0.033878
 603	3.0100e-01	15.9541	48.671434	0.000757	7.573934	2.566118	-0.060496
 604	3.0150e-01	15.9124	48.792427	-0.000303	-3.029573	-1.026447	0.024199
 605	3.0200e-01	15.8707	48.594805	0.000495	4.948303	1.676531	-0.039524
 606	3.0250e-01	15.8402	48.502044	0.000232	2.322673	0.786943	-0.018552
 607	3.0300e-01	15.7937	48.598838	-0.000242	-2.423659	-0.821158	0.019359
 608	3.0350e-01	15.7455	48.316521	0.000707	7.069005	2.395044	-0.056463
 609	3.0400e-01	15.7135	48.199561	0.000293	2.928588	0.992232	-0.023392
 610	3.0450e-01	15.6766	48.413316	-0.000535	-5.352246	-1.813390	0.042751
 611	3.0500e-01	15.6365	47.981774	0.001081	10.805479	3.660995	-0.086308
 612	3.0550e-01	15.6028	47.949509	0.000081	0.807886	0.273719	-0.006453
 613	3.0600e-01	15.5627	47.663159	0.000717	7.169991	2.429259	-0.057270
 614	3.0650e-01	15.5065	47.836583	-0.000434	-4.342389	-1.471241	0.034685
 615	3.0700e-01	15.4744	47.691391	0.000364	3.635488	1.231737	-0.029038
 616	3.0750e-01	15.4231	47.651060	0.000101	1.009858	0.342149	-0.008066
 617	3.0800e-01	15.3942	47.517968	0.000333	3.332531	1.129092	-0.026618
 618	3.0850e-01	15.3621	47.469571	0.000121	1.211829	0.410579	-0.009679
 619	3.0900e-01	15.3156	47.304214	0.000414	4.140417	1.402811	-0.033071
 620	3.0950e-01	15.2723	47.280015	0.000061	0.605915	0.205289	-0.004840
 621	3.1000e-01	15.2370	47.142890	0.000343	3.433517	1.163307	-0.027425
 622	3.1050e-01	15.1857	46.792010	0.000879	8.785763	2.976697	-0.070176
 623	3.1100e-01	15.1568	47.042062	-0.000626	-6.261119	-2.121324	0.050010
 624	3.1150e-01	15.1199	46.864606	0.000444	4.443374	1.505456	-0.035491
 625	3.1200e-01	15.0670	46.582289	0.000707	7.069005	2.395044	-0.056463
 626	3.1250e-01	15.0301	46.566156	0.000040	0.403943	0.136860	-0.003226
 627	3.1300e-01	14.9980	46.513726	0.000131	1.312815	0.444794	-0.010486
 628	3.1350e-01	14.9563	46.578256	-0.000162	-1.615773	-0.547439	0.012906
 629	3.1400e-01	14.9162	46.380634	0.000495	4.948303	1.676531	-0.039524
 630	3.1450e-01	14.8712	46.344336	0.000091	0.908872	0.307934	-0.007260
 631	3.1500e-01	14.8359	46.215277	0.000323	3.231545	1.094877	-0.025812
 632	3.1550e-01	14.7894	46.021688	0.000485	4.847318	1.642316	-0.038718
 633	3.1600e-01	14.7541	46.025721	-0.000010	-0.100986	-0.034215	0.000807
 634	3.1650e-01	14.7236	45.731305	0.000737	7.371962	2.497688	-0.058883
 635	3.1700e-01	14.6723	45.795835	-0.000162	-1.615773	-0.547439	0.012906
 636	3.1750e-01	14.6274	45.569981	0.000566	5.655204	1.916035	-0.045171
 637	3.1800e-01	14.5969	45.779702	-0.000525	-5.251261	-1.779175	0.041944
 638	3.1850e-01	14.5520	45.489319	0.000727	7.270976	2.463473	-0.058077
 639	3.1900e-01	14.5183	45.436889	0.000131	1.312815	0.444794	-0.010486
 640	3.1950e-01	14.4702	45.352194	0.000212	2.120701	0.718513	-0.016939
 641	3.2000e-01	14.4221	45.186837	0.000414	4.140417	1.402811	-0.033071
 642	3.2050e-01	14.3996	45.170704	0.000040	0.403943	0.136860	-0.003226
 643	3.2100e-01	14.3531	45.037612	0.000333	3.332531	1.129092	-0.026618
 644	3.2150e-01	14.3242	44.868222	0.000424	4.241403	1.437026	-0.033878
 645	3.2200e-01	14.2777	44.993248	-0.000313	-3.130559	-1.060662	0.025005
 646	3.2250e-01	14.2408	44.718997	0.000687	6.867033	2.326614	-0.054850
 647	3.2300e-01	14.2087	44.807725	-0.000222	-2.221687	-0.752728	0.017746
 648	3.2350e-01	14.1558	44.372151	0.001091	10.906465	3.695210	-0.087115
 649	3.2400e-01	14.1076	44.517342	-0.000364	-3.635488	-1.231737	0.029038
 650	3.2450e-01	14.0755	44.279390	0.000596	5.958161	2.018680	-0.047591
 651	3.2500e-01	14.0290	44.412482	-0.000333	-3.332531	-1.129092	0.026618
 652	3.2550e-01	13.9937	44.368118	0.000111	1.110844	0.376364	-0.008873
 653	3.2600e-01	13.9504	44.077735	0.000727	7.270976	2.463473	-0.058077
 654	3.2650e-01	13.9167	44.085801	-0.000020	-0.201972	-0.068430	0.001613
 655	3.2700e-01	13.8750	43.835749	0.000626	6.261119	2.121324	-0.050010
 656	3.2750e-01	13.8333	43.545366	0.000727	7.270976	2.463473	-0.058077
 657	3.2800e-01	13.7980	43.694590	-0.000374	-3.736474	-1.265952	0.029845
 658	3.2850e-01	13.7595	43.335644	0.000899	8.987735	3.045127	-0.071789
 659	3.2900e-01	13.7178	43.549399	-0.000535	-5.352246	-1.813390	0.042751
 660	3.2950e-01	13.6665	43.254983	0.000737	7.371962	2.497688	-0.058883
 661	3.3000e-01	13.6392	43.311446	-0.000141	-1.413801	-0.479009	0.011293
 662	3.3050e-01	13.6023	43.093659	0.000545	5.453232	1.847605	-0.043557
 663	3.3100e-01	13.5654	43.125923	-0.000081	-0.807886	-0.273719	0.006453
 664	3.3150e-01	13.5108	43.097692	0.000071	0.706900	0.239504	-0.005646
 665	3.3200e-01	13.4675	42.847640	0.000626	6.261119	2.121324	-0.050010
 666	3.3250e-01	13.4322	42.686316	0.000404	4.039431	1.368596	-0.032265
 667	3.3300e-01	13.3986	42.621786	0.000162	1.615773	0.547439	-0.012906
 668	3.3350e-01	13.3504	42.440297	0.000454	4.544360	1.539671	-0.036298
 669	3.3400e-01	13.3103	42.408032	0.000081	0.807886	0.273719	-0.006453
 670	3.3450e-01	13.2750	42.319304	0.000222	2.221687	0.752728	-0.017746
 671	3.3500e-01	13.2445	42.145880	0.000434	4.342389	1.471241	-0.034685
 672	3.3550e-01	13.1932	42.234609	-0.000222	-2.221687	-0.752728	0.017746
 673	3.3600e-01	13.1531	42.230575	0.000010	0.100986	0.034215	-0.000807
 674	3.3650e-01	13.1130	41.851464	0.000949	9.492664	3.216201	-0.075822
 675	3.3700e-01	13.0761	41.831299	0.000050	0.504929	0.171075	-0.004033
 676	3.3750e-01	13.0344	41.609478	0.000555	5.554218	1.881820	-0.044364
 677	3.3800e-01	12.9895	41.625611	-0.000040	-0.403943	-0.136860	0.003226
 678	3.3850e-01	12.9542	41.726438	-0.000252	-2.524645	-0.855373	0.020165
 679	3.3900e-01	12.9093	41.359426	0.000919	9.189706	3.113557	-0.073402
 680	3.3950e-01	12.8772	41.302963	0.000141	1.413801	0.479009	-0.011293
 681	3.4000e-01	12.8403	41.129540	0.000434	4.342389	1.471241	-0.034685
 682	3.4050e-01	12.8018	40.835123	0.000737	7.371962	2.497688	-0.058883
 683	3.4100e-01	12.7649	40.847223	-0.000030	-0.302957	-0.102645	0.002420
 684	3.4150e-01	12.7119	40.980315	-0.000333	-3.332531	-1.129092	0.026618
 685	3.4200e-01	12.6799	40.681866	0.000747	7.472948	2.531903	-0.059690
 686	3.4250e-01	12.6285	40.540707	0.000353	3.534502	1.197522	-0.028232
 687	3.4300e-01	12.5980	40.669766	-0.000323	-3.231545	-1.094877	0.025812
 688	3.4350e-01	12.5579	40.581038	0.000222	2.221687	0.752728	-0.017746
 689	3.4400e-01	12.5098	40.387449	0.000485	4.847318	1.642316	-0.038718
 690	3.4450e-01	12.4841	40.137397	0.000626	6.261119	2.121324	-0.050010
 691	3.4500e-01	12.4376	40.012371	0.000313	3.130559	1.060662	-0.025005
 692	3.4550e-01	12.3959	40.028504	-0.000040	-0.403943	-0.136860	0.003226
 693	3.4600e-01	12.3654	39.730054	0.000747	7.472948	2.531903	-0.059690
 694	3.4650e-01	12.3141	39.786518	-0.000141	-1.413801	-0.479009	0.011293
 695	3.4700e-01	12.2772	39.774418	0.000030	0.302957	0.102645	-0.002420
 696	3.4750e-01	12.2371	39.665525	0.000273	2.726616	0.923803	-0.021779
 697	3.4800e-01	12.1986	39.572763	0.000232	2.322673	0.786943	-0.018552
 698	3.4850e-01	12.1569	39.540499	0.000081	0.807886	0.273719	-0.006453
 699	3.4900e-01	12.1087	39.282380	0.000646	6.463090	2.189754	-0.051624
 700	3.4950e-01	12.0719	39.145255	0.000343	3.433517	1.163307	-0.027425
 701	3.5000e-01	12.0382	38.891170	0.000636	6.362104	2.155539	-0.050817
 702	3.5050e-01	11.9948	39.068626	-0.000444	-4.443374	-1.505456	0.035491
 703	3.5100e-01	11.9499	39.173487	-0.000263	-2.625630	-0.889588	0.020972
 704	3.5150e-01	11.9162	38.866971	0.000767	7.674920	2.600333	-0.061303
 705	3.5200e-01	11.8745	38.830673	0.000091	0.908872	0.307934	-0.007260
 706	3.5250e-01	11.8392	38.677416	0.000384	3.837460	1.300167	-0.030652
 707	3.5300e-01	11.8007	38.600787	0.000192	1.918730	0.650083	-0.015326
 708	3.5350e-01	11.7574	38.588687	0.000030	0.302957	0.102645	-0.002420
 709	3.5400e-01	11.7189	38.302337	0.000717	7.169991	2.429259	-0.057270
 710	3.5450e-01	11.6804	38.141013	0.000404	4.039431	1.368596	-0.032265
 711	3.5500e-01	11.6371	38.112782	0.000071	0.706900	0.239504	-0.005646
 712	3.5550e-01	11.5922	38.072451	0.000101	1.009858	0.342149	-0.008066
 713	3.5600e-01	11.5537	37.927259	0.000364	3.635488	1.231737	-0.029038
 714	3.5650e-01	11.5184	37.870796	0.000141	1.413801	0.479009	-0.011293
 715	3.5700e-01	11.4719	37.709472	0.000404	4.039431	1.368596	-0.032265
 716	3.5750e-01	11.4398	37.584446	0.000313	3.130559	1.060662	-0.025005
 717	3.5800e-01	11.3949	37.580413	0.000010	0.100986	0.034215	-0.000807
 718	3.5850e-01	11.3548	37.245666	0.000838	8.381820	2.839837	-0.066949
 719	3.5900e-01	11.3082	37.314228	-0.000172	-1.716758	-0.581653	0.013713
 720	3.5950e-01	11.2745	37.165004	0.000374	3.736474	1.265952	-0.029845
 721	3.6000e-01	11.2344	36.842356	0.000808	8.078863	2.737193	-0.064530
 722	3.6050e-01	11.1927	36.967382	-0.000313	-3.130559	-1.060662	0.025005
 723	3.6100e-01	11.1526	36.789925	0.000444	4.443374	1.505456	-0.035491
 724	3.6150e-01	11.1077	36.729429	0.000151	1.514787	0.513224	-0.012099
 725	3.6200e-01	11.0756	36.519708	0.000525	5.251261	1.779175	-0.041944
 726	3.6250e-01	11.0355	36.398715	0.000303	3.029573	1.026447	-0.024199
 727	3.6300e-01	10.9922	36.285788	0.000283	2.827602	0.958017	-0.022585
 728	3.6350e-01	10.9601	36.164795	0.000303	3.029573	1.026447	-0.024199
 729	3.6400e-01	10.9040	36.160762	0.000010	0.100986	0.034215	-0.000807
 730	3.6450e-01	10.8703	36.104299	0.000141	1.413801	0.479009	-0.011293
 731	3.6500e-01	10.8254	35.934909	0.000424	4.241403	1.437026	-0.033878
 732	3.6550e-01	10.7981	35.789717	0.000364	3.635488	1.231737	-0.029038
 733	3.6600e-01	10.7532	35.491268	0.000747	7.472948	2.531903	-0.059690
 734	3.6650e-01	10.7115	35.608228	-0.000293	-2.928588	-0.992232	0.023392
 735	3.6700e-01	10.6698	35.692923	-0.000212	-2.120701	-0.718513	0.016939
 736	3.6750e-01	10.6361	35.402540	0.000727	7.270976	2.463473	-0.058077
 737	3.6800e-01	10.5944	35.329944	0.000182	1.817744	0.615868	-0.014519
 738	3.6850e-01	10.5510	35.035528	0.000737	7.371962	2.497688	-0.058883
 739	3.6900e-01	10.5093	35.047627	-0.000030	-0.302957	-0.102645	0.002420
 740	3.6950e-01	10.4837	34.938733	0.000273	2.726616	0.923803	-0.021779
 741	3.7000e-01	10.4323	34.801608	0.000343	3.433517	1.163307	-0.027425
 742	3.7050e-01	10.3938	34.914535	-0.000283	-2.827602	-0.958017	0.022585
 743	3.7100e-01	10.3473	34.737078	0.000444	4.443374	1.505456	-0.035491
 744	3.7150e-01	10.3136	34.386199	0.000879	8.785763	2.976697	-0.070176
 745	3.7200e-01	10.2767	34.394265	-0.000020	-0.201972	-0.068430	0.001613
 746	3.7250e-01	10.2318	34.241007	0.000384	3.837460	1.300167	-0.030652
 747	3.7300e-01	10.2029	34.132113	0.000273	2.726616	0.923803	-0.021779
 748	3.7350e-01	10.1516	33.825598	0.000767	7.674920	2.600333	-0.061303
 749	3.7400e-01	10.1195	33.825598	-0.000000	-0.000000	-0.000000	0.000000
 750	3.7450e-01	10.0730	33.869962	-0.000111	-1.110844	-0.376364	0.008873
 751	3.7500e-01	10.0329	33.543281	0.000818	8.179848	2.771408	-0.065336
 752	3.7550e-01	9.9928	33.502950	0.000101	1.009858	0.342149	-0.008066
 753	3.7600e-01	9.9591	33.418255	0.000212	2.120701	0.718513	-0.016939
 754	3.7650e-01	9.9174	33.458586	-0.000101	-1.009858	-0.342149	0.008066
 755	3.7700e-01	9.8757	33.127872	0.000828	8.280834	2.805623	-0.066143
 756	3.7750e-01	9.8323	32.982680	0.000364	3.635488	1.231737	-0.029038
 757	3.7800e-01	9.7906	33.176269	-0.000485	-4.847318	-1.642316	0.038718
 758	3.7850e-01	9.7585	32.897985	0.000697	6.968019	2.360829	-0.055657
 759	3.7900e-01	9.7152	32.583404	0.000788	7.876891	2.668763	-0.062916
 760	3.7950e-01	9.6655	32.530973	0.000131	1.312815	0.444794	-0.010486
 761	3.8000e-01	9.6334	32.591470	-0.000151	-1.514787	-0.513224	0.012099
 762	3.8050e-01	9.5933	32.430146	0.000404	4.039431	1.368596	-0.032265
 763	3.8100e-01	9.5532	32.361583	0.000172	1.716758	0.581653	-0.013713
 764	3.8150e-01	9.5163	32.494675	-0.000333	-3.332531	-1.129092	0.026618
 765	3.8200e-01	9.4730	32.337385	0.000394	3.938446	1.334381	-0.031458
 766	3.8250e-01	9.4345	32.071200	0.000667	6.665062	2.258184	-0.053237
 767	3.8300e-01	9.3928	32.172028	-0.000252	-2.524645	-0.855373	0.020165
 768	3.8350e-01	9.3495	31.934075	0.000596	5.958161	2.018680	-0.047591
 769	3.8400e-01	9.3094	31.934075	-0.000000	-0.000000	-0.000000	0.000000
 770	3.8450e-01	9.2709	31.938108	-0.000010	-0.100986	-0.034215	0.000807
 771	3.8500e-01	9.2308	31.772751	0.000414	4.140417	1.402811	-0.033071
 772	3.8550e-01	9.1874	31.276680	0.001242	12.421251	4.208434	-0.099214
 773	3.8600e-01	9.1489	31.264580	0.000030	0.302957	0.102645	-0.002420
 774	3.8650e-01	9.1120	31.030661	0.000586	5.857175	1.984465	-0.046784
 775	3.8700e-01	9.0751	30.812873	0.000545	5.453232	1.847605	-0.043557
 776	3.8750e-01	9.0286	30.744311	0.000172	1.716758	0.581653	-0.013713
 777	3.8800e-01	8.9949	30.958065	-0.000535	-5.352246	-1.813390	0.042751
 778	3.8850e-01	8.9500	30.599119	0.000899	8.987735	3.045127	-0.071789
 779	3.8900e-01	8.9131	30.736244	-0.000343	-3.433517	-1.163307	0.027425
 780	3.8950e-01	8.8650	30.655582	0.000202	2.019716	0.684298	-0.016132
 781	3.9000e-01	8.8361	30.240173	0.001040	10.401536	3.524136	-0.083082
 782	3.9050e-01	8.8040	30.224041	0.000040	0.403943	0.136860	-0.003226
 783	3.9100e-01	8.7447	30.127247	0.000242	2.423659	0.821158	-0.019359
 784	3.9150e-01	8.7094	29.812665	0.000788	7.876891	2.668763	-0.062916
 785	3.9200e-01	8.6709	29.784433	0.000071	0.706900	0.239504	-0.005646
 786	3.9250e-01	8.6340	29.840897	-0.000141	-1.413801	-0.479009	0.011293
 787	3.9300e-01	8.6051	29.554547	0.000717	7.169991	2.429259	-0.057270
 788	3.9350e-01	8.5538	29.288362	0.000667	6.665062	2.258184	-0.053237
 789	3.9400e-01	8.5089	29.510182	-0.000555	-5.554218	-1.881820	0.044364
 790	3.9450e-01	8.4639	29.304494	0.000515	5.150275	1.744960	-0.041138
 791	3.9500e-01	8.4286	29.078641	0.000566	5.655204	1.916035	-0.045171
 792	3.9550e-01	8.3950	29.042343	0.000091	0.908872	0.307934	-0.007260
 793	3.9600e-01	8.3468	28.885052	0.000394	3.938446	1.334381	-0.031458
 794	3.9650e-01	8.3163	28.534173	0.000879	8.785763	2.976697	-0.070176
 795	3.9700e-01	8.2746	28.618868	-0.000212	-2.120701	-0.718513	0.016939
 796	3.9750e-01	8.2329	28.267988	0.000879	8.785763	2.976697	-0.070176
 797	3.9800e-01	8.1848	28.622901	-0.000889	-8.886749	-3.010912	0.070983
 798	3.9850e-01	8.1495	28.526106	0.000242	2.423659	0.821158	-0.019359
 799	3.9900e-01	8.1174	28.505941	0.000050	0.504929	0.171075	-0.004033
 800	3.9950e-01	8.0757	28.042135	0.001161	11.613365	3.934715	-0.092761
 801	4.0000e-01	8.0292	27.909042	0.000333	3.332531	1.129092	-0.026618
 802	4.0050e-01	7.9907	27.723520	0.000465	4.645346	1.573886	-0.037105
 803	4.0100e-01	7.9522	27.800149	-0.000192	-1.918730	-0.650083	0.015326
 804	4.0150e-01	7.9121	27.554130	0.000616	6.160133	2.087109	-0.049204
 805	4.0200e-01	7.8784	27.372640	0.000454	4.544360	1.539671	-0.036298
 806	4.0250e-01	7.8254	27.324243	0.000121	1.211829	0.410579	-0.009679
 807	4.0300e-01	7.7886	27.255680	0.000172	1.716758	0.581653	-0.013713
 808	4.0350e-01	7.7549	27.074191	0.000454	4.544360	1.539671	-0.036298
 809	4.0400e-01	7.7132	26.957231	0.000293	2.928588	0.992232	-0.023392
 810	4.0450e-01	7.6763	27.094356	-0.000343	-3.433517	-1.163307	0.027425
 811	4.0500e-01	7.6233	26.941099	0.000384	3.837460	1.300167	-0.030652
 812	4.0550e-01	7.5880	26.719278	0.000555	5.554218	1.881820	-0.044364
 813	4.0600e-01	7.5591	26.715245	0.000010	0.100986	0.034215	-0.000807
 814	4.0650e-01	7.5126	26.541822	0.000434	4.342389	1.471241	-0.034685
 815	4.0700e-01	7.4677	26.352266	0.000475	4.746332	1.608101	-0.037911
 816	4.0750e-01	7.4372	26.287737	0.000162	1.615773	0.547439	-0.012906
 817	4.0800e-01	7.3939	26.142545	0.000364	3.635488	1.231737	-0.029038
 818	4.0850e-01	7.3554	26.069949	0.000182	1.817744	0.615868	-0.014519
 819	4.0900e-01	7.3137	25.827963	0.000606	6.059147	2.052895	-0.048397
 820	4.0950e-01	7.2784	25.831997	-0.000010	-0.100986	-0.034215	0.000807
 821	4.1000e-01	7.2351	25.481117	0.000879	8.785763	2.976697	-0.070176
 822	4.1050e-01	7.1966	25.485150	-0.000010	-0.100986	-0.034215	0.000807
 823	4.1100e-01	7.1469	25.396422	0.000222	2.221687	0.752728	-0.017746
 824	4.1150e-01	7.1180	25.210899	0.000465	4.645346	1.573886	-0.037105
 825	4.1200e-01	7.0682	25.045542	0.000414	4.140417	1.402811	-0.033071
 826	4.1250e-01	7.0281	25.130237	-0.000212	-2.120701	-0.718513	0.016939
 827	4.1300e-01	6.9945	24.847920	0.000707	7.069005	2.395044	-0.056463
 828	4.1350e-01	6.9576	24.674497	0.000434	4.342389	1.471241	-0.034685
 829	4.1400e-01	6.9094	24.476875	0.000495	4.948303	1.676531	-0.039524
 830	4.1450e-01	6.8709	24.581736	-0.000263	-2.625630	-0.889588	0.020972
 831	4.1500e-01	6.8356	24.416379	0.000414	4.140417	1.402811	-0.033071
 832	4.1550e-01	6.8068	24.206658	0.000525	5.251261	1.779175	-0.041944
 833	4.1600e-01	6.7522	24.097764	0.000273	2.726616	0.923803	-0.021779
 834	4.1650e-01	6.7137	24.121963	-0.000061	-0.605915	-0.205289	0.004840
 835	4.1700e-01	6.6752	23.779149	0.000858	8.583792	2.908267	-0.068563
 836	4.1750e-01	6.6239	23.888043	-0.000273	-2.726616	-0.923803	0.021779
 837	4.1800e-01	6.5982	23.537163	0.000879	8.785763	2.976697	-0.070176
 838	4.1850e-01	6.5533	23.383906	0.000384	3.837460	1.300167	-0.030652
 839	4.1900e-01	6.5052	23.468601	-0.000212	-2.120701	-0.718513	0.016939
 840	4.1950e-01	6.4667	22.992695	0.001192	11.916322	4.037359	-0.095181
 841	4.2000e-01	6.4266	23.149986	-0.000394	-3.938446	-1.334381	0.031458
 842	4.2050e-01	6.4025	22.839437	0.000778	7.775905	2.634548	-0.062110
 843	4.2100e-01	6.3544	22.843470	-0.000010	-0.100986	-0.034215	0.000807
 844	4.2150e-01	6.3127	22.698279	0.000364	3.635488	1.231737	-0.029038
 845	4.2200e-01	6.2806	22.504690	0.000485	4.847318	1.642316	-0.038718
 846	4.2250e-01	6.2373	22.569220	-0.000162	-1.615773	-0.547439	0.012906
 847	4.2300e-01	6.1923	22.299002	0.000677	6.766047	2.292399	-0.054044
 848	4.2350e-01	6.1603	22.266737	0.000081	0.807886	0.273719	-0.006453
 849	4.2400e-01	6.1089	22.339333	-0.000182	-1.817744	-0.615868	0.014519
 850	4.2450e-01	6.0768	22.073149	0.000667	6.665062	2.258184	-0.053237
 851	4.2500e-01	6.0287	21.948123	0.000313	3.130559	1.060662	-0.025005
 852	4.2550e-01	5.9966	21.681938	0.000667	6.665062	2.258184	-0.053237
 853	4.2600e-01	5.9533	21.633541	0.000121	1.211829	0.410579	-0.009679
 854	4.2650e-01	5.9180	21.585144	0.000121	1.211829	0.410579	-0.009679
 855	4.2700e-01	5.8731	21.254430	0.000828	8.280834	2.805623	-0.066143
 856	4.2750e-01	5.8458	21.089073	0.000414	4.140417	1.402811	-0.033071
 857	4.2800e-01	5.7945	21.137470	-0.000121	-1.211829	-0.410579	0.009679
 858	4.2850e-01	5.7624	21.250397	-0.000283	-2.827602	-0.958017	0.022585
 859	4.2900e-01	5.7079	21.133437	0.000293	2.928588	0.992232	-0.023392
 860	4.2950e-01	5.6694	20.673663	0.001151	11.512379	3.900500	-0.091955
 861	4.3000e-01	5.6276	20.609134	0.000162	1.615773	0.547439	-0.012906
 862	4.3050e-01	5.6004	20.427644	0.000454	4.544360	1.539671	-0.036298
 863	4.3100e-01	5.5522	20.383280	0.000111	1.110844	0.376364	-0.008873
 864	4.3150e-01	5.5186	20.044500	0.000848	8.482806	2.874052	-0.067756
 865	4.3200e-01	5.4736	19.959805	0.000212	2.120701	0.718513	-0.016939
 866	4.3250e-01	5.4335	19.786382	0.000434	4.342389	1.471241	-0.034685
 867	4.3300e-01	5.3950	19.838812	-0.000131	-1.312815	-0.444794	0.010486
 868	4.3350e-01	5.3581	19.911408	-0.000182	-1.817744	-0.615868	0.014519
 869	4.3400e-01	5.3100	19.681521	0.000576	5.756190	1.950250	-0.045977
 870	4.3450e-01	5.2779	19.625058	0.000141	1.413801	0.479009	-0.011293
 871	4.3500e-01	5.2314	19.217715	0.001020	10.199564	3.455706	-0.081469
 872	4.3550e-01	5.1865	19.201582	0.000040	0.403943	0.136860	-0.003226
 873	4.3600e-01	5.1512	18.963630	0.000596	5.958161	2.018680	-0.047591
 874	4.3650e-01	5.1175	18.907166	0.000141	1.413801	0.479009	-0.011293
 875	4.3700e-01	5.0742	18.786173	0.000303	3.029573	1.026447	-0.024199
 876	4.3750e-01	5.0229	18.814405	-0.000071	-0.706900	-0.239504	0.005646
 877	4.3800e-01	4.9940	18.568386	0.000616	6.160133	2.087109	-0.049204
 878	4.3850e-01	4.9475	18.419161	0.000374	3.736474	1.265952	-0.029845
 879	4.3900e-01	4.9186	18.261870	0.000394	3.938446	1.334381	-0.031458
 880	4.3950e-01	4.8849	17.951322	0.000778	7.775905	2.634548	-0.062110
 881	4.4000e-01	4.8384	17.818230	0.000333	3.332531	1.129092	-0.026618
 882	4.4050e-01	4.7999	18.076348	-0.000646	-6.463090	-2.189754	0.051624
 883	4.4100e-01	4.7517	17.822263	0.000636	6.362104	2.155539	-0.050817
 884	4.4150e-01	4.7100	17.693204	0.000323	3.231545	1.094877	-0.025812
 885	4.4200e-01	4.6667	17.624641	0.000172	1.716758	0.581653	-0.013713
 886	4.4250e-01	4.6234	17.523813	0.000252	2.524645	0.855373	-0.020165
 887	4.4300e-01	4.6009	17.189066	0.000838	8.381820	2.839837	-0.066949
 888	4.4350e-01	4.5480	17.257629	-0.000172	-1.716758	-0.581653	0.013713
 889	4.4400e-01	4.5111	16.955147	0.000757	7.573934	2.566118	-0.060496
 890	4.4450e-01	4.4758	16.805922	0.000374	3.736474	1.265952	-0.029845
 891	4.4500e-01	4.4341	16.725260	0.000202	2.019716	0.684298	-0.016132
 892	4.4550e-01	4.3892	16.624432	0.000252	2.524645	0.855373	-0.020165
 893	4.4600e-01	4.3507	16.390513	0.000586	5.857175	1.984465	-0.046784
 894	4.4650e-01	4.3154	16.325983	0.000162	1.615773	0.547439	-0.012906
 895	4.4700e-01	4.2705	16.358248	-0.000081	-0.807886	-0.273719	0.006453
 896	4.4750e-01	4.2352	16.160626	0.000495	4.948303	1.676531	-0.039524
 897	4.4800e-01	4.1935	15.854111	0.000767	7.674920	2.600333	-0.061303
 898	4.4850e-01	4.1566	15.672621	0.000454	4.544360	1.539671	-0.036298
 899	4.4900e-01	4.1116	15.587926	0.000212	2.120701	0.718513	-0.016939
 900	4.4950e-01	4.0667	15.547595	0.000101	1.009858	0.342149	-0.008066
 901	4.5000e-01	4.0330	15.390304	0.000394	3.938446	1.334381	-0.031458
 902	4.5050e-01	3.9994	15.071689	0.000798	7.977877	2.702978	-0.063723
 903	4.5100e-01	3.9480	14.906332	0.000414	4.140417	1.402811	-0.033071
 904	4.5150e-01	3.9095	14.914399	-0.000020	-0.201972	-0.068430	0.001613
 905	4.5200e-01	3.8678	14.805505	0.000273	2.726616	0.923803	-0.021779
 906	4.5250e-01	3.8325	14.615949	0.000475	4.746332	1.608101	-0.037911
 907	4.5300e-01	3.7988	14.507056	0.000273	2.726616	0.923803	-0.021779
 908	4.5350e-01	3.7443	14.438493	0.000172	1.716758	0.581653	-0.013713
 909	4.5400e-01	3.7010	14.156176	0.000707	7.069005	2.395044	-0.056463
 910	4.5450e-01	3.6785	14.019051	0.000343	3.433517	1.163307	-0.027425
 911	4.5500e-01	3.6304	13.768999	0.000626	6.261119	2.121324	-0.050010
 912	4.5550e-01	3.6047	13.986786	-0.000545	-5.453232	-1.847605	0.043557
 913	4.5600e-01	3.5470	13.708502	0.000697	6.968019	2.360829	-0.055657
 914	4.5650e-01	3.5117	13.482649	0.000566	5.655204	1.916035	-0.045171
 915	4.5700e-01	3.4828	13.434251	0.000121	1.211829	0.410579	-0.009679
 916	4.5750e-01	3.4234	13.168067	0.000667	6.665062	2.258184	-0.053237
 917	4.5800e-01	3.3865	13.188232	-0.000050	-0.504929	-0.171075	0.004033
 918	4.5850e-01	3.3561	13.014809	0.000434	4.342389	1.471241	-0.034685
 919	4.5900e-01	3.3111	13.014809	-0.000000	-0.000000	-0.000000	0.000000
 920	4.5950e-01	3.2710	12.740558	0.000687	6.867033	2.326614	-0.054850
 921	4.6000e-01	3.2406	12.635698	0.000263	2.625630	0.889588	-0.020972
 922	4.6050e-01	3.1956	12.434043	0.000505	5.049289	1.710745	-0.040331
 923	4.6100e-01	3.1459	12.425977	0.000020	0.201972	0.068430	-0.001613
 924	4.6150e-01	3.1122	12.179958	0.000616	6.160133	2.087109	-0.049204
 925	4.6200e-01	3.0673	12.083163	0.000242	2.423659	0.821158	-0.019359
 926	4.6250e-01	3.0384	12.046866	0.000091	0.908872	0.307934	-0.007260
 927	4.6300e-01	2.9935	11.587092	0.001151	11.512379	3.900500	-0.091955
 928	4.6350e-01	2.9518	11.607258	-0.000050	-0.504929	-0.171075	0.004033
 929	4.6400e-01	2.9165	11.449967	0.000394	3.938446	1.334381	-0.031458
 930	4.6450e-01	2.8780	11.365272	0.000212	2.120701	0.718513	-0.016939
 931	4.6500e-01	2.8347	11.212014	0.000384	3.837460	1.300167	-0.030652
 932	4.6550e-01	2.7898	11.062789	0.000374	3.736474	1.265952	-0.029845
 933	4.6600e-01	2.7577	10.933730	0.000323	3.231545	1.094877	-0.025812
 934	4.6650e-01	2.7095	10.877267	0.000141	1.413801	0.479009	-0.011293
 935	4.6700e-01	2.6678	10.772406	0.000263	2.625630	0.889588	-0.020972
 936	4.6750e-01	2.6293	10.643347	0.000323	3.231545	1.094877	-0.025812
 937	4.6800e-01	2.5956	10.445725	0.000495	4.948303	1.676531	-0.039524
 938	4.6850e-01	2.5588	10.276335	0.000424	4.241403	1.437026	-0.033878
 939	4.6900e-01	2.5106	10.183574	0.000232	2.322673	0.786943	-0.018552
 940	4.6950e-01	2.4785	9.889158	0.000737	7.371962	2.497688	-0.058883
 941	4.7000e-01	2.4432	9.719768	0.000424	4.241403	1.437026	-0.033878
 942	4.7050e-01	2.3935	9.550377	0.000424	4.241403	1.437026	-0.033878
 943	4.7100e-01	2.3534	9.558444	-0.000020	-0.201972	-0.068430	0.001613
 944	4.7150e-01	2.3165	9.223697	0.000838	8.381820	2.839837	-0.066949
 945	4.7200e-01	2.2748	9.102704	0.000303	3.029573	1.026447	-0.024199
 946	4.7250e-01	2.2347	9.054306	0.000121	1.211829	0.410579	-0.009679
 947	4.7300e-01	2.1930	8.691327	0.000909	9.088720	3.079342	-0.072596
 948	4.7350e-01	2.1545	8.707460	-0.000040	-0.403943	-0.136860	0.003226
 949	4.7400e-01	2.1176	8.570335	0.000343	3.433517	1.163307	-0.027425
 950	4.7450e-01	2.0727	8.461441	0.000273	2.726616	0.923803	-0.021779
 951	4.7500e-01	2.0229	8.368680	0.000232	2.322673	0.786943	-0.018552
 952	4.7550e-01	1.9957	8.255753	0.000283	2.827602	0.958017	-0.022585
 953	4.7600e-01	1.9427	8.175091	0.000202	2.019716	0.684298	-0.016132
 954	4.7650e-01	1.9138	7.993601	0.000454	4.544360	1.539671	-0.036298
 955	4.7700e-01	1.8673	7.723384	0.000677	6.766047	2.292399	-0.054044
 956	4.7750e-01	1.8256	7.626589	0.000242	2.423659	0.821158	-0.019359
 957	4.7800e-01	1.8032	7.259577	0.000919	9.189706	3.113557	-0.073402
 958	4.7850e-01	1.7534	7.025658	0.000586	5.857175	1.984465	-0.046784
 959	4.7900e-01	1.7117	6.981294	0.000111	1.110844	0.376364	-0.008873
 960	4.7950e-01	1.6700	7.037757	-0.000141	-1.413801	-0.479009	0.011293
 961	4.8000e-01	1.6315	6.791738	0.000616	6.160133	2.087109	-0.049204
 962	4.8050e-01	1.5930	6.525554	0.000667	6.665062	2.258184	-0.053237
 963	4.8100e-01	1.5577	6.315832	0.000525	5.251261	1.779175	-0.041944
 964	4.8150e-01	1.5128	6.279535	0.000091	0.908872	0.307934	-0.007260
 965	4.8200e-01	1.4711	6.376329	-0.000242	-2.423659	-0.821158	0.019359
 966	4.8250e-01	1.4342	6.110144	0.000667	6.665062	2.258184	-0.053237
 967	4.8300e-01	1.3925	5.880258	0.000576	5.756190	1.950250	-0.045977
 968	4.8350e-01	1.3540	5.698768	0.000454	4.544360	1.539671	-0.036298
 969	4.8400e-01	1.3107	5.569709	0.000323	3.231545	1.094877	-0.025812
 970	4.8450e-01	1.2641	5.489047	0.000202	2.019716	0.684298	-0.016132
 971	4.8500e-01	1.2256	5.307558	0.000454	4.544360	1.539671	-0.036298
 972	4.8550e-01	1.1968	5.206730	0.000252	2.524645	0.855373	-0.020165
 973	4.8600e-01	1.1534	5.017175	0.000475	4.746332	1.608101	-0.037911
 974	4.8650e-01	1.1101	4.944579	0.000182	1.817744	0.615868	-0.014519
 975	4.8700e-01	1.0732	4.799387	0.000364	3.635488	1.231737	-0.029038
 976	4.8750e-01	1.0347	4.589666	0.000525	5.251261	1.779175	-0.041944
 977	4.8800e-01	1.0010	4.383978	0.000515	5.150275	1.744960	-0.041138
 978	4.8850e-01	0.9513	4.025032	0.000899	8.987735	3.045127	-0.071789
 979	4.8900e-01	0.9064	3.940337	0.000212	2.120701	0.718513	-0.016939
 980	4.8950e-01	0.8775	3.706418	0.000586	5.857175	1.984465	-0.046784
 981	4.9000e-01	0.8310	3.706418	-0.000000	-0.000000	-0.000000	0.000000
 982	4.9050e-01	0.7909	3.383770	0.000808	8.078863	2.737193	-0.064530
 983	4.9100e-01	0.7588	3.577358	-0.000485	-4.847318	-1.642316	0.038718
 984	4.9150e-01	0.7043	3.367637	0.000525	5.251261	1.779175	-0.041944
 985	4.9200e-01	0.6706	3.157916	0.000525	5.251261	1.779175	-0.041944
 986	4.9250e-01	0.6305	3.012725	0.000364	3.635488	1.231737	-0.029038
 987	4.9300e-01	0.5920	2.827202	0.000465	4.645346	1.573886	-0.037105
 988	4.9350e-01	0.5454	2.887699	-0.000151	-1.514787	-0.513224	0.012099
 989	4.9400e-01	0.5085	2.605382	0.000707	7.069005	2.395044	-0.056463
 990	4.9450e-01	0.4765	2.395661	0.000525	5.251261	1.779175	-0.041944
 991	4.9500e-01	0.4315	2.153675	0.000606	6.059147	2.052895	-0.048397
 992	4.9550e-01	0.3946	1.923788	0.000576	5.756190	1.950250	-0.045977
 993	4.9600e-01	0.3529	2.016549	-0.000232	-2.322673	-0.786943	0.018552
 994	4.9650e-01	0.3144	1.923788	0.000232	2.322673	0.786943	-0.018552
 995	4.9700e-01	0.2711	1.645504	0.000697	6.968019	2.360829	-0.055657
 996	4.9750e-01	0.2374	1.589041	0.000141	1.413801	0.479009	-0.011293
 997	4.9800e-01	0.1925	1.298658	0.000727	7.270976	2.463473	-0.058077
 998	4.9850e-01	0.1540	1.181698	0.000293	2.928588	0.992232	-0.023392
 999	4.9900e-01	0.1107	1.024407	0.000394	3.938446	1.334381	-0.031458
1000	4.9950e-01	0.0754	0.818719	0.000515	5.150275	1.744960	-0.041138
1001	5.0000e-01	0.0353	0.375078	0.001111	11.108436	3.763640	-0.088728
1002	5.0050e-01	-0.0144	0.391211	-0.000040	-0.403943	-0.136860	0.003226
1003	5.0100e-01	-0.0401	0.492038	-0.000252	-2.524645	-0.855373	0.020165
1004	5.0150e-01	-0.0786	0.125026	0.000919	9.189706	3.113557	-0.073402
1005	5.0200e-01	-0.1219	0.165357	-0.000101	-1.009858	-0.342149	0.008066
1006	5.0250e-01	-0.1652	-0.048397	0.000535	5.352246	1.813390	-0.042751
1007	5.0300e-01	-0.1973	-0.076629	0.000071	0.706900	0.239504	-0.005646
1008	5.0350e-01	-0.2294	-0.524303	0.001121	11.209422	3.797855	-0.089535
1009	5.0400e-01	-0.2856	-0.709825	0.000465	4.645346	1.573886	-0.037105
1010	5.0450e-01	-0.3176	-0.838885	0.000323	3.231545	1.094877	-0.025812
1011	5.0500e-01	-0.3593	-1.161532	0.000808	8.078863	2.737193	-0.064530
1012	5.0550e-01	-0.4059	-1.076837	-0.000212	-2.120701	-0.718513	0.016939
1013	5.0600e-01	-0.4396	-1.141367	0.000162	1.615773	0.547439	-0.012906
1014	5.0650e-01	-0.4781	-1.560809	0.001050	10.502521	3.558351	-0.083888
1015	5.0700e-01	-0.5278	-1.552743	-0.000020	-0.201972	-0.068430	0.001613
1016	5.0750e-01	-0.5583	-1.701968	0.000374	3.736474	1.265952	-0.029845
1017	5.0800e-01	-0.5936	-1.782630	0.000202	2.019716	0.684298	-0.016132
1018	5.0850e-01	-0.6481	-1.976218	0.000485	4.847318	1.642316	-0.038718
1019	5.0900e-01	-0.6786	-2.282734	0.000767	7.674920	2.600333	-0.061303
1020	5.0950e-01	-0.7171	-2.423892	0.000353	3.534502	1.197522	-0.028232
1021	5.1000e-01	-0.7732	-2.516654	0.000232	2.322673	0.786943	-0.018552
1022	5.1050e-01	-0.8101	-2.730408	0.000535	5.352246	1.813390	-0.042751
1023	5.1100e-01	-0.8422	-2.811070	0.000202	2.019716	0.684298	-0.016132
1024	5.1150e-01	-0.8855	-2.843335	0.000081	0.807886	0.273719	-0.006453
1025	5.1200e-01	-0.9160	-3.028857	0.000465	4.645346	1.573886	-0.037105
1026	5.1250e-01	-0.9545	-3.291008	0.000656	6.564076	2.223969	-0.052430
1027	5.1300e-01	-1.0026	-3.407968	0.000293	2.928588	0.992232	-0.023392
1028	5.1350e-01	-1.0460	-3.666087	0.000646	6.463090	2.189754	-0.051624
1029	5.1400e-01	-1.0813	-3.710451	0.000111	1.110844	0.376364	-0.008873
1030	5.1450e-01	-1.1246	-3.754815	0.000111	1.110844	0.376364	-0.008873
1031	5.1500e-01	-1.1647	-4.012933	0.000646	6.463090	2.189754	-0.051624
1032	5.1550e-01	-1.1984	-4.319449	0.000767	7.674920	2.600333	-0.061303
1033	5.1600e-01	-1.2417	-4.460607	0.000353	3.534502	1.197522	-0.028232
1034	5.1650e-01	-1.2738	-4.585633	0.000313	3.130559	1.060662	-0.025005
1035	5.1700e-01	-1.3267	-4.795354	0.000525	5.251261	1.779175	-0.041944
1036	5.1750e-01	-1.3524	-5.061539	0.000667	6.665062	2.258184	-0.053237
1037	5.1800e-01	-1.4005	-5.238995	0.000444	4.443374	1.505456	-0.035491
1038	5.1850e-01	-1.4422	-5.182532	-0.000141	-1.413801	-0.479009	0.011293
1039	5.1900e-01	-1.4775	-5.303525	0.000303	3.029573	1.026447	-0.024199
1040	5.1950e-01	-1.5192	-5.638272	0.000838	8.381820	2.839837	-0.066949
1041	5.2000e-01	-1.5657	-5.718934	0.000202	2.019716	0.684298	-0.016132
1042	5.2050e-01	-1.6058	-5.807662	0.000222	2.221687	0.752728	-0.017746
1043	5.2100e-01	-1.6411	-5.864125	0.000141	1.413801	0.479009	-0.011293
1044	5.2150e-01	-1.6780	-6.073846	0.000525	5.251261	1.779175	-0.041944
1045	5.2200e-01	-1.7246	-6.085946	0.000030	0.302957	0.102645	-0.002420
1046	5.2250e-01	-1.7598	-6.396494	0.000778	7.775905	2.634548	-0.062110
1047	5.2300e-01	-1.7983	-6.650580	0.000636	6.362104	2.155539	-0.050817
1048	5.2350e-01	-1.8385	-6.610249	-0.000101	-1.009858	-0.342149	0.008066
1049	5.2400e-01	-1.8866	-6.860301	0.000626	6.261119	2.121324	-0.050010
1050	5.2450e-01	-1.9203	-7.078088	0.000545	5.453232	1.847605	-0.043557
1051	5.2500e-01	-1.9620	-7.356372	0.000697	6.968019	2.360829	-0.055657
1052	5.2550e-01	-2.0037	-7.453166	0.000242	2.423659	0.821158	-0.019359
1053	5.2600e-01	-2.0518	-7.485431	0.000081	0.807886	0.273719	-0.006453
1054	5.2650e-01	-2.0775	-7.582225	0.000242	2.423659	0.821158	-0.019359
1055	5.2700e-01	-2.1224	-7.953270	0.000929	9.290692	3.147772	-0.074209
1056	5.2750e-01	-2.1705	-7.840344	-0.000283	-2.827602	-0.958017	0.022585
1057	5.2800e-01	-2.2026	-8.288018	0.001121	11.209422	3.797855	-0.089535
1058	5.2850e-01	-2.2363	-8.316249	0.000071	0.706900	0.239504	-0.005646
1059	5.2900e-01	-2.2764	-8.763923	0.001121	11.209422	3.797855	-0.089535
1060	5.2950e-01	-2.3165	-8.650997	-0.000283	-2.827602	-0.958017	0.022585
1061	5.3000e-01	-2.3678	-8.562268	-0.000222	-2.221687	-0.752728	0.017746
1062	5.3050e-01	-2.3951	-8.897016	0.000838	8.381820	2.839837	-0.066949
1063	5.3100e-01	-2.4352	-9.062373	0.000414	4.140417	1.402811	-0.033071
1064	5.3150e-01	-2.4801	-9.155134	0.000232	2.322673	0.786943	-0.018552
1065	5.3200e-01	-2.5202	-9.489881	0.000838	8.381820	2.839837	-0.066949
1066	5.3250e-01	-2.5555	-9.622973	0.000333	3.332531	1.129092	-0.026618
1067	5.3300e-01	-2.5973	-9.663304	0.000101	1.009858	0.342149	-0.008066
1068	5.3350e-01	-2.6486	-9.776231	0.000283	2.827602	0.958017	-0.022585
1069	5.3400e-01	-2.6694	-9.969820	0.000485	4.847318	1.642316	-0.038718
1070	5.3450e-01	-2.7208	-9.925456	-0.000111	-1.110844	-0.376364	0.008873
1071	5.3500e-01	-2.7577	-10.236004	0.000778	7.775905	2.634548	-0.062110
1072	5.3550e-01	-2.8058	-10.244070	0.000020	0.201972	0.068430	-0.001613
1073	5.3600e-01	-2.8395	-10.534454	0.000727	7.270976	2.463473	-0.058077
1074	5.3650e-01	-2.8860	-10.663513	0.000323	3.231545	1.094877	-0.025812
1075	5.3700e-01	-2.9197	-10.784506	0.000303	3.029573	1.026447	-0.024199
1076	5.3750e-01	-2.9630	-11.014392	0.000576	5.756190	1.950250	-0.045977
1077	5.3800e-01	-3.0015	-11.199915	0.000465	4.645346	1.573886	-0.037105
1078	5.3850e-01	-3.0352	-11.236213	0.000091	0.908872	0.307934	-0.007260
1079	5.3900e-01	-3.0785	-11.337040	0.000252	2.524645	0.855373	-0.020165
1080	5.3950e-01	-3.1202	-11.619357	0.000707	7.069005	2.395044	-0.056463
1081	5.4000e-01	-3.1555	-11.655655	0.000091	0.908872	0.307934	-0.007260
1082	5.4050e-01	-3.2004	-11.768582	0.000283	2.827602	0.958017	-0.022585
1083	5.4100e-01	-3.2357	-11.816979	0.000121	1.211829	0.410579	-0.009679
1084	5.4150e-01	-3.2807	-12.220289	0.001010	10.098578	3.421491	-0.080662
1085	5.4200e-01	-3.3127	-12.373547	0.000384	3.837460	1.300167	-0.030652
1086	5.4250e-01	-3.3577	-12.333216	-0.000101	-1.009858	-0.342149	0.008066
1087	5.4300e-01	-3.4026	-12.313050	-0.000050	-0.504929	-0.171075	0.004033
1088	5.4350e-01	-3.4347	-12.821220	0.001272	12.724209	4.311079	-0.101634
1089	5.4400e-01	-3.4812	-12.990611	0.000424	4.241403	1.437026	-0.033878
1090	5.4450e-01	-3.5341	-12.821220	-0.000424	-4.241403	-1.437026	0.033878
1091	5.4500e-01	-3.5598	-12.958346	0.000343	3.433517	1.163307	-0.027425
1092	5.4550e-01	-3.6015	-13.240663	0.000707	7.069005	2.395044	-0.056463
1093	5.4600e-01	-3.6400	-13.490715	0.000626	6.261119	2.121324	-0.050010
1094	5.4650e-01	-3.6769	-13.438285	-0.000131	-1.312815	-0.444794	0.010486
1095	5.4700e-01	-3.7170	-13.615741	0.000444	4.443374	1.505456	-0.035491
1096	5.4750e-01	-3.7571	-13.708502	0.000232	2.322673	0.786943	-0.018552
1097	5.4800e-01	-3.8036	-13.825462	0.000293	2.928588	0.992232	-0.023392
1098	5.4850e-01	-3.8421	-13.974687	0.000374	3.736474	1.265952	-0.029845
1099	5.4900e-01	-3.8758	-14.216673	0.000606	6.059147	2.052895	-0.048397
1100	5.4950e-01	-3.9159	-14.261037	0.000111	1.110844	0.376364	-0.008873
1101	5.5000e-01	-3.9641	-14.619982	0.000899	8.987735	3.045127	-0.071789
1102	5.5050e-01	-4.0042	-14.684512	0.000162	1.615773	0.547439	-0.012906
1103	5.5100e-01	-4.0362	-14.986994	0.000757	7.573934	2.566118	-0.060496
1104	5.5150e-01	-4.0812	-14.938597	-0.000121	-1.211829	-0.410579	0.009679
1105	5.5200e-01	-4.1229	-14.926498	-0.000030	-0.302957	-0.102645	0.002420
1106	5.5250e-01	-4.1662	-15.216881	0.000727	7.270976	2.463473	-0.058077
1107	5.5300e-01	-4.2063	-15.341907	0.000313	3.130559	1.060662	-0.025005
1108	5.5350e-01	-4.2432	-15.366106	0.000061	0.605915	0.205289	-0.004840
1109	5.5400e-01	-4.2849	-15.591959	0.000566	5.655204	1.916035	-0.045171
1110	5.5450e-01	-4.3266	-15.684720	0.000232	2.322673	0.786943	-0.018552
1111	5.5500e-01	-4.3555	-15.878309	0.000485	4.847318	1.642316	-0.038718
1112	5.5550e-01	-4.3956	-16.217089	0.000848	8.482806	2.874052	-0.067756
1113	5.5600e-01	-4.4453	-15.930739	-0.000717	-7.169991	-2.429259	0.057270
1114	5.5650e-01	-4.4758	-16.317917	0.000969	9.694635	3.284631	-0.077435
1115	5.5700e-01	-4.5191	-16.503439	0.000465	4.645346	1.573886	-0.037105
1116	5.5750e-01	-4.5624	-16.741392	0.000596	5.958161	2.018680	-0.047591
1117	5.5800e-01	-4.5993	-16.676863	-0.000162	-1.615773	-0.547439	0.012906
1118	5.5850e-01	-4.6410	-17.007577	0.000828	8.280834	2.805623	-0.066143
1119	5.5900e-01	-4.6908	-17.064040	0.000141	1.413801	0.479009	-0.011293
1120	5.5950e-01	-4.7213	-17.197132	0.000333	3.332531	1.129092	-0.026618
1121	5.6000e-01	-4.7598	-17.354423	0.000394	3.938446	1.334381	-0.031458
1122	5.6050e-01	-4.7951	-17.366523	0.000030	0.302957	0.102645	-0.002420
1123	5.6100e-01	-4.8448	-17.358456	-0.000020	-0.201972	-0.068430	0.001613
1124	5.6150e-01	-4.8769	-17.483482	0.000313	3.130559	1.060662	-0.025005
1125	5.6200e-01	-4.9170	-17.846461	0.000909	9.088720	3.079342	-0.072596
1126	5.6250e-01	-4.9667	-17.874693	0.000071	0.706900	0.239504	-0.005646
1127	5.6300e-01	-5.0084	-17.919057	0.000111	1.110844	0.376364	-0.008873
1128	5.6350e-01	-5.0373	-18.088447	0.000424	4.241403	1.437026	-0.033878
1129	5.6400e-01	-5.0822	-18.068282	-0.000050	-0.504929	-0.171075	0.004033
1130	5.6450e-01	-5.1191	-18.568386	0.001252	12.522237	4.242649	-0.100021
1131	5.6500e-01	-5.1608	-18.382863	-0.000465	-4.645346	-1.573886	0.037105
1132	5.6550e-01	-5.2025	-18.620816	0.000596	5.958161	2.018680	-0.047591
1133	5.6600e-01	-5.2442	-18.681313	0.000151	1.514787	0.513224	-0.012099
1134	5.6650e-01	-5.2843	-18.830537	0.000374	3.736474	1.265952	-0.029845
1135	5.6700e-01	-5.3148	-18.802306	-0.000071	-0.706900	-0.239504	0.005646
1136	5.6750e-01	-5.3613	-19.145119	0.000858	8.583792	2.908267	-0.068563
1137	5.6800e-01	-5.4047	-19.395171	0.000626	6.261119	2.121324	-0.050010
1138	5.6850e-01	-5.4400	-19.383072	-0.000030	-0.302957	-0.102645	0.002420
1139	5.6900e-01	-5.4865	-19.455668	0.000182	1.817744	0.615868	-0.014519
1140	5.6950e-01	-5.5234	-19.721852	0.000667	6.665062	2.258184	-0.053237
1141	5.7000e-01	-5.5619	-19.879143	0.000394	3.938446	1.334381	-0.031458
1142	5.7050e-01	-5.5940	-19.899309	0.000050	0.504929	0.171075	-0.004033
1143	5.7100e-01	-5.6421	-20.032401	0.000333	3.332531	1.129092	-0.026618
1144	5.7150e-01	-5.6854	-20.290519	0.000646	6.463090	2.189754	-0.051624
1145	5.7200e-01	-5.7351	-20.169526	-0.000303	-3.029573	-1.026447	0.024199
1146	5.7250e-01	-5.7656	-20.294552	0.000313	3.130559	1.060662	-0.025005
1147	5.7300e-01	-5.8025	-20.439744	0.000364	3.635488	1.231737	-0.029038
1148	5.7350e-01	-5.8490	-20.730127	0.000727	7.270976	2.463473	-0.058077
1149	5.7400e-01	-5.8827	-20.907583	0.000444	4.443374	1.505456	-0.035491
1150	5.7450e-01	-5.9212	-21.068907	0.000404	4.039431	1.368596	-0.032265
1151	5.7500e-01	-5.9581	-21.149569	0.000202	2.019716	0.684298	-0.016132
1152	5.7550e-01	-6.0046	-21.226198	0.000192	1.918730	0.650083	-0.015326
1153	5.7600e-01	-6.0415	-21.359290	0.000333	3.332531	1.129092	-0.026618
1154	5.7650e-01	-6.0784	-21.504482	0.000364	3.635488	1.231737	-0.029038
1155	5.7700e-01	-6.1201	-21.597243	0.000232	2.322673	0.786943	-0.018552
1156	5.7750e-01	-6.1570	-21.593210	-0.000010	-0.100986	-0.034215	0.000807
1157	5.7800e-01	-6.2036	-21.815030	0.000555	5.554218	1.881820	-0.044364
1158	5.7850e-01	-6.2389	-21.907792	0.000232	2.322673	0.786943	-0.018552
1159	5.7900e-01	-6.2838	-22.061049	0.000384	3.837460	1.300167	-0.030652
1160	5.7950e-01	-6.3255	-22.343366	0.000707	7.069005	2.395044	-0.056463
1161	5.8000e-01	-6.3672	-22.690213	0.000868	8.684777	2.942482	-0.069369
1162	5.8050e-01	-6.4073	-22.496624	-0.000485	-4.847318	-1.642316	0.038718
1163	5.8100e-01	-6.4442	-22.899934	0.001010	10.098578	3.421491	-0.080662
1164	5.8150e-01	-6.4747	-22.879768	-0.000050	-0.504929	-0.171075	0.004033
1165	5.8200e-01	-6.5212	-22.903967	0.000061	0.605915	0.205289	-0.004840
1166	5.8250e-01	-6.5565	-22.972530	0.000172	1.716758	0.581653	-0.013713
1167	5.8300e-01	-6.6046	-23.214516	0.000606	6.059147	2.052895	-0.048397
1168	5.8350e-01	-6.6287	-23.299211	0.000212	2.120701	0.718513	-0.016939
1169	5.8400e-01	-6.6864	-23.319376	0.000050	0.504929	0.171075	-0.004033
1170	5.8450e-01	-6.7217	-23.444402	0.000313	3.130559	1.060662	-0.025005
1171	5.8500e-01	-6.7602	-23.504899	0.000151	1.514787	0.513224	-0.012099
1172	5.8550e-01	-6.7939	-23.738818	0.000586	5.857175	1.984465	-0.046784
1173	5.8600e-01	-6.8372	-23.682355	-0.000141	-1.413801	-0.479009	0.011293
1174	5.8650e-01	-6.8806	-23.944506	0.000656	6.564076	2.223969	-0.052430
1175	5.8700e-01	-6.9239	-23.904175	-0.000101	-1.009858	-0.342149	0.008066
1176	5.8750e-01	-6.9640	-24.121963	0.000545	5.453232	1.847605	-0.043557
1177	5.8800e-01	-7.0057	-24.400247	0.000697	6.968019	2.360829	-0.055657
1178	5.8850e-01	-7.0394	-24.488975	0.000222	2.221687	0.752728	-0.017746
1179	5.8900e-01	-7.0779	-24.529306	0.000101	1.009858	0.342149	-0.008066
1180	5.8950e-01	-7.1212	-24.763225	0.000586	5.857175	1.984465	-0.046784
1181	5.9000e-01	-7.1629	-24.763225	-0.000000	-0.000000	-0.000000	0.000000
1182	5.9050e-01	-7.1886	-24.892285	0.000323	3.231545	1.094877	-0.025812
1183	5.9100e-01	-7.2383	-25.142337	0.000626	6.261119	2.121324	-0.050010
1184	5.9150e-01	-7.2816	-25.093940	-0.000121	-1.211829	-0.410579	0.009679
1185	5.9200e-01	-7.3169	-25.198800	0.000263	2.625630	0.889588	-0.020972
1186	5.9250e-01	-7.3554	-25.364157	0.000414	4.140417	1.402811	-0.033071
1187	5.9300e-01	-7.4019	-25.368190	0.000010	0.100986	0.034215	-0.000807
1188	5.9350e-01	-7.4452	-25.638408	0.000677	6.766047	2.292399	-0.054044
1189	5.9400e-01	-7.4789	-25.827963	0.000475	4.746332	1.608101	-0.037911
1190	5.9450e-01	-7.5222	-25.840063	0.000030	0.302957	0.102645	-0.002420
1191	5.9500e-01	-7.5607	-26.106247	0.000667	6.665062	2.258184	-0.053237
1192	5.9550e-01	-7.5993	-26.203042	0.000242	2.423659	0.821158	-0.019359
1193	5.9600e-01	-7.6426	-26.057850	-0.000364	-3.635488	-1.231737	0.029038
1194	5.9650e-01	-7.6763	-26.203042	0.000364	3.635488	1.231737	-0.029038
1195	5.9700e-01	-7.7180	-26.315968	0.000283	2.827602	0.958017	-0.022585
1196	5.9750e-01	-7.7661	-26.473259	0.000394	3.938446	1.334381	-0.031458
1197	5.9800e-01	-7.8110	-26.533756	0.000151	1.514787	0.513224	-0.012099
1198	5.9850e-01	-7.8431	-26.598285	0.000162	1.615773	0.547439	-0.012906
1199	5.9900e-01	-7.8880	-26.868503	0.000677	6.766047	2.292399	-0.054044
1200	5.9950e-01	-7.9217	-27.215349	0.000868	8.684777	2.942482	-0.069369
1201	6.0000e-01	-7.9586	-27.102423	-0.000283	-2.827602	-0.958017	0.022585
1202	6.0050e-01	-7.9987	-27.283912	0.000454	4.544360	1.539671	-0.036298
1203	6.0100e-01	-8.0420	-27.235515	-0.000121	-1.211829	-0.410579	0.009679
1204	6.0150e-01	-8.0853	-27.425070	0.000475	4.746332	1.608101	-0.037911
1205	6.0200e-01	-8.1319	-27.320210	-0.000263	-2.625630	-0.889588	0.020972
1206	6.0250e-01	-8.1591	-27.763851	0.001111	11.108436	3.763640	-0.088728
1207	6.0300e-01	-8.2089	-27.949373	0.000465	4.645346	1.573886	-0.037105
1208	6.0350e-01	-8.2329	-28.058267	0.000273	2.726616	0.923803	-0.021779
1209	6.0400e-01	-8.2778	-28.284120	0.000566	5.655204	1.916035	-0.045171
1210	6.0450e-01	-8.3244	-28.272021	-0.000030	-0.302957	-0.102645	0.002420
1211	6.0500e-01	-8.3661	-28.134896	-0.000343	-3.433517	-1.163307	0.027425
1212	6.0550e-01	-8.3982	-28.336551	0.000505	5.049289	1.710745	-0.040331
1213	6.0600e-01	-8.4431	-28.445444	0.000273	2.726616	0.923803	-0.021779
1214	6.0650e-01	-8.4784	-28.691463	0.000616	6.160133	2.087109	-0.049204
1215	6.0700e-01	-8.5121	-28.643066	-0.000121	-1.211829	-0.410579	0.009679
1216	6.0750e-01	-8.5538	-28.909251	0.000667	6.665062	2.258184	-0.053237
1217	6.0800e-01	-8.6019	-29.082674	0.000434	4.342389	1.471241	-0.034685
1218	6.0850e-01	-8.6308	-29.223832	0.000353	3.534502	1.197522	-0.028232
1219	6.0900e-01	-8.6789	-29.143171	-0.000202	-2.019716	-0.684298	0.016132
1220	6.0950e-01	-8.7206	-29.284329	0.000353	3.534502	1.197522	-0.028232
1221	6.1000e-01	-8.7591	-29.425487	0.000353	3.534502	1.197522	-0.028232
1222	6.1050e-01	-8.7976	-29.494050	0.000172	1.716758	0.581653	-0.013713
1223	6.1100e-01	-8.8441	-29.647308	0.000384	3.837460	1.300167	-0.030652
1224	6.1150e-01	-8.8826	-29.824764	0.000444	4.443374	1.505456	-0.035491
1225	6.1200e-01	-8.9131	-29.941724	0.000293	2.928588	0.992232	-0.023392
1226	6.1250e-01	-8.9645	-30.111114	0.000424	4.241403	1.437026	-0.033878
1227	6.1300e-01	-8.9965	-30.207909	0.000242	2.423659	0.821158	-0.019359
1228	6.1350e-01	-9.0366	-30.248240	0.000101	1.009858	0.342149	-0.008066
1229	6.1400e-01	-9.0784	-30.591053	0.000858	8.583792	2.908267	-0.068563
1230	6.1450e-01	-9.1153	-30.582987	-0.000020	-0.201972	-0.068430	0.001613
1231	6.1500e-01	-9.1650	-30.280504	-0.000757	-7.573934	-2.566118	0.060496
1232	6.1550e-01	-9.2019	-30.591053	0.000778	7.775905	2.634548	-0.062110
1233	6.1600e-01	-9.2356	-30.691880	0.000252	2.524645	0.855373	-0.020165
1234	6.1650e-01	-9.2821	-30.679781	-0.000030	-0.302957	-0.102645	0.002420
1235	6.1700e-01	-9.3222	-31.095190	0.001040	10.401536	3.524136	-0.083082
1236	6.1750e-01	-9.3543	-31.200051	0.000263	2.625630	0.889588	-0.020972
1237	6.1800e-01	-9.3976	-31.413805	0.000535	5.352246	1.813390	-0.042751
1238	6.1850e-01	-9.4409	-31.470268	0.000141	1.413801	0.479009	-0.011293
1239	6.1900e-01	-9.4746	-31.462202	-0.000020	-0.201972	-0.068430	0.001613
1240	6.1950e-01	-9.5195	-31.522699	0.000151	1.514787	0.513224	-0.012099
1241	6.2000e-01	-9.5612	-31.712254	0.000475	4.746332	1.608101	-0.037911
1242	6.2050e-01	-9.6078	-31.849380	0.000343	3.433517	1.163307	-0.027425
1243	6.2100e-01	-9.6446	-32.288987	0.001101	11.007450	3.729425	-0.087922
1244	6.2150e-01	-9.6799	-32.107498	-0.000454	-4.544360	-1.539671	0.036298
1245	6.2200e-01	-9.7217	-32.377716	0.000677	6.766047	2.292399	-0.054044
1246	6.2250e-01	-9.7602	-32.345451	-0.000081	-0.807886	-0.273719	0.006453
1247	6.2300e-01	-9.8051	-32.333351	-0.000030	-0.302957	-0.102645	0.002420
1248	6.2350e-01	-9.8452	-32.647933	0.000788	7.876891	2.668763	-0.062916
1249	6.2400e-01	-9.8837	-32.651966	0.000010	0.100986	0.034215	-0.000807
1250	6.2450e-01	-9.9222	-32.744728	0.000232	2.322673	0.786943	-0.018552
1251	6.2500e-01	-9.9559	-33.010912	0.000667	6.665062	2.258184	-0.053237
1252	6.2550e-01	-10.0024	-32.841522	-0.000424	-4.241403	-1.437026	0.033878
1253	6.2600e-01	-10.0393	-33.127872	0.000717	7.169991	2.429259	-0.057270
1254	6.2650e-01	-10.0666	-33.260964	0.000333	3.332531	1.129092	-0.026618
1255	6.2700e-01	-10.1131	-33.474718	0.000535	5.352246	1.813390	-0.042751
1256	6.2750e-01	-10.1468	-33.385990	-0.000222	-2.221687	-0.752728	0.017746
1257	6.2800e-01	-10.2061	-33.486818	0.000252	2.524645	0.855373	-0.020165
1258	6.2850e-01	-10.2398	-33.482785	-0.000010	-0.100986	-0.034215	0.000807
1259	6.2900e-01	-10.2703	-33.720737	0.000596	5.958161	2.018680	-0.047591
1260	6.2950e-01	-10.3200	-33.958690	0.000596	5.958161	2.018680	-0.047591
1261	6.3000e-01	-10.3585	-33.873995	-0.000212	-2.120701	-0.718513	0.016939
1262	6.3050e-01	-10.4034	-34.019187	0.000364	3.635488	1.231737	-0.029038
1263	6.3100e-01	-10.4420	-34.051451	0.000081	0.807886	0.273719	-0.006453
1264	6.3150e-01	-10.4788	-34.257140	0.000515	5.150275	1.744960	-0.041138
1265	6.3200e-01	-10.5254	-34.616085	0.000899	8.987735	3.045127	-0.071789
1266	6.3250e-01	-10.5607	-34.599953	-0.000040	-0.403943	-0.136860	0.003226
1267	6.3300e-01	-10.6040	-34.684648	0.000212	2.120701	0.718513	-0.016939
1268	6.3350e-01	-10.6473	-34.652383	-0.000081	-0.807886	-0.273719	0.006453
1269	6.3400e-01	-10.6826	-34.684648	0.000081	0.807886	0.273719	-0.006453
1270	6.3450e-01	-10.7195	-34.886303	0.000505	5.049289	1.710745	-0.040331
1271	6.3500e-01	-10.7564	-35.128289	0.000606	6.059147	2.052895	-0.048397
1272	6.3550e-01	-10.7949	-35.217017	0.000222	2.221687	0.752728	-0.017746
1273	6.3600e-01	-10.8462	-35.200885	-0.000040	-0.403943	-0.136860	0.003226
1274	6.3650e-01	-10.8799	-35.184752	-0.000040	-0.403943	-0.136860	0.003226
1275	6.3700e-01	-10.9280	-35.507400	0.000808	8.078863	2.737193	-0.064530
1276	6.3750e-01	-10.9633	-35.551764	0.000111	1.110844	0.376364	-0.008873
1277	6.3800e-01	-11.0050	-35.652592	0.000252	2.524645	0.855373	-0.020165
1278	6.3850e-01	-11.0387	-35.801816	0.000374	3.736474	1.265952	-0.029845
1279	6.3900e-01	-11.0724	-35.926842	0.000313	3.130559	1.060662	-0.025005
1280	6.3950e-01	-11.1221	-35.947008	0.000050	0.504929	0.171075	-0.004033
1281	6.4000e-01	-11.1623	-36.051868	0.000263	2.625630	0.889588	-0.020972
1282	6.4050e-01	-11.2040	-36.475344	0.001060	10.603507	3.592565	-0.084695
1283	6.4100e-01	-11.2328	-36.414847	-0.000151	-1.514787	-0.513224	0.012099
1284	6.4150e-01	-11.2874	-36.362417	-0.000131	-1.312815	-0.444794	0.010486
1285	6.4200e-01	-11.3211	-36.414847	0.000131	1.312815	0.444794	-0.010486
1286	6.4250e-01	-11.3580	-36.309987	-0.000263	-2.625630	-0.889588	0.020972
1287	6.4300e-01	-11.4077	-36.749594	0.001101	11.007450	3.729425	-0.087922
1288	6.4350e-01	-11.4462	-36.834290	0.000212	2.120701	0.718513	-0.016939
1289	6.4400e-01	-11.4847	-36.685065	-0.000374	-3.736474	-1.265952	0.029845
1290	6.4450e-01	-11.5200	-37.112573	0.001070	10.704493	3.626780	-0.085502
1291	6.4500e-01	-11.5633	-37.209368	0.000242	2.423659	0.821158	-0.019359
1292	6.4550e-01	-11.5922	-37.290030	0.000202	2.019716	0.684298	-0.016132
1293	6.4600e-01	-11.6371	-37.564280	0.000687	6.867033	2.326614	-0.054850
1294	6.4650e-01	-11.6788	-37.725604	0.000404	4.039431	1.368596	-0.032265
1295	6.4700e-01	-11.7205	-37.757869	0.000081	0.807886	0.273719	-0.006453
1296	6.4750e-01	-11.7526	-37.612678	-0.000364	-3.635488	-1.231737	0.029038
1297	6.4800e-01	-11.8007	-37.862730	0.000626	6.261119	2.121324	-0.050010
1298	6.4850e-01	-11.8392	-38.136980	0.000687	6.867033	2.326614	-0.054850
1299	6.4900e-01	-11.8793	-38.108749	-0.000071	-0.706900	-0.239504	0.005646
1300	6.4950e-01	-11.9323	-38.229742	0.000303	3.029573	1.026447	-0.024199
1301	6.5000e-01	-11.9547	-38.270073	0.000101	1.009858	0.342149	-0.008066
1302	6.5050e-01	-11.9916	-38.411231	0.000353	3.534502	1.197522	-0.028232
1303	6.5100e-01	-12.0366	-38.342668	-0.000172	-1.716758	-0.581653	0.013713
1304	6.5150e-01	-12.0863	-38.693548	0.000879	8.785763	2.976697	-0.070176
1305	6.5200e-01	-12.1232	-38.943600	0.000626	6.261119	2.121324	-0.050010
1306	6.5250e-01	-12.1569	-38.963766	0.000050	0.504929	0.171075	-0.004033
1307	6.5300e-01	-12.2066	-38.883104	-0.000202	-2.019716	-0.684298	0.016132
1308	6.5350e-01	-12.2387	-38.725813	-0.000394	-3.938446	-1.334381	0.031458
1309	6.5400e-01	-12.2836	-38.745978	0.000050	0.504929	0.171075	-0.004033
1310	6.5450e-01	-12.3109	-39.233983	0.001222	12.219280	4.140004	-0.097601
1311	6.5500e-01	-12.3622	-39.455804	0.000555	5.554218	1.881820	-0.044364
1312	6.5550e-01	-12.3991	-39.568730	0.000283	2.827602	0.958017	-0.022585
1313	6.5600e-01	-12.4472	-39.548565	-0.000050	-0.504929	-0.171075	0.004033
1314	6.5650e-01	-12.4841	-39.738121	0.000475	4.746332	1.608101	-0.037911
1315	6.5700e-01	-12.5258	-39.863147	0.000313	3.130559	1.060662	-0.025005
1316	6.5750e-01	-12.5644	-39.516300	-0.000868	-8.684777	-2.942482	0.069369
1317	6.5800e-01	-12.5964	-39.818783	0.000757	7.573934	2.566118	-0.060496
1318	6.5850e-01	-12.6317	-40.000272	0.000454	4.544360	1.539671	-0.036298
1319	6.5900e-01	-12.6863	-39.980106	-0.000050	-0.504929	-0.171075	0.004033
1320	6.5950e-01	-12.7151	-40.294688	0.000788	7.876891	2.668763	-0.062916
1321	6.6000e-01	-12.7617	-40.157563	-0.000343	-3.433517	-1.163307	0.027425
1322	6.6050e-01	-12.7905	-40.347118	0.000475	4.746332	1.608101	-0.037911
1323	6.6100e-01	-12.8483	-40.395516	0.000121	1.211829	0.410579	-0.009679
1324	6.6150e-01	-12.8804	-40.859322	0.001161	11.613365	3.934715	-0.092761
1325	6.6200e-01	-12.9189	-40.706064	-0.000384	-3.837460	-1.300167	0.030652
1326	6.6250e-01	-12.9622	-40.738329	0.000081	0.807886	0.273719	-0.006453
1327	6.6300e-01	-13.0087	-40.899653	0.000404	4.039431	1.368596	-0.032265
1328	6.6350e-01	-13.0408	-40.851256	-0.000121	-1.211829	-0.410579	0.009679
1329	6.6400e-01	-13.0841	-41.077109	0.000566	5.655204	1.916035	-0.045171
1330	6.6450e-01	-13.1258	-41.109374	0.000081	0.807886	0.273719	-0.006453
1331	6.6500e-01	-13.1627	-41.339261	0.000576	5.756190	1.950250	-0.045977
1332	6.6550e-01	-13.2044	-41.440088	0.000252	2.524645	0.855373	-0.020165
1333	6.6600e-01	-13.2462	-41.387658	-0.000131	-1.312815	-0.444794	0.010486
1334	6.6650e-01	-13.2734	-41.544949	0.000394	3.938446	1.334381	-0.031458
1335	6.6700e-01	-13.3151	-41.758703	0.000535	5.352246	1.813390	-0.042751
1336	6.6750e-01	-13.3584	-41.835332	0.000192	1.918730	0.650083	-0.015326
1337	6.6800e-01	-13.4002	-41.907928	0.000182	1.817744	0.615868	-0.014519
1338	6.6850e-01	-13.4419	-41.883729	-0.000061	-0.605915	-0.205289	0.004840
1339	6.6900e-01	-13.4852	-42.133781	0.000626	6.261119	2.121324	-0.050010
1340	6.6950e-01	-13.5221	-42.145880	0.000030	0.302957	0.102645	-0.002420
1341	6.7000e-01	-13.5590	-42.363668	0.000545	5.453232	1.847605	-0.043557
1342	6.7050e-01	-13.6055	-42.291072	-0.000182	-1.817744	-0.615868	0.014519
1343	6.7100e-01	-13.6376	-42.561290	0.000677	6.766047	2.292399	-0.054044
1344	6.7150e-01	-13.6841	-42.706481	0.000364	3.635488	1.231737	-0.029038
1345	6.7200e-01	-13.7162	-42.650018	-0.000141	-1.413801	-0.479009	0.011293
1346	6.7250e-01	-13.7627	-42.811342	0.000404	4.039431	1.368596	-0.032265
1347	6.7300e-01	-13.8012	-42.968633	0.000394	3.938446	1.334381	-0.031458
1348	6.7350e-01	-13.8349	-43.008963	0.000101	1.009858	0.342149	-0.008066
1349	6.7400e-01	-13.8814	-43.077526	0.000172	1.716758	0.581653	-0.013713
1350	6.7450e-01	-13.9151	-43.291280	0.000535	5.352246	1.813390	-0.042751
1351	6.7500e-01	-13.9648	-43.263049	-0.000071	-0.706900	-0.239504	0.005646
1352	6.7550e-01	-14.0033	-43.166254	-0.000242	-2.423659	-0.821158	0.019359
1353	6.7600e-01	-14.0354	-43.541333	0.000939	9.391678	3.181987	-0.075016
1354	6.7650e-01	-14.0836	-43.609895	0.000172	1.716758	0.581653	-0.013713
1355	6.7700e-01	-14.1156	-43.710723	0.000252	2.524645	0.855373	-0.020165
1356	6.7750e-01	-14.1574	-43.847848	0.000343	3.433517	1.163307	-0.027425
1357	6.7800e-01	-14.2007	-43.872047	0.000061	0.605915	0.205289	-0.004840
1358	6.7850e-01	-14.2376	-43.976907	0.000263	2.625630	0.889588	-0.020972
1359	6.7900e-01	-14.2873	-44.077735	0.000252	2.524645	0.855373	-0.020165
1360	6.7950e-01	-14.3322	-44.239059	0.000404	4.039431	1.368596	-0.032265
1361	6.8000e-01	-14.3579	-44.315687	0.000192	1.918730	0.650083	-0.015326
1362	6.8050e-01	-14.3964	-44.384250	0.000172	1.716758	0.581653	-0.013713
1363	6.8100e-01	-14.4365	-44.626236	0.000606	6.059147	2.052895	-0.048397
1364	6.8150e-01	-14.4814	-44.573806	-0.000131	-1.312815	-0.444794	0.010486
1365	6.8200e-01	-14.5103	-44.803692	0.000576	5.756190	1.950250	-0.045977
1366	6.8250e-01	-14.5584	-44.759328	-0.000111	-1.110844	-0.376364	0.008873
1367	6.8300e-01	-14.5937	-44.876288	0.000293	2.928588	0.992232	-0.023392
1368	6.8350e-01	-14.6402	-44.803692	-0.000182	-1.817744	-0.615868	0.014519
1369	6.8400e-01	-14.6835	-44.948884	0.000364	3.635488	1.231737	-0.029038
1370	6.8450e-01	-14.7172	-45.194903	0.000616	6.160133	2.087109	-0.049204
1371	6.8500e-01	-14.7638	-45.235234	0.000101	1.009858	0.342149	-0.008066
1372	6.8550e-01	-14.8071	-45.255399	0.000050	0.504929	0.171075	-0.004033
1373	6.8600e-01	-14.8456	-45.565948	0.000778	7.775905	2.634548	-0.062110
1374	6.8650e-01	-14.8889	-45.428823	-0.000343	-3.433517	-1.163307	0.027425
1375	6.8700e-01	-14.9274	-45.574014	0.000364	3.635488	1.231737	-0.029038
1376	6.8750e-01	-14.9707	-45.799868	0.000566	5.655204	1.916035	-0.045171
1377	6.8800e-01	-15.0060	-45.860364	0.000151	1.514787	0.513224	-0.012099
1378	6.8850e-01	-15.0397	-45.953125	0.000232	2.322673	0.786943	-0.018552
1379	6.8900e-01	-15.0798	-45.884563	-0.000172	-1.716758	-0.581653	0.013713
1380	6.8950e-01	-15.1183	-46.223343	0.000848	8.482806	2.874052	-0.067756
1381	6.9000e-01	-15.1600	-46.453230	0.000576	5.756190	1.950250	-0.045977
1382	6.9050e-01	-15.2049	-46.195111	-0.000646	-6.463090	-2.189754	0.051624
1383	6.9100e-01	-15.2386	-46.521792	0.000818	8.179848	2.771408	-0.065336
1384	6.9150e-01	-15.2883	-46.360468	-0.000404	-4.039431	-1.368596	0.032265
1385	6.9200e-01	-15.3204	-46.513726	0.000384	3.837460	1.300167	-0.030652
1386	6.9250e-01	-15.3605	-46.424998	-0.000222	-2.221687	-0.752728	0.017746
1387	6.9300e-01	-15.4006	-46.614554	0.000475	4.746332	1.608101	-0.037911
1388	6.9350e-01	-15.4488	-46.929135	0.000788	7.876891	2.668763	-0.062916
1389	6.9400e-01	-15.4857	-46.953334	0.000061	0.605915	0.205289	-0.004840
1390	6.9450e-01	-15.5177	-47.038029	0.000212	2.120701	0.718513	-0.016939
1391	6.9500e-01	-15.5627	-47.183221	0.000364	3.635488	1.231737	-0.029038
1392	6.9550e-01	-15.6012	-47.142890	-0.000101	-1.009858	-0.342149	0.008066
1393	6.9600e-01	-15.6381	-47.304214	0.000404	4.039431	1.368596	-0.032265
1394	6.9650e-01	-15.6830	-47.534100	0.000576	5.756190	1.950250	-0.045977
1395	6.9700e-01	-15.7167	-47.538133	0.000010	0.100986	0.034215	-0.000807
1396	6.9750e-01	-15.7584	-47.739788	0.000505	5.049289	1.710745	-0.040331
1397	6.9800e-01	-15.8033	-47.437306	-0.000757	-7.573934	-2.566118	0.060496
1398	6.9850e-01	-15.8466	-47.513935	0.000192	1.918730	0.650083	-0.015326
1399	6.9900e-01	-15.8883	-47.901112	0.000969	9.694635	3.284631	-0.077435
1400	6.9950e-01	-15.9172	-47.985807	0.000212	2.120701	0.718513	-0.016939
1401	7.0000e-01	-15.9605	-48.223760	0.000596	5.958161	2.018680	-0.047591
1402	7.0050e-01	-15.9958	-48.437514	0.000535	5.352246	1.813390	-0.042751
1403	7.0100e-01	-16.0455	-48.308455	-0.000323	-3.231545	-1.094877	0.025812
1404	7.0150e-01	-16.0840	-48.397183	0.000222	2.221687	0.752728	-0.017746
1405	7.0200e-01	-16.1209	-48.502044	0.000263	2.625630	0.889588	-0.020972
1406	7.0250e-01	-16.1659	-48.594805	0.000232	2.322673	0.786943	-0.018552
1407	7.0300e-01	-16.2092	-48.562540	-0.000081	-0.807886	-0.273719	0.006453
1408	7.0350e-01	-16.2380	-48.631103	0.000172	1.716758	0.581653	-0.013713
1409	7.0400e-01	-16.2798	-48.856956	0.000566	5.655204	1.916035	-0.045171
1410	7.0450e-01	-16.3215	-49.026347	0.000424	4.241403	1.437026	-0.033878
1411	7.0500e-01	-16.3600	-48.836791	-0.000475	-4.746332	-1.608101	0.037911
1412	7.0550e-01	-16.4033	-49.163472	0.000818	8.179848	2.771408	-0.065336
1413	7.0600e-01	-16.4418	-49.102975	-0.000151	-1.514787	-0.513224	0.012099
1414	7.0650e-01	-16.4771	-49.425623	0.000808	8.078863	2.737193	-0.064530
1415	7.0700e-01	-16.5252	-49.433690	0.000020	0.201972	0.068430	-0.001613
1416	7.0750e-01	-16.5541	-49.679709	0.000616	6.160133	2.087109	-0.049204
1417	7.0800e-01	-16.6038	-49.703907	0.000061	0.605915	0.205289	-0.004840
1418	7.0850e-01	-16.6423	-49.526451	-0.000444	-4.443374	-1.505456	0.035491
1419	7.0900e-01	-16.6808	-49.792635	0.000667	6.665062	2.258184	-0.053237
1420	7.0950e-01	-16.7225	-49.945893	0.000384	3.837460	1.300167	-0.030652
1421	7.1000e-01	-16.7690	-49.885397	-0.000151	-1.514787	-0.513224	0.012099
1422	7.1050e-01	-16.8043	-50.087052	0.000505	5.049289	1.710745	-0.040331
1423	7.1100e-01	-16.8380	-50.232243	0.000364	3.635488	1.231737	-0.029038
1424	7.1150e-01	-16.8862	-50.316938	0.000212	2.120701	0.718513	-0.016939
1425	7.1200e-01	-16.9263	-50.272574	-0.000111	-1.110844	-0.376364	0.008873
1426	7.1250e-01	-16.9567	-50.304839	0.000081	0.807886	0.273719	-0.006453
1427	7.1300e-01	-16.9920	-50.506494	0.000505	5.049289	1.710745	-0.040331
1428	7.1350e-01	-17.0450	-50.603288	0.000242	2.423659	0.821158	-0.019359
1429	7.1400e-01	-17.0867	-50.663785	0.000151	1.514787	0.513224	-0.012099
1430	7.1450e-01	-17.1236	-50.800910	0.000343	3.433517	1.163307	-0.027425
1431	7.1500e-01	-17.1653	-50.962234	0.000404	4.039431	1.368596	-0.032265
1432	7.1550e-01	-17.2022	-51.079194	0.000293	2.928588	0.992232	-0.023392
1433	7.1600e-01	-17.2327	-51.054995	-0.000061	-0.605915	-0.205289	0.004840
1434	7.1650e-01	-17.2744	-51.171955	0.000293	2.928588	0.992232	-0.023392
1435	7.1700e-01	-17.3193	-51.276816	0.000263	2.625630	0.889588	-0.020972
1436	7.1750e-01	-17.3610	-51.422007	0.000364	3.635488	1.231737	-0.029038
1437	7.1800e-01	-17.3963	-51.563166	0.000353	3.534502	1.197522	-0.028232
1438	7.1850e-01	-17.4460	-51.623662	0.000151	1.514787	0.513224	-0.012099
1439	7.1900e-01	-17.4781	-51.643828	0.000050	0.504929	0.171075	-0.004033
1440	7.1950e-01	-17.5262	-51.692225	0.000121	1.211829	0.410579	-0.009679
1441	7.2000e-01	-17.5615	-51.813218	0.000303	3.029573	1.026447	-0.024199
1442	7.2050e-01	-17.6000	-52.087468	0.000687	6.867033	2.326614	-0.054850
1443	7.2100e-01	-17.6417	-51.914045	-0.000434	-4.342389	-1.471241	0.034685
1444	7.2150e-01	-17.6819	-52.147965	0.000586	5.857175	1.984465	-0.046784
1445	7.2200e-01	-17.7300	-52.196362	0.000121	1.211829	0.410579	-0.009679
1446	7.2250e-01	-17.7701	-52.228627	0.000081	0.807886	0.273719	-0.006453
1447	7.2300e-01	-17.8054	-52.422216	0.000485	4.847318	1.642316	-0.038718
1448	7.2350e-01	-17.8455	-52.398017	-0.000061	-0.605915	-0.205289	0.004840
1449	7.2400e-01	-17.8872	-52.535142	0.000343	3.433517	1.163307	-0.027425
1450	7.2450e-01	-17.9225	-52.470613	-0.000162	-1.615773	-0.547439	0.012906
1451	7.2500e-01	-17.9626	-52.813426	0.000858	8.583792	2.908267	-0.068563
1452	7.2550e-01	-18.0107	-52.809393	-0.000010	-0.100986	-0.034215	0.000807
1453	7.2600e-01	-18.0412	-52.801327	-0.000020	-0.201972	-0.068430	0.001613
1454	7.2650e-01	-18.0861	-52.942485	0.000353	3.534502	1.197522	-0.028232
1455	7.2700e-01	-18.1262	-52.910221	-0.000081	-0.807886	-0.273719	0.006453
1456	7.2750e-01	-18.1551	-53.140107	0.000576	5.756190	1.950250	-0.045977
1457	7.2800e-01	-18.2096	-53.293365	0.000384	3.837460	1.300167	-0.030652
1458	7.2850e-01	-18.2498	-53.374027	0.000202	2.019716	0.684298	-0.016132
1459	7.2900e-01	-18.2883	-53.632145	0.000646	6.463090	2.189754	-0.051624
1460	7.2950e-01	-18.3219	-53.470821	-0.000404	-4.039431	-1.368596	0.032265
1461	7.3000e-01	-18.3604	-53.712807	0.000606	6.059147	2.052895	-0.048397
1462	7.3050e-01	-18.4038	-53.761204	0.000121	1.211829	0.410579	-0.009679
1463	7.3100e-01	-18.4487	-53.954793	0.000485	4.847318	1.642316	-0.038718
1464	7.3150e-01	-18.4824	-54.011256	0.000141	1.413801	0.479009	-0.011293
1465	7.3200e-01	-18.5305	-54.087885	0.000192	1.918730	0.650083	-0.015326
1466	7.3250e-01	-18.5642	-54.200812	0.000283	2.827602	0.958017	-0.022585
1467	7.3300e-01	-18.6027	-54.265342	0.000162	1.615773	0.547439	-0.012906
1468	7.3350e-01	-18.6492	-54.523460	0.000646	6.463090	2.189754	-0.051624
1469	7.3400e-01	-18.6829	-54.660585	0.000343	3.433517	1.163307	-0.027425
1470	7.3450e-01	-18.7198	-54.491195	-0.000424	-4.241403	-1.437026	0.033878
1471	7.3500e-01	-18.7567	-55.019531	0.001323	13.229138	4.482153	-0.105667
1472	7.3550e-01	-18.7984	-54.696883	-0.000808	-8.078863	-2.737193	0.064530
1473	7.3600e-01	-18.8401	-54.696883	-0.000000	-0.000000	-0.000000	0.000000
1474	7.3650e-01	-18.8866	-54.781578	0.000212	2.120701	0.718513	-0.016939
1475	7.3700e-01	-18.9171	-54.862240	0.000202	2.019716	0.684298	-0.016132
1476	7.3750e-01	-18.9668	-55.011465	0.000374	3.736474	1.265952	-0.029845
1477	7.3800e-01	-18.9973	-55.233285	0.000555	5.554218	1.881820	-0.044364
1478	7.3850e-01	-19.0519	-55.257484	0.000061	0.605915	0.205289	-0.004840
1479	7.3900e-01	-19.0856	-55.346212	0.000222	2.221687	0.752728	-0.017746
1480	7.3950e-01	-19.1241	-55.616430	0.000677	6.766047	2.292399	-0.054044
1481	7.4000e-01	-19.1738	-55.515602	-0.000252	-2.524645	-0.855373	0.020165
1482	7.4050e-01	-19.2027	-55.680959	0.000414	4.140417	1.402811	-0.033071
1483	7.4100e-01	-19.2380	-55.721290	0.000101	1.009858	0.342149	-0.008066
1484	7.4150e-01	-19.2797	-55.680959	-0.000101	-1.009858	-0.342149	0.008066
1485	7.4200e-01	-19.3310	-56.084269	0.001010	10.098578	3.421491	-0.080662
1486	7.4250e-01	-19.3599	-56.112501	0.000071	0.706900	0.239504	-0.005646
1487	7.4300e-01	-19.4048	-56.027806	-0.000212	-2.120701	-0.718513	0.016939
1488	7.4350e-01	-19.4401	-56.080236	0.000131	1.312815	0.444794	-0.010486
1489	7.4400e-01	-19.4770	-56.189130	0.000273	2.726616	0.923803	-0.021779
1490	7.4450e-01	-19.5219	-56.322222	0.000333	3.332531	1.129092	-0.026618
1491	7.4500e-01	-19.5636	-56.620671	0.000747	7.472948	2.531903	-0.059690
1492	7.4550e-01	-19.5973	-56.673102	0.000131	1.312815	0.444794	-0.010486
1493	7.4600e-01	-19.6342	-56.592440	-0.000202	-2.019716	-0.684298	0.016132
1494	7.4650e-01	-19.6743	-56.705366	0.000283	2.827602	0.958017	-0.022585
1495	7.4700e-01	-19.7192	-56.733598	0.000071	0.706900	0.239504	-0.005646
1496	7.4750e-01	-19.7545	-56.991716	0.000646	6.463090	2.189754	-0.051624
1497	7.4800e-01	-19.8026	-56.999783	0.000020	0.201972	0.068430	-0.001613
1498	7.4850e-01	-19.8412	-57.294199	0.000737	7.371962	2.497688	-0.058883
1499	7.4900e-01	-19.8813	-57.233702	-0.000151	-1.514787	-0.513224	0.012099
1500	7.4950e-01	-19.9182	-57.370828	0.000343	3.433517	1.163307	-0.027425
1501	7.5000e-01	-19.9647	-57.374861	0.000010	0.100986	0.034215	-0.000807
1502	7.5050e-01	-19.9647	-57.173206	-0.000505	-5.049289	-1.710745	0.040331
1503	7.5100e-01	-19.9342	-57.447456	-0.000687	-6.867033	-2.326614	-0.054850
1504	7.5150e-01	-19.8941	-57.479721	-0.000081	-0.807886	-0.273719	-0.006453
1505	7.5200e-01	-19.8588	-57.209504	0.000677	6.766047	2.292399	0.054044
1506	7.5250e-01	-19.8235	-57.140941	0.000172	1.716758	0.581653	0.013713
1507	7.5300e-01	-19.7786	-56.995749	0.000364	3.635488	1.231737	0.029038
1508	7.5350e-01	-19.7497	-57.036080	-0.000101	-1.009858	-0.342149	-0.008066
1509	7.5400e-01	-19.6984	-56.749730	0.000717	7.169991	2.429259	0.057270
1510	7.5450e-01	-19.6647	-56.911054	-0.000404	-4.039431	-1.368596	-0.032265
1511	7.5500e-01	-19.6182	-56.499678	0.001030	10.300550	3.489921	0.082275
1512	7.5550e-01	-19.5765	-56.612605	-0.000283	-2.827602	-0.958017	-0.022585
1513	7.5600e-01	-19.5460	-56.584373	0.000071	0.706900	0.239504	0.005646
1514	7.5650e-01	-19.4962	-56.556142	0.000071	0.706900	0.239504	0.005646
1515	7.5700e-01	-19.4658	-56.556142	0.000000	0.000000	0.000000	0.000000
1516	7.5750e-01	-19.4208	-56.439182	0.000293	2.928588	0.992232	0.023392
1517	7.5800e-01	-19.3727	-56.394818	0.000111	1.110844	0.376364	0.008873
1518	7.5850e-01	-19.3422	-56.052004	0.000858	8.583792	2.908267	0.068563
1519	7.5900e-01	-19.3005	-56.011673	0.000101	1.009858	0.342149	0.008066
1520	7.5950e-01	-19.2733	-56.064104	-0.000131	-1.312815	-0.444794	-0.010486
1521	7.6000e-01	-19.2187	-55.971342	0.000232	2.322673	0.786943	0.018552
1522	7.6050e-01	-19.1818	-56.185097	-0.000535	-5.352246	-1.813390	-0.042751
1523	7.6100e-01	-19.1449	-55.814052	0.000929	9.290692	3.147772	0.074209
1524	7.6150e-01	-19.1096	-55.499470	0.000788	7.876891	2.668763	0.062916
1525	7.6200e-01	-19.0663	-55.592231	-0.000232	-2.322673	-0.786943	-0.018552
1526	7.6250e-01	-19.0182	-55.547867	0.000111	1.110844	0.376364	0.008873
1527	7.6300e-01	-18.9797	-55.733390	-0.000465	-4.645346	-1.573886	-0.037105
1528	7.6350e-01	-18.9428	-55.338146	0.000990	9.896607	3.353061	0.079049
1529	7.6400e-01	-18.9059	-55.543834	-0.000515	-5.150275	-1.744960	-0.041138
1530	7.6450e-01	-18.8658	-55.507536	0.000091	0.908872	0.307934	0.007260
1531	7.6500e-01	-18.8257	-55.289749	0.000545	5.453232	1.847605	0.043557
1532	7.6550e-01	-18.7824	-55.253451	0.000091	0.908872	0.307934	0.007260
1533	7.6600e-01	-18.7439	-55.063895	0.000475	4.746332	1.608101	0.037911
1534	7.6650e-01	-18.6973	-55.172789	-0.000273	-2.726616	-0.923803	-0.021779
1535	7.6700e-01	-18.6636	-55.136491	0.000091	0.908872	0.307934	0.007260
1536	7.6750e-01	-18.6348	-54.813843	0.000808	8.078863	2.737193	0.064530
1537	7.6800e-01	-18.5866	-54.761413	0.000131	1.312815	0.444794	0.010486
1538	7.6850e-01	-18.5433	-54.825942	-0.000162	-1.615773	-0.547439	-0.012906
1539	7.6900e-01	-18.5016	-54.499261	0.000818	8.179848	2.771408	0.065336
1540	7.6950e-01	-18.4647	-54.438765	0.000151	1.514787	0.513224	0.012099
1541	7.7000e-01	-18.4230	-54.483129	-0.000111	-1.110844	-0.376364	-0.008873
1542	7.7050e-01	-18.3861	-54.394401	0.000222	2.221687	0.752728	0.017746
1543	7.7100e-01	-18.3460	-54.370202	0.000061	0.605915	0.205289	0.004840
1544	7.7150e-01	-18.3059	-54.241143	0.000323	3.231545	1.094877	0.025812
1545	7.7200e-01	-18.2674	-54.140316	0.000252	2.524645	0.855373	0.020165
1546	7.7250e-01	-18.2225	-54.237110	-0.000242	-2.423659	-0.821158	-0.019359
1547	7.7300e-01	-18.1840	-53.954793	0.000707	7.069005	2.395044	0.056463
1548	7.7350e-01	-18.1471	-54.136283	-0.000454	-4.544360	-1.539671	-0.036298
1549	7.7400e-01	-18.1054	-53.841866	0.000737	7.371962	2.497688	0.058883
1550	7.7450e-01	-18.0637	-53.765237	0.000192	1.918730	0.650083	0.015326
1551	7.7500e-01	-18.0316	-53.874131	-0.000273	-2.726616	-0.923803	-0.021779
1552	7.7550e-01	-17.9851	-53.716840	0.000394	3.938446	1.334381	0.031458
1553	7.7600e-01	-17.9385	-53.539384	0.000444	4.443374	1.505456	0.035491
1554	7.7650e-01	-17.9048	-53.458722	0.000202	2.019716	0.684298	0.016132
1555	7.7700e-01	-17.8583	-53.357895	0.000252	2.524645	0.855373	0.020165
1556	7.7750e-01	-17.8262	-53.253034	0.000263	2.625630	0.889588	0.020972
1557	7.7800e-01	-17.7958	-53.111875	0.000353	3.534502	1.197522	0.028232
1558	7.7850e-01	-17.7316	-53.031214	0.000202	2.019716	0.684298	0.016132
1559	7.7900e-01	-17.7075	-53.140107	-0.000273	-2.726616	-0.923803	-0.021779
1560	7.7950e-01	-17.6738	-52.974750	0.000414	4.140417	1.402811	0.033071
1561	7.8000e-01	-17.6225	-52.894088	0.000202	2.019716	0.684298	0.016132
1562	7.8050e-01	-17.5808	-52.869890	0.000061	0.605915	0.205289	0.004840
1563	7.8100e-01	-17.5375	-52.769062	0.000252	2.524645	0.855373	0.020165
1564	7.8150e-01	-17.5006	-52.623871	0.000364	3.635488	1.231737	0.029038
1565	7.8200e-01	-17.4685	-52.458514	0.000414	4.140417	1.402811	0.033071
1566	7.8250e-01	-17.4188	-52.402050	0.000141	1.413801	0.479009	0.011293
1567	7.8300e-01	-17.3787	-52.385918	0.000040	0.403943	0.136860	0.003226
1568	7.8350e-01	-17.3385	-52.385918	0.000000	0.000000	0.000000	0.000000
1569	7.8400e-01	-17.3065	-52.535142	-0.000374	-3.736474	-1.265952	-0.029845
1570	7.8450e-01	-17.2696	-52.139899	0.000990	9.896607	3.353061	0.079049
1571	7.8500e-01	-17.2182	-51.897913	0.000606	6.059147	2.052895	0.048397
1572	7.8550e-01	-17.1845	-51.970509	-0.000182	-1.817744	-0.615868	-0.014519
1573	7.8600e-01	-17.1380	-52.006806	-0.000091	-0.908872	-0.307934	-0.007260
1574	7.8650e-01	-17.1075	-51.853549	0.000384	3.837460	1.300167	0.030652
1575	7.8700e-01	-17.0626	-51.688192	0.000414	4.140417	1.402811	0.033071
1576	7.8750e-01	-17.0145	-51.635761	0.000131	1.312815	0.444794	0.010486
1577	7.8800e-01	-16.9824	-51.494603	0.000353	3.534502	1.197522	0.028232
1578	7.8850e-01	-16.9375	-51.204220	0.000727	7.270976	2.463473	0.058077
1579	7.8900e-01	-16.8958	-51.430073	-0.000566	-5.655204	-1.916035	-0.045171
1580	7.8950e-01	-16.8573	-51.305047	0.000313	3.130559	1.060662	0.025005
1581	7.9000e-01	-16.8220	-51.345378	-0.000101	-1.009858	-0.342149	-0.008066
1582	7.9050e-01	-16.7819	-51.180021	0.000414	4.140417	1.402811	0.033071
1583	7.9100e-01	-16.7434	-50.925936	0.000636	6.362104	2.155539	0.050817
1584	7.9150e-01	-16.7001	-51.034830	-0.000273	-2.726616	-0.923803	-0.021779
1585	7.9200e-01	-16.6680	-50.982399	0.000131	1.312815	0.444794	0.010486
1586	7.9250e-01	-16.6215	-50.917870	0.000162	1.615773	0.547439	0.012906
1587	7.9300e-01	-16.5878	-50.792844	0.000313	3.130559	1.060662	0.025005
1588	7.9350e-01	-16.5348	-50.813009	-0.000050	-0.504929	-0.171075	-0.004033
1589	7.9400e-01	-16.5011	-50.595222	0.000545	5.453232	1.847605	0.043557
1590	7.9450e-01	-16.4594	-50.437931	0.000394	3.938446	1.334381	0.031458
1591	7.9500e-01	-16.4257	-50.397600	0.000101	1.009858	0.342149	0.008066
1592	7.9550e-01	-16.3824	-50.405666	-0.000020	-0.201972	-0.068430	-0.001613
1593	7.9600e-01	-16.3407	-50.167714	0.000596	5.958161	2.018680	0.047591
1594	7.9650e-01	-16.2942	-50.232243	-0.000162	-1.615773	-0.547439	-0.012906
1595	7.9700e-01	-16.2621	-50.183846	0.000121	1.211829	0.410579	0.009679
1596	7.9750e-01	-16.2364	-49.816834	0.000919	9.189706	3.113557	0.073402
1597	7.9800e-01	-16.1851	-49.832966	-0.000040	-0.403943	-0.136860	-0.003226
1598	7.9850e-01	-16.1354	-49.764404	0.000172	1.716758	0.581653	0.013713
1599	7.9900e-01	-16.1033	-49.784569	-0.000050	-0.504929	-0.171075	-0.004033
1600	7.9950e-01	-16.0632	-49.518385	0.000667	6.665062	2.258184	0.053237
1601	8.0000e-01	-16.0183	-49.635344	-0.000293	-2.928588	-0.992232	-0.023392
1602	8.0050e-01	-15.9830	-49.268333	0.000919	9.189706	3.113557	0.073402
1603	8.0100e-01	-15.9445	-49.421590	-0.000384	-3.837460	-1.300167	-0.030652
1604	8.0150e-01	-15.9060	-49.159439	0.000656	6.564076	2.223969	0.052430
1605	8.0200e-01	-15.8594	-49.199770	-0.000101	-1.009858	-0.342149	-0.008066
1606	8.0250e-01	-15.8306	-48.873089	0.000818	8.179848	2.771408	0.065336
1607	8.0300e-01	-15.7808	-48.784361	0.000222	2.221687	0.752728	0.017746
1608	8.0350e-01	-15.7504	-48.865023	-0.000202	-2.019716	-0.684298	-0.016132
1609	8.0400e-01	-15.7022	-48.687566	0.000444	4.443374	1.505456	0.035491
1610	8.0450e-01	-15.6509	-48.659335	0.000071	0.706900	0.239504	0.005646
1611	8.0500e-01	-15.6252	-48.744030	-0.000212	-2.120701	-0.718513	-0.016939
1612	8.0550e-01	-15.5835	-48.502044	0.000606	6.059147	2.052895	0.048397
1613	8.0600e-01	-15.5386	-48.372985	0.000323	3.231545	1.094877	0.025812
1614	8.0650e-01	-15.5017	-48.151164	0.000555	5.554218	1.881820	0.044364
1615	8.0700e-01	-15.4648	-48.485911	-0.000838	-8.381820	-2.839837	-0.066949
1616	8.0750e-01	-15.4295	-48.163264	0.000808	8.078863	2.737193	0.064530
1617	8.0800e-01	-15.3830	-48.118899	0.000111	1.110844	0.376364	0.008873
1618	8.0850e-01	-15.3365	-48.034204	0.000212	2.120701	0.718513	0.016939
1619	8.0900e-01	-15.3012	-48.005973	0.000071	0.706900	0.239504	0.005646
1620	8.0950e-01	-15.2627	-48.022105	-0.000040	-0.403943	-0.136860	-0.003226
1621	8.1000e-01	-15.2242	-47.844649	0.000444	4.443374	1.505456	0.035491
1622	8.1050e-01	-15.1825	-47.897079	-0.000131	-1.312815	-0.444794	-0.010486
1623	8.1100e-01	-15.1407	-47.824483	0.000182	1.817744	0.615868	0.014519
1624	8.1150e-01	-15.0990	-47.509902	0.000788	7.876891	2.668763	0.062916
1625	8.1200e-01	-15.0670	-47.413107	0.000242	2.423659	0.821158	0.019359
1626	8.1250e-01	-15.0188	-47.368743	0.000111	1.110844	0.376364	0.008873
1627	8.1300e-01	-14.9803	-47.219518	0.000374	3.736474	1.265952	0.029845
1628	8.1350e-01	-14.9434	-47.171121	0.000121	1.211829	0.410579	0.009679
1629	8.1400e-01	-14.9065	-47.058194	0.000283	2.827602	0.958017	0.022585
1630	8.1450e-01	-14.8648	-46.993665	0.000162	1.615773	0.547439	0.012906
1631	8.1500e-01	-14.8215	-46.775878	0.000545	5.453232	1.847605	0.043557
1632	8.1550e-01	-14.7798	-46.743613	0.000081	0.807886	0.273719	0.006453
1633	8.1600e-01	-14.7445	-46.804109	-0.000151	-1.514787	-0.513224	-0.012099
1634	8.1650e-01	-14.7012	-46.626653	0.000444	4.443374	1.505456	0.035491
1635	8.1700e-01	-14.6659	-46.485494	0.000353	3.534502	1.197522	0.028232
1636	8.1750e-01	-14.6258	-46.279806	0.000515	5.150275	1.744960	0.041138
1637	8.1800e-01	-14.5777	-46.255608	0.000061	0.605915	0.205289	0.004840
1638	8.1850e-01	-14.5488	-46.174946	0.000202	2.019716	0.684298	0.016132
1639	8.1900e-01	-14.4975	-46.178979	-0.000010	-0.100986	-0.034215	-0.000807
1640	8.1950e-01	-14.4573	-46.106383	0.000182	1.817744	0.615868	0.014519
1641	8.2000e-01	-14.4317	-46.110416	-0.000010	-0.100986	-0.034215	-0.000807
1642	8.2050e-01	-14.3868	-45.751471	0.000899	8.987735	3.045127	0.071789
1643	8.2100e-01	-14.3450	-45.832133	-0.000202	-2.019716	-0.684298	-0.016132
1644	8.2150e-01	-14.3033	-45.610312	0.000555	5.554218	1.881820	0.044364
1645	8.2200e-01	-14.2680	-45.606279	0.000010	0.100986	0.034215	0.000807
1646	8.2250e-01	-14.2167	-45.356227	0.000626	6.261119	2.121324	0.050010
1647	8.2300e-01	-14.1943	-45.606279	-0.000626	-6.261119	-2.121324	-0.050010
1648	8.2350e-01	-14.1365	-45.243300	0.000909	9.088720	3.079342	0.072596
1649	8.2400e-01	-14.0996	-45.142473	0.000252	2.524645	0.855373	0.020165
1650	8.2450e-01	-14.0691	-44.965016	0.000444	4.443374	1.505456	0.035491
1651	8.2500e-01	-14.0162	-45.186837	-0.000555	-5.554218	-1.881820	-0.044364
1652	8.2550e-01	-13.9825	-45.005347	0.000454	4.544360	1.539671	0.036298
1653	8.2600e-01	-13.9408	-44.795626	0.000525	5.251261	1.779175	0.041944
1654	8.2650e-01	-13.8991	-44.831924	-0.000091	-0.908872	-0.307934	-0.007260
1655	8.2700e-01	-13.8590	-44.593971	0.000596	5.958161	2.018680	0.047591
1656	8.2750e-01	-13.8301	-44.553640	0.000101	1.009858	0.342149	0.008066
1657	8.2800e-01	-13.7820	-44.537508	0.000040	0.403943	0.136860	0.003226
1658	8.2850e-01	-13.7370	-44.614137	-0.000192	-1.918730	-0.650083	-0.015326
1659	8.2900e-01	-13.7082	-44.501210	0.000283	2.827602	0.958017	0.022585
1660	8.2950e-01	-13.6665	-44.230992	0.000677	6.766047	2.292399	0.054044
1661	8.3000e-01	-13.6264	-44.222926	0.000020	0.201972	0.068430	0.001613
1662	8.3050e-01	-13.5718	-43.976907	0.000616	6.160133	2.087109	0.049204
1663	8.3100e-01	-13.5413	-44.114033	-0.000343	-3.433517	-1.163307	-0.027425
1664	8.3150e-01	-13.4964	-43.900278	0.000535	5.352246	1.813390	0.042751
1665	8.3200e-01	-13.4611	-43.706690	0.000485	4.847318	1.642316	0.038718
1666	8.3250e-01	-13.4162	-43.787352	-0.000202	-2.019716	-0.684298	-0.016132
1667	8.3300e-01	-13.3777	-43.823649	-0.000091	-0.908872	-0.307934	-0.007260
1668	8.3350e-01	-13.3440	-43.605862	0.000545	5.453232	1.847605	0.043557
1669	8.3400e-01	-13.2975	-43.303380	0.000757	7.573934	2.566118	0.060496
1670	8.3450e-01	-13.2574	-43.436472	-0.000333	-3.332531	-1.129092	-0.026618
1671	8.3500e-01	-13.2253	-43.121890	0.000788	7.876891	2.668763	0.062916
1672	8.3550e-01	-13.1804	-43.267082	-0.000364	-3.635488	-1.231737	-0.029038
1673	8.3600e-01	-13.1371	-43.250949	0.000040	0.403943	0.136860	0.003226
1674	8.3650e-01	-13.0954	-43.097692	0.000384	3.837460	1.300167	0.030652
1675	8.3700e-01	-13.0649	-42.791176	0.000767	7.674920	2.600333	0.061303
1676	8.3750e-01	-13.0216	-42.815375	-0.000061	-0.605915	-0.205289	-0.004840
1677	8.3800e-01	-12.9863	-42.783110	0.000081	0.807886	0.273719	0.006453
1678	8.3850e-01	-12.9446	-42.658084	0.000313	3.130559	1.060662	0.025005
1679	8.3900e-01	-12.9012	-42.323337	0.000838	8.381820	2.839837	0.066949
1680	8.3950e-01	-12.8708	-42.315271	0.000020	0.201972	0.068430	0.001613
1681	8.4000e-01	-12.8178	-42.359635	-0.000111	-1.110844	-0.376364	-0.008873
1682	8.4050e-01	-12.7857	-42.157980	0.000505	5.049289	1.710745	0.040331
1683	8.4100e-01	-12.7456	-42.206377	-0.000121	-1.211829	-0.410579	-0.009679
1684	8.4150e-01	-12.7007	-41.952292	0.000636	6.362104	2.155539	0.050817
1685	8.4200e-01	-12.6670	-41.924060	0.000071	0.706900	0.239504	0.005646
1686	8.4250e-01	-12.6301	-41.960358	-0.000091	-0.908872	-0.307934	-0.007260
1687	8.4300e-01	-12.5868	-41.803067	0.000394	3.938446	1.334381	0.031458
1688	8.4350e-01	-12.5451	-41.734504	0.000172	1.716758	0.581653	0.013713
1689	8.4400e-01	-12.5082	-41.887762	-0.000384	-3.837460	-1.300167	-0.030652
1690	8.4450e-01	-12.4633	-41.799034	0.000222	2.221687	0.752728	0.017746
1691	8.4500e-01	-12.4168	-41.371525	0.001070	10.704493	3.626780	0.085502
1692	8.4550e-01	-12.3799	-41.081142	0.000727	7.270976	2.463473	0.058077
1693	8.4600e-01	-12.3366	-40.923852	0.000394	3.938446	1.334381	0.031458
1694	8.4650e-01	-12.3013	-40.952083	-0.000071	-0.706900	-0.239504	-0.005646
1695	8.4700e-01	-12.2595	-41.060977	-0.000273	-2.726616	-0.923803	-0.021779
1696	8.4750e-01	-12.2194	-40.976282	0.000212	2.120701	0.718513	0.016939
1697	8.4800e-01	-12.1841	-40.762528	0.000535	5.352246	1.813390	0.042751
1698	8.4850e-01	-12.1456	-40.847223	-0.000212	-2.120701	-0.718513	-0.016939
1699	8.4900e-01	-12.1055	-40.605237	0.000606	6.059147	2.052895	0.048397
1700	8.4950e-01	-12.0654	-40.355185	0.000626	6.261119	2.121324	0.050010
1701	8.5000e-01	-12.0221	-40.258390	0.000242	2.423659	0.821158	0.019359
1702	8.5050e-01	-11.9820	-40.379383	-0.000303	-3.029573	-1.026447	-0.024199
1703	8.5100e-01	-11.9387	-40.181761	0.000495	4.948303	1.676531	0.039524
1704	8.5150e-01	-11.8906	-40.076901	0.000263	2.625630	0.889588	0.020972
1705	8.5200e-01	-11.8617	-39.786518	0.000727	7.270976	2.463473	0.058077
1706	8.5250e-01	-11.8168	-39.867180	-0.000202	-2.019716	-0.684298	-0.016132
1707	8.5300e-01	-11.7815	-39.871213	-0.000010	-0.100986	-0.034215	-0.000807
1708	8.5350e-01	-11.7366	-39.677624	0.000485	4.847318	1.642316	0.038718
1709	8.5400e-01	-11.7013	-39.439671	0.000596	5.958161	2.018680	0.047591
1710	8.5450e-01	-11.6515	-39.471936	-0.000081	-0.807886	-0.273719	-0.006453
1711	8.5500e-01	-11.6259	-39.318678	0.000384	3.837460	1.300167	0.030652
1712	8.5550e-01	-11.5826	-39.286413	0.000081	0.807886	0.273719	0.006453
1713	8.5600e-01	-11.5489	-39.294480	-0.000020	-0.201972	-0.068430	-0.001613
1714	8.5650e-01	-11.5136	-38.955699	0.000848	8.482806	2.874052	0.067756
1715	8.5700e-01	-11.4590	-38.991997	-0.000091	-0.908872	-0.307934	-0.007260
1716	8.5750e-01	-11.4221	-38.830673	0.000404	4.039431	1.368596	0.032265
1717	8.5800e-01	-11.3772	-38.681449	0.000374	3.736474	1.265952	0.029845
1718	8.5850e-01	-11.3467	-38.709680	-0.000071	-0.706900	-0.239504	-0.005646
1719	8.5900e-01	-11.3018	-38.568522	0.000353	3.534502	1.197522	0.028232
1720	8.5950e-01	-11.2617	-38.467694	0.000252	2.524645	0.855373	0.020165
1721	8.6000e-01	-11.2280	-38.382999	0.000212	2.120701	0.718513	0.016939
1722	8.6050e-01	-11.1879	-38.221675	0.000404	4.039431	1.368596	0.032265
1723	8.6100e-01	-11.1414	-38.189411	0.000081	0.807886	0.273719	0.006453
1724	8.6150e-01	-11.0965	-37.947425	0.000606	6.059147	2.052895	0.048397
1725	8.6200e-01	-11.0596	-38.132947	-0.000465	-4.645346	-1.573886	-0.037105
1726	8.6250e-01	-11.0179	-37.931292	0.000505	5.049289	1.710745	0.040331
1727	8.6300e-01	-10.9794	-37.834498	0.000242	2.423659	0.821158	0.019359
1728	8.6350e-01	-10.9393	-37.882895	-0.000121	-1.211829	-0.410579	-0.009679
1729	8.6400e-01	-10.9040	-37.693340	0.000475	4.746332	1.608101	0.037911
1730	8.6450e-01	-10.8655	-37.435221	0.000646	6.463090	2.189754	0.051624
1731	8.6500e-01	-10.8334	-37.165004	0.000677	6.766047	2.292399	0.054044
1732	8.6550e-01	-10.7917	-37.213401	-0.000121	-1.211829	-0.410579	-0.009679
1733	8.6600e-01	-10.7484	-37.136772	0.000192	1.918730	0.650083	0.015326
1734	8.6650e-01	-10.7083	-37.112573	0.000061	0.605915	0.205289	0.004840
1735	8.6700e-01	-10.6617	-37.064176	0.000121	1.211829	0.410579	0.009679
1736	8.6750e-01	-10.6184	-36.818157	0.000616	6.160133	2.087109	0.049204
1737	8.6800e-01	-10.5815	-36.818157	0.000000	0.000000	0.000000	0.000000
1738	8.6850e-01	-10.5510	-36.612469	0.000515	5.150275	1.744960	0.041138
1739	8.6900e-01	-10.5093	-36.664899	-0.000131	-1.312815	-0.444794	-0.010486
1740	8.6950e-01	-10.4628	-36.656833	0.000020	0.201972	0.068430	0.001613
1741	8.7000e-01	-10.4275	-36.471311	0.000465	4.645346	1.573886	0.037105
1742	8.7050e-01	-10.3810	-36.253523	0.000545	5.453232	1.847605	0.043557
1743	8.7100e-01	-10.3441	-36.168828	0.000212	2.120701	0.718513	0.016939
1744	8.7150e-01	-10.3008	-36.088166	0.000202	2.019716	0.684298	0.016132
1745	8.7200e-01	-10.2591	-35.975240	0.000283	2.827602	0.958017	0.022585
1746	8.7250e-01	-10.2270	-36.047835	-0.000182	-1.817744	-0.615868	-0.014519
1747	8.7300e-01	-10.1805	-36.108332	-0.000151	-1.514787	-0.513224	-0.012099
1748	8.7350e-01	-10.1468	-35.668724	0.001101	11.007450	3.729425	0.087922
1749	8.7400e-01	-10.1035	-35.491268	0.000444	4.443374	1.505456	0.035491
1750	8.7450e-01	-10.0650	-35.535632	-0.000111	-1.110844	-0.376364	-0.008873
1751	8.7500e-01	-10.0281	-35.293646	0.000606	6.059147	2.052895	0.048397
1752	8.7550e-01	-9.9928	-35.067792	0.000566	5.655204	1.916035	0.045171
1753	8.7600e-01	-9.9478	-35.071825	-0.000010	-0.100986	-0.034215	-0.000807
1754	8.7650e-01	-9.8997	-34.942766	0.000323	3.231545	1.094877	0.025812
1755	8.7700e-01	-9.8628	-35.059726	-0.000293	-2.928588	-0.992232	-0.023392
1756	8.7750e-01	-9.8291	-34.656416	0.001010	10.098578	3.421491	0.080662
1757	8.7800e-01	-9.7826	-34.737078	-0.000202	-2.019716	-0.684298	-0.016132
1758	8.7850e-01	-9.7377	-34.817740	-0.000202	-2.019716	-0.684298	-0.016132
1759	8.7900e-01	-9.6976	-34.773376	0.000111	1.110844	0.376364	0.008873
1760	8.7950e-01	-9.6623	-34.337801	0.001091	10.906465	3.695210	0.087115
1761	8.8000e-01	-9.6238	-34.228908	0.000273	2.726616	0.923803	0.021779
1762	8.8050e-01	-9.5805	-34.249073	-0.000050	-0.504929	-0.171075	-0.004033
1763	8.8100e-01	-9.5452	-33.999021	0.000626	6.261119	2.121324	0.050010
1764	8.8150e-01	-9.4987	-33.970790	0.000071	0.706900	0.239504	0.005646
1765	8.8200e-01	-9.4602	-33.805432	0.000414	4.140417	1.402811	0.033071
1766	8.8250e-01	-9.4249	-33.853830	-0.000121	-1.211829	-0.410579	-0.009679
1767	8.8300e-01	-9.3928	-33.506983	0.000868	8.684777	2.942482	0.069369
1768	8.8350e-01	-9.3414	-33.527149	-0.000050	-0.504929	-0.171075	-0.004033
1769	8.8400e-01	-9.3094	-33.337593	0.000475	4.746332	1.608101	0.037911
1770	8.8450e-01	-9.2596	-33.289196	0.000121	1.211829	0.410579	0.009679
1771	8.8500e-01	-9.2275	-33.337593	-0.000121	-1.211829	-0.410579	-0.009679
1772	8.8550e-01	-9.1826	-33.176269	0.000404	4.039431	1.368596	0.032265
1773	8.8600e-01	-9.1345	-32.797158	0.000949	9.492664	3.216201	0.075822
1774	8.8650e-01	-9.1040	-32.986713	-0.000475	-4.746332	-1.608101	-0.037911
1775	8.8700e-01	-9.0591	-32.801191	0.000465	4.645346	1.573886	0.037105
1776	8.8750e-01	-9.0302	-32.595503	0.000515	5.150275	1.744960	0.041138
1777	8.8800e-01	-8.9821	-32.583404	0.000030	0.302957	0.102645	0.002420
1778	8.8850e-01	-8.9404	-32.647933	-0.000162	-1.615773	-0.547439	-0.012906
1779	8.8900e-01	-8.9067	-32.397881	0.000626	6.261119	2.121324	0.050010
1780	8.8950e-01	-8.8554	-32.305120	0.000232	2.322673	0.786943	0.018552
1781	8.9000e-01	-8.8185	-32.143796	0.000404	4.039431	1.368596	0.032265
1782	8.9050e-01	-8.7864	-32.018770	0.000313	3.130559	1.060662	0.025005
1783	8.9100e-01	-8.7383	-32.091366	-0.000182	-1.817744	-0.615868	-0.014519
1784	8.9150e-01	-8.7030	-31.970373	0.000303	3.029573	1.026447	0.024199
1785	8.9200e-01	-8.6580	-31.877611	0.000232	2.322673	0.786943	0.018552
1786	8.9250e-01	-8.6195	-31.587228	0.000727	7.270976	2.463473	0.058077
1787	8.9300e-01	-8.5859	-31.631592	-0.000111	-1.110844	-0.376364	-0.008873
1788	8.9350e-01	-8.5377	-31.393640	0.000596	5.958161	2.018680	0.047591
1789	8.9400e-01	-8.5056	-31.490434	-0.000242	-2.423659	-0.821158	-0.019359
1790	8.9450e-01	-8.4591	-31.268613	0.000555	5.554218	1.881820	0.044364
1791	8.9500e-01	-8.4238	-31.103256	0.000414	4.140417	1.402811	0.033071
1792	8.9550e-01	-8.3869	-30.962098	0.000353	3.534502	1.197522	0.028232
1793	8.9600e-01	-8.3420	-30.699947	0.000656	6.564076	2.223969	0.052430
1794	8.9650e-01	-8.3019	-30.752377	-0.000131	-1.312815	-0.444794	-0.010486
1795	8.9700e-01	-8.2618	-30.599119	0.000384	3.837460	1.300167	0.030652
1796	8.9750e-01	-8.2169	-30.587020	0.000030	0.302957	0.102645	0.002420
1797	8.9800e-01	-8.1800	-30.437795	0.000374	3.736474	1.265952	0.029845
1798	8.9850e-01	-8.1399	-30.280504	0.000394	3.938446	1.334381	0.031458
1799	8.9900e-01	-8.1014	-30.421663	-0.000353	-3.534502	-1.197522	-0.028232
1800	8.9950e-01	-8.0709	-30.034485	0.000969	9.694635	3.284631	0.077435
1801	9.0000e-01	-8.0196	-29.925592	0.000273	2.726616	0.923803	0.021779
1802	9.0050e-01	-7.9746	-30.171611	-0.000616	-6.160133	-2.087109	-0.049204
1803	9.0100e-01	-7.9313	-29.796532	0.000939	9.391678	3.181987	0.075016
1804	9.0150e-01	-7.9041	-29.647308	0.000374	3.736474	1.265952	0.029845
1805	9.0200e-01	-7.8607	-29.828797	-0.000454	-4.544360	-1.539671	-0.036298
1806	9.0250e-01	-7.8238	-29.397256	0.001081	10.805479	3.660995	0.086308
1807	9.0300e-01	-7.7773	-29.405322	-0.000020	-0.201972	-0.068430	-0.001613
1808	9.0350e-01	-7.7420	-29.235932	0.000424	4.241403	1.437026	0.033878
1809	9.0400e-01	-7.6955	-29.215766	0.000050	0.504929	0.171075	0.004033
1810	9.0450e-01	-7.6602	-29.090740	0.000313	3.130559	1.060662	0.025005
1811	9.0500e-01	-7.6233	-28.683397	0.001020	10.199564	3.455706	0.081469
1812	9.0550e-01	-7.5816	-28.715662	-0.000081	-0.807886	-0.273719	-0.006453
1813	9.0600e-01	-7.5399	-28.836655	-0.000303	-3.029573	-1.026447	-0.024199
1814	9.0650e-01	-7.4998	-28.715662	0.000303	3.029573	1.026447	0.024199
1815	9.0700e-01	-7.4709	-28.417213	0.000747	7.472948	2.531903	0.059690
1816	9.0750e-01	-7.4180	-28.134896	0.000707	7.069005	2.395044	0.056463
1817	9.0800e-01	-7.3875	-28.155061	-0.000050	-0.504929	-0.171075	-0.004033
1818	9.0850e-01	-7.3394	-28.086499	0.000172	1.716758	0.581653	0.013713
1819	9.0900e-01	-7.2977	-27.884844	0.000505	5.049289	1.710745	0.040331
1820	9.0950e-01	-7.2575	-28.155061	-0.000677	-6.766047	-2.292399	-0.054044
1821	9.1000e-01	-7.2287	-27.973572	0.000454	4.544360	1.539671	0.036298
1822	9.1050e-01	-7.1773	-27.626725	0.000868	8.684777	2.942482	0.069369
1823	9.1100e-01	-7.1517	-27.715454	-0.000222	-2.221687	-0.752728	-0.017746
1824	9.1150e-01	-7.1035	-27.368607	0.000868	8.684777	2.942482	0.069369
1825	9.1200e-01	-7.0666	-27.114522	0.000636	6.362104	2.155539	0.050817
1826	9.1250e-01	-7.0185	-27.509766	-0.000990	-9.896607	-3.353061	-0.079049
1827	9.1300e-01	-6.9880	-27.106456	0.001010	10.098578	3.421491	0.080662
1828	9.1350e-01	-6.9415	-26.957231	0.000374	3.736474	1.265952	0.029845
1829	9.1400e-01	-6.8998	-26.783808	0.000434	4.342389	1.471241	0.034685
1830	9.1450e-01	-6.8629	-26.691047	0.000232	2.322673	0.786943	0.018552
1831	9.1500e-01	-6.8228	-26.590219	0.000252	2.524645	0.855373	0.020165
1832	9.1550e-01	-6.7763	-26.436961	0.000384	3.837460	1.300167	0.030652
1833	9.1600e-01	-6.7426	-26.533756	-0.000242	-2.423659	-0.821158	-0.019359
1834	9.1650e-01	-6.7025	-26.449061	0.000212	2.120701	0.718513	0.016939
1835	9.1700e-01	-6.6688	-26.219174	0.000576	5.756190	1.950250	0.045977
1836	9.1750e-01	-6.6255	-25.799732	0.001050	10.502521	3.558351	0.083888
1837	9.1800e-01	-6.5838	-25.928791	-0.000323	-3.231545	-1.094877	-0.025812
1838	9.1850e-01	-6.5372	-25.743268	0.000465	4.645346	1.573886	0.037105
1839	9.1900e-01	-6.5020	-25.634375	0.000273	2.726616	0.923803	0.021779
1840	9.1950e-01	-6.4635	-25.255263	0.000949	9.492664	3.216201	0.075822
1841	9.2000e-01	-6.4073	-25.537580	-0.000707	-7.069005	-2.395044	-0.056463
1842	9.2050e-01	-6.3832	-25.279462	0.000646	6.463090	2.189754	0.051624
1843	9.2100e-01	-6.3415	-25.231065	0.000121	1.211829	0.410579	0.009679
1844	9.2150e-01	-6.2998	-25.259297	-0.000071	-0.706900	-0.239504	-0.005646
1845	9.2200e-01	-6.2693	-24.968913	0.000727	7.270976	2.463473	0.058077
1846	9.2250e-01	-6.2244	-24.646266	0.000808	8.078863	2.737193	0.064530
1847	9.2300e-01	-6.1859	-24.674497	-0.000071	-0.706900	-0.239504	-0.005646
1848	9.2350e-01	-6.1442	-24.605935	0.000172	1.716758	0.581653	0.013713
1849	9.2400e-01	-6.1025	-24.501074	0.000263	2.625630	0.889588	0.020972
1850	9.2450e-01	-6.0608	-24.549471	-0.000121	-1.211829	-0.410579	-0.009679
1851	9.2500e-01	-6.0255	-24.299419	0.000626	6.261119	2.121324	0.050010
1852	9.2550e-01	-5.9806	-24.105830	0.000485	4.847318	1.642316	0.038718
1853	9.2600e-01	-5.9437	-23.940473	0.000414	4.140417	1.402811	0.033071
1854	9.2650e-01	-5.9052	-23.783182	0.000394	3.938446	1.334381	0.031458
1855	9.2700e-01	-5.8635	-23.650090	0.000333	3.332531	1.129092	0.026618
1856	9.2750e-01	-5.8169	-23.541197	0.000273	2.726616	0.923803	0.021779
1857	9.2800e-01	-5.7897	-23.573461	-0.000081	-0.807886	-0.273719	-0.006453
1858	9.2850e-01	-5.7448	-23.339542	0.000586	5.857175	1.984465	0.046784
1859	9.2900e-01	-5.7095	-23.073357	0.000667	6.665062	2.258184	0.053237
1860	9.2950e-01	-5.6645	-23.190317	-0.000293	-2.928588	-0.992232	-0.023392
1861	9.3000e-01	-5.6196	-23.020927	0.000424	4.241403	1.437026	0.033878
1862	9.3050e-01	-5.5956	-22.895901	0.000313	3.130559	1.060662	0.025005
1863	9.3100e-01	-5.5458	-22.811206	0.000212	2.120701	0.718513	0.016939
1864	9.3150e-01	-5.4945	-22.831371	-0.000050	-0.504929	-0.171075	-0.004033
1865	9.3200e-01	-5.4560	-22.670047	0.000404	4.039431	1.368596	0.032265
1866	9.3250e-01	-5.4223	-22.496624	0.000434	4.342389	1.471241	0.034685
1867	9.3300e-01	-5.3774	-22.436128	0.000151	1.514787	0.513224	0.012099
1868	9.3350e-01	-5.3501	-22.077182	0.000899	8.987735	3.045127	0.071789
1869	9.3400e-01	-5.3052	-22.125579	-0.000121	-1.211829	-0.410579	-0.009679
1870	9.3450e-01	-5.2603	-21.980387	0.000364	3.635488	1.231737	0.029038
1871	9.3500e-01	-5.2218	-21.810997	0.000424	4.241403	1.437026	0.033878
1872	9.3550e-01	-5.1865	-21.903759	-0.000232	-2.322673	-0.786943	-0.018552
1873	9.3600e-01	-5.1464	-21.831163	0.000182	1.817744	0.615868	0.014519
1874	9.3650e-01	-5.0999	-21.423820	0.001020	10.199564	3.455706	0.081469
1875	9.3700e-01	-5.0678	-21.266529	0.000394	3.938446	1.334381	0.031458
1876	9.3750e-01	-5.0261	-21.427853	-0.000404	-4.039431	-1.368596	-0.032265
1877	9.3800e-01	-4.9876	-21.085039	0.000858	8.583792	2.908267	0.068563
1878	9.3850e-01	-4.9394	-20.988245	0.000242	2.423659	0.821158	0.019359
1879	9.3900e-01	-4.8961	-20.976146	0.000030	0.302957	0.102645	0.002420
1880	9.3950e-01	-4.8576	-20.891451	0.000212	2.120701	0.718513	0.016939
1881	9.4000e-01	-4.8175	-20.713994	0.000444	4.443374	1.505456	0.035491
1882	9.4050e-01	-4.7838	-20.637366	0.000192	1.918730	0.650083	0.015326
1883	9.4100e-01	-4.7421	-20.593001	0.000111	1.110844	0.376364	0.008873
1884	9.4150e-01	-4.7036	-20.322784	0.000677	6.766047	2.292399	0.054044
1885	9.4200e-01	-4.6651	-20.181625	0.000353	3.534502	1.197522	0.028232
1886	9.4250e-01	-4.6282	-19.810580	0.000929	9.290692	3.147772	0.074209
1887	9.4300e-01	-4.5865	-19.838812	-0.000071	-0.706900	-0.239504	-0.005646
1888	9.4350e-01	-4.5464	-19.653289	0.000465	4.645346	1.573886	0.037105
1889	9.4400e-01	-4.5015	-19.500032	0.000384	3.837460	1.300167	0.030652
1890	9.4450e-01	-4.4630	-19.697654	-0.000495	-4.948303	-1.676531	-0.039524
1891	9.4500e-01	-4.4277	-19.310476	0.000969	9.694635	3.284631	0.077435
1892	9.4550e-01	-4.3908	-19.306443	0.000010	0.100986	0.034215	0.000807
1893	9.4600e-01	-4.3411	-18.995894	0.000778	7.775905	2.634548	0.062110
1894	9.4650e-01	-4.3090	-18.919266	0.000192	1.918730	0.650083	0.015326
1895	9.4700e-01	-4.2544	-18.991861	-0.000182	-1.817744	-0.615868	-0.014519
1896	9.4750e-01	-4.2239	-18.709544	0.000707	7.069005	2.395044	0.056463
1897	9.4800e-01	-4.1870	-18.439327	0.000677	6.766047	2.292399	0.054044
1898	9.4850e-01	-4.1437	-18.467558	-0.000071	-0.706900	-0.239504	-0.005646
1899	9.4900e-01	-4.1020	-18.197341	0.000677	6.766047	2.292399	0.054044
1900	9.4950e-01	-4.0651	-18.023918	0.000434	4.342389	1.471241	0.034685
1901	9.5000e-01	-4.0250	-18.189275	-0.000414	-4.140417	-1.402811	-0.033071
1902	9.5050e-01	-3.9785	-17.943256	0.000616	6.160133	2.087109	0.049204
1903	9.5100e-01	-3.9400	-17.838395	0.000263	2.625630	0.889588	0.020972
1904	9.5150e-01	-3.8951	-17.689170	0.000374	3.736474	1.265952	0.029845
1905	9.5200e-01	-3.8710	-17.664972	0.000061	0.605915	0.205289	0.004840
1906	9.5250e-01	-3.8213	-17.422986	0.000606	6.059147	2.052895	0.048397
1907	9.5300e-01	-3.7828	-17.181000	0.000606	6.059147	2.052895	0.048397
1908	9.5350e-01	-3.7491	-17.031775	0.000374	3.736474	1.265952	0.029845
1909	9.5400e-01	-3.6978	-17.015643	0.000040	0.403943	0.136860	0.003226
1910	9.5450e-01	-3.6528	-16.926915	0.000222	2.221687	0.752728	0.017746
1911	9.5500e-01	-3.6256	-16.809955	0.000293	2.928588	0.992232	0.023392
1912	9.5550e-01	-3.5790	-16.705094	0.000263	2.625630	0.889588	0.020972
1913	9.5600e-01	-3.5438	-16.483274	0.000555	5.554218	1.881820	0.044364
1914	9.5650e-01	-3.5020	-16.487307	-0.000010	-0.100986	-0.034215	-0.000807
1915	9.5700e-01	-3.4587	-16.418744	0.000172	1.716758	0.581653	0.013713
1916	9.5750e-01	-3.4250	-16.132394	0.000717	7.169991	2.429259	0.057270
1917	9.5800e-01	-3.3833	-16.059799	0.000182	1.817744	0.615868	0.014519
1918	9.5850e-01	-3.3512	-15.999302	0.000151	1.514787	0.513224	0.012099
1919	9.5900e-01	-3.3047	-15.773449	0.000566	5.655204	1.916035	0.045171
1920	9.5950e-01	-3.2614	-15.587926	0.000465	4.645346	1.573886	0.037105
1921	9.6000e-01	-3.2229	-15.317708	0.000677	6.766047	2.292399	0.054044
1922	9.6050e-01	-3.1876	-15.265278	0.000131	1.312815	0.444794	0.010486
1923	9.6100e-01	-3.1491	-15.345940	-0.000202	-2.019716	-0.684298	-0.016132
1924	9.6150e-01	-3.0978	-15.003127	0.000858	8.583792	2.908267	0.068563
1925	9.6200e-01	-3.0721	-14.910366	0.000232	2.322673	0.786943	0.018552
1926	9.6250e-01	-3.0208	-14.781306	0.000323	3.231545	1.094877	0.025812
1927	9.6300e-01	-2.9871	-14.809538	-0.000071	-0.706900	-0.239504	-0.005646
1928	9.6350e-01	-2.9470	-14.547387	0.000656	6.564076	2.223969	0.052430
1929	9.6400e-01	-2.9053	-14.390096	0.000394	3.938446	1.334381	0.031458
1930	9.6450e-01	-2.8587	-14.019051	0.000929	9.290692	3.147772	0.074209
1931	9.6500e-01	-2.8170	-13.974687	0.000111	1.110844	0.376364	0.008873
1932	9.6550e-01	-2.7769	-13.797230	0.000444	4.443374	1.505456	0.035491
1933	9.6600e-01	-2.7384	-13.873859	-0.000192	-1.918730	-0.650083	-0.015326
1934	9.6650e-01	-2.7031	-13.583476	0.000727	7.270976	2.463473	0.058077
1935	9.6700e-01	-2.6598	-13.531046	0.000131	1.312815	0.444794	0.010486
1936	9.6750e-01	-2.6245	-13.410053	0.000303	3.029573	1.026447	0.024199
1937	9.6800e-01	-2.5940	-13.224530	0.000465	4.645346	1.573886	0.037105
1938	9.6850e-01	-2.5539	-13.188232	0.000091	0.908872	0.307934	0.007260
1939	9.6900e-01	-2.4930	-12.784923	0.001010	10.098578	3.421491	0.080662
1940	9.6950e-01	-2.4593	-12.740558	0.000111	1.110844	0.376364	0.008873
1941	9.7000e-01	-2.4192	-12.853485	-0.000283	-2.827602	-0.958017	-0.022585
1942	9.7050e-01	-2.3919	-12.611499	0.000606	6.059147	2.052895	0.048397
1943	9.7100e-01	-2.3486	-12.317083	0.000737	7.371962	2.497688	0.058883
1944	9.7150e-01	-2.3021	-12.260620	0.000141	1.413801	0.479009	0.011293
1945	9.7200e-01	-2.2636	-12.119461	0.000353	3.534502	1.197522	0.028232
1946	9.7250e-01	-2.2283	-12.006535	0.000283	2.827602	0.958017	0.022585
1947	9.7300e-01	-2.1914	-11.792780	0.000535	5.352246	1.813390	0.042751
1948	9.7350e-01	-2.1433	-11.623390	0.000424	4.241403	1.437026	0.033878
1949	9.7400e-01	-2.1015	-11.587092	0.000091	0.908872	0.307934	0.007260
1950	9.7450e-01	-2.0598	-11.397537	0.000475	4.746332	1.608101	0.037911
1951	9.7500e-01	-2.0117	-11.260411	0.000343	3.433517	1.163307	0.027425
1952	9.7550e-01	-1.9892	-11.272511	-0.000030	-0.302957	-0.102645	-0.002420
1953	9.7600e-01	-1.9475	-11.139418	0.000333	3.332531	1.129092	0.026618
1954	9.7650e-01	-1.8994	-10.901466	0.000596	5.958161	2.018680	0.047591
1955	9.7700e-01	-1.8561	-10.909532	-0.000020	-0.201972	-0.068430	-0.001613
1956	9.7750e-01	-1.8240	-10.651413	0.000646	6.463090	2.189754	0.051624
1957	9.7800e-01	-1.7791	-10.598983	0.000131	1.312815	0.444794	0.010486
1958	9.7850e-01	-1.7470	-10.352964	0.000616	6.160133	2.087109	0.049204
1959	9.7900e-01	-1.7021	-10.167442	0.000465	4.645346	1.573886	0.037105
1960	9.7950e-01	-1.6668	-9.937555	0.000576	5.756190	1.950250	0.045977
1961	9.8000e-01	-1.6235	-9.711701	0.000566	5.655204	1.916035	0.045171
1962	9.8050e-01	-1.5882	-9.441484	0.000677	6.766047	2.292399	0.054044
1963	9.8100e-01	-1.5513	-9.739933	-0.000747	-7.472948	-2.531903	-0.059690
1964	9.8150e-01	-1.5032	-9.352756	0.000969	9.694635	3.284631	0.077435
1965	9.8200e-01	-1.4647	-9.235796	0.000293	2.928588	0.992232	0.023392
1966	9.8250e-01	-1.4133	-9.134968	0.000252	2.524645	0.855373	0.020165
1967	9.8300e-01	-1.3828	-8.856685	0.000697	6.968019	2.360829	0.055657
1968	9.8350e-01	-1.3379	-8.808287	0.000121	1.211829	0.410579	0.009679
1969	9.8400e-01	-1.2978	-8.663096	0.000364	3.635488	1.231737	0.029038
1970	9.8450e-01	-1.2561	-8.489673	0.000434	4.342389	1.471241	0.034685
1971	9.8500e-01	-1.2144	-8.344481	0.000364	3.635488	1.231737	0.029038
1972	9.8550e-01	-1.1823	-8.348514	-0.000010	-0.100986	-0.034215	-0.000807
1973	9.8600e-01	-1.1422	-7.985535	0.000909	9.088720	3.079342	0.072596
1974	9.8650e-01	-1.0973	-7.795980	0.000475	4.746332	1.608101	0.037911
1975	9.8700e-01	-1.0604	-7.711285	0.000212	2.120701	0.718513	0.016939
1976	9.8750e-01	-1.0219	-7.594325	0.000293	2.928588	0.992232	0.023392
1977	9.8800e-01	-0.9786	-7.654821	-0.000151	-1.514787	-0.513224	-0.012099
1978	9.8850e-01	-0.9497	-7.195048	0.001151	11.512379	3.900500	0.091955
1979	9.8900e-01	-0.9000	-7.150684	0.000111	1.110844	0.376364	0.008873
1980	9.8950e-01	-0.8615	-7.162783	-0.000030	-0.302957	-0.102645	-0.002420
1981	9.9000e-01	-0.8166	-6.832069	0.000828	8.280834	2.805623	0.066143
1982	9.9050e-01	-0.7764	-6.666712	0.000414	4.140417	1.402811	0.033071
1983	9.9100e-01	-0.7331	-6.541686	0.000313	3.130559	1.060662	0.025005
1984	9.9150e-01	-0.6946	-6.315832	0.000566	5.655204	1.916035	0.045171
1985	9.9200e-01	-0.6642	-6.057714	0.000646	6.463090	2.189754	0.051624
1986	9.9250e-01	-0.6176	-5.932688	0.000313	3.130559	1.060662	0.025005
1987	9.9300e-01	-0.5807	-5.630206	0.000757	7.573934	2.566118	0.060496
1988	9.9350e-01	-0.5390	-5.727000	-0.000242	-2.423659	-0.821158	-0.019359
1989	9.9400e-01	-0.5085	-5.674570	0.000131	1.312815	0.444794	0.010486
1990	9.9450e-01	-0.4636	-5.259161	0.001040	10.401536	3.524136	0.083082
1991	9.9500e-01	-0.4251	-5.472915	-0.000535	-5.352246	-1.813390	-0.042751
1992	9.9550e-01	-0.3802	-5.045406	0.001070	10.704493	3.626780	0.085502
1993	9.9600e-01	-0.3305	-5.093804	-0.000121	-1.211829	-0.410579	-0.009679
1994	9.9650e-01	-0.2984	-4.767123	0.000818	8.179848	2.771408	0.065336
1995	9.9700e-01	-0.2727	-4.412210	0.000889	8.886749	3.010912	0.070983
1996	9.9750e-01	-0.2246	-4.327515	0.000212	2.120701	0.718513	0.016939
1997	9.9800e-01	-0.1829	-4.359780	-0.000081	-0.807886	-0.273719	-0.006453
1998	9.9850e-01	-0.1396	-4.226687	0.000333	3.332531	1.129092	0.026618
1999	9.9900e-01	-0.1059	-3.980668	0.000616	6.160133	2.087109	0.049204
2000	9.9950e-01	-0.0610	-3.936304	0.000111	1.110844	0.376364	0.008873
2001	1.0000e+00	-0.0209	-3.670120	0.000111	1.110844	0.376364	0.053237

Center data before PMax,+/-Pr and +/-Vc Calc.

PMax (uC/cm2):	5.74e+01
Pr (uC/cm2):	3.87e-01
-Pr (uC/cm2):	-3.67e+00
PLoss (uC/cm2):	-1.70e+00
Vc:	4.89e-01
-Vc:	-1.55e-01
C (Max-Eff) (nF):	2.88e-01
K (Eff):	9.75e+02
Vert. (+/-Pr) Shift (uC/cm2):	-1.64e+00
Horiz. Shift (+/-Vc):	1.67e-01
Offset (uC/cm2):	1.90e+00

A (Loop Area - uC/cm2·Volts):	-1.93e-01



Hysteresis Version: 5.48.1 - Radiant Technologies, Inc., 1999 - 9/12/24

