»»»»»»»»»»»»»»»»»»»»»»»»»»»»»»»»»»»» Hysteresis ««««««««««««««««««««««««««««««««««««
»»»  Executed Version:	5.48.1
»»»  Vision Version:	5.48.4 (R)
»»»  Vision Compiled:	9/18/24
»»»  Driver Version:	5.47.0
»»»  Windows Version:	Windows 8 or 8.1
»»»  Processor Information:	x86 (AMD or Intel) - 32 Processors
»»»  Tester Name:	PMF21124-494 (100V)
»»»  Tester S/N:	PMF21124-494
»»»  Internal Amp Type:	100V RevK 270k
»»»  Internal Amp S/N:	iAB2-596/K     
»»»  Execution Count:	1
»»»»»»»»»»»»»»»»»»»»»»»»»»»»»»»»»»»»»»»»»»««««««««««««««««««««««««««««««««««««««««««

Stored:	6/13/2025 - 10:46:30
Configured:	06/13/25 10:12:58 AM
Executed:	06/13/25 10:45:56 AM

»»»»»»»»»»»»»»»»»»»»»»»»»»»»»»»»»»» Sample Info ««««««««««««««««««««««««««««««««««««
Sample Name:	
Lot Name:	
Wafer Name:	
Die Row/Column:	0/0
Capacitor Number:	0
Sample Area (cm2):	1.00e-04
Sample Thickness (microns):	3.00e-01

Amplifier:	Internal

»»»»»»»»»»»»»»»»»»»»»»»»»»»»»»»»»»» Tester Info «««««««««««««««««««««««««««««««««««
Tester Name:	PMF21124-494 (100V)
Tester Serial Number:	PMF21124-494
Return Signal Amp. Level:	1.79 [Index: 2]

»»»»»»»»»»»»»»»»»»»»»»»»»»»»»»»» Hysteresis Info ««««««««««««««««««««««««««««««««««
Task Name:	Hyst-1704
Volts:	20.00
Field:	666.67 (kV/cm)
DCBias:	0.00
DCField:	0.00 (kV/cm)
Hysteresis Period (ms):	1.00e+00
Preset:	Enabled
Preset Delay (ms):	1.00e+03
Profile:	Standard Bipolar

»»»»»»»»»»»»»»»»»»»»»»»»»»»»»»»»»»»»»» Data «««««««««««««««««««««««««««««««««««««««
Points:	2001

Valid Data

Point	Time (ms)	Drive Voltage	Measured Polarization (uC/cm2)	Capacitance (uF)	Normalized Capacitance (uF/cm2)	Dielectric Constant	Instantaneous Current (mA)
   1	0.0000e+00	0.0209	-1.606588	0.000505	5.051865	1.711618	0.040539
   2	5.0000e-04	0.0465	-1.403894	0.000505	5.051865	1.711618	0.040539
   3	1.0000e-03	0.1251	-1.476162	-0.000180	-1.801192	-0.610261	-0.014454
   4	1.5000e-03	0.1684	-1.306395	0.000423	4.231204	1.433571	0.033953
   5	2.0000e-03	0.1925	-1.297415	0.000022	0.223817	0.075831	0.001796
   6	2.5000e-03	0.2278	-1.213601	0.000209	2.088957	0.707758	0.016763
   7	3.0000e-03	0.2743	-0.939920	0.000682	6.821084	2.311046	0.054736
   8	3.5000e-03	0.3273	-0.890316	0.000124	1.236321	0.418877	0.009921
   9	4.0000e-03	0.3144	-0.696602	-0.000483	-4.828048	-1.635787	0.038743
  10	4.5000e-03	0.3914	-0.643576	0.000132	1.321585	0.447765	0.010605
  11	5.0000e-03	0.4315	-0.432329	0.000527	5.265024	1.783838	0.042249
  12	5.5000e-03	0.4684	-0.389994	0.000106	1.055136	0.357490	0.008467
  13	6.0000e-03	0.5150	-0.221082	0.000421	4.209888	1.426349	0.033782
  14	6.5000e-03	0.5519	-0.055164	0.000414	4.135282	1.401072	0.033184
  15	7.0000e-03	0.5952	0.082959	0.000344	3.442516	1.166356	0.027625
  16	7.5000e-03	0.6369	0.230490	0.000368	3.676991	1.245798	0.029506
  17	8.0000e-03	0.6770	0.203977	-0.000066	-0.660793	-0.223883	-0.005303
  18	8.5000e-03	0.7075	0.545650	0.000852	8.515697	2.885196	0.068335
  19	9.0000e-03	0.7893	0.487920	-0.000144	-1.438822	-0.487486	-0.011546
  20	9.5000e-03	0.7941	0.588412	0.000250	2.504617	0.848587	0.020098
  21	1.0000e-02	0.8422	0.614498	0.000065	0.650135	0.220272	0.005217
  22	1.0500e-02	0.8631	0.954887	0.000848	8.483723	2.874363	0.068078
  23	1.1000e-02	0.9272	0.918111	-0.000092	-0.916583	-0.310547	-0.007355
  24	1.1500e-02	0.9625	1.164851	0.000615	6.149634	2.083552	0.049348
  25	1.2000e-02	0.9914	1.235837	0.000177	1.769219	0.599428	0.014197
  26	1.2500e-02	1.0395	1.483004	0.000616	6.160291	2.087163	0.049433
  27	1.3000e-02	1.0572	1.535175	0.000130	1.300269	0.440543	0.010434
  28	1.3500e-02	1.1101	1.683133	0.000369	3.687649	1.249409	0.029592
  29	1.4000e-02	1.1695	1.585635	-0.000243	-2.430011	-0.823310	-0.019500
  30	1.4500e-02	1.2000	2.010694	0.001059	10.593996	3.589343	0.085012
  31	1.5000e-02	1.2192	2.025661	0.000037	0.373028	0.126385	0.002993
  32	1.5500e-02	1.2561	2.112041	0.000215	2.152905	0.729424	0.017276
  33	1.6000e-02	1.3026	2.194145	0.000205	2.046325	0.693314	0.016421
  34	1.6500e-02	1.3427	2.380590	0.000465	4.646863	1.574400	0.037289
  35	1.7000e-02	1.3973	2.592264	0.000528	5.275682	1.787449	0.042335
  36	1.7500e-02	1.4262	2.811636	0.000547	5.467525	1.852448	0.043874
  37	1.8000e-02	1.4695	2.770157	-0.000103	-1.033821	-0.350268	-0.008296
  38	1.8500e-02	1.5096	2.825320	0.000137	1.374875	0.465820	0.011033
  39	1.9000e-02	1.5609	2.943345	0.000294	2.941592	0.996639	0.023605
  40	1.9500e-02	1.6010	3.148177	0.000511	5.105155	1.729673	0.040967
  41	2.0000e-02	1.6572	3.207190	0.000147	1.470796	0.498319	0.011802
  42	2.0500e-02	1.6604	3.323076	0.000289	2.888303	0.978583	0.023177
  43	2.1000e-02	1.7181	3.534751	0.000528	5.275682	1.787449	0.042335
  44	2.1500e-02	1.7486	3.782773	0.000618	6.181607	2.094385	0.049605
  45	2.2000e-02	1.8016	3.758399	-0.000061	-0.607503	-0.205828	-0.004875
  46	2.2500e-02	1.8304	3.890535	0.000329	3.293305	1.115802	0.026427
  47	2.3000e-02	1.8737	3.933297	0.000107	1.065794	0.361101	0.008553
  48	2.3500e-02	1.9138	3.968363	0.000087	0.873951	0.296103	0.007013
  49	2.4000e-02	1.9732	4.140696	0.000430	4.295151	1.455237	0.034467
  50	2.4500e-02	1.9941	4.431908	0.000726	7.258060	2.459097	0.058243
  51	2.5000e-02	2.0342	4.614932	0.000456	4.561600	1.545512	0.036605
  52	2.5500e-02	2.0743	4.706444	0.000228	2.280800	0.772756	0.018302
  53	2.6000e-02	2.0887	4.667957	-0.000096	-0.959215	-0.324991	-0.007697
  54	2.6500e-02	2.1737	4.823185	0.000387	3.868834	1.310796	0.031046
  55	2.7000e-02	2.2074	5.019893	0.000490	4.902654	1.661064	0.039342
  56	2.7500e-02	2.2363	5.112260	0.000230	2.302116	0.779978	0.018473
  57	2.8000e-02	2.2828	5.294856	0.000455	4.550942	1.541901	0.036519
  58	2.8500e-02	2.3069	5.441532	0.000366	3.655675	1.238576	0.029335
  59	2.9000e-02	2.3678	5.367552	-0.000184	-1.843824	-0.624705	-0.014796
  60	2.9500e-02	2.4015	5.674160	0.000764	7.641746	2.589094	0.061321
  61	3.0000e-02	2.4272	5.770803	0.000241	2.408695	0.816088	0.019329
  62	3.0500e-02	2.4593	5.909354	0.000345	3.453174	1.169967	0.027710
  63	3.1000e-02	2.5331	5.915768	0.000016	0.159869	0.054165	0.001283
  64	3.1500e-02	2.5571	6.141554	0.000563	5.627394	1.906613	0.045157
  65	3.2000e-02	2.5828	6.356222	0.000535	5.350288	1.812727	0.042934
  66	3.2500e-02	2.6438	6.297210	-0.000147	-1.470796	-0.498319	-0.011802
  67	3.3000e-02	2.6807	6.487503	0.000474	4.742785	1.606899	0.038059
  68	3.3500e-02	2.7336	6.499904	0.000031	0.309080	0.104719	0.002480
  69	3.4000e-02	2.7513	6.852267	0.000878	8.782146	2.975471	0.070473
  70	3.4500e-02	2.8042	6.826182	-0.000065	-0.650135	-0.220272	-0.005217
  71	3.5000e-02	2.8459	6.946773	0.000301	3.005540	1.018305	0.024118
  72	3.5500e-02	2.8571	7.180256	0.000582	5.819237	1.971611	0.046697
  73	3.6000e-02	2.9117	7.271340	0.000227	2.270142	0.769145	0.018217
  74	3.6500e-02	2.9614	7.439397	0.000419	4.188572	1.419127	0.033611
  75	3.7000e-02	2.9903	7.418016	-0.000053	-0.532897	-0.180550	-0.004276
  76	3.7500e-02	3.0256	7.540316	0.000305	3.048172	1.032749	0.024460
  77	3.8000e-02	3.0657	7.892680	0.000878	8.782146	2.975471	0.070473
  78	3.8500e-02	3.1138	7.830674	-0.000155	-1.545402	-0.523596	-0.012401
  79	3.9000e-02	3.1459	7.981198	0.000375	3.751596	1.271075	0.030105
  80	3.9500e-02	3.1940	8.053467	0.000180	1.801192	0.610261	0.014454
  81	4.0000e-02	3.2309	8.126591	0.000182	1.822508	0.617483	0.014625
  82	4.0500e-02	3.2630	8.407968	0.000701	7.012927	2.376044	0.056275
  83	4.1000e-02	3.3063	8.483658	0.000189	1.886456	0.639149	0.015138
  84	4.1500e-02	3.3496	8.758621	0.000685	6.853058	2.321879	0.054993
  85	4.2000e-02	3.3881	8.744937	-0.000034	-0.341054	-0.115552	-0.002737
  86	4.2500e-02	3.4250	8.844146	0.000247	2.472643	0.837754	0.019842
  87	4.3000e-02	3.4587	9.117398	0.000681	6.810426	2.307435	0.054651
  88	4.3500e-02	3.4940	9.291870	0.000435	4.348441	1.473292	0.034894
  89	4.4000e-02	3.5566	9.239272	-0.000131	-1.310927	-0.444154	-0.010520
  90	4.4500e-02	3.5806	9.332494	0.000232	2.323432	0.787200	0.018644
  91	4.5000e-02	3.6336	9.419730	0.000217	2.174221	0.736646	0.017447
  92	4.5500e-02	3.6577	9.554432	0.000336	3.357252	1.137468	0.026940
  93	4.6000e-02	3.7010	9.799033	0.000610	6.096344	2.065497	0.048920
  94	4.6500e-02	3.7363	9.775941	-0.000058	-0.575529	-0.194994	-0.004618
  95	4.7000e-02	3.7988	9.903374	0.000318	3.176067	1.076081	0.025486
  96	4.7500e-02	3.8245	10.045345	0.000354	3.538437	1.198855	0.028394
  97	4.8000e-02	3.8758	10.183041	0.000343	3.431858	1.162745	0.027539
  98	4.8500e-02	3.9031	10.086397	-0.000241	-2.408695	-0.816088	-0.019329
  99	4.9000e-02	3.9496	10.352808	0.000664	6.639899	2.249659	0.053282
 100	4.9500e-02	3.9977	10.429353	0.000191	1.907772	0.646371	0.015309
 101	5.0000e-02	4.0090	10.732112	0.000755	7.545824	2.556594	0.060552
 102	5.0500e-02	4.0491	10.818064	0.000214	2.142247	0.725813	0.017191
 103	5.1000e-02	4.1229	10.925398	0.000268	2.675144	0.906363	0.021467
 104	5.1500e-02	4.1742	10.939082	0.000034	0.341054	0.115552	0.002737
 105	5.2000e-02	4.2063	11.030166	0.000227	2.270142	0.769145	0.018217
 106	5.2500e-02	4.2448	11.200789	0.000425	4.252520	1.440793	0.034124
 107	5.3000e-02	4.2817	11.412891	0.000529	5.286340	1.791060	0.042420
 108	5.3500e-02	4.2961	11.512528	0.000248	2.483301	0.841365	0.019927
 109	5.4000e-02	4.3555	11.552297	0.000099	0.991189	0.335824	0.007954
 110	5.4500e-02	4.3876	11.721209	0.000421	4.209888	1.426349	0.033782
 111	5.5000e-02	4.4437	11.834102	0.000281	2.813697	0.953306	0.022579
 112	5.5500e-02	4.4838	11.927752	0.000233	2.334090	0.790811	0.018730
 113	5.6000e-02	4.5111	12.204853	0.000691	6.906348	2.339934	0.055420
 114	5.6500e-02	4.5576	12.169360	-0.000088	-0.884609	-0.299714	-0.007099
 115	5.7000e-02	4.5961	12.372054	0.000505	5.051865	1.711618	0.040539
 116	5.7500e-02	4.6218	12.553368	0.000452	4.518968	1.531068	0.036263
 117	5.8000e-02	4.6892	12.399422	-0.000384	-3.836860	-1.299963	-0.030789
 118	5.8500e-02	4.7020	12.691491	0.000728	7.279376	2.466319	0.058414
 119	5.9000e-02	4.7164	12.872376	0.000451	4.508310	1.527457	0.036177
 120	5.9500e-02	4.7758	13.060959	0.000470	4.700153	1.592455	0.037717
 121	6.0000e-02	4.8287	13.146056	0.000212	2.120931	0.718591	0.017019
 122	6.0500e-02	4.8721	13.118688	-0.000068	-0.682108	-0.231105	-0.005474
 123	6.1000e-02	4.9122	13.332501	0.000533	5.328972	1.805505	0.042763
 124	6.1500e-02	4.9426	13.356448	0.000060	0.596845	0.202217	0.004789
 125	6.2000e-02	4.9956	13.416743	0.000150	1.502770	0.509152	0.012059
 126	6.2500e-02	5.0341	13.522366	0.000263	2.632512	0.891919	0.021125
 127	6.3000e-02	5.0549	13.946571	0.001057	10.572680	3.582121	0.084841
 128	6.3500e-02	5.0886	13.852493	-0.000234	-2.344748	-0.794422	-0.018816
 129	6.4000e-02	5.1384	13.914499	0.000155	1.545402	0.523596	0.012401
 130	6.4500e-02	5.1913	14.071865	0.000392	3.922123	1.328851	0.031473
 131	6.5000e-02	5.2346	14.149265	0.000193	1.929088	0.653593	0.015480
 132	6.5500e-02	5.2876	14.278408	0.000322	3.218699	1.090525	0.025829
 133	6.6000e-02	5.2988	14.507187	0.000570	5.702000	1.931890	0.045756
 134	6.6500e-02	5.3501	14.464425	-0.000107	-1.065794	-0.361101	-0.008553
 135	6.7000e-02	5.3774	14.707316	0.000605	6.053712	2.051053	0.048578
 136	6.7500e-02	5.4271	14.827479	0.000299	2.994882	1.014694	0.024033
 137	6.8000e-02	5.4704	14.832610	0.000013	0.127895	0.043332	0.001026
 138	6.8500e-02	5.5073	15.013923	0.000452	4.518968	1.531068	0.036263
 139	6.9000e-02	5.5731	15.000239	-0.000034	-0.341054	-0.115552	-0.002737
 140	6.9500e-02	5.6148	15.030173	0.000075	0.746056	0.252771	0.005987
 141	7.0000e-02	5.6325	15.391089	0.000900	8.995304	3.047692	0.072183
 142	7.0500e-02	5.6629	15.407766	0.000042	0.415660	0.140829	0.003335
 143	7.1000e-02	5.6806	15.684012	0.000689	6.885032	2.332712	0.055249
 144	7.1500e-02	5.7415	15.755853	0.000179	1.790535	0.606650	0.014368
 145	7.2000e-02	5.7865	15.777662	0.000054	0.543555	0.184161	0.004362
 146	7.2500e-02	5.8266	15.909798	0.000329	3.293305	1.115802	0.026427
 147	7.3000e-02	5.8715	16.089829	0.000449	4.486994	1.520235	0.036006
 148	7.3500e-02	5.8891	16.104795	0.000037	0.373028	0.126385	0.002993
 149	7.4000e-02	5.9629	16.241636	0.000341	3.410542	1.155523	0.027368
 150	7.4500e-02	5.9982	16.517881	0.000689	6.885032	2.332712	0.055249
 151	7.5000e-02	6.0399	16.508474	-0.000023	-0.234475	-0.079442	-0.001882
 152	7.5500e-02	6.0736	16.509757	0.000003	0.031974	0.010833	0.000257
 153	7.6000e-02	6.0993	16.664985	0.000387	3.868834	1.310796	0.031046
 154	7.6500e-02	6.1635	16.843732	0.000446	4.455020	1.509402	0.035749
 155	7.7000e-02	6.1988	16.946790	0.000257	2.568564	0.870253	0.020612
 156	7.7500e-02	6.2292	17.165734	0.000546	5.456867	1.848837	0.043789
 157	7.8000e-02	6.2677	17.066097	-0.000248	-2.483301	-0.841365	-0.019927
 158	7.8500e-02	6.2982	17.472341	0.001013	10.125047	3.430459	0.081249
 159	7.9000e-02	6.3431	17.434282	-0.000095	-0.948557	-0.321380	-0.007612
 160	7.9500e-02	6.4025	17.600201	0.000414	4.135282	1.401072	0.033184
 161	8.0000e-02	6.4394	17.699410	0.000247	2.472643	0.837754	0.019842
 162	8.0500e-02	6.4763	17.893124	0.000483	4.828048	1.635787	0.038743
 163	8.1000e-02	6.4923	18.032958	0.000349	3.485148	1.180800	0.027967
 164	8.1500e-02	6.5437	18.045787	0.000032	0.319738	0.108330	0.002566
 165	8.2000e-02	6.5886	18.235652	0.000473	4.732127	1.603288	0.037973
 166	8.2500e-02	6.6335	18.162528	-0.000182	-1.822508	-0.617483	-0.014625
 167	8.3000e-02	6.6640	18.370354	0.000518	5.179761	1.754950	0.041565
 168	8.3500e-02	6.6880	18.534990	0.000410	4.103308	1.390238	0.032927
 169	8.4000e-02	6.7233	18.565779	0.000077	0.767372	0.259993	0.006158
 170	8.4500e-02	6.7859	18.708178	0.000355	3.549095	1.202466	0.028480
 171	8.5000e-02	6.8244	18.865544	0.000392	3.922123	1.328851	0.031473
 172	8.5500e-02	6.8773	18.950642	0.000212	2.120931	0.718591	0.017019
 173	8.6000e-02	6.9078	19.073798	0.000307	3.069488	1.039971	0.024631
 174	8.6500e-02	6.9560	19.166592	0.000231	2.312774	0.783589	0.018559
 175	8.7000e-02	6.9560	19.358596	-0.000479	-4.785417	-1.621343	0.038401
 176	8.7500e-02	7.0297	19.423168	0.000161	1.609349	0.545262	0.012914
 177	8.8000e-02	7.0634	19.467213	0.000110	1.097768	0.371934	0.008809
 178	8.8500e-02	7.1116	19.641256	0.000434	4.337783	1.469681	0.034809
 179	8.9000e-02	7.1613	19.678888	0.000094	0.937899	0.317769	0.007526
 180	8.9500e-02	7.1966	19.949574	0.000675	6.746478	2.285769	0.054137
 181	9.0000e-02	7.2255	19.991482	0.000104	1.044478	0.353879	0.008381
 182	9.0500e-02	7.2608	20.082993	0.000228	2.280800	0.772756	0.018302
 183	9.1000e-02	7.3041	20.198025	0.000287	2.866987	0.971361	0.023006
 184	9.1500e-02	7.3634	20.339141	0.000352	3.517121	1.191633	0.028223
 185	9.2000e-02	7.4051	20.489237	0.000374	3.740938	1.267464	0.030019
 186	9.2500e-02	7.4340	20.470422	-0.000047	-0.468950	-0.158884	-0.003763
 187	9.3000e-02	7.4741	20.648314	0.000443	4.433705	1.502180	0.035578
 188	9.3500e-02	7.5126	20.790286	0.000354	3.538437	1.198855	0.028394
 189	9.4000e-02	7.5431	20.844166	0.000134	1.342901	0.454987	0.010776
 190	9.4500e-02	7.5993	20.959625	0.000288	2.877645	0.974972	0.023092
 191	9.5000e-02	7.6265	21.094327	0.000336	3.357252	1.137468	0.026940
 192	9.5500e-02	7.6827	21.152912	0.000146	1.460138	0.494708	0.011717
 193	9.6000e-02	7.7148	21.415046	0.000653	6.533319	2.213549	0.052427
 194	9.6500e-02	7.7420	21.469782	0.000136	1.364217	0.462209	0.010947
 195	9.7000e-02	7.7757	21.531360	0.000153	1.534744	0.519985	0.012316
 196	9.7500e-02	7.8287	21.625438	0.000234	2.344748	0.794422	0.018816
 197	9.8000e-02	7.8880	21.801192	0.000438	4.380415	1.484125	0.035151
 198	9.8500e-02	7.8960	21.920927	0.000298	2.984224	1.011083	0.023947
 199	9.9000e-02	7.9490	21.934183	0.000033	0.330396	0.111941	0.002651
 200	9.9500e-02	7.9955	22.170232	0.000588	5.883185	1.993277	0.047210
 201	1.0000e-01	8.0308	22.190758	0.000051	0.511581	0.173328	0.004105
 202	1.0050e-01	8.0757	22.353684	0.000406	4.060677	1.375794	0.032585
 203	1.0100e-01	8.1030	22.475129	0.000303	3.026856	1.025527	0.024289
 204	1.0150e-01	8.1704	22.653021	0.000443	4.433705	1.502180	0.035578
 205	1.0200e-01	8.1976	22.460162	-0.000481	-4.806733	-1.628565	-0.038572
 206	1.0250e-01	8.2377	22.823216	0.000905	9.048594	3.065747	0.072611
 207	1.0300e-01	8.2778	22.844597	0.000053	0.532897	0.180550	0.004276
 208	1.0350e-01	8.3051	22.919859	0.000188	1.875798	0.635538	0.015052
 209	1.0400e-01	8.3420	23.179428	0.000647	6.469372	2.191883	0.051914
 210	1.0450e-01	8.3901	23.233736	0.000135	1.353559	0.458598	0.010862
 211	1.0500e-01	8.4607	23.151632	-0.000205	-2.046325	-0.693314	-0.016421
 212	1.0550e-01	8.4351	23.498009	-0.000863	-8.632934	-2.924917	0.069275
 213	1.0600e-01	8.5024	23.572843	0.000187	1.865140	0.631927	0.014967
 214	1.0650e-01	8.5522	23.625014	0.000130	1.300269	0.440543	0.010434
 215	1.0700e-01	8.5987	23.764419	0.000347	3.474490	1.177189	0.027881
 216	1.0750e-01	8.6452	23.908101	0.000358	3.581069	1.213299	0.028736
 217	1.0800e-01	8.6564	24.062474	0.000385	3.847518	1.303574	0.030875
 218	1.0850e-01	8.7030	24.104381	0.000104	1.044478	0.353879	0.008381
 219	1.0900e-01	8.7334	24.224972	0.000301	3.005540	1.018305	0.024118
 220	1.0950e-01	8.8008	24.320332	0.000238	2.376721	0.805255	0.019072
 221	1.1000e-01	8.8297	24.373358	0.000132	1.321585	0.447765	0.010605
 222	1.1050e-01	8.8730	24.660294	0.000715	7.151480	2.422987	0.057387
 223	1.1100e-01	8.9067	24.529441	-0.000326	-3.261331	-1.104969	-0.026171
 224	1.1150e-01	8.9388	24.824075	0.000734	7.343323	2.487985	0.058927
 225	1.1200e-01	9.0014	24.955783	0.000328	3.282647	1.112191	0.026342
 226	1.1250e-01	9.0415	25.007098	0.000128	1.278953	0.433321	0.010263
 227	1.1300e-01	9.0527	25.072953	0.000164	1.641323	0.556095	0.013171
 228	1.1350e-01	9.1056	25.157623	0.000211	2.110273	0.714980	0.016934
 229	1.1400e-01	9.1473	25.359034	0.000502	5.019891	1.700785	0.040282
 230	1.1450e-01	9.1858	25.408211	0.000123	1.225664	0.415266	0.009835
 231	1.1500e-01	9.2372	25.408639	0.000001	0.010658	0.003611	0.000086
 232	1.1550e-01	9.2885	25.661793	0.000631	6.309503	2.137717	0.050631
 233	1.1600e-01	9.3094	25.811034	0.000372	3.719622	1.260242	0.029848
 234	1.1650e-01	9.3527	25.854224	0.000108	1.076452	0.364712	0.008638
 235	1.1700e-01	9.3944	25.996623	0.000355	3.549095	1.202466	0.028480
 236	1.1750e-01	9.4537	25.977380	-0.000048	-0.479607	-0.162495	-0.003849
 237	1.1800e-01	9.4650	26.278428	0.000750	7.503192	2.542150	0.060210
 238	1.1850e-01	9.4971	26.430235	0.000378	3.783570	1.281908	0.030361
 239	1.1900e-01	9.5420	26.463162	0.000082	0.820662	0.278048	0.006585
 240	1.1950e-01	9.6013	26.445630	-0.000044	-0.436976	-0.148051	-0.003507
 241	1.2000e-01	9.6366	26.570924	0.000312	3.122777	1.058026	0.025059
 242	1.2050e-01	9.6639	26.716744	0.000363	3.634359	1.231354	0.029164
 243	1.2100e-01	9.7233	26.848025	0.000327	3.271989	1.108580	0.026256
 244	1.2150e-01	9.7265	27.053713	0.000513	5.126471	1.736895	0.041138
 245	1.2200e-01	9.7938	27.070818	0.000043	0.426318	0.144440	0.003421
 246	1.2250e-01	9.8307	27.187987	0.000292	2.920277	0.989416	0.023434
 247	1.2300e-01	9.8580	27.183711	-0.000011	-0.106579	-0.036110	-0.000855
 248	1.2350e-01	9.9061	27.370583	0.000466	4.657521	1.578011	0.037374
 249	1.2400e-01	9.9527	27.498443	0.000319	3.186725	1.079692	0.025572
 250	1.2450e-01	9.9767	27.582685	0.000210	2.099615	0.711369	0.016848
 251	1.2500e-01	10.0489	27.596797	0.000035	0.351712	0.119163	0.002822
 252	1.2550e-01	10.0617	27.679756	0.000207	2.067641	0.700536	0.016592
 253	1.2600e-01	10.1163	27.875181	0.000487	4.870680	1.650231	0.039085
 254	1.2650e-01	10.1612	27.903404	0.000070	0.703424	0.238327	0.005645
 255	1.2700e-01	10.1949	28.112086	0.000520	5.201077	1.762172	0.041736
 256	1.2750e-01	10.2286	28.299385	0.000467	4.668179	1.581622	0.037460
 257	1.2800e-01	10.2912	28.103105	-0.000489	-4.891996	-1.657453	-0.039256
 258	1.2850e-01	10.3248	28.297675	0.000485	4.849364	1.643009	0.038914
 259	1.2900e-01	10.3585	28.503790	0.000514	5.137129	1.740506	0.041223
 260	1.2950e-01	10.3938	28.581190	0.000193	1.929088	0.653593	0.015480
 261	1.3000e-01	10.4259	28.691945	0.000276	2.760407	0.935251	0.022151
 262	1.3050e-01	10.4853	28.832634	0.000351	3.506463	1.188022	0.028138
 263	1.3100e-01	10.4981	28.889081	0.000141	1.406849	0.476653	0.011289
 264	1.3150e-01	10.5767	28.958784	0.000174	1.737245	0.588594	0.013941
 265	1.3200e-01	10.5927	29.081084	0.000305	3.048172	1.032749	0.024460
 266	1.3250e-01	10.6232	29.201247	0.000299	2.994882	1.014694	0.024033
 267	1.3300e-01	10.6714	29.365455	0.000409	4.092650	1.386627	0.032842
 268	1.3350e-01	10.7115	29.396672	0.000078	0.778030	0.263604	0.006243
 269	1.3400e-01	10.7612	29.584827	0.000469	4.689495	1.588844	0.037631
 270	1.3450e-01	10.8093	29.555321	-0.000074	-0.735398	-0.249160	-0.005901
 271	1.3500e-01	10.8350	29.748607	0.000482	4.817391	1.632176	0.038657
 272	1.3550e-01	10.8591	29.868343	0.000298	2.984224	1.011083	0.023947
 273	1.3600e-01	10.9328	30.027847	0.000398	3.975413	1.346906	0.031901
 274	1.3650e-01	10.9553	30.040248	0.000031	0.309080	0.104719	0.002480
 275	1.3700e-01	10.9890	30.221133	0.000451	4.508310	1.527457	0.036177
 276	1.3750e-01	11.0291	30.292119	0.000177	1.769219	0.599428	0.014197
 277	1.3800e-01	11.0580	30.524320	0.000579	5.787263	1.960778	0.046440
 278	1.3850e-01	11.1141	30.511919	-0.000031	-0.309080	-0.104719	-0.002480
 279	1.3900e-01	11.1382	30.686390	0.000435	4.348441	1.473292	0.034894
 280	1.3950e-01	11.1783	30.843328	0.000391	3.911465	1.325240	0.031388
 281	1.4000e-01	11.2312	30.681258	-0.000404	-4.039361	-1.368572	-0.032414
 282	1.4050e-01	11.2729	30.919445	0.000594	5.936475	2.011332	0.047637
 283	1.4100e-01	11.3195	30.957504	0.000095	0.948557	0.321380	0.007612
 284	1.4150e-01	11.3467	31.050299	0.000231	2.312774	0.783589	0.018559
 285	1.4200e-01	11.3756	31.260690	0.000524	5.243708	1.776616	0.042078
 286	1.4250e-01	11.4430	31.284210	0.000059	0.586187	0.198605	0.004704
 287	1.4300e-01	11.4703	31.388550	0.000260	2.600538	0.881086	0.020868
 288	1.4350e-01	11.5232	31.396248	0.000019	0.191843	0.064998	0.001539
 289	1.4400e-01	11.5409	31.517693	0.000303	3.026856	1.025527	0.024289
 290	1.4450e-01	11.5777	31.817031	0.000746	7.460561	2.527706	0.059868
 291	1.4500e-01	11.6355	31.871339	0.000135	1.353559	0.458598	0.010862
 292	1.4550e-01	11.6868	31.794794	-0.000191	-1.907772	-0.646371	-0.015309
 293	1.4600e-01	11.7205	32.024857	0.000573	5.733974	1.942723	0.046012
 294	1.4650e-01	11.7446	32.138178	0.000282	2.824355	0.956917	0.022664
 295	1.4700e-01	11.7895	32.205742	0.000168	1.683955	0.570539	0.013513
 296	1.4750e-01	11.8184	32.305379	0.000248	2.483301	0.841365	0.019927
 297	1.4800e-01	11.8922	32.399884	0.000236	2.355406	0.798033	0.018901
 298	1.4850e-01	11.9194	32.412713	0.000032	0.319738	0.108330	0.002566
 299	1.4900e-01	11.9580	32.575638	0.000406	4.060677	1.375794	0.032585
 300	1.4950e-01	11.9756	32.800141	0.000560	5.595420	1.895780	0.044901
 301	1.5000e-01	12.0301	32.815108	0.000037	0.373028	0.126385	0.002993
 302	1.5050e-01	12.0751	32.873693	0.000146	1.460138	0.494708	0.011717
 303	1.5100e-01	12.1168	32.995566	0.000304	3.037514	1.029138	0.024375
 304	1.5150e-01	12.1424	33.106749	0.000277	2.771065	0.938862	0.022237
 305	1.5200e-01	12.1858	33.295759	0.000471	4.710811	1.596066	0.037802
 306	1.5250e-01	12.2210	33.286779	-0.000022	-0.223817	-0.075831	-0.001796
 307	1.5300e-01	12.2804	33.432172	0.000362	3.623701	1.227743	0.029079
 308	1.5350e-01	12.3205	33.471941	0.000099	0.991189	0.335824	0.007954
 309	1.5400e-01	12.3446	33.700720	0.000570	5.702000	1.931890	0.045756
 310	1.5450e-01	12.3975	33.780259	0.000198	1.982378	0.671648	0.015908
 311	1.5500e-01	12.4328	33.979532	0.000497	4.966602	1.682730	0.039855
 312	1.5550e-01	12.4665	33.803778	-0.000438	-4.380415	-1.484125	-0.035151
 313	1.5600e-01	12.5146	34.010321	0.000515	5.147787	1.744117	0.041309
 314	1.5650e-01	12.5644	34.133049	0.000306	3.058830	1.036360	0.024546
 315	1.5700e-01	12.5820	34.285284	0.000379	3.794228	1.285519	0.030447
 316	1.5750e-01	12.6430	34.337454	0.000130	1.300269	0.440543	0.010434
 317	1.5800e-01	12.6734	34.455479	0.000294	2.941592	0.996639	0.023605
 318	1.5850e-01	12.7200	34.508077	0.000131	1.310927	0.444154	0.010520
 319	1.5900e-01	12.7681	34.619259	0.000277	2.771065	0.938862	0.022237
 320	1.5950e-01	12.8066	34.727876	0.000271	2.707118	0.917196	0.021723
 321	1.6000e-01	12.8307	34.738139	0.000026	0.255791	0.086664	0.002053
 322	1.6050e-01	12.8692	34.895933	0.000393	3.932781	1.332462	0.031559
 323	1.6100e-01	12.9141	35.063562	0.000418	4.177914	1.415516	0.033526
 324	1.6150e-01	12.9173	35.357341	0.000732	7.322007	2.480763	0.058756
 325	1.6200e-01	12.9927	35.148659	-0.000520	-5.201077	-1.762172	-0.041736
 326	1.6250e-01	13.0264	35.317571	0.000421	4.209888	1.426349	0.033782
 327	1.6300e-01	13.0841	35.331683	0.000035	0.351712	0.119163	0.002822
 328	1.6350e-01	13.1082	35.524542	0.000481	4.806733	1.628565	0.038572
 329	1.6400e-01	13.1515	35.430465	-0.000234	-2.344748	-0.794422	-0.018816
 330	1.6450e-01	13.1964	35.724671	0.000733	7.332665	2.484374	0.058841
 331	1.6500e-01	13.2365	35.724243	-0.000001	-0.010658	-0.003611	-0.000086
 332	1.6550e-01	13.2750	35.988088	0.000658	6.575951	2.227993	0.052769
 333	1.6600e-01	13.3007	36.038975	0.000127	1.268295	0.429710	0.010177
 334	1.6650e-01	13.3520	36.034271	-0.000012	-0.117237	-0.039721	-0.000941
 335	1.6700e-01	13.3857	36.212164	0.000443	4.433705	1.502180	0.035578
 336	1.6750e-01	13.4595	36.247229	0.000087	0.873951	0.296103	0.007013
 337	1.6800e-01	13.4691	36.322918	0.000189	1.886456	0.639149	0.015138
 338	1.6850e-01	13.4980	36.425121	0.000255	2.547249	0.863031	0.020440
 339	1.6900e-01	13.5510	36.460186	0.000087	0.873951	0.296103	0.007013
 340	1.6950e-01	13.5975	36.641499	0.000452	4.518968	1.531068	0.036263
 341	1.7000e-01	13.6247	36.764655	0.000307	3.069488	1.039971	0.024631
 342	1.7050e-01	13.6713	36.937416	0.000431	4.305809	1.458848	0.034552
 343	1.7100e-01	13.7066	36.988303	0.000127	1.268295	0.429710	0.010177
 344	1.7150e-01	13.7467	37.097775	0.000273	2.728434	0.924418	0.021894
 345	1.7200e-01	13.7964	37.121295	0.000059	0.586187	0.198605	0.004704
 346	1.7250e-01	13.8221	37.258990	0.000343	3.431858	1.162745	0.027539
 347	1.7300e-01	13.8558	37.338956	0.000199	1.993035	0.675259	0.015993
 348	1.7350e-01	13.9231	37.442441	0.000258	2.579222	0.873864	0.020697
 349	1.7400e-01	13.9440	37.362048	-0.000200	-2.003693	-0.678870	-0.016079
 350	1.7450e-01	13.9793	37.687898	0.000812	8.121353	2.751589	0.065170
 351	1.7500e-01	14.0322	37.640432	-0.000118	-1.183032	-0.400822	-0.009493
 352	1.7550e-01	14.0627	37.758884	0.000295	2.952250	1.000250	0.023690
 353	1.7600e-01	14.0996	37.955592	0.000490	4.902654	1.661064	0.039342
 354	1.7650e-01	14.1477	38.012466	0.000142	1.417507	0.480264	0.011375
 355	1.7700e-01	14.1975	38.039406	0.000067	0.671450	0.227494	0.005388
 356	1.7750e-01	14.2328	38.127925	0.000221	2.206194	0.747479	0.017704
 357	1.7800e-01	14.2809	38.263054	0.000337	3.367910	1.141079	0.027026
 358	1.7850e-01	14.3130	38.397329	0.000335	3.346594	1.133857	0.026855
 359	1.7900e-01	14.3675	38.511077	0.000284	2.835013	0.960528	0.022750
 360	1.7950e-01	14.3980	38.541438	0.000076	0.756714	0.256382	0.006072
 361	1.8000e-01	14.4237	38.594464	0.000132	1.321585	0.447765	0.010605
 362	1.8050e-01	14.4686	38.728311	0.000334	3.335936	1.130246	0.026769
 363	1.8100e-01	14.5087	38.847618	0.000297	2.973566	1.007472	0.023861
 364	1.8150e-01	14.5520	39.032780	0.000461	4.614890	1.563567	0.037032
 365	1.8200e-01	14.5857	38.934854	-0.000244	-2.440669	-0.826921	-0.019585
 366	1.8250e-01	14.6515	39.025938	0.000227	2.270142	0.769145	0.018217
 367	1.8300e-01	14.6611	39.246165	0.000549	5.488841	1.859670	0.044045
 368	1.8350e-01	14.7124	39.340242	0.000234	2.344748	0.794422	0.018816
 369	1.8400e-01	14.7493	39.362907	0.000056	0.564871	0.191383	0.004533
 370	1.8450e-01	14.7830	39.527115	0.000409	4.092650	1.386627	0.032842
 371	1.8500e-01	14.8472	39.520700	-0.000016	-0.159869	-0.054165	-0.001283
 372	1.8550e-01	14.8664	39.552345	0.000079	0.788688	0.267215	0.006329
 373	1.8600e-01	14.9033	39.917537	0.000910	9.101884	3.083802	0.073038
 374	1.8650e-01	14.9675	39.895728	-0.000054	-0.543555	-0.184161	-0.004362
 375	1.8700e-01	14.9771	39.985957	0.000225	2.248826	0.761923	0.018046
 376	1.8750e-01	15.0637	40.080889	0.000237	2.366063	0.801644	0.018987
 377	1.8800e-01	15.0718	40.133915	0.000132	1.321585	0.447765	0.010605
 378	1.8850e-01	15.1087	40.367826	0.000583	5.829895	1.975222	0.046782
 379	1.8900e-01	15.1407	40.539304	0.000427	4.273835	1.448015	0.034296
 380	1.8950e-01	15.1985	40.382365	-0.000391	-3.911465	-1.325240	-0.031388
 381	1.9000e-01	15.2258	40.568810	0.000465	4.646863	1.574400	0.037289
 382	1.9050e-01	15.2707	40.641934	0.000182	1.822508	0.617483	0.014625
 383	1.9100e-01	15.3060	40.645782	0.000010	0.095921	0.032499	0.000770
 384	1.9150e-01	15.3252	40.742426	0.000241	2.408695	0.816088	0.019329
 385	1.9200e-01	15.3862	41.037915	0.000736	7.364639	2.495207	0.059098
 386	1.9250e-01	15.4456	40.931008	-0.000266	-2.664486	-0.902752	-0.021381
 387	1.9300e-01	15.4905	41.115315	0.000459	4.593574	1.556345	0.036861
 388	1.9350e-01	15.5161	41.053309	-0.000155	-1.545402	-0.523596	-0.012401
 389	1.9400e-01	15.5562	41.339818	0.000714	7.140822	2.419376	0.057302
 390	1.9450e-01	15.5931	41.390278	0.000126	1.257637	0.426099	0.010092
 391	1.9500e-01	15.6300	41.500178	0.000274	2.739092	0.928029	0.021980
 392	1.9550e-01	15.6766	41.634880	0.000336	3.357252	1.137468	0.026940
 393	1.9600e-01	15.7070	41.698596	0.000159	1.588034	0.538040	0.012743
 394	1.9650e-01	15.7680	41.734516	0.000090	0.895267	0.303325	0.007184
 395	1.9700e-01	15.8001	41.767443	0.000082	0.820662	0.278048	0.006585
 396	1.9750e-01	15.8322	41.792673	0.000063	0.628819	0.213050	0.005046
 397	1.9800e-01	15.8675	41.954316	0.000403	4.028703	1.364961	0.032328
 398	1.9850e-01	15.9044	42.051387	0.000242	2.419353	0.819699	0.019414
 399	1.9900e-01	15.9605	42.115530	0.000160	1.598692	0.541651	0.012829
 400	1.9950e-01	15.9942	42.260068	0.000360	3.602385	1.220521	0.028907
 401	2.0000e-01	16.0343	42.357994	0.000244	2.440669	0.826921	0.019585
 402	2.0050e-01	16.0728	42.498255	0.000350	3.495806	1.184411	0.028052
 403	2.0100e-01	16.1049	42.573945	0.000189	1.886456	0.639149	0.015138
 404	2.0150e-01	16.1610	42.635950	0.000155	1.545402	0.523596	0.012401
 405	2.0200e-01	16.1899	42.893808	0.000643	6.426740	2.177438	0.051572
 406	2.0250e-01	16.2445	42.869434	-0.000061	-0.607503	-0.205828	-0.004875
 407	2.0300e-01	16.2798	42.936143	0.000166	1.662639	0.563317	0.013342
 408	2.0350e-01	16.3183	43.155515	0.000547	5.467525	1.852448	0.043874
 409	2.0400e-01	16.3471	43.260283	0.000261	2.611196	0.884697	0.020954
 410	2.0450e-01	16.3969	43.259428	-0.000002	-0.021316	-0.007222	-0.000171
 411	2.0500e-01	16.4402	43.176896	-0.000206	-2.056983	-0.696925	-0.016506
 412	2.0550e-01	16.4691	43.431761	0.000635	6.352134	2.152161	0.050973
 413	2.0600e-01	16.5092	43.403538	-0.000070	-0.703424	-0.238327	-0.005645
 414	2.0650e-01	16.5573	43.576298	0.000431	4.305809	1.458848	0.034552
 415	2.0700e-01	16.5717	43.708007	0.000328	3.282647	1.112191	0.026342
 416	2.0750e-01	16.6182	43.824749	0.000291	2.909619	0.985805	0.023348
 417	2.0800e-01	16.6744	43.861524	0.000092	0.916583	0.310547	0.007355
 418	2.0850e-01	16.7257	43.949615	0.000220	2.195536	0.743868	0.017618
 419	2.0900e-01	16.7723	43.925241	-0.000061	-0.607503	-0.205828	-0.004875
 420	2.0950e-01	16.7979	44.030009	0.000261	2.611196	0.884697	0.020954
 421	2.1000e-01	16.8252	44.072344	0.000106	1.055136	0.357490	0.008467
 422	2.1050e-01	16.8797	44.321222	0.000620	6.202923	2.101607	0.049776
 423	2.1100e-01	16.9150	44.378096	0.000142	1.417507	0.480264	0.011375
 424	2.1150e-01	16.9471	44.385793	0.000019	0.191843	0.064998	0.001539
 425	2.1200e-01	16.9888	44.609869	0.000558	5.584762	1.892169	0.044815
 426	2.1250e-01	17.0418	44.695394	0.000213	2.131589	0.722202	0.017105
 427	2.1300e-01	17.0755	44.813418	0.000294	2.941592	0.996639	0.023605
 428	2.1350e-01	17.0995	44.733025	-0.000200	-2.003693	-0.678870	-0.016079
 429	2.1400e-01	17.1589	44.928022	0.000486	4.860022	1.646620	0.038999
 430	2.1450e-01	17.1958	44.944699	0.000042	0.415660	0.140829	0.003335
 431	2.1500e-01	17.2343	45.007560	0.000157	1.566718	0.530818	0.012572
 432	2.1550e-01	17.2792	45.095223	0.000218	2.184878	0.740257	0.017533
 433	2.1600e-01	17.3225	45.169630	0.000185	1.854482	0.628316	0.014881
 434	2.1650e-01	17.3418	45.392851	0.000556	5.563447	1.884947	0.044644
 435	2.1700e-01	17.3899	45.473672	0.000201	2.014351	0.682481	0.016164
 436	2.1750e-01	17.4364	45.536960	0.000158	1.577376	0.534429	0.012658
 437	2.1800e-01	17.4685	45.634886	0.000244	2.440669	0.826921	0.019585
 438	2.1850e-01	17.5054	45.712714	0.000194	1.939746	0.657204	0.015566
 439	2.1900e-01	17.5583	45.835015	0.000305	3.048172	1.032749	0.024460
 440	2.1950e-01	17.5920	45.997085	0.000404	4.039361	1.368572	0.032414
 441	2.2000e-01	17.6514	45.829456	-0.000418	-4.177914	-1.415516	-0.033526
 442	2.2050e-01	17.6722	46.112971	0.000707	7.066217	2.394099	0.056703
 443	2.2100e-01	17.7252	46.046690	-0.000165	-1.651981	-0.559706	-0.013256
 444	2.2150e-01	17.7573	46.057380	0.000027	0.266449	0.090275	0.002138
 445	2.2200e-01	17.8246	46.369119	0.000777	7.769641	2.632426	0.062348
 446	2.2250e-01	17.8359	46.368691	-0.000001	-0.010658	-0.003611	-0.000086
 447	2.2300e-01	17.8776	46.423427	0.000136	1.364217	0.462209	0.010947
 448	2.2350e-01	17.9257	46.603458	0.000449	4.486994	1.520235	0.036006
 449	2.2400e-01	17.9546	46.742436	0.000346	3.463832	1.173578	0.027796
 450	2.2450e-01	18.0171	46.762534	0.000050	0.500923	0.169717	0.004020
 451	2.2500e-01	18.0059	46.783060	-0.000051	-0.511581	-0.173328	0.004105
 452	2.2550e-01	18.0829	46.979768	0.000490	4.902654	1.661064	0.039342
 453	2.2600e-01	18.1022	47.034504	0.000136	1.364217	0.462209	0.010947
 454	2.2650e-01	18.1711	46.935723	-0.000246	-2.461985	-0.834143	-0.019756
 455	2.2700e-01	18.1888	47.157660	0.000553	5.531473	1.874114	0.044388
 456	2.2750e-01	18.2096	47.361637	0.000508	5.083839	1.722451	0.040795
 457	2.2800e-01	18.2947	47.468116	0.000265	2.653828	0.899141	0.021296
 458	2.2850e-01	18.3107	47.426636	-0.000103	-1.033821	-0.350268	-0.008296
 459	2.2900e-01	18.3572	47.596404	0.000423	4.231204	1.433571	0.033953
 460	2.2950e-01	18.4102	47.462129	-0.000335	-3.346594	-1.133857	-0.026855
 461	2.3000e-01	18.4471	47.652422	0.000474	4.742785	1.606899	0.038059
 462	2.3050e-01	18.4567	47.832025	0.000448	4.476336	1.516624	0.035921
 463	2.3100e-01	18.5080	47.852551	0.000051	0.511581	0.173328	0.004105
 464	2.3150e-01	18.5497	47.976562	0.000309	3.090804	1.047193	0.024802
 465	2.3200e-01	18.5915	48.029160	0.000131	1.310927	0.444154	0.010520
 466	2.3250e-01	18.6508	48.026167	-0.000007	-0.074606	-0.025277	-0.000599
 467	2.3300e-01	18.6845	48.142053	0.000289	2.888303	0.978583	0.023177
 468	2.3350e-01	18.7262	48.220309	0.000195	1.950404	0.660815	0.015651
 469	2.3400e-01	18.7663	48.325932	0.000263	2.632512	0.891919	0.021125
 470	2.3450e-01	18.7775	48.502969	0.000441	4.412389	1.494958	0.035407
 471	2.3500e-01	18.8385	48.547870	0.000112	1.119084	0.379156	0.008980
 472	2.3550e-01	18.8738	48.604316	0.000141	1.406849	0.476653	0.011289
 473	2.3600e-01	18.9187	48.602606	-0.000004	-0.042632	-0.014444	-0.000342
 474	2.3650e-01	18.9684	48.928884	0.000813	8.132011	2.755200	0.065256
 475	2.3700e-01	19.0021	48.807866	-0.000302	-3.016198	-1.021916	-0.024204
 476	2.3750e-01	19.0503	48.940430	0.000330	3.303963	1.119413	0.026513
 477	2.3800e-01	19.0920	48.995166	0.000136	1.364217	0.462209	0.010947
 478	2.3850e-01	19.1064	49.115756	0.000301	3.005540	1.018305	0.024118
 479	2.3900e-01	19.1513	49.321016	0.000512	5.115813	1.733284	0.041052
 480	2.3950e-01	19.2043	49.447166	0.000314	3.144093	1.065248	0.025230
 481	2.4000e-01	19.2251	49.418942	-0.000070	-0.703424	-0.238327	-0.005645
 482	2.4050e-01	19.3005	49.414666	-0.000011	-0.106579	-0.036110	-0.000855
 483	2.4100e-01	19.3182	49.625485	0.000525	5.254366	1.780227	0.042164
 484	2.4150e-01	19.3503	49.694333	0.000172	1.715929	0.581372	0.013770
 485	2.4200e-01	19.4080	49.759332	0.000162	1.620007	0.548873	0.013000
 486	2.4250e-01	19.4192	49.752063	-0.000018	-0.181185	-0.061387	-0.001454
 487	2.4300e-01	19.4754	49.953046	0.000501	5.009234	1.697174	0.040197
 488	2.4350e-01	19.5155	49.991533	0.000096	0.959215	0.324991	0.007697
 489	2.4400e-01	19.5476	50.098011	0.000265	2.653828	0.899141	0.021296
 490	2.4450e-01	19.5973	50.052683	-0.000113	-1.129742	-0.382767	-0.009066
 491	2.4500e-01	19.6374	50.335771	0.000706	7.055559	2.390488	0.056618
 492	2.4550e-01	19.6839	50.246397	-0.000223	-2.227510	-0.754701	-0.017875
 493	2.4600e-01	19.7417	50.453796	0.000517	5.169103	1.751339	0.041480
 494	2.4650e-01	19.7433	50.450375	-0.000009	-0.085264	-0.028888	-0.000684
 495	2.4700e-01	19.7930	50.598333	0.000369	3.687649	1.249409	0.029592
 496	2.4750e-01	19.8187	50.688562	0.000225	2.248826	0.761923	0.018046
 497	2.4800e-01	19.8652	50.736884	0.000120	1.204348	0.408044	0.009664
 498	2.4850e-01	19.9101	50.885270	0.000370	3.698306	1.253020	0.029677
 499	2.4900e-01	19.9454	50.919907	0.000086	0.863293	0.292492	0.006928
 500	2.4950e-01	19.9775	50.969084	0.000123	1.225664	0.415266	0.009835
 501	2.5000e-01	20.0000	51.205561	0.000589	5.893843	1.996888	0.047295
 502	2.5050e-01	19.9807	50.984906	0.000550	5.499499	1.863281	-0.044131
 503	2.5100e-01	19.9551	50.955400	0.000074	0.735398	0.249160	-0.005901
 504	2.5150e-01	19.8925	50.980202	-0.000062	-0.618161	-0.209439	0.004960
 505	2.5200e-01	19.8556	50.723627	0.000639	6.394766	2.166605	-0.051315
 506	2.5250e-01	19.8347	50.814284	-0.000226	-2.259484	-0.765534	0.018131
 507	2.5300e-01	19.7754	50.648793	0.000412	4.124624	1.397461	-0.033098
 508	2.5350e-01	19.7353	50.622280	0.000066	0.660793	0.223883	-0.005303
 509	2.5400e-01	19.7112	50.545307	0.000192	1.918430	0.649982	-0.015395
 510	2.5450e-01	19.6759	50.449947	0.000238	2.376721	0.805255	-0.019072
 511	2.5500e-01	19.6406	50.159589	0.000724	7.236744	2.451875	-0.058072
 512	2.5550e-01	19.5877	50.199786	-0.000100	-1.001847	-0.339435	0.008039
 513	2.5600e-01	19.5283	50.248963	-0.000123	-1.225664	-0.415266	0.009835
 514	2.5650e-01	19.5139	50.136070	0.000281	2.813697	0.953306	-0.022579
 515	2.5700e-01	19.4561	50.072782	0.000158	1.577376	0.534429	-0.012658
 516	2.5750e-01	19.4385	50.011203	0.000153	1.534744	0.519985	-0.012316
 517	2.5800e-01	19.4048	49.835022	0.000439	4.391073	1.487736	-0.035236
 518	2.5850e-01	19.3454	49.911994	-0.000192	-1.918430	-0.649982	0.015395
 519	2.5900e-01	19.2989	49.878640	0.000083	0.831320	0.281659	-0.006671
 520	2.5950e-01	19.2765	49.678511	0.000499	4.987918	1.689952	-0.040026
 521	2.6000e-01	19.2267	49.644301	0.000085	0.852635	0.288881	-0.006842
 522	2.6050e-01	19.1995	49.533546	0.000276	2.760407	0.935251	-0.022151
 523	2.6100e-01	19.1465	49.467264	0.000165	1.651981	0.559706	-0.013256
 524	2.6150e-01	19.1032	49.426212	0.000102	1.023163	0.346657	-0.008210
 525	2.6200e-01	19.0807	49.371476	0.000136	1.364217	0.462209	-0.010947
 526	2.6250e-01	19.0246	49.222235	0.000372	3.719622	1.260242	-0.029848
 527	2.6300e-01	18.9989	49.095230	0.000317	3.165409	1.072470	-0.025401
 528	2.6350e-01	18.9476	49.116611	-0.000053	-0.532897	-0.180550	0.004276
 529	2.6400e-01	18.8963	49.145262	-0.000071	-0.714082	-0.241938	0.005730
 530	2.6450e-01	18.8706	48.982765	0.000405	4.050019	1.372183	-0.032500
 531	2.6500e-01	18.8096	48.824543	0.000394	3.943439	1.336073	-0.031644
 532	2.6550e-01	18.7920	48.767242	0.000143	1.428164	0.483875	-0.011460
 533	2.6600e-01	18.7326	48.872010	-0.000261	-2.611196	-0.884697	0.020954
 534	2.6650e-01	18.7102	48.824543	0.000118	1.183032	0.400822	-0.009493
 535	2.6700e-01	18.6428	48.582935	0.000602	6.021738	2.040220	-0.048322
 536	2.6750e-01	18.6316	48.464055	0.000296	2.962908	1.003861	-0.023776
 537	2.6800e-01	18.5770	48.374682	0.000223	2.227510	0.754701	-0.017875
 538	2.6850e-01	18.5449	48.219881	0.000386	3.858176	1.307185	-0.030960
 539	2.6900e-01	18.4984	48.332347	-0.000280	-2.803039	-0.949695	0.022493
 540	2.6950e-01	18.4840	48.313959	0.000046	0.458292	0.155273	-0.003678
 541	2.7000e-01	18.4246	48.124093	0.000473	4.732127	1.603288	-0.037973
 542	2.7050e-01	18.3829	47.973569	0.000375	3.751596	1.271075	-0.030105
 543	2.7100e-01	18.3524	47.940214	0.000083	0.831320	0.281659	-0.006671
 544	2.7150e-01	18.3107	47.893176	0.000117	1.172374	0.397211	-0.009408
 545	2.7200e-01	18.2594	47.841433	0.000129	1.289611	0.436932	-0.010349
 546	2.7250e-01	18.2337	47.755053	0.000215	2.152905	0.729424	-0.017276
 547	2.7300e-01	18.1840	47.708441	0.000116	1.161716	0.393600	-0.009322
 548	2.7350e-01	18.1278	47.691764	0.000042	0.415660	0.140829	-0.003335
 549	2.7400e-01	18.1198	47.389861	0.000752	7.524508	2.549372	-0.060381
 550	2.7450e-01	18.0685	47.592127	-0.000504	-5.041207	-1.708007	0.040453
 551	2.7500e-01	18.0380	47.269270	0.000805	8.046747	2.726312	-0.064571
 552	2.7550e-01	17.9674	47.260718	0.000021	0.213159	0.072220	-0.001711
 553	2.7600e-01	17.9369	47.178186	0.000206	2.056983	0.696925	-0.016506
 554	2.7650e-01	17.9193	47.059734	0.000295	2.952250	1.000250	-0.023690
 555	2.7700e-01	17.8679	47.011840	0.000119	1.193690	0.404433	-0.009579
 556	2.7750e-01	17.8375	47.117036	-0.000262	-2.621854	-0.888308	0.021039
 557	2.7800e-01	17.7813	46.700101	0.001039	10.391495	3.520734	-0.083387
 558	2.7850e-01	17.7428	46.751416	-0.000128	-1.278953	-0.433321	0.010263
 559	2.7900e-01	17.7123	46.666746	0.000211	2.110273	0.714980	-0.016934
 560	2.7950e-01	17.6642	46.653917	0.000032	0.319738	0.108330	-0.002566
 561	2.8000e-01	17.6209	46.573952	0.000199	1.993035	0.675259	-0.015993
 562	2.8050e-01	17.5728	46.545728	0.000070	0.703424	0.238327	-0.005645
 563	2.8100e-01	17.5503	46.376816	0.000421	4.209888	1.426349	-0.033782
 564	2.8150e-01	17.5182	46.262640	0.000285	2.845671	0.964139	-0.022835
 565	2.8200e-01	17.4557	46.179681	0.000207	2.067641	0.700536	-0.016592
 566	2.8250e-01	17.4204	46.216029	-0.000091	-0.905925	-0.306936	0.007270
 567	2.8300e-01	17.3915	46.132642	0.000208	2.078299	0.704147	-0.016677
 568	2.8350e-01	17.3466	45.971855	0.000401	4.007387	1.357739	-0.032157
 569	2.8400e-01	17.2984	45.885475	0.000215	2.152905	0.729424	-0.017276
 570	2.8450e-01	17.2744	45.798239	0.000217	2.174221	0.736646	-0.017447
 571	2.8500e-01	17.2022	45.740082	0.000145	1.449480	0.491097	-0.011631
 572	2.8550e-01	17.1974	45.746069	-0.000015	-0.149211	-0.050554	0.001197
 573	2.8600e-01	17.1300	45.607518	0.000345	3.453174	1.169967	-0.027710
 574	2.8650e-01	17.1043	45.393706	0.000533	5.328972	1.805505	-0.042763
 575	2.8700e-01	17.0787	45.370614	0.000058	0.575529	0.194994	-0.004618
 576	2.8750e-01	17.0225	45.310319	0.000150	1.502770	0.509152	-0.012059
 577	2.8800e-01	16.9776	45.365910	-0.000139	-1.385533	-0.469431	0.011118
 578	2.8850e-01	16.9279	45.286799	0.000197	1.971720	0.668037	-0.015822
 579	2.8900e-01	16.9102	45.073842	0.000531	5.307656	1.798283	-0.042591
 580	2.8950e-01	16.8781	44.980620	0.000232	2.323432	0.787200	-0.018644
 581	2.9000e-01	16.8236	44.987462	-0.000017	-0.170527	-0.057776	0.001368
 582	2.9050e-01	16.7690	45.008415	-0.000052	-0.522239	-0.176939	0.004191
 583	2.9100e-01	16.7514	44.740294	0.000668	6.682531	2.264103	-0.053624
 584	2.9150e-01	16.7001	44.779636	-0.000098	-0.980531	-0.332213	0.007868
 585	2.9200e-01	16.6648	44.557698	0.000553	5.531473	1.874114	-0.044388
 586	2.9250e-01	16.6182	44.548718	0.000022	0.223817	0.075831	-0.001796
 587	2.9300e-01	16.5862	44.372537	0.000439	4.391073	1.487736	-0.035236
 588	2.9350e-01	16.5364	44.359280	0.000033	0.330396	0.111941	-0.002651
 589	2.9400e-01	16.4979	44.380662	-0.000053	-0.532897	-0.180550	0.004276
 590	2.9450e-01	16.4530	44.266913	0.000284	2.835013	0.960528	-0.022750
 591	2.9500e-01	16.4273	44.233558	0.000083	0.831320	0.281659	-0.006671
 592	2.9550e-01	16.3744	44.126224	0.000268	2.675144	0.906363	-0.021467
 593	2.9600e-01	16.3471	43.826887	0.000746	7.460561	2.527706	-0.059868
 594	2.9650e-01	16.3038	43.830735	-0.000010	-0.095921	-0.032499	0.000770
 595	2.9700e-01	16.2637	43.709290	0.000303	3.026856	1.025527	-0.024289
 596	2.9750e-01	16.2140	43.606232	0.000257	2.568564	0.870253	-0.020612
 597	2.9800e-01	16.1739	43.504030	0.000255	2.547249	0.863031	-0.020440
 598	2.9850e-01	16.1402	43.581857	-0.000194	-1.939746	-0.657204	0.015566
 599	2.9900e-01	16.1161	43.447156	0.000336	3.357252	1.137468	-0.026940
 600	2.9950e-01	16.0728	43.366762	0.000200	2.003693	0.678870	-0.016079
 601	3.0000e-01	16.0263	43.324427	0.000106	1.055136	0.357490	-0.008467
 602	3.0050e-01	16.0118	43.176469	0.000369	3.687649	1.249409	-0.029592
 603	3.0100e-01	15.9381	43.077260	0.000247	2.472643	0.837754	-0.019842
 604	3.0150e-01	15.9092	43.025517	0.000129	1.289611	0.436932	-0.010349
 605	3.0200e-01	15.8562	43.037063	-0.000029	-0.287764	-0.097497	0.002309
 606	3.0250e-01	15.8274	42.849335	0.000468	4.678837	1.585233	-0.037545
 607	3.0300e-01	15.7824	42.731738	0.000293	2.930935	0.993027	-0.023519
 608	3.0350e-01	15.7407	42.739863	-0.000020	-0.202501	-0.068609	0.001625
 609	3.0400e-01	15.6894	42.536314	0.000507	5.073181	1.718840	-0.040710
 610	3.0450e-01	15.6621	42.565820	-0.000074	-0.735398	-0.249160	0.005901
 611	3.0500e-01	15.6140	42.472170	0.000233	2.334090	0.790811	-0.018730
 612	3.0550e-01	15.5755	42.355428	0.000291	2.909619	0.985805	-0.023348
 613	3.0600e-01	15.5562	42.201055	0.000385	3.847518	1.303574	-0.030875
 614	3.0650e-01	15.5177	42.065926	0.000337	3.367910	1.141079	-0.027026
 615	3.0700e-01	15.4648	42.054380	0.000029	0.287764	0.097497	-0.002309
 616	3.0750e-01	15.4006	42.021880	0.000081	0.810004	0.274437	-0.006500
 617	3.0800e-01	15.4087	41.952605	-0.000173	-1.726587	-0.584983	-0.013855
 618	3.0850e-01	15.3284	41.810206	0.000355	3.549095	1.202466	-0.028480
 619	3.0900e-01	15.3028	41.763167	0.000117	1.172374	0.397211	-0.009408
 620	3.0950e-01	15.2707	41.616492	0.000366	3.655675	1.238576	-0.029335
 621	3.1000e-01	15.2226	41.505309	0.000277	2.771065	0.938862	-0.022237
 622	3.1050e-01	15.1760	41.657544	-0.000379	-3.794228	-1.285519	0.030447
 623	3.1100e-01	15.1343	41.388140	0.000671	6.714505	2.274936	-0.053881
 624	3.1150e-01	15.1199	41.255576	0.000330	3.303963	1.119413	-0.026513
 625	3.1200e-01	15.0670	41.247023	0.000021	0.213159	0.072220	-0.001711
 626	3.1250e-01	15.0252	41.237188	0.000025	0.245133	0.083053	-0.001967
 627	3.1300e-01	14.9948	40.975054	0.000653	6.533319	2.213549	-0.052427
 628	3.1350e-01	14.9306	41.117453	-0.000355	-3.549095	-1.202466	0.028480
 629	3.1400e-01	14.8857	40.908772	0.000520	5.201077	1.762172	-0.041736
 630	3.1450e-01	14.8648	40.912193	-0.000009	-0.085264	-0.028888	0.000684
 631	3.1500e-01	14.8135	40.719334	0.000481	4.806733	1.628565	-0.038572
 632	3.1550e-01	14.7846	40.650059	0.000173	1.726587	0.584983	-0.013855
 633	3.1600e-01	14.7589	40.606868	0.000108	1.076452	0.364712	-0.008638
 634	3.1650e-01	14.6964	40.477726	0.000322	3.218699	1.090525	-0.025829
 635	3.1700e-01	14.6531	40.491410	-0.000034	-0.341054	-0.115552	0.002737
 636	3.1750e-01	14.6274	40.328484	0.000406	4.060677	1.375794	-0.032585
 637	3.1800e-01	14.5584	40.174967	0.000383	3.826202	1.296352	-0.030703
 638	3.1850e-01	14.5680	40.048390	-0.000315	-3.154751	-1.068859	-0.025315
 639	3.1900e-01	14.4782	40.013325	0.000087	0.873951	0.296103	-0.007013
 640	3.1950e-01	14.4734	40.050956	-0.000094	-0.937899	-0.317769	0.007526
 641	3.2000e-01	14.4237	39.837143	0.000533	5.328972	1.805505	-0.042763
 642	3.2050e-01	14.3964	39.750763	0.000215	2.152905	0.729424	-0.017276
 643	3.2100e-01	14.3386	39.676783	0.000184	1.843824	0.624705	-0.014796
 644	3.2150e-01	14.2777	39.840992	-0.000409	-4.092650	-1.386627	0.032842
 645	3.2200e-01	14.2552	39.609646	0.000577	5.765948	1.953556	-0.046269
 646	3.2250e-01	14.2199	39.472806	0.000341	3.410542	1.155523	-0.027368
 647	3.2300e-01	14.1766	39.341098	0.000328	3.282647	1.112191	-0.026342
 648	3.2350e-01	14.1429	39.267974	0.000182	1.822508	0.617483	-0.014625
 649	3.2400e-01	14.1012	39.262842	0.000013	0.127895	0.043332	-0.001026
 650	3.2450e-01	14.0435	39.029359	0.000582	5.819237	1.971611	-0.046697
 651	3.2500e-01	14.0418	38.907058	0.000305	3.048172	1.032749	-0.024460
 652	3.2550e-01	13.9793	38.876269	0.000077	0.767372	0.259993	-0.006158
 653	3.2600e-01	13.9488	38.753968	0.000305	3.048172	1.032749	-0.024460
 654	3.2650e-01	13.8943	38.930150	-0.000439	-4.391073	-1.487736	0.035236
 655	3.2700e-01	13.8654	38.544432	0.000961	9.613465	3.257130	-0.077144
 656	3.2750e-01	13.8205	38.546570	-0.000005	-0.053290	-0.018055	0.000428
 657	3.2800e-01	13.7755	38.491406	0.000137	1.374875	0.465820	-0.011033
 658	3.2850e-01	13.7242	38.345158	0.000365	3.645017	1.234965	-0.029250
 659	3.2900e-01	13.7050	38.208318	0.000341	3.410542	1.155523	-0.027368
 660	3.2950e-01	13.6713	38.227989	-0.000049	-0.490265	-0.166106	0.003934
 661	3.3000e-01	13.6183	38.147168	0.000201	2.014351	0.682481	-0.016164
 662	3.3050e-01	13.5734	38.037268	0.000274	2.739092	0.928029	-0.021980
 663	3.3100e-01	13.5333	37.924803	0.000280	2.803039	0.949695	-0.022493
 664	3.3150e-01	13.5333	37.790956	0.000334	3.335936	1.130246	-0.026769
 665	3.3200e-01	13.4547	37.775562	0.000038	0.383686	0.129996	-0.003079
 666	3.3250e-01	13.4258	37.539940	0.000587	5.872527	1.989666	-0.047124
 667	3.3300e-01	13.3809	37.539512	0.000001	0.010658	0.003611	-0.000086
 668	3.3350e-01	13.3456	37.518986	0.000051	0.511581	0.173328	-0.004105
 669	3.3400e-01	13.3023	37.360765	0.000394	3.943439	1.336073	-0.031644
 670	3.3450e-01	13.2606	37.387278	-0.000066	-0.660793	-0.223883	0.005303
 671	3.3500e-01	13.2253	37.251721	0.000338	3.378568	1.144690	-0.027111
 672	3.3550e-01	13.1788	37.006691	0.000611	6.107002	2.069108	-0.049006
 673	3.3600e-01	13.1563	36.959652	0.000117	1.172374	0.397211	-0.009408
 674	3.3650e-01	13.0986	36.831793	0.000319	3.186725	1.079692	-0.025572
 675	3.3700e-01	13.0761	36.734294	0.000243	2.430011	0.823310	-0.019500
 676	3.3750e-01	13.0232	36.631236	0.000257	2.568564	0.870253	-0.020612
 677	3.3800e-01	12.9686	36.657749	-0.000066	-0.660793	-0.223883	0.005303
 678	3.3850e-01	12.9526	36.517488	0.000350	3.495806	1.184411	-0.028052
 679	3.3900e-01	12.9125	36.362688	0.000386	3.858176	1.307185	-0.030960
 680	3.3950e-01	12.8435	36.541863	-0.000447	-4.465678	-1.513013	0.035835
 681	3.4000e-01	12.8371	36.360549	0.000452	4.518968	1.531068	-0.036263
 682	3.4050e-01	12.7841	36.141178	0.000547	5.467525	1.852448	-0.043874
 683	3.4100e-01	12.7312	36.095422	0.000114	1.140400	0.386378	-0.009151
 684	3.4150e-01	12.7007	36.077034	0.000046	0.458292	0.155273	-0.003678
 685	3.4200e-01	12.6526	35.848682	0.000569	5.691342	1.928279	-0.045670
 686	3.4250e-01	12.6333	35.818748	0.000075	0.746056	0.252771	-0.005987
 687	3.4300e-01	12.6012	35.640429	0.000444	4.444363	1.505791	-0.035664
 688	3.4350e-01	12.5467	35.541219	0.000247	2.472643	0.837754	-0.019842
 689	3.4400e-01	12.5050	35.416780	0.000310	3.101462	1.050804	-0.024888
 690	3.4450e-01	12.4569	35.559180	-0.000355	-3.549095	-1.202466	0.028480
 691	3.4500e-01	12.4184	35.399675	0.000398	3.975413	1.346906	-0.031901
 692	3.4550e-01	12.3734	35.135403	0.000659	6.586609	2.231604	-0.052854
 693	3.4600e-01	12.3349	35.114877	0.000051	0.511581	0.173328	-0.004105
 694	3.4650e-01	12.2964	35.164909	-0.000125	-1.246979	-0.422488	0.010006
 695	3.4700e-01	12.2804	34.966063	0.000496	4.955944	1.679119	-0.039769
 696	3.4750e-01	12.2146	34.924584	0.000103	1.033821	0.350268	-0.008296
 697	3.4800e-01	12.1938	34.836921	0.000218	2.184878	0.740257	-0.017533
 698	3.4850e-01	12.1713	34.538866	0.000743	7.428587	2.516873	-0.059611
 699	3.4900e-01	12.1007	34.542714	-0.000010	-0.095921	-0.032499	0.000770
 700	3.4950e-01	12.0751	34.608569	-0.000164	-1.641323	-0.556095	0.013171
 701	3.5000e-01	12.0189	34.376796	0.000578	5.776605	1.957167	-0.046355
 702	3.5050e-01	11.9884	34.365250	0.000029	0.287764	0.097497	-0.002309
 703	3.5100e-01	11.9467	34.242521	0.000306	3.058830	1.036360	-0.024546
 704	3.5150e-01	11.9018	34.105254	0.000342	3.421200	1.159134	-0.027454
 705	3.5200e-01	11.8521	34.121931	-0.000042	-0.415660	-0.140829	0.003335
 706	3.5250e-01	11.8328	33.965420	0.000390	3.900807	1.321629	-0.031302
 707	3.5300e-01	11.7879	33.844830	0.000301	3.005540	1.018305	-0.024118
 708	3.5350e-01	11.7173	33.704569	0.000350	3.495806	1.184411	-0.028052
 709	3.5400e-01	11.6981	33.670787	0.000084	0.841978	0.285270	-0.006756
 710	3.5450e-01	11.6596	33.631017	0.000099	0.991189	0.335824	-0.007954
 711	3.5500e-01	11.6195	33.414211	0.000540	5.403577	1.830782	-0.043361
 712	3.5550e-01	11.5745	33.443717	-0.000074	-0.735398	-0.249160	0.005901
 713	3.5600e-01	11.5521	33.382567	0.000152	1.524086	0.516374	-0.012230
 714	3.5650e-01	11.5136	33.131551	0.000626	6.256213	2.119662	-0.050203
 715	3.5700e-01	11.4751	33.014809	0.000291	2.909619	0.985805	-0.023348
 716	3.5750e-01	11.4237	33.032342	-0.000044	-0.436976	-0.148051	0.003507
 717	3.5800e-01	11.3901	32.854877	0.000442	4.423047	1.498569	-0.035493
 718	3.5850e-01	11.3451	32.784319	0.000176	1.758561	0.595816	-0.014112
 719	3.5900e-01	11.3259	32.526034	0.000644	6.437398	2.181049	-0.051657
 720	3.5950e-01	11.2585	32.590177	-0.000160	-1.598692	-0.541651	0.012829
 721	3.6000e-01	11.2232	32.476429	0.000284	2.835013	0.960528	-0.022750
 722	3.6050e-01	11.1911	32.343865	0.000330	3.303963	1.119413	-0.026513
 723	3.6100e-01	11.1606	32.295971	0.000119	1.193690	0.404433	-0.009579
 724	3.6150e-01	11.0965	32.080876	0.000536	5.360946	1.816338	-0.043019
 725	3.6200e-01	11.0644	32.139888	-0.000147	-1.470796	-0.498319	0.011802
 726	3.6250e-01	11.0179	32.003476	0.000340	3.399884	1.151912	-0.027282
 727	3.6300e-01	10.9842	31.871339	0.000329	3.293305	1.115802	-0.026427
 728	3.6350e-01	10.9521	31.743907	0.000318	3.176067	1.076081	-0.025486
 729	3.6400e-01	10.9040	31.746045	-0.000005	-0.053290	-0.018055	0.000428
 730	3.6450e-01	10.8462	31.760157	-0.000035	-0.351712	-0.119163	0.002822
 731	3.6500e-01	10.8222	31.598087	0.000404	4.039361	1.368572	-0.032414
 732	3.6550e-01	10.7869	31.418912	0.000447	4.465678	1.513013	-0.035835
 733	3.6600e-01	10.7628	31.119574	0.000746	7.460561	2.527706	-0.059868
 734	3.6650e-01	10.7131	31.243158	-0.000308	-3.080146	-1.043582	0.024717
 735	3.6700e-01	10.6505	31.095627	0.000368	3.676991	1.245798	-0.029506
 736	3.6750e-01	10.6232	31.163192	-0.000168	-1.683955	-0.570539	0.013513
 737	3.6800e-01	10.5703	30.941682	0.000552	5.520815	1.870503	-0.044302
 738	3.6850e-01	10.5430	31.027207	-0.000213	-2.131589	-0.722202	0.017105
 739	3.6900e-01	10.5045	30.697508	0.000822	8.217275	2.784088	-0.065940
 740	3.6950e-01	10.4628	30.680831	0.000042	0.415660	0.140829	-0.003335
 741	3.7000e-01	10.4115	30.588036	0.000231	2.312774	0.783589	-0.018559
 742	3.7050e-01	10.3810	30.512774	0.000188	1.875798	0.635538	-0.015052
 743	3.7100e-01	10.3297	30.396032	0.000291	2.909619	0.985805	-0.023348
 744	3.7150e-01	10.3248	30.319487	0.000191	1.907772	0.646371	-0.015309
 745	3.7200e-01	10.2591	30.167253	0.000379	3.794228	1.285519	-0.030447
 746	3.7250e-01	10.2174	29.911105	0.000638	6.384108	2.162994	-0.051230
 747	3.7300e-01	10.1660	29.990216	-0.000197	-1.971720	-0.668037	0.015822
 748	3.7350e-01	10.1500	29.848672	0.000353	3.527779	1.195244	-0.028309
 749	3.7400e-01	10.1019	29.839692	0.000022	0.223817	0.075831	-0.001796
 750	3.7450e-01	10.0553	29.652392	0.000467	4.668179	1.581622	-0.037460
 751	3.7500e-01	10.0168	29.646833	0.000014	0.138553	0.046943	-0.001112
 752	3.7550e-01	9.9831	29.375718	0.000676	6.757136	2.289380	-0.054223
 753	3.7600e-01	9.9142	29.537788	-0.000404	-4.039361	-1.368572	0.032414
 754	3.7650e-01	9.8885	29.259404	0.000694	6.938321	2.350767	-0.055677
 755	3.7700e-01	9.8548	29.102893	0.000390	3.900807	1.321629	-0.031302
 756	3.7750e-01	9.8404	28.939968	0.000406	4.060677	1.375794	-0.032585
 757	3.7800e-01	9.7602	28.992138	-0.000130	-1.300269	-0.440543	0.010434
 758	3.7850e-01	9.7457	28.810398	0.000453	4.529626	1.534679	-0.036348
 759	3.7900e-01	9.7313	28.733425	0.000192	1.918430	0.649982	-0.015395
 760	3.7950e-01	9.6591	28.703064	0.000076	0.756714	0.256382	-0.006072
 761	3.8000e-01	9.6350	28.594874	0.000270	2.696460	0.913585	-0.021638
 762	3.8050e-01	9.5548	28.597013	-0.000005	-0.053290	-0.018055	0.000428
 763	3.8100e-01	9.5420	28.356260	0.000600	6.000422	2.032998	-0.048151
 764	3.8150e-01	9.5003	28.379351	-0.000058	-0.575529	-0.194994	0.004618
 765	3.8200e-01	9.4746	28.148434	0.000576	5.755290	1.949945	-0.046184
 766	3.8250e-01	9.4313	27.869622	0.000695	6.948979	2.354378	-0.055762
 767	3.8300e-01	9.3799	27.902977	-0.000083	-0.831320	-0.281659	0.006671
 768	3.8350e-01	9.3495	27.796070	0.000266	2.664486	0.902752	-0.021381
 769	3.8400e-01	9.2933	27.794788	0.000003	0.031974	0.010833	-0.000257
 770	3.8450e-01	9.2340	27.642553	0.000379	3.794228	1.285519	-0.030447
 771	3.8500e-01	9.2259	27.564725	0.000194	1.939746	0.657204	-0.015566
 772	3.8550e-01	9.1890	27.361603	0.000506	5.062523	1.715229	-0.040624
 773	3.8600e-01	9.1409	27.392820	-0.000078	-0.778030	-0.263604	0.006243
 774	3.8650e-01	9.0880	27.341077	0.000129	1.289611	0.436932	-0.010349
 775	3.8700e-01	9.0800	26.980589	0.000898	8.984647	3.044081	-0.072098
 776	3.8750e-01	9.0238	27.080226	-0.000248	-2.483301	-0.841365	0.019927
 777	3.8800e-01	8.9853	26.915590	0.000410	4.103308	1.390238	-0.032927
 778	3.8850e-01	8.9436	26.814670	0.000252	2.515275	0.852198	-0.020184
 779	3.8900e-01	8.9083	26.660298	0.000385	3.847518	1.303574	-0.030875
 780	3.8950e-01	8.8586	26.666285	-0.000015	-0.149211	-0.050554	0.001197
 781	3.9000e-01	8.8281	26.552109	0.000285	2.845671	0.964139	-0.022835
 782	3.9050e-01	8.7832	26.392604	0.000398	3.975413	1.346906	-0.031901
 783	3.9100e-01	8.7367	26.300237	0.000230	2.302116	0.779978	-0.018473
 784	3.9150e-01	8.7094	26.142444	0.000393	3.932781	1.332462	-0.031559
 785	3.9200e-01	8.6805	25.928631	0.000533	5.328972	1.805505	-0.042763
 786	3.9250e-01	8.6035	26.018860	-0.000225	-2.248826	-0.761923	0.018046
 787	3.9300e-01	8.5762	25.851231	0.000418	4.177914	1.415516	-0.033526
 788	3.9350e-01	8.5409	25.858500	-0.000018	-0.181185	-0.061387	0.001454
 789	3.9400e-01	8.5056	25.737910	0.000301	3.005540	1.018305	-0.024118
 790	3.9450e-01	8.4784	25.405218	0.000829	8.291880	2.809365	-0.066538
 791	3.9500e-01	8.4270	25.465085	-0.000149	-1.492112	-0.505541	0.011974
 792	3.9550e-01	8.3917	25.442421	0.000056	0.564871	0.191383	-0.004533
 793	3.9600e-01	8.3468	25.259397	0.000456	4.561600	1.545512	-0.036605
 794	3.9650e-01	8.3131	25.173445	0.000214	2.142247	0.725813	-0.017191
 795	3.9700e-01	8.2650	25.066966	0.000265	2.653828	0.899141	-0.021296
 796	3.9750e-01	8.2249	24.951507	0.000288	2.877645	0.974972	-0.023092
 797	3.9800e-01	8.1992	24.753517	0.000493	4.934628	1.671897	-0.039598
 798	3.9850e-01	8.1511	24.717596	0.000090	0.895267	0.303325	-0.007184
 799	3.9900e-01	8.1078	24.525165	0.000480	4.796075	1.624954	-0.038486
 800	3.9950e-01	8.0901	24.339575	0.000463	4.625548	1.567178	-0.037118
 801	4.0000e-01	8.0260	24.439212	-0.000248	-2.483301	-0.841365	0.019927
 802	4.0050e-01	7.9859	24.387897	0.000128	1.278953	0.433321	-0.010263
 803	4.0100e-01	7.9474	24.287405	0.000250	2.504617	0.848587	-0.020098
 804	4.0150e-01	7.9105	24.094118	0.000482	4.817391	1.632176	-0.038657
 805	4.0200e-01	7.8511	23.991488	0.000256	2.557906	0.866642	-0.020526
 806	4.0250e-01	7.8142	23.790932	0.000500	4.998576	1.693563	-0.040111
 807	4.0300e-01	7.7869	23.766985	0.000060	0.596845	0.202217	-0.004789
 808	4.0350e-01	7.7388	23.724650	0.000106	1.055136	0.357490	-0.008467
 809	4.0400e-01	7.6987	23.699848	0.000062	0.618161	0.209439	-0.004960
 810	4.0450e-01	7.6666	23.422747	0.000691	6.906348	2.339934	-0.055420
 811	4.0500e-01	7.6217	23.321827	0.000252	2.515275	0.852198	-0.020184
 812	4.0550e-01	7.5784	23.264525	0.000143	1.428164	0.483875	-0.011460
 813	4.0600e-01	7.5383	23.198244	0.000165	1.651981	0.559706	-0.013256
 814	4.0650e-01	7.4998	22.845453	0.000879	8.792804	2.979082	-0.070558
 815	4.0700e-01	7.4581	22.875386	-0.000075	-0.746056	-0.252771	0.005987
 816	4.0750e-01	7.3971	22.916011	-0.000101	-1.012505	-0.343046	0.008125
 817	4.0800e-01	7.3795	22.784730	0.000327	3.271989	1.108580	-0.026256
 818	4.0850e-01	7.3313	22.575621	0.000521	5.211734	1.765783	-0.041822
 819	4.0900e-01	7.3105	22.439636	0.000339	3.389226	1.148301	-0.027197
 820	4.0950e-01	7.2223	22.539273	-0.000248	-2.483301	-0.841365	0.019927
 821	4.1000e-01	7.2110	22.166384	0.000929	9.293727	3.148800	-0.074578
 822	4.1050e-01	7.1693	22.280132	-0.000284	-2.835013	-0.960528	0.022750
 823	4.1100e-01	7.1436	22.157831	0.000305	3.048172	1.032749	-0.024460
 824	4.1150e-01	7.0907	21.994478	0.000407	4.071334	1.379405	-0.032671
 825	4.1200e-01	7.0682	21.888855	0.000263	2.632512	0.891919	-0.021125
 826	4.1250e-01	7.0073	21.700700	0.000469	4.689495	1.588844	-0.037631
 827	4.1300e-01	6.9800	21.621589	0.000197	1.971720	0.668037	-0.015822
 828	4.1350e-01	6.9335	21.637839	-0.000041	-0.405002	-0.137218	0.003250
 829	4.1400e-01	6.9078	21.383829	0.000633	6.330819	2.144939	-0.050802
 830	4.1450e-01	6.8613	21.495867	-0.000279	-2.792381	-0.946084	0.022408
 831	4.1500e-01	6.8244	21.283338	0.000530	5.296998	1.794672	-0.042506
 832	4.1550e-01	6.7731	21.152057	0.000327	3.271989	1.108580	-0.026256
 833	4.1600e-01	6.7538	20.819364	0.000829	8.291880	2.809365	-0.066538
 834	4.1650e-01	6.6977	20.902751	-0.000208	-2.078299	-0.704147	0.016677
 835	4.1700e-01	6.6592	20.740253	0.000405	4.050019	1.372183	-0.032500
 836	4.1750e-01	6.6319	20.691504	0.000122	1.215006	0.411655	-0.009750
 837	4.1800e-01	6.5998	20.494369	0.000491	4.913312	1.664675	-0.039427
 838	4.1850e-01	6.5549	20.291675	0.000505	5.051865	1.711618	-0.040539
 839	4.1900e-01	6.4987	20.413975	-0.000305	-3.048172	-1.032749	0.024460
 840	4.1950e-01	6.4891	20.023553	0.000973	9.730703	3.296851	-0.078084
 841	4.2000e-01	6.4362	20.062895	-0.000098	-0.980531	-0.332213	0.007868
 842	4.2050e-01	6.3881	19.994047	0.000172	1.715929	0.581372	-0.013770
 843	4.2100e-01	6.3335	19.869608	0.000310	3.101462	1.050804	-0.024888
 844	4.2150e-01	6.2902	19.839247	0.000076	0.756714	0.256382	-0.006072
 845	4.2200e-01	6.2726	19.640401	0.000496	4.955944	1.679119	-0.039769
 846	4.2250e-01	6.2196	19.533067	0.000268	2.675144	0.906363	-0.021467
 847	4.2300e-01	6.1811	19.475766	0.000143	1.428164	0.483875	-0.011460
 848	4.2350e-01	6.1506	19.416326	0.000148	1.481454	0.501930	-0.011888
 849	4.2400e-01	6.1218	19.138369	0.000693	6.927663	2.347156	-0.055591
 850	4.2450e-01	6.0528	19.179849	-0.000103	-1.033821	-0.350268	0.008296
 851	4.2500e-01	6.0095	19.147777	0.000080	0.799346	0.270826	-0.006414
 852	4.2550e-01	5.9822	18.937813	0.000523	5.233050	1.773005	-0.041993
 853	4.2600e-01	5.9517	18.800545	0.000342	3.421200	1.159134	-0.027454
 854	4.2650e-01	5.9148	18.782585	0.000045	0.447634	0.151662	-0.003592
 855	4.2700e-01	5.8667	18.496504	0.000713	7.130164	2.415765	-0.057216
 856	4.2750e-01	5.7913	18.548246	-0.000129	-1.289611	-0.436932	0.010349
 857	4.2800e-01	5.7736	18.299796	0.000619	6.192265	2.097996	-0.049690
 858	4.2850e-01	5.7367	18.246343	0.000133	1.332243	0.451376	-0.010691
 859	4.2900e-01	5.7095	18.063747	0.000455	4.550942	1.541901	-0.036519
 860	4.2950e-01	5.6742	17.797764	0.000663	6.629241	2.246048	-0.053197
 861	4.3000e-01	5.6341	17.910657	-0.000281	-2.813697	-0.953306	0.022579
 862	4.3050e-01	5.5795	17.754146	0.000390	3.900807	1.321629	-0.031302
 863	4.3100e-01	5.5539	17.552735	0.000502	5.019891	1.700785	-0.040282
 864	4.3150e-01	5.5137	17.436421	0.000290	2.898961	0.982194	-0.023263
 865	4.3200e-01	5.4752	17.356455	0.000199	1.993035	0.675259	-0.015993
 866	4.3250e-01	5.4287	17.300436	0.000140	1.396191	0.473042	-0.011204
 867	4.3300e-01	5.3822	17.191819	0.000271	2.707118	0.917196	-0.021723
 868	4.3350e-01	5.3726	16.993828	0.000493	4.934628	1.671897	-0.039598
 869	4.3400e-01	5.2956	17.021196	-0.000068	-0.682108	-0.231105	0.005474
 870	4.3450e-01	5.2555	16.827055	0.000484	4.838706	1.639398	-0.038828
 871	4.3500e-01	5.2122	16.624788	0.000504	5.041207	1.708007	-0.040453
 872	4.3550e-01	5.1672	16.672254	-0.000118	-1.183032	-0.400822	0.009493
 873	4.3600e-01	5.1496	16.390449	0.000702	7.023585	2.379655	-0.056361
 874	4.3650e-01	5.0983	16.478968	-0.000221	-2.206194	-0.747479	0.017704
 875	4.3700e-01	5.0758	16.425942	0.000132	1.321585	0.447765	-0.010605
 876	4.3750e-01	5.0084	16.325878	0.000249	2.493959	0.844976	-0.020013
 877	4.3800e-01	4.9827	15.960686	0.000910	9.101884	3.083802	-0.073038
 878	4.3850e-01	4.9186	16.041935	-0.000203	-2.025009	-0.686092	0.016250
 879	4.3900e-01	4.8865	15.850786	0.000476	4.764101	1.614121	-0.038230
 880	4.3950e-01	4.8849	15.654506	0.000489	4.891996	1.657453	-0.039256
 881	4.4000e-01	4.8175	15.683585	-0.000072	-0.724740	-0.245549	0.005816
 882	4.4050e-01	4.7678	15.418457	0.000661	6.607925	2.238826	-0.053026
 883	4.4100e-01	4.7245	15.316254	0.000255	2.547249	0.863031	-0.020440
 884	4.4150e-01	4.7020	15.258097	0.000145	1.449480	0.491097	-0.011631
 885	4.4200e-01	4.6667	15.122540	0.000338	3.378568	1.144690	-0.027111
 886	4.4250e-01	4.6394	15.014779	0.000269	2.685802	0.909974	-0.021552
 887	4.4300e-01	4.5849	14.844584	0.000424	4.241862	1.437182	-0.034039
 888	4.4350e-01	4.5336	14.786427	0.000145	1.449480	0.491097	-0.011631
 889	4.4400e-01	4.4951	14.656856	0.000323	3.229357	1.094136	-0.025914
 890	4.4450e-01	4.4517	14.564489	0.000230	2.302116	0.779978	-0.018473
 891	4.4500e-01	4.4213	14.402419	0.000404	4.039361	1.368572	-0.032414
 892	4.4550e-01	4.3924	14.196731	0.000513	5.126471	1.736895	-0.041138
 893	4.4600e-01	4.3346	14.150976	0.000114	1.140400	0.386378	-0.009151
 894	4.4650e-01	4.3026	14.181337	-0.000076	-0.756714	-0.256382	0.006072
 895	4.4700e-01	4.2576	13.861901	0.000796	7.961484	2.697424	-0.063887
 896	4.4750e-01	4.2223	13.924762	-0.000157	-1.566718	-0.530818	0.012572
 897	4.4800e-01	4.1758	13.733186	0.000477	4.774759	1.617732	-0.038315
 898	4.4850e-01	4.1550	13.581379	0.000378	3.783570	1.281908	-0.030361
 899	4.4900e-01	4.1036	13.414177	0.000417	4.167256	1.411905	-0.033440
 900	4.4950e-01	4.0667	13.379112	0.000087	0.873951	0.296103	-0.007013
 901	4.5000e-01	4.0170	13.125103	0.000633	6.330819	2.144939	-0.050802
 902	4.5050e-01	3.9673	13.137504	-0.000031	-0.309080	-0.104719	0.002480
 903	4.5100e-01	3.9352	13.020334	0.000292	2.920277	0.989416	-0.023434
 904	4.5150e-01	3.8983	13.071222	-0.000127	-1.268295	-0.429710	0.010177
 905	4.5200e-01	3.8421	12.800535	0.000675	6.746478	2.285769	-0.054137
 906	4.5250e-01	3.8325	12.600406	0.000499	4.987918	1.689952	-0.040026
 907	4.5300e-01	3.7732	12.443468	0.000391	3.911465	1.325240	-0.031388
 908	4.5350e-01	3.7555	12.360509	0.000207	2.067641	0.700536	-0.016592
 909	4.5400e-01	3.7106	12.402416	-0.000104	-1.044478	-0.353879	0.008381
 910	4.5450e-01	3.6609	12.014132	0.000968	9.677413	3.278796	-0.077657
 911	4.5500e-01	3.6191	11.919199	0.000237	2.366063	0.801644	-0.018987
 912	4.5550e-01	3.5823	11.780221	0.000346	3.463832	1.173578	-0.027796
 913	4.5600e-01	3.5325	11.617296	0.000406	4.060677	1.375794	-0.032585
 914	4.5650e-01	3.5069	11.503120	0.000285	2.845671	0.964139	-0.022835
 915	4.5700e-01	3.4684	11.447956	0.000137	1.374875	0.465820	-0.011033
 916	4.5750e-01	3.4138	11.342760	0.000262	2.621854	0.888308	-0.021039
 917	4.5800e-01	3.3753	11.323090	0.000049	0.490265	0.166106	-0.003934
 918	4.5850e-01	3.3208	11.213190	0.000274	2.739092	0.928029	-0.021980
 919	4.5900e-01	3.2807	11.129803	0.000208	2.078299	0.704147	-0.016677
 920	4.5950e-01	3.2630	10.800959	0.000820	8.195959	2.776866	-0.065769
 921	4.6000e-01	3.2309	10.735533	0.000163	1.630665	0.552484	-0.013085
 922	4.6050e-01	3.1764	10.544812	0.000475	4.753443	1.610510	-0.038144
 923	4.6100e-01	3.1266	10.585008	-0.000100	-1.001847	-0.339435	0.008039
 924	4.6150e-01	3.1122	10.425504	0.000398	3.975413	1.346906	-0.031901
 925	4.6200e-01	3.0513	10.245902	0.000448	4.476336	1.516624	-0.035921
 926	4.6250e-01	3.0304	10.143272	0.000256	2.557906	0.866642	-0.020526
 927	4.6300e-01	2.9871	10.002583	0.000351	3.506463	1.188022	-0.028138
 928	4.6350e-01	2.9293	9.961958	0.000101	1.012505	0.343046	-0.008125
 929	4.6400e-01	2.9021	9.842223	0.000298	2.984224	1.011083	-0.023947
 930	4.6450e-01	2.8636	9.698969	0.000357	3.570411	1.209688	-0.028651
 931	4.6500e-01	2.8074	9.515518	0.000457	4.572258	1.549123	-0.036690
 932	4.6550e-01	2.7882	9.336770	0.000446	4.455020	1.509402	-0.035749
 933	4.6600e-01	2.7545	9.261508	0.000188	1.875798	0.635538	-0.015052
 934	4.6650e-01	2.7272	9.202068	0.000148	1.481454	0.501930	-0.011888
 935	4.6700e-01	2.6502	9.037860	0.000409	4.092650	1.386627	-0.032842
 936	4.6750e-01	2.6374	8.855692	0.000454	4.540284	1.538290	-0.036434
 937	4.6800e-01	2.5748	8.694905	0.000401	4.007387	1.357739	-0.032157
 938	4.6850e-01	2.5219	8.726121	-0.000078	-0.778030	-0.263604	0.006243
 939	4.6900e-01	2.4962	8.634610	0.000228	2.280800	0.772756	-0.018302
 940	4.6950e-01	2.4432	8.611518	0.000058	0.575529	0.194994	-0.004618
 941	4.7000e-01	2.4128	8.247609	0.000907	9.069910	3.072969	-0.072782
 942	4.7050e-01	2.3983	8.187314	0.000150	1.502770	0.509152	-0.012059
 943	4.7100e-01	2.3229	7.843503	0.000857	8.568987	2.903251	-0.068762
 944	4.7150e-01	2.2876	8.088104	-0.000610	-6.096344	-2.065497	0.048920
 945	4.7200e-01	2.2748	7.808010	0.000698	6.980953	2.365211	-0.056019
 946	4.7250e-01	2.2395	7.438969	0.000920	9.197805	3.116301	-0.073808
 947	4.7300e-01	2.1850	7.540744	-0.000254	-2.536591	-0.859420	0.020355
 948	4.7350e-01	2.1320	7.360714	0.000449	4.486994	1.520235	-0.036006
 949	4.7400e-01	2.0807	7.323510	0.000093	0.927241	0.314158	-0.007441
 950	4.7450e-01	2.0630	7.126803	0.000490	4.902654	1.661064	-0.039342
 951	4.7500e-01	2.0197	7.001936	0.000311	3.112120	1.054415	-0.024973
 952	4.7550e-01	1.9556	6.958318	0.000109	1.087110	0.368323	-0.008724
 953	4.7600e-01	1.9283	6.865951	0.000230	2.302116	0.779978	-0.018473
 954	4.7650e-01	1.8882	6.745361	0.000301	3.005540	1.018305	-0.024118
 955	4.7700e-01	1.8368	6.541811	0.000507	5.073181	1.718840	-0.040710
 956	4.7750e-01	1.8224	6.352801	0.000471	4.710811	1.596066	-0.037802
 957	4.7800e-01	1.7839	6.271980	0.000201	2.014351	0.682481	-0.016164
 958	4.7850e-01	1.7374	6.081259	0.000475	4.753443	1.610510	-0.038144
 959	4.7900e-01	1.7005	6.105206	-0.000060	-0.596845	-0.202217	0.004789
 960	4.7950e-01	1.6684	5.802875	0.000754	7.535166	2.552983	-0.060466
 961	4.8000e-01	1.6331	5.540313	0.000654	6.543977	2.217160	-0.052512
 962	4.8050e-01	1.5577	5.627121	-0.000216	-2.163563	-0.733035	0.017362
 963	4.8100e-01	1.5385	5.504820	0.000305	3.048172	1.032749	-0.024460
 964	4.8150e-01	1.4967	5.366270	0.000345	3.453174	1.169967	-0.027710
 965	4.8200e-01	1.4839	4.977558	0.000969	9.688071	3.282407	-0.077742
 966	4.8250e-01	1.4342	5.060518	-0.000207	-2.067641	-0.700536	0.016592
 967	4.8300e-01	1.3732	4.904434	0.000389	3.890149	1.318018	-0.031217
 968	4.8350e-01	1.3379	4.846705	0.000144	1.438822	0.487486	-0.011546
 969	4.8400e-01	1.3187	4.713286	0.000333	3.325278	1.126635	-0.026684
 970	4.8450e-01	1.2513	4.580294	0.000331	3.314620	1.123024	-0.026598
 971	4.8500e-01	1.2128	4.552499	0.000069	0.692766	0.234716	-0.005559
 972	4.8550e-01	1.1775	4.340824	0.000528	5.275682	1.787449	-0.042335
 973	4.8600e-01	1.1454	4.141978	0.000496	4.955944	1.679119	-0.039769
 974	4.8650e-01	1.0957	3.974777	0.000417	4.167256	1.411905	-0.033440
 975	4.8700e-01	1.0636	3.967080	0.000019	0.191843	0.064998	-0.001539
 976	4.8750e-01	1.0123	3.831095	0.000339	3.389226	1.148301	-0.027197
 977	4.8800e-01	0.9770	3.588204	0.000605	6.053712	2.051053	-0.048578
 978	4.8850e-01	0.9433	3.468041	0.000299	2.994882	1.014694	-0.024033
 979	4.8900e-01	0.9080	3.310675	0.000392	3.922123	1.328851	-0.031473
 980	4.8950e-01	0.8647	3.261498	0.000123	1.225664	0.415266	-0.009835
 981	4.9000e-01	0.8310	2.995943	0.000662	6.618583	2.242437	-0.053111
 982	4.9050e-01	0.7877	3.036567	-0.000101	-1.012505	-0.343046	0.008125
 983	4.9100e-01	0.7267	2.808215	0.000569	5.691342	1.928279	-0.045670
 984	4.9150e-01	0.6994	2.824465	-0.000041	-0.405002	-0.137218	0.003250
 985	4.9200e-01	0.6465	2.677362	0.000367	3.666333	1.242187	-0.029421
 986	4.9250e-01	0.6176	2.352794	0.000809	8.089379	2.740756	-0.064914
 987	4.9300e-01	0.5888	2.260000	0.000231	2.312774	0.783589	-0.018559
 988	4.9350e-01	0.5246	2.302334	-0.000106	-1.055136	-0.357490	0.008467
 989	4.9400e-01	0.5037	1.989740	0.000779	7.790957	2.639648	-0.062519
 990	4.9450e-01	0.4684	1.895235	0.000236	2.355406	0.798033	-0.018901
 991	4.9500e-01	0.4492	1.604022	0.000726	7.258060	2.459097	-0.058243
 992	4.9550e-01	0.3898	1.654910	-0.000127	-1.268295	-0.429710	0.010177
 993	4.9600e-01	0.3417	1.360704	0.000733	7.332665	2.484374	-0.058841
 994	4.9650e-01	0.3048	1.420571	-0.000149	-1.492112	-0.505541	0.011974
 995	4.9700e-01	0.2759	1.186233	0.000584	5.840553	1.978833	-0.046868
 996	4.9750e-01	0.2326	1.078471	0.000269	2.685802	0.909974	-0.021552
 997	4.9800e-01	0.1877	0.923671	0.000386	3.858176	1.307185	-0.030960
 998	4.9850e-01	0.1524	0.878770	0.000112	1.119084	0.379156	-0.008980
 999	4.9900e-01	0.1027	0.809067	0.000174	1.737245	0.588594	-0.013941
1000	4.9950e-01	0.0738	0.392988	0.001037	10.370179	3.513512	-0.083216
1001	5.0000e-01	0.0610	0.233483	0.000398	3.975413	1.346906	-0.031901
1002	5.0050e-01	-0.0032	0.391277	-0.000393	-3.932781	-1.332462	0.031559
1003	5.0100e-01	-0.0786	0.171478	0.000548	5.478183	1.856059	-0.043960
1004	5.0150e-01	-0.0818	-0.031644	0.000506	5.062523	1.715229	-0.040624
1005	5.0200e-01	-0.1299	-0.084670	0.000132	1.321585	0.447765	-0.010605
1006	5.0250e-01	-0.1668	-0.108617	0.000060	0.596845	0.202217	-0.004789
1007	5.0300e-01	-0.2021	-0.384863	0.000689	6.885032	2.332712	-0.055249
1008	5.0350e-01	-0.2775	-0.468250	0.000208	2.078299	0.704147	-0.016677
1009	5.0400e-01	-0.2968	-0.720976	0.000630	6.298845	2.134106	-0.050545
1010	5.0450e-01	-0.3273	-0.687621	-0.000083	-0.831320	-0.281659	0.006671
1011	5.0500e-01	-0.3802	-0.808639	0.000302	3.016198	1.021916	-0.024204
1012	5.0550e-01	-0.4155	-1.205903	0.000990	9.901230	3.354627	-0.079453
1013	5.0600e-01	-0.4732	-1.106694	-0.000247	-2.472643	-0.837754	0.019842
1014	5.0650e-01	-0.4973	-1.208469	0.000254	2.536591	0.859420	-0.020355
1015	5.0700e-01	-0.5390	-1.568102	0.000896	8.963331	3.036859	-0.071927
1016	5.0750e-01	-0.5855	-1.357710	-0.000524	-5.243708	-1.776616	0.042078
1017	5.0800e-01	-0.6080	-1.712212	0.000884	8.835435	2.993527	-0.070900
1018	5.0850e-01	-0.6674	-1.789612	0.000193	1.929088	0.653593	-0.015480
1019	5.0900e-01	-0.6866	-1.995727	0.000514	5.137129	1.740506	-0.041223
1020	5.0950e-01	-0.7363	-2.253158	0.000642	6.416082	2.173827	-0.051486
1021	5.1000e-01	-0.7748	-2.323288	0.000175	1.747903	0.592205	-0.014026
1022	5.1050e-01	-0.8005	-2.383583	0.000150	1.502770	0.509152	-0.012059
1023	5.1100e-01	-0.8438	-2.593120	0.000522	5.222392	1.769394	-0.041907
1024	5.1150e-01	-0.8791	-2.610652	0.000044	0.436976	0.148051	-0.003507
1025	5.1200e-01	-0.9305	-2.839432	0.000570	5.702000	1.931890	-0.045756
1026	5.1250e-01	-0.9786	-2.885188	0.000114	1.140400	0.386378	-0.009151
1027	5.1300e-01	-0.9978	-3.120382	0.000586	5.861869	1.986055	-0.047039
1028	5.1350e-01	-1.0428	-3.134493	0.000035	0.351712	0.119163	-0.002822
1029	5.1400e-01	-1.0556	-3.299557	0.000411	4.113966	1.393850	-0.033013
1030	5.1450e-01	-1.1310	-3.470179	0.000425	4.252520	1.440793	-0.034124
1031	5.1500e-01	-1.1952	-3.392351	-0.000194	-1.939746	-0.657204	0.015566
1032	5.1550e-01	-1.2337	-3.602315	0.000523	5.233050	1.773005	-0.041993
1033	5.1600e-01	-1.2369	-3.870009	0.000667	6.671873	2.260492	-0.053539
1034	5.1650e-01	-1.2722	-4.047046	0.000441	4.412389	1.494958	-0.035407
1035	5.1700e-01	-1.3267	-4.139840	0.000231	2.312774	0.783589	-0.018559
1036	5.1750e-01	-1.3684	-4.316022	0.000439	4.391073	1.487736	-0.035236
1037	5.1800e-01	-1.4165	-4.426349	0.000275	2.749749	0.931640	-0.022065
1038	5.1850e-01	-1.4422	-4.490493	0.000160	1.598692	0.541651	-0.012829
1039	5.1900e-01	-1.4919	-4.614077	0.000308	3.080146	1.043582	-0.024717
1040	5.1950e-01	-1.5433	-4.697036	0.000207	2.067641	0.700536	-0.016592
1041	5.2000e-01	-1.5802	-4.749634	0.000131	1.310927	0.444154	-0.010520
1042	5.2050e-01	-1.5962	-4.982262	0.000580	5.797921	1.964389	-0.046526
1043	5.2100e-01	-1.6588	-5.110550	0.000320	3.197383	1.083303	-0.025658
1044	5.2150e-01	-1.6700	-5.442387	0.000827	8.270564	2.802143	-0.066367
1045	5.2200e-01	-1.7390	-5.241403	-0.000501	-5.009234	-1.697174	0.040197
1046	5.2250e-01	-1.7775	-5.595049	0.000881	8.814119	2.986305	-0.070729
1047	5.2300e-01	-1.8240	-5.694686	0.000248	2.483301	0.841365	-0.019927
1048	5.2350e-01	-1.8689	-5.596760	-0.000244	-2.440669	-0.826921	0.019585
1049	5.2400e-01	-1.8850	-6.118462	0.001300	13.002691	4.405431	-0.104341
1050	5.2450e-01	-1.9411	-6.010701	-0.000269	-2.685802	-0.909974	0.021552
1051	5.2500e-01	-1.9764	-6.183034	0.000430	4.295151	1.455237	-0.034467
1052	5.2550e-01	-2.0197	-6.248033	0.000162	1.620007	0.548873	-0.013000
1053	5.2600e-01	-2.0358	-6.554640	0.000764	7.641746	2.589094	-0.061321
1054	5.2650e-01	-2.0967	-6.449017	-0.000263	-2.632512	-0.891919	0.021125
1055	5.2700e-01	-2.1465	-6.680362	0.000577	5.765948	1.953556	-0.046269
1056	5.2750e-01	-2.1625	-6.844998	0.000410	4.103308	1.390238	-0.032927
1057	5.2800e-01	-2.2267	-6.980983	0.000339	3.389226	1.148301	-0.027197
1058	5.2850e-01	-2.2539	-6.934371	-0.000116	-1.161716	-0.393600	0.009322
1059	5.2900e-01	-2.2732	-7.368839	0.001083	10.828471	3.668785	-0.086893
1060	5.2950e-01	-2.3245	-7.312820	-0.000140	-1.396191	-0.473042	0.011204
1061	5.3000e-01	-2.3614	-7.529198	0.000539	5.392920	1.827171	-0.043276
1062	5.3050e-01	-2.4080	-7.743866	0.000535	5.350288	1.812727	-0.042934
1063	5.3100e-01	-2.4641	-7.729327	-0.000036	-0.362370	-0.122774	0.002908
1064	5.3150e-01	-2.4946	-7.758405	0.000072	0.724740	0.245549	-0.005816
1065	5.3200e-01	-2.5283	-8.077414	0.000795	7.950826	2.693813	-0.063802
1066	5.3250e-01	-2.5828	-8.066296	-0.000028	-0.277107	-0.093886	0.002224
1067	5.3300e-01	-2.6053	-8.294647	0.000569	5.691342	1.928279	-0.045670
1068	5.3350e-01	-2.6486	-8.377179	0.000206	2.056983	0.696925	-0.016506
1069	5.3400e-01	-2.7095	-8.605959	0.000570	5.702000	1.931890	-0.045756
1070	5.3450e-01	-2.7352	-8.609380	0.000009	0.085264	0.028888	-0.000684
1071	5.3500e-01	-2.7737	-8.788555	0.000447	4.465678	1.513013	-0.035835
1072	5.3550e-01	-2.7962	-9.007499	0.000546	5.456867	1.848837	-0.043789
1073	5.3600e-01	-2.8395	-9.034012	0.000066	0.660793	0.223883	-0.005303
1074	5.3650e-01	-2.8796	-9.096872	0.000157	1.566718	0.530818	-0.012572
1075	5.3700e-01	-2.9454	-9.142628	0.000114	1.140400	0.386378	-0.009151
1076	5.3750e-01	-3.0095	-9.278613	0.000339	3.389226	1.148301	-0.027197
1077	5.3800e-01	-3.0111	-9.453084	0.000435	4.348441	1.473292	-0.034894
1078	5.3850e-01	-3.0673	-9.494136	0.000102	1.023163	0.346657	-0.008210
1079	5.3900e-01	-3.1074	-9.684857	0.000475	4.753443	1.610510	-0.038144
1080	5.3950e-01	-3.1283	-10.023109	0.000843	8.430433	2.856308	-0.067650
1081	5.4000e-01	-3.1828	-9.899525	-0.000308	-3.080146	-1.043582	0.024717
1082	5.4050e-01	-3.2085	-10.220244	0.000799	7.993458	2.708257	-0.064144
1083	5.4100e-01	-3.2582	-10.225803	0.000014	0.138553	0.046943	-0.001112
1084	5.4150e-01	-3.3047	-10.372479	0.000366	3.655675	1.238576	-0.029335
1085	5.4200e-01	-3.3320	-10.431919	0.000148	1.481454	0.501930	-0.011888
1086	5.4250e-01	-3.3849	-10.587147	0.000387	3.868834	1.310796	-0.031046
1087	5.4300e-01	-3.4218	-10.676093	0.000222	2.216852	0.751090	-0.017789
1088	5.4350e-01	-3.4395	-10.927964	0.000628	6.277529	2.126884	-0.050374
1089	5.4400e-01	-3.4988	-10.904017	-0.000060	-0.596845	-0.202217	0.004789
1090	5.4450e-01	-3.5309	-11.102435	0.000495	4.945286	1.675508	-0.039684
1091	5.4500e-01	-3.5710	-11.201644	0.000247	2.472643	0.837754	-0.019842
1092	5.4550e-01	-3.6320	-11.336346	0.000336	3.357252	1.137468	-0.026940
1093	5.4600e-01	-3.6657	-11.334636	-0.000004	-0.042632	-0.014444	0.000342
1094	5.4650e-01	-3.6833	-11.677163	0.000854	8.537013	2.892418	-0.068506
1095	5.4700e-01	-3.7138	-11.805879	0.000321	3.208041	1.086914	-0.025743
1096	5.4750e-01	-3.7812	-11.808444	0.000006	0.063948	0.021666	-0.000513
1097	5.4800e-01	-3.8293	-11.955975	0.000368	3.676991	1.245798	-0.029506
1098	5.4850e-01	-3.8710	-11.969659	0.000034	0.341054	0.115552	-0.002737
1099	5.4900e-01	-3.8871	-12.300213	0.000824	8.238590	2.791310	-0.066111
1100	5.4950e-01	-3.9368	-12.343831	0.000109	1.087110	0.368323	-0.008724
1101	5.5000e-01	-3.9737	-12.455869	0.000279	2.792381	0.946084	-0.022408
1102	5.5050e-01	-3.9961	-12.652149	0.000489	4.891996	1.657453	-0.039256
1103	5.5100e-01	-4.0539	-12.609814	-0.000106	-1.055136	-0.357490	0.008467
1104	5.5150e-01	-4.0956	-12.842015	0.000579	5.787263	1.960778	-0.046440
1105	5.5200e-01	-4.1485	-12.760766	-0.000203	-2.025009	-0.686092	0.016250
1106	5.5250e-01	-4.1678	-13.143063	0.000953	9.528202	3.228242	-0.076459
1107	5.5300e-01	-4.2031	-13.179839	0.000092	0.916583	0.310547	-0.007355
1108	5.5350e-01	-4.2705	-13.190957	0.000028	0.277107	0.093886	-0.002224
1109	5.5400e-01	-4.2993	-13.391513	0.000500	4.998576	1.693563	-0.040111
1110	5.5450e-01	-4.3186	-13.530919	0.000347	3.474490	1.177189	-0.027881
1111	5.5500e-01	-4.3763	-13.555294	0.000061	0.607503	0.205828	-0.004875
1112	5.5550e-01	-4.4132	-13.869171	0.000782	7.822931	2.650481	-0.062775
1113	5.5600e-01	-4.4806	-13.806310	-0.000157	-1.566718	-0.530818	0.012572
1114	5.5650e-01	-4.5095	-13.845224	0.000097	0.969873	0.328602	-0.007783
1115	5.5700e-01	-4.5255	-14.059891	0.000535	5.350288	1.812727	-0.042934
1116	5.5750e-01	-4.5705	-14.168081	0.000270	2.696460	0.913585	-0.021638
1117	5.5800e-01	-4.6234	-14.223244	0.000137	1.374875	0.465820	-0.011033
1118	5.5850e-01	-4.6571	-14.411399	0.000469	4.689495	1.588844	-0.037631
1119	5.5900e-01	-4.7004	-14.660705	0.000621	6.213581	2.105218	-0.049861
1120	5.5950e-01	-4.7245	-14.551233	-0.000273	-2.728434	-0.924418	0.021894
1121	5.6000e-01	-4.7710	-14.882642	0.000826	8.259906	2.798532	-0.066282
1122	5.6050e-01	-4.7918	-15.027607	0.000361	3.613043	1.224132	-0.028993
1123	5.6100e-01	-4.8576	-15.001522	-0.000065	-0.650135	-0.220272	0.005217
1124	5.6150e-01	-4.8945	-15.116981	0.000288	2.877645	0.974972	-0.023092
1125	5.6200e-01	-4.9218	-15.352175	0.000586	5.861869	1.986055	-0.047039
1126	5.6250e-01	-4.9747	-15.288459	-0.000159	-1.588034	-0.538040	0.012743
1127	5.6300e-01	-5.0293	-15.569836	0.000701	7.012927	2.376044	-0.056275
1128	5.6350e-01	-5.0565	-15.578816	0.000022	0.223817	0.075831	-0.001796
1129	5.6400e-01	-5.1143	-15.716512	0.000343	3.431858	1.162745	-0.027539
1130	5.6450e-01	-5.1432	-15.722071	0.000014	0.138553	0.046943	-0.001112
1131	5.6500e-01	-5.1833	-15.884996	0.000406	4.060677	1.375794	-0.032585
1132	5.6550e-01	-5.2170	-16.079566	0.000485	4.849364	1.643009	-0.038914
1133	5.6600e-01	-5.2667	-16.153972	0.000185	1.854482	0.628316	-0.014881
1134	5.6650e-01	-5.3068	-16.345976	0.000479	4.785417	1.621343	-0.038401
1135	5.6700e-01	-5.3405	-16.358377	0.000031	0.309080	0.104719	-0.002480
1136	5.6750e-01	-5.3838	-16.541828	0.000457	4.572258	1.549123	-0.036690
1137	5.6800e-01	-5.3886	-16.652156	0.000275	2.749749	0.931640	-0.022065
1138	5.6850e-01	-5.4464	-16.757779	0.000263	2.632512	0.891919	-0.021125
1139	5.6900e-01	-5.4929	-17.025045	0.000666	6.661215	2.256881	-0.053453
1140	5.6950e-01	-5.5410	-17.174714	0.000373	3.730280	1.263853	-0.029934
1141	5.7000e-01	-5.5843	-16.993401	-0.000452	-4.518968	-1.531068	0.036263
1142	5.7050e-01	-5.6276	-17.246983	0.000632	6.320161	2.141328	-0.050716
1143	5.7100e-01	-5.6613	-17.291456	0.000111	1.108426	0.375545	-0.008895
1144	5.7150e-01	-5.7079	-17.337639	0.000115	1.151058	0.389989	-0.009237
1145	5.7200e-01	-5.7255	-17.490301	0.000380	3.804886	1.289130	-0.030532
1146	5.7250e-01	-5.7656	-17.653654	0.000407	4.071334	1.379405	-0.032671
1147	5.7300e-01	-5.8025	-17.733620	0.000199	1.993035	0.675259	-0.015993
1148	5.7350e-01	-5.8410	-17.857631	0.000309	3.090804	1.047193	-0.024802
1149	5.7400e-01	-5.8843	-18.012004	0.000385	3.847518	1.303574	-0.030875
1150	5.7450e-01	-5.9357	-18.009866	-0.000005	-0.053290	-0.018055	0.000428
1151	5.7500e-01	-5.9918	-18.142002	0.000329	3.293305	1.115802	-0.026427
1152	5.7550e-01	-6.0223	-18.358808	0.000540	5.403577	1.830782	-0.043361
1153	5.7600e-01	-6.0512	-18.498214	0.000347	3.474490	1.177189	-0.027881
1154	5.7650e-01	-6.0945	-18.478116	-0.000050	-0.500923	-0.169717	0.004020
1155	5.7700e-01	-6.1201	-18.753079	0.000685	6.853058	2.321879	-0.054993
1156	5.7750e-01	-6.1554	-18.815512	0.000156	1.556060	0.527207	-0.012487
1157	5.7800e-01	-6.2020	-18.913011	0.000243	2.430011	0.823310	-0.019500
1158	5.7850e-01	-6.2308	-19.046002	0.000331	3.314620	1.123024	-0.026598
1159	5.7900e-01	-6.2790	-19.187546	0.000353	3.527779	1.195244	-0.028309
1160	5.7950e-01	-6.3303	-19.114422	-0.000182	-1.822508	-0.617483	0.014625
1161	5.8000e-01	-6.3800	-19.344912	0.000574	5.744632	1.946334	-0.046098
1162	5.8050e-01	-6.4121	-19.523232	0.000444	4.444363	1.505791	-0.035664
1163	5.8100e-01	-6.4298	-19.690006	0.000416	4.156598	1.408294	-0.033355
1164	5.8150e-01	-6.4795	-19.614744	-0.000188	-1.875798	-0.635538	0.015052
1165	5.8200e-01	-6.5308	-19.706683	0.000229	2.291458	0.776367	-0.018388
1166	5.8250e-01	-6.5725	-19.713525	0.000017	0.170527	0.057776	-0.001368
1167	5.8300e-01	-6.6030	-19.987205	0.000682	6.821084	2.311046	-0.054736
1168	5.8350e-01	-6.6335	-20.068454	0.000203	2.025009	0.686092	-0.016250
1169	5.8400e-01	-6.6929	-20.159538	0.000227	2.270142	0.769145	-0.018217
1170	5.8450e-01	-6.7394	-20.186906	0.000068	0.682108	0.231105	-0.005474
1171	5.8500e-01	-6.7602	-20.452034	0.000661	6.607925	2.238826	-0.053026
1172	5.8550e-01	-6.8180	-20.372496	-0.000198	-1.982378	-0.671648	0.015908
1173	5.8600e-01	-6.8501	-20.644465	0.000678	6.778452	2.296602	-0.054394
1174	5.8650e-01	-6.8998	-20.663281	0.000047	0.468950	0.158884	-0.003763
1175	5.8700e-01	-6.9014	-20.923277	0.000648	6.480030	2.195494	-0.051999
1176	5.8750e-01	-6.9929	-20.911731	-0.000029	-0.287764	-0.097497	0.002309
1177	5.8800e-01	-7.0185	-20.983145	0.000178	1.779877	0.603039	-0.014283
1178	5.8850e-01	-7.0458	-21.178569	0.000487	4.870680	1.650231	-0.039085
1179	5.8900e-01	-7.0939	-21.217911	0.000098	0.980531	0.332213	-0.007868
1180	5.8950e-01	-7.1404	-21.462513	0.000610	6.096344	2.065497	-0.048920
1181	5.9000e-01	-7.1838	-21.358172	-0.000260	-2.600538	-0.881086	0.020868
1182	5.9050e-01	-7.2062	-21.590372	0.000579	5.787263	1.960778	-0.046440
1183	5.9100e-01	-7.2543	-21.652378	0.000155	1.545402	0.523596	-0.012401
1184	5.9150e-01	-7.3057	-21.771686	0.000297	2.973566	1.007472	-0.023861
1185	5.9200e-01	-7.3522	-21.738331	-0.000083	-0.831320	-0.281659	0.006671
1186	5.9250e-01	-7.3650	-22.005169	0.000665	6.650557	2.253270	-0.053368
1187	5.9300e-01	-7.4116	-22.259178	0.000633	6.330819	2.144939	-0.050802
1188	5.9350e-01	-7.4356	-22.213850	-0.000113	-1.129742	-0.382767	0.009066
1189	5.9400e-01	-7.5110	-22.454176	0.000599	5.989764	2.029387	-0.048065
1190	5.9450e-01	-7.5415	-22.448189	-0.000015	-0.149211	-0.050554	0.001197
1191	5.9500e-01	-7.5704	-22.540983	0.000231	2.312774	0.783589	-0.018559
1192	5.9550e-01	-7.6217	-22.585884	0.000112	1.119084	0.379156	-0.008980
1193	5.9600e-01	-7.6554	-22.752658	0.000416	4.156598	1.408294	-0.033355
1194	5.9650e-01	-7.7051	-22.759928	0.000018	0.181185	0.061387	-0.001454
1195	5.9700e-01	-7.7420	-23.094331	0.000833	8.334512	2.823809	-0.066881
1196	5.9750e-01	-7.7789	-23.001536	-0.000231	-2.312774	-0.783589	0.018559
1197	5.9800e-01	-7.8094	-23.162751	0.000402	4.018045	1.361350	-0.032243
1198	5.9850e-01	-7.8672	-23.190974	0.000070	0.703424	0.238327	-0.005645
1199	5.9900e-01	-7.9008	-23.295742	0.000261	2.611196	0.884697	-0.020954
1200	5.9950e-01	-7.9313	-23.391103	0.000238	2.376721	0.805255	-0.019072
1201	6.0000e-01	-7.9778	-23.578830	0.000468	4.678837	1.585233	-0.037545
1202	6.0050e-01	-8.0308	-23.783235	0.000509	5.094497	1.726062	-0.040881
1203	6.0100e-01	-8.0260	-23.821294	-0.000095	-0.948557	-0.321380	-0.007612
1204	6.0150e-01	-8.1142	-24.048790	0.000567	5.670026	1.921057	-0.045499
1205	6.0200e-01	-8.1174	-24.167670	0.000296	2.962908	1.003861	-0.023776
1206	6.0250e-01	-8.1832	-24.148427	-0.000048	-0.479607	-0.162495	0.003849
1207	6.0300e-01	-8.2281	-24.186913	0.000096	0.959215	0.324991	-0.007697
1208	6.0350e-01	-8.2490	-24.380627	0.000483	4.828048	1.635787	-0.038743
1209	6.0400e-01	-8.2794	-24.496086	0.000288	2.877645	0.974972	-0.023092
1210	6.0450e-01	-8.3179	-24.548684	0.000131	1.310927	0.444154	-0.010520
1211	6.0500e-01	-8.3709	-24.656873	0.000270	2.696460	0.913585	-0.021638
1212	6.0550e-01	-8.4110	-24.771905	0.000287	2.866987	0.971361	-0.023006
1213	6.0600e-01	-8.4687	-24.860423	0.000221	2.206194	0.747479	-0.017704
1214	6.0650e-01	-8.4976	-25.000256	0.000349	3.485148	1.180800	-0.027967
1215	6.0700e-01	-8.5393	-25.057986	0.000144	1.438822	0.487486	-0.011546
1216	6.0750e-01	-8.5618	-25.149925	0.000229	2.291458	0.776367	-0.018388
1217	6.0800e-01	-8.6260	-25.336370	0.000465	4.646863	1.574400	-0.037289
1218	6.0850e-01	-8.6629	-25.401797	0.000163	1.630665	0.552484	-0.013085
1219	6.0900e-01	-8.6901	-25.484328	0.000206	2.056983	0.696925	-0.016506
1220	6.0950e-01	-8.7415	-25.594228	0.000274	2.739092	0.928029	-0.021980
1221	6.1000e-01	-8.7864	-25.485611	-0.000271	-2.707118	-0.917196	0.021723
1222	6.1050e-01	-8.7848	-25.844389	-0.000894	-8.942015	-3.029637	-0.071756
1223	6.1100e-01	-8.8506	-25.908960	0.000161	1.609349	0.545262	-0.012914
1224	6.1150e-01	-8.8891	-25.991064	0.000205	2.046325	0.693314	-0.016421
1225	6.1200e-01	-8.9179	-26.132608	0.000353	3.527779	1.195244	-0.028309
1226	6.1250e-01	-8.9725	-25.974387	-0.000394	-3.943439	-1.336073	0.031644
1227	6.1300e-01	-9.0014	-26.364809	0.000973	9.730703	3.296851	-0.078084
1228	6.1350e-01	-9.0382	-26.328033	-0.000092	-0.916583	-0.310547	0.007355
1229	6.1400e-01	-9.0960	-26.420828	0.000231	2.312774	0.783589	-0.018559
1230	6.1450e-01	-9.1297	-26.606417	0.000463	4.625548	1.567178	-0.037118
1231	6.1500e-01	-9.1666	-26.792006	0.000463	4.625548	1.567178	-0.037118
1232	6.1550e-01	-9.2388	-26.759079	-0.000082	-0.820662	-0.278048	0.006585
1233	6.1600e-01	-9.2452	-26.875393	0.000290	2.898961	0.982194	-0.023263
1234	6.1650e-01	-9.3013	-26.880525	0.000013	0.127895	0.043332	-0.001026
1235	6.1700e-01	-9.3607	-27.081509	0.000501	5.009234	1.697174	-0.040197
1236	6.1750e-01	-9.3527	-27.174303	-0.000231	-2.312774	-0.783589	-0.018559
1237	6.1800e-01	-9.4217	-27.368873	0.000485	4.849364	1.643009	-0.038914
1238	6.1850e-01	-9.4537	-27.393247	0.000061	0.607503	0.205828	-0.004875
1239	6.1900e-01	-9.4890	-27.428740	0.000088	0.884609	0.299714	-0.007099
1240	6.1950e-01	-9.5500	-27.609626	0.000451	4.508310	1.527457	-0.036177
1241	6.2000e-01	-9.5789	-27.568574	-0.000102	-1.023163	-0.346657	0.008210
1242	6.2050e-01	-9.6126	-27.864491	0.000738	7.375297	2.498818	-0.059183
1243	6.2100e-01	-9.6575	-27.932055	0.000168	1.683955	0.570539	-0.013513
1244	6.2150e-01	-9.6944	-28.008600	0.000191	1.907772	0.646371	-0.015309
1245	6.2200e-01	-9.7233	-28.156559	0.000369	3.687649	1.249409	-0.029592
1246	6.2250e-01	-9.7730	-28.228827	0.000180	1.801192	0.610261	-0.014454
1247	6.2300e-01	-9.7938	-28.322905	0.000234	2.344748	0.794422	-0.018816
1248	6.2350e-01	-9.8468	-28.538000	0.000536	5.360946	1.816338	-0.043019
1249	6.2400e-01	-9.8885	-28.463594	-0.000185	-1.854482	-0.628316	0.014881
1250	6.2450e-01	-9.9350	-28.558954	0.000238	2.376721	0.805255	-0.019072
1251	6.2500e-01	-9.9655	-28.708195	0.000372	3.719622	1.260242	-0.029848
1252	6.2550e-01	-10.0168	-28.732997	0.000062	0.618161	0.209439	-0.004960
1253	6.2600e-01	-10.0634	-28.983586	0.000625	6.245555	2.116051	-0.050118
1254	6.2650e-01	-10.0874	-29.001546	0.000045	0.447634	0.151662	-0.003592
1255	6.2700e-01	-10.1291	-29.090065	0.000221	2.206194	0.747479	-0.017704
1256	6.2750e-01	-10.1612	-29.200820	0.000276	2.760407	0.935251	-0.022151
1257	6.2800e-01	-10.1933	-29.338087	0.000342	3.421200	1.159134	-0.027454
1258	6.2850e-01	-10.2607	-29.322693	-0.000038	-0.383686	-0.129996	0.003079
1259	6.2900e-01	-10.2879	-29.518973	0.000489	4.891996	1.657453	-0.039256
1260	6.2950e-01	-10.3297	-29.522394	0.000009	0.085264	0.028888	-0.000684
1261	6.3000e-01	-10.3826	-29.733213	0.000525	5.254366	1.780227	-0.042164
1262	6.3050e-01	-10.4163	-29.873474	0.000350	3.495806	1.184411	-0.028052
1263	6.3100e-01	-10.4339	-29.924361	0.000127	1.268295	0.429710	-0.010177
1264	6.3150e-01	-10.4933	-29.970973	0.000116	1.161716	0.393600	-0.009322
1265	6.3200e-01	-10.5318	-30.082583	0.000278	2.781723	0.942473	-0.022322
1266	6.3250e-01	-10.5703	-30.269455	0.000466	4.657521	1.578011	-0.037374
1267	6.3300e-01	-10.5992	-30.284422	0.000037	0.373028	0.126385	-0.002993
1268	6.3350e-01	-10.6441	-30.427249	0.000356	3.559753	1.206077	-0.028565
1269	6.3400e-01	-10.6938	-30.437084	0.000025	0.245133	0.083053	-0.001967
1270	6.3450e-01	-10.7484	-30.549977	0.000281	2.813697	0.953306	-0.022579
1271	6.3500e-01	-10.7788	-30.528168	-0.000054	-0.543555	-0.184161	0.004362
1272	6.3550e-01	-10.8141	-30.807835	0.000697	6.970295	2.361600	-0.055933
1273	6.3600e-01	-10.8334	-30.908755	0.000252	2.515275	0.852198	-0.020184
1274	6.3650e-01	-10.8992	-30.921156	0.000031	0.309080	0.104719	-0.002480
1275	6.3700e-01	-10.9280	-31.111022	0.000473	4.732127	1.603288	-0.037973
1276	6.3750e-01	-10.9553	-31.187139	0.000190	1.897114	0.642760	-0.015223
1277	6.3800e-01	-11.0227	-31.355196	0.000419	4.188572	1.419127	-0.033611
1278	6.3850e-01	-11.0371	-31.384274	0.000072	0.724740	0.245549	-0.005816
1279	6.3900e-01	-11.0997	-31.402234	0.000045	0.447634	0.151662	-0.003592
1280	6.3950e-01	-11.1414	-31.517266	0.000287	2.866987	0.971361	-0.023006
1281	6.4000e-01	-11.1847	-31.775124	0.000643	6.426740	2.177438	-0.051572
1282	6.4050e-01	-11.2168	-31.663941	-0.000277	-2.771065	-0.938862	0.022237
1283	6.4100e-01	-11.2633	-31.790518	0.000315	3.154751	1.068859	-0.025315
1284	6.4150e-01	-11.2697	-32.034265	0.000608	6.075028	2.058275	-0.048749
1285	6.4200e-01	-11.3339	-32.124066	0.000224	2.238168	0.758312	-0.017960
1286	6.4250e-01	-11.3612	-32.068047	-0.000140	-1.396191	-0.473042	0.011204
1287	6.4300e-01	-11.4029	-32.236531	0.000420	4.199230	1.422738	-0.033697
1288	6.4350e-01	-11.4462	-32.338306	0.000254	2.536591	0.859420	-0.020355
1289	6.4400e-01	-11.4847	-32.369095	0.000077	0.767372	0.259993	-0.006158
1290	6.4450e-01	-11.5392	-32.473008	0.000259	2.589880	0.877475	-0.020783
1291	6.4500e-01	-11.5649	-32.650900	0.000443	4.433705	1.502180	-0.035578
1292	6.4550e-01	-11.6050	-32.670571	0.000049	0.490265	0.166106	-0.003934
1293	6.4600e-01	-11.6339	-32.811687	0.000352	3.517121	1.191633	-0.028223
1294	6.4650e-01	-11.6788	-33.013099	0.000502	5.019891	1.700785	-0.040282
1295	6.4700e-01	-11.7542	-32.937409	-0.000189	-1.886456	-0.639149	0.015138
1296	6.4750e-01	-11.7590	-32.975468	0.000095	0.948557	0.321380	-0.007612
1297	6.4800e-01	-11.8264	-33.197833	0.000554	5.542131	1.877725	-0.044473
1298	6.4850e-01	-11.8489	-33.146090	-0.000129	-1.289611	-0.436932	0.010349
1299	6.4900e-01	-11.8954	-33.335101	0.000471	4.710811	1.596066	-0.037802
1300	6.4950e-01	-11.9371	-33.378291	0.000108	1.076452	0.364712	-0.008638
1301	6.5000e-01	-11.9660	-33.477928	0.000248	2.483301	0.841365	-0.019927
1302	6.5050e-01	-12.0237	-33.612202	0.000335	3.346594	1.133857	-0.026855
1303	6.5100e-01	-12.0606	-33.700293	0.000220	2.195536	0.743868	-0.017618
1304	6.5150e-01	-12.0895	-33.934631	0.000584	5.840553	1.978833	-0.046868
1305	6.5200e-01	-12.1424	-33.851672	-0.000207	-2.067641	-0.700536	0.016592
1306	6.5250e-01	-12.1858	-34.029564	0.000443	4.433705	1.502180	-0.035578
1307	6.5300e-01	-12.2146	-34.085583	0.000140	1.396191	0.473042	-0.011204
1308	6.5350e-01	-12.2307	-34.204035	0.000295	2.952250	1.000250	-0.023690
1309	6.5400e-01	-12.2836	-34.207456	0.000009	0.085264	0.028888	-0.000684
1310	6.5450e-01	-12.3173	-34.481136	0.000682	6.821084	2.311046	-0.054736
1311	6.5500e-01	-12.3718	-34.427256	-0.000134	-1.342901	-0.454987	0.010776
1312	6.5550e-01	-12.4055	-34.602154	0.000436	4.359099	1.476903	-0.034980
1313	6.5600e-01	-12.4649	-34.529030	-0.000182	-1.822508	-0.617483	0.014625
1314	6.5650e-01	-12.4697	-34.868565	0.000846	8.462407	2.867141	-0.067907
1315	6.5700e-01	-12.5210	-34.844618	-0.000060	-0.596845	-0.202217	0.004789
1316	6.5750e-01	-12.5884	-34.877545	0.000082	0.820662	0.278048	-0.006585
1317	6.5800e-01	-12.6285	-34.861295	-0.000041	-0.405002	-0.137218	0.003250
1318	6.5850e-01	-12.6430	-35.122147	0.000650	6.501346	2.202716	-0.052170
1319	6.5900e-01	-12.6991	-35.178593	0.000141	1.406849	0.476653	-0.011289
1320	6.5950e-01	-12.7408	-35.326124	0.000368	3.676991	1.245798	-0.029506
1321	6.6000e-01	-12.7793	-35.427044	0.000252	2.515275	0.852198	-0.020184
1322	6.6050e-01	-12.8226	-35.365465	-0.000153	-1.534744	-0.519985	0.012316
1323	6.6100e-01	-12.8467	-35.498885	0.000333	3.325278	1.126635	-0.026684
1324	6.6150e-01	-12.8595	-35.778551	0.000697	6.970295	2.361600	-0.055933
1325	6.6200e-01	-12.9269	-35.798222	0.000049	0.490265	0.166106	-0.003934
1326	6.6250e-01	-12.9574	-35.811906	0.000034	0.341054	0.115552	-0.002737
1327	6.6300e-01	-13.0087	-35.960292	0.000370	3.698306	1.253020	-0.029677
1328	6.6350e-01	-13.0601	-36.089007	0.000321	3.208041	1.086914	-0.025743
1329	6.6400e-01	-13.1066	-35.982956	-0.000264	-2.643170	-0.895530	0.021210
1330	6.6450e-01	-13.1242	-36.119796	0.000341	3.410542	1.155523	-0.027368
1331	6.6500e-01	-13.1852	-36.320780	0.000501	5.009234	1.697174	-0.040197
1332	6.6550e-01	-13.2125	-36.425549	0.000261	2.611196	0.884697	-0.020954
1333	6.6600e-01	-13.2462	-36.537159	0.000278	2.781723	0.942473	-0.022322
1334	6.6650e-01	-13.2814	-36.732156	0.000486	4.860022	1.646620	-0.038999
1335	6.6700e-01	-13.3328	-36.565382	-0.000416	-4.156598	-1.408294	0.033355
1336	6.6750e-01	-13.3905	-36.657321	0.000229	2.291458	0.776367	-0.018388
1337	6.6800e-01	-13.4050	-36.886101	0.000570	5.702000	1.931890	-0.045756
1338	6.6850e-01	-13.4515	-36.762945	-0.000307	-3.069488	-1.039971	0.024631
1339	6.6900e-01	-13.4980	-37.128992	0.000912	9.123200	3.091024	-0.073209
1340	6.6950e-01	-13.5365	-37.096920	-0.000080	-0.799346	-0.270826	0.006414
1341	6.7000e-01	-13.5879	-37.077677	-0.000048	-0.479607	-0.162495	0.003849
1342	6.7050e-01	-13.6247	-37.368462	0.000725	7.247402	2.455486	-0.058157
1343	6.7100e-01	-13.6536	-37.336818	-0.000079	-0.788688	-0.267215	0.006329
1344	6.7150e-01	-13.6985	-37.482211	0.000362	3.623701	1.227743	-0.029079
1345	6.7200e-01	-13.7242	-37.552341	0.000175	1.747903	0.592205	-0.014026
1346	6.7250e-01	-13.7627	-37.752897	0.000500	4.998576	1.693563	-0.040111
1347	6.7300e-01	-13.8108	-37.843554	0.000226	2.259484	0.765534	-0.018131
1348	6.7350e-01	-13.8509	-37.795232	-0.000120	-1.204348	-0.408044	0.009664
1349	6.7400e-01	-13.8830	-37.926941	0.000328	3.282647	1.112191	-0.026342
1350	6.7450e-01	-13.9440	-37.996216	0.000173	1.726587	0.584983	-0.013855
1351	6.7500e-01	-13.9713	-37.994933	-0.000003	-0.031974	-0.010833	0.000257
1352	6.7550e-01	-14.0066	-38.155720	0.000401	4.007387	1.357739	-0.032157
1353	6.7600e-01	-14.0611	-38.220292	0.000161	1.609349	0.545262	-0.012914
1354	6.7650e-01	-14.0884	-38.473446	0.000631	6.309503	2.137717	-0.050631
1355	6.7700e-01	-14.1156	-38.567951	0.000236	2.355406	0.798033	-0.018901
1356	6.7750e-01	-14.1975	-38.626108	0.000145	1.449480	0.491097	-0.011631
1357	6.7800e-01	-14.2135	-38.514926	-0.000277	-2.771065	-0.938862	0.022237
1358	6.7850e-01	-14.2632	-38.650910	0.000339	3.389226	1.148301	-0.027197
1359	6.7900e-01	-14.2889	-38.867289	0.000539	5.392920	1.827171	-0.043276
1360	6.7950e-01	-14.3258	-39.018241	0.000376	3.762254	1.274686	-0.030190
1361	6.8000e-01	-14.3787	-38.949393	-0.000172	-1.715929	-0.581372	0.013770
1362	6.8050e-01	-14.3996	-39.086661	0.000342	3.421200	1.159134	-0.027454
1363	6.8100e-01	-14.4686	-39.164061	0.000193	1.929088	0.653593	-0.015480
1364	6.8150e-01	-14.4910	-39.301328	0.000342	3.421200	1.159134	-0.027454
1365	6.8200e-01	-14.5392	-39.264125	-0.000093	-0.927241	-0.314158	0.007441
1366	6.8250e-01	-14.5632	-39.450142	0.000464	4.636206	1.570789	-0.037203
1367	6.8300e-01	-14.6258	-39.567311	0.000292	2.920277	0.989416	-0.023434
1368	6.8350e-01	-14.6643	-39.678922	0.000278	2.781723	0.942473	-0.022322
1369	6.8400e-01	-14.6916	-39.621620	-0.000143	-1.428164	-0.483875	0.011460
1370	6.8450e-01	-14.7220	-39.782407	0.000401	4.007387	1.357739	-0.032157
1371	6.8500e-01	-14.7750	-39.825169	0.000107	1.065794	0.361101	-0.008553
1372	6.8550e-01	-14.8215	-39.770861	-0.000135	-1.353559	-0.458598	0.010862
1373	6.8600e-01	-14.8793	-40.020594	0.000622	6.224239	2.108829	-0.049947
1374	6.8650e-01	-14.8905	-40.034706	0.000035	0.351712	0.119163	-0.002822
1375	6.8700e-01	-14.9402	-40.148454	0.000284	2.835013	0.960528	-0.022750
1376	6.8750e-01	-14.9771	-40.299834	0.000377	3.772912	1.278297	-0.030276
1377	6.8800e-01	-15.0140	-40.392628	0.000231	2.312774	0.783589	-0.018559
1378	6.8850e-01	-15.0381	-40.591902	0.000497	4.966602	1.682730	-0.039855
1379	6.8900e-01	-15.0926	-40.746274	0.000385	3.847518	1.303574	-0.030875
1380	6.8950e-01	-15.1151	-40.545290	-0.000501	-5.009234	-1.697174	0.040197
1381	6.9000e-01	-15.1712	-40.703084	0.000393	3.932781	1.332462	-0.031559
1382	6.9050e-01	-15.1889	-40.837786	0.000336	3.357252	1.137468	-0.026940
1383	6.9100e-01	-15.2563	-41.033638	0.000488	4.881338	1.653842	-0.039170
1384	6.9150e-01	-15.2867	-41.004988	-0.000071	-0.714082	-0.241938	0.005730
1385	6.9200e-01	-15.3365	-41.113604	0.000271	2.707118	0.917196	-0.021723
1386	6.9250e-01	-15.3926	-41.164064	0.000126	1.257637	0.426099	-0.010092
1387	6.9300e-01	-15.4183	-41.215807	0.000129	1.289611	0.436932	-0.010349
1388	6.9350e-01	-15.4552	-41.398403	0.000455	4.550942	1.541901	-0.036519
1389	6.9400e-01	-15.4921	-41.402679	0.000011	0.106579	0.036110	-0.000855
1390	6.9450e-01	-15.5450	-41.497184	0.000236	2.355406	0.798033	-0.018901
1391	6.9500e-01	-15.5819	-41.561756	0.000161	1.609349	0.545262	-0.012914
1392	6.9550e-01	-15.6012	-41.733233	0.000427	4.273835	1.448015	-0.034296
1393	6.9600e-01	-15.6461	-41.746062	0.000032	0.319738	0.108330	-0.002566
1394	6.9650e-01	-15.6846	-41.852541	0.000265	2.653828	0.899141	-0.021296
1395	6.9700e-01	-15.7311	-41.917540	0.000162	1.620007	0.548873	-0.013000
1396	6.9750e-01	-15.7712	-42.127932	0.000524	5.243708	1.776616	-0.042078
1397	6.9800e-01	-15.8081	-42.031716	-0.000240	-2.398037	-0.812477	0.019243
1398	6.9850e-01	-15.8691	-42.198062	0.000415	4.145940	1.404683	-0.033269
1399	6.9900e-01	-15.8996	-42.336185	0.000344	3.442516	1.166356	-0.027625
1400	6.9950e-01	-15.9445	-42.487992	0.000378	3.783570	1.281908	-0.030361
1401	7.0000e-01	-15.9733	-42.378948	-0.000272	-2.717776	-0.920807	0.021809
1402	7.0050e-01	-16.0199	-42.573517	0.000485	4.849364	1.643009	-0.038914
1403	7.0100e-01	-16.0696	-42.703515	0.000324	3.240015	1.097747	-0.026000
1404	7.0150e-01	-16.0921	-42.664174	-0.000098	-0.980531	-0.332213	0.007868
1405	7.0200e-01	-16.1097	-42.917755	0.000632	6.320161	2.141328	-0.050716
1406	7.0250e-01	-16.1771	-42.920321	0.000006	0.063948	0.021666	-0.000513
1407	7.0300e-01	-16.2140	-42.989596	0.000173	1.726587	0.584983	-0.013855
1408	7.0350e-01	-16.2557	-43.115746	0.000314	3.144093	1.065248	-0.025230
1409	7.0400e-01	-16.2958	-43.165778	0.000125	1.246979	0.422488	-0.010006
1410	7.0450e-01	-16.3343	-43.337256	0.000427	4.273835	1.448015	-0.034296
1411	7.0500e-01	-16.3760	-43.387716	0.000126	1.257637	0.426099	-0.010092
1412	7.0550e-01	-16.4161	-43.345808	-0.000104	-1.044478	-0.353879	0.008381
1413	7.0600e-01	-16.4434	-43.551924	0.000514	5.137129	1.740506	-0.041223
1414	7.0650e-01	-16.4787	-43.606232	0.000135	1.353559	0.458598	-0.010862
1415	7.0700e-01	-16.5412	-43.616923	0.000027	0.266449	0.090275	-0.002138
1416	7.0750e-01	-16.5765	-43.845275	0.000569	5.691342	1.928279	-0.045670
1417	7.0800e-01	-16.6166	-43.840998	-0.000011	-0.106579	-0.036110	0.000855
1418	7.0850e-01	-16.6600	-44.045403	0.000509	5.094497	1.726062	-0.040881
1419	7.0900e-01	-16.6856	-44.077903	0.000081	0.810004	0.274437	-0.006500
1420	7.0950e-01	-16.7402	-44.127935	0.000125	1.246979	0.422488	-0.010006
1421	7.1000e-01	-16.7674	-44.253229	0.000312	3.122777	1.058026	-0.025059
1422	7.1050e-01	-16.7963	-44.362274	0.000272	2.717776	0.920807	-0.021809
1423	7.1100e-01	-16.8541	-44.402470	0.000100	1.001847	0.339435	-0.008039
1424	7.1150e-01	-16.8942	-44.365267	-0.000093	-0.927241	-0.314158	0.007441
1425	7.1200e-01	-16.9247	-44.716347	0.000875	8.750172	2.964638	-0.070216
1426	7.1250e-01	-16.9680	-44.597895	-0.000295	-2.952250	-1.000250	0.023690
1427	7.1300e-01	-17.0129	-44.696677	0.000246	2.461985	0.834143	-0.019756
1428	7.1350e-01	-17.0658	-44.786906	0.000225	2.248826	0.761923	-0.018046
1429	7.1400e-01	-17.1011	-44.925028	0.000344	3.442516	1.166356	-0.027625
1430	7.1450e-01	-17.1733	-44.984896	0.000149	1.492112	0.505541	-0.011974
1431	7.1500e-01	-17.1669	-44.981475	0.000009	0.085264	0.028888	0.000684
1432	7.1550e-01	-17.2166	-45.152525	0.000426	4.263177	1.444404	-0.034210
1433	7.1600e-01	-17.2615	-45.171768	0.000048	0.479607	0.162495	-0.003849
1434	7.1650e-01	-17.2872	-45.311602	0.000349	3.485148	1.180800	-0.027967
1435	7.1700e-01	-17.3450	-45.438179	0.000315	3.154751	1.068859	-0.025315
1436	7.1750e-01	-17.3835	-45.565611	0.000318	3.176067	1.076081	-0.025486
1437	7.1800e-01	-17.4204	-45.499329	-0.000165	-1.651981	-0.559706	0.013256
1438	7.1850e-01	-17.4508	-45.706727	0.000517	5.169103	1.751339	-0.041480
1439	7.1900e-01	-17.5166	-45.722977	0.000041	0.405002	0.137218	-0.003250
1440	7.1950e-01	-17.5262	-45.833732	0.000276	2.760407	0.935251	-0.022151
1441	7.2000e-01	-17.5760	-45.860673	0.000067	0.671450	0.227494	-0.005388
1442	7.2050e-01	-17.6049	-45.994947	0.000335	3.346594	1.133857	-0.026855
1443	7.2100e-01	-17.6674	-46.260930	0.000663	6.629241	2.246048	-0.053197
1444	7.2150e-01	-17.6883	-46.154879	-0.000264	-2.643170	-0.895530	0.021210
1445	7.2200e-01	-17.7252	-46.153168	-0.000004	-0.042632	-0.014444	0.000342
1446	7.2250e-01	-17.7877	-46.399908	0.000615	6.149634	2.083552	-0.049348
1447	7.2300e-01	-17.8070	-46.429414	0.000074	0.735398	0.249160	-0.005901
1448	7.2350e-01	-17.8599	-46.520926	0.000228	2.280800	0.772756	-0.018302
1449	7.2400e-01	-17.9000	-46.664180	0.000357	3.570411	1.209688	-0.028651
1450	7.2450e-01	-17.9353	-46.733883	0.000174	1.737245	0.588594	-0.013941
1451	7.2500e-01	-17.9883	-46.759113	0.000063	0.628819	0.213050	-0.005046
1452	7.2550e-01	-18.0107	-46.736877	-0.000055	-0.554213	-0.187772	0.004447
1453	7.2600e-01	-18.0637	-46.957104	0.000549	5.488841	1.859670	-0.044045
1454	7.2650e-01	-18.1054	-46.932302	-0.000062	-0.618161	-0.209439	0.004960
1455	7.2700e-01	-18.1326	-47.088812	0.000390	3.900807	1.321629	-0.031302
1456	7.2750e-01	-18.1808	-47.148680	0.000149	1.492112	0.505541	-0.011974
1457	7.2800e-01	-18.2129	-47.329138	0.000450	4.497652	1.523846	-0.036092
1458	7.2850e-01	-18.2658	-47.435616	0.000265	2.653828	0.899141	-0.021296
1459	7.2900e-01	-18.2963	-47.516010	0.000200	2.003693	0.678870	-0.016079
1460	7.2950e-01	-18.3348	-47.516010	-0.000000	-0.000000	-0.000000	0.000000
1461	7.3000e-01	-18.3845	-47.435616	-0.000200	-2.003693	-0.678870	0.016079
1462	7.3050e-01	-18.3989	-47.676369	0.000600	6.000422	2.032998	-0.048151
1463	7.3100e-01	-18.4551	-47.843143	0.000416	4.156598	1.408294	-0.033355
1464	7.3150e-01	-18.5000	-47.740941	-0.000255	-2.547249	-0.863031	0.020440
1465	7.3200e-01	-18.5289	-48.042844	0.000752	7.524508	2.549372	-0.060381
1466	7.3250e-01	-18.5915	-48.002648	-0.000100	-1.001847	-0.339435	0.008039
1467	7.3300e-01	-18.6027	-48.056101	0.000133	1.332243	0.451376	-0.010691
1468	7.3350e-01	-18.6685	-48.128797	0.000181	1.811850	0.613872	-0.014539
1469	7.3400e-01	-18.6973	-48.350307	0.000552	5.520815	1.870503	-0.044302
1470	7.3450e-01	-18.7150	-48.427279	0.000192	1.918430	0.649982	-0.015395
1471	7.3500e-01	-18.7791	-48.455930	0.000071	0.714082	0.241938	-0.005730
1472	7.3550e-01	-18.8096	-48.549153	0.000232	2.323432	0.787200	-0.018644
1473	7.3600e-01	-18.8562	-48.632967	0.000209	2.088957	0.707758	-0.016763
1474	7.3650e-01	-18.8914	-48.721058	0.000220	2.195536	0.743868	-0.017618
1475	7.3700e-01	-18.9171	-48.860036	0.000346	3.463832	1.173578	-0.027796
1476	7.3750e-01	-18.9941	-48.912634	0.000131	1.310927	0.444154	-0.010520
1477	7.3800e-01	-19.0230	-49.070428	0.000393	3.932781	1.332462	-0.031559
1478	7.3850e-01	-19.0599	-49.233353	0.000406	4.060677	1.375794	-0.032585
1479	7.3900e-01	-19.0840	-49.138848	-0.000236	-2.355406	-0.798033	0.018901
1480	7.3950e-01	-19.1337	-49.312891	0.000434	4.337783	1.469681	-0.034809
1481	7.4000e-01	-19.1674	-49.365062	0.000130	1.300269	0.440543	-0.010434
1482	7.4050e-01	-19.1946	-49.654564	0.000722	7.215428	2.444653	-0.057900
1483	7.4100e-01	-19.2524	-49.497626	-0.000391	-3.911465	-1.325240	0.031388
1484	7.4150e-01	-19.2781	-49.685781	0.000469	4.689495	1.588844	-0.037631
1485	7.4200e-01	-19.3198	-49.807654	0.000304	3.037514	1.029138	-0.024375
1486	7.4250e-01	-19.3839	-49.782852	-0.000062	-0.618161	-0.209439	0.004960
1487	7.4300e-01	-19.4128	-49.926534	0.000358	3.581069	1.213299	-0.028736
1488	7.4350e-01	-19.4433	-49.931238	0.000012	0.117237	0.039721	-0.000941
1489	7.4400e-01	-19.4930	-50.155741	0.000560	5.595420	1.895780	-0.044901
1490	7.4450e-01	-19.5476	-50.203635	0.000119	1.193690	0.404433	-0.009579
1491	7.4500e-01	-19.5684	-50.262647	0.000147	1.470796	0.498319	-0.011802
1492	7.4550e-01	-19.6053	-50.307975	0.000113	1.129742	0.382767	-0.009066
1493	7.4600e-01	-19.6438	-50.503400	0.000487	4.870680	1.650231	-0.039085
1494	7.4650e-01	-19.7032	-50.540604	0.000093	0.927241	0.314158	-0.007441
1495	7.4700e-01	-19.7208	-50.616721	0.000190	1.897114	0.642760	-0.015223
1496	7.4750e-01	-19.7802	-50.730042	0.000282	2.824355	0.956917	-0.022664
1497	7.4800e-01	-19.8107	-50.774087	0.000110	1.097768	0.371934	-0.008809
1498	7.4850e-01	-19.8460	-50.842079	0.000169	1.694613	0.574150	-0.013598
1499	7.4900e-01	-19.9037	-50.945565	0.000258	2.579222	0.873864	-0.020697
1500	7.4950e-01	-19.9214	-50.988755	0.000108	1.076452	0.364712	-0.008638
1501	7.5000e-01	-19.9583	-51.205561	0.000540	5.403577	1.830782	-0.043361
1502	7.5050e-01	-19.9166	-51.032373	0.000432	4.316467	1.462459	0.034638
1503	7.5100e-01	-19.8748	-51.055464	-0.000058	-0.575529	-0.194994	-0.004618
1504	7.5150e-01	-19.8508	-50.986617	0.000172	1.715929	0.581372	0.013770
1505	7.5200e-01	-19.8203	-50.958821	0.000069	0.692766	0.234716	0.005559
1506	7.5250e-01	-19.7593	-50.716785	0.000603	6.032396	2.043831	0.048407
1507	7.5300e-01	-19.7064	-50.829678	-0.000281	-2.813697	-0.953306	-0.022579
1508	7.5350e-01	-19.6855	-50.843790	-0.000035	-0.351712	-0.119163	-0.002822
1509	7.5400e-01	-19.6342	-50.659056	0.000460	4.604232	1.559956	0.036947
1510	7.5450e-01	-19.6021	-50.631688	0.000068	0.682108	0.231105	0.005474
1511	7.5500e-01	-19.5845	-50.585077	0.000116	1.161716	0.393600	0.009322
1512	7.5550e-01	-19.5139	-50.509815	0.000188	1.875798	0.635538	0.015052
1513	7.5600e-01	-19.4834	-50.462776	0.000117	1.172374	0.397211	0.009408
1514	7.5650e-01	-19.4449	-50.370409	0.000230	2.302116	0.779978	0.018473
1515	7.5700e-01	-19.3888	-50.270772	0.000248	2.483301	0.841365	0.019927
1516	7.5750e-01	-19.3519	-50.179688	0.000227	2.270142	0.769145	0.018217
1517	7.5800e-01	-19.3037	-50.042420	0.000342	3.421200	1.159134	0.027454
1518	7.5850e-01	-19.3069	-50.000085	-0.000106	-1.055136	-0.357490	0.008467
1519	7.5900e-01	-19.2476	-49.990677	0.000023	0.234475	0.079442	0.001882
1520	7.5950e-01	-19.2331	-50.014197	-0.000059	-0.586187	-0.198605	-0.004704
1521	7.6000e-01	-19.1690	-49.836305	0.000443	4.433705	1.502180	0.035578
1522	7.6050e-01	-19.1160	-49.843574	-0.000018	-0.181185	-0.061387	-0.001454
1523	7.6100e-01	-19.0743	-49.836305	0.000018	0.181185	0.061387	0.001454
1524	7.6150e-01	-19.0294	-49.767885	0.000171	1.705271	0.577761	0.013684
1525	7.6200e-01	-18.9909	-49.671669	0.000240	2.398037	0.812477	0.019243
1526	7.6250e-01	-18.9540	-49.514731	0.000391	3.911465	1.325240	0.031388
1527	7.6300e-01	-18.9348	-49.590848	-0.000190	-1.897114	-0.642760	-0.015223
1528	7.6350e-01	-18.8866	-49.363351	0.000567	5.670026	1.921057	0.045499
1529	7.6400e-01	-18.8353	-49.379173	-0.000039	-0.394344	-0.133607	-0.003164
1530	7.6450e-01	-18.7984	-49.321444	0.000144	1.438822	0.487486	0.011546
1531	7.6500e-01	-18.7599	-49.178617	0.000356	3.559753	1.206077	0.028565
1532	7.6550e-01	-18.7214	-49.110625	0.000169	1.694613	0.574150	0.013598
1533	7.6600e-01	-18.6957	-49.064869	0.000114	1.140400	0.386378	0.009151
1534	7.6650e-01	-18.6380	-48.972074	0.000231	2.312774	0.783589	0.018559
1535	7.6700e-01	-18.6123	-48.897667	0.000185	1.854482	0.628316	0.014881
1536	7.6750e-01	-18.5353	-48.884411	0.000033	0.330396	0.111941	0.002651
1537	7.6800e-01	-18.5305	-48.774511	0.000274	2.739092	0.928029	0.021980
1538	7.6850e-01	-18.4824	-48.719775	0.000136	1.364217	0.462209	0.010947
1539	7.6900e-01	-18.4374	-48.691552	0.000070	0.703424	0.238327	0.005645
1540	7.6950e-01	-18.4070	-48.743722	-0.000130	-1.300269	-0.440543	-0.010434
1541	7.7000e-01	-18.3765	-48.371261	0.000928	9.283069	3.145189	0.074492
1542	7.7050e-01	-18.2963	-48.526061	-0.000386	-3.858176	-1.307185	-0.030960
1543	7.7100e-01	-18.3075	-48.481160	-0.000112	-1.119084	-0.379156	0.008980
1544	7.7150e-01	-18.2289	-48.283597	0.000492	4.923970	1.668286	0.039513
1545	7.7200e-01	-18.1872	-48.269913	0.000034	0.341054	0.115552	0.002737
1546	7.7250e-01	-18.1647	-48.265637	0.000011	0.106579	0.036110	0.000855
1547	7.7300e-01	-18.1278	-48.056956	0.000520	5.201077	1.762172	0.041736
1548	7.7350e-01	-18.0893	-48.177974	-0.000302	-3.016198	-1.021916	-0.024204
1549	7.7400e-01	-18.0348	-47.899162	0.000695	6.948979	2.354378	0.055762
1550	7.7450e-01	-18.0155	-47.790973	0.000270	2.696460	0.913585	0.021638
1551	7.7500e-01	-17.9562	-47.805085	-0.000035	-0.351712	-0.119163	-0.002822
1552	7.7550e-01	-17.9161	-47.866663	-0.000153	-1.534744	-0.519985	-0.012316
1553	7.7600e-01	-17.8679	-47.649429	0.000541	5.414235	1.834393	0.043447
1554	7.7650e-01	-17.8471	-47.551931	0.000243	2.430011	0.823310	0.019500
1555	7.7700e-01	-17.8054	-47.517293	0.000086	0.863293	0.292492	0.006928
1556	7.7750e-01	-17.7621	-47.411669	0.000263	2.632512	0.891919	0.021125
1557	7.7800e-01	-17.7268	-47.359072	0.000131	1.310927	0.444154	0.010520
1558	7.7850e-01	-17.6754	-47.342822	0.000041	0.405002	0.137218	0.003250
1559	7.7900e-01	-17.6450	-47.197429	0.000362	3.623701	1.227743	0.029079
1560	7.7950e-01	-17.6145	-47.153811	0.000109	1.087110	0.368323	0.008724
1561	7.8000e-01	-17.5519	-47.031938	0.000304	3.037514	1.029138	0.024375
1562	7.8050e-01	-17.5327	-46.951972	0.000199	1.993035	0.675259	0.015993
1563	7.8100e-01	-17.4942	-46.872862	0.000197	1.971720	0.668037	0.015822
1564	7.8150e-01	-17.4492	-46.727897	0.000361	3.613043	1.224132	0.028993
1565	7.8200e-01	-17.3915	-46.834375	-0.000265	-2.653828	-0.899141	-0.021296
1566	7.8250e-01	-17.3642	-46.609017	0.000562	5.616736	1.903002	0.045072
1567	7.8300e-01	-17.3241	-46.580794	0.000070	0.703424	0.238327	0.005645
1568	7.8350e-01	-17.2760	-46.628688	-0.000119	-1.193690	-0.404433	-0.009579
1569	7.8400e-01	-17.2744	-46.452506	0.000439	4.391073	1.487736	0.035236
1570	7.8450e-01	-17.1990	-46.277607	0.000436	4.359099	1.476903	0.034980
1571	7.8500e-01	-17.1525	-46.429414	-0.000378	-3.783570	-1.281908	-0.030361
1572	7.8550e-01	-17.1252	-46.309251	0.000299	2.994882	1.014694	0.024033
1573	7.8600e-01	-17.0851	-46.148464	0.000401	4.007387	1.357739	0.032157
1574	7.8650e-01	-17.0530	-46.077479	0.000177	1.769219	0.599428	0.014197
1575	7.8700e-01	-16.9888	-46.038992	0.000096	0.959215	0.324991	0.007697
1576	7.8750e-01	-16.9712	-45.866232	0.000431	4.305809	1.458848	0.034552
1577	7.8800e-01	-16.9102	-45.971855	-0.000263	-2.632512	-0.891919	-0.021125
1578	7.8850e-01	-16.8829	-45.748635	0.000556	5.563447	1.884947	0.044644
1579	7.8900e-01	-16.8525	-45.638307	0.000275	2.749749	0.931640	0.022065
1580	7.8950e-01	-16.7835	-45.627189	0.000028	0.277107	0.093886	0.002224
1581	7.9000e-01	-16.7658	-45.558342	0.000172	1.715929	0.581372	0.013770
1582	7.9050e-01	-16.7305	-45.409100	0.000372	3.719622	1.260242	0.029848
1583	7.9100e-01	-16.6792	-45.388147	0.000052	0.522239	0.176939	0.004191
1584	7.9150e-01	-16.6231	-45.449725	-0.000153	-1.534744	-0.519985	-0.012316
1585	7.9200e-01	-16.6247	-45.143545	-0.000763	-7.631088	-2.585482	0.061236
1586	7.9250e-01	-16.5605	-45.228642	-0.000212	-2.120931	-0.718591	-0.017019
1587	7.9300e-01	-16.5348	-45.072559	0.000389	3.890149	1.318018	0.031217
1588	7.9350e-01	-16.4658	-45.078546	-0.000015	-0.149211	-0.050554	-0.001197
1589	7.9400e-01	-16.4402	-44.934436	0.000359	3.591727	1.216910	0.028822
1590	7.9450e-01	-16.3888	-44.911772	0.000056	0.564871	0.191383	0.004533
1591	7.9500e-01	-16.3519	-44.807004	0.000261	2.611196	0.884697	0.020954
1592	7.9550e-01	-16.3327	-44.668453	0.000345	3.453174	1.169967	0.027710
1593	7.9600e-01	-16.2685	-44.695394	-0.000067	-0.671450	-0.227494	-0.005388
1594	7.9650e-01	-16.2493	-44.620559	0.000187	1.865140	0.631927	0.014967
1595	7.9700e-01	-16.2236	-44.460200	0.000400	3.996729	1.354128	0.032072
1596	7.9750e-01	-16.1642	-44.294709	0.000412	4.124624	1.397461	0.033098
1597	7.9800e-01	-16.1161	-44.388786	-0.000234	-2.344748	-0.794422	-0.018816
1598	7.9850e-01	-16.0969	-44.316090	0.000181	1.811850	0.613872	0.014539
1599	7.9900e-01	-16.0423	-44.149744	0.000415	4.145940	1.404683	0.033269
1600	7.9950e-01	-15.9894	-44.021029	0.000321	3.208041	1.086914	0.025743
1601	8.0000e-01	-15.9557	-43.896590	0.000310	3.101462	1.050804	0.024888
1602	8.0050e-01	-15.9108	-43.920109	-0.000059	-0.586187	-0.198605	-0.004704
1603	8.0100e-01	-15.8755	-43.949615	-0.000074	-0.735398	-0.249160	-0.005901
1604	8.0150e-01	-15.8434	-43.883333	0.000165	1.651981	0.559706	0.013256
1605	8.0200e-01	-15.8033	-43.794815	0.000221	2.206194	0.747479	0.017704
1606	8.0250e-01	-15.7728	-43.618206	0.000440	4.401731	1.491347	0.035322
1607	8.0300e-01	-15.7183	-43.536529	0.000204	2.035667	0.689703	0.016335
1608	8.0350e-01	-15.6798	-43.536957	-0.000001	-0.010658	-0.003611	-0.000086
1609	8.0400e-01	-15.6509	-43.356071	0.000451	4.508310	1.527457	0.036177
1610	8.0450e-01	-15.5899	-43.203837	0.000379	3.794228	1.285519	0.030447
1611	8.0500e-01	-15.5819	-43.127719	0.000190	1.897114	0.642760	0.015223
1612	8.0550e-01	-15.5322	-43.150384	-0.000056	-0.564871	-0.191383	-0.004533
1613	8.0600e-01	-15.5001	-43.049036	0.000253	2.525933	0.855809	0.020269
1614	8.0650e-01	-15.4311	-42.993445	0.000139	1.385533	0.469431	0.011118
1615	8.0700e-01	-15.4006	-42.905354	0.000220	2.195536	0.743868	0.017618
1616	8.0750e-01	-15.3750	-42.896802	0.000021	0.213159	0.072220	0.001711
1617	8.0800e-01	-15.3252	-42.817691	0.000197	1.971720	0.668037	0.015822
1618	8.0850e-01	-15.2611	-42.683844	0.000334	3.335936	1.130246	0.026769
1619	8.0900e-01	-15.2290	-42.614569	0.000173	1.726587	0.584983	0.013855
1620	8.0950e-01	-15.2210	-42.487564	0.000317	3.165409	1.072470	0.025401
1621	8.1000e-01	-15.1712	-42.408026	0.000198	1.982378	0.671648	0.015908
1622	8.1050e-01	-15.1279	-42.348586	0.000148	1.481454	0.501930	0.011888
1623	8.1100e-01	-15.0814	-42.281877	0.000166	1.662639	0.563317	0.013342
1624	8.1150e-01	-15.0365	-42.175398	0.000265	2.653828	0.899141	0.021296
1625	8.1200e-01	-15.0156	-42.177108	-0.000004	-0.042632	-0.014444	-0.000342
1626	8.1250e-01	-14.9338	-42.014183	0.000406	4.060677	1.375794	0.032585
1627	8.1300e-01	-14.9306	-42.033426	-0.000048	-0.479607	-0.162495	-0.003849
1628	8.1350e-01	-14.8777	-41.953460	0.000199	1.993035	0.675259	0.015993
1629	8.1400e-01	-14.8488	-41.660965	0.000729	7.290033	2.469930	0.058499
1630	8.1450e-01	-14.8023	-41.715701	-0.000136	-1.364217	-0.462209	-0.010947
1631	8.1500e-01	-14.7477	-41.587413	0.000320	3.197383	1.083303	0.025658
1632	8.1550e-01	-14.7220	-41.570308	0.000043	0.426318	0.144440	0.003421
1633	8.1600e-01	-14.6787	-41.459553	0.000276	2.760407	0.935251	0.022151
1634	8.1650e-01	-14.6274	-41.480079	-0.000051	-0.511581	-0.173328	-0.004105
1635	8.1700e-01	-14.5953	-41.333831	0.000365	3.645017	1.234965	0.029250
1636	8.1750e-01	-14.5616	-41.238471	0.000238	2.376721	0.805255	0.019072
1637	8.1800e-01	-14.5343	-41.129854	0.000271	2.707118	0.917196	0.021723
1638	8.1850e-01	-14.4750	-41.100776	0.000072	0.724740	0.245549	0.005816
1639	8.1900e-01	-14.4461	-40.938706	0.000404	4.039361	1.368572	0.032414
1640	8.1950e-01	-14.4028	-40.833937	0.000261	2.611196	0.884697	0.020954
1641	8.2000e-01	-14.3659	-40.727459	0.000265	2.653828	0.899141	0.021296
1642	8.2050e-01	-14.3242	-40.837358	-0.000274	-2.739092	-0.928029	-0.021980
1643	8.2100e-01	-14.2969	-40.479436	0.000892	8.920699	3.022415	0.071584
1644	8.2150e-01	-14.2263	-40.591474	-0.000279	-2.792381	-0.946084	-0.022408
1645	8.2200e-01	-14.1959	-40.381082	0.000524	5.243708	1.776616	0.042078
1646	8.2250e-01	-14.1574	-40.301972	0.000197	1.971720	0.668037	0.015822
1647	8.2300e-01	-14.1269	-40.339175	-0.000093	-0.927241	-0.314158	-0.007441
1648	8.2350e-01	-14.0964	-40.309669	0.000074	0.735398	0.249160	0.005901
1649	8.2400e-01	-14.0322	-40.272893	0.000092	0.916583	0.310547	0.007355
1650	8.2450e-01	-14.0033	-40.092435	0.000450	4.497652	1.523846	0.036092
1651	8.2500e-01	-13.9665	-39.876484	0.000538	5.382262	1.823560	0.043190
1652	8.2550e-01	-13.9071	-39.990660	-0.000285	-2.845671	-0.964139	-0.022835
1653	8.2600e-01	-13.9007	-39.837998	0.000380	3.804886	1.289130	0.030532
1654	8.2650e-01	-13.8317	-39.799940	0.000095	0.948557	0.321380	0.007612
1655	8.2700e-01	-13.7996	-39.697737	0.000255	2.547249	0.863031	0.020440
1656	8.2750e-01	-13.7772	-39.464681	0.000581	5.808579	1.968000	0.046611
1657	8.2800e-01	-13.7178	-39.518562	-0.000134	-1.342901	-0.454987	-0.010776
1658	8.2850e-01	-13.6937	-39.365900	0.000380	3.804886	1.289130	0.030532
1659	8.2900e-01	-13.6616	-39.257283	0.000271	2.707118	0.917196	0.021723
1660	8.2950e-01	-13.5975	-39.247020	0.000026	0.255791	0.086664	0.002053
1661	8.3000e-01	-13.5574	-39.079819	0.000417	4.167256	1.411905	0.033440
1662	8.3050e-01	-13.5349	-39.004984	0.000187	1.865140	0.631927	0.014967
1663	8.3100e-01	-13.4772	-38.977616	0.000068	0.682108	0.231105	0.005474
1664	8.3150e-01	-13.4579	-38.900216	0.000193	1.929088	0.653593	0.015480
1665	8.3200e-01	-13.4082	-38.809987	0.000225	2.248826	0.761923	0.018046
1666	8.3250e-01	-13.3697	-38.632095	0.000443	4.433705	1.502180	0.035578
1667	8.3300e-01	-13.3183	-38.684693	-0.000131	-1.310927	-0.444154	-0.010520
1668	8.3350e-01	-13.2558	-38.653049	0.000079	0.788688	0.267215	0.006329
1669	8.3400e-01	-13.2654	-38.407164	-0.000613	-6.128318	-2.076330	0.049177
1670	8.3450e-01	-13.2060	-38.341310	0.000164	1.641323	0.556095	0.013171
1671	8.3500e-01	-13.1756	-38.232693	0.000271	2.707118	0.917196	0.021723
1672	8.3550e-01	-13.1355	-38.238252	-0.000014	-0.138553	-0.046943	-0.001112
1673	8.3600e-01	-13.0889	-38.215588	0.000056	0.564871	0.191383	0.004533
1674	8.3650e-01	-13.0536	-37.978684	0.000590	5.904501	2.000499	0.047381
1675	8.3700e-01	-12.9927	-37.978256	0.000001	0.010658	0.003611	0.000086
1676	8.3750e-01	-12.9638	-37.936776	0.000103	1.033821	0.350268	0.008296
1677	8.3800e-01	-12.9317	-37.710135	0.000565	5.648710	1.913835	0.045328
1678	8.3850e-01	-12.8692	-37.851679	-0.000353	-3.527779	-1.195244	-0.028309
1679	8.3900e-01	-12.8659	-37.599380	0.000629	6.288187	2.130495	0.050460
1680	8.3950e-01	-12.8034	-37.474513	0.000311	3.112120	1.054415	0.024973
1681	8.4000e-01	-12.7681	-37.427475	0.000117	1.172374	0.397211	0.009408
1682	8.4050e-01	-12.7424	-37.350502	0.000192	1.918430	0.649982	0.015395
1683	8.4100e-01	-12.6927	-37.353923	-0.000009	-0.085264	-0.028888	-0.000684
1684	8.4150e-01	-12.6398	-37.198695	0.000387	3.868834	1.310796	0.031046
1685	8.4200e-01	-12.6285	-37.037480	0.000402	4.018045	1.361350	0.032243
1686	8.4250e-01	-12.5756	-36.980606	0.000142	1.417507	0.480264	0.011375
1687	8.4300e-01	-12.5146	-36.992152	-0.000029	-0.287764	-0.097497	-0.002309
1688	8.4350e-01	-12.4553	-36.941692	0.000126	1.257637	0.426099	0.010092
1689	8.4400e-01	-12.4505	-36.824095	0.000293	2.930935	0.993027	0.023519
1690	8.4450e-01	-12.3895	-36.734294	0.000224	2.238168	0.758312	0.017960
1691	8.4500e-01	-12.3734	-36.571796	0.000405	4.050019	1.372183	0.032500
1692	8.4550e-01	-12.3221	-36.390911	0.000451	4.508310	1.527457	0.036177
1693	8.4600e-01	-12.2772	-36.542718	-0.000378	-3.783570	-1.281908	-0.030361
1694	8.4650e-01	-12.2387	-36.336175	0.000515	5.147787	1.744117	0.041309
1695	8.4700e-01	-12.2146	-36.264334	0.000179	1.790535	0.606650	0.014368
1696	8.4750e-01	-12.1649	-36.068909	0.000487	4.870680	1.650231	0.039085
1697	8.4800e-01	-12.0927	-36.153151	-0.000210	-2.099615	-0.711369	-0.016848
1698	8.4850e-01	-12.0863	-35.913253	0.000598	5.979106	2.025776	0.047980
1699	8.4900e-01	-12.0686	-35.865359	0.000119	1.193690	0.404433	0.009579
1700	8.4950e-01	-12.0173	-35.781117	0.000210	2.099615	0.711369	0.016848
1701	8.5000e-01	-11.9724	-35.719539	0.000153	1.534744	0.519985	0.012316
1702	8.5050e-01	-11.9178	-35.525397	0.000484	4.838706	1.639398	0.038828
1703	8.5100e-01	-11.8793	-35.595100	-0.000174	-1.737245	-0.588594	-0.013941
1704	8.5150e-01	-11.8505	-35.362900	0.000579	5.787263	1.960778	0.046440
1705	8.5200e-01	-11.8168	-35.331255	0.000079	0.788688	0.267215	0.006329
1706	8.5250e-01	-11.7687	-35.225632	0.000263	2.632512	0.891919	0.021125
1707	8.5300e-01	-11.7269	-35.202540	0.000058	0.575529	0.194994	0.004618
1708	8.5350e-01	-11.6772	-35.004977	0.000492	4.923970	1.668286	0.039513
1709	8.5400e-01	-11.6580	-34.874979	0.000324	3.240015	1.097747	0.026000
1710	8.5450e-01	-11.5810	-34.856164	0.000047	0.468950	0.158884	0.003763
1711	8.5500e-01	-11.5521	-34.766790	0.000223	2.227510	0.754701	0.017875
1712	8.5550e-01	-11.5264	-34.804849	-0.000095	-0.948557	-0.321380	-0.007612
1713	8.5600e-01	-11.4831	-34.573931	0.000576	5.755290	1.949945	0.046184
1714	8.5650e-01	-11.4462	-34.632088	-0.000145	-1.449480	-0.491097	-0.011631
1715	8.5700e-01	-11.3981	-34.478143	0.000384	3.836860	1.299963	0.030789
1716	8.5750e-01	-11.3724	-34.374230	0.000259	2.589880	0.877475	0.020783
1717	8.5800e-01	-11.3130	-34.272028	0.000255	2.547249	0.863031	0.020440
1718	8.5850e-01	-11.2890	-34.208311	0.000159	1.588034	0.538040	0.012743
1719	8.5900e-01	-11.2505	-34.145023	0.000158	1.577376	0.534429	0.012658
1720	8.5950e-01	-11.2136	-33.992788	0.000379	3.794228	1.285519	0.030447
1721	8.6000e-01	-11.1655	-33.921803	0.000177	1.769219	0.599428	0.014197
1722	8.6050e-01	-11.1334	-33.901704	0.000050	0.500923	0.169717	0.004020
1723	8.6100e-01	-11.0820	-33.834567	0.000167	1.673297	0.566928	0.013427
1724	8.6150e-01	-11.0612	-33.695589	0.000346	3.463832	1.173578	0.027796
1725	8.6200e-01	-11.0115	-33.594242	0.000253	2.525933	0.855809	0.020269
1726	8.6250e-01	-10.9617	-33.508717	0.000213	2.131589	0.722202	0.017105
1727	8.6300e-01	-10.9168	-33.423191	0.000213	2.131589	0.722202	0.017105
1728	8.6350e-01	-10.8959	-33.262832	0.000400	3.996729	1.354128	0.032072
1729	8.6400e-01	-10.8398	-33.138393	0.000310	3.101462	1.050804	0.024888
1730	8.6450e-01	-10.8286	-33.088789	0.000124	1.236321	0.418877	0.009921
1731	8.6500e-01	-10.7628	-33.065269	0.000059	0.586187	0.198605	0.004704
1732	8.6550e-01	-10.7275	-32.872838	0.000480	4.796075	1.624954	0.038486
1733	8.6600e-01	-10.6778	-32.919449	-0.000116	-1.161716	-0.393600	-0.009322
1734	8.6650e-01	-10.6441	-32.836062	0.000208	2.078299	0.704147	0.016677
1735	8.6700e-01	-10.6056	-32.662874	0.000432	4.316467	1.462459	0.034638
1736	8.6750e-01	-10.5863	-32.340872	0.000803	8.025432	2.719090	0.064400
1737	8.6800e-01	-10.5174	-32.449061	-0.000270	-2.696460	-0.913585	-0.021638
1738	8.6850e-01	-10.4772	-32.467449	-0.000046	-0.458292	-0.155273	-0.003678
1739	8.6900e-01	-10.4259	-32.383207	0.000210	2.099615	0.711369	0.016848
1740	8.6950e-01	-10.4067	-32.181368	0.000503	5.030549	1.704396	0.040368
1741	8.7000e-01	-10.3698	-32.141599	0.000099	0.991189	0.335824	0.007954
1742	8.7050e-01	-10.3329	-32.033409	0.000270	2.696460	0.913585	0.021638
1743	8.7100e-01	-10.2912	-31.905977	0.000318	3.176067	1.076081	0.025486
1744	8.7150e-01	-10.2462	-31.794367	0.000278	2.781723	0.942473	0.022322
1745	8.7200e-01	-10.2093	-31.729795	0.000161	1.609349	0.545262	0.012914
1746	8.7250e-01	-10.1596	-31.793084	-0.000158	-1.577376	-0.534429	-0.012658
1747	8.7300e-01	-10.1211	-31.598942	0.000484	4.838706	1.639398	0.038828
1748	8.7350e-01	-10.0730	-31.490753	0.000270	2.696460	0.913585	0.021638
1749	8.7400e-01	-10.0393	-31.374439	0.000290	2.898961	0.982194	0.023263
1750	8.7450e-01	-10.0088	-31.335953	0.000096	0.959215	0.324991	0.007697
1751	8.7500e-01	-9.9559	-31.332959	0.000007	0.074606	0.025277	0.000599
1752	8.7550e-01	-9.9430	-31.138390	0.000485	4.849364	1.643009	0.038914
1753	8.7600e-01	-9.8901	-30.962636	0.000438	4.380415	1.484125	0.035151
1754	8.7650e-01	-9.8227	-30.958359	0.000011	0.106579	0.036110	0.000855
1755	8.7700e-01	-9.7922	-30.934840	0.000059	0.586187	0.198605	0.004704
1756	8.7750e-01	-9.7537	-30.857440	0.000193	1.929088	0.653593	0.015480
1757	8.7800e-01	-9.7184	-30.620963	0.000589	5.893843	1.996888	0.047295
1758	8.7850e-01	-9.6751	-30.558957	0.000155	1.545402	0.523596	0.012401
1759	8.7900e-01	-9.6511	-30.514912	0.000110	1.097768	0.371934	0.008809
1760	8.7950e-01	-9.6206	-30.265606	0.000621	6.213581	2.105218	0.049861
1761	8.8000e-01	-9.5436	-30.409716	-0.000359	-3.591727	-1.216910	-0.028822
1762	8.8050e-01	-9.5291	-30.226693	0.000456	4.561600	1.545512	0.036605
1763	8.8100e-01	-9.4714	-30.124918	0.000254	2.536591	0.859420	0.020355
1764	8.8150e-01	-9.4537	-30.105247	0.000049	0.490265	0.166106	0.003934
1765	8.8200e-01	-9.3992	-29.838836	0.000664	6.639899	2.249659	0.053282
1766	8.8250e-01	-9.3543	-29.907684	-0.000172	-1.715929	-0.581372	-0.013770
1767	8.8300e-01	-9.3222	-29.675911	0.000578	5.776605	1.957167	0.046355
1768	8.8350e-01	-9.2757	-29.630155	0.000114	1.140400	0.386378	0.009151
1769	8.8400e-01	-9.2388	-29.491177	0.000346	3.463832	1.173578	0.027796
1770	8.8450e-01	-9.2131	-29.428316	0.000157	1.566718	0.530818	0.012572
1771	8.8500e-01	-9.1682	-29.300029	0.000320	3.197383	1.083303	0.025658
1772	8.8550e-01	-9.1249	-29.113584	0.000465	4.646863	1.574400	0.037289
1773	8.8600e-01	-9.0832	-29.107597	0.000015	0.149211	0.050554	0.001197
1774	8.8650e-01	-9.0527	-29.047302	0.000150	1.502770	0.509152	0.012059
1775	8.8700e-01	-8.9853	-28.998980	0.000120	1.204348	0.408044	0.009664
1776	8.8750e-01	-8.9596	-28.990428	0.000021	0.213159	0.072220	0.001711
1777	8.8800e-01	-8.9243	-28.819378	0.000426	4.263177	1.444404	0.034210
1778	8.8850e-01	-8.8794	-28.629940	0.000472	4.721469	1.599677	0.037888
1779	8.8900e-01	-8.8618	-28.538428	0.000228	2.280800	0.772756	0.018302
1780	8.8950e-01	-8.7976	-28.446916	0.000228	2.280800	0.772756	0.018302
1781	8.9000e-01	-8.7591	-28.335306	0.000278	2.781723	0.942473	0.022322
1782	8.9050e-01	-8.7238	-28.226689	0.000271	2.707118	0.917196	0.021723
1783	8.9100e-01	-8.6853	-28.127908	0.000246	2.461985	0.834143	0.019756
1784	8.9150e-01	-8.6420	-28.124059	0.000010	0.095921	0.032499	0.000770
1785	8.9200e-01	-8.5987	-28.086428	0.000094	0.937899	0.317769	0.007526
1786	8.9250e-01	-8.5570	-27.835840	0.000625	6.245555	2.116051	0.050118
1787	8.9300e-01	-8.5457	-27.879030	-0.000108	-1.076452	-0.364712	-0.008638
1788	8.9350e-01	-8.4960	-27.689164	0.000473	4.732127	1.603288	0.037973
1789	8.9400e-01	-8.4238	-27.657520	0.000079	0.788688	0.267215	0.006329
1790	8.9450e-01	-8.3885	-27.485187	0.000430	4.295151	1.455237	0.034467
1791	8.9500e-01	-8.3597	-27.580547	-0.000238	-2.376721	-0.805255	-0.019072
1792	8.9550e-01	-8.3163	-27.346209	0.000584	5.840553	1.978833	0.046868
1793	8.9600e-01	-8.2682	-27.314137	0.000080	0.799346	0.270826	0.006414
1794	8.9650e-01	-8.2313	-27.129830	0.000459	4.593574	1.556345	0.036861
1795	8.9700e-01	-8.2008	-26.957925	0.000428	4.284493	1.451626	0.034381
1796	8.9750e-01	-8.1784	-26.879242	0.000196	1.961062	0.664426	0.015737
1797	8.9800e-01	-8.1094	-26.732994	0.000365	3.645017	1.234965	0.029250
1798	8.9850e-01	-8.0725	-26.729145	0.000010	0.095921	0.032499	0.000770
1799	8.9900e-01	-8.0549	-26.622667	0.000265	2.653828	0.899141	0.021296
1800	8.9950e-01	-8.0164	-26.459741	0.000406	4.060677	1.375794	0.032585
1801	9.0000e-01	-7.9827	-26.316059	0.000358	3.581069	1.213299	0.028736
1802	9.0050e-01	-7.9153	-26.286553	0.000074	0.735398	0.249160	0.005901
1803	9.0100e-01	-7.8752	-26.226258	0.000150	1.502770	0.509152	0.012059
1804	9.0150e-01	-7.8575	-26.140305	0.000214	2.142247	0.725813	0.017191
1805	9.0200e-01	-7.7998	-26.058201	0.000205	2.046325	0.693314	0.016421
1806	9.0250e-01	-7.7677	-26.000044	0.000145	1.449480	0.491097	0.011631
1807	9.0300e-01	-7.7212	-25.823863	0.000439	4.391073	1.487736	0.035236
1808	9.0350e-01	-7.7083	-25.703272	0.000301	3.005540	1.018305	0.024118
1809	9.0400e-01	-7.6313	-25.575412	0.000319	3.186725	1.079692	0.025572
1810	9.0450e-01	-7.5880	-25.645115	-0.000174	-1.737245	-0.588594	-0.013941
1811	9.0500e-01	-7.5495	-25.510841	0.000335	3.346594	1.133857	0.026855
1812	9.0550e-01	-7.5447	-25.350054	0.000401	4.007387	1.357739	0.032157
1813	9.0600e-01	-7.4918	-25.120847	0.000571	5.712658	1.935501	0.045841
1814	9.0650e-01	-7.4485	-25.149498	-0.000071	-0.714082	-0.241938	-0.005730
1815	9.0700e-01	-7.3955	-25.081078	0.000171	1.705271	0.577761	0.013684
1816	9.0750e-01	-7.3442	-24.859140	0.000553	5.531473	1.874114	0.044388
1817	9.0800e-01	-7.3137	-24.919435	-0.000150	-1.502770	-0.509152	-0.012059
1818	9.0850e-01	-7.2912	-24.664143	0.000636	6.362792	2.155772	0.051058
1819	9.0900e-01	-7.2479	-24.629933	0.000085	0.852635	0.288881	0.006842
1820	9.0950e-01	-7.2110	-24.505922	0.000309	3.090804	1.047193	0.024802
1821	9.1000e-01	-7.1741	-24.591019	-0.000212	-2.120931	-0.718591	-0.017019
1822	9.1050e-01	-7.1453	-24.266024	0.000810	8.100037	2.744367	0.064999
1823	9.1100e-01	-7.0891	-24.300661	-0.000086	-0.863293	-0.292492	-0.006928
1824	9.1150e-01	-7.0330	-24.130467	0.000424	4.241862	1.437182	0.034039
1825	9.1200e-01	-6.9912	-23.922641	0.000518	5.179761	1.754950	0.041565
1826	9.1250e-01	-6.9656	-23.960699	-0.000095	-0.948557	-0.321380	-0.007612
1827	9.1300e-01	-6.9175	-23.889714	0.000177	1.769219	0.599428	0.014197
1828	9.1350e-01	-6.8790	-23.688730	0.000501	5.009234	1.697174	0.040197
1829	9.1400e-01	-6.8485	-23.558304	0.000325	3.250673	1.101358	0.026085
1830	9.1450e-01	-6.8052	-23.581396	-0.000058	-0.575529	-0.194994	-0.004618
1831	9.1500e-01	-6.7506	-23.355610	0.000563	5.627394	1.906613	0.045157
1832	9.1550e-01	-6.7153	-23.355182	0.000001	0.010658	0.003611	0.000086
1833	9.1600e-01	-6.6704	-23.284196	0.000177	1.769219	0.599428	0.014197
1834	9.1650e-01	-6.6367	-23.135810	0.000370	3.698306	1.253020	0.029677
1835	9.1700e-01	-6.6094	-22.904465	0.000577	5.765948	1.953556	0.046269
1836	9.1750e-01	-6.5806	-22.893347	0.000028	0.277107	0.093886	0.002224
1837	9.1800e-01	-6.5228	-22.772329	0.000302	3.016198	1.021916	0.024204
1838	9.1850e-01	-6.4907	-22.691935	0.000200	2.003693	0.678870	0.016079
1839	9.1900e-01	-6.4426	-22.562365	0.000323	3.229357	1.094136	0.025914
1840	9.1950e-01	-6.4346	-22.276283	0.000713	7.130164	2.415765	0.057216
1841	9.2000e-01	-6.3832	-22.428946	-0.000380	-3.804886	-1.289130	-0.030532
1842	9.2050e-01	-6.3143	-22.235659	0.000482	4.817391	1.632176	0.038657
1843	9.2100e-01	-6.2774	-22.156548	0.000197	1.971720	0.668037	0.015822
1844	9.2150e-01	-6.2324	-22.103950	0.000131	1.310927	0.444154	0.010520
1845	9.2200e-01	-6.2052	-21.868329	0.000587	5.872527	1.989666	0.047124
1846	9.2250e-01	-6.1426	-21.824284	0.000110	1.097768	0.371934	0.008809
1847	9.2300e-01	-6.1474	-21.636556	-0.000468	-4.678837	-1.585233	0.037545
1848	9.2350e-01	-6.0800	-21.778528	-0.000354	-3.538437	-1.198855	-0.028394
1849	9.2400e-01	-6.0367	-21.607050	0.000427	4.273835	1.448015	0.034296
1850	9.2450e-01	-6.0271	-21.328238	0.000695	6.948979	2.354378	0.055762
1851	9.2500e-01	-5.9710	-21.401790	-0.000183	-1.833166	-0.621094	-0.014710
1852	9.2550e-01	-5.9228	-21.282055	0.000298	2.984224	1.011083	0.023947
1853	9.2600e-01	-5.8891	-21.143076	0.000346	3.463832	1.173578	0.027796
1854	9.2650e-01	-5.8474	-21.127254	0.000039	0.394344	0.133607	0.003164
1855	9.2700e-01	-5.8025	-20.904034	0.000556	5.563447	1.884947	0.044644
1856	9.2750e-01	-5.7640	-20.661998	0.000603	6.032396	2.043831	0.048407
1857	9.2800e-01	-5.7415	-20.590585	0.000178	1.779877	0.603039	0.014283
1858	9.2850e-01	-5.6870	-20.581177	0.000023	0.234475	0.079442	0.001882
1859	9.2900e-01	-5.6549	-20.438350	0.000356	3.559753	1.206077	0.028565
1860	9.2950e-01	-5.6052	-20.298944	0.000347	3.474490	1.177189	0.027881
1861	9.3000e-01	-5.5635	-20.353253	-0.000135	-1.353559	-0.458598	-0.010862
1862	9.3050e-01	-5.5041	-20.276708	0.000191	1.907772	0.646371	0.015309
1863	9.3100e-01	-5.4833	-20.055198	0.000552	5.520815	1.870503	0.044302
1864	9.3150e-01	-5.4432	-19.921779	0.000333	3.325278	1.126635	0.026684
1865	9.3200e-01	-5.3966	-19.996185	-0.000185	-1.854482	-0.628316	-0.014881
1866	9.3250e-01	-5.3597	-19.822142	0.000434	4.337783	1.469681	0.034809
1867	9.3300e-01	-5.3325	-19.546324	0.000687	6.874374	2.329101	0.055164
1868	9.3350e-01	-5.3020	-19.518956	0.000068	0.682108	0.231105	0.005474
1869	9.3400e-01	-5.2394	-19.474910	0.000110	1.097768	0.371934	0.008809
1870	9.3450e-01	-5.2041	-19.282479	0.000480	4.796075	1.624954	0.038486
1871	9.3500e-01	-5.1576	-19.107153	0.000437	4.369757	1.480514	0.035065
1872	9.3550e-01	-5.1207	-19.040871	0.000165	1.651981	0.559706	0.013256
1873	9.3600e-01	-5.0983	-18.945083	0.000239	2.387379	0.808866	0.019158
1874	9.3650e-01	-5.0421	-18.861696	0.000208	2.078299	0.704147	0.016677
1875	9.3700e-01	-4.9988	-18.802256	0.000148	1.481454	0.501930	0.011888
1876	9.3750e-01	-4.9619	-18.553378	0.000620	6.202923	2.101607	0.049776
1877	9.3800e-01	-4.9218	-18.676106	-0.000306	-3.058830	-1.036360	-0.024546
1878	9.3850e-01	-4.8672	-18.444761	0.000577	5.765948	1.953556	0.046269
1879	9.3900e-01	-4.8336	-18.259599	0.000461	4.614890	1.563567	0.037032
1880	9.3950e-01	-4.7967	-18.105227	0.000385	3.847518	1.303574	0.030875
1881	9.4000e-01	-4.7790	-17.962400	0.000356	3.559753	1.206077	0.028565
1882	9.4050e-01	-4.7293	-18.013287	-0.000127	-1.268295	-0.429710	-0.010177
1883	9.4100e-01	-4.7052	-17.846941	0.000415	4.145940	1.404683	0.033269
1884	9.4150e-01	-4.6410	-17.857631	-0.000027	-0.266449	-0.090275	-0.002138
1885	9.4200e-01	-4.5737	-17.736186	0.000303	3.026856	1.025527	0.024289
1886	9.4250e-01	-4.5512	-17.711811	0.000061	0.607503	0.205828	0.004875
1887	9.4300e-01	-4.5255	-17.328231	0.000956	9.560175	3.239075	0.076716
1888	9.4350e-01	-4.4983	-17.318824	0.000023	0.234475	0.079442	0.001882
1889	9.4400e-01	-4.4485	-17.196095	0.000306	3.058830	1.036360	0.024546
1890	9.4450e-01	-4.4004	-17.135372	0.000151	1.513428	0.512763	0.012145
1891	9.4500e-01	-4.3475	-17.002381	0.000331	3.314620	1.123024	0.026598
1892	9.4550e-01	-4.3106	-16.891198	0.000277	2.771065	0.938862	0.022237
1893	9.4600e-01	-4.2897	-16.871528	0.000049	0.490265	0.166106	0.003934
1894	9.4650e-01	-4.2721	-16.530710	0.000849	8.494381	2.877974	0.068163
1895	9.4700e-01	-4.2047	-16.611104	-0.000200	-2.003693	-0.678870	-0.016079
1896	9.4750e-01	-4.1502	-16.359660	0.000627	6.266871	2.123273	0.050289
1897	9.4800e-01	-4.1341	-16.326733	0.000082	0.820662	0.278048	0.006585
1898	9.4850e-01	-4.0908	-16.248050	0.000196	1.961062	0.664426	0.015737
1899	9.4900e-01	-4.0266	-16.147130	0.000252	2.515275	0.852198	0.020184
1900	9.4950e-01	-4.0090	-15.967528	0.000448	4.476336	1.516624	0.035921
1901	9.5000e-01	-3.9592	-15.837102	0.000325	3.250673	1.101358	0.026085
1902	9.5050e-01	-3.9336	-15.758847	0.000195	1.950404	0.660815	0.015651
1903	9.5100e-01	-3.8774	-15.720360	0.000096	0.959215	0.324991	0.007697
1904	9.5150e-01	-3.8261	-15.612599	0.000269	2.685802	0.909974	0.021552
1905	9.5200e-01	-3.7988	-15.400069	0.000530	5.296998	1.794672	0.042506
1906	9.5250e-01	-3.7667	-15.282900	0.000292	2.920277	0.989416	0.023434
1907	9.5300e-01	-3.7234	-15.218328	0.000161	1.609349	0.545262	0.012914
1908	9.5350e-01	-3.6785	-15.178131	0.000100	1.001847	0.339435	0.008039
1909	9.5400e-01	-3.6304	-15.020338	0.000393	3.932781	1.332462	0.031559
1910	9.5450e-01	-3.6095	-14.967312	0.000132	1.321585	0.447765	0.010605
1911	9.5500e-01	-3.5726	-14.673961	0.000731	7.311349	2.477152	0.058670
1912	9.5550e-01	-3.5229	-14.706888	-0.000082	-0.820662	-0.278048	-0.006585
1913	9.5600e-01	-3.5085	-14.466563	0.000599	5.989764	2.029387	0.048065
1914	9.5650e-01	-3.4539	-14.367782	0.000246	2.461985	0.834143	0.019756
1915	9.5700e-01	-3.4026	-14.230514	0.000342	3.421200	1.159134	0.027454
1916	9.5750e-01	-3.3721	-14.146699	0.000209	2.088957	0.707758	0.016763
1917	9.5800e-01	-3.3288	-13.973511	0.000432	4.316467	1.462459	0.034638
1918	9.5850e-01	-3.2887	-13.864039	0.000273	2.728434	0.924418	0.021894
1919	9.5900e-01	-3.2662	-13.769106	0.000237	2.366063	0.801644	0.018987
1920	9.5950e-01	-3.2293	-13.594207	0.000436	4.359099	1.476903	0.034980
1921	9.6000e-01	-3.1860	-13.461216	0.000331	3.314620	1.123024	0.026598
1922	9.6050e-01	-3.1411	-13.375691	0.000213	2.131589	0.722202	0.017105
1923	9.6100e-01	-3.0817	-13.341053	0.000086	0.863293	0.292492	0.006928
1924	9.6150e-01	-3.0432	-13.254673	0.000215	2.152905	0.729424	0.017276
1925	9.6200e-01	-3.0240	-12.888626	0.000912	9.123200	3.091024	0.073209
1926	9.6250e-01	-2.9935	-12.977999	-0.000223	-2.227510	-0.754701	-0.017875
1927	9.6300e-01	-2.9325	-12.847146	0.000326	3.261331	1.104969	0.026171
1928	9.6350e-01	-2.8828	-12.607248	0.000598	5.979106	2.025776	0.047980
1929	9.6400e-01	-2.8427	-12.623498	-0.000041	-0.405002	-0.137218	-0.003250
1930	9.6450e-01	-2.7914	-12.579453	0.000110	1.097768	0.371934	0.008809
1931	9.6500e-01	-2.7577	-12.332285	0.000616	6.160291	2.087163	0.049433
1932	9.6550e-01	-2.7288	-12.228372	0.000259	2.589880	0.877475	0.020783
1933	9.6600e-01	-2.6743	-12.121038	0.000268	2.675144	0.906363	0.021467
1934	9.6650e-01	-2.6518	-11.969659	0.000377	3.772912	1.278297	0.030276
1935	9.6700e-01	-2.6005	-11.935449	0.000085	0.852635	0.288881	0.006842
1936	9.6750e-01	-2.5555	-11.743873	0.000477	4.774759	1.617732	0.038315
1937	9.6800e-01	-2.5267	-11.711373	0.000081	0.810004	0.274437	0.006500
1938	9.6850e-01	-2.4737	-11.613447	0.000244	2.440669	0.826921	0.019585
1939	9.6900e-01	-2.4449	-11.320096	0.000731	7.311349	2.477152	0.058670
1940	9.6950e-01	-2.4096	-11.221742	0.000245	2.451327	0.830532	0.019671
1941	9.7000e-01	-2.3711	-11.124244	0.000243	2.430011	0.823310	0.019500
1942	9.7050e-01	-2.3101	-11.064804	0.000148	1.481454	0.501930	0.011888
1943	9.7100e-01	-2.2876	-10.902306	0.000405	4.050019	1.372183	0.032500
1944	9.7150e-01	-2.2491	-10.900168	0.000005	0.053290	0.018055	0.000428
1945	9.7200e-01	-2.2187	-10.674382	0.000563	5.627394	1.906613	0.045157
1946	9.7250e-01	-2.1705	-10.558068	0.000290	2.898961	0.982194	0.023263
1947	9.7300e-01	-2.1384	-10.456721	0.000253	2.525933	0.855809	0.020269
1948	9.7350e-01	-2.0775	-10.240342	0.000539	5.392920	1.827171	0.043276
1949	9.7400e-01	-2.0550	-10.091101	0.000372	3.719622	1.260242	0.029848
1950	9.7450e-01	-2.0085	-10.046201	0.000112	1.119084	0.379156	0.008980
1951	9.7500e-01	-1.9812	-9.857618	0.000470	4.700153	1.592455	0.037717
1952	9.7550e-01	-1.9187	-9.940577	-0.000207	-2.067641	-0.700536	-0.016592
1953	9.7600e-01	-1.9026	-9.645088	0.000736	7.364639	2.495207	0.059098
1954	9.7650e-01	-1.8401	-9.563412	0.000204	2.035667	0.689703	0.016335
1955	9.7700e-01	-1.7983	-9.485584	0.000194	1.939746	0.657204	0.015566
1956	9.7750e-01	-1.7582	-9.342757	0.000356	3.559753	1.206077	0.028565
1957	9.7800e-01	-1.7085	-9.177266	0.000412	4.124624	1.397461	0.033098
1958	9.7850e-01	-1.6957	-9.214897	-0.000094	-0.937899	-0.317769	-0.007526
1959	9.7900e-01	-1.6411	-9.012203	0.000505	5.051865	1.711618	0.040539
1960	9.7950e-01	-1.6187	-8.905724	0.000265	2.653828	0.899141	0.021296
1961	9.8000e-01	-1.5609	-8.595696	0.000773	7.727009	2.617982	0.062006
1962	9.8050e-01	-1.5304	-8.679083	-0.000208	-2.078299	-0.704147	-0.016677
1963	9.8100e-01	-1.4631	-8.582012	0.000242	2.419353	0.819699	0.019414
1964	9.8150e-01	-1.4502	-8.163366	0.001043	10.434127	3.535178	0.083729
1965	9.8200e-01	-1.3845	-8.253168	-0.000224	-2.238168	-0.758312	-0.017960
1966	9.8250e-01	-1.3427	-8.096229	0.000391	3.911465	1.325240	0.031388
1967	9.8300e-01	-1.3171	-7.950837	0.000362	3.623701	1.227743	0.029079
1968	9.8350e-01	-1.2609	-7.864884	0.000214	2.142247	0.725813	0.017191
1969	9.8400e-01	-1.2337	-7.632256	0.000580	5.797921	1.964389	0.046526
1970	9.8450e-01	-1.1759	-7.641664	-0.000023	-0.234475	-0.079442	-0.001882
1971	9.8500e-01	-1.1695	-7.464199	0.000442	4.423047	1.498569	0.035493
1972	9.8550e-01	-1.1326	-7.132362	0.000827	8.270564	2.802143	0.066367
1973	9.8600e-01	-1.1117	-7.143053	-0.000027	-0.266449	-0.090275	-0.002138
1974	9.8650e-01	-1.0556	-7.054962	0.000220	2.195536	0.743868	0.017618
1975	9.8700e-01	-1.0219	-6.800097	0.000635	6.352134	2.152161	0.050973
1976	9.8750e-01	-0.9625	-6.873221	-0.000182	-1.822508	-0.617483	-0.014625
1977	9.8800e-01	-0.9208	-6.778716	0.000236	2.355406	0.798033	0.018901
1978	9.8850e-01	-0.8791	-6.610659	0.000419	4.188572	1.419127	0.033611
1979	9.8900e-01	-0.8422	-6.428491	0.000454	4.540284	1.538290	0.036434
1980	9.8950e-01	-0.8037	-6.214678	0.000533	5.328972	1.805505	0.042763
1981	9.9000e-01	-0.7716	-6.206126	0.000021	0.213159	0.072220	0.001711
1982	9.9050e-01	-0.7010	-6.042345	0.000408	4.081992	1.383016	0.032756
1983	9.9100e-01	-0.6674	-5.877709	0.000410	4.103308	1.390238	0.032927
1984	9.9150e-01	-0.6497	-5.822546	0.000137	1.374875	0.465820	0.011033
1985	9.9200e-01	-0.6112	-5.628404	0.000484	4.838706	1.639398	0.038828
1986	9.9250e-01	-0.5470	-5.463768	0.000410	4.103308	1.390238	0.032927
1987	9.9300e-01	-0.5101	-5.412881	0.000127	1.268295	0.429710	0.010177
1988	9.9350e-01	-0.4845	-5.108412	0.000759	7.588456	2.571038	0.060894
1989	9.9400e-01	-0.4380	-5.147753	-0.000098	-0.980531	-0.332213	-0.007868
1990	9.9450e-01	-0.3962	-4.971999	0.000438	4.380415	1.484125	0.035151
1991	9.9500e-01	-0.3802	-4.822330	0.000373	3.730280	1.263853	0.029934
1992	9.9550e-01	-0.3241	-4.681214	0.000352	3.517121	1.191633	0.028223
1993	9.9600e-01	-0.2807	-4.599537	0.000204	2.035667	0.689703	0.016335
1994	9.9650e-01	-0.2422	-4.354508	0.000611	6.107002	2.069108	0.049006
1995	9.9700e-01	-0.2198	-4.421645	-0.000167	-1.673297	-0.566928	-0.013427
1996	9.9750e-01	-0.1620	-4.223655	0.000493	4.934628	1.671897	0.039598
1997	9.9800e-01	-0.1251	-4.170629	0.000132	1.321585	0.447765	0.010605
1998	9.9850e-01	-0.0834	-3.771227	0.000995	9.954519	3.372682	0.079880
1999	9.9900e-01	-0.0401	-3.731458	0.000099	0.991189	0.335824	0.007954
2000	9.9950e-01	-0.0064	-3.676722	0.000136	1.364217	0.462209	0.010947
2001	1.0000e+00	0.0321	-3.526626	0.000136	1.364217	0.462209	0.030019

Center data before PMax,+/-Pr and +/-Vc Calc.

PMax (uC/cm2):	5.12e+01
Pr (uC/cm2):	3.83e-01
-Pr (uC/cm2):	-3.53e+00
PLoss (uC/cm2):	-1.92e+00
Vc:	5.69e-01
-Vc:	-8.13e-02
C (Max-Eff) (nF):	2.56e-01
K (Eff):	8.67e+02
Vert. (+/-Pr) Shift (uC/cm2):	-1.57e+00
Horiz. Shift (+/-Vc):	2.44e-01
Offset (uC/cm2):	1.65e+00

A (Loop Area - uC/cm2·Volts):	1.56e-01



Hysteresis Version: 5.48.1 - Radiant Technologies, Inc., 1999 - 9/12/24

