»»»»»»»»»»»»»»»»»»»»»»»»»»»»»»»»»»»» Hysteresis ««««««««««««««««««««««««««««««««««««
»»»  Executed Version:	5.48.1
»»»  Vision Version:	5.48.4 (R)
»»»  Vision Compiled:	9/18/24
»»»  Driver Version:	5.47.0
»»»  Windows Version:	Windows 8 or 8.1
»»»  Processor Information:	x86 (AMD or Intel) - 32 Processors
»»»  Tester Name:	PMF21124-494 (100V)
»»»  Tester S/N:	PMF21124-494
»»»  Internal Amp Type:	100V RevK 270k
»»»  Internal Amp S/N:	iAB2-596/K     
»»»  Execution Count:	1
»»»»»»»»»»»»»»»»»»»»»»»»»»»»»»»»»»»»»»»»»»««««««««««««««««««««««««««««««««««««««««««

Stored:	6/13/2025 - 12:14:23
Configured:	06/13/25 10:12:58 AM
Executed:	06/13/25 12:13:53 PM

»»»»»»»»»»»»»»»»»»»»»»»»»»»»»»»»»»» Sample Info ««««««««««««««««««««««««««««««««««««
Sample Name:	
Lot Name:	
Wafer Name:	
Die Row/Column:	0/0
Capacitor Number:	0
Sample Area (cm2):	1.00e-04
Sample Thickness (microns):	3.00e-01

Amplifier:	Internal

»»»»»»»»»»»»»»»»»»»»»»»»»»»»»»»»»»» Tester Info «««««««««««««««««««««««««««««««««««
Tester Name:	PMF21124-494 (100V)
Tester Serial Number:	PMF21124-494
Return Signal Amp. Level:	0.19 [Index: 3]

»»»»»»»»»»»»»»»»»»»»»»»»»»»»»»»» Hysteresis Info ««««««««««««««««««««««««««««««««««
Task Name:	Hyst-1704
Volts:	20.00
Field:	666.67 (kV/cm)
DCBias:	0.00
DCField:	0.00 (kV/cm)
Hysteresis Period (ms):	2.00e+02
Preset:	Enabled
Preset Delay (ms):	1.00e+03
Profile:	Standard Bipolar

»»»»»»»»»»»»»»»»»»»»»»»»»»»»»»»»»»»»»» Data «««««««««««««««««««««««««««««««««««««««
Points:	2009

Valid Data

Point	Time (ms)	Drive Voltage	Measured Polarization (uC/cm2)	Capacitance (uF)	Normalized Capacitance (uF/cm2)	Dielectric Constant	Instantaneous Current (mA)
   1	0.0000e+00	-0.0032	-2.202258	0.000243	2.432316	0.824091	0.000097
   2	9.9500e-02	0.0273	-2.105366	0.000243	2.432316	0.824091	0.000097
   3	1.9900e-01	0.0738	-1.943881	0.000405	4.053859	1.373485	0.000162
   4	2.9850e-01	0.1219	-1.838915	0.000264	2.635009	0.892765	0.000105
   5	3.9800e-01	0.1540	-1.737987	0.000253	2.533662	0.858428	0.000101
   6	4.9750e-01	0.1877	-1.588613	0.000375	3.749820	1.270473	0.000150
   7	5.9700e-01	0.2358	-1.479610	0.000274	2.736355	0.927102	0.000110
   8	6.9650e-01	0.2711	-1.358496	0.000304	3.040395	1.030114	0.000122
   9	7.9600e-01	0.3000	-1.229308	0.000324	3.243087	1.098788	0.000130
  10	8.9550e-01	0.3593	-1.067822	0.000405	4.053859	1.373485	0.000162
  11	9.9500e-01	0.3914	-0.938634	0.000324	3.243087	1.098788	0.000130
  12	1.0945e+00	0.4396	-0.805409	0.000334	3.344434	1.133125	0.000134
  13	1.1940e+00	0.4781	-0.660072	0.000365	3.648473	1.236136	0.000146
  14	1.2935e+00	0.5053	-0.542995	0.000294	2.939048	0.995776	0.000118
  15	1.3930e+00	0.5567	-0.438029	0.000264	2.635009	0.892765	0.000105
  16	1.4925e+00	0.5968	-0.316915	0.000304	3.040395	1.030114	0.000122
  17	1.5920e+00	0.6369	-0.244247	0.000182	1.824237	0.618068	0.000073
  18	1.6915e+00	0.6802	-0.098910	0.000365	3.648473	1.236136	0.000146
  19	1.7910e+00	0.7187	0.030279	0.000324	3.243087	1.098788	0.000130
  20	1.8905e+00	0.7524	0.139281	0.000274	2.736355	0.927102	0.000110
  21	1.9900e+00	0.7893	0.324989	0.000466	4.661938	1.579507	0.000187
  22	2.0895e+00	0.8262	0.425918	0.000253	2.533662	0.858428	0.000101
  23	2.1890e+00	0.8663	0.514735	0.000223	2.229623	0.755417	0.000089
  24	2.2885e+00	0.9128	0.651997	0.000345	3.445780	1.167462	0.000138
  25	2.3880e+00	0.9497	0.785223	0.000334	3.344434	1.133125	0.000134
  26	2.4875e+00	0.9946	0.922486	0.000345	3.445780	1.167462	0.000138
  27	2.5870e+00	1.0315	1.112231	0.000476	4.763285	1.613845	0.000191
  28	2.6865e+00	1.0636	1.245456	0.000334	3.344434	1.133125	0.000134
  29	2.7860e+00	1.1101	1.394830	0.000375	3.749820	1.270473	0.000150
  30	2.8855e+00	1.1406	1.503833	0.000274	2.736355	0.927102	0.000110
  31	2.9850e+00	1.1839	1.628984	0.000314	3.141741	1.064451	0.000126
  32	3.0845e+00	1.2224	1.742024	0.000284	2.837702	0.961439	0.000114
  33	3.1840e+00	1.2689	1.782395	0.000101	1.013465	0.343371	0.000041
  34	3.2835e+00	1.3091	1.951955	0.000426	4.256552	1.442159	0.000170
  35	3.3830e+00	1.3427	2.093255	0.000355	3.547127	1.201799	0.000142
  36	3.4825e+00	1.3893	2.214369	0.000304	3.040395	1.030114	0.000122
  37	3.5820e+00	1.4358	2.331446	0.000294	2.939048	0.995776	0.000118
  38	3.6815e+00	1.4727	2.452560	0.000304	3.040395	1.030114	0.000122
  39	3.7810e+00	1.5096	2.569637	0.000294	2.939048	0.995776	0.000118
  40	3.8805e+00	1.5465	2.666528	0.000243	2.432316	0.824091	0.000097
  41	3.9800e+00	1.5882	2.828014	0.000405	4.053859	1.373485	0.000162
  42	4.0795e+00	1.6299	2.932979	0.000264	2.635009	0.892765	0.000105
  43	4.1790e+00	1.6684	3.054093	0.000304	3.040395	1.030114	0.000122
  44	4.2785e+00	1.7117	3.243839	0.000476	4.763285	1.613845	0.000191
  45	4.3780e+00	1.7486	3.381101	0.000345	3.445780	1.167462	0.000138
  46	4.4775e+00	1.7823	3.526438	0.000365	3.648473	1.236136	0.000146
  47	4.5770e+00	1.8304	3.643515	0.000294	2.939048	0.995776	0.000118
  48	4.6765e+00	1.8641	3.764629	0.000304	3.040395	1.030114	0.000122
  49	4.7760e+00	1.9155	3.893817	0.000324	3.243087	1.098788	0.000130
  50	4.8755e+00	1.9491	4.002820	0.000274	2.736355	0.927102	0.000110
  51	4.9750e+00	1.9892	4.083563	0.000203	2.026930	0.686742	0.000081
  52	5.0745e+00	2.0278	4.184491	0.000253	2.533662	0.858428	0.000101
  53	5.1740e+00	2.0679	4.333865	0.000375	3.749820	1.270473	0.000150
  54	5.2735e+00	2.1064	4.459016	0.000314	3.141741	1.064451	0.000126
  55	5.3730e+00	2.1449	4.604353	0.000365	3.648473	1.236136	0.000146
  56	5.4725e+00	2.1850	4.725467	0.000304	3.040395	1.030114	0.000122
  57	5.5720e+00	2.2315	4.858693	0.000334	3.344434	1.133125	0.000134
  58	5.6715e+00	2.2652	5.012104	0.000385	3.851166	1.304810	0.000154
  59	5.7710e+00	2.3101	5.137255	0.000314	3.141741	1.064451	0.000126
  60	5.8705e+00	2.3470	5.290666	0.000385	3.851166	1.304810	0.000154
  61	5.9700e+00	2.3871	5.411780	0.000304	3.040395	1.030114	0.000122
  62	6.0695e+00	2.4208	5.545006	0.000334	3.344434	1.133125	0.000134
  63	6.1690e+00	2.4609	5.682269	0.000345	3.445780	1.167462	0.000138
  64	6.2685e+00	2.4978	5.867977	0.000466	4.661938	1.579507	0.000187
  65	6.3680e+00	2.5459	5.960831	0.000233	2.330969	0.789754	0.000093
  66	6.4675e+00	2.5908	6.114242	0.000385	3.851166	1.304810	0.000154
  67	6.5670e+00	2.6245	6.211133	0.000243	2.432316	0.824091	0.000097
  68	6.6665e+00	2.6646	6.320136	0.000274	2.736355	0.927102	0.000110
  69	6.7660e+00	2.7031	6.437213	0.000294	2.939048	0.995776	0.000118
  70	6.8655e+00	2.7448	6.582550	0.000365	3.648473	1.236136	0.000146
  71	6.9650e+00	2.7769	6.731924	0.000375	3.749820	1.270473	0.000150
  72	7.0645e+00	2.8299	6.849001	0.000294	2.939048	0.995776	0.000118
  73	7.1640e+00	2.8603	6.921669	0.000182	1.824237	0.618068	0.000073
  74	7.2635e+00	2.9037	7.095266	0.000436	4.357899	1.476496	0.000174
  75	7.3630e+00	2.9438	7.216380	0.000304	3.040395	1.030114	0.000122
  76	7.4625e+00	2.9807	7.337494	0.000304	3.040395	1.030114	0.000122
  77	7.5620e+00	3.0144	7.478794	0.000355	3.547127	1.201799	0.000142
  78	7.6615e+00	3.0577	7.636242	0.000395	3.952513	1.339148	0.000158
  79	7.7610e+00	3.0994	7.741208	0.000264	2.635009	0.892765	0.000105
  80	7.8605e+00	3.1395	7.975362	0.000588	5.878096	1.991553	0.000235
  81	7.9600e+00	3.1860	8.076290	0.000253	2.533662	0.858428	0.000101
  82	8.0595e+00	3.2165	8.205478	0.000324	3.243087	1.098788	0.000130
  83	8.1590e+00	3.2646	8.346778	0.000355	3.547127	1.201799	0.000142
  84	8.2585e+00	3.3047	8.435595	0.000223	2.229623	0.755417	0.000089
  85	8.3580e+00	3.3416	8.605155	0.000426	4.256552	1.442159	0.000170
  86	8.4575e+00	3.3785	8.702046	0.000243	2.432316	0.824091	0.000097
  87	8.5570e+00	3.4170	8.811049	0.000274	2.736355	0.927102	0.000110
  88	8.6565e+00	3.4635	8.960423	0.000375	3.749820	1.270473	0.000150
  89	8.7560e+00	3.4892	9.065388	0.000264	2.635009	0.892765	0.000105
  90	8.8555e+00	3.5357	9.186502	0.000304	3.040395	1.030114	0.000122
  91	8.9550e+00	3.5839	9.347988	0.000405	4.053859	1.373485	0.000162
  92	9.0545e+00	3.6208	9.489288	0.000355	3.547127	1.201799	0.000142
  93	9.1540e+00	3.6641	9.598290	0.000274	2.736355	0.927102	0.000110
  94	9.2535e+00	3.7090	9.719404	0.000304	3.040395	1.030114	0.000122
  95	9.3530e+00	3.7443	9.864741	0.000365	3.648473	1.236136	0.000146
  96	9.4525e+00	3.7796	10.006041	0.000355	3.547127	1.201799	0.000142
  97	9.5520e+00	3.8245	10.147341	0.000355	3.547127	1.201799	0.000142
  98	9.6515e+00	3.8598	10.280566	0.000334	3.344434	1.133125	0.000134
  99	9.7510e+00	3.9015	10.413792	0.000334	3.344434	1.133125	0.000134
 100	9.8505e+00	3.9400	10.547017	0.000334	3.344434	1.133125	0.000134
 101	9.9500e+00	3.9833	10.660057	0.000284	2.837702	0.961439	0.000114
 102	1.0050e+01	4.0186	10.777134	0.000294	2.939048	0.995776	0.000118
 103	1.0149e+01	4.0587	10.865951	0.000223	2.229623	0.755417	0.000089
 104	1.0248e+01	4.0924	11.051659	0.000466	4.661938	1.579507	0.000187
 105	1.0348e+01	4.1518	11.164699	0.000284	2.837702	0.961439	0.000114
 106	1.0447e+01	4.1758	11.301961	0.000345	3.445780	1.167462	0.000138
 107	1.0547e+01	4.2191	11.406927	0.000264	2.635009	0.892765	0.000105
 108	1.0646e+01	4.2592	11.576487	0.000426	4.256552	1.442159	0.000170
 109	1.0746e+01	4.2961	11.681452	0.000264	2.635009	0.892765	0.000105
 110	1.0845e+01	4.3330	11.842938	0.000405	4.053859	1.373485	0.000162
 111	1.0945e+01	4.3796	11.964052	0.000304	3.040395	1.030114	0.000122
 112	1.1044e+01	4.4116	12.089203	0.000314	3.141741	1.064451	0.000126
 113	1.1144e+01	4.4566	12.226466	0.000345	3.445780	1.167462	0.000138
 114	1.1243e+01	4.4935	12.355654	0.000324	3.243087	1.098788	0.000130
 115	1.1343e+01	4.5432	12.468694	0.000284	2.837702	0.961439	0.000114
 116	1.1443e+01	4.5833	12.670551	0.000507	5.067324	1.716856	0.000203
 117	1.1542e+01	4.6170	12.755330	0.000213	2.128276	0.721079	0.000085
 118	1.1642e+01	4.6651	12.896630	0.000355	3.547127	1.201799	0.000142
 119	1.1741e+01	4.6956	13.029856	0.000334	3.344434	1.133125	0.000134
 120	1.1841e+01	4.7421	13.126747	0.000243	2.432316	0.824091	0.000097
 121	1.1940e+01	4.7758	13.276121	0.000375	3.749820	1.270473	0.000150
 122	1.2040e+01	4.8095	13.437606	0.000405	4.053859	1.373485	0.000162
 123	1.2139e+01	4.8560	13.514312	0.000193	1.925583	0.652405	0.000077
 124	1.2239e+01	4.9025	13.667723	0.000385	3.851166	1.304810	0.000154
 125	1.2338e+01	4.9394	13.813060	0.000365	3.648473	1.236136	0.000146
 126	1.2438e+01	4.9747	13.905914	0.000233	2.330969	0.789754	0.000093
 127	1.2537e+01	5.0212	14.071437	0.000416	4.155206	1.407822	0.000166
 128	1.2636e+01	5.0549	14.196588	0.000314	3.141741	1.064451	0.000126
 129	1.2736e+01	5.1015	14.354036	0.000395	3.952513	1.339148	0.000158
 130	1.2835e+01	5.1384	14.442853	0.000223	2.229623	0.755417	0.000089
 131	1.2935e+01	5.1753	14.600301	0.000395	3.952513	1.339148	0.000158
 132	1.3034e+01	5.2154	14.737564	0.000345	3.445780	1.167462	0.000138
 133	1.3134e+01	5.2523	14.907124	0.000426	4.256552	1.442159	0.000170
 134	1.3233e+01	5.2940	15.036312	0.000324	3.243087	1.098788	0.000130
 135	1.3333e+01	5.3389	15.108980	0.000182	1.824237	0.618068	0.000073
 136	1.3432e+01	5.3742	15.205872	0.000243	2.432316	0.824091	0.000097
 137	1.3532e+01	5.4127	15.335060	0.000324	3.243087	1.098788	0.000130
 138	1.3632e+01	5.4576	15.476360	0.000355	3.547127	1.201799	0.000142
 139	1.3731e+01	5.4929	15.617660	0.000355	3.547127	1.201799	0.000142
 140	1.3831e+01	5.5314	15.742811	0.000314	3.141741	1.064451	0.000126
 141	1.3930e+01	5.5731	15.867962	0.000314	3.141741	1.064451	0.000126
 142	1.4030e+01	5.6100	15.993113	0.000314	3.141741	1.064451	0.000126
 143	1.4129e+01	5.6453	16.118264	0.000314	3.141741	1.064451	0.000126
 144	1.4229e+01	5.6902	16.255527	0.000345	3.445780	1.167462	0.000138
 145	1.4328e+01	5.7335	16.384715	0.000324	3.243087	1.098788	0.000130
 146	1.4428e+01	5.7801	16.485644	0.000253	2.533662	0.858428	0.000101
 147	1.4527e+01	5.8202	16.602721	0.000294	2.939048	0.995776	0.000118
 148	1.4627e+01	5.8538	16.756132	0.000385	3.851166	1.304810	0.000154
 149	1.4726e+01	5.8891	16.929729	0.000436	4.357899	1.476496	0.000174
 150	1.4825e+01	5.9325	17.034694	0.000264	2.635009	0.892765	0.000105
 151	1.4925e+01	5.9774	17.139660	0.000264	2.635009	0.892765	0.000105
 152	1.5024e+01	6.0191	17.244625	0.000264	2.635009	0.892765	0.000105
 153	1.5124e+01	6.0512	17.345554	0.000253	2.533662	0.858428	0.000101
 154	1.5223e+01	6.0881	17.490891	0.000365	3.648473	1.236136	0.000146
 155	1.5323e+01	6.1250	17.628153	0.000345	3.445780	1.167462	0.000138
 156	1.5422e+01	6.1683	17.664487	0.000091	0.912118	0.309034	0.000037
 157	1.5522e+01	6.2180	17.850196	0.000466	4.661938	1.579507	0.000187
 158	1.5621e+01	6.2517	17.959198	0.000274	2.736355	0.927102	0.000110
 159	1.5721e+01	6.2902	18.052052	0.000233	2.330969	0.789754	0.000093
 160	1.5820e+01	6.3303	18.205464	0.000385	3.851166	1.304810	0.000154
 161	1.5920e+01	6.3768	18.306392	0.000253	2.533662	0.858428	0.000101
 162	1.6020e+01	6.4153	18.467877	0.000405	4.053859	1.373485	0.000162
 163	1.6119e+01	6.4490	18.584954	0.000294	2.939048	0.995776	0.000118
 164	1.6218e+01	6.4923	18.697994	0.000284	2.837702	0.961439	0.000114
 165	1.6318e+01	6.5212	18.835257	0.000345	3.445780	1.167462	0.000138
 166	1.6418e+01	6.5677	18.984631	0.000375	3.749820	1.270473	0.000150
 167	1.6517e+01	6.6126	19.117856	0.000334	3.344434	1.133125	0.000134
 168	1.6616e+01	6.6528	19.251082	0.000334	3.344434	1.133125	0.000134
 169	1.6716e+01	6.6848	19.380270	0.000324	3.243087	1.098788	0.000130
 170	1.6816e+01	6.7265	19.432753	0.000132	1.317504	0.446383	0.000053
 171	1.6915e+01	6.7699	19.545793	0.000284	2.837702	0.961439	0.000114
 172	1.7015e+01	6.8100	19.650758	0.000264	2.635009	0.892765	0.000105
 173	1.7114e+01	6.8421	19.779947	0.000324	3.243087	1.098788	0.000130
 174	1.7213e+01	6.8870	19.888949	0.000274	2.736355	0.927102	0.000110
 175	1.7313e+01	6.9223	19.989878	0.000253	2.533662	0.858428	0.000101
 176	1.7413e+01	6.9672	20.143289	0.000385	3.851166	1.304810	0.000154
 177	1.7512e+01	7.0073	20.232106	0.000223	2.229623	0.755417	0.000089
 178	1.7611e+01	7.0458	20.377443	0.000365	3.648473	1.236136	0.000146
 179	1.7711e+01	7.0859	20.510668	0.000334	3.344434	1.133125	0.000134
 180	1.7811e+01	7.1180	20.603522	0.000233	2.330969	0.789754	0.000093
 181	1.7910e+01	7.1645	20.752896	0.000375	3.749820	1.270473	0.000150
 182	1.8009e+01	7.2078	20.853825	0.000253	2.533662	0.858428	0.000101
 183	1.8109e+01	7.2479	20.991087	0.000345	3.445780	1.167462	0.000138
 184	1.8209e+01	7.2768	21.136424	0.000365	3.648473	1.236136	0.000146
 185	1.8308e+01	7.3281	21.277724	0.000355	3.547127	1.201799	0.000142
 186	1.8407e+01	7.3731	21.406912	0.000324	3.243087	1.098788	0.000130
 187	1.8507e+01	7.4100	21.491692	0.000213	2.128276	0.721079	0.000085
 188	1.8607e+01	7.4420	21.564361	0.000182	1.824237	0.618068	0.000073
 189	1.8706e+01	7.4821	21.661252	0.000243	2.432316	0.824091	0.000097
 190	1.8805e+01	7.5190	21.802552	0.000355	3.547127	1.201799	0.000142
 191	1.8905e+01	7.5688	21.919628	0.000294	2.939048	0.995776	0.000118
 192	1.9005e+01	7.6057	22.056891	0.000345	3.445780	1.167462	0.000138
 193	1.9104e+01	7.6474	22.194154	0.000345	3.445780	1.167462	0.000138
 194	1.9203e+01	7.6859	22.234525	0.000101	1.013465	0.343371	0.000041
 195	1.9303e+01	7.7196	22.359676	0.000314	3.141741	1.064451	0.000126
 196	1.9402e+01	7.7677	22.476753	0.000294	2.939048	0.995776	0.000118
 197	1.9502e+01	7.8062	22.622090	0.000365	3.648473	1.236136	0.000146
 198	1.9602e+01	7.8351	22.731093	0.000274	2.736355	0.927102	0.000110
 199	1.9701e+01	7.8784	22.868355	0.000345	3.445780	1.167462	0.000138
 200	1.9800e+01	7.9217	22.961210	0.000233	2.330969	0.789754	0.000093
 201	1.9900e+01	7.9634	23.118658	0.000395	3.952513	1.339148	0.000158
 202	2.0000e+01	8.0035	23.231698	0.000284	2.837702	0.961439	0.000114
 203	2.0099e+01	8.0452	23.332626	0.000253	2.533662	0.858428	0.000101
 204	2.0198e+01	8.0885	23.482000	0.000375	3.749820	1.270473	0.000150
 205	2.0298e+01	8.1286	23.538520	0.000142	1.418851	0.480720	0.000057
 206	2.0398e+01	8.1623	23.655597	0.000294	2.939048	0.995776	0.000118
 207	2.0497e+01	8.2105	23.752488	0.000243	2.432316	0.824091	0.000097
 208	2.0596e+01	8.2329	23.853417	0.000253	2.533662	0.858428	0.000101
 209	2.0696e+01	8.2794	23.994716	0.000355	3.547127	1.201799	0.000142
 210	2.0796e+01	8.3228	24.095645	0.000253	2.533662	0.858428	0.000101
 211	2.0895e+01	8.3548	24.208684	0.000284	2.837702	0.961439	0.000114
 212	2.0994e+01	8.3998	24.293464	0.000213	2.128276	0.721079	0.000085
 213	2.1094e+01	8.4447	24.414578	0.000304	3.040395	1.030114	0.000122
 214	2.1194e+01	8.4832	24.547804	0.000334	3.344434	1.133125	0.000134
 215	2.1293e+01	8.5185	24.640658	0.000233	2.330969	0.789754	0.000093
 216	2.1392e+01	8.5650	24.794069	0.000385	3.851166	1.304810	0.000154
 217	2.1492e+01	8.5987	24.886923	0.000233	2.330969	0.789754	0.000093
 218	2.1591e+01	8.6372	25.012074	0.000314	3.141741	1.064451	0.000126
 219	2.1691e+01	8.6741	25.141263	0.000324	3.243087	1.098788	0.000130
 220	2.1791e+01	8.7190	25.258340	0.000294	2.939048	0.995776	0.000118
 221	2.1890e+01	8.7511	25.407714	0.000375	3.749820	1.270473	0.000150
 222	2.1989e+01	8.8056	25.460197	0.000132	1.317504	0.446383	0.000053
 223	2.2089e+01	8.8377	25.561125	0.000253	2.533662	0.858428	0.000101
 224	2.2189e+01	8.8746	25.706462	0.000365	3.648473	1.236136	0.000146
 225	2.2288e+01	8.9115	25.779130	0.000182	1.824237	0.618068	0.000073
 226	2.2387e+01	8.9596	25.900244	0.000304	3.040395	1.030114	0.000122
 227	2.2487e+01	8.9965	26.021358	0.000304	3.040395	1.030114	0.000122
 228	2.2587e+01	9.0350	26.138435	0.000294	2.939048	0.995776	0.000118
 229	2.2686e+01	9.0784	26.243401	0.000264	2.635009	0.892765	0.000105
 230	2.2785e+01	9.1281	26.344329	0.000253	2.533662	0.858428	0.000101
 231	2.2885e+01	9.1602	26.485629	0.000355	3.547127	1.201799	0.000142
 232	2.2985e+01	9.1890	26.610780	0.000314	3.141741	1.064451	0.000126
 233	2.3084e+01	9.2372	26.667300	0.000142	1.418851	0.480720	0.000057
 234	2.3183e+01	9.2837	26.844934	0.000446	4.459245	1.510833	0.000179
 235	2.3283e+01	9.3222	26.982197	0.000345	3.445780	1.167462	0.000138
 236	2.3383e+01	9.3511	27.099274	0.000294	2.939048	0.995776	0.000118
 237	2.3482e+01	9.3976	27.216351	0.000294	2.939048	0.995776	0.000118
 238	2.3581e+01	9.4393	27.313242	0.000243	2.432316	0.824091	0.000097
 239	2.3681e+01	9.4778	27.442430	0.000324	3.243087	1.098788	0.000130
 240	2.3780e+01	9.5259	27.531247	0.000223	2.229623	0.755417	0.000089
 241	2.3880e+01	9.5660	27.611990	0.000203	2.026930	0.686742	0.000081
 242	2.3980e+01	9.5949	27.741178	0.000324	3.243087	1.098788	0.000130
 243	2.4079e+01	9.6382	27.842107	0.000253	2.533662	0.858428	0.000101
 244	2.4178e+01	9.6767	27.938998	0.000243	2.432316	0.824091	0.000097
 245	2.4278e+01	9.7184	28.027815	0.000223	2.229623	0.755417	0.000089
 246	2.4378e+01	9.7569	28.185263	0.000395	3.952513	1.339148	0.000158
 247	2.4477e+01	9.7954	28.286192	0.000253	2.533662	0.858428	0.000101
 248	2.4576e+01	9.8291	28.403268	0.000294	2.939048	0.995776	0.000118
 249	2.4676e+01	9.8837	28.540531	0.000345	3.445780	1.167462	0.000138
 250	2.4776e+01	9.9190	28.633385	0.000233	2.330969	0.789754	0.000093
 251	2.4875e+01	9.9511	28.738351	0.000264	2.635009	0.892765	0.000105
 252	2.4974e+01	9.9896	28.871576	0.000334	3.344434	1.133125	0.000134
 253	2.5074e+01	10.0313	28.948282	0.000193	1.925583	0.652405	0.000077
 254	2.5174e+01	10.0746	29.146101	0.000497	4.965978	1.682519	0.000199
 255	2.5273e+01	10.1131	29.255104	0.000274	2.736355	0.927102	0.000110
 256	2.5372e+01	10.1580	29.343921	0.000223	2.229623	0.755417	0.000089
 257	2.5472e+01	10.2029	29.465035	0.000304	3.040395	1.030114	0.000122
 258	2.5572e+01	10.2382	29.578075	0.000284	2.837702	0.961439	0.000114
 259	2.5671e+01	10.2655	29.695152	0.000294	2.939048	0.995776	0.000118
 260	2.5770e+01	10.3152	29.747635	0.000132	1.317504	0.446383	0.000053
 261	2.5870e+01	10.3537	29.876823	0.000324	3.243087	1.098788	0.000130
 262	2.5970e+01	10.3906	29.965640	0.000223	2.229623	0.755417	0.000089
 263	2.6069e+01	10.4275	30.094828	0.000324	3.243087	1.098788	0.000130
 264	2.6169e+01	10.4853	30.248240	0.000385	3.851166	1.304810	0.000154
 265	2.6268e+01	10.5077	30.333019	0.000213	2.128276	0.721079	0.000085
 266	2.6367e+01	10.5446	30.462208	0.000324	3.243087	1.098788	0.000130
 267	2.6467e+01	10.6040	30.530839	0.000172	1.722890	0.583731	0.000069
 268	2.6567e+01	10.6232	30.647916	0.000294	2.939048	0.995776	0.000118
 269	2.6666e+01	10.6762	30.785179	0.000345	3.445780	1.167462	0.000138
 270	2.6765e+01	10.7099	30.934553	0.000375	3.749820	1.270473	0.000150
 271	2.6865e+01	10.7468	31.011258	0.000193	1.925583	0.652405	0.000077
 272	2.6965e+01	10.7965	31.152558	0.000355	3.547127	1.201799	0.000142
 273	2.7064e+01	10.8270	31.310006	0.000395	3.952513	1.339148	0.000158
 274	2.7163e+01	10.8687	31.370563	0.000152	1.520197	0.515057	0.000061
 275	2.7263e+01	10.9184	31.491677	0.000304	3.040395	1.030114	0.000122
 276	2.7363e+01	10.9489	31.572420	0.000203	2.026930	0.686742	0.000081
 277	2.7462e+01	10.9890	31.701608	0.000324	3.243087	1.098788	0.000130
 278	2.7561e+01	11.0323	31.786388	0.000213	2.128276	0.721079	0.000085
 279	2.7661e+01	11.0756	31.939799	0.000385	3.851166	1.304810	0.000154
 280	2.7761e+01	11.1077	32.020542	0.000203	2.026930	0.686742	0.000081
 281	2.7860e+01	11.1446	32.165879	0.000365	3.648473	1.236136	0.000146
 282	2.7959e+01	11.1943	32.270845	0.000264	2.635009	0.892765	0.000105
 283	2.8059e+01	11.2328	32.359662	0.000223	2.229623	0.755417	0.000089
 284	2.8159e+01	11.2745	32.456553	0.000243	2.432316	0.824091	0.000097
 285	2.8258e+01	11.3098	32.577667	0.000304	3.040395	1.030114	0.000122
 286	2.8358e+01	11.3499	32.706855	0.000324	3.243087	1.098788	0.000130
 287	2.8457e+01	11.3997	32.803746	0.000243	2.432316	0.824091	0.000097
 288	2.8556e+01	11.4173	32.904675	0.000253	2.533662	0.858428	0.000101
 289	2.8656e+01	11.4703	33.041937	0.000345	3.445780	1.167462	0.000138
 290	2.8756e+01	11.5104	33.203423	0.000405	4.053859	1.373485	0.000162
 291	2.8855e+01	11.5473	33.312426	0.000274	2.736355	0.927102	0.000110
 292	2.8954e+01	11.5954	33.381057	0.000172	1.722890	0.583731	0.000069
 293	2.9054e+01	11.6323	33.457762	0.000193	1.925583	0.652405	0.000077
 294	2.9154e+01	11.6692	33.546579	0.000223	2.229623	0.755417	0.000089
 295	2.9253e+01	11.7077	33.695953	0.000375	3.749820	1.270473	0.000150
 296	2.9352e+01	11.7446	33.796882	0.000253	2.533662	0.858428	0.000101
 297	2.9452e+01	11.7783	33.905884	0.000274	2.736355	0.927102	0.000110
 298	2.9552e+01	11.8232	33.994701	0.000223	2.229623	0.755417	0.000089
 299	2.9651e+01	11.8697	34.111778	0.000294	2.939048	0.995776	0.000118
 300	2.9750e+01	11.9114	34.253078	0.000355	3.547127	1.201799	0.000142
 301	2.9850e+01	11.9403	34.354007	0.000253	2.533662	0.858428	0.000101
 302	2.9950e+01	11.9884	34.450898	0.000243	2.432316	0.824091	0.000097
 303	3.0049e+01	12.0205	34.567975	0.000294	2.939048	0.995776	0.000118
 304	3.0148e+01	12.0654	34.664866	0.000243	2.432316	0.824091	0.000097
 305	3.0248e+01	12.1087	34.794054	0.000324	3.243087	1.098788	0.000130
 306	3.0348e+01	12.1505	34.894983	0.000253	2.533662	0.858428	0.000101
 307	3.0447e+01	12.1906	35.060505	0.000416	4.155206	1.407822	0.000166
 308	3.0547e+01	12.2307	35.149322	0.000223	2.229623	0.755417	0.000089
 309	3.0646e+01	12.2644	35.246214	0.000243	2.432316	0.824091	0.000097
 310	3.0745e+01	12.3141	35.339068	0.000233	2.330969	0.789754	0.000093
 311	3.0845e+01	12.3446	35.395588	0.000142	1.418851	0.480720	0.000057
 312	3.0945e+01	12.3895	35.520739	0.000314	3.141741	1.064451	0.000126
 313	3.1044e+01	12.4232	35.629741	0.000274	2.736355	0.927102	0.000110
 314	3.1143e+01	12.4665	35.706447	0.000193	1.925583	0.652405	0.000077
 315	3.1243e+01	12.5130	35.823524	0.000294	2.939048	0.995776	0.000118
 316	3.1343e+01	12.5435	35.944638	0.000304	3.040395	1.030114	0.000122
 317	3.1442e+01	12.5756	36.065752	0.000304	3.040395	1.030114	0.000122
 318	3.1541e+01	12.6349	36.142458	0.000193	1.925583	0.652405	0.000077
 319	3.1641e+01	12.6670	36.255497	0.000284	2.837702	0.961439	0.000114
 320	3.1741e+01	12.6975	36.340277	0.000213	2.128276	0.721079	0.000085
 321	3.1840e+01	12.7440	36.441206	0.000253	2.533662	0.858428	0.000101
 322	3.1939e+01	12.7841	36.594617	0.000385	3.851166	1.304810	0.000154
 323	3.2039e+01	12.8226	36.703620	0.000274	2.736355	0.927102	0.000110
 324	3.2139e+01	12.8659	36.812622	0.000274	2.736355	0.927102	0.000110
 325	3.2238e+01	12.9109	36.901439	0.000223	2.229623	0.755417	0.000089
 326	3.2337e+01	12.9526	37.042739	0.000355	3.547127	1.201799	0.000142
 327	3.2437e+01	12.9766	37.115407	0.000182	1.824237	0.618068	0.000073
 328	3.2536e+01	13.0216	37.192113	0.000193	1.925583	0.652405	0.000077
 329	3.2636e+01	13.0552	37.252670	0.000152	1.520197	0.515057	0.000061
 330	3.2736e+01	13.1002	37.398007	0.000365	3.648473	1.236136	0.000146
 331	3.2835e+01	13.1403	37.490861	0.000233	2.330969	0.789754	0.000093
 332	3.2934e+01	13.1788	37.599864	0.000274	2.736355	0.927102	0.000110
 333	3.3034e+01	13.2269	37.692718	0.000233	2.330969	0.789754	0.000093
 334	3.3133e+01	13.2622	37.769423	0.000193	1.925583	0.652405	0.000077
 335	3.3233e+01	13.3023	37.874389	0.000264	2.635009	0.892765	0.000105
 336	3.3333e+01	13.3344	37.963206	0.000223	2.229623	0.755417	0.000089
 337	3.3432e+01	13.3825	38.100469	0.000345	3.445780	1.167462	0.000138
 338	3.3532e+01	13.4210	38.229657	0.000324	3.243087	1.098788	0.000130
 339	3.3631e+01	13.4563	38.306362	0.000193	1.925583	0.652405	0.000077
 340	3.3730e+01	13.5012	38.431514	0.000314	3.141741	1.064451	0.000126
 341	3.3830e+01	13.5413	38.528405	0.000243	2.432316	0.824091	0.000097
 342	3.3929e+01	13.5782	38.653556	0.000314	3.141741	1.064451	0.000126
 343	3.4029e+01	13.6231	38.746410	0.000233	2.330969	0.789754	0.000093
 344	3.4129e+01	13.6520	38.867524	0.000304	3.040395	1.030114	0.000122
 345	3.4228e+01	13.7001	38.936156	0.000172	1.722890	0.583731	0.000069
 346	3.4328e+01	13.7403	39.041121	0.000264	2.635009	0.892765	0.000105
 347	3.4427e+01	13.7772	39.097641	0.000142	1.418851	0.480720	0.000057
 348	3.4526e+01	13.8173	39.186458	0.000223	2.229623	0.755417	0.000089
 349	3.4626e+01	13.8526	39.287386	0.000253	2.533662	0.858428	0.000101
 350	3.4725e+01	13.8975	39.384278	0.000243	2.432316	0.824091	0.000097
 351	3.4825e+01	13.9344	39.465020	0.000203	2.026930	0.686742	0.000081
 352	3.4925e+01	13.9793	39.598246	0.000334	3.344434	1.133125	0.000134
 353	3.5024e+01	14.0146	39.703211	0.000264	2.635009	0.892765	0.000105
 354	3.5123e+01	14.0531	39.755694	0.000132	1.317504	0.446383	0.000053
 355	3.5223e+01	14.0980	39.913142	0.000395	3.952513	1.339148	0.000158
 356	3.5322e+01	14.1349	40.022145	0.000274	2.736355	0.927102	0.000110
 357	3.5422e+01	14.1782	40.135185	0.000284	2.837702	0.961439	0.000114
 358	3.5522e+01	14.2167	40.207853	0.000182	1.824237	0.618068	0.000073
 359	3.5621e+01	14.2536	40.353190	0.000365	3.648473	1.236136	0.000146
 360	3.5721e+01	14.2985	40.454119	0.000253	2.533662	0.858428	0.000101
 361	3.5820e+01	14.3354	40.510639	0.000142	1.418851	0.480720	0.000057
 362	3.5919e+01	14.3916	40.627715	0.000294	2.939048	0.995776	0.000118
 363	3.6019e+01	14.4156	40.732681	0.000264	2.635009	0.892765	0.000105
 364	3.6118e+01	14.4573	40.837647	0.000264	2.635009	0.892765	0.000105
 365	3.6218e+01	14.4975	40.865907	0.000071	0.709425	0.240360	0.000028
 366	3.6318e+01	14.5376	40.958761	0.000233	2.330969	0.789754	0.000093
 367	3.6417e+01	14.5761	41.015281	0.000142	1.418851	0.480720	0.000057
 368	3.6517e+01	14.6146	41.124283	0.000274	2.736355	0.927102	0.000110
 369	3.6616e+01	14.6547	41.245397	0.000304	3.040395	1.030114	0.000122
 370	3.6715e+01	14.6996	41.318066	0.000182	1.824237	0.618068	0.000073
 371	3.6815e+01	14.7333	41.435143	0.000294	2.939048	0.995776	0.000118
 372	3.6914e+01	14.7750	41.511848	0.000193	1.925583	0.652405	0.000077
 373	3.7014e+01	14.8199	41.620851	0.000274	2.736355	0.927102	0.000110
 374	3.7114e+01	14.8600	41.733891	0.000284	2.837702	0.961439	0.000114
 375	3.7213e+01	14.8985	41.879228	0.000365	3.648473	1.236136	0.000146
 376	3.7313e+01	14.9306	41.939785	0.000152	1.520197	0.515057	0.000061
 377	3.7412e+01	14.9659	42.044750	0.000264	2.635009	0.892765	0.000105
 378	3.7511e+01	15.0140	42.149716	0.000264	2.635009	0.892765	0.000105
 379	3.7611e+01	15.0541	42.218347	0.000172	1.722890	0.583731	0.000069
 380	3.7711e+01	15.0910	42.331387	0.000284	2.837702	0.961439	0.000114
 381	3.7810e+01	15.1440	42.404055	0.000182	1.824237	0.618068	0.000073
 382	3.7910e+01	15.1712	42.492872	0.000223	2.229623	0.755417	0.000089
 383	3.8009e+01	15.2194	42.565541	0.000182	1.824237	0.618068	0.000073
 384	3.8108e+01	15.2466	42.678580	0.000284	2.837702	0.961439	0.000114
 385	3.8208e+01	15.2867	42.759323	0.000203	2.026930	0.686742	0.000081
 386	3.8307e+01	15.3461	42.844103	0.000213	2.128276	0.721079	0.000085
 387	3.8407e+01	15.3798	42.953106	0.000274	2.736355	0.927102	0.000110
 388	3.8507e+01	15.4263	43.062108	0.000274	2.736355	0.927102	0.000110
 389	3.8606e+01	15.4520	43.130740	0.000172	1.722890	0.583731	0.000069
 390	3.8706e+01	15.5033	43.191297	0.000152	1.520197	0.515057	0.000061
 391	3.8805e+01	15.5386	43.336634	0.000365	3.648473	1.236136	0.000146
 392	3.8904e+01	15.5675	43.477933	0.000355	3.547127	1.201799	0.000142
 393	3.9004e+01	15.6108	43.574825	0.000243	2.432316	0.824091	0.000097
 394	3.9103e+01	15.6493	43.691902	0.000294	2.939048	0.995776	0.000118
 395	3.9203e+01	15.6958	43.813016	0.000304	3.040395	1.030114	0.000122
 396	3.9303e+01	15.7247	43.869535	0.000142	1.418851	0.480720	0.000057
 397	3.9402e+01	15.7712	43.970464	0.000253	2.533662	0.858428	0.000101
 398	3.9502e+01	15.8097	44.087541	0.000294	2.939048	0.995776	0.000118
 399	3.9601e+01	15.8530	44.168284	0.000203	2.026930	0.686742	0.000081
 400	3.9700e+01	15.8899	44.236915	0.000172	1.722890	0.583731	0.000069
 401	3.9800e+01	15.9332	44.305546	0.000172	1.722890	0.583731	0.000069
 402	3.9900e+01	15.9653	44.410512	0.000264	2.635009	0.892765	0.000105
 403	3.9999e+01	16.0102	44.479143	0.000172	1.722890	0.583731	0.000069
 404	4.0099e+01	16.0552	44.584109	0.000264	2.635009	0.892765	0.000105
 405	4.0198e+01	16.0889	44.656777	0.000182	1.824237	0.618068	0.000073
 406	4.0297e+01	16.1241	44.773854	0.000294	2.939048	0.995776	0.000118
 407	4.0397e+01	16.1771	44.866708	0.000233	2.330969	0.789754	0.000093
 408	4.0496e+01	16.2092	44.971674	0.000264	2.635009	0.892765	0.000105
 409	4.0596e+01	16.2509	45.084713	0.000284	2.837702	0.961439	0.000114
 410	4.0696e+01	16.2942	45.173530	0.000223	2.229623	0.755417	0.000089
 411	4.0795e+01	16.3279	45.286570	0.000284	2.837702	0.961439	0.000114
 412	4.0895e+01	16.3680	45.415758	0.000324	3.243087	1.098788	0.000130
 413	4.0994e+01	16.4113	45.528798	0.000284	2.837702	0.961439	0.000114
 414	4.1093e+01	16.4482	45.637801	0.000274	2.736355	0.927102	0.000110
 415	4.1193e+01	16.4883	45.698358	0.000152	1.520197	0.515057	0.000061
 416	4.1292e+01	16.5284	45.831583	0.000334	3.344434	1.133125	0.000134
 417	4.1392e+01	16.5733	45.908289	0.000193	1.925583	0.652405	0.000077
 418	4.1492e+01	16.6134	45.989032	0.000203	2.026930	0.686742	0.000081
 419	4.1591e+01	16.6519	46.081886	0.000233	2.330969	0.789754	0.000093
 420	4.1691e+01	16.6792	46.134369	0.000132	1.317504	0.446383	0.000053
 421	4.1790e+01	16.7354	46.223186	0.000223	2.229623	0.755417	0.000089
 422	4.1889e+01	16.7674	46.344300	0.000304	3.040395	1.030114	0.000122
 423	4.1989e+01	16.8027	46.425042	0.000203	2.026930	0.686742	0.000081
 424	4.2089e+01	16.8428	46.501748	0.000193	1.925583	0.652405	0.000077
 425	4.2188e+01	16.8862	46.630936	0.000324	3.243087	1.098788	0.000130
 426	4.2288e+01	16.9279	46.691493	0.000152	1.520197	0.515057	0.000061
 427	4.2387e+01	16.9744	46.820682	0.000324	3.243087	1.098788	0.000130
 428	4.2486e+01	17.0097	46.917573	0.000243	2.432316	0.824091	0.000097
 429	4.2586e+01	17.0498	47.014464	0.000243	2.432316	0.824091	0.000097
 430	4.2685e+01	17.0755	47.123467	0.000274	2.736355	0.927102	0.000110
 431	4.2785e+01	17.1268	47.212284	0.000223	2.229623	0.755417	0.000089
 432	4.2885e+01	17.1637	47.337435	0.000314	3.141741	1.064451	0.000126
 433	4.2984e+01	17.2054	47.430289	0.000233	2.330969	0.789754	0.000093
 434	4.3084e+01	17.2487	47.559478	0.000324	3.243087	1.098788	0.000130
 435	4.3183e+01	17.2888	47.595812	0.000091	0.912118	0.309034	0.000037
 436	4.3282e+01	17.3273	47.712889	0.000294	2.939048	0.995776	0.000118
 437	4.3382e+01	17.3642	47.757297	0.000111	1.114811	0.377708	0.000045
 438	4.3481e+01	17.4188	47.854188	0.000243	2.432316	0.824091	0.000097
 439	4.3581e+01	17.4508	47.943005	0.000223	2.229623	0.755417	0.000089
 440	4.3681e+01	17.4877	48.047971	0.000264	2.635009	0.892765	0.000105
 441	4.3780e+01	17.5311	48.148899	0.000253	2.533662	0.858428	0.000101
 442	4.3880e+01	17.5696	48.229642	0.000203	2.026930	0.686742	0.000081
 443	4.3979e+01	17.5984	48.326533	0.000243	2.432316	0.824091	0.000097
 444	4.4078e+01	17.6530	48.374979	0.000122	1.216158	0.412045	0.000049
 445	4.4178e+01	17.6835	48.528390	0.000385	3.851166	1.304810	0.000154
 446	4.4278e+01	17.7236	48.633356	0.000264	2.635009	0.892765	0.000105
 447	4.4377e+01	17.7621	48.722173	0.000223	2.229623	0.755417	0.000089
 448	4.4477e+01	17.8006	48.875584	0.000385	3.851166	1.304810	0.000154
 449	4.4576e+01	17.8487	48.956327	0.000203	2.026930	0.686742	0.000081
 450	4.4675e+01	17.8872	49.045144	0.000223	2.229623	0.755417	0.000089
 451	4.4775e+01	17.9225	49.162220	0.000294	2.939048	0.995776	0.000118
 452	4.4874e+01	17.9658	49.218740	0.000142	1.418851	0.480720	0.000057
 453	4.4974e+01	17.9931	49.335817	0.000294	2.939048	0.995776	0.000118
 454	4.5074e+01	18.0444	49.424634	0.000223	2.229623	0.755417	0.000089
 455	4.5173e+01	18.0829	49.473080	0.000122	1.216158	0.412045	0.000049
 456	4.5273e+01	18.1278	49.545748	0.000182	1.824237	0.618068	0.000073
 457	4.5372e+01	18.1631	49.638602	0.000233	2.330969	0.789754	0.000093
 458	4.5471e+01	18.2016	49.735494	0.000243	2.432316	0.824091	0.000097
 459	4.5571e+01	18.2433	49.824311	0.000223	2.229623	0.755417	0.000089
 460	4.5670e+01	18.2754	49.949462	0.000314	3.141741	1.064451	0.000126
 461	4.5770e+01	18.3139	50.026167	0.000193	1.925583	0.652405	0.000077
 462	4.5870e+01	18.3604	50.110947	0.000213	2.128276	0.721079	0.000085
 463	4.5969e+01	18.4038	50.223987	0.000284	2.837702	0.961439	0.000114
 464	4.6069e+01	18.4455	50.341064	0.000294	2.939048	0.995776	0.000118
 465	4.6168e+01	18.4792	50.417770	0.000193	1.925583	0.652405	0.000077
 466	4.6267e+01	18.5257	50.542921	0.000314	3.141741	1.064451	0.000126
 467	4.6367e+01	18.5642	50.664035	0.000304	3.040395	1.030114	0.000122
 468	4.6467e+01	18.6155	50.793223	0.000324	3.243087	1.098788	0.000130
 469	4.6566e+01	18.6444	50.878003	0.000213	2.128276	0.721079	0.000085
 470	4.6666e+01	18.6893	50.970857	0.000233	2.330969	0.789754	0.000093
 471	4.6765e+01	18.7246	51.035451	0.000162	1.621544	0.549394	0.000065
 472	4.6864e+01	18.7695	51.091971	0.000142	1.418851	0.480720	0.000057
 473	4.6964e+01	18.7968	51.184825	0.000233	2.330969	0.789754	0.000093
 474	4.7063e+01	18.8353	51.265568	0.000203	2.026930	0.686742	0.000081
 475	4.7163e+01	18.8818	51.370534	0.000264	2.635009	0.892765	0.000105
 476	4.7263e+01	18.9219	51.414942	0.000111	1.114811	0.377708	0.000045
 477	4.7362e+01	18.9572	51.532019	0.000294	2.939048	0.995776	0.000118
 478	4.7462e+01	19.0005	51.600650	0.000172	1.722890	0.583731	0.000069
 479	4.7561e+01	19.0374	51.709653	0.000274	2.736355	0.927102	0.000110
 480	4.7660e+01	19.0823	51.826730	0.000294	2.939048	0.995776	0.000118
 481	4.7760e+01	19.1080	51.879213	0.000132	1.317504	0.446383	0.000053
 482	4.7859e+01	19.1497	52.016475	0.000345	3.445780	1.167462	0.000138
 483	4.7959e+01	19.1946	52.060884	0.000111	1.114811	0.377708	0.000045
 484	4.8059e+01	19.2412	52.153738	0.000233	2.330969	0.789754	0.000093
 485	4.8158e+01	19.2845	52.303112	0.000375	3.749820	1.270473	0.000150
 486	4.8258e+01	19.3198	52.387892	0.000213	2.128276	0.721079	0.000085
 487	4.8357e+01	19.3663	52.472672	0.000213	2.128276	0.721079	0.000085
 488	4.8456e+01	19.3984	52.537266	0.000162	1.621544	0.549394	0.000065
 489	4.8556e+01	19.4353	52.642231	0.000264	2.635009	0.892765	0.000105
 490	4.8656e+01	19.4658	52.702788	0.000152	1.520197	0.515057	0.000061
 491	4.8755e+01	19.5171	52.759308	0.000142	1.418851	0.480720	0.000057
 492	4.8855e+01	19.5556	52.860237	0.000253	2.533662	0.858428	0.000101
 493	4.8954e+01	19.5989	52.928868	0.000172	1.722890	0.583731	0.000069
 494	4.9053e+01	19.6294	53.021722	0.000233	2.330969	0.789754	0.000093
 495	4.9153e+01	19.6695	53.094391	0.000182	1.824237	0.618068	0.000073
 496	4.9252e+01	19.7192	53.187245	0.000233	2.330969	0.789754	0.000093
 497	4.9352e+01	19.7577	53.284136	0.000243	2.432316	0.824091	0.000097
 498	4.9452e+01	19.7946	53.393139	0.000274	2.736355	0.927102	0.000110
 499	4.9551e+01	19.8363	53.465807	0.000182	1.824237	0.618068	0.000073
 500	4.9651e+01	19.8732	53.570773	0.000264	2.635009	0.892765	0.000105
 501	4.9750e+01	19.9101	53.671701	0.000253	2.533662	0.858428	0.000101
 502	4.9849e+01	19.9551	53.772629	0.000253	2.533662	0.858428	0.000101
 503	4.9949e+01	19.9936	53.877595	0.000264	2.635009	0.892765	0.000105
 504	5.0048e+01	19.9551	53.829149	0.000122	1.216158	0.412045	-0.000049
 505	5.0148e+01	19.9214	53.744370	0.000213	2.128276	0.721079	-0.000085
 506	5.0248e+01	19.8829	53.655553	0.000223	2.229623	0.755417	-0.000089
 507	5.0347e+01	19.8379	53.578847	0.000193	1.925583	0.652405	-0.000077
 508	5.0447e+01	19.8010	53.485993	0.000233	2.330969	0.789754	-0.000093
 509	5.0546e+01	19.7641	53.376990	0.000274	2.736355	0.927102	-0.000110
 510	5.0645e+01	19.7224	53.280099	0.000243	2.432316	0.824091	-0.000097
 511	5.0745e+01	19.6759	53.231653	0.000122	1.216158	0.412045	-0.000049
 512	5.0844e+01	19.6230	53.150911	0.000203	2.026930	0.686742	-0.000081
 513	5.0944e+01	19.5973	53.082279	0.000172	1.722890	0.583731	-0.000069
 514	5.1044e+01	19.5620	52.997499	0.000213	2.128276	0.721079	-0.000085
 515	5.1143e+01	19.5107	52.928868	0.000172	1.722890	0.583731	-0.000069
 516	5.1242e+01	19.4706	52.888497	0.000101	1.013465	0.343371	-0.000041
 517	5.1342e+01	19.4353	52.848125	0.000101	1.013465	0.343371	-0.000041
 518	5.1441e+01	19.3984	52.775457	0.000182	1.824237	0.618068	-0.000073
 519	5.1541e+01	19.3567	52.674529	0.000253	2.533662	0.858428	-0.000101
 520	5.1641e+01	19.3118	52.605897	0.000172	1.722890	0.583731	-0.000069
 521	5.1740e+01	19.2797	52.533229	0.000182	1.824237	0.618068	-0.000073
 522	5.1840e+01	19.2444	52.456523	0.000193	1.925583	0.652405	-0.000077
 523	5.1939e+01	19.1914	52.359632	0.000243	2.432316	0.824091	-0.000097
 524	5.2038e+01	19.1594	52.295038	0.000162	1.621544	0.549394	-0.000065
 525	5.2138e+01	19.1257	52.169887	0.000314	3.141741	1.064451	-0.000126
 526	5.2237e+01	19.0711	52.105292	0.000162	1.621544	0.549394	-0.000065
 527	5.2337e+01	19.0422	52.012438	0.000233	2.330969	0.789754	-0.000093
 528	5.2437e+01	19.0005	51.951881	0.000152	1.520197	0.515057	-0.000061
 529	5.2536e+01	18.9636	51.850953	0.000253	2.533662	0.858428	-0.000101
 530	5.2636e+01	18.9299	51.790396	0.000152	1.520197	0.515057	-0.000061
 531	5.2735e+01	18.8754	51.677356	0.000284	2.837702	0.961439	-0.000114
 532	5.2834e+01	18.8481	51.596613	0.000203	2.026930	0.686742	-0.000081
 533	5.2934e+01	18.7984	51.515871	0.000203	2.026930	0.686742	-0.000081
 534	5.3033e+01	18.7599	51.435128	0.000203	2.026930	0.686742	-0.000081
 535	5.3133e+01	18.7182	51.410905	0.000061	0.608079	0.206023	-0.000024
 536	5.3233e+01	18.6797	51.314014	0.000243	2.432316	0.824091	-0.000097
 537	5.3332e+01	18.6396	51.221160	0.000233	2.330969	0.789754	-0.000093
 538	5.3431e+01	18.5963	51.184825	0.000091	0.912118	0.309034	-0.000037
 539	5.3531e+01	18.5658	51.067749	0.000294	2.939048	0.995776	-0.000118
 540	5.3630e+01	18.5209	51.031414	0.000091	0.912118	0.309034	-0.000037
 541	5.3730e+01	18.4888	50.946634	0.000213	2.128276	0.721079	-0.000085
 542	5.3830e+01	18.4374	50.829558	0.000294	2.939048	0.995776	-0.000118
 543	5.3929e+01	18.3989	50.728629	0.000253	2.533662	0.858428	-0.000101
 544	5.4029e+01	18.3637	50.607515	0.000304	3.040395	1.030114	-0.000122
 545	5.4128e+01	18.3235	50.514661	0.000233	2.330969	0.789754	-0.000093
 546	5.4227e+01	18.2786	50.417770	0.000243	2.432316	0.824091	-0.000097
 547	5.4327e+01	18.2465	50.361250	0.000142	1.418851	0.480720	-0.000057
 548	5.4426e+01	18.2080	50.276470	0.000213	2.128276	0.721079	-0.000085
 549	5.4526e+01	18.1695	50.135170	0.000355	3.547127	1.201799	-0.000142
 550	5.4626e+01	18.1134	50.098836	0.000091	0.912118	0.309034	-0.000037
 551	5.4725e+01	18.0797	50.018093	0.000203	2.026930	0.686742	-0.000081
 552	5.4825e+01	18.0492	49.977722	0.000101	1.013465	0.343371	-0.000041
 553	5.4924e+01	18.0155	49.913128	0.000162	1.621544	0.549394	-0.000065
 554	5.5023e+01	17.9610	49.816236	0.000243	2.432316	0.824091	-0.000097
 555	5.5123e+01	17.9193	49.719345	0.000243	2.432316	0.824091	-0.000097
 556	5.5222e+01	17.8872	49.646677	0.000182	1.824237	0.618068	-0.000073
 557	5.5322e+01	17.8375	49.586120	0.000152	1.520197	0.515057	-0.000061
 558	5.5422e+01	17.8054	49.497303	0.000223	2.229623	0.755417	-0.000089
 559	5.5521e+01	17.7605	49.356003	0.000355	3.547127	1.201799	-0.000142
 560	5.5620e+01	17.7332	49.303520	0.000132	1.317504	0.446383	-0.000053
 561	5.5720e+01	17.6995	49.170295	0.000334	3.344434	1.133125	-0.000134
 562	5.5819e+01	17.6498	49.113775	0.000142	1.418851	0.480720	-0.000057
 563	5.5919e+01	17.6065	49.045144	0.000172	1.722890	0.583731	-0.000069
 564	5.6019e+01	17.5599	48.895769	0.000375	3.749820	1.270473	-0.000150
 565	5.6118e+01	17.5278	48.863472	0.000081	0.810772	0.274697	-0.000032
 566	5.6218e+01	17.4829	48.786767	0.000193	1.925583	0.652405	-0.000077
 567	5.6317e+01	17.4412	48.685838	0.000253	2.533662	0.858428	-0.000101
 568	5.6416e+01	17.3995	48.588947	0.000243	2.432316	0.824091	-0.000097
 569	5.6516e+01	17.3658	48.528390	0.000152	1.520197	0.515057	-0.000061
 570	5.6615e+01	17.3418	48.500130	0.000071	0.709425	0.240360	-0.000028
 571	5.6715e+01	17.2888	48.423425	0.000193	1.925583	0.652405	-0.000077
 572	5.6815e+01	17.2407	48.338645	0.000213	2.128276	0.721079	-0.000085
 573	5.6914e+01	17.2134	48.217531	0.000304	3.040395	1.030114	-0.000122
 574	5.7014e+01	17.1685	48.136788	0.000203	2.026930	0.686742	-0.000081
 575	5.7113e+01	17.1236	48.084305	0.000132	1.317504	0.446383	-0.000053
 576	5.7212e+01	17.0835	48.003562	0.000203	2.026930	0.686742	-0.000081
 577	5.7312e+01	17.0482	47.890523	0.000284	2.837702	0.961439	-0.000114
 578	5.7411e+01	17.0113	47.765371	0.000314	3.141741	1.064451	-0.000126
 579	5.7511e+01	16.9696	47.684629	0.000203	2.026930	0.686742	-0.000081
 580	5.7611e+01	16.9247	47.640220	0.000111	1.114811	0.377708	-0.000045
 581	5.7710e+01	16.8813	47.502958	0.000345	3.445780	1.167462	-0.000138
 582	5.7809e+01	16.8412	47.446438	0.000142	1.418851	0.480720	-0.000057
 583	5.7909e+01	16.7995	47.305138	0.000355	3.547127	1.201799	-0.000142
 584	5.8008e+01	16.7658	47.256692	0.000122	1.216158	0.412045	-0.000049
 585	5.8108e+01	16.7273	47.179987	0.000193	1.925583	0.652405	-0.000077
 586	5.8208e+01	16.6953	47.107318	0.000182	1.824237	0.618068	-0.000073
 587	5.8307e+01	16.6423	47.062910	0.000111	1.114811	0.377708	-0.000045
 588	5.8407e+01	16.6150	46.990241	0.000182	1.824237	0.618068	-0.000073
 589	5.8506e+01	16.5669	46.901424	0.000223	2.229623	0.755417	-0.000089
 590	5.8605e+01	16.5316	46.828756	0.000182	1.824237	0.618068	-0.000073
 591	5.8705e+01	16.4995	46.707642	0.000304	3.040395	1.030114	-0.000122
 592	5.8804e+01	16.4434	46.655159	0.000132	1.317504	0.446383	-0.000053
 593	5.8904e+01	16.4113	46.582491	0.000182	1.824237	0.618068	-0.000073
 594	5.9004e+01	16.3648	46.469451	0.000284	2.837702	0.961439	-0.000114
 595	5.9103e+01	16.3359	46.384671	0.000213	2.128276	0.721079	-0.000085
 596	5.9203e+01	16.2974	46.259520	0.000314	3.141741	1.064451	-0.000126
 597	5.9302e+01	16.2493	46.190889	0.000172	1.722890	0.583731	-0.000069
 598	5.9401e+01	16.2028	46.069774	0.000304	3.040395	1.030114	-0.000122
 599	5.9501e+01	16.1739	46.009217	0.000152	1.520197	0.515057	-0.000061
 600	5.9600e+01	16.1257	45.896178	0.000284	2.837702	0.961439	-0.000114
 601	5.9700e+01	16.0889	45.839658	0.000142	1.418851	0.480720	-0.000057
 602	5.9800e+01	16.0487	45.775064	0.000162	1.621544	0.549394	-0.000065
 603	5.9899e+01	16.0135	45.690284	0.000213	2.128276	0.721079	-0.000085
 604	5.9998e+01	15.9782	45.605504	0.000213	2.128276	0.721079	-0.000085
 605	6.0098e+01	15.9332	45.528798	0.000193	1.925583	0.652405	-0.000077
 606	6.0197e+01	15.8867	45.456130	0.000182	1.824237	0.618068	-0.000073
 607	6.0297e+01	15.8498	45.363276	0.000233	2.330969	0.789754	-0.000093
 608	6.0397e+01	15.8081	45.290607	0.000182	1.824237	0.618068	-0.000073
 609	6.0496e+01	15.7776	45.201790	0.000223	2.229623	0.755417	-0.000089
 610	6.0596e+01	15.7311	45.133159	0.000172	1.722890	0.583731	-0.000069
 611	6.0695e+01	15.6846	45.052416	0.000203	2.026930	0.686742	-0.000081
 612	6.0794e+01	15.6509	44.963599	0.000223	2.229623	0.755417	-0.000089
 613	6.0894e+01	15.6044	44.862671	0.000253	2.533662	0.858428	-0.000101
 614	6.0993e+01	15.5803	44.769817	0.000233	2.330969	0.789754	-0.000093
 615	6.1093e+01	15.5434	44.636591	0.000334	3.344434	1.133125	-0.000134
 616	6.1193e+01	15.4905	44.535663	0.000253	2.533662	0.858428	-0.000101
 617	6.1292e+01	15.4536	44.479143	0.000142	1.418851	0.480720	-0.000057
 618	6.1392e+01	15.4167	44.390326	0.000223	2.229623	0.755417	-0.000089
 619	6.1491e+01	15.3814	44.269212	0.000304	3.040395	1.030114	-0.000122
 620	6.1590e+01	15.3236	44.204618	0.000162	1.621544	0.549394	-0.000065
 621	6.1690e+01	15.2964	44.184432	0.000051	0.506732	0.171686	-0.000020
 622	6.1789e+01	15.2466	44.047169	0.000345	3.445780	1.167462	-0.000138
 623	6.1889e+01	15.2081	44.014872	0.000081	0.810772	0.274697	-0.000032
 624	6.1989e+01	15.1728	43.926055	0.000223	2.229623	0.755417	-0.000089
 625	6.2088e+01	15.1327	43.829164	0.000243	2.432316	0.824091	-0.000097
 626	6.2188e+01	15.0958	43.764570	0.000162	1.621544	0.549394	-0.000065
 627	6.2287e+01	15.0493	43.699976	0.000162	1.621544	0.549394	-0.000065
 628	6.2386e+01	15.0204	43.570787	0.000324	3.243087	1.098788	-0.000130
 629	6.2486e+01	14.9819	43.510230	0.000152	1.520197	0.515057	-0.000061
 630	6.2586e+01	14.9338	43.413339	0.000243	2.432316	0.824091	-0.000097
 631	6.2685e+01	14.8937	43.296262	0.000294	2.939048	0.995776	-0.000118
 632	6.2785e+01	14.8520	43.223594	0.000182	1.824237	0.618068	-0.000073
 633	6.2884e+01	14.8199	43.114591	0.000274	2.736355	0.927102	-0.000110
 634	6.2983e+01	14.7830	43.017700	0.000243	2.432316	0.824091	-0.000097
 635	6.3083e+01	14.7333	42.932920	0.000213	2.128276	0.721079	-0.000085
 636	6.3182e+01	14.6948	42.831992	0.000253	2.533662	0.858428	-0.000101
 637	6.3282e+01	14.6659	42.739137	0.000233	2.330969	0.789754	-0.000093
 638	6.3382e+01	14.6226	42.674543	0.000162	1.621544	0.549394	-0.000065
 639	6.3481e+01	14.5664	42.569578	0.000264	2.635009	0.892765	-0.000105
 640	6.3581e+01	14.5343	42.533244	0.000091	0.912118	0.309034	-0.000037
 641	6.3680e+01	14.4991	42.428278	0.000264	2.635009	0.892765	-0.000105
 642	6.3779e+01	14.4573	42.375795	0.000132	1.317504	0.446383	-0.000053
 643	6.3879e+01	14.4204	42.242570	0.000334	3.344434	1.133125	-0.000134
 644	6.3978e+01	14.3707	42.186050	0.000142	1.418851	0.480720	-0.000057
 645	6.4078e+01	14.3354	42.085122	0.000253	2.533662	0.858428	-0.000101
 646	6.4177e+01	14.2905	41.988230	0.000243	2.432316	0.824091	-0.000097
 647	6.4277e+01	14.2568	41.903450	0.000213	2.128276	0.721079	-0.000085
 648	6.4376e+01	14.2119	41.826745	0.000193	1.925583	0.652405	-0.000077
 649	6.4476e+01	14.1814	41.701594	0.000314	3.141741	1.064451	-0.000126
 650	6.4576e+01	14.1445	41.624888	0.000193	1.925583	0.652405	-0.000077
 651	6.4675e+01	14.1012	41.527997	0.000243	2.432316	0.824091	-0.000097
 652	6.4775e+01	14.0579	41.398808	0.000324	3.243087	1.098788	-0.000130
 653	6.4874e+01	14.0178	41.289806	0.000274	2.736355	0.927102	-0.000110
 654	6.4974e+01	13.9777	41.156580	0.000334	3.344434	1.133125	-0.000134
 655	6.5073e+01	13.9424	41.075838	0.000203	2.026930	0.686742	-0.000081
 656	6.5172e+01	13.8991	40.991058	0.000213	2.128276	0.721079	-0.000085
 657	6.5272e+01	13.8590	40.934538	0.000142	1.418851	0.480720	-0.000057
 658	6.5371e+01	13.8157	40.873981	0.000152	1.520197	0.515057	-0.000061
 659	6.5471e+01	13.7836	40.801312	0.000182	1.824237	0.618068	-0.000073
 660	6.5570e+01	13.7370	40.692310	0.000274	2.736355	0.927102	-0.000110
 661	6.5670e+01	13.6889	40.647901	0.000111	1.114811	0.377708	-0.000045
 662	6.5769e+01	13.6536	40.518713	0.000324	3.243087	1.098788	-0.000130
 663	6.5869e+01	13.6231	40.405673	0.000284	2.837702	0.961439	-0.000114
 664	6.5969e+01	13.5670	40.316856	0.000223	2.229623	0.755417	-0.000089
 665	6.6068e+01	13.5397	40.228039	0.000223	2.229623	0.755417	-0.000089
 666	6.6168e+01	13.5044	40.139222	0.000223	2.229623	0.755417	-0.000089
 667	6.6267e+01	13.4627	40.042331	0.000243	2.432316	0.824091	-0.000097
 668	6.6367e+01	13.4242	39.929291	0.000284	2.837702	0.961439	-0.000114
 669	6.6466e+01	13.3809	39.836437	0.000233	2.330969	0.789754	-0.000093
 670	6.6566e+01	13.3472	39.763768	0.000182	1.824237	0.618068	-0.000073
 671	6.6665e+01	13.2975	39.598246	0.000416	4.155206	1.407822	-0.000166
 672	6.6764e+01	13.2590	39.513466	0.000213	2.128276	0.721079	-0.000085
 673	6.6864e+01	13.2221	39.416575	0.000243	2.432316	0.824091	-0.000097
 674	6.6963e+01	13.1788	39.327758	0.000223	2.229623	0.755417	-0.000089
 675	6.7063e+01	13.1371	39.251052	0.000193	1.925583	0.652405	-0.000077
 676	6.7162e+01	13.1050	39.085530	0.000416	4.155206	1.407822	-0.000166
 677	6.7262e+01	13.0713	39.057270	0.000071	0.709425	0.240360	-0.000028
 678	6.7362e+01	13.0216	38.980564	0.000193	1.925583	0.652405	-0.000077
 679	6.7461e+01	12.9782	38.911933	0.000172	1.722890	0.583731	-0.000069
 680	6.7561e+01	12.9397	38.815042	0.000243	2.432316	0.824091	-0.000097
 681	6.7660e+01	12.9109	38.685853	0.000324	3.243087	1.098788	-0.000130
 682	6.7760e+01	12.8643	38.629333	0.000142	1.418851	0.480720	-0.000057
 683	6.7859e+01	12.8307	38.488034	0.000355	3.547127	1.201799	-0.000142
 684	6.7959e+01	12.7825	38.411328	0.000193	1.925583	0.652405	-0.000077
 685	6.8058e+01	12.7408	38.334622	0.000193	1.925583	0.652405	-0.000077
 686	6.8157e+01	12.7087	38.185248	0.000375	3.749820	1.270473	-0.000150
 687	6.8257e+01	12.6670	38.088357	0.000243	2.432316	0.824091	-0.000097
 688	6.8356e+01	12.6333	37.971280	0.000294	2.939048	0.995776	-0.000118
 689	6.8456e+01	12.5836	37.842092	0.000324	3.243087	1.098788	-0.000130
 690	6.8555e+01	12.5387	37.753275	0.000223	2.229623	0.755417	-0.000089
 691	6.8655e+01	12.5066	37.644272	0.000274	2.736355	0.927102	-0.000110
 692	6.8754e+01	12.4697	37.575641	0.000172	1.722890	0.583731	-0.000069
 693	6.8854e+01	12.4264	37.486824	0.000223	2.229623	0.755417	-0.000089
 694	6.8954e+01	12.3863	37.410118	0.000193	1.925583	0.652405	-0.000077
 695	6.9053e+01	12.3414	37.329376	0.000203	2.026930	0.686742	-0.000081
 696	6.9153e+01	12.2997	37.208262	0.000304	3.040395	1.030114	-0.000122
 697	6.9252e+01	12.2660	37.139630	0.000172	1.722890	0.583731	-0.000069
 698	6.9352e+01	12.2243	37.034665	0.000264	2.635009	0.892765	-0.000105
 699	6.9451e+01	12.1938	36.921625	0.000284	2.837702	0.961439	-0.000114
 700	6.9550e+01	12.1521	36.828771	0.000233	2.330969	0.789754	-0.000093
 701	6.9650e+01	12.1104	36.760139	0.000172	1.722890	0.583731	-0.000069
 702	6.9749e+01	12.0702	36.598654	0.000405	4.053859	1.373485	-0.000162
 703	6.9849e+01	12.0221	36.534060	0.000162	1.621544	0.549394	-0.000065
 704	6.9948e+01	11.9884	36.388723	0.000365	3.648473	1.236136	-0.000146
 705	7.0048e+01	11.9435	36.303943	0.000213	2.128276	0.721079	-0.000085
 706	7.0147e+01	11.9050	36.162643	0.000355	3.547127	1.201799	-0.000142
 707	7.0247e+01	11.8665	36.057678	0.000264	2.635009	0.892765	-0.000105
 708	7.0347e+01	11.8264	35.936564	0.000304	3.040395	1.030114	-0.000122
 709	7.0446e+01	11.7895	35.843710	0.000233	2.330969	0.789754	-0.000093
 710	7.0546e+01	11.7526	35.738744	0.000264	2.635009	0.892765	-0.000105
 711	7.0645e+01	11.7061	35.629741	0.000274	2.736355	0.927102	-0.000110
 712	7.0745e+01	11.6644	35.548999	0.000203	2.026930	0.686742	-0.000081
 713	7.0844e+01	11.6243	35.508627	0.000101	1.013465	0.343371	-0.000041
 714	7.0944e+01	11.5906	35.399625	0.000274	2.736355	0.927102	-0.000110
 715	7.1043e+01	11.5505	35.278511	0.000304	3.040395	1.030114	-0.000122
 716	7.1142e+01	11.5120	35.181619	0.000243	2.432316	0.824091	-0.000097
 717	7.1242e+01	11.4687	35.060505	0.000304	3.040395	1.030114	-0.000122
 718	7.1341e+01	11.4350	34.971688	0.000223	2.229623	0.755417	-0.000089
 719	7.1441e+01	11.3917	34.874797	0.000243	2.432316	0.824091	-0.000097
 720	7.1540e+01	11.3532	34.769832	0.000264	2.635009	0.892765	-0.000105
 721	7.1640e+01	11.3018	34.713312	0.000142	1.418851	0.480720	-0.000057
 722	7.1740e+01	11.2762	34.535678	0.000446	4.459245	1.510833	-0.000179
 723	7.1839e+01	11.2264	34.450898	0.000213	2.128276	0.721079	-0.000085
 724	7.1939e+01	11.1863	34.366118	0.000213	2.128276	0.721079	-0.000085
 725	7.2038e+01	11.1478	34.220781	0.000365	3.648473	1.236136	-0.000146
 726	7.2138e+01	11.1141	34.095630	0.000314	3.141741	1.064451	-0.000126
 727	7.2237e+01	11.0692	33.982590	0.000284	2.837702	0.961439	-0.000114
 728	7.2337e+01	11.0355	33.897810	0.000213	2.128276	0.721079	-0.000085
 729	7.2436e+01	10.9922	33.796882	0.000253	2.533662	0.858428	-0.000101
 730	7.2535e+01	10.9601	33.699991	0.000243	2.432316	0.824091	-0.000097
 731	7.2635e+01	10.9280	33.627322	0.000182	1.824237	0.618068	-0.000073
 732	7.2734e+01	10.8639	33.514282	0.000284	2.837702	0.961439	-0.000114
 733	7.2834e+01	10.8286	33.445651	0.000172	1.722890	0.583731	-0.000069
 734	7.2933e+01	10.7901	33.300314	0.000365	3.648473	1.236136	-0.000146
 735	7.3033e+01	10.7532	33.272054	0.000071	0.709425	0.240360	-0.000028
 736	7.3132e+01	10.7163	33.138829	0.000334	3.344434	1.133125	-0.000134
 737	7.3232e+01	10.6746	33.058086	0.000203	2.026930	0.686742	-0.000081
 738	7.3332e+01	10.6329	32.928898	0.000324	3.243087	1.098788	-0.000130
 739	7.3431e+01	10.6040	32.832006	0.000243	2.432316	0.824091	-0.000097
 740	7.3531e+01	10.5494	32.735115	0.000243	2.432316	0.824091	-0.000097
 741	7.3630e+01	10.5254	32.626112	0.000274	2.736355	0.927102	-0.000110
 742	7.3730e+01	10.4772	32.480776	0.000365	3.648473	1.236136	-0.000146
 743	7.3829e+01	10.4452	32.359662	0.000304	3.040395	1.030114	-0.000122
 744	7.3928e+01	10.3938	32.266807	0.000233	2.330969	0.789754	-0.000093
 745	7.4028e+01	10.3569	32.161842	0.000264	2.635009	0.892765	-0.000105
 746	7.4127e+01	10.3184	32.105322	0.000142	1.418851	0.480720	-0.000057
 747	7.4227e+01	10.2703	31.927688	0.000446	4.459245	1.510833	-0.000179
 748	7.4326e+01	10.2318	31.887317	0.000101	1.013465	0.343371	-0.000041
 749	7.4426e+01	10.2013	31.798500	0.000223	2.229623	0.755417	-0.000089
 750	7.4525e+01	10.1532	31.665274	0.000334	3.344434	1.133125	-0.000134
 751	7.4625e+01	10.1099	31.620866	0.000111	1.114811	0.377708	-0.000045
 752	7.4725e+01	10.0794	31.495714	0.000314	3.141741	1.064451	-0.000126
 753	7.4824e+01	10.0409	31.398823	0.000243	2.432316	0.824091	-0.000097
 754	7.4924e+01	9.9928	31.277709	0.000304	3.040395	1.030114	-0.000122
 755	7.5023e+01	9.9511	31.192929	0.000213	2.128276	0.721079	-0.000085
 756	7.5123e+01	9.9142	31.079889	0.000284	2.837702	0.961439	-0.000114
 757	7.5222e+01	9.8724	30.962813	0.000294	2.939048	0.995776	-0.000118
 758	7.5322e+01	9.8372	30.857847	0.000264	2.635009	0.892765	-0.000105
 759	7.5421e+01	9.8003	30.736733	0.000304	3.040395	1.030114	-0.000122
 760	7.5520e+01	9.7569	30.615619	0.000304	3.040395	1.030114	-0.000122
 761	7.5620e+01	9.7168	30.498542	0.000294	2.939048	0.995776	-0.000118
 762	7.5719e+01	9.6831	30.433948	0.000162	1.621544	0.549394	-0.000065
 763	7.5819e+01	9.6366	30.296685	0.000345	3.445780	1.167462	-0.000138
 764	7.5918e+01	9.5981	30.203831	0.000233	2.330969	0.789754	-0.000093
 765	7.6018e+01	9.5532	30.123088	0.000203	2.026930	0.686742	-0.000081
 766	7.6118e+01	9.5211	30.050420	0.000182	1.824237	0.618068	-0.000073
 767	7.6217e+01	9.4778	29.892972	0.000395	3.952513	1.339148	-0.000158
 768	7.6317e+01	9.4361	29.844526	0.000122	1.216158	0.412045	-0.000049
 769	7.6416e+01	9.3944	29.755709	0.000223	2.229623	0.755417	-0.000089
 770	7.6516e+01	9.3687	29.634595	0.000304	3.040395	1.030114	-0.000122
 771	7.6615e+01	9.3110	29.545778	0.000223	2.229623	0.755417	-0.000089
 772	7.6715e+01	9.2837	29.408515	0.000345	3.445780	1.167462	-0.000138
 773	7.6814e+01	9.2275	29.311624	0.000243	2.432316	0.824091	-0.000097
 774	7.6913e+01	9.1987	29.210696	0.000253	2.533662	0.858428	-0.000101
 775	7.7013e+01	9.1457	29.077470	0.000334	3.344434	1.133125	-0.000134
 776	7.7112e+01	9.1169	29.016913	0.000152	1.520197	0.515057	-0.000061
 777	7.7212e+01	9.0864	28.879651	0.000345	3.445780	1.167462	-0.000138
 778	7.7311e+01	9.0350	28.714128	0.000416	4.155206	1.407822	-0.000166
 779	7.7411e+01	8.9949	28.625311	0.000223	2.229623	0.755417	-0.000089
 780	7.7510e+01	8.9564	28.504197	0.000304	3.040395	1.030114	-0.000122
 781	7.7610e+01	8.9163	28.391157	0.000284	2.837702	0.961439	-0.000114
 782	7.7710e+01	8.8698	28.310414	0.000203	2.026930	0.686742	-0.000081
 783	7.7809e+01	8.8361	28.249857	0.000152	1.520197	0.515057	-0.000061
 784	7.7909e+01	8.8040	28.132780	0.000294	2.939048	0.995776	-0.000118
 785	7.8008e+01	8.7655	28.035889	0.000243	2.432316	0.824091	-0.000097
 786	7.8108e+01	8.7110	27.951109	0.000213	2.128276	0.721079	-0.000085
 787	7.8207e+01	8.6789	27.821921	0.000324	3.243087	1.098788	-0.000130
 788	7.8306e+01	8.6356	27.720993	0.000253	2.533662	0.858428	-0.000101
 789	7.8406e+01	8.5891	27.603916	0.000294	2.939048	0.995776	-0.000118
 790	7.8505e+01	8.5618	27.539321	0.000162	1.621544	0.549394	-0.000065
 791	7.8605e+01	8.5217	27.393985	0.000365	3.648473	1.236136	-0.000146
 792	7.8704e+01	8.4848	27.313242	0.000203	2.026930	0.686742	-0.000081
 793	7.8804e+01	8.4447	27.220388	0.000233	2.330969	0.789754	-0.000093
 794	7.8903e+01	8.4014	27.119459	0.000253	2.533662	0.858428	-0.000101
 795	7.9003e+01	8.3645	26.945862	0.000436	4.357899	1.476496	-0.000174
 796	7.9103e+01	8.3292	26.853008	0.000233	2.330969	0.789754	-0.000093
 797	7.9202e+01	8.2827	26.739969	0.000284	2.837702	0.961439	-0.000114
 798	7.9302e+01	8.2458	26.614817	0.000314	3.141741	1.064451	-0.000126
 799	7.9401e+01	8.2040	26.517926	0.000243	2.432316	0.824091	-0.000097
 800	7.9501e+01	8.1591	26.433146	0.000213	2.128276	0.721079	-0.000085
 801	7.9600e+01	8.1206	26.316069	0.000294	2.939048	0.995776	-0.000118
 802	7.9700e+01	8.0789	26.198992	0.000294	2.939048	0.995776	-0.000118
 803	7.9799e+01	8.0404	26.170732	0.000071	0.709425	0.240360	-0.000028
 804	7.9898e+01	8.0083	26.013284	0.000395	3.952513	1.339148	-0.000158
 805	7.9998e+01	7.9586	25.944653	0.000172	1.722890	0.583731	-0.000069
 806	8.0097e+01	7.9169	25.803353	0.000355	3.547127	1.201799	-0.000142
 807	8.0197e+01	7.8896	25.779130	0.000061	0.608079	0.206023	-0.000024
 808	8.0296e+01	7.8447	25.625719	0.000385	3.851166	1.304810	-0.000154
 809	8.0396e+01	7.8046	25.504605	0.000304	3.040395	1.030114	-0.000122
 810	8.0496e+01	7.7661	25.355231	0.000375	3.749820	1.270473	-0.000150
 811	8.0595e+01	7.7292	25.254303	0.000253	2.533662	0.858428	-0.000101
 812	8.0695e+01	7.6843	25.125114	0.000324	3.243087	1.098788	-0.000130
 813	8.0794e+01	7.6426	25.044372	0.000203	2.026930	0.686742	-0.000081
 814	8.0894e+01	7.5976	24.903072	0.000355	3.547127	1.201799	-0.000142
 815	8.0993e+01	7.5672	24.737549	0.000416	4.155206	1.407822	-0.000166
 816	8.1093e+01	7.5174	24.648732	0.000223	2.229623	0.755417	-0.000089
 817	8.1192e+01	7.4837	24.539730	0.000274	2.736355	0.927102	-0.000110
 818	8.1291e+01	7.4501	24.426690	0.000284	2.837702	0.961439	-0.000114
 819	8.1391e+01	7.4035	24.337873	0.000223	2.229623	0.755417	-0.000089
 820	8.1490e+01	7.3634	24.228870	0.000274	2.736355	0.927102	-0.000110
 821	8.1590e+01	7.3217	24.176387	0.000132	1.317504	0.446383	-0.000053
 822	8.1689e+01	7.2768	24.031050	0.000365	3.648473	1.236136	-0.000146
 823	8.1789e+01	7.2447	23.926085	0.000264	2.635009	0.892765	-0.000105
 824	8.1888e+01	7.2094	23.788822	0.000345	3.445780	1.167462	-0.000138
 825	8.1988e+01	7.1645	23.667708	0.000304	3.040395	1.030114	-0.000122
 826	8.2088e+01	7.1180	23.550631	0.000294	2.939048	0.995776	-0.000118
 827	8.2187e+01	7.0843	23.482000	0.000172	1.722890	0.583731	-0.000069
 828	8.2287e+01	7.0426	23.336663	0.000365	3.648473	1.236136	-0.000146
 829	8.2386e+01	7.0057	23.227660	0.000274	2.736355	0.927102	-0.000110
 830	8.2486e+01	6.9656	23.074249	0.000385	3.851166	1.304810	-0.000154
 831	8.2585e+01	6.9239	22.945061	0.000324	3.243087	1.098788	-0.000130
 832	8.2684e+01	6.8854	22.844133	0.000253	2.533662	0.858428	-0.000101
 833	8.2784e+01	6.8308	22.718981	0.000314	3.141741	1.064451	-0.000126
 834	8.2883e+01	6.8084	22.601904	0.000294	2.939048	0.995776	-0.000118
 835	8.2983e+01	6.7715	22.488865	0.000284	2.837702	0.961439	-0.000114
 836	8.3082e+01	6.7298	22.371788	0.000294	2.939048	0.995776	-0.000118
 837	8.3182e+01	6.6864	22.274896	0.000243	2.432316	0.824091	-0.000097
 838	8.3281e+01	6.6447	22.182042	0.000233	2.330969	0.789754	-0.000093
 839	8.3381e+01	6.6014	22.073040	0.000274	2.736355	0.927102	-0.000110
 840	8.3481e+01	6.5725	21.955963	0.000294	2.939048	0.995776	-0.000118
 841	8.3580e+01	6.5260	21.855034	0.000253	2.533662	0.858428	-0.000101
 842	8.3680e+01	6.4891	21.758143	0.000243	2.432316	0.824091	-0.000097
 843	8.3779e+01	6.4442	21.588583	0.000426	4.256552	1.442159	-0.000170
 844	8.3879e+01	6.4121	21.467469	0.000304	3.040395	1.030114	-0.000122
 845	8.3978e+01	6.3640	21.390764	0.000193	1.925583	0.652405	-0.000077
 846	8.4078e+01	6.3271	21.253501	0.000345	3.445780	1.167462	-0.000138
 847	8.4177e+01	6.3030	21.112201	0.000355	3.547127	1.201799	-0.000142
 848	8.4276e+01	6.2501	20.966864	0.000365	3.648473	1.236136	-0.000146
 849	8.4376e+01	6.2116	20.825565	0.000355	3.547127	1.201799	-0.000142
 850	8.4475e+01	6.1811	20.724636	0.000253	2.533662	0.858428	-0.000101
 851	8.4575e+01	6.1282	20.591411	0.000334	3.344434	1.133125	-0.000134
 852	8.4674e+01	6.0945	20.502594	0.000223	2.229623	0.755417	-0.000089
 853	8.4774e+01	6.0576	20.337071	0.000416	4.155206	1.407822	-0.000166
 854	8.4874e+01	6.0127	20.264403	0.000182	1.824237	0.618068	-0.000073
 855	8.4973e+01	5.9774	20.199809	0.000162	1.621544	0.549394	-0.000065
 856	8.5073e+01	5.9341	20.070620	0.000324	3.243087	1.098788	-0.000130
 857	8.5172e+01	5.8956	19.961618	0.000274	2.736355	0.927102	-0.000110
 858	8.5272e+01	5.8506	19.824355	0.000345	3.445780	1.167462	-0.000138
 859	8.5371e+01	5.8089	19.691130	0.000334	3.344434	1.133125	-0.000134
 860	8.5471e+01	5.7768	19.610387	0.000203	2.026930	0.686742	-0.000081
 861	8.5570e+01	5.7432	19.432753	0.000446	4.459245	1.510833	-0.000179
 862	8.5669e+01	5.6822	19.319713	0.000284	2.837702	0.961439	-0.000114
 863	8.5769e+01	5.6517	19.206673	0.000284	2.837702	0.961439	-0.000114
 864	8.5868e+01	5.6212	19.081522	0.000314	3.141741	1.064451	-0.000126
 865	8.5968e+01	5.5715	18.903888	0.000446	4.459245	1.510833	-0.000179
 866	8.6067e+01	5.5282	18.766625	0.000345	3.445780	1.167462	-0.000138
 867	8.6167e+01	5.4929	18.657623	0.000274	2.736355	0.927102	-0.000110
 868	8.6266e+01	5.4576	18.532472	0.000314	3.141741	1.064451	-0.000126
 869	8.6366e+01	5.4223	18.419432	0.000284	2.837702	0.961439	-0.000114
 870	8.6466e+01	5.3774	18.310429	0.000274	2.736355	0.927102	-0.000110
 871	8.6565e+01	5.3389	18.185278	0.000314	3.141741	1.064451	-0.000126
 872	8.6665e+01	5.3036	18.043978	0.000355	3.547127	1.201799	-0.000142
 873	8.6764e+01	5.2539	18.003607	0.000101	1.013465	0.343371	-0.000041
 874	8.6864e+01	5.2186	17.870381	0.000334	3.344434	1.133125	-0.000134
 875	8.6963e+01	5.1801	17.761379	0.000274	2.736355	0.927102	-0.000110
 876	8.7063e+01	5.1351	17.575670	0.000466	4.661938	1.579507	-0.000187
 877	8.7162e+01	5.0966	17.478779	0.000243	2.432316	0.824091	-0.000097
 878	8.7261e+01	5.0565	17.373814	0.000264	2.635009	0.892765	-0.000105
 879	8.7361e+01	5.0132	17.216365	0.000395	3.952513	1.339148	-0.000158
 880	8.7460e+01	4.9763	17.111400	0.000264	2.635009	0.892765	-0.000105
 881	8.7560e+01	4.9298	16.970100	0.000355	3.547127	1.201799	-0.000142
 882	8.7659e+01	4.8993	16.836875	0.000334	3.344434	1.133125	-0.000134
 883	8.7759e+01	4.8608	16.663278	0.000436	4.357899	1.476496	-0.000174
 884	8.7859e+01	4.8159	16.558312	0.000264	2.635009	0.892765	-0.000105
 885	8.7958e+01	4.7822	16.380678	0.000446	4.459245	1.510833	-0.000179
 886	8.8058e+01	4.7421	16.271676	0.000274	2.736355	0.927102	-0.000110
 887	8.8157e+01	4.6956	16.162673	0.000274	2.736355	0.927102	-0.000110
 888	8.8257e+01	4.6603	16.069819	0.000233	2.330969	0.789754	-0.000093
 889	8.8356e+01	4.6074	15.940630	0.000324	3.243087	1.098788	-0.000130
 890	8.8456e+01	4.5769	15.827591	0.000284	2.837702	0.961439	-0.000114
 891	8.8555e+01	4.5400	15.722625	0.000264	2.635009	0.892765	-0.000105
 892	8.8654e+01	4.4999	15.609585	0.000284	2.837702	0.961439	-0.000114
 893	8.8754e+01	4.4646	15.476360	0.000334	3.344434	1.133125	-0.000134
 894	8.8853e+01	4.4165	15.367357	0.000274	2.736355	0.927102	-0.000110
 895	8.8953e+01	4.3812	15.209909	0.000395	3.952513	1.339148	-0.000158
 896	8.9052e+01	4.3362	15.153389	0.000142	1.418851	0.480720	-0.000057
 897	8.9152e+01	4.2849	14.971718	0.000456	4.560592	1.545170	-0.000183
 898	8.9251e+01	4.2576	14.854641	0.000294	2.939048	0.995776	-0.000118
 899	8.9351e+01	4.2111	14.709304	0.000365	3.648473	1.236136	-0.000146
 900	8.9451e+01	4.1726	14.543781	0.000416	4.155206	1.407822	-0.000166
 901	8.9550e+01	4.1437	14.434779	0.000274	2.736355	0.927102	-0.000110
 902	8.9650e+01	4.1004	14.301553	0.000334	3.344434	1.133125	-0.000134
 903	8.9749e+01	4.0587	14.131994	0.000426	4.256552	1.442159	-0.000170
 904	8.9849e+01	4.0218	14.043177	0.000223	2.229623	0.755417	-0.000089
 905	8.9948e+01	3.9833	13.913988	0.000324	3.243087	1.098788	-0.000130
 906	9.0047e+01	3.9368	13.817097	0.000243	2.432316	0.824091	-0.000097
 907	9.0147e+01	3.8951	13.712132	0.000264	2.635009	0.892765	-0.000105
 908	9.0246e+01	3.8486	13.566795	0.000365	3.648473	1.236136	-0.000146
 909	9.0346e+01	3.8229	13.457792	0.000274	2.736355	0.927102	-0.000110
 910	9.0445e+01	3.7828	13.364938	0.000233	2.330969	0.789754	-0.000093
 911	9.0545e+01	3.7459	13.227675	0.000345	3.445780	1.167462	-0.000138
 912	9.0644e+01	3.7042	13.066190	0.000405	4.053859	1.373485	-0.000162
 913	9.0744e+01	3.6593	12.989484	0.000193	1.925583	0.652405	-0.000077
 914	9.0844e+01	3.6191	12.864333	0.000314	3.141741	1.064451	-0.000126
 915	9.0943e+01	3.5790	12.739182	0.000314	3.141741	1.064451	-0.000126
 916	9.1043e+01	3.5486	12.569622	0.000426	4.256552	1.442159	-0.000170
 917	9.1142e+01	3.4972	12.424285	0.000365	3.648473	1.236136	-0.000146
 918	9.1242e+01	3.4619	12.262800	0.000405	4.053859	1.373485	-0.000162
 919	9.1341e+01	3.4186	12.169946	0.000233	2.330969	0.789754	-0.000093
 920	9.1441e+01	3.3801	12.028646	0.000355	3.547127	1.201799	-0.000142
 921	9.1540e+01	3.3368	11.875235	0.000385	3.851166	1.304810	-0.000154
 922	9.1639e+01	3.3031	11.806603	0.000172	1.722890	0.583731	-0.000069
 923	9.1739e+01	3.2550	11.641081	0.000416	4.155206	1.407822	-0.000166
 924	9.1838e+01	3.2229	11.564375	0.000193	1.925583	0.652405	-0.000077
 925	9.1938e+01	3.1796	11.447298	0.000294	2.939048	0.995776	-0.000118
 926	9.2037e+01	3.1363	11.326184	0.000304	3.040395	1.030114	-0.000122
 927	9.2137e+01	3.1058	11.237367	0.000223	2.229623	0.755417	-0.000089
 928	9.2237e+01	3.0561	11.087993	0.000375	3.749820	1.270473	-0.000150
 929	9.2336e+01	3.0176	10.934582	0.000385	3.851166	1.304810	-0.000154
 930	9.2436e+01	2.9871	10.829617	0.000264	2.635009	0.892765	-0.000105
 931	9.2535e+01	2.9422	10.712540	0.000294	2.939048	0.995776	-0.000118
 932	9.2635e+01	2.9069	10.619686	0.000233	2.330969	0.789754	-0.000093
 933	9.2734e+01	2.8652	10.433977	0.000466	4.661938	1.579507	-0.000187
 934	9.2834e+01	2.8218	10.256343	0.000446	4.459245	1.510833	-0.000179
 935	9.2933e+01	2.7721	10.082747	0.000436	4.357899	1.476496	-0.000174
 936	9.3032e+01	2.7448	10.034301	0.000122	1.216158	0.412045	-0.000049
 937	9.3132e+01	2.7047	9.856667	0.000446	4.459245	1.510833	-0.000179
 938	9.3231e+01	2.6630	9.743627	0.000284	2.837702	0.961439	-0.000114
 939	9.3331e+01	2.6309	9.614439	0.000324	3.243087	1.098788	-0.000130
 940	9.3430e+01	2.5796	9.456990	0.000395	3.952513	1.339148	-0.000158
 941	9.3530e+01	2.5539	9.400471	0.000142	1.418851	0.480720	-0.000057
 942	9.3629e+01	2.5074	9.283394	0.000294	2.939048	0.995776	-0.000118
 943	9.3729e+01	2.4689	9.186502	0.000243	2.432316	0.824091	-0.000097
 944	9.3829e+01	2.4224	9.020980	0.000416	4.155206	1.407822	-0.000166
 945	9.3928e+01	2.3823	8.907940	0.000284	2.837702	0.961439	-0.000114
 946	9.4028e+01	2.3454	8.746455	0.000405	4.053859	1.373485	-0.000162
 947	9.4127e+01	2.3021	8.641489	0.000264	2.635009	0.892765	-0.000105
 948	9.4227e+01	2.2684	8.492115	0.000375	3.749820	1.270473	-0.000150
 949	9.4326e+01	2.2170	8.362927	0.000324	3.243087	1.098788	-0.000130
 950	9.4425e+01	2.1898	8.237775	0.000314	3.141741	1.064451	-0.000126
 951	9.4525e+01	2.1513	8.080327	0.000395	3.952513	1.339148	-0.000158
 952	9.4624e+01	2.1031	7.955176	0.000314	3.141741	1.064451	-0.000126
 953	9.4724e+01	2.0598	7.830025	0.000314	3.141741	1.064451	-0.000126
 954	9.4823e+01	2.0181	7.684688	0.000365	3.648473	1.236136	-0.000146
 955	9.4923e+01	1.9828	7.579722	0.000264	2.635009	0.892765	-0.000105
 956	9.5022e+01	1.9475	7.426311	0.000385	3.851166	1.304810	-0.000154
 957	9.5122e+01	1.9042	7.276937	0.000375	3.749820	1.270473	-0.000150
 958	9.5222e+01	1.8770	7.171972	0.000264	2.635009	0.892765	-0.000105
 959	9.5321e+01	1.8240	7.087192	0.000213	2.128276	0.721079	-0.000085
 960	9.5421e+01	1.7887	6.982226	0.000264	2.635009	0.892765	-0.000105
 961	9.5520e+01	1.7454	6.804592	0.000446	4.459245	1.510833	-0.000179
 962	9.5620e+01	1.7021	6.711738	0.000233	2.330969	0.789754	-0.000093
 963	9.5719e+01	1.6716	6.610810	0.000253	2.533662	0.858428	-0.000101
 964	9.5819e+01	1.6267	6.453361	0.000395	3.952513	1.339148	-0.000158
 965	9.5918e+01	1.5898	6.316099	0.000345	3.445780	1.167462	-0.000138
 966	9.6017e+01	1.5577	6.194985	0.000304	3.040395	1.030114	-0.000122
 967	9.6117e+01	1.5064	6.065796	0.000324	3.243087	1.098788	-0.000130
 968	9.6216e+01	1.4727	5.936608	0.000324	3.243087	1.098788	-0.000130
 969	9.6316e+01	1.4278	5.771086	0.000416	4.155206	1.407822	-0.000166
 970	9.6415e+01	1.3925	5.613637	0.000395	3.952513	1.339148	-0.000158
 971	9.6515e+01	1.3492	5.472337	0.000355	3.547127	1.201799	-0.000142
 972	9.6615e+01	1.3203	5.343149	0.000324	3.243087	1.098788	-0.000130
 973	9.6714e+01	1.2706	5.181664	0.000405	4.053859	1.373485	-0.000162
 974	9.6814e+01	1.2304	5.068624	0.000284	2.837702	0.961439	-0.000114
 975	9.6913e+01	1.1903	4.947510	0.000304	3.040395	1.030114	-0.000122
 976	9.7013e+01	1.1518	4.874841	0.000182	1.824237	0.618068	-0.000073
 977	9.7112e+01	1.1053	4.693170	0.000456	4.560592	1.545170	-0.000183
 978	9.7212e+01	1.0732	4.576093	0.000294	2.939048	0.995776	-0.000118
 979	9.7311e+01	1.0315	4.483239	0.000233	2.330969	0.789754	-0.000093
 980	9.7410e+01	0.9866	4.329828	0.000385	3.851166	1.304810	-0.000154
 981	9.7510e+01	0.9449	4.204677	0.000314	3.141741	1.064451	-0.000126
 982	9.7609e+01	0.9080	4.059340	0.000365	3.648473	1.236136	-0.000146
 983	9.7709e+01	0.8551	3.918040	0.000355	3.547127	1.201799	-0.000142
 984	9.7808e+01	0.8326	3.796926	0.000304	3.040395	1.030114	-0.000122
 985	9.7908e+01	0.7909	3.647552	0.000375	3.749820	1.270473	-0.000150
 986	9.8007e+01	0.7508	3.482030	0.000416	4.155206	1.407822	-0.000166
 987	9.8107e+01	0.7059	3.320544	0.000405	4.053859	1.373485	-0.000162
 988	9.8207e+01	0.6674	3.175207	0.000365	3.648473	1.236136	-0.000146
 989	9.8306e+01	0.6224	3.029870	0.000365	3.648473	1.236136	-0.000146
 990	9.8406e+01	0.5888	2.912793	0.000294	2.939048	0.995776	-0.000118
 991	9.8505e+01	0.5486	2.767457	0.000365	3.648473	1.236136	-0.000146
 992	9.8605e+01	0.5118	2.634231	0.000334	3.344434	1.133125	-0.000134
 993	9.8704e+01	0.4716	2.521191	0.000284	2.837702	0.961439	-0.000114
 994	9.8803e+01	0.4283	2.371817	0.000375	3.749820	1.270473	-0.000150
 995	9.8903e+01	0.3914	2.254740	0.000294	2.939048	0.995776	-0.000118
 996	9.9002e+01	0.3513	2.125552	0.000324	3.243087	1.098788	-0.000130
 997	9.9102e+01	0.3144	2.012512	0.000284	2.837702	0.961439	-0.000114
 998	9.9201e+01	0.2711	1.859101	0.000385	3.851166	1.304810	-0.000154
 999	9.9301e+01	0.2278	1.681467	0.000446	4.459245	1.510833	-0.000179
1000	9.9400e+01	0.1861	1.596687	0.000213	2.128276	0.721079	-0.000085
1001	9.9500e+01	0.1508	1.479610	0.000294	2.939048	0.995776	-0.000118
1002	9.9600e+01	0.1091	1.293902	0.000466	4.661938	1.579507	-0.000187
1003	9.9699e+01	0.0786	1.148565	0.000365	3.648473	1.236136	-0.000146
1004	9.9799e+01	0.0353	1.011303	0.000345	3.445780	1.167462	-0.000138
1005	9.9898e+01	0.0128	0.882114	0.000324	3.243087	1.098788	-0.000130
1006	9.9998e+01	-0.0449	0.732740	0.000375	3.749820	1.270473	-0.000150
1007	1.0010e+02	-0.0738	0.583366	0.000375	3.749820	1.270473	-0.000150
1008	1.0020e+02	-0.1219	0.466289	0.000294	2.939048	0.995776	-0.000118
1009	1.0030e+02	-0.1620	0.312878	0.000385	3.851166	1.304810	-0.000154
1010	1.0040e+02	-0.1941	0.171578	0.000355	3.547127	1.201799	-0.000142
1011	1.0050e+02	-0.2374	0.038353	0.000334	3.344434	1.133125	-0.000134
1012	1.0059e+02	-0.2856	-0.127170	0.000416	4.155206	1.407822	-0.000166
1013	1.0069e+02	-0.3225	-0.220024	0.000233	2.330969	0.789754	-0.000093
1014	1.0079e+02	-0.3674	-0.361324	0.000355	3.547127	1.201799	-0.000142
1015	1.0089e+02	-0.3946	-0.450141	0.000223	2.229623	0.755417	-0.000089
1016	1.0099e+02	-0.4396	-0.615663	0.000416	4.155206	1.407822	-0.000166
1017	1.0109e+02	-0.4700	-0.756963	0.000355	3.547127	1.201799	-0.000142
1018	1.0119e+02	-0.5166	-0.882114	0.000314	3.141741	1.064451	-0.000126
1019	1.0129e+02	-0.5631	-1.031488	0.000375	3.749820	1.270473	-0.000150
1020	1.0139e+02	-0.6000	-1.120305	0.000223	2.229623	0.755417	-0.000089
1021	1.0149e+02	-0.6337	-1.326199	0.000517	5.168671	1.751193	-0.000207
1022	1.0159e+02	-0.6802	-1.499796	0.000436	4.357899	1.476496	-0.000174
1023	1.0169e+02	-0.7171	-1.653207	0.000385	3.851166	1.304810	-0.000154
1024	1.0179e+02	-0.7540	-1.774321	0.000304	3.040395	1.030114	-0.000122
1025	1.0189e+02	-0.7909	-1.899472	0.000314	3.141741	1.064451	-0.000126
1026	1.0199e+02	-0.8406	-2.064995	0.000416	4.155206	1.407822	-0.000166
1027	1.0209e+02	-0.8727	-2.186109	0.000304	3.040395	1.030114	-0.000122
1028	1.0219e+02	-0.9176	-2.347594	0.000405	4.053859	1.373485	-0.000162
1029	1.0229e+02	-0.9529	-2.484857	0.000345	3.445780	1.167462	-0.000138
1030	1.0239e+02	-0.9946	-2.589823	0.000264	2.635009	0.892765	-0.000105
1031	1.0248e+02	-1.0395	-2.714974	0.000314	3.141741	1.064451	-0.000126
1032	1.0258e+02	-1.0764	-2.823976	0.000274	2.736355	0.927102	-0.000110
1033	1.0268e+02	-1.1149	-2.993536	0.000426	4.256552	1.442159	-0.000170
1034	1.0278e+02	-1.1534	-3.122724	0.000324	3.243087	1.098788	-0.000130
1035	1.0288e+02	-1.1935	-3.292284	0.000426	4.256552	1.442159	-0.000170
1036	1.0298e+02	-1.2449	-3.356878	0.000162	1.621544	0.549394	-0.000065
1037	1.0308e+02	-1.2738	-3.562772	0.000517	5.168671	1.751193	-0.000207
1038	1.0318e+02	-1.3123	-3.700035	0.000345	3.445780	1.167462	-0.000138
1039	1.0328e+02	-1.3524	-3.873632	0.000436	4.357899	1.476496	-0.000174
1040	1.0338e+02	-1.3941	-3.986672	0.000284	2.837702	0.961439	-0.000114
1041	1.0348e+02	-1.4294	-4.123934	0.000345	3.445780	1.167462	-0.000138
1042	1.0358e+02	-1.4743	-4.289457	0.000416	4.155206	1.407822	-0.000166
1043	1.0368e+02	-1.5112	-4.414608	0.000314	3.141741	1.064451	-0.000126
1044	1.0378e+02	-1.5561	-4.568019	0.000385	3.851166	1.304810	-0.000154
1045	1.0388e+02	-1.5930	-4.701245	0.000334	3.344434	1.133125	-0.000134
1046	1.0398e+02	-1.6203	-4.862730	0.000405	4.053859	1.373485	-0.000162
1047	1.0408e+02	-1.6732	-4.983844	0.000304	3.040395	1.030114	-0.000122
1048	1.0418e+02	-1.7069	-5.137255	0.000385	3.851166	1.304810	-0.000154
1049	1.0428e+02	-1.7470	-5.242221	0.000264	2.635009	0.892765	-0.000105
1050	1.0438e+02	-1.7967	-5.335075	0.000233	2.330969	0.789754	-0.000093
1051	1.0447e+02	-1.8352	-5.512709	0.000446	4.459245	1.510833	-0.000179
1052	1.0457e+02	-1.8737	-5.617674	0.000264	2.635009	0.892765	-0.000105
1053	1.0467e+02	-1.9106	-5.795308	0.000446	4.459245	1.510833	-0.000179
1054	1.0477e+02	-1.9491	-5.880088	0.000213	2.128276	0.721079	-0.000085
1055	1.0487e+02	-1.9973	-6.077908	0.000497	4.965978	1.682519	-0.000199
1056	1.0497e+02	-2.0358	-6.207096	0.000324	3.243087	1.098788	-0.000130
1057	1.0507e+02	-2.0695	-6.320136	0.000284	2.837702	0.961439	-0.000114
1058	1.0517e+02	-2.1031	-6.538141	0.000547	5.472710	1.854204	-0.000219
1059	1.0527e+02	-2.1513	-6.659255	0.000304	3.040395	1.030114	-0.000122
1060	1.0537e+02	-2.1914	-6.784407	0.000314	3.141741	1.064451	-0.000126
1061	1.0547e+02	-2.2315	-6.925706	0.000355	3.547127	1.201799	-0.000142
1062	1.0557e+02	-2.2732	-7.091229	0.000416	4.155206	1.407822	-0.000166
1063	1.0567e+02	-2.2957	-7.196194	0.000264	2.635009	0.892765	-0.000105
1064	1.0577e+02	-2.3454	-7.353643	0.000395	3.952513	1.339148	-0.000158
1065	1.0587e+02	-2.3871	-7.470720	0.000294	2.939048	0.995776	-0.000118
1066	1.0597e+02	-2.4320	-7.555500	0.000213	2.128276	0.721079	-0.000085
1067	1.0607e+02	-2.4737	-7.676614	0.000304	3.040395	1.030114	-0.000122
1068	1.0617e+02	-2.5090	-7.817913	0.000355	3.547127	1.201799	-0.000142
1069	1.0627e+02	-2.5475	-7.934990	0.000294	2.939048	0.995776	-0.000118
1070	1.0637e+02	-2.5876	-8.076290	0.000355	3.547127	1.201799	-0.000142
1071	1.0647e+02	-2.6181	-8.157033	0.000203	2.026930	0.686742	-0.000081
1072	1.0656e+02	-2.6662	-8.314481	0.000395	3.952513	1.339148	-0.000158
1073	1.0666e+02	-2.7112	-8.480004	0.000416	4.155206	1.407822	-0.000166
1074	1.0676e+02	-2.7529	-8.645526	0.000416	4.155206	1.407822	-0.000166
1075	1.0686e+02	-2.7930	-8.770677	0.000314	3.141741	1.064451	-0.000126
1076	1.0696e+02	-2.8299	-8.887754	0.000294	2.939048	0.995776	-0.000118
1077	1.0706e+02	-2.8636	-9.057314	0.000426	4.256552	1.442159	-0.000170
1078	1.0716e+02	-2.9085	-9.194577	0.000345	3.445780	1.167462	-0.000138
1079	1.0726e+02	-2.9502	-9.356062	0.000405	4.053859	1.373485	-0.000162
1080	1.0736e+02	-2.9967	-9.452953	0.000243	2.432316	0.824091	-0.000097
1081	1.0746e+02	-3.0320	-9.565993	0.000284	2.837702	0.961439	-0.000114
1082	1.0756e+02	-3.0753	-9.699219	0.000334	3.344434	1.133125	-0.000134
1083	1.0766e+02	-3.1122	-9.836481	0.000345	3.445780	1.167462	-0.000138
1084	1.0776e+02	-3.1411	-9.917224	0.000203	2.026930	0.686742	-0.000081
1085	1.0786e+02	-3.1908	-10.058524	0.000355	3.547127	1.201799	-0.000142
1086	1.0796e+02	-3.2309	-10.159452	0.000253	2.533662	0.858428	-0.000101
1087	1.0806e+02	-3.2598	-10.288640	0.000324	3.243087	1.098788	-0.000130
1088	1.0816e+02	-3.3111	-10.429940	0.000355	3.547127	1.201799	-0.000142
1089	1.0826e+02	-3.3448	-10.530869	0.000253	2.533662	0.858428	-0.000101
1090	1.0836e+02	-3.3897	-10.688317	0.000395	3.952513	1.339148	-0.000158
1091	1.0845e+02	-3.4218	-10.845765	0.000395	3.952513	1.339148	-0.000158
1092	1.0855e+02	-3.4619	-10.987065	0.000355	3.547127	1.201799	-0.000142
1093	1.0865e+02	-3.4988	-11.104142	0.000294	2.939048	0.995776	-0.000118
1094	1.0875e+02	-3.5373	-11.257553	0.000385	3.851166	1.304810	-0.000154
1095	1.0885e+02	-3.5839	-11.342333	0.000213	2.128276	0.721079	-0.000085
1096	1.0895e+02	-3.6256	-11.507855	0.000416	4.155206	1.407822	-0.000166
1097	1.0905e+02	-3.6673	-11.645118	0.000345	3.445780	1.167462	-0.000138
1098	1.0915e+02	-3.7010	-11.758158	0.000284	2.837702	0.961439	-0.000114
1099	1.0925e+02	-3.7411	-11.879272	0.000304	3.040395	1.030114	-0.000122
1100	1.0935e+02	-3.7892	-12.048832	0.000426	4.256552	1.442159	-0.000170
1101	1.0945e+02	-3.8277	-12.109389	0.000152	1.520197	0.515057	-0.000061
1102	1.0955e+02	-3.8694	-12.206280	0.000243	2.432316	0.824091	-0.000097
1103	1.0965e+02	-3.9031	-12.347580	0.000355	3.547127	1.201799	-0.000142
1104	1.0975e+02	-3.9432	-12.488879	0.000355	3.547127	1.201799	-0.000142
1105	1.0985e+02	-3.9881	-12.569622	0.000203	2.026930	0.686742	-0.000081
1106	1.0995e+02	-4.0250	-12.714959	0.000365	3.648473	1.236136	-0.000146
1107	1.1005e+02	-4.0651	-12.840110	0.000314	3.141741	1.064451	-0.000126
1108	1.1015e+02	-4.1084	-12.969299	0.000324	3.243087	1.098788	-0.000130
1109	1.1025e+02	-4.1405	-13.062153	0.000233	2.330969	0.789754	-0.000093
1110	1.1035e+02	-4.1854	-13.259972	0.000497	4.965978	1.682519	-0.000199
1111	1.1044e+02	-4.2207	-13.373012	0.000284	2.837702	0.961439	-0.000114
1112	1.1054e+02	-4.2544	-13.514312	0.000355	3.547127	1.201799	-0.000142
1113	1.1064e+02	-4.3026	-13.647537	0.000334	3.344434	1.133125	-0.000134
1114	1.1074e+02	-4.3362	-13.764614	0.000294	2.939048	0.995776	-0.000118
1115	1.1084e+02	-4.3796	-13.889766	0.000314	3.141741	1.064451	-0.000126
1116	1.1094e+02	-4.4277	-14.014917	0.000314	3.141741	1.064451	-0.000126
1117	1.1104e+02	-4.4598	-14.127957	0.000284	2.837702	0.961439	-0.000114
1118	1.1114e+02	-4.5127	-14.240996	0.000284	2.837702	0.961439	-0.000114
1119	1.1124e+02	-4.5416	-14.333850	0.000233	2.330969	0.789754	-0.000093
1120	1.1134e+02	-4.5833	-14.430742	0.000243	2.432316	0.824091	-0.000097
1121	1.1144e+02	-4.6154	-14.568004	0.000345	3.445780	1.167462	-0.000138
1122	1.1154e+02	-4.6635	-14.652784	0.000213	2.128276	0.721079	-0.000085
1123	1.1164e+02	-4.7052	-14.777935	0.000314	3.141741	1.064451	-0.000126
1124	1.1174e+02	-4.7277	-14.915198	0.000345	3.445780	1.167462	-0.000138
1125	1.1184e+02	-4.7678	-14.967681	0.000132	1.317504	0.446383	-0.000053
1126	1.1194e+02	-4.8191	-15.141278	0.000436	4.357899	1.476496	-0.000174
1127	1.1204e+02	-4.8624	-15.278540	0.000345	3.445780	1.167462	-0.000138
1128	1.1214e+02	-4.8961	-15.403691	0.000314	3.141741	1.064451	-0.000126
1129	1.1224e+02	-4.9394	-15.536917	0.000334	3.344434	1.133125	-0.000134
1130	1.1234e+02	-4.9747	-15.662068	0.000314	3.141741	1.064451	-0.000126
1131	1.1244e+02	-5.0229	-15.762996	0.000253	2.533662	0.858428	-0.000101
1132	1.1253e+02	-5.0581	-15.871999	0.000274	2.736355	0.927102	-0.000110
1133	1.1263e+02	-5.0966	-16.033485	0.000405	4.053859	1.373485	-0.000162
1134	1.1273e+02	-5.1368	-16.118264	0.000213	2.128276	0.721079	-0.000085
1135	1.1283e+02	-5.1737	-16.247453	0.000324	3.243087	1.098788	-0.000130
1136	1.1293e+02	-5.2170	-16.384715	0.000345	3.445780	1.167462	-0.000138
1137	1.1303e+02	-5.2747	-16.477570	0.000233	2.330969	0.789754	-0.000093
1138	1.1313e+02	-5.3036	-16.538127	0.000152	1.520197	0.515057	-0.000061
1139	1.1323e+02	-5.3373	-16.695575	0.000395	3.952513	1.339148	-0.000158
1140	1.1333e+02	-5.3758	-16.792466	0.000243	2.432316	0.824091	-0.000097
1141	1.1343e+02	-5.4159	-16.909543	0.000294	2.939048	0.995776	-0.000118
1142	1.1353e+02	-5.4544	-17.014509	0.000264	2.635009	0.892765	-0.000105
1143	1.1363e+02	-5.5009	-17.192143	0.000446	4.459245	1.510833	-0.000179
1144	1.1373e+02	-5.5330	-17.305182	0.000284	2.837702	0.961439	-0.000114
1145	1.1383e+02	-5.5779	-17.414185	0.000274	2.736355	0.927102	-0.000110
1146	1.1393e+02	-5.6100	-17.563559	0.000375	3.749820	1.270473	-0.000150
1147	1.1403e+02	-5.6533	-17.632190	0.000172	1.722890	0.583731	-0.000069
1148	1.1413e+02	-5.6982	-17.817899	0.000466	4.661938	1.579507	-0.000187
1149	1.1423e+02	-5.7383	-17.914790	0.000243	2.432316	0.824091	-0.000097
1150	1.1433e+02	-5.7768	-18.048015	0.000334	3.344434	1.133125	-0.000134
1151	1.1442e+02	-5.8202	-18.165092	0.000294	2.939048	0.995776	-0.000118
1152	1.1452e+02	-5.8554	-18.253909	0.000223	2.229623	0.755417	-0.000089
1153	1.1462e+02	-5.8988	-18.366949	0.000284	2.837702	0.961439	-0.000114
1154	1.1472e+02	-5.9308	-18.528434	0.000405	4.053859	1.373485	-0.000162
1155	1.1482e+02	-5.9726	-18.597066	0.000172	1.722890	0.583731	-0.000069
1156	1.1492e+02	-6.0175	-18.738366	0.000355	3.547127	1.201799	-0.000142
1157	1.1502e+02	-6.0656	-18.782774	0.000111	1.114811	0.377708	-0.000045
1158	1.1512e+02	-6.1009	-18.936185	0.000385	3.851166	1.304810	-0.000154
1159	1.1522e+02	-6.1426	-19.073448	0.000345	3.445780	1.167462	-0.000138
1160	1.1532e+02	-6.1779	-19.146116	0.000182	1.824237	0.618068	-0.000073
1161	1.1542e+02	-6.2132	-19.267230	0.000304	3.040395	1.030114	-0.000122
1162	1.1552e+02	-6.2533	-19.444864	0.000446	4.459245	1.510833	-0.000179
1163	1.1562e+02	-6.2950	-19.553867	0.000274	2.736355	0.927102	-0.000110
1164	1.1572e+02	-6.3335	-19.699204	0.000365	3.648473	1.236136	-0.000146
1165	1.1582e+02	-6.3784	-19.796095	0.000243	2.432316	0.824091	-0.000097
1166	1.1592e+02	-6.4169	-19.933358	0.000345	3.445780	1.167462	-0.000138
1167	1.1602e+02	-6.4570	-20.038323	0.000264	2.635009	0.892765	-0.000105
1168	1.1612e+02	-6.4939	-20.147326	0.000274	2.736355	0.927102	-0.000110
1169	1.1622e+02	-6.5356	-20.284589	0.000345	3.445780	1.167462	-0.000138
1170	1.1632e+02	-6.5677	-20.425888	0.000355	3.547127	1.201799	-0.000142
1171	1.1642e+02	-6.6094	-20.486445	0.000152	1.520197	0.515057	-0.000061
1172	1.1651e+02	-6.6479	-20.643894	0.000395	3.952513	1.339148	-0.000158
1173	1.1661e+02	-6.6993	-20.720599	0.000193	1.925583	0.652405	-0.000077
1174	1.1671e+02	-6.7298	-20.821528	0.000253	2.533662	0.858428	-0.000101
1175	1.1681e+02	-6.7779	-20.890159	0.000172	1.722890	0.583731	-0.000069
1176	1.1691e+02	-6.8228	-21.051644	0.000405	4.053859	1.373485	-0.000162
1177	1.1701e+02	-6.8501	-21.136424	0.000213	2.128276	0.721079	-0.000085
1178	1.1711e+02	-6.8838	-21.273687	0.000345	3.445780	1.167462	-0.000138
1179	1.1721e+02	-6.9303	-21.366541	0.000233	2.330969	0.789754	-0.000093
1180	1.1731e+02	-6.9624	-21.523989	0.000395	3.952513	1.339148	-0.000158
1181	1.1741e+02	-7.0105	-21.685475	0.000405	4.053859	1.373485	-0.000162
1182	1.1751e+02	-7.0474	-21.782366	0.000243	2.432316	0.824091	-0.000097
1183	1.1761e+02	-7.0859	-21.883294	0.000253	2.533662	0.858428	-0.000101
1184	1.1771e+02	-7.1228	-22.012483	0.000324	3.243087	1.098788	-0.000130
1185	1.1781e+02	-7.1709	-22.117448	0.000264	2.635009	0.892765	-0.000105
1186	1.1791e+02	-7.2030	-22.238562	0.000304	3.040395	1.030114	-0.000122
1187	1.1801e+02	-7.2479	-22.379862	0.000355	3.547127	1.201799	-0.000142
1188	1.1811e+02	-7.2977	-22.432345	0.000132	1.317504	0.446383	-0.000053
1189	1.1821e+02	-7.3297	-22.593830	0.000405	4.053859	1.373485	-0.000162
1190	1.1831e+02	-7.3666	-22.694759	0.000253	2.533662	0.858428	-0.000101
1191	1.1841e+02	-7.4132	-22.787613	0.000233	2.330969	0.789754	-0.000093
1192	1.1850e+02	-7.4517	-22.872393	0.000213	2.128276	0.721079	-0.000085
1193	1.1860e+02	-7.4886	-23.013692	0.000355	3.547127	1.201799	-0.000142
1194	1.1870e+02	-7.5319	-23.086361	0.000182	1.824237	0.618068	-0.000073
1195	1.1880e+02	-7.5672	-23.223623	0.000345	3.445780	1.167462	-0.000138
1196	1.1890e+02	-7.6089	-23.340700	0.000294	2.939048	0.995776	-0.000118
1197	1.1900e+02	-7.6538	-23.473926	0.000334	3.344434	1.133125	-0.000134
1198	1.1910e+02	-7.6827	-23.570817	0.000243	2.432316	0.824091	-0.000097
1199	1.1920e+02	-7.7180	-23.740377	0.000426	4.256552	1.442159	-0.000170
1200	1.1930e+02	-7.7549	-23.853417	0.000284	2.837702	0.961439	-0.000114
1201	1.1940e+02	-7.8062	-23.918011	0.000162	1.621544	0.549394	-0.000065
1202	1.1950e+02	-7.8431	-24.075459	0.000395	3.952513	1.339148	-0.000158
1203	1.1960e+02	-7.8816	-24.220796	0.000365	3.648473	1.236136	-0.000146
1204	1.1970e+02	-7.9169	-24.321724	0.000253	2.533662	0.858428	-0.000101
1205	1.1980e+02	-7.9650	-24.434764	0.000284	2.837702	0.961439	-0.000114
1206	1.1990e+02	-8.0083	-24.503395	0.000172	1.722890	0.583731	-0.000069
1207	1.2000e+02	-8.0484	-24.632584	0.000324	3.243087	1.098788	-0.000130
1208	1.2010e+02	-8.0885	-24.745624	0.000284	2.837702	0.961439	-0.000114
1209	1.2020e+02	-8.1238	-24.834440	0.000223	2.229623	0.755417	-0.000089
1210	1.2030e+02	-8.1639	-24.979777	0.000365	3.648473	1.236136	-0.000146
1211	1.2039e+02	-8.2121	-25.052446	0.000182	1.824237	0.618068	-0.000073
1212	1.2049e+02	-8.2442	-25.181634	0.000324	3.243087	1.098788	-0.000130
1213	1.2059e+02	-8.2891	-25.290637	0.000274	2.736355	0.927102	-0.000110
1214	1.2069e+02	-8.3260	-25.427899	0.000345	3.445780	1.167462	-0.000138
1215	1.2079e+02	-8.3564	-25.528828	0.000253	2.533662	0.858428	-0.000101
1216	1.2089e+02	-8.4110	-25.662053	0.000334	3.344434	1.133125	-0.000134
1217	1.2099e+02	-8.4415	-25.831613	0.000426	4.256552	1.442159	-0.000170
1218	1.2109e+02	-8.4896	-25.976950	0.000365	3.648473	1.236136	-0.000146
1219	1.2119e+02	-8.5217	-26.037507	0.000152	1.520197	0.515057	-0.000061
1220	1.2129e+02	-8.5698	-26.150547	0.000284	2.837702	0.961439	-0.000114
1221	1.2139e+02	-8.6131	-26.255512	0.000264	2.635009	0.892765	-0.000105
1222	1.2149e+02	-8.6452	-26.356441	0.000253	2.533662	0.858428	-0.000101
1223	1.2159e+02	-8.6757	-26.481592	0.000314	3.141741	1.064451	-0.000126
1224	1.2169e+02	-8.7222	-26.578483	0.000243	2.432316	0.824091	-0.000097
1225	1.2179e+02	-8.7591	-26.643077	0.000162	1.621544	0.549394	-0.000065
1226	1.2189e+02	-8.8056	-26.748043	0.000264	2.635009	0.892765	-0.000105
1227	1.2199e+02	-8.8473	-26.848971	0.000253	2.533662	0.858428	-0.000101
1228	1.2209e+02	-8.8810	-26.990271	0.000355	3.547127	1.201799	-0.000142
1229	1.2219e+02	-8.9260	-27.087162	0.000243	2.432316	0.824091	-0.000097
1230	1.2229e+02	-8.9596	-27.192128	0.000264	2.635009	0.892765	-0.000105
1231	1.2239e+02	-8.9981	-27.321316	0.000324	3.243087	1.098788	-0.000130
1232	1.2248e+02	-9.0350	-27.450504	0.000324	3.243087	1.098788	-0.000130
1233	1.2258e+02	-9.0848	-27.543359	0.000233	2.330969	0.789754	-0.000093
1234	1.2268e+02	-9.1072	-27.652361	0.000274	2.736355	0.927102	-0.000110
1235	1.2278e+02	-9.1634	-27.765401	0.000284	2.837702	0.961439	-0.000114
1236	1.2288e+02	-9.2067	-27.890552	0.000314	3.141741	1.064451	-0.000126
1237	1.2298e+02	-9.2388	-27.995518	0.000264	2.635009	0.892765	-0.000105
1238	1.2308e+02	-9.2789	-28.128743	0.000334	3.344434	1.133125	-0.000134
1239	1.2318e+02	-9.3222	-28.201412	0.000182	1.824237	0.618068	-0.000073
1240	1.2328e+02	-9.3559	-28.338674	0.000345	3.445780	1.167462	-0.000138
1241	1.2338e+02	-9.4040	-28.435566	0.000243	2.432316	0.824091	-0.000097
1242	1.2348e+02	-9.4409	-28.516308	0.000203	2.026930	0.686742	-0.000081
1243	1.2358e+02	-9.4746	-28.605125	0.000223	2.229623	0.755417	-0.000089
1244	1.2368e+02	-9.5227	-28.669719	0.000162	1.621544	0.549394	-0.000065
1245	1.2378e+02	-9.5741	-28.806982	0.000345	3.445780	1.167462	-0.000138
1246	1.2388e+02	-9.6061	-28.903873	0.000243	2.432316	0.824091	-0.000097
1247	1.2398e+02	-9.6398	-29.008839	0.000264	2.635009	0.892765	-0.000105
1248	1.2408e+02	-9.6831	-29.093619	0.000213	2.128276	0.721079	-0.000085
1249	1.2418e+02	-9.7200	-29.226844	0.000334	3.344434	1.133125	-0.000134
1250	1.2428e+02	-9.7521	-29.351995	0.000314	3.141741	1.064451	-0.000126
1251	1.2438e+02	-9.7938	-29.493295	0.000355	3.547127	1.201799	-0.000142
1252	1.2447e+02	-9.8452	-29.561926	0.000172	1.722890	0.583731	-0.000069
1253	1.2457e+02	-9.8773	-29.747635	0.000466	4.661938	1.579507	-0.000187
1254	1.2467e+02	-9.9174	-29.812229	0.000162	1.621544	0.549394	-0.000065
1255	1.2477e+02	-9.9543	-29.933343	0.000304	3.040395	1.030114	-0.000122
1256	1.2487e+02	-9.9863	-30.030234	0.000243	2.432316	0.824091	-0.000097
1257	1.2497e+02	-10.0425	-30.110977	0.000203	2.026930	0.686742	-0.000081
1258	1.2507e+02	-10.0794	-30.232091	0.000304	3.040395	1.030114	-0.000122
1259	1.2517e+02	-10.1195	-30.304759	0.000182	1.824237	0.618068	-0.000073
1260	1.2527e+02	-10.1660	-30.421836	0.000294	2.939048	0.995776	-0.000118
1261	1.2537e+02	-10.1885	-30.490468	0.000172	1.722890	0.583731	-0.000069
1262	1.2547e+02	-10.2382	-30.575248	0.000213	2.128276	0.721079	-0.000085
1263	1.2557e+02	-10.2687	-30.635805	0.000152	1.520197	0.515057	-0.000061
1264	1.2567e+02	-10.3216	-30.785179	0.000375	3.749820	1.270473	-0.000150
1265	1.2577e+02	-10.3569	-30.890144	0.000264	2.635009	0.892765	-0.000105
1266	1.2587e+02	-10.3986	-30.991072	0.000253	2.533662	0.858428	-0.000101
1267	1.2597e+02	-10.4275	-31.108149	0.000294	2.939048	0.995776	-0.000118
1268	1.2607e+02	-10.4740	-31.249449	0.000355	3.547127	1.201799	-0.000142
1269	1.2617e+02	-10.5190	-31.354415	0.000264	2.635009	0.892765	-0.000105
1270	1.2627e+02	-10.5591	-31.443232	0.000223	2.229623	0.755417	-0.000089
1271	1.2636e+02	-10.5895	-31.552234	0.000274	2.736355	0.927102	-0.000110
1272	1.2646e+02	-10.6345	-31.661237	0.000274	2.736355	0.927102	-0.000110
1273	1.2656e+02	-10.6762	-31.729868	0.000172	1.722890	0.583731	-0.000069
1274	1.2666e+02	-10.7163	-31.806574	0.000193	1.925583	0.652405	-0.000077
1275	1.2676e+02	-10.7644	-31.959985	0.000385	3.851166	1.304810	-0.000154
1276	1.2686e+02	-10.7933	-32.040728	0.000203	2.026930	0.686742	-0.000081
1277	1.2696e+02	-10.8382	-32.113396	0.000182	1.824237	0.618068	-0.000073
1278	1.2706e+02	-10.8735	-32.222399	0.000274	2.736355	0.927102	-0.000110
1279	1.2716e+02	-10.9200	-32.339476	0.000294	2.939048	0.995776	-0.000118
1280	1.2726e+02	-10.9457	-32.383884	0.000111	1.114811	0.377708	-0.000045
1281	1.2736e+02	-11.0002	-32.504998	0.000304	3.040395	1.030114	-0.000122
1282	1.2746e+02	-11.0323	-32.638224	0.000334	3.344434	1.133125	-0.000134
1283	1.2756e+02	-11.0756	-32.682632	0.000111	1.114811	0.377708	-0.000045
1284	1.2766e+02	-11.1061	-32.823932	0.000355	3.547127	1.201799	-0.000142
1285	1.2776e+02	-11.1542	-32.945046	0.000304	3.040395	1.030114	-0.000122
1286	1.2786e+02	-11.1991	-33.050012	0.000264	2.635009	0.892765	-0.000105
1287	1.2796e+02	-11.2312	-33.126717	0.000193	1.925583	0.652405	-0.000077
1288	1.2806e+02	-11.2681	-33.272054	0.000365	3.648473	1.236136	-0.000146
1289	1.2816e+02	-11.3114	-33.308388	0.000091	0.912118	0.309034	-0.000037
1290	1.2826e+02	-11.3483	-33.437577	0.000324	3.243087	1.098788	-0.000130
1291	1.2835e+02	-11.3933	-33.518319	0.000203	2.026930	0.686742	-0.000081
1292	1.2845e+02	-11.4270	-33.603099	0.000213	2.128276	0.721079	-0.000085
1293	1.2855e+02	-11.4703	-33.712102	0.000274	2.736355	0.927102	-0.000110
1294	1.2865e+02	-11.5184	-33.813030	0.000253	2.533662	0.858428	-0.000101
1295	1.2875e+02	-11.5601	-33.885699	0.000182	1.824237	0.618068	-0.000073
1296	1.2885e+02	-11.5954	-33.986627	0.000253	2.533662	0.858428	-0.000101
1297	1.2895e+02	-11.6419	-34.010850	0.000061	0.608079	0.206023	-0.000024
1298	1.2905e+02	-11.6724	-34.115816	0.000264	2.635009	0.892765	-0.000105
1299	1.2915e+02	-11.7221	-34.236930	0.000304	3.040395	1.030114	-0.000122
1300	1.2925e+02	-11.7510	-34.337858	0.000253	2.533662	0.858428	-0.000101
1301	1.2935e+02	-11.7815	-34.467046	0.000324	3.243087	1.098788	-0.000130
1302	1.2945e+02	-11.8216	-34.551826	0.000213	2.128276	0.721079	-0.000085
1303	1.2955e+02	-11.8681	-34.676977	0.000314	3.141741	1.064451	-0.000126
1304	1.2965e+02	-11.9018	-34.781943	0.000264	2.635009	0.892765	-0.000105
1305	1.2975e+02	-11.9580	-34.911131	0.000324	3.243087	1.098788	-0.000130
1306	1.2985e+02	-11.9868	-34.971688	0.000152	1.520197	0.515057	-0.000061
1307	1.2995e+02	-12.0301	-35.072617	0.000253	2.533662	0.858428	-0.000101
1308	1.3005e+02	-12.0654	-35.197768	0.000314	3.141741	1.064451	-0.000126
1309	1.3015e+02	-12.1152	-35.254288	0.000142	1.418851	0.480720	-0.000057
1310	1.3025e+02	-12.1473	-35.383476	0.000324	3.243087	1.098788	-0.000130
1311	1.3034e+02	-12.1890	-35.448070	0.000162	1.621544	0.549394	-0.000065
1312	1.3044e+02	-12.2323	-35.553036	0.000264	2.635009	0.892765	-0.000105
1313	1.3054e+02	-12.2692	-35.658001	0.000264	2.635009	0.892765	-0.000105
1314	1.3064e+02	-12.3125	-35.718558	0.000152	1.520197	0.515057	-0.000061
1315	1.3074e+02	-12.3446	-35.791227	0.000182	1.824237	0.618068	-0.000073
1316	1.3084e+02	-12.3863	-35.912341	0.000304	3.040395	1.030114	-0.000122
1317	1.3094e+02	-12.4280	-35.993084	0.000203	2.026930	0.686742	-0.000081
1318	1.3104e+02	-12.4761	-36.158606	0.000416	4.155206	1.407822	-0.000166
1319	1.3114e+02	-12.5130	-36.198978	0.000101	1.013465	0.343371	-0.000041
1320	1.3124e+02	-12.5483	-36.364500	0.000416	4.155206	1.407822	-0.000166
1321	1.3134e+02	-12.5932	-36.481577	0.000294	2.939048	0.995776	-0.000118
1322	1.3144e+02	-12.6301	-36.562320	0.000203	2.026930	0.686742	-0.000081
1323	1.3154e+02	-12.6638	-36.647100	0.000213	2.128276	0.721079	-0.000085
1324	1.3164e+02	-12.7151	-36.748028	0.000253	2.533662	0.858428	-0.000101
1325	1.3174e+02	-12.7504	-36.820696	0.000182	1.824237	0.618068	-0.000073
1326	1.3184e+02	-12.7922	-36.974108	0.000385	3.851166	1.304810	-0.000154
1327	1.3194e+02	-12.8258	-37.010442	0.000091	0.912118	0.309034	-0.000037
1328	1.3204e+02	-12.8804	-37.143667	0.000334	3.344434	1.133125	-0.000134
1329	1.3214e+02	-12.9109	-37.188076	0.000111	1.114811	0.377708	-0.000045
1330	1.3224e+02	-12.9526	-37.297079	0.000274	2.736355	0.927102	-0.000110
1331	1.3234e+02	-12.9798	-37.373784	0.000193	1.925583	0.652405	-0.000077
1332	1.3243e+02	-13.0312	-37.454527	0.000203	2.026930	0.686742	-0.000081
1333	1.3253e+02	-13.0552	-37.559492	0.000264	2.635009	0.892765	-0.000105
1334	1.3263e+02	-13.1050	-37.656384	0.000243	2.432316	0.824091	-0.000097
1335	1.3273e+02	-13.1483	-37.781535	0.000314	3.141741	1.064451	-0.000126
1336	1.3283e+02	-13.1900	-37.854203	0.000182	1.824237	0.618068	-0.000073
1337	1.3293e+02	-13.2253	-37.975317	0.000304	3.040395	1.030114	-0.000122
1338	1.3303e+02	-13.2670	-38.056060	0.000203	2.026930	0.686742	-0.000081
1339	1.3313e+02	-13.3071	-38.225620	0.000426	4.256552	1.442159	-0.000170
1340	1.3323e+02	-13.3376	-38.302325	0.000193	1.925583	0.652405	-0.000077
1341	1.3333e+02	-13.3793	-38.395179	0.000233	2.330969	0.789754	-0.000093
1342	1.3343e+02	-13.4354	-38.512256	0.000294	2.939048	0.995776	-0.000118
1343	1.3353e+02	-13.4675	-38.633370	0.000304	3.040395	1.030114	-0.000122
1344	1.3363e+02	-13.5044	-38.653556	0.000051	0.506732	0.171686	-0.000020
1345	1.3373e+02	-13.5413	-38.806967	0.000385	3.851166	1.304810	-0.000154
1346	1.3383e+02	-13.5879	-38.879636	0.000182	1.824237	0.618068	-0.000073
1347	1.3393e+02	-13.6231	-38.972490	0.000233	2.330969	0.789754	-0.000093
1348	1.3403e+02	-13.6616	-39.057270	0.000213	2.128276	0.721079	-0.000085
1349	1.3413e+02	-13.7034	-39.101678	0.000111	1.114811	0.377708	-0.000045
1350	1.3423e+02	-13.7515	-39.251052	0.000375	3.749820	1.270473	-0.000150
1351	1.3432e+02	-13.7836	-39.287386	0.000091	0.912118	0.309034	-0.000037
1352	1.3442e+02	-13.8269	-39.384278	0.000243	2.432316	0.824091	-0.000097
1353	1.3452e+02	-13.8622	-39.545763	0.000405	4.053859	1.373485	-0.000162
1354	1.3462e+02	-13.9103	-39.602283	0.000142	1.418851	0.480720	-0.000057
1355	1.3472e+02	-13.9488	-39.687063	0.000213	2.128276	0.721079	-0.000085
1356	1.3482e+02	-13.9745	-39.816251	0.000324	3.243087	1.098788	-0.000130
1357	1.3492e+02	-14.0162	-39.953514	0.000345	3.445780	1.167462	-0.000138
1358	1.3502e+02	-14.0579	-40.074628	0.000304	3.040395	1.030114	-0.000122
1359	1.3512e+02	-14.0964	-40.143259	0.000172	1.722890	0.583731	-0.000069
1360	1.3522e+02	-14.1381	-40.264373	0.000304	3.040395	1.030114	-0.000122
1361	1.3532e+02	-14.1894	-40.312819	0.000122	1.216158	0.412045	-0.000049
1362	1.3542e+02	-14.2263	-40.421822	0.000274	2.736355	0.927102	-0.000110
1363	1.3552e+02	-14.2616	-40.526787	0.000264	2.635009	0.892765	-0.000105
1364	1.3562e+02	-14.3049	-40.619641	0.000233	2.330969	0.789754	-0.000093
1365	1.3572e+02	-14.3467	-40.692310	0.000182	1.824237	0.618068	-0.000073
1366	1.3582e+02	-14.3819	-40.724607	0.000081	0.810772	0.274697	-0.000032
1367	1.3592e+02	-14.4221	-40.849758	0.000314	3.141741	1.064451	-0.000126
1368	1.3602e+02	-14.4573	-40.978946	0.000324	3.243087	1.098788	-0.000130
1369	1.3612e+02	-14.5007	-41.079875	0.000253	2.533662	0.858428	-0.000101
1370	1.3622e+02	-14.5488	-41.124283	0.000111	1.114811	0.377708	-0.000045
1371	1.3631e+02	-14.5745	-41.269620	0.000365	3.648473	1.236136	-0.000146
1372	1.3641e+02	-14.6081	-41.378623	0.000274	2.736355	0.927102	-0.000110
1373	1.3651e+02	-14.6547	-41.491663	0.000284	2.837702	0.961439	-0.000114
1374	1.3661e+02	-14.7092	-41.612777	0.000304	3.040395	1.030114	-0.000122
1375	1.3671e+02	-14.7413	-41.701594	0.000223	2.229623	0.755417	-0.000089
1376	1.3681e+02	-14.7766	-41.790411	0.000223	2.229623	0.755417	-0.000089
1377	1.3691e+02	-14.8183	-41.915562	0.000314	3.141741	1.064451	-0.000126
1378	1.3701e+02	-14.8568	-41.984193	0.000172	1.722890	0.583731	-0.000069
1379	1.3711e+02	-14.8905	-42.101270	0.000294	2.939048	0.995776	-0.000118
1380	1.3721e+02	-14.9418	-42.182013	0.000203	2.026930	0.686742	-0.000081
1381	1.3731e+02	-14.9803	-42.250644	0.000172	1.722890	0.583731	-0.000069
1382	1.3741e+02	-15.0076	-42.347535	0.000243	2.432316	0.824091	-0.000097
1383	1.3751e+02	-15.0605	-42.460575	0.000284	2.837702	0.961439	-0.000114
1384	1.3761e+02	-15.1022	-42.533244	0.000182	1.824237	0.618068	-0.000073
1385	1.3771e+02	-15.1359	-42.585726	0.000132	1.317504	0.446383	-0.000053
1386	1.3781e+02	-15.1841	-42.727026	0.000355	3.547127	1.201799	-0.000142
1387	1.3791e+02	-15.2306	-42.799695	0.000182	1.824237	0.618068	-0.000073
1388	1.3801e+02	-15.2498	-42.888512	0.000223	2.229623	0.755417	-0.000089
1389	1.3811e+02	-15.3012	-43.009626	0.000304	3.040395	1.030114	-0.000122
1390	1.3821e+02	-15.3268	-43.102480	0.000233	2.330969	0.789754	-0.000093
1391	1.3831e+02	-15.3750	-43.243779	0.000355	3.547127	1.201799	-0.000142
1392	1.3840e+02	-15.4183	-43.340671	0.000243	2.432316	0.824091	-0.000097
1393	1.3850e+02	-15.4536	-43.425451	0.000213	2.128276	0.721079	-0.000085
1394	1.3860e+02	-15.4889	-43.526379	0.000253	2.533662	0.858428	-0.000101
1395	1.3870e+02	-15.5434	-43.619233	0.000233	2.330969	0.789754	-0.000093
1396	1.3880e+02	-15.5819	-43.728236	0.000274	2.736355	0.927102	-0.000110
1397	1.3890e+02	-15.6172	-43.792830	0.000162	1.621544	0.549394	-0.000065
1398	1.3900e+02	-15.6541	-43.909907	0.000294	2.939048	0.995776	-0.000118
1399	1.3910e+02	-15.6942	-43.994687	0.000213	2.128276	0.721079	-0.000085
1400	1.3920e+02	-15.7311	-44.055244	0.000152	1.520197	0.515057	-0.000061
1401	1.3930e+02	-15.7776	-44.152135	0.000243	2.432316	0.824091	-0.000097
1402	1.3940e+02	-15.8242	-44.228841	0.000193	1.925583	0.652405	-0.000077
1403	1.3950e+02	-15.8594	-44.309583	0.000203	2.026930	0.686742	-0.000081
1404	1.3960e+02	-15.9012	-44.406475	0.000243	2.432316	0.824091	-0.000097
1405	1.3970e+02	-15.9364	-44.495292	0.000223	2.229623	0.755417	-0.000089
1406	1.3980e+02	-15.9733	-44.604294	0.000274	2.736355	0.927102	-0.000110
1407	1.3990e+02	-16.0135	-44.713297	0.000274	2.736355	0.927102	-0.000110
1408	1.4000e+02	-16.0568	-44.806151	0.000233	2.330969	0.789754	-0.000093
1409	1.4010e+02	-16.0969	-44.911117	0.000264	2.635009	0.892765	-0.000105
1410	1.4020e+02	-16.1306	-44.999934	0.000223	2.229623	0.755417	-0.000089
1411	1.4029e+02	-16.1723	-45.108936	0.000274	2.736355	0.927102	-0.000110
1412	1.4039e+02	-16.2204	-45.181605	0.000182	1.824237	0.618068	-0.000073
1413	1.4049e+02	-16.2573	-45.290607	0.000274	2.736355	0.927102	-0.000110
1414	1.4059e+02	-16.2910	-45.347127	0.000142	1.418851	0.480720	-0.000057
1415	1.4069e+02	-16.3391	-45.484390	0.000345	3.445780	1.167462	-0.000138
1416	1.4079e+02	-16.3696	-45.532835	0.000122	1.216158	0.412045	-0.000049
1417	1.4089e+02	-16.4097	-45.633764	0.000253	2.533662	0.858428	-0.000101
1418	1.4099e+02	-16.4450	-45.694321	0.000152	1.520197	0.515057	-0.000061
1419	1.4109e+02	-16.4995	-45.811398	0.000294	2.939048	0.995776	-0.000118
1420	1.4119e+02	-16.5364	-45.843695	0.000081	0.810772	0.274697	-0.000032
1421	1.4129e+02	-16.5733	-45.920400	0.000193	1.925583	0.652405	-0.000077
1422	1.4139e+02	-16.6118	-46.069774	0.000375	3.749820	1.270473	-0.000150
1423	1.4149e+02	-16.6455	-46.170703	0.000253	2.533662	0.858428	-0.000101
1424	1.4159e+02	-16.6985	-46.267594	0.000243	2.432316	0.824091	-0.000097
1425	1.4169e+02	-16.7273	-46.384671	0.000294	2.939048	0.995776	-0.000118
1426	1.4179e+02	-16.7690	-46.465414	0.000203	2.026930	0.686742	-0.000081
1427	1.4189e+02	-16.8108	-46.521934	0.000142	1.418851	0.480720	-0.000057
1428	1.4199e+02	-16.8541	-46.630936	0.000274	2.736355	0.927102	-0.000110
1429	1.4209e+02	-16.8926	-46.707642	0.000193	1.925583	0.652405	-0.000077
1430	1.4219e+02	-16.9295	-46.776273	0.000172	1.722890	0.583731	-0.000069
1431	1.4228e+02	-16.9648	-46.905462	0.000324	3.243087	1.098788	-0.000130
1432	1.4238e+02	-17.0081	-46.949870	0.000111	1.114811	0.377708	-0.000045
1433	1.4248e+02	-17.0546	-47.087133	0.000345	3.445780	1.167462	-0.000138
1434	1.4258e+02	-17.0931	-47.151727	0.000162	1.621544	0.549394	-0.000065
1435	1.4268e+02	-17.1268	-47.244581	0.000233	2.330969	0.789754	-0.000093
1436	1.4278e+02	-17.1669	-47.321287	0.000193	1.925583	0.652405	-0.000077
1437	1.4288e+02	-17.2182	-47.369732	0.000122	1.216158	0.412045	-0.000049
1438	1.4298e+02	-17.2503	-47.515069	0.000365	3.648473	1.236136	-0.000146
1439	1.4308e+02	-17.2952	-47.547366	0.000081	0.810772	0.274697	-0.000032
1440	1.4318e+02	-17.3385	-47.652332	0.000264	2.635009	0.892765	-0.000105
1441	1.4328e+02	-17.3706	-47.769409	0.000294	2.939048	0.995776	-0.000118
1442	1.4338e+02	-17.4027	-47.862263	0.000233	2.330969	0.789754	-0.000093
1443	1.4348e+02	-17.4508	-47.971265	0.000274	2.736355	0.927102	-0.000110
1444	1.4358e+02	-17.4845	-48.084305	0.000284	2.837702	0.961439	-0.000114
1445	1.4368e+02	-17.5359	-48.136788	0.000132	1.317504	0.446383	-0.000053
1446	1.4378e+02	-17.5728	-48.237716	0.000253	2.533662	0.858428	-0.000101
1447	1.4388e+02	-17.6049	-48.334608	0.000243	2.432316	0.824091	-0.000097
1448	1.4398e+02	-17.6434	-48.411313	0.000193	1.925583	0.652405	-0.000077
1449	1.4408e+02	-17.6851	-48.520316	0.000274	2.736355	0.927102	-0.000110
1450	1.4418e+02	-17.7332	-48.588947	0.000172	1.722890	0.583731	-0.000069
1451	1.4428e+02	-17.7733	-48.673727	0.000213	2.128276	0.721079	-0.000085
1452	1.4437e+02	-17.8134	-48.762544	0.000223	2.229623	0.755417	-0.000089
1453	1.4447e+02	-17.8519	-48.851361	0.000223	2.229623	0.755417	-0.000089
1454	1.4457e+02	-17.8920	-48.895769	0.000111	1.114811	0.377708	-0.000045
1455	1.4467e+02	-17.9289	-49.012846	0.000294	2.939048	0.995776	-0.000118
1456	1.4477e+02	-17.9658	-49.073403	0.000152	1.520197	0.515057	-0.000061
1457	1.4487e+02	-18.0139	-49.198555	0.000314	3.141741	1.064451	-0.000126
1458	1.4497e+02	-18.0508	-49.351966	0.000385	3.851166	1.304810	-0.000154
1459	1.4507e+02	-18.0845	-49.392337	0.000101	1.013465	0.343371	-0.000041
1460	1.4517e+02	-18.1278	-49.481154	0.000223	2.229623	0.755417	-0.000089
1461	1.4527e+02	-18.1631	-49.590157	0.000274	2.736355	0.927102	-0.000110
1462	1.4537e+02	-18.2000	-49.662825	0.000182	1.824237	0.618068	-0.000073
1463	1.4547e+02	-18.2514	-49.735494	0.000182	1.824237	0.618068	-0.000073
1464	1.4557e+02	-18.2866	-49.856608	0.000304	3.040395	1.030114	-0.000122
1465	1.4567e+02	-18.3235	-49.929276	0.000182	1.824237	0.618068	-0.000073
1466	1.4577e+02	-18.3637	-50.018093	0.000223	2.229623	0.755417	-0.000089
1467	1.4587e+02	-18.4054	-50.074613	0.000142	1.418851	0.480720	-0.000057
1468	1.4597e+02	-18.4439	-50.223987	0.000375	3.749820	1.270473	-0.000150
1469	1.4607e+02	-18.4888	-50.272433	0.000122	1.216158	0.412045	-0.000049
1470	1.4617e+02	-18.5241	-50.365287	0.000233	2.330969	0.789754	-0.000093
1471	1.4626e+02	-18.5546	-50.462178	0.000243	2.432316	0.824091	-0.000097
1472	1.4636e+02	-18.6107	-50.482364	0.000051	0.506732	0.171686	-0.000020
1473	1.4646e+02	-18.6428	-50.599441	0.000294	2.939048	0.995776	-0.000118
1474	1.4656e+02	-18.6829	-50.700369	0.000253	2.533662	0.858428	-0.000101
1475	1.4666e+02	-18.7246	-50.817446	0.000294	2.939048	0.995776	-0.000118
1476	1.4676e+02	-18.7631	-50.878003	0.000152	1.520197	0.515057	-0.000061
1477	1.4686e+02	-18.8016	-51.031414	0.000385	3.851166	1.304810	-0.000154
1478	1.4696e+02	-18.8497	-51.087934	0.000142	1.418851	0.480720	-0.000057
1479	1.4706e+02	-18.8898	-51.196937	0.000274	2.736355	0.927102	-0.000110
1480	1.4716e+02	-18.9219	-51.334199	0.000345	3.445780	1.167462	-0.000138
1481	1.4726e+02	-18.9620	-51.406868	0.000182	1.824237	0.618068	-0.000073
1482	1.4736e+02	-19.0005	-51.459351	0.000132	1.317504	0.446383	-0.000053
1483	1.4746e+02	-19.0390	-51.568353	0.000274	2.736355	0.927102	-0.000110
1484	1.4756e+02	-19.0807	-51.673319	0.000264	2.635009	0.892765	-0.000105
1485	1.4766e+02	-19.1257	-51.750024	0.000193	1.925583	0.652405	-0.000077
1486	1.4776e+02	-19.1610	-51.871139	0.000304	3.040395	1.030114	-0.000122
1487	1.4786e+02	-19.2139	-51.919584	0.000122	1.216158	0.412045	-0.000049
1488	1.4796e+02	-19.2396	-52.044735	0.000314	3.141741	1.064451	-0.000126
1489	1.4806e+02	-19.2781	-52.121441	0.000193	1.925583	0.652405	-0.000077
1490	1.4816e+02	-19.3069	-52.153738	0.000081	0.810772	0.274697	-0.000032
1491	1.4825e+02	-19.3535	-52.286964	0.000334	3.344434	1.133125	-0.000134
1492	1.4835e+02	-19.4048	-52.436338	0.000375	3.749820	1.270473	-0.000150
1493	1.4845e+02	-19.4385	-52.480746	0.000111	1.114811	0.377708	-0.000045
1494	1.4855e+02	-19.4898	-52.605897	0.000314	3.141741	1.064451	-0.000126
1495	1.4865e+02	-19.5267	-52.698751	0.000233	2.330969	0.789754	-0.000093
1496	1.4875e+02	-19.5620	-52.811791	0.000284	2.837702	0.961439	-0.000114
1497	1.4885e+02	-19.6069	-52.912720	0.000253	2.533662	0.858428	-0.000101
1498	1.4895e+02	-19.6374	-52.993462	0.000203	2.026930	0.686742	-0.000081
1499	1.4905e+02	-19.6791	-53.082279	0.000223	2.229623	0.755417	-0.000089
1500	1.4915e+02	-19.7144	-53.163022	0.000203	2.026930	0.686742	-0.000081
1501	1.4925e+02	-19.7545	-53.276062	0.000284	2.837702	0.961439	-0.000114
1502	1.4935e+02	-19.8043	-53.389102	0.000284	2.837702	0.961439	-0.000114
1503	1.4945e+02	-19.8460	-53.494067	0.000264	2.635009	0.892765	-0.000105
1504	1.4955e+02	-19.8732	-53.578847	0.000213	2.128276	0.721079	-0.000085
1505	1.4965e+02	-19.9262	-53.675738	0.000243	2.432316	0.824091	-0.000097
1506	1.4975e+02	-19.9647	-53.748407	0.000182	1.824237	0.618068	-0.000073
1507	1.4985e+02	-19.9968	-53.877595	0.000324	3.243087	1.098788	-0.000130
1508	1.4995e+02	-19.9567	-53.825112	0.000132	1.317504	0.446383	0.000053
1509	1.5005e+02	-19.9166	-53.752444	0.000182	1.824237	0.618068	0.000073
1510	1.5015e+02	-19.8748	-53.716110	0.000091	0.912118	0.309034	0.000037
1511	1.5025e+02	-19.8412	-53.675738	0.000101	1.013465	0.343371	0.000041
1512	1.5034e+02	-19.7946	-53.599033	0.000193	1.925583	0.652405	0.000077
1513	1.5044e+02	-19.7625	-53.514253	0.000213	2.128276	0.721079	0.000085
1514	1.5054e+02	-19.7192	-53.469844	0.000111	1.114811	0.377708	0.000045
1515	1.5064e+02	-19.6791	-53.381027	0.000223	2.229623	0.755417	0.000089
1516	1.5074e+02	-19.6422	-53.405250	-0.000061	-0.608079	-0.206023	-0.000024
1517	1.5084e+02	-19.6037	-53.320470	0.000213	2.128276	0.721079	0.000085
1518	1.5094e+02	-19.5540	-53.243765	0.000193	1.925583	0.652405	0.000077
1519	1.5104e+02	-19.5171	-53.179171	0.000162	1.621544	0.549394	0.000065
1520	1.5114e+02	-19.4738	-53.134762	0.000111	1.114811	0.377708	0.000045
1521	1.5124e+02	-19.4385	-53.054019	0.000203	2.026930	0.686742	0.000081
1522	1.5134e+02	-19.3984	-53.017685	0.000091	0.912118	0.309034	0.000037
1523	1.5144e+02	-19.3567	-52.940980	0.000193	1.925583	0.652405	0.000077
1524	1.5154e+02	-19.3166	-52.912720	0.000071	0.709425	0.240360	0.000028
1525	1.5164e+02	-19.2749	-52.807754	0.000264	2.635009	0.892765	0.000105
1526	1.5174e+02	-19.2396	-52.743160	0.000162	1.621544	0.549394	0.000065
1527	1.5184e+02	-19.1962	-52.686640	0.000142	1.418851	0.480720	0.000057
1528	1.5194e+02	-19.1513	-52.622046	0.000162	1.621544	0.549394	0.000065
1529	1.5204e+02	-19.1192	-52.553414	0.000172	1.722890	0.583731	0.000069
1530	1.5214e+02	-19.0856	-52.492857	0.000152	1.520197	0.515057	0.000061
1531	1.5224e+02	-19.0519	-52.395966	0.000243	2.432316	0.824091	0.000097
1532	1.5233e+02	-18.9973	-52.367706	0.000071	0.709425	0.240360	0.000028
1533	1.5243e+02	-18.9588	-52.291001	0.000193	1.925583	0.652405	0.000077
1534	1.5253e+02	-18.9235	-52.230444	0.000152	1.520197	0.515057	0.000061
1535	1.5263e+02	-18.8866	-52.157775	0.000182	1.824237	0.618068	0.000073
1536	1.5273e+02	-18.8513	-52.097218	0.000152	1.520197	0.515057	0.000061
1537	1.5283e+02	-18.8032	-52.052810	0.000111	1.114811	0.377708	0.000045
1538	1.5293e+02	-18.7615	-51.996290	0.000142	1.418851	0.480720	0.000057
1539	1.5303e+02	-18.7326	-51.939770	0.000142	1.418851	0.480720	0.000057
1540	1.5313e+02	-18.6829	-51.899398	0.000101	1.013465	0.343371	0.000041
1541	1.5323e+02	-18.6460	-51.867101	0.000081	0.810772	0.274697	0.000032
1542	1.5333e+02	-18.5915	-51.725802	0.000355	3.547127	1.201799	0.000142
1543	1.5343e+02	-18.5770	-51.624873	0.000253	2.533662	0.858428	0.000101
1544	1.5353e+02	-18.5289	-51.576428	0.000122	1.216158	0.412045	0.000049
1545	1.5363e+02	-18.4888	-51.511833	0.000162	1.621544	0.549394	0.000065
1546	1.5373e+02	-18.4407	-51.423016	0.000223	2.229623	0.755417	0.000089
1547	1.5383e+02	-18.4006	-51.378608	0.000111	1.114811	0.377708	0.000045
1548	1.5393e+02	-18.3669	-51.318051	0.000152	1.520197	0.515057	0.000061
1549	1.5403e+02	-18.3252	-51.229234	0.000223	2.229623	0.755417	0.000089
1550	1.5413e+02	-18.2850	-51.160603	0.000172	1.722890	0.583731	0.000069
1551	1.5422e+02	-18.2433	-51.063711	0.000243	2.432316	0.824091	0.000097
1552	1.5432e+02	-18.2064	-51.055637	0.000020	0.202693	0.068674	0.000008
1553	1.5442e+02	-18.1647	-50.974894	0.000203	2.026930	0.686742	0.000081
1554	1.5452e+02	-18.1230	-50.857817	0.000294	2.939048	0.995776	0.000118
1555	1.5462e+02	-18.0861	-50.821483	0.000091	0.912118	0.309034	0.000037
1556	1.5472e+02	-18.0428	-50.785149	0.000091	0.912118	0.309034	0.000037
1557	1.5482e+02	-18.0059	-50.724592	0.000152	1.520197	0.515057	0.000061
1558	1.5492e+02	-17.9770	-50.639812	0.000213	2.128276	0.721079	0.000085
1559	1.5502e+02	-17.9209	-50.546958	0.000233	2.330969	0.789754	0.000093
1560	1.5512e+02	-17.8856	-50.486401	0.000152	1.520197	0.515057	0.000061
1561	1.5522e+02	-17.8455	-50.381435	0.000264	2.635009	0.892765	0.000105
1562	1.5532e+02	-17.8086	-50.312804	0.000172	1.722890	0.583731	0.000069
1563	1.5542e+02	-17.7685	-50.236099	0.000193	1.925583	0.652405	0.000077
1564	1.5552e+02	-17.7252	-50.171504	0.000162	1.621544	0.549394	0.000065
1565	1.5562e+02	-17.6899	-50.102873	0.000172	1.722890	0.583731	0.000069
1566	1.5572e+02	-17.6466	-50.010019	0.000233	2.330969	0.789754	0.000093
1567	1.5582e+02	-17.6177	-49.965610	0.000111	1.114811	0.377708	0.000045
1568	1.5592e+02	-17.5712	-49.836422	0.000324	3.243087	1.098788	0.000130
1569	1.5602e+02	-17.5423	-49.792014	0.000111	1.114811	0.377708	0.000045
1570	1.5612e+02	-17.4910	-49.711271	0.000203	2.026930	0.686742	0.000081
1571	1.5622e+02	-17.4492	-49.638602	0.000182	1.824237	0.618068	0.000073
1572	1.5631e+02	-17.4091	-49.578045	0.000152	1.520197	0.515057	0.000061
1573	1.5641e+02	-17.3658	-49.513451	0.000162	1.621544	0.549394	0.000065
1574	1.5651e+02	-17.3225	-49.469043	0.000111	1.114811	0.377708	0.000045
1575	1.5661e+02	-17.2824	-49.408486	0.000152	1.520197	0.515057	0.000061
1576	1.5671e+02	-17.2567	-49.287372	0.000304	3.040395	1.030114	0.000122
1577	1.5681e+02	-17.2102	-49.178369	0.000274	2.736355	0.927102	0.000110
1578	1.5691e+02	-17.1653	-49.093589	0.000213	2.128276	0.721079	0.000085
1579	1.5701e+02	-17.1316	-49.033032	0.000152	1.520197	0.515057	0.000061
1580	1.5711e+02	-17.0899	-48.980549	0.000132	1.317504	0.446383	0.000053
1581	1.5721e+02	-17.0466	-48.851361	0.000324	3.243087	1.098788	0.000130
1582	1.5731e+02	-17.0113	-48.806953	0.000111	1.114811	0.377708	0.000045
1583	1.5741e+02	-16.9840	-48.730247	0.000193	1.925583	0.652405	0.000077
1584	1.5751e+02	-16.9311	-48.661616	0.000172	1.722890	0.583731	0.000069
1585	1.5761e+02	-16.9022	-48.552613	0.000274	2.736355	0.927102	0.000110
1586	1.5771e+02	-16.8525	-48.496093	0.000142	1.418851	0.480720	0.000057
1587	1.5781e+02	-16.8043	-48.427462	0.000172	1.722890	0.583731	0.000069
1588	1.5791e+02	-16.7690	-48.374979	0.000132	1.317504	0.446383	0.000053
1589	1.5801e+02	-16.7321	-48.282125	0.000233	2.330969	0.789754	0.000093
1590	1.5811e+02	-16.6920	-48.249828	0.000081	0.810772	0.274697	0.000032
1591	1.5821e+02	-16.6519	-48.148899	0.000253	2.533662	0.858428	0.000101
1592	1.5830e+02	-16.6199	-48.035860	0.000284	2.837702	0.961439	0.000114
1593	1.5840e+02	-16.5797	-47.963191	0.000182	1.824237	0.618068	0.000073
1594	1.5850e+02	-16.5348	-47.874374	0.000223	2.229623	0.755417	0.000089
1595	1.5860e+02	-16.4851	-47.773446	0.000253	2.533662	0.858428	0.000101
1596	1.5870e+02	-16.4450	-47.712889	0.000152	1.520197	0.515057	0.000061
1597	1.5880e+02	-16.4193	-47.636183	0.000193	1.925583	0.652405	0.000077
1598	1.5890e+02	-16.3712	-47.519106	0.000294	2.939048	0.995776	0.000118
1599	1.5900e+02	-16.3295	-47.442401	0.000193	1.925583	0.652405	0.000077
1600	1.5910e+02	-16.3006	-47.361658	0.000203	2.026930	0.686742	0.000081
1601	1.5920e+02	-16.2557	-47.284952	0.000193	1.925583	0.652405	0.000077
1602	1.5930e+02	-16.2172	-47.212284	0.000182	1.824237	0.618068	0.000073
1603	1.5940e+02	-16.1755	-47.143653	0.000172	1.722890	0.583731	0.000069
1604	1.5950e+02	-16.1322	-47.042724	0.000253	2.533662	0.858428	0.000101
1605	1.5960e+02	-16.1001	-46.986204	0.000142	1.418851	0.480720	0.000057
1606	1.5970e+02	-16.0407	-46.905462	0.000203	2.026930	0.686742	0.000081
1607	1.5980e+02	-16.0118	-46.865090	0.000101	1.013465	0.343371	0.000041
1608	1.5990e+02	-15.9766	-46.756088	0.000274	2.736355	0.927102	0.000110
1609	1.6000e+02	-15.9381	-46.691493	0.000162	1.621544	0.549394	0.000065
1610	1.6010e+02	-15.8947	-46.590565	0.000253	2.533662	0.858428	0.000101
1611	1.6019e+02	-15.8546	-46.493674	0.000243	2.432316	0.824091	0.000097
1612	1.6029e+02	-15.8145	-46.364485	0.000324	3.243087	1.098788	0.000130
1613	1.6039e+02	-15.7808	-46.299891	0.000162	1.621544	0.549394	0.000065
1614	1.6049e+02	-15.7295	-46.239334	0.000152	1.520197	0.515057	0.000061
1615	1.6059e+02	-15.6990	-46.154554	0.000213	2.128276	0.721079	0.000085
1616	1.6069e+02	-15.6669	-46.077849	0.000193	1.925583	0.652405	0.000077
1617	1.6079e+02	-15.6140	-45.984995	0.000233	2.330969	0.789754	0.000093
1618	1.6089e+02	-15.5739	-45.920400	0.000162	1.621544	0.549394	0.000065
1619	1.6099e+02	-15.5338	-45.827546	0.000233	2.330969	0.789754	0.000093
1620	1.6109e+02	-15.4985	-45.710469	0.000294	2.939048	0.995776	0.000118
1621	1.6119e+02	-15.4552	-45.641838	0.000172	1.722890	0.583731	0.000069
1622	1.6129e+02	-15.4135	-45.581281	0.000152	1.520197	0.515057	0.000061
1623	1.6139e+02	-15.3798	-45.516687	0.000162	1.621544	0.549394	0.000065
1624	1.6149e+02	-15.3445	-45.435944	0.000203	2.026930	0.686742	0.000081
1625	1.6159e+02	-15.2980	-45.347127	0.000223	2.229623	0.755417	0.000089
1626	1.6169e+02	-15.2498	-45.262347	0.000213	2.128276	0.721079	0.000085
1627	1.6179e+02	-15.2161	-45.177567	0.000213	2.128276	0.721079	0.000085
1628	1.6189e+02	-15.1793	-45.012045	0.000416	4.155206	1.407822	0.000166
1629	1.6199e+02	-15.1456	-44.955525	0.000142	1.418851	0.480720	0.000057
1630	1.6209e+02	-15.1055	-44.882857	0.000182	1.824237	0.618068	0.000073
1631	1.6219e+02	-15.0557	-44.781928	0.000253	2.533662	0.858428	0.000101
1632	1.6228e+02	-15.0124	-44.689074	0.000233	2.330969	0.789754	0.000093
1633	1.6238e+02	-14.9787	-44.588146	0.000253	2.533662	0.858428	0.000101
1634	1.6248e+02	-14.9354	-44.499329	0.000223	2.229623	0.755417	0.000089
1635	1.6258e+02	-14.9001	-44.410512	0.000223	2.229623	0.755417	0.000089
1636	1.6268e+02	-14.8600	-44.349955	0.000152	1.520197	0.515057	0.000061
1637	1.6278e+02	-14.8327	-44.228841	0.000304	3.040395	1.030114	0.000122
1638	1.6288e+02	-14.7718	-44.188469	0.000101	1.013465	0.343371	0.000041
1639	1.6298e+02	-14.7269	-44.115801	0.000182	1.824237	0.618068	0.000073
1640	1.6308e+02	-14.6980	-44.031021	0.000213	2.128276	0.721079	0.000085
1641	1.6318e+02	-14.6611	-43.962390	0.000172	1.722890	0.583731	0.000069
1642	1.6328e+02	-14.6194	-43.869535	0.000233	2.330969	0.789754	0.000093
1643	1.6338e+02	-14.5761	-43.796867	0.000182	1.824237	0.618068	0.000073
1644	1.6348e+02	-14.5440	-43.699976	0.000243	2.432316	0.824091	0.000097
1645	1.6358e+02	-14.5055	-43.603085	0.000243	2.432316	0.824091	0.000097
1646	1.6368e+02	-14.4702	-43.494082	0.000274	2.736355	0.927102	0.000110
1647	1.6378e+02	-14.4188	-43.409302	0.000213	2.128276	0.721079	0.000085
1648	1.6388e+02	-14.3787	-43.308374	0.000253	2.533662	0.858428	0.000101
1649	1.6398e+02	-14.3531	-43.223594	0.000213	2.128276	0.721079	0.000085
1650	1.6408e+02	-14.3049	-43.159000	0.000162	1.621544	0.549394	0.000065
1651	1.6418e+02	-14.2664	-43.054034	0.000264	2.635009	0.892765	0.000105
1652	1.6427e+02	-14.2215	-42.940994	0.000284	2.837702	0.961439	0.000114
1653	1.6437e+02	-14.1878	-42.868326	0.000182	1.824237	0.618068	0.000073
1654	1.6447e+02	-14.1493	-42.771435	0.000243	2.432316	0.824091	0.000097
1655	1.6457e+02	-14.1060	-42.743175	0.000071	0.709425	0.240360	0.000028
1656	1.6467e+02	-14.0563	-42.650321	0.000233	2.330969	0.789754	0.000093
1657	1.6477e+02	-14.0274	-42.601875	0.000122	1.216158	0.412045	0.000049
1658	1.6487e+02	-13.9825	-42.492872	0.000274	2.736355	0.927102	0.000110
1659	1.6497e+02	-13.9392	-42.440389	0.000132	1.317504	0.446383	0.000053
1660	1.6507e+02	-13.9087	-42.343498	0.000243	2.432316	0.824091	0.000097
1661	1.6517e+02	-13.8622	-42.242570	0.000253	2.533662	0.858428	0.000101
1662	1.6527e+02	-13.8317	-42.157790	0.000213	2.128276	0.721079	0.000085
1663	1.6537e+02	-13.7884	-41.996305	0.000405	4.053859	1.373485	0.000162
1664	1.6547e+02	-13.7403	-41.931710	0.000162	1.621544	0.549394	0.000065
1665	1.6557e+02	-13.6985	-41.850968	0.000203	2.026930	0.686742	0.000081
1666	1.6567e+02	-13.6584	-41.778299	0.000182	1.824237	0.618068	0.000073
1667	1.6577e+02	-13.6280	-41.689482	0.000223	2.229623	0.755417	0.000089
1668	1.6587e+02	-13.5830	-41.620851	0.000172	1.722890	0.583731	0.000069
1669	1.6597e+02	-13.5510	-41.507811	0.000284	2.837702	0.961439	0.000114
1670	1.6607e+02	-13.5044	-41.423031	0.000213	2.128276	0.721079	0.000085
1671	1.6616e+02	-13.4707	-41.362474	0.000152	1.520197	0.515057	0.000061
1672	1.6626e+02	-13.4226	-41.245397	0.000294	2.939048	0.995776	0.000118
1673	1.6636e+02	-13.3825	-41.205026	0.000101	1.013465	0.343371	0.000041
1674	1.6646e+02	-13.3360	-41.156580	0.000122	1.216158	0.412045	0.000049
1675	1.6656e+02	-13.3055	-41.043540	0.000284	2.837702	0.961439	0.000114
1676	1.6666e+02	-13.2654	-40.978946	0.000162	1.621544	0.549394	0.000065
1677	1.6676e+02	-13.2205	-40.869944	0.000274	2.736355	0.927102	0.000110
1678	1.6686e+02	-13.1884	-40.777090	0.000233	2.330969	0.789754	0.000093
1679	1.6696e+02	-13.1403	-40.660013	0.000294	2.939048	0.995776	0.000118
1680	1.6706e+02	-13.1002	-40.583307	0.000193	1.925583	0.652405	0.000077
1681	1.6716e+02	-13.0649	-40.462193	0.000304	3.040395	1.030114	0.000122
1682	1.6726e+02	-13.0328	-40.377413	0.000213	2.128276	0.721079	0.000085
1683	1.6736e+02	-12.9847	-40.284559	0.000233	2.330969	0.789754	0.000093
1684	1.6746e+02	-12.9526	-40.215928	0.000172	1.722890	0.583731	0.000069
1685	1.6756e+02	-12.9093	-40.135185	0.000203	2.026930	0.686742	0.000081
1686	1.6766e+02	-12.8740	-40.014071	0.000304	3.040395	1.030114	0.000122
1687	1.6776e+02	-12.8274	-39.949477	0.000162	1.621544	0.549394	0.000065
1688	1.6786e+02	-12.7922	-39.884883	0.000162	1.621544	0.549394	0.000065
1689	1.6796e+02	-12.7408	-39.808177	0.000193	1.925583	0.652405	0.000077
1690	1.6806e+02	-12.7103	-39.739546	0.000172	1.722890	0.583731	0.000069
1691	1.6816e+02	-12.6783	-39.670914	0.000172	1.722890	0.583731	0.000069
1692	1.6825e+02	-12.6269	-39.578060	0.000233	2.330969	0.789754	0.000093
1693	1.6835e+02	-12.5868	-39.489243	0.000223	2.229623	0.755417	0.000089
1694	1.6845e+02	-12.5483	-39.400426	0.000223	2.229623	0.755417	0.000089
1695	1.6855e+02	-12.5050	-39.279312	0.000304	3.040395	1.030114	0.000122
1696	1.6865e+02	-12.4713	-39.150124	0.000324	3.243087	1.098788	0.000130
1697	1.6875e+02	-12.4328	-39.053233	0.000243	2.432316	0.824091	0.000097
1698	1.6885e+02	-12.3943	-38.952304	0.000253	2.533662	0.858428	0.000101
1699	1.6895e+02	-12.3494	-38.936156	0.000041	0.405386	0.137348	0.000016
1700	1.6905e+02	-12.3157	-38.815042	0.000304	3.040395	1.030114	0.000122
1701	1.6915e+02	-12.2756	-38.738336	0.000193	1.925583	0.652405	0.000077
1702	1.6925e+02	-12.2387	-38.629333	0.000274	2.736355	0.927102	0.000110
1703	1.6935e+02	-12.1874	-38.532442	0.000243	2.432316	0.824091	0.000097
1704	1.6945e+02	-12.1505	-38.463811	0.000172	1.722890	0.583731	0.000069
1705	1.6955e+02	-12.1104	-38.374994	0.000223	2.229623	0.755417	0.000089
1706	1.6965e+02	-12.0751	-38.302325	0.000182	1.824237	0.618068	0.000073
1707	1.6975e+02	-12.0221	-38.245805	0.000142	1.418851	0.480720	0.000057
1708	1.6985e+02	-11.9884	-38.152951	0.000233	2.330969	0.789754	0.000093
1709	1.6995e+02	-11.9531	-38.060097	0.000233	2.330969	0.789754	0.000093
1710	1.7005e+02	-11.9034	-37.955132	0.000264	2.635009	0.892765	0.000105
1711	1.7015e+02	-11.8681	-37.947057	0.000020	0.202693	0.068674	0.000008
1712	1.7024e+02	-11.8216	-37.797683	0.000375	3.749820	1.270473	0.000150
1713	1.7034e+02	-11.7847	-37.712903	0.000213	2.128276	0.721079	0.000085
1714	1.7044e+02	-11.7494	-37.624087	0.000223	2.229623	0.755417	0.000089
1715	1.7054e+02	-11.7173	-37.486824	0.000345	3.445780	1.167462	0.000138
1716	1.7064e+02	-11.6772	-37.446453	0.000101	1.013465	0.343371	0.000041
1717	1.7074e+02	-11.6275	-37.297079	0.000375	3.749820	1.270473	0.000150
1718	1.7084e+02	-11.5954	-37.236521	0.000152	1.520197	0.515057	0.000061
1719	1.7094e+02	-11.5601	-37.167890	0.000172	1.722890	0.583731	0.000069
1720	1.7104e+02	-11.5216	-37.026590	0.000355	3.547127	1.201799	0.000142
1721	1.7114e+02	-11.4799	-36.978145	0.000122	1.216158	0.412045	0.000049
1722	1.7124e+02	-11.4286	-36.901439	0.000193	1.925583	0.652405	0.000077
1723	1.7134e+02	-11.3949	-36.784362	0.000294	2.939048	0.995776	0.000118
1724	1.7144e+02	-11.3580	-36.739954	0.000111	1.114811	0.377708	0.000045
1725	1.7154e+02	-11.3066	-36.655174	0.000213	2.128276	0.721079	0.000085
1726	1.7164e+02	-11.2762	-36.574431	0.000203	2.026930	0.686742	0.000081
1727	1.7174e+02	-11.2377	-36.469466	0.000264	2.635009	0.892765	0.000105
1728	1.7184e+02	-11.1975	-36.388723	0.000203	2.026930	0.686742	0.000081
1729	1.7194e+02	-11.1590	-36.324129	0.000162	1.621544	0.549394	0.000065
1730	1.7204e+02	-11.1109	-36.231275	0.000233	2.330969	0.789754	0.000093
1731	1.7213e+02	-11.0788	-36.065752	0.000416	4.155206	1.407822	0.000166
1732	1.7223e+02	-11.0387	-35.960787	0.000264	2.635009	0.892765	0.000105
1733	1.7233e+02	-11.0018	-35.867932	0.000233	2.330969	0.789754	0.000093
1734	1.7243e+02	-10.9537	-35.754893	0.000284	2.837702	0.961439	0.000114
1735	1.7253e+02	-10.9200	-35.706447	0.000122	1.216158	0.412045	0.000049
1736	1.7263e+02	-10.8815	-35.557073	0.000375	3.749820	1.270473	0.000150
1737	1.7273e+02	-10.8350	-35.464219	0.000233	2.330969	0.789754	0.000093
1738	1.7283e+02	-10.7965	-35.379439	0.000213	2.128276	0.721079	0.000085
1739	1.7293e+02	-10.7564	-35.282548	0.000243	2.432316	0.824091	0.000097
1740	1.7303e+02	-10.7195	-35.205842	0.000193	1.925583	0.652405	0.000077
1741	1.7313e+02	-10.6698	-35.149322	0.000142	1.418851	0.480720	0.000057
1742	1.7323e+02	-10.6329	-35.096840	0.000132	1.317504	0.446383	0.000053
1743	1.7333e+02	-10.5944	-34.951503	0.000365	3.648473	1.236136	0.000146
1744	1.7343e+02	-10.5559	-34.866723	0.000213	2.128276	0.721079	0.000085
1745	1.7353e+02	-10.5206	-34.769832	0.000243	2.432316	0.824091	0.000097
1746	1.7363e+02	-10.4756	-34.664866	0.000264	2.635009	0.892765	0.000105
1747	1.7373e+02	-10.4339	-34.584123	0.000203	2.026930	0.686742	0.000081
1748	1.7383e+02	-10.4002	-34.458972	0.000314	3.141741	1.064451	0.000126
1749	1.7393e+02	-10.3569	-34.382267	0.000193	1.925583	0.652405	0.000077
1750	1.7403e+02	-10.3152	-34.249041	0.000334	3.344434	1.133125	0.000134
1751	1.7413e+02	-10.2767	-34.152150	0.000243	2.432316	0.824091	0.000097
1752	1.7422e+02	-10.2462	-34.051221	0.000253	2.533662	0.858428	0.000101
1753	1.7432e+02	-10.1949	-33.938182	0.000284	2.837702	0.961439	0.000114
1754	1.7442e+02	-10.1580	-33.881662	0.000142	1.418851	0.480720	0.000057
1755	1.7452e+02	-10.1115	-33.756510	0.000314	3.141741	1.064451	0.000126
1756	1.7462e+02	-10.0778	-33.655582	0.000253	2.533662	0.858428	0.000101
1757	1.7472e+02	-10.0313	-33.574839	0.000203	2.026930	0.686742	0.000081
1758	1.7482e+02	-10.0024	-33.502171	0.000182	1.824237	0.618068	0.000073
1759	1.7492e+02	-9.9446	-33.409317	0.000233	2.330969	0.789754	0.000093
1760	1.7502e+02	-9.9158	-33.284166	0.000314	3.141741	1.064451	0.000126
1761	1.7512e+02	-9.8805	-33.199386	0.000213	2.128276	0.721079	0.000085
1762	1.7522e+02	-9.8388	-33.118643	0.000203	2.026930	0.686742	0.000081
1763	1.7532e+02	-9.8003	-33.033863	0.000213	2.128276	0.721079	0.000085
1764	1.7542e+02	-9.7553	-32.912749	0.000304	3.040395	1.030114	0.000122
1765	1.7552e+02	-9.7233	-32.819895	0.000233	2.330969	0.789754	0.000093
1766	1.7562e+02	-9.6751	-32.690707	0.000324	3.243087	1.098788	0.000130
1767	1.7572e+02	-9.6414	-32.569593	0.000304	3.040395	1.030114	0.000122
1768	1.7582e+02	-9.6013	-32.440404	0.000324	3.243087	1.098788	0.000130
1769	1.7592e+02	-9.5596	-32.387921	0.000132	1.317504	0.446383	0.000053
1770	1.7602e+02	-9.5195	-32.282956	0.000264	2.635009	0.892765	0.000105
1771	1.7612e+02	-9.4858	-32.218362	0.000162	1.621544	0.549394	0.000065
1772	1.7621e+02	-9.4345	-32.064951	0.000385	3.851166	1.304810	0.000154
1773	1.7631e+02	-9.3992	-31.939799	0.000314	3.141741	1.064451	0.000126
1774	1.7641e+02	-9.3575	-31.871168	0.000172	1.722890	0.583731	0.000069
1775	1.7651e+02	-9.3270	-31.814648	0.000142	1.418851	0.480720	0.000057
1776	1.7661e+02	-9.2741	-31.705646	0.000274	2.736355	0.927102	0.000110
1777	1.7671e+02	-9.2404	-31.641051	0.000162	1.621544	0.549394	0.000065
1778	1.7681e+02	-9.1955	-31.507826	0.000334	3.344434	1.133125	0.000134
1779	1.7691e+02	-9.1586	-31.427083	0.000203	2.026930	0.686742	0.000081
1780	1.7701e+02	-9.1201	-31.338266	0.000223	2.229623	0.755417	0.000089
1781	1.7711e+02	-9.0944	-31.241375	0.000243	2.432316	0.824091	0.000097
1782	1.7721e+02	-9.0431	-31.096038	0.000365	3.648473	1.236136	0.000146
1783	1.7731e+02	-9.0110	-31.015295	0.000203	2.026930	0.686742	0.000081
1784	1.7741e+02	-8.9661	-30.873996	0.000355	3.547127	1.201799	0.000142
1785	1.7751e+02	-8.9276	-30.728659	0.000365	3.648473	1.236136	0.000146
1786	1.7761e+02	-8.8810	-30.627730	0.000253	2.533662	0.858428	0.000101
1787	1.7771e+02	-8.8489	-30.542950	0.000213	2.128276	0.721079	0.000085
1788	1.7781e+02	-8.8056	-30.397614	0.000365	3.648473	1.236136	0.000146
1789	1.7791e+02	-8.7623	-30.312834	0.000213	2.128276	0.721079	0.000085
1790	1.7801e+02	-8.7334	-30.260351	0.000132	1.317504	0.446383	0.000053
1791	1.7810e+02	-8.6821	-30.110977	0.000375	3.749820	1.270473	0.000150
1792	1.7820e+02	-8.6452	-30.066568	0.000111	1.114811	0.377708	0.000045
1793	1.7830e+02	-8.5987	-29.981789	0.000213	2.128276	0.721079	0.000085
1794	1.7840e+02	-8.5570	-29.856637	0.000314	3.141741	1.064451	0.000126
1795	1.7850e+02	-8.5297	-29.755709	0.000253	2.533662	0.858428	0.000101
1796	1.7860e+02	-8.4752	-29.638632	0.000294	2.939048	0.995776	0.000118
1797	1.7870e+02	-8.4335	-29.553852	0.000213	2.128276	0.721079	0.000085
1798	1.7880e+02	-8.4014	-29.436775	0.000294	2.939048	0.995776	0.000118
1799	1.7890e+02	-8.3725	-29.311624	0.000314	3.141741	1.064451	0.000126
1800	1.7900e+02	-8.3244	-29.234918	0.000193	1.925583	0.652405	0.000077
1801	1.7910e+02	-8.2827	-29.101693	0.000334	3.344434	1.133125	0.000134
1802	1.7920e+02	-8.2361	-28.944245	0.000395	3.952513	1.339148	0.000158
1803	1.7930e+02	-8.2089	-28.815056	0.000324	3.243087	1.098788	0.000130
1804	1.7940e+02	-8.1607	-28.710091	0.000264	2.635009	0.892765	0.000105
1805	1.7950e+02	-8.1319	-28.641459	0.000172	1.722890	0.583731	0.000069
1806	1.7960e+02	-8.0918	-28.479974	0.000405	4.053859	1.373485	0.000162
1807	1.7970e+02	-8.0388	-28.391157	0.000223	2.229623	0.755417	0.000089
1808	1.7980e+02	-7.9987	-28.342711	0.000122	1.216158	0.412045	0.000049
1809	1.7990e+02	-7.9634	-28.225635	0.000294	2.939048	0.995776	0.000118
1810	1.8000e+02	-7.9281	-28.112595	0.000284	2.837702	0.961439	0.000114
1811	1.8009e+02	-7.8912	-28.015703	0.000243	2.432316	0.824091	0.000097
1812	1.8019e+02	-7.8415	-27.926886	0.000223	2.229623	0.755417	0.000089
1813	1.8029e+02	-7.8078	-27.842107	0.000213	2.128276	0.721079	0.000085
1814	1.8039e+02	-7.7709	-27.708881	0.000334	3.344434	1.133125	0.000134
1815	1.8049e+02	-7.7260	-27.603916	0.000264	2.635009	0.892765	0.000105
1816	1.8059e+02	-7.6987	-27.462616	0.000355	3.547127	1.201799	0.000142
1817	1.8069e+02	-7.6506	-27.373799	0.000223	2.229623	0.755417	0.000089
1818	1.8079e+02	-7.6185	-27.289019	0.000213	2.128276	0.721079	0.000085
1819	1.8089e+02	-7.5688	-27.188091	0.000253	2.533662	0.858428	0.000101
1820	1.8099e+02	-7.5206	-27.091199	0.000243	2.432316	0.824091	0.000097
1821	1.8109e+02	-7.4886	-26.901454	0.000476	4.763285	1.613845	0.000191
1822	1.8119e+02	-7.4436	-26.764191	0.000345	3.445780	1.167462	0.000138
1823	1.8129e+02	-7.4260	-26.715746	0.000122	1.216158	0.412045	0.000049
1824	1.8139e+02	-7.3618	-26.594632	0.000304	3.040395	1.030114	0.000122
1825	1.8149e+02	-7.3233	-26.501778	0.000233	2.330969	0.789754	0.000093
1826	1.8159e+02	-7.2928	-26.445258	0.000142	1.418851	0.480720	0.000057
1827	1.8169e+02	-7.2543	-26.320106	0.000314	3.141741	1.064451	0.000126
1828	1.8179e+02	-7.2078	-26.251475	0.000172	1.722890	0.583731	0.000069
1829	1.8189e+02	-7.1693	-26.098064	0.000385	3.851166	1.304810	0.000154
1830	1.8199e+02	-7.1292	-26.001173	0.000243	2.432316	0.824091	0.000097
1831	1.8209e+02	-7.0891	-25.920430	0.000203	2.026930	0.686742	0.000081
1832	1.8218e+02	-7.0602	-25.783167	0.000345	3.445780	1.167462	0.000138
1833	1.8228e+02	-7.0073	-25.706462	0.000193	1.925583	0.652405	0.000077
1834	1.8238e+02	-6.9704	-25.577273	0.000324	3.243087	1.098788	0.000130
1835	1.8248e+02	-6.9303	-25.472308	0.000264	2.635009	0.892765	0.000105
1836	1.8258e+02	-6.8886	-25.355231	0.000294	2.939048	0.995776	0.000118
1837	1.8268e+02	-6.8549	-25.250265	0.000264	2.635009	0.892765	0.000105
1838	1.8278e+02	-6.8116	-25.108966	0.000355	3.547127	1.201799	0.000142
1839	1.8288e+02	-6.7699	-24.987852	0.000304	3.040395	1.030114	0.000122
1840	1.8298e+02	-6.7394	-24.890960	0.000243	2.432316	0.824091	0.000097
1841	1.8308e+02	-6.6945	-24.765809	0.000314	3.141741	1.064451	0.000126
1842	1.8318e+02	-6.6511	-24.685066	0.000203	2.026930	0.686742	0.000081
1843	1.8328e+02	-6.6207	-24.628547	0.000142	1.418851	0.480720	0.000057
1844	1.8338e+02	-6.5645	-24.527618	0.000253	2.533662	0.858428	0.000101
1845	1.8348e+02	-6.5244	-24.362096	0.000416	4.155206	1.407822	0.000166
1846	1.8358e+02	-6.4859	-24.321724	0.000101	1.013465	0.343371	0.000041
1847	1.8368e+02	-6.4490	-24.192536	0.000324	3.243087	1.098788	0.000130
1848	1.8378e+02	-6.4105	-24.095645	0.000243	2.432316	0.824091	0.000097
1849	1.8388e+02	-6.3784	-23.994716	0.000253	2.533662	0.858428	0.000101
1850	1.8398e+02	-6.3335	-23.873602	0.000304	3.040395	1.030114	0.000122
1851	1.8407e+02	-6.3030	-23.764600	0.000274	2.736355	0.927102	0.000110
1852	1.8417e+02	-6.2613	-23.647523	0.000294	2.939048	0.995776	0.000118
1853	1.8427e+02	-6.2228	-23.530446	0.000294	2.939048	0.995776	0.000118
1854	1.8437e+02	-6.1779	-23.433554	0.000243	2.432316	0.824091	0.000097
1855	1.8447e+02	-6.1362	-23.328589	0.000264	2.635009	0.892765	0.000105
1856	1.8457e+02	-6.0977	-23.219586	0.000274	2.736355	0.927102	0.000110
1857	1.8467e+02	-6.0544	-23.066175	0.000385	3.851166	1.304810	0.000154
1858	1.8477e+02	-6.0159	-22.932950	0.000334	3.344434	1.133125	0.000134
1859	1.8487e+02	-5.9758	-22.815873	0.000294	2.939048	0.995776	0.000118
1860	1.8497e+02	-5.9212	-22.743204	0.000182	1.824237	0.618068	0.000073
1861	1.8507e+02	-5.9020	-22.678610	0.000162	1.621544	0.549394	0.000065
1862	1.8517e+02	-5.8587	-22.533273	0.000365	3.648473	1.236136	0.000146
1863	1.8527e+02	-5.8073	-22.448493	0.000213	2.128276	0.721079	0.000085
1864	1.8537e+02	-5.7640	-22.355639	0.000233	2.330969	0.789754	0.000093
1865	1.8547e+02	-5.7367	-22.246636	0.000274	2.736355	0.927102	0.000110
1866	1.8557e+02	-5.6966	-22.121485	0.000314	3.141741	1.064451	0.000126
1867	1.8567e+02	-5.6501	-22.008445	0.000284	2.837702	0.961439	0.000114
1868	1.8577e+02	-5.6148	-21.883294	0.000314	3.141741	1.064451	0.000126
1869	1.8587e+02	-5.5763	-21.754106	0.000324	3.243087	1.098788	0.000130
1870	1.8597e+02	-5.5442	-21.677400	0.000193	1.925583	0.652405	0.000077
1871	1.8606e+02	-5.5009	-21.564361	0.000284	2.837702	0.961439	0.000114
1872	1.8616e+02	-5.4512	-21.414987	0.000375	3.749820	1.270473	0.000150
1873	1.8626e+02	-5.4127	-21.346355	0.000172	1.722890	0.583731	0.000069
1874	1.8636e+02	-5.3758	-21.213130	0.000334	3.344434	1.133125	0.000134
1875	1.8646e+02	-5.3453	-21.067793	0.000365	3.648473	1.236136	0.000146
1876	1.8656e+02	-5.2956	-20.954753	0.000284	2.837702	0.961439	0.000114
1877	1.8666e+02	-5.2507	-20.874010	0.000203	2.026930	0.686742	0.000081
1878	1.8676e+02	-5.2170	-20.809416	0.000162	1.621544	0.549394	0.000065
1879	1.8686e+02	-5.1785	-20.668116	0.000355	3.547127	1.201799	0.000142
1880	1.8696e+02	-5.1400	-20.559114	0.000274	2.736355	0.927102	0.000110
1881	1.8706e+02	-5.0966	-20.494520	0.000162	1.621544	0.549394	0.000065
1882	1.8716e+02	-5.0549	-20.349183	0.000365	3.648473	1.236136	0.000146
1883	1.8726e+02	-5.0180	-20.219994	0.000324	3.243087	1.098788	0.000130
1884	1.8736e+02	-4.9811	-20.139252	0.000203	2.026930	0.686742	0.000081
1885	1.8746e+02	-4.9362	-19.997952	0.000355	3.547127	1.201799	0.000142
1886	1.8756e+02	-4.8945	-19.921246	0.000193	1.925583	0.652405	0.000077
1887	1.8766e+02	-4.8705	-19.800132	0.000304	3.040395	1.030114	0.000122
1888	1.8776e+02	-4.8271	-19.699204	0.000253	2.533662	0.858428	0.000101
1889	1.8786e+02	-4.7870	-19.541756	0.000395	3.952513	1.339148	0.000158
1890	1.8796e+02	-4.7501	-19.456976	0.000213	2.128276	0.721079	0.000085
1891	1.8806e+02	-4.7084	-19.339899	0.000294	2.939048	0.995776	0.000118
1892	1.8815e+02	-4.6667	-19.214748	0.000314	3.141741	1.064451	0.000126
1893	1.8825e+02	-4.6234	-19.057299	0.000395	3.952513	1.339148	0.000158
1894	1.8835e+02	-4.5849	-18.944259	0.000284	2.837702	0.961439	0.000114
1895	1.8845e+02	-4.5384	-18.883702	0.000152	1.520197	0.515057	0.000061
1896	1.8855e+02	-4.5031	-18.786811	0.000243	2.432316	0.824091	0.000097
1897	1.8865e+02	-4.4630	-18.665697	0.000304	3.040395	1.030114	0.000122
1898	1.8875e+02	-4.4165	-18.536509	0.000324	3.243087	1.098788	0.000130
1899	1.8885e+02	-4.3860	-18.411358	0.000314	3.141741	1.064451	0.000126
1900	1.8895e+02	-4.3539	-18.282169	0.000324	3.243087	1.098788	0.000130
1901	1.8905e+02	-4.3026	-18.177204	0.000264	2.635009	0.892765	0.000105
1902	1.8915e+02	-4.2737	-18.052052	0.000314	3.141741	1.064451	0.000126
1903	1.8925e+02	-4.2223	-17.943050	0.000274	2.736355	0.927102	0.000110
1904	1.8935e+02	-4.1903	-17.821936	0.000304	3.040395	1.030114	0.000122
1905	1.8945e+02	-4.1453	-17.733119	0.000223	2.229623	0.755417	0.000089
1906	1.8955e+02	-4.1116	-17.551448	0.000456	4.560592	1.545170	0.000183
1907	1.8965e+02	-4.0635	-17.458593	0.000233	2.330969	0.789754	0.000093
1908	1.8975e+02	-4.0186	-17.357665	0.000253	2.533662	0.858428	0.000101
1909	1.8985e+02	-3.9817	-17.188105	0.000426	4.256552	1.442159	0.000170
1910	1.8995e+02	-3.9432	-17.038731	0.000375	3.749820	1.270473	0.000150
1911	1.9004e+02	-3.9063	-16.921654	0.000294	2.939048	0.995776	0.000118
1912	1.9014e+02	-3.8614	-16.796503	0.000314	3.141741	1.064451	0.000126
1913	1.9024e+02	-3.8101	-16.727872	0.000172	1.722890	0.583731	0.000069
1914	1.9034e+02	-3.7828	-16.602721	0.000314	3.141741	1.064451	0.000126
1915	1.9044e+02	-3.7443	-16.473532	0.000324	3.243087	1.098788	0.000130
1916	1.9054e+02	-3.7010	-16.400864	0.000182	1.824237	0.618068	0.000073
1917	1.9064e+02	-3.6625	-16.267638	0.000334	3.344434	1.133125	0.000134
1918	1.9074e+02	-3.6224	-16.146524	0.000304	3.040395	1.030114	0.000122
1919	1.9084e+02	-3.5855	-16.033485	0.000284	2.837702	0.961439	0.000114
1920	1.9094e+02	-3.5550	-15.871999	0.000405	4.053859	1.373485	0.000162
1921	1.9104e+02	-3.5004	-15.779145	0.000233	2.330969	0.789754	0.000093
1922	1.9114e+02	-3.4619	-15.617660	0.000405	4.053859	1.373485	0.000162
1923	1.9124e+02	-3.4282	-15.480397	0.000345	3.445780	1.167462	0.000138
1924	1.9134e+02	-3.3833	-15.403691	0.000193	1.925583	0.652405	0.000077
1925	1.9144e+02	-3.3400	-15.266429	0.000345	3.445780	1.167462	0.000138
1926	1.9154e+02	-3.3111	-15.092832	0.000436	4.357899	1.476496	0.000174
1927	1.9164e+02	-3.2694	-14.955569	0.000345	3.445780	1.167462	0.000138
1928	1.9174e+02	-3.2261	-14.858678	0.000243	2.432316	0.824091	0.000097
1929	1.9184e+02	-3.1844	-14.757750	0.000253	2.533662	0.858428	0.000101
1930	1.9194e+02	-3.1475	-14.592227	0.000416	4.155206	1.407822	0.000166
1931	1.9203e+02	-3.1106	-14.523596	0.000172	1.722890	0.583731	0.000069
1932	1.9213e+02	-3.0689	-14.410556	0.000284	2.837702	0.961439	0.000114
1933	1.9223e+02	-3.0288	-14.285405	0.000314	3.141741	1.064451	0.000126
1934	1.9233e+02	-2.9871	-14.144105	0.000355	3.547127	1.201799	0.000142
1935	1.9243e+02	-2.9422	-14.071437	0.000182	1.824237	0.618068	0.000073
1936	1.9253e+02	-2.9037	-13.909951	0.000405	4.053859	1.373485	0.000162
1937	1.9263e+02	-2.8668	-13.788837	0.000304	3.040395	1.030114	0.000122
1938	1.9273e+02	-2.8251	-13.675797	0.000284	2.837702	0.961439	0.000114
1939	1.9283e+02	-2.7898	-13.510275	0.000416	4.155206	1.407822	0.000166
1940	1.9293e+02	-2.7513	-13.405309	0.000264	2.635009	0.892765	0.000105
1941	1.9303e+02	-2.7063	-13.259972	0.000365	3.648473	1.236136	0.000146
1942	1.9313e+02	-2.6678	-13.098487	0.000405	4.053859	1.373485	0.000162
1943	1.9323e+02	-2.6293	-13.005633	0.000233	2.330969	0.789754	0.000093
1944	1.9333e+02	-2.5860	-12.852222	0.000385	3.851166	1.304810	0.000154
1945	1.9343e+02	-2.5523	-12.727070	0.000314	3.141741	1.064451	0.000126
1946	1.9353e+02	-2.5138	-12.589808	0.000345	3.445780	1.167462	0.000138
1947	1.9363e+02	-2.4785	-12.444471	0.000365	3.648473	1.236136	0.000146
1948	1.9373e+02	-2.4272	-12.383914	0.000152	1.520197	0.515057	0.000061
1949	1.9383e+02	-2.3855	-12.238577	0.000365	3.648473	1.236136	0.000146
1950	1.9393e+02	-2.3486	-12.093240	0.000365	3.648473	1.236136	0.000146
1951	1.9403e+02	-2.3165	-12.004423	0.000223	2.229623	0.755417	0.000089
1952	1.9412e+02	-2.2796	-11.867161	0.000345	3.445780	1.167462	0.000138
1953	1.9422e+02	-2.2411	-11.737972	0.000324	3.243087	1.098788	0.000130
1954	1.9432e+02	-2.1930	-11.628969	0.000274	2.736355	0.927102	0.000110
1955	1.9442e+02	-2.1529	-11.459410	0.000426	4.256552	1.442159	0.000170
1956	1.9452e+02	-2.1144	-11.322147	0.000345	3.445780	1.167462	0.000138
1957	1.9462e+02	-2.0727	-11.201033	0.000304	3.040395	1.030114	0.000122
1958	1.9472e+02	-2.0278	-11.039548	0.000405	4.053859	1.373485	0.000162
1959	1.9482e+02	-1.9860	-10.861914	0.000446	4.459245	1.510833	0.000179
1960	1.9492e+02	-1.9540	-10.769060	0.000233	2.330969	0.789754	0.000093
1961	1.9502e+02	-1.9187	-10.656020	0.000284	2.837702	0.961439	0.000114
1962	1.9512e+02	-1.8753	-10.486460	0.000426	4.256552	1.442159	0.000170
1963	1.9522e+02	-1.8240	-10.308826	0.000446	4.459245	1.510833	0.000179
1964	1.9532e+02	-1.7951	-10.215972	0.000233	2.330969	0.789754	0.000093
1965	1.9542e+02	-1.7518	-10.034301	0.000456	4.560592	1.545170	0.000183
1966	1.9552e+02	-1.7085	-9.961632	0.000182	1.824237	0.618068	0.000073
1967	1.9562e+02	-1.6700	-9.856667	0.000264	2.635009	0.892765	0.000105
1968	1.9572e+02	-1.6267	-9.739590	0.000294	2.939048	0.995776	0.000118
1969	1.9582e+02	-1.6026	-9.565993	0.000436	4.357899	1.476496	0.000174
1970	1.9592e+02	-1.5529	-9.412582	0.000385	3.851166	1.304810	0.000154
1971	1.9601e+02	-1.5128	-9.352025	0.000152	1.520197	0.515057	0.000061
1972	1.9611e+02	-1.4759	-9.178428	0.000436	4.357899	1.476496	0.000174
1973	1.9621e+02	-1.4326	-9.020980	0.000395	3.952513	1.339148	0.000158
1974	1.9631e+02	-1.4021	-8.899866	0.000304	3.040395	1.030114	0.000122
1975	1.9641e+02	-1.3588	-8.758566	0.000355	3.547127	1.201799	0.000142
1976	1.9651e+02	-1.3091	-8.613229	0.000365	3.648473	1.236136	0.000146
1977	1.9661e+02	-1.2689	-8.455781	0.000395	3.952513	1.339148	0.000158
1978	1.9671e+02	-1.2369	-8.314481	0.000355	3.547127	1.201799	0.000142
1979	1.9681e+02	-1.1855	-8.189330	0.000314	3.141741	1.064451	0.000126
1980	1.9691e+02	-1.1486	-8.068216	0.000304	3.040395	1.030114	0.000122
1981	1.9701e+02	-1.1165	-7.922879	0.000365	3.648473	1.236136	0.000146
1982	1.9711e+02	-1.0764	-7.769468	0.000385	3.851166	1.304810	0.000154
1983	1.9721e+02	-1.0411	-7.668539	0.000253	2.533662	0.858428	0.000101
1984	1.9731e+02	-1.0010	-7.555500	0.000284	2.837702	0.961439	0.000114
1985	1.9741e+02	-0.9545	-7.426311	0.000324	3.243087	1.098788	0.000130
1986	1.9751e+02	-0.9176	-7.297123	0.000324	3.243087	1.098788	0.000130
1987	1.9761e+02	-0.8823	-7.167935	0.000324	3.243087	1.098788	0.000130
1988	1.9771e+02	-0.8470	-7.050858	0.000294	2.939048	0.995776	0.000118
1989	1.9781e+02	-0.7925	-6.925706	0.000314	3.141741	1.064451	0.000126
1990	1.9791e+02	-0.7508	-6.752110	0.000436	4.357899	1.476496	0.000174
1991	1.9800e+02	-0.7123	-6.594661	0.000395	3.952513	1.339148	0.000158
1992	1.9810e+02	-0.6754	-6.517956	0.000193	1.925583	0.652405	0.000077
1993	1.9820e+02	-0.6289	-6.344359	0.000436	4.357899	1.476496	0.000174
1994	1.9830e+02	-0.6000	-6.174799	0.000426	4.256552	1.442159	0.000170
1995	1.9840e+02	-0.5631	-6.005239	0.000426	4.256552	1.442159	0.000170
1996	1.9850e+02	-0.5150	-5.908348	0.000243	2.432316	0.824091	0.000097
1997	1.9860e+02	-0.4700	-5.722640	0.000466	4.661938	1.579507	0.000187
1998	1.9870e+02	-0.4380	-5.637860	0.000213	2.128276	0.721079	0.000085
1999	1.9880e+02	-0.4011	-5.448115	0.000476	4.763285	1.613845	0.000191
2000	1.9890e+02	-0.3481	-5.367372	0.000203	2.026930	0.686742	0.000081
2001	1.9900e+02	-0.3096	-5.226072	0.000355	3.547127	1.201799	0.000142
2002	1.9910e+02	-0.2791	-5.113032	0.000284	2.837702	0.961439	0.000114
2003	1.9920e+02	-0.2390	-5.020178	0.000233	2.330969	0.789754	0.000093
2004	1.9930e+02	-0.1973	-4.838507	0.000456	4.560592	1.545170	0.000183
2005	1.9940e+02	-0.1620	-4.737579	0.000253	2.533662	0.858428	0.000101
2006	1.9950e+02	-0.1235	-4.568019	0.000426	4.256552	1.442159	0.000170
2007	1.9960e+02	-0.0770	-4.422682	0.000365	3.648473	1.236136	0.000146
2008	1.9970e+02	-0.0417	-4.309642	0.000284	2.837702	0.961439	0.000114
2009	1.9980e+02	0.0048	-4.184491	0.000284	2.837702	0.961439	0.000126

Center data before PMax,+/-Pr and +/-Vc Calc.

PMax (uC/cm2):	5.39e+01
Pr (uC/cm2):	8.49e-01
-Pr (uC/cm2):	-4.18e+00
PLoss (uC/cm2):	-1.98e+00
Vc:	7.10e-01
-Vc:	-2.49e-01
C (Max-Eff) (nF):	2.69e-01
K (Eff):	9.13e+02
Vert. (+/-Pr) Shift (uC/cm2):	-1.67e+00
Horiz. Shift (+/-Vc):	2.31e-01
Offset (uC/cm2):	2.12e+00

A (Loop Area - uC/cm2·Volts):	3.76e-02



Hysteresis Version: 5.48.1 - Radiant Technologies, Inc., 1999 - 9/12/24

