»»»»»»»»»»»»»»»»»»»»»»»»»»»»»»»»»»»» Hysteresis ««««««««««««««««««««««««««««««««««««
»»»  Executed Version:	5.48.1
»»»  Vision Version:	5.48.4 (R)
»»»  Vision Compiled:	9/18/24
»»»  Driver Version:	5.47.0
»»»  Windows Version:	Windows 8 or 8.1
»»»  Processor Information:	x86 (AMD or Intel) - 32 Processors
»»»  Tester Name:	PMF21124-494 (100V)
»»»  Tester S/N:	PMF21124-494
»»»  Internal Amp Type:	100V RevK 270k
»»»  Internal Amp S/N:	iAB2-596/K     
»»»  Execution Count:	1
»»»»»»»»»»»»»»»»»»»»»»»»»»»»»»»»»»»»»»»»»»««««««««««««««««««««««««««««««««««««««««««

Stored:	6/13/2025 - 14:59:15
Configured:	06/13/25 01:30:53 PM
Executed:	06/13/25 02:58:43 PM

»»»»»»»»»»»»»»»»»»»»»»»»»»»»»»»»»»» Sample Info ««««««««««««««««««««««««««««««««««««
Sample Name:	
Lot Name:	
Wafer Name:	
Die Row/Column:	0/0
Capacitor Number:	0
Sample Area (cm2):	1.00e-04
Sample Thickness (microns):	3.00e-01

Amplifier:	Internal

»»»»»»»»»»»»»»»»»»»»»»»»»»»»»»»»»»» Tester Info «««««««««««««««««««««««««««««««««««
Tester Name:	PMF21124-494 (100V)
Tester Serial Number:	PMF21124-494
Return Signal Amp. Level:	0.19 [Index: 3]

»»»»»»»»»»»»»»»»»»»»»»»»»»»»»»»» Hysteresis Info ««««««««««««««««««««««««««««««««««
Task Name:	Hyst-1922
Volts:	20.00
Field:	666.67 (kV/cm)
DCBias:	0.00
DCField:	0.00 (kV/cm)
Hysteresis Period (ms):	2.00e+02
Preset:	Enabled
Preset Delay (ms):	1.00e+03
Profile:	Standard Bipolar

»»»»»»»»»»»»»»»»»»»»»»»»»»»»»»»»»»»»»» Data «««««««««««««««««««««««««««««««««««««««
Points:	2009

Valid Data

Point	Time (ms)	Drive Voltage	Measured Polarization (uC/cm2)	Capacitance (uF)	Normalized Capacitance (uF/cm2)	Dielectric Constant	Instantaneous Current (mA)
   1	0.0000e+00	0.0000	-2.153812	0.000355	3.547412	1.201896	0.000142
   2	9.9500e-02	0.0289	-2.012512	0.000355	3.547412	1.201896	0.000142
   3	1.9900e-01	0.0722	-1.891398	0.000304	3.040638	1.030196	0.000122
   4	2.9850e-01	0.1139	-1.770284	0.000304	3.040638	1.030196	0.000122
   5	3.9800e-01	0.1604	-1.592650	0.000446	4.459603	1.510954	0.000179
   6	4.9750e-01	0.1941	-1.540167	0.000132	1.317610	0.446418	0.000053
   7	5.9700e-01	0.2262	-1.410979	0.000324	3.243348	1.098876	0.000130
   8	6.9650e-01	0.2711	-1.289865	0.000304	3.040638	1.030196	0.000122
   9	7.9600e-01	0.3144	-1.152602	0.000345	3.446057	1.167556	0.000138
  10	8.9550e-01	0.3497	-1.055711	0.000243	2.432511	0.824157	0.000097
  11	9.9500e-01	0.4043	-0.934597	0.000304	3.040638	1.030196	0.000122
  12	1.0945e+00	0.4347	-0.789260	0.000365	3.648766	1.236235	0.000146
  13	1.1940e+00	0.4700	-0.668146	0.000304	3.040638	1.030196	0.000122
  14	1.2935e+00	0.5101	-0.522809	0.000365	3.648766	1.236235	0.000146
  15	1.3930e+00	0.5519	-0.385546	0.000345	3.446057	1.167556	0.000138
  16	1.4925e+00	0.5855	-0.292692	0.000233	2.331156	0.789817	0.000093
  17	1.5920e+00	0.6240	-0.115058	0.000446	4.459603	1.510954	0.000179
  18	1.6915e+00	0.6642	0.026241	0.000355	3.547412	1.201896	0.000142
  19	1.7910e+00	0.7075	0.131207	0.000264	2.635220	0.892837	0.000105
  20	1.8905e+00	0.7572	0.276544	0.000365	3.648766	1.236235	0.000146
  21	1.9900e+00	0.7845	0.462252	0.000466	4.662312	1.579634	0.000187
  22	2.0895e+00	0.8246	0.522809	0.000152	1.520319	0.515098	0.000061
  23	2.1890e+00	0.8791	0.639886	0.000294	2.939284	0.995856	0.000118
  24	2.2885e+00	0.9080	0.769074	0.000324	3.243348	1.098876	0.000130
  25	2.3880e+00	0.9593	0.890188	0.000304	3.040638	1.030196	0.000122
  26	2.4875e+00	0.9818	1.023414	0.000334	3.344702	1.133216	0.000134
  27	2.5870e+00	1.0251	1.180862	0.000395	3.952830	1.339255	0.000158
  28	2.6865e+00	1.0636	1.289865	0.000274	2.736575	0.927177	0.000110
  29	2.7860e+00	1.1101	1.435202	0.000365	3.648766	1.236235	0.000146
  30	2.8855e+00	1.1486	1.528056	0.000233	2.331156	0.789817	0.000093
  31	2.9850e+00	1.1919	1.673393	0.000365	3.648766	1.236235	0.000146
  32	3.0845e+00	1.2353	1.871212	0.000497	4.966376	1.682654	0.000199
  33	3.1840e+00	1.2722	1.947918	0.000193	1.925738	0.652458	0.000077
  34	3.2835e+00	1.3107	2.113441	0.000416	4.155539	1.407935	0.000166
  35	3.3830e+00	1.3508	2.246666	0.000334	3.344702	1.133216	0.000134
  36	3.4825e+00	1.3877	2.412189	0.000416	4.155539	1.407935	0.000166
  37	3.5820e+00	1.4310	2.525228	0.000284	2.837929	0.961516	0.000114
  38	3.6815e+00	1.4743	2.682677	0.000395	3.952830	1.339255	0.000158
  39	3.7810e+00	1.5192	2.799754	0.000294	2.939284	0.995856	0.000118
  40	3.8805e+00	1.5545	2.928942	0.000324	3.243348	1.098876	0.000130
  41	3.9800e+00	1.5850	3.078316	0.000375	3.750121	1.270575	0.000150
  42	4.0795e+00	1.6235	3.183282	0.000264	2.635220	0.892837	0.000105
  43	4.1790e+00	1.6700	3.308433	0.000314	3.141993	1.064536	0.000126
  44	4.2785e+00	1.7149	3.433584	0.000314	3.141993	1.064536	0.000126
  45	4.3780e+00	1.7502	3.591032	0.000395	3.952830	1.339255	0.000158
  46	4.4775e+00	1.7855	3.687923	0.000243	2.432511	0.824157	0.000097
  47	4.5770e+00	1.8320	3.845372	0.000395	3.952830	1.339255	0.000158
  48	4.6765e+00	1.8673	4.039154	0.000487	4.865022	1.648314	0.000195
  49	4.7760e+00	1.9074	4.132008	0.000233	2.331156	0.789817	0.000093
  50	4.8755e+00	1.9475	4.241011	0.000274	2.736575	0.927177	0.000110
  51	4.9750e+00	1.9796	4.394422	0.000385	3.851475	1.304915	0.000154
  52	5.0745e+00	2.0294	4.511499	0.000294	2.939284	0.995856	0.000118
  53	5.1740e+00	2.0582	4.648762	0.000345	3.446057	1.167556	0.000138
  54	5.2735e+00	2.1031	4.802173	0.000385	3.851475	1.304915	0.000154
  55	5.3730e+00	2.1465	5.012104	0.000527	5.270440	1.785673	0.000211
  56	5.4725e+00	2.1850	5.129181	0.000294	2.939284	0.995856	0.000118
  57	5.5720e+00	2.2283	5.242221	0.000284	2.837929	0.961516	0.000114
  58	5.6715e+00	2.2732	5.383521	0.000355	3.547412	1.201896	0.000142
  59	5.7710e+00	2.3133	5.504635	0.000304	3.040638	1.030196	0.000122
  60	5.8705e+00	2.3390	5.641897	0.000345	3.446057	1.167556	0.000138
  61	5.9700e+00	2.3791	5.771086	0.000324	3.243348	1.098876	0.000130
  62	6.0695e+00	2.4304	5.924497	0.000385	3.851475	1.304915	0.000154
  63	6.1690e+00	2.4641	6.045611	0.000304	3.040638	1.030196	0.000122
  64	6.2685e+00	2.5090	6.174799	0.000324	3.243348	1.098876	0.000130
  65	6.3680e+00	2.5475	6.291876	0.000294	2.939284	0.995856	0.000118
  66	6.4675e+00	2.5796	6.469510	0.000446	4.459603	1.510954	0.000179
  67	6.5670e+00	2.6229	6.586587	0.000294	2.939284	0.995856	0.000118
  68	6.6665e+00	2.6727	6.731924	0.000365	3.648766	1.236235	0.000146
  69	6.7660e+00	2.7047	6.832852	0.000253	2.533865	0.858497	0.000101
  70	6.8655e+00	2.7400	7.010486	0.000446	4.459603	1.510954	0.000179
  71	6.9650e+00	2.7721	7.135637	0.000314	3.141993	1.064536	0.000126
  72	7.0645e+00	2.8267	7.309234	0.000436	4.358248	1.476615	0.000174
  73	7.1640e+00	2.8780	7.454571	0.000365	3.648766	1.236235	0.000146
  74	7.2635e+00	2.9133	7.595871	0.000355	3.547412	1.201896	0.000142
  75	7.3630e+00	2.9438	7.712948	0.000294	2.939284	0.995856	0.000118
  76	7.4625e+00	2.9807	7.834062	0.000304	3.040638	1.030196	0.000122
  77	7.5620e+00	3.0176	7.959213	0.000314	3.141993	1.064536	0.000126
  78	7.6615e+00	3.0593	8.068216	0.000274	2.736575	0.927177	0.000110
  79	7.7610e+00	3.1074	8.237775	0.000426	4.256894	1.442275	0.000170
  80	7.8605e+00	3.1379	8.379075	0.000355	3.547412	1.201896	0.000142
  81	7.9600e+00	3.1780	8.496152	0.000294	2.939284	0.995856	0.000118
  82	8.0595e+00	3.2149	8.637452	0.000355	3.547412	1.201896	0.000142
  83	8.1590e+00	3.2694	8.750492	0.000284	2.837929	0.961516	0.000114
  84	8.2585e+00	3.3063	8.867569	0.000294	2.939284	0.995856	0.000118
  85	8.3580e+00	3.3384	9.029054	0.000405	4.054185	1.373595	0.000162
  86	8.4575e+00	3.3769	9.162280	0.000334	3.344702	1.133216	0.000134
  87	8.5570e+00	3.4202	9.327802	0.000416	4.155539	1.407935	0.000166
  88	8.6565e+00	3.4684	9.485250	0.000395	3.952830	1.339255	0.000158
  89	8.7560e+00	3.4940	9.602327	0.000294	2.939284	0.995856	0.000118
  90	8.8555e+00	3.5405	9.775924	0.000436	4.358248	1.476615	0.000174
  91	8.9550e+00	3.5855	9.933372	0.000395	3.952830	1.339255	0.000158
  92	9.0545e+00	3.6240	10.014115	0.000203	2.027092	0.686797	0.000081
  93	9.1540e+00	3.6625	10.203861	0.000476	4.763667	1.613974	0.000191
  94	9.2535e+00	3.7042	10.260380	0.000142	1.418965	0.480758	0.000057
  95	9.3530e+00	3.7395	10.401680	0.000355	3.547412	1.201896	0.000142
  96	9.4525e+00	3.7860	10.555091	0.000385	3.851475	1.304915	0.000154
  97	9.5520e+00	3.8149	10.696391	0.000355	3.547412	1.201896	0.000142
  98	9.6515e+00	3.8534	10.817505	0.000304	3.040638	1.030196	0.000122
  99	9.7510e+00	3.9063	10.954768	0.000345	3.446057	1.167556	0.000138
 100	9.8505e+00	3.9384	11.087993	0.000334	3.344702	1.133216	0.000134
 101	9.9500e+00	3.9801	11.221219	0.000334	3.344702	1.133216	0.000134
 102	1.0050e+01	4.0138	11.342333	0.000304	3.040638	1.030196	0.000122
 103	1.0149e+01	4.0539	11.451336	0.000274	2.736575	0.927177	0.000110
 104	1.0248e+01	4.1052	11.616858	0.000416	4.155539	1.407935	0.000166
 105	1.0348e+01	4.1453	11.766232	0.000375	3.750121	1.270575	0.000150
 106	1.0447e+01	4.1758	11.879272	0.000284	2.837929	0.961516	0.000114
 107	1.0547e+01	4.2143	12.069017	0.000476	4.763667	1.613974	0.000191
 108	1.0646e+01	4.2544	12.178020	0.000274	2.736575	0.927177	0.000110
 109	1.0746e+01	4.2929	12.359691	0.000456	4.560958	1.545294	0.000183
 110	1.0845e+01	4.3378	12.476768	0.000294	2.939284	0.995856	0.000118
 111	1.0945e+01	4.3796	12.589808	0.000284	2.837929	0.961516	0.000114
 112	1.1044e+01	4.4213	12.666513	0.000193	1.925738	0.652458	0.000077
 113	1.1144e+01	4.4550	12.807813	0.000355	3.547412	1.201896	0.000142
 114	1.1243e+01	4.4951	12.957187	0.000375	3.750121	1.270575	0.000150
 115	1.1343e+01	4.5352	13.074264	0.000294	2.939284	0.995856	0.000118
 116	1.1443e+01	4.5753	13.199415	0.000314	3.141993	1.064536	0.000126
 117	1.1542e+01	4.6154	13.336678	0.000345	3.446057	1.167556	0.000138
 118	1.1642e+01	4.6571	13.445681	0.000274	2.736575	0.927177	0.000110
 119	1.1741e+01	4.6988	13.611203	0.000416	4.155539	1.407935	0.000166
 120	1.1841e+01	4.7341	13.700020	0.000223	2.229802	0.755477	0.000089
 121	1.1940e+01	4.7630	13.857468	0.000395	3.952830	1.339255	0.000158
 122	1.2040e+01	4.8127	14.010880	0.000385	3.851475	1.304915	0.000154
 123	1.2139e+01	4.8544	14.172365	0.000405	4.054185	1.373595	0.000162
 124	1.2239e+01	4.9009	14.293479	0.000304	3.040638	1.030196	0.000122
 125	1.2338e+01	4.9298	14.426705	0.000334	3.344702	1.133216	0.000134
 126	1.2438e+01	4.9827	14.596264	0.000426	4.256894	1.442275	0.000170
 127	1.2537e+01	5.0116	14.725453	0.000324	3.243348	1.098876	0.000130
 128	1.2636e+01	5.0614	14.834455	0.000274	2.736575	0.927177	0.000110
 129	1.2736e+01	5.0886	14.895012	0.000152	1.520319	0.515098	0.000061
 130	1.2835e+01	5.1319	15.032275	0.000345	3.446057	1.167556	0.000138
 131	1.2935e+01	5.1865	15.177612	0.000365	3.648766	1.236235	0.000146
 132	1.3034e+01	5.2138	15.302763	0.000314	3.141993	1.064536	0.000126
 133	1.3134e+01	5.2683	15.472323	0.000426	4.256894	1.442275	0.000170
 134	1.3233e+01	5.2972	15.524805	0.000132	1.317610	0.446418	0.000053
 135	1.3333e+01	5.3341	15.694365	0.000426	4.256894	1.442275	0.000170
 136	1.3432e+01	5.3774	15.827591	0.000334	3.344702	1.133216	0.000134
 137	1.3532e+01	5.4207	15.944668	0.000294	2.939284	0.995856	0.000118
 138	1.3632e+01	5.4448	16.065782	0.000304	3.040638	1.030196	0.000122
 139	1.3731e+01	5.4865	16.203044	0.000345	3.446057	1.167556	0.000138
 140	1.3831e+01	5.5330	16.336270	0.000334	3.344702	1.133216	0.000134
 141	1.3930e+01	5.5715	16.469495	0.000334	3.344702	1.133216	0.000134
 142	1.4030e+01	5.6084	16.651166	0.000456	4.560958	1.545294	0.000183
 143	1.4129e+01	5.6533	16.804578	0.000385	3.851475	1.304915	0.000154
 144	1.4229e+01	5.6950	16.889357	0.000213	2.128447	0.721137	0.000085
 145	1.4328e+01	5.7255	16.998360	0.000274	2.736575	0.927177	0.000110
 146	1.4428e+01	5.7768	17.119474	0.000304	3.040638	1.030196	0.000122
 147	1.4527e+01	5.8137	17.216365	0.000243	2.432511	0.824157	0.000097
 148	1.4627e+01	5.8474	17.341517	0.000314	3.141993	1.064536	0.000126
 149	1.4726e+01	5.9036	17.490891	0.000375	3.750121	1.270575	0.000150
 150	1.4825e+01	5.9341	17.624116	0.000334	3.344702	1.133216	0.000134
 151	1.4925e+01	5.9838	17.745230	0.000304	3.040638	1.030196	0.000122
 152	1.5024e+01	6.0143	17.866344	0.000304	3.040638	1.030196	0.000122
 153	1.5124e+01	6.0528	17.959198	0.000233	2.331156	0.789817	0.000093
 154	1.5223e+01	6.0881	18.140869	0.000456	4.560958	1.545294	0.000183
 155	1.5323e+01	6.1346	18.270058	0.000324	3.243348	1.098876	0.000130
 156	1.5422e+01	6.1747	18.379060	0.000274	2.736575	0.927177	0.000110
 157	1.5522e+01	6.2068	18.508249	0.000324	3.243348	1.098876	0.000130
 158	1.5621e+01	6.2485	18.673771	0.000416	4.155539	1.407935	0.000166
 159	1.5721e+01	6.2918	18.819108	0.000365	3.648766	1.236235	0.000146
 160	1.5820e+01	6.3303	18.972519	0.000385	3.851475	1.304915	0.000154
 161	1.5920e+01	6.3704	19.065374	0.000233	2.331156	0.789817	0.000093
 162	1.6020e+01	6.4137	19.190525	0.000314	3.141993	1.064536	0.000126
 163	1.6119e+01	6.4586	19.315676	0.000314	3.141993	1.064536	0.000126
 164	1.6218e+01	6.4795	19.424679	0.000274	2.736575	0.927177	0.000110
 165	1.6318e+01	6.5260	19.533681	0.000274	2.736575	0.927177	0.000110
 166	1.6418e+01	6.5709	19.658832	0.000314	3.141993	1.064536	0.000126
 167	1.6517e+01	6.6078	19.783984	0.000314	3.141993	1.064536	0.000126
 168	1.6616e+01	6.6528	19.921246	0.000345	3.446057	1.167556	0.000138
 169	1.6716e+01	6.6816	20.058509	0.000345	3.446057	1.167556	0.000138
 170	1.6816e+01	6.7217	20.155400	0.000243	2.432511	0.824157	0.000097
 171	1.6915e+01	6.7699	20.296700	0.000355	3.547412	1.201896	0.000142
 172	1.7015e+01	6.8019	20.417814	0.000304	3.040638	1.030196	0.000122
 173	1.7114e+01	6.8453	20.534891	0.000294	2.939284	0.995856	0.000118
 174	1.7213e+01	6.8854	20.664079	0.000324	3.243348	1.098876	0.000130
 175	1.7313e+01	6.9255	20.785193	0.000304	3.040638	1.030196	0.000122
 176	1.7413e+01	6.9656	20.962827	0.000446	4.459603	1.510954	0.000179
 177	1.7512e+01	7.0073	21.067793	0.000264	2.635220	0.892837	0.000105
 178	1.7611e+01	7.0474	21.192944	0.000314	3.141993	1.064536	0.000126
 179	1.7711e+01	7.0731	21.342318	0.000375	3.750121	1.270575	0.000150
 180	1.7811e+01	7.1340	21.443246	0.000253	2.533865	0.858497	0.000101
 181	1.7910e+01	7.1709	21.588583	0.000365	3.648766	1.236235	0.000146
 182	1.8009e+01	7.2126	21.657215	0.000172	1.723028	0.583778	0.000069
 183	1.8109e+01	7.2463	21.798514	0.000355	3.547412	1.201896	0.000142
 184	1.8209e+01	7.2896	21.923666	0.000314	3.141993	1.064536	0.000126
 185	1.8308e+01	7.3265	22.036705	0.000284	2.837929	0.961516	0.000114
 186	1.8407e+01	7.3570	22.222414	0.000466	4.662312	1.579634	0.000187
 187	1.8507e+01	7.4164	22.278934	0.000142	1.418965	0.480758	0.000057
 188	1.8607e+01	7.4388	22.404085	0.000314	3.141993	1.064536	0.000126
 189	1.8706e+01	7.4870	22.533273	0.000324	3.243348	1.098876	0.000130
 190	1.8805e+01	7.5255	22.698796	0.000416	4.155539	1.407935	0.000166
 191	1.8905e+01	7.5656	22.815873	0.000294	2.939284	0.995856	0.000118
 192	1.9005e+01	7.6073	22.932950	0.000294	2.939284	0.995856	0.000118
 193	1.9104e+01	7.6410	23.054064	0.000304	3.040638	1.030196	0.000122
 194	1.9203e+01	7.6811	23.183252	0.000324	3.243348	1.098876	0.000130
 195	1.9303e+01	7.7180	23.360886	0.000446	4.459603	1.510954	0.000179
 196	1.9402e+01	7.7661	23.477963	0.000294	2.939284	0.995856	0.000118
 197	1.9502e+01	7.8062	23.586966	0.000274	2.736575	0.927177	0.000110
 198	1.9602e+01	7.8463	23.712117	0.000314	3.141993	1.064536	0.000126
 199	1.9701e+01	7.8864	23.817082	0.000264	2.635220	0.892837	0.000105
 200	1.9800e+01	7.9201	23.966456	0.000375	3.750121	1.270575	0.000150
 201	1.9900e+01	7.9602	24.067385	0.000253	2.533865	0.858497	0.000101
 202	2.0000e+01	8.0035	24.188499	0.000304	3.040638	1.030196	0.000122
 203	2.0099e+01	8.0452	24.321724	0.000334	3.344702	1.133216	0.000134
 204	2.0198e+01	8.0869	24.446875	0.000314	3.141993	1.064536	0.000126
 205	2.0298e+01	8.1174	24.580101	0.000334	3.344702	1.133216	0.000134
 206	2.0398e+01	8.1655	24.681029	0.000253	2.533865	0.858497	0.000101
 207	2.0497e+01	8.2008	24.794069	0.000284	2.837929	0.961516	0.000114
 208	2.0596e+01	8.2490	24.951517	0.000395	3.952830	1.339255	0.000158
 209	2.0696e+01	8.2762	25.036297	0.000213	2.128447	0.721137	0.000085
 210	2.0796e+01	8.3228	25.201820	0.000416	4.155539	1.407935	0.000166
 211	2.0895e+01	8.3581	25.351194	0.000375	3.750121	1.270575	0.000150
 212	2.0994e+01	8.4014	25.476345	0.000314	3.141993	1.064536	0.000126
 213	2.1094e+01	8.4367	25.625719	0.000375	3.750121	1.270575	0.000150
 214	2.1194e+01	8.4912	25.750870	0.000314	3.141993	1.064536	0.000126
 215	2.1293e+01	8.5217	25.847762	0.000243	2.432511	0.824157	0.000097
 216	2.1392e+01	8.5682	25.920430	0.000182	1.824383	0.618118	0.000073
 217	2.1492e+01	8.6051	26.102101	0.000456	4.560958	1.545294	0.000183
 218	2.1591e+01	8.6452	26.194955	0.000233	2.331156	0.789817	0.000093
 219	2.1691e+01	8.6837	26.316069	0.000304	3.040638	1.030196	0.000122
 220	2.1791e+01	8.7334	26.433146	0.000294	2.939284	0.995856	0.000118
 221	2.1890e+01	8.7607	26.546186	0.000284	2.837929	0.961516	0.000114
 222	2.1989e+01	8.8072	26.707671	0.000405	4.054185	1.373595	0.000162
 223	2.2089e+01	8.8425	26.784377	0.000193	1.925738	0.652458	0.000077
 224	2.2189e+01	8.8778	26.909528	0.000314	3.141993	1.064536	0.000126
 225	2.2288e+01	8.9195	27.058902	0.000375	3.750121	1.270575	0.000150
 226	2.2387e+01	8.9596	27.159831	0.000253	2.533865	0.858497	0.000101
 227	2.2487e+01	9.0062	27.317279	0.000395	3.952830	1.339255	0.000158
 228	2.2587e+01	9.0431	27.414170	0.000243	2.432511	0.824157	0.000097
 229	2.2686e+01	9.0816	27.571619	0.000395	3.952830	1.339255	0.000158
 230	2.2785e+01	9.1169	27.737141	0.000416	4.155539	1.407935	0.000166
 231	2.2885e+01	9.1554	27.894589	0.000395	3.952830	1.339255	0.000158
 232	2.2985e+01	9.1971	27.991481	0.000243	2.432511	0.824157	0.000097
 233	2.3084e+01	9.2436	28.088372	0.000243	2.432511	0.824157	0.000097
 234	2.3183e+01	9.2757	28.161040	0.000182	1.824383	0.618118	0.000073
 235	2.3283e+01	9.3254	28.282154	0.000304	3.040638	1.030196	0.000122
 236	2.3383e+01	9.3623	28.427491	0.000365	3.648766	1.236235	0.000146
 237	2.3482e+01	9.4008	28.556680	0.000324	3.243348	1.098876	0.000130
 238	2.3581e+01	9.4329	28.645497	0.000223	2.229802	0.755477	0.000089
 239	2.3681e+01	9.4762	28.750462	0.000264	2.635220	0.892837	0.000105
 240	2.3780e+01	9.5179	28.887725	0.000345	3.446057	1.167556	0.000138
 241	2.3880e+01	9.5532	28.992690	0.000264	2.635220	0.892837	0.000105
 242	2.3980e+01	9.5917	29.125916	0.000334	3.344702	1.133216	0.000134
 243	2.4079e+01	9.6430	29.234918	0.000274	2.736575	0.927177	0.000110
 244	2.4178e+01	9.6831	29.360070	0.000314	3.141993	1.064536	0.000126
 245	2.4278e+01	9.7120	29.505407	0.000365	3.648766	1.236235	0.000146
 246	2.4378e+01	9.7634	29.606335	0.000253	2.533865	0.858497	0.000101
 247	2.4477e+01	9.7938	29.739560	0.000334	3.344702	1.133216	0.000134
 248	2.4576e+01	9.8404	29.888934	0.000375	3.750121	1.270575	0.000150
 249	2.4676e+01	9.8821	30.018123	0.000324	3.243348	1.098876	0.000130
 250	2.4776e+01	9.9190	30.155385	0.000345	3.446057	1.167556	0.000138
 251	2.4875e+01	9.9687	30.256314	0.000253	2.533865	0.858497	0.000101
 252	2.4974e+01	9.9944	30.316871	0.000152	1.520319	0.515098	0.000061
 253	2.5074e+01	10.0313	30.474319	0.000395	3.952830	1.339255	0.000158
 254	2.5174e+01	10.0778	30.551025	0.000193	1.925738	0.652458	0.000077
 255	2.5273e+01	10.1131	30.688287	0.000345	3.446057	1.167556	0.000138
 256	2.5372e+01	10.1580	30.825550	0.000345	3.446057	1.167556	0.000138
 257	2.5472e+01	10.1949	30.914367	0.000223	2.229802	0.755477	0.000089
 258	2.5572e+01	10.2318	31.039518	0.000314	3.141993	1.064536	0.000126
 259	2.5671e+01	10.2799	31.164669	0.000314	3.141993	1.064536	0.000126
 260	2.5770e+01	10.3136	31.305969	0.000355	3.547412	1.201896	0.000142
 261	2.5870e+01	10.3521	31.390749	0.000213	2.128447	0.721137	0.000085
 262	2.5970e+01	10.3874	31.503789	0.000284	2.837929	0.961516	0.000114
 263	2.6069e+01	10.4291	31.645088	0.000355	3.547412	1.201896	0.000142
 264	2.6169e+01	10.4740	31.750054	0.000264	2.635220	0.892837	0.000105
 265	2.6268e+01	10.5109	31.863094	0.000284	2.837929	0.961516	0.000114
 266	2.6367e+01	10.5542	32.024579	0.000405	4.054185	1.373595	0.000162
 267	2.6467e+01	10.5815	32.149730	0.000314	3.141993	1.064536	0.000126
 268	2.6567e+01	10.6280	32.250659	0.000253	2.533865	0.858497	0.000101
 269	2.6666e+01	10.6746	32.387921	0.000345	3.446057	1.167556	0.000138
 270	2.6765e+01	10.7179	32.432330	0.000111	1.114901	0.377739	0.000045
 271	2.6865e+01	10.7532	32.557481	0.000314	3.141993	1.064536	0.000126
 272	2.6965e+01	10.7901	32.670521	0.000284	2.837929	0.961516	0.000114
 273	2.7064e+01	10.8350	32.779524	0.000274	2.736575	0.927177	0.000110
 274	2.7163e+01	10.8799	32.888526	0.000274	2.736575	0.927177	0.000110
 275	2.7263e+01	10.9136	32.985418	0.000243	2.432511	0.824157	0.000097
 276	2.7363e+01	10.9569	33.142866	0.000395	3.952830	1.339255	0.000158
 277	2.7462e+01	10.9906	33.235720	0.000233	2.331156	0.789817	0.000093
 278	2.7561e+01	11.0371	33.364908	0.000324	3.243348	1.098876	0.000130
 279	2.7661e+01	11.0756	33.461800	0.000243	2.432511	0.824157	0.000097
 280	2.7761e+01	11.1205	33.590988	0.000324	3.243348	1.098876	0.000130
 281	2.7860e+01	11.1446	33.687879	0.000243	2.432511	0.824157	0.000097
 282	2.7959e+01	11.1895	33.800919	0.000284	2.837929	0.961516	0.000114
 283	2.8059e+01	11.2328	33.893773	0.000233	2.331156	0.789817	0.000093
 284	2.8159e+01	11.2713	34.079481	0.000466	4.662312	1.579634	0.000187
 285	2.8258e+01	11.3130	34.216744	0.000345	3.446057	1.167556	0.000138
 286	2.8358e+01	11.3516	34.281338	0.000162	1.621674	0.549438	0.000065
 287	2.8457e+01	11.4029	34.362081	0.000203	2.027092	0.686797	0.000081
 288	2.8556e+01	11.4141	34.503381	0.000355	3.547412	1.201896	0.000142
 289	2.8656e+01	11.4542	34.600272	0.000243	2.432511	0.824157	0.000097
 290	2.8756e+01	11.5088	34.693126	0.000233	2.331156	0.789817	0.000093
 291	2.8855e+01	11.5457	34.822314	0.000324	3.243348	1.098876	0.000130
 292	2.8954e+01	11.5938	34.939391	0.000294	2.939284	0.995856	0.000118
 293	2.9054e+01	11.6323	35.032245	0.000233	2.331156	0.789817	0.000093
 294	2.9154e+01	11.6692	35.161434	0.000324	3.243348	1.098876	0.000130
 295	2.9253e+01	11.7125	35.242176	0.000203	2.027092	0.686797	0.000081
 296	2.9352e+01	11.7558	35.359253	0.000294	2.939284	0.995856	0.000118
 297	2.9452e+01	11.7895	35.472293	0.000284	2.837929	0.961516	0.000114
 298	2.9552e+01	11.8280	35.565147	0.000233	2.331156	0.789817	0.000093
 299	2.9651e+01	11.8617	35.690298	0.000314	3.141993	1.064536	0.000126
 300	2.9750e+01	11.9018	35.843710	0.000385	3.851475	1.304915	0.000154
 301	2.9850e+01	11.9499	35.888118	0.000111	1.114901	0.377739	0.000045
 302	2.9950e+01	11.9932	36.029418	0.000355	3.547412	1.201896	0.000142
 303	3.0049e+01	12.0205	36.178792	0.000375	3.750121	1.270575	0.000150
 304	3.0148e+01	12.0670	36.263572	0.000213	2.128447	0.721137	0.000085
 305	3.0248e+01	12.1136	36.364500	0.000253	2.533865	0.858497	0.000101
 306	3.0348e+01	12.1537	36.445243	0.000203	2.027092	0.686797	0.000081
 307	3.0447e+01	12.1793	36.546171	0.000253	2.533865	0.858497	0.000101
 308	3.0547e+01	12.2243	36.663248	0.000294	2.939284	0.995856	0.000118
 309	3.0646e+01	12.2644	36.752065	0.000223	2.229802	0.755477	0.000089
 310	3.0745e+01	12.3109	36.852994	0.000253	2.533865	0.858497	0.000101
 311	3.0845e+01	12.3494	36.978145	0.000314	3.141993	1.064536	0.000126
 312	3.0945e+01	12.4023	37.099259	0.000304	3.040638	1.030196	0.000122
 313	3.1044e+01	12.4184	37.196150	0.000243	2.432511	0.824157	0.000097
 314	3.1143e+01	12.4649	37.289004	0.000233	2.331156	0.789817	0.000093
 315	3.1243e+01	12.5130	37.389933	0.000253	2.533865	0.858497	0.000101
 316	3.1343e+01	12.5387	37.523158	0.000334	3.344702	1.133216	0.000134
 317	3.1442e+01	12.5932	37.624087	0.000253	2.533865	0.858497	0.000101
 318	3.1541e+01	12.6173	37.716941	0.000233	2.331156	0.789817	0.000093
 319	3.1641e+01	12.6718	37.866315	0.000375	3.750121	1.270575	0.000150
 320	3.1741e+01	12.7071	37.951095	0.000213	2.128447	0.721137	0.000085
 321	3.1840e+01	12.7488	38.080283	0.000324	3.243348	1.098876	0.000130
 322	3.1939e+01	12.7873	38.233694	0.000385	3.851475	1.304915	0.000154
 323	3.2039e+01	12.8242	38.253880	0.000051	0.506773	0.171699	0.000020
 324	3.2139e+01	12.8643	38.411328	0.000395	3.952830	1.339255	0.000158
 325	3.2238e+01	12.9044	38.471885	0.000152	1.520319	0.515098	0.000061
 326	3.2337e+01	12.9413	38.625296	0.000385	3.851475	1.304915	0.000154
 327	3.2437e+01	12.9718	38.697965	0.000182	1.824383	0.618118	0.000073
 328	3.2536e+01	13.0312	38.802930	0.000264	2.635220	0.892837	0.000105
 329	3.2636e+01	13.0697	38.899821	0.000243	2.432511	0.824157	0.000097
 330	3.2736e+01	13.1082	39.008824	0.000274	2.736575	0.927177	0.000110
 331	3.2835e+01	13.1451	39.101678	0.000233	2.331156	0.789817	0.000093
 332	3.2934e+01	13.1756	39.214718	0.000284	2.837929	0.961516	0.000114
 333	3.3034e+01	13.2221	39.295461	0.000203	2.027092	0.686797	0.000081
 334	3.3133e+01	13.2686	39.440798	0.000365	3.648766	1.236235	0.000146
 335	3.3233e+01	13.2975	39.541726	0.000253	2.533865	0.858497	0.000101
 336	3.3333e+01	13.3360	39.658803	0.000294	2.939284	0.995856	0.000118
 337	3.3432e+01	13.3825	39.739546	0.000203	2.027092	0.686797	0.000081
 338	3.3532e+01	13.4210	39.856623	0.000294	2.939284	0.995856	0.000118
 339	3.3631e+01	13.4643	39.993885	0.000345	3.446057	1.167556	0.000138
 340	3.3730e+01	13.5092	40.094814	0.000253	2.533865	0.858497	0.000101
 341	3.3830e+01	13.5397	40.151333	0.000142	1.418965	0.480758	0.000057
 342	3.3929e+01	13.5766	40.252262	0.000253	2.533865	0.858497	0.000101
 343	3.4029e+01	13.6215	40.341079	0.000223	2.229802	0.755477	0.000089
 344	3.4129e+01	13.6584	40.482379	0.000355	3.547412	1.201896	0.000142
 345	3.4228e+01	13.7001	40.538899	0.000142	1.418965	0.480758	0.000057
 346	3.4328e+01	13.7386	40.672124	0.000334	3.344702	1.133216	0.000134
 347	3.4427e+01	13.7739	40.813424	0.000355	3.547412	1.201896	0.000142
 348	3.4526e+01	13.8221	40.890129	0.000193	1.925738	0.652458	0.000077
 349	3.4626e+01	13.8558	41.007206	0.000294	2.939284	0.995856	0.000118
 350	3.4725e+01	13.8959	41.104098	0.000243	2.432511	0.824157	0.000097
 351	3.4825e+01	13.9376	41.200989	0.000243	2.432511	0.824157	0.000097
 352	3.4925e+01	13.9697	41.326140	0.000314	3.141993	1.064536	0.000126
 353	3.5024e+01	14.0130	41.435143	0.000274	2.736575	0.927177	0.000110
 354	3.5123e+01	14.0547	41.536071	0.000253	2.533865	0.858497	0.000101
 355	3.5223e+01	14.1108	41.636999	0.000253	2.533865	0.858497	0.000101
 356	3.5322e+01	14.1365	41.758114	0.000304	3.040638	1.030196	0.000122
 357	3.5422e+01	14.1814	41.895376	0.000345	3.446057	1.167556	0.000138
 358	3.5522e+01	14.2151	41.947859	0.000132	1.317610	0.446418	0.000053
 359	3.5621e+01	14.2648	42.077047	0.000324	3.243348	1.098876	0.000130
 360	3.5721e+01	14.2937	42.173938	0.000243	2.432511	0.824157	0.000097
 361	3.5820e+01	14.3322	42.230458	0.000142	1.418965	0.480758	0.000057
 362	3.5919e+01	14.3755	42.375795	0.000365	3.648766	1.236235	0.000146
 363	3.6019e+01	14.4188	42.472687	0.000243	2.432511	0.824157	0.000097
 364	3.6118e+01	14.4525	42.593801	0.000304	3.040638	1.030196	0.000122
 365	3.6218e+01	14.4926	42.646283	0.000132	1.317610	0.446418	0.000053
 366	3.6318e+01	14.5343	42.763360	0.000294	2.939284	0.995856	0.000118
 367	3.6417e+01	14.5777	42.868326	0.000264	2.635220	0.892837	0.000105
 368	3.6517e+01	14.6178	43.009626	0.000355	3.547412	1.201896	0.000142
 369	3.6616e+01	14.6531	43.102480	0.000233	2.331156	0.789817	0.000093
 370	3.6715e+01	14.7012	43.211482	0.000274	2.736575	0.927177	0.000110
 371	3.6815e+01	14.7333	43.324522	0.000284	2.837929	0.961516	0.000114
 372	3.6914e+01	14.7814	43.360856	0.000091	0.912192	0.309059	0.000037
 373	3.7014e+01	14.8007	43.494082	0.000334	3.344702	1.133216	0.000134
 374	3.7114e+01	14.8552	43.635382	0.000355	3.547412	1.201896	0.000142
 375	3.7213e+01	14.8985	43.724199	0.000223	2.229802	0.755477	0.000089
 376	3.7313e+01	14.9370	43.877610	0.000385	3.851475	1.304915	0.000154
 377	3.7412e+01	14.9771	43.954315	0.000193	1.925738	0.652458	0.000077
 378	3.7511e+01	15.0188	44.010835	0.000142	1.418965	0.480758	0.000057
 379	3.7611e+01	15.0525	44.123875	0.000284	2.837929	0.961516	0.000114
 380	3.7711e+01	15.0958	44.208655	0.000213	2.128447	0.721137	0.000085
 381	3.7810e+01	15.1311	44.325732	0.000294	2.939284	0.995856	0.000118
 382	3.7910e+01	15.1696	44.434735	0.000274	2.736575	0.927177	0.000110
 383	3.8009e+01	15.2226	44.519514	0.000213	2.128447	0.721137	0.000085
 384	3.8108e+01	15.2546	44.644666	0.000314	3.141993	1.064536	0.000126
 385	3.8208e+01	15.2996	44.737520	0.000233	2.331156	0.789817	0.000093
 386	3.8307e+01	15.3284	44.866708	0.000324	3.243348	1.098876	0.000130
 387	3.8407e+01	15.3653	44.935339	0.000172	1.723028	0.583778	0.000069
 388	3.8507e+01	15.4199	45.068565	0.000334	3.344702	1.133216	0.000134
 389	3.8606e+01	15.4568	45.161419	0.000233	2.331156	0.789817	0.000093
 390	3.8706e+01	15.4953	45.270422	0.000274	2.736575	0.927177	0.000110
 391	3.8805e+01	15.5306	45.387499	0.000294	2.939284	0.995856	0.000118
 392	3.8904e+01	15.5739	45.520724	0.000334	3.344702	1.133216	0.000134
 393	3.9004e+01	15.6188	45.645875	0.000314	3.141993	1.064536	0.000126
 394	3.9103e+01	15.6493	45.750841	0.000264	2.635220	0.892837	0.000105
 395	3.9203e+01	15.6990	45.831583	0.000203	2.027092	0.686797	0.000081
 396	3.9303e+01	15.7488	45.871955	0.000101	1.013546	0.343399	0.000041
 397	3.9402e+01	15.7744	46.013255	0.000355	3.547412	1.201896	0.000142
 398	3.9502e+01	15.8081	46.098034	0.000213	2.128447	0.721137	0.000085
 399	3.9601e+01	15.8562	46.190889	0.000233	2.331156	0.789817	0.000093
 400	3.9700e+01	15.8883	46.312003	0.000304	3.040638	1.030196	0.000122
 401	3.9800e+01	15.9284	46.437154	0.000314	3.141993	1.064536	0.000126
 402	3.9900e+01	15.9669	46.493674	0.000142	1.418965	0.480758	0.000057
 403	3.9999e+01	16.0070	46.586528	0.000233	2.331156	0.789817	0.000093
 404	4.0099e+01	16.0552	46.695531	0.000274	2.736575	0.927177	0.000110
 405	4.0198e+01	16.0889	46.800496	0.000264	2.635220	0.892837	0.000105
 406	4.0297e+01	16.1241	46.901424	0.000253	2.533865	0.858497	0.000101
 407	4.0397e+01	16.1626	47.006390	0.000264	2.635220	0.892837	0.000105
 408	4.0496e+01	16.2108	47.079058	0.000182	1.824383	0.618118	0.000073
 409	4.0596e+01	16.2509	47.220358	0.000355	3.547412	1.201896	0.000142
 410	4.0696e+01	16.2910	47.361658	0.000355	3.547412	1.201896	0.000142
 411	4.0795e+01	16.3247	47.458549	0.000243	2.432511	0.824157	0.000097
 412	4.0895e+01	16.3728	47.563515	0.000264	2.635220	0.892837	0.000105
 413	4.0994e+01	16.4161	47.692703	0.000324	3.243348	1.098876	0.000130
 414	4.1093e+01	16.4562	47.725000	0.000081	0.810837	0.274719	0.000032
 415	4.1193e+01	16.4899	47.813817	0.000223	2.229802	0.755477	0.000089
 416	4.1292e+01	16.5268	47.886486	0.000182	1.824383	0.618118	0.000073
 417	4.1392e+01	16.5653	47.999525	0.000284	2.837929	0.961516	0.000114
 418	4.1492e+01	16.6086	48.128714	0.000324	3.243348	1.098876	0.000130
 419	4.1591e+01	16.6551	48.237716	0.000274	2.736575	0.927177	0.000110
 420	4.1691e+01	16.6936	48.310385	0.000182	1.824383	0.618118	0.000073
 421	4.1790e+01	16.7354	48.387090	0.000193	1.925738	0.652458	0.000077
 422	4.1889e+01	16.7642	48.475907	0.000223	2.229802	0.755477	0.000089
 423	4.1989e+01	16.8075	48.601059	0.000314	3.141993	1.064536	0.000126
 424	4.2089e+01	16.8460	48.673727	0.000182	1.824383	0.618118	0.000073
 425	4.2188e+01	16.8878	48.827138	0.000385	3.851475	1.304915	0.000154
 426	4.2288e+01	16.9295	48.907881	0.000203	2.027092	0.686797	0.000081
 427	4.2387e+01	16.9712	49.004772	0.000243	2.432511	0.824157	0.000097
 428	4.2486e+01	17.0081	49.166258	0.000405	4.054185	1.373595	0.000162
 429	4.2586e+01	17.0418	49.255075	0.000223	2.229802	0.755477	0.000089
 430	4.2685e+01	17.0867	49.327743	0.000182	1.824383	0.618118	0.000073
 431	4.2785e+01	17.1300	49.412523	0.000213	2.128447	0.721137	0.000085
 432	4.2885e+01	17.1685	49.501340	0.000223	2.229802	0.755477	0.000089
 433	4.2984e+01	17.2086	49.565934	0.000162	1.621674	0.549438	0.000065
 434	4.3084e+01	17.2487	49.670900	0.000264	2.635220	0.892837	0.000105
 435	4.3183e+01	17.2824	49.783939	0.000284	2.837929	0.961516	0.000114
 436	4.3282e+01	17.3257	49.848534	0.000162	1.621674	0.549438	0.000065
 437	4.3382e+01	17.3546	49.957536	0.000274	2.736575	0.927177	0.000110
 438	4.3481e+01	17.4091	50.058465	0.000253	2.533865	0.858497	0.000101
 439	4.3581e+01	17.4524	50.131133	0.000182	1.824383	0.618118	0.000073
 440	4.3681e+01	17.4893	50.248210	0.000294	2.939284	0.995856	0.000118
 441	4.3780e+01	17.5198	50.365287	0.000294	2.939284	0.995856	0.000118
 442	4.3880e+01	17.5680	50.450067	0.000213	2.128447	0.721137	0.000085
 443	4.3979e+01	17.6081	50.546958	0.000243	2.432511	0.824157	0.000097
 444	4.4078e+01	17.6482	50.659998	0.000284	2.837929	0.961516	0.000114
 445	4.4178e+01	17.6819	50.777075	0.000294	2.939284	0.995856	0.000118
 446	4.4278e+01	17.7252	50.825520	0.000122	1.216255	0.412078	0.000049
 447	4.4377e+01	17.7653	50.966820	0.000355	3.547412	1.201896	0.000142
 448	4.4477e+01	17.7990	51.059674	0.000233	2.331156	0.789817	0.000093
 449	4.4576e+01	17.8423	51.160603	0.000253	2.533865	0.858497	0.000101
 450	4.4675e+01	17.8888	51.196937	0.000091	0.912192	0.309059	0.000037
 451	4.4775e+01	17.9193	51.293828	0.000243	2.432511	0.824157	0.000097
 452	4.4874e+01	17.9642	51.386682	0.000233	2.331156	0.789817	0.000093
 453	4.4974e+01	18.0059	51.491648	0.000264	2.635220	0.892837	0.000105
 454	4.5074e+01	18.0396	51.588539	0.000243	2.432511	0.824157	0.000097
 455	4.5173e+01	18.0845	51.657170	0.000172	1.723028	0.583778	0.000069
 456	4.5273e+01	18.1102	51.754062	0.000243	2.432511	0.824157	0.000097
 457	4.5372e+01	18.1663	51.887287	0.000334	3.344702	1.133216	0.000134
 458	4.5471e+01	18.1984	51.959956	0.000182	1.824383	0.618118	0.000073
 459	4.5571e+01	18.2481	52.032624	0.000182	1.824383	0.618118	0.000073
 460	4.5670e+01	18.2866	52.133552	0.000253	2.533865	0.858497	0.000101
 461	4.5770e+01	18.3171	52.262741	0.000324	3.243348	1.098876	0.000130
 462	4.5870e+01	18.3588	52.319261	0.000142	1.418965	0.480758	0.000057
 463	4.5969e+01	18.3925	52.424226	0.000264	2.635220	0.892837	0.000105
 464	4.6069e+01	18.4374	52.492857	0.000172	1.723028	0.583778	0.000069
 465	4.6168e+01	18.4840	52.650306	0.000395	3.952830	1.339255	0.000158
 466	4.6267e+01	18.5225	52.739123	0.000223	2.229802	0.755477	0.000089
 467	4.6367e+01	18.5690	52.811791	0.000182	1.824383	0.618118	0.000073
 468	4.6467e+01	18.6011	52.880422	0.000172	1.723028	0.583778	0.000069
 469	4.6566e+01	18.6364	52.936942	0.000142	1.418965	0.480758	0.000057
 470	4.6666e+01	18.6765	53.029796	0.000233	2.331156	0.789817	0.000093
 471	4.6765e+01	18.7182	53.134762	0.000264	2.635220	0.892837	0.000105
 472	4.6864e+01	18.7647	53.227616	0.000233	2.331156	0.789817	0.000093
 473	4.6964e+01	18.7968	53.320470	0.000233	2.331156	0.789817	0.000093
 474	4.7063e+01	18.8497	53.381027	0.000152	1.520319	0.515098	0.000061
 475	4.7163e+01	18.8754	53.477919	0.000243	2.432511	0.824157	0.000097
 476	4.7263e+01	18.9155	53.566736	0.000223	2.229802	0.755477	0.000089
 477	4.7362e+01	18.9701	53.675738	0.000274	2.736575	0.927177	0.000110
 478	4.7462e+01	19.0086	53.736295	0.000152	1.520319	0.515098	0.000061
 479	4.7561e+01	19.0342	53.849335	0.000284	2.837929	0.961516	0.000114
 480	4.7660e+01	19.0759	53.950263	0.000253	2.533865	0.858497	0.000101
 481	4.7760e+01	19.1160	54.035043	0.000213	2.128447	0.721137	0.000085
 482	4.7859e+01	19.1594	54.119823	0.000213	2.128447	0.721137	0.000085
 483	4.7959e+01	19.2059	54.273234	0.000385	3.851475	1.304915	0.000154
 484	4.8059e+01	19.2444	54.325717	0.000132	1.317610	0.446418	0.000053
 485	4.8158e+01	19.2797	54.414534	0.000223	2.229802	0.755477	0.000089
 486	4.8258e+01	19.3166	54.499314	0.000213	2.128447	0.721137	0.000085
 487	4.8357e+01	19.3567	54.559871	0.000152	1.520319	0.515098	0.000061
 488	4.8456e+01	19.4016	54.672911	0.000284	2.837929	0.961516	0.000114
 489	4.8556e+01	19.4353	54.745579	0.000182	1.824383	0.618118	0.000073
 490	4.8656e+01	19.4770	54.814210	0.000172	1.723028	0.583778	0.000069
 491	4.8755e+01	19.5075	54.927250	0.000284	2.837929	0.961516	0.000114
 492	4.8855e+01	19.5556	55.032216	0.000264	2.635220	0.892837	0.000105
 493	4.8954e+01	19.6021	55.092773	0.000152	1.520319	0.515098	0.000061
 494	4.9053e+01	19.6390	55.217924	0.000314	3.141993	1.064536	0.000126
 495	4.9153e+01	19.6759	55.322890	0.000264	2.635220	0.892837	0.000105
 496	4.9252e+01	19.7128	55.395558	0.000182	1.824383	0.618118	0.000073
 497	4.9352e+01	19.7577	55.472264	0.000193	1.925738	0.652458	0.000077
 498	4.9452e+01	19.7962	55.544932	0.000182	1.824383	0.618118	0.000073
 499	4.9551e+01	19.8315	55.645860	0.000253	2.533865	0.858497	0.000101
 500	4.9651e+01	19.8764	55.762937	0.000294	2.939284	0.995856	0.000118
 501	4.9750e+01	19.9198	55.875977	0.000284	2.837929	0.961516	0.000114
 502	4.9849e+01	19.9567	55.936534	0.000152	1.520319	0.515098	0.000061
 503	4.9949e+01	19.9984	56.057648	0.000304	3.040638	1.030196	0.000122
 504	5.0048e+01	19.9583	55.916349	0.000355	3.547412	1.201896	-0.000142
 505	5.0148e+01	19.9198	55.847717	0.000172	1.723028	0.583778	-0.000069
 506	5.0248e+01	19.8732	55.766975	0.000203	2.027092	0.686797	-0.000081
 507	5.0347e+01	19.8315	55.666046	0.000253	2.533865	0.858497	-0.000101
 508	5.0447e+01	19.7978	55.613563	0.000132	1.317610	0.446418	-0.000053
 509	5.0546e+01	19.7545	55.512635	0.000253	2.533865	0.858497	-0.000101
 510	5.0645e+01	19.7144	55.468226	0.000111	1.114901	0.377739	-0.000045
 511	5.0745e+01	19.6743	55.343075	0.000314	3.141993	1.064536	-0.000126
 512	5.0844e+01	19.6294	55.278481	0.000162	1.621674	0.549438	-0.000065
 513	5.0944e+01	19.5989	55.189664	0.000223	2.229802	0.755477	-0.000089
 514	5.1044e+01	19.5572	55.149293	0.000101	1.013546	0.343399	-0.000041
 515	5.1143e+01	19.5251	55.080661	0.000172	1.723028	0.583778	-0.000069
 516	5.1242e+01	19.4706	54.991844	0.000223	2.229802	0.755477	-0.000089
 517	5.1342e+01	19.4321	54.907065	0.000213	2.128447	0.721137	-0.000085
 518	5.1441e+01	19.3984	54.898990	0.000020	0.202709	0.068680	-0.000008
 519	5.1541e+01	19.3551	54.806136	0.000233	2.331156	0.789817	-0.000093
 520	5.1641e+01	19.3262	54.733468	0.000182	1.824383	0.618118	-0.000073
 521	5.1740e+01	19.2797	54.668874	0.000162	1.621674	0.549438	-0.000065
 522	5.1840e+01	19.2476	54.580057	0.000223	2.229802	0.755477	-0.000089
 523	5.1939e+01	19.2011	54.434720	0.000365	3.648766	1.236235	-0.000146
 524	5.2038e+01	19.1561	54.390311	0.000111	1.114901	0.377739	-0.000045
 525	5.2138e+01	19.1192	54.277271	0.000284	2.837929	0.961516	-0.000114
 526	5.2237e+01	19.0872	54.204603	0.000182	1.824383	0.618118	-0.000073
 527	5.2337e+01	19.0390	54.103675	0.000253	2.533865	0.858497	-0.000101
 528	5.2437e+01	18.9957	54.039080	0.000162	1.621674	0.549438	-0.000065
 529	5.2536e+01	18.9604	53.990635	0.000122	1.216255	0.412078	-0.000049
 530	5.2636e+01	18.9219	53.881632	0.000274	2.736575	0.927177	-0.000110
 531	5.2735e+01	18.8818	53.837224	0.000111	1.114901	0.377739	-0.000045
 532	5.2834e+01	18.8465	53.724184	0.000284	2.837929	0.961516	-0.000114
 533	5.2934e+01	18.7968	53.667664	0.000142	1.418965	0.480758	-0.000057
 534	5.3033e+01	18.7647	53.603070	0.000162	1.621674	0.549438	-0.000065
 535	5.3133e+01	18.7182	53.518290	0.000213	2.128447	0.721137	-0.000085
 536	5.3233e+01	18.6829	53.473881	0.000111	1.114901	0.377739	-0.000045
 537	5.3332e+01	18.6412	53.397176	0.000193	1.925738	0.652458	-0.000077
 538	5.3431e+01	18.5963	53.292210	0.000264	2.635220	0.892837	-0.000105
 539	5.3531e+01	18.5578	53.211468	0.000203	2.027092	0.686797	-0.000081
 540	5.3630e+01	18.5241	53.118613	0.000233	2.331156	0.789817	-0.000093
 541	5.3730e+01	18.4888	53.029796	0.000223	2.229802	0.755477	-0.000089
 542	5.3830e+01	18.4503	52.916757	0.000284	2.837929	0.961516	-0.000114
 543	5.3929e+01	18.4022	52.848125	0.000172	1.723028	0.583778	-0.000069
 544	5.4029e+01	18.3685	52.747197	0.000253	2.533865	0.858497	-0.000101
 545	5.4128e+01	18.3268	52.666454	0.000203	2.027092	0.686797	-0.000081
 546	5.4227e+01	18.2786	52.573600	0.000233	2.331156	0.789817	-0.000093
 547	5.4327e+01	18.2401	52.517080	0.000142	1.418965	0.480758	-0.000057
 548	5.4426e+01	18.2080	52.440375	0.000193	1.925738	0.652458	-0.000077
 549	5.4526e+01	18.1663	52.327335	0.000284	2.837929	0.961516	-0.000114
 550	5.4626e+01	18.1214	52.291001	0.000091	0.912192	0.309059	-0.000037
 551	5.4725e+01	18.0829	52.210258	0.000203	2.027092	0.686797	-0.000081
 552	5.4825e+01	18.0380	52.161812	0.000122	1.216255	0.412078	-0.000049
 553	5.4924e+01	17.9995	52.089144	0.000182	1.824383	0.618118	-0.000073
 554	5.5023e+01	17.9706	52.004364	0.000213	2.128447	0.721137	-0.000085
 555	5.5123e+01	17.9289	51.907473	0.000243	2.432511	0.824157	-0.000097
 556	5.5222e+01	17.8904	51.842879	0.000162	1.621674	0.549438	-0.000065
 557	5.5322e+01	17.8391	51.766173	0.000193	1.925738	0.652458	-0.000077
 558	5.5422e+01	17.8086	51.632948	0.000334	3.344702	1.133216	-0.000134
 559	5.5521e+01	17.7605	51.507796	0.000314	3.141993	1.064536	-0.000126
 560	5.5620e+01	17.7268	51.443202	0.000162	1.621674	0.549438	-0.000065
 561	5.5720e+01	17.6867	51.382645	0.000152	1.520319	0.515098	-0.000061
 562	5.5819e+01	17.6482	51.269605	0.000284	2.837929	0.961516	-0.000114
 563	5.5919e+01	17.6032	51.180788	0.000223	2.229802	0.755477	-0.000089
 564	5.6019e+01	17.5567	51.128306	0.000132	1.317610	0.446418	-0.000053
 565	5.6118e+01	17.5230	51.031414	0.000243	2.432511	0.824157	-0.000097
 566	5.6218e+01	17.4749	50.962783	0.000172	1.723028	0.583778	-0.000069
 567	5.6317e+01	17.4444	50.882040	0.000203	2.027092	0.686797	-0.000081
 568	5.6416e+01	17.4059	50.793223	0.000223	2.229802	0.755477	-0.000089
 569	5.6516e+01	17.3626	50.740741	0.000132	1.317610	0.446418	-0.000053
 570	5.6615e+01	17.3225	50.635775	0.000264	2.635220	0.892837	-0.000105
 571	5.6715e+01	17.2888	50.615589	0.000051	0.506773	0.171699	-0.000020
 572	5.6815e+01	17.2487	50.526772	0.000223	2.229802	0.755477	-0.000089
 573	5.6914e+01	17.2038	50.450067	0.000193	1.925738	0.652458	-0.000077
 574	5.7014e+01	17.1669	50.373361	0.000193	1.925738	0.652458	-0.000077
 575	5.7113e+01	17.1252	50.228024	0.000365	3.648766	1.236235	-0.000146
 576	5.7212e+01	17.0835	50.147282	0.000203	2.027092	0.686797	-0.000081
 577	5.7312e+01	17.0450	50.010019	0.000345	3.446057	1.167556	-0.000138
 578	5.7411e+01	17.0065	49.957536	0.000132	1.317610	0.446418	-0.000053
 579	5.7511e+01	16.9680	49.876793	0.000203	2.027092	0.686797	-0.000081
 580	5.7611e+01	16.9311	49.751642	0.000314	3.141993	1.064536	-0.000126
 581	5.7710e+01	16.8910	49.678974	0.000182	1.824383	0.618118	-0.000073
 582	5.7809e+01	16.8509	49.578045	0.000253	2.533865	0.858497	-0.000101
 583	5.7909e+01	16.8124	49.501340	0.000193	1.925738	0.652458	-0.000077
 584	5.8008e+01	16.7642	49.424634	0.000193	1.925738	0.652458	-0.000077
 585	5.8108e+01	16.7225	49.364077	0.000152	1.520319	0.515098	-0.000061
 586	5.8208e+01	16.6872	49.263149	0.000253	2.533865	0.858497	-0.000101
 587	5.8307e+01	16.6407	49.170295	0.000233	2.331156	0.789817	-0.000093
 588	5.8407e+01	16.6150	49.125886	0.000111	1.114901	0.377739	-0.000045
 589	5.8506e+01	16.5605	49.045144	0.000203	2.027092	0.686797	-0.000081
 590	5.8605e+01	16.5332	48.968438	0.000193	1.925738	0.652458	-0.000077
 591	5.8705e+01	16.4819	48.891732	0.000193	1.925738	0.652458	-0.000077
 592	5.8804e+01	16.4562	48.798878	0.000233	2.331156	0.789817	-0.000093
 593	5.8904e+01	16.4161	48.685838	0.000284	2.837929	0.961516	-0.000114
 594	5.9004e+01	16.3616	48.556650	0.000324	3.243348	1.098876	-0.000130
 595	5.9103e+01	16.3311	48.479945	0.000193	1.925738	0.652458	-0.000077
 596	5.9203e+01	16.2910	48.399202	0.000203	2.027092	0.686797	-0.000081
 597	5.9302e+01	16.2461	48.274051	0.000314	3.141993	1.064536	-0.000126
 598	5.9401e+01	16.2124	48.233679	0.000101	1.013546	0.343399	-0.000041
 599	5.9501e+01	16.1626	48.104491	0.000324	3.243348	1.098876	-0.000130
 600	5.9600e+01	16.1209	48.027785	0.000193	1.925738	0.652458	-0.000077
 601	5.9700e+01	16.0872	47.922820	0.000264	2.635220	0.892837	-0.000105
 602	5.9800e+01	16.0520	47.821891	0.000253	2.533865	0.858497	-0.000101
 603	5.9899e+01	16.0167	47.801706	0.000051	0.506773	0.171699	-0.000020
 604	5.9998e+01	15.9653	47.656369	0.000365	3.648766	1.236235	-0.000146
 605	6.0098e+01	15.9316	47.603886	0.000132	1.317610	0.446418	-0.000053
 606	6.0197e+01	15.8947	47.478735	0.000314	3.141993	1.064536	-0.000126
 607	6.0297e+01	15.8514	47.490846	-0.000030	-0.304064	-0.103020	0.000012
 608	6.0397e+01	15.8065	47.377806	0.000284	2.837929	0.961516	-0.000114
 609	6.0496e+01	15.7776	47.309175	0.000172	1.723028	0.583778	-0.000069
 610	6.0596e+01	15.7311	47.175950	0.000334	3.344702	1.133216	-0.000134
 611	6.0695e+01	15.6926	47.058873	0.000294	2.939284	0.995856	-0.000118
 612	6.0794e+01	15.6493	46.945833	0.000284	2.837929	0.961516	-0.000114
 613	6.0894e+01	15.6188	46.877202	0.000172	1.723028	0.583778	-0.000069
 614	6.0993e+01	15.5723	46.748013	0.000324	3.243348	1.098876	-0.000130
 615	6.1093e+01	15.5386	46.659196	0.000223	2.229802	0.755477	-0.000089
 616	6.1193e+01	15.5033	46.538082	0.000304	3.040638	1.030196	-0.000122
 617	6.1292e+01	15.4520	46.481562	0.000142	1.418965	0.480758	-0.000057
 618	6.1392e+01	15.4103	46.356411	0.000314	3.141993	1.064536	-0.000126
 619	6.1491e+01	15.3814	46.279706	0.000193	1.925738	0.652458	-0.000077
 620	6.1590e+01	15.3284	46.219148	0.000152	1.520319	0.515098	-0.000061
 621	6.1690e+01	15.2915	46.102072	0.000294	2.939284	0.995856	-0.000118
 622	6.1789e+01	15.2627	46.029403	0.000182	1.824383	0.618118	-0.000073
 623	6.1889e+01	15.2097	45.956735	0.000182	1.824383	0.618118	-0.000073
 624	6.1989e+01	15.1664	45.863881	0.000233	2.331156	0.789817	-0.000093
 625	6.2088e+01	15.1231	45.750841	0.000284	2.837929	0.961516	-0.000114
 626	6.2188e+01	15.1022	45.706432	0.000111	1.114901	0.377739	-0.000045
 627	6.2287e+01	15.0493	45.597430	0.000274	2.736575	0.927177	-0.000110
 628	6.2386e+01	15.0236	45.548984	0.000122	1.216255	0.412078	-0.000049
 629	6.2486e+01	14.9707	45.431907	0.000294	2.939284	0.995856	-0.000118
 630	6.2586e+01	14.9386	45.318867	0.000284	2.837929	0.961516	-0.000114
 631	6.2685e+01	14.8937	45.165456	0.000385	3.851475	1.304915	-0.000154
 632	6.2785e+01	14.8520	45.052416	0.000284	2.837929	0.961516	-0.000114
 633	6.2884e+01	14.8183	44.959562	0.000233	2.331156	0.789817	-0.000093
 634	6.2983e+01	14.7686	44.862671	0.000243	2.432511	0.824157	-0.000097
 635	6.3083e+01	14.7493	44.741557	0.000304	3.040638	1.030196	-0.000122
 636	6.3182e+01	14.7044	44.693111	0.000122	1.216255	0.412078	-0.000049
 637	6.3282e+01	14.6579	44.592183	0.000253	2.533865	0.858497	-0.000101
 638	6.3382e+01	14.6274	44.483180	0.000274	2.736575	0.927177	-0.000110
 639	6.3481e+01	14.5857	44.414549	0.000172	1.723028	0.583778	-0.000069
 640	6.3581e+01	14.5311	44.329769	0.000213	2.128447	0.721137	-0.000085
 641	6.3680e+01	14.5071	44.224803	0.000264	2.635220	0.892837	-0.000105
 642	6.3779e+01	14.4590	44.119838	0.000264	2.635220	0.892837	-0.000105
 643	6.3879e+01	14.4188	44.067355	0.000132	1.317610	0.446418	-0.000053
 644	6.3978e+01	14.3755	43.970464	0.000243	2.432511	0.824157	-0.000097
 645	6.4078e+01	14.3306	43.845313	0.000314	3.141993	1.064536	-0.000126
 646	6.4177e+01	14.2985	43.776681	0.000172	1.723028	0.583778	-0.000069
 647	6.4277e+01	14.2520	43.683827	0.000233	2.331156	0.789817	-0.000093
 648	6.4376e+01	14.2231	43.570787	0.000284	2.837929	0.961516	-0.000114
 649	6.4476e+01	14.1782	43.421413	0.000375	3.750121	1.270575	-0.000150
 650	6.4576e+01	14.1365	43.296262	0.000314	3.141993	1.064536	-0.000126
 651	6.4675e+01	14.0964	43.231668	0.000162	1.621674	0.549438	-0.000065
 652	6.4775e+01	14.0611	43.146888	0.000213	2.128447	0.721137	-0.000085
 653	6.4874e+01	14.0194	43.017700	0.000324	3.243348	1.098876	-0.000130
 654	6.4974e+01	13.9793	42.904660	0.000284	2.837929	0.961516	-0.000114
 655	6.5073e+01	13.9328	42.852177	0.000132	1.317610	0.446418	-0.000053
 656	6.5172e+01	13.8959	42.759323	0.000233	2.331156	0.789817	-0.000093
 657	6.5272e+01	13.8606	42.654358	0.000264	2.635220	0.892837	-0.000105
 658	6.5371e+01	13.8173	42.569578	0.000213	2.128447	0.721137	-0.000085
 659	6.5471e+01	13.7820	42.440389	0.000324	3.243348	1.098876	-0.000130
 660	6.5570e+01	13.7306	42.412129	0.000071	0.709482	0.240379	-0.000028
 661	6.5670e+01	13.6969	42.319275	0.000233	2.331156	0.789817	-0.000093
 662	6.5769e+01	13.6520	42.230458	0.000223	2.229802	0.755477	-0.000089
 663	6.5869e+01	13.6183	42.125493	0.000264	2.635220	0.892837	-0.000105
 664	6.5969e+01	13.5734	41.984193	0.000355	3.547412	1.201896	-0.000142
 665	6.6068e+01	13.5349	41.883265	0.000253	2.533865	0.858497	-0.000101
 666	6.6168e+01	13.5044	41.762151	0.000304	3.040638	1.030196	-0.000122
 667	6.6267e+01	13.4659	41.701594	0.000152	1.520319	0.515098	-0.000061
 668	6.6367e+01	13.4162	41.540108	0.000405	4.054185	1.373595	-0.000162
 669	6.6466e+01	13.3825	41.447254	0.000233	2.331156	0.789817	-0.000093
 670	6.6566e+01	13.3408	41.350363	0.000243	2.432511	0.824157	-0.000097
 671	6.6665e+01	13.3039	41.241360	0.000274	2.736575	0.927177	-0.000110
 672	6.6764e+01	13.2606	41.148506	0.000233	2.331156	0.789817	-0.000093
 673	6.6864e+01	13.2141	41.023355	0.000314	3.141993	1.064536	-0.000126
 674	6.6963e+01	13.1772	40.946649	0.000193	1.925738	0.652458	-0.000077
 675	6.7063e+01	13.1435	40.869944	0.000193	1.925738	0.652458	-0.000077
 676	6.7162e+01	13.1098	40.752867	0.000294	2.939284	0.995856	-0.000118
 677	6.7262e+01	13.0552	40.688273	0.000162	1.621674	0.549438	-0.000065
 678	6.7362e+01	13.0232	40.575233	0.000284	2.837929	0.961516	-0.000114
 679	6.7461e+01	12.9831	40.478341	0.000243	2.432511	0.824157	-0.000097
 680	6.7561e+01	12.9478	40.405673	0.000182	1.824383	0.618118	-0.000073
 681	6.7660e+01	12.9077	40.316856	0.000223	2.229802	0.755477	-0.000089
 682	6.7760e+01	12.8627	40.195742	0.000304	3.040638	1.030196	-0.000122
 683	6.7859e+01	12.8210	40.078665	0.000294	2.939284	0.995856	-0.000118
 684	6.7959e+01	12.7825	39.997922	0.000203	2.027092	0.686797	-0.000081
 685	6.8058e+01	12.7424	39.892957	0.000264	2.635220	0.892837	-0.000105
 686	6.8157e+01	12.7055	39.783954	0.000274	2.736575	0.927177	-0.000110
 687	6.8257e+01	12.6734	39.658803	0.000314	3.141993	1.064536	-0.000126
 688	6.8356e+01	12.6333	39.517503	0.000355	3.547412	1.201896	-0.000142
 689	6.8456e+01	12.5868	39.448872	0.000172	1.723028	0.583778	-0.000069
 690	6.8555e+01	12.5483	39.323721	0.000314	3.141993	1.064536	-0.000126
 691	6.8655e+01	12.5018	39.230867	0.000233	2.331156	0.789817	-0.000093
 692	6.8754e+01	12.4617	39.142050	0.000223	2.229802	0.755477	-0.000089
 693	6.8854e+01	12.4328	39.004787	0.000345	3.446057	1.167556	-0.000138
 694	6.8954e+01	12.3799	38.988638	0.000041	0.405418	0.137359	-0.000016
 695	6.9053e+01	12.3526	38.867524	0.000304	3.040638	1.030196	-0.000122
 696	6.9153e+01	12.3013	38.811004	0.000142	1.418965	0.480758	-0.000057
 697	6.9252e+01	12.2676	38.710076	0.000253	2.533865	0.858497	-0.000101
 698	6.9352e+01	12.2226	38.605110	0.000264	2.635220	0.892837	-0.000105
 699	6.9451e+01	12.1858	38.528405	0.000193	1.925738	0.652458	-0.000077
 700	6.9550e+01	12.1489	38.403254	0.000314	3.141993	1.064536	-0.000126
 701	6.9650e+01	12.1007	38.286177	0.000294	2.939284	0.995856	-0.000118
 702	6.9749e+01	12.0686	38.189286	0.000243	2.432511	0.824157	-0.000097
 703	6.9849e+01	12.0317	38.120654	0.000172	1.723028	0.583778	-0.000069
 704	6.9948e+01	11.9916	37.951095	0.000426	4.256894	1.442275	-0.000170
 705	7.0048e+01	11.9499	37.838055	0.000284	2.837929	0.961516	-0.000114
 706	7.0147e+01	11.9098	37.745201	0.000233	2.331156	0.789817	-0.000093
 707	7.0247e+01	11.8745	37.620049	0.000314	3.141993	1.064536	-0.000126
 708	7.0347e+01	11.8312	37.519121	0.000253	2.533865	0.858497	-0.000101
 709	7.0446e+01	11.7863	37.393970	0.000314	3.141993	1.064536	-0.000126
 710	7.0546e+01	11.7526	37.301116	0.000233	2.331156	0.789817	-0.000093
 711	7.0645e+01	11.7093	37.252670	0.000122	1.216255	0.412078	-0.000049
 712	7.0745e+01	11.6692	37.180002	0.000182	1.824383	0.618118	-0.000073
 713	7.0844e+01	11.6259	37.083110	0.000243	2.432511	0.824157	-0.000097
 714	7.0944e+01	11.5922	36.986219	0.000243	2.432511	0.824157	-0.000097
 715	7.1043e+01	11.5441	36.861068	0.000314	3.141993	1.064536	-0.000126
 716	7.1142e+01	11.5120	36.764177	0.000243	2.432511	0.824157	-0.000097
 717	7.1242e+01	11.4703	36.683434	0.000203	2.027092	0.686797	-0.000081
 718	7.1341e+01	11.4270	36.598654	0.000213	2.128447	0.721137	-0.000085
 719	7.1441e+01	11.4013	36.501763	0.000243	2.432511	0.824157	-0.000097
 720	7.1540e+01	11.3499	36.352389	0.000375	3.750121	1.270575	-0.000150
 721	7.1640e+01	11.3163	36.271646	0.000203	2.027092	0.686797	-0.000081
 722	7.1740e+01	11.2729	36.134383	0.000345	3.446057	1.167556	-0.000138
 723	7.1839e+01	11.2296	36.009232	0.000314	3.141993	1.064536	-0.000126
 724	7.1939e+01	11.1879	35.900230	0.000274	2.736575	0.927177	-0.000110
 725	7.2038e+01	11.1526	35.795264	0.000264	2.635220	0.892837	-0.000105
 726	7.2138e+01	11.1205	35.722596	0.000182	1.824383	0.618118	-0.000073
 727	7.2237e+01	11.0804	35.573222	0.000375	3.750121	1.270575	-0.000150
 728	7.2337e+01	11.0323	35.488442	0.000213	2.128447	0.721137	-0.000085
 729	7.2436e+01	10.9906	35.427885	0.000152	1.520319	0.515098	-0.000061
 730	7.2535e+01	10.9537	35.322919	0.000264	2.635220	0.892837	-0.000105
 731	7.2635e+01	10.9152	35.197768	0.000314	3.141993	1.064536	-0.000126
 732	7.2734e+01	10.8703	35.149322	0.000122	1.216255	0.412078	-0.000049
 733	7.2834e+01	10.8206	35.016097	0.000334	3.344702	1.133216	-0.000134
 734	7.2933e+01	10.7788	34.931317	0.000213	2.128447	0.721137	-0.000085
 735	7.3033e+01	10.7564	34.814240	0.000294	2.939284	0.995856	-0.000118
 736	7.3132e+01	10.7243	34.676977	0.000345	3.446057	1.167556	-0.000138
 737	7.3232e+01	10.6762	34.580086	0.000243	2.432511	0.824157	-0.000097
 738	7.3332e+01	10.6200	34.559900	0.000051	0.506773	0.171699	-0.000020
 739	7.3431e+01	10.5895	34.390341	0.000426	4.256894	1.442275	-0.000170
 740	7.3531e+01	10.5559	34.277301	0.000284	2.837929	0.961516	-0.000114
 741	7.3630e+01	10.5174	34.156187	0.000304	3.040638	1.030196	-0.000122
 742	7.3730e+01	10.4821	34.051221	0.000264	2.635220	0.892837	-0.000105
 743	7.3829e+01	10.4371	33.938182	0.000284	2.837929	0.961516	-0.000114
 744	7.3928e+01	10.3954	33.796882	0.000355	3.547412	1.201896	-0.000142
 745	7.4028e+01	10.3505	33.659619	0.000345	3.446057	1.167556	-0.000138
 746	7.4127e+01	10.3248	33.582914	0.000193	1.925738	0.652458	-0.000077
 747	7.4227e+01	10.2767	33.506208	0.000193	1.925738	0.652458	-0.000077
 748	7.4326e+01	10.2302	33.433540	0.000182	1.824383	0.618118	-0.000073
 749	7.4426e+01	10.1917	33.336648	0.000243	2.432511	0.824157	-0.000097
 750	7.4525e+01	10.1532	33.219571	0.000294	2.939284	0.995856	-0.000118
 751	7.4625e+01	10.1195	33.086346	0.000334	3.344702	1.133216	-0.000134
 752	7.4725e+01	10.0714	33.050012	0.000091	0.912192	0.309059	-0.000037
 753	7.4824e+01	10.0377	32.932935	0.000294	2.939284	0.995856	-0.000118
 754	7.4924e+01	9.9976	32.819895	0.000284	2.837929	0.961516	-0.000114
 755	7.5023e+01	9.9559	32.690707	0.000324	3.243348	1.098876	-0.000130
 756	7.5123e+01	9.9174	32.577667	0.000284	2.837929	0.961516	-0.000114
 757	7.5222e+01	9.8773	32.484813	0.000233	2.331156	0.789817	-0.000093
 758	7.5322e+01	9.8356	32.363699	0.000304	3.040638	1.030196	-0.000122
 759	7.5421e+01	9.8083	32.250659	0.000284	2.837929	0.961516	-0.000114
 760	7.5520e+01	9.7602	32.141656	0.000274	2.736575	0.927177	-0.000110
 761	7.5620e+01	9.7233	31.992282	0.000375	3.750121	1.270575	-0.000150
 762	7.5719e+01	9.6831	31.867131	0.000314	3.141993	1.064536	-0.000126
 763	7.5819e+01	9.6398	31.766203	0.000253	2.533865	0.858497	-0.000101
 764	7.5918e+01	9.6029	31.641051	0.000314	3.141993	1.064536	-0.000126
 765	7.6018e+01	9.5628	31.588569	0.000132	1.317610	0.446418	-0.000053
 766	7.6118e+01	9.5227	31.495714	0.000233	2.331156	0.789817	-0.000093
 767	7.6217e+01	9.4826	31.374600	0.000304	3.040638	1.030196	-0.000122
 768	7.6317e+01	9.4313	31.269635	0.000264	2.635220	0.892837	-0.000105
 769	7.6416e+01	9.4008	31.168706	0.000253	2.533865	0.858497	-0.000101
 770	7.6516e+01	9.3479	31.063741	0.000264	2.635220	0.892837	-0.000105
 771	7.6615e+01	9.3222	30.974924	0.000223	2.229802	0.755477	-0.000089
 772	7.6715e+01	9.2821	30.853810	0.000304	3.040638	1.030196	-0.000122
 773	7.6814e+01	9.2372	30.720584	0.000334	3.344702	1.133216	-0.000134
 774	7.6913e+01	9.1971	30.647916	0.000182	1.824383	0.618118	-0.000073
 775	7.7013e+01	9.1586	30.462208	0.000466	4.662312	1.579634	-0.000187
 776	7.7112e+01	9.1217	30.397614	0.000162	1.621674	0.549438	-0.000065
 777	7.7212e+01	9.0767	30.276499	0.000304	3.040638	1.030196	-0.000122
 778	7.7311e+01	9.0463	30.131163	0.000365	3.648766	1.236235	-0.000146
 779	7.7411e+01	9.0014	29.965640	0.000416	4.155539	1.407935	-0.000166
 780	7.7510e+01	8.9677	29.864712	0.000253	2.533865	0.858497	-0.000101
 781	7.7610e+01	8.9179	29.767820	0.000243	2.432511	0.824157	-0.000097
 782	7.7710e+01	8.8794	29.646706	0.000304	3.040638	1.030196	-0.000122
 783	7.7809e+01	8.8457	29.578075	0.000172	1.723028	0.583778	-0.000069
 784	7.7909e+01	8.8072	29.465035	0.000284	2.837929	0.961516	-0.000114
 785	7.8008e+01	8.7671	29.343921	0.000304	3.040638	1.030196	-0.000122
 786	7.8108e+01	8.7238	29.271253	0.000182	1.824383	0.618118	-0.000073
 787	7.8207e+01	8.6837	29.138027	0.000334	3.344702	1.133216	-0.000134
 788	7.8306e+01	8.6324	29.004802	0.000334	3.344702	1.133216	-0.000134
 789	7.8406e+01	8.6019	28.859465	0.000365	3.648766	1.236235	-0.000146
 790	7.8505e+01	8.5666	28.774685	0.000213	2.128447	0.721137	-0.000085
 791	7.8605e+01	8.5265	28.649534	0.000314	3.141993	1.064536	-0.000126
 792	7.8704e+01	8.4880	28.532457	0.000294	2.939284	0.995856	-0.000118
 793	7.8804e+01	8.4399	28.427491	0.000264	2.635220	0.892837	-0.000105
 794	7.8903e+01	8.4094	28.314451	0.000284	2.837929	0.961516	-0.000114
 795	7.9003e+01	8.3645	28.181226	0.000334	3.344702	1.133216	-0.000134
 796	7.9103e+01	8.3260	28.015703	0.000416	4.155539	1.407935	-0.000166
 797	7.9202e+01	8.2843	27.926886	0.000223	2.229802	0.755477	-0.000089
 798	7.9302e+01	8.2474	27.809810	0.000294	2.939284	0.995856	-0.000118
 799	7.9401e+01	8.2008	27.700807	0.000274	2.736575	0.927177	-0.000110
 800	7.9501e+01	8.1655	27.571619	0.000324	3.243348	1.098876	-0.000130
 801	7.9600e+01	8.1222	27.482802	0.000223	2.229802	0.755477	-0.000089
 802	7.9700e+01	8.0901	27.341502	0.000355	3.547412	1.201896	-0.000142
 803	7.9799e+01	8.0388	27.224425	0.000294	2.939284	0.995856	-0.000118
 804	7.9898e+01	8.0035	27.139645	0.000213	2.128447	0.721137	-0.000085
 805	7.9998e+01	7.9698	26.998345	0.000355	3.547412	1.201896	-0.000142
 806	8.0097e+01	7.9233	26.901454	0.000243	2.432511	0.824157	-0.000097
 807	8.0197e+01	7.8784	26.788414	0.000284	2.837929	0.961516	-0.000114
 808	8.0296e+01	7.8447	26.687486	0.000253	2.533865	0.858497	-0.000101
 809	8.0396e+01	7.8094	26.558297	0.000324	3.243348	1.098876	-0.000130
 810	8.0496e+01	7.7629	26.437183	0.000304	3.040638	1.030196	-0.000122
 811	8.0595e+01	7.7340	26.307995	0.000324	3.243348	1.098876	-0.000130
 812	8.0695e+01	7.6891	26.158621	0.000375	3.750121	1.270575	-0.000150
 813	8.0794e+01	7.6410	26.061730	0.000243	2.432511	0.824157	-0.000097
 814	8.0894e+01	7.6057	25.920430	0.000355	3.547412	1.201896	-0.000142
 815	8.0993e+01	7.5688	25.762982	0.000395	3.952830	1.339255	-0.000158
 816	8.1093e+01	7.5303	25.629756	0.000334	3.344702	1.133216	-0.000134
 817	8.1192e+01	7.4902	25.516716	0.000284	2.837929	0.961516	-0.000114
 818	8.1291e+01	7.4468	25.440011	0.000193	1.925738	0.652458	-0.000077
 819	8.1391e+01	7.4067	25.351194	0.000223	2.229802	0.755477	-0.000089
 820	8.1490e+01	7.3714	25.238154	0.000284	2.837929	0.961516	-0.000114
 821	8.1590e+01	7.3249	25.076669	0.000405	4.054185	1.373595	-0.000162
 822	8.1689e+01	7.2832	24.991889	0.000213	2.128447	0.721137	-0.000085
 823	8.1789e+01	7.2463	24.870775	0.000304	3.040638	1.030196	-0.000122
 824	8.1888e+01	7.2158	24.721401	0.000375	3.750121	1.270575	-0.000150
 825	8.1988e+01	7.1661	24.636621	0.000213	2.128447	0.721137	-0.000085
 826	8.2088e+01	7.1180	24.479173	0.000395	3.952830	1.339255	-0.000158
 827	8.2187e+01	7.0907	24.382281	0.000243	2.432511	0.824157	-0.000097
 828	8.2287e+01	7.0442	24.236944	0.000365	3.648766	1.236235	-0.000146
 829	8.2386e+01	6.9945	24.115830	0.000304	3.040638	1.030196	-0.000122
 830	8.2486e+01	6.9704	23.994716	0.000304	3.040638	1.030196	-0.000122
 831	8.2585e+01	6.9239	23.849379	0.000365	3.648766	1.236235	-0.000146
 832	8.2684e+01	6.8886	23.708080	0.000355	3.547412	1.201896	-0.000142
 833	8.2784e+01	6.8469	23.599077	0.000274	2.736575	0.927177	-0.000110
 834	8.2883e+01	6.8132	23.490074	0.000274	2.736575	0.927177	-0.000110
 835	8.2983e+01	6.7667	23.385109	0.000264	2.635220	0.892837	-0.000105
 836	8.3082e+01	6.7265	23.251883	0.000334	3.344702	1.133216	-0.000134
 837	8.3182e+01	6.6864	23.134806	0.000294	2.939284	0.995856	-0.000118
 838	8.3281e+01	6.6511	23.013692	0.000304	3.040638	1.030196	-0.000122
 839	8.3381e+01	6.6094	22.876430	0.000345	3.446057	1.167556	-0.000138
 840	8.3481e+01	6.5741	22.755316	0.000304	3.040638	1.030196	-0.000122
 841	8.3580e+01	6.5260	22.650350	0.000264	2.635220	0.892837	-0.000105
 842	8.3680e+01	6.4843	22.553459	0.000243	2.432511	0.824157	-0.000097
 843	8.3779e+01	6.4426	22.408122	0.000365	3.648766	1.236235	-0.000146
 844	8.3879e+01	6.4121	22.250674	0.000395	3.952830	1.339255	-0.000158
 845	8.3978e+01	6.3688	22.202228	0.000122	1.216255	0.412078	-0.000049
 846	8.4078e+01	6.3271	22.028631	0.000436	4.358248	1.476615	-0.000174
 847	8.4177e+01	6.2982	21.931740	0.000243	2.432511	0.824157	-0.000097
 848	8.4276e+01	6.2549	21.758143	0.000436	4.358248	1.476615	-0.000174
 849	8.4376e+01	6.2132	21.657215	0.000253	2.533865	0.858497	-0.000101
 850	8.4475e+01	6.1715	21.519952	0.000345	3.446057	1.167556	-0.000138
 851	8.4575e+01	6.1362	21.346355	0.000436	4.358248	1.476615	-0.000174
 852	8.4674e+01	6.0865	21.249464	0.000243	2.432511	0.824157	-0.000097
 853	8.4774e+01	6.0560	21.120276	0.000324	3.243348	1.098876	-0.000130
 854	8.4874e+01	6.0159	21.031459	0.000223	2.229802	0.755477	-0.000089
 855	8.4973e+01	5.9726	20.922456	0.000274	2.736575	0.927177	-0.000110
 856	8.5073e+01	5.9325	20.777119	0.000365	3.648766	1.236235	-0.000146
 857	8.5172e+01	5.8940	20.668116	0.000274	2.736575	0.927177	-0.000110
 858	8.5272e+01	5.8442	20.534891	0.000334	3.344702	1.133216	-0.000134
 859	8.5371e+01	5.8137	20.450111	0.000213	2.128447	0.721137	-0.000085
 860	8.5471e+01	5.7688	20.304774	0.000365	3.648766	1.236235	-0.000146
 861	8.5570e+01	5.7303	20.179623	0.000314	3.141993	1.064536	-0.000126
 862	8.5669e+01	5.6918	20.078695	0.000253	2.533865	0.858497	-0.000101
 863	8.5769e+01	5.6549	19.917209	0.000405	4.054185	1.373595	-0.000162
 864	8.5868e+01	5.6020	19.783984	0.000334	3.344702	1.133216	-0.000134
 865	8.5968e+01	5.5763	19.691130	0.000233	2.331156	0.789817	-0.000093
 866	8.6067e+01	5.5234	19.549830	0.000355	3.547412	1.201896	-0.000142
 867	8.6167e+01	5.4945	19.424679	0.000314	3.141993	1.064536	-0.000126
 868	8.6266e+01	5.4560	19.323750	0.000253	2.533865	0.858497	-0.000101
 869	8.6366e+01	5.4175	19.166302	0.000395	3.952830	1.339255	-0.000158
 870	8.6466e+01	5.3806	19.025002	0.000355	3.547412	1.201896	-0.000142
 871	8.6565e+01	5.3325	18.940222	0.000213	2.128447	0.721137	-0.000085
 872	8.6665e+01	5.2988	18.806997	0.000334	3.344702	1.133216	-0.000134
 873	8.6764e+01	5.2555	18.689920	0.000294	2.939284	0.995856	-0.000118
 874	8.6864e+01	5.2073	18.548620	0.000355	3.547412	1.201896	-0.000142
 875	8.6963e+01	5.1704	18.415395	0.000334	3.344702	1.133216	-0.000134
 876	8.7063e+01	5.1384	18.294281	0.000304	3.040638	1.030196	-0.000122
 877	8.7162e+01	5.0934	18.144907	0.000375	3.750121	1.270575	-0.000150
 878	8.7261e+01	5.0517	18.043978	0.000253	2.533865	0.858497	-0.000101
 879	8.7361e+01	5.0084	17.955161	0.000223	2.229802	0.755477	-0.000089
 880	8.7460e+01	4.9715	17.797713	0.000395	3.952830	1.339255	-0.000158
 881	8.7560e+01	4.9362	17.672562	0.000314	3.141993	1.064536	-0.000126
 882	8.7659e+01	4.8913	17.531262	0.000355	3.547412	1.201896	-0.000142
 883	8.7759e+01	4.8560	17.442445	0.000223	2.229802	0.755477	-0.000089
 884	8.7859e+01	4.8175	17.325368	0.000294	2.939284	0.995856	-0.000118
 885	8.7958e+01	4.7790	17.171957	0.000385	3.851475	1.304915	-0.000154
 886	8.8058e+01	4.7389	17.010471	0.000405	4.054185	1.373595	-0.000162
 887	8.8157e+01	4.6876	16.893394	0.000294	2.939284	0.995856	-0.000118
 888	8.8257e+01	4.6587	16.800540	0.000233	2.331156	0.789817	-0.000093
 889	8.8356e+01	4.6234	16.655203	0.000365	3.648766	1.236235	-0.000146
 890	8.8456e+01	4.5801	16.594646	0.000152	1.520319	0.515098	-0.000061
 891	8.8555e+01	4.5432	16.417012	0.000446	4.459603	1.510954	-0.000179
 892	8.8654e+01	4.4870	16.312047	0.000264	2.635220	0.892837	-0.000105
 893	8.8754e+01	4.4678	16.154599	0.000395	3.952830	1.339255	-0.000158
 894	8.8853e+01	4.4213	16.053670	0.000253	2.533865	0.858497	-0.000101
 895	8.8953e+01	4.3763	15.932556	0.000304	3.040638	1.030196	-0.000122
 896	8.9052e+01	4.3362	15.803368	0.000324	3.243348	1.098876	-0.000130
 897	8.9152e+01	4.2897	15.674180	0.000324	3.243348	1.098876	-0.000130
 898	8.9251e+01	4.2560	15.573251	0.000253	2.533865	0.858497	-0.000101
 899	8.9351e+01	4.2191	15.391580	0.000456	4.560958	1.545294	-0.000183
 900	8.9451e+01	4.1742	15.266429	0.000314	3.141993	1.064536	-0.000126
 901	8.9550e+01	4.1357	15.149352	0.000294	2.939284	0.995856	-0.000118
 902	8.9650e+01	4.0988	14.999978	0.000375	3.750121	1.270575	-0.000150
 903	8.9749e+01	4.0683	14.846567	0.000385	3.851475	1.304915	-0.000154
 904	8.9849e+01	4.0218	14.741601	0.000264	2.635220	0.892837	-0.000105
 905	8.9948e+01	3.9817	14.620487	0.000304	3.040638	1.030196	-0.000122
 906	9.0047e+01	3.9384	14.479187	0.000355	3.547412	1.201896	-0.000142
 907	9.0147e+01	3.9047	14.374222	0.000264	2.635220	0.892837	-0.000105
 908	9.0246e+01	3.8582	14.265219	0.000274	2.736575	0.927177	-0.000110
 909	9.0346e+01	3.8181	14.152179	0.000284	2.837929	0.961516	-0.000114
 910	9.0445e+01	3.7780	14.035102	0.000294	2.939284	0.995856	-0.000118
 911	9.0545e+01	3.7379	13.877654	0.000395	3.952830	1.339255	-0.000158
 912	9.0644e+01	3.6978	13.724243	0.000385	3.851475	1.304915	-0.000154
 913	9.0744e+01	3.6609	13.603129	0.000304	3.040638	1.030196	-0.000122
 914	9.0844e+01	3.6191	13.461829	0.000355	3.547412	1.201896	-0.000142
 915	9.0943e+01	3.5839	13.324567	0.000345	3.446057	1.167556	-0.000138
 916	9.1043e+01	3.5454	13.195378	0.000324	3.243348	1.098876	-0.000130
 917	9.1142e+01	3.5020	13.094450	0.000253	2.533865	0.858497	-0.000101
 918	9.1242e+01	3.4587	12.932964	0.000405	4.054185	1.373595	-0.000162
 919	9.1341e+01	3.4170	12.807813	0.000314	3.141993	1.064536	-0.000126
 920	9.1441e+01	3.3930	12.666513	0.000355	3.547412	1.201896	-0.000142
 921	9.1540e+01	3.3416	12.505028	0.000405	4.054185	1.373595	-0.000162
 922	9.1639e+01	3.3047	12.400062	0.000264	2.635220	0.892837	-0.000105
 923	9.1739e+01	3.2646	12.262800	0.000345	3.446057	1.167556	-0.000138
 924	9.1838e+01	3.2197	12.149760	0.000284	2.837929	0.961516	-0.000114
 925	9.1938e+01	3.1812	12.032683	0.000294	2.939284	0.995856	-0.000118
 926	9.2037e+01	3.1427	11.891383	0.000355	3.547412	1.201896	-0.000142
 927	9.2137e+01	3.1042	11.774306	0.000294	2.939284	0.995856	-0.000118
 928	9.2237e+01	3.0657	11.612821	0.000405	4.054185	1.373595	-0.000162
 929	9.2336e+01	3.0192	11.519967	0.000233	2.331156	0.789817	-0.000093
 930	9.2436e+01	2.9823	11.382704	0.000345	3.446057	1.167556	-0.000138
 931	9.2535e+01	2.9341	11.241404	0.000355	3.547412	1.201896	-0.000142
 932	9.2635e+01	2.9165	11.124328	0.000294	2.939284	0.995856	-0.000118
 933	9.2734e+01	2.8587	10.978991	0.000365	3.648766	1.236235	-0.000146
 934	9.2834e+01	2.8283	10.825579	0.000385	3.851475	1.304915	-0.000154
 935	9.2933e+01	2.7882	10.696391	0.000324	3.243348	1.098876	-0.000130
 936	9.3032e+01	2.7481	10.571240	0.000314	3.141993	1.064536	-0.000126
 937	9.3132e+01	2.7031	10.433977	0.000345	3.446057	1.167556	-0.000138
 938	9.3231e+01	2.6678	10.252306	0.000456	4.560958	1.545294	-0.000183
 939	9.3331e+01	2.6277	10.106969	0.000365	3.648766	1.236235	-0.000146
 940	9.3430e+01	2.5892	9.997967	0.000274	2.736575	0.927177	-0.000110
 941	9.3530e+01	2.5427	9.897038	0.000253	2.533865	0.858497	-0.000101
 942	9.3629e+01	2.5042	9.751701	0.000365	3.648766	1.236235	-0.000146
 943	9.3729e+01	2.4593	9.638662	0.000284	2.837929	0.961516	-0.000114
 944	9.3829e+01	2.4320	9.489288	0.000375	3.750121	1.270575	-0.000150
 945	9.3928e+01	2.3855	9.347988	0.000355	3.547412	1.201896	-0.000142
 946	9.4028e+01	2.3454	9.194577	0.000385	3.851475	1.304915	-0.000154
 947	9.4127e+01	2.2989	9.097685	0.000243	2.432511	0.824157	-0.000097
 948	9.4227e+01	2.2668	8.907940	0.000476	4.763667	1.613974	-0.000191
 949	9.4326e+01	2.2154	8.802974	0.000264	2.635220	0.892837	-0.000105
 950	9.4425e+01	2.1882	8.673786	0.000324	3.243348	1.098876	-0.000130
 951	9.4525e+01	2.1433	8.520375	0.000385	3.851475	1.304915	-0.000154
 952	9.4624e+01	2.1031	8.387149	0.000334	3.344702	1.133216	-0.000134
 953	9.4724e+01	2.0614	8.266035	0.000304	3.040638	1.030196	-0.000122
 954	9.4823e+01	2.0278	8.128773	0.000345	3.446057	1.167556	-0.000138
 955	9.4923e+01	1.9876	7.951139	0.000446	4.459603	1.510954	-0.000179
 956	9.5022e+01	1.9427	7.793691	0.000395	3.952830	1.339255	-0.000158
 957	9.5122e+01	1.9106	7.676614	0.000294	2.939284	0.995856	-0.000118
 958	9.5222e+01	1.8673	7.535314	0.000355	3.547412	1.201896	-0.000142
 959	9.5321e+01	1.8336	7.402088	0.000334	3.344702	1.133216	-0.000134
 960	9.5421e+01	1.7839	7.313271	0.000223	2.229802	0.755477	-0.000089
 961	9.5520e+01	1.7486	7.147749	0.000416	4.155539	1.407935	-0.000166
 962	9.5620e+01	1.7133	7.030672	0.000294	2.939284	0.995856	-0.000118
 963	9.5719e+01	1.6748	6.869186	0.000405	4.054185	1.373595	-0.000162
 964	9.5819e+01	1.6235	6.719812	0.000375	3.750121	1.270575	-0.000150
 965	9.5918e+01	1.5834	6.566401	0.000385	3.851475	1.304915	-0.000154
 966	9.6017e+01	1.5497	6.465473	0.000253	2.533865	0.858497	-0.000101
 967	9.6117e+01	1.5032	6.324173	0.000355	3.547412	1.201896	-0.000142
 968	9.6216e+01	1.4663	6.146539	0.000446	4.459603	1.510954	-0.000179
 969	9.6316e+01	1.4310	6.005239	0.000355	3.547412	1.201896	-0.000142
 970	9.6415e+01	1.3925	5.900274	0.000264	2.635220	0.892837	-0.000105
 971	9.6515e+01	1.3427	5.738788	0.000405	4.054185	1.373595	-0.000162
 972	9.6615e+01	1.3091	5.581340	0.000395	3.952830	1.339255	-0.000158
 973	9.6714e+01	1.2673	5.448115	0.000334	3.344702	1.133216	-0.000134
 974	9.6814e+01	1.2208	5.278555	0.000426	4.256894	1.442275	-0.000170
 975	9.6913e+01	1.1919	5.145329	0.000334	3.344702	1.133216	-0.000134
 976	9.7013e+01	1.1502	5.012104	0.000334	3.344702	1.133216	-0.000134
 977	9.7112e+01	1.1117	4.927324	0.000213	2.128447	0.721137	-0.000085
 978	9.7212e+01	1.0732	4.741616	0.000466	4.662312	1.579634	-0.000187
 979	9.7311e+01	1.0299	4.636650	0.000264	2.635220	0.892837	-0.000105
 980	9.7410e+01	0.9914	4.454979	0.000456	4.560958	1.545294	-0.000183
 981	9.7510e+01	0.9449	4.337902	0.000294	2.939284	0.995856	-0.000118
 982	9.7609e+01	0.9144	4.172380	0.000416	4.155539	1.407935	-0.000166
 983	9.7709e+01	0.8679	4.023006	0.000375	3.750121	1.270575	-0.000150
 984	9.7808e+01	0.8342	3.901892	0.000304	3.040638	1.030196	-0.000122
 985	9.7908e+01	0.7829	3.756555	0.000365	3.648766	1.236235	-0.000146
 986	9.8007e+01	0.7524	3.619292	0.000345	3.446057	1.167556	-0.000138
 987	9.8107e+01	0.7123	3.453770	0.000416	4.155539	1.407935	-0.000166
 988	9.8207e+01	0.6722	3.308433	0.000365	3.648766	1.236235	-0.000146
 989	9.8306e+01	0.6273	3.199430	0.000274	2.736575	0.927177	-0.000110
 990	9.8406e+01	0.5968	2.997573	0.000507	5.067731	1.716994	-0.000203
 991	9.8505e+01	0.5470	2.848199	0.000375	3.750121	1.270575	-0.000150
 992	9.8605e+01	0.5166	2.710937	0.000345	3.446057	1.167556	-0.000138
 993	9.8704e+01	0.4749	2.610008	0.000253	2.533865	0.858497	-0.000101
 994	9.8803e+01	0.4444	2.492931	0.000294	2.939284	0.995856	-0.000118
 995	9.8903e+01	0.3946	2.327409	0.000416	4.155539	1.407935	-0.000166
 996	9.9002e+01	0.3561	2.186109	0.000355	3.547412	1.201896	-0.000142
 997	9.9102e+01	0.3192	2.048846	0.000345	3.446057	1.167556	-0.000138
 998	9.9201e+01	0.2711	1.915621	0.000334	3.344702	1.133216	-0.000134
 999	9.9301e+01	0.2294	1.758173	0.000395	3.952830	1.339255	-0.000158
1000	9.9400e+01	0.2005	1.641096	0.000294	2.939284	0.995856	-0.000118
1001	9.9500e+01	0.1492	1.491722	0.000375	3.750121	1.270575	-0.000150
1002	9.9600e+01	0.1043	1.346385	0.000365	3.648766	1.236235	-0.000146
1003	9.9699e+01	0.0754	1.229308	0.000294	2.939284	0.995856	-0.000118
1004	9.9799e+01	0.0273	1.055711	0.000436	4.358248	1.476615	-0.000174
1005	9.9898e+01	0.0032	0.958820	0.000243	2.432511	0.824157	-0.000097
1006	9.9998e+01	-0.0401	0.821557	0.000345	3.446057	1.167556	-0.000138
1007	1.0010e+02	-0.0850	0.668146	0.000385	3.851475	1.304915	-0.000154
1008	1.0020e+02	-0.1187	0.522809	0.000365	3.648766	1.236235	-0.000146
1009	1.0030e+02	-0.1556	0.320952	0.000507	5.067731	1.716994	-0.000203
1010	1.0040e+02	-0.1989	0.215987	0.000264	2.635220	0.892837	-0.000105
1011	1.0050e+02	-0.2358	0.098910	0.000294	2.939284	0.995856	-0.000118
1012	1.0059e+02	-0.2775	-0.086798	0.000466	4.662312	1.579634	-0.000187
1013	1.0069e+02	-0.3225	-0.187727	0.000253	2.533865	0.858497	-0.000101
1014	1.0079e+02	-0.3529	-0.353249	0.000416	4.155539	1.407935	-0.000166
1015	1.0089e+02	-0.3930	-0.490512	0.000345	3.446057	1.167556	-0.000138
1016	1.0099e+02	-0.4347	-0.575292	0.000213	2.128447	0.721137	-0.000085
1017	1.0109e+02	-0.4716	-0.744852	0.000426	4.256894	1.442275	-0.000170
1018	1.0119e+02	-0.5198	-0.914411	0.000426	4.256894	1.442275	-0.000170
1019	1.0129e+02	-0.5551	-1.059748	0.000365	3.648766	1.236235	-0.000146
1020	1.0139e+02	-0.6000	-1.201048	0.000355	3.547412	1.201896	-0.000142
1021	1.0149e+02	-0.6353	-1.330236	0.000324	3.243348	1.098876	-0.000130
1022	1.0159e+02	-0.6818	-1.443276	0.000284	2.837929	0.961516	-0.000114
1023	1.0169e+02	-0.7251	-1.580539	0.000345	3.446057	1.167556	-0.000138
1024	1.0179e+02	-0.7572	-1.725876	0.000365	3.648766	1.236235	-0.000146
1025	1.0189e+02	-0.7957	-1.895435	0.000426	4.256894	1.442275	-0.000170
1026	1.0199e+02	-0.8326	-2.073069	0.000446	4.459603	1.510954	-0.000179
1027	1.0209e+02	-0.8743	-2.186109	0.000284	2.837929	0.961516	-0.000114
1028	1.0219e+02	-0.9096	-2.303186	0.000294	2.939284	0.995856	-0.000118
1029	1.0229e+02	-0.9545	-2.424300	0.000304	3.040638	1.030196	-0.000122
1030	1.0239e+02	-0.9930	-2.577711	0.000385	3.851475	1.304915	-0.000154
1031	1.0248e+02	-1.0315	-2.743234	0.000416	4.155539	1.407935	-0.000166
1032	1.0258e+02	-1.0732	-2.868385	0.000314	3.141993	1.064536	-0.000126
1033	1.0268e+02	-1.1165	-3.001610	0.000334	3.344702	1.133216	-0.000134
1034	1.0278e+02	-1.1502	-3.150984	0.000375	3.750121	1.270575	-0.000150
1035	1.0288e+02	-1.1952	-3.288247	0.000345	3.446057	1.167556	-0.000138
1036	1.0298e+02	-1.2353	-3.417435	0.000324	3.243348	1.098876	-0.000130
1037	1.0308e+02	-1.2770	-3.570847	0.000385	3.851475	1.304915	-0.000154
1038	1.0318e+02	-1.3058	-3.679849	0.000274	2.736575	0.927177	-0.000110
1039	1.0328e+02	-1.3588	-3.861520	0.000456	4.560958	1.545294	-0.000183
1040	1.0338e+02	-1.3925	-3.974560	0.000284	2.837929	0.961516	-0.000114
1041	1.0348e+02	-1.4294	-4.123934	0.000375	3.750121	1.270575	-0.000150
1042	1.0358e+02	-1.4791	-4.236974	0.000284	2.837929	0.961516	-0.000114
1043	1.0368e+02	-1.5128	-4.402497	0.000416	4.155539	1.407935	-0.000166
1044	1.0378e+02	-1.5465	-4.543796	0.000355	3.547412	1.201896	-0.000142
1045	1.0388e+02	-1.5850	-4.705282	0.000405	4.054185	1.373595	-0.000162
1046	1.0398e+02	-1.6379	-4.794099	0.000223	2.229802	0.755477	-0.000089
1047	1.0408e+02	-1.6620	-4.943473	0.000375	3.750121	1.270575	-0.000150
1048	1.0418e+02	-1.7101	-5.060550	0.000294	2.939284	0.995856	-0.000118
1049	1.0428e+02	-1.7598	-5.217998	0.000395	3.952830	1.339255	-0.000158
1050	1.0438e+02	-1.7855	-5.363335	0.000365	3.648766	1.236235	-0.000146
1051	1.0447e+02	-1.8272	-5.492523	0.000324	3.243348	1.098876	-0.000130
1052	1.0457e+02	-1.8673	-5.625749	0.000334	3.344702	1.133216	-0.000134
1053	1.0467e+02	-1.9138	-5.742826	0.000294	2.939284	0.995856	-0.000118
1054	1.0477e+02	-1.9491	-5.908348	0.000416	4.155539	1.407935	-0.000166
1055	1.0487e+02	-1.9909	-6.037536	0.000324	3.243348	1.098876	-0.000130
1056	1.0497e+02	-2.0342	-6.174799	0.000345	3.446057	1.167556	-0.000138
1057	1.0507e+02	-2.0743	-6.308025	0.000334	3.344702	1.133216	-0.000134
1058	1.0517e+02	-2.1192	-6.421064	0.000284	2.837929	0.961516	-0.000114
1059	1.0527e+02	-2.1513	-6.534104	0.000284	2.837929	0.961516	-0.000114
1060	1.0537e+02	-2.1914	-6.723850	0.000476	4.763667	1.613974	-0.000191
1061	1.0547e+02	-2.2283	-6.861112	0.000345	3.446057	1.167556	-0.000138
1062	1.0557e+02	-2.2700	-7.002412	0.000355	3.547412	1.201896	-0.000142
1063	1.0567e+02	-2.3037	-7.107377	0.000264	2.635220	0.892837	-0.000105
1064	1.0577e+02	-2.3454	-7.236566	0.000324	3.243348	1.098876	-0.000130
1065	1.0587e+02	-2.3903	-7.398051	0.000405	4.054185	1.373595	-0.000162
1066	1.0597e+02	-2.4320	-7.511091	0.000284	2.837929	0.961516	-0.000114
1067	1.0607e+02	-2.4641	-7.656428	0.000365	3.648766	1.236235	-0.000146
1068	1.0617e+02	-2.5122	-7.777542	0.000304	3.040638	1.030196	-0.000122
1069	1.0627e+02	-2.5539	-7.922879	0.000365	3.648766	1.236235	-0.000146
1070	1.0637e+02	-2.5924	-8.052067	0.000324	3.243348	1.098876	-0.000130
1071	1.0647e+02	-2.6293	-8.181256	0.000324	3.243348	1.098876	-0.000130
1072	1.0656e+02	-2.6727	-8.298333	0.000294	2.939284	0.995856	-0.000118
1073	1.0666e+02	-2.7144	-8.467892	0.000426	4.256894	1.442275	-0.000170
1074	1.0676e+02	-2.7481	-8.597081	0.000324	3.243348	1.098876	-0.000130
1075	1.0686e+02	-2.7898	-8.734343	0.000345	3.446057	1.167556	-0.000138
1076	1.0696e+02	-2.8218	-8.851420	0.000294	2.939284	0.995856	-0.000118
1077	1.0706e+02	-2.8652	-8.992720	0.000355	3.547412	1.201896	-0.000142
1078	1.0716e+02	-2.9053	-9.125945	0.000334	3.344702	1.133216	-0.000134
1079	1.0726e+02	-2.9422	-9.291468	0.000416	4.155539	1.407935	-0.000166
1080	1.0736e+02	-2.9871	-9.396433	0.000264	2.635220	0.892837	-0.000105
1081	1.0746e+02	-3.0304	-9.525622	0.000324	3.243348	1.098876	-0.000130
1082	1.0756e+02	-3.0657	-9.674996	0.000375	3.750121	1.270575	-0.000150
1083	1.0766e+02	-3.1058	-9.812258	0.000345	3.446057	1.167556	-0.000138
1084	1.0776e+02	-3.1491	-9.929335	0.000294	2.939284	0.995856	-0.000118
1085	1.0786e+02	-3.1876	-10.050449	0.000304	3.040638	1.030196	-0.000122
1086	1.0796e+02	-3.2261	-10.195786	0.000365	3.648766	1.236235	-0.000146
1087	1.0806e+02	-3.2678	-10.320938	0.000314	3.141993	1.064536	-0.000126
1088	1.0816e+02	-3.3063	-10.446089	0.000314	3.141993	1.064536	-0.000126
1089	1.0826e+02	-3.3464	-10.567203	0.000304	3.040638	1.030196	-0.000122
1090	1.0836e+02	-3.3897	-10.684280	0.000294	2.939284	0.995856	-0.000118
1091	1.0845e+02	-3.4202	-10.869988	0.000466	4.662312	1.579634	-0.000187
1092	1.0855e+02	-3.4571	-10.983028	0.000284	2.837929	0.961516	-0.000114
1093	1.0865e+02	-3.5069	-11.108179	0.000314	3.141993	1.064536	-0.000126
1094	1.0875e+02	-3.5566	-11.225256	0.000294	2.939284	0.995856	-0.000118
1095	1.0885e+02	-3.5903	-11.410964	0.000466	4.662312	1.579634	-0.000187
1096	1.0895e+02	-3.6191	-11.519967	0.000274	2.736575	0.927177	-0.000110
1097	1.0905e+02	-3.6609	-11.685489	0.000416	4.155539	1.407935	-0.000166
1098	1.0915e+02	-3.7074	-11.770269	0.000213	2.128447	0.721137	-0.000085
1099	1.0925e+02	-3.7459	-11.887346	0.000294	2.939284	0.995856	-0.000118
1100	1.0935e+02	-3.7764	-12.008460	0.000304	3.040638	1.030196	-0.000122
1101	1.0945e+02	-3.8277	-12.145723	0.000345	3.446057	1.167556	-0.000138
1102	1.0955e+02	-3.8582	-12.282985	0.000345	3.446057	1.167556	-0.000138
1103	1.0965e+02	-3.9031	-12.424285	0.000355	3.547412	1.201896	-0.000142
1104	1.0975e+02	-3.9512	-12.541362	0.000294	2.939284	0.995856	-0.000118
1105	1.0985e+02	-3.9929	-12.670551	0.000324	3.243348	1.098876	-0.000130
1106	1.0995e+02	-4.0250	-12.840110	0.000426	4.256894	1.442275	-0.000170
1107	1.1005e+02	-4.0635	-12.961224	0.000304	3.040638	1.030196	-0.000122
1108	1.1015e+02	-4.1068	-13.086375	0.000314	3.141993	1.064536	-0.000126
1109	1.1025e+02	-4.1405	-13.203452	0.000294	2.939284	0.995856	-0.000118
1110	1.1035e+02	-4.1838	-13.356864	0.000385	3.851475	1.304915	-0.000154
1111	1.1044e+02	-4.2272	-13.482015	0.000314	3.141993	1.064536	-0.000126
1112	1.1054e+02	-4.2608	-13.595055	0.000284	2.837929	0.961516	-0.000114
1113	1.1064e+02	-4.3009	-13.740391	0.000365	3.648766	1.236235	-0.000146
1114	1.1074e+02	-4.3459	-13.889766	0.000375	3.750121	1.270575	-0.000150
1115	1.1084e+02	-4.3796	-14.010880	0.000304	3.040638	1.030196	-0.000122
1116	1.1094e+02	-4.4165	-14.152179	0.000355	3.547412	1.201896	-0.000142
1117	1.1104e+02	-4.4614	-14.236959	0.000213	2.128447	0.721137	-0.000085
1118	1.1114e+02	-4.5031	-14.358073	0.000304	3.040638	1.030196	-0.000122
1119	1.1124e+02	-4.5384	-14.507447	0.000375	3.750121	1.270575	-0.000150
1120	1.1134e+02	-4.5833	-14.628561	0.000304	3.040638	1.030196	-0.000122
1121	1.1144e+02	-4.6202	-14.761787	0.000334	3.344702	1.133216	-0.000134
1122	1.1154e+02	-4.6715	-14.943458	0.000456	4.560958	1.545294	-0.000183
1123	1.1164e+02	-4.6988	-15.032275	0.000223	2.229802	0.755477	-0.000089
1124	1.1174e+02	-4.7325	-15.129166	0.000243	2.432511	0.824157	-0.000097
1125	1.1184e+02	-4.7774	-15.290652	0.000405	4.054185	1.373595	-0.000162
1126	1.1194e+02	-4.8223	-15.419840	0.000324	3.243348	1.098876	-0.000130
1127	1.1204e+02	-4.8576	-15.508657	0.000223	2.229802	0.755477	-0.000089
1128	1.1214e+02	-4.8977	-15.670142	0.000405	4.054185	1.373595	-0.000162
1129	1.1224e+02	-4.9426	-15.807405	0.000345	3.446057	1.167556	-0.000138
1130	1.1234e+02	-4.9827	-15.964853	0.000395	3.952830	1.339255	-0.000158
1131	1.1244e+02	-5.0116	-16.106153	0.000355	3.547412	1.201896	-0.000142
1132	1.1253e+02	-5.0581	-16.247453	0.000355	3.547412	1.201896	-0.000142
1133	1.1263e+02	-5.0983	-16.356455	0.000274	2.736575	0.927177	-0.000110
1134	1.1273e+02	-5.1384	-16.453347	0.000243	2.432511	0.824157	-0.000097
1135	1.1283e+02	-5.1801	-16.546201	0.000233	2.331156	0.789817	-0.000093
1136	1.1293e+02	-5.2250	-16.703649	0.000395	3.952830	1.339255	-0.000158
1137	1.1303e+02	-5.2635	-16.840912	0.000345	3.446057	1.167556	-0.000138
1138	1.1313e+02	-5.2908	-16.929729	0.000223	2.229802	0.755477	-0.000089
1139	1.1323e+02	-5.3405	-17.071028	0.000355	3.547412	1.201896	-0.000142
1140	1.1333e+02	-5.3790	-17.244625	0.000436	4.358248	1.476615	-0.000174
1141	1.1343e+02	-5.4271	-17.369777	0.000314	3.141993	1.064536	-0.000126
1142	1.1353e+02	-5.4688	-17.511076	0.000355	3.547412	1.201896	-0.000142
1143	1.1363e+02	-5.5009	-17.620079	0.000274	2.736575	0.927177	-0.000110
1144	1.1373e+02	-5.5378	-17.745230	0.000314	3.141993	1.064536	-0.000126
1145	1.1383e+02	-5.5827	-17.846159	0.000253	2.533865	0.858497	-0.000101
1146	1.1393e+02	-5.6148	-17.979384	0.000334	3.344702	1.133216	-0.000134
1147	1.1403e+02	-5.6565	-18.100498	0.000304	3.040638	1.030196	-0.000122
1148	1.1413e+02	-5.6934	-18.302355	0.000507	5.067731	1.716994	-0.000203
1149	1.1423e+02	-5.7464	-18.419432	0.000294	2.939284	0.995856	-0.000118
1150	1.1433e+02	-5.7784	-18.597066	0.000446	4.459603	1.510954	-0.000179
1151	1.1442e+02	-5.8105	-18.677808	0.000203	2.027092	0.686797	-0.000081
1152	1.1452e+02	-5.8587	-18.734328	0.000142	1.418965	0.480758	-0.000057
1153	1.1462e+02	-5.9004	-18.911962	0.000446	4.459603	1.510954	-0.000179
1154	1.1472e+02	-5.9405	-19.000779	0.000223	2.229802	0.755477	-0.000089
1155	1.1482e+02	-5.9758	-19.109782	0.000274	2.736575	0.927177	-0.000110
1156	1.1492e+02	-6.0127	-19.243007	0.000334	3.344702	1.133216	-0.000134
1157	1.1502e+02	-6.0528	-19.347973	0.000264	2.635220	0.892837	-0.000105
1158	1.1512e+02	-6.0865	-19.481199	0.000334	3.344702	1.133216	-0.000134
1159	1.1522e+02	-6.1410	-19.598275	0.000294	2.939284	0.995856	-0.000118
1160	1.1532e+02	-6.1779	-19.739575	0.000355	3.547412	1.201896	-0.000142
1161	1.1542e+02	-6.2148	-19.816281	0.000193	1.925738	0.652458	-0.000077
1162	1.1552e+02	-6.2645	-19.933358	0.000294	2.939284	0.995856	-0.000118
1163	1.1562e+02	-6.2886	-20.127140	0.000487	4.865022	1.648314	-0.000195
1164	1.1572e+02	-6.3303	-20.256329	0.000324	3.243348	1.098876	-0.000130
1165	1.1582e+02	-6.3768	-20.373406	0.000294	2.939284	0.995856	-0.000118
1166	1.1592e+02	-6.4121	-20.522780	0.000375	3.750121	1.270575	-0.000150
1167	1.1602e+02	-6.4522	-20.647931	0.000314	3.141993	1.064536	-0.000126
1168	1.1612e+02	-6.4939	-20.765008	0.000294	2.939284	0.995856	-0.000118
1169	1.1622e+02	-6.5276	-20.878047	0.000284	2.837929	0.961516	-0.000114
1170	1.1632e+02	-6.5741	-20.954753	0.000193	1.925738	0.652458	-0.000077
1171	1.1642e+02	-6.6223	-21.100090	0.000365	3.648766	1.236235	-0.000146
1172	1.1651e+02	-6.6560	-21.180833	0.000203	2.027092	0.686797	-0.000081
1173	1.1661e+02	-6.6880	-21.310021	0.000324	3.243348	1.098876	-0.000130
1174	1.1671e+02	-6.7378	-21.435172	0.000314	3.141993	1.064536	-0.000126
1175	1.1681e+02	-6.7683	-21.576472	0.000355	3.547412	1.201896	-0.000142
1176	1.1691e+02	-6.8164	-21.705660	0.000324	3.243348	1.098876	-0.000130
1177	1.1701e+02	-6.8581	-21.786403	0.000203	2.027092	0.686797	-0.000081
1178	1.1711e+02	-6.8918	-21.939814	0.000385	3.851475	1.304915	-0.000154
1179	1.1721e+02	-6.9351	-22.048817	0.000274	2.736575	0.927177	-0.000110
1180	1.1731e+02	-6.9624	-22.190117	0.000355	3.547412	1.201896	-0.000142
1181	1.1741e+02	-7.0025	-22.299119	0.000274	2.736575	0.927177	-0.000110
1182	1.1751e+02	-7.0474	-22.448493	0.000375	3.750121	1.270575	-0.000150
1183	1.1761e+02	-7.0907	-22.573644	0.000314	3.141993	1.064536	-0.000126
1184	1.1771e+02	-7.1260	-22.718981	0.000365	3.648766	1.236235	-0.000146
1185	1.1781e+02	-7.1661	-22.832021	0.000284	2.837929	0.961516	-0.000114
1186	1.1791e+02	-7.1998	-22.900652	0.000172	1.723028	0.583778	-0.000069
1187	1.1801e+02	-7.2463	-22.997544	0.000243	2.432511	0.824157	-0.000097
1188	1.1811e+02	-7.2848	-23.138843	0.000355	3.547412	1.201896	-0.000142
1189	1.1821e+02	-7.3217	-23.263995	0.000314	3.141993	1.064536	-0.000126
1190	1.1831e+02	-7.3714	-23.344737	0.000203	2.027092	0.686797	-0.000081
1191	1.1841e+02	-7.4035	-23.498149	0.000385	3.851475	1.304915	-0.000154
1192	1.1850e+02	-7.4404	-23.554668	0.000142	1.418965	0.480758	-0.000057
1193	1.1860e+02	-7.4966	-23.691931	0.000345	3.446057	1.167556	-0.000138
1194	1.1870e+02	-7.5351	-23.845342	0.000385	3.851475	1.304915	-0.000154
1195	1.1880e+02	-7.5736	-23.966456	0.000304	3.040638	1.030196	-0.000122
1196	1.1890e+02	-7.6041	-24.047199	0.000203	2.027092	0.686797	-0.000081
1197	1.1900e+02	-7.6570	-24.188499	0.000355	3.547412	1.201896	-0.000142
1198	1.1910e+02	-7.6907	-24.281353	0.000233	2.331156	0.789817	-0.000093
1199	1.1920e+02	-7.7196	-24.414578	0.000334	3.344702	1.133216	-0.000134
1200	1.1930e+02	-7.7613	-24.572027	0.000395	3.952830	1.339255	-0.000158
1201	1.1940e+02	-7.8110	-24.668918	0.000243	2.432511	0.824157	-0.000097
1202	1.1950e+02	-7.8431	-24.785995	0.000294	2.939284	0.995856	-0.000118
1203	1.1960e+02	-7.8864	-24.915183	0.000324	3.243348	1.098876	-0.000130
1204	1.1970e+02	-7.9217	-24.975740	0.000152	1.520319	0.515098	-0.000061
1205	1.1980e+02	-7.9650	-25.100891	0.000314	3.141993	1.064536	-0.000126
1206	1.1990e+02	-8.0051	-25.185671	0.000213	2.128447	0.721137	-0.000085
1207	1.2000e+02	-8.0388	-25.314860	0.000324	3.243348	1.098876	-0.000130
1208	1.2010e+02	-8.0934	-25.431937	0.000294	2.939284	0.995856	-0.000118
1209	1.2020e+02	-8.1238	-25.504605	0.000182	1.824383	0.618118	-0.000073
1210	1.2030e+02	-8.1688	-25.629756	0.000314	3.141993	1.064536	-0.000126
1211	1.2039e+02	-8.2089	-25.787205	0.000395	3.952830	1.339255	-0.000158
1212	1.2049e+02	-8.2490	-25.880059	0.000233	2.331156	0.789817	-0.000093
1213	1.2059e+02	-8.2843	-26.017321	0.000345	3.446057	1.167556	-0.000138
1214	1.2069e+02	-8.3228	-26.106138	0.000223	2.229802	0.755477	-0.000089
1215	1.2079e+02	-8.3629	-26.243401	0.000345	3.446057	1.167556	-0.000138
1216	1.2089e+02	-8.4046	-26.388738	0.000365	3.648766	1.236235	-0.000146
1217	1.2099e+02	-8.4399	-26.461406	0.000182	1.824383	0.618118	-0.000073
1218	1.2109e+02	-8.4832	-26.647114	0.000466	4.662312	1.579634	-0.000187
1219	1.2119e+02	-8.5265	-26.723820	0.000193	1.925738	0.652458	-0.000077
1220	1.2129e+02	-8.5618	-26.808600	0.000213	2.128447	0.721137	-0.000085
1221	1.2139e+02	-8.5987	-26.933751	0.000314	3.141993	1.064536	-0.000126
1222	1.2149e+02	-8.6532	-26.998345	0.000162	1.621674	0.549438	-0.000065
1223	1.2159e+02	-8.6853	-27.111385	0.000284	2.837929	0.961516	-0.000114
1224	1.2169e+02	-8.7270	-27.212313	0.000253	2.533865	0.858497	-0.000101
1225	1.2179e+02	-8.7735	-27.341502	0.000324	3.243348	1.098876	-0.000130
1226	1.2189e+02	-8.8072	-27.422245	0.000203	2.027092	0.686797	-0.000081
1227	1.2199e+02	-8.8377	-27.551433	0.000324	3.243348	1.098876	-0.000130
1228	1.2209e+02	-8.8746	-27.660436	0.000274	2.736575	0.927177	-0.000110
1229	1.2219e+02	-8.9243	-27.741178	0.000203	2.027092	0.686797	-0.000081
1230	1.2229e+02	-8.9677	-27.894589	0.000385	3.851475	1.304915	-0.000154
1231	1.2239e+02	-9.0110	-27.983406	0.000223	2.229802	0.755477	-0.000089
1232	1.2248e+02	-9.0447	-28.092409	0.000274	2.736575	0.927177	-0.000110
1233	1.2258e+02	-9.0896	-28.201412	0.000274	2.736575	0.927177	-0.000110
1234	1.2268e+02	-9.1153	-28.302340	0.000253	2.533865	0.858497	-0.000101
1235	1.2278e+02	-9.1554	-28.463826	0.000405	4.054185	1.373595	-0.000162
1236	1.2288e+02	-9.2051	-28.560717	0.000243	2.432511	0.824157	-0.000097
1237	1.2298e+02	-9.2436	-28.661645	0.000253	2.533865	0.858497	-0.000101
1238	1.2308e+02	-9.2805	-28.782759	0.000304	3.040638	1.030196	-0.000122
1239	1.2318e+02	-9.3126	-28.851391	0.000172	1.723028	0.583778	-0.000069
1240	1.2328e+02	-9.3495	-28.956356	0.000264	2.635220	0.892837	-0.000105
1241	1.2338e+02	-9.4120	-29.081507	0.000314	3.141993	1.064536	-0.000126
1242	1.2348e+02	-9.4441	-29.202621	0.000304	3.040638	1.030196	-0.000122
1243	1.2358e+02	-9.4858	-29.307587	0.000264	2.635220	0.892837	-0.000105
1244	1.2368e+02	-9.5131	-29.376218	0.000172	1.723028	0.583778	-0.000069
1245	1.2378e+02	-9.5580	-29.561926	0.000466	4.662312	1.579634	-0.000187
1246	1.2388e+02	-9.6094	-29.646706	0.000213	2.128447	0.721137	-0.000085
1247	1.2398e+02	-9.6479	-29.711300	0.000162	1.621674	0.549438	-0.000065
1248	1.2408e+02	-9.6783	-29.840489	0.000324	3.243348	1.098876	-0.000130
1249	1.2418e+02	-9.7217	-29.925269	0.000213	2.128447	0.721137	-0.000085
1250	1.2428e+02	-9.7618	-30.010049	0.000213	2.128447	0.721137	-0.000085
1251	1.2438e+02	-9.7938	-30.179608	0.000426	4.256894	1.442275	-0.000170
1252	1.2447e+02	-9.8356	-30.296685	0.000294	2.939284	0.995856	-0.000118
1253	1.2457e+02	-9.8692	-30.421836	0.000314	3.141993	1.064536	-0.000126
1254	1.2467e+02	-9.9110	-30.518728	0.000243	2.432511	0.824157	-0.000097
1255	1.2477e+02	-9.9575	-30.607545	0.000223	2.229802	0.755477	-0.000089
1256	1.2487e+02	-9.9928	-30.700399	0.000233	2.331156	0.789817	-0.000093
1257	1.2497e+02	-10.0393	-30.789216	0.000223	2.229802	0.755477	-0.000089
1258	1.2507e+02	-10.0698	-30.922441	0.000334	3.344702	1.133216	-0.000134
1259	1.2517e+02	-10.1275	-31.007221	0.000213	2.128447	0.721137	-0.000085
1260	1.2527e+02	-10.1596	-31.108149	0.000253	2.533865	0.858497	-0.000101
1261	1.2537e+02	-10.1869	-31.180818	0.000182	1.824383	0.618118	-0.000073
1262	1.2547e+02	-10.2382	-31.330192	0.000375	3.750121	1.270575	-0.000150
1263	1.2557e+02	-10.2751	-31.435157	0.000264	2.635220	0.892837	-0.000105
1264	1.2567e+02	-10.3232	-31.528012	0.000233	2.331156	0.789817	-0.000093
1265	1.2577e+02	-10.3537	-31.628940	0.000253	2.533865	0.858497	-0.000101
1266	1.2587e+02	-10.3954	-31.746017	0.000294	2.939284	0.995856	-0.000118
1267	1.2597e+02	-10.4371	-31.891354	0.000365	3.648766	1.236235	-0.000146
1268	1.2607e+02	-10.4708	-31.992282	0.000253	2.533865	0.858497	-0.000101
1269	1.2617e+02	-10.5174	-32.101285	0.000274	2.736575	0.927177	-0.000110
1270	1.2627e+02	-10.5510	-32.206250	0.000264	2.635220	0.892837	-0.000105
1271	1.2636e+02	-10.5960	-32.307179	0.000253	2.533865	0.858497	-0.000101
1272	1.2646e+02	-10.6345	-32.416181	0.000274	2.736575	0.927177	-0.000110
1273	1.2656e+02	-10.6746	-32.464627	0.000122	1.216255	0.412078	-0.000049
1274	1.2666e+02	-10.7083	-32.557481	0.000233	2.331156	0.789817	-0.000093
1275	1.2676e+02	-10.7516	-32.690707	0.000334	3.344702	1.133216	-0.000134
1276	1.2686e+02	-10.7981	-32.807784	0.000294	2.939284	0.995856	-0.000118
1277	1.2696e+02	-10.8350	-32.896601	0.000223	2.229802	0.755477	-0.000089
1278	1.2706e+02	-10.8751	-33.021752	0.000314	3.141993	1.064536	-0.000126
1279	1.2716e+02	-10.9232	-33.114606	0.000233	2.331156	0.789817	-0.000093
1280	1.2726e+02	-10.9585	-33.231683	0.000294	2.939284	0.995856	-0.000118
1281	1.2736e+02	-11.0018	-33.304351	0.000182	1.824383	0.618118	-0.000073
1282	1.2746e+02	-11.0355	-33.449688	0.000365	3.648766	1.236235	-0.000146
1283	1.2756e+02	-11.0708	-33.578877	0.000324	3.243348	1.098876	-0.000130
1284	1.2766e+02	-11.1093	-33.675768	0.000243	2.432511	0.824157	-0.000097
1285	1.2776e+02	-11.1558	-33.780733	0.000264	2.635220	0.892837	-0.000105
1286	1.2786e+02	-11.1943	-33.897810	0.000294	2.939284	0.995856	-0.000118
1287	1.2796e+02	-11.2377	-34.026999	0.000324	3.243348	1.098876	-0.000130
1288	1.2806e+02	-11.2745	-34.148113	0.000304	3.040638	1.030196	-0.000122
1289	1.2816e+02	-11.3147	-34.224818	0.000193	1.925738	0.652458	-0.000077
1290	1.2826e+02	-11.3532	-34.289412	0.000162	1.621674	0.549438	-0.000065
1291	1.2835e+02	-11.3868	-34.354007	0.000162	1.621674	0.549438	-0.000065
1292	1.2845e+02	-11.4302	-34.475121	0.000304	3.040638	1.030196	-0.000122
1293	1.2855e+02	-11.4671	-34.563938	0.000223	2.229802	0.755477	-0.000089
1294	1.2865e+02	-11.5056	-34.668903	0.000264	2.635220	0.892837	-0.000105
1295	1.2875e+02	-11.5521	-34.781943	0.000284	2.837929	0.961516	-0.000114
1296	1.2885e+02	-11.5922	-34.886908	0.000264	2.635220	0.892837	-0.000105
1297	1.2895e+02	-11.6307	-35.020134	0.000334	3.344702	1.133216	-0.000134
1298	1.2905e+02	-11.6724	-35.137211	0.000294	2.939284	0.995856	-0.000118
1299	1.2915e+02	-11.7109	-35.189694	0.000132	1.317610	0.446418	-0.000053
1300	1.2925e+02	-11.7526	-35.339068	0.000375	3.750121	1.270575	-0.000150
1301	1.2935e+02	-11.7863	-35.484405	0.000365	3.648766	1.236235	-0.000146
1302	1.2945e+02	-11.8328	-35.540924	0.000142	1.418965	0.480758	-0.000057
1303	1.2955e+02	-11.8665	-35.662039	0.000304	3.040638	1.030196	-0.000122
1304	1.2965e+02	-11.9082	-35.791227	0.000324	3.243348	1.098876	-0.000130
1305	1.2975e+02	-11.9451	-35.896192	0.000264	2.635220	0.892837	-0.000105
1306	1.2985e+02	-11.9900	-36.025381	0.000324	3.243348	1.098876	-0.000130
1307	1.2995e+02	-12.0285	-36.057678	0.000081	0.810837	0.274719	-0.000032
1308	1.3005e+02	-12.0670	-36.190903	0.000334	3.344702	1.133216	-0.000134
1309	1.3015e+02	-12.1104	-36.271646	0.000203	2.027092	0.686797	-0.000081
1310	1.3025e+02	-12.1505	-36.404872	0.000334	3.344702	1.133216	-0.000134
1311	1.3034e+02	-12.1874	-36.505800	0.000253	2.533865	0.858497	-0.000101
1312	1.3044e+02	-12.2339	-36.570394	0.000162	1.621674	0.549438	-0.000065
1313	1.3054e+02	-12.2676	-36.695545	0.000314	3.141993	1.064536	-0.000126
1314	1.3064e+02	-12.3093	-36.780325	0.000213	2.128447	0.721137	-0.000085
1315	1.3074e+02	-12.3478	-36.897402	0.000294	2.939284	0.995856	-0.000118
1316	1.3084e+02	-12.3943	-37.058888	0.000405	4.054185	1.373595	-0.000162
1317	1.3094e+02	-12.4264	-37.107333	0.000122	1.216255	0.412078	-0.000049
1318	1.3104e+02	-12.4681	-37.224410	0.000294	2.939284	0.995856	-0.000118
1319	1.3114e+02	-12.5002	-37.385896	0.000405	4.054185	1.373595	-0.000162
1320	1.3124e+02	-12.5403	-37.482787	0.000243	2.432511	0.824157	-0.000097
1321	1.3134e+02	-12.5932	-37.547381	0.000162	1.621674	0.549438	-0.000065
1322	1.3144e+02	-12.6189	-37.676569	0.000324	3.243348	1.098876	-0.000130
1323	1.3154e+02	-12.6686	-37.733089	0.000142	1.418965	0.480758	-0.000057
1324	1.3164e+02	-12.7087	-37.842092	0.000274	2.736575	0.927177	-0.000110
1325	1.3174e+02	-12.7424	-37.963206	0.000304	3.040638	1.030196	-0.000122
1326	1.3184e+02	-12.7922	-38.031837	0.000172	1.723028	0.583778	-0.000069
1327	1.3194e+02	-12.8242	-38.124691	0.000233	2.331156	0.789817	-0.000093
1328	1.3204e+02	-12.8708	-38.237731	0.000284	2.837929	0.961516	-0.000114
1329	1.3214e+02	-12.9125	-38.334622	0.000243	2.432511	0.824157	-0.000097
1330	1.3224e+02	-12.9446	-38.439588	0.000264	2.635220	0.892837	-0.000105
1331	1.3234e+02	-12.9895	-38.528405	0.000223	2.229802	0.755477	-0.000089
1332	1.3243e+02	-13.0216	-38.653556	0.000314	3.141993	1.064536	-0.000126
1333	1.3253e+02	-13.0649	-38.738336	0.000213	2.128447	0.721137	-0.000085
1334	1.3263e+02	-13.1018	-38.831190	0.000233	2.331156	0.789817	-0.000093
1335	1.3273e+02	-13.1435	-38.940193	0.000274	2.736575	0.927177	-0.000110
1336	1.3283e+02	-13.1740	-39.069381	0.000324	3.243348	1.098876	-0.000130
1337	1.3293e+02	-13.2173	-39.162235	0.000233	2.331156	0.789817	-0.000093
1338	1.3303e+02	-13.2654	-39.295461	0.000334	3.344702	1.133216	-0.000134
1339	1.3313e+02	-13.3007	-39.368129	0.000182	1.824383	0.618118	-0.000073
1340	1.3323e+02	-13.3360	-39.509429	0.000355	3.547412	1.201896	-0.000142
1341	1.3333e+02	-13.3841	-39.569986	0.000152	1.520319	0.515098	-0.000061
1342	1.3343e+02	-13.4306	-39.646692	0.000193	1.925738	0.652458	-0.000077
1343	1.3353e+02	-13.4643	-39.735509	0.000223	2.229802	0.755477	-0.000089
1344	1.3363e+02	-13.5028	-39.808177	0.000182	1.824383	0.618118	-0.000073
1345	1.3373e+02	-13.5429	-39.941402	0.000334	3.344702	1.133216	-0.000134
1346	1.3383e+02	-13.5830	-40.058479	0.000294	2.939284	0.995856	-0.000118
1347	1.3393e+02	-13.6199	-40.155371	0.000243	2.432511	0.824157	-0.000097
1348	1.3403e+02	-13.6681	-40.264373	0.000274	2.736575	0.927177	-0.000110
1349	1.3413e+02	-13.7018	-40.308782	0.000111	1.114901	0.377739	-0.000045
1350	1.3423e+02	-13.7403	-40.446044	0.000345	3.446057	1.167556	-0.000138
1351	1.3432e+02	-13.7852	-40.542936	0.000243	2.432511	0.824157	-0.000097
1352	1.3442e+02	-13.8285	-40.680198	0.000345	3.446057	1.167556	-0.000138
1353	1.3452e+02	-13.8590	-40.793238	0.000284	2.837929	0.961516	-0.000114
1354	1.3462e+02	-13.8894	-40.882055	0.000223	2.229802	0.755477	-0.000089
1355	1.3472e+02	-13.9472	-41.015281	0.000334	3.344702	1.133216	-0.000134
1356	1.3482e+02	-13.9841	-41.083912	0.000172	1.723028	0.583778	-0.000069
1357	1.3492e+02	-14.0226	-41.184840	0.000253	2.533865	0.858497	-0.000101
1358	1.3502e+02	-14.0611	-41.241360	0.000142	1.418965	0.480758	-0.000057
1359	1.3512e+02	-14.0996	-41.354400	0.000284	2.837929	0.961516	-0.000114
1360	1.3522e+02	-14.1365	-41.410920	0.000142	1.418965	0.480758	-0.000057
1361	1.3532e+02	-14.1798	-41.523960	0.000284	2.837929	0.961516	-0.000114
1362	1.3542e+02	-14.2199	-41.588554	0.000162	1.621674	0.549438	-0.000065
1363	1.3552e+02	-14.2600	-41.705631	0.000294	2.939284	0.995856	-0.000118
1364	1.3562e+02	-14.3098	-41.814633	0.000274	2.736575	0.927177	-0.000110
1365	1.3572e+02	-14.3386	-41.923636	0.000274	2.736575	0.927177	-0.000110
1366	1.3582e+02	-14.3803	-41.968045	0.000111	1.114901	0.377739	-0.000045
1367	1.3592e+02	-14.4204	-42.093196	0.000314	3.141993	1.064536	-0.000126
1368	1.3602e+02	-14.4590	-42.190087	0.000243	2.432511	0.824157	-0.000097
1369	1.3612e+02	-14.4991	-42.347535	0.000395	3.952830	1.339255	-0.000158
1370	1.3622e+02	-14.5376	-42.408092	0.000152	1.520319	0.515098	-0.000061
1371	1.3631e+02	-14.5841	-42.492872	0.000213	2.128447	0.721137	-0.000085
1372	1.3641e+02	-14.6178	-42.634172	0.000355	3.547412	1.201896	-0.000142
1373	1.3651e+02	-14.6499	-42.718952	0.000213	2.128447	0.721137	-0.000085
1374	1.3661e+02	-14.6964	-42.803732	0.000213	2.128447	0.721137	-0.000085
1375	1.3671e+02	-14.7413	-42.916771	0.000284	2.837929	0.961516	-0.000114
1376	1.3681e+02	-14.7766	-43.005588	0.000223	2.229802	0.755477	-0.000089
1377	1.3691e+02	-14.8151	-43.054034	0.000122	1.216255	0.412078	-0.000049
1378	1.3701e+02	-14.8616	-43.118628	0.000162	1.621674	0.549438	-0.000065
1379	1.3711e+02	-14.9001	-43.251854	0.000334	3.344702	1.133216	-0.000134
1380	1.3721e+02	-14.9434	-43.328559	0.000193	1.925738	0.652458	-0.000077
1381	1.3731e+02	-14.9787	-43.393153	0.000162	1.621674	0.549438	-0.000065
1382	1.3741e+02	-15.0252	-43.510230	0.000294	2.939284	0.995856	-0.000118
1383	1.3751e+02	-15.0541	-43.647493	0.000345	3.446057	1.167556	-0.000138
1384	1.3761e+02	-15.0862	-43.732273	0.000213	2.128447	0.721137	-0.000085
1385	1.3771e+02	-15.1424	-43.849350	0.000294	2.939284	0.995856	-0.000118
1386	1.3781e+02	-15.1712	-43.942204	0.000233	2.331156	0.789817	-0.000093
1387	1.3791e+02	-15.2226	-44.063318	0.000304	3.040638	1.030196	-0.000122
1388	1.3801e+02	-15.2530	-44.144061	0.000203	2.027092	0.686797	-0.000081
1389	1.3811e+02	-15.2867	-44.224803	0.000203	2.027092	0.686797	-0.000081
1390	1.3821e+02	-15.3381	-44.366103	0.000355	3.547412	1.201896	-0.000142
1391	1.3831e+02	-15.3782	-44.402437	0.000091	0.912192	0.309059	-0.000037
1392	1.3840e+02	-15.4199	-44.491254	0.000223	2.229802	0.755477	-0.000089
1393	1.3850e+02	-15.4536	-44.612368	0.000304	3.040638	1.030196	-0.000122
1394	1.3860e+02	-15.4985	-44.664851	0.000132	1.317610	0.446418	-0.000053
1395	1.3870e+02	-15.5402	-44.749631	0.000213	2.128447	0.721137	-0.000085
1396	1.3880e+02	-15.5835	-44.834411	0.000213	2.128447	0.721137	-0.000085
1397	1.3890e+02	-15.6204	-44.915154	0.000203	2.027092	0.686797	-0.000081
1398	1.3900e+02	-15.6637	-45.036268	0.000304	3.040638	1.030196	-0.000122
1399	1.3910e+02	-15.6958	-45.088750	0.000132	1.317610	0.446418	-0.000053
1400	1.3920e+02	-15.7295	-45.213902	0.000314	3.141993	1.064536	-0.000126
1401	1.3930e+02	-15.7728	-45.326941	0.000284	2.837929	0.961516	-0.000114
1402	1.3940e+02	-15.8161	-45.444018	0.000294	2.939284	0.995856	-0.000118
1403	1.3950e+02	-15.8610	-45.565133	0.000304	3.040638	1.030196	-0.000122
1404	1.3960e+02	-15.8915	-45.641838	0.000193	1.925738	0.652458	-0.000077
1405	1.3970e+02	-15.9332	-45.730655	0.000223	2.229802	0.755477	-0.000089
1406	1.3980e+02	-15.9750	-45.815435	0.000213	2.128447	0.721137	-0.000085
1407	1.3990e+02	-16.0199	-45.904252	0.000223	2.229802	0.755477	-0.000089
1408	1.4000e+02	-16.0568	-46.005180	0.000253	2.533865	0.858497	-0.000101
1409	1.4010e+02	-16.1017	-46.085923	0.000203	2.027092	0.686797	-0.000081
1410	1.4020e+02	-16.1322	-46.194926	0.000274	2.736575	0.927177	-0.000110
1411	1.4029e+02	-16.1771	-46.312003	0.000294	2.939284	0.995856	-0.000118
1412	1.4039e+02	-16.2140	-46.356411	0.000111	1.114901	0.377739	-0.000045
1413	1.4049e+02	-16.2557	-46.441191	0.000213	2.128447	0.721137	-0.000085
1414	1.4059e+02	-16.2862	-46.489637	0.000122	1.216255	0.412078	-0.000049
1415	1.4069e+02	-16.3327	-46.614788	0.000314	3.141993	1.064536	-0.000126
1416	1.4079e+02	-16.3776	-46.707642	0.000233	2.331156	0.789817	-0.000093
1417	1.4089e+02	-16.4129	-46.828756	0.000304	3.040638	1.030196	-0.000122
1418	1.4099e+02	-16.4498	-46.929684	0.000253	2.533865	0.858497	-0.000101
1419	1.4109e+02	-16.4867	-47.022539	0.000233	2.331156	0.789817	-0.000093
1420	1.4119e+02	-16.5364	-47.139615	0.000294	2.939284	0.995856	-0.000118
1421	1.4129e+02	-16.5781	-47.212284	0.000182	1.824383	0.618118	-0.000073
1422	1.4139e+02	-16.6070	-47.317249	0.000264	2.635220	0.892837	-0.000105
1423	1.4149e+02	-16.6455	-47.397992	0.000203	2.027092	0.686797	-0.000081
1424	1.4159e+02	-16.6920	-47.511032	0.000284	2.837929	0.961516	-0.000114
1425	1.4169e+02	-16.7289	-47.611960	0.000253	2.533865	0.858497	-0.000101
1426	1.4179e+02	-16.7706	-47.757297	0.000365	3.648766	1.236235	-0.000146
1427	1.4189e+02	-16.8027	-47.854188	0.000243	2.432511	0.824157	-0.000097
1428	1.4199e+02	-16.8460	-47.934931	0.000203	2.027092	0.686797	-0.000081
1429	1.4209e+02	-16.8894	-47.979340	0.000111	1.114901	0.377739	-0.000045
1430	1.4219e+02	-16.9359	-48.116602	0.000345	3.446057	1.167556	-0.000138
1431	1.4228e+02	-16.9696	-48.116602	-0.000000	-0.000000	-0.000000	0.000000
1432	1.4238e+02	-17.0097	-48.225605	0.000274	2.736575	0.927177	-0.000110
1433	1.4248e+02	-17.0514	-48.322496	0.000243	2.432511	0.824157	-0.000097
1434	1.4258e+02	-17.0899	-48.439573	0.000294	2.939284	0.995856	-0.000118
1435	1.4268e+02	-17.1156	-48.572799	0.000334	3.344702	1.133216	-0.000134
1436	1.4278e+02	-17.1653	-48.661616	0.000223	2.229802	0.755477	-0.000089
1437	1.4288e+02	-17.2022	-48.758507	0.000243	2.432511	0.824157	-0.000097
1438	1.4298e+02	-17.2455	-48.859435	0.000253	2.533865	0.858497	-0.000101
1439	1.4308e+02	-17.2888	-48.984586	0.000314	3.141993	1.064536	-0.000126
1440	1.4318e+02	-17.3337	-49.045144	0.000152	1.520319	0.515098	-0.000061
1441	1.4328e+02	-17.3754	-49.162220	0.000294	2.939284	0.995856	-0.000118
1442	1.4338e+02	-17.4107	-49.222777	0.000152	1.520319	0.515098	-0.000061
1443	1.4348e+02	-17.4492	-49.331780	0.000274	2.736575	0.927177	-0.000110
1444	1.4358e+02	-17.4877	-49.460968	0.000324	3.243348	1.098876	-0.000130
1445	1.4368e+02	-17.5246	-49.549785	0.000223	2.229802	0.755477	-0.000089
1446	1.4378e+02	-17.5696	-49.666862	0.000294	2.939284	0.995856	-0.000118
1447	1.4388e+02	-17.6016	-49.731457	0.000162	1.621674	0.549438	-0.000065
1448	1.4398e+02	-17.6482	-49.804125	0.000182	1.824383	0.618118	-0.000073
1449	1.4408e+02	-17.6867	-49.888905	0.000213	2.128447	0.721137	-0.000085
1450	1.4418e+02	-17.7316	-50.010019	0.000304	3.040638	1.030196	-0.000122
1451	1.4428e+02	-17.7621	-50.110947	0.000253	2.533865	0.858497	-0.000101
1452	1.4437e+02	-17.8102	-50.228024	0.000294	2.939284	0.995856	-0.000118
1453	1.4447e+02	-17.8439	-50.349138	0.000304	3.040638	1.030196	-0.000122
1454	1.4457e+02	-17.8840	-50.441992	0.000233	2.331156	0.789817	-0.000093
1455	1.4467e+02	-17.9225	-50.559069	0.000294	2.939284	0.995856	-0.000118
1456	1.4477e+02	-17.9690	-50.684221	0.000314	3.141993	1.064536	-0.000126
1457	1.4487e+02	-18.0027	-50.773038	0.000223	2.229802	0.755477	-0.000089
1458	1.4497e+02	-18.0476	-50.898189	0.000314	3.141993	1.064536	-0.000126
1459	1.4507e+02	-18.0861	-50.958746	0.000152	1.520319	0.515098	-0.000061
1460	1.4517e+02	-18.1230	-51.071786	0.000284	2.837929	0.961516	-0.000114
1461	1.4527e+02	-18.1647	-51.148491	0.000193	1.925738	0.652458	-0.000077
1462	1.4537e+02	-18.2064	-51.289791	0.000355	3.547412	1.201896	-0.000142
1463	1.4547e+02	-18.2530	-51.350348	0.000152	1.520319	0.515098	-0.000061
1464	1.4557e+02	-18.2834	-51.402831	0.000132	1.317610	0.446418	-0.000053
1465	1.4567e+02	-18.3284	-51.515871	0.000284	2.837929	0.961516	-0.000114
1466	1.4577e+02	-18.3685	-51.628910	0.000284	2.837929	0.961516	-0.000114
1467	1.4587e+02	-18.4006	-51.733876	0.000264	2.635220	0.892837	-0.000105
1468	1.4597e+02	-18.4358	-51.854990	0.000304	3.040638	1.030196	-0.000122
1469	1.4607e+02	-18.4759	-51.988215	0.000334	3.344702	1.133216	-0.000134
1470	1.4617e+02	-18.5305	-52.081070	0.000233	2.331156	0.789817	-0.000093
1471	1.4626e+02	-18.5610	-52.181998	0.000253	2.533865	0.858497	-0.000101
1472	1.4636e+02	-18.6107	-52.299075	0.000294	2.939284	0.995856	-0.000118
1473	1.4646e+02	-18.6508	-52.395966	0.000243	2.432511	0.824157	-0.000097
1474	1.4656e+02	-18.6749	-52.537266	0.000355	3.547412	1.201896	-0.000142
1475	1.4666e+02	-18.7262	-52.589749	0.000132	1.317610	0.446418	-0.000053
1476	1.4676e+02	-18.7583	-52.727011	0.000345	3.446057	1.167556	-0.000138
1477	1.4686e+02	-18.8080	-52.896571	0.000426	4.256894	1.442275	-0.000170
1478	1.4696e+02	-18.8497	-52.916757	0.000051	0.506773	0.171699	-0.000020
1479	1.4706e+02	-18.8786	-53.025759	0.000274	2.736575	0.927177	-0.000110
1480	1.4716e+02	-18.9203	-53.146873	0.000304	3.040638	1.030196	-0.000122
1481	1.4726e+02	-18.9588	-53.239728	0.000233	2.331156	0.789817	-0.000093
1482	1.4736e+02	-19.0086	-53.320470	0.000203	2.027092	0.686797	-0.000081
1483	1.4746e+02	-19.0390	-53.425436	0.000264	2.635220	0.892837	-0.000105
1484	1.4756e+02	-19.0952	-53.502141	0.000193	1.925738	0.652458	-0.000077
1485	1.4766e+02	-19.1273	-53.599033	0.000243	2.432511	0.824157	-0.000097
1486	1.4776e+02	-19.1481	-53.736295	0.000345	3.446057	1.167556	-0.000138
1487	1.4786e+02	-19.1979	-53.885669	0.000375	3.750121	1.270575	-0.000150
1488	1.4796e+02	-19.2412	-54.047155	0.000405	4.054185	1.373595	-0.000162
1489	1.4806e+02	-19.2813	-54.131935	0.000213	2.128447	0.721137	-0.000085
1490	1.4816e+02	-19.3150	-54.253049	0.000304	3.040638	1.030196	-0.000122
1491	1.4825e+02	-19.3615	-54.317643	0.000162	1.621674	0.549438	-0.000065
1492	1.4835e+02	-19.4016	-54.450868	0.000334	3.344702	1.133216	-0.000134
1493	1.4845e+02	-19.4417	-54.555834	0.000264	2.635220	0.892837	-0.000105
1494	1.4855e+02	-19.4786	-54.636577	0.000203	2.027092	0.686797	-0.000081
1495	1.4865e+02	-19.5235	-54.725393	0.000223	2.229802	0.755477	-0.000089
1496	1.4875e+02	-19.5620	-54.810173	0.000213	2.128447	0.721137	-0.000085
1497	1.4885e+02	-19.6053	-54.991844	0.000456	4.560958	1.545294	-0.000183
1498	1.4895e+02	-19.6374	-55.064513	0.000182	1.824383	0.618118	-0.000073
1499	1.4905e+02	-19.6871	-55.181590	0.000294	2.939284	0.995856	-0.000118
1500	1.4915e+02	-19.7096	-55.286555	0.000264	2.635220	0.892837	-0.000105
1501	1.4925e+02	-19.7641	-55.371335	0.000213	2.128447	0.721137	-0.000085
1502	1.4935e+02	-19.8026	-55.435929	0.000162	1.621674	0.549438	-0.000065
1503	1.4945e+02	-19.8428	-55.593378	0.000395	3.952830	1.339255	-0.000158
1504	1.4955e+02	-19.8716	-55.738715	0.000365	3.648766	1.236235	-0.000146
1505	1.4965e+02	-19.9166	-55.859829	0.000304	3.040638	1.030196	-0.000122
1506	1.4975e+02	-19.9518	-55.993054	0.000334	3.344702	1.133216	-0.000134
1507	1.4985e+02	-19.9903	-56.053611	0.000152	1.520319	0.515098	-0.000061
1508	1.4995e+02	-19.9631	-56.057648	-0.000010	-0.101355	-0.034340	-0.000004
1509	1.5005e+02	-19.9198	-55.989017	0.000172	1.723028	0.583778	0.000069
1510	1.5015e+02	-19.8716	-55.960757	0.000071	0.709482	0.240379	0.000028
1511	1.5025e+02	-19.8315	-55.863866	0.000243	2.432511	0.824157	0.000097
1512	1.5034e+02	-19.7962	-55.892126	-0.000071	-0.709482	-0.240379	-0.000028
1513	1.5044e+02	-19.7625	-55.811383	0.000203	2.027092	0.686797	0.000081
1514	1.5054e+02	-19.7256	-55.762937	0.000122	1.216255	0.412078	0.000049
1515	1.5064e+02	-19.6807	-55.714492	0.000122	1.216255	0.412078	0.000049
1516	1.5074e+02	-19.6326	-55.625675	0.000223	2.229802	0.755477	0.000089
1517	1.5084e+02	-19.6037	-55.557043	0.000172	1.723028	0.583778	0.000069
1518	1.5094e+02	-19.5604	-55.516672	0.000101	1.013546	0.343399	0.000041
1519	1.5104e+02	-19.5219	-55.448041	0.000172	1.723028	0.583778	0.000069
1520	1.5114e+02	-19.4882	-55.387484	0.000152	1.520319	0.515098	0.000061
1521	1.5124e+02	-19.4305	-55.351150	0.000091	0.912192	0.309059	0.000037
1522	1.5134e+02	-19.3968	-55.306741	0.000111	1.114901	0.377739	0.000045
1523	1.5144e+02	-19.3583	-55.234073	0.000182	1.824383	0.618118	0.000073
1524	1.5154e+02	-19.3182	-55.173516	0.000152	1.520319	0.515098	0.000061
1525	1.5164e+02	-19.2781	-55.129107	0.000111	1.114901	0.377739	0.000045
1526	1.5174e+02	-19.2476	-55.048364	0.000203	2.027092	0.686797	0.000081
1527	1.5184e+02	-19.2059	-54.987807	0.000152	1.520319	0.515098	0.000061
1528	1.5194e+02	-19.1577	-54.955510	0.000081	0.810837	0.274719	0.000032
1529	1.5204e+02	-19.1241	-54.890916	0.000162	1.621674	0.549438	0.000065
1530	1.5214e+02	-19.0840	-54.794025	0.000243	2.432511	0.824157	0.000097
1531	1.5224e+02	-19.0503	-54.769802	0.000061	0.608128	0.206039	0.000024
1532	1.5233e+02	-19.0021	-54.656762	0.000284	2.837929	0.961516	0.000114
1533	1.5243e+02	-18.9620	-54.551797	0.000264	2.635220	0.892837	0.000105
1534	1.5253e+02	-18.9299	-54.487202	0.000162	1.621674	0.549438	0.000065
1535	1.5263e+02	-18.8786	-54.386274	0.000253	2.533865	0.858497	0.000101
1536	1.5273e+02	-18.8497	-54.362051	0.000061	0.608128	0.206039	0.000024
1537	1.5283e+02	-18.7984	-54.257086	0.000264	2.635220	0.892837	0.000105
1538	1.5293e+02	-18.7583	-54.236900	0.000051	0.506773	0.171699	0.000020
1539	1.5303e+02	-18.7246	-54.144046	0.000233	2.331156	0.789817	0.000093
1540	1.5313e+02	-18.6877	-54.123860	0.000051	0.506773	0.171699	0.000020
1541	1.5323e+02	-18.6412	-54.055229	0.000172	1.723028	0.583778	0.000069
1542	1.5333e+02	-18.5979	-53.990635	0.000162	1.621674	0.549438	0.000065
1543	1.5343e+02	-18.5594	-53.917966	0.000182	1.824383	0.618118	0.000073
1544	1.5353e+02	-18.5225	-53.865484	0.000132	1.317610	0.446418	0.000053
1545	1.5363e+02	-18.4840	-53.792815	0.000182	1.824383	0.618118	0.000073
1546	1.5373e+02	-18.4374	-53.716110	0.000193	1.925738	0.652458	0.000077
1547	1.5383e+02	-18.4054	-53.643441	0.000182	1.824383	0.618118	0.000073
1548	1.5393e+02	-18.3669	-53.558661	0.000213	2.128447	0.721137	0.000085
1549	1.5403e+02	-18.3284	-53.457733	0.000253	2.533865	0.858497	0.000101
1550	1.5413e+02	-18.2883	-53.381027	0.000193	1.925738	0.652458	0.000077
1551	1.5422e+02	-18.2514	-53.272025	0.000274	2.736575	0.927177	0.000110
1552	1.5432e+02	-18.1984	-53.219542	0.000132	1.317610	0.446418	0.000053
1553	1.5442e+02	-18.1760	-53.102465	0.000294	2.939284	0.995856	0.000118
1554	1.5452e+02	-18.1310	-53.033834	0.000172	1.723028	0.583778	0.000069
1555	1.5462e+02	-18.0877	-52.997499	0.000091	0.912192	0.309059	0.000037
1556	1.5472e+02	-18.0380	-52.928868	0.000172	1.723028	0.583778	0.000069
1557	1.5482e+02	-18.0107	-52.840051	0.000223	2.229802	0.755477	0.000089
1558	1.5492e+02	-17.9706	-52.779494	0.000152	1.520319	0.515098	0.000061
1559	1.5502e+02	-17.9305	-52.702788	0.000193	1.925738	0.652458	0.000077
1560	1.5512e+02	-17.8920	-52.642231	0.000152	1.520319	0.515098	0.000061
1561	1.5522e+02	-17.8471	-52.561489	0.000203	2.027092	0.686797	0.000081
1562	1.5532e+02	-17.8134	-52.488820	0.000182	1.824383	0.618118	0.000073
1563	1.5542e+02	-17.7749	-52.420189	0.000172	1.723028	0.583778	0.000069
1564	1.5552e+02	-17.7252	-52.331372	0.000223	2.229802	0.755477	0.000089
1565	1.5562e+02	-17.6883	-52.210258	0.000304	3.040638	1.030196	0.000122
1566	1.5572e+02	-17.6434	-52.161812	0.000122	1.216255	0.412078	0.000049
1567	1.5582e+02	-17.6113	-52.052810	0.000274	2.736575	0.927177	0.000110
1568	1.5592e+02	-17.5551	-51.988215	0.000162	1.621674	0.549438	0.000065
1569	1.5602e+02	-17.5246	-51.891324	0.000243	2.432511	0.824157	0.000097
1570	1.5612e+02	-17.4910	-51.790396	0.000253	2.533865	0.858497	0.000101
1571	1.5622e+02	-17.4492	-51.729839	0.000152	1.520319	0.515098	0.000061
1572	1.5631e+02	-17.4027	-51.616799	0.000284	2.837929	0.961516	0.000114
1573	1.5641e+02	-17.3722	-51.596613	0.000051	0.506773	0.171699	0.000020
1574	1.5651e+02	-17.3305	-51.560279	0.000091	0.912192	0.309059	0.000037
1575	1.5661e+02	-17.2888	-51.475499	0.000213	2.128447	0.721137	0.000085
1576	1.5671e+02	-17.2439	-51.414942	0.000152	1.520319	0.515098	0.000061
1577	1.5681e+02	-17.2118	-51.277680	0.000345	3.446057	1.167556	0.000138
1578	1.5691e+02	-17.1685	-51.241345	0.000091	0.912192	0.309059	0.000037
1579	1.5701e+02	-17.1236	-51.164640	0.000193	1.925738	0.652458	0.000077
1580	1.5711e+02	-17.0883	-51.096008	0.000172	1.723028	0.583778	0.000069
1581	1.5721e+02	-17.0482	-51.007191	0.000223	2.229802	0.755477	0.000089
1582	1.5731e+02	-17.0065	-50.914337	0.000233	2.331156	0.789817	0.000093
1583	1.5741e+02	-16.9664	-50.845706	0.000172	1.723028	0.583778	0.000069
1584	1.5751e+02	-16.9279	-50.764963	0.000203	2.027092	0.686797	0.000081
1585	1.5761e+02	-16.9006	-50.643849	0.000304	3.040638	1.030196	0.000122
1586	1.5771e+02	-16.8573	-50.534847	0.000274	2.736575	0.927177	0.000110
1587	1.5781e+02	-16.8204	-50.462178	0.000182	1.824383	0.618118	0.000073
1588	1.5791e+02	-16.7803	-50.357213	0.000264	2.635220	0.892837	0.000105
1589	1.5801e+02	-16.7273	-50.324916	0.000081	0.810837	0.274719	0.000032
1590	1.5811e+02	-16.6840	-50.284544	0.000101	1.013546	0.343399	0.000041
1591	1.5821e+02	-16.6503	-50.203801	0.000203	2.027092	0.686797	0.000081
1592	1.5830e+02	-16.6086	-50.098836	0.000264	2.635220	0.892837	0.000105
1593	1.5840e+02	-16.5653	-50.070576	0.000071	0.709482	0.240379	0.000028
1594	1.5850e+02	-16.5380	-49.937351	0.000334	3.344702	1.133216	0.000134
1595	1.5860e+02	-16.4851	-49.905053	0.000081	0.810837	0.274719	0.000032
1596	1.5870e+02	-16.4466	-49.763754	0.000355	3.547412	1.201896	0.000142
1597	1.5880e+02	-16.4177	-49.678974	0.000213	2.128447	0.721137	0.000085
1598	1.5890e+02	-16.3712	-49.586120	0.000233	2.331156	0.789817	0.000093
1599	1.5900e+02	-16.3263	-49.549785	0.000091	0.912192	0.309059	0.000037
1600	1.5910e+02	-16.2910	-49.465006	0.000213	2.128447	0.721137	0.000085
1601	1.5920e+02	-16.2509	-49.364077	0.000253	2.533865	0.858497	0.000101
1602	1.5930e+02	-16.2140	-49.271223	0.000233	2.331156	0.789817	0.000093
1603	1.5940e+02	-16.1819	-49.166258	0.000264	2.635220	0.892837	0.000105
1604	1.5950e+02	-16.1354	-49.061292	0.000264	2.635220	0.892837	0.000105
1605	1.5960e+02	-16.1001	-49.024958	0.000091	0.912192	0.309059	0.000037
1606	1.5970e+02	-16.0616	-48.891732	0.000334	3.344702	1.133216	0.000134
1607	1.5980e+02	-16.0070	-48.847324	0.000111	1.114901	0.377739	0.000045
1608	1.5990e+02	-15.9669	-48.762544	0.000213	2.128447	0.721137	0.000085
1609	1.6000e+02	-15.9332	-48.710061	0.000132	1.317610	0.446418	0.000053
1610	1.6010e+02	-15.8979	-48.641430	0.000172	1.723028	0.583778	0.000069
1611	1.6019e+02	-15.8514	-48.556650	0.000213	2.128447	0.721137	0.000085
1612	1.6029e+02	-15.8113	-48.475907	0.000203	2.027092	0.686797	0.000081
1613	1.6039e+02	-15.7696	-48.387090	0.000223	2.229802	0.755477	0.000089
1614	1.6049e+02	-15.7343	-48.322496	0.000162	1.621674	0.549438	0.000065
1615	1.6059e+02	-15.6942	-48.286162	0.000091	0.912192	0.309059	0.000037
1616	1.6069e+02	-15.6541	-48.161011	0.000314	3.141993	1.064536	0.000126
1617	1.6079e+02	-15.6236	-48.084305	0.000193	1.925738	0.652458	0.000077
1618	1.6089e+02	-15.5787	-47.995488	0.000223	2.229802	0.755477	0.000089
1619	1.6099e+02	-15.5338	-47.878411	0.000294	2.939284	0.995856	0.000118
1620	1.6109e+02	-15.4985	-47.781520	0.000243	2.432511	0.824157	0.000097
1621	1.6119e+02	-15.4536	-47.700777	0.000203	2.027092	0.686797	0.000081
1622	1.6129e+02	-15.4199	-47.603886	0.000243	2.432511	0.824157	0.000097
1623	1.6139e+02	-15.3718	-47.543329	0.000152	1.520319	0.515098	0.000061
1624	1.6149e+02	-15.3317	-47.458549	0.000213	2.128447	0.721137	0.000085
1625	1.6159e+02	-15.2851	-47.430289	0.000071	0.709482	0.240379	0.000028
1626	1.6169e+02	-15.2514	-47.301101	0.000324	3.243348	1.098876	0.000130
1627	1.6179e+02	-15.2210	-47.232470	0.000172	1.723028	0.583778	0.000069
1628	1.6189e+02	-15.1793	-47.188061	0.000111	1.114901	0.377739	0.000045
1629	1.6199e+02	-15.1440	-47.091170	0.000243	2.432511	0.824157	0.000097
1630	1.6209e+02	-15.1006	-46.990241	0.000253	2.533865	0.858497	0.000101
1631	1.6219e+02	-15.0557	-46.909499	0.000203	2.027092	0.686797	0.000081
1632	1.6228e+02	-15.0108	-46.828756	0.000203	2.027092	0.686797	0.000081
1633	1.6238e+02	-14.9803	-46.768199	0.000152	1.520319	0.515098	0.000061
1634	1.6248e+02	-14.9354	-46.651122	0.000294	2.939284	0.995856	0.000118
1635	1.6258e+02	-14.9001	-46.574416	0.000193	1.925738	0.652458	0.000077
1636	1.6268e+02	-14.8568	-46.481562	0.000233	2.331156	0.789817	0.000093
1637	1.6278e+02	-14.8247	-46.392745	0.000223	2.229802	0.755477	0.000089
1638	1.6288e+02	-14.7798	-46.279706	0.000284	2.837929	0.961516	0.000114
1639	1.6298e+02	-14.7333	-46.231260	0.000122	1.216255	0.412078	0.000049
1640	1.6308e+02	-14.6980	-46.162629	0.000172	1.723028	0.583778	0.000069
1641	1.6318e+02	-14.6611	-46.081886	0.000203	2.027092	0.686797	0.000081
1642	1.6328e+02	-14.6194	-45.997106	0.000213	2.128447	0.721137	0.000085
1643	1.6338e+02	-14.5873	-45.928475	0.000172	1.723028	0.583778	0.000069
1644	1.6348e+02	-14.5279	-45.827546	0.000253	2.533865	0.858497	0.000101
1645	1.6358e+02	-14.4991	-45.730655	0.000243	2.432511	0.824157	0.000097
1646	1.6368e+02	-14.4557	-45.698358	0.000081	0.810837	0.274719	0.000032
1647	1.6378e+02	-14.4172	-45.557058	0.000355	3.547412	1.201896	0.000142
1648	1.6388e+02	-14.3803	-45.536873	0.000051	0.506773	0.171699	0.000020
1649	1.6398e+02	-14.3386	-45.484390	0.000132	1.317610	0.446418	0.000053
1650	1.6408e+02	-14.3017	-45.347127	0.000345	3.446057	1.167556	0.000138
1651	1.6418e+02	-14.2616	-45.266384	0.000203	2.027092	0.686797	0.000081
1652	1.6427e+02	-14.2279	-45.169493	0.000243	2.432511	0.824157	0.000097
1653	1.6437e+02	-14.1814	-45.056453	0.000284	2.837929	0.961516	0.000114
1654	1.6447e+02	-14.1445	-44.971674	0.000213	2.128447	0.721137	0.000085
1655	1.6457e+02	-14.1028	-44.911117	0.000152	1.520319	0.515098	0.000061
1656	1.6467e+02	-14.0643	-44.806151	0.000264	2.635220	0.892837	0.000105
1657	1.6477e+02	-14.0210	-44.717334	0.000223	2.229802	0.755477	0.000089
1658	1.6487e+02	-13.9841	-44.672926	0.000111	1.114901	0.377739	0.000045
1659	1.6497e+02	-13.9408	-44.539700	0.000334	3.344702	1.133216	0.000134
1660	1.6507e+02	-13.9055	-44.519514	0.000051	0.506773	0.171699	0.000020
1661	1.6517e+02	-13.8638	-44.430697	0.000223	2.229802	0.755477	0.000089
1662	1.6527e+02	-13.8205	-44.317658	0.000284	2.837929	0.961516	0.000114
1663	1.6537e+02	-13.7884	-44.236915	0.000203	2.027092	0.686797	0.000081
1664	1.6547e+02	-13.7467	-44.103689	0.000334	3.344702	1.133216	0.000134
1665	1.6557e+02	-13.7018	-44.067355	0.000091	0.912192	0.309059	0.000037
1666	1.6567e+02	-13.6649	-43.954315	0.000284	2.837929	0.961516	0.000114
1667	1.6577e+02	-13.6215	-43.873573	0.000203	2.027092	0.686797	0.000081
1668	1.6587e+02	-13.5830	-43.792830	0.000203	2.027092	0.686797	0.000081
1669	1.6597e+02	-13.5477	-43.679790	0.000284	2.837929	0.961516	0.000114
1670	1.6607e+02	-13.5012	-43.570787	0.000274	2.736575	0.927177	0.000110
1671	1.6616e+02	-13.4659	-43.481970	0.000223	2.229802	0.755477	0.000089
1672	1.6626e+02	-13.4290	-43.413339	0.000172	1.723028	0.583778	0.000069
1673	1.6636e+02	-13.3841	-43.300299	0.000284	2.837929	0.961516	0.000114
1674	1.6646e+02	-13.3440	-43.251854	0.000122	1.216255	0.412078	0.000049
1675	1.6656e+02	-13.3039	-43.175148	0.000193	1.925738	0.652458	0.000077
1676	1.6666e+02	-13.2606	-43.122665	0.000132	1.317610	0.446418	0.000053
1677	1.6676e+02	-13.2189	-43.045960	0.000193	1.925738	0.652458	0.000077
1678	1.6686e+02	-13.1788	-42.949069	0.000243	2.432511	0.824157	0.000097
1679	1.6696e+02	-13.1467	-42.831992	0.000294	2.939284	0.995856	0.000118
1680	1.6706e+02	-13.0986	-42.751249	0.000203	2.027092	0.686797	0.000081
1681	1.6716e+02	-13.0681	-42.678580	0.000182	1.824383	0.618118	0.000073
1682	1.6726e+02	-13.0183	-42.589763	0.000223	2.229802	0.755477	0.000089
1683	1.6736e+02	-12.9831	-42.480761	0.000274	2.736575	0.927177	0.000110
1684	1.6746e+02	-12.9446	-42.383870	0.000243	2.432511	0.824157	0.000097
1685	1.6756e+02	-12.9141	-42.323313	0.000152	1.520319	0.515098	0.000061
1686	1.6766e+02	-12.8595	-42.206236	0.000294	2.939284	0.995856	0.000118
1687	1.6776e+02	-12.8323	-42.125493	0.000203	2.027092	0.686797	0.000081
1688	1.6786e+02	-12.7905	-41.996305	0.000324	3.243348	1.098876	0.000130
1689	1.6796e+02	-12.7472	-41.907488	0.000223	2.229802	0.755477	0.000089
1690	1.6806e+02	-12.7103	-41.822708	0.000213	2.128447	0.721137	0.000085
1691	1.6816e+02	-12.6638	-41.741965	0.000203	2.027092	0.686797	0.000081
1692	1.6825e+02	-12.6285	-41.669297	0.000182	1.824383	0.618118	0.000073
1693	1.6835e+02	-12.5820	-41.588554	0.000203	2.027092	0.686797	0.000081
1694	1.6845e+02	-12.5531	-41.491663	0.000243	2.432511	0.824157	0.000097
1695	1.6855e+02	-12.5082	-41.414957	0.000193	1.925738	0.652458	0.000077
1696	1.6865e+02	-12.4681	-41.334214	0.000203	2.027092	0.686797	0.000081
1697	1.6875e+02	-12.4248	-41.217137	0.000294	2.939284	0.995856	0.000118
1698	1.6885e+02	-12.3847	-41.156580	0.000152	1.520319	0.515098	0.000061
1699	1.6895e+02	-12.3510	-41.043540	0.000284	2.837929	0.961516	0.000114
1700	1.6905e+02	-12.3109	-40.962798	0.000203	2.027092	0.686797	0.000081
1701	1.6915e+02	-12.2708	-40.841684	0.000304	3.040638	1.030196	0.000122
1702	1.6925e+02	-12.2387	-40.748830	0.000233	2.331156	0.789817	0.000093
1703	1.6935e+02	-12.1809	-40.607530	0.000355	3.547412	1.201896	0.000142
1704	1.6945e+02	-12.1537	-40.575233	0.000081	0.810837	0.274719	0.000032
1705	1.6955e+02	-12.1120	-40.458156	0.000294	2.939284	0.995856	0.000118
1706	1.6965e+02	-12.0702	-40.353190	0.000264	2.635220	0.892837	0.000105
1707	1.6975e+02	-12.0269	-40.248225	0.000264	2.635220	0.892837	0.000105
1708	1.6985e+02	-11.9916	-40.151333	0.000243	2.432511	0.824157	0.000097
1709	1.6995e+02	-11.9387	-40.062516	0.000223	2.229802	0.755477	0.000089
1710	1.7005e+02	-11.9114	-39.961588	0.000253	2.533865	0.858497	0.000101
1711	1.7015e+02	-11.8713	-39.925254	0.000091	0.912192	0.309059	0.000037
1712	1.7024e+02	-11.8264	-39.844511	0.000203	2.027092	0.686797	0.000081
1713	1.7034e+02	-11.7831	-39.727434	0.000294	2.939284	0.995856	0.000118
1714	1.7044e+02	-11.7478	-39.634580	0.000233	2.331156	0.789817	0.000093
1715	1.7054e+02	-11.7013	-39.541726	0.000233	2.331156	0.789817	0.000093
1716	1.7064e+02	-11.6788	-39.440798	0.000253	2.533865	0.858497	0.000101
1717	1.7074e+02	-11.6291	-39.339869	0.000253	2.533865	0.858497	0.000101
1718	1.7084e+02	-11.5922	-39.206644	0.000334	3.344702	1.133216	0.000134
1719	1.7094e+02	-11.5505	-39.154161	0.000132	1.317610	0.446418	0.000053
1720	1.7104e+02	-11.5168	-39.008824	0.000365	3.648766	1.236235	0.000146
1721	1.7114e+02	-11.4767	-38.968453	0.000101	1.013546	0.343399	0.000041
1722	1.7124e+02	-11.4302	-38.827153	0.000355	3.547412	1.201896	0.000142
1723	1.7134e+02	-11.3836	-38.722187	0.000264	2.635220	0.892837	0.000105
1724	1.7144e+02	-11.3596	-38.576851	0.000365	3.648766	1.236235	0.000146
1725	1.7154e+02	-11.3098	-38.500145	0.000193	1.925738	0.652458	0.000077
1726	1.7164e+02	-11.2697	-38.431514	0.000172	1.723028	0.583778	0.000069
1727	1.7174e+02	-11.2344	-38.383068	0.000122	1.216255	0.412078	0.000049
1728	1.7184e+02	-11.1895	-38.274065	0.000274	2.736575	0.927177	0.000110
1729	1.7194e+02	-11.1478	-38.181211	0.000233	2.331156	0.789817	0.000093
1730	1.7204e+02	-11.1061	-38.060097	0.000304	3.040638	1.030196	0.000122
1731	1.7213e+02	-11.0772	-37.955132	0.000264	2.635220	0.892837	0.000105
1732	1.7223e+02	-11.0323	-37.898612	0.000142	1.418965	0.480758	0.000057
1733	1.7233e+02	-10.9938	-37.741163	0.000395	3.952830	1.339255	0.000158
1734	1.7243e+02	-10.9457	-37.664458	0.000193	1.925738	0.652458	0.000077
1735	1.7253e+02	-10.9152	-37.535270	0.000324	3.243348	1.098876	0.000130
1736	1.7263e+02	-10.8639	-37.466638	0.000172	1.723028	0.583778	0.000069
1737	1.7273e+02	-10.8366	-37.345524	0.000304	3.040638	1.030196	0.000122
1738	1.7283e+02	-10.7933	-37.260744	0.000213	2.128447	0.721137	0.000085
1739	1.7293e+02	-10.7532	-37.151742	0.000274	2.736575	0.927177	0.000110
1740	1.7303e+02	-10.7163	-37.030628	0.000304	3.040638	1.030196	0.000122
1741	1.7313e+02	-10.6826	-36.941811	0.000223	2.229802	0.755477	0.000089
1742	1.7323e+02	-10.6232	-36.836845	0.000264	2.635220	0.892837	0.000105
1743	1.7333e+02	-10.5960	-36.711694	0.000314	3.141993	1.064536	0.000126
1744	1.7343e+02	-10.5559	-36.659211	0.000132	1.317610	0.446418	0.000053
1745	1.7353e+02	-10.5141	-36.558283	0.000253	2.533865	0.858497	0.000101
1746	1.7363e+02	-10.4740	-36.485614	0.000182	1.824383	0.618118	0.000073
1747	1.7373e+02	-10.4227	-36.368537	0.000294	2.939284	0.995856	0.000118
1748	1.7383e+02	-10.3986	-36.239349	0.000324	3.243348	1.098876	0.000130
1749	1.7393e+02	-10.3569	-36.215126	0.000061	0.608128	0.206039	0.000024
1750	1.7403e+02	-10.3152	-36.089975	0.000314	3.141993	1.064536	0.000126
1751	1.7413e+02	-10.2815	-35.964824	0.000314	3.141993	1.064536	0.000126
1752	1.7422e+02	-10.2350	-35.904267	0.000152	1.520319	0.515098	0.000061
1753	1.7432e+02	-10.2013	-35.746818	0.000395	3.952830	1.339255	0.000158
1754	1.7442e+02	-10.1532	-35.637816	0.000274	2.736575	0.927177	0.000110
1755	1.7452e+02	-10.1179	-35.557073	0.000203	2.027092	0.686797	0.000081
1756	1.7462e+02	-10.0794	-35.480367	0.000193	1.925738	0.652458	0.000077
1757	1.7472e+02	-10.0409	-35.322919	0.000395	3.952830	1.339255	0.000158
1758	1.7482e+02	-9.9992	-35.221991	0.000253	2.533865	0.858497	0.000101
1759	1.7492e+02	-9.9543	-35.125099	0.000243	2.432511	0.824157	0.000097
1760	1.7502e+02	-9.9110	-35.008023	0.000294	2.939284	0.995856	0.000118
1761	1.7512e+02	-9.8692	-34.947466	0.000152	1.520319	0.515098	0.000061
1762	1.7522e+02	-9.8323	-34.866723	0.000203	2.027092	0.686797	0.000081
1763	1.7532e+02	-9.7922	-34.741572	0.000314	3.141993	1.064536	0.000126
1764	1.7542e+02	-9.7553	-34.628532	0.000284	2.837929	0.961516	0.000114
1765	1.7552e+02	-9.7152	-34.572012	0.000142	1.418965	0.480758	0.000057
1766	1.7562e+02	-9.6735	-34.414564	0.000395	3.952830	1.339255	0.000158
1767	1.7572e+02	-9.6382	-34.337858	0.000193	1.925738	0.652458	0.000077
1768	1.7582e+02	-9.6013	-34.253078	0.000213	2.128447	0.721137	0.000085
1769	1.7592e+02	-9.5692	-34.140038	0.000284	2.837929	0.961516	0.000114
1770	1.7602e+02	-9.5211	-34.067370	0.000182	1.824383	0.618118	0.000073
1771	1.7612e+02	-9.4874	-33.885699	0.000456	4.560958	1.545294	0.000183
1772	1.7621e+02	-9.4409	-33.784770	0.000253	2.533865	0.858497	0.000101
1773	1.7631e+02	-9.4040	-33.748436	0.000091	0.912192	0.309059	0.000037
1774	1.7641e+02	-9.3687	-33.643471	0.000264	2.635220	0.892837	0.000105
1775	1.7651e+02	-9.3238	-33.526394	0.000294	2.939284	0.995856	0.000118
1776	1.7661e+02	-9.2853	-33.389131	0.000345	3.446057	1.167556	0.000138
1777	1.7671e+02	-9.2420	-33.296277	0.000233	2.331156	0.789817	0.000093
1778	1.7681e+02	-9.1955	-33.231683	0.000162	1.621674	0.549438	0.000065
1779	1.7691e+02	-9.1602	-33.126717	0.000264	2.635220	0.892837	0.000105
1780	1.7701e+02	-9.1201	-32.969269	0.000395	3.952830	1.339255	0.000158
1781	1.7711e+02	-9.0751	-32.904675	0.000162	1.621674	0.549438	0.000065
1782	1.7721e+02	-9.0366	-32.803746	0.000253	2.533865	0.858497	0.000101
1783	1.7731e+02	-9.0030	-32.666484	0.000345	3.446057	1.167556	0.000138
1784	1.7741e+02	-8.9596	-32.577667	0.000223	2.229802	0.755477	0.000089
1785	1.7751e+02	-8.9260	-32.509036	0.000172	1.723028	0.583778	0.000069
1786	1.7761e+02	-8.8794	-32.375810	0.000334	3.344702	1.133216	0.000134
1787	1.7771e+02	-8.8409	-32.270845	0.000264	2.635220	0.892837	0.000105
1788	1.7781e+02	-8.8008	-32.190102	0.000203	2.027092	0.686797	0.000081
1789	1.7791e+02	-8.7575	-32.068988	0.000304	3.040638	1.030196	0.000122
1790	1.7801e+02	-8.7254	-31.947874	0.000304	3.040638	1.030196	0.000122
1791	1.7810e+02	-8.6853	-31.867131	0.000203	2.027092	0.686797	0.000081
1792	1.7820e+02	-8.6388	-31.737943	0.000324	3.243348	1.098876	0.000130
1793	1.7830e+02	-8.6003	-31.701608	0.000091	0.912192	0.309059	0.000037
1794	1.7840e+02	-8.5602	-31.580494	0.000304	3.040638	1.030196	0.000122
1795	1.7850e+02	-8.5217	-31.443232	0.000345	3.446057	1.167556	0.000138
1796	1.7860e+02	-8.4832	-31.386712	0.000142	1.418965	0.480758	0.000057
1797	1.7870e+02	-8.4415	-31.257523	0.000324	3.243348	1.098876	0.000130
1798	1.7880e+02	-8.4046	-31.112187	0.000365	3.648766	1.236235	0.000146
1799	1.7890e+02	-8.3629	-31.047592	0.000162	1.621674	0.549438	0.000065
1800	1.7900e+02	-8.3308	-30.906293	0.000355	3.547412	1.201896	0.000142
1801	1.7910e+02	-8.2875	-30.821513	0.000213	2.128447	0.721137	0.000085
1802	1.7920e+02	-8.2506	-30.700399	0.000304	3.040638	1.030196	0.000122
1803	1.7930e+02	-8.1992	-30.615619	0.000213	2.128447	0.721137	0.000085
1804	1.7940e+02	-8.1607	-30.482393	0.000334	3.344702	1.133216	0.000134
1805	1.7950e+02	-8.1319	-30.393576	0.000223	2.229802	0.755477	0.000089
1806	1.7960e+02	-8.0885	-30.308797	0.000213	2.128447	0.721137	0.000085
1807	1.7970e+02	-8.0500	-30.256314	0.000132	1.317610	0.446418	0.000053
1808	1.7980e+02	-8.0147	-30.066568	0.000476	4.763667	1.613974	0.000191
1809	1.7990e+02	-7.9666	-30.010049	0.000142	1.418965	0.480758	0.000057
1810	1.8000e+02	-7.9201	-29.929306	0.000203	2.027092	0.686797	0.000081
1811	1.8009e+02	-7.8832	-29.824340	0.000264	2.635220	0.892837	0.000105
1812	1.8019e+02	-7.8351	-29.719375	0.000264	2.635220	0.892837	0.000105
1813	1.8029e+02	-7.8046	-29.582112	0.000345	3.446057	1.167556	0.000138
1814	1.8039e+02	-7.7629	-29.452924	0.000324	3.243348	1.098876	0.000130
1815	1.8049e+02	-7.7244	-29.384292	0.000172	1.723028	0.583778	0.000069
1816	1.8059e+02	-7.6891	-29.234918	0.000375	3.750121	1.270575	0.000150
1817	1.8069e+02	-7.6570	-29.186473	0.000122	1.216255	0.412078	0.000049
1818	1.8079e+02	-7.5976	-29.037099	0.000375	3.750121	1.270575	0.000150
1819	1.8089e+02	-7.5704	-28.907910	0.000324	3.243348	1.098876	0.000130
1820	1.8099e+02	-7.5271	-28.811019	0.000243	2.432511	0.824157	0.000097
1821	1.8109e+02	-7.4934	-28.710091	0.000253	2.533865	0.858497	0.000101
1822	1.8119e+02	-7.4485	-28.629348	0.000203	2.027092	0.686797	0.000081
1823	1.8129e+02	-7.4196	-28.500160	0.000324	3.243348	1.098876	0.000130
1824	1.8139e+02	-7.3602	-28.407306	0.000233	2.331156	0.789817	0.000093
1825	1.8149e+02	-7.3329	-28.314451	0.000233	2.331156	0.789817	0.000093
1826	1.8159e+02	-7.2800	-28.245820	0.000172	1.723028	0.583778	0.000069
1827	1.8169e+02	-7.2335	-28.152966	0.000233	2.331156	0.789817	0.000093
1828	1.8179e+02	-7.2014	-28.015703	0.000345	3.446057	1.167556	0.000138
1829	1.8189e+02	-7.1629	-27.951109	0.000162	1.621674	0.549438	0.000065
1830	1.8199e+02	-7.1420	-27.809810	0.000355	3.547412	1.201896	0.000142
1831	1.8209e+02	-7.0827	-27.676584	0.000334	3.344702	1.133216	0.000134
1832	1.8218e+02	-7.0442	-27.498950	0.000446	4.459603	1.510954	0.000179
1833	1.8228e+02	-7.0073	-27.422245	0.000193	1.925738	0.652458	0.000077
1834	1.8238e+02	-6.9720	-27.317279	0.000264	2.635220	0.892837	0.000105
1835	1.8248e+02	-6.9271	-27.204239	0.000284	2.837929	0.961516	0.000114
1836	1.8258e+02	-6.8886	-27.087162	0.000294	2.939284	0.995856	0.000118
1837	1.8268e+02	-6.8485	-26.994308	0.000233	2.331156	0.789817	0.000093
1838	1.8278e+02	-6.8116	-26.873194	0.000304	3.040638	1.030196	0.000122
1839	1.8288e+02	-6.7731	-26.760154	0.000284	2.837929	0.961516	0.000114
1840	1.8298e+02	-6.7330	-26.663263	0.000243	2.432511	0.824157	0.000097
1841	1.8308e+02	-6.6832	-26.566372	0.000243	2.432511	0.824157	0.000097
1842	1.8318e+02	-6.6528	-26.433146	0.000334	3.344702	1.133216	0.000134
1843	1.8328e+02	-6.6143	-26.360478	0.000182	1.824383	0.618118	0.000073
1844	1.8338e+02	-6.5806	-26.291846	0.000172	1.723028	0.583778	0.000069
1845	1.8348e+02	-6.5292	-26.170732	0.000304	3.040638	1.030196	0.000122
1846	1.8358e+02	-6.4827	-26.053655	0.000294	2.939284	0.995856	0.000118
1847	1.8368e+02	-6.4538	-25.908319	0.000365	3.648766	1.236235	0.000146
1848	1.8378e+02	-6.4169	-25.823539	0.000213	2.128447	0.721137	0.000085
1849	1.8388e+02	-6.3784	-25.641868	0.000456	4.560958	1.545294	0.000183
1850	1.8398e+02	-6.3335	-25.549014	0.000233	2.331156	0.789817	0.000093
1851	1.8407e+02	-6.2966	-25.476345	0.000182	1.824383	0.618118	0.000073
1852	1.8417e+02	-6.2533	-25.347157	0.000324	3.243348	1.098876	0.000130
1853	1.8427e+02	-6.2116	-25.209894	0.000345	3.446057	1.167556	0.000138
1854	1.8437e+02	-6.1699	-25.108966	0.000253	2.533865	0.858497	0.000101
1855	1.8447e+02	-6.1346	-24.987852	0.000304	3.040638	1.030196	0.000122
1856	1.8457e+02	-6.1057	-24.862700	0.000314	3.141993	1.064536	0.000126
1857	1.8467e+02	-6.0656	-24.765809	0.000243	2.432511	0.824157	0.000097
1858	1.8477e+02	-6.0143	-24.656807	0.000274	2.736575	0.927177	0.000110
1859	1.8487e+02	-5.9758	-24.551841	0.000264	2.635220	0.892837	0.000105
1860	1.8497e+02	-5.9292	-24.426690	0.000314	3.141993	1.064536	0.000126
1861	1.8507e+02	-5.8940	-24.345947	0.000203	2.027092	0.686797	0.000081
1862	1.8517e+02	-5.8538	-24.245019	0.000253	2.533865	0.858497	0.000101
1863	1.8527e+02	-5.8250	-24.111793	0.000334	3.344702	1.133216	0.000134
1864	1.8537e+02	-5.7640	-24.014902	0.000243	2.432511	0.824157	0.000097
1865	1.8547e+02	-5.7448	-23.885714	0.000324	3.243348	1.098876	0.000130
1866	1.8557e+02	-5.6918	-23.744414	0.000355	3.547412	1.201896	0.000142
1867	1.8567e+02	-5.6517	-23.631374	0.000284	2.837929	0.961516	0.000114
1868	1.8577e+02	-5.6132	-23.490074	0.000355	3.547412	1.201896	0.000142
1869	1.8587e+02	-5.5795	-23.381072	0.000274	2.736575	0.927177	0.000110
1870	1.8597e+02	-5.5394	-23.251883	0.000324	3.243348	1.098876	0.000130
1871	1.8606e+02	-5.4977	-23.130769	0.000304	3.040638	1.030196	0.000122
1872	1.8616e+02	-5.4560	-22.993507	0.000345	3.446057	1.167556	0.000138
1873	1.8626e+02	-5.4271	-22.920838	0.000182	1.824383	0.618118	0.000073
1874	1.8636e+02	-5.3774	-22.783576	0.000345	3.446057	1.167556	0.000138
1875	1.8646e+02	-5.3389	-22.674573	0.000274	2.736575	0.927177	0.000110
1876	1.8656e+02	-5.3004	-22.569607	0.000264	2.635220	0.892837	0.000105
1877	1.8666e+02	-5.2603	-22.420233	0.000375	3.750121	1.270575	0.000150
1878	1.8676e+02	-5.2250	-22.311231	0.000274	2.736575	0.927177	0.000110
1879	1.8686e+02	-5.1672	-22.246636	0.000162	1.621674	0.549438	0.000065
1880	1.8696e+02	-5.1400	-22.125522	0.000304	3.040638	1.030196	0.000122
1881	1.8706e+02	-5.1015	-22.016520	0.000274	2.736575	0.927177	0.000110
1882	1.8716e+02	-5.0581	-21.899443	0.000294	2.939284	0.995856	0.000118
1883	1.8726e+02	-5.0212	-21.782366	0.000294	2.939284	0.995856	0.000118
1884	1.8736e+02	-4.9795	-21.584546	0.000497	4.966376	1.682654	0.000199
1885	1.8746e+02	-4.9475	-21.455358	0.000324	3.243348	1.098876	0.000130
1886	1.8756e+02	-4.8977	-21.305984	0.000375	3.750121	1.270575	0.000150
1887	1.8766e+02	-4.8672	-21.184870	0.000304	3.040638	1.030196	0.000122
1888	1.8776e+02	-4.8336	-21.120276	0.000162	1.621674	0.549438	0.000065
1889	1.8786e+02	-4.7710	-21.003199	0.000294	2.939284	0.995856	0.000118
1890	1.8796e+02	-4.7405	-20.865936	0.000345	3.446057	1.167556	0.000138
1891	1.8806e+02	-4.6988	-20.748859	0.000294	2.939284	0.995856	0.000118
1892	1.8815e+02	-4.6651	-20.627745	0.000304	3.040638	1.030196	0.000122
1893	1.8825e+02	-4.6314	-20.494520	0.000334	3.344702	1.133216	0.000134
1894	1.8835e+02	-4.5865	-20.337071	0.000395	3.952830	1.339255	0.000158
1895	1.8845e+02	-4.5416	-20.288626	0.000122	1.216255	0.412078	0.000049
1896	1.8855e+02	-4.5031	-20.155400	0.000334	3.344702	1.133216	0.000134
1897	1.8865e+02	-4.4630	-20.038323	0.000294	2.939284	0.995856	0.000118
1898	1.8875e+02	-4.4181	-19.913172	0.000314	3.141993	1.064536	0.000126
1899	1.8885e+02	-4.3780	-19.828392	0.000213	2.128447	0.721137	0.000085
1900	1.8895e+02	-4.3394	-19.642684	0.000466	4.662312	1.579634	0.000187
1901	1.8905e+02	-4.3090	-19.553867	0.000223	2.229802	0.755477	0.000089
1902	1.8915e+02	-4.2624	-19.384307	0.000426	4.256894	1.442275	0.000170
1903	1.8925e+02	-4.2127	-19.251082	0.000334	3.344702	1.133216	0.000134
1904	1.8935e+02	-4.1790	-19.093633	0.000395	3.952830	1.339255	0.000158
1905	1.8945e+02	-4.1389	-18.988668	0.000264	2.635220	0.892837	0.000105
1906	1.8955e+02	-4.1052	-18.847368	0.000355	3.547412	1.201896	0.000142
1907	1.8965e+02	-4.0667	-18.746440	0.000253	2.533865	0.858497	0.000101
1908	1.8975e+02	-4.0186	-18.641474	0.000264	2.635220	0.892837	0.000105
1909	1.8985e+02	-3.9881	-18.484026	0.000395	3.952830	1.339255	0.000158
1910	1.8995e+02	-3.9464	-18.383098	0.000253	2.533865	0.858497	0.000101
1911	1.9004e+02	-3.9095	-18.209501	0.000436	4.358248	1.476615	0.000174
1912	1.9014e+02	-3.8582	-18.144907	0.000162	1.621674	0.549438	0.000065
1913	1.9024e+02	-3.8197	-18.027830	0.000294	2.939284	0.995856	0.000118
1914	1.9034e+02	-3.7828	-17.894604	0.000334	3.344702	1.133216	0.000134
1915	1.9044e+02	-3.7459	-17.801750	0.000233	2.331156	0.789817	0.000093
1916	1.9054e+02	-3.6962	-17.680636	0.000304	3.040638	1.030196	0.000122
1917	1.9064e+02	-3.6641	-17.575670	0.000264	2.635220	0.892837	0.000105
1918	1.9074e+02	-3.6288	-17.414185	0.000405	4.054185	1.373595	0.000162
1919	1.9084e+02	-3.5806	-17.256737	0.000395	3.952830	1.339255	0.000158
1920	1.9094e+02	-3.5438	-17.079103	0.000446	4.459603	1.510954	0.000179
1921	1.9104e+02	-3.5101	-16.982211	0.000243	2.432511	0.824157	0.000097
1922	1.9114e+02	-3.4603	-16.865135	0.000294	2.939284	0.995856	0.000118
1923	1.9124e+02	-3.4315	-16.727872	0.000345	3.446057	1.167556	0.000138
1924	1.9134e+02	-3.3849	-16.574461	0.000385	3.851475	1.304915	0.000154
1925	1.9144e+02	-3.3480	-16.481607	0.000233	2.331156	0.789817	0.000093
1926	1.9154e+02	-3.3111	-16.340307	0.000355	3.547412	1.201896	0.000142
1927	1.9164e+02	-3.2646	-16.207081	0.000334	3.344702	1.133216	0.000134
1928	1.9174e+02	-3.2277	-16.106153	0.000253	2.533865	0.858497	0.000101
1929	1.9184e+02	-3.1908	-15.956779	0.000375	3.750121	1.270575	0.000150
1930	1.9194e+02	-3.1475	-15.835665	0.000304	3.040638	1.030196	0.000122
1931	1.9203e+02	-3.1026	-15.762996	0.000182	1.824383	0.618118	0.000073
1932	1.9213e+02	-3.0609	-15.621697	0.000355	3.547412	1.201896	0.000142
1933	1.9223e+02	-3.0240	-15.480397	0.000355	3.547412	1.201896	0.000142
1934	1.9233e+02	-2.9742	-15.355246	0.000314	3.141993	1.064536	0.000126
1935	1.9243e+02	-2.9470	-15.230095	0.000314	3.141993	1.064536	0.000126
1936	1.9253e+02	-2.9117	-15.072646	0.000395	3.952830	1.339255	0.000158
1937	1.9263e+02	-2.8620	-14.886938	0.000466	4.662312	1.579634	0.000187
1938	1.9273e+02	-2.8299	-14.773898	0.000284	2.837929	0.961516	0.000114
1939	1.9283e+02	-2.7833	-14.652784	0.000304	3.040638	1.030196	0.000122
1940	1.9293e+02	-2.7497	-14.515522	0.000345	3.446057	1.167556	0.000138
1941	1.9303e+02	-2.7063	-14.366148	0.000375	3.750121	1.270575	0.000150
1942	1.9313e+02	-2.6775	-14.277331	0.000223	2.229802	0.755477	0.000089
1943	1.9323e+02	-2.6293	-14.075474	0.000507	5.067731	1.716994	0.000203
1944	1.9333e+02	-2.5892	-14.010880	0.000162	1.621674	0.549438	0.000065
1945	1.9343e+02	-2.5443	-13.857468	0.000385	3.851475	1.304915	0.000154
1946	1.9353e+02	-2.5106	-13.744429	0.000284	2.837929	0.961516	0.000114
1947	1.9363e+02	-2.4657	-13.627352	0.000294	2.939284	0.995856	0.000118
1948	1.9373e+02	-2.4224	-13.562758	0.000162	1.621674	0.549438	0.000065
1949	1.9383e+02	-2.3887	-13.397235	0.000416	4.155539	1.407935	0.000166
1950	1.9393e+02	-2.3518	-13.292269	0.000264	2.635220	0.892837	0.000105
1951	1.9403e+02	-2.3101	-13.130784	0.000405	4.054185	1.373595	0.000162
1952	1.9412e+02	-2.2716	-13.025818	0.000264	2.635220	0.892837	0.000105
1953	1.9422e+02	-2.2315	-12.856259	0.000426	4.256894	1.442275	0.000170
1954	1.9432e+02	-2.1962	-12.759368	0.000243	2.432511	0.824157	0.000097
1955	1.9442e+02	-2.1545	-12.589808	0.000426	4.256894	1.442275	0.000170
1956	1.9452e+02	-2.1064	-12.440434	0.000375	3.750121	1.270575	0.000150
1957	1.9462e+02	-2.0839	-12.339505	0.000253	2.533865	0.858497	0.000101
1958	1.9472e+02	-2.0261	-12.182057	0.000395	3.952830	1.339255	0.000158
1959	1.9482e+02	-1.9892	-12.064980	0.000294	2.939284	0.995856	0.000118
1960	1.9492e+02	-1.9604	-11.964052	0.000253	2.533865	0.858497	0.000101
1961	1.9502e+02	-1.9106	-11.790455	0.000436	4.358248	1.476615	0.000174
1962	1.9512e+02	-1.8737	-11.673378	0.000294	2.939284	0.995856	0.000118
1963	1.9522e+02	-1.8304	-11.548227	0.000314	3.141993	1.064536	0.000126
1964	1.9532e+02	-1.7967	-11.443261	0.000264	2.635220	0.892837	0.000105
1965	1.9542e+02	-1.7502	-11.265627	0.000446	4.459603	1.510954	0.000179
1966	1.9552e+02	-1.7133	-11.168736	0.000243	2.432511	0.824157	0.000097
1967	1.9562e+02	-1.6764	-11.011288	0.000395	3.952830	1.339255	0.000158
1968	1.9572e+02	-1.6347	-10.930545	0.000203	2.027092	0.686797	0.000081
1969	1.9582e+02	-1.5930	-10.773097	0.000395	3.952830	1.339255	0.000158
1970	1.9592e+02	-1.5561	-10.599500	0.000436	4.358248	1.476615	0.000174
1971	1.9601e+02	-1.5112	-10.486460	0.000284	2.837929	0.961516	0.000114
1972	1.9611e+02	-1.4743	-10.333049	0.000385	3.851475	1.304915	0.000154
1973	1.9621e+02	-1.4390	-10.232121	0.000253	2.533865	0.858497	0.000101
1974	1.9631e+02	-1.3941	-10.058524	0.000436	4.358248	1.476615	0.000174
1975	1.9641e+02	-1.3636	-9.953558	0.000264	2.635220	0.892837	0.000105
1976	1.9651e+02	-1.3091	-9.812258	0.000355	3.547412	1.201896	0.000142
1977	1.9661e+02	-1.2722	-9.679033	0.000334	3.344702	1.133216	0.000134
1978	1.9671e+02	-1.2321	-9.541770	0.000345	3.446057	1.167556	0.000138
1979	1.9681e+02	-1.1919	-9.412582	0.000324	3.243348	1.098876	0.000130
1980	1.9691e+02	-1.1518	-9.311654	0.000253	2.533865	0.858497	0.000101
1981	1.9701e+02	-1.1246	-9.158242	0.000385	3.851475	1.304915	0.000154
1982	1.9711e+02	-1.0684	-9.045203	0.000284	2.837929	0.961516	0.000114
1983	1.9721e+02	-1.0347	-8.944274	0.000253	2.533865	0.858497	0.000101
1984	1.9731e+02	-0.9946	-8.790863	0.000385	3.851475	1.304915	0.000154
1985	1.9741e+02	-0.9593	-8.685898	0.000264	2.635220	0.892837	0.000105
1986	1.9751e+02	-0.9096	-8.532486	0.000385	3.851475	1.304915	0.000154
1987	1.9761e+02	-0.8759	-8.399261	0.000334	3.344702	1.133216	0.000134
1988	1.9771e+02	-0.8310	-8.201441	0.000497	4.966376	1.682654	0.000199
1989	1.9781e+02	-0.7957	-8.060142	0.000355	3.547412	1.201896	0.000142
1990	1.9791e+02	-0.7524	-7.995547	0.000162	1.621674	0.549438	0.000065
1991	1.9800e+02	-0.7107	-7.821950	0.000436	4.358248	1.476615	0.000174
1992	1.9810e+02	-0.6802	-7.688725	0.000334	3.344702	1.133216	0.000134
1993	1.9820e+02	-0.6337	-7.531277	0.000395	3.952830	1.339255	0.000158
1994	1.9830e+02	-0.5871	-7.406126	0.000314	3.141993	1.064536	0.000126
1995	1.9840e+02	-0.5583	-7.289049	0.000294	2.939284	0.995856	0.000118
1996	1.9850e+02	-0.5198	-7.111415	0.000446	4.459603	1.510954	0.000179
1997	1.9860e+02	-0.4861	-6.958003	0.000385	3.851475	1.304915	0.000154
1998	1.9870e+02	-0.4364	-6.889372	0.000172	1.723028	0.583778	0.000069
1999	1.9880e+02	-0.3946	-6.744035	0.000365	3.648766	1.236235	0.000146
2000	1.9890e+02	-0.3577	-6.602735	0.000355	3.547412	1.201896	0.000142
2001	1.9900e+02	-0.3176	-6.493733	0.000274	2.736575	0.927177	0.000110
2002	1.9910e+02	-0.2791	-6.352433	0.000355	3.547412	1.201896	0.000142
2003	1.9920e+02	-0.2390	-6.227282	0.000314	3.141993	1.064536	0.000126
2004	1.9930e+02	-0.1973	-6.049648	0.000446	4.459603	1.510954	0.000179
2005	1.9940e+02	-0.1556	-5.944682	0.000264	2.635220	0.892837	0.000105
2006	1.9950e+02	-0.1171	-5.758974	0.000466	4.662312	1.579634	0.000187
2007	1.9960e+02	-0.0866	-5.645934	0.000284	2.837929	0.961516	0.000114
2008	1.9970e+02	-0.0385	-5.484449	0.000405	4.054185	1.373595	0.000162
2009	1.9980e+02	0.0048	-5.355261	0.000405	4.054185	1.373595	0.000130

Center data before PMax,+/-Pr and +/-Vc Calc.

PMax (uC/cm2):	5.61e+01
Pr (uC/cm2):	9.49e-01
-Pr (uC/cm2):	-5.36e+00
PLoss (uC/cm2):	-3.20e+00
Vc:	6.57e-01
-Vc:	-2.58e-01
C (Max-Eff) (nF):	2.80e-01
K (Eff):	9.50e+02
Vert. (+/-Pr) Shift (uC/cm2):	-2.20e+00
Horiz. Shift (+/-Vc):	1.99e-01
Offset (uC/cm2):	2.12e+00

A (Loop Area - uC/cm2·Volts):	5.00e-02



Hysteresis Version: 5.48.1 - Radiant Technologies, Inc., 1999 - 9/12/24

