»»»»»»»»»»»»»»»»»»»»»»»»»»»»»»»»»»»» Hysteresis ««««««««««««««««««««««««««««««««««««
»»»  Executed Version:	5.48.1
»»»  Vision Version:	5.48.4 (R)
»»»  Vision Compiled:	9/18/24
»»»  Driver Version:	5.47.0
»»»  Windows Version:	Windows 8 or 8.1
»»»  Processor Information:	x86 (AMD or Intel) - 32 Processors
»»»  Tester Name:	PMF21124-494 (100V)
»»»  Tester S/N:	PMF21124-494
»»»  Internal Amp Type:	100V RevK 270k
»»»  Internal Amp S/N:	iAB2-596/K     
»»»  Execution Count:	1
»»»»»»»»»»»»»»»»»»»»»»»»»»»»»»»»»»»»»»»»»»««««««««««««««««««««««««««««««««««««««««««

Stored:	7/1/2025 - 13:55:55
Configured:	07/01/25 10:49:51 AM
Executed:	07/01/25 01:55:28 PM

»»»»»»»»»»»»»»»»»»»»»»»»»»»»»»»»»»» Sample Info ««««««««««««««««««««««««««««««««««««
Sample Name:	
Lot Name:	
Wafer Name:	
Die Row/Column:	0/0
Capacitor Number:	0
Sample Area (cm2):	1.00e-04
Sample Thickness (microns):	1.50e-01

Amplifier:	Internal

»»»»»»»»»»»»»»»»»»»»»»»»»»»»»»»»»»» Tester Info «««««««««««««««««««««««««««««««««««
Tester Name:	PMF21124-494 (100V)
Tester Serial Number:	PMF21124-494
Return Signal Amp. Level:	0.19 [Index: 3]

»»»»»»»»»»»»»»»»»»»»»»»»»»»»»»»» Hysteresis Info ««««««««««««««««««««««««««««««««««
Task Name:	Hyst-22
Volts:	10.00
Field:	666.67 (kV/cm)
DCBias:	0.00
DCField:	0.00 (kV/cm)
Hysteresis Period (ms):	1.00e+00
Preset:	Enabled
Preset Delay (ms):	1.00e+03
Profile:	Standard Bipolar

»»»»»»»»»»»»»»»»»»»»»»»»»»»»»»»»»»»»»» Data «««««««««««««««««««««««««««««««««««««««
Points:	2001

Valid Data

Point	Time (ms)	Drive Voltage	Measured Polarization (uC/cm2)	Capacitance (uF)	Normalized Capacitance (uF/cm2)	Dielectric Constant	Instantaneous Current (mA)
   1	0.0000e+00	-0.0021	3.038940	0.000626	6.259625	1.060409	0.025005
   2	5.0000e-04	0.0120	3.163966	0.000626	6.259625	1.060409	0.025005
   3	1.0000e-03	0.0287	3.208330	0.000222	2.221157	0.376274	0.008873
   4	1.5000e-03	0.0488	3.284959	0.000384	3.836544	0.649928	0.015326
   5	2.0000e-03	0.0686	3.377720	0.000464	4.644238	0.786755	0.018552
   6	2.5000e-03	0.0888	3.422084	0.000222	2.221157	0.376274	0.008873
   7	3.0000e-03	0.1088	3.522912	0.000505	5.048084	0.855169	0.020165
   8	3.5000e-03	0.1284	3.615673	0.000464	4.644238	0.786755	0.018552
   9	4.0000e-03	0.1495	3.744732	0.000646	6.461548	1.094616	0.025812
  10	4.5000e-03	0.1687	3.797162	0.000263	2.625004	0.444688	0.010486
  11	5.0000e-03	0.1881	3.906056	0.000545	5.451931	0.923582	0.021779
  12	5.5000e-03	0.2083	3.986718	0.000404	4.038467	0.684135	0.016132
  13	6.0000e-03	0.2290	4.071413	0.000424	4.240391	0.718342	0.016939
  14	6.5000e-03	0.2483	4.135943	0.000323	3.230774	0.547308	0.012906
  15	7.0000e-03	0.2683	4.200472	0.000323	3.230774	0.547308	0.012906
  16	7.5000e-03	0.2879	4.256936	0.000283	2.826927	0.478894	0.011293
  17	8.0000e-03	0.3093	4.377929	0.000606	6.057701	1.026202	0.024199
  18	8.5000e-03	0.3288	4.474723	0.000485	4.846161	0.820962	0.019359
  19	9.0000e-03	0.3484	4.607815	0.000666	6.663471	1.128823	0.026618
  20	9.5000e-03	0.3683	4.619914	0.000061	0.605770	0.102620	0.002420
  21	1.0000e-02	0.3879	4.696543	0.000384	3.836544	0.649928	0.015326
  22	1.0500e-02	0.4083	4.821569	0.000626	6.259625	1.060409	0.025005
  23	1.1000e-02	0.4286	4.922397	0.000505	5.048084	0.855169	0.020165
  24	1.1500e-02	0.4485	4.986926	0.000323	3.230774	0.547308	0.012906
  25	1.2000e-02	0.4679	5.071621	0.000424	4.240391	0.718342	0.016939
  26	1.2500e-02	0.4890	5.188581	0.000586	5.855778	0.991996	0.023392
  27	1.3000e-02	0.5095	5.281343	0.000464	4.644238	0.786755	0.018552
  28	1.3500e-02	0.5288	5.353938	0.000363	3.634621	0.615721	0.014519
  29	1.4000e-02	0.5483	5.478964	0.000626	6.259625	1.060409	0.025005
  30	1.4500e-02	0.5686	5.507196	0.000141	1.413464	0.239447	0.005646
  31	1.5000e-02	0.5888	5.599957	0.000464	4.644238	0.786755	0.018552
  32	1.5500e-02	0.6081	5.712884	0.000565	5.653854	0.957789	0.022585
  33	1.6000e-02	0.6285	5.741116	0.000141	1.413464	0.239447	0.005646
  34	1.6500e-02	0.6487	5.870175	0.000646	6.461548	1.094616	0.025812
  35	1.7000e-02	0.6692	5.958903	0.000444	4.442314	0.752548	0.017746
  36	1.7500e-02	0.6889	6.023433	0.000323	3.230774	0.547308	0.012906
  37	1.8000e-02	0.7076	6.152492	0.000646	6.461548	1.094616	0.025812
  38	1.8500e-02	0.7291	6.200889	0.000242	2.423080	0.410481	0.009679
  39	1.9000e-02	0.7485	6.293650	0.000464	4.644238	0.786755	0.018552
  40	1.9500e-02	0.7688	6.358180	0.000323	3.230774	0.547308	0.012906
  41	2.0000e-02	0.7890	6.535636	0.000888	8.884628	1.505097	0.035491
  42	2.0500e-02	0.8090	6.584033	0.000242	2.423080	0.410481	0.009679
  43	2.1000e-02	0.8286	6.676795	0.000464	4.644238	0.786755	0.018552
  44	2.1500e-02	0.8489	6.801821	0.000626	6.259625	1.060409	0.025005
  45	2.2000e-02	0.8692	6.898615	0.000485	4.846161	0.820962	0.019359
  46	2.2500e-02	0.8877	7.031707	0.000666	6.663471	1.128823	0.026618
  47	2.3000e-02	0.9085	7.172866	0.000707	7.067318	1.197236	0.028232
  48	2.3500e-02	0.9286	7.156733	-0.000081	-0.807693	-0.136827	-0.003226
  49	2.4000e-02	0.9491	7.245462	0.000444	4.442314	0.752548	0.017746
  50	2.4500e-02	0.9679	7.334190	0.000444	4.442314	0.752548	0.017746
  51	2.5000e-02	0.9891	7.406786	0.000363	3.634621	0.615721	0.014519
  52	2.5500e-02	1.0081	7.495514	0.000444	4.442314	0.752548	0.017746
  53	2.6000e-02	1.0294	7.612474	0.000586	5.855778	0.991996	0.023392
  54	2.6500e-02	1.0495	7.697169	0.000424	4.240391	0.718342	0.016939
  55	2.7000e-02	1.0687	7.785897	0.000444	4.442314	0.752548	0.017746
  56	2.7500e-02	1.0889	7.918989	0.000666	6.663471	1.128823	0.026618
  57	2.8000e-02	1.1104	7.987552	0.000343	3.432697	0.581515	0.013713
  58	2.8500e-02	1.1288	8.039982	0.000263	2.625004	0.444688	0.010486
  59	2.9000e-02	1.1483	8.185174	0.000727	7.269241	1.231443	0.029038
  60	2.9500e-02	1.1694	8.306167	0.000606	6.057701	1.026202	0.024199
  61	3.0000e-02	1.1887	8.322299	0.000081	0.807693	0.136827	0.003226
  62	3.0500e-02	1.2093	8.491689	0.000848	8.480782	1.436683	0.033878
  63	3.1000e-02	1.2294	8.540086	0.000242	2.423080	0.410481	0.009679
  64	3.1500e-02	1.2486	8.677212	0.000687	6.865395	1.163029	0.027425
  65	3.2000e-02	1.2698	8.745774	0.000343	3.432697	0.581515	0.013713
  66	3.2500e-02	1.2896	8.798205	0.000263	2.625004	0.444688	0.010486
  67	3.3000e-02	1.3087	8.935330	0.000687	6.865395	1.163029	0.027425
  68	3.3500e-02	1.3285	9.020025	0.000424	4.240391	0.718342	0.016939
  69	3.4000e-02	1.3487	9.149084	0.000646	6.461548	1.094616	0.025812
  70	3.4500e-02	1.3686	9.217647	0.000343	3.432697	0.581515	0.013713
  71	3.5000e-02	1.3896	9.391070	0.000868	8.682705	1.470890	0.034685
  72	3.5500e-02	1.4088	9.471732	0.000404	4.038467	0.684135	0.016132
  73	3.6000e-02	1.4290	9.556427	0.000424	4.240391	0.718342	0.016939
  74	3.6500e-02	1.4490	9.645155	0.000444	4.442314	0.752548	0.017746
  75	3.7000e-02	1.4689	9.717751	0.000363	3.634621	0.615721	0.014519
  76	3.7500e-02	1.4881	9.814545	0.000485	4.846161	0.820962	0.019359
  77	3.8000e-02	1.5090	9.891174	0.000384	3.836544	0.649928	0.015326
  78	3.8500e-02	1.5286	10.020233	0.000646	6.461548	1.094616	0.025812
  79	3.9000e-02	1.5492	10.125094	0.000525	5.250008	0.889375	0.020972
  80	3.9500e-02	1.5683	10.262219	0.000687	6.865395	1.163029	0.027425
  81	4.0000e-02	1.5892	10.383212	0.000606	6.057701	1.026202	0.024199
  82	4.0500e-02	1.6089	10.439676	0.000283	2.826927	0.478894	0.011293
  83	4.1000e-02	1.6290	10.580834	0.000707	7.067318	1.197236	0.028232
  84	4.1500e-02	1.6490	10.633264	0.000263	2.625004	0.444688	0.010486
  85	4.2000e-02	1.6687	10.742158	0.000545	5.451931	0.923582	0.021779
  86	4.2500e-02	1.6876	10.818787	0.000384	3.836544	0.649928	0.015326
  87	4.3000e-02	1.7090	11.028508	0.001050	10.500015	1.778751	0.041944
  88	4.3500e-02	1.7284	11.016409	-0.000061	-0.605770	-0.102620	-0.002420
  89	4.4000e-02	1.7485	11.133369	0.000586	5.855778	0.991996	0.023392
  90	4.4500e-02	1.7686	11.294693	0.000808	8.076935	1.368270	0.032265
  91	4.5000e-02	1.7889	11.290660	-0.000020	-0.201923	-0.034207	-0.000807
  92	4.5500e-02	1.8094	11.451983	0.000808	8.076935	1.368270	0.032265
  93	4.6000e-02	1.8292	11.585076	0.000666	6.663471	1.128823	0.026618
  94	4.6500e-02	1.8491	11.681870	0.000485	4.846161	0.820962	0.019359
  95	4.7000e-02	1.8686	11.810929	0.000646	6.461548	1.094616	0.025812
  96	4.7500e-02	1.8890	11.875459	0.000323	3.230774	0.547308	0.012906
  97	4.8000e-02	1.9084	11.988386	0.000565	5.653854	0.957789	0.022585
  98	4.8500e-02	1.9287	12.121478	0.000666	6.663471	1.128823	0.026618
  99	4.9000e-02	1.9482	12.266669	0.000727	7.269241	1.231443	0.029038
 100	4.9500e-02	1.9691	12.355398	0.000444	4.442314	0.752548	0.017746
 101	5.0000e-02	1.9881	12.403795	0.000242	2.423080	0.410481	0.009679
 102	5.0500e-02	2.0078	12.540920	0.000687	6.865395	1.163029	0.027425
 103	5.1000e-02	2.0294	12.609483	0.000343	3.432697	0.581515	0.013713
 104	5.1500e-02	2.0483	12.706277	0.000485	4.846161	0.820962	0.019359
 105	5.2000e-02	2.0683	12.867601	0.000808	8.076935	1.368270	0.032265
 106	5.2500e-02	2.0880	12.956329	0.000444	4.442314	0.752548	0.017746
 107	5.3000e-02	2.1085	13.073289	0.000586	5.855778	0.991996	0.023392
 108	5.3500e-02	2.1283	13.162017	0.000444	4.442314	0.752548	0.017746
 109	5.4000e-02	2.1487	13.238646	0.000384	3.836544	0.649928	0.015326
 110	5.4500e-02	2.1683	13.331407	0.000464	4.644238	0.786755	0.018552
 111	5.5000e-02	2.1889	13.545162	0.001070	10.701939	1.812957	0.042751
 112	5.5500e-02	2.2086	13.581460	0.000182	1.817310	0.307861	0.007260
 113	5.6000e-02	2.2288	13.706486	0.000626	6.259625	1.060409	0.025005
 114	5.6500e-02	2.2488	13.803280	0.000485	4.846161	0.820962	0.019359
 115	5.7000e-02	2.2685	13.916207	0.000565	5.653854	0.957789	0.022585
 116	5.7500e-02	2.2883	14.065431	0.000747	7.471165	1.265650	0.029845
 117	5.8000e-02	2.3090	14.174325	0.000545	5.451931	0.923582	0.021779
 118	5.8500e-02	2.3288	14.222722	0.000242	2.423080	0.410481	0.009679
 119	5.9000e-02	2.3492	14.339682	0.000586	5.855778	0.991996	0.023392
 120	5.9500e-02	2.3694	14.496973	0.000788	7.875011	1.334063	0.031458
 121	6.0000e-02	2.3889	14.601833	0.000525	5.250008	0.889375	0.020972
 122	6.0500e-02	2.4094	14.734926	0.000666	6.663471	1.128823	0.026618
 123	6.1000e-02	2.4287	14.803488	0.000343	3.432697	0.581515	0.013713
 124	6.1500e-02	2.4477	14.924481	0.000606	6.057701	1.026202	0.024199
 125	6.2000e-02	2.4689	15.057574	0.000666	6.663471	1.128823	0.026618
 126	6.2500e-02	2.4890	15.170500	0.000565	5.653854	0.957789	0.022585
 127	6.3000e-02	2.5089	15.307626	0.000687	6.865395	1.163029	0.027425
 128	6.3500e-02	2.5299	15.376188	0.000343	3.432697	0.581515	0.013713
 129	6.4000e-02	2.5488	15.497181	0.000606	6.057701	1.026202	0.024199
 130	6.4500e-02	2.5686	15.622207	0.000626	6.259625	1.060409	0.025005
 131	6.5000e-02	2.5888	15.747233	0.000626	6.259625	1.060409	0.025005
 132	6.5500e-02	2.6086	15.831929	0.000424	4.240391	0.718342	0.016939
 133	6.6000e-02	2.6279	15.965021	0.000666	6.663471	1.128823	0.026618
 134	6.6500e-02	2.6489	16.057782	0.000464	4.644238	0.786755	0.018552
 135	6.7000e-02	2.6681	16.146510	0.000444	4.442314	0.752548	0.017746
 136	6.7500e-02	2.6884	16.255404	0.000545	5.451931	0.923582	0.021779
 137	6.8000e-02	2.7075	16.392529	0.000687	6.865395	1.163029	0.027425
 138	6.8500e-02	2.7286	16.497390	0.000525	5.250008	0.889375	0.020972
 139	6.9000e-02	2.7478	16.634515	0.000687	6.865395	1.163029	0.027425
 140	6.9500e-02	2.7692	16.779707	0.000727	7.269241	1.231443	0.029038
 141	7.0000e-02	2.7882	16.888600	0.000545	5.451931	0.923582	0.021779
 142	7.0500e-02	2.8084	16.989428	0.000505	5.048084	0.855169	0.020165
 143	7.1000e-02	2.8291	17.082189	0.000464	4.644238	0.786755	0.018552
 144	7.1500e-02	2.8482	17.170917	0.000444	4.442314	0.752548	0.017746
 145	7.2000e-02	2.8687	17.364506	0.000969	9.692322	1.641924	0.038718
 146	7.2500e-02	2.8883	17.437102	0.000363	3.634621	0.615721	0.014519
 147	7.3000e-02	2.9089	17.574227	0.000687	6.865395	1.163029	0.027425
 148	7.3500e-02	2.9288	17.642790	0.000343	3.432697	0.581515	0.013713
 149	7.4000e-02	2.9485	17.808147	0.000828	8.278858	1.402477	0.033071
 150	7.4500e-02	2.9678	17.913007	0.000525	5.250008	0.889375	0.020972
 151	7.5000e-02	2.9895	18.054166	0.000707	7.067318	1.197236	0.028232
 152	7.5500e-02	3.0090	18.110629	0.000283	2.826927	0.478894	0.011293
 153	7.6000e-02	3.0283	18.280019	0.000848	8.480782	1.436683	0.033878
 154	7.6500e-02	3.0484	18.348582	0.000343	3.432697	0.581515	0.013713
 155	7.7000e-02	3.0682	18.457476	0.000545	5.451931	0.923582	0.021779
 156	7.7500e-02	3.0887	18.578469	0.000606	6.057701	1.026202	0.024199
 157	7.8000e-02	3.1085	18.695429	0.000586	5.855778	0.991996	0.023392
 158	7.8500e-02	3.1288	18.836587	0.000707	7.067318	1.197236	0.028232
 159	7.9000e-02	3.1487	18.884984	0.000242	2.423080	0.410481	0.009679
 160	7.9500e-02	3.1689	19.026143	0.000707	7.067318	1.197236	0.028232
 161	8.0000e-02	3.1891	19.163268	0.000687	6.865395	1.163029	0.027425
 162	8.0500e-02	3.2083	19.296360	0.000666	6.663471	1.128823	0.026618
 163	8.1000e-02	3.2280	19.397188	0.000505	5.048084	0.855169	0.020165
 164	8.1500e-02	3.2483	19.526247	0.000646	6.461548	1.094616	0.025812
 165	8.2000e-02	3.2686	19.663372	0.000687	6.865395	1.163029	0.027425
 166	8.2500e-02	3.2886	19.768233	0.000525	5.250008	0.889375	0.020972
 167	8.3000e-02	3.3087	19.844862	0.000384	3.836544	0.649928	0.015326
 168	8.3500e-02	3.3295	19.965855	0.000606	6.057701	1.026202	0.024199
 169	8.4000e-02	3.3487	20.098947	0.000666	6.663471	1.128823	0.026618
 170	8.4500e-02	3.3679	20.228006	0.000646	6.461548	1.094616	0.025812
 171	8.5000e-02	3.3881	20.256238	0.000141	1.413464	0.239447	0.005646
 172	8.5500e-02	3.4088	20.474025	0.001090	10.903862	1.847164	0.043557
 173	8.6000e-02	3.4291	20.546621	0.000363	3.634621	0.615721	0.014519
 174	8.6500e-02	3.4485	20.683746	0.000687	6.865395	1.163029	0.027425
 175	8.7000e-02	3.4692	20.832971	0.000747	7.471165	1.265650	0.029845
 176	8.7500e-02	3.4888	20.962030	0.000646	6.461548	1.094616	0.025812
 177	8.8000e-02	3.5086	21.066891	0.000525	5.250008	0.889375	0.020972
 178	8.8500e-02	3.5285	21.179817	0.000565	5.653854	0.957789	0.022585
 179	8.9000e-02	3.5483	21.268545	0.000444	4.442314	0.752548	0.017746
 180	8.9500e-02	3.5687	21.381472	0.000565	5.653854	0.957789	0.022585
 181	9.0000e-02	3.5886	21.538763	0.000788	7.875011	1.334063	0.031458
 182	9.0500e-02	3.6082	21.663789	0.000626	6.259625	1.060409	0.025005
 183	9.1000e-02	3.6292	21.768650	0.000525	5.250008	0.889375	0.020972
 184	9.1500e-02	3.6493	21.857378	0.000444	4.442314	0.752548	0.017746
 185	9.2000e-02	3.6699	22.006603	0.000747	7.471165	1.265650	0.029845
 186	9.2500e-02	3.6885	22.091298	0.000424	4.240391	0.718342	0.016939
 187	9.3000e-02	3.7086	22.200191	0.000545	5.451931	0.923582	0.021779
 188	9.3500e-02	3.7292	22.357482	0.000788	7.875011	1.334063	0.031458
 189	9.4000e-02	3.7491	22.502674	0.000727	7.269241	1.231443	0.029038
 190	9.4500e-02	3.7695	22.587369	0.000424	4.240391	0.718342	0.016939
 191	9.5000e-02	3.7889	22.708362	0.000606	6.057701	1.026202	0.024199
 192	9.5500e-02	3.8086	22.813222	0.000525	5.250008	0.889375	0.020972
 193	9.6000e-02	3.8281	22.938248	0.000626	6.259625	1.060409	0.025005
 194	9.6500e-02	3.8483	23.014877	0.000384	3.836544	0.649928	0.015326
 195	9.7000e-02	3.8685	23.164102	0.000747	7.471165	1.265650	0.029845
 196	9.7500e-02	3.8889	23.272995	0.000545	5.451931	0.923582	0.021779
 197	9.8000e-02	3.9087	23.426253	0.000767	7.673088	1.299856	0.030652
 198	9.8500e-02	3.9291	23.563379	0.000687	6.865395	1.163029	0.027425
 199	9.9000e-02	3.9487	23.603710	0.000202	2.019234	0.342067	0.008066
 200	9.9500e-02	3.9679	23.769067	0.000828	8.278858	1.402477	0.033071
 201	1.0000e-01	3.9896	23.902159	0.000666	6.663471	1.128823	0.026618
 202	1.0050e-01	4.0088	23.974755	0.000363	3.634621	0.615721	0.014519
 203	1.0100e-01	4.0291	24.091715	0.000586	5.855778	0.991996	0.023392
 204	1.0150e-01	4.0491	24.249005	0.000788	7.875011	1.334063	0.031458
 205	1.0200e-01	4.0689	24.361932	0.000565	5.653854	0.957789	0.022585
 206	1.0250e-01	4.0881	24.442594	0.000404	4.038467	0.684135	0.016132
 207	1.0300e-01	4.1086	24.628117	0.000929	9.288475	1.573510	0.037105
 208	1.0350e-01	4.1296	24.656348	0.000141	1.413464	0.239447	0.005646
 209	1.0400e-01	4.1483	24.833805	0.000888	8.884628	1.505097	0.035491
 210	1.0450e-01	4.1682	25.007228	0.000868	8.682705	1.470890	0.034685
 211	1.0500e-01	4.1895	25.124188	0.000586	5.855778	0.991996	0.023392
 212	1.0550e-01	4.2090	25.220982	0.000485	4.846161	0.820962	0.019359
 213	1.0600e-01	4.2282	25.289545	0.000343	3.432697	0.581515	0.013713
 214	1.0650e-01	4.2490	25.458935	0.000848	8.480782	1.436683	0.033878
 215	1.0700e-01	4.2700	25.600093	0.000707	7.067318	1.197236	0.028232
 216	1.0750e-01	4.2896	25.640424	0.000202	2.019234	0.342067	0.008066
 217	1.0800e-01	4.3091	25.773517	0.000666	6.663471	1.128823	0.026618
 218	1.0850e-01	4.3298	25.886443	0.000565	5.653854	0.957789	0.022585
 219	1.0900e-01	4.3488	25.991304	0.000525	5.250008	0.889375	0.020972
 220	1.0950e-01	4.3695	26.184893	0.000969	9.692322	1.641924	0.038718
 221	1.1000e-01	4.3890	26.265555	0.000404	4.038467	0.684135	0.016132
 222	1.1050e-01	4.4098	26.362349	0.000485	4.846161	0.820962	0.019359
 223	1.1100e-01	4.4296	26.475276	0.000565	5.653854	0.957789	0.022585
 224	1.1150e-01	4.4483	26.632567	0.000788	7.875011	1.334063	0.031458
 225	1.1200e-01	4.4699	26.749526	0.000586	5.855778	0.991996	0.023392
 226	1.1250e-01	4.4897	26.773725	0.000121	1.211540	0.205240	0.004840
 227	1.1300e-01	4.5082	26.963281	0.000949	9.490398	1.607717	0.037911
 228	1.1350e-01	4.5294	27.052009	0.000444	4.442314	0.752548	0.017746
 229	1.1400e-01	4.5483	27.237531	0.000929	9.288475	1.573510	0.037105
 230	1.1450e-01	4.5694	27.330293	0.000464	4.644238	0.786755	0.018552
 231	1.1500e-01	4.5886	27.487584	0.000788	7.875011	1.334063	0.031458
 232	1.1550e-01	4.6091	27.568245	0.000404	4.038467	0.684135	0.016132
 233	1.1600e-01	4.6291	27.725536	0.000788	7.875011	1.334063	0.031458
 234	1.1650e-01	4.6457	27.677139	-0.000242	-2.423080	-0.410481	-0.009679
 235	1.1700e-01	4.6692	27.943324	0.001333	13.326943	2.257645	0.053237
 236	1.1750e-01	4.6889	28.032052	0.000444	4.442314	0.752548	0.017746
 237	1.1800e-01	4.7089	28.213541	0.000909	9.086552	1.539304	0.036298
 238	1.1850e-01	4.7305	28.257905	0.000222	2.221157	0.376274	0.008873
 239	1.1900e-01	4.7491	28.358733	0.000505	5.048084	0.855169	0.020165
 240	1.1950e-01	4.7696	28.520057	0.000808	8.076935	1.368270	0.032265
 241	1.2000e-01	4.7891	28.624917	0.000525	5.250008	0.889375	0.020972
 242	1.2050e-01	4.8096	28.766076	0.000707	7.067318	1.197236	0.028232
 243	1.2100e-01	4.8285	28.854804	0.000444	4.442314	0.752548	0.017746
 244	1.2150e-01	4.8495	28.979830	0.000626	6.259625	1.060409	0.025005
 245	1.2200e-01	4.8688	29.076624	0.000485	4.846161	0.820962	0.019359
 246	1.2250e-01	4.8895	29.205684	0.000646	6.461548	1.094616	0.025812
 247	1.2300e-01	4.9088	29.266180	0.000303	3.028851	0.513101	0.012099
 248	1.2350e-01	4.9295	29.467835	0.001010	10.096169	1.710337	0.040331
 249	1.2400e-01	4.9503	29.564629	0.000485	4.846161	0.820962	0.019359
 250	1.2450e-01	4.9704	29.689655	0.000626	6.259625	1.060409	0.025005
 251	1.2500e-01	4.9896	29.782417	0.000464	4.644238	0.786755	0.018552
 252	1.2550e-01	5.0098	29.923575	0.000707	7.067318	1.197236	0.028232
 253	1.2600e-01	5.0299	30.072800	0.000747	7.471165	1.265650	0.029845
 254	1.2650e-01	5.0501	30.145396	0.000363	3.634621	0.615721	0.014519
 255	1.2700e-01	5.0696	30.270422	0.000626	6.259625	1.060409	0.025005
 256	1.2750e-01	5.0897	30.367216	0.000485	4.846161	0.820962	0.019359
 257	1.2800e-01	5.1089	30.464010	0.000485	4.846161	0.820962	0.019359
 258	1.2850e-01	5.1303	30.621301	0.000788	7.875011	1.334063	0.031458
 259	1.2900e-01	5.1489	30.697930	0.000384	3.836544	0.649928	0.015326
 260	1.2950e-01	5.1686	30.778592	0.000404	4.038467	0.684135	0.016132
 261	1.3000e-01	5.1887	30.952015	0.000868	8.682705	1.470890	0.034685
 262	1.3050e-01	5.2094	31.036710	0.000424	4.240391	0.718342	0.016939
 263	1.3100e-01	5.2295	31.206100	0.000848	8.480782	1.436683	0.033878
 264	1.3150e-01	5.2496	31.242398	0.000182	1.817310	0.307861	0.007260
 265	1.3200e-01	5.2692	31.419855	0.000888	8.884628	1.505097	0.035491
 266	1.3250e-01	5.2896	31.524715	0.000525	5.250008	0.889375	0.020972
 267	1.3300e-01	5.3101	31.657807	0.000666	6.663471	1.128823	0.026618
 268	1.3350e-01	5.3296	31.778800	0.000606	6.057701	1.026202	0.024199
 269	1.3400e-01	5.3491	31.859462	0.000404	4.038467	0.684135	0.016132
 270	1.3450e-01	5.3696	31.980455	0.000606	6.057701	1.026202	0.024199
 271	1.3500e-01	5.3897	32.101448	0.000606	6.057701	1.026202	0.024199
 272	1.3550e-01	5.4095	32.198243	0.000485	4.846161	0.820962	0.019359
 273	1.3600e-01	5.4297	32.311169	0.000565	5.653854	0.957789	0.022585
 274	1.3650e-01	5.4498	32.460394	0.000747	7.471165	1.265650	0.029845
 275	1.3700e-01	5.4700	32.545089	0.000424	4.240391	0.718342	0.016939
 276	1.3750e-01	5.4895	32.718512	0.000868	8.682705	1.470890	0.034685
 277	1.3800e-01	5.5093	32.900002	0.000909	9.086552	1.539304	0.036298
 278	1.3850e-01	5.5289	32.819340	-0.000404	-4.038467	-0.684135	-0.016132
 279	1.3900e-01	5.5493	33.037127	0.001090	10.903862	1.847164	0.043557
 280	1.3950e-01	5.5695	33.089557	0.000263	2.625004	0.444688	0.010486
 281	1.4000e-01	5.5893	33.246848	0.000788	7.875011	1.334063	0.031458
 282	1.4050e-01	5.6091	33.311378	0.000323	3.230774	0.547308	0.012906
 283	1.4100e-01	5.6314	33.521099	0.001050	10.500015	1.778751	0.041944
 284	1.4150e-01	5.6494	33.577562	0.000283	2.826927	0.478894	0.011293
 285	1.4200e-01	5.6696	33.726787	0.000747	7.471165	1.265650	0.029845
 286	1.4250e-01	5.6894	33.799383	0.000363	3.634621	0.615721	0.014519
 287	1.4300e-01	5.7095	33.888111	0.000444	4.442314	0.752548	0.017746
 288	1.4350e-01	5.7294	34.041369	0.000767	7.673088	1.299856	0.030652
 289	1.4400e-01	5.7486	34.174461	0.000666	6.663471	1.128823	0.026618
 290	1.4450e-01	5.7666	34.182527	0.000040	0.403847	0.068413	0.001613
 291	1.4500e-01	5.7886	34.364017	0.000909	9.086552	1.539304	0.036298
 292	1.4550e-01	5.8099	34.501142	0.000687	6.865395	1.163029	0.027425
 293	1.4600e-01	5.8295	34.573738	0.000363	3.634621	0.615721	0.014519
 294	1.4650e-01	5.8479	34.771360	0.000989	9.894245	1.676131	0.039524
 295	1.4700e-01	5.8698	34.819757	0.000242	2.423080	0.410481	0.009679
 296	1.4750e-01	5.8887	34.944783	0.000626	6.259625	1.060409	0.025005
 297	1.4800e-01	5.9100	35.041577	0.000485	4.846161	0.820962	0.019359
 298	1.4850e-01	5.9296	35.166603	0.000626	6.259625	1.060409	0.025005
 299	1.4900e-01	5.9486	35.303729	0.000687	6.865395	1.163029	0.027425
 300	1.4950e-01	5.9686	35.380357	0.000384	3.836544	0.649928	0.015326
 301	1.5000e-01	5.9897	35.465053	0.000424	4.240391	0.718342	0.016939
 302	1.5050e-01	6.0089	35.549748	0.000424	4.240391	0.718342	0.016939
 303	1.5100e-01	6.0303	35.686873	0.000687	6.865395	1.163029	0.027425
 304	1.5150e-01	6.0492	35.852230	0.000828	8.278858	1.402477	0.033071
 305	1.5200e-01	6.0684	35.916760	0.000323	3.230774	0.547308	0.012906
 306	1.5250e-01	6.0884	35.977256	0.000303	3.028851	0.513101	0.012099
 307	1.5300e-01	6.1102	36.146646	0.000848	8.480782	1.436683	0.033878
 308	1.5350e-01	6.1293	36.243441	0.000485	4.846161	0.820962	0.019359
 309	1.5400e-01	6.1499	36.368467	0.000626	6.259625	1.060409	0.025005
 310	1.5450e-01	6.1694	36.485427	0.000586	5.855778	0.991996	0.023392
 311	1.5500e-01	6.1896	36.622552	0.000687	6.865395	1.163029	0.027425
 312	1.5550e-01	6.2093	36.723379	0.000505	5.048084	0.855169	0.020165
 313	1.5600e-01	6.2299	36.832273	0.000545	5.451931	0.923582	0.021779
 314	1.5650e-01	6.2494	36.933100	0.000505	5.048084	0.855169	0.020165
 315	1.5700e-01	6.2689	37.054093	0.000606	6.057701	1.026202	0.024199
 316	1.5750e-01	6.2897	37.191219	0.000687	6.865395	1.163029	0.027425
 317	1.5800e-01	6.3092	37.203318	0.000061	0.605770	0.102620	0.002420
 318	1.5850e-01	6.3287	37.372708	0.000848	8.480782	1.436683	0.033878
 319	1.5900e-01	6.3498	37.501767	0.000646	6.461548	1.094616	0.025812
 320	1.5950e-01	6.3684	37.610661	0.000545	5.451931	0.923582	0.021779
 321	1.6000e-01	6.3885	37.743753	0.000666	6.663471	1.128823	0.026618
 322	1.6050e-01	6.4095	37.812316	0.000343	3.432697	0.581515	0.013713
 323	1.6100e-01	6.4288	37.905077	0.000464	4.644238	0.786755	0.018552
 324	1.6150e-01	6.4490	38.022037	0.000586	5.855778	0.991996	0.023392
 325	1.6200e-01	6.4688	38.106732	0.000424	4.240391	0.718342	0.016939
 326	1.6250e-01	6.4890	38.227725	0.000606	6.057701	1.026202	0.024199
 327	1.6300e-01	6.5088	38.364850	0.000687	6.865395	1.163029	0.027425
 328	1.6350e-01	6.5298	38.441479	0.000384	3.836544	0.649928	0.015326
 329	1.6400e-01	6.5491	38.582638	0.000707	7.067318	1.197236	0.028232
 330	1.6450e-01	6.5686	38.691531	0.000545	5.451931	0.923582	0.021779
 331	1.6500e-01	6.5887	38.828657	0.000687	6.865395	1.163029	0.027425
 332	1.6550e-01	6.6077	38.885120	0.000283	2.826927	0.478894	0.011293
 333	1.6600e-01	6.6284	39.010146	0.000626	6.259625	1.060409	0.025005
 334	1.6650e-01	6.6486	39.119040	0.000545	5.451931	0.923582	0.021779
 335	1.6700e-01	6.6687	39.244066	0.000626	6.259625	1.060409	0.025005
 336	1.6750e-01	6.6888	39.369092	0.000626	6.259625	1.060409	0.025005
 337	1.6800e-01	6.7084	39.417489	0.000242	2.423080	0.410481	0.009679
 338	1.6850e-01	6.7285	39.582846	0.000828	8.278858	1.402477	0.033071
 339	1.6900e-01	6.7484	39.679641	0.000485	4.846161	0.820962	0.019359
 340	1.6950e-01	6.7679	39.776435	0.000485	4.846161	0.820962	0.019359
 341	1.7000e-01	6.7892	39.929693	0.000767	7.673088	1.299856	0.030652
 342	1.7050e-01	6.8082	39.994222	0.000323	3.230774	0.547308	0.012906
 343	1.7100e-01	6.8286	40.082950	0.000444	4.442314	0.752548	0.017746
 344	1.7150e-01	6.8484	40.183778	0.000505	5.048084	0.855169	0.020165
 345	1.7200e-01	6.8680	40.216043	0.000162	1.615387	0.273654	0.006453
 346	1.7250e-01	6.8890	40.425764	0.001050	10.500015	1.778751	0.041944
 347	1.7300e-01	6.9092	40.502393	0.000384	3.836544	0.649928	0.015326
 348	1.7350e-01	6.9287	40.631452	0.000646	6.461548	1.094616	0.025812
 349	1.7400e-01	6.9485	40.776643	0.000727	7.269241	1.231443	0.029038
 350	1.7450e-01	6.9684	40.857305	0.000404	4.038467	0.684135	0.016132
 351	1.7500e-01	6.9885	40.950067	0.000464	4.644238	0.786755	0.018552
 352	1.7550e-01	7.0087	41.022662	0.000363	3.634621	0.615721	0.014519
 353	1.7600e-01	7.0282	41.200119	0.000888	8.884628	1.505097	0.035491
 354	1.7650e-01	7.0486	41.329178	0.000646	6.461548	1.094616	0.025812
 355	1.7700e-01	7.0685	41.405807	0.000384	3.836544	0.649928	0.015326
 356	1.7750e-01	7.0886	41.482436	0.000384	3.836544	0.649928	0.015326
 357	1.7800e-01	7.1082	41.575197	0.000464	4.644238	0.786755	0.018552
 358	1.7850e-01	7.1292	41.708289	0.000666	6.663471	1.128823	0.026618
 359	1.7900e-01	7.1484	41.837348	0.000646	6.461548	1.094616	0.025812
 360	1.7950e-01	7.1686	41.918010	0.000404	4.038467	0.684135	0.016132
 361	1.8000e-01	7.1887	42.051103	0.000666	6.663471	1.128823	0.026618
 362	1.8050e-01	7.2084	42.151930	0.000505	5.048084	0.855169	0.020165
 363	1.8100e-01	7.2284	42.248724	0.000485	4.846161	0.820962	0.019359
 364	1.8150e-01	7.2485	42.317287	0.000343	3.432697	0.581515	0.013713
 365	1.8200e-01	7.2687	42.458446	0.000707	7.067318	1.197236	0.028232
 366	1.8250e-01	7.2882	42.563306	0.000525	5.250008	0.889375	0.020972
 367	1.8300e-01	7.3090	42.708498	0.000727	7.269241	1.231443	0.029038
 368	1.8350e-01	7.3291	42.781093	0.000363	3.634621	0.615721	0.014519
 369	1.8400e-01	7.3492	42.894020	0.000565	5.653854	0.957789	0.022585
 370	1.8450e-01	7.3688	43.027112	0.000666	6.663471	1.128823	0.026618
 371	1.8500e-01	7.3895	43.099708	0.000363	3.634621	0.615721	0.014519
 372	1.8550e-01	7.4084	43.200536	0.000505	5.048084	0.855169	0.020165
 373	1.8600e-01	7.4292	43.317496	0.000586	5.855778	0.991996	0.023392
 374	1.8650e-01	7.4481	43.373959	0.000283	2.826927	0.478894	0.011293
 375	1.8700e-01	7.4686	43.498985	0.000626	6.259625	1.060409	0.025005
 376	1.8750e-01	7.4890	43.595779	0.000485	4.846161	0.820962	0.019359
 377	1.8800e-01	7.5092	43.660309	0.000323	3.230774	0.547308	0.012906
 378	1.8850e-01	7.5287	43.793401	0.000666	6.663471	1.128823	0.026618
 379	1.8900e-01	7.5482	43.930527	0.000687	6.865395	1.163029	0.027425
 380	1.8950e-01	7.5696	43.978924	0.000242	2.423080	0.410481	0.009679
 381	1.9000e-01	7.5885	44.083784	0.000525	5.250008	0.889375	0.020972
 382	1.9050e-01	7.6086	44.188645	0.000525	5.250008	0.889375	0.020972
 383	1.9100e-01	7.6288	44.321737	0.000666	6.663471	1.128823	0.026618
 384	1.9150e-01	7.6489	44.454829	0.000666	6.663471	1.128823	0.026618
 385	1.9200e-01	7.6685	44.519359	0.000323	3.230774	0.547308	0.012906
 386	1.9250e-01	7.6898	44.616153	0.000485	4.846161	0.820962	0.019359
 387	1.9300e-01	7.7078	44.749246	0.000666	6.663471	1.128823	0.026618
 388	1.9350e-01	7.7290	44.809742	0.000303	3.028851	0.513101	0.012099
 389	1.9400e-01	7.7496	44.890404	0.000404	4.038467	0.684135	0.016132
 390	1.9450e-01	7.7682	45.039629	0.000747	7.471165	1.265650	0.029845
 391	1.9500e-01	7.7899	45.144489	0.000525	5.250008	0.889375	0.020972
 392	1.9550e-01	7.8082	45.241284	0.000485	4.846161	0.820962	0.019359
 393	1.9600e-01	7.8296	45.313879	0.000363	3.634621	0.615721	0.014519
 394	1.9650e-01	7.8491	45.491336	0.000888	8.884628	1.505097	0.035491
 395	1.9700e-01	7.8687	45.531667	0.000202	2.019234	0.342067	0.008066
 396	1.9750e-01	7.8888	45.612329	0.000404	4.038467	0.684135	0.016132
 397	1.9800e-01	7.9083	45.604262	-0.000040	-0.403847	-0.068413	-0.001613
 398	1.9850e-01	7.9282	45.914811	0.001555	15.548100	2.633919	0.062110
 399	1.9900e-01	7.9483	45.967241	0.000263	2.625004	0.444688	0.010486
 400	1.9950e-01	7.9688	46.019672	0.000263	2.625004	0.444688	0.010486
 401	2.0000e-01	7.9883	46.148731	0.000646	6.461548	1.094616	0.025812
 402	2.0050e-01	8.0078	46.225360	0.000384	3.836544	0.649928	0.015326
 403	2.0100e-01	8.0286	46.382650	0.000788	7.875011	1.334063	0.031458
 404	2.0150e-01	8.0490	46.443147	0.000303	3.028851	0.513101	0.012099
 405	2.0200e-01	8.0692	46.543974	0.000505	5.048084	0.855169	0.020165
 406	2.0250e-01	8.0884	46.701265	0.000788	7.875011	1.334063	0.031458
 407	2.0300e-01	8.1079	46.773861	0.000363	3.634621	0.615721	0.014519
 408	2.0350e-01	8.1287	46.870655	0.000485	4.846161	0.820962	0.019359
 409	2.0400e-01	8.1494	46.971483	0.000505	5.048084	0.855169	0.020165
 410	2.0450e-01	8.1683	47.056178	0.000424	4.240391	0.718342	0.016939
 411	2.0500e-01	8.1891	47.136840	0.000404	4.038467	0.684135	0.016132
 412	2.0550e-01	8.2092	47.298164	0.000808	8.076935	1.368270	0.032265
 413	2.0600e-01	8.2300	47.338495	0.000202	2.019234	0.342067	0.008066
 414	2.0650e-01	8.2489	47.499819	0.000808	8.076935	1.368270	0.032265
 415	2.0700e-01	8.2690	47.592580	0.000464	4.644238	0.786755	0.018552
 416	2.0750e-01	8.2892	47.649043	0.000283	2.826927	0.478894	0.011293
 417	2.0800e-01	8.3087	47.790202	0.000707	7.067318	1.197236	0.028232
 418	2.0850e-01	8.3289	47.846665	0.000283	2.826927	0.478894	0.011293
 419	2.0900e-01	8.3496	47.951526	0.000525	5.250008	0.889375	0.020972
 420	2.0950e-01	8.3687	48.060419	0.000545	5.451931	0.923582	0.021779
 421	2.1000e-01	8.3899	48.133015	0.000363	3.634621	0.615721	0.014519
 422	2.1050e-01	8.4094	48.258041	0.000626	6.259625	1.060409	0.025005
 423	2.1100e-01	8.4290	48.391134	0.000666	6.663471	1.128823	0.026618
 424	2.1150e-01	8.4491	48.479862	0.000444	4.442314	0.752548	0.017746
 425	2.1200e-01	8.4692	48.568590	0.000444	4.442314	0.752548	0.017746
 426	2.1250e-01	8.4891	48.701682	0.000666	6.663471	1.128823	0.026618
 427	2.1300e-01	8.5098	48.790410	0.000444	4.442314	0.752548	0.017746
 428	2.1350e-01	8.5297	48.830741	0.000202	2.019234	0.342067	0.008066
 429	2.1400e-01	8.5498	48.935602	0.000525	5.250008	0.889375	0.020972
 430	2.1450e-01	8.5693	49.040462	0.000525	5.250008	0.889375	0.020972
 431	2.1500e-01	8.5895	49.113058	0.000363	3.634621	0.615721	0.014519
 432	2.1550e-01	8.6090	49.230018	0.000586	5.855778	0.991996	0.023392
 433	2.1600e-01	8.6292	49.346978	0.000586	5.855778	0.991996	0.023392
 434	2.1650e-01	8.6487	49.431673	0.000424	4.240391	0.718342	0.016939
 435	2.1700e-01	8.6688	49.548633	0.000586	5.855778	0.991996	0.023392
 436	2.1750e-01	8.6890	49.701891	0.000767	7.673088	1.299856	0.030652
 437	2.1800e-01	8.7091	49.734155	0.000162	1.615387	0.273654	0.006453
 438	2.1850e-01	8.7292	49.790619	0.000283	2.826927	0.478894	0.011293
 439	2.1900e-01	8.7488	49.992274	0.001010	10.096169	1.710337	0.040331
 440	2.1950e-01	8.7695	50.028572	0.000182	1.817310	0.307861	0.007260
 441	2.2000e-01	8.7903	50.169730	0.000707	7.067318	1.197236	0.028232
 442	2.2050e-01	8.8098	50.193929	0.000121	1.211540	0.205240	0.004840
 443	2.2100e-01	8.8300	50.294756	0.000505	5.048084	0.855169	0.020165
 444	2.2150e-01	8.8489	50.395584	0.000505	5.048084	0.855169	0.020165
 445	2.2200e-01	8.8696	50.443981	0.000242	2.423080	0.410481	0.009679
 446	2.2250e-01	8.8889	50.585139	0.000707	7.067318	1.197236	0.028232
 447	2.2300e-01	8.9072	50.702099	0.000586	5.855778	0.991996	0.023392
 448	2.2350e-01	8.9288	50.802927	0.000505	5.048084	0.855169	0.020165
 449	2.2400e-01	8.9484	50.891655	0.000444	4.442314	0.752548	0.017746
 450	2.2450e-01	8.9685	50.960217	0.000343	3.432697	0.581515	0.013713
 451	2.2500e-01	8.9893	51.113475	0.000767	7.673088	1.299856	0.030652
 452	2.2550e-01	9.0082	51.182038	0.000343	3.432697	0.581515	0.013713
 453	2.2600e-01	9.0289	51.282865	0.000505	5.048084	0.855169	0.020165
 454	2.2650e-01	9.0469	51.274799	-0.000040	-0.403847	-0.068413	-0.001613
 455	2.2700e-01	9.0680	51.540984	0.001333	13.326943	2.257645	0.053237
 456	2.2750e-01	9.0887	51.577281	0.000182	1.817310	0.307861	0.007260
 457	2.2800e-01	9.1077	51.670043	0.000464	4.644238	0.786755	0.018552
 458	2.2850e-01	9.1296	51.718440	0.000242	2.423080	0.410481	0.009679
 459	2.2900e-01	9.1486	51.891863	0.000868	8.682705	1.470890	0.034685
 460	2.2950e-01	9.1693	51.984624	0.000464	4.644238	0.786755	0.018552
 461	2.3000e-01	9.1876	52.045121	0.000303	3.028851	0.513101	0.012099
 462	2.3050e-01	9.2090	52.145948	0.000505	5.048084	0.855169	0.020165
 463	2.3100e-01	9.2285	52.230643	0.000424	4.240391	0.718342	0.016939
 464	2.3150e-01	9.2493	52.383901	0.000767	7.673088	1.299856	0.030652
 465	2.3200e-01	9.2688	52.448431	0.000323	3.230774	0.547308	0.012906
 466	2.3250e-01	9.2886	52.553291	0.000525	5.250008	0.889375	0.020972
 467	2.3300e-01	9.3097	52.597655	0.000222	2.221157	0.376274	0.008873
 468	2.3350e-01	9.3292	52.726715	0.000646	6.461548	1.094616	0.025812
 469	2.3400e-01	9.3475	52.811410	0.000424	4.240391	0.718342	0.016939
 470	2.3450e-01	9.3689	52.896105	0.000424	4.240391	0.718342	0.016939
 471	2.3500e-01	9.3890	53.017098	0.000606	6.057701	1.026202	0.024199
 472	2.3550e-01	9.4089	53.130024	0.000565	5.653854	0.957789	0.022585
 473	2.3600e-01	9.4299	53.198587	0.000343	3.432697	0.581515	0.013713
 474	2.3650e-01	9.4489	53.319580	0.000606	6.057701	1.026202	0.024199
 475	2.3700e-01	9.4690	53.408308	0.000444	4.442314	0.752548	0.017746
 476	2.3750e-01	9.4885	53.509136	0.000505	5.048084	0.855169	0.020165
 477	2.3800e-01	9.5081	53.605930	0.000485	4.846161	0.820962	0.019359
 478	2.3850e-01	9.5291	53.674493	0.000343	3.432697	0.581515	0.013713
 479	2.3900e-01	9.5496	53.783386	0.000545	5.451931	0.923582	0.021779
 480	2.3950e-01	9.5694	53.880181	0.000485	4.846161	0.820962	0.019359
 481	2.4000e-01	9.5892	53.968909	0.000444	4.442314	0.752548	0.017746
 482	2.4050e-01	9.6094	54.065703	0.000485	4.846161	0.820962	0.019359
 483	2.4100e-01	9.6283	54.130233	0.000323	3.230774	0.547308	0.012906
 484	2.4150e-01	9.6492	54.227027	0.000485	4.846161	0.820962	0.019359
 485	2.4200e-01	9.6686	54.323822	0.000485	4.846161	0.820962	0.019359
 486	2.4250e-01	9.6893	54.392384	0.000343	3.432697	0.581515	0.013713
 487	2.4300e-01	9.7095	54.501278	0.000545	5.451931	0.923582	0.021779
 488	2.4350e-01	9.7302	54.634370	0.000666	6.663471	1.128823	0.026618
 489	2.4400e-01	9.7493	54.706966	0.000363	3.634621	0.615721	0.014519
 490	2.4450e-01	9.7693	54.827959	0.000606	6.057701	1.026202	0.024199
 491	2.4500e-01	9.7894	54.940886	0.000565	5.653854	0.957789	0.022585
 492	2.4550e-01	9.8083	55.013481	0.000363	3.634621	0.615721	0.014519
 493	2.4600e-01	9.8285	55.126408	0.000565	5.653854	0.957789	0.022585
 494	2.4650e-01	9.8488	55.215136	0.000444	4.442314	0.752548	0.017746
 495	2.4700e-01	9.8694	55.283699	0.000343	3.432697	0.581515	0.013713
 496	2.4750e-01	9.8895	55.420824	0.000687	6.865395	1.163029	0.027425
 497	2.4800e-01	9.9084	55.461155	0.000202	2.019234	0.342067	0.008066
 498	2.4850e-01	9.9274	55.525685	0.000323	3.230774	0.547308	0.012906
 499	2.4900e-01	9.9493	55.662810	0.000687	6.865395	1.163029	0.027425
 500	2.4950e-01	9.9683	55.747505	0.000424	4.240391	0.718342	0.016939
 501	2.5000e-01	9.9896	55.836234	0.000444	4.442314	0.752548	0.017746
 502	2.5050e-01	9.9847	55.799936	0.000182	1.817310	0.307861	-0.007260
 503	2.5100e-01	9.9695	55.808002	-0.000040	-0.403847	-0.068413	0.001613
 504	2.5150e-01	9.9506	55.799936	0.000040	0.403847	0.068413	-0.001613
 505	2.5200e-01	9.9316	55.791870	0.000040	0.403847	0.068413	-0.001613
 506	2.5250e-01	9.9121	55.731373	0.000303	3.028851	0.513101	-0.012099
 507	2.5300e-01	9.8914	55.695075	0.000182	1.817310	0.307861	-0.007260
 508	2.5350e-01	9.8718	55.703141	-0.000040	-0.403847	-0.068413	0.001613
 509	2.5400e-01	9.8517	55.646678	0.000283	2.826927	0.478894	-0.011293
 510	2.5450e-01	9.8315	55.586181	0.000303	3.028851	0.513101	-0.012099
 511	2.5500e-01	9.8148	55.662810	-0.000384	-3.836544	-0.649928	0.015326
 512	2.5550e-01	9.7919	55.590215	0.000363	3.634621	0.615721	-0.014519
 513	2.5600e-01	9.7711	55.493420	0.000485	4.846161	0.820962	-0.019359
 514	2.5650e-01	9.7504	55.533751	-0.000202	-2.019234	-0.342067	0.008066
 515	2.5700e-01	9.7314	55.457122	0.000384	3.836544	0.649928	-0.015326
 516	2.5750e-01	9.7113	55.408725	0.000242	2.423080	0.410481	-0.009679
 517	2.5800e-01	9.6918	55.372427	0.000182	1.817310	0.307861	-0.007260
 518	2.5850e-01	9.6692	55.311931	0.000303	3.028851	0.513101	-0.012099
 519	2.5900e-01	9.6515	55.328063	-0.000081	-0.807693	-0.136827	0.003226
 520	2.5950e-01	9.6307	55.243368	0.000424	4.240391	0.718342	-0.016939
 521	2.6000e-01	9.6115	55.235302	0.000040	0.403847	0.068413	-0.001613
 522	2.6050e-01	9.5911	55.182872	0.000263	2.625004	0.444688	-0.010486
 523	2.6100e-01	9.5709	55.130441	0.000263	2.625004	0.444688	-0.010486
 524	2.6150e-01	9.5508	55.094143	0.000182	1.817310	0.307861	-0.007260
 525	2.6200e-01	9.5316	54.989283	0.000525	5.250008	0.889375	-0.020972
 526	2.6250e-01	9.5105	55.009448	-0.000101	-1.009617	-0.171034	0.004033
 527	2.6300e-01	9.4916	54.928786	0.000404	4.038467	0.684135	-0.016132
 528	2.6350e-01	9.4705	54.888455	0.000202	2.019234	0.342067	-0.008066
 529	2.6400e-01	9.4507	54.844091	0.000222	2.221157	0.376274	-0.008873
 530	2.6450e-01	9.4299	54.783595	0.000303	3.028851	0.513101	-0.012099
 531	2.6500e-01	9.4110	54.799727	-0.000081	-0.807693	-0.136827	0.003226
 532	2.6550e-01	9.3909	54.755363	0.000222	2.221157	0.376274	-0.008873
 533	2.6600e-01	9.3704	54.682767	0.000363	3.634621	0.615721	-0.014519
 534	2.6650e-01	9.3503	54.614205	0.000343	3.432697	0.581515	-0.013713
 535	2.6700e-01	9.3311	54.561774	0.000263	2.625004	0.444688	-0.010486
 536	2.6750e-01	9.3109	54.533543	0.000141	1.413464	0.239447	-0.005646
 537	2.6800e-01	9.2914	54.424649	0.000545	5.451931	0.923582	-0.021779
 538	2.6850e-01	9.2712	54.473046	-0.000242	-2.423080	-0.410481	0.009679
 539	2.6900e-01	9.2511	54.384318	0.000444	4.442314	0.752548	-0.017746
 540	2.6950e-01	9.2303	54.267358	0.000586	5.855778	0.991996	-0.023392
 541	2.7000e-01	9.2102	54.251226	0.000081	0.807693	0.136827	-0.003226
 542	2.7050e-01	9.1913	54.267358	-0.000081	-0.807693	-0.136827	0.003226
 543	2.7100e-01	9.1718	54.186696	0.000404	4.038467	0.684135	-0.016132
 544	2.7150e-01	9.1504	54.154431	0.000162	1.615387	0.273654	-0.006453
 545	2.7200e-01	9.1312	54.106034	0.000242	2.423080	0.410481	-0.009679
 546	2.7250e-01	9.1113	54.025372	0.000404	4.038467	0.684135	-0.016132
 547	2.7300e-01	9.0912	53.989074	0.000182	1.817310	0.307861	-0.007260
 548	2.7350e-01	9.0710	53.916479	0.000363	3.634621	0.615721	-0.014519
 549	2.7400e-01	9.0511	53.884214	0.000162	1.615387	0.273654	-0.006453
 550	2.7450e-01	9.0308	53.819684	0.000323	3.230774	0.547308	-0.012906
 551	2.7500e-01	9.0118	53.751122	0.000343	3.432697	0.581515	-0.013713
 552	2.7550e-01	8.9912	53.714824	0.000182	1.817310	0.307861	-0.007260
 553	2.7600e-01	8.9709	53.678526	0.000182	1.817310	0.307861	-0.007260
 554	2.7650e-01	8.9520	53.605930	0.000363	3.634621	0.615721	-0.014519
 555	2.7700e-01	8.9307	53.493003	0.000565	5.653854	0.957789	-0.022585
 556	2.7750e-01	8.9111	53.501070	-0.000040	-0.403847	-0.068413	0.001613
 557	2.7800e-01	8.8922	53.404275	0.000485	4.846161	0.820962	-0.019359
 558	2.7850e-01	8.8710	53.372010	0.000162	1.615387	0.273654	-0.006453
 559	2.7900e-01	8.8519	53.335712	0.000182	1.817310	0.307861	-0.007260
 560	2.7950e-01	8.8306	53.279249	0.000283	2.826927	0.478894	-0.011293
 561	2.8000e-01	8.8116	53.238918	0.000202	2.019234	0.342067	-0.008066
 562	2.8050e-01	8.7921	53.194554	0.000222	2.221157	0.376274	-0.008873
 563	2.8100e-01	8.7714	53.057429	0.000687	6.865395	1.163029	-0.027425
 564	2.8150e-01	8.7512	53.061462	-0.000020	-0.201923	-0.034207	0.000807
 565	2.8200e-01	8.7317	52.952568	0.000545	5.451931	0.923582	-0.021779
 566	2.8250e-01	8.7109	52.928370	0.000121	1.211540	0.205240	-0.004840
 567	2.8300e-01	8.6914	52.871906	0.000283	2.826927	0.478894	-0.011293
 568	2.8350e-01	8.6694	52.831575	0.000202	2.019234	0.342067	-0.008066
 569	2.8400e-01	8.6514	52.767046	0.000323	3.230774	0.547308	-0.012906
 570	2.8450e-01	8.6316	52.686384	0.000404	4.038467	0.684135	-0.016132
 571	2.8500e-01	8.6127	52.670251	0.000081	0.807693	0.136827	-0.003226
 572	2.8550e-01	8.5916	52.621854	0.000242	2.423080	0.410481	-0.009679
 573	2.8600e-01	8.5724	52.537159	0.000424	4.240391	0.718342	-0.016939
 574	2.8650e-01	8.5516	52.472629	0.000323	3.230774	0.547308	-0.012906
 575	2.8700e-01	8.5333	52.444398	0.000141	1.413464	0.239447	-0.005646
 576	2.8750e-01	8.5110	52.359703	0.000424	4.240391	0.718342	-0.016939
 577	2.8800e-01	8.4915	52.299206	0.000303	3.028851	0.513101	-0.012099
 578	2.8850e-01	8.4723	52.202412	0.000485	4.846161	0.820962	-0.019359
 579	2.8900e-01	8.4515	52.085452	0.000586	5.855778	0.991996	-0.023392
 580	2.8950e-01	8.4320	52.093518	-0.000040	-0.403847	-0.068413	0.001613
 581	2.9000e-01	8.4120	52.020922	0.000363	3.634621	0.615721	-0.014519
 582	2.9050e-01	8.3917	51.956393	0.000323	3.230774	0.547308	-0.012906
 583	2.9100e-01	8.3713	51.960426	-0.000020	-0.201923	-0.034207	0.000807
 584	2.9150e-01	8.3508	51.875731	0.000424	4.240391	0.718342	-0.016939
 585	2.9200e-01	8.3325	51.811201	0.000323	3.230774	0.547308	-0.012906
 586	2.9250e-01	8.3105	51.819267	-0.000040	-0.403847	-0.068413	0.001613
 587	2.9300e-01	8.2916	51.653910	0.000828	8.278858	1.402477	-0.033071
 588	2.9350e-01	8.2709	51.605513	0.000242	2.423080	0.410481	-0.009679
 589	2.9400e-01	8.2523	51.585348	0.000101	1.009617	0.171034	-0.004033
 590	2.9450e-01	8.2312	51.500653	0.000424	4.240391	0.718342	-0.016939
 591	2.9500e-01	8.2126	51.411924	0.000444	4.442314	0.752548	-0.017746
 592	2.9550e-01	8.1927	51.359494	0.000263	2.625004	0.444688	-0.010486
 593	2.9600e-01	8.1720	51.307064	0.000263	2.625004	0.444688	-0.010486
 594	2.9650e-01	8.1519	51.222369	0.000424	4.240391	0.718342	-0.016939
 595	2.9700e-01	8.1323	51.210270	0.000061	0.605770	0.102620	-0.002420
 596	2.9750e-01	8.1116	51.121541	0.000444	4.442314	0.752548	-0.017746
 597	2.9800e-01	8.0920	51.093310	0.000141	1.413464	0.239447	-0.005646
 598	2.9850e-01	8.0713	51.052979	0.000202	2.019234	0.342067	-0.008066
 599	2.9900e-01	8.0515	50.968284	0.000424	4.240391	0.718342	-0.016939
 600	2.9950e-01	8.0316	50.899721	0.000343	3.432697	0.581515	-0.013713
 601	3.0000e-01	8.0112	50.819059	0.000404	4.038467	0.684135	-0.016132
 602	3.0050e-01	7.9919	50.782761	0.000182	1.817310	0.307861	-0.007260
 603	3.0100e-01	7.9712	50.597239	0.000929	9.288475	1.573510	-0.037105
 604	3.0150e-01	7.9517	50.625470	-0.000141	-1.413464	-0.239447	0.005646
 605	3.0200e-01	7.9309	50.536742	0.000444	4.442314	0.752548	-0.017746
 606	3.0250e-01	7.9120	50.512543	0.000121	1.211540	0.205240	-0.004840
 607	3.0300e-01	7.8912	50.435915	0.000384	3.836544	0.649928	-0.015326
 608	3.0350e-01	7.8714	50.403650	0.000162	1.615387	0.273654	-0.006453
 609	3.0400e-01	7.8513	50.322988	0.000404	4.038467	0.684135	-0.016132
 610	3.0450e-01	7.8314	50.226193	0.000485	4.846161	0.820962	-0.019359
 611	3.0500e-01	7.8116	50.173763	0.000263	2.625004	0.444688	-0.010486
 612	3.0550e-01	7.7919	50.072936	0.000505	5.048084	0.855169	-0.020165
 613	3.0600e-01	7.7722	50.008406	0.000323	3.230774	0.547308	-0.012906
 614	3.0650e-01	7.7512	49.968075	0.000202	2.019234	0.342067	-0.008066
 615	3.0700e-01	7.7319	49.839016	0.000646	6.461548	1.094616	-0.025812
 616	3.0750e-01	7.7124	49.818850	0.000101	1.009617	0.171034	-0.004033
 617	3.0800e-01	7.6913	49.778519	0.000202	2.019234	0.342067	-0.008066
 618	3.0850e-01	7.6715	49.762387	0.000081	0.807693	0.136827	-0.003226
 619	3.0900e-01	7.6508	49.641394	0.000606	6.057701	1.026202	-0.024199
 620	3.0950e-01	7.6318	49.580898	0.000303	3.028851	0.513101	-0.012099
 621	3.1000e-01	7.6123	49.427640	0.000767	7.673088	1.299856	-0.030652
 622	3.1050e-01	7.5911	49.435706	-0.000040	-0.403847	-0.068413	0.001613
 623	3.1100e-01	7.5702	49.375210	0.000303	3.028851	0.513101	-0.012099
 624	3.1150e-01	7.5507	49.326812	0.000242	2.423080	0.410481	-0.009679
 625	3.1200e-01	7.5319	49.298581	0.000141	1.413464	0.239447	-0.005646
 626	3.1250e-01	7.5110	49.109025	0.000949	9.490398	1.607717	-0.037911
 627	3.1300e-01	7.4927	49.104992	0.000020	0.201923	0.034207	-0.000807
 628	3.1350e-01	7.4719	49.052562	0.000263	2.625004	0.444688	-0.010486
 629	3.1400e-01	7.4512	49.004165	0.000242	2.423080	0.410481	-0.009679
 630	3.1450e-01	7.4323	48.875105	0.000646	6.461548	1.094616	-0.025812
 631	3.1500e-01	7.4121	48.806543	0.000343	3.432697	0.581515	-0.013713
 632	3.1550e-01	7.3938	48.923503	-0.000586	-5.855778	-0.991996	0.023392
 633	3.1600e-01	7.3730	48.725881	0.000989	9.894245	1.676131	-0.039524
 634	3.1650e-01	7.3523	48.637153	0.000444	4.442314	0.752548	-0.017746
 635	3.1700e-01	7.3328	48.576656	0.000303	3.028851	0.513101	-0.012099
 636	3.1750e-01	7.3120	48.495994	0.000404	4.038467	0.684135	-0.016132
 637	3.1800e-01	7.2919	48.431465	0.000323	3.230774	0.547308	-0.012906
 638	3.1850e-01	7.2717	48.334670	0.000485	4.846161	0.820962	-0.019359
 639	3.1900e-01	7.2516	48.302405	0.000162	1.615387	0.273654	-0.006453
 640	3.1950e-01	7.2321	48.173346	0.000646	6.461548	1.094616	-0.025812
 641	3.2000e-01	7.2128	48.068486	0.000525	5.250008	0.889375	-0.020972
 642	3.2050e-01	7.1918	48.064453	0.000020	0.201923	0.034207	-0.000807
 643	3.2100e-01	7.1710	47.955559	0.000545	5.451931	0.923582	-0.021779
 644	3.2150e-01	7.1515	47.874897	0.000404	4.038467	0.684135	-0.016132
 645	3.2200e-01	7.1320	47.826500	0.000242	2.423080	0.410481	-0.009679
 646	3.2250e-01	7.1118	47.745838	0.000404	4.038467	0.684135	-0.016132
 647	3.2300e-01	7.0911	47.665176	0.000404	4.038467	0.684135	-0.016132
 648	3.2350e-01	7.0709	47.608712	0.000283	2.826927	0.478894	-0.011293
 649	3.2400e-01	7.0520	47.544183	0.000323	3.230774	0.547308	-0.012906
 650	3.2450e-01	7.0313	47.447389	0.000485	4.846161	0.820962	-0.019359
 651	3.2500e-01	7.0111	47.447389	-0.000000	-0.000000	-0.000000	0.000000
 652	3.2550e-01	6.9916	47.350594	0.000485	4.846161	0.820962	-0.019359
 653	3.2600e-01	6.9714	47.233634	0.000586	5.855778	0.991996	-0.023392
 654	3.2650e-01	6.9513	47.193303	0.000202	2.019234	0.342067	-0.008066
 655	3.2700e-01	6.9312	47.152972	0.000202	2.019234	0.342067	-0.008066
 656	3.2750e-01	6.9116	47.019880	0.000666	6.663471	1.128823	-0.026618
 657	3.2800e-01	6.8915	46.959384	0.000303	3.028851	0.513101	-0.012099
 658	3.2850e-01	6.8719	46.886788	0.000363	3.634621	0.615721	-0.014519
 659	3.2900e-01	6.8518	46.846457	0.000202	2.019234	0.342067	-0.008066
 660	3.2950e-01	6.8320	46.785960	0.000303	3.028851	0.513101	-0.012099
 661	3.3000e-01	6.8118	46.697232	0.000444	4.442314	0.752548	-0.017746
 662	3.3050e-01	6.7914	46.620603	0.000384	3.836544	0.649928	-0.015326
 663	3.3100e-01	6.7719	46.475412	0.000727	7.269241	1.231443	-0.029038
 664	3.3150e-01	6.7517	46.511710	-0.000182	-1.817310	-0.307861	0.007260
 665	3.3200e-01	6.7328	46.378617	0.000666	6.663471	1.128823	-0.026618
 666	3.3250e-01	6.7120	46.366518	0.000061	0.605770	0.102620	-0.002420
 667	3.3300e-01	6.6925	46.249558	0.000586	5.855778	0.991996	-0.023392
 668	3.3350e-01	6.6718	46.128565	0.000606	6.057701	1.026202	-0.024199
 669	3.3400e-01	6.6513	46.088234	0.000202	2.019234	0.342067	-0.008066
 670	3.3450e-01	6.6309	45.999506	0.000444	4.442314	0.752548	-0.017746
 671	3.3500e-01	6.6119	45.910778	0.000444	4.442314	0.752548	-0.017746
 672	3.3550e-01	6.5918	45.870447	0.000202	2.019234	0.342067	-0.008066
 673	3.3600e-01	6.5717	45.818017	0.000263	2.625004	0.444688	-0.010486
 674	3.3650e-01	6.5515	45.745421	0.000363	3.634621	0.615721	-0.014519
 675	3.3700e-01	6.5308	45.612329	0.000666	6.663471	1.128823	-0.026618
 676	3.3750e-01	6.5115	45.571998	0.000202	2.019234	0.342067	-0.008066
 677	3.3800e-01	6.4911	45.495369	0.000384	3.836544	0.649928	-0.015326
 678	3.3850e-01	6.4722	45.366310	0.000646	6.461548	1.094616	-0.025812
 679	3.3900e-01	6.4511	45.317912	0.000242	2.423080	0.410481	-0.009679
 680	3.3950e-01	6.4319	45.253383	0.000323	3.230774	0.547308	-0.012906
 681	3.4000e-01	6.4117	45.160622	0.000464	4.644238	0.786755	-0.018552
 682	3.4050e-01	6.3916	45.180787	-0.000101	-1.009617	-0.171034	0.004033
 683	3.4100e-01	6.3708	45.035596	0.000727	7.269241	1.231443	-0.029038
 684	3.4150e-01	6.3519	44.963000	0.000363	3.634621	0.615721	-0.014519
 685	3.4200e-01	6.3315	44.866205	0.000485	4.846161	0.820962	-0.019359
 686	3.4250e-01	6.3112	44.850073	0.000081	0.807693	0.136827	-0.003226
 687	3.4300e-01	6.2921	44.712948	0.000687	6.865395	1.163029	-0.027425
 688	3.4350e-01	6.2717	44.656484	0.000283	2.826927	0.478894	-0.011293
 689	3.4400e-01	6.2512	44.495160	0.000808	8.076935	1.368270	-0.032265
 690	3.4450e-01	6.2320	44.450796	0.000222	2.221157	0.376274	-0.008873
 691	3.4500e-01	6.2117	44.398366	0.000263	2.625004	0.444688	-0.010486
 692	3.4550e-01	6.1920	44.321737	0.000384	3.836544	0.649928	-0.015326
 693	3.4600e-01	6.1719	44.212843	0.000545	5.451931	0.923582	-0.021779
 694	3.4650e-01	6.1517	44.148314	0.000323	3.230774	0.547308	-0.012906
 695	3.4700e-01	6.1316	44.112016	0.000182	1.817310	0.307861	-0.007260
 696	3.4750e-01	6.1116	43.970858	0.000707	7.067318	1.197236	-0.028232
 697	3.4800e-01	6.0931	43.966824	0.000020	0.201923	0.034207	-0.000807
 698	3.4850e-01	6.0736	43.874063	0.000464	4.644238	0.786755	-0.018552
 699	3.4900e-01	6.0526	43.777269	0.000485	4.846161	0.820962	-0.019359
 700	3.4950e-01	6.0327	43.708706	0.000343	3.432697	0.581515	-0.013713
 701	3.5000e-01	6.0120	43.599812	0.000545	5.451931	0.923582	-0.021779
 702	3.5050e-01	5.9914	43.672408	-0.000363	-3.634621	-0.615721	0.014519
 703	3.5100e-01	5.9723	43.434455	0.001191	11.913479	2.018198	-0.047591
 704	3.5150e-01	5.9509	43.394124	0.000202	2.019234	0.342067	-0.008066
 705	3.5200e-01	5.9329	43.256999	0.000687	6.865395	1.163029	-0.027425
 706	3.5250e-01	5.9125	43.188436	0.000343	3.432697	0.581515	-0.013713
 707	3.5300e-01	5.8923	43.123907	0.000323	3.230774	0.547308	-0.012906
 708	3.5350e-01	5.8722	42.990815	0.000666	6.663471	1.128823	-0.026618
 709	3.5400e-01	5.8521	43.091642	-0.000505	-5.048084	-0.855169	0.020165
 710	3.5450e-01	5.8316	42.869822	0.001111	11.105785	1.881371	-0.044364
 711	3.5500e-01	5.8121	42.809325	0.000303	3.028851	0.513101	-0.012099
 712	3.5550e-01	5.7922	42.716564	0.000464	4.644238	0.786755	-0.018552
 713	3.5600e-01	5.7721	42.672200	0.000222	2.221157	0.376274	-0.008873
 714	3.5650e-01	5.7513	42.595571	0.000384	3.836544	0.649928	-0.015326
 715	3.5700e-01	5.7303	42.498777	0.000485	4.846161	0.820962	-0.019359
 716	3.5750e-01	5.7117	42.337453	0.000808	8.076935	1.368270	-0.032265
 717	3.5800e-01	5.6927	42.301155	0.000182	1.817310	0.307861	-0.007260
 718	3.5850e-01	5.6705	42.236625	0.000323	3.230774	0.547308	-0.012906
 719	3.5900e-01	5.6519	42.095467	0.000707	7.067318	1.197236	-0.028232
 720	3.5950e-01	5.6317	42.026904	0.000343	3.432697	0.581515	-0.013713
 721	3.6000e-01	5.6119	41.990606	0.000182	1.817310	0.307861	-0.007260
 722	3.6050e-01	5.5923	41.913977	0.000384	3.836544	0.649928	-0.015326
 723	3.6100e-01	5.5722	41.833315	0.000404	4.038467	0.684135	-0.016132
 724	3.6150e-01	5.5518	41.724422	0.000545	5.451931	0.923582	-0.021779
 725	3.6200e-01	5.5316	41.631660	0.000464	4.644238	0.786755	-0.018552
 726	3.6250e-01	5.5118	41.575197	0.000283	2.826927	0.478894	-0.011293
 727	3.6300e-01	5.4919	41.510667	0.000323	3.230774	0.547308	-0.012906
 728	3.6350e-01	5.4721	41.430005	0.000404	4.038467	0.684135	-0.016132
 729	3.6400e-01	5.4523	41.304979	0.000626	6.259625	1.060409	-0.025005
 730	3.6450e-01	5.4315	41.220284	0.000424	4.240391	0.718342	-0.016939
 731	3.6500e-01	5.4114	41.123490	0.000485	4.846161	0.820962	-0.019359
 732	3.6550e-01	5.3925	41.030729	0.000464	4.644238	0.786755	-0.018552
 733	3.6600e-01	5.3717	40.974265	0.000283	2.826927	0.478894	-0.011293
 734	3.6650e-01	5.3522	40.861338	0.000565	5.653854	0.957789	-0.022585
 735	3.6700e-01	5.3323	40.784710	0.000384	3.836544	0.649928	-0.015326
 736	3.6750e-01	5.3114	40.667750	0.000586	5.855778	0.991996	-0.023392
 737	3.6800e-01	5.2914	40.619353	0.000242	2.423080	0.410481	-0.009679
 738	3.6850e-01	5.2716	40.530624	0.000444	4.442314	0.752548	-0.017746
 739	3.6900e-01	5.2502	40.490293	0.000202	2.019234	0.342067	-0.008066
 740	3.6950e-01	5.2319	40.393499	0.000485	4.846161	0.820962	-0.019359
 741	3.7000e-01	5.2124	40.284605	0.000545	5.451931	0.923582	-0.021779
 742	3.7050e-01	5.1917	40.175712	0.000545	5.451931	0.923582	-0.021779
 743	3.7100e-01	5.1721	40.107149	0.000343	3.432697	0.581515	-0.013713
 744	3.7150e-01	5.1520	40.050686	0.000283	2.826927	0.478894	-0.011293
 745	3.7200e-01	5.1318	39.905494	0.000727	7.269241	1.231443	-0.029038
 746	3.7250e-01	5.1123	39.873229	0.000162	1.615387	0.273654	-0.006453
 747	3.7300e-01	5.0912	39.748203	0.000626	6.259625	1.060409	-0.025005
 748	3.7350e-01	5.0711	39.687707	0.000303	3.028851	0.513101	-0.012099
 749	3.7400e-01	5.0507	39.603012	0.000424	4.240391	0.718342	-0.016939
 750	3.7450e-01	5.0323	39.538482	0.000323	3.230774	0.547308	-0.012906
 751	3.7500e-01	5.0128	39.401357	0.000687	6.865395	1.163029	-0.027425
 752	3.7550e-01	4.9916	39.369092	0.000162	1.615387	0.273654	-0.006453
 753	3.7600e-01	4.9725	39.215834	0.000767	7.673088	1.299856	-0.030652
 754	3.7650e-01	4.9519	39.135172	0.000404	4.038467	0.684135	-0.016132
 755	3.7700e-01	4.9316	39.078709	0.000283	2.826927	0.478894	-0.011293
 756	3.7750e-01	4.9117	38.961749	0.000586	5.855778	0.991996	-0.023392
 757	3.7800e-01	4.8917	38.836723	0.000626	6.259625	1.060409	-0.025005
 758	3.7850e-01	4.8718	38.756061	0.000404	4.038467	0.684135	-0.016132
 759	3.7900e-01	4.8514	38.679432	0.000384	3.836544	0.649928	-0.015326
 760	3.7950e-01	4.8320	38.618936	0.000303	3.028851	0.513101	-0.012099
 761	3.8000e-01	4.8123	38.546340	0.000363	3.634621	0.615721	-0.014519
 762	3.8050e-01	4.7928	38.437446	0.000545	5.451931	0.923582	-0.021779
 763	3.8100e-01	4.7717	38.300321	0.000687	6.865395	1.163029	-0.027425
 764	3.8150e-01	4.7516	38.239824	0.000303	3.028851	0.513101	-0.012099
 765	3.8200e-01	4.7319	38.163196	0.000384	3.836544	0.649928	-0.015326
 766	3.8250e-01	4.7116	38.054302	0.000545	5.451931	0.923582	-0.021779
 767	3.8300e-01	4.6918	37.993805	0.000303	3.028851	0.513101	-0.012099
 768	3.8350e-01	4.6717	37.909110	0.000424	4.240391	0.718342	-0.016939
 769	3.8400e-01	4.6509	37.808283	0.000505	5.048084	0.855169	-0.020165
 770	3.8450e-01	4.6310	37.719555	0.000444	4.442314	0.752548	-0.017746
 771	3.8500e-01	4.6115	37.610661	0.000545	5.451931	0.923582	-0.021779
 772	3.8550e-01	4.5911	37.529999	0.000404	4.038467	0.684135	-0.016132
 773	3.8600e-01	4.5721	37.441271	0.000444	4.442314	0.752548	-0.017746
 774	3.8650e-01	4.5508	37.360609	0.000404	4.038467	0.684135	-0.016132
 775	3.8700e-01	4.5315	37.275914	0.000424	4.240391	0.718342	-0.016939
 776	3.8750e-01	4.5105	37.167020	0.000545	5.451931	0.923582	-0.021779
 777	3.8800e-01	4.4916	37.041994	0.000626	6.259625	1.060409	-0.025005
 778	3.8850e-01	4.4708	36.916968	0.000626	6.259625	1.060409	-0.025005
 779	3.8900e-01	4.4504	36.888736	0.000141	1.413464	0.239447	-0.005646
 780	3.8950e-01	4.4312	36.800008	0.000444	4.442314	0.752548	-0.017746
 781	3.9000e-01	4.4113	36.662883	0.000687	6.865395	1.163029	-0.027425
 782	3.9050e-01	4.3915	36.610453	0.000263	2.625004	0.444688	-0.010486
 783	3.9100e-01	4.3718	36.481393	0.000646	6.461548	1.094616	-0.025812
 784	3.9150e-01	4.3524	36.445096	0.000182	1.817310	0.307861	-0.007260
 785	3.9200e-01	4.3311	36.320069	0.000626	6.259625	1.060409	-0.025005
 786	3.9250e-01	4.3104	36.287805	0.000162	1.615387	0.273654	-0.006453
 787	3.9300e-01	4.2911	36.142613	0.000727	7.269241	1.231443	-0.029038
 788	3.9350e-01	4.2715	36.017587	0.000626	6.259625	1.060409	-0.025005
 789	3.9400e-01	4.2508	35.940958	0.000384	3.836544	0.649928	-0.015326
 790	3.9450e-01	4.2319	35.852230	0.000444	4.442314	0.752548	-0.017746
 791	3.9500e-01	4.2108	35.787700	0.000323	3.230774	0.547308	-0.012906
 792	3.9550e-01	4.1919	35.690906	0.000485	4.846161	0.820962	-0.019359
 793	3.9600e-01	4.1714	35.557814	0.000666	6.663471	1.128823	-0.026618
 794	3.9650e-01	4.1507	35.461019	0.000485	4.846161	0.820962	-0.019359
 795	3.9700e-01	4.1315	35.420688	0.000202	2.019234	0.342067	-0.008066
 796	3.9750e-01	4.1120	35.295662	0.000626	6.259625	1.060409	-0.025005
 797	3.9800e-01	4.0904	35.210967	0.000424	4.240391	0.718342	-0.016939
 798	3.9850e-01	4.0710	35.069809	0.000707	7.067318	1.197236	-0.028232
 799	3.9900e-01	4.0518	34.960915	0.000545	5.451931	0.923582	-0.021779
 800	3.9950e-01	4.0308	34.932684	0.000141	1.413464	0.239447	-0.005646
 801	4.0000e-01	4.0119	34.819757	0.000565	5.653854	0.957789	-0.022585
 802	4.0050e-01	3.9906	34.726996	0.000464	4.644238	0.786755	-0.018552
 803	4.0100e-01	3.9700	34.573738	0.000767	7.673088	1.299856	-0.030652
 804	4.0150e-01	3.9517	34.553572	0.000101	1.009617	0.171034	-0.004033
 805	4.0200e-01	3.9316	34.464844	0.000444	4.442314	0.752548	-0.017746
 806	4.0250e-01	3.9111	34.335785	0.000646	6.461548	1.094616	-0.025812
 807	4.0300e-01	3.8898	34.198660	0.000687	6.865395	1.163029	-0.027425
 808	4.0350e-01	3.8706	34.142196	0.000283	2.826927	0.478894	-0.011293
 809	4.0400e-01	3.8510	34.029269	0.000565	5.653854	0.957789	-0.022585
 810	4.0450e-01	3.8318	33.940541	0.000444	4.442314	0.752548	-0.017746
 811	4.0500e-01	3.8098	33.831648	0.000545	5.451931	0.923582	-0.021779
 812	4.0550e-01	3.7894	33.738886	0.000464	4.644238	0.786755	-0.018552
 813	4.0600e-01	3.7704	33.634026	0.000525	5.250008	0.889375	-0.020972
 814	4.0650e-01	3.7511	33.500934	0.000666	6.663471	1.128823	-0.026618
 815	4.0700e-01	3.7315	33.444470	0.000283	2.826927	0.478894	-0.011293
 816	4.0750e-01	3.7109	33.355742	0.000444	4.442314	0.752548	-0.017746
 817	4.0800e-01	3.6920	33.254915	0.000505	5.048084	0.855169	-0.020165
 818	4.0850e-01	3.6713	33.146021	0.000545	5.451931	0.923582	-0.021779
 819	4.0900e-01	3.6511	33.033094	0.000565	5.653854	0.957789	-0.022585
 820	4.0950e-01	3.6310	32.956465	0.000384	3.836544	0.649928	-0.015326
 821	4.1000e-01	3.6115	32.867737	0.000444	4.442314	0.752548	-0.017746
 822	4.1050e-01	3.5913	32.791108	0.000384	3.836544	0.649928	-0.015326
 823	4.1100e-01	3.5710	32.670115	0.000606	6.057701	1.026202	-0.024199
 824	4.1150e-01	3.5517	32.541056	0.000646	6.461548	1.094616	-0.025812
 825	4.1200e-01	3.5316	32.468460	0.000363	3.634621	0.615721	-0.014519
 826	4.1250e-01	3.5104	32.331335	0.000687	6.865395	1.163029	-0.027425
 827	4.1300e-01	3.4908	32.311169	0.000101	1.009617	0.171034	-0.004033
 828	4.1350e-01	3.4714	32.133713	0.000888	8.884628	1.505097	-0.035491
 829	4.1400e-01	3.4515	32.032886	0.000505	5.048084	0.855169	-0.020165
 830	4.1450e-01	3.4315	31.964323	0.000343	3.432697	0.581515	-0.013713
 831	4.1500e-01	3.4122	31.867529	0.000485	4.846161	0.820962	-0.019359
 832	4.1550e-01	3.3914	31.807032	0.000303	3.028851	0.513101	-0.012099
 833	4.1600e-01	3.3713	31.665874	0.000707	7.067318	1.197236	-0.028232
 834	4.1650e-01	3.3509	31.552947	0.000565	5.653854	0.957789	-0.022585
 835	4.1700e-01	3.3316	31.435987	0.000586	5.855778	0.991996	-0.023392
 836	4.1750e-01	3.3106	31.359358	0.000384	3.836544	0.649928	-0.015326
 837	4.1800e-01	3.2917	31.246431	0.000565	5.653854	0.957789	-0.022585
 838	4.1850e-01	3.2713	31.105273	0.000707	7.067318	1.197236	-0.028232
 839	4.1900e-01	3.2511	31.068975	0.000182	1.817310	0.307861	-0.007260
 840	4.1950e-01	3.2314	30.927817	0.000707	7.067318	1.197236	-0.028232
 841	4.2000e-01	3.2117	30.843122	0.000424	4.240391	0.718342	-0.016939
 842	4.2050e-01	3.1914	30.730195	0.000565	5.653854	0.957789	-0.022585
 843	4.2100e-01	3.1717	30.633400	0.000485	4.846161	0.820962	-0.019359
 844	4.2150e-01	3.1500	30.508374	0.000626	6.259625	1.060409	-0.025005
 845	4.2200e-01	3.1311	30.520474	-0.000061	-0.605770	-0.102620	0.002420
 846	4.2250e-01	3.1110	30.351084	0.000848	8.480782	1.436683	-0.033878
 847	4.2300e-01	3.0917	30.242190	0.000545	5.451931	0.923582	-0.021779
 848	4.2350e-01	3.0711	30.121197	0.000606	6.057701	1.026202	-0.024199
 849	4.2400e-01	3.0524	30.020369	0.000505	5.048084	0.855169	-0.020165
 850	4.2450e-01	3.0316	29.923575	0.000485	4.846161	0.820962	-0.019359
 851	4.2500e-01	3.0109	29.782417	0.000707	7.067318	1.197236	-0.028232
 852	4.2550e-01	2.9912	29.709821	0.000363	3.634621	0.615721	-0.014519
 853	4.2600e-01	2.9724	29.653357	0.000283	2.826927	0.478894	-0.011293
 854	4.2650e-01	2.9517	29.483967	0.000848	8.480782	1.436683	-0.033878
 855	4.2700e-01	2.9312	29.447669	0.000182	1.817310	0.307861	-0.007260
 856	4.2750e-01	2.9120	29.262147	0.000929	9.288475	1.573510	-0.037105
 857	4.2800e-01	2.8915	29.201650	0.000303	3.028851	0.513101	-0.012099
 858	4.2850e-01	2.8711	29.120988	0.000404	4.038467	0.684135	-0.016132
 859	4.2900e-01	2.8511	28.999995	0.000606	6.057701	1.026202	-0.024199
 860	4.2950e-01	2.8305	28.899168	0.000505	5.048084	0.855169	-0.020165
 861	4.3000e-01	2.8113	28.753976	0.000727	7.269241	1.231443	-0.029038
 862	4.3050e-01	2.7908	28.661215	0.000464	4.644238	0.786755	-0.018552
 863	4.3100e-01	2.7718	28.548288	0.000565	5.653854	0.957789	-0.022585
 864	4.3150e-01	2.7510	28.451494	0.000485	4.846161	0.820962	-0.019359
 865	4.3200e-01	2.7315	28.346634	0.000525	5.250008	0.889375	-0.020972
 866	4.3250e-01	2.7121	28.221607	0.000626	6.259625	1.060409	-0.025005
 867	4.3300e-01	2.6909	28.149012	0.000363	3.634621	0.615721	-0.014519
 868	4.3350e-01	2.6703	28.044151	0.000525	5.250008	0.889375	-0.020972
 869	4.3400e-01	2.6508	27.963489	0.000404	4.038467	0.684135	-0.016132
 870	4.3450e-01	2.6312	27.846529	0.000586	5.855778	0.991996	-0.023392
 871	4.3500e-01	2.6117	27.729569	0.000586	5.855778	0.991996	-0.023392
 872	4.3550e-01	2.5912	27.612610	0.000586	5.855778	0.991996	-0.023392
 873	4.3600e-01	2.5710	27.491617	0.000606	6.057701	1.026202	-0.024199
 874	4.3650e-01	2.5507	27.374657	0.000586	5.855778	0.991996	-0.023392
 875	4.3700e-01	2.5301	27.265763	0.000545	5.451931	0.923582	-0.021779
 876	4.3750e-01	2.5111	27.185101	0.000404	4.038467	0.684135	-0.016132
 877	4.3800e-01	2.4905	27.080241	0.000525	5.250008	0.889375	-0.020972
 878	4.3850e-01	2.4713	26.939082	0.000707	7.067318	1.197236	-0.028232
 879	4.3900e-01	2.4512	26.854387	0.000424	4.240391	0.718342	-0.016939
 880	4.3950e-01	2.4312	26.745493	0.000545	5.451931	0.923582	-0.021779
 881	4.4000e-01	2.4110	26.584169	0.000808	8.076935	1.368270	-0.032265
 882	4.4050e-01	2.3914	26.511574	0.000363	3.634621	0.615721	-0.014519
 883	4.4100e-01	2.3722	26.414779	0.000485	4.846161	0.820962	-0.019359
 884	4.4150e-01	2.3507	26.330084	0.000424	4.240391	0.718342	-0.016939
 885	4.4200e-01	2.3310	26.213124	0.000586	5.855778	0.991996	-0.023392
 886	4.4250e-01	2.3111	26.031635	0.000909	9.086552	1.539304	-0.036298
 887	4.4300e-01	2.2906	25.975172	0.000283	2.826927	0.478894	-0.011293
 888	4.4350e-01	2.2719	25.825947	0.000747	7.471165	1.265650	-0.029845
 889	4.4400e-01	2.2519	25.660590	0.000828	8.278858	1.402477	-0.033071
 890	4.4450e-01	2.2304	25.644457	0.000081	0.807693	0.136827	-0.003226
 891	4.4500e-01	2.2115	25.523465	0.000606	6.057701	1.026202	-0.024199
 892	4.4550e-01	2.1910	25.410538	0.000565	5.653854	0.957789	-0.022585
 893	4.4600e-01	2.1719	25.317776	0.000464	4.644238	0.786755	-0.018552
 894	4.4650e-01	2.1513	25.087890	0.001151	11.509632	1.949784	-0.045977
 895	4.4700e-01	2.1317	25.083857	0.000020	0.201923	0.034207	-0.000807
 896	4.4750e-01	2.1112	24.974963	0.000545	5.451931	0.923582	-0.021779
 897	4.4800e-01	2.0905	24.930599	0.000222	2.221157	0.376274	-0.008873
 898	4.4850e-01	2.0715	24.777341	0.000767	7.673088	1.299856	-0.030652
 899	4.4900e-01	2.0511	24.636183	0.000707	7.067318	1.197236	-0.028232
 900	4.4950e-01	2.0311	24.543422	0.000464	4.644238	0.786755	-0.018552
 901	4.5000e-01	2.0106	24.410329	0.000666	6.663471	1.128823	-0.026618
 902	4.5050e-01	1.9916	24.297403	0.000565	5.653854	0.957789	-0.022585
 903	4.5100e-01	1.9714	24.208674	0.000444	4.442314	0.752548	-0.017746
 904	4.5150e-01	1.9513	24.063483	0.000727	7.269241	1.231443	-0.029038
 905	4.5200e-01	1.9309	23.958622	0.000525	5.250008	0.889375	-0.020972
 906	4.5250e-01	1.9099	23.853762	0.000525	5.250008	0.889375	-0.020972
 907	4.5300e-01	1.8911	23.765034	0.000444	4.442314	0.752548	-0.017746
 908	4.5350e-01	1.8704	23.615809	0.000747	7.471165	1.265650	-0.029845
 909	4.5400e-01	1.8510	23.514981	0.000505	5.048084	0.855169	-0.020165
 910	4.5450e-01	1.8314	23.438353	0.000384	3.836544	0.649928	-0.015326
 911	4.5500e-01	1.8120	23.325426	0.000565	5.653854	0.957789	-0.022585
 912	4.5550e-01	1.7911	23.176201	0.000747	7.471165	1.265650	-0.029845
 913	4.5600e-01	1.7711	23.083440	0.000464	4.644238	0.786755	-0.018552
 914	4.5650e-01	1.7511	22.897917	0.000929	9.288475	1.573510	-0.037105
 915	4.5700e-01	1.7303	22.833388	0.000323	3.230774	0.547308	-0.012906
 916	4.5750e-01	1.7145	22.736593	0.000485	4.846161	0.820962	-0.019359
 917	4.5800e-01	1.6908	22.635766	0.000505	5.048084	0.855169	-0.020165
 918	4.5850e-01	1.6701	22.490574	0.000727	7.269241	1.231443	-0.029038
 919	4.5900e-01	1.6509	22.349416	0.000707	7.067318	1.197236	-0.028232
 920	4.5950e-01	1.6312	22.272787	0.000384	3.836544	0.649928	-0.015326
 921	4.6000e-01	1.6109	22.180026	0.000464	4.644238	0.786755	-0.018552
 922	4.6050e-01	1.5900	22.050967	0.000646	6.461548	1.094616	-0.025812
 923	4.6100e-01	1.5712	21.938040	0.000565	5.653854	0.957789	-0.022585
 924	4.6150e-01	1.5510	21.849312	0.000444	4.442314	0.752548	-0.017746
 925	4.6200e-01	1.5310	21.692021	0.000788	7.875011	1.334063	-0.031458
 926	4.6250e-01	1.5108	21.583127	0.000545	5.451931	0.923582	-0.021779
 927	4.6300e-01	1.4911	21.437936	0.000727	7.269241	1.231443	-0.029038
 928	4.6350e-01	1.4701	21.329042	0.000545	5.451931	0.923582	-0.021779
 929	4.6400e-01	1.4496	21.216115	0.000565	5.653854	0.957789	-0.022585
 930	4.6450e-01	1.4305	21.111255	0.000525	5.250008	0.889375	-0.020972
 931	4.6500e-01	1.4098	20.978162	0.000666	6.663471	1.128823	-0.026618
 932	4.6550e-01	1.3908	20.877335	0.000505	5.048084	0.855169	-0.020165
 933	4.6600e-01	1.3706	20.760375	0.000586	5.855778	0.991996	-0.023392
 934	4.6650e-01	1.3503	20.687779	0.000363	3.634621	0.615721	-0.014519
 935	4.6700e-01	1.3296	20.546621	0.000707	7.067318	1.197236	-0.028232
 936	4.6750e-01	1.3115	20.474025	0.000363	3.634621	0.615721	-0.014519
 937	4.6800e-01	1.2901	20.336900	0.000687	6.865395	1.163029	-0.027425
 938	4.6850e-01	1.2702	20.232039	0.000525	5.250008	0.889375	-0.020972
 939	4.6900e-01	1.2514	20.070715	0.000808	8.076935	1.368270	-0.032265
 940	4.6950e-01	1.2317	19.973921	0.000485	4.846161	0.820962	-0.019359
 941	4.7000e-01	1.2107	19.848895	0.000626	6.259625	1.060409	-0.025005
 942	4.7050e-01	1.1910	19.748067	0.000505	5.048084	0.855169	-0.020165
 943	4.7100e-01	1.1715	19.639174	0.000545	5.451931	0.923582	-0.021779
 944	4.7150e-01	1.1505	19.510114	0.000646	6.461548	1.094616	-0.025812
 945	4.7200e-01	1.1317	19.344757	0.000828	8.278858	1.402477	-0.033071
 946	4.7250e-01	1.1108	19.227798	0.000586	5.855778	0.991996	-0.023392
 947	4.7300e-01	1.0921	19.090672	0.000687	6.865395	1.163029	-0.027425
 948	4.7350e-01	1.0716	19.050341	0.000202	2.019234	0.342067	-0.008066
 949	4.7400e-01	1.0510	18.876918	0.000868	8.682705	1.470890	-0.034685
 950	4.7450e-01	1.0310	18.768024	0.000545	5.451931	0.923582	-0.021779
 951	4.7500e-01	1.0110	18.626866	0.000707	7.067318	1.197236	-0.028232
 952	4.7550e-01	0.9903	18.538138	0.000444	4.442314	0.752548	-0.017746
 953	4.7600e-01	0.9720	18.388913	0.000747	7.471165	1.265650	-0.029845
 954	4.7650e-01	0.9499	18.336483	0.000263	2.625004	0.444688	-0.010486
 955	4.7700e-01	0.9304	18.199357	0.000687	6.865395	1.163029	-0.027425
 956	4.7750e-01	0.9115	18.078364	0.000606	6.057701	1.026202	-0.024199
 957	4.7800e-01	0.8916	17.953338	0.000626	6.259625	1.060409	-0.025005
 958	4.7850e-01	0.8707	17.812180	0.000707	7.067318	1.197236	-0.028232
 959	4.7900e-01	0.8514	17.683121	0.000646	6.461548	1.094616	-0.025812
 960	4.7950e-01	0.8310	17.558095	0.000626	6.259625	1.060409	-0.025005
 961	4.8000e-01	0.8109	17.481466	0.000384	3.836544	0.649928	-0.015326
 962	4.8050e-01	0.7908	17.312076	0.000848	8.480782	1.436683	-0.033878
 963	4.8100e-01	0.7703	17.211248	0.000505	5.048084	0.855169	-0.020165
 964	4.8150e-01	0.7507	17.110421	0.000505	5.048084	0.855169	-0.020165
 965	4.8200e-01	0.7310	16.953130	0.000788	7.875011	1.334063	-0.031458
 966	4.8250e-01	0.7100	16.828104	0.000626	6.259625	1.060409	-0.025005
 967	4.8300e-01	0.6899	16.711144	0.000586	5.855778	0.991996	-0.023392
 968	4.8350e-01	0.6709	16.618383	0.000464	4.644238	0.786755	-0.018552
 969	4.8400e-01	0.6507	16.481257	0.000687	6.865395	1.163029	-0.027425
 970	4.8450e-01	0.6302	16.356231	0.000626	6.259625	1.060409	-0.025005
 971	4.8500e-01	0.6107	16.251371	0.000525	5.250008	0.889375	-0.020972
 972	4.8550e-01	0.5901	16.142477	0.000545	5.451931	0.923582	-0.021779
 973	4.8600e-01	0.5695	16.037617	0.000525	5.250008	0.889375	-0.020972
 974	4.8650e-01	0.5505	15.848061	0.000949	9.490398	1.607717	-0.037911
 975	4.8700e-01	0.5310	15.739167	0.000545	5.451931	0.923582	-0.021779
 976	4.8750e-01	0.5118	15.658505	0.000404	4.038467	0.684135	-0.016132
 977	4.8800e-01	0.4911	15.525413	0.000666	6.663471	1.128823	-0.026618
 978	4.8850e-01	0.4713	15.468950	0.000283	2.826927	0.478894	-0.011293
 979	4.8900e-01	0.4510	15.263262	0.001030	10.298092	1.744544	-0.041138
 980	4.8950e-01	0.4306	15.134203	0.000646	6.461548	1.094616	-0.025812
 981	4.9000e-01	0.4100	15.049507	0.000424	4.240391	0.718342	-0.016939
 982	4.9050e-01	0.3905	14.872051	0.000888	8.884628	1.505097	-0.035491
 983	4.9100e-01	0.3718	14.767191	0.000525	5.250008	0.889375	-0.020972
 984	4.9150e-01	0.3505	14.638131	0.000646	6.461548	1.094616	-0.025812
 985	4.9200e-01	0.3304	14.537304	0.000505	5.048084	0.855169	-0.020165
 986	4.9250e-01	0.3112	14.392112	0.000727	7.269241	1.231443	-0.029038
 987	4.9300e-01	0.2915	14.283219	0.000545	5.451931	0.923582	-0.021779
 988	4.9350e-01	0.2708	14.162226	0.000606	6.057701	1.026202	-0.024199
 989	4.9400e-01	0.2505	14.057365	0.000525	5.250008	0.889375	-0.020972
 990	4.9450e-01	0.2304	13.916207	0.000707	7.067318	1.197236	-0.028232
 991	4.9500e-01	0.2103	13.815379	0.000505	5.048084	0.855169	-0.020165
 992	4.9550e-01	0.1897	13.670188	0.000727	7.269241	1.231443	-0.029038
 993	4.9600e-01	0.1713	13.520963	0.000747	7.471165	1.265650	-0.029845
 994	4.9650e-01	0.1499	13.395937	0.000626	6.259625	1.060409	-0.025005
 995	4.9700e-01	0.1293	13.270911	0.000626	6.259625	1.060409	-0.025005
 996	4.9750e-01	0.1101	13.182183	0.000444	4.442314	0.752548	-0.017746
 997	4.9800e-01	0.0906	13.045057	0.000687	6.865395	1.163029	-0.027425
 998	4.9850e-01	0.0712	12.887767	0.000788	7.875011	1.334063	-0.031458
 999	4.9900e-01	0.0506	12.803072	0.000424	4.240391	0.718342	-0.016939
1000	4.9950e-01	0.0305	12.698211	0.000525	5.250008	0.889375	-0.020972
1001	5.0000e-01	0.0106	12.544953	0.000767	7.673088	1.299856	-0.030652
1002	5.0050e-01	-0.0098	12.383629	0.000808	8.076935	1.368270	-0.032265
1003	5.0100e-01	-0.0279	12.286835	0.000485	4.846161	0.820962	-0.019359
1004	5.0150e-01	-0.0478	12.153743	0.000666	6.663471	1.128823	-0.026618
1005	5.0200e-01	-0.0679	12.052915	0.000505	5.048084	0.855169	-0.020165
1006	5.0250e-01	-0.0874	11.915790	0.000687	6.865395	1.163029	-0.027425
1007	5.0300e-01	-0.1075	11.730267	0.000929	9.288475	1.573510	-0.037105
1008	5.0350e-01	-0.1271	11.625407	0.000525	5.250008	0.889375	-0.020972
1009	5.0400e-01	-0.1472	11.496348	0.000646	6.461548	1.094616	-0.025812
1010	5.0450e-01	-0.1674	11.322924	0.000868	8.682705	1.470890	-0.034685
1011	5.0500e-01	-0.1882	11.318891	0.000020	0.201923	0.034207	-0.000807
1012	5.0550e-01	-0.2081	11.133369	0.000929	9.288475	1.573510	-0.037105
1013	5.0600e-01	-0.2275	11.101104	0.000162	1.615387	0.273654	-0.006453
1014	5.0650e-01	-0.2471	10.891383	0.001050	10.500015	1.778751	-0.041944
1015	5.0700e-01	-0.2683	10.778456	0.000565	5.653854	0.957789	-0.022585
1016	5.0750e-01	-0.2879	10.629231	0.000747	7.471165	1.265650	-0.029845
1017	5.0800e-01	-0.3065	10.536470	0.000464	4.644238	0.786755	-0.018552
1018	5.0850e-01	-0.3282	10.443709	0.000464	4.644238	0.786755	-0.018552
1019	5.0900e-01	-0.3476	10.238021	0.001030	10.298092	1.744544	-0.041138
1020	5.0950e-01	-0.3683	10.157359	0.000404	4.038467	0.684135	-0.016132
1021	5.1000e-01	-0.3877	9.992002	0.000828	8.278858	1.402477	-0.033071
1022	5.1050e-01	-0.4076	9.834711	0.000788	7.875011	1.334063	-0.031458
1023	5.1100e-01	-0.4241	9.774214	0.000303	3.028851	0.513101	-0.012099
1024	5.1150e-01	-0.4475	9.608857	0.000828	8.278858	1.402477	-0.033071
1025	5.1200e-01	-0.4679	9.443500	0.000828	8.278858	1.402477	-0.033071
1026	5.1250e-01	-0.4879	9.354772	0.000444	4.442314	0.752548	-0.017746
1027	5.1300e-01	-0.5079	9.205548	0.000747	7.471165	1.265650	-0.029845
1028	5.1350e-01	-0.5280	9.068422	0.000687	6.865395	1.163029	-0.027425
1029	5.1400e-01	-0.5480	8.955495	0.000565	5.653854	0.957789	-0.022585
1030	5.1450e-01	-0.5682	8.842569	0.000565	5.653854	0.957789	-0.022585
1031	5.1500e-01	-0.5888	8.705443	0.000687	6.865395	1.163029	-0.027425
1032	5.1550e-01	-0.6084	8.572351	0.000666	6.663471	1.128823	-0.026618
1033	5.1600e-01	-0.6282	8.483623	0.000444	4.442314	0.752548	-0.017746
1034	5.1650e-01	-0.6481	8.350531	0.000666	6.663471	1.128823	-0.026618
1035	5.1700e-01	-0.6675	8.213405	0.000687	6.865395	1.163029	-0.027425
1036	5.1750e-01	-0.6882	8.039982	0.000868	8.682705	1.470890	-0.034685
1037	5.1800e-01	-0.7079	7.935122	0.000525	5.250008	0.889375	-0.020972
1038	5.1850e-01	-0.7275	7.753632	0.000909	9.086552	1.539304	-0.036298
1039	5.1900e-01	-0.7481	7.644738	0.000545	5.451931	0.923582	-0.021779
1040	5.1950e-01	-0.7677	7.519712	0.000626	6.259625	1.060409	-0.025005
1041	5.2000e-01	-0.7874	7.398719	0.000606	6.057701	1.026202	-0.024199
1042	5.2050e-01	-0.8085	7.318057	0.000404	4.038467	0.684135	-0.016132
1043	5.2100e-01	-0.8283	7.144634	0.000868	8.682705	1.470890	-0.034685
1044	5.2150e-01	-0.8475	6.959112	0.000929	9.288475	1.573510	-0.037105
1045	5.2200e-01	-0.8678	6.882483	0.000384	3.836544	0.649928	-0.015326
1046	5.2250e-01	-0.8879	6.757457	0.000626	6.259625	1.060409	-0.025005
1047	5.2300e-01	-0.9086	6.624364	0.000666	6.663471	1.128823	-0.026618
1048	5.2350e-01	-0.9290	6.543702	0.000404	4.038467	0.684135	-0.016132
1049	5.2400e-01	-0.9483	6.398511	0.000727	7.269241	1.231443	-0.029038
1050	5.2450e-01	-0.9675	6.225088	0.000868	8.682705	1.470890	-0.034685
1051	5.2500e-01	-0.9881	6.108128	0.000586	5.855778	0.991996	-0.023392
1052	5.2550e-01	-1.0072	5.966969	0.000707	7.067318	1.197236	-0.028232
1053	5.2600e-01	-1.0282	5.841943	0.000626	6.259625	1.060409	-0.025005
1054	5.2650e-01	-1.0480	5.716917	0.000626	6.259625	1.060409	-0.025005
1055	5.2700e-01	-1.0682	5.543494	0.000868	8.682705	1.470890	-0.034685
1056	5.2750e-01	-1.0883	5.426534	0.000586	5.855778	0.991996	-0.023392
1057	5.2800e-01	-1.1085	5.333773	0.000464	4.644238	0.786755	-0.018552
1058	5.2850e-01	-1.1288	5.160350	0.000868	8.682705	1.470890	-0.034685
1059	5.2900e-01	-1.1480	5.027257	0.000666	6.663471	1.128823	-0.026618
1060	5.2950e-01	-1.1681	4.934496	0.000464	4.644238	0.786755	-0.018552
1061	5.3000e-01	-1.1881	4.793338	0.000707	7.067318	1.197236	-0.028232
1062	5.3050e-01	-1.2078	4.676378	0.000586	5.855778	0.991996	-0.023392
1063	5.3100e-01	-1.2287	4.486822	0.000949	9.490398	1.607717	-0.037911
1064	5.3150e-01	-1.2478	4.381962	0.000525	5.250008	0.889375	-0.020972
1065	5.3200e-01	-1.2696	4.256936	0.000626	6.259625	1.060409	-0.025005
1066	5.3250e-01	-1.2884	4.119810	0.000687	6.865395	1.163029	-0.027425
1067	5.3300e-01	-1.3081	3.998817	0.000606	6.057701	1.026202	-0.024199
1068	5.3350e-01	-1.3271	3.817328	0.000909	9.086552	1.539304	-0.036298
1069	5.3400e-01	-1.3473	3.688269	0.000646	6.461548	1.094616	-0.025812
1070	5.3450e-01	-1.3677	3.559210	0.000646	6.461548	1.094616	-0.025812
1071	5.3500e-01	-1.3874	3.414018	0.000727	7.269241	1.231443	-0.029038
1072	5.3550e-01	-1.4075	3.220429	0.000969	9.692322	1.641924	-0.038718
1073	5.3600e-01	-1.4283	3.172032	0.000242	2.423080	0.410481	-0.009679
1074	5.3650e-01	-1.4484	3.022807	0.000747	7.471165	1.265650	-0.029845
1075	5.3700e-01	-1.4677	2.921980	0.000505	5.048084	0.855169	-0.020165
1076	5.3750e-01	-1.4881	2.768722	0.000767	7.673088	1.299856	-0.030652
1077	5.3800e-01	-1.5076	2.603365	0.000828	8.278858	1.402477	-0.033071
1078	5.3850e-01	-1.5275	2.478339	0.000626	6.259625	1.060409	-0.025005
1079	5.3900e-01	-1.5474	2.353313	0.000626	6.259625	1.060409	-0.025005
1080	5.3950e-01	-1.5684	2.183923	0.000848	8.480782	1.436683	-0.033878
1081	5.4000e-01	-1.5879	2.135526	0.000242	2.423080	0.410481	-0.009679
1082	5.4050e-01	-1.6084	1.933871	0.001010	10.096169	1.710337	-0.040331
1083	5.4100e-01	-1.6273	1.812878	0.000606	6.057701	1.026202	-0.024199
1084	5.4150e-01	-1.6489	1.683819	0.000646	6.461548	1.094616	-0.025812
1085	5.4200e-01	-1.6676	1.582991	0.000505	5.048084	0.855169	-0.020165
1086	5.4250e-01	-1.6883	1.393436	0.000949	9.490398	1.607717	-0.037911
1087	5.4300e-01	-1.7092	1.260343	0.000666	6.663471	1.128823	-0.026618
1088	5.4350e-01	-1.7281	1.191781	0.000343	3.432697	0.581515	-0.013713
1089	5.4400e-01	-1.7481	1.054655	0.000687	6.865395	1.163029	-0.027425
1090	5.4450e-01	-1.7683	0.929629	0.000626	6.259625	1.060409	-0.025005
1091	5.4500e-01	-1.7879	0.719908	0.001050	10.500015	1.778751	-0.041944
1092	5.4550e-01	-1.8083	0.574717	0.000727	7.269241	1.231443	-0.029038
1093	5.4600e-01	-1.8288	0.461790	0.000565	5.653854	0.957789	-0.022585
1094	5.4650e-01	-1.8491	0.320631	0.000707	7.067318	1.197236	-0.028232
1095	5.4700e-01	-1.8681	0.215771	0.000525	5.250008	0.889375	-0.020972
1096	5.4750e-01	-1.8882	0.102844	0.000565	5.653854	0.957789	-0.022585
1097	5.4800e-01	-1.9074	-0.070579	0.000868	8.682705	1.470890	-0.034685
1098	5.4850e-01	-1.9276	-0.211738	0.000707	7.067318	1.197236	-0.028232
1099	5.4900e-01	-1.9489	-0.369029	0.000788	7.875011	1.334063	-0.031458
1100	5.4950e-01	-1.9685	-0.510187	0.000707	7.067318	1.197236	-0.028232
1101	5.5000e-01	-1.9877	-0.623114	0.000565	5.653854	0.957789	-0.022585
1102	5.5050e-01	-2.0081	-0.768305	0.000727	7.269241	1.231443	-0.029038
1103	5.5100e-01	-2.0284	-0.873166	0.000525	5.250008	0.889375	-0.020972
1104	5.5150e-01	-2.0481	-0.990126	0.000586	5.855778	0.991996	-0.023392
1105	5.5200e-01	-2.0686	-1.115152	0.000626	6.259625	1.060409	-0.025005
1106	5.5250e-01	-2.0887	-1.268410	0.000767	7.673088	1.299856	-0.030652
1107	5.5300e-01	-2.1085	-1.457965	0.000949	9.490398	1.607717	-0.037911
1108	5.5350e-01	-2.1278	-1.534594	0.000384	3.836544	0.649928	-0.015326
1109	5.5400e-01	-2.1485	-1.768514	0.001171	11.711556	1.983991	-0.046784
1110	5.5450e-01	-2.1693	-1.905639	0.000687	6.865395	1.163029	-0.027425
1111	5.5500e-01	-2.1885	-1.990334	0.000424	4.240391	0.718342	-0.016939
1112	5.5550e-01	-2.2083	-2.159724	0.000848	8.480782	1.436683	-0.033878
1113	5.5600e-01	-2.2288	-2.260552	0.000505	5.048084	0.855169	-0.020165
1114	5.5650e-01	-2.2482	-2.377512	0.000586	5.855778	0.991996	-0.023392
1115	5.5700e-01	-2.2681	-2.550935	0.000868	8.682705	1.470890	-0.034685
1116	5.5750e-01	-2.2894	-2.684027	0.000666	6.663471	1.128823	-0.026618
1117	5.5800e-01	-2.3078	-2.845351	0.000808	8.076935	1.368270	-0.032265
1118	5.5850e-01	-2.3281	-2.958278	0.000565	5.653854	0.957789	-0.022585
1119	5.5900e-01	-2.3491	-3.059105	0.000505	5.048084	0.855169	-0.020165
1120	5.5950e-01	-2.3685	-3.248661	0.000949	9.490398	1.607717	-0.037911
1121	5.6000e-01	-2.3893	-3.385786	0.000687	6.865395	1.163029	-0.027425
1122	5.6050e-01	-2.4085	-3.539044	0.000767	7.673088	1.299856	-0.030652
1123	5.6100e-01	-2.4284	-3.635838	0.000485	4.846161	0.820962	-0.019359
1124	5.6150e-01	-2.4485	-3.805229	0.000848	8.480782	1.436683	-0.033878
1125	5.6200e-01	-2.4689	-3.938321	0.000666	6.663471	1.128823	-0.026618
1126	5.6250e-01	-2.4885	-4.035115	0.000485	4.846161	0.820962	-0.019359
1127	5.6300e-01	-2.5089	-4.196439	0.000808	8.076935	1.368270	-0.032265
1128	5.6350e-01	-2.5291	-4.317432	0.000606	6.057701	1.026202	-0.024199
1129	5.6400e-01	-2.5483	-4.446491	0.000646	6.461548	1.094616	-0.025812
1130	5.6450e-01	-2.5684	-4.644113	0.000989	9.894245	1.676131	-0.039524
1131	5.6500e-01	-2.5884	-4.696543	0.000263	2.625004	0.444688	-0.010486
1132	5.6550e-01	-2.6080	-4.837702	0.000707	7.067318	1.197236	-0.028232
1133	5.6600e-01	-2.6279	-4.954662	0.000586	5.855778	0.991996	-0.023392
1134	5.6650e-01	-2.6478	-5.132118	0.000888	8.884628	1.505097	-0.035491
1135	5.6700e-01	-2.6680	-5.281343	0.000747	7.471165	1.265650	-0.029845
1136	5.6750e-01	-2.6881	-5.394269	0.000565	5.653854	0.957789	-0.022585
1137	5.6800e-01	-2.7169	-5.761281	0.001838	18.375027	3.112814	-0.073402
1138	5.6850e-01	-2.7291	-5.777414	0.000081	0.807693	0.136827	-0.003226
1139	5.6900e-01	-2.7483	-5.845976	0.000343	3.432697	0.581515	-0.013713
1140	5.6950e-01	-2.7689	-5.983102	0.000687	6.865395	1.163029	-0.027425
1141	5.7000e-01	-2.7889	-6.120227	0.000687	6.865395	1.163029	-0.027425
1142	5.7050e-01	-2.8086	-6.249286	0.000646	6.461548	1.094616	-0.025812
1143	5.7100e-01	-2.8291	-6.370279	0.000606	6.057701	1.026202	-0.024199
1144	5.7150e-01	-2.8486	-6.487239	0.000586	5.855778	0.991996	-0.023392
1145	5.7200e-01	-2.8677	-6.668729	0.000909	9.086552	1.539304	-0.036298
1146	5.7250e-01	-2.8883	-6.781655	0.000565	5.653854	0.957789	-0.022585
1147	5.7300e-01	-2.9078	-6.967178	0.000929	9.288475	1.573510	-0.037105
1148	5.7350e-01	-2.9285	-7.084138	0.000586	5.855778	0.991996	-0.023392
1149	5.7400e-01	-2.9482	-7.193031	0.000545	5.451931	0.923582	-0.021779
1150	5.7450e-01	-2.9691	-7.370488	0.000888	8.884628	1.505097	-0.035491
1151	5.7500e-01	-2.9881	-7.475348	0.000525	5.250008	0.889375	-0.020972
1152	5.7550e-01	-3.0085	-7.588275	0.000565	5.653854	0.957789	-0.022585
1153	5.7600e-01	-3.0277	-7.672970	0.000424	4.240391	0.718342	-0.016939
1154	5.7650e-01	-3.0485	-7.918989	0.001232	12.317326	2.086611	-0.049204
1155	5.7700e-01	-3.0683	-8.035949	0.000586	5.855778	0.991996	-0.023392
1156	5.7750e-01	-3.0882	-8.120644	0.000424	4.240391	0.718342	-0.016939
1157	5.7800e-01	-3.1086	-8.334398	0.001070	10.701939	1.812957	-0.042751
1158	5.7850e-01	-3.1284	-8.390862	0.000283	2.826927	0.478894	-0.011293
1159	5.7900e-01	-3.1480	-8.532020	0.000707	7.067318	1.197236	-0.028232
1160	5.7950e-01	-3.1684	-8.737708	0.001030	10.298092	1.744544	-0.041138
1161	5.8000e-01	-3.1879	-8.854668	0.000586	5.855778	0.991996	-0.023392
1162	5.8050e-01	-3.2087	-9.015992	0.000808	8.076935	1.368270	-0.032265
1163	5.8100e-01	-3.2280	-9.112786	0.000485	4.846161	0.820962	-0.019359
1164	5.8150e-01	-3.2484	-9.253945	0.000707	7.067318	1.197236	-0.028232
1165	5.8200e-01	-3.2686	-9.395103	0.000707	7.067318	1.197236	-0.028232
1166	5.8250e-01	-3.2880	-9.552394	0.000788	7.875011	1.334063	-0.031458
1167	5.8300e-01	-3.3088	-9.661288	0.000545	5.451931	0.923582	-0.021779
1168	5.8350e-01	-3.3283	-9.798413	0.000687	6.865395	1.163029	-0.027425
1169	5.8400e-01	-3.3479	-9.979902	0.000909	9.086552	1.539304	-0.036298
1170	5.8450e-01	-3.3686	-10.104929	0.000626	6.259625	1.060409	-0.025005
1171	5.8500e-01	-3.3875	-10.201723	0.000485	4.846161	0.820962	-0.019359
1172	5.8550e-01	-3.4086	-10.350948	0.000747	7.471165	1.265650	-0.029845
1173	5.8600e-01	-3.4280	-10.488073	0.000687	6.865395	1.163029	-0.027425
1174	5.8650e-01	-3.4487	-10.596967	0.000545	5.451931	0.923582	-0.021779
1175	5.8700e-01	-3.4683	-10.770390	0.000868	8.682705	1.470890	-0.034685
1176	5.8750e-01	-3.4882	-10.871217	0.000505	5.048084	0.855169	-0.020165
1177	5.8800e-01	-3.5078	-10.992210	0.000606	6.057701	1.026202	-0.024199
1178	5.8850e-01	-3.5279	-11.125302	0.000666	6.663471	1.128823	-0.026618
1179	5.8900e-01	-3.5480	-11.302759	0.000888	8.884628	1.505097	-0.035491
1180	5.8950e-01	-3.5689	-11.399553	0.000485	4.846161	0.820962	-0.019359
1181	5.9000e-01	-3.5874	-11.577010	0.000888	8.884628	1.505097	-0.035491
1182	5.9050e-01	-3.6089	-11.706069	0.000646	6.461548	1.094616	-0.025812
1183	5.9100e-01	-3.6289	-11.746400	0.000202	2.019234	0.342067	-0.008066
1184	5.9150e-01	-3.6481	-11.960154	0.001070	10.701939	1.812957	-0.042751
1185	5.9200e-01	-3.6691	-12.101312	0.000707	7.067318	1.197236	-0.028232
1186	5.9250e-01	-3.6887	-12.222305	0.000606	6.057701	1.026202	-0.024199
1187	5.9300e-01	-3.7083	-12.347331	0.000626	6.259625	1.060409	-0.025005
1188	5.9350e-01	-3.7281	-12.520755	0.000868	8.682705	1.470890	-0.034685
1189	5.9400e-01	-3.7482	-12.629648	0.000545	5.451931	0.923582	-0.021779
1190	5.9450e-01	-3.7685	-12.799038	0.000848	8.480782	1.436683	-0.033878
1191	5.9500e-01	-3.7891	-12.871634	0.000363	3.634621	0.615721	-0.014519
1192	5.9550e-01	-3.8076	-13.000693	0.000646	6.461548	1.094616	-0.025812
1193	5.9600e-01	-3.8276	-13.157984	0.000788	7.875011	1.334063	-0.031458
1194	5.9650e-01	-3.8465	-13.137819	-0.000101	-1.009617	-0.171034	0.004033
1195	5.9700e-01	-3.8679	-13.303176	0.000828	8.278858	1.402477	-0.033071
1196	5.9750e-01	-3.8883	-13.524996	0.001111	11.105785	1.881371	-0.044364
1197	5.9800e-01	-3.9075	-13.690353	0.000828	8.278858	1.402477	-0.033071
1198	5.9850e-01	-3.9289	-13.831512	0.000707	7.067318	1.197236	-0.028232
1199	5.9900e-01	-3.9486	-13.996869	0.000828	8.278858	1.402477	-0.033071
1200	5.9950e-01	-3.9687	-14.093663	0.000485	4.846161	0.820962	-0.019359
1201	6.0000e-01	-3.9870	-14.061398	-0.000162	-1.615387	-0.273654	0.006453
1202	6.0050e-01	-4.0078	-14.271119	0.001050	10.500015	1.778751	-0.041944
1203	6.0100e-01	-4.0284	-14.464708	0.000969	9.692322	1.641924	-0.038718
1204	6.0150e-01	-4.0487	-14.597800	0.000666	6.663471	1.128823	-0.026618
1205	6.0200e-01	-4.0681	-14.759124	0.000808	8.076935	1.368270	-0.032265
1206	6.0250e-01	-4.0882	-14.859952	0.000505	5.048084	0.855169	-0.020165
1207	6.0300e-01	-4.1077	-15.017243	0.000788	7.875011	1.334063	-0.031458
1208	6.0350e-01	-4.1279	-15.122103	0.000525	5.250008	0.889375	-0.020972
1209	6.0400e-01	-4.1486	-15.263262	0.000707	7.067318	1.197236	-0.028232
1210	6.0450e-01	-4.1688	-15.408453	0.000727	7.269241	1.231443	-0.029038
1211	6.0500e-01	-4.1883	-15.537512	0.000646	6.461548	1.094616	-0.025812
1212	6.0550e-01	-4.2085	-15.727068	0.000949	9.490398	1.607717	-0.037911
1213	6.0600e-01	-4.2278	-15.815796	0.000444	4.442314	0.752548	-0.017746
1214	6.0650e-01	-4.2487	-15.948888	0.000666	6.663471	1.128823	-0.026618
1215	6.0700e-01	-4.2684	-16.090047	0.000707	7.067318	1.197236	-0.028232
1216	6.0750e-01	-4.2893	-16.158610	0.000343	3.432697	0.581515	-0.013713
1217	6.0800e-01	-4.3085	-16.352198	0.000969	9.692322	1.641924	-0.038718
1218	6.0850e-01	-4.3281	-16.469158	0.000586	5.855778	0.991996	-0.023392
1219	6.0900e-01	-4.3485	-16.586118	0.000586	5.855778	0.991996	-0.023392
1220	6.0950e-01	-4.3684	-16.747442	0.000808	8.076935	1.368270	-0.032265
1221	6.1000e-01	-4.3885	-16.820038	0.000363	3.634621	0.615721	-0.014519
1222	6.1050e-01	-4.4093	-16.969262	0.000747	7.471165	1.265650	-0.029845
1223	6.1100e-01	-4.4288	-17.126553	0.000788	7.875011	1.334063	-0.031458
1224	6.1150e-01	-4.4477	-17.259645	0.000666	6.663471	1.128823	-0.026618
1225	6.1200e-01	-4.4685	-17.372572	0.000565	5.653854	0.957789	-0.022585
1226	6.1250e-01	-4.4880	-17.489532	0.000586	5.855778	0.991996	-0.023392
1227	6.1300e-01	-4.5087	-17.634724	0.000727	7.269241	1.231443	-0.029038
1228	6.1350e-01	-4.5271	-17.771849	0.000687	6.865395	1.163029	-0.027425
1229	6.1400e-01	-4.5478	-17.900908	0.000646	6.461548	1.094616	-0.025812
1230	6.1450e-01	-4.5679	-18.009802	0.000545	5.451931	0.923582	-0.021779
1231	6.1500e-01	-4.5884	-18.142894	0.000666	6.663471	1.128823	-0.026618
1232	6.1550e-01	-4.6088	-18.259854	0.000586	5.855778	0.991996	-0.023392
1233	6.1600e-01	-4.6284	-18.441343	0.000909	9.086552	1.539304	-0.036298
1234	6.1650e-01	-4.6494	-18.526038	0.000424	4.240391	0.718342	-0.016939
1235	6.1700e-01	-4.6687	-18.679296	0.000767	7.673088	1.299856	-0.030652
1236	6.1750e-01	-4.6893	-18.784157	0.000525	5.250008	0.889375	-0.020972
1237	6.1800e-01	-4.7086	-18.949514	0.000828	8.278858	1.402477	-0.033071
1238	6.1850e-01	-4.7279	-19.066474	0.000586	5.855778	0.991996	-0.023392
1239	6.1900e-01	-4.7483	-19.183434	0.000586	5.855778	0.991996	-0.023392
1240	6.1950e-01	-4.7684	-19.336691	0.000767	7.673088	1.299856	-0.030652
1241	6.2000e-01	-4.7892	-19.457684	0.000606	6.057701	1.026202	-0.024199
1242	6.2050e-01	-4.8086	-19.562545	0.000525	5.250008	0.889375	-0.020972
1243	6.2100e-01	-4.8280	-19.711769	0.000747	7.471165	1.265650	-0.029845
1244	6.2150e-01	-4.8490	-19.844862	0.000666	6.663471	1.128823	-0.026618
1245	6.2200e-01	-4.8682	-19.986020	0.000707	7.067318	1.197236	-0.028232
1246	6.2250e-01	-4.8890	-20.090881	0.000525	5.250008	0.889375	-0.020972
1247	6.2300e-01	-4.9091	-20.215907	0.000626	6.259625	1.060409	-0.025005
1248	6.2350e-01	-4.9287	-20.381264	0.000828	8.278858	1.402477	-0.033071
1249	6.2400e-01	-4.9483	-20.542588	0.000808	8.076935	1.368270	-0.032265
1250	6.2450e-01	-4.9689	-20.578886	0.000182	1.817310	0.307861	-0.007260
1251	6.2500e-01	-4.9876	-20.631316	0.000263	2.625004	0.444688	-0.010486
1252	6.2550e-01	-5.0095	-20.893467	0.001313	13.125019	2.223438	-0.052430
1253	6.2600e-01	-5.0288	-20.974129	0.000404	4.038467	0.684135	-0.016132
1254	6.2650e-01	-5.0501	-21.119321	0.000727	7.269241	1.231443	-0.029038
1255	6.2700e-01	-5.0681	-21.268545	0.000747	7.471165	1.265650	-0.029845
1256	6.2750e-01	-5.0886	-21.377439	0.000545	5.451931	0.923582	-0.021779
1257	6.2800e-01	-5.1087	-21.470200	0.000464	4.644238	0.786755	-0.018552
1258	6.2850e-01	-5.1298	-21.623458	0.000767	7.673088	1.299856	-0.030652
1259	6.2900e-01	-5.1490	-21.768650	0.000727	7.269241	1.231443	-0.029038
1260	6.2950e-01	-5.1679	-21.929974	0.000808	8.076935	1.368270	-0.032265
1261	6.3000e-01	-5.1890	-22.030801	0.000505	5.048084	0.855169	-0.020165
1262	6.3050e-01	-5.2088	-22.192125	0.000808	8.076935	1.368270	-0.032265
1263	6.3100e-01	-5.2290	-22.373614	0.000909	9.086552	1.539304	-0.036298
1264	6.3150e-01	-5.2488	-22.385714	0.000061	0.605770	0.102620	-0.002420
1265	6.3200e-01	-5.2686	-22.587369	0.001010	10.096169	1.710337	-0.040331
1266	6.3250e-01	-5.2892	-22.676097	0.000444	4.442314	0.752548	-0.017746
1267	6.3300e-01	-5.3086	-22.809189	0.000666	6.663471	1.128823	-0.026618
1268	6.3350e-01	-5.3297	-22.934215	0.000626	6.259625	1.060409	-0.025005
1269	6.3400e-01	-5.3492	-23.067307	0.000666	6.663471	1.128823	-0.026618
1270	6.3450e-01	-5.3687	-23.224598	0.000788	7.875011	1.334063	-0.031458
1271	6.3500e-01	-5.3889	-23.381889	0.000788	7.875011	1.334063	-0.031458
1272	6.3550e-01	-5.4086	-23.523048	0.000707	7.067318	1.197236	-0.028232
1273	6.3600e-01	-5.4285	-23.571445	0.000242	2.423080	0.410481	-0.009679
1274	6.3650e-01	-5.4484	-23.696471	0.000626	6.259625	1.060409	-0.025005
1275	6.3700e-01	-5.4694	-23.853762	0.000788	7.875011	1.334063	-0.031458
1276	6.3750e-01	-5.4902	-23.954589	0.000505	5.048084	0.855169	-0.020165
1277	6.3800e-01	-5.5097	-24.111880	0.000788	7.875011	1.334063	-0.031458
1278	6.3850e-01	-5.5293	-24.224807	0.000565	5.653854	0.957789	-0.022585
1279	6.3900e-01	-5.5488	-24.329667	0.000525	5.250008	0.889375	-0.020972
1280	6.3950e-01	-5.5689	-24.503091	0.000868	8.682705	1.470890	-0.034685
1281	6.4000e-01	-5.5886	-24.676514	0.000868	8.682705	1.470890	-0.034685
1282	6.4050e-01	-5.6095	-24.724911	0.000242	2.423080	0.410481	-0.009679
1283	6.4100e-01	-5.6293	-24.870103	0.000727	7.269241	1.231443	-0.029038
1284	6.4150e-01	-5.6489	-25.007228	0.000687	6.865395	1.163029	-0.027425
1285	6.4200e-01	-5.6696	-25.164519	0.000788	7.875011	1.334063	-0.031458
1286	6.4250e-01	-5.6893	-25.245181	0.000404	4.038467	0.684135	-0.016132
1287	6.4300e-01	-5.7090	-25.410538	0.000828	8.278858	1.402477	-0.033071
1288	6.4350e-01	-5.7294	-25.511365	0.000505	5.048084	0.855169	-0.020165
1289	6.4400e-01	-5.7485	-25.668656	0.000788	7.875011	1.334063	-0.031458
1290	6.4450e-01	-5.7691	-25.781583	0.000565	5.653854	0.957789	-0.022585
1291	6.4500e-01	-5.7883	-25.850145	0.000343	3.432697	0.581515	-0.013713
1292	6.4550e-01	-5.8082	-26.019536	0.000848	8.480782	1.436683	-0.033878
1293	6.4600e-01	-5.8292	-26.144562	0.000626	6.259625	1.060409	-0.025005
1294	6.4650e-01	-5.8486	-26.269588	0.000626	6.259625	1.060409	-0.025005
1295	6.4700e-01	-5.8692	-26.386548	0.000586	5.855778	0.991996	-0.023392
1296	6.4750e-01	-5.8884	-26.499474	0.000565	5.653854	0.957789	-0.022585
1297	6.4800e-01	-5.9092	-26.660798	0.000808	8.076935	1.368270	-0.032265
1298	6.4850e-01	-5.9293	-26.801957	0.000707	7.067318	1.197236	-0.028232
1299	6.4900e-01	-5.9493	-26.943115	0.000707	7.067318	1.197236	-0.028232
1300	6.4950e-01	-5.9693	-27.047976	0.000525	5.250008	0.889375	-0.020972
1301	6.5000e-01	-5.9895	-27.185101	0.000687	6.865395	1.163029	-0.027425
1302	6.5050e-01	-6.0091	-27.326260	0.000707	7.067318	1.197236	-0.028232
1303	6.5100e-01	-6.0291	-27.491617	0.000828	8.278858	1.402477	-0.033071
1304	6.5150e-01	-6.0500	-27.592444	0.000505	5.048084	0.855169	-0.020165
1305	6.5200e-01	-6.0694	-27.717470	0.000626	6.259625	1.060409	-0.025005
1306	6.5250e-01	-6.0902	-27.810231	0.000464	4.644238	0.786755	-0.018552
1307	6.5300e-01	-6.1085	-27.963489	0.000767	7.673088	1.299856	-0.030652
1308	6.5350e-01	-6.1359	-28.209508	0.001232	12.317326	2.086611	-0.049204
1309	6.5400e-01	-6.1491	-28.241773	0.000162	1.615387	0.273654	-0.006453
1310	6.5450e-01	-6.1695	-28.403097	0.000808	8.076935	1.368270	-0.032265
1311	6.5500e-01	-6.1890	-28.503924	0.000505	5.048084	0.855169	-0.020165
1312	6.5550e-01	-6.2093	-28.620884	0.000586	5.855778	0.991996	-0.023392
1313	6.5600e-01	-6.2293	-28.762043	0.000707	7.067318	1.197236	-0.028232
1314	6.5650e-01	-6.2495	-28.842705	0.000404	4.038467	0.684135	-0.016132
1315	6.5700e-01	-6.2678	-28.903201	0.000303	3.028851	0.513101	-0.012099
1316	6.5750e-01	-6.2885	-29.145187	0.001212	12.115402	2.052405	-0.048397
1317	6.5800e-01	-6.3099	-29.241981	0.000485	4.846161	0.820962	-0.019359
1318	6.5850e-01	-6.3288	-29.403305	0.000808	8.076935	1.368270	-0.032265
1319	6.5900e-01	-6.3485	-29.488000	0.000424	4.240391	0.718342	-0.016939
1320	6.5950e-01	-6.3691	-29.661424	0.000868	8.682705	1.470890	-0.034685
1321	6.6000e-01	-6.3895	-29.794516	0.000666	6.663471	1.128823	-0.026618
1322	6.6050e-01	-6.4091	-29.907443	0.000565	5.653854	0.957789	-0.022585
1323	6.6100e-01	-6.4295	-30.048601	0.000707	7.067318	1.197236	-0.028232
1324	6.6150e-01	-6.4484	-30.157495	0.000545	5.451931	0.923582	-0.021779
1325	6.6200e-01	-6.4692	-30.318819	0.000808	8.076935	1.368270	-0.032265
1326	6.6250e-01	-6.4899	-30.443845	0.000626	6.259625	1.060409	-0.025005
1327	6.6300e-01	-6.5089	-30.532573	0.000444	4.442314	0.752548	-0.017746
1328	6.6350e-01	-6.5290	-30.657599	0.000626	6.259625	1.060409	-0.025005
1329	6.6400e-01	-6.5491	-30.802791	0.000727	7.269241	1.231443	-0.029038
1330	6.6450e-01	-6.5693	-30.939916	0.000687	6.865395	1.163029	-0.027425
1331	6.6500e-01	-6.5894	-31.093174	0.000767	7.673088	1.299856	-0.030652
1332	6.6550e-01	-6.6087	-31.218200	0.000626	6.259625	1.060409	-0.025005
1333	6.6600e-01	-6.6297	-31.286762	0.000343	3.432697	0.581515	-0.013713
1334	6.6650e-01	-6.6492	-31.456153	0.000848	8.480782	1.436683	-0.033878
1335	6.6700e-01	-6.6688	-31.629576	0.000868	8.682705	1.470890	-0.034685
1336	6.6750e-01	-6.6892	-31.730403	0.000505	5.048084	0.855169	-0.020165
1337	6.6800e-01	-6.7081	-31.835264	0.000525	5.250008	0.889375	-0.020972
1338	6.6850e-01	-6.7289	-32.024819	0.000949	9.490398	1.607717	-0.037911
1339	6.6900e-01	-6.7493	-32.145812	0.000606	6.057701	1.026202	-0.024199
1340	6.6950e-01	-6.7695	-32.291004	0.000727	7.269241	1.231443	-0.029038
1341	6.7000e-01	-6.7890	-32.363600	0.000363	3.634621	0.615721	-0.014519
1342	6.7050e-01	-6.8092	-32.480560	0.000586	5.855778	0.991996	-0.023392
1343	6.7100e-01	-6.8293	-32.645917	0.000828	8.278858	1.402477	-0.033071
1344	6.7150e-01	-6.8488	-32.762876	0.000586	5.855778	0.991996	-0.023392
1345	6.7200e-01	-6.8690	-32.879836	0.000586	5.855778	0.991996	-0.023392
1346	6.7250e-01	-6.8891	-33.073425	0.000969	9.692322	1.641924	-0.038718
1347	6.7300e-01	-6.9093	-33.210550	0.000687	6.865395	1.163029	-0.027425
1348	6.7350e-01	-6.9300	-33.335576	0.000626	6.259625	1.060409	-0.025005
1349	6.7400e-01	-6.9492	-33.440437	0.000525	5.250008	0.889375	-0.020972
1350	6.7450e-01	-6.9691	-33.525132	0.000424	4.240391	0.718342	-0.016939
1351	6.7500e-01	-6.9888	-33.734853	0.001050	10.500015	1.778751	-0.041944
1352	6.7550e-01	-7.0094	-33.847780	0.000565	5.653854	0.957789	-0.022585
1353	6.7600e-01	-7.0289	-34.005071	0.000788	7.875011	1.334063	-0.031458
1354	6.7650e-01	-7.0484	-34.097832	0.000464	4.644238	0.786755	-0.018552
1355	6.7700e-01	-7.0692	-34.222858	0.000626	6.259625	1.060409	-0.025005
1356	6.7750e-01	-7.0887	-34.327719	0.000525	5.250008	0.889375	-0.020972
1357	6.7800e-01	-7.1073	-34.472910	0.000727	7.269241	1.231443	-0.029038
1358	6.7850e-01	-7.1296	-34.597936	0.000626	6.259625	1.060409	-0.025005
1359	6.7900e-01	-7.1491	-34.722962	0.000626	6.259625	1.060409	-0.025005
1360	6.7950e-01	-7.1687	-34.880253	0.000788	7.875011	1.334063	-0.031458
1361	6.8000e-01	-7.1888	-35.045610	0.000828	8.278858	1.402477	-0.033071
1362	6.8050e-01	-7.2095	-35.162570	0.000586	5.855778	0.991996	-0.023392
1363	6.8100e-01	-7.2285	-35.327927	0.000828	8.278858	1.402477	-0.033071
1364	6.8150e-01	-7.2489	-35.400523	0.000363	3.634621	0.615721	-0.014519
1365	6.8200e-01	-7.2779	-35.670741	0.001353	13.528866	2.291852	-0.054044
1366	6.8250e-01	-7.2895	-35.694939	0.000121	1.211540	0.205240	-0.004840
1367	6.8300e-01	-7.3096	-35.836098	0.000707	7.067318	1.197236	-0.028232
1368	6.8350e-01	-7.3289	-35.981289	0.000727	7.269241	1.231443	-0.029038
1369	6.8400e-01	-7.3493	-36.114381	0.000666	6.663471	1.128823	-0.026618
1370	6.8450e-01	-7.3695	-36.191010	0.000384	3.836544	0.649928	-0.015326
1371	6.8500e-01	-7.3896	-36.348301	0.000788	7.875011	1.334063	-0.031458
1372	6.8550e-01	-7.4073	-36.420897	0.000363	3.634621	0.615721	-0.014519
1373	6.8600e-01	-7.4284	-36.662883	0.001212	12.115402	2.052405	-0.048397
1374	6.8650e-01	-7.4488	-36.755644	0.000464	4.644238	0.786755	-0.018552
1375	6.8700e-01	-7.4689	-36.828240	0.000363	3.634621	0.615721	-0.014519
1376	6.8750e-01	-7.4894	-36.997630	0.000848	8.480782	1.436683	-0.033878
1377	6.8800e-01	-7.5092	-37.175086	0.000888	8.884628	1.505097	-0.035491
1378	6.8850e-01	-7.5294	-37.296079	0.000606	6.057701	1.026202	-0.024199
1379	6.8900e-01	-7.5489	-37.404973	0.000545	5.451931	0.923582	-0.021779
1380	6.8950e-01	-7.5703	-37.542098	0.000687	6.865395	1.163029	-0.027425
1381	6.9000e-01	-7.5892	-37.727621	0.000929	9.288475	1.573510	-0.037105
1382	6.9050e-01	-7.6081	-37.788117	0.000303	3.028851	0.513101	-0.012099
1383	6.9100e-01	-7.6289	-37.969607	0.000909	9.086552	1.539304	-0.036298
1384	6.9150e-01	-7.6487	-38.151096	0.000909	9.086552	1.539304	-0.036298
1385	6.9200e-01	-7.6685	-38.219659	0.000343	3.432697	0.581515	-0.013713
1386	6.9250e-01	-7.6890	-38.413248	0.000969	9.692322	1.641924	-0.038718
1387	6.9300e-01	-7.7082	-38.501976	0.000444	4.442314	0.752548	-0.017746
1388	6.9350e-01	-7.7293	-38.683465	0.000909	9.086552	1.539304	-0.036298
1389	6.9400e-01	-7.7485	-38.768160	0.000424	4.240391	0.718342	-0.016939
1390	6.9450e-01	-7.7699	-38.953683	0.000929	9.288475	1.573510	-0.037105
1391	6.9500e-01	-7.7894	-39.062577	0.000545	5.451931	0.923582	-0.021779
1392	6.9550e-01	-7.8089	-39.240033	0.000888	8.884628	1.505097	-0.035491
1393	6.9600e-01	-7.8288	-39.312629	0.000363	3.634621	0.615721	-0.014519
1394	6.9650e-01	-7.8486	-39.461853	0.000747	7.471165	1.265650	-0.029845
1395	6.9700e-01	-7.8684	-39.619144	0.000788	7.875011	1.334063	-0.031458
1396	6.9750e-01	-7.8895	-39.728038	0.000545	5.451931	0.923582	-0.021779
1397	6.9800e-01	-7.9102	-39.861130	0.000666	6.663471	1.128823	-0.026618
1398	6.9850e-01	-7.9279	-40.046653	0.000929	9.288475	1.573510	-0.037105
1399	6.9900e-01	-7.9481	-40.167646	0.000606	6.057701	1.026202	-0.024199
1400	6.9950e-01	-7.9688	-40.240241	0.000363	3.634621	0.615721	-0.014519
1401	7.0000e-01	-7.9890	-40.437863	0.000989	9.894245	1.676131	-0.039524
1402	7.0050e-01	-8.0091	-40.538691	0.000505	5.048084	0.855169	-0.020165
1403	7.0100e-01	-8.0286	-40.708081	0.000848	8.480782	1.436683	-0.033878
1404	7.0150e-01	-8.0494	-40.881504	0.000868	8.682705	1.470890	-0.034685
1405	7.0200e-01	-8.0695	-40.994431	0.000565	5.653854	0.957789	-0.022585
1406	7.0250e-01	-8.0897	-41.147688	0.000767	7.673088	1.299856	-0.030652
1407	7.0300e-01	-8.1086	-41.325145	0.000888	8.884628	1.505097	-0.035491
1408	7.0350e-01	-8.1300	-41.430005	0.000525	5.250008	0.889375	-0.020972
1409	7.0400e-01	-8.1483	-41.534866	0.000525	5.250008	0.889375	-0.020972
1410	7.0450e-01	-8.1687	-41.692157	0.000788	7.875011	1.334063	-0.031458
1411	7.0500e-01	-8.1886	-41.833315	0.000707	7.067318	1.197236	-0.028232
1412	7.0550e-01	-8.2090	-41.966408	0.000666	6.663471	1.128823	-0.026618
1413	7.0600e-01	-8.2291	-42.107566	0.000707	7.067318	1.197236	-0.028232
1414	7.0650e-01	-8.2484	-42.264857	0.000788	7.875011	1.334063	-0.031458
1415	7.0700e-01	-8.2685	-42.389883	0.000626	6.259625	1.060409	-0.025005
1416	7.0750e-01	-8.2887	-42.563306	0.000868	8.682705	1.470890	-0.034685
1417	7.0800e-01	-8.3088	-42.680266	0.000586	5.855778	0.991996	-0.023392
1418	7.0850e-01	-8.3283	-42.797226	0.000586	5.855778	0.991996	-0.023392
1419	7.0900e-01	-8.3485	-42.974682	0.000888	8.884628	1.505097	-0.035491
1420	7.0950e-01	-8.3686	-43.107774	0.000666	6.663471	1.128823	-0.026618
1421	7.1000e-01	-8.3894	-43.248933	0.000707	7.067318	1.197236	-0.028232
1422	7.1050e-01	-8.4077	-43.297330	0.000242	2.423080	0.410481	-0.009679
1423	7.1100e-01	-8.4303	-43.619978	0.001615	16.153870	2.736540	-0.064530
1424	7.1150e-01	-8.4492	-43.648210	0.000141	1.413464	0.239447	-0.005646
1425	7.1200e-01	-8.4693	-43.841798	0.000969	9.692322	1.641924	-0.038718
1426	7.1250e-01	-8.4895	-43.950692	0.000545	5.451931	0.923582	-0.021779
1427	7.1300e-01	-8.5090	-44.067652	0.000586	5.855778	0.991996	-0.023392
1428	7.1350e-01	-8.5285	-44.253174	0.000929	9.288475	1.573510	-0.037105
1429	7.1400e-01	-8.5487	-44.418531	0.000828	8.278858	1.402477	-0.033071
1430	7.1450e-01	-8.5688	-44.507260	0.000444	4.442314	0.752548	-0.017746
1431	7.1500e-01	-8.5883	-44.664550	0.000788	7.875011	1.334063	-0.031458
1432	7.1550e-01	-8.6085	-44.846040	0.000909	9.086552	1.539304	-0.036298
1433	7.1600e-01	-8.6286	-44.934768	0.000444	4.442314	0.752548	-0.017746
1434	7.1650e-01	-8.6481	-45.128357	0.000969	9.692322	1.641924	-0.038718
1435	7.1700e-01	-8.6677	-45.229184	0.000505	5.048084	0.855169	-0.020165
1436	7.1750e-01	-8.6897	-45.430839	0.001010	10.096169	1.710337	-0.040331
1437	7.1800e-01	-8.7080	-45.539733	0.000545	5.451931	0.923582	-0.021779
1438	7.1850e-01	-8.7293	-45.676858	0.000687	6.865395	1.163029	-0.027425
1439	7.1900e-01	-8.7495	-45.809950	0.000666	6.663471	1.128823	-0.026618
1440	7.1950e-01	-8.7684	-45.951109	0.000707	7.067318	1.197236	-0.028232
1441	7.2000e-01	-8.7891	-46.124532	0.000868	8.682705	1.470890	-0.034685
1442	7.2050e-01	-8.8099	-46.253591	0.000646	6.461548	1.094616	-0.025812
1443	7.2100e-01	-8.8300	-46.435081	0.000909	9.086552	1.539304	-0.036298
1444	7.2150e-01	-8.8483	-46.572206	0.000687	6.865395	1.163029	-0.027425
1445	7.2200e-01	-8.8691	-46.777894	0.001030	10.298092	1.744544	-0.041138
1446	7.2250e-01	-8.8892	-46.898887	0.000606	6.057701	1.026202	-0.024199
1447	7.2300e-01	-8.9082	-47.031979	0.000666	6.663471	1.128823	-0.026618
1448	7.2350e-01	-8.9292	-47.165072	0.000666	6.663471	1.128823	-0.026618
1449	7.2400e-01	-8.9484	-47.330429	0.000828	8.278858	1.402477	-0.033071
1450	7.2450e-01	-8.9686	-47.471587	0.000707	7.067318	1.197236	-0.028232
1451	7.2500e-01	-8.9887	-47.653077	0.000909	9.086552	1.539304	-0.036298
1452	7.2550e-01	-9.0083	-47.766003	0.000565	5.653854	0.957789	-0.022585
1453	7.2600e-01	-9.0290	-47.943460	0.000888	8.884628	1.505097	-0.035491
1454	7.2650e-01	-9.0491	-48.092684	0.000747	7.471165	1.265650	-0.029845
1455	7.2700e-01	-9.0693	-48.254008	0.000808	8.076935	1.368270	-0.032265
1456	7.2750e-01	-9.0888	-48.387100	0.000666	6.663471	1.128823	-0.026618
1457	7.2800e-01	-9.1090	-48.536325	0.000747	7.471165	1.265650	-0.029845
1458	7.2850e-01	-9.1297	-48.685550	0.000747	7.471165	1.265650	-0.029845
1459	7.2900e-01	-9.1486	-48.842841	0.000788	7.875011	1.334063	-0.031458
1460	7.2950e-01	-9.1688	-48.959800	0.000586	5.855778	0.991996	-0.023392
1461	7.3000e-01	-9.1895	-49.149356	0.000949	9.490398	1.607717	-0.037911
1462	7.3050e-01	-9.2091	-49.330846	0.000909	9.086552	1.539304	-0.036298
1463	7.3100e-01	-9.2286	-49.439739	0.000545	5.451931	0.923582	-0.021779
1464	7.3150e-01	-9.2493	-49.588964	0.000747	7.471165	1.265650	-0.029845
1465	7.3200e-01	-9.2695	-49.746255	0.000788	7.875011	1.334063	-0.031458
1466	7.3250e-01	-9.2890	-49.899512	0.000767	7.673088	1.299856	-0.030652
1467	7.3300e-01	-9.3098	-50.024539	0.000626	6.259625	1.060409	-0.025005
1468	7.3350e-01	-9.3287	-50.214094	0.000949	9.490398	1.607717	-0.037911
1469	7.3400e-01	-9.3488	-50.318955	0.000525	5.250008	0.889375	-0.020972
1470	7.3450e-01	-9.3696	-50.508510	0.000949	9.490398	1.607717	-0.037911
1471	7.3500e-01	-9.3885	-50.641603	0.000666	6.663471	1.128823	-0.026618
1472	7.3550e-01	-9.4093	-50.774695	0.000666	6.663471	1.128823	-0.026618
1473	7.3600e-01	-9.4288	-51.008615	0.001171	11.711556	1.983991	-0.046784
1474	7.3650e-01	-9.4483	-51.141707	0.000666	6.663471	1.128823	-0.026618
1475	7.3700e-01	-9.4688	-51.274799	0.000666	6.663471	1.128823	-0.026618
1476	7.3750e-01	-9.4886	-51.415958	0.000707	7.067318	1.197236	-0.028232
1477	7.3800e-01	-9.5087	-51.573248	0.000788	7.875011	1.334063	-0.031458
1478	7.3850e-01	-9.5295	-51.754738	0.000909	9.086552	1.539304	-0.036298
1479	7.3900e-01	-9.5496	-51.968492	0.001070	10.701939	1.812957	-0.042751
1480	7.3950e-01	-9.5683	-52.049154	0.000404	4.038467	0.684135	-0.016132
1481	7.4000e-01	-9.5881	-52.246776	0.000989	9.894245	1.676131	-0.039524
1482	7.4050e-01	-9.6088	-52.319372	0.000363	3.634621	0.615721	-0.014519
1483	7.4100e-01	-9.6284	-52.593622	0.001373	13.730789	2.326059	-0.054850
1484	7.4150e-01	-9.6488	-52.702516	0.000545	5.451931	0.923582	-0.021779
1485	7.4200e-01	-9.6693	-52.888039	0.000929	9.288475	1.573510	-0.037105
1486	7.4250e-01	-9.6882	-53.041296	0.000767	7.673088	1.299856	-0.030652
1487	7.4300e-01	-9.7074	-53.125991	0.000424	4.240391	0.718342	-0.016939
1488	7.4350e-01	-9.7297	-53.319580	0.000969	9.692322	1.641924	-0.038718
1489	7.4400e-01	-9.7486	-53.521235	0.001010	10.096169	1.710337	-0.040331
1490	7.4450e-01	-9.7694	-53.646261	0.000626	6.259625	1.060409	-0.025005
1491	7.4500e-01	-9.7889	-53.795486	0.000747	7.471165	1.265650	-0.029845
1492	7.4550e-01	-9.8090	-53.989074	0.000969	9.692322	1.641924	-0.038718
1493	7.4600e-01	-9.8286	-54.182663	0.000969	9.692322	1.641924	-0.038718
1494	7.4650e-01	-9.8499	-54.299623	0.000586	5.855778	0.991996	-0.023392
1495	7.4700e-01	-9.8695	-54.485146	0.000929	9.288475	1.573510	-0.037105
1496	7.4750e-01	-9.8887	-54.642436	0.000788	7.875011	1.334063	-0.031458
1497	7.4800e-01	-9.9091	-54.783595	0.000707	7.067318	1.197236	-0.028232
1498	7.4850e-01	-9.9293	-55.009448	0.001131	11.307709	1.915578	-0.045171
1499	7.4900e-01	-9.9491	-55.098177	0.000444	4.442314	0.752548	-0.017746
1500	7.4950e-01	-9.9689	-55.279666	0.000909	9.086552	1.539304	-0.036298
1501	7.5000e-01	-9.9879	-55.465189	0.000929	9.288475	1.573510	-0.037105
1502	7.5050e-01	-9.9848	-55.489387	-0.000121	-1.211540	-0.205240	-0.004840
1503	7.5100e-01	-9.9702	-55.574082	-0.000424	-4.240391	-0.718342	-0.016939
1504	7.5150e-01	-9.9506	-55.461155	0.000565	5.653854	0.957789	0.022585
1505	7.5200e-01	-9.9311	-55.638612	-0.000888	-8.884628	-1.505097	-0.035491
1506	7.5250e-01	-9.9116	-55.666843	-0.000141	-1.413464	-0.239447	-0.005646
1507	7.5300e-01	-9.8910	-55.695075	-0.000141	-1.413464	-0.239447	-0.005646
1508	7.5350e-01	-9.8725	-55.763638	-0.000343	-3.432697	-0.581515	-0.013713
1509	7.5400e-01	-9.8518	-55.739439	0.000121	1.211540	0.205240	0.004840
1510	7.5450e-01	-9.8304	-55.783803	-0.000222	-2.221157	-0.376274	-0.008873
1511	7.5500e-01	-9.8121	-55.836234	-0.000263	-2.625004	-0.444688	-0.010486
1512	7.5550e-01	-9.7913	-55.832201	0.000020	0.201923	0.034207	0.000807
1513	7.5600e-01	-9.7712	-55.836234	-0.000020	-0.201923	-0.034207	-0.000807
1514	7.5650e-01	-9.7517	-55.763638	0.000363	3.634621	0.615721	0.014519
1515	7.5700e-01	-9.7321	-55.755572	0.000040	0.403847	0.068413	0.001613
1516	7.5750e-01	-9.7120	-55.771704	-0.000081	-0.807693	-0.136827	-0.003226
1517	7.5800e-01	-9.6925	-55.779770	-0.000040	-0.403847	-0.068413	-0.001613
1518	7.5850e-01	-9.6717	-55.763638	0.000081	0.807693	0.136827	0.003226
1519	7.5900e-01	-9.6522	-55.775737	-0.000061	-0.605770	-0.102620	-0.002420
1520	7.5950e-01	-9.6317	-55.727340	0.000242	2.423080	0.410481	0.009679
1521	7.6000e-01	-9.6125	-55.707174	0.000101	1.009617	0.171034	0.004033
1522	7.6050e-01	-9.5918	-55.678943	0.000141	1.413464	0.239447	0.005646
1523	7.6100e-01	-9.5716	-55.670877	0.000040	0.403847	0.068413	0.001613
1524	7.6150e-01	-9.5521	-55.662810	0.000040	0.403847	0.068413	0.001613
1525	7.6200e-01	-9.5319	-55.634579	0.000141	1.413464	0.239447	0.005646
1526	7.6250e-01	-9.5118	-55.638612	-0.000020	-0.201923	-0.034207	-0.000807
1527	7.6300e-01	-9.4917	-55.578115	0.000303	3.028851	0.513101	0.012099
1528	7.6350e-01	-9.4715	-55.557950	0.000101	1.009617	0.171034	0.004033
1529	7.6400e-01	-9.4517	-55.517619	0.000202	2.019234	0.342067	0.008066
1530	7.6450e-01	-9.4324	-55.533751	-0.000081	-0.807693	-0.136827	-0.003226
1531	7.6500e-01	-9.4117	-55.477288	0.000283	2.826927	0.478894	0.011293
1532	7.6550e-01	-9.3916	-55.432924	0.000222	2.221157	0.376274	0.008873
1533	7.6600e-01	-9.3714	-55.440990	-0.000040	-0.403847	-0.068413	-0.001613
1534	7.6650e-01	-9.3537	-55.372427	0.000343	3.432697	0.581515	0.013713
1535	7.6700e-01	-9.3317	-55.340162	0.000162	1.615387	0.273654	0.006453
1536	7.6750e-01	-9.3122	-55.376460	-0.000182	-1.817310	-0.307861	-0.007260
1537	7.6800e-01	-9.2933	-55.307898	0.000343	3.432697	0.581515	0.013713
1538	7.6850e-01	-9.2719	-55.315964	-0.000040	-0.403847	-0.068413	-0.001613
1539	7.6900e-01	-9.2518	-55.251434	0.000323	3.230774	0.547308	0.012906
1540	7.6950e-01	-9.2323	-55.166739	0.000424	4.240391	0.718342	0.016939
1541	7.7000e-01	-9.2121	-55.134474	0.000162	1.615387	0.273654	0.006453
1542	7.7050e-01	-9.1920	-55.110276	0.000121	1.211540	0.205240	0.004840
1543	7.7100e-01	-9.1688	-55.069945	0.000202	2.019234	0.342067	0.008066
1544	7.7150e-01	-9.1520	-55.017515	0.000263	2.625004	0.444688	0.010486
1545	7.7200e-01	-9.1322	-55.033647	-0.000081	-0.807693	-0.136827	-0.003226
1546	7.7250e-01	-9.1114	-55.009448	0.000121	1.211540	0.205240	0.004840
1547	7.7300e-01	-9.0922	-54.912654	0.000485	4.846161	0.820962	0.019359
1548	7.7350e-01	-9.0717	-54.928786	-0.000081	-0.807693	-0.136827	-0.003226
1549	7.7400e-01	-9.0522	-54.852158	0.000384	3.836544	0.649928	0.015326
1550	7.7450e-01	-9.0314	-54.811827	0.000202	2.019234	0.342067	0.008066
1551	7.7500e-01	-9.0119	-54.799727	0.000061	0.605770	0.102620	0.002420
1552	7.7550e-01	-8.9918	-54.715032	0.000424	4.240391	0.718342	0.016939
1553	7.7600e-01	-8.9716	-54.690834	0.000121	1.211540	0.205240	0.004840
1554	7.7650e-01	-8.9524	-54.634370	0.000283	2.826927	0.478894	0.011293
1555	7.7700e-01	-8.9326	-54.594039	0.000202	2.019234	0.342067	0.008066
1556	7.7750e-01	-8.9112	-54.557741	0.000182	1.817310	0.307861	0.007260
1557	7.7800e-01	-8.8923	-54.513377	0.000222	2.221157	0.376274	0.008873
1558	7.7850e-01	-8.8721	-54.464980	0.000242	2.423080	0.410481	0.009679
1559	7.7900e-01	-8.8517	-54.372219	0.000464	4.644238	0.786755	0.018552
1560	7.7950e-01	-8.8313	-54.388351	-0.000081	-0.807693	-0.136827	-0.003226
1561	7.8000e-01	-8.8123	-54.319789	0.000343	3.432697	0.581515	0.013713
1562	7.8050e-01	-8.7934	-54.271391	0.000242	2.423080	0.410481	0.009679
1563	7.8100e-01	-8.7727	-54.206862	0.000323	3.230774	0.547308	0.012906
1564	7.8150e-01	-8.7519	-54.186696	0.000101	1.009617	0.171034	0.004033
1565	7.8200e-01	-8.7327	-54.069736	0.000586	5.855778	0.991996	0.023392
1566	7.8250e-01	-8.7128	-53.956810	0.000565	5.653854	0.957789	0.022585
1567	7.8300e-01	-8.6921	-54.077803	-0.000606	-6.057701	-1.026202	-0.024199
1568	7.8350e-01	-8.6720	-53.964876	0.000565	5.653854	0.957789	0.022585
1569	7.8400e-01	-8.6518	-53.952777	0.000061	0.605770	0.102620	0.002420
1570	7.8450e-01	-8.6317	-53.855982	0.000485	4.846161	0.820962	0.019359
1571	7.8500e-01	-8.6121	-53.864048	-0.000040	-0.403847	-0.068413	-0.001613
1572	7.8550e-01	-8.5920	-53.755155	0.000545	5.451931	0.923582	0.021779
1573	7.8600e-01	-8.5719	-53.767254	-0.000061	-0.605770	-0.102620	-0.002420
1574	7.8650e-01	-8.5526	-53.609963	0.000788	7.875011	1.334063	0.031458
1575	7.8700e-01	-8.5322	-53.569632	0.000202	2.019234	0.342067	0.008066
1576	7.8750e-01	-8.5114	-53.593831	-0.000121	-1.211540	-0.205240	-0.004840
1577	7.8800e-01	-8.4919	-53.468805	0.000626	6.259625	1.060409	0.025005
1578	7.8850e-01	-8.4724	-53.505103	-0.000182	-1.817310	-0.307861	-0.007260
1579	7.8900e-01	-8.4522	-53.444606	0.000303	3.028851	0.513101	0.012099
1580	7.8950e-01	-8.4321	-53.367977	0.000384	3.836544	0.649928	0.015326
1581	7.9000e-01	-8.4132	-53.331679	0.000182	1.817310	0.307861	0.007260
1582	7.9050e-01	-8.3918	-53.291348	0.000202	2.019234	0.342067	0.008066
1583	7.9100e-01	-8.3723	-53.194554	0.000485	4.846161	0.820962	0.019359
1584	7.9150e-01	-8.3521	-53.125991	0.000343	3.432697	0.581515	0.013713
1585	7.9200e-01	-8.3326	-53.053396	0.000363	3.634621	0.615721	0.014519
1586	7.9250e-01	-8.3112	-53.045329	0.000040	0.403847	0.068413	0.001613
1587	7.9300e-01	-8.2917	-52.952568	0.000464	4.644238	0.786755	0.018552
1588	7.9350e-01	-8.2716	-52.924336	0.000141	1.413464	0.239447	0.005646
1589	7.9400e-01	-8.2520	-52.871906	0.000263	2.625004	0.444688	0.010486
1590	7.9450e-01	-8.2313	-52.815443	0.000283	2.826927	0.478894	0.011293
1591	7.9500e-01	-8.2117	-52.746880	0.000343	3.432697	0.581515	0.013713
1592	7.9550e-01	-8.1910	-52.686384	0.000303	3.028851	0.513101	0.012099
1593	7.9600e-01	-8.1709	-52.633953	0.000263	2.625004	0.444688	0.010486
1594	7.9650e-01	-8.1525	-52.605722	0.000141	1.413464	0.239447	0.005646
1595	7.9700e-01	-8.1318	-52.460530	0.000727	7.269241	1.231443	0.029038
1596	7.9750e-01	-8.1123	-52.484729	-0.000121	-1.211540	-0.205240	-0.004840
1597	7.9800e-01	-8.0915	-52.383901	0.000505	5.048084	0.855169	0.020165
1598	7.9850e-01	-8.0720	-52.335504	0.000242	2.423080	0.410481	0.009679
1599	7.9900e-01	-8.0518	-52.311305	0.000121	1.211540	0.205240	0.004840
1600	7.9950e-01	-8.0323	-52.210478	0.000505	5.048084	0.855169	0.020165
1601	8.0000e-01	-8.0116	-52.141915	0.000343	3.432697	0.581515	0.013713
1602	8.0050e-01	-7.9920	-52.129816	0.000061	0.605770	0.102620	0.002420
1603	8.0100e-01	-7.9716	-52.101584	0.000141	1.413464	0.239447	0.005646
1604	8.0150e-01	-7.9520	-51.988658	0.000565	5.653854	0.957789	0.022585
1605	8.0200e-01	-7.9310	-51.899929	0.000444	4.442314	0.752548	0.017746
1606	8.0250e-01	-7.9121	-51.903962	-0.000020	-0.201923	-0.034207	-0.000807
1607	8.0300e-01	-7.8913	-51.778936	0.000626	6.259625	1.060409	0.025005
1608	8.0350e-01	-7.8718	-51.722473	0.000283	2.826927	0.478894	0.011293
1609	8.0400e-01	-7.8529	-51.698274	0.000121	1.211540	0.205240	0.004840
1610	8.0450e-01	-7.8312	-51.633745	0.000323	3.230774	0.547308	0.012906
1611	8.0500e-01	-7.8120	-51.540984	0.000464	4.644238	0.786755	0.018552
1612	8.0550e-01	-7.7912	-51.460322	0.000404	4.038467	0.684135	0.016132
1613	8.0600e-01	-7.7717	-51.448222	0.000061	0.605770	0.102620	0.002420
1614	8.0650e-01	-7.7511	-51.411924	0.000182	1.817310	0.307861	0.007260
1615	8.0700e-01	-7.7320	-51.347395	0.000323	3.230774	0.547308	0.012906
1616	8.0750e-01	-7.7119	-51.298998	0.000242	2.423080	0.410481	0.009679
1617	8.0800e-01	-7.6917	-51.206236	0.000464	4.644238	0.786755	0.018552
1618	8.0850e-01	-7.6716	-51.145740	0.000303	3.028851	0.513101	0.012099
1619	8.0900e-01	-7.6514	-51.057012	0.000444	4.442314	0.752548	0.017746
1620	8.0950e-01	-7.6313	-50.996515	0.000303	3.028851	0.513101	0.012099
1621	8.1000e-01	-7.6112	-50.936019	0.000303	3.028851	0.513101	0.012099
1622	8.1050e-01	-7.5913	-50.875522	0.000303	3.028851	0.513101	0.012099
1623	8.1100e-01	-7.5709	-50.851324	0.000121	1.211540	0.205240	0.004840
1624	8.1150e-01	-7.5520	-50.746463	0.000525	5.250008	0.889375	0.020972
1625	8.1200e-01	-7.5318	-50.690000	0.000283	2.826927	0.478894	0.011293
1626	8.1250e-01	-7.5117	-50.617404	0.000363	3.634621	0.615721	0.014519
1627	8.1300e-01	-7.4915	-50.581106	0.000182	1.817310	0.307861	0.007260
1628	8.1350e-01	-7.4720	-50.488345	0.000464	4.644238	0.786755	0.018552
1629	8.1400e-01	-7.4519	-50.443981	0.000222	2.221157	0.376274	0.008873
1630	8.1450e-01	-7.4323	-50.371385	0.000363	3.634621	0.615721	0.014519
1631	8.1500e-01	-7.4116	-50.290723	0.000404	4.038467	0.684135	0.016132
1632	8.1550e-01	-7.3927	-50.246359	0.000222	2.221157	0.376274	0.008873
1633	8.1600e-01	-7.3719	-50.201995	0.000222	2.221157	0.376274	0.008873
1634	8.1650e-01	-7.3512	-50.117300	0.000424	4.240391	0.718342	0.016939
1635	8.1700e-01	-7.3319	-50.089068	0.000141	1.413464	0.239447	0.005646
1636	8.1750e-01	-7.3121	-50.024539	0.000323	3.230774	0.547308	0.012906
1637	8.1800e-01	-7.2913	-49.923711	0.000505	5.048084	0.855169	0.020165
1638	8.1850e-01	-7.2724	-49.875314	0.000242	2.423080	0.410481	0.009679
1639	8.1900e-01	-7.2517	-49.802718	0.000363	3.634621	0.615721	0.014519
1640	8.1950e-01	-7.2324	-49.697858	0.000525	5.250008	0.889375	0.020972
1641	8.2000e-01	-7.2120	-49.701891	-0.000020	-0.201923	-0.034207	-0.000807
1642	8.2050e-01	-7.1918	-49.645427	0.000283	2.826927	0.478894	0.011293
1643	8.2100e-01	-7.1714	-49.504269	0.000707	7.067318	1.197236	0.028232
1644	8.2150e-01	-7.1516	-49.455872	0.000242	2.423080	0.410481	0.009679
1645	8.2200e-01	-7.1323	-49.395375	0.000303	3.028851	0.513101	0.012099
1646	8.2250e-01	-7.1119	-49.270349	0.000626	6.259625	1.060409	0.025005
1647	8.2300e-01	-7.0918	-49.209853	0.000303	3.028851	0.513101	0.012099
1648	8.2350e-01	-7.0710	-49.177588	0.000162	1.615387	0.273654	0.006453
1649	8.2400e-01	-7.0521	-49.096926	0.000404	4.038467	0.684135	0.016132
1650	8.2450e-01	-7.0319	-49.052562	0.000222	2.221157	0.376274	0.008873
1651	8.2500e-01	-7.0136	-49.032396	0.000101	1.009617	0.171034	0.004033
1652	8.2550e-01	-6.9910	-48.871072	0.000808	8.076935	1.368270	0.032265
1653	8.2600e-01	-6.9718	-48.818642	0.000263	2.625004	0.444688	0.010486
1654	8.2650e-01	-6.9520	-48.766212	0.000263	2.625004	0.444688	0.010486
1655	8.2700e-01	-6.9315	-48.657318	0.000545	5.451931	0.923582	0.021779
1656	8.2750e-01	-6.9111	-48.616987	0.000202	2.019234	0.342067	0.008066
1657	8.2800e-01	-6.8909	-48.576656	0.000202	2.019234	0.342067	0.008066
1658	8.2850e-01	-6.8723	-48.471796	0.000525	5.250008	0.889375	0.020972
1659	8.2900e-01	-6.8519	-48.447597	0.000121	1.211540	0.205240	0.004840
1660	8.2950e-01	-6.8311	-48.350803	0.000485	4.846161	0.820962	0.019359
1661	8.3000e-01	-6.8124	-48.262074	0.000444	4.442314	0.752548	0.017746
1662	8.3050e-01	-6.7908	-48.173346	0.000444	4.442314	0.752548	0.017746
1663	8.3100e-01	-6.7721	-48.116883	0.000283	2.826927	0.478894	0.011293
1664	8.3150e-01	-6.7518	-48.028155	0.000444	4.442314	0.752548	0.017746
1665	8.3200e-01	-6.7310	-47.999923	0.000141	1.413464	0.239447	0.005646
1666	8.3250e-01	-6.7109	-47.963625	0.000182	1.817310	0.307861	0.007260
1667	8.3300e-01	-6.6920	-47.842632	0.000606	6.057701	1.026202	0.024199
1668	8.3350e-01	-6.6712	-47.814400	0.000141	1.413464	0.239447	0.005646
1669	8.3400e-01	-6.6523	-47.733739	0.000404	4.038467	0.684135	0.016132
1670	8.3450e-01	-6.6322	-47.645010	0.000444	4.442314	0.752548	0.017746
1671	8.3500e-01	-6.6114	-47.556282	0.000444	4.442314	0.752548	0.017746
1672	8.3550e-01	-6.5925	-47.447389	0.000545	5.451931	0.923582	0.021779
1673	8.3600e-01	-6.5711	-47.459488	-0.000061	-0.605770	-0.102620	-0.002420
1674	8.3650e-01	-6.5516	-47.294131	0.000828	8.278858	1.402477	0.033071
1675	8.3700e-01	-6.5314	-47.314296	-0.000101	-1.009617	-0.171034	-0.004033
1676	8.3750e-01	-6.5113	-47.181204	0.000666	6.663471	1.128823	0.026618
1677	8.3800e-01	-6.4906	-47.116674	0.000323	3.230774	0.547308	0.012906
1678	8.3850e-01	-6.4710	-47.023913	0.000464	4.644238	0.786755	0.018552
1679	8.3900e-01	-6.4521	-46.995681	0.000141	1.413464	0.239447	0.005646
1680	8.3950e-01	-6.4314	-46.943251	0.000263	2.625004	0.444688	0.010486
1681	8.4000e-01	-6.4108	-46.862589	0.000404	4.038467	0.684135	0.016132
1682	8.4050e-01	-6.3920	-46.737563	0.000626	6.259625	1.060409	0.025005
1683	8.4100e-01	-6.3712	-46.677067	0.000303	3.028851	0.513101	0.012099
1684	8.4150e-01	-6.3520	-46.648835	0.000141	1.413464	0.239447	0.005646
1685	8.4200e-01	-6.3316	-46.564140	0.000424	4.240391	0.718342	0.016939
1686	8.4250e-01	-6.3105	-46.495577	0.000343	3.432697	0.581515	0.013713
1687	8.4300e-01	-6.2916	-46.431048	0.000323	3.230774	0.547308	0.012906
1688	8.4350e-01	-6.2720	-46.366518	0.000323	3.230774	0.547308	0.012906
1689	8.4400e-01	-6.2507	-46.253591	0.000565	5.653854	0.957789	0.022585
1690	8.4450e-01	-6.2321	-46.176962	0.000384	3.836544	0.649928	0.015326
1691	8.4500e-01	-6.2116	-46.156797	0.000101	1.009617	0.171034	0.004033
1692	8.4550e-01	-6.1909	-46.007572	0.000747	7.471165	1.265650	0.029845
1693	8.4600e-01	-6.1713	-45.979341	0.000141	1.413464	0.239447	0.005646
1694	8.4650e-01	-6.1512	-45.850281	0.000646	6.461548	1.094616	0.025812
1695	8.4700e-01	-6.1323	-45.813984	0.000182	1.817310	0.307861	0.007260
1696	8.4750e-01	-6.1118	-45.757520	0.000283	2.826927	0.478894	0.011293
1697	8.4800e-01	-6.0914	-45.664759	0.000464	4.644238	0.786755	0.018552
1698	8.4850e-01	-6.0719	-45.547799	0.000586	5.855778	0.991996	0.023392
1699	8.4900e-01	-6.0517	-45.527634	0.000101	1.009617	0.171034	0.004033
1700	8.4950e-01	-6.0305	-45.430839	0.000485	4.846161	0.820962	0.019359
1701	8.5000e-01	-6.0114	-45.338078	0.000464	4.644238	0.786755	0.018552
1702	8.5050e-01	-5.9907	-45.346144	-0.000040	-0.403847	-0.068413	-0.001613
1703	8.5100e-01	-5.9718	-45.164655	0.000909	9.086552	1.539304	0.036298
1704	8.5150e-01	-5.9513	-45.164655	0.000000	0.000000	0.000000	0.000000
1705	8.5200e-01	-5.9315	-45.096092	0.000343	3.432697	0.581515	0.013713
1706	8.5250e-01	-5.9113	-44.946867	0.000747	7.471165	1.265650	0.029845
1707	8.5300e-01	-5.8912	-44.910569	0.000182	1.817310	0.307861	0.007260
1708	8.5350e-01	-5.8701	-44.946867	-0.000182	-1.817310	-0.307861	-0.007260
1709	8.5400e-01	-5.8510	-44.729080	0.001090	10.903862	1.847164	0.043557
1710	8.5450e-01	-5.8320	-44.696815	0.000162	1.615387	0.273654	0.006453
1711	8.5500e-01	-5.8112	-44.604054	0.000464	4.644238	0.786755	0.018552
1712	8.5550e-01	-5.7911	-44.527425	0.000384	3.836544	0.649928	0.015326
1713	8.5600e-01	-5.7716	-44.430631	0.000485	4.846161	0.820962	0.019359
1714	8.5650e-01	-5.7516	-44.366101	0.000323	3.230774	0.547308	0.012906
1715	8.5700e-01	-5.7304	-44.257208	0.000545	5.451931	0.923582	0.021779
1716	8.5750e-01	-5.7108	-44.192678	0.000323	3.230774	0.547308	0.012906
1717	8.5800e-01	-5.6916	-44.144281	0.000242	2.423080	0.410481	0.009679
1718	8.5850e-01	-5.6702	-44.071685	0.000363	3.634621	0.615721	0.014519
1719	8.5900e-01	-5.6516	-43.922460	0.000747	7.471165	1.265650	0.029845
1720	8.5950e-01	-5.6318	-43.894229	0.000141	1.413464	0.239447	0.005646
1721	8.6000e-01	-5.6116	-43.809534	0.000424	4.240391	0.718342	0.016939
1722	8.6050e-01	-5.5924	-43.704673	0.000525	5.250008	0.889375	0.020972
1723	8.6100e-01	-5.5720	-43.656276	0.000242	2.423080	0.410481	0.009679
1724	8.6150e-01	-5.5512	-43.579647	0.000384	3.836544	0.649928	0.015326
1725	8.6200e-01	-5.5311	-43.466720	0.000565	5.653854	0.957789	0.022585
1726	8.6250e-01	-5.5112	-43.418323	0.000242	2.423080	0.410481	0.009679
1727	8.6300e-01	-5.4914	-43.321529	0.000485	4.846161	0.820962	0.019359
1728	8.6350e-01	-5.4713	-43.244900	0.000384	3.836544	0.649928	0.015326
1729	8.6400e-01	-5.4517	-43.188436	0.000283	2.826927	0.478894	0.011293
1730	8.6450e-01	-5.4310	-43.103741	0.000424	4.240391	0.718342	0.016939
1731	8.6500e-01	-5.4108	-43.023079	0.000404	4.038467	0.684135	0.016132
1732	8.6550e-01	-5.3919	-42.918219	0.000525	5.250008	0.889375	0.020972
1733	8.6600e-01	-5.3706	-42.821424	0.000485	4.846161	0.820962	0.019359
1734	8.6650e-01	-5.3522	-42.777060	0.000222	2.221157	0.376274	0.008873
1735	8.6700e-01	-5.3327	-42.728663	0.000242	2.423080	0.410481	0.009679
1736	8.6750e-01	-5.3126	-42.696398	0.000162	1.615387	0.273654	0.006453
1737	8.6800e-01	-5.2912	-42.567339	0.000646	6.461548	1.094616	0.025812
1738	8.6850e-01	-5.2714	-42.458446	0.000545	5.451931	0.923582	0.021779
1739	8.6900e-01	-5.2509	-42.381817	0.000384	3.836544	0.649928	0.015326
1740	8.6950e-01	-5.2314	-42.272923	0.000545	5.451931	0.923582	0.021779
1741	8.7000e-01	-5.2106	-42.204360	0.000343	3.432697	0.581515	0.013713
1742	8.7050e-01	-5.1917	-42.147897	0.000283	2.826927	0.478894	0.011293
1743	8.7100e-01	-5.1711	-42.030937	0.000586	5.855778	0.991996	0.023392
1744	8.7150e-01	-5.1508	-41.970441	0.000303	3.028851	0.513101	0.012099
1745	8.7200e-01	-5.1313	-41.881712	0.000444	4.442314	0.752548	0.017746
1746	8.7250e-01	-5.1105	-41.809117	0.000363	3.634621	0.615721	0.014519
1747	8.7300e-01	-5.0913	-41.704256	0.000525	5.250008	0.889375	0.020972
1748	8.7350e-01	-5.0709	-41.639727	0.000323	3.230774	0.547308	0.012906
1749	8.7400e-01	-5.0498	-41.563098	0.000384	3.836544	0.649928	0.015326
1750	8.7450e-01	-5.0312	-41.450171	0.000565	5.653854	0.957789	0.022585
1751	8.7500e-01	-5.0111	-41.345310	0.000525	5.250008	0.889375	0.020972
1752	8.7550e-01	-4.9909	-41.248516	0.000485	4.846161	0.820962	0.019359
1753	8.7600e-01	-4.9717	-41.188019	0.000303	3.028851	0.513101	0.012099
1754	8.7650e-01	-4.9525	-41.127523	0.000303	3.028851	0.513101	0.012099
1755	8.7700e-01	-4.9323	-41.002497	0.000626	6.259625	1.060409	0.025005
1756	8.7750e-01	-4.9119	-41.022662	-0.000101	-1.009617	-0.171034	-0.004033
1757	8.7800e-01	-4.8911	-40.921835	0.000505	5.048084	0.855169	0.020165
1758	8.7850e-01	-4.8719	-40.800842	0.000606	6.057701	1.026202	0.024199
1759	8.7900e-01	-4.8513	-40.748412	0.000263	2.625004	0.444688	0.010486
1760	8.7950e-01	-4.8316	-40.619353	0.000646	6.461548	1.094616	0.025812
1761	8.8000e-01	-4.8116	-40.579022	0.000202	2.019234	0.342067	0.008066
1762	8.8050e-01	-4.7923	-40.449962	0.000646	6.461548	1.094616	0.025812
1763	8.8100e-01	-4.7715	-40.381400	0.000343	3.432697	0.581515	0.013713
1764	8.8150e-01	-4.7523	-40.256374	0.000626	6.259625	1.060409	0.025005
1765	8.8200e-01	-4.7279	-40.203943	0.000263	2.625004	0.444688	0.010486
1766	8.8250e-01	-4.7117	-40.074884	0.000646	6.461548	1.094616	0.025812
1767	8.8300e-01	-4.6912	-40.058752	0.000081	0.807693	0.136827	0.003226
1768	8.8350e-01	-4.6717	-39.925660	0.000666	6.663471	1.128823	0.026618
1769	8.8400e-01	-4.6510	-39.893395	0.000162	1.615387	0.273654	0.006453
1770	8.8450e-01	-4.6314	-39.748203	0.000727	7.269241	1.231443	0.029038
1771	8.8500e-01	-4.6113	-39.724005	0.000121	1.211540	0.205240	0.004840
1772	8.8550e-01	-4.5927	-39.671574	0.000263	2.625004	0.444688	0.010486
1773	8.8600e-01	-4.5710	-39.502184	0.000848	8.480782	1.436683	0.033878
1774	8.8650e-01	-4.5515	-39.445721	0.000283	2.826927	0.478894	0.011293
1775	8.8700e-01	-4.5301	-39.340860	0.000525	5.250008	0.889375	0.020972
1776	8.8750e-01	-4.5118	-39.231967	0.000545	5.451931	0.923582	0.021779
1777	8.8800e-01	-4.4910	-39.179536	0.000263	2.625004	0.444688	0.010486
1778	8.8850e-01	-4.4721	-39.074676	0.000525	5.250008	0.889375	0.020972
1779	8.8900e-01	-4.4517	-38.994014	0.000404	4.038467	0.684135	0.016132
1780	8.8950e-01	-4.4318	-38.921418	0.000363	3.634621	0.615721	0.014519
1781	8.9000e-01	-4.4108	-38.832690	0.000444	4.442314	0.752548	0.017746
1782	8.9050e-01	-4.3906	-38.739929	0.000464	4.644238	0.786755	0.018552
1783	8.9100e-01	-4.3708	-38.639101	0.000505	5.048084	0.855169	0.020165
1784	8.9150e-01	-4.3513	-38.610869	0.000141	1.413464	0.239447	0.005646
1785	8.9200e-01	-4.3299	-38.421314	0.000949	9.490398	1.607717	0.037911
1786	8.9250e-01	-4.3110	-38.393082	0.000141	1.413464	0.239447	0.005646
1787	8.9300e-01	-4.2909	-38.308387	0.000424	4.240391	0.718342	0.016939
1788	8.9350e-01	-4.2719	-38.231758	0.000384	3.836544	0.649928	0.015326
1789	8.9400e-01	-4.2512	-38.155129	0.000384	3.836544	0.649928	0.015326
1790	8.9450e-01	-4.2313	-38.018004	0.000687	6.865395	1.163029	0.027425
1791	8.9500e-01	-4.2109	-37.897011	0.000606	6.057701	1.026202	0.024199
1792	8.9550e-01	-4.1920	-37.848614	0.000242	2.423080	0.410481	0.009679
1793	8.9600e-01	-4.1706	-37.715522	0.000666	6.663471	1.128823	0.026618
1794	8.9650e-01	-4.1496	-37.638893	0.000384	3.836544	0.649928	0.015326
1795	8.9700e-01	-4.1311	-37.566297	0.000363	3.634621	0.615721	0.014519
1796	8.9750e-01	-4.1108	-37.513867	0.000263	2.625004	0.444688	0.010486
1797	8.9800e-01	-4.0897	-37.336410	0.000888	8.884628	1.505097	0.035491
1798	8.9850e-01	-4.0708	-37.304146	0.000162	1.615387	0.273654	0.006453
1799	8.9900e-01	-4.0507	-37.215417	0.000444	4.442314	0.752548	0.017746
1800	8.9950e-01	-4.0311	-37.142822	0.000363	3.634621	0.615721	0.014519
1801	9.0000e-01	-4.0101	-37.033928	0.000545	5.451931	0.923582	0.021779
1802	9.0050e-01	-3.9906	-36.973431	0.000303	3.028851	0.513101	0.012099
1803	9.0100e-01	-3.9704	-36.828240	0.000727	7.269241	1.231443	0.029038
1804	9.0150e-01	-3.9507	-36.763710	0.000323	3.230774	0.547308	0.012906
1805	9.0200e-01	-3.9307	-36.674982	0.000444	4.442314	0.752548	0.017746
1806	9.0250e-01	-3.9112	-36.553989	0.000606	6.057701	1.026202	0.024199
1807	9.0300e-01	-3.8911	-36.465261	0.000444	4.442314	0.752548	0.017746
1808	9.0350e-01	-3.8715	-36.388632	0.000384	3.836544	0.649928	0.015326
1809	9.0400e-01	-3.8502	-36.303937	0.000424	4.240391	0.718342	0.016939
1810	9.0450e-01	-3.8306	-36.223275	0.000404	4.038467	0.684135	0.016132
1811	9.0500e-01	-3.8105	-36.098249	0.000626	6.259625	1.060409	0.025005
1812	9.0550e-01	-3.7901	-36.053885	0.000222	2.221157	0.376274	0.008873
1813	9.0600e-01	-3.7711	-35.920793	0.000666	6.663471	1.128823	0.026618
1814	9.0650e-01	-3.7507	-35.868362	0.000263	2.625004	0.444688	0.010486
1815	9.0700e-01	-3.7312	-35.719138	0.000747	7.471165	1.265650	0.029845
1816	9.0750e-01	-3.7113	-35.654608	0.000323	3.230774	0.547308	0.012906
1817	9.0800e-01	-3.6912	-35.557814	0.000485	4.846161	0.820962	0.019359
1818	9.0850e-01	-3.6713	-35.440854	0.000586	5.855778	0.991996	0.023392
1819	9.0900e-01	-3.6509	-35.440854	0.000000	0.000000	0.000000	0.000000
1820	9.0950e-01	-3.6304	-35.263398	0.000888	8.884628	1.505097	0.035491
1821	9.1000e-01	-3.6100	-35.178703	0.000424	4.240391	0.718342	0.016939
1822	9.1050e-01	-3.5905	-35.178703	0.000000	0.000000	0.000000	0.000000
1823	9.1100e-01	-3.5712	-35.021412	0.000788	7.875011	1.334063	0.031458
1824	9.1150e-01	-3.5513	-34.888319	0.000666	6.663471	1.128823	0.026618
1825	9.1200e-01	-3.5313	-34.779426	0.000545	5.451931	0.923582	0.021779
1826	9.1250e-01	-3.5094	-34.702797	0.000384	3.836544	0.649928	0.015326
1827	9.1300e-01	-3.4907	-34.626168	0.000384	3.836544	0.649928	0.015326
1828	9.1350e-01	-3.4715	-34.553572	0.000363	3.634621	0.615721	0.014519
1829	9.1400e-01	-3.4522	-34.476943	0.000384	3.836544	0.649928	0.015326
1830	9.1450e-01	-3.4318	-34.319653	0.000788	7.875011	1.334063	0.031458
1831	9.1500e-01	-3.4101	-34.234957	0.000424	4.240391	0.718342	0.016939
1832	9.1550e-01	-3.3909	-34.162362	0.000363	3.634621	0.615721	0.014519
1833	9.1600e-01	-3.3710	-33.940541	0.001111	11.105785	1.881371	0.044364
1834	9.1650e-01	-3.3503	-33.944574	-0.000020	-0.201923	-0.034207	-0.000807
1835	9.1700e-01	-3.3316	-33.892144	0.000263	2.625004	0.444688	0.010486
1836	9.1750e-01	-3.3109	-33.718721	0.000868	8.682705	1.470890	0.034685
1837	9.1800e-01	-3.2911	-33.658224	0.000303	3.028851	0.513101	0.012099
1838	9.1850e-01	-3.2710	-33.537231	0.000606	6.057701	1.026202	0.024199
1839	9.1900e-01	-3.2502	-33.460603	0.000384	3.836544	0.649928	0.015326
1840	9.1950e-01	-3.2319	-33.416238	0.000222	2.221157	0.376274	0.008873
1841	9.2000e-01	-3.2105	-33.335576	0.000404	4.038467	0.684135	0.016132
1842	9.2050e-01	-3.1905	-33.222650	0.000565	5.653854	0.957789	0.022585
1843	9.2100e-01	-3.1704	-33.101657	0.000606	6.057701	1.026202	0.024199
1844	9.2150e-01	-3.1501	-33.000829	0.000505	5.048084	0.855169	0.020165
1845	9.2200e-01	-3.1309	-32.908068	0.000464	4.644238	0.786755	0.018552
1846	9.2250e-01	-3.1101	-32.714479	0.000969	9.692322	1.641924	0.038718
1847	9.2300e-01	-3.0909	-32.746744	-0.000162	-1.615387	-0.273654	-0.006453
1848	9.2350e-01	-3.0708	-32.589453	0.000788	7.875011	1.334063	0.031458
1849	9.2400e-01	-3.0505	-32.541056	0.000242	2.423080	0.410481	0.009679
1850	9.2450e-01	-3.0306	-32.403931	0.000687	6.865395	1.163029	0.027425
1851	9.2500e-01	-3.0110	-32.307136	0.000485	4.846161	0.820962	0.019359
1852	9.2550e-01	-2.9909	-32.238574	0.000343	3.432697	0.581515	0.013713
1853	9.2600e-01	-2.9707	-32.145812	0.000464	4.644238	0.786755	0.018552
1854	9.2650e-01	-2.9502	-31.972389	0.000868	8.682705	1.470890	0.034685
1855	9.2700e-01	-2.9304	-31.851396	0.000606	6.057701	1.026202	0.024199
1856	9.2750e-01	-2.9108	-31.790900	0.000303	3.028851	0.513101	0.012099
1857	9.2800e-01	-2.8907	-31.682006	0.000545	5.451931	0.923582	0.021779
1858	9.2850e-01	-2.8703	-31.548914	0.000666	6.663471	1.128823	0.026618
1859	9.2900e-01	-2.8513	-31.452119	0.000485	4.846161	0.820962	0.019359
1860	9.2950e-01	-2.8312	-31.407755	0.000222	2.221157	0.376274	0.008873
1861	9.3000e-01	-2.8101	-31.298862	0.000545	5.451931	0.923582	0.021779
1862	9.3050e-01	-2.7897	-31.226266	0.000363	3.634621	0.615721	0.014519
1863	9.3100e-01	-2.7705	-31.117372	0.000545	5.451931	0.923582	0.021779
1864	9.3150e-01	-2.7506	-31.044776	0.000363	3.634621	0.615721	0.014519
1865	9.3200e-01	-2.7302	-30.887486	0.000788	7.875011	1.334063	0.031458
1866	9.3250e-01	-2.7114	-30.786658	0.000505	5.048084	0.855169	0.020165
1867	9.3300e-01	-2.6905	-30.669698	0.000586	5.855778	0.991996	0.023392
1868	9.3350e-01	-2.6710	-30.572904	0.000485	4.846161	0.820962	0.019359
1869	9.3400e-01	-2.6496	-30.532573	0.000202	2.019234	0.342067	0.008066
1870	9.3450e-01	-2.6305	-30.435779	0.000485	4.846161	0.820962	0.019359
1871	9.3500e-01	-2.6109	-30.278488	0.000788	7.875011	1.334063	0.031458
1872	9.3550e-01	-2.5912	-30.193793	0.000424	4.240391	0.718342	0.016939
1873	9.3600e-01	-2.5709	-30.084899	0.000545	5.451931	0.923582	0.021779
1874	9.3650e-01	-2.5503	-30.028436	0.000283	2.826927	0.478894	0.011293
1875	9.3700e-01	-2.5301	-30.008270	0.000101	1.009617	0.171034	0.004033
1876	9.3750e-01	-2.5114	-29.754185	0.001272	12.721172	2.155025	0.050817
1877	9.3800e-01	-2.4903	-29.681589	0.000363	3.634621	0.615721	0.014519
1878	9.3850e-01	-2.4708	-29.516232	0.000828	8.278858	1.402477	0.033071
1879	9.3900e-01	-2.4574	-29.685622	-0.000848	-8.480782	-1.436683	-0.033878
1880	9.3950e-01	-2.4313	-29.423471	0.001313	13.125019	2.223438	0.052430
1881	9.4000e-01	-2.4104	-29.330710	0.000464	4.644238	0.786755	0.018552
1882	9.4050e-01	-2.3914	-29.173419	0.000788	7.875011	1.334063	0.031458
1883	9.4100e-01	-2.3704	-29.064525	0.000545	5.451931	0.923582	0.021779
1884	9.4150e-01	-2.3505	-28.987896	0.000384	3.836544	0.649928	0.015326
1885	9.4200e-01	-2.3310	-28.806407	0.000909	9.086552	1.539304	0.036298
1886	9.4250e-01	-2.3121	-28.766076	0.000202	2.019234	0.342067	0.008066
1887	9.4300e-01	-2.2913	-28.584586	0.000909	9.086552	1.539304	0.036298
1888	9.4350e-01	-2.2715	-28.536189	0.000242	2.423080	0.410481	0.009679
1889	9.4400e-01	-2.2512	-28.431329	0.000525	5.250008	0.889375	0.020972
1890	9.4450e-01	-2.2311	-28.370832	0.000303	3.028851	0.513101	0.012099
1891	9.4500e-01	-2.2106	-28.274038	0.000485	4.846161	0.820962	0.019359
1892	9.4550e-01	-2.1911	-28.157078	0.000586	5.855778	0.991996	0.023392
1893	9.4600e-01	-2.1700	-28.036085	0.000606	6.057701	1.026202	0.024199
1894	9.4650e-01	-2.1504	-27.911059	0.000626	6.259625	1.060409	0.025005
1895	9.4700e-01	-2.1305	-27.814265	0.000485	4.846161	0.820962	0.019359
1896	9.4750e-01	-2.1104	-27.713437	0.000505	5.048084	0.855169	0.020165
1897	9.4800e-01	-2.0908	-27.612610	0.000505	5.048084	0.855169	0.020165
1898	9.4850e-01	-2.0710	-27.548080	0.000323	3.230774	0.547308	0.012906
1899	9.4900e-01	-2.0507	-27.394822	0.000767	7.673088	1.299856	0.030652
1900	9.4950e-01	-2.0303	-27.277862	0.000586	5.855778	0.991996	0.023392
1901	9.5000e-01	-2.0106	-27.164936	0.000565	5.653854	0.957789	0.022585
1902	9.5050e-01	-1.9903	-27.052009	0.000565	5.653854	0.957789	0.022585
1903	9.5100e-01	-1.9701	-26.967314	0.000424	4.240391	0.718342	0.016939
1904	9.5150e-01	-1.9505	-26.878586	0.000444	4.442314	0.752548	0.017746
1905	9.5200e-01	-1.9309	-26.741460	0.000687	6.865395	1.163029	0.027425
1906	9.5250e-01	-1.9102	-26.596269	0.000727	7.269241	1.231443	0.029038
1907	9.5300e-01	-1.8897	-26.527706	0.000343	3.432697	0.581515	0.013713
1908	9.5350e-01	-1.8707	-26.438978	0.000444	4.442314	0.752548	0.017746
1909	9.5400e-01	-1.8511	-26.330084	0.000545	5.451931	0.923582	0.021779
1910	9.5450e-01	-1.8308	-26.225224	0.000525	5.250008	0.889375	0.020972
1911	9.5500e-01	-1.8110	-26.132462	0.000464	4.644238	0.786755	0.018552
1912	9.5550e-01	-1.7908	-26.019536	0.000565	5.653854	0.957789	0.022585
1913	9.5600e-01	-1.7710	-25.866278	0.000767	7.673088	1.299856	0.030652
1914	9.5650e-01	-1.7507	-25.725119	0.000707	7.067318	1.197236	0.028232
1915	9.5700e-01	-1.7306	-25.668656	0.000283	2.826927	0.478894	0.011293
1916	9.5750e-01	-1.7106	-25.539597	0.000646	6.461548	1.094616	0.025812
1917	9.5800e-01	-1.6901	-25.462968	0.000384	3.836544	0.649928	0.015326
1918	9.5850e-01	-1.6698	-25.350041	0.000565	5.653854	0.957789	0.022585
1919	9.5900e-01	-1.6502	-25.249214	0.000505	5.048084	0.855169	0.020165
1920	9.5950e-01	-1.6306	-25.120155	0.000646	6.461548	1.094616	0.025812
1921	9.6000e-01	-1.6099	-24.987062	0.000666	6.663471	1.128823	0.026618
1922	9.6050e-01	-1.5902	-24.906400	0.000404	4.038467	0.684135	0.016132
1923	9.6100e-01	-1.5707	-24.765242	0.000707	7.067318	1.197236	0.028232
1924	9.6150e-01	-1.5501	-24.624084	0.000707	7.067318	1.197236	0.028232
1925	9.6200e-01	-1.5305	-24.563587	0.000303	3.028851	0.513101	0.012099
1926	9.6250e-01	-1.5110	-24.458726	0.000525	5.250008	0.889375	0.020972
1927	9.6300e-01	-1.4907	-24.313535	0.000727	7.269241	1.231443	0.029038
1928	9.6350e-01	-1.4701	-24.216741	0.000485	4.846161	0.820962	0.019359
1929	9.6400e-01	-1.4501	-24.140112	0.000384	3.836544	0.649928	0.015326
1930	9.6450e-01	-1.4307	-23.994920	0.000727	7.269241	1.231443	0.029038
1931	9.6500e-01	-1.4112	-23.938457	0.000283	2.826927	0.478894	0.011293
1932	9.6550e-01	-1.3895	-23.797298	0.000707	7.067318	1.197236	0.028232
1933	9.6600e-01	-1.3699	-23.631941	0.000828	8.278858	1.402477	0.033071
1934	9.6650e-01	-1.3499	-23.563379	0.000343	3.432697	0.581515	0.013713
1935	9.6700e-01	-1.3304	-23.478684	0.000424	4.240391	0.718342	0.016939
1936	9.6750e-01	-1.3113	-23.337525	0.000707	7.067318	1.197236	0.028232
1937	9.6800e-01	-1.2910	-23.333492	0.000020	0.201923	0.034207	0.000807
1938	9.6850e-01	-1.2687	-23.103605	0.001151	11.509632	1.949784	0.045977
1939	9.6900e-01	-1.2498	-22.998745	0.000525	5.250008	0.889375	0.020972
1940	9.6950e-01	-1.2303	-22.889851	0.000545	5.451931	0.923582	0.021779
1941	9.7000e-01	-1.2104	-22.780957	0.000545	5.451931	0.923582	0.021779
1942	9.7050e-01	-1.1915	-22.748693	0.000162	1.615387	0.273654	0.006453
1943	9.7100e-01	-1.1703	-22.567203	0.000909	9.086552	1.539304	0.036298
1944	9.7150e-01	-1.1509	-22.547038	0.000101	1.009617	0.171034	0.004033
1945	9.7200e-01	-1.1308	-22.353449	0.000969	9.692322	1.641924	0.038718
1946	9.7250e-01	-1.1112	-22.260688	0.000464	4.644238	0.786755	0.018552
1947	9.7300e-01	-1.0910	-22.099364	0.000808	8.076935	1.368270	0.032265
1948	9.7350e-01	-1.0705	-22.014669	0.000424	4.240391	0.718342	0.016939
1949	9.7400e-01	-1.0506	-21.901742	0.000565	5.653854	0.957789	0.022585
1950	9.7450e-01	-1.0310	-21.748484	0.000767	7.673088	1.299856	0.030652
1951	9.7500e-01	-1.0102	-21.659756	0.000444	4.442314	0.752548	0.017746
1952	9.7550e-01	-0.9910	-21.530697	0.000646	6.461548	1.094616	0.025812
1953	9.7600e-01	-0.9707	-21.421803	0.000545	5.451931	0.923582	0.021779
1954	9.7650e-01	-0.9505	-21.333075	0.000444	4.442314	0.752548	0.017746
1955	9.7700e-01	-0.9306	-21.187884	0.000727	7.269241	1.231443	0.029038
1956	9.7750e-01	-0.9103	-21.091089	0.000485	4.846161	0.820962	0.019359
1957	9.7800e-01	-0.8913	-20.966063	0.000626	6.259625	1.060409	0.025005
1958	9.7850e-01	-0.8704	-20.857169	0.000545	5.451931	0.923582	0.021779
1959	9.7900e-01	-0.8504	-20.711978	0.000727	7.269241	1.231443	0.029038
1960	9.7950e-01	-0.8307	-20.631316	0.000404	4.038467	0.684135	0.016132
1961	9.8000e-01	-0.8103	-20.502257	0.000646	6.461548	1.094616	0.025812
1962	9.8050e-01	-0.7906	-20.365131	0.000687	6.865395	1.163029	0.027425
1963	9.8100e-01	-0.7700	-20.304635	0.000303	3.028851	0.513101	0.012099
1964	9.8150e-01	-0.7504	-20.155410	0.000747	7.471165	1.265650	0.029845
1965	9.8200e-01	-0.7306	-19.990053	0.000828	8.278858	1.402477	0.033071
1966	9.8250e-01	-0.7104	-19.848895	0.000707	7.067318	1.197236	0.028232
1967	9.8300e-01	-0.6900	-19.808564	0.000202	2.019234	0.342067	0.008066
1968	9.8350e-01	-0.6708	-19.659339	0.000747	7.471165	1.265650	0.029845
1969	9.8400e-01	-0.6497	-19.566578	0.000464	4.644238	0.786755	0.018552
1970	9.8450e-01	-0.6291	-19.425419	0.000707	7.067318	1.197236	0.028232
1971	9.8500e-01	-0.6101	-19.288294	0.000687	6.865395	1.163029	0.027425
1972	9.8550e-01	-0.5911	-19.239897	0.000242	2.423080	0.410481	0.009679
1973	9.8600e-01	-0.5703	-19.106805	0.000666	6.663471	1.128823	0.026618
1974	9.8650e-01	-0.5500	-18.985812	0.000606	6.057701	1.026202	0.024199
1975	9.8700e-01	-0.5295	-18.864819	0.000606	6.057701	1.026202	0.024199
1976	9.8750e-01	-0.5101	-18.731726	0.000666	6.663471	1.128823	0.026618
1977	9.8800e-01	-0.4900	-18.659131	0.000363	3.634621	0.615721	0.014519
1978	9.8850e-01	-0.4700	-18.497807	0.000808	8.076935	1.368270	0.032265
1979	9.8900e-01	-0.4493	-18.388913	0.000545	5.451931	0.923582	0.021779
1980	9.8950e-01	-0.4310	-18.263887	0.000626	6.259625	1.060409	0.025005
1981	9.9000e-01	-0.4099	-18.154993	0.000545	5.451931	0.923582	0.021779
1982	9.9050e-01	-0.3898	-18.054166	0.000505	5.048084	0.855169	0.020165
1983	9.9100e-01	-0.3703	-17.957372	0.000485	4.846161	0.820962	0.019359
1984	9.9150e-01	-0.3500	-17.824279	0.000666	6.663471	1.128823	0.026618
1985	9.9200e-01	-0.3297	-17.715386	0.000545	5.451931	0.923582	0.021779
1986	9.9250e-01	-0.3101	-17.586326	0.000646	6.461548	1.094616	0.025812
1987	9.9300e-01	-0.2912	-17.465333	0.000606	6.057701	1.026202	0.024199
1988	9.9350e-01	-0.2695	-17.348374	0.000586	5.855778	0.991996	0.023392
1989	9.9400e-01	-0.2504	-17.215281	0.000666	6.663471	1.128823	0.026618
1990	9.9450e-01	-0.2302	-17.086222	0.000646	6.461548	1.094616	0.025812
1991	9.9500e-01	-0.2097	-17.005560	0.000404	4.038467	0.684135	0.016132
1992	9.9550e-01	-0.1896	-16.820038	0.000929	9.288475	1.573510	0.037105
1993	9.9600e-01	-0.1698	-16.666780	0.000767	7.673088	1.299856	0.030652
1994	9.9650e-01	-0.1507	-16.582085	0.000424	4.240391	0.718342	0.016939
1995	9.9700e-01	-0.1301	-16.465125	0.000586	5.855778	0.991996	0.023392
1996	9.9750e-01	-0.1102	-16.400595	0.000323	3.230774	0.547308	0.012906
1997	9.9800e-01	-0.0907	-16.275569	0.000626	6.259625	1.060409	0.025005
1998	9.9850e-01	-0.0700	-16.126345	0.000747	7.471165	1.265650	0.029845
1999	9.9900e-01	-0.0497	-16.202974	-0.000384	-3.836544	-0.649928	-0.015326
2000	9.9950e-01	-0.0297	-15.916624	0.001434	14.336559	2.428679	0.057270
2001	1.0000e+00	-0.0102	-15.799664	0.001434	14.336559	2.428679	0.023392

PMax (uC/cm2):	5.28e+01
Pr (uC/cm2):	9.39e+00
-Pr (uC/cm2):	-1.89e+01
PLoss (uC/cm2):	-1.88e+01
-Vc:	-1.44e+00
C (Max-Eff) (nF):	5.28e-01
K (Eff):	8.95e+02
Vert. (+/-Pr) Shift (uC/cm2):	-4.74e+00
Offset (uC/cm2):	-3.07e+00

A (Loop Area - uC/cm2·Volts):	-6.51e-02



Hysteresis Version: 5.48.1 - Radiant Technologies, Inc., 1999 - 9/12/24

