»»»»»»»»»»»»»»»»»»»»»»»»»»»»»»»»»»»» Hysteresis ««««««««««««««««««««««««««««««««««««
»»»  Executed Version:	5.48.1
»»»  Vision Version:	5.48.4 (R)
»»»  Vision Compiled:	9/18/24
»»»  Driver Version:	5.47.0
»»»  Windows Version:	Windows 8 or 8.1
»»»  Processor Information:	x86 (AMD or Intel) - 32 Processors
»»»  Tester Name:	PMF21124-494 (100V)
»»»  Tester S/N:	PMF21124-494
»»»  Internal Amp Type:	100V RevK 270k
»»»  Internal Amp S/N:	iAB2-596/K     
»»»  Execution Count:	1
»»»»»»»»»»»»»»»»»»»»»»»»»»»»»»»»»»»»»»»»»»««««««««««««««««««««««««««««««««««««««««««

Stored:	7/1/2025 - 14:58:58
Configured:	07/01/25 10:49:51 AM
Executed:	07/01/25 02:58:17 PM

»»»»»»»»»»»»»»»»»»»»»»»»»»»»»»»»»»» Sample Info ««««««««««««««««««««««««««««««««««««
Sample Name:	
Lot Name:	
Wafer Name:	
Die Row/Column:	0/0
Capacitor Number:	0
Sample Area (cm2):	1.00e-04
Sample Thickness (microns):	1.50e-01

Amplifier:	Internal

»»»»»»»»»»»»»»»»»»»»»»»»»»»»»»»»»»» Tester Info «««««««««««««««««««««««««««««««««««
Tester Name:	PMF21124-494 (100V)
Tester Serial Number:	PMF21124-494
Return Signal Amp. Level:	0.19 [Index: 3]

»»»»»»»»»»»»»»»»»»»»»»»»»»»»»»»» Hysteresis Info ««««««««««««««««««««««««««««««««««
Task Name:	Hyst-22
Volts:	10.00
Field:	666.67 (kV/cm)
DCBias:	0.00
DCField:	0.00 (kV/cm)
Hysteresis Period (ms):	1.00e+00
Preset:	Enabled
Preset Delay (ms):	1.00e+03
Profile:	Standard Bipolar

»»»»»»»»»»»»»»»»»»»»»»»»»»»»»»»»»»»»»» Data «««««««««««««««««««««««««««««««««««««««
Points:	2001

Valid Data

Point	Time (ms)	Drive Voltage	Measured Polarization (uC/cm2)	Capacitance (uF)	Normalized Capacitance (uF/cm2)	Dielectric Constant	Instantaneous Current (mA)
   1	0.0000e+00	-0.0006	3.059105	0.000989	9.894926	1.676246	0.039524
   2	5.0000e-04	0.0109	3.256727	0.000989	9.894926	1.676246	0.039524
   3	1.0000e-03	0.0289	3.329323	0.000363	3.634871	0.615764	0.014519
   4	1.5000e-03	0.0471	3.478548	0.000747	7.471678	1.265737	0.029845
   5	2.0000e-03	0.0674	3.555176	0.000384	3.836808	0.649973	0.015326
   6	2.5000e-03	0.0878	3.680202	0.000626	6.260055	1.060482	0.025005
   7	3.0000e-03	0.1078	3.752798	0.000363	3.634871	0.615764	0.014519
   8	3.5000e-03	0.1275	3.938321	0.000929	9.289114	1.573618	0.037105
   9	4.0000e-03	0.1480	4.023016	0.000424	4.240682	0.718391	0.016939
  10	4.5000e-03	0.1677	4.127876	0.000525	5.250369	0.889437	0.020972
  11	5.0000e-03	0.1881	4.236770	0.000545	5.452306	0.923646	0.021779
  12	5.5000e-03	0.2069	4.385995	0.000747	7.471678	1.265737	0.029845
  13	6.0000e-03	0.2284	4.470690	0.000424	4.240682	0.718391	0.016939
  14	6.5000e-03	0.2473	4.583617	0.000565	5.654243	0.957855	0.022585
  15	7.0000e-03	0.2679	4.736874	0.000767	7.673616	1.299946	0.030652
  16	7.5000e-03	0.2866	4.837702	0.000505	5.048431	0.855227	0.020165
  17	8.0000e-03	0.3083	4.946595	0.000545	5.452306	0.923646	0.021779
  18	8.5000e-03	0.3271	5.071621	0.000626	6.260055	1.060482	0.025005
  19	9.0000e-03	0.3477	5.192614	0.000606	6.058118	1.026273	0.024199
  20	9.5000e-03	0.3680	5.285376	0.000464	4.644557	0.786809	0.018552
  21	1.0000e-02	0.3887	5.450733	0.000828	8.279427	1.402573	0.033071
  22	1.0500e-02	0.4076	5.535428	0.000424	4.240682	0.718391	0.016939
  23	1.1000e-02	0.4290	5.628189	0.000464	4.644557	0.786809	0.018552
  24	1.1500e-02	0.4470	5.716917	0.000444	4.442620	0.752600	0.017746
  25	1.2000e-02	0.4686	5.870175	0.000767	7.673616	1.299946	0.030652
  26	1.2500e-02	0.4880	6.007300	0.000687	6.865867	1.163109	0.027425
  27	1.3000e-02	0.5076	6.116194	0.000545	5.452306	0.923646	0.021779
  28	1.3500e-02	0.5283	6.257352	0.000707	7.067804	1.197318	0.028232
  29	1.4000e-02	0.5488	6.394478	0.000687	6.865867	1.163109	0.027425
  30	1.4500e-02	0.5679	6.450941	0.000283	2.827122	0.478927	0.011293
  31	1.5000e-02	0.5889	6.555802	0.000525	5.250369	0.889437	0.020972
  32	1.5500e-02	0.6091	6.676795	0.000606	6.058118	1.026273	0.024199
  33	1.6000e-02	0.6288	6.769556	0.000464	4.644557	0.786809	0.018552
  34	1.6500e-02	0.6477	6.922814	0.000767	7.673616	1.299946	0.030652
  35	1.7000e-02	0.6678	7.059939	0.000687	6.865867	1.163109	0.027425
  36	1.7500e-02	0.6876	7.184965	0.000626	6.260055	1.060482	0.025005
  37	1.8000e-02	0.7074	7.305958	0.000606	6.058118	1.026273	0.024199
  38	1.8500e-02	0.7278	7.455183	0.000747	7.471678	1.265737	0.029845
  39	1.9000e-02	0.7475	7.564076	0.000545	5.452306	0.923646	0.021779
  40	1.9500e-02	0.7674	7.681036	0.000586	5.856180	0.992064	0.023392
  41	2.0000e-02	0.7877	7.773798	0.000464	4.644557	0.786809	0.018552
  42	2.0500e-02	0.8070	7.890757	0.000586	5.856180	0.992064	0.023392
  43	2.1000e-02	0.8279	8.052081	0.000808	8.077490	1.368364	0.032265
  44	2.1500e-02	0.8478	8.152909	0.000505	5.048431	0.855227	0.020165
  45	2.2000e-02	0.8680	8.245670	0.000464	4.644557	0.786809	0.018552
  46	2.2500e-02	0.8871	8.398928	0.000767	7.673616	1.299946	0.030652
  47	2.3000e-02	0.9060	8.411027	0.000061	0.605812	0.102627	0.002420
  48	2.3500e-02	0.9274	8.608649	0.000989	9.894926	1.676246	0.039524
  49	2.4000e-02	0.9487	8.749807	0.000707	7.067804	1.197318	0.028232
  50	2.4500e-02	0.9682	8.870800	0.000606	6.058118	1.026273	0.024199
  51	2.5000e-02	0.9879	8.975661	0.000525	5.250369	0.889437	0.020972
  52	2.5500e-02	1.0089	9.096654	0.000606	6.058118	1.026273	0.024199
  53	2.6000e-02	1.0285	9.221680	0.000626	6.260055	1.060482	0.025005
  54	2.6500e-02	1.0471	9.383004	0.000808	8.077490	1.368364	0.032265
  55	2.7000e-02	1.0684	9.471732	0.000444	4.442620	0.752600	0.017746
  56	2.7500e-02	1.0878	9.649188	0.000889	8.885239	1.505200	0.035491
  57	2.8000e-02	1.1090	9.669354	0.000101	1.009686	0.171045	0.004033
  58	2.8500e-02	1.1285	9.871009	0.001010	10.096863	1.710455	0.040331
  59	2.9000e-02	1.1475	9.979902	0.000545	5.452306	0.923646	0.021779
  60	2.9500e-02	1.1681	10.100895	0.000606	6.058118	1.026273	0.024199
  61	3.0000e-02	1.1879	10.221888	0.000606	6.058118	1.026273	0.024199
  62	3.0500e-02	1.2084	10.306583	0.000424	4.240682	0.718391	0.016939
  63	3.1000e-02	1.2275	10.471941	0.000828	8.279427	1.402573	0.033071
  64	3.1500e-02	1.2475	10.564702	0.000464	4.644557	0.786809	0.018552
  65	3.2000e-02	1.2682	10.726026	0.000808	8.077490	1.368364	0.032265
  66	3.2500e-02	1.2878	10.802655	0.000384	3.836808	0.649973	0.015326
  67	3.3000e-02	1.3071	10.923648	0.000606	6.058118	1.026273	0.024199
  68	3.3500e-02	1.3275	11.076905	0.000767	7.673616	1.299946	0.030652
  69	3.4000e-02	1.3477	11.197898	0.000606	6.058118	1.026273	0.024199
  70	3.4500e-02	1.3672	11.347123	0.000747	7.471678	1.265737	0.029845
  71	3.5000e-02	1.3879	11.468116	0.000606	6.058118	1.026273	0.024199
  72	3.5500e-02	1.4076	11.577010	0.000545	5.452306	0.923646	0.021779
  73	3.6000e-02	1.4271	11.718168	0.000707	7.067804	1.197318	0.028232
  74	3.6500e-02	1.4478	11.855293	0.000687	6.865867	1.163109	0.027425
  75	3.7000e-02	1.4678	11.952088	0.000485	4.846494	0.821018	0.019359
  76	3.7500e-02	1.4883	12.113412	0.000808	8.077490	1.368364	0.032265
  77	3.8000e-02	1.5078	12.218272	0.000525	5.250369	0.889437	0.020972
  78	3.8500e-02	1.5288	12.339265	0.000606	6.058118	1.026273	0.024199
  79	3.9000e-02	1.5472	12.419927	0.000404	4.038745	0.684182	0.016132
  80	3.9500e-02	1.5687	12.565119	0.000727	7.269741	1.231527	0.029038
  81	4.0000e-02	1.5878	12.722410	0.000788	7.875553	1.334155	0.031458
  82	4.0500e-02	1.6075	12.827270	0.000525	5.250369	0.889437	0.020972
  83	4.1000e-02	1.6280	12.980528	0.000767	7.673616	1.299946	0.030652
  84	4.1500e-02	1.6481	13.109587	0.000646	6.461992	1.094691	0.025812
  85	4.2000e-02	1.6685	13.190249	0.000404	4.038745	0.684182	0.016132
  86	4.2500e-02	1.6871	13.339474	0.000747	7.471678	1.265737	0.029845
  87	4.3000e-02	1.7083	13.440301	0.000505	5.048431	0.855227	0.020165
  88	4.3500e-02	1.7275	13.577426	0.000687	6.865867	1.163109	0.027425
  89	4.4000e-02	1.7479	13.726651	0.000747	7.471678	1.265737	0.029845
  90	4.4500e-02	1.7679	13.900074	0.000868	8.683302	1.470991	0.034685
  91	4.5000e-02	1.7871	13.964604	0.000323	3.230996	0.547346	0.012906
  92	4.5500e-02	1.8076	14.146093	0.000909	9.087177	1.539409	0.036298
  93	4.6000e-02	1.8280	14.218689	0.000363	3.634871	0.615764	0.014519
  94	4.6500e-02	1.8477	14.375980	0.000788	7.875553	1.334155	0.031458
  95	4.7000e-02	1.8677	14.480841	0.000525	5.250369	0.889437	0.020972
  96	4.7500e-02	1.8884	14.642164	0.000808	8.077490	1.368364	0.032265
  97	4.8000e-02	1.9074	14.807522	0.000828	8.279427	1.402573	0.033071
  98	4.8500e-02	1.9279	14.896250	0.000444	4.442620	0.752600	0.017746
  99	4.9000e-02	1.9476	15.013210	0.000586	5.856180	0.992064	0.023392
 100	4.9500e-02	1.9678	15.134203	0.000606	6.058118	1.026273	0.024199
 101	5.0000e-02	1.9880	15.259229	0.000626	6.260055	1.060482	0.025005
 102	5.0500e-02	2.0084	15.428619	0.000848	8.481365	1.436782	0.033878
 103	5.1000e-02	2.0282	15.521380	0.000464	4.644557	0.786809	0.018552
 104	5.1500e-02	2.0470	15.694803	0.000868	8.683302	1.470991	0.034685
 105	5.2000e-02	2.0694	15.751267	0.000283	2.827122	0.478927	0.011293
 106	5.2500e-02	2.0883	15.860160	0.000545	5.452306	0.923646	0.021779
 107	5.3000e-02	2.1078	16.045683	0.000929	9.289114	1.573618	0.037105
 108	5.3500e-02	2.1265	16.142477	0.000485	4.846494	0.821018	0.019359
 109	5.4000e-02	2.1480	16.303801	0.000808	8.077490	1.368364	0.032265
 110	5.4500e-02	2.1674	16.376397	0.000363	3.634871	0.615764	0.014519
 111	5.5000e-02	2.1881	16.533688	0.000788	7.875553	1.334155	0.031458
 112	5.5500e-02	2.2079	16.707111	0.000868	8.683302	1.470991	0.034685
 113	5.6000e-02	2.2282	16.872468	0.000828	8.279427	1.402573	0.033071
 114	5.6500e-02	2.2504	16.936998	0.000323	3.230996	0.547346	0.012906
 115	5.7000e-02	2.2666	17.110421	0.000868	8.683302	1.470991	0.034685
 116	5.7500e-02	2.2875	17.223348	0.000565	5.654243	0.957855	0.022585
 117	5.8000e-02	2.3083	17.340307	0.000586	5.856180	0.992064	0.023392
 118	5.8500e-02	2.3279	17.473400	0.000666	6.663929	1.128900	0.026618
 119	5.9000e-02	2.3477	17.622624	0.000747	7.471678	1.265737	0.029845
 120	5.9500e-02	2.3685	17.699253	0.000384	3.836808	0.649973	0.015326
 121	6.0000e-02	2.3877	17.933173	0.001171	11.712361	1.984128	0.046784
 122	6.0500e-02	2.4076	18.017868	0.000424	4.240682	0.718391	0.016939
 123	6.1000e-02	2.4280	18.090464	0.000363	3.634871	0.615764	0.014519
 124	6.1500e-02	2.4481	18.251788	0.000808	8.077490	1.368364	0.032265
 125	6.2000e-02	2.4689	18.348582	0.000485	4.846494	0.821018	0.019359
 126	6.2500e-02	2.4879	18.497807	0.000747	7.471678	1.265737	0.029845
 127	6.3000e-02	2.5079	18.679296	0.000909	9.087177	1.539409	0.036298
 128	6.3500e-02	2.5282	18.800289	0.000606	6.058118	1.026273	0.024199
 129	6.4000e-02	2.5482	18.961613	0.000808	8.077490	1.368364	0.032265
 130	6.4500e-02	2.5677	19.005977	0.000222	2.221310	0.376300	0.008873
 131	6.5000e-02	2.5880	19.215698	0.001050	10.500737	1.778873	0.041944
 132	6.5500e-02	2.6086	19.340724	0.000626	6.260055	1.060482	0.025005
 133	6.6000e-02	2.6273	19.465750	0.000626	6.260055	1.060482	0.025005
 134	6.6500e-02	2.6486	19.614975	0.000747	7.471678	1.265737	0.029845
 135	6.7000e-02	2.6675	19.731935	0.000586	5.856180	0.992064	0.023392
 136	6.7500e-02	2.6880	19.877126	0.000727	7.269741	1.231527	0.029038
 137	6.8000e-02	2.7077	20.030384	0.000767	7.673616	1.299946	0.030652
 138	6.8500e-02	2.7274	20.147344	0.000586	5.856180	0.992064	0.023392
 139	6.9000e-02	2.7478	20.296569	0.000747	7.471678	1.265737	0.029845
 140	6.9500e-02	2.7681	20.381264	0.000424	4.240682	0.718391	0.016939
 141	7.0000e-02	2.7876	20.538555	0.000788	7.875553	1.334155	0.031458
 142	7.0500e-02	2.8073	20.703912	0.000828	8.279427	1.402573	0.033071
 143	7.1000e-02	2.8285	20.861203	0.000788	7.875553	1.334155	0.031458
 144	7.1500e-02	2.8471	20.933798	0.000363	3.634871	0.615764	0.014519
 145	7.2000e-02	2.8670	21.062857	0.000646	6.461992	1.094691	0.025812
 146	7.2500e-02	2.8879	21.167718	0.000525	5.250369	0.889437	0.020972
 147	7.3000e-02	2.9083	21.345174	0.000889	8.885239	1.505200	0.035491
 148	7.3500e-02	2.9279	21.462134	0.000586	5.856180	0.992064	0.023392
 149	7.4000e-02	2.9477	21.611359	0.000747	7.471678	1.265737	0.029845
 150	7.4500e-02	2.9678	21.716219	0.000525	5.250369	0.889437	0.020972
 151	7.5000e-02	2.9880	21.873510	0.000788	7.875553	1.334155	0.031458
 152	7.5500e-02	3.0081	21.958205	0.000424	4.240682	0.718391	0.016939
 153	7.6000e-02	3.0278	22.155827	0.000989	9.894926	1.676246	0.039524
 154	7.6500e-02	3.0475	22.260688	0.000525	5.250369	0.889437	0.020972
 155	7.7000e-02	3.0673	22.345383	0.000424	4.240682	0.718391	0.016939
 156	7.7500e-02	3.0878	22.543005	0.000989	9.894926	1.676246	0.039524
 157	7.8000e-02	3.1079	22.659964	0.000586	5.856180	0.992064	0.023392
 158	7.8500e-02	3.1276	22.772891	0.000565	5.654243	0.957855	0.022585
 159	7.9000e-02	3.1482	22.974546	0.001010	10.096863	1.710455	0.040331
 160	7.9500e-02	3.1680	23.047142	0.000363	3.634871	0.615764	0.014519
 161	8.0000e-02	3.1879	23.236698	0.000949	9.491051	1.607828	0.037911
 162	8.0500e-02	3.2080	23.329459	0.000464	4.644557	0.786809	0.018552
 163	8.1000e-02	3.2285	23.482717	0.000767	7.673616	1.299946	0.030652
 164	8.1500e-02	3.2474	23.579511	0.000485	4.846494	0.821018	0.019359
 165	8.2000e-02	3.2681	23.724703	0.000727	7.269741	1.231527	0.029038
 166	8.2500e-02	3.2880	23.906192	0.000909	9.087177	1.539409	0.036298
 167	8.3000e-02	3.3081	23.982821	0.000384	3.836808	0.649973	0.015326
 168	8.3500e-02	3.3266	24.099781	0.000586	5.856180	0.992064	0.023392
 169	8.4000e-02	3.3478	24.277237	0.000889	8.885239	1.505200	0.035491
 170	8.4500e-02	3.3688	24.386131	0.000545	5.452306	0.923646	0.021779
 171	8.5000e-02	3.3884	24.535355	0.000747	7.471678	1.265737	0.029845
 172	8.5500e-02	3.4079	24.640216	0.000525	5.250369	0.889437	0.020972
 173	8.6000e-02	3.4278	24.761209	0.000606	6.058118	1.026273	0.024199
 174	8.6500e-02	3.4486	24.862036	0.000505	5.048431	0.855227	0.020165
 175	8.7000e-02	3.4680	25.027393	0.000828	8.279427	1.402573	0.033071
 176	8.7500e-02	3.4885	25.180651	0.000767	7.673616	1.299946	0.030652
 177	8.8000e-02	3.5080	25.305677	0.000626	6.260055	1.060482	0.025005
 178	8.8500e-02	3.5278	25.499266	0.000969	9.692988	1.642037	0.038718
 179	8.9000e-02	3.5486	25.616226	0.000586	5.856180	0.992064	0.023392
 180	8.9500e-02	3.5678	25.708987	0.000464	4.644557	0.786809	0.018552
 181	9.0000e-02	3.5889	25.834013	0.000626	6.260055	1.060482	0.025005
 182	9.0500e-02	3.6087	25.995337	0.000808	8.077490	1.368364	0.032265
 183	9.1000e-02	3.6285	26.055834	0.000303	3.029059	0.513136	0.012099
 184	9.1500e-02	3.6472	26.281687	0.001131	11.308486	1.915709	0.045171
 185	9.2000e-02	3.6685	26.362349	0.000404	4.038745	0.684182	0.016132
 186	9.2500e-02	3.6890	26.499474	0.000687	6.865867	1.163109	0.027425
 187	9.3000e-02	3.7088	26.652732	0.000767	7.673616	1.299946	0.030652
 188	9.3500e-02	3.7277	26.801957	0.000747	7.471678	1.265737	0.029845
 189	9.4000e-02	3.7488	26.951181	0.000747	7.471678	1.265737	0.029845
 190	9.4500e-02	3.7683	27.088307	0.000687	6.865867	1.163109	0.027425
 191	9.5000e-02	3.7891	27.173002	0.000424	4.240682	0.718391	0.016939
 192	9.5500e-02	3.8092	27.289962	0.000586	5.856180	0.992064	0.023392
 193	9.6000e-02	3.8277	27.471451	0.000909	9.087177	1.539409	0.036298
 194	9.6500e-02	3.8477	27.564212	0.000464	4.644557	0.786809	0.018552
 195	9.7000e-02	3.8678	27.701338	0.000687	6.865867	1.163109	0.027425
 196	9.7500e-02	3.8879	27.878794	0.000889	8.885239	1.505200	0.035491
 197	9.8000e-02	3.9072	27.987688	0.000545	5.452306	0.923646	0.021779
 198	9.8500e-02	3.9273	28.068350	0.000404	4.038745	0.684182	0.016132
 199	9.9000e-02	3.9481	28.245806	0.000889	8.885239	1.505200	0.035491
 200	9.9500e-02	3.9673	28.330501	0.000424	4.240682	0.718391	0.016939
 201	1.0000e-01	3.9886	28.443428	0.000565	5.654243	0.957855	0.022585
 202	1.0050e-01	4.0076	28.620884	0.000889	8.885239	1.505200	0.035491
 203	1.0100e-01	4.0279	28.713645	0.000464	4.644557	0.786809	0.018552
 204	1.0150e-01	4.0479	28.866903	0.000767	7.673616	1.299946	0.030652
 205	1.0200e-01	4.0680	28.991929	0.000626	6.260055	1.060482	0.025005
 206	1.0250e-01	4.0881	29.137121	0.000727	7.269741	1.231527	0.029038
 207	1.0300e-01	4.1083	29.274246	0.000687	6.865867	1.163109	0.027425
 208	1.0350e-01	4.1278	29.399272	0.000626	6.260055	1.060482	0.025005
 209	1.0400e-01	4.1479	29.516232	0.000586	5.856180	0.992064	0.023392
 210	1.0450e-01	4.1681	29.641258	0.000626	6.260055	1.060482	0.025005
 211	1.0500e-01	4.1870	29.806615	0.000828	8.279427	1.402573	0.033071
 212	1.0550e-01	4.2082	29.939707	0.000666	6.663929	1.128900	0.026618
 213	1.0600e-01	4.2287	30.028436	0.000444	4.442620	0.752600	0.017746
 214	1.0650e-01	4.2480	30.217991	0.000949	9.491051	1.607828	0.037911
 215	1.0700e-01	4.2682	30.334951	0.000586	5.856180	0.992064	0.023392
 216	1.0750e-01	4.2874	30.423679	0.000444	4.442620	0.752600	0.017746
 217	1.0800e-01	4.3079	30.528540	0.000525	5.250369	0.889437	0.020972
 218	1.0850e-01	4.3280	30.681798	0.000767	7.673616	1.299946	0.030652
 219	1.0900e-01	4.3481	30.839088	0.000788	7.875553	1.334155	0.031458
 220	1.0950e-01	4.3686	30.968148	0.000646	6.461992	1.094691	0.025812
 221	1.1000e-01	4.3881	31.064942	0.000485	4.846494	0.821018	0.019359
 222	1.1050e-01	4.4092	31.210134	0.000727	7.269741	1.231527	0.029038
 223	1.1100e-01	4.4278	31.286762	0.000384	3.836808	0.649973	0.015326
 224	1.1150e-01	4.4486	31.464219	0.000889	8.885239	1.505200	0.035491
 225	1.1200e-01	4.4684	31.569079	0.000525	5.250369	0.889437	0.020972
 226	1.1250e-01	4.4882	31.734436	0.000828	8.279427	1.402573	0.033071
 227	1.1300e-01	4.5087	31.847363	0.000565	5.654243	0.957855	0.022585
 228	1.1350e-01	4.5279	31.976422	0.000646	6.461992	1.094691	0.025812
 229	1.1400e-01	4.5474	32.153879	0.000889	8.885239	1.505200	0.035491
 230	1.1450e-01	4.5679	32.210342	0.000283	2.827122	0.478927	0.011293
 231	1.1500e-01	4.5889	32.355534	0.000727	7.269741	1.231527	0.029038
 232	1.1550e-01	4.6075	32.488626	0.000666	6.663929	1.128900	0.026618
 233	1.1600e-01	4.6283	32.601553	0.000565	5.654243	0.957855	0.022585
 234	1.1650e-01	4.6484	32.722546	0.000606	6.058118	1.026273	0.024199
 235	1.1700e-01	4.6692	32.867737	0.000727	7.269741	1.231527	0.029038
 236	1.1750e-01	4.6896	32.976631	0.000545	5.452306	0.923646	0.021779
 237	1.1800e-01	4.7076	33.117789	0.000707	7.067804	1.197318	0.028232
 238	1.1850e-01	4.7290	33.186352	0.000343	3.432933	0.581555	0.013713
 239	1.1900e-01	4.7482	33.323477	0.000687	6.865867	1.163109	0.027425
 240	1.1950e-01	4.7693	33.460603	0.000687	6.865867	1.163109	0.027425
 241	1.2000e-01	4.7882	33.585629	0.000626	6.260055	1.060482	0.025005
 242	1.2050e-01	4.8087	33.722754	0.000687	6.865867	1.163109	0.027425
 243	1.2100e-01	4.8286	33.815515	0.000464	4.644557	0.786809	0.018552
 244	1.2150e-01	4.8486	33.936508	0.000606	6.058118	1.026273	0.024199
 245	1.2200e-01	4.8697	34.117998	0.000909	9.087177	1.539409	0.036298
 246	1.2250e-01	4.8883	34.263189	0.000727	7.269741	1.231527	0.029038
 247	1.2300e-01	4.9084	34.364017	0.000505	5.048431	0.855227	0.020165
 248	1.2350e-01	4.9293	34.485010	0.000606	6.058118	1.026273	0.024199
 249	1.2400e-01	4.9493	34.601969	0.000586	5.856180	0.992064	0.023392
 250	1.2450e-01	4.9683	34.735062	0.000666	6.663929	1.128900	0.026618
 251	1.2500e-01	4.9890	34.868154	0.000666	6.663929	1.128900	0.026618
 252	1.2550e-01	5.0092	35.013346	0.000727	7.269741	1.231527	0.029038
 253	1.2600e-01	5.0281	35.089974	0.000384	3.836808	0.649973	0.015326
 254	1.2650e-01	5.0500	35.271464	0.000909	9.087177	1.539409	0.036298
 255	1.2700e-01	5.0687	35.323894	0.000263	2.625184	0.444718	0.010486
 256	1.2750e-01	5.0885	35.456986	0.000666	6.663929	1.128900	0.026618
 257	1.2800e-01	5.1093	35.569913	0.000565	5.654243	0.957855	0.022585
 258	1.2850e-01	5.1282	35.703005	0.000666	6.663929	1.128900	0.026618
 259	1.2900e-01	5.1483	35.868362	0.000828	8.279427	1.402573	0.033071
 260	1.2950e-01	5.1678	35.973223	0.000525	5.250369	0.889437	0.020972
 261	1.3000e-01	5.1888	36.094216	0.000606	6.058118	1.026273	0.024199
 262	1.3050e-01	5.2081	36.243441	0.000747	7.471678	1.265737	0.029845
 263	1.3100e-01	5.2289	36.332169	0.000444	4.442620	0.752600	0.017746
 264	1.3150e-01	5.2481	36.424930	0.000464	4.644557	0.786809	0.018552
 265	1.3200e-01	5.2686	36.582221	0.000788	7.875553	1.334155	0.031458
 266	1.3250e-01	5.2882	36.695148	0.000565	5.654243	0.957855	0.022585
 267	1.3300e-01	5.3088	36.824207	0.000646	6.461992	1.094691	0.025812
 268	1.3350e-01	5.3284	36.937134	0.000565	5.654243	0.957855	0.022585
 269	1.3400e-01	5.3485	37.050060	0.000565	5.654243	0.957855	0.022585
 270	1.3450e-01	5.3680	37.195252	0.000727	7.269741	1.231527	0.029038
 271	1.3500e-01	5.3879	37.279947	0.000424	4.240682	0.718391	0.016939
 272	1.3550e-01	5.4080	37.453370	0.000868	8.683302	1.470991	0.034685
 273	1.3600e-01	5.4291	37.554198	0.000505	5.048431	0.855227	0.020165
 274	1.3650e-01	5.4480	37.667124	0.000565	5.654243	0.957855	0.022585
 275	1.3700e-01	5.4691	37.759886	0.000464	4.644557	0.786809	0.018552
 276	1.3750e-01	5.4889	37.909110	0.000747	7.471678	1.265737	0.029845
 277	1.3800e-01	5.5081	38.018004	0.000545	5.452306	0.923646	0.021779
 278	1.3850e-01	5.5283	38.163196	0.000727	7.269741	1.231527	0.029038
 279	1.3900e-01	5.5496	38.272089	0.000545	5.452306	0.923646	0.021779
 280	1.3950e-01	5.5682	38.421314	0.000747	7.471678	1.265737	0.029845
 281	1.4000e-01	5.5893	38.469711	0.000242	2.423247	0.410509	0.009679
 282	1.4050e-01	5.6074	38.643134	0.000868	8.683302	1.470991	0.034685
 283	1.4100e-01	5.6284	38.731862	0.000444	4.442620	0.752600	0.017746
 284	1.4150e-01	5.6483	38.860922	0.000646	6.461992	1.094691	0.025812
 285	1.4200e-01	5.6689	39.030312	0.000848	8.481365	1.436782	0.033878
 286	1.4250e-01	5.6880	39.106941	0.000384	3.836808	0.649973	0.015326
 287	1.4300e-01	5.7080	39.248099	0.000707	7.067804	1.197318	0.028232
 288	1.4350e-01	5.7288	39.332794	0.000424	4.240682	0.718391	0.016939
 289	1.4400e-01	5.7489	39.514284	0.000909	9.087177	1.539409	0.036298
 290	1.4450e-01	5.7660	39.558648	0.000222	2.221310	0.376300	0.008873
 291	1.4500e-01	5.7892	39.683674	0.000626	6.260055	1.060482	0.025005
 292	1.4550e-01	5.8093	39.816766	0.000666	6.663929	1.128900	0.026618
 293	1.4600e-01	5.8289	39.941792	0.000626	6.260055	1.060482	0.025005
 294	1.4650e-01	5.8481	40.082950	0.000707	7.067804	1.197318	0.028232
 295	1.4700e-01	5.8679	40.195877	0.000565	5.654243	0.957855	0.022585
 296	1.4750e-01	5.8893	40.276539	0.000404	4.038745	0.684182	0.016132
 297	1.4800e-01	5.9088	40.397532	0.000606	6.058118	1.026273	0.024199
 298	1.4850e-01	5.9277	40.506426	0.000545	5.452306	0.923646	0.021779
 299	1.4900e-01	5.9473	40.659684	0.000767	7.673616	1.299946	0.030652
 300	1.4950e-01	5.9686	40.704048	0.000222	2.221310	0.376300	0.008873
 301	1.5000e-01	5.9882	40.897636	0.000969	9.692988	1.642037	0.038718
 302	1.5050e-01	6.0097	40.990398	0.000464	4.644557	0.786809	0.018552
 303	1.5100e-01	6.0278	41.139622	0.000747	7.471678	1.265737	0.029845
 304	1.5150e-01	6.0489	41.196086	0.000283	2.827122	0.478927	0.011293
 305	1.5200e-01	6.0681	41.353377	0.000788	7.875553	1.334155	0.031458
 306	1.5250e-01	6.0889	41.470336	0.000586	5.856180	0.992064	0.023392
 307	1.5300e-01	6.1084	41.575197	0.000525	5.250369	0.889437	0.020972
 308	1.5350e-01	6.1285	41.667958	0.000464	4.644557	0.786809	0.018552
 309	1.5400e-01	6.1487	41.788951	0.000606	6.058118	1.026273	0.024199
 310	1.5450e-01	6.1679	41.918010	0.000646	6.461992	1.094691	0.025812
 311	1.5500e-01	6.1884	41.978507	0.000303	3.029059	0.513136	0.012099
 312	1.5550e-01	6.2086	42.143864	0.000828	8.279427	1.402573	0.033071
 313	1.5600e-01	6.2292	42.260824	0.000586	5.856180	0.992064	0.023392
 314	1.5650e-01	6.2488	42.365684	0.000525	5.250369	0.889437	0.020972
 315	1.5700e-01	6.2683	42.462479	0.000485	4.846494	0.821018	0.019359
 316	1.5750e-01	6.2886	42.603637	0.000707	7.067804	1.197318	0.028232
 317	1.5800e-01	6.3101	42.684299	0.000404	4.038745	0.684182	0.016132
 318	1.5850e-01	6.3284	42.817391	0.000666	6.663929	1.128900	0.026618
 319	1.5900e-01	6.3483	42.950484	0.000666	6.663929	1.128900	0.026618
 320	1.5950e-01	6.3672	43.071477	0.000606	6.058118	1.026273	0.024199
 321	1.6000e-01	6.3892	43.123907	0.000263	2.625184	0.444718	0.010486
 322	1.6050e-01	6.4081	43.293297	0.000848	8.481365	1.436782	0.033878
 323	1.6100e-01	6.4279	43.430422	0.000687	6.865867	1.163109	0.027425
 324	1.6150e-01	6.4478	43.539316	0.000545	5.452306	0.923646	0.021779
 325	1.6200e-01	6.4676	43.636110	0.000485	4.846494	0.821018	0.019359
 326	1.6250e-01	6.4874	43.749037	0.000565	5.654243	0.957855	0.022585
 327	1.6300e-01	6.5079	43.825666	0.000384	3.836808	0.649973	0.015326
 328	1.6350e-01	6.5271	43.970858	0.000727	7.269741	1.231527	0.029038
 329	1.6400e-01	6.5485	44.043453	0.000363	3.634871	0.615764	0.014519
 330	1.6450e-01	6.5683	44.156380	0.000565	5.654243	0.957855	0.022585
 331	1.6500e-01	6.5881	44.273340	0.000586	5.856180	0.992064	0.023392
 332	1.6550e-01	6.6083	44.394333	0.000606	6.058118	1.026273	0.024199
 333	1.6600e-01	6.6275	44.511293	0.000586	5.856180	0.992064	0.023392
 334	1.6650e-01	6.6479	44.652451	0.000707	7.067804	1.197318	0.028232
 335	1.6700e-01	6.6681	44.773444	0.000606	6.058118	1.026273	0.024199
 336	1.6750e-01	6.6876	44.829908	0.000283	2.827122	0.478927	0.011293
 337	1.6800e-01	6.7084	44.983165	0.000767	7.673616	1.299946	0.030652
 338	1.6850e-01	6.7279	45.075927	0.000464	4.644557	0.786809	0.018552
 339	1.6900e-01	6.7480	45.200953	0.000626	6.260055	1.060482	0.025005
 340	1.6950e-01	6.7683	45.325979	0.000626	6.260055	1.060482	0.025005
 341	1.7000e-01	6.7883	45.410674	0.000424	4.240682	0.718391	0.016939
 342	1.7050e-01	6.8085	45.535700	0.000626	6.260055	1.060482	0.025005
 343	1.7100e-01	6.8280	45.644593	0.000545	5.452306	0.923646	0.021779
 344	1.7150e-01	6.8481	45.761553	0.000586	5.856180	0.992064	0.023392
 345	1.7200e-01	6.8689	45.858348	0.000485	4.846494	0.821018	0.019359
 346	1.7250e-01	6.8890	45.983374	0.000626	6.260055	1.060482	0.025005
 347	1.7300e-01	6.9073	46.116466	0.000666	6.663929	1.128900	0.026618
 348	1.7350e-01	6.9281	46.180996	0.000323	3.230996	0.547346	0.012906
 349	1.7400e-01	6.9489	46.289889	0.000545	5.452306	0.923646	0.021779
 350	1.7450e-01	6.9673	46.406849	0.000586	5.856180	0.992064	0.023392
 351	1.7500e-01	6.9885	46.491544	0.000424	4.240682	0.718391	0.016939
 352	1.7550e-01	7.0084	46.608504	0.000586	5.856180	0.992064	0.023392
 353	1.7600e-01	7.0282	46.693199	0.000424	4.240682	0.718391	0.016939
 354	1.7650e-01	7.0490	46.806126	0.000565	5.654243	0.957855	0.022585
 355	1.7700e-01	7.0679	46.939218	0.000666	6.663929	1.128900	0.026618
 356	1.7750e-01	7.0880	47.064244	0.000626	6.260055	1.060482	0.025005
 357	1.7800e-01	7.1063	47.157005	0.000464	4.644557	0.786809	0.018552
 358	1.7850e-01	7.1277	47.286065	0.000646	6.461992	1.094691	0.025812
 359	1.7900e-01	7.1484	47.362693	0.000384	3.836808	0.649973	0.015326
 360	1.7950e-01	7.1683	47.495786	0.000666	6.663929	1.128900	0.026618
 361	1.8000e-01	7.1881	47.612746	0.000586	5.856180	0.992064	0.023392
 362	1.8050e-01	7.2083	47.693408	0.000404	4.038745	0.684182	0.016132
 363	1.8100e-01	7.2284	47.826500	0.000666	6.663929	1.128900	0.026618
 364	1.8150e-01	7.2485	47.891029	0.000323	3.230996	0.547346	0.012906
 365	1.8200e-01	7.2681	47.995890	0.000525	5.250369	0.889437	0.020972
 366	1.8250e-01	7.2888	48.133015	0.000687	6.865867	1.163109	0.027425
 367	1.8300e-01	7.3071	48.233843	0.000505	5.048431	0.855227	0.020165
 368	1.8350e-01	7.3279	48.338703	0.000525	5.250369	0.889437	0.020972
 369	1.8400e-01	7.3489	48.439531	0.000505	5.048431	0.855227	0.020165
 370	1.8450e-01	7.3676	48.532292	0.000464	4.644557	0.786809	0.018552
 371	1.8500e-01	7.3889	48.645219	0.000565	5.654243	0.957855	0.022585
 372	1.8550e-01	7.4078	48.798477	0.000767	7.673616	1.299946	0.030652
 373	1.8600e-01	7.4280	48.858973	0.000303	3.029059	0.513136	0.012099
 374	1.8650e-01	7.4487	48.992065	0.000666	6.663929	1.128900	0.026618
 375	1.8700e-01	7.4683	49.056595	0.000323	3.230996	0.547346	0.012906
 376	1.8750e-01	7.4886	49.177588	0.000606	6.058118	1.026273	0.024199
 377	1.8800e-01	7.5085	49.290515	0.000565	5.654243	0.957855	0.022585
 378	1.8850e-01	7.5281	49.439739	0.000747	7.471678	1.265737	0.029845
 379	1.8900e-01	7.5482	49.484103	0.000222	2.221310	0.376300	0.008873
 380	1.8950e-01	7.5684	49.609129	0.000626	6.260055	1.060482	0.025005
 381	1.9000e-01	7.5876	49.669626	0.000303	3.029059	0.513136	0.012099
 382	1.9050e-01	7.6074	49.851115	0.000909	9.087177	1.539409	0.036298
 383	1.9100e-01	7.6276	49.867248	0.000081	0.807749	0.136836	0.003226
 384	1.9150e-01	7.6483	49.992274	0.000626	6.260055	1.060482	0.025005
 385	1.9200e-01	7.6691	50.129399	0.000687	6.865867	1.163109	0.027425
 386	1.9250e-01	7.6880	50.222160	0.000464	4.644557	0.786809	0.018552
 387	1.9300e-01	7.7087	50.339120	0.000586	5.856180	0.992064	0.023392
 388	1.9350e-01	7.7283	50.427848	0.000444	4.442620	0.752600	0.017746
 389	1.9400e-01	7.7486	50.573040	0.000727	7.269741	1.231527	0.029038
 390	1.9450e-01	7.7686	50.597239	0.000121	1.211624	0.205255	0.004840
 391	1.9500e-01	7.7881	50.750496	0.000767	7.673616	1.299946	0.030652
 392	1.9550e-01	7.8082	50.851324	0.000505	5.048431	0.855227	0.020165
 393	1.9600e-01	7.8290	50.931986	0.000404	4.038745	0.684182	0.016132
 394	1.9650e-01	7.8479	51.057012	0.000626	6.260055	1.060482	0.025005
 395	1.9700e-01	7.8683	51.165905	0.000545	5.452306	0.923646	0.021779
 396	1.9750e-01	7.8894	51.202203	0.000182	1.817435	0.307882	0.007260
 397	1.9800e-01	7.9086	51.375627	0.000868	8.683302	1.470991	0.034685
 398	1.9850e-01	7.9294	51.492586	0.000586	5.856180	0.992064	0.023392
 399	1.9900e-01	7.9480	51.540984	0.000242	2.423247	0.410509	0.009679
 400	1.9950e-01	7.9688	51.641811	0.000505	5.048431	0.855227	0.020165
 401	2.0000e-01	7.9883	51.762804	0.000606	6.058118	1.026273	0.024199
 402	2.0050e-01	8.0090	51.875731	0.000565	5.654243	0.957855	0.022585
 403	2.0100e-01	8.0286	51.976558	0.000505	5.048431	0.855227	0.020165
 404	2.0150e-01	8.0493	52.065286	0.000444	4.442620	0.752600	0.017746
 405	2.0200e-01	8.0688	52.190312	0.000626	6.260055	1.060482	0.025005
 406	2.0250e-01	8.0896	52.283074	0.000464	4.644557	0.786809	0.018552
 407	2.0300e-01	8.1091	52.371802	0.000444	4.442620	0.752600	0.017746
 408	2.0350e-01	8.1293	52.488762	0.000586	5.856180	0.992064	0.023392
 409	2.0400e-01	8.1491	52.533126	0.000222	2.221310	0.376300	0.008873
 410	2.0450e-01	8.1677	52.662185	0.000646	6.461992	1.094691	0.025812
 411	2.0500e-01	8.1903	52.875939	0.001070	10.702675	1.813082	0.042751
 412	2.0550e-01	8.2095	52.879972	0.000020	0.201937	0.034209	0.000807
 413	2.0600e-01	8.2306	52.956601	0.000384	3.836808	0.649973	0.015326
 414	2.0650e-01	8.2483	53.029197	0.000363	3.634871	0.615764	0.014519
 415	2.0700e-01	8.2684	53.170355	0.000707	7.067804	1.197318	0.028232
 416	2.0750e-01	8.2892	53.311514	0.000707	7.067804	1.197318	0.028232
 417	2.0800e-01	8.3084	53.452672	0.000707	7.067804	1.197318	0.028232
 418	2.0850e-01	8.3282	53.577698	0.000626	6.260055	1.060482	0.025005
 419	2.0900e-01	8.3478	53.654327	0.000384	3.836808	0.649973	0.015326
 420	2.0950e-01	8.3691	53.694658	0.000202	2.019373	0.342091	0.008066
 421	2.1000e-01	8.3887	53.787420	0.000464	4.644557	0.786809	0.018552
 422	2.1050e-01	8.4094	53.900346	0.000565	5.654243	0.957855	0.022585
 423	2.1100e-01	8.4283	53.952777	0.000263	2.625184	0.444718	0.010486
 424	2.1150e-01	8.4497	54.057637	0.000525	5.250369	0.889437	0.020972
 425	2.1200e-01	8.4686	54.178630	0.000606	6.058118	1.026273	0.024199
 426	2.1250e-01	8.4888	54.279458	0.000505	5.048431	0.855227	0.020165
 427	2.1300e-01	8.5089	54.404484	0.000626	6.260055	1.060482	0.025005
 428	2.1350e-01	8.5291	54.452881	0.000242	2.423247	0.410509	0.009679
 429	2.1400e-01	8.5486	54.606139	0.000767	7.673616	1.299946	0.030652
 430	2.1450e-01	8.5687	54.666635	0.000303	3.029059	0.513136	0.012099
 431	2.1500e-01	8.5896	54.775529	0.000545	5.452306	0.923646	0.021779
 432	2.1550e-01	8.6096	54.819893	0.000222	2.221310	0.376300	0.008873
 433	2.1600e-01	8.6292	54.985250	0.000828	8.279427	1.402573	0.033071
 434	2.1650e-01	8.6499	55.073978	0.000444	4.442620	0.752600	0.017746
 435	2.1700e-01	8.6700	55.114309	0.000202	2.019373	0.342091	0.008066
 436	2.1750e-01	8.6893	55.283699	0.000848	8.481365	1.436782	0.033878
 437	2.1800e-01	8.7091	55.356295	0.000363	3.634871	0.615764	0.014519
 438	2.1850e-01	8.7280	55.428891	0.000363	3.634871	0.615764	0.014519
 439	2.1900e-01	8.7500	55.566016	0.000687	6.865867	1.163109	0.027425
 440	2.1950e-01	8.7695	55.678943	0.000565	5.654243	0.957855	0.022585
 441	2.2000e-01	8.7897	55.759605	0.000404	4.038745	0.684182	0.016132
 442	2.2050e-01	8.8098	55.856399	0.000485	4.846494	0.821018	0.019359
 443	2.2100e-01	8.8297	55.937061	0.000404	4.038745	0.684182	0.016132
 444	2.2150e-01	8.8495	56.058054	0.000606	6.058118	1.026273	0.024199
 445	2.2200e-01	8.8690	56.126617	0.000343	3.432933	0.581555	0.013713
 446	2.2250e-01	8.8898	56.263742	0.000687	6.865867	1.163109	0.027425
 447	2.2300e-01	8.9087	56.352470	0.000444	4.442620	0.752600	0.017746
 448	2.2350e-01	8.9282	56.453298	0.000505	5.048431	0.855227	0.020165
 449	2.2400e-01	8.9496	56.546059	0.000464	4.644557	0.786809	0.018552
 450	2.2450e-01	8.9679	56.614622	0.000343	3.432933	0.581555	0.013713
 451	2.2500e-01	8.9886	56.671085	0.000283	2.827122	0.478927	0.011293
 452	2.2550e-01	9.0097	56.820310	0.000747	7.471678	1.265737	0.029845
 453	2.2600e-01	9.0283	56.921137	0.000505	5.048431	0.855227	0.020165
 454	2.2650e-01	9.0485	57.001799	0.000404	4.038745	0.684182	0.016132
 455	2.2700e-01	9.0686	57.114726	0.000565	5.654243	0.957855	0.022585
 456	2.2750e-01	9.0887	57.199421	0.000424	4.240682	0.718391	0.016939
 457	2.2800e-01	9.1089	57.304281	0.000525	5.250369	0.889437	0.020972
 458	2.2850e-01	9.1290	57.344612	0.000202	2.019373	0.342091	0.008066
 459	2.2900e-01	9.1492	57.437374	0.000464	4.644557	0.786809	0.018552
 460	2.2950e-01	9.1696	57.562400	0.000626	6.260055	1.060482	0.025005
 461	2.3000e-01	9.1888	57.626929	0.000323	3.230996	0.547346	0.012906
 462	2.3050e-01	9.2090	57.796320	0.000848	8.481365	1.436782	0.033878
 463	2.3100e-01	9.2297	57.864882	0.000343	3.432933	0.581555	0.013713
 464	2.3150e-01	9.2493	57.949577	0.000424	4.240682	0.718391	0.016939
 465	2.3200e-01	9.2688	58.070570	0.000606	6.058118	1.026273	0.024199
 466	2.3250e-01	9.2896	58.163331	0.000464	4.644557	0.786809	0.018552
 467	2.3300e-01	9.3091	58.264159	0.000505	5.048431	0.855227	0.020165
 468	2.3350e-01	9.3298	58.304490	0.000202	2.019373	0.342091	0.008066
 469	2.3400e-01	9.3488	58.393218	0.000444	4.442620	0.752600	0.017746
 470	2.3450e-01	9.3689	58.530343	0.000687	6.865867	1.163109	0.027425
 471	2.3500e-01	9.3890	58.594873	0.000323	3.230996	0.547346	0.012906
 472	2.3550e-01	9.4095	58.764263	0.000848	8.481365	1.436782	0.033878
 473	2.3600e-01	9.4293	58.772329	0.000040	0.403875	0.068418	0.001613
 474	2.3650e-01	9.4489	58.857024	0.000424	4.240682	0.718391	0.016939
 475	2.3700e-01	9.4696	58.973984	0.000586	5.856180	0.992064	0.023392
 476	2.3750e-01	9.4885	59.058679	0.000424	4.240682	0.718391	0.016939
 477	2.3800e-01	9.5093	59.203871	0.000727	7.269741	1.231527	0.029038
 478	2.3850e-01	9.5282	59.248235	0.000222	2.221310	0.376300	0.008873
 479	2.3900e-01	9.5499	59.365195	0.000586	5.856180	0.992064	0.023392
 480	2.3950e-01	9.5685	59.433758	0.000343	3.432933	0.581555	0.013713
 481	2.4000e-01	9.5898	59.510386	0.000384	3.836808	0.649973	0.015326
 482	2.4050e-01	9.6088	59.699942	0.000949	9.491051	1.607828	0.037911
 483	2.4100e-01	9.6289	59.752372	0.000263	2.625184	0.444718	0.010486
 484	2.4150e-01	9.6494	59.837067	0.000424	4.240682	0.718391	0.016939
 485	2.4200e-01	9.6692	59.913696	0.000384	3.836808	0.649973	0.015326
 486	2.4250e-01	9.6887	59.994358	0.000404	4.038745	0.684182	0.016132
 487	2.4300e-01	9.7089	60.087120	0.000464	4.644557	0.786809	0.018552
 488	2.4350e-01	9.7290	60.208112	0.000606	6.058118	1.026273	0.024199
 489	2.4400e-01	9.7498	60.292808	0.000424	4.240682	0.718391	0.016939
 490	2.4450e-01	9.7693	60.393635	0.000505	5.048431	0.855227	0.020165
 491	2.4500e-01	9.7884	60.474297	0.000404	4.038745	0.684182	0.016132
 492	2.4550e-01	9.8096	60.587224	0.000565	5.654243	0.957855	0.022585
 493	2.4600e-01	9.8285	60.631588	0.000222	2.221310	0.376300	0.008873
 494	2.4650e-01	9.8480	60.728382	0.000485	4.846494	0.821018	0.019359
 495	2.4700e-01	9.8700	60.841309	0.000565	5.654243	0.957855	0.022585
 496	2.4750e-01	9.8889	60.921971	0.000404	4.038745	0.684182	0.016132
 497	2.4800e-01	9.9097	61.002633	0.000404	4.038745	0.684182	0.016132
 498	2.4850e-01	9.9280	61.042964	0.000202	2.019373	0.342091	0.008066
 499	2.4900e-01	9.9493	61.224453	0.000909	9.087177	1.539409	0.036298
 500	2.4950e-01	9.9689	61.333347	0.000545	5.452306	0.923646	0.021779
 501	2.5000e-01	9.9890	61.361579	0.000141	1.413561	0.239464	0.005646
 502	2.5050e-01	9.9860	61.337380	0.000121	1.211624	0.205255	-0.004840
 503	2.5100e-01	9.9698	61.297049	0.000202	2.019373	0.342091	-0.008066
 504	2.5150e-01	9.9515	61.228486	0.000343	3.432933	0.581555	-0.013713
 505	2.5200e-01	9.9323	61.131692	0.000485	4.846494	0.821018	-0.019359
 506	2.5250e-01	9.9118	61.075229	0.000283	2.827122	0.478927	-0.011293
 507	2.5300e-01	9.8914	61.014732	0.000303	3.029059	0.513136	-0.012099
 508	2.5350e-01	9.8718	60.962302	0.000263	2.625184	0.444718	-0.010486
 509	2.5400e-01	9.8511	60.913905	0.000242	2.423247	0.410509	-0.009679
 510	2.5450e-01	9.8315	60.857441	0.000283	2.827122	0.478927	-0.011293
 511	2.5500e-01	9.8126	60.732415	0.000626	6.260055	1.060482	-0.025005
 512	2.5550e-01	9.7900	60.671919	0.000303	3.029059	0.513136	-0.012099
 513	2.5600e-01	9.7717	60.611422	0.000303	3.029059	0.513136	-0.012099
 514	2.5650e-01	9.7516	60.550926	0.000303	3.029059	0.513136	-0.012099
 515	2.5700e-01	9.7308	60.506562	0.000222	2.221310	0.376300	-0.008873
 516	2.5750e-01	9.7119	60.421867	0.000424	4.240682	0.718391	-0.016939
 517	2.5800e-01	9.6912	60.329105	0.000464	4.644557	0.786809	-0.018552
 518	2.5850e-01	9.6710	60.284741	0.000222	2.221310	0.376300	-0.008873
 519	2.5900e-01	9.6509	60.183914	0.000505	5.048431	0.855227	-0.020165
 520	2.5950e-01	9.6307	60.083086	0.000505	5.048431	0.855227	-0.020165
 521	2.6000e-01	9.6112	60.038722	0.000222	2.221310	0.376300	-0.008873
 522	2.6050e-01	9.5923	59.897564	0.000707	7.067804	1.197318	-0.028232
 523	2.6100e-01	9.5706	59.833034	0.000323	3.230996	0.547346	-0.012906
 524	2.6150e-01	9.5514	59.808836	0.000121	1.211624	0.205255	-0.004840
 525	2.6200e-01	9.5319	59.720108	0.000444	4.442620	0.752600	-0.017746
 526	2.6250e-01	9.5105	59.659611	0.000303	3.029059	0.513136	-0.012099
 527	2.6300e-01	9.4911	59.562817	0.000485	4.846494	0.821018	-0.019359
 528	2.6350e-01	9.4708	59.518453	0.000222	2.221310	0.376300	-0.008873
 529	2.6400e-01	9.4513	59.437791	0.000404	4.038745	0.684182	-0.016132
 530	2.6450e-01	9.4305	59.349062	0.000444	4.442620	0.752600	-0.017746
 531	2.6500e-01	9.4116	59.280500	0.000343	3.432933	0.581555	-0.013713
 532	2.6550e-01	9.3915	59.224036	0.000283	2.827122	0.478927	-0.011293
 533	2.6600e-01	9.3695	59.082878	0.000707	7.067804	1.197318	-0.028232
 534	2.6650e-01	9.3515	59.046580	0.000182	1.817435	0.307882	-0.007260
 535	2.6700e-01	9.3314	58.990117	0.000283	2.827122	0.478927	-0.011293
 536	2.6750e-01	9.3118	58.909455	0.000404	4.038745	0.684182	-0.016132
 537	2.6800e-01	9.2914	58.824760	0.000424	4.240682	0.718391	-0.016939
 538	2.6850e-01	9.2706	58.727965	0.000485	4.846494	0.821018	-0.019359
 539	2.6900e-01	9.2519	58.655370	0.000363	3.634871	0.615764	-0.014519
 540	2.6950e-01	9.2310	58.623105	0.000162	1.615498	0.273673	-0.006453
 541	2.7000e-01	9.2114	58.502112	0.000606	6.058118	1.026273	-0.024199
 542	2.7050e-01	9.1907	58.393218	0.000545	5.452306	0.923646	-0.021779
 543	2.7100e-01	9.1718	58.389185	0.000020	0.201937	0.034209	-0.000807
 544	2.7150e-01	9.1510	58.284324	0.000525	5.250369	0.889437	-0.020972
 545	2.7200e-01	9.1321	58.211729	0.000363	3.634871	0.615764	-0.014519
 546	2.7250e-01	9.1103	58.155265	0.000283	2.827122	0.478927	-0.011293
 547	2.7300e-01	9.0918	58.026206	0.000646	6.461992	1.094691	-0.025812
 548	2.7350e-01	9.0710	57.953610	0.000363	3.634871	0.615764	-0.014519
 549	2.7400e-01	9.0515	57.885048	0.000343	3.432933	0.581555	-0.013713
 550	2.7450e-01	9.0311	57.800353	0.000424	4.240682	0.718391	-0.016939
 551	2.7500e-01	9.0118	57.735823	0.000323	3.230996	0.547346	-0.012906
 552	2.7550e-01	8.9905	57.606764	0.000646	6.461992	1.094691	-0.025812
 553	2.7600e-01	8.9709	57.566433	0.000202	2.019373	0.342091	-0.008066
 554	2.7650e-01	8.9508	57.485771	0.000404	4.038745	0.684182	-0.016132
 555	2.7700e-01	8.9304	57.368811	0.000586	5.856180	0.992064	-0.023392
 556	2.7750e-01	8.9124	57.288149	0.000404	4.038745	0.684182	-0.016132
 557	2.7800e-01	8.8916	57.207487	0.000404	4.038745	0.684182	-0.016132
 558	2.7850e-01	8.8702	57.187322	0.000101	1.009686	0.171045	-0.004033
 559	2.7900e-01	8.8525	57.094560	0.000464	4.644557	0.786809	-0.018552
 560	2.7950e-01	8.8300	57.005832	0.000444	4.442620	0.752600	-0.017746
 561	2.8000e-01	8.8110	56.921137	0.000424	4.240682	0.718391	-0.016939
 562	2.8050e-01	8.7915	56.840475	0.000404	4.038745	0.684182	-0.016132
 563	2.8100e-01	8.7714	56.771912	0.000343	3.432933	0.581555	-0.013713
 564	2.8150e-01	8.7518	56.675118	0.000485	4.846494	0.821018	-0.019359
 565	2.8200e-01	8.7311	56.546059	0.000646	6.461992	1.094691	-0.025812
 566	2.8250e-01	8.7115	56.513794	0.000162	1.615498	0.273673	-0.006453
 567	2.8300e-01	8.6914	56.433132	0.000404	4.038745	0.684182	-0.016132
 568	2.8350e-01	8.6725	56.372636	0.000303	3.029059	0.513136	-0.012099
 569	2.8400e-01	8.6530	56.283908	0.000444	4.442620	0.752600	-0.017746
 570	2.8450e-01	8.6313	56.211312	0.000363	3.634871	0.615764	-0.014519
 571	2.8500e-01	8.6115	56.086286	0.000626	6.260055	1.060482	-0.025005
 572	2.8550e-01	8.5913	56.045955	0.000202	2.019373	0.342091	-0.008066
 573	2.8600e-01	8.5718	55.900763	0.000727	7.269741	1.231527	-0.029038
 574	2.8650e-01	8.5510	55.820101	0.000404	4.038745	0.684182	-0.016132
 575	2.8700e-01	8.5321	55.767671	0.000263	2.625184	0.444718	-0.010486
 576	2.8750e-01	8.5120	55.650711	0.000586	5.856180	0.992064	-0.023392
 577	2.8800e-01	8.4912	55.630546	0.000101	1.009686	0.171045	-0.004033
 578	2.8850e-01	8.4720	55.578115	0.000263	2.625184	0.444718	-0.010486
 579	2.8900e-01	8.4518	55.485354	0.000464	4.644557	0.786809	-0.018552
 580	2.8950e-01	8.4320	55.404692	0.000404	4.038745	0.684182	-0.016132
 581	2.9000e-01	8.4119	55.263534	0.000707	7.067804	1.197318	-0.028232
 582	2.9050e-01	8.3920	55.174805	0.000444	4.442620	0.752600	-0.017746
 583	2.9100e-01	8.3716	55.049779	0.000626	6.260055	1.060482	-0.025005
 584	2.9150e-01	8.3514	55.021548	0.000141	1.413561	0.239464	-0.005646
 585	2.9200e-01	8.3313	54.993316	0.000141	1.413561	0.239464	-0.005646
 586	2.9250e-01	8.3118	54.860224	0.000666	6.663929	1.128900	-0.026618
 587	2.9300e-01	8.2916	54.751330	0.000545	5.452306	0.923646	-0.021779
 588	2.9350e-01	8.2718	54.626304	0.000626	6.260055	1.060482	-0.025005
 589	2.9400e-01	8.2520	54.557741	0.000343	3.432933	0.581555	-0.013713
 590	2.9450e-01	8.2324	54.497245	0.000303	3.029059	0.513136	-0.012099
 591	2.9500e-01	8.2111	54.364153	0.000666	6.663929	1.128900	-0.026618
 592	2.9550e-01	8.1921	54.327855	0.000182	1.817435	0.307882	-0.007260
 593	2.9600e-01	8.1714	54.255259	0.000363	3.634871	0.615764	-0.014519
 594	2.9650e-01	8.1519	54.138299	0.000586	5.856180	0.992064	-0.023392
 595	2.9700e-01	8.1317	54.029405	0.000545	5.452306	0.923646	-0.021779
 596	2.9750e-01	8.1122	53.948743	0.000404	4.038745	0.684182	-0.016132
 597	2.9800e-01	8.0933	53.847916	0.000505	5.048431	0.855227	-0.020165
 598	2.9850e-01	8.0719	53.779353	0.000343	3.432933	0.581555	-0.013713
 599	2.9900e-01	8.0524	53.686592	0.000464	4.644557	0.786809	-0.018552
 600	2.9950e-01	8.0334	53.710791	-0.000121	-1.211624	-0.205255	0.004840
 601	3.0000e-01	8.0115	53.577698	0.000666	6.663929	1.128900	-0.026618
 602	3.0050e-01	7.9913	53.456705	0.000606	6.058118	1.026273	-0.024199
 603	3.0100e-01	7.9712	53.396209	0.000303	3.029059	0.513136	-0.012099
 604	3.0150e-01	7.9523	53.255050	0.000707	7.067804	1.197318	-0.028232
 605	3.0200e-01	7.9321	53.202620	0.000263	2.625184	0.444718	-0.010486
 606	3.0250e-01	7.9120	53.105826	0.000485	4.846494	0.821018	-0.019359
 607	3.0300e-01	7.8925	53.000965	0.000525	5.250369	0.889437	-0.020972
 608	3.0350e-01	7.8717	52.896105	0.000525	5.250369	0.889437	-0.020972
 609	3.0400e-01	7.8525	52.811410	0.000424	4.240682	0.718391	-0.016939
 610	3.0450e-01	7.8320	52.686384	0.000626	6.260055	1.060482	-0.025005
 611	3.0500e-01	7.8116	52.674284	0.000061	0.605812	0.102627	-0.002420
 612	3.0550e-01	7.7911	52.581523	0.000464	4.644557	0.786809	-0.018552
 613	3.0600e-01	7.7722	52.512960	0.000343	3.432933	0.581555	-0.013713
 614	3.0650e-01	7.7521	52.387934	0.000626	6.260055	1.060482	-0.025005
 615	3.0700e-01	7.7332	52.319372	0.000343	3.432933	0.581555	-0.013713
 616	3.0750e-01	7.7124	52.258875	0.000303	3.029059	0.513136	-0.012099
 617	3.0800e-01	7.6917	52.182246	0.000384	3.836808	0.649973	-0.015326
 618	3.0850e-01	7.6718	52.105617	0.000384	3.836808	0.649973	-0.015326
 619	3.0900e-01	7.6520	52.004790	0.000505	5.048431	0.855227	-0.020165
 620	3.0950e-01	7.6321	51.920095	0.000424	4.240682	0.718391	-0.016939
 621	3.1000e-01	7.6114	51.791036	0.000646	6.461992	1.094691	-0.025812
 622	3.1050e-01	7.5922	51.702308	0.000444	4.442620	0.752600	-0.017746
 623	3.1100e-01	7.5708	51.621646	0.000404	4.038745	0.684182	-0.016132
 624	3.1150e-01	7.5513	51.629712	-0.000040	-0.403875	-0.068418	0.001613
 625	3.1200e-01	7.5330	51.411924	0.001090	10.904612	1.847291	-0.043557
 626	3.1250e-01	7.5116	51.355461	0.000283	2.827122	0.478927	-0.011293
 627	3.1300e-01	7.4927	51.262700	0.000464	4.644557	0.786809	-0.018552
 628	3.1350e-01	7.4725	51.153806	0.000545	5.452306	0.923646	-0.021779
 629	3.1400e-01	7.4527	51.081210	0.000363	3.634871	0.615764	-0.014519
 630	3.1450e-01	7.4329	50.992482	0.000444	4.442620	0.752600	-0.017746
 631	3.1500e-01	7.4133	50.919886	0.000363	3.634871	0.615764	-0.014519
 632	3.1550e-01	7.3920	50.798893	0.000606	6.058118	1.026273	-0.024199
 633	3.1600e-01	7.3730	50.718231	0.000404	4.038745	0.684182	-0.016132
 634	3.1650e-01	7.3529	50.633536	0.000424	4.240682	0.718391	-0.016939
 635	3.1700e-01	7.3322	50.556908	0.000384	3.836808	0.649973	-0.015326
 636	3.1750e-01	7.3117	50.411716	0.000727	7.269741	1.231527	-0.029038
 637	3.1800e-01	7.2928	50.318955	0.000464	4.644557	0.786809	-0.018552
 638	3.1850e-01	7.2723	50.218127	0.000505	5.048431	0.855227	-0.020165
 639	3.1900e-01	7.2522	50.161664	0.000283	2.827122	0.478927	-0.011293
 640	3.1950e-01	7.2324	50.040671	0.000606	6.058118	1.026273	-0.024199
 641	3.2000e-01	7.2119	50.008406	0.000162	1.615498	0.273673	-0.006453
 642	3.2050e-01	7.1924	49.879347	0.000646	6.461992	1.094691	-0.025812
 643	3.2100e-01	7.1729	49.782553	0.000485	4.846494	0.821018	-0.019359
 644	3.2150e-01	7.1521	49.705924	0.000384	3.836808	0.649973	-0.015326
 645	3.2200e-01	7.1326	49.617196	0.000444	4.442620	0.752600	-0.017746
 646	3.2250e-01	7.1124	49.516368	0.000505	5.048431	0.855227	-0.020165
 647	3.2300e-01	7.0923	49.463938	0.000263	2.625184	0.444718	-0.010486
 648	3.2350e-01	7.0709	49.351011	0.000565	5.654243	0.957855	-0.022585
 649	3.2400e-01	7.0526	49.286481	0.000323	3.230996	0.547346	-0.012906
 650	3.2450e-01	7.0325	49.137257	0.000747	7.471678	1.265737	-0.029845
 651	3.2500e-01	7.0123	49.004165	0.000666	6.663929	1.128900	-0.026618
 652	3.2550e-01	6.9925	48.955767	0.000242	2.423247	0.410509	-0.009679
 653	3.2600e-01	6.9734	48.919469	0.000182	1.817435	0.307882	-0.007260
 654	3.2650e-01	6.9521	48.754112	0.000828	8.279427	1.402573	-0.033071
 655	3.2700e-01	6.9312	48.681517	0.000363	3.634871	0.615764	-0.014519
 656	3.2750e-01	6.9116	48.612954	0.000343	3.432933	0.581555	-0.013713
 657	3.2800e-01	6.8930	48.487928	0.000626	6.260055	1.060482	-0.025005
 658	3.2850e-01	6.8726	48.391134	0.000485	4.846494	0.821018	-0.019359
 659	3.2900e-01	6.8524	48.294339	0.000485	4.846494	0.821018	-0.019359
 660	3.2950e-01	6.8315	48.161247	0.000666	6.663929	1.128900	-0.026618
 661	3.3000e-01	6.8115	48.133015	0.000141	1.413561	0.239464	-0.005646
 662	3.3050e-01	6.7914	48.020089	0.000565	5.654243	0.957855	-0.022585
 663	3.3100e-01	6.7725	47.903129	0.000586	5.856180	0.992064	-0.023392
 664	3.3150e-01	6.7514	47.834566	0.000343	3.432933	0.581555	-0.013713
 665	3.3200e-01	6.7331	47.745838	0.000444	4.442620	0.752600	-0.017746
 666	3.3250e-01	6.7120	47.624845	0.000606	6.058118	1.026273	-0.024199
 667	3.3300e-01	6.6920	47.540150	0.000424	4.240682	0.718391	-0.016939
 668	3.3350e-01	6.6718	47.463521	0.000384	3.836808	0.649973	-0.015326
 669	3.3400e-01	6.6528	47.330429	0.000666	6.663929	1.128900	-0.026618
 670	3.3450e-01	6.6324	47.245734	0.000424	4.240682	0.718391	-0.016939
 671	3.3500e-01	6.6125	47.177171	0.000343	3.432933	0.581555	-0.013713
 672	3.3550e-01	6.5918	47.064244	0.000565	5.654243	0.957855	-0.022585
 673	3.3600e-01	6.5718	46.995681	0.000343	3.432933	0.581555	-0.013713
 674	3.3650e-01	6.5517	46.902920	0.000464	4.644557	0.786809	-0.018552
 675	3.3700e-01	6.5320	46.765795	0.000687	6.865867	1.163109	-0.027425
 676	3.3750e-01	6.5118	46.669000	0.000485	4.846494	0.821018	-0.019359
 677	3.3800e-01	6.4923	46.580272	0.000444	4.442620	0.752600	-0.017746
 678	3.3850e-01	6.4716	46.439114	0.000707	7.067804	1.197318	-0.028232
 679	3.3900e-01	6.4520	46.370551	0.000343	3.432933	0.581555	-0.013713
 680	3.3950e-01	6.4325	46.289889	0.000404	4.038745	0.684182	-0.016132
 681	3.4000e-01	6.4130	46.221327	0.000343	3.432933	0.581555	-0.013713
 682	3.4050e-01	6.3922	46.031771	0.000949	9.491051	1.607828	-0.037911
 683	3.4100e-01	6.3708	45.999506	0.000162	1.615498	0.273673	-0.006453
 684	3.4150e-01	6.3522	45.890612	0.000545	5.452306	0.923646	-0.021779
 685	3.4200e-01	6.3318	45.801884	0.000444	4.442620	0.752600	-0.017746
 686	3.4250e-01	6.3120	45.709123	0.000464	4.644557	0.786809	-0.018552
 687	3.4300e-01	6.2927	45.692991	0.000081	0.807749	0.136836	-0.003226
 688	3.4350e-01	6.2726	45.515534	0.000889	8.885239	1.505200	-0.035491
 689	3.4400e-01	6.2531	45.406641	0.000545	5.452306	0.923646	-0.021779
 690	3.4450e-01	6.2320	45.342111	0.000323	3.230996	0.547346	-0.012906
 691	3.4500e-01	6.2128	45.213052	0.000646	6.461992	1.094691	-0.025812
 692	3.4550e-01	6.1926	45.116258	0.000485	4.846494	0.821018	-0.019359
 693	3.4600e-01	6.1731	45.007364	0.000545	5.452306	0.923646	-0.021779
 694	3.4650e-01	6.1530	44.890404	0.000586	5.856180	0.992064	-0.023392
 695	3.4700e-01	6.1328	44.837974	0.000263	2.625184	0.444718	-0.010486
 696	3.4750e-01	6.1121	44.733113	0.000525	5.250369	0.889437	-0.020972
 697	3.4800e-01	6.0927	44.604054	0.000646	6.461992	1.094691	-0.025812
 698	3.4850e-01	6.0718	44.462896	0.000707	7.067804	1.197318	-0.028232
 699	3.4900e-01	6.0522	44.374167	0.000444	4.442620	0.752600	-0.017746
 700	3.4950e-01	6.0327	44.345936	0.000141	1.413561	0.239464	-0.005646
 701	3.5000e-01	6.0126	44.216877	0.000646	6.461992	1.094691	-0.025812
 702	3.5050e-01	5.9927	44.107983	0.000545	5.452306	0.923646	-0.021779
 703	3.5100e-01	5.9729	43.978924	0.000646	6.461992	1.094691	-0.025812
 704	3.5150e-01	5.9525	43.906328	0.000363	3.634871	0.615764	-0.014519
 705	3.5200e-01	5.9320	43.849865	0.000283	2.827122	0.478927	-0.011293
 706	3.5250e-01	5.9131	43.757103	0.000464	4.644557	0.786809	-0.018552
 707	3.5300e-01	5.8929	43.607879	0.000747	7.471678	1.265737	-0.029845
 708	3.5350e-01	5.8734	43.494952	0.000565	5.654243	0.957855	-0.022585
 709	3.5400e-01	5.8527	43.466720	0.000141	1.413561	0.239464	-0.005646
 710	3.5450e-01	5.8321	43.325562	0.000707	7.067804	1.197318	-0.028232
 711	3.5500e-01	5.8115	43.212635	0.000565	5.654243	0.957855	-0.022585
 712	3.5550e-01	5.7919	43.115841	0.000485	4.846494	0.821018	-0.019359
 713	3.5600e-01	5.7739	42.978715	0.000687	6.865867	1.163109	-0.027425
 714	3.5650e-01	5.7526	42.910153	0.000343	3.432933	0.581555	-0.013713
 715	3.5700e-01	5.7324	42.768994	0.000707	7.067804	1.197318	-0.028232
 716	3.5750e-01	5.7130	42.716564	0.000263	2.625184	0.444718	-0.010486
 717	3.5800e-01	5.6934	42.639935	0.000384	3.836808	0.649973	-0.015326
 718	3.5850e-01	5.6714	42.535074	0.000525	5.250369	0.889437	-0.020972
 719	3.5900e-01	5.6537	42.442313	0.000464	4.644557	0.786809	-0.018552
 720	3.5950e-01	5.6326	42.272923	0.000848	8.481365	1.436782	-0.033878
 721	3.6000e-01	5.6122	42.212427	0.000303	3.029059	0.513136	-0.012099
 722	3.6050e-01	5.5928	42.067235	0.000727	7.269741	1.231527	-0.029038
 723	3.6100e-01	5.5725	41.970441	0.000485	4.846494	0.821018	-0.019359
 724	3.6150e-01	5.5530	41.922043	0.000242	2.423247	0.410509	-0.009679
 725	3.6200e-01	5.5328	41.825249	0.000485	4.846494	0.821018	-0.019359
 726	3.6250e-01	5.5118	41.708289	0.000586	5.856180	0.992064	-0.023392
 727	3.6300e-01	5.4929	41.595362	0.000565	5.654243	0.957855	-0.022585
 728	3.6350e-01	5.4721	41.526800	0.000343	3.432933	0.581555	-0.013713
 729	3.6400e-01	5.4523	41.373542	0.000767	7.673616	1.299946	-0.030652
 730	3.6450e-01	5.4311	41.252549	0.000606	6.058118	1.026273	-0.024199
 731	3.6500e-01	5.4126	41.151722	0.000505	5.048431	0.855227	-0.020165
 732	3.6550e-01	5.3922	41.054927	0.000485	4.846494	0.821018	-0.019359
 733	3.6600e-01	5.3723	40.990398	0.000323	3.230996	0.547346	-0.012906
 734	3.6650e-01	5.3522	40.841173	0.000747	7.471678	1.265737	-0.029845
 735	3.6700e-01	5.3320	40.716147	0.000626	6.260055	1.060482	-0.025005
 736	3.6750e-01	5.3125	40.643551	0.000363	3.634871	0.615764	-0.014519
 737	3.6800e-01	5.2917	40.562889	0.000404	4.038745	0.684182	-0.016132
 738	3.6850e-01	5.2722	40.429797	0.000666	6.663929	1.128900	-0.026618
 739	3.6900e-01	5.2524	40.361234	0.000343	3.432933	0.581555	-0.013713
 740	3.6950e-01	5.2315	40.199910	0.000808	8.077490	1.368364	-0.032265
 741	3.7000e-01	5.2118	40.167646	0.000162	1.615498	0.273673	-0.006453
 742	3.7050e-01	5.1929	39.978090	0.000949	9.491051	1.607828	-0.037911
 743	3.7100e-01	5.1712	39.937759	0.000202	2.019373	0.342091	-0.008066
 744	3.7150e-01	5.1520	39.756269	0.000909	9.087177	1.539409	-0.036298
 745	3.7200e-01	5.1318	39.663508	0.000464	4.644557	0.786809	-0.018552
 746	3.7250e-01	5.1123	39.594946	0.000343	3.432933	0.581555	-0.013713
 747	3.7300e-01	5.0916	39.433622	0.000808	8.077490	1.368364	-0.032265
 748	3.7350e-01	5.0714	39.356993	0.000384	3.836808	0.649973	-0.015326
 749	3.7400e-01	5.0513	39.284397	0.000363	3.634871	0.615764	-0.014519
 750	3.7450e-01	5.0317	39.171470	0.000565	5.654243	0.957855	-0.022585
 751	3.7500e-01	5.0124	39.054510	0.000586	5.856180	0.992064	-0.023392
 752	3.7550e-01	4.9921	38.989981	0.000323	3.230996	0.547346	-0.012906
 753	3.7600e-01	4.9722	38.860922	0.000646	6.461992	1.094691	-0.025812
 754	3.7650e-01	4.9527	38.760094	0.000505	5.048431	0.855227	-0.020165
 755	3.7700e-01	4.9326	38.598770	0.000808	8.077490	1.368364	-0.032265
 756	3.7750e-01	4.9121	38.493910	0.000525	5.250369	0.889437	-0.020972
 757	3.7800e-01	4.8920	38.348718	0.000727	7.269741	1.231527	-0.029038
 758	3.7850e-01	4.8724	38.308387	0.000202	2.019373	0.342091	-0.008066
 759	3.7900e-01	4.8526	38.215626	0.000464	4.644557	0.786809	-0.018552
 760	3.7950e-01	4.8317	38.110765	0.000525	5.250369	0.889437	-0.020972
 761	3.8000e-01	4.8126	37.957507	0.000767	7.673616	1.299946	-0.030652
 762	3.8050e-01	4.7925	37.864746	0.000464	4.644557	0.786809	-0.018552
 763	3.8100e-01	4.7729	37.792150	0.000363	3.634871	0.615764	-0.014519
 764	3.8150e-01	4.7531	37.667124	0.000626	6.260055	1.060482	-0.025005
 765	3.8200e-01	4.7321	37.558231	0.000545	5.452306	0.923646	-0.021779
 766	3.8250e-01	4.7125	37.437238	0.000606	6.058118	1.026273	-0.024199
 767	3.8300e-01	4.6921	37.324311	0.000565	5.654243	0.957855	-0.022585
 768	3.8350e-01	4.6729	37.231550	0.000464	4.644557	0.786809	-0.018552
 769	3.8400e-01	4.6512	37.114590	0.000586	5.856180	0.992064	-0.023392
 770	3.8450e-01	4.6326	36.977465	0.000687	6.865867	1.163109	-0.027425
 771	3.8500e-01	4.6106	36.884703	0.000464	4.644557	0.786809	-0.018552
 772	3.8550e-01	4.5923	36.771777	0.000565	5.654243	0.957855	-0.022585
 773	3.8600e-01	4.5710	36.658850	0.000565	5.654243	0.957855	-0.022585
 774	3.8650e-01	4.5508	36.578188	0.000404	4.038745	0.684182	-0.016132
 775	3.8700e-01	4.5314	36.380566	0.000989	9.894926	1.676246	-0.039524
 776	3.8750e-01	4.5117	36.340235	0.000202	2.019373	0.342091	-0.008066
 777	3.8800e-01	4.4925	36.203110	0.000687	6.865867	1.163109	-0.027425
 778	3.8850e-01	4.4724	36.134547	0.000343	3.432933	0.581555	-0.013713
 779	3.8900e-01	4.4516	35.981289	0.000767	7.673616	1.299946	-0.030652
 780	3.8950e-01	4.4321	35.908693	0.000363	3.634871	0.615764	-0.014519
 781	3.9000e-01	4.4125	35.775601	0.000666	6.663929	1.128900	-0.026618
 782	3.9050e-01	4.3921	35.666707	0.000545	5.452306	0.923646	-0.021779
 783	3.9100e-01	4.3710	35.525549	0.000707	7.067804	1.197318	-0.028232
 784	3.9150e-01	4.3512	35.461019	0.000323	3.230996	0.547346	-0.012906
 785	3.9200e-01	4.3320	35.327927	0.000666	6.663929	1.128900	-0.026618
 786	3.9250e-01	4.3112	35.239199	0.000444	4.442620	0.752600	-0.017746
 787	3.9300e-01	4.2920	35.110140	0.000646	6.461992	1.094691	-0.025812
 788	3.9350e-01	4.2706	34.964948	0.000727	7.269741	1.231527	-0.029038
 789	3.9400e-01	4.2517	34.880253	0.000424	4.240682	0.718391	-0.016939
 790	3.9450e-01	4.2314	34.747161	0.000666	6.663929	1.128900	-0.026618
 791	3.9500e-01	4.2123	34.674565	0.000363	3.634871	0.615764	-0.014519
 792	3.9550e-01	4.1919	34.565672	0.000545	5.452306	0.923646	-0.021779
 793	3.9600e-01	4.1727	34.452745	0.000565	5.654243	0.957855	-0.022585
 794	3.9650e-01	4.1513	34.319653	0.000666	6.663929	1.128900	-0.026618
 795	3.9700e-01	4.1321	34.202693	0.000586	5.856180	0.992064	-0.023392
 796	3.9750e-01	4.1119	34.085733	0.000586	5.856180	0.992064	-0.023392
 797	3.9800e-01	4.0924	33.960707	0.000626	6.260055	1.060482	-0.025005
 798	3.9850e-01	4.0707	33.871979	0.000444	4.442620	0.752600	-0.017746
 799	3.9900e-01	4.0515	33.746953	0.000626	6.260055	1.060482	-0.025005
 800	3.9950e-01	4.0327	33.646125	0.000505	5.048431	0.855227	-0.020165
 801	4.0000e-01	4.0125	33.509000	0.000687	6.865867	1.163109	-0.027425
 802	4.0050e-01	3.9919	33.392040	0.000586	5.856180	0.992064	-0.023392
 803	4.0100e-01	3.9719	33.279113	0.000565	5.654243	0.957855	-0.022585
 804	4.0150e-01	3.9517	33.190385	0.000444	4.442620	0.752600	-0.017746
 805	4.0200e-01	3.9325	33.053260	0.000687	6.865867	1.163109	-0.027425
 806	4.0250e-01	3.9120	32.916134	0.000687	6.865867	1.163109	-0.027425
 807	4.0300e-01	3.8916	32.831439	0.000424	4.240682	0.718391	-0.016939
 808	4.0350e-01	3.8718	32.742711	0.000444	4.442620	0.752600	-0.017746
 809	4.0400e-01	3.8519	32.609619	0.000666	6.663929	1.128900	-0.026618
 810	4.0450e-01	3.8316	32.464427	0.000727	7.269741	1.231527	-0.029038
 811	4.0500e-01	3.8123	32.335368	0.000646	6.461992	1.094691	-0.025812
 812	4.0550e-01	3.7906	32.214375	0.000606	6.058118	1.026273	-0.024199
 813	4.0600e-01	3.7714	32.117581	0.000485	4.846494	0.821018	-0.019359
 814	4.0650e-01	3.7520	31.992555	0.000626	6.260055	1.060482	-0.025005
 815	4.0700e-01	3.7323	31.867529	0.000626	6.260055	1.060482	-0.025005
 816	4.0750e-01	3.7111	31.823165	0.000222	2.221310	0.376300	-0.008873
 817	4.0800e-01	3.6917	31.613443	0.001050	10.500737	1.778873	-0.041944
 818	4.0850e-01	3.6716	31.569079	0.000222	2.221310	0.376300	-0.008873
 819	4.0900e-01	3.6523	31.435987	0.000666	6.663929	1.128900	-0.026618
 820	4.0950e-01	3.6328	31.302895	0.000666	6.663929	1.128900	-0.026618
 821	4.1000e-01	3.6121	31.206100	0.000485	4.846494	0.821018	-0.019359
 822	4.1050e-01	3.5927	31.068975	0.000687	6.865867	1.163109	-0.027425
 823	4.1100e-01	3.5712	30.891519	0.000889	8.885239	1.505200	-0.035491
 824	4.1150e-01	3.5516	30.835055	0.000283	2.827122	0.478927	-0.011293
 825	4.1200e-01	3.5319	30.677765	0.000788	7.875553	1.334155	-0.031458
 826	4.1250e-01	3.5117	30.580970	0.000485	4.846494	0.821018	-0.019359
 827	4.1300e-01	3.4924	30.427712	0.000767	7.673616	1.299946	-0.030652
 828	4.1350e-01	3.4715	30.334951	0.000464	4.644557	0.786809	-0.018552
 829	4.1400e-01	3.4528	30.189760	0.000727	7.269741	1.231527	-0.029038
 830	4.1450e-01	3.4325	30.137329	0.000263	2.625184	0.444718	-0.010486
 831	4.1500e-01	3.4113	30.000204	0.000687	6.865867	1.163109	-0.027425
 832	4.1550e-01	3.3917	29.883244	0.000586	5.856180	0.992064	-0.023392
 833	4.1600e-01	3.3737	29.762251	0.000606	6.058118	1.026273	-0.024199
 834	4.1650e-01	3.3521	29.645291	0.000586	5.856180	0.992064	-0.023392
 835	4.1700e-01	3.3323	29.500100	0.000727	7.269741	1.231527	-0.029038
 836	4.1750e-01	3.3116	29.395239	0.000525	5.250369	0.889437	-0.020972
 837	4.1800e-01	3.2919	29.278279	0.000586	5.856180	0.992064	-0.023392
 838	4.1850e-01	3.2721	29.153253	0.000626	6.260055	1.060482	-0.025005
 839	4.1900e-01	3.2520	29.016128	0.000687	6.865867	1.163109	-0.027425
 840	4.1950e-01	3.2319	28.895135	0.000606	6.058118	1.026273	-0.024199
 841	4.2000e-01	3.2115	28.802374	0.000464	4.644557	0.786809	-0.018552
 842	4.2050e-01	3.1918	28.673315	0.000646	6.461992	1.094691	-0.025812
 843	4.2100e-01	3.1714	28.552322	0.000606	6.058118	1.026273	-0.024199
 844	4.2150e-01	3.1512	28.479726	0.000363	3.634871	0.615764	-0.014519
 845	4.2200e-01	3.1318	28.330501	0.000747	7.471678	1.265737	-0.029845
 846	4.2250e-01	3.1120	28.221607	0.000545	5.452306	0.923646	-0.021779
 847	4.2300e-01	3.0923	28.056250	0.000828	8.279427	1.402573	-0.033071
 848	4.2350e-01	3.0725	27.935257	0.000606	6.058118	1.026273	-0.024199
 849	4.2400e-01	3.0521	27.846529	0.000444	4.442620	0.752600	-0.017746
 850	4.2450e-01	3.0316	27.697305	0.000747	7.471678	1.265737	-0.029845
 851	4.2500e-01	3.0130	27.584378	0.000565	5.654243	0.957855	-0.022585
 852	4.2550e-01	2.9929	27.451286	0.000666	6.663929	1.128900	-0.026618
 853	4.2600e-01	2.9724	27.318193	0.000666	6.663929	1.128900	-0.026618
 854	4.2650e-01	2.9520	27.205267	0.000565	5.654243	0.957855	-0.022585
 855	4.2700e-01	2.9318	27.068141	0.000687	6.865867	1.163109	-0.027425
 856	4.2750e-01	2.9120	26.967314	0.000505	5.048431	0.855227	-0.020165
 857	4.2800e-01	2.8915	26.862453	0.000525	5.250369	0.889437	-0.020972
 858	4.2850e-01	2.8712	26.713229	0.000747	7.471678	1.265737	-0.029845
 859	4.2900e-01	2.8522	26.592236	0.000606	6.058118	1.026273	-0.024199
 860	4.2950e-01	2.8320	26.438978	0.000767	7.673616	1.299946	-0.030652
 861	4.3000e-01	2.8113	26.358316	0.000404	4.038745	0.684182	-0.016132
 862	4.3050e-01	2.7917	26.152628	0.001030	10.298800	1.744664	-0.041138
 863	4.3100e-01	2.7710	26.116330	0.000182	1.817435	0.307882	-0.007260
 864	4.3150e-01	2.7521	25.975172	0.000707	7.067804	1.197318	-0.028232
 865	4.3200e-01	2.7316	25.866278	0.000545	5.452306	0.923646	-0.021779
 866	4.3250e-01	2.7126	25.713020	0.000767	7.673616	1.299946	-0.030652
 867	4.3300e-01	2.6910	25.583961	0.000646	6.461992	1.094691	-0.025812
 868	4.3350e-01	2.6721	25.495233	0.000444	4.442620	0.752600	-0.017746
 869	4.3400e-01	2.6514	25.333909	0.000808	8.077490	1.368364	-0.032265
 870	4.3450e-01	2.6306	25.220982	0.000565	5.654243	0.957855	-0.022585
 871	4.3500e-01	2.6112	25.095956	0.000626	6.260055	1.060482	-0.025005
 872	4.3550e-01	2.5916	24.934632	0.000808	8.077490	1.368364	-0.032265
 873	4.3600e-01	2.5714	24.793474	0.000707	7.067804	1.197318	-0.028232
 874	4.3650e-01	2.5514	24.749110	0.000222	2.221310	0.376300	-0.008873
 875	4.3700e-01	2.5304	24.579719	0.000848	8.481365	1.436782	-0.033878
 876	4.3750e-01	2.5110	24.490991	0.000444	4.442620	0.752600	-0.017746
 877	4.3800e-01	2.4922	24.349833	0.000707	7.067804	1.197318	-0.028232
 878	4.3850e-01	2.4716	24.224807	0.000626	6.260055	1.060482	-0.025005
 879	4.3900e-01	2.4529	24.075582	0.000747	7.471678	1.265737	-0.029845
 880	4.3950e-01	2.4323	23.954589	0.000606	6.058118	1.026273	-0.024199
 881	4.4000e-01	2.4121	23.849729	0.000525	5.250369	0.889437	-0.020972
 882	4.4050e-01	2.3917	23.728736	0.000606	6.058118	1.026273	-0.024199
 883	4.4100e-01	2.3719	23.627908	0.000505	5.048431	0.855227	-0.020165
 884	4.4150e-01	2.3520	23.466584	0.000808	8.077490	1.368364	-0.032265
 885	4.4200e-01	2.3315	23.377856	0.000444	4.442620	0.752600	-0.017746
 886	4.4250e-01	2.3122	23.212499	0.000828	8.279427	1.402573	-0.033071
 887	4.4300e-01	2.2917	23.039076	0.000868	8.683302	1.470991	-0.034685
 888	4.4350e-01	2.2714	22.910017	0.000646	6.461992	1.094691	-0.025812
 889	4.4400e-01	2.2525	22.845487	0.000323	3.230996	0.547346	-0.012906
 890	4.4450e-01	2.2308	22.672064	0.000868	8.683302	1.470991	-0.034685
 891	4.4500e-01	2.2121	22.583336	0.000444	4.442620	0.752600	-0.017746
 892	4.4550e-01	2.1922	22.450243	0.000666	6.663929	1.128900	-0.026618
 893	4.4600e-01	2.1730	22.333284	0.000586	5.856180	0.992064	-0.023392
 894	4.4650e-01	2.1519	22.171960	0.000808	8.077490	1.368364	-0.032265
 895	4.4700e-01	2.1323	22.046934	0.000626	6.260055	1.060482	-0.025005
 896	4.4750e-01	2.1120	21.889643	0.000788	7.875553	1.334155	-0.031458
 897	4.4800e-01	2.0917	21.780749	0.000545	5.452306	0.923646	-0.021779
 898	4.4850e-01	2.0710	21.639591	0.000707	7.067804	1.197318	-0.028232
 899	4.4900e-01	2.0511	21.583127	0.000283	2.827122	0.478927	-0.011293
 900	4.4950e-01	2.0316	21.421803	0.000808	8.077490	1.368364	-0.032265
 901	4.5000e-01	2.0117	21.312910	0.000545	5.452306	0.923646	-0.021779
 902	4.5050e-01	1.9916	21.183850	0.000646	6.461992	1.094691	-0.025812
 903	4.5100e-01	1.9705	20.998328	0.000929	9.289114	1.573618	-0.037105
 904	4.5150e-01	1.9516	20.909600	0.000444	4.442620	0.752600	-0.017746
 905	4.5200e-01	1.9324	20.752309	0.000788	7.875553	1.334155	-0.031458
 906	4.5250e-01	1.9122	20.631316	0.000606	6.058118	1.026273	-0.024199
 907	4.5300e-01	1.8914	20.482091	0.000747	7.471678	1.265737	-0.029845
 908	4.5350e-01	1.8716	20.340933	0.000707	7.067804	1.197318	-0.028232
 909	4.5400e-01	1.8518	20.236072	0.000525	5.250369	0.889437	-0.020972
 910	4.5450e-01	1.8317	20.094914	0.000707	7.067804	1.197318	-0.028232
 911	4.5500e-01	1.8115	19.969888	0.000626	6.260055	1.060482	-0.025005
 912	4.5550e-01	1.7920	19.844862	0.000626	6.260055	1.060482	-0.025005
 913	4.5600e-01	1.7711	19.707736	0.000687	6.865867	1.163109	-0.027425
 914	4.5650e-01	1.7513	19.590776	0.000586	5.856180	0.992064	-0.023392
 915	4.5700e-01	1.7318	19.481883	0.000545	5.452306	0.923646	-0.021779
 916	4.5750e-01	1.7110	19.320559	0.000808	8.077490	1.368364	-0.032265
 917	4.5800e-01	1.6925	19.203599	0.000586	5.856180	0.992064	-0.023392
 918	4.5850e-01	1.6710	19.042275	0.000808	8.077490	1.368364	-0.032265
 919	4.5900e-01	1.6523	18.897084	0.000727	7.269741	1.231527	-0.029038
 920	4.5950e-01	1.6315	18.784157	0.000565	5.654243	0.957855	-0.022585
 921	4.6000e-01	1.6116	18.642998	0.000707	7.067804	1.197318	-0.028232
 922	4.6050e-01	1.5921	18.566369	0.000384	3.836808	0.649973	-0.015326
 923	4.6100e-01	1.5725	18.405045	0.000808	8.077490	1.368364	-0.032265
 924	4.6150e-01	1.5512	18.259854	0.000727	7.269741	1.231527	-0.029038
 925	4.6200e-01	1.5320	18.159026	0.000505	5.048431	0.855227	-0.020165
 926	4.6250e-01	1.5121	17.965438	0.000969	9.692988	1.642037	-0.038718
 927	4.6300e-01	1.4926	17.880743	0.000424	4.240682	0.718391	-0.016939
 928	4.6350e-01	1.4710	17.727485	0.000767	7.673616	1.299946	-0.030652
 929	4.6400e-01	1.4516	17.671022	0.000283	2.827122	0.478927	-0.011293
 930	4.6450e-01	1.4319	17.489532	0.000909	9.087177	1.539409	-0.036298
 931	4.6500e-01	1.4114	17.340307	0.000747	7.471678	1.265737	-0.029845
 932	4.6550e-01	1.3917	17.223348	0.000586	5.856180	0.992064	-0.023392
 933	4.6600e-01	1.3708	17.053957	0.000848	8.481365	1.436782	-0.033878
 934	4.6650e-01	1.3507	16.961196	0.000464	4.644557	0.786809	-0.018552
 935	4.6700e-01	1.3314	16.783740	0.000889	8.885239	1.505200	-0.035491
 936	4.6750e-01	1.3112	16.686945	0.000485	4.846494	0.821018	-0.019359
 937	4.6800e-01	1.2916	16.541754	0.000727	7.269741	1.231527	-0.029038
 938	4.6850e-01	1.2702	16.448993	0.000464	4.644557	0.786809	-0.018552
 939	4.6900e-01	1.2519	16.231205	0.001090	10.904612	1.847291	-0.043557
 940	4.6950e-01	1.2322	16.114245	0.000586	5.856180	0.992064	-0.023392
 941	4.7000e-01	1.2120	15.977120	0.000687	6.865867	1.163109	-0.027425
 942	4.7050e-01	1.1915	15.831929	0.000727	7.269741	1.231527	-0.029038
 943	4.7100e-01	1.1722	15.723035	0.000545	5.452306	0.923646	-0.021779
 944	4.7150e-01	1.1521	15.622207	0.000505	5.048431	0.855227	-0.020165
 945	4.7200e-01	1.1315	15.472983	0.000747	7.471678	1.265737	-0.029845
 946	4.7250e-01	1.1121	15.295526	0.000889	8.885239	1.505200	-0.035491
 947	4.7300e-01	1.0918	15.150335	0.000727	7.269741	1.231527	-0.029038
 948	4.7350e-01	1.0722	15.045474	0.000525	5.250369	0.889437	-0.020972
 949	4.7400e-01	1.0525	14.908349	0.000687	6.865867	1.163109	-0.027425
 950	4.7450e-01	1.0309	14.751058	0.000788	7.875553	1.334155	-0.031458
 951	4.7500e-01	1.0117	14.626032	0.000626	6.260055	1.060482	-0.025005
 952	4.7550e-01	0.9930	14.541337	0.000424	4.240682	0.718391	-0.016939
 953	4.7600e-01	0.9702	14.355814	0.000929	9.289114	1.573618	-0.037105
 954	4.7650e-01	0.9512	14.210623	0.000727	7.269741	1.231527	-0.029038
 955	4.7700e-01	0.9326	14.138027	0.000363	3.634871	0.615764	-0.014519
 956	4.7750e-01	0.9117	14.025100	0.000565	5.654243	0.957855	-0.022585
 957	4.7800e-01	0.8923	13.823445	0.001010	10.096863	1.710455	-0.040331
 958	4.7850e-01	0.8720	13.742783	0.000404	4.038745	0.684182	-0.016132
 959	4.7900e-01	0.8521	13.593559	0.000747	7.471678	1.265737	-0.029845
 960	4.7950e-01	0.8321	13.408036	0.000929	9.289114	1.573618	-0.037105
 961	4.8000e-01	0.8118	13.319308	0.000444	4.442620	0.752600	-0.017746
 962	4.8050e-01	0.7925	13.153951	0.000828	8.279427	1.402573	-0.033071
 963	4.8100e-01	0.7719	13.036991	0.000586	5.856180	0.992064	-0.023392
 964	4.8150e-01	0.7518	12.871634	0.000828	8.279427	1.402573	-0.033071
 965	4.8200e-01	0.7314	12.766774	0.000525	5.250369	0.889437	-0.020972
 966	4.8250e-01	0.7115	12.633681	0.000666	6.663929	1.128900	-0.026618
 967	4.8300e-01	0.6911	12.496556	0.000687	6.865867	1.163109	-0.027425
 968	4.8350e-01	0.6718	12.335232	0.000808	8.077490	1.368364	-0.032265
 969	4.8400e-01	0.6522	12.177941	0.000788	7.875553	1.334155	-0.031458
 970	4.8450e-01	0.6312	12.040816	0.000687	6.865867	1.163109	-0.027425
 971	4.8500e-01	0.6112	11.899657	0.000707	7.067804	1.197318	-0.028232
 972	4.8550e-01	0.5919	11.766565	0.000666	6.663929	1.128900	-0.026618
 973	4.8600e-01	0.5712	11.661705	0.000525	5.250369	0.889437	-0.020972
 974	4.8650e-01	0.5513	11.516513	0.000727	7.269741	1.231527	-0.029038
 975	4.8700e-01	0.5313	11.391487	0.000626	6.260055	1.060482	-0.025005
 976	4.8750e-01	0.5111	11.197898	0.000969	9.692988	1.642037	-0.038718
 977	4.8800e-01	0.4927	11.089005	0.000545	5.452306	0.923646	-0.021779
 978	4.8850e-01	0.4700	10.963979	0.000626	6.260055	1.060482	-0.025005
 979	4.8900e-01	0.4507	10.826853	0.000687	6.865867	1.163109	-0.027425
 980	4.8950e-01	0.4322	10.681662	0.000727	7.269741	1.231527	-0.029038
 981	4.9000e-01	0.4118	10.540503	0.000707	7.067804	1.197318	-0.028232
 982	4.9050e-01	0.3918	10.411444	0.000646	6.461992	1.094691	-0.025812
 983	4.9100e-01	0.3713	10.254153	0.000788	7.875553	1.334155	-0.031458
 984	4.9150e-01	0.3516	10.108962	0.000727	7.269741	1.231527	-0.029038
 985	4.9200e-01	0.3315	9.955704	0.000767	7.673616	1.299946	-0.030652
 986	4.9250e-01	0.3117	9.854876	0.000505	5.048431	0.855227	-0.020165
 987	4.9300e-01	0.2921	9.693552	0.000808	8.077490	1.368364	-0.032265
 988	4.9350e-01	0.2710	9.552394	0.000707	7.067804	1.197318	-0.028232
 989	4.9400e-01	0.2513	9.459633	0.000464	4.644557	0.786809	-0.018552
 990	4.9450e-01	0.2312	9.322507	0.000687	6.865867	1.163109	-0.027425
 991	4.9500e-01	0.2121	9.173283	0.000747	7.471678	1.265737	-0.029845
 992	4.9550e-01	0.1913	9.036157	0.000687	6.865867	1.163109	-0.027425
 993	4.9600e-01	0.1714	8.899032	0.000687	6.865867	1.163109	-0.027425
 994	4.9650e-01	0.1517	8.701410	0.000989	9.894926	1.676246	-0.039524
 995	4.9700e-01	0.1311	8.657046	0.000222	2.221310	0.376300	-0.008873
 996	4.9750e-01	0.1115	8.467491	0.000949	9.491051	1.607828	-0.037911
 997	4.9800e-01	0.0922	8.330365	0.000687	6.865867	1.163109	-0.027425
 998	4.9850e-01	0.0716	8.177107	0.000767	7.673616	1.299946	-0.030652
 999	4.9900e-01	0.0513	8.056114	0.000606	6.058118	1.026273	-0.024199
1000	4.9950e-01	0.0312	7.886724	0.000848	8.481365	1.436782	-0.033878
1001	5.0000e-01	0.0124	7.660871	0.001131	11.308486	1.915709	-0.045171
1002	5.0050e-01	-0.0088	7.648771	0.000061	0.605812	0.102627	-0.002420
1003	5.0100e-01	-0.0272	7.479381	0.000848	8.481365	1.436782	-0.033878
1004	5.0150e-01	-0.0478	7.366455	0.000565	5.654243	0.957855	-0.022585
1005	5.0200e-01	-0.0667	7.289826	0.000384	3.836808	0.649973	-0.015326
1006	5.0250e-01	-0.0877	7.055906	0.001171	11.712361	1.984128	-0.046784
1007	5.0300e-01	-0.1074	6.947012	0.000545	5.452306	0.923646	-0.021779
1008	5.0350e-01	-0.1274	6.850218	0.000485	4.846494	0.821018	-0.019359
1009	5.0400e-01	-0.1469	6.660662	0.000949	9.491051	1.607828	-0.037911
1010	5.0450e-01	-0.1669	6.499338	0.000808	8.077490	1.368364	-0.032265
1011	5.0500e-01	-0.1868	6.366246	0.000666	6.663929	1.128900	-0.026618
1012	5.0550e-01	-0.2076	6.269452	0.000485	4.846494	0.821018	-0.019359
1013	5.0600e-01	-0.2274	6.067797	0.001010	10.096863	1.710455	-0.040331
1014	5.0650e-01	-0.2471	5.979069	0.000444	4.442620	0.752600	-0.017746
1015	5.0700e-01	-0.2672	5.833877	0.000727	7.269741	1.231527	-0.029038
1016	5.0750e-01	-0.2871	5.676586	0.000788	7.875553	1.334155	-0.031458
1017	5.0800e-01	-0.3071	5.515262	0.000808	8.077490	1.368364	-0.032265
1018	5.0850e-01	-0.3278	5.386203	0.000646	6.461992	1.094691	-0.025812
1019	5.0900e-01	-0.3476	5.257144	0.000646	6.461992	1.094691	-0.025812
1020	5.0950e-01	-0.3687	5.120019	0.000687	6.865867	1.163109	-0.027425
1021	5.1000e-01	-0.3873	4.990960	0.000646	6.461992	1.094691	-0.025812
1022	5.1050e-01	-0.4080	4.890132	0.000505	5.048431	0.855227	-0.020165
1023	5.1100e-01	-0.4268	4.676378	0.001070	10.702675	1.813082	-0.042751
1024	5.1150e-01	-0.4476	4.551352	0.000626	6.260055	1.060482	-0.025005
1025	5.1200e-01	-0.4675	4.402127	0.000747	7.471678	1.265737	-0.029845
1026	5.1250e-01	-0.4877	4.273068	0.000646	6.461992	1.094691	-0.025812
1027	5.1300e-01	-0.5074	4.196439	0.000384	3.836808	0.649973	-0.015326
1028	5.1350e-01	-0.5276	3.926221	0.001353	13.529796	2.292010	-0.054044
1029	5.1400e-01	-0.5473	3.821361	0.000525	5.250369	0.889437	-0.020972
1030	5.1450e-01	-0.5668	3.716500	0.000525	5.250369	0.889437	-0.020972
1031	5.1500e-01	-0.5875	3.579375	0.000687	6.865867	1.163109	-0.027425
1032	5.1550e-01	-0.6075	3.450316	0.000646	6.461992	1.094691	-0.025812
1033	5.1600e-01	-0.6268	3.293025	0.000788	7.875553	1.334155	-0.031458
1034	5.1650e-01	-0.6464	3.155900	0.000687	6.865867	1.163109	-0.027425
1035	5.1700e-01	-0.6672	3.010708	0.000727	7.269741	1.231527	-0.029038
1036	5.1750e-01	-0.6870	2.861483	0.000747	7.471678	1.265737	-0.029845
1037	5.1800e-01	-0.7076	2.752590	0.000545	5.452306	0.923646	-0.021779
1038	5.1850e-01	-0.7278	2.587233	0.000828	8.279427	1.402573	-0.033071
1039	5.1900e-01	-0.7475	2.474306	0.000565	5.654243	0.957855	-0.022585
1040	5.1950e-01	-0.7668	2.300883	0.000868	8.683302	1.470991	-0.034685
1041	5.2000e-01	-0.7871	2.151658	0.000747	7.471678	1.265737	-0.029845
1042	5.2050e-01	-0.8071	2.042764	0.000545	5.452306	0.923646	-0.021779
1043	5.2100e-01	-0.8274	1.921771	0.000606	6.058118	1.026273	-0.024199
1044	5.2150e-01	-0.8472	1.748348	0.000868	8.683302	1.470991	-0.034685
1045	5.2200e-01	-0.8675	1.550726	0.000989	9.894926	1.676246	-0.039524
1046	5.2250e-01	-0.8869	1.466031	0.000424	4.240682	0.718391	-0.016939
1047	5.2300e-01	-0.9074	1.328906	0.000687	6.865867	1.163109	-0.027425
1048	5.2350e-01	-0.9272	1.159516	0.000848	8.481365	1.436782	-0.033878
1049	5.2400e-01	-0.9462	1.042556	0.000586	5.856180	0.992064	-0.023392
1050	5.2450e-01	-0.9678	0.881232	0.000808	8.077490	1.368364	-0.032265
1051	5.2500e-01	-0.9876	0.711842	0.000848	8.481365	1.436782	-0.033878
1052	5.2550e-01	-1.0072	0.578750	0.000666	6.663929	1.128900	-0.026618
1053	5.2600e-01	-1.0270	0.433558	0.000727	7.269741	1.231527	-0.029038
1054	5.2650e-01	-1.0487	0.296433	0.000687	6.865867	1.163109	-0.027425
1055	5.2700e-01	-1.0670	0.167374	0.000646	6.461992	1.094691	-0.025812
1056	5.2750e-01	-1.0874	-0.002017	0.000848	8.481365	1.436782	-0.033878
1057	5.2800e-01	-1.1079	-0.102844	0.000505	5.048431	0.855227	-0.020165
1058	5.2850e-01	-1.1269	-0.239969	0.000687	6.865867	1.163109	-0.027425
1059	5.2900e-01	-1.1483	-0.385161	0.000727	7.269741	1.231527	-0.029038
1060	5.2950e-01	-1.1671	-0.554551	0.000848	8.481365	1.436782	-0.033878
1061	5.3000e-01	-1.1874	-0.655379	0.000505	5.048431	0.855227	-0.020165
1062	5.3050e-01	-1.2071	-0.857033	0.001010	10.096863	1.710455	-0.040331
1063	5.3100e-01	-1.2276	-0.982060	0.000626	6.260055	1.060482	-0.025005
1064	5.3150e-01	-1.2483	-1.010291	0.000141	1.413561	0.239464	-0.005646
1065	5.3200e-01	-1.2675	-1.260343	0.001252	12.520110	2.120964	-0.050010
1066	5.3250e-01	-1.2867	-1.353105	0.000464	4.644557	0.786809	-0.018552
1067	5.3300e-01	-1.3068	-1.546693	0.000969	9.692988	1.642037	-0.038718
1068	5.3350e-01	-1.3262	-1.635421	0.000444	4.442620	0.752600	-0.017746
1069	5.3400e-01	-1.3465	-1.800779	0.000828	8.279427	1.402573	-0.033071
1070	5.3450e-01	-1.3676	-1.962102	0.000808	8.077490	1.368364	-0.032265
1071	5.3500e-01	-1.3871	-2.123426	0.000808	8.077490	1.368364	-0.032265
1072	5.3550e-01	-1.4068	-2.216188	0.000464	4.644557	0.786809	-0.018552
1073	5.3600e-01	-1.4272	-2.385578	0.000848	8.481365	1.436782	-0.033878
1074	5.3650e-01	-1.4487	-2.542869	0.000788	7.875553	1.334155	-0.031458
1075	5.3700e-01	-1.4687	-2.635630	0.000464	4.644557	0.786809	-0.018552
1076	5.3750e-01	-1.4870	-2.772755	0.000687	6.865867	1.163109	-0.027425
1077	5.3800e-01	-1.5064	-2.970377	0.000989	9.894926	1.676246	-0.039524
1078	5.3850e-01	-1.5279	-3.071205	0.000505	5.048431	0.855227	-0.020165
1079	5.3900e-01	-1.5479	-3.204297	0.000666	6.663929	1.128900	-0.026618
1080	5.3950e-01	-1.5698	-3.381753	0.000889	8.885239	1.505200	-0.035491
1081	5.4000e-01	-1.5870	-3.514845	0.000666	6.663929	1.128900	-0.026618
1082	5.4050e-01	-1.6074	-3.684236	0.000848	8.481365	1.436782	-0.033878
1083	5.4100e-01	-1.6274	-3.752798	0.000343	3.432933	0.581555	-0.013713
1084	5.4150e-01	-1.6477	-3.950420	0.000989	9.894926	1.676246	-0.039524
1085	5.4200e-01	-1.6671	-4.067380	0.000586	5.856180	0.992064	-0.023392
1086	5.4250e-01	-1.6883	-4.236770	0.000848	8.481365	1.436782	-0.033878
1087	5.4300e-01	-1.7078	-4.361796	0.000626	6.260055	1.060482	-0.025005
1088	5.4350e-01	-1.7271	-4.462624	0.000505	5.048431	0.855227	-0.020165
1089	5.4400e-01	-1.7469	-4.619914	0.000788	7.875553	1.334155	-0.031458
1090	5.4450e-01	-1.7678	-4.781238	0.000808	8.077490	1.368364	-0.032265
1091	5.4500e-01	-1.7876	-4.914331	0.000666	6.663929	1.128900	-0.026618
1092	5.4550e-01	-1.8073	-5.043390	0.000646	6.461992	1.094691	-0.025812
1093	5.4600e-01	-1.8275	-5.232945	0.000949	9.491051	1.607828	-0.037911
1094	5.4650e-01	-1.8471	-5.313607	0.000404	4.038745	0.684182	-0.016132
1095	5.4700e-01	-1.8674	-5.491064	0.000889	8.885239	1.505200	-0.035491
1096	5.4750e-01	-1.8879	-5.652388	0.000808	8.077490	1.368364	-0.032265
1097	5.4800e-01	-1.9077	-5.781447	0.000646	6.461992	1.094691	-0.025812
1098	5.4850e-01	-1.9270	-5.902440	0.000606	6.058118	1.026273	-0.024199
1099	5.4900e-01	-1.9475	-6.067797	0.000828	8.279427	1.402573	-0.033071
1100	5.4950e-01	-1.9674	-6.192823	0.000626	6.260055	1.060482	-0.025005
1101	5.5000e-01	-1.9874	-6.329948	0.000687	6.865867	1.163109	-0.027425
1102	5.5050e-01	-2.0075	-6.487239	0.000788	7.875553	1.334155	-0.031458
1103	5.5100e-01	-2.0271	-6.604199	0.000586	5.856180	0.992064	-0.023392
1104	5.5150e-01	-2.0475	-6.757457	0.000767	7.673616	1.299946	-0.030652
1105	5.5200e-01	-2.0673	-6.882483	0.000626	6.260055	1.060482	-0.025005
1106	5.5250e-01	-2.0878	-7.072038	0.000949	9.491051	1.607828	-0.037911
1107	5.5300e-01	-2.1072	-7.176899	0.000525	5.250369	0.889437	-0.020972
1108	5.5350e-01	-2.1272	-7.358388	0.000909	9.087177	1.539409	-0.036298
1109	5.5400e-01	-2.1467	-7.483414	0.000626	6.260055	1.060482	-0.025005
1110	5.5450e-01	-2.1672	-7.588275	0.000525	5.250369	0.889437	-0.020972
1111	5.5500e-01	-2.1880	-7.761698	0.000868	8.683302	1.470991	-0.034685
1112	5.5550e-01	-2.2080	-7.886724	0.000626	6.260055	1.060482	-0.025005
1113	5.5600e-01	-2.2279	-7.979486	0.000464	4.644557	0.786809	-0.018552
1114	5.5650e-01	-2.2475	-8.140810	0.000808	8.077490	1.368364	-0.032265
1115	5.5700e-01	-2.2670	-8.294067	0.000767	7.673616	1.299946	-0.030652
1116	5.5750e-01	-2.2875	-8.447325	0.000767	7.673616	1.299946	-0.030652
1117	5.5800e-01	-2.3080	-8.584450	0.000687	6.865867	1.163109	-0.027425
1118	5.5850e-01	-2.3277	-8.717543	0.000666	6.663929	1.128900	-0.026618
1119	5.5900e-01	-2.3472	-8.874833	0.000788	7.875553	1.334155	-0.031458
1120	5.5950e-01	-2.3677	-9.015992	0.000707	7.067804	1.197318	-0.028232
1121	5.6000e-01	-2.3875	-9.165217	0.000747	7.471678	1.265737	-0.029845
1122	5.6050e-01	-2.4085	-9.286210	0.000606	6.058118	1.026273	-0.024199
1123	5.6100e-01	-2.4269	-9.467699	0.000909	9.087177	1.539409	-0.036298
1124	5.6150e-01	-2.4484	-9.572560	0.000525	5.250369	0.889437	-0.020972
1125	5.6200e-01	-2.4676	-9.701619	0.000646	6.461992	1.094691	-0.025812
1126	5.6250e-01	-2.4886	-9.858910	0.000788	7.875553	1.334155	-0.031458
1127	5.6300e-01	-2.5072	-10.044432	0.000929	9.289114	1.573618	-0.037105
1128	5.6350e-01	-2.5294	-10.108962	0.000323	3.230996	0.547346	-0.012906
1129	5.6400e-01	-2.5471	-10.270286	0.000808	8.077490	1.368364	-0.032265
1130	5.6450e-01	-2.5672	-10.455808	0.000929	9.289114	1.573618	-0.037105
1131	5.6500e-01	-2.5874	-10.532437	0.000384	3.836808	0.649973	-0.015326
1132	5.6550e-01	-2.6073	-10.713926	0.000909	9.087177	1.539409	-0.036298
1133	5.6600e-01	-2.6276	-10.830886	0.000586	5.856180	0.992064	-0.023392
1134	5.6650e-01	-2.6472	-10.903482	0.000363	3.634871	0.615764	-0.014519
1135	5.6700e-01	-2.6673	-11.097071	0.000969	9.692988	1.642037	-0.038718
1136	5.6750e-01	-2.6875	-11.242262	0.000727	7.269741	1.231527	-0.029038
1137	5.6800e-01	-2.7070	-11.351156	0.000545	5.452306	0.923646	-0.021779
1138	5.6850e-01	-2.7277	-11.536679	0.000929	9.289114	1.573618	-0.037105
1139	5.6900e-01	-2.7482	-11.649605	0.000565	5.654243	0.957855	-0.022585
1140	5.6950e-01	-2.7689	-11.863360	0.001070	10.702675	1.813082	-0.042751
1141	5.7000e-01	-2.7876	-11.996452	0.000666	6.663929	1.128900	-0.026618
1142	5.7050e-01	-2.8083	-12.085180	0.000444	4.442620	0.752600	-0.017746
1143	5.7100e-01	-2.8279	-12.218272	0.000666	6.663929	1.128900	-0.026618
1144	5.7150e-01	-2.8480	-12.359431	0.000707	7.067804	1.197318	-0.028232
1145	5.7200e-01	-2.8678	-12.512688	0.000767	7.673616	1.299946	-0.030652
1146	5.7250e-01	-2.8869	-12.641748	0.000646	6.461992	1.094691	-0.025812
1147	5.7300e-01	-2.9076	-12.758707	0.000586	5.856180	0.992064	-0.023392
1148	5.7350e-01	-2.9273	-12.924064	0.000828	8.279427	1.402573	-0.033071
1149	5.7400e-01	-2.9478	-13.073289	0.000747	7.471678	1.265737	-0.029845
1150	5.7450e-01	-2.9667	-13.226547	0.000767	7.673616	1.299946	-0.030652
1151	5.7500e-01	-2.9870	-13.367705	0.000707	7.067804	1.197318	-0.028232
1152	5.7550e-01	-3.0067	-13.464500	0.000485	4.846494	0.821018	-0.019359
1153	5.7600e-01	-3.0276	-13.593559	0.000646	6.461992	1.094691	-0.025812
1154	5.7650e-01	-3.0476	-13.771015	0.000889	8.885239	1.505200	-0.035491
1155	5.7700e-01	-3.0671	-13.920240	0.000747	7.471678	1.265737	-0.029845
1156	5.7750e-01	-3.0872	-14.041233	0.000606	6.058118	1.026273	-0.024199
1157	5.7800e-01	-3.1075	-14.186424	0.000727	7.269741	1.231527	-0.029038
1158	5.7850e-01	-3.1269	-14.295318	0.000545	5.452306	0.923646	-0.021779
1159	5.7900e-01	-3.1477	-14.464708	0.000848	8.481365	1.436782	-0.033878
1160	5.7950e-01	-3.1671	-14.585701	0.000606	6.058118	1.026273	-0.024199
1161	5.8000e-01	-3.1873	-14.718793	0.000666	6.663929	1.128900	-0.026618
1162	5.8050e-01	-3.2078	-14.859952	0.000707	7.067804	1.197318	-0.028232
1163	5.8100e-01	-3.2276	-14.993044	0.000666	6.663929	1.128900	-0.026618
1164	5.8150e-01	-3.2471	-15.162434	0.000848	8.481365	1.436782	-0.033878
1165	5.8200e-01	-3.2676	-15.291493	0.000646	6.461992	1.094691	-0.025812
1166	5.8250e-01	-3.2880	-15.448784	0.000788	7.875553	1.334155	-0.031458
1167	5.8300e-01	-3.3079	-15.537512	0.000444	4.442620	0.752600	-0.017746
1168	5.8350e-01	-3.3271	-15.706903	0.000848	8.481365	1.436782	-0.033878
1169	5.8400e-01	-3.3466	-15.844028	0.000687	6.865867	1.163109	-0.027425
1170	5.8450e-01	-3.3674	-15.973087	0.000646	6.461992	1.094691	-0.025812
1171	5.8500e-01	-3.3878	-16.077948	0.000525	5.250369	0.889437	-0.020972
1172	5.8550e-01	-3.4080	-16.219106	0.000707	7.067804	1.197318	-0.028232
1173	5.8600e-01	-3.4274	-16.344132	0.000626	6.260055	1.060482	-0.025005
1174	5.8650e-01	-3.4483	-16.513522	0.000848	8.481365	1.436782	-0.033878
1175	5.8700e-01	-3.4681	-16.634515	0.000606	6.058118	1.026273	-0.024199
1176	5.8750e-01	-3.4876	-16.820038	0.000929	9.289114	1.573618	-0.037105
1177	5.8800e-01	-3.5067	-16.953130	0.000666	6.663929	1.128900	-0.026618
1178	5.8850e-01	-3.5285	-17.106388	0.000767	7.673616	1.299946	-0.030652
1179	5.8900e-01	-3.5482	-17.219314	0.000565	5.654243	0.957855	-0.022585
1180	5.8950e-01	-3.5679	-17.291910	0.000363	3.634871	0.615764	-0.014519
1181	5.9000e-01	-3.5874	-17.441135	0.000747	7.471678	1.265737	-0.029845
1182	5.9050e-01	-3.6076	-17.618591	0.000889	8.885239	1.505200	-0.035491
1183	5.9100e-01	-3.6271	-17.719419	0.000505	5.048431	0.855227	-0.020165
1184	5.9150e-01	-3.6478	-17.856544	0.000687	6.865867	1.163109	-0.027425
1185	5.9200e-01	-3.6677	-18.021901	0.000828	8.279427	1.402573	-0.033071
1186	5.9250e-01	-3.6875	-18.118695	0.000485	4.846494	0.821018	-0.019359
1187	5.9300e-01	-3.7083	-18.259854	0.000707	7.067804	1.197318	-0.028232
1188	5.9350e-01	-3.7283	-18.413112	0.000767	7.673616	1.299946	-0.030652
1189	5.9400e-01	-3.7481	-18.554270	0.000707	7.067804	1.197318	-0.028232
1190	5.9450e-01	-3.7678	-18.651064	0.000485	4.846494	0.821018	-0.019359
1191	5.9500e-01	-3.7885	-18.784157	0.000666	6.663929	1.128900	-0.026618
1192	5.9550e-01	-3.8081	-18.933381	0.000747	7.471678	1.265737	-0.029845
1193	5.9600e-01	-3.8268	-19.070507	0.000687	6.865867	1.163109	-0.027425
1194	5.9650e-01	-3.8474	-19.256029	0.000929	9.289114	1.573618	-0.037105
1195	5.9700e-01	-3.8667	-19.336691	0.000404	4.038745	0.684182	-0.016132
1196	5.9750e-01	-3.8874	-19.493982	0.000788	7.875553	1.334155	-0.031458
1197	5.9800e-01	-3.9077	-19.631107	0.000687	6.865867	1.163109	-0.027425
1198	5.9850e-01	-3.9277	-19.748067	0.000586	5.856180	0.992064	-0.023392
1199	5.9900e-01	-3.9475	-19.869060	0.000606	6.058118	1.026273	-0.024199
1200	5.9950e-01	-3.9681	-20.034417	0.000828	8.279427	1.402573	-0.033071
1201	6.0000e-01	-3.9881	-20.183642	0.000747	7.471678	1.265737	-0.029845
1202	6.0050e-01	-4.0083	-20.296569	0.000565	5.654243	0.957855	-0.022585
1203	6.0100e-01	-4.0272	-20.425628	0.000646	6.461992	1.094691	-0.025812
1204	6.0150e-01	-4.0467	-20.570819	0.000727	7.269741	1.231527	-0.029038
1205	6.0200e-01	-4.0675	-20.691812	0.000606	6.058118	1.026273	-0.024199
1206	6.0250e-01	-4.0882	-20.845070	0.000767	7.673616	1.299946	-0.030652
1207	6.0300e-01	-4.1071	-20.966063	0.000606	6.058118	1.026273	-0.024199
1208	6.0350e-01	-4.1276	-21.151586	0.000929	9.289114	1.573618	-0.037105
1209	6.0400e-01	-4.1482	-21.308876	0.000788	7.875553	1.334155	-0.031458
1210	6.0450e-01	-4.1680	-21.373406	0.000323	3.230996	0.547346	-0.012906
1211	6.0500e-01	-4.1871	-21.506498	0.000666	6.663929	1.128900	-0.026618
1212	6.0550e-01	-4.2075	-21.619425	0.000565	5.654243	0.957855	-0.022585
1213	6.0600e-01	-4.2274	-21.804948	0.000929	9.289114	1.573618	-0.037105
1214	6.0650e-01	-4.2478	-21.885610	0.000404	4.038745	0.684182	-0.016132
1215	6.0700e-01	-4.2677	-22.014669	0.000646	6.461992	1.094691	-0.025812
1216	6.0750e-01	-4.2878	-22.204224	0.000949	9.491051	1.607828	-0.037911
1217	6.0800e-01	-4.3069	-22.305052	0.000505	5.048431	0.855227	-0.020165
1218	6.0850e-01	-4.3272	-22.494607	0.000949	9.491051	1.607828	-0.037911
1219	6.0900e-01	-4.3476	-22.583336	0.000444	4.442620	0.752600	-0.017746
1220	6.0950e-01	-4.3674	-22.732560	0.000747	7.471678	1.265737	-0.029845
1221	6.1000e-01	-4.3879	-22.845487	0.000565	5.654243	0.957855	-0.022585
1222	6.1050e-01	-4.4083	-23.010844	0.000828	8.279427	1.402573	-0.033071
1223	6.1100e-01	-4.4282	-23.160069	0.000747	7.471678	1.265737	-0.029845
1224	6.1150e-01	-4.4489	-23.260896	0.000505	5.048431	0.855227	-0.020165
1225	6.1200e-01	-4.4674	-23.430286	0.000848	8.481365	1.436782	-0.033878
1226	6.1250e-01	-4.4880	-23.543213	0.000565	5.654243	0.957855	-0.022585
1227	6.1300e-01	-4.5081	-23.664206	0.000606	6.058118	1.026273	-0.024199
1228	6.1350e-01	-4.5283	-23.797298	0.000666	6.663929	1.128900	-0.026618
1229	6.1400e-01	-4.5481	-23.918291	0.000606	6.058118	1.026273	-0.024199
1230	6.1450e-01	-4.5676	-24.059450	0.000707	7.067804	1.197318	-0.028232
1231	6.1500e-01	-4.5881	-24.188509	0.000646	6.461992	1.094691	-0.025812
1232	6.1550e-01	-4.6082	-24.309502	0.000606	6.058118	1.026273	-0.024199
1233	6.1600e-01	-4.6268	-24.507124	0.000989	9.894926	1.676246	-0.039524
1234	6.1650e-01	-4.6479	-24.624084	0.000586	5.856180	0.992064	-0.023392
1235	6.1700e-01	-4.6680	-24.761209	0.000687	6.865867	1.163109	-0.027425
1236	6.1750e-01	-4.6873	-24.914467	0.000767	7.673616	1.299946	-0.030652
1237	6.1800e-01	-4.7071	-25.023360	0.000545	5.452306	0.923646	-0.021779
1238	6.1850e-01	-4.7288	-25.168552	0.000727	7.269741	1.231527	-0.029038
1239	6.1900e-01	-4.7471	-25.297611	0.000646	6.461992	1.094691	-0.025812
1240	6.1950e-01	-4.7688	-25.410538	0.000565	5.654243	0.957855	-0.022585
1241	6.2000e-01	-4.7877	-25.579928	0.000848	8.481365	1.436782	-0.033878
1242	6.2050e-01	-4.8078	-25.717053	0.000687	6.865867	1.163109	-0.027425
1243	6.2100e-01	-4.8281	-25.858212	0.000707	7.067804	1.197318	-0.028232
1244	6.2150e-01	-4.8472	-25.959039	0.000505	5.048431	0.855227	-0.020165
1245	6.2200e-01	-4.8677	-26.124396	0.000828	8.279427	1.402573	-0.033071
1246	6.2250e-01	-4.8878	-26.249422	0.000626	6.260055	1.060482	-0.025005
1247	6.2300e-01	-4.9081	-26.390581	0.000707	7.067804	1.197318	-0.028232
1248	6.2350e-01	-4.9275	-26.535772	0.000727	7.269741	1.231527	-0.029038
1249	6.2400e-01	-4.9476	-26.684997	0.000747	7.471678	1.265737	-0.029845
1250	6.2450e-01	-4.9683	-26.801957	0.000586	5.856180	0.992064	-0.023392
1251	6.2500e-01	-4.9885	-26.935049	0.000666	6.663929	1.128900	-0.026618
1252	6.2550e-01	-5.0074	-27.035876	0.000505	5.048431	0.855227	-0.020165
1253	6.2600e-01	-5.0278	-27.249631	0.001070	10.702675	1.813082	-0.042751
1254	6.2650e-01	-5.0478	-27.354491	0.000525	5.250369	0.889437	-0.020972
1255	6.2700e-01	-5.0666	-27.459352	0.000525	5.250369	0.889437	-0.020972
1256	6.2750e-01	-5.0880	-27.620676	0.000808	8.077490	1.368364	-0.032265
1257	6.2800e-01	-5.1081	-27.777967	0.000788	7.875553	1.334155	-0.031458
1258	6.2850e-01	-5.1276	-27.927191	0.000747	7.471678	1.265737	-0.029845
1259	6.2900e-01	-5.1479	-27.999787	0.000363	3.634871	0.615764	-0.014519
1260	6.2950e-01	-5.1679	-28.193376	0.000969	9.692988	1.642037	-0.038718
1261	6.3000e-01	-5.1881	-28.314369	0.000606	6.058118	1.026273	-0.024199
1262	6.3050e-01	-5.2088	-28.439395	0.000626	6.260055	1.060482	-0.025005
1263	6.3100e-01	-5.2277	-28.556355	0.000586	5.856180	0.992064	-0.023392
1264	6.3150e-01	-5.2485	-28.709612	0.000767	7.673616	1.299946	-0.030652
1265	6.3200e-01	-5.2680	-28.834638	0.000626	6.260055	1.060482	-0.025005
1266	6.3250e-01	-5.2876	-28.971764	0.000687	6.865867	1.163109	-0.027425
1267	6.3300e-01	-5.3083	-29.141154	0.000848	8.481365	1.436782	-0.033878
1268	6.3350e-01	-5.3284	-29.254081	0.000565	5.654243	0.957855	-0.022585
1269	6.3400e-01	-5.3480	-29.399272	0.000727	7.269741	1.231527	-0.029038
1270	6.3450e-01	-5.3681	-29.548497	0.000747	7.471678	1.265737	-0.029845
1271	6.3500e-01	-5.3870	-29.621093	0.000363	3.634871	0.615764	-0.014519
1272	6.3550e-01	-5.4075	-29.826781	0.001030	10.298800	1.744664	-0.041138
1273	6.3600e-01	-5.4275	-29.955840	0.000646	6.461992	1.094691	-0.025812
1274	6.3650e-01	-5.4478	-30.145396	0.000949	9.491051	1.607828	-0.037911
1275	6.3700e-01	-5.4682	-30.234124	0.000444	4.442620	0.752600	-0.017746
1276	6.3750e-01	-5.4874	-30.355117	0.000606	6.058118	1.026273	-0.024199
1277	6.3800e-01	-5.5073	-30.532573	0.000889	8.885239	1.505200	-0.035491
1278	6.3850e-01	-5.5281	-30.621301	0.000444	4.442620	0.752600	-0.017746
1279	6.3900e-01	-5.5476	-30.778592	0.000788	7.875553	1.334155	-0.031458
1280	6.3950e-01	-5.5685	-30.883453	0.000525	5.250369	0.889437	-0.020972
1281	6.4000e-01	-5.5878	-31.073008	0.000949	9.491051	1.607828	-0.037911
1282	6.4050e-01	-5.6083	-31.165769	0.000464	4.644557	0.786809	-0.018552
1283	6.4100e-01	-5.6281	-31.363391	0.000989	9.894926	1.676246	-0.039524
1284	6.4150e-01	-5.6489	-31.492450	0.000646	6.461992	1.094691	-0.025812
1285	6.4200e-01	-5.6690	-31.540848	0.000242	2.423247	0.410509	-0.009679
1286	6.4250e-01	-5.6873	-31.702172	0.000808	8.077490	1.368364	-0.032265
1287	6.4300e-01	-5.7081	-31.859462	0.000788	7.875553	1.334155	-0.031458
1288	6.4350e-01	-5.7282	-32.004654	0.000727	7.269741	1.231527	-0.029038
1289	6.4400e-01	-5.7478	-32.133713	0.000646	6.461992	1.094691	-0.025812
1290	6.4450e-01	-5.7676	-32.242607	0.000545	5.452306	0.923646	-0.021779
1291	6.4500e-01	-5.7888	-32.440229	0.000989	9.894926	1.676246	-0.039524
1292	6.4550e-01	-5.8082	-32.528957	0.000444	4.442620	0.752600	-0.017746
1293	6.4600e-01	-5.8286	-32.718512	0.000949	9.491051	1.607828	-0.037911
1294	6.4650e-01	-5.8491	-32.851605	0.000666	6.663929	1.128900	-0.026618
1295	6.4700e-01	-5.8689	-32.984697	0.000666	6.663929	1.128900	-0.026618
1296	6.4750e-01	-5.8872	-33.125855	0.000707	7.067804	1.197318	-0.028232
1297	6.4800e-01	-5.9078	-33.254915	0.000646	6.461992	1.094691	-0.025812
1298	6.4850e-01	-5.9287	-33.388007	0.000666	6.663929	1.128900	-0.026618
1299	6.4900e-01	-5.9486	-33.533198	0.000727	7.269741	1.231527	-0.029038
1300	6.4950e-01	-5.9690	-33.646125	0.000565	5.654243	0.957855	-0.022585
1301	6.5000e-01	-5.9890	-33.807449	0.000808	8.077490	1.368364	-0.032265
1302	6.5050e-01	-6.0079	-33.888111	0.000404	4.038745	0.684182	-0.016132
1303	6.5100e-01	-6.0285	-34.037336	0.000747	7.471678	1.265737	-0.029845
1304	6.5150e-01	-6.0488	-34.210759	0.000868	8.683302	1.470991	-0.034685
1305	6.5200e-01	-6.0682	-34.347884	0.000687	6.865867	1.163109	-0.027425
1306	6.5250e-01	-6.0883	-34.497109	0.000747	7.471678	1.265737	-0.029845
1307	6.5300e-01	-6.1085	-34.610036	0.000565	5.654243	0.957855	-0.022585
1308	6.5350e-01	-6.1292	-34.735062	0.000626	6.260055	1.060482	-0.025005
1309	6.5400e-01	-6.1491	-34.884286	0.000747	7.471678	1.265737	-0.029845
1310	6.5450e-01	-6.1683	-35.025445	0.000707	7.067804	1.197318	-0.028232
1311	6.5500e-01	-6.1884	-35.210967	0.000929	9.289114	1.573618	-0.037105
1312	6.5550e-01	-6.2086	-35.356159	0.000727	7.269741	1.231527	-0.029038
1313	6.5600e-01	-6.2287	-35.444887	0.000444	4.442620	0.752600	-0.017746
1314	6.5650e-01	-6.2495	-35.573946	0.000646	6.461992	1.094691	-0.025812
1315	6.5700e-01	-6.2684	-35.690906	0.000586	5.856180	0.992064	-0.023392
1316	6.5750e-01	-6.2897	-35.852230	0.000808	8.077490	1.368364	-0.032265
1317	6.5800e-01	-6.3087	-36.005488	0.000767	7.673616	1.299946	-0.030652
1318	6.5850e-01	-6.3288	-36.162779	0.000788	7.875553	1.334155	-0.031458
1319	6.5900e-01	-6.3490	-36.279738	0.000586	5.856180	0.992064	-0.023392
1320	6.5950e-01	-6.3679	-36.404765	0.000626	6.260055	1.060482	-0.025005
1321	6.6000e-01	-6.3886	-36.537857	0.000666	6.663929	1.128900	-0.026618
1322	6.6050e-01	-6.4082	-36.699181	0.000808	8.077490	1.368364	-0.032265
1323	6.6100e-01	-6.4283	-36.808074	0.000545	5.452306	0.923646	-0.021779
1324	6.6150e-01	-6.4478	-36.941167	0.000666	6.663929	1.128900	-0.026618
1325	6.6200e-01	-6.4689	-37.090391	0.000747	7.471678	1.265737	-0.029845
1326	6.6250e-01	-6.4887	-37.223484	0.000666	6.663929	1.128900	-0.026618
1327	6.6300e-01	-6.5079	-37.400940	0.000889	8.885239	1.505200	-0.035491
1328	6.6350e-01	-6.5290	-37.481602	0.000404	4.038745	0.684182	-0.016132
1329	6.6400e-01	-6.5485	-37.626793	0.000727	7.269741	1.231527	-0.029038
1330	6.6450e-01	-6.5693	-37.780051	0.000767	7.673616	1.299946	-0.030652
1331	6.6500e-01	-6.5891	-37.937342	0.000788	7.875553	1.334155	-0.031458
1332	6.6550e-01	-6.6084	-38.046236	0.000545	5.452306	0.923646	-0.021779
1333	6.6600e-01	-6.6291	-38.199493	0.000767	7.673616	1.299946	-0.030652
1334	6.6650e-01	-6.6486	-38.300321	0.000505	5.048431	0.855227	-0.020165
1335	6.6700e-01	-6.6694	-38.453579	0.000767	7.673616	1.299946	-0.030652
1336	6.6750e-01	-6.6886	-38.586671	0.000666	6.663929	1.128900	-0.026618
1337	6.6800e-01	-6.7088	-38.707664	0.000606	6.058118	1.026273	-0.024199
1338	6.6850e-01	-6.7286	-38.889153	0.000909	9.087177	1.539409	-0.036298
1339	6.6900e-01	-6.7481	-39.018212	0.000646	6.461992	1.094691	-0.025812
1340	6.6950e-01	-6.7692	-39.127106	0.000545	5.452306	0.923646	-0.021779
1341	6.7000e-01	-6.7893	-39.280364	0.000767	7.673616	1.299946	-0.030652
1342	6.7050e-01	-6.8085	-39.413456	0.000666	6.663929	1.128900	-0.026618
1343	6.7100e-01	-6.8293	-39.550581	0.000687	6.865867	1.163109	-0.027425
1344	6.7150e-01	-6.8485	-39.667541	0.000586	5.856180	0.992064	-0.023392
1345	6.7200e-01	-6.8696	-39.776435	0.000545	5.452306	0.923646	-0.021779
1346	6.7250e-01	-6.8888	-39.949858	0.000868	8.683302	1.470991	-0.034685
1347	6.7300e-01	-6.9080	-40.131348	0.000909	9.087177	1.539409	-0.036298
1348	6.7350e-01	-6.9291	-40.199910	0.000343	3.432933	0.581555	-0.013713
1349	6.7400e-01	-6.9489	-40.389466	0.000949	9.491051	1.607828	-0.037911
1350	6.7450e-01	-6.9691	-40.490293	0.000505	5.048431	0.855227	-0.020165
1351	6.7500e-01	-6.9889	-40.558856	0.000343	3.432933	0.581555	-0.013713
1352	6.7550e-01	-7.0094	-40.768577	0.001050	10.500737	1.778873	-0.041944
1353	6.7600e-01	-7.0286	-40.937967	0.000848	8.481365	1.436782	-0.033878
1354	6.7650e-01	-7.0490	-41.050894	0.000565	5.654243	0.957855	-0.022585
1355	6.7700e-01	-7.0686	-41.159788	0.000545	5.452306	0.923646	-0.021779
1356	6.7750e-01	-7.0887	-41.325145	0.000828	8.279427	1.402573	-0.033071
1357	6.7800e-01	-7.1085	-41.470336	0.000727	7.269741	1.231527	-0.029038
1358	6.7850e-01	-7.1284	-41.563098	0.000464	4.644557	0.786809	-0.018552
1359	6.7900e-01	-7.1494	-41.688124	0.000626	6.260055	1.060482	-0.025005
1360	6.7950e-01	-7.1687	-41.833315	0.000727	7.269741	1.231527	-0.029038
1361	6.8000e-01	-7.1888	-41.990606	0.000788	7.875553	1.334155	-0.031458
1362	6.8050e-01	-7.2089	-42.196294	0.001030	10.298800	1.744664	-0.041138
1363	6.8100e-01	-7.2285	-42.252758	0.000283	2.827122	0.478927	-0.011293
1364	6.8150e-01	-7.2498	-42.470545	0.001090	10.904612	1.847291	-0.043557
1365	6.8200e-01	-7.2688	-42.559273	0.000444	4.442620	0.752600	-0.017746
1366	6.8250e-01	-7.2889	-42.652034	0.000464	4.644557	0.786809	-0.018552
1367	6.8300e-01	-7.3084	-42.869822	0.001090	10.904612	1.847291	-0.043557
1368	6.8350e-01	-7.3286	-42.950484	0.000404	4.038745	0.684182	-0.016132
1369	6.8400e-01	-7.3493	-43.136006	0.000929	9.289114	1.573618	-0.037105
1370	6.8450e-01	-7.3689	-43.216668	0.000404	4.038745	0.684182	-0.016132
1371	6.8500e-01	-7.3881	-43.365893	0.000747	7.471678	1.265737	-0.029845
1372	6.8550e-01	-7.4093	-43.515117	0.000747	7.471678	1.265737	-0.029845
1373	6.8600e-01	-7.4262	-43.615945	0.000505	5.048431	0.855227	-0.020165
1374	6.8650e-01	-7.4488	-43.724838	0.000545	5.452306	0.923646	-0.021779
1375	6.8700e-01	-7.4689	-43.890196	0.000828	8.279427	1.402573	-0.033071
1376	6.8750e-01	-7.4897	-44.059586	0.000848	8.481365	1.436782	-0.033878
1377	6.8800e-01	-7.5092	-44.192678	0.000666	6.663929	1.128900	-0.026618
1378	6.8850e-01	-7.5288	-44.309638	0.000586	5.856180	0.992064	-0.023392
1379	6.8900e-01	-7.5495	-44.438697	0.000646	6.461992	1.094691	-0.025812
1380	6.8950e-01	-7.5690	-44.527425	0.000444	4.442620	0.752600	-0.017746
1381	6.9000e-01	-7.5892	-44.741179	0.001070	10.702675	1.813082	-0.042751
1382	6.9050e-01	-7.6087	-44.850073	0.000545	5.452306	0.923646	-0.021779
1383	6.9100e-01	-7.6283	-45.015430	0.000828	8.279427	1.402573	-0.033071
1384	6.9150e-01	-7.6490	-45.120291	0.000525	5.250369	0.889437	-0.020972
1385	6.9200e-01	-7.6685	-45.301780	0.000909	9.087177	1.539409	-0.036298
1386	6.9250e-01	-7.6884	-45.386475	0.000424	4.240682	0.718391	-0.016939
1387	6.9300e-01	-7.7082	-45.559898	0.000868	8.683302	1.470991	-0.034685
1388	6.9350e-01	-7.7283	-45.664759	0.000525	5.250369	0.889437	-0.020972
1389	6.9400e-01	-7.7491	-45.777686	0.000565	5.654243	0.957855	-0.022585
1390	6.9450e-01	-7.7677	-45.967241	0.000949	9.491051	1.607828	-0.037911
1391	6.9500e-01	-7.7882	-46.035804	0.000343	3.432933	0.581555	-0.013713
1392	6.9550e-01	-7.8080	-46.245525	0.001050	10.500737	1.778873	-0.041944
1393	6.9600e-01	-7.8278	-46.350386	0.000525	5.250369	0.889437	-0.020972
1394	6.9650e-01	-7.8492	-46.503643	0.000767	7.673616	1.299946	-0.030652
1395	6.9700e-01	-7.8687	-46.640769	0.000687	6.865867	1.163109	-0.027425
1396	6.9750e-01	-7.8886	-46.765795	0.000626	6.260055	1.060482	-0.025005
1397	6.9800e-01	-7.9084	-46.890821	0.000626	6.260055	1.060482	-0.025005
1398	6.9850e-01	-7.9285	-47.031979	0.000707	7.067804	1.197318	-0.028232
1399	6.9900e-01	-7.9475	-47.173138	0.000707	7.067804	1.197318	-0.028232
1400	6.9950e-01	-7.9679	-47.290098	0.000586	5.856180	0.992064	-0.023392
1401	7.0000e-01	-7.9877	-47.439322	0.000747	7.471678	1.265737	-0.029845
1402	7.0050e-01	-8.0085	-47.572415	0.000666	6.663929	1.128900	-0.026618
1403	7.0100e-01	-8.0286	-47.709540	0.000687	6.865867	1.163109	-0.027425
1404	7.0150e-01	-8.0485	-47.850698	0.000707	7.067804	1.197318	-0.028232
1405	7.0200e-01	-8.0683	-47.987824	0.000687	6.865867	1.163109	-0.027425
1406	7.0250e-01	-8.0885	-48.088651	0.000505	5.048431	0.855227	-0.020165
1407	7.0300e-01	-8.1086	-48.245942	0.000788	7.875553	1.334155	-0.031458
1408	7.0350e-01	-8.1284	-48.443564	0.000989	9.894926	1.676246	-0.039524
1409	7.0400e-01	-8.1483	-48.572623	0.000646	6.461992	1.094691	-0.025812
1410	7.0450e-01	-8.1684	-48.689583	0.000586	5.856180	0.992064	-0.023392
1411	7.0500e-01	-8.1886	-48.826708	0.000687	6.865867	1.163109	-0.027425
1412	7.0550e-01	-8.2087	-48.923503	0.000485	4.846494	0.821018	-0.019359
1413	7.0600e-01	-8.2282	-49.088860	0.000828	8.279427	1.402573	-0.033071
1414	7.0650e-01	-8.2484	-49.221952	0.000666	6.663929	1.128900	-0.026618
1415	7.0700e-01	-8.2688	-49.383276	0.000808	8.077490	1.368364	-0.032265
1416	7.0750e-01	-8.2880	-49.484103	0.000505	5.048431	0.855227	-0.020165
1417	7.0800e-01	-8.3082	-49.613162	0.000646	6.461992	1.094691	-0.025812
1418	7.0850e-01	-8.3277	-49.786586	0.000868	8.683302	1.470991	-0.034685
1419	7.0900e-01	-8.3479	-49.911612	0.000626	6.260055	1.060482	-0.025005
1420	7.0950e-01	-8.3692	-50.064869	0.000767	7.673616	1.299946	-0.030652
1421	7.1000e-01	-8.3881	-50.133432	0.000343	3.432933	0.581555	-0.013713
1422	7.1050e-01	-8.4083	-50.318955	0.000929	9.289114	1.573618	-0.037105
1423	7.1100e-01	-8.4278	-50.500444	0.000909	9.087177	1.539409	-0.036298
1424	7.1150e-01	-8.4480	-50.577073	0.000384	3.836808	0.649973	-0.015326
1425	7.1200e-01	-8.4687	-50.738397	0.000808	8.077490	1.368364	-0.032265
1426	7.1250e-01	-8.4888	-50.891655	0.000767	7.673616	1.299946	-0.030652
1427	7.1300e-01	-8.5084	-51.012648	0.000606	6.058118	1.026273	-0.024199
1428	7.1350e-01	-8.5285	-51.117508	0.000525	5.250369	0.889437	-0.020972
1429	7.1400e-01	-8.5480	-51.254634	0.000687	6.865867	1.163109	-0.027425
1430	7.1450e-01	-8.5682	-51.432090	0.000889	8.885239	1.505200	-0.035491
1431	7.1500e-01	-8.5889	-51.532917	0.000505	5.048431	0.855227	-0.020165
1432	7.1550e-01	-8.6085	-51.641811	0.000545	5.452306	0.923646	-0.021779
1433	7.1600e-01	-8.6280	-51.754738	0.000565	5.654243	0.957855	-0.022585
1434	7.1650e-01	-8.6494	-51.956393	0.001010	10.096863	1.710455	-0.040331
1435	7.1700e-01	-8.6683	-52.113684	0.000788	7.875553	1.334155	-0.031458
1436	7.1750e-01	-8.6881	-52.230643	0.000586	5.856180	0.992064	-0.023392
1437	7.1800e-01	-8.7086	-52.387934	0.000788	7.875553	1.334155	-0.031458
1438	7.1850e-01	-8.7281	-52.496828	0.000545	5.452306	0.923646	-0.021779
1439	7.1900e-01	-8.7482	-52.686384	0.000949	9.491051	1.607828	-0.037911
1440	7.1950e-01	-8.7672	-52.795277	0.000545	5.452306	0.923646	-0.021779
1441	7.2000e-01	-8.7879	-52.964667	0.000848	8.481365	1.436782	-0.033878
1442	7.2050e-01	-8.8081	-52.952568	-0.000061	-0.605812	-0.102627	0.002420
1443	7.2100e-01	-8.8288	-53.158256	0.001030	10.298800	1.744664	-0.041138
1444	7.2150e-01	-8.8490	-53.323613	0.000828	8.279427	1.402573	-0.033071
1445	7.2200e-01	-8.8679	-53.484937	0.000808	8.077490	1.368364	-0.032265
1446	7.2250e-01	-8.8886	-53.609963	0.000626	6.260055	1.060482	-0.025005
1447	7.2300e-01	-8.9075	-53.795486	0.000929	9.289114	1.573618	-0.037105
1448	7.2350e-01	-8.9289	-53.831784	0.000182	1.817435	0.307882	-0.007260
1449	7.2400e-01	-8.9478	-54.053604	0.001111	11.106549	1.881500	-0.044364
1450	7.2450e-01	-8.9680	-54.182663	0.000646	6.461992	1.094691	-0.025812
1451	7.2500e-01	-8.9881	-54.331888	0.000747	7.471678	1.265737	-0.029845
1452	7.2550e-01	-9.0083	-54.489179	0.000788	7.875553	1.334155	-0.031458
1453	7.2600e-01	-9.0281	-54.545642	0.000283	2.827122	0.478927	-0.011293
1454	7.2650e-01	-9.0479	-54.731165	0.000929	9.289114	1.573618	-0.037105
1455	7.2700e-01	-9.0681	-54.844091	0.000565	5.654243	0.957855	-0.022585
1456	7.2750e-01	-9.0882	-55.005415	0.000808	8.077490	1.368364	-0.032265
1457	7.2800e-01	-9.1077	-55.130441	0.000626	6.260055	1.060482	-0.025005
1458	7.2850e-01	-9.1286	-55.267567	0.000687	6.865867	1.163109	-0.027425
1459	7.2900e-01	-9.1486	-55.424858	0.000788	7.875553	1.334155	-0.031458
1460	7.2950e-01	-9.1688	-55.561983	0.000687	6.865867	1.163109	-0.027425
1461	7.3000e-01	-9.1889	-55.719274	0.000788	7.875553	1.334155	-0.031458
1462	7.3050e-01	-9.2072	-55.840267	0.000606	6.058118	1.026273	-0.024199
1463	7.3100e-01	-9.2280	-55.981425	0.000707	7.067804	1.197318	-0.028232
1464	7.3150e-01	-9.2481	-56.146782	0.000828	8.279427	1.402573	-0.033071
1465	7.3200e-01	-9.2683	-56.203246	0.000283	2.827122	0.478927	-0.011293
1466	7.3250e-01	-9.2890	-56.352470	0.000747	7.471678	1.265737	-0.029845
1467	7.3300e-01	-9.3073	-56.554125	0.001010	10.096863	1.710455	-0.040331
1468	7.3350e-01	-9.3281	-56.703350	0.000747	7.471678	1.265737	-0.029845
1469	7.3400e-01	-9.3476	-56.844508	0.000707	7.067804	1.197318	-0.028232
1470	7.3450e-01	-9.3678	-56.917104	0.000363	3.634871	0.615764	-0.014519
1471	7.3500e-01	-9.3885	-57.094560	0.000889	8.885239	1.505200	-0.035491
1472	7.3550e-01	-9.4080	-57.259917	0.000828	8.279427	1.402573	-0.033071
1473	7.3600e-01	-9.4282	-57.421241	0.000808	8.077490	1.368364	-0.032265
1474	7.3650e-01	-9.4471	-57.526102	0.000525	5.250369	0.889437	-0.020972
1475	7.3700e-01	-9.4691	-57.679360	0.000767	7.673616	1.299946	-0.030652
1476	7.3750e-01	-9.4888	-57.784220	0.000525	5.250369	0.889437	-0.020972
1477	7.3800e-01	-9.5087	-57.941511	0.000788	7.875553	1.334155	-0.031458
1478	7.3850e-01	-9.5283	-58.078636	0.000687	6.865867	1.163109	-0.027425
1479	7.3900e-01	-9.5478	-58.211729	0.000666	6.663929	1.128900	-0.026618
1480	7.3950e-01	-9.5686	-58.356920	0.000727	7.269741	1.231527	-0.029038
1481	7.4000e-01	-9.5875	-58.494046	0.000687	6.865867	1.163109	-0.027425
1482	7.4050e-01	-9.6076	-58.679568	0.000929	9.289114	1.573618	-0.037105
1483	7.4100e-01	-9.6278	-58.792495	0.000565	5.654243	0.957855	-0.022585
1484	7.4150e-01	-9.6479	-58.945753	0.000767	7.673616	1.299946	-0.030652
1485	7.4200e-01	-9.6687	-59.090944	0.000727	7.269741	1.231527	-0.029038
1486	7.4250e-01	-9.6888	-59.220003	0.000646	6.461992	1.094691	-0.025812
1487	7.4300e-01	-9.7089	-59.361162	0.000707	7.067804	1.197318	-0.028232
1488	7.4350e-01	-9.7279	-59.490221	0.000646	6.461992	1.094691	-0.025812
1489	7.4400e-01	-9.7480	-59.647512	0.000788	7.875553	1.334155	-0.031458
1490	7.4450e-01	-9.7681	-59.788670	0.000707	7.067804	1.197318	-0.028232
1491	7.4500e-01	-9.7883	-59.941928	0.000767	7.673616	1.299946	-0.030652
1492	7.4550e-01	-9.8072	-60.099219	0.000788	7.875553	1.334155	-0.031458
1493	7.4600e-01	-9.8280	-60.244410	0.000727	7.269741	1.231527	-0.029038
1494	7.4650e-01	-9.8487	-60.381536	0.000687	6.865867	1.163109	-0.027425
1495	7.4700e-01	-9.8682	-60.534793	0.000767	7.673616	1.299946	-0.030652
1496	7.4750e-01	-9.8884	-60.623522	0.000444	4.442620	0.752600	-0.017746
1497	7.4800e-01	-9.9079	-60.752581	0.000646	6.461992	1.094691	-0.025812
1498	7.4850e-01	-9.9287	-60.938103	0.000929	9.289114	1.573618	-0.037105
1499	7.4900e-01	-9.9482	-61.063129	0.000626	6.260055	1.060482	-0.025005
1500	7.4950e-01	-9.9683	-61.172023	0.000545	5.452306	0.923646	-0.021779
1501	7.5000e-01	-9.9879	-61.361579	0.000949	9.491051	1.607828	-0.037911
1502	7.5050e-01	-9.9842	-61.329314	0.000162	1.615498	0.273673	0.006453
1503	7.5100e-01	-9.9696	-61.305115	0.000121	1.211624	0.205255	0.004840
1504	7.5150e-01	-9.9506	-61.309148	-0.000020	-0.201937	-0.034209	-0.000807
1505	7.5200e-01	-9.9314	-61.252685	0.000283	2.827122	0.478927	0.011293
1506	7.5250e-01	-9.9116	-61.280917	-0.000141	-1.413561	-0.239464	-0.005646
1507	7.5300e-01	-9.8911	-61.212354	0.000343	3.432933	0.581555	0.013713
1508	7.5350e-01	-9.8719	-61.212354	0.000000	0.000000	0.000000	0.000000
1509	7.5400e-01	-9.8518	-61.147824	0.000323	3.230996	0.547346	0.012906
1510	7.5450e-01	-9.8328	-61.127659	0.000101	1.009686	0.171045	0.004033
1511	7.5500e-01	-9.8127	-61.119593	0.000040	0.403875	0.068418	0.001613
1512	7.5550e-01	-9.7913	-61.147824	-0.000141	-1.413561	-0.239464	-0.005646
1513	7.5600e-01	-9.7712	-61.079262	0.000343	3.432933	0.581555	0.013713
1514	7.5650e-01	-9.7517	-61.010699	0.000343	3.432933	0.581555	0.013713
1515	7.5700e-01	-9.7309	-60.962302	0.000242	2.423247	0.410509	0.009679
1516	7.5750e-01	-9.7120	-60.946170	0.000081	0.807749	0.136836	0.003226
1517	7.5800e-01	-9.6918	-60.873574	0.000363	3.634871	0.615764	0.014519
1518	7.5850e-01	-9.6723	-60.805011	0.000343	3.432933	0.581555	0.013713
1519	7.5900e-01	-9.6516	-60.724349	0.000404	4.038745	0.684182	0.016132
1520	7.5950e-01	-9.6320	-60.724349	0.000000	0.000000	0.000000	0.000000
1521	7.6000e-01	-9.6107	-60.663853	0.000303	3.029059	0.513136	0.012099
1522	7.6050e-01	-9.5918	-60.631588	0.000162	1.615498	0.273673	0.006453
1523	7.6100e-01	-9.5716	-60.571091	0.000303	3.029059	0.513136	0.012099
1524	7.6150e-01	-9.5515	-60.462198	0.000545	5.452306	0.923646	0.021779
1525	7.6200e-01	-9.5322	-60.442032	0.000101	1.009686	0.171045	0.004033
1526	7.6250e-01	-9.5118	-60.397668	0.000222	2.221310	0.376300	0.008873
1527	7.6300e-01	-9.4923	-60.312973	0.000424	4.240682	0.718391	0.016939
1528	7.6350e-01	-9.4715	-60.280708	0.000162	1.615498	0.273673	0.006453
1529	7.6400e-01	-9.4514	-60.212146	0.000343	3.432933	0.581555	0.013713
1530	7.6450e-01	-9.4318	-60.127451	0.000424	4.240682	0.718391	0.016939
1531	7.6500e-01	-9.4111	-60.062921	0.000323	3.230996	0.547346	0.012906
1532	7.6550e-01	-9.3916	-60.026623	0.000182	1.817435	0.307882	0.007260
1533	7.6600e-01	-9.3720	-59.949994	0.000384	3.836808	0.649973	0.015326
1534	7.6650e-01	-9.3531	-59.929829	0.000101	1.009686	0.171045	0.004033
1535	7.6700e-01	-9.3317	-59.829001	0.000505	5.048431	0.855227	0.020165
1536	7.6750e-01	-9.3110	-59.804803	0.000121	1.211624	0.205255	0.004840
1537	7.6800e-01	-9.2915	-59.736240	0.000343	3.432933	0.581555	0.013713
1538	7.6850e-01	-9.2719	-59.643479	0.000464	4.644557	0.786809	0.018552
1539	7.6900e-01	-9.2521	-59.570883	0.000363	3.634871	0.615764	0.014519
1540	7.6950e-01	-9.2323	-59.506353	0.000323	3.230996	0.547346	0.012906
1541	7.7000e-01	-9.2121	-59.457956	0.000242	2.423247	0.410509	0.009679
1542	7.7050e-01	-9.1927	-59.369228	0.000444	4.442620	0.752600	0.017746
1543	7.7100e-01	-9.1718	-59.276467	0.000464	4.644557	0.786809	0.018552
1544	7.7150e-01	-9.1529	-59.228070	0.000242	2.423247	0.410509	0.009679
1545	7.7200e-01	-9.1322	-59.175639	0.000263	2.625184	0.444718	0.010486
1546	7.7250e-01	-9.1120	-59.099010	0.000384	3.836808	0.649973	0.015326
1547	7.7300e-01	-9.0925	-59.062712	0.000182	1.817435	0.307882	0.007260
1548	7.7350e-01	-9.0723	-58.921554	0.000707	7.067804	1.197318	0.028232
1549	7.7400e-01	-9.0510	-58.865091	0.000283	2.827122	0.478927	0.011293
1550	7.7450e-01	-9.0321	-58.844925	0.000101	1.009686	0.171045	0.004033
1551	7.7500e-01	-9.0125	-58.744098	0.000505	5.048431	0.855227	0.020165
1552	7.7550e-01	-8.9918	-58.659403	0.000424	4.240682	0.718391	0.016939
1553	7.7600e-01	-8.9716	-58.606972	0.000263	2.625184	0.444718	0.010486
1554	7.7650e-01	-8.9521	-58.566641	0.000202	2.019373	0.342091	0.008066
1555	7.7700e-01	-8.9321	-58.477913	0.000444	4.442620	0.752600	0.017746
1556	7.7750e-01	-8.9124	-58.417417	0.000303	3.029059	0.513136	0.012099
1557	7.7800e-01	-8.8923	-58.300457	0.000586	5.856180	0.992064	0.023392
1558	7.7850e-01	-8.8721	-58.211729	0.000444	4.442620	0.752600	0.017746
1559	7.7900e-01	-8.8520	-58.151232	0.000303	3.029059	0.513136	0.012099
1560	7.7950e-01	-8.8313	-58.139133	0.000061	0.605812	0.102627	0.002420
1561	7.8000e-01	-8.8117	-58.034272	0.000525	5.250369	0.889437	0.020972
1562	7.8050e-01	-8.7928	-57.993941	0.000202	2.019373	0.342091	0.008066
1563	7.8100e-01	-8.7720	-57.889081	0.000525	5.250369	0.889437	0.020972
1564	7.8150e-01	-8.7519	-57.828584	0.000303	3.029059	0.513136	0.012099
1565	7.8200e-01	-8.7318	-57.743889	0.000424	4.240682	0.718391	0.016939
1566	7.8250e-01	-8.7122	-57.655161	0.000444	4.442620	0.752600	0.017746
1567	7.8300e-01	-8.6915	-57.610797	0.000222	2.221310	0.376300	0.008873
1568	7.8350e-01	-8.6726	-57.546267	0.000323	3.230996	0.547346	0.012906
1569	7.8400e-01	-8.6518	-57.469639	0.000384	3.836808	0.649973	0.015326
1570	7.8450e-01	-8.6323	-57.364778	0.000525	5.250369	0.889437	0.020972
1571	7.8500e-01	-8.6123	-57.276050	0.000444	4.442620	0.752600	0.017746
1572	7.8550e-01	-8.5914	-57.219586	0.000283	2.827122	0.478927	0.011293
1573	7.8600e-01	-8.5715	-57.134891	0.000424	4.240682	0.718391	0.016939
1574	7.8650e-01	-8.5526	-57.082461	0.000263	2.625184	0.444718	0.010486
1575	7.8700e-01	-8.5328	-56.965501	0.000586	5.856180	0.992064	0.023392
1576	7.8750e-01	-8.5126	-56.892905	0.000363	3.634871	0.615764	0.014519
1577	7.8800e-01	-8.4919	-56.856608	0.000182	1.817435	0.307882	0.007260
1578	7.8850e-01	-8.4724	-56.751747	0.000525	5.250369	0.889437	0.020972
1579	7.8900e-01	-8.4516	-56.707383	0.000222	2.221310	0.376300	0.008873
1580	7.8950e-01	-8.4321	-56.618655	0.000444	4.442620	0.752600	0.017746
1581	7.9000e-01	-8.4122	-56.562191	0.000283	2.827122	0.478927	0.011293
1582	7.9050e-01	-8.3925	-56.493629	0.000343	3.432933	0.581555	0.013713
1583	7.9100e-01	-8.3723	-56.348437	0.000727	7.269741	1.231527	0.029038
1584	7.9150e-01	-8.3518	-56.255676	0.000464	4.644557	0.786809	0.018552
1585	7.9200e-01	-8.3314	-56.211312	0.000222	2.221310	0.376300	0.008873
1586	7.9250e-01	-8.3118	-56.134683	0.000384	3.836808	0.649973	0.015326
1587	7.9300e-01	-8.2923	-56.098385	0.000182	1.817435	0.307882	0.007260
1588	7.9350e-01	-8.2722	-56.021756	0.000384	3.836808	0.649973	0.015326
1589	7.9400e-01	-8.2526	-55.920929	0.000505	5.048431	0.855227	0.020165
1590	7.9450e-01	-8.2331	-55.836234	0.000424	4.240682	0.718391	0.016939
1591	7.9500e-01	-8.2121	-55.767671	0.000343	3.432933	0.581555	0.013713
1592	7.9550e-01	-8.1922	-55.658777	0.000545	5.452306	0.923646	0.021779
1593	7.9600e-01	-8.1715	-55.574082	0.000424	4.240682	0.718391	0.016939
1594	7.9650e-01	-8.1525	-55.509553	0.000323	3.230996	0.547346	0.012906
1595	7.9700e-01	-8.1324	-55.453089	0.000283	2.827122	0.478927	0.011293
1596	7.9750e-01	-8.1123	-55.344196	0.000545	5.452306	0.923646	0.021779
1597	7.9800e-01	-8.0915	-55.279666	0.000323	3.230996	0.547346	0.012906
1598	7.9850e-01	-8.0726	-55.211103	0.000343	3.432933	0.581555	0.013713
1599	7.9900e-01	-8.0521	-55.150607	0.000303	3.029059	0.513136	0.012099
1600	7.9950e-01	-8.0323	-55.037680	0.000565	5.654243	0.957855	0.022585
1601	8.0000e-01	-8.0116	-54.993316	0.000222	2.221310	0.376300	0.008873
1602	8.0050e-01	-7.9914	-54.844091	0.000747	7.471678	1.265737	0.029845
1603	8.0100e-01	-7.9713	-54.795694	0.000242	2.423247	0.410509	0.009679
1604	8.0150e-01	-7.9519	-54.719065	0.000384	3.836808	0.649973	0.015326
1605	8.0200e-01	-7.9322	-54.626304	0.000464	4.644557	0.786809	0.018552
1606	8.0250e-01	-7.9127	-54.561774	0.000323	3.230996	0.547346	0.012906
1607	8.0300e-01	-7.8910	-54.485146	0.000384	3.836808	0.649973	0.015326
1608	8.0350e-01	-7.8724	-54.384318	0.000505	5.048431	0.855227	0.020165
1609	8.0400e-01	-7.8516	-54.279458	0.000525	5.250369	0.889437	0.020972
1610	8.0450e-01	-7.8321	-54.194762	0.000424	4.240682	0.718391	0.016939
1611	8.0500e-01	-7.8123	-54.158465	0.000182	1.817435	0.307882	0.007260
1612	8.0550e-01	-7.7920	-54.013273	0.000727	7.269741	1.231527	0.029038
1613	8.0600e-01	-7.7717	-54.009240	0.000020	0.201937	0.034209	0.000807
1614	8.0650e-01	-7.7515	-53.912446	0.000485	4.846494	0.821018	0.019359
1615	8.0700e-01	-7.7314	-53.839850	0.000363	3.634871	0.615764	0.014519
1616	8.0750e-01	-7.7113	-53.726923	0.000565	5.654243	0.957855	0.022585
1617	8.0800e-01	-7.6917	-53.666427	0.000303	3.029059	0.513136	0.012099
1618	8.0850e-01	-7.6722	-53.525268	0.000707	7.067804	1.197318	0.028232
1619	8.0900e-01	-7.6527	-53.488970	0.000182	1.817435	0.307882	0.007260
1620	8.0950e-01	-7.6316	-53.412341	0.000384	3.836808	0.649973	0.015326
1621	8.1000e-01	-7.6112	-53.287315	0.000626	6.260055	1.060482	0.025005
1622	8.1050e-01	-7.5922	-53.263117	0.000121	1.211624	0.205255	0.004840
1623	8.1100e-01	-7.5706	-53.178422	0.000424	4.240682	0.718391	0.016939
1624	8.1150e-01	-7.5523	-53.061462	0.000586	5.856180	0.992064	0.023392
1625	8.1200e-01	-7.5315	-52.980800	0.000404	4.038745	0.684182	0.016132
1626	8.1250e-01	-7.5129	-52.892072	0.000444	4.442620	0.752600	0.017746
1627	8.1300e-01	-7.4915	-52.823509	0.000343	3.432933	0.581555	0.013713
1628	8.1350e-01	-7.4720	-52.742847	0.000404	4.038745	0.684182	0.016132
1629	8.1400e-01	-7.4531	-52.637986	0.000525	5.250369	0.889437	0.020972
1630	8.1450e-01	-7.4329	-52.537159	0.000505	5.048431	0.855227	0.020165
1631	8.1500e-01	-7.4125	-52.448431	0.000444	4.442620	0.752600	0.017746
1632	8.1550e-01	-7.3927	-52.391967	0.000283	2.827122	0.478927	0.011293
1633	8.1600e-01	-7.3719	-52.319372	0.000363	3.634871	0.615764	0.014519
1634	8.1650e-01	-7.3530	-52.198379	0.000606	6.058118	1.026273	0.024199
1635	8.1700e-01	-7.3322	-52.145948	0.000263	2.625184	0.444718	0.010486
1636	8.1750e-01	-7.3127	-52.033022	0.000565	5.654243	0.957855	0.022585
1637	8.1800e-01	-7.2923	-51.956393	0.000384	3.836808	0.649973	0.015326
1638	8.1850e-01	-7.2724	-51.855565	0.000505	5.048431	0.855227	0.020165
1639	8.1900e-01	-7.2514	-51.774903	0.000404	4.038745	0.684182	0.016132
1640	8.1950e-01	-7.2321	-51.766837	0.000040	0.403875	0.068418	0.001613
1641	8.2000e-01	-7.2126	-51.573248	0.000969	9.692988	1.642037	0.038718
1642	8.2050e-01	-7.1925	-51.561149	0.000061	0.605812	0.102627	0.002420
1643	8.2100e-01	-7.1723	-51.415958	0.000727	7.269741	1.231527	0.029038
1644	8.2150e-01	-7.1522	-51.359494	0.000283	2.827122	0.478927	0.011293
1645	8.2200e-01	-7.1326	-51.282865	0.000384	3.836808	0.649973	0.015326
1646	8.2250e-01	-7.1125	-51.178005	0.000525	5.250369	0.889437	0.020972
1647	8.2300e-01	-7.0924	-51.121541	0.000283	2.827122	0.478927	0.011293
1648	8.2350e-01	-7.0722	-51.016681	0.000525	5.250369	0.889437	0.020972
1649	8.2400e-01	-7.0527	-50.907787	0.000545	5.452306	0.923646	0.021779
1650	8.2450e-01	-7.0319	-50.823092	0.000424	4.240682	0.718391	0.016939
1651	8.2500e-01	-7.0130	-50.758562	0.000323	3.230996	0.547346	0.012906
1652	8.2550e-01	-6.9923	-50.637570	0.000606	6.058118	1.026273	0.024199
1653	8.2600e-01	-6.9718	-50.564974	0.000363	3.634871	0.615764	0.014519
1654	8.2650e-01	-6.9523	-50.484312	0.000404	4.038745	0.684182	0.016132
1655	8.2700e-01	-6.9318	-50.363319	0.000606	6.058118	1.026273	0.024199
1656	8.2750e-01	-6.9111	-50.258458	0.000525	5.250369	0.889437	0.020972
1657	8.2800e-01	-6.8909	-50.242326	0.000081	0.807749	0.136836	0.003226
1658	8.2850e-01	-6.8720	-50.125366	0.000586	5.856180	0.992064	0.023392
1659	8.2900e-01	-6.8519	-50.004373	0.000606	6.058118	1.026273	0.024199
1660	8.2950e-01	-6.8324	-49.931777	0.000363	3.634871	0.615764	0.014519
1661	8.3000e-01	-6.8128	-49.806751	0.000626	6.260055	1.060482	0.025005
1662	8.3050e-01	-6.7912	-49.734155	0.000363	3.634871	0.615764	0.014519
1663	8.3100e-01	-6.7725	-49.669626	0.000323	3.230996	0.547346	0.012906
1664	8.3150e-01	-6.7524	-49.564765	0.000525	5.250369	0.889437	0.020972
1665	8.3200e-01	-6.7316	-49.508302	0.000283	2.827122	0.478927	0.011293
1666	8.3250e-01	-6.7121	-49.403441	0.000525	5.250369	0.889437	0.020972
1667	8.3300e-01	-6.6917	-49.338912	0.000323	3.230996	0.547346	0.012906
1668	8.3350e-01	-6.6718	-49.201786	0.000687	6.865867	1.163109	0.027425
1669	8.3400e-01	-6.6523	-49.117091	0.000424	4.240682	0.718391	0.016939
1670	8.3450e-01	-6.6322	-49.016264	0.000505	5.048431	0.855227	0.020165
1671	8.3500e-01	-6.6123	-48.983999	0.000162	1.615498	0.273673	0.006453
1672	8.3550e-01	-6.5919	-48.834774	0.000747	7.471678	1.265737	0.029845
1673	8.3600e-01	-6.5751	-48.762179	0.000363	3.634871	0.615764	0.014519
1674	8.3650e-01	-6.5525	-48.693616	0.000343	3.432933	0.581555	0.013713
1675	8.3700e-01	-6.5321	-48.584722	0.000545	5.452306	0.923646	0.021779
1676	8.3750e-01	-6.5113	-48.455663	0.000646	6.461992	1.094691	0.025812
1677	8.3800e-01	-6.4912	-48.383067	0.000363	3.634871	0.615764	0.014519
1678	8.3850e-01	-6.4722	-48.322571	0.000303	3.029059	0.513136	0.012099
1679	8.3900e-01	-6.4521	-48.197545	0.000626	6.260055	1.060482	0.025005
1680	8.3950e-01	-6.4314	-48.124949	0.000363	3.634871	0.615764	0.014519
1681	8.4000e-01	-6.4124	-48.007989	0.000586	5.856180	0.992064	0.023392
1682	8.4050e-01	-6.3924	-47.919261	0.000444	4.442620	0.752600	0.017746
1683	8.4100e-01	-6.3725	-47.842632	0.000384	3.836808	0.649973	0.015326
1684	8.4150e-01	-6.3514	-47.737772	0.000525	5.250369	0.889437	0.020972
1685	8.4200e-01	-6.3319	-47.657110	0.000404	4.038745	0.684182	0.016132
1686	8.4250e-01	-6.3111	-47.600646	0.000283	2.827122	0.478927	0.011293
1687	8.4300e-01	-6.2922	-47.503852	0.000485	4.846494	0.821018	0.019359
1688	8.4350e-01	-6.2717	-47.415124	0.000444	4.442620	0.752600	0.017746
1689	8.4400e-01	-6.2513	-47.302197	0.000565	5.654243	0.957855	0.022585
1690	8.4450e-01	-6.2321	-47.213469	0.000444	4.442620	0.752600	0.017746
1691	8.4500e-01	-6.2122	-47.128774	0.000424	4.240682	0.718391	0.016939
1692	8.4550e-01	-6.1915	-47.157005	-0.000141	-1.413561	-0.239464	-0.005646
1693	8.4600e-01	-6.1713	-46.915019	0.001212	12.116235	2.052546	0.048397
1694	8.4650e-01	-6.1512	-46.834358	0.000404	4.038745	0.684182	0.016132
1695	8.4700e-01	-6.1311	-46.721431	0.000565	5.654243	0.957855	0.022585
1696	8.4750e-01	-6.1103	-46.632703	0.000444	4.442620	0.752600	0.017746
1697	8.4800e-01	-6.0920	-46.531875	0.000505	5.048431	0.855227	0.020165
1698	8.4850e-01	-6.0712	-46.427015	0.000525	5.250369	0.889437	0.020972
1699	8.4900e-01	-6.0511	-46.342319	0.000424	4.240682	0.718391	0.016939
1700	8.4950e-01	-6.0310	-46.237459	0.000525	5.250369	0.889437	0.020972
1701	8.5000e-01	-6.0114	-46.180996	0.000283	2.827122	0.478927	0.011293
1702	8.5050e-01	-5.9914	-46.072102	0.000545	5.452306	0.923646	0.021779
1703	8.5100e-01	-5.9718	-45.995473	0.000384	3.836808	0.649973	0.015326
1704	8.5150e-01	-5.9522	-45.914811	0.000404	4.038745	0.684182	0.016132
1705	8.5200e-01	-5.9309	-45.805917	0.000545	5.452306	0.923646	0.021779
1706	8.5250e-01	-5.9119	-45.672825	0.000666	6.663929	1.128900	0.026618
1707	8.5300e-01	-5.8924	-45.588130	0.000424	4.240682	0.718391	0.016939
1708	8.5350e-01	-5.8717	-45.475203	0.000565	5.654243	0.957855	0.022585
1709	8.5400e-01	-5.8518	-45.378409	0.000485	4.846494	0.821018	0.019359
1710	8.5450e-01	-5.8314	-45.342111	0.000182	1.817435	0.307882	0.007260
1711	8.5500e-01	-5.8112	-45.289681	0.000263	2.625184	0.444718	0.010486
1712	8.5550e-01	-5.7911	-45.160622	0.000646	6.461992	1.094691	0.025812
1713	8.5600e-01	-5.7713	-45.015430	0.000727	7.269741	1.231527	0.029038
1714	8.5650e-01	-5.7502	-44.946867	0.000343	3.432933	0.581555	0.013713
1715	8.5700e-01	-5.7313	-44.809742	0.000687	6.865867	1.163109	0.027425
1716	8.5750e-01	-5.7108	-44.725047	0.000424	4.240682	0.718391	0.016939
1717	8.5800e-01	-5.6916	-44.628253	0.000485	4.846494	0.821018	0.019359
1718	8.5850e-01	-5.6715	-44.491127	0.000687	6.865867	1.163109	0.027425
1719	8.5900e-01	-5.6519	-44.434664	0.000283	2.827122	0.478927	0.011293
1720	8.5950e-01	-5.6312	-44.378200	0.000283	2.827122	0.478927	0.011293
1721	8.6000e-01	-5.6110	-44.261241	0.000586	5.856180	0.992064	0.023392
1722	8.6050e-01	-5.5921	-44.112016	0.000747	7.471678	1.265737	0.029845
1723	8.6100e-01	-5.5726	-44.079751	0.000162	1.615498	0.273673	0.006453
1724	8.6150e-01	-5.5515	-43.966824	0.000565	5.654243	0.957855	0.022585
1725	8.6200e-01	-5.5317	-43.874063	0.000464	4.644557	0.786809	0.018552
1726	8.6250e-01	-5.5122	-43.753070	0.000606	6.058118	1.026273	0.024199
1727	8.6300e-01	-5.4920	-43.680474	0.000363	3.634871	0.615764	0.014519
1728	8.6350e-01	-5.4719	-43.571581	0.000545	5.452306	0.923646	0.021779
1729	8.6400e-01	-5.4523	-43.486886	0.000424	4.240682	0.718391	0.016939
1730	8.6450e-01	-5.4322	-43.357827	0.000646	6.461992	1.094691	0.025812
1731	8.6500e-01	-5.4111	-43.200536	0.000788	7.875553	1.334155	0.031458
1732	8.6550e-01	-5.3913	-43.188436	0.000061	0.605812	0.102627	0.002420
1733	8.6600e-01	-5.3739	-43.083576	0.000525	5.250369	0.889437	0.020972
1734	8.6650e-01	-5.3515	-42.922252	0.000808	8.077490	1.368364	0.032265
1735	8.6700e-01	-5.3321	-42.861755	0.000303	3.029059	0.513136	0.012099
1736	8.6750e-01	-5.3120	-42.736729	0.000626	6.260055	1.060482	0.025005
1737	8.6800e-01	-5.2915	-42.668167	0.000343	3.432933	0.581555	0.013713
1738	8.6850e-01	-5.2717	-42.567339	0.000505	5.048431	0.855227	0.020165
1739	8.6900e-01	-5.2516	-42.450379	0.000586	5.856180	0.992064	0.023392
1740	8.6950e-01	-5.2314	-42.373750	0.000384	3.836808	0.649973	0.015326
1741	8.7000e-01	-5.2119	-42.268890	0.000525	5.250369	0.889437	0.020972
1742	8.7050e-01	-5.1916	-42.180162	0.000444	4.442620	0.752600	0.017746
1743	8.7100e-01	-5.1713	-42.099500	0.000404	4.038745	0.684182	0.016132
1744	8.7150e-01	-5.1521	-41.950275	0.000747	7.471678	1.265737	0.029845
1745	8.7200e-01	-5.1322	-41.865580	0.000424	4.240682	0.718391	0.016939
1746	8.7250e-01	-5.1109	-41.792984	0.000363	3.634871	0.615764	0.014519
1747	8.7300e-01	-5.0919	-41.708289	0.000424	4.240682	0.718391	0.016939
1748	8.7350e-01	-5.0715	-41.583263	0.000626	6.260055	1.060482	0.025005
1749	8.7400e-01	-5.0495	-41.478403	0.000525	5.250369	0.889437	0.020972
1750	8.7450e-01	-5.0321	-41.389674	0.000444	4.442620	0.752600	0.017746
1751	8.7500e-01	-5.0121	-41.276748	0.000565	5.654243	0.957855	0.022585
1752	8.7550e-01	-4.9928	-41.196086	0.000404	4.038745	0.684182	0.016132
1753	8.7600e-01	-4.9720	-41.058960	0.000687	6.865867	1.163109	0.027425
1754	8.7650e-01	-4.9522	-41.018629	0.000202	2.019373	0.342091	0.008066
1755	8.7700e-01	-4.9317	-40.845206	0.000868	8.683302	1.470991	0.034685
1756	8.7750e-01	-4.9123	-40.768577	0.000384	3.836808	0.649973	0.015326
1757	8.7800e-01	-4.8916	-40.687915	0.000404	4.038745	0.684182	0.016132
1758	8.7850e-01	-4.8734	-40.603220	0.000424	4.240682	0.718391	0.016939
1759	8.7900e-01	-4.8512	-40.466095	0.000687	6.865867	1.163109	0.027425
1760	8.7950e-01	-4.8328	-40.353168	0.000565	5.654243	0.957855	0.022585
1761	8.8000e-01	-4.8115	-40.300738	0.000263	2.625184	0.444718	0.010486
1762	8.8050e-01	-4.7919	-40.199910	0.000505	5.048431	0.855227	0.020165
1763	8.8100e-01	-4.7727	-40.042619	0.000788	7.875553	1.334155	0.031458
1764	8.8150e-01	-4.7517	-39.961958	0.000404	4.038745	0.684182	0.016132
1765	8.8200e-01	-4.7315	-39.869196	0.000464	4.644557	0.786809	0.018552
1766	8.8250e-01	-4.7120	-39.764336	0.000525	5.250369	0.889437	0.020972
1767	8.8300e-01	-4.6912	-39.679641	0.000424	4.240682	0.718391	0.016939
1768	8.8350e-01	-4.6720	-39.538482	0.000707	7.067804	1.197318	0.028232
1769	8.8400e-01	-4.6522	-39.425555	0.000565	5.654243	0.957855	0.022585
1770	8.8450e-01	-4.6320	-39.361026	0.000323	3.230996	0.547346	0.012906
1771	8.8500e-01	-4.6110	-39.252132	0.000545	5.452306	0.923646	0.021779
1772	8.8550e-01	-4.5911	-39.135172	0.000586	5.856180	0.992064	0.023392
1773	8.8600e-01	-4.5719	-39.026279	0.000545	5.452306	0.923646	0.021779
1774	8.8650e-01	-4.5515	-38.937550	0.000444	4.442620	0.752600	0.017746
1775	8.8700e-01	-4.5316	-38.816557	0.000606	6.058118	1.026273	0.024199
1776	8.8750e-01	-4.5118	-38.752028	0.000323	3.230996	0.547346	0.012906
1777	8.8800e-01	-4.4913	-38.614903	0.000687	6.865867	1.163109	0.027425
1778	8.8850e-01	-4.4709	-38.477777	0.000687	6.865867	1.163109	0.027425
1779	8.8900e-01	-4.4517	-38.405181	0.000363	3.634871	0.615764	0.014519
1780	8.8950e-01	-4.4321	-38.308387	0.000485	4.846494	0.821018	0.019359
1781	8.9000e-01	-4.4108	-38.191427	0.000586	5.856180	0.992064	0.023392
1782	8.9050e-01	-4.3913	-38.090600	0.000505	5.048431	0.855227	0.020165
1783	8.9100e-01	-4.3714	-37.969607	0.000606	6.058118	1.026273	0.024199
1784	8.9150e-01	-4.3508	-37.901044	0.000343	3.432933	0.581555	0.013713
1785	8.9200e-01	-4.3305	-37.755853	0.000727	7.269741	1.231527	0.029038
1786	8.9250e-01	-4.3116	-37.687290	0.000343	3.432933	0.581555	0.013713
1787	8.9300e-01	-4.2908	-37.582429	0.000525	5.250369	0.889437	0.020972
1788	8.9350e-01	-4.2716	-37.457403	0.000626	6.260055	1.060482	0.025005
1789	8.9400e-01	-4.2518	-37.348510	0.000545	5.452306	0.923646	0.021779
1790	8.9450e-01	-4.2316	-37.235583	0.000565	5.654243	0.957855	0.022585
1791	8.9500e-01	-4.2109	-37.154921	0.000404	4.038745	0.684182	0.016132
1792	8.9550e-01	-4.1920	-37.017796	0.000687	6.865867	1.163109	0.027425
1793	8.9600e-01	-4.1706	-36.880670	0.000687	6.865867	1.163109	0.027425
1794	8.9650e-01	-4.1523	-36.868571	0.000061	0.605812	0.102627	0.002420
1795	8.9700e-01	-4.1319	-36.715313	0.000767	7.673616	1.299946	0.030652
1796	8.9750e-01	-4.1115	-36.638684	0.000384	3.836808	0.649973	0.015326
1797	8.9800e-01	-4.0913	-36.513658	0.000626	6.260055	1.060482	0.025005
1798	8.9850e-01	-4.0711	-36.412831	0.000505	5.048431	0.855227	0.020165
1799	8.9900e-01	-4.0516	-36.251507	0.000808	8.077490	1.368364	0.032265
1800	8.9950e-01	-4.0304	-36.178911	0.000363	3.634871	0.615764	0.014519
1801	9.0000e-01	-4.0113	-36.065984	0.000565	5.654243	0.957855	0.022585
1802	9.0050e-01	-3.9906	-35.944991	0.000606	6.058118	1.026273	0.024199
1803	9.0100e-01	-3.9710	-35.900627	0.000222	2.221310	0.376300	0.008873
1804	9.0150e-01	-3.9512	-35.763502	0.000687	6.865867	1.163109	0.027425
1805	9.0200e-01	-3.9323	-35.586046	0.000889	8.885239	1.505200	0.035491
1806	9.0250e-01	-3.9113	-35.509417	0.000384	3.836808	0.649973	0.015326
1807	9.0300e-01	-3.8906	-35.412622	0.000485	4.846494	0.821018	0.019359
1808	9.0350e-01	-3.8709	-35.295662	0.000586	5.856180	0.992064	0.023392
1809	9.0400e-01	-3.8514	-35.223067	0.000363	3.634871	0.615764	0.014519
1810	9.0450e-01	-3.8303	-35.122239	0.000505	5.048431	0.855227	0.020165
1811	9.0500e-01	-3.8111	-35.005279	0.000586	5.856180	0.992064	0.023392
1812	9.0550e-01	-3.7907	-34.892353	0.000565	5.654243	0.957855	0.022585
1813	9.0600e-01	-3.7705	-34.803624	0.000444	4.442620	0.752600	0.017746
1814	9.0650e-01	-3.7519	-34.674565	0.000646	6.461992	1.094691	0.025812
1815	9.0700e-01	-3.7318	-34.569705	0.000525	5.250369	0.889437	0.020972
1816	9.0750e-01	-3.7116	-34.505175	0.000323	3.230996	0.547346	0.012906
1817	9.0800e-01	-3.6915	-34.368050	0.000687	6.865867	1.163109	0.027425
1818	9.0850e-01	-3.6716	-34.267222	0.000505	5.048431	0.855227	0.020165
1819	9.0900e-01	-3.6509	-34.117998	0.000747	7.471678	1.265737	0.029845
1820	9.0950e-01	-3.6317	-34.021203	0.000485	4.846494	0.821018	0.019359
1821	9.1000e-01	-3.6103	-33.912310	0.000545	5.452306	0.923646	0.021779
1822	9.1050e-01	-3.5920	-33.819548	0.000464	4.644557	0.786809	0.018552
1823	9.1100e-01	-3.5709	-33.698555	0.000606	6.058118	1.026273	0.024199
1824	9.1150e-01	-3.5511	-33.553364	0.000727	7.269741	1.231527	0.029038
1825	9.1200e-01	-3.5305	-33.484801	0.000343	3.432933	0.581555	0.013713
1826	9.1250e-01	-3.5120	-33.388007	0.000485	4.846494	0.821018	0.019359
1827	9.1300e-01	-3.4910	-33.230716	0.000788	7.875553	1.334155	0.031458
1828	9.1350e-01	-3.4721	-33.174253	0.000283	2.827122	0.478927	0.011293
1829	9.1400e-01	-3.4525	-33.073425	0.000505	5.048431	0.855227	0.020165
1830	9.1450e-01	-3.4315	-32.952432	0.000606	6.058118	1.026273	0.024199
1831	9.1500e-01	-3.4119	-32.843538	0.000545	5.452306	0.923646	0.021779
1832	9.1550e-01	-3.3918	-32.754810	0.000444	4.442620	0.752600	0.017746
1833	9.1600e-01	-3.3712	-32.597519	0.000788	7.875553	1.334155	0.031458
1834	9.1650e-01	-3.3512	-32.480560	0.000586	5.856180	0.992064	0.023392
1835	9.1700e-01	-3.3308	-32.387798	0.000464	4.644557	0.786809	0.018552
1836	9.1750e-01	-3.3105	-32.282938	0.000525	5.250369	0.889437	0.020972
1837	9.1800e-01	-3.2915	-32.165978	0.000586	5.856180	0.992064	0.023392
1838	9.1850e-01	-3.2711	-32.040952	0.000626	6.260055	1.060482	0.025005
1839	9.1900e-01	-3.2510	-31.915926	0.000626	6.260055	1.060482	0.025005
1840	9.1950e-01	-3.2319	-31.802999	0.000565	5.654243	0.957855	0.022585
1841	9.2000e-01	-3.2112	-31.669907	0.000666	6.663929	1.128900	0.026618
1842	9.2050e-01	-3.1913	-31.573112	0.000485	4.846494	0.821018	0.019359
1843	9.2100e-01	-3.1716	-31.484384	0.000444	4.442620	0.752600	0.017746
1844	9.2150e-01	-3.1509	-31.306928	0.000889	8.885239	1.505200	0.035491
1845	9.2200e-01	-3.1306	-31.258531	0.000242	2.423247	0.410509	0.009679
1846	9.2250e-01	-3.1113	-31.169803	0.000444	4.442620	0.752600	0.017746
1847	9.2300e-01	-3.0912	-31.040743	0.000646	6.461992	1.094691	0.025812
1848	9.2350e-01	-3.0704	-30.935883	0.000525	5.250369	0.889437	0.020972
1849	9.2400e-01	-3.0510	-30.822956	0.000565	5.654243	0.957855	0.022585
1850	9.2450e-01	-3.0314	-30.701963	0.000606	6.058118	1.026273	0.024199
1851	9.2500e-01	-3.0117	-30.597103	0.000525	5.250369	0.889437	0.020972
1852	9.2550e-01	-2.9911	-30.451911	0.000727	7.269741	1.231527	0.029038
1853	9.2600e-01	-2.9675	-30.343017	0.000545	5.452306	0.923646	0.021779
1854	9.2650e-01	-2.9519	-30.230091	0.000565	5.654243	0.957855	0.022585
1855	9.2700e-01	-2.9310	-30.096998	0.000666	6.663929	1.128900	0.026618
1856	9.2750e-01	-2.9115	-30.012303	0.000424	4.240682	0.718391	0.016939
1857	9.2800e-01	-2.8903	-29.879211	0.000666	6.663929	1.128900	0.026618
1858	9.2850e-01	-2.8706	-29.790483	0.000444	4.442620	0.752600	0.017746
1859	9.2900e-01	-2.8510	-29.649324	0.000707	7.067804	1.197318	0.028232
1860	9.2950e-01	-2.8310	-29.560596	0.000444	4.442620	0.752600	0.017746
1861	9.3000e-01	-2.8114	-29.423471	0.000687	6.865867	1.163109	0.027425
1862	9.3050e-01	-2.7909	-29.298445	0.000626	6.260055	1.060482	0.025005
1863	9.3100e-01	-2.7711	-29.217783	0.000404	4.038745	0.684182	0.016132
1864	9.3150e-01	-2.7518	-29.084691	0.000666	6.663929	1.128900	0.026618
1865	9.3200e-01	-2.7309	-29.008062	0.000384	3.836808	0.649973	0.015326
1866	9.3250e-01	-2.7113	-28.862870	0.000727	7.269741	1.231527	0.029038
1867	9.3300e-01	-2.6905	-28.766076	0.000485	4.846494	0.821018	0.019359
1868	9.3350e-01	-2.6716	-28.681381	0.000424	4.240682	0.718391	0.016939
1869	9.3400e-01	-2.6514	-28.540222	0.000707	7.067804	1.197318	0.028232
1870	9.3450e-01	-2.6313	-28.403097	0.000687	6.865867	1.163109	0.027425
1871	9.3500e-01	-2.6099	-28.278071	0.000626	6.260055	1.060482	0.025005
1872	9.3550e-01	-2.5910	-28.165144	0.000565	5.654243	0.957855	0.022585
1873	9.3600e-01	-2.5704	-28.052217	0.000565	5.654243	0.957855	0.022585
1874	9.3650e-01	-2.5504	-27.935257	0.000586	5.856180	0.992064	0.023392
1875	9.3700e-01	-2.5301	-27.806198	0.000646	6.461992	1.094691	0.025812
1876	9.3750e-01	-2.5108	-27.745702	0.000303	3.029059	0.513136	0.012099
1877	9.3800e-01	-2.4909	-27.608576	0.000687	6.865867	1.163109	0.027425
1878	9.3850e-01	-2.4714	-27.431120	0.000889	8.885239	1.505200	0.035491
1879	9.3900e-01	-2.4516	-27.419021	0.000061	0.605812	0.102627	0.002420
1880	9.3950e-01	-2.4319	-27.265763	0.000767	7.673616	1.299946	0.030652
1881	9.4000e-01	-2.4111	-27.108472	0.000788	7.875553	1.334155	0.031458
1882	9.4050e-01	-2.3916	-27.003612	0.000525	5.250369	0.889437	0.020972
1883	9.4100e-01	-2.3708	-26.886652	0.000586	5.856180	0.992064	0.023392
1884	9.4150e-01	-2.3512	-26.801957	0.000424	4.240682	0.718391	0.016939
1885	9.4200e-01	-2.3316	-26.721295	0.000404	4.038745	0.684182	0.016132
1886	9.4250e-01	-2.3121	-26.495441	0.001131	11.308486	1.915709	0.045171
1887	9.4300e-01	-2.2915	-26.418812	0.000384	3.836808	0.649973	0.015326
1888	9.4350e-01	-2.2717	-26.305886	0.000565	5.654243	0.957855	0.022585
1889	9.4400e-01	-2.2523	-26.237323	0.000343	3.432933	0.581555	0.013713
1890	9.4450e-01	-2.2321	-26.075999	0.000808	8.077490	1.368364	0.032265
1891	9.4500e-01	-2.2111	-26.019536	0.000283	2.827122	0.478927	0.011293
1892	9.4550e-01	-2.1909	-25.870311	0.000747	7.471678	1.265737	0.029845
1893	9.4600e-01	-2.1702	-25.700921	0.000848	8.481365	1.436782	0.033878
1894	9.4650e-01	-2.1510	-25.624292	0.000384	3.836808	0.649973	0.015326
1895	9.4700e-01	-2.1317	-25.531531	0.000464	4.644557	0.786809	0.018552
1896	9.4750e-01	-2.1104	-25.426670	0.000525	5.250369	0.889437	0.020972
1897	9.4800e-01	-2.0906	-25.241148	0.000929	9.289114	1.573618	0.037105
1898	9.4850e-01	-2.0716	-25.168552	0.000363	3.634871	0.615764	0.014519
1899	9.4900e-01	-2.0507	-24.999162	0.000848	8.481365	1.436782	0.033878
1900	9.4950e-01	-2.0313	-24.882202	0.000586	5.856180	0.992064	0.023392
1901	9.5000e-01	-2.0110	-24.797507	0.000424	4.240682	0.718391	0.016939
1902	9.5050e-01	-1.9912	-24.660381	0.000687	6.865867	1.163109	0.027425
1903	9.5100e-01	-1.9709	-24.547455	0.000565	5.654243	0.957855	0.022585
1904	9.5150e-01	-1.9508	-24.410329	0.000687	6.865867	1.163109	0.027425
1905	9.5200e-01	-1.9307	-24.301436	0.000545	5.452306	0.923646	0.021779
1906	9.5250e-01	-1.9117	-24.240939	0.000303	3.029059	0.513136	0.012099
1907	9.5300e-01	-1.8906	-24.075582	0.000828	8.279427	1.402573	0.033071
1908	9.5350e-01	-1.8720	-23.962655	0.000565	5.654243	0.957855	0.022585
1909	9.5400e-01	-1.8507	-23.869894	0.000464	4.644557	0.786809	0.018552
1910	9.5450e-01	-1.8316	-23.648074	0.001111	11.106549	1.881500	0.044364
1911	9.5500e-01	-1.8107	-23.571445	0.000384	3.836808	0.649973	0.015326
1912	9.5550e-01	-1.7915	-23.478684	0.000464	4.644557	0.786809	0.018552
1913	9.5600e-01	-1.7706	-23.418187	0.000303	3.029059	0.513136	0.012099
1914	9.5650e-01	-1.7509	-23.208466	0.001050	10.500737	1.778873	0.041944
1915	9.5700e-01	-1.7316	-23.131837	0.000384	3.836808	0.649973	0.015326
1916	9.5750e-01	-1.7115	-23.039076	0.000464	4.644557	0.786809	0.018552
1917	9.5800e-01	-1.6904	-22.881785	0.000788	7.875553	1.334155	0.031458
1918	9.5850e-01	-1.6715	-22.736593	0.000727	7.269741	1.231527	0.029038
1919	9.5900e-01	-1.6520	-22.595435	0.000707	7.067804	1.197318	0.028232
1920	9.5950e-01	-1.6309	-22.486541	0.000545	5.452306	0.923646	0.021779
1921	9.6000e-01	-1.6108	-22.385714	0.000505	5.048431	0.855227	0.020165
1922	9.6050e-01	-1.5913	-22.296986	0.000444	4.442620	0.752600	0.017746
1923	9.6100e-01	-1.5702	-22.123562	0.000868	8.683302	1.470991	0.034685
1924	9.6150e-01	-1.5503	-22.014669	0.000545	5.452306	0.923646	0.021779
1925	9.6200e-01	-1.5314	-21.905775	0.000545	5.452306	0.923646	0.021779
1926	9.6250e-01	-1.5110	-21.756550	0.000747	7.471678	1.265737	0.029845
1927	9.6300e-01	-1.4915	-21.687988	0.000343	3.432933	0.581555	0.013713
1928	9.6350e-01	-1.4705	-21.530697	0.000788	7.875553	1.334155	0.031458
1929	9.6400e-01	-1.4500	-21.409704	0.000606	6.058118	1.026273	0.024199
1930	9.6450e-01	-1.4315	-21.304843	0.000525	5.250369	0.889437	0.020972
1931	9.6500e-01	-1.4112	-21.147553	0.000788	7.875553	1.334155	0.031458
1932	9.6550e-01	-1.3898	-21.066891	0.000404	4.038745	0.684182	0.016132
1933	9.6600e-01	-1.3705	-20.897500	0.000848	8.481365	1.436782	0.033878
1934	9.6650e-01	-1.3514	-20.788607	0.000545	5.452306	0.923646	0.021779
1935	9.6700e-01	-1.3306	-20.671647	0.000586	5.856180	0.992064	0.023392
1936	9.6750e-01	-1.3111	-20.586952	0.000424	4.240682	0.718391	0.016939
1937	9.6800e-01	-1.2901	-20.437727	0.000747	7.471678	1.265737	0.029845
1938	9.6850e-01	-1.2701	-20.296569	0.000707	7.067804	1.197318	0.028232
1939	9.6900e-01	-1.2508	-20.175576	0.000606	6.058118	1.026273	0.024199
1940	9.6950e-01	-1.2315	-20.066682	0.000545	5.452306	0.923646	0.021779
1941	9.7000e-01	-1.2112	-19.961822	0.000525	5.250369	0.889437	0.020972
1942	9.7050e-01	-1.1906	-19.812597	0.000747	7.471678	1.265737	0.029845
1943	9.7100e-01	-1.1718	-19.748067	0.000323	3.230996	0.547346	0.012906
1944	9.7150e-01	-1.1514	-19.546412	0.001010	10.096863	1.710455	0.040331
1945	9.7200e-01	-1.1308	-19.453651	0.000464	4.644557	0.786809	0.018552
1946	9.7250e-01	-1.1111	-19.316526	0.000687	6.865867	1.163109	0.027425
1947	9.7300e-01	-1.0912	-19.175367	0.000707	7.067804	1.197318	0.028232
1948	9.7350e-01	-1.0709	-19.082606	0.000464	4.644557	0.786809	0.018552
1949	9.7400e-01	-1.0514	-19.014043	0.000343	3.432933	0.581555	0.013713
1950	9.7450e-01	-1.0319	-18.828521	0.000929	9.289114	1.573618	0.037105
1951	9.7500e-01	-1.0110	-18.715594	0.000565	5.654243	0.957855	0.022585
1952	9.7550e-01	-0.9911	-18.594601	0.000606	6.058118	1.026273	0.024199
1953	9.7600e-01	-0.9702	-18.485707	0.000545	5.452306	0.923646	0.021779
1954	9.7650e-01	-0.9511	-18.344549	0.000707	7.067804	1.197318	0.028232
1955	9.7700e-01	-0.9311	-18.187258	0.000788	7.875553	1.334155	0.031458
1956	9.7750e-01	-0.9113	-18.046100	0.000707	7.067804	1.197318	0.028232
1957	9.7800e-01	-0.8916	-17.953338	0.000464	4.644557	0.786809	0.018552
1958	9.7850e-01	-0.8704	-17.884776	0.000343	3.432933	0.581555	0.013713
1959	9.7900e-01	-0.8509	-17.683121	0.001010	10.096863	1.710455	0.040331
1960	9.7950e-01	-0.8317	-17.586326	0.000485	4.846494	0.821018	0.019359
1961	9.8000e-01	-0.8109	-17.441135	0.000727	7.269741	1.231527	0.029038
1962	9.8050e-01	-0.7909	-17.340307	0.000505	5.048431	0.855227	0.020165
1963	9.8100e-01	-0.7710	-17.203182	0.000687	6.865867	1.163109	0.027425
1964	9.8150e-01	-0.7510	-17.106388	0.000485	4.846494	0.821018	0.019359
1965	9.8200e-01	-0.7298	-16.961196	0.000727	7.269741	1.231527	0.029038
1966	9.8250e-01	-0.7108	-16.844236	0.000586	5.856180	0.992064	0.023392
1967	9.8300e-01	-0.6907	-16.727276	0.000586	5.856180	0.992064	0.023392
1968	9.8350e-01	-0.6704	-16.590151	0.000687	6.865867	1.163109	0.027425
1969	9.8400e-01	-0.6513	-16.485291	0.000525	5.250369	0.889437	0.020972
1970	9.8450e-01	-0.6300	-16.291702	0.000969	9.692988	1.642037	0.038718
1971	9.8500e-01	-0.6100	-16.174742	0.000586	5.856180	0.992064	0.023392
1972	9.8550e-01	-0.5907	-16.045683	0.000646	6.461992	1.094691	0.025812
1973	9.8600e-01	-0.5731	-15.960988	0.000424	4.240682	0.718391	0.016939
1974	9.8650e-01	-0.5504	-15.815796	0.000727	7.269741	1.231527	0.029038
1975	9.8700e-01	-0.5311	-15.682704	0.000666	6.663929	1.128900	0.026618
1976	9.8750e-01	-0.5108	-15.589943	0.000464	4.644557	0.786809	0.018552
1977	9.8800e-01	-0.4906	-15.436685	0.000767	7.673616	1.299946	0.030652
1978	9.8850e-01	-0.4716	-15.295526	0.000707	7.067804	1.197318	0.028232
1979	9.8900e-01	-0.4503	-15.235030	0.000303	3.029059	0.513136	0.012099
1980	9.8950e-01	-0.4313	-15.033375	0.001010	10.096863	1.710455	0.040331
1981	9.9000e-01	-0.4115	-14.972879	0.000303	3.029059	0.513136	0.012099
1982	9.9050e-01	-0.3912	-14.799455	0.000868	8.683302	1.470991	0.034685
1983	9.9100e-01	-0.3706	-14.714760	0.000424	4.240682	0.718391	0.016939
1984	9.9150e-01	-0.3500	-14.577635	0.000687	6.865867	1.163109	0.027425
1985	9.9200e-01	-0.3299	-14.468741	0.000545	5.452306	0.923646	0.021779
1986	9.9250e-01	-0.3104	-14.303384	0.000828	8.279427	1.402573	0.033071
1987	9.9300e-01	-0.2912	-14.198524	0.000525	5.250369	0.889437	0.020972
1988	9.9350e-01	-0.2706	-14.029133	0.000848	8.481365	1.436782	0.033878
1989	9.9400e-01	-0.2508	-13.924273	0.000525	5.250369	0.889437	0.020972
1990	9.9450e-01	-0.2302	-13.831512	0.000464	4.644557	0.786809	0.018552
1991	9.9500e-01	-0.2116	-13.710519	0.000606	6.058118	1.026273	0.024199
1992	9.9550e-01	-0.1910	-13.545162	0.000828	8.279427	1.402573	0.033071
1993	9.9600e-01	-0.1704	-13.428202	0.000586	5.856180	0.992064	0.023392
1994	9.9650e-01	-0.1500	-13.323341	0.000525	5.250369	0.889437	0.020972
1995	9.9700e-01	-0.1302	-13.194282	0.000646	6.461992	1.094691	0.025812
1996	9.9750e-01	-0.1109	-13.028925	0.000828	8.279427	1.402573	0.033071
1997	9.9800e-01	-0.0903	-12.915998	0.000565	5.654243	0.957855	0.022585
1998	9.9850e-01	-0.0712	-12.758707	0.000788	7.875553	1.334155	0.031458
1999	9.9900e-01	-0.0507	-12.629648	0.000646	6.461992	1.094691	0.025812
2000	9.9950e-01	-0.0311	-12.532854	0.000485	4.846494	0.821018	0.019359
2001	1.0000e+00	-0.0103	-12.403795	0.000485	4.846494	0.821018	0.025812

PMax (uC/cm2):	5.82e+01
Pr (uC/cm2):	4.53e+00
-Pr (uC/cm2):	-1.55e+01
PLoss (uC/cm2):	-1.55e+01
-Vc:	-6.50e-01
C (Max-Eff) (nF):	5.83e-01
K (Eff):	9.88e+02
Vert. (+/-Pr) Shift (uC/cm2):	-5.50e+00
Offset (uC/cm2):	-3.13e+00

A (Loop Area - uC/cm2·Volts):	-2.10e-02



Hysteresis Version: 5.48.1 - Radiant Technologies, Inc., 1999 - 9/12/24

