»»»»»»»»»»»»»»»»»»»»»»»»»»»»»»»»»»»» Hysteresis ««««««««««««««««««««««««««««««««««««
»»»  Executed Version:	5.48.1
»»»  Vision Version:	5.48.4 (R)
»»»  Vision Compiled:	9/18/24
»»»  Driver Version:	5.47.0
»»»  Windows Version:	Windows 8 or 8.1
»»»  Processor Information:	x86 (AMD or Intel) - 32 Processors
»»»  Tester Name:	PMF21124-494 (100V)
»»»  Tester S/N:	PMF21124-494
»»»  Internal Amp Type:	100V RevK 270k
»»»  Internal Amp S/N:	iAB2-596/K     
»»»  Execution Count:	1
»»»»»»»»»»»»»»»»»»»»»»»»»»»»»»»»»»»»»»»»»»««««««««««««««««««««««««««««««««««««««««««

Stored:	6/26/2025 - 12:42:40
Configured:	06/26/25 10:24:47 AM
Executed:	06/26/25 12:42:13 PM

»»»»»»»»»»»»»»»»»»»»»»»»»»»»»»»»»»» Sample Info ««««««««««««««««««««««««««««««««««««
Sample Name:	
Lot Name:	
Wafer Name:	
Die Row/Column:	0/0
Capacitor Number:	0
Sample Area (cm2):	1.00e-04
Sample Thickness (microns):	1.50e-01

Amplifier:	Internal

»»»»»»»»»»»»»»»»»»»»»»»»»»»»»»»»»»» Tester Info «««««««««««««««««««««««««««««««««««
Tester Name:	PMF21124-494 (100V)
Tester Serial Number:	PMF21124-494
Return Signal Amp. Level:	1.79 [Index: 2]

»»»»»»»»»»»»»»»»»»»»»»»»»»»»»»»» Hysteresis Info ««««««««««««««««««««««««««««««««««
Task Name:	Hyst-562
Volts:	10.00
Field:	666.67 (kV/cm)
DCBias:	0.00
DCField:	0.00 (kV/cm)
Hysteresis Period (ms):	1.00e+00
Preset:	Enabled
Preset Delay (ms):	1.00e+03
Profile:	Standard Monopolar

»»»»»»»»»»»»»»»»»»»»»»»»»»»»»»»»»»»»»» Data «««««««««««««««««««««««««««««««««««««««
Points:	2001

Valid Data

Point	Time (ms)	Drive Voltage	Measured Polarization (uC/cm2)	Capacitance (uF)	Normalized Capacitance (uF/cm2)	Dielectric Constant	Instantaneous Current (mA)
   1	0.0000e+00	-0.0040	-11.146053	0.000410	4.104655	0.695347	0.008210
   2	5.0000e-04	0.0062	-11.105001	0.000410	4.104655	0.695347	0.008210
   3	1.0000e-03	0.0144	-11.078916	0.000261	2.608166	0.441835	0.005217
   4	1.5000e-03	0.0272	-11.056251	0.000227	2.266111	0.383890	0.004533
   5	2.0000e-03	0.0366	-11.030594	0.000257	2.565409	0.434592	0.005132
   6	2.5000e-03	0.0460	-11.004509	0.000261	2.608166	0.441835	0.005217
   7	3.0000e-03	0.0532	-10.974575	0.000299	2.992977	0.507024	0.005987
   8	3.5000e-03	0.0657	-10.949773	0.000248	2.479895	0.420106	0.004960
   9	4.0000e-03	0.0758	-10.914708	0.000351	3.506059	0.593942	0.007013
  10	4.5000e-03	0.0866	-10.910431	0.000043	0.427568	0.072432	0.000855
  11	5.0000e-03	0.0950	-10.883491	0.000269	2.693680	0.456322	0.005388
  12	5.5000e-03	0.1064	-10.850564	0.000329	3.292275	0.557726	0.006585
  13	6.0000e-03	0.1167	-10.833031	0.000175	1.753030	0.296971	0.003507
  14	6.5000e-03	0.1263	-10.807801	0.000252	2.522652	0.427349	0.005046
  15	7.0000e-03	0.1379	-10.789841	0.000180	1.795786	0.304214	0.003592
  16	7.5000e-03	0.1444	-10.755631	0.000342	3.420546	0.579456	0.006842
  17	8.0000e-03	0.1606	-10.744940	0.000107	1.068920	0.181080	0.002138
  18	8.5000e-03	0.1649	-10.714579	0.000304	3.035734	0.514267	0.006072
  19	9.0000e-03	0.1741	-10.682507	0.000321	3.206761	0.543240	0.006414
  20	9.5000e-03	0.1850	-10.666257	0.000162	1.624759	0.275242	0.003250
  21	1.0000e-02	0.1956	-10.628626	0.000376	3.762600	0.637402	0.007526
  22	1.0500e-02	0.2069	-10.615797	0.000128	1.282705	0.217296	0.002566
  23	1.1000e-02	0.2141	-10.585436	0.000304	3.035734	0.514267	0.006072
  24	1.1500e-02	0.2263	-10.562344	0.000231	2.308868	0.391133	0.004618
  25	1.2000e-02	0.2366	-10.556358	0.000060	0.598595	0.101405	0.001197
  26	1.2500e-02	0.2480	-10.516161	0.000402	4.019141	0.680861	0.008039
  27	1.3000e-02	0.2558	-10.495207	0.000210	2.095084	0.354917	0.004191
  28	1.3500e-02	0.2650	-10.469122	0.000261	2.608166	0.441835	0.005217
  29	1.4000e-02	0.2769	-10.448168	0.000210	2.095084	0.354917	0.004191
  30	1.4500e-02	0.2866	-10.418235	0.000299	2.992977	0.507024	0.005987
  31	1.5000e-02	0.2969	-10.402412	0.000158	1.582002	0.267998	0.003164
  32	1.5500e-02	0.3069	-10.370768	0.000316	3.164005	0.535997	0.006329
  33	1.6000e-02	0.3171	-10.352380	0.000184	1.838543	0.311458	0.003678
  34	1.6500e-02	0.3246	-10.329289	0.000231	2.308868	0.391133	0.004618
  35	1.7000e-02	0.3349	-10.307907	0.000214	2.137841	0.362160	0.004276
  36	1.7500e-02	0.3454	-10.274552	0.000334	3.335032	0.564970	0.006671
  37	1.8000e-02	0.3540	-10.253171	0.000214	2.137841	0.362160	0.004276
  38	1.8500e-02	0.3659	-10.224948	0.000282	2.821950	0.478051	0.005645
  39	1.9000e-02	0.3759	-10.199718	0.000252	2.522652	0.427349	0.005046
  40	1.9500e-02	0.3840	-10.173633	0.000261	2.608166	0.441835	0.005217
  41	2.0000e-02	0.3951	-10.163370	0.000103	1.026164	0.173837	0.002053
  42	2.0500e-02	0.4050	-10.124884	0.000385	3.848114	0.651888	0.007697
  43	2.1000e-02	0.4167	-10.103502	0.000214	2.137841	0.362160	0.004276
  44	2.1500e-02	0.4269	-10.092384	0.000111	1.111677	0.188323	0.002224
  45	2.2000e-02	0.4356	-10.057746	0.000346	3.463302	0.586699	0.006928
  46	2.2500e-02	0.4459	-10.046628	0.000111	1.111677	0.188323	0.002224
  47	2.3000e-02	0.4556	-9.997879	0.000487	4.874277	0.825725	0.009750
  48	2.3500e-02	0.4657	-9.982912	0.000150	1.496489	0.253512	0.002993
  49	2.4000e-02	0.4781	-9.953406	0.000295	2.950220	0.499781	0.005901
  50	2.4500e-02	0.4855	-9.928176	0.000252	2.522652	0.427349	0.005046
  51	2.5000e-02	0.4952	-9.911926	0.000162	1.624759	0.275242	0.003250
  52	2.5500e-02	0.5051	-9.878144	0.000338	3.377789	0.572213	0.006756
  53	2.6000e-02	0.5148	-9.868736	0.000094	0.940650	0.159350	0.001882
  54	2.6500e-02	0.5265	-9.835381	0.000334	3.335032	0.564970	0.006671
  55	2.7000e-02	0.5385	-9.811007	0.000244	2.437139	0.412862	0.004875
  56	2.7500e-02	0.5459	-9.800744	0.000103	1.026164	0.173837	0.002053
  57	2.8000e-02	0.5548	-9.757554	0.000432	4.318439	0.731563	0.008638
  58	2.8500e-02	0.5686	-9.743442	0.000141	1.410975	0.239026	0.002822
  59	2.9000e-02	0.5767	-9.727620	0.000158	1.582002	0.267998	0.003164
  60	2.9500e-02	0.5874	-9.695120	0.000325	3.249518	0.550483	0.006500
  61	3.0000e-02	0.5978	-9.663904	0.000312	3.121248	0.528754	0.006243
  62	3.0500e-02	0.6075	-9.645943	0.000180	1.795786	0.304214	0.003592
  63	3.1000e-02	0.6163	-9.614727	0.000312	3.121248	0.528754	0.006243
  64	3.1500e-02	0.6268	-9.575385	0.000393	3.933627	0.666375	0.007868
  65	3.2000e-02	0.6390	-9.573247	0.000021	0.213784	0.036216	0.000428
  66	3.2500e-02	0.6475	-9.544596	0.000286	2.864707	0.485294	0.005730
  67	3.3000e-02	0.6558	-9.526636	0.000180	1.795786	0.304214	0.003592
  68	3.3500e-02	0.6660	-9.498840	0.000278	2.779193	0.470808	0.005559
  69	3.4000e-02	0.6761	-9.469762	0.000291	2.907464	0.492538	0.005816
  70	3.4500e-02	0.6876	-9.441966	0.000278	2.779193	0.470808	0.005559
  71	3.5000e-02	0.6973	-9.422295	0.000197	1.966814	0.333187	0.003934
  72	3.5500e-02	0.7069	-9.401342	0.000210	2.095084	0.354917	0.004191
  73	3.6000e-02	0.7160	-9.373546	0.000278	2.779193	0.470808	0.005559
  74	3.6500e-02	0.7254	-9.357724	0.000158	1.582002	0.267998	0.003164
  75	3.7000e-02	0.7385	-9.326507	0.000312	3.121248	0.528754	0.006243
  76	3.7500e-02	0.7496	-9.295718	0.000308	3.078491	0.521510	0.006158
  77	3.8000e-02	0.7574	-9.276903	0.000188	1.881300	0.318701	0.003763
  78	3.8500e-02	0.7689	-9.247824	0.000291	2.907464	0.492538	0.005816
  79	3.9000e-02	0.7760	-9.234140	0.000137	1.368218	0.231782	0.002737
  80	3.9500e-02	0.7845	-9.204634	0.000295	2.950220	0.499781	0.005901
  81	4.0000e-02	0.7954	-9.187957	0.000167	1.667516	0.282485	0.003335
  82	4.0500e-02	0.8069	-9.155885	0.000321	3.206761	0.543240	0.006414
  83	4.1000e-02	0.8161	-9.125096	0.000308	3.078491	0.521510	0.006158
  84	4.1500e-02	0.8273	-9.112695	0.000124	1.239948	0.210053	0.002480
  85	4.2000e-02	0.8366	-9.067794	0.000449	4.489466	0.760536	0.008980
  86	4.2500e-02	0.8450	-9.042992	0.000248	2.479895	0.420106	0.004960
  87	4.3000e-02	0.8578	-9.034439	0.000086	0.855136	0.144864	0.001711
  88	4.3500e-02	0.8662	-8.997236	0.000372	3.719843	0.630159	0.007441
  89	4.4000e-02	0.8733	-8.972861	0.000244	2.437139	0.412862	0.004875
  90	4.4500e-02	0.8868	-8.966874	0.000060	0.598595	0.101405	0.001197
  91	4.5000e-02	0.8969	-8.939934	0.000269	2.693680	0.456322	0.005388
  92	4.5500e-02	0.9045	-8.906579	0.000334	3.335032	0.564970	0.006671
  93	4.6000e-02	0.9180	-8.875790	0.000308	3.078491	0.521510	0.006158
  94	4.6500e-02	0.9265	-8.853981	0.000218	2.180598	0.369403	0.004362
  95	4.7000e-02	0.9358	-8.841580	0.000124	1.239948	0.210053	0.002480
  96	4.7500e-02	0.9471	-8.805660	0.000359	3.591573	0.608429	0.007184
  97	4.8000e-02	0.9578	-8.773588	0.000321	3.206761	0.543240	0.006414
  98	4.8500e-02	0.9664	-8.760331	0.000133	1.325461	0.224539	0.002651
  99	4.9000e-02	0.9753	-8.726977	0.000334	3.335032	0.564970	0.006671
 100	4.9500e-02	0.9857	-8.708161	0.000188	1.881300	0.318701	0.003763
 101	5.0000e-02	0.9963	-8.687635	0.000205	2.052327	0.347674	0.004105
 102	5.0500e-02	1.0058	-8.662833	0.000248	2.479895	0.420106	0.004960
 103	5.1000e-02	1.0178	-8.650004	0.000128	1.282705	0.217296	0.002566
 104	5.1500e-02	1.0283	-8.618787	0.000312	3.121248	0.528754	0.006243
 105	5.2000e-02	1.0382	-8.594840	0.000239	2.394382	0.405619	0.004789
 106	5.2500e-02	1.0429	-8.568755	0.000261	2.608166	0.441835	0.005217
 107	5.3000e-02	1.0549	-8.539249	0.000295	2.950220	0.499781	0.005901
 108	5.3500e-02	1.0643	-8.512736	0.000265	2.650923	0.449078	0.005303
 109	5.4000e-02	1.0759	-8.481092	0.000316	3.164005	0.535997	0.006329
 110	5.4500e-02	1.0889	-8.467408	0.000137	1.368218	0.231782	0.002737
 111	5.5000e-02	1.0969	-8.443033	0.000244	2.437139	0.412862	0.004875
 112	5.5500e-02	1.1081	-8.430205	0.000128	1.282705	0.217296	0.002566
 113	5.6000e-02	1.1166	-8.395995	0.000342	3.420546	0.579456	0.006842
 114	5.6500e-02	1.1261	-8.375469	0.000205	2.052327	0.347674	0.004105
 115	5.7000e-02	1.1341	-8.339548	0.000359	3.591573	0.608429	0.007184
 116	5.7500e-02	1.1445	-8.320305	0.000192	1.924057	0.325944	0.003849
 117	5.8000e-02	1.1569	-8.300634	0.000197	1.966814	0.333187	0.003934
 118	5.8500e-02	1.1642	-8.268135	0.000325	3.249518	0.550483	0.006500
 119	5.9000e-02	1.1764	-8.251030	0.000171	1.710273	0.289728	0.003421
 120	5.9500e-02	1.1876	-8.222806	0.000282	2.821950	0.478051	0.005645
 121	6.0000e-02	1.1974	-8.213399	0.000094	0.940650	0.159350	0.001882
 122	6.0500e-02	1.2045	-8.166787	0.000466	4.660493	0.789509	0.009322
 123	6.1000e-02	1.2196	-8.156524	0.000103	1.026164	0.173837	0.002053
 124	6.1500e-02	1.2271	-8.132577	0.000239	2.394382	0.405619	0.004789
 125	6.2000e-02	1.2355	-8.100078	0.000325	3.249518	0.550483	0.006500
 126	6.2500e-02	1.2465	-8.070144	0.000299	2.992977	0.507024	0.005987
 127	6.3000e-02	1.2581	-8.042349	0.000278	2.779193	0.470808	0.005559
 128	6.3500e-02	1.2659	-8.044059	-0.000017	-0.171027	-0.028973	-0.000342
 129	6.4000e-02	1.2757	-8.007711	0.000363	3.634330	0.615672	0.007270
 130	6.4500e-02	1.2864	-7.982909	0.000248	2.479895	0.420106	0.004960
 131	6.5000e-02	1.2964	-7.958962	0.000239	2.394382	0.405619	0.004789
 132	6.5500e-02	1.3054	-7.942284	0.000167	1.667516	0.282485	0.003335
 133	6.6000e-02	1.3147	-7.925607	0.000167	1.667516	0.282485	0.003335
 134	6.6500e-02	1.3267	-7.899522	0.000261	2.608166	0.441835	0.005217
 135	6.7000e-02	1.3329	-7.868305	0.000312	3.121248	0.528754	0.006243
 136	6.7500e-02	1.3473	-7.843930	0.000244	2.437139	0.412862	0.004875
 137	6.8000e-02	1.3568	-7.829819	0.000141	1.410975	0.239026	0.002822
 138	6.8500e-02	1.3663	-7.797319	0.000325	3.249518	0.550483	0.006500
 139	6.9000e-02	1.3749	-7.781925	0.000154	1.539245	0.260755	0.003079
 140	6.9500e-02	1.3871	-7.752419	0.000295	2.950220	0.499781	0.005901
 141	7.0000e-02	1.3956	-7.722057	0.000304	3.035734	0.514267	0.006072
 142	7.0500e-02	1.4063	-7.700248	0.000218	2.180598	0.369403	0.004362
 143	7.1000e-02	1.4166	-7.683571	0.000167	1.667516	0.282485	0.003335
 144	7.1500e-02	1.4243	-7.646368	0.000372	3.719843	0.630159	0.007441
 145	7.2000e-02	1.4336	-7.600184	0.000462	4.617736	0.782266	0.009237
 146	7.2500e-02	1.4447	-7.596335	0.000038	0.384811	0.065189	0.000770
 147	7.3000e-02	1.4545	-7.587355	0.000090	0.897893	0.152107	0.001796
 148	7.3500e-02	1.4664	-7.552290	0.000351	3.506059	0.593942	0.007013
 149	7.4000e-02	1.4771	-7.533902	0.000184	1.838543	0.311458	0.003678
 150	7.4500e-02	1.4862	-7.500547	0.000334	3.335032	0.564970	0.006671
 151	7.5000e-02	1.4951	-7.475745	0.000248	2.479895	0.420106	0.004960
 152	7.5500e-02	1.5084	-7.457785	0.000180	1.795786	0.304214	0.003592
 153	7.6000e-02	1.5173	-7.438114	0.000197	1.966814	0.333187	0.003934
 154	7.6500e-02	1.5269	-7.413312	0.000248	2.479895	0.420106	0.004960
 155	7.7000e-02	1.5368	-7.393213	0.000201	2.009570	0.340430	0.004020
 156	7.7500e-02	1.5450	-7.364562	0.000286	2.864707	0.485294	0.005730
 157	7.8000e-02	1.5553	-7.347885	0.000167	1.667516	0.282485	0.003335
 158	7.8500e-02	1.5688	-7.317096	0.000308	3.078491	0.521510	0.006158
 159	7.9000e-02	1.5744	-7.299991	0.000171	1.710273	0.289728	0.003421
 160	7.9500e-02	1.5846	-7.263215	0.000368	3.677086	0.622915	0.007355
 161	8.0000e-02	1.5945	-7.240551	0.000227	2.266111	0.383890	0.004533
 162	8.0500e-02	1.6051	-7.222591	0.000180	1.795786	0.304214	0.003592
 163	8.1000e-02	1.6151	-7.193512	0.000291	2.907464	0.492538	0.005816
 164	8.1500e-02	1.6268	-7.181539	0.000120	1.197191	0.202810	0.002395
 165	8.2000e-02	1.6376	-7.156737	0.000248	2.479895	0.420106	0.004960
 166	8.2500e-02	1.6471	-7.133645	0.000231	2.308868	0.391133	0.004618
 167	8.3000e-02	1.6571	-7.110981	0.000227	2.266111	0.383890	0.004533
 168	8.3500e-02	1.6626	-7.078054	0.000329	3.292275	0.557726	0.006585
 169	8.4000e-02	1.6770	-7.047692	0.000304	3.035734	0.514267	0.006072
 170	8.4500e-02	1.6838	-7.030160	0.000175	1.753030	0.296971	0.003507
 171	8.5000e-02	1.6946	-6.989107	0.000410	4.104655	0.695347	0.008210
 172	8.5500e-02	1.7059	-6.974568	0.000145	1.453732	0.246269	0.002908
 173	8.6000e-02	1.7139	-6.965160	0.000094	0.940650	0.159350	0.001882
 174	8.6500e-02	1.7284	-6.926247	0.000389	3.890871	0.659131	0.007783
 175	8.7000e-02	1.7354	-6.914273	0.000120	1.197191	0.202810	0.002395
 176	8.7500e-02	1.7477	-6.890326	0.000239	2.394382	0.405619	0.004789
 177	8.8000e-02	1.7567	-6.872793	0.000175	1.753030	0.296971	0.003507
 178	8.8500e-02	1.7665	-6.842004	0.000308	3.078491	0.521510	0.006158
 179	8.9000e-02	1.7769	-6.818057	0.000239	2.394382	0.405619	0.004789
 180	8.9500e-02	1.7859	-6.797959	0.000201	2.009570	0.340430	0.004020
 181	9.0000e-02	1.7957	-6.783420	0.000145	1.453732	0.246269	0.002908
 182	9.0500e-02	1.8062	-6.752203	0.000312	3.121248	0.528754	0.006243
 183	9.1000e-02	1.8150	-6.723125	0.000291	2.907464	0.492538	0.005816
 184	9.1500e-02	1.8254	-6.684638	0.000385	3.848114	0.651888	0.007697
 185	9.2000e-02	1.8372	-6.677369	0.000073	0.726866	0.123134	0.001454
 186	9.2500e-02	1.8472	-6.656843	0.000205	2.052327	0.347674	0.004105
 187	9.3000e-02	1.8579	-6.634606	0.000222	2.223355	0.376646	0.004447
 188	9.3500e-02	1.8655	-6.617074	0.000175	1.753030	0.296971	0.003507
 189	9.4000e-02	1.8774	-6.584574	0.000325	3.249518	0.550483	0.006500
 190	9.4500e-02	1.8864	-6.561055	0.000235	2.351625	0.398376	0.004704
 191	9.5000e-02	1.8958	-6.528555	0.000325	3.249518	0.550483	0.006500
 192	9.5500e-02	1.9055	-6.505891	0.000227	2.266111	0.383890	0.004533
 193	9.6000e-02	1.9217	-6.490069	0.000158	1.582002	0.267998	0.003164
 194	9.6500e-02	1.9247	-6.469970	0.000201	2.009570	0.340430	0.004020
 195	9.7000e-02	1.9392	-6.443030	0.000269	2.693680	0.456322	0.005388
 196	9.7500e-02	1.9434	-6.415662	0.000274	2.736436	0.463565	0.005474
 197	9.8000e-02	1.9553	-6.403688	0.000120	1.197191	0.202810	0.002395
 198	9.8500e-02	1.9667	-6.367340	0.000363	3.634330	0.615672	0.007270
 199	9.9000e-02	1.9765	-6.339972	0.000274	2.736436	0.463565	0.005474
 200	9.9500e-02	1.9844	-6.336979	0.000030	0.299298	0.050702	0.000599
 201	1.0000e-01	1.9947	-6.295499	0.000415	4.147411	0.702591	0.008296
 202	1.0050e-01	2.0065	-6.255730	0.000398	3.976384	0.673618	0.007954
 203	1.0100e-01	2.0164	-6.256585	-0.000009	-0.085514	-0.014486	-0.000171
 204	1.0150e-01	2.0255	-6.231783	0.000248	2.479895	0.420106	0.004960
 205	1.0200e-01	2.0346	-6.203987	0.000278	2.779193	0.470808	0.005559
 206	1.0250e-01	2.0471	-6.177902	0.000261	2.608166	0.441835	0.005217
 207	1.0300e-01	2.0560	-6.160370	0.000175	1.753030	0.296971	0.003507
 208	1.0350e-01	2.0651	-6.121456	0.000389	3.890871	0.659131	0.007783
 209	1.0400e-01	2.0736	-6.124022	-0.000026	-0.256541	-0.043459	-0.000513
 210	1.0450e-01	2.0856	-6.089384	0.000346	3.463302	0.586699	0.006928
 211	1.0500e-01	2.0963	-6.067147	0.000222	2.223355	0.376646	0.004447
 212	1.0550e-01	2.1054	-6.036786	0.000304	3.035734	0.514267	0.006072
 213	1.0600e-01	2.1146	-6.013694	0.000231	2.308868	0.391133	0.004618
 214	1.0650e-01	2.1265	-5.991885	0.000218	2.180598	0.369403	0.004362
 215	1.0700e-01	2.1371	-5.976491	0.000154	1.539245	0.260755	0.003079
 216	1.0750e-01	2.1466	-5.957675	0.000188	1.881300	0.318701	0.003763
 217	1.0800e-01	2.1574	-5.926886	0.000308	3.078491	0.521510	0.006158
 218	1.0850e-01	2.1661	-5.904222	0.000227	2.266111	0.383890	0.004533
 219	1.0900e-01	2.1765	-5.886690	0.000175	1.753030	0.296971	0.003507
 220	1.0950e-01	2.1893	-5.851624	0.000351	3.506059	0.593942	0.007013
 221	1.1000e-01	2.1960	-5.845638	0.000060	0.598595	0.101405	0.001197
 222	1.1050e-01	2.2059	-5.811427	0.000342	3.420546	0.579456	0.006842
 223	1.1100e-01	2.2156	-5.791329	0.000201	2.009570	0.340430	0.004020
 224	1.1150e-01	2.2247	-5.749849	0.000415	4.147411	0.702591	0.008296
 225	1.1200e-01	2.2375	-5.736593	0.000133	1.325461	0.224539	0.002651
 226	1.1250e-01	2.2475	-5.728041	0.000086	0.855136	0.144864	0.001711
 227	1.1300e-01	2.2579	-5.694686	0.000334	3.335032	0.564970	0.006671
 228	1.1350e-01	2.2675	-5.674587	0.000201	2.009570	0.340430	0.004020
 229	1.1400e-01	2.2784	-5.654917	0.000197	1.966814	0.333187	0.003934
 230	1.1450e-01	2.2859	-5.626693	0.000282	2.821950	0.478051	0.005645
 231	1.1500e-01	2.2961	-5.600181	0.000265	2.650923	0.449078	0.005303
 232	1.1550e-01	2.3082	-5.588207	0.000120	1.197191	0.202810	0.002395
 233	1.1600e-01	2.3169	-5.555708	0.000325	3.249518	0.550483	0.006500
 234	1.1650e-01	2.3256	-5.527912	0.000278	2.779193	0.470808	0.005559
 235	1.1700e-01	2.3369	-5.511235	0.000167	1.667516	0.282485	0.003335
 236	1.1750e-01	2.3480	-5.495412	0.000158	1.582002	0.267998	0.003164
 237	1.1800e-01	2.3573	-5.452222	0.000432	4.318439	0.731563	0.008638
 238	1.1850e-01	2.3656	-5.436400	0.000158	1.582002	0.267998	0.003164
 239	1.1900e-01	2.3775	-5.409460	0.000269	2.693680	0.456322	0.005388
 240	1.1950e-01	2.3865	-5.385085	0.000244	2.437139	0.412862	0.004875
 241	1.2000e-01	2.3956	-5.368408	0.000167	1.667516	0.282485	0.003335
 242	1.2050e-01	2.4092	-5.357717	0.000107	1.068920	0.181080	0.002138
 243	1.2100e-01	2.4165	-5.326073	0.000316	3.164005	0.535997	0.006329
 244	1.2150e-01	2.4255	-5.294856	0.000312	3.121248	0.528754	0.006243
 245	1.2200e-01	2.4377	-5.279462	0.000154	1.539245	0.260755	0.003079
 246	1.2250e-01	2.4451	-5.256370	0.000231	2.308868	0.391133	0.004618
 247	1.2300e-01	2.4567	-5.225581	0.000308	3.078491	0.521510	0.006158
 248	1.2350e-01	2.4689	-5.217028	0.000086	0.855136	0.144864	0.001711
 249	1.2400e-01	2.4744	-5.189660	0.000274	2.736436	0.463565	0.005474
 250	1.2450e-01	2.4847	-5.152029	0.000376	3.762600	0.637402	0.007526
 251	1.2500e-01	2.4963	-5.149891	0.000021	0.213784	0.036216	0.000428
 252	1.2550e-01	2.5050	-5.122096	0.000278	2.779193	0.470808	0.005559
 253	1.2600e-01	2.5201	-5.107129	0.000150	1.496489	0.253512	0.002993
 254	1.2650e-01	2.5259	-5.094728	0.000124	1.239948	0.210053	0.002480
 255	1.2700e-01	2.5377	-5.040847	0.000539	5.387359	0.912643	0.010776
 256	1.2750e-01	2.5467	-5.040847	0.000000	0.000000	0.000000	0.000000
 257	1.2800e-01	2.5562	-5.008775	0.000321	3.206761	0.543240	0.006414
 258	1.2850e-01	2.5665	-4.984400	0.000244	2.437139	0.412862	0.004875
 259	1.2900e-01	2.5742	-4.954894	0.000295	2.950220	0.499781	0.005901
 260	1.2950e-01	2.5853	-4.945486	0.000094	0.940650	0.159350	0.001882
 261	1.3000e-01	2.5964	-4.926671	0.000188	1.881300	0.318701	0.003763
 262	1.3050e-01	2.6062	-4.900586	0.000261	2.608166	0.441835	0.005217
 263	1.3100e-01	2.6175	-4.876639	0.000239	2.394382	0.405619	0.004789
 264	1.3150e-01	2.6257	-4.834304	0.000423	4.232925	0.717077	0.008467
 265	1.3200e-01	2.6353	-4.826606	0.000077	0.769623	0.130378	0.001539
 266	1.3250e-01	2.6468	-4.798383	0.000282	2.821950	0.478051	0.005645
 267	1.3300e-01	2.6575	-4.780423	0.000180	1.795786	0.304214	0.003592
 268	1.3350e-01	2.6663	-4.760325	0.000201	2.009570	0.340430	0.004020
 269	1.3400e-01	2.6764	-4.742364	0.000180	1.795786	0.304214	0.003592
 270	1.3450e-01	2.6871	-4.706016	0.000363	3.634330	0.615672	0.007270
 271	1.3500e-01	2.6948	-4.687201	0.000188	1.881300	0.318701	0.003763
 272	1.3550e-01	2.7084	-4.688056	-0.000009	-0.085514	-0.014486	-0.000171
 273	1.3600e-01	2.7156	-4.636313	0.000517	5.173575	0.876427	0.010349
 274	1.3650e-01	2.7258	-4.609800	0.000265	2.650923	0.449078	0.005303
 275	1.3700e-01	2.7365	-4.582860	0.000269	2.693680	0.456322	0.005388
 276	1.3750e-01	2.7467	-4.562762	0.000201	2.009570	0.340430	0.004020
 277	1.3800e-01	2.7552	-4.539242	0.000235	2.351625	0.398376	0.004704
 278	1.3850e-01	2.7663	-4.534111	0.000051	0.513082	0.086918	0.001026
 279	1.3900e-01	2.7768	-4.488783	0.000453	4.532223	0.767779	0.009066
 280	1.3950e-01	2.7859	-4.481085	0.000077	0.769623	0.130378	0.001539
 281	1.4000e-01	2.7967	-4.448586	0.000325	3.249518	0.550483	0.006500
 282	1.4050e-01	2.8074	-4.435757	0.000128	1.282705	0.217296	0.002566
 283	1.4100e-01	2.8162	-4.416514	0.000192	1.924057	0.325944	0.003849
 284	1.4150e-01	2.8279	-4.380593	0.000359	3.591573	0.608429	0.007184
 285	1.4200e-01	2.8363	-4.376745	0.000038	0.384811	0.065189	0.000770
 286	1.4250e-01	2.8483	-4.358357	0.000184	1.838543	0.311458	0.003678
 287	1.4300e-01	2.8577	-4.335693	0.000227	2.266111	0.383890	0.004533
 288	1.4350e-01	2.8680	-4.311746	0.000239	2.394382	0.405619	0.004789
 289	1.4400e-01	2.8761	-4.280957	0.000308	3.078491	0.521510	0.006158
 290	1.4450e-01	2.8864	-4.257865	0.000231	2.308868	0.391133	0.004618
 291	1.4500e-01	2.8946	-4.230069	0.000278	2.779193	0.470808	0.005559
 292	1.4550e-01	2.9083	-4.206550	0.000235	2.351625	0.398376	0.004704
 293	1.4600e-01	2.9147	-4.172767	0.000338	3.377789	0.572213	0.006756
 294	1.4650e-01	2.9248	-4.167208	0.000056	0.555839	0.094162	0.001112
 295	1.4700e-01	2.9352	-4.152241	0.000150	1.496489	0.253512	0.002993
 296	1.4750e-01	2.9458	-4.116321	0.000359	3.591573	0.608429	0.007184
 297	1.4800e-01	2.9547	-4.107768	0.000086	0.855136	0.144864	0.001711
 298	1.4850e-01	2.9695	-4.087670	0.000201	2.009570	0.340430	0.004020
 299	1.4900e-01	2.9755	-4.047901	0.000398	3.976384	0.673618	0.007954
 300	1.4950e-01	2.9855	-4.040631	0.000073	0.726866	0.123134	0.001454
 301	1.5000e-01	2.9957	-4.008132	0.000325	3.249518	0.550483	0.006500
 302	1.5050e-01	3.0057	-3.988033	0.000201	2.009570	0.340430	0.004020
 303	1.5100e-01	3.0167	-3.961521	0.000265	2.650923	0.449078	0.005303
 304	1.5150e-01	3.0258	-3.949547	0.000120	1.197191	0.202810	0.002395
 305	1.5200e-01	3.0344	-3.923462	0.000261	2.608166	0.441835	0.005217
 306	1.5250e-01	3.0489	-3.887541	0.000359	3.591573	0.608429	0.007184
 307	1.5300e-01	3.0557	-3.881555	0.000060	0.598595	0.101405	0.001197
 308	1.5350e-01	3.0685	-3.858035	0.000235	2.351625	0.398376	0.004704
 309	1.5400e-01	3.0783	-3.828529	0.000295	2.950220	0.499781	0.005901
 310	1.5450e-01	3.0862	-3.789615	0.000389	3.890871	0.659131	0.007783
 311	1.5500e-01	3.0962	-3.786194	0.000034	0.342055	0.057946	0.000684
 312	1.5550e-01	3.1058	-3.768234	0.000180	1.795786	0.304214	0.003592
 313	1.5600e-01	3.1177	-3.737873	0.000304	3.035734	0.514267	0.006072
 314	1.5650e-01	3.1262	-3.725044	0.000128	1.282705	0.217296	0.002566
 315	1.5700e-01	3.1360	-3.702380	0.000227	2.266111	0.383890	0.004533
 316	1.5750e-01	3.1447	-3.666459	0.000359	3.591573	0.608429	0.007184
 317	1.5800e-01	3.1558	-3.658762	0.000077	0.769623	0.130378	0.001539
 318	1.5850e-01	3.1665	-3.635670	0.000231	2.308868	0.391133	0.004618
 319	1.5900e-01	3.1744	-3.606592	0.000291	2.907464	0.492538	0.005816
 320	1.5950e-01	3.1866	-3.571954	0.000346	3.463302	0.586699	0.006928
 321	1.6000e-01	3.1989	-3.568105	0.000038	0.384811	0.065189	0.000770
 322	1.6050e-01	3.2053	-3.544586	0.000235	2.351625	0.398376	0.004704
 323	1.6100e-01	3.2175	-3.527053	0.000175	1.753030	0.296971	0.003507
 324	1.6150e-01	3.2251	-3.492416	0.000346	3.463302	0.586699	0.006928
 325	1.6200e-01	3.2367	-3.455640	0.000368	3.677086	0.622915	0.007355
 326	1.6250e-01	3.2465	-3.466330	-0.000107	-1.068920	-0.181080	-0.002138
 327	1.6300e-01	3.2538	-3.424423	0.000419	4.190168	0.709834	0.008381
 328	1.6350e-01	3.2654	-3.395345	0.000291	2.907464	0.492538	0.005816
 329	1.6400e-01	3.2770	-3.375674	0.000197	1.966814	0.333187	0.003934
 330	1.6450e-01	3.2851	-3.358569	0.000171	1.710273	0.289728	0.003421
 331	1.6500e-01	3.2959	-3.323076	0.000355	3.548816	0.601186	0.007099
 332	1.6550e-01	3.3060	-3.314951	0.000081	0.812380	0.137621	0.001625
 333	1.6600e-01	3.3168	-3.292287	0.000227	2.266111	0.383890	0.004533
 334	1.6650e-01	3.3272	-3.280313	0.000120	1.197191	0.202810	0.002395
 335	1.6700e-01	3.3344	-3.246531	0.000338	3.377789	0.572213	0.006756
 336	1.6750e-01	3.3455	-3.222156	0.000244	2.437139	0.412862	0.004875
 337	1.6800e-01	3.3570	-3.196499	0.000257	2.565409	0.434592	0.005132
 338	1.6850e-01	3.3661	-3.163144	0.000334	3.335032	0.564970	0.006671
 339	1.6900e-01	3.3774	-3.165710	-0.000026	-0.256541	-0.043459	-0.000513
 340	1.6950e-01	3.3865	-3.120382	0.000453	4.532223	0.767779	0.009066
 341	1.7000e-01	3.3963	-3.111829	0.000086	0.855136	0.144864	0.001711
 342	1.7050e-01	3.4094	-3.081895	0.000299	2.992977	0.507024	0.005987
 343	1.7100e-01	3.4177	-3.068639	0.000133	1.325461	0.224539	0.002651
 344	1.7150e-01	3.4265	-3.054100	0.000145	1.453732	0.246269	0.002908
 345	1.7200e-01	3.4378	-3.027587	0.000265	2.650923	0.449078	0.005303
 346	1.7250e-01	3.4491	-3.018607	0.000090	0.897893	0.152107	0.001796
 347	1.7300e-01	3.4557	-2.981403	0.000372	3.719843	0.630159	0.007441
 348	1.7350e-01	3.4650	-2.953608	0.000278	2.779193	0.470808	0.005559
 349	1.7400e-01	3.4789	-2.934792	0.000188	1.881300	0.318701	0.003763
 350	1.7450e-01	3.4875	-2.907852	0.000269	2.693680	0.456322	0.005388
 351	1.7500e-01	3.4955	-2.903576	0.000043	0.427568	0.072432	0.000855
 352	1.7550e-01	3.5059	-2.867227	0.000363	3.634330	0.615672	0.007270
 353	1.7600e-01	3.5178	-2.845846	0.000214	2.137841	0.362160	0.004276
 354	1.7650e-01	3.5258	-2.821899	0.000239	2.394382	0.405619	0.004789
 355	1.7700e-01	3.5400	-2.806932	0.000150	1.496489	0.253512	0.002993
 356	1.7750e-01	3.5471	-2.788117	0.000188	1.881300	0.318701	0.003763
 357	1.7800e-01	3.5572	-2.755190	0.000329	3.292275	0.557726	0.006585
 358	1.7850e-01	3.5675	-2.753479	0.000017	0.171027	0.028973	0.000342
 359	1.7900e-01	3.5760	-2.728677	0.000248	2.479895	0.420106	0.004960
 360	1.7950e-01	3.5852	-2.686770	0.000419	4.190168	0.709834	0.008381
 361	1.8000e-01	3.5968	-2.680355	0.000064	0.641352	0.108648	0.001283
 362	1.8050e-01	3.6072	-2.667954	0.000124	1.239948	0.210053	0.002480
 363	1.8100e-01	3.6157	-2.628185	0.000398	3.976384	0.673618	0.007954
 364	1.8150e-01	3.6263	-2.612363	0.000158	1.582002	0.267998	0.003164
 365	1.8200e-01	3.6386	-2.579863	0.000325	3.249518	0.550483	0.006500
 366	1.8250e-01	3.6490	-2.572594	0.000073	0.726866	0.123134	0.001454
 367	1.8300e-01	3.6543	-2.540522	0.000321	3.206761	0.543240	0.006414
 368	1.8350e-01	3.6658	-2.515292	0.000252	2.522652	0.427349	0.005046
 369	1.8400e-01	3.6769	-2.494338	0.000210	2.095084	0.354917	0.004191
 370	1.8450e-01	3.6853	-2.468681	0.000257	2.565409	0.434592	0.005132
 371	1.8500e-01	3.6948	-2.454997	0.000137	1.368218	0.231782	0.002737
 372	1.8550e-01	3.7067	-2.435754	0.000192	1.924057	0.325944	0.003849
 373	1.8600e-01	3.7177	-2.416083	0.000197	1.966814	0.333187	0.003934
 374	1.8650e-01	3.7273	-2.397695	0.000184	1.838543	0.311458	0.003678
 375	1.8700e-01	3.7357	-2.381873	0.000158	1.582002	0.267998	0.003164
 376	1.8750e-01	3.7445	-2.341248	0.000406	4.061898	0.688104	0.008125
 377	1.8800e-01	3.7613	-2.331413	0.000098	0.983407	0.166594	0.001967
 378	1.8850e-01	3.7665	-2.304473	0.000269	2.693680	0.456322	0.005388
 379	1.8900e-01	3.7752	-2.263421	0.000410	4.104655	0.695347	0.008210
 380	1.8950e-01	3.7889	-2.270263	-0.000068	-0.684109	-0.115891	-0.001368
 381	1.9000e-01	3.7964	-2.237763	0.000325	3.249518	0.550483	0.006500
 382	1.9050e-01	3.8055	-2.228355	0.000094	0.940650	0.159350	0.001882
 383	1.9100e-01	3.8184	-2.186020	0.000423	4.232925	0.717077	0.008467
 384	1.9150e-01	3.8275	-2.174475	0.000115	1.154434	0.195566	0.002309
 385	1.9200e-01	3.8393	-2.162073	0.000124	1.239948	0.210053	0.002480
 386	1.9250e-01	3.8496	-2.128719	0.000334	3.335032	0.564970	0.006671
 387	1.9300e-01	3.8553	-2.100495	0.000282	2.821950	0.478051	0.005645
 388	1.9350e-01	3.8666	-2.085956	0.000145	1.453732	0.246269	0.002908
 389	1.9400e-01	3.8745	-2.062009	0.000239	2.394382	0.405619	0.004789
 390	1.9450e-01	3.8846	-2.035496	0.000265	2.650923	0.449078	0.005303
 391	1.9500e-01	3.8991	-2.018391	0.000171	1.710273	0.289728	0.003421
 392	1.9550e-01	3.9075	-1.995300	0.000231	2.308868	0.391133	0.004618
 393	1.9600e-01	3.9166	-1.967932	0.000274	2.736436	0.463565	0.005474
 394	1.9650e-01	3.9279	-1.944840	0.000231	2.308868	0.391133	0.004618
 395	1.9700e-01	3.9368	-1.933721	0.000111	1.111677	0.188323	0.002224
 396	1.9750e-01	3.9459	-1.924314	0.000094	0.940650	0.159350	0.001882
 397	1.9800e-01	3.9569	-1.884972	0.000393	3.933627	0.666375	0.007868
 398	1.9850e-01	3.9642	-1.858459	0.000265	2.650923	0.449078	0.005303
 399	1.9900e-01	3.9761	-1.834940	0.000235	2.351625	0.398376	0.004704
 400	1.9950e-01	3.9896	-1.816980	0.000180	1.795786	0.304214	0.003592
 401	2.0000e-01	3.9999	-1.807572	0.000094	0.940650	0.159350	0.001882
 402	2.0050e-01	4.0070	-1.780204	0.000274	2.736436	0.463565	0.005474
 403	2.0100e-01	4.0176	-1.753691	0.000265	2.650923	0.449078	0.005303
 404	2.0150e-01	4.0265	-1.743428	0.000103	1.026164	0.173837	0.002053
 405	2.0200e-01	4.0344	-1.710501	0.000329	3.292275	0.557726	0.006585
 406	2.0250e-01	4.0451	-1.690830	0.000197	1.966814	0.333187	0.003934
 407	2.0300e-01	4.0564	-1.660041	0.000308	3.078491	0.521510	0.006158
 408	2.0350e-01	4.0700	-1.651916	0.000081	0.812380	0.137621	0.001625
 409	2.0400e-01	4.0756	-1.630535	0.000214	2.137841	0.362160	0.004276
 410	2.0450e-01	4.0863	-1.599319	0.000312	3.121248	0.528754	0.006243
 411	2.0500e-01	4.0967	-1.578365	0.000210	2.095084	0.354917	0.004191
 412	2.0550e-01	4.1071	-1.562115	0.000162	1.624759	0.275242	0.003250
 413	2.0600e-01	4.1165	-1.542017	0.000201	2.009570	0.340430	0.004020
 414	2.0650e-01	4.1273	-1.522346	0.000197	1.966814	0.333187	0.003934
 415	2.0700e-01	4.1373	-1.499682	0.000227	2.266111	0.383890	0.004533
 416	2.0750e-01	4.1464	-1.468893	0.000308	3.078491	0.521510	0.006158
 417	2.0800e-01	4.1534	-1.444518	0.000244	2.437139	0.412862	0.004875
 418	2.0850e-01	4.1657	-1.423137	0.000214	2.137841	0.362160	0.004276
 419	2.0900e-01	4.1766	-1.409881	0.000133	1.325461	0.224539	0.002651
 420	2.0950e-01	4.1864	-1.386361	0.000235	2.351625	0.398376	0.004704
 421	2.1000e-01	4.1962	-1.364980	0.000214	2.137841	0.362160	0.004276
 422	2.1050e-01	4.2059	-1.347447	0.000175	1.753030	0.296971	0.003507
 423	2.1100e-01	4.2152	-1.324355	0.000231	2.308868	0.391133	0.004618
 424	2.1150e-01	4.2242	-1.302974	0.000214	2.137841	0.362160	0.004276
 425	2.1200e-01	4.2352	-1.284159	0.000188	1.881300	0.318701	0.003763
 426	2.1250e-01	4.2474	-1.262350	0.000218	2.180598	0.369403	0.004362
 427	2.1300e-01	4.2579	-1.232416	0.000299	2.992977	0.507024	0.005987
 428	2.1350e-01	4.2656	-1.219587	0.000128	1.282705	0.217296	0.002566
 429	2.1400e-01	4.2749	-1.174259	0.000453	4.532223	0.767779	0.009066
 430	2.1450e-01	4.2877	-1.176397	-0.000021	-0.213784	-0.036216	-0.000428
 431	2.1500e-01	4.2966	-1.169983	0.000064	0.641352	0.108648	0.001283
 432	2.1550e-01	4.3073	-1.118240	0.000517	5.173575	0.876427	0.010349
 433	2.1600e-01	4.3172	-1.116530	0.000017	0.171027	0.028973	0.000342
 434	2.1650e-01	4.3283	-1.090017	0.000265	2.650923	0.449078	0.005303
 435	2.1700e-01	4.3405	-1.070346	0.000197	1.966814	0.333187	0.003934
 436	2.1750e-01	4.3458	-1.041695	0.000286	2.864707	0.485294	0.005730
 437	2.1800e-01	4.3564	-1.013044	0.000286	2.864707	0.485294	0.005730
 438	2.1850e-01	4.3646	-1.009196	0.000038	0.384811	0.065189	0.000770
 439	2.1900e-01	4.3776	-0.984393	0.000248	2.479895	0.420106	0.004960
 440	2.1950e-01	4.3878	-0.957881	0.000265	2.650923	0.449078	0.005303
 441	2.2000e-01	4.3954	-0.923671	0.000342	3.420546	0.579456	0.006842
 442	2.2050e-01	4.4067	-0.914690	0.000090	0.897893	0.152107	0.001796
 443	2.2100e-01	4.4203	-0.883474	0.000312	3.121248	0.528754	0.006243
 444	2.2150e-01	4.4257	-0.864231	0.000192	1.924057	0.325944	0.003849
 445	2.2200e-01	4.4377	-0.835152	0.000291	2.907464	0.492538	0.005816
 446	2.2250e-01	4.4461	-0.819330	0.000158	1.582002	0.267998	0.003164
 447	2.2300e-01	4.4556	-0.795383	0.000239	2.394382	0.405619	0.004789
 448	2.2350e-01	4.4659	-0.781699	0.000137	1.368218	0.231782	0.002737
 449	2.2400e-01	4.4769	-0.756041	0.000257	2.565409	0.434592	0.005132
 450	2.2450e-01	4.4888	-0.748344	0.000077	0.769623	0.130378	0.001539
 451	2.2500e-01	4.4937	-0.711996	0.000363	3.634330	0.615672	0.007270
 452	2.2550e-01	4.5068	-0.699167	0.000128	1.282705	0.217296	0.002566
 453	2.2600e-01	4.5161	-0.684200	0.000150	1.496489	0.253512	0.002993
 454	2.2650e-01	4.5264	-0.645287	0.000389	3.890871	0.659131	0.007783
 455	2.2700e-01	4.5380	-0.629037	0.000162	1.624759	0.275242	0.003250
 456	2.2750e-01	4.5490	-0.626471	0.000026	0.256541	0.043459	0.000513
 457	2.2800e-01	4.5618	-0.604235	0.000222	2.223355	0.376646	0.004447
 458	2.2850e-01	4.5673	-0.569597	0.000346	3.463302	0.586699	0.006928
 459	2.2900e-01	4.5741	-0.559334	0.000103	1.026164	0.173837	0.002053
 460	2.2950e-01	4.5865	-0.512295	0.000470	4.703250	0.796752	0.009408
 461	2.3000e-01	4.5984	-0.509302	0.000030	0.299298	0.050702	0.000599
 462	2.3050e-01	4.6060	-0.485355	0.000239	2.394382	0.405619	0.004789
 463	2.3100e-01	4.6185	-0.463118	0.000222	2.223355	0.376646	0.004447
 464	2.3150e-01	4.6259	-0.441309	0.000218	2.180598	0.369403	0.004362
 465	2.3200e-01	4.6356	-0.412658	0.000286	2.864707	0.485294	0.005730
 466	2.3250e-01	4.6448	-0.403251	0.000094	0.940650	0.159350	0.001882
 467	2.3300e-01	4.6558	-0.364764	0.000385	3.848114	0.651888	0.007697
 468	2.3350e-01	4.6681	-0.352363	0.000124	1.239948	0.210053	0.002480
 469	2.3400e-01	4.6756	-0.328416	0.000239	2.394382	0.405619	0.004789
 470	2.3450e-01	4.6867	-0.320291	0.000081	0.812380	0.137621	0.001625
 471	2.3500e-01	4.6973	-0.297200	0.000231	2.308868	0.391133	0.004618
 472	2.3550e-01	4.7072	-0.289502	0.000077	0.769623	0.130378	0.001539
 473	2.3600e-01	4.7162	-0.250161	0.000393	3.933627	0.666375	0.007868
 474	2.3650e-01	4.7272	-0.223648	0.000265	2.650923	0.449078	0.005303
 475	2.3700e-01	4.7400	-0.205688	0.000180	1.795786	0.304214	0.003592
 476	2.3750e-01	4.7469	-0.190721	0.000150	1.496489	0.253512	0.002993
 477	2.3800e-01	4.7589	-0.168912	0.000218	2.180598	0.369403	0.004362
 478	2.3850e-01	4.7696	-0.147958	0.000210	2.095084	0.354917	0.004191
 479	2.3900e-01	4.7766	-0.131281	0.000167	1.667516	0.282485	0.003335
 480	2.3950e-01	4.7870	-0.097926	0.000334	3.335032	0.564970	0.006671
 481	2.4000e-01	4.7968	-0.076973	0.000210	2.095084	0.354917	0.004191
 482	2.4050e-01	4.8071	-0.061150	0.000158	1.582002	0.267998	0.003164
 483	2.4100e-01	4.8181	-0.031217	0.000299	2.992977	0.507024	0.005987
 484	2.4150e-01	4.8260	-0.018388	0.000128	1.282705	0.217296	0.002566
 485	2.4200e-01	4.8361	0.019671	0.000381	3.805357	0.644645	0.007612
 486	2.4250e-01	4.8480	0.029934	0.000103	1.026164	0.173837	0.002053
 487	2.4300e-01	4.8587	0.043190	0.000133	1.325461	0.224539	0.002651
 488	2.4350e-01	4.8663	0.059012	0.000158	1.582002	0.267998	0.003164
 489	2.4400e-01	4.8773	0.094078	0.000351	3.506059	0.593942	0.007013
 490	2.4450e-01	4.8883	0.109044	0.000150	1.496489	0.253512	0.002993
 491	2.4500e-01	4.8990	0.124011	0.000150	1.496489	0.253512	0.002993
 492	2.4550e-01	4.9078	0.146675	0.000227	2.266111	0.383890	0.004533
 493	2.4600e-01	4.9173	0.157366	0.000107	1.068920	0.181080	0.002138
 494	2.4650e-01	4.9310	0.197563	0.000402	4.019141	0.680861	0.008039
 495	2.4700e-01	4.9373	0.197991	0.000004	0.042757	0.007243	0.000086
 496	2.4750e-01	4.9482	0.234766	0.000368	3.677086	0.622915	0.007355
 497	2.4800e-01	4.9579	0.257858	0.000231	2.308868	0.391133	0.004618
 498	2.4850e-01	4.9667	0.275391	0.000175	1.753030	0.296971	0.003507
 499	2.4900e-01	4.9774	0.304042	0.000286	2.864707	0.485294	0.005730
 500	2.4950e-01	4.9890	0.328844	0.000248	2.479895	0.420106	0.004960
 501	2.5000e-01	4.9979	0.342528	0.000137	1.368218	0.231782	0.002737
 502	2.5050e-01	5.0113	0.369041	0.000265	2.650923	0.449078	0.005303
 503	2.5100e-01	5.0171	0.383580	0.000145	1.453732	0.246269	0.002908
 504	2.5150e-01	5.0262	0.404534	0.000210	2.095084	0.354917	0.004191
 505	2.5200e-01	5.0375	0.437461	0.000329	3.292275	0.557726	0.006585
 506	2.5250e-01	5.0473	0.420356	-0.000171	-1.710273	-0.289728	-0.003421
 507	2.5300e-01	5.0580	0.462263	0.000419	4.190168	0.709834	0.008381
 508	2.5350e-01	5.0674	0.487065	0.000248	2.479895	0.420106	0.004960
 509	2.5400e-01	5.0761	0.517427	0.000304	3.035734	0.514267	0.006072
 510	2.5450e-01	5.0867	0.529828	0.000124	1.239948	0.210053	0.002480
 511	2.5500e-01	5.0970	0.554202	0.000244	2.437139	0.412862	0.004875
 512	2.5550e-01	5.1086	0.563610	0.000094	0.940650	0.159350	0.001882
 513	2.5600e-01	5.1158	0.588412	0.000248	2.479895	0.420106	0.004960
 514	2.5650e-01	5.1270	0.623050	0.000346	3.463302	0.586699	0.006928
 515	2.5700e-01	5.1361	0.634168	0.000111	1.111677	0.188323	0.002224
 516	2.5750e-01	5.1448	0.661536	0.000274	2.736436	0.463565	0.005474
 517	2.5800e-01	5.1587	0.672655	0.000111	1.111677	0.188323	0.002224
 518	2.5850e-01	5.1685	0.689760	0.000171	1.710273	0.289728	0.003421
 519	2.5900e-01	5.1767	0.711996	0.000222	2.223355	0.376646	0.004447
 520	2.5950e-01	5.1863	0.753903	0.000419	4.190168	0.709834	0.008381
 521	2.6000e-01	5.1941	0.789396	0.000355	3.548816	0.601186	0.007099
 522	2.6050e-01	5.2063	0.785120	-0.000043	-0.427568	-0.072432	-0.000855
 523	2.6100e-01	5.2139	0.817620	0.000325	3.249518	0.550483	0.006500
 524	2.6150e-01	5.2260	0.822323	0.000047	0.470325	0.079675	0.000941
 525	2.6200e-01	5.2350	0.857389	0.000351	3.506059	0.593942	0.007013
 526	2.6250e-01	5.2448	0.886467	0.000291	2.907464	0.492538	0.005816
 527	2.6300e-01	5.2580	0.900151	0.000137	1.368218	0.231782	0.002737
 528	2.6350e-01	5.2698	0.910414	0.000103	1.026164	0.173837	0.002053
 529	2.6400e-01	5.2771	0.931795	0.000214	2.137841	0.362160	0.004276
 530	2.6450e-01	5.2890	0.950183	0.000184	1.838543	0.311458	0.003678
 531	2.6500e-01	5.2947	0.979262	0.000291	2.907464	0.492538	0.005816
 532	2.6550e-01	5.3110	1.001071	0.000218	2.180598	0.369403	0.004362
 533	2.6600e-01	5.3162	1.013900	0.000128	1.282705	0.217296	0.002566
 534	2.6650e-01	5.3284	1.045116	0.000312	3.121248	0.528754	0.006243
 535	2.6700e-01	5.3369	1.048965	0.000038	0.384811	0.065189	0.000770
 536	2.6750e-01	5.3473	1.081037	0.000321	3.206761	0.543240	0.006414
 537	2.6800e-01	5.3589	1.104556	0.000235	2.351625	0.398376	0.004704
 538	2.6850e-01	5.3662	1.125937	0.000214	2.137841	0.362160	0.004276
 539	2.6900e-01	5.3760	1.135773	0.000098	0.983407	0.166594	0.001967
 540	2.6950e-01	5.3888	1.160147	0.000244	2.437139	0.412862	0.004875
 541	2.7000e-01	5.3979	1.192647	0.000325	3.249518	0.550483	0.006500
 542	2.7050e-01	5.4062	1.205476	0.000128	1.282705	0.217296	0.002566
 543	2.7100e-01	5.4178	1.226002	0.000205	2.052327	0.347674	0.004105
 544	2.7150e-01	5.4272	1.244817	0.000188	1.881300	0.318701	0.003763
 545	2.7200e-01	5.4376	1.270475	0.000257	2.565409	0.434592	0.005132
 546	2.7250e-01	5.4456	1.286724	0.000162	1.624759	0.275242	0.003250
 547	2.7300e-01	5.4541	1.311954	0.000252	2.522652	0.427349	0.005046
 548	2.7350e-01	5.4657	1.327349	0.000154	1.539245	0.260755	0.003079
 549	2.7400e-01	5.4767	1.342316	0.000150	1.496489	0.253512	0.002993
 550	2.7450e-01	5.4828	1.383795	0.000415	4.147411	0.702591	0.008296
 551	2.7500e-01	5.4993	1.389355	0.000056	0.555839	0.094162	0.001112
 552	2.7550e-01	5.5066	1.416295	0.000269	2.693680	0.456322	0.005388
 553	2.7600e-01	5.5151	1.440670	0.000244	2.437139	0.412862	0.004875
 554	2.7650e-01	5.5286	1.441097	0.000004	0.042757	0.007243	0.000086
 555	2.7700e-01	5.5359	1.474452	0.000334	3.335032	0.564970	0.006671
 556	2.7750e-01	5.5481	1.495406	0.000210	2.095084	0.354917	0.004191
 557	2.7800e-01	5.5542	1.520208	0.000248	2.479895	0.420106	0.004960
 558	2.7850e-01	5.5664	1.543300	0.000231	2.308868	0.391133	0.004618
 559	2.7900e-01	5.5768	1.555701	0.000124	1.239948	0.210053	0.002480
 560	2.7950e-01	5.5865	1.571523	0.000158	1.582002	0.267998	0.003164
 561	2.8000e-01	5.5951	1.594615	0.000231	2.308868	0.391133	0.004618
 562	2.8050e-01	5.6090	1.632673	0.000381	3.805357	0.644645	0.007612
 563	2.8100e-01	5.6183	1.647213	0.000145	1.453732	0.246269	0.002908
 564	2.8150e-01	5.6273	1.661752	0.000145	1.453732	0.246269	0.002908
 565	2.8200e-01	5.6372	1.695534	0.000338	3.377789	0.572213	0.006756
 566	2.8250e-01	5.6479	1.705797	0.000103	1.026164	0.173837	0.002053
 567	2.8300e-01	5.6555	1.725896	0.000201	2.009570	0.340430	0.004020
 568	2.8350e-01	5.6668	1.740862	0.000150	1.496489	0.253512	0.002993
 569	2.8400e-01	5.6775	1.754547	0.000137	1.368218	0.231782	0.002737
 570	2.8450e-01	5.6854	1.783625	0.000291	2.907464	0.492538	0.005816
 571	2.8500e-01	5.6973	1.805862	0.000222	2.223355	0.376646	0.004447
 572	2.8550e-01	5.7059	1.835795	0.000299	2.992977	0.507024	0.005987
 573	2.8600e-01	5.7162	1.841354	0.000056	0.555839	0.094162	0.001112
 574	2.8650e-01	5.7265	1.876420	0.000351	3.506059	0.593942	0.007013
 575	2.8700e-01	5.7361	1.898656	0.000222	2.223355	0.376646	0.004447
 576	2.8750e-01	5.7465	1.896946	-0.000017	-0.171027	-0.028973	-0.000342
 577	2.8800e-01	5.7556	1.938853	0.000419	4.190168	0.709834	0.008381
 578	2.8850e-01	5.7678	1.946123	0.000073	0.726866	0.123134	0.001454
 579	2.8900e-01	5.7770	1.989740	0.000436	4.361196	0.738807	0.008724
 580	2.8950e-01	5.7861	2.002569	0.000128	1.282705	0.217296	0.002566
 581	2.9000e-01	5.7973	2.013687	0.000111	1.111677	0.188323	0.002224
 582	2.9050e-01	5.8037	2.045759	0.000321	3.206761	0.543240	0.006414
 583	2.9100e-01	5.8185	2.060726	0.000150	1.496489	0.253512	0.002993
 584	2.9150e-01	5.8264	2.085101	0.000244	2.437139	0.412862	0.004875
 585	2.9200e-01	5.8392	2.094936	0.000098	0.983407	0.166594	0.001967
 586	2.9250e-01	5.8484	2.112896	0.000180	1.795786	0.304214	0.003592
 587	2.9300e-01	5.8551	2.145396	0.000325	3.249518	0.550483	0.006500
 588	2.9350e-01	5.8667	2.155659	0.000103	1.026164	0.173837	0.002053
 589	2.9400e-01	5.8778	2.189441	0.000338	3.377789	0.572213	0.006756
 590	2.9450e-01	5.8870	2.191580	0.000021	0.213784	0.036216	0.000428
 591	2.9500e-01	5.8990	2.216809	0.000252	2.522652	0.427349	0.005046
 592	2.9550e-01	5.9082	2.255296	0.000385	3.848114	0.651888	0.007697
 593	2.9600e-01	5.9181	2.259572	0.000043	0.427568	0.072432	0.000855
 594	2.9650e-01	5.9262	2.276249	0.000167	1.667516	0.282485	0.003335
 595	2.9700e-01	5.9369	2.301907	0.000257	2.565409	0.434592	0.005132
 596	2.9750e-01	5.9467	2.322433	0.000205	2.052327	0.347674	0.004105
 597	2.9800e-01	5.9583	2.345097	0.000227	2.266111	0.383890	0.004533
 598	2.9850e-01	5.9665	2.369044	0.000239	2.394382	0.405619	0.004789
 599	2.9900e-01	5.9778	2.385721	0.000167	1.667516	0.282485	0.003335
 600	2.9950e-01	5.9860	2.413089	0.000274	2.736436	0.463565	0.005474
 601	3.0000e-01	5.9973	2.431050	0.000180	1.795786	0.304214	0.003592
 602	3.0050e-01	6.0072	2.452003	0.000210	2.095084	0.354917	0.004191
 603	3.0100e-01	6.0144	2.474667	0.000227	2.266111	0.383890	0.004533
 604	3.0150e-01	6.0260	2.496049	0.000214	2.137841	0.362160	0.004276
 605	3.0200e-01	6.0367	2.511016	0.000150	1.496489	0.253512	0.002993
 606	3.0250e-01	6.0486	2.513581	0.000026	0.256541	0.043459	0.000513
 607	3.0300e-01	6.0577	2.550357	0.000368	3.677086	0.622915	0.007355
 608	3.0350e-01	6.0681	2.567035	0.000167	1.667516	0.282485	0.003335
 609	3.0400e-01	6.0770	2.595258	0.000282	2.821950	0.478051	0.005645
 610	3.0450e-01	6.0883	2.603810	0.000086	0.855136	0.144864	0.001711
 611	3.0500e-01	6.1006	2.628613	0.000248	2.479895	0.420106	0.004960
 612	3.0550e-01	6.1050	2.646145	0.000175	1.753030	0.296971	0.003507
 613	3.0600e-01	6.1200	2.669237	0.000231	2.308868	0.391133	0.004618
 614	3.0650e-01	6.1267	2.692329	0.000231	2.308868	0.391133	0.004618
 615	3.0700e-01	6.1389	2.719269	0.000269	2.693680	0.456322	0.005388
 616	3.0750e-01	6.1499	2.731670	0.000124	1.239948	0.210053	0.002480
 617	3.0800e-01	6.1549	2.765880	0.000342	3.420546	0.579456	0.006842
 618	3.0850e-01	6.1655	2.776143	0.000103	1.026164	0.173837	0.002053
 619	3.0900e-01	6.1761	2.806932	0.000308	3.078491	0.521510	0.006158
 620	3.0950e-01	6.1841	2.832162	0.000252	2.522652	0.427349	0.005046
 621	3.1000e-01	6.1963	2.842425	0.000103	1.026164	0.173837	0.002053
 622	3.1050e-01	6.2061	2.871504	0.000291	2.907464	0.492538	0.005816
 623	3.1100e-01	6.2177	2.888609	0.000171	1.710273	0.289728	0.003421
 624	3.1150e-01	6.2268	2.910418	0.000218	2.180598	0.369403	0.004362
 625	3.1200e-01	6.2405	2.915977	0.000056	0.555839	0.094162	0.001112
 626	3.1250e-01	6.2469	2.936930	0.000210	2.095084	0.354917	0.004191
 627	3.1300e-01	6.2604	2.984824	0.000479	4.788764	0.811239	0.009579
 628	3.1350e-01	6.2677	2.989528	0.000047	0.470325	0.079675	0.000941
 629	3.1400e-01	6.2781	3.009627	0.000201	2.009570	0.340430	0.004020
 630	3.1450e-01	6.2875	3.031863	0.000222	2.223355	0.376646	0.004447
 631	3.1500e-01	6.2982	3.058804	0.000269	2.693680	0.456322	0.005388
 632	3.1550e-01	6.3080	3.059231	0.000004	0.042757	0.007243	0.000086
 633	3.1600e-01	6.3171	3.085316	0.000261	2.608166	0.441835	0.005217
 634	3.1650e-01	6.3275	3.121237	0.000359	3.591573	0.608429	0.007184
 635	3.1700e-01	6.3348	3.134066	0.000128	1.282705	0.217296	0.002566
 636	3.1750e-01	6.3464	3.166138	0.000321	3.206761	0.543240	0.006414
 637	3.1800e-01	6.3586	3.172552	0.000064	0.641352	0.108648	0.001283
 638	3.1850e-01	6.3675	3.185808	0.000133	1.325461	0.224539	0.002651
 639	3.1900e-01	6.3754	3.226860	0.000410	4.104655	0.695347	0.008210
 640	3.1950e-01	6.3873	3.233275	0.000064	0.641352	0.108648	0.001283
 641	3.2000e-01	6.3962	3.252090	0.000188	1.881300	0.318701	0.003763
 642	3.2050e-01	6.4056	3.293142	0.000410	4.104655	0.695347	0.008210
 643	3.2100e-01	6.4160	3.298274	0.000051	0.513082	0.086918	0.001026
 644	3.2150e-01	6.4264	3.311958	0.000137	1.368218	0.231782	0.002737
 645	3.2200e-01	6.4383	3.327352	0.000154	1.539245	0.260755	0.003079
 646	3.2250e-01	6.4453	3.355148	0.000278	2.779193	0.470808	0.005559
 647	3.2300e-01	6.4575	3.379095	0.000239	2.394382	0.405619	0.004789
 648	3.2350e-01	6.4661	3.403470	0.000244	2.437139	0.412862	0.004875
 649	3.2400e-01	6.4758	3.429982	0.000265	2.650923	0.449078	0.005303
 650	3.2450e-01	6.4839	3.457778	0.000278	2.779193	0.470808	0.005559
 651	3.2500e-01	6.4978	3.455212	-0.000026	-0.256541	-0.043459	-0.000513
 652	3.2550e-01	6.5088	3.470179	0.000150	1.496489	0.253512	0.002993
 653	3.2600e-01	6.5198	3.505672	0.000355	3.548816	0.601186	0.007099
 654	3.2650e-01	6.5271	3.505244	-0.000004	-0.042757	-0.007243	-0.000086
 655	3.2700e-01	6.5341	3.541165	0.000359	3.591573	0.608429	0.007184
 656	3.2750e-01	6.5485	3.562546	0.000214	2.137841	0.362160	0.004276
 657	3.2800e-01	6.5564	3.578368	0.000158	1.582002	0.267998	0.003164
 658	3.2850e-01	6.5643	3.604453	0.000261	2.608166	0.441835	0.005217
 659	3.2900e-01	6.5750	3.623697	0.000192	1.924057	0.325944	0.003849
 660	3.2950e-01	6.5881	3.651065	0.000274	2.736436	0.463565	0.005474
 661	3.3000e-01	6.5991	3.662183	0.000111	1.111677	0.188323	0.002224
 662	3.3050e-01	6.6077	3.683992	0.000218	2.180598	0.369403	0.004362
 663	3.3100e-01	6.6144	3.709222	0.000252	2.522652	0.427349	0.005046
 664	3.3150e-01	6.6263	3.728465	0.000192	1.924057	0.325944	0.003849
 665	3.3200e-01	6.6373	3.749418	0.000210	2.095084	0.354917	0.004191
 666	3.3250e-01	6.6468	3.774648	0.000252	2.522652	0.427349	0.005046
 667	3.3300e-01	6.6547	3.803299	0.000286	2.864707	0.485294	0.005730
 668	3.3350e-01	6.6638	3.820832	0.000175	1.753030	0.296971	0.003507
 669	3.3400e-01	6.6785	3.840503	0.000197	1.966814	0.333187	0.003934
 670	3.3450e-01	6.6872	3.854187	0.000137	1.368218	0.231782	0.002737
 671	3.3500e-01	6.6956	3.872147	0.000180	1.795786	0.304214	0.003592
 672	3.3550e-01	6.7065	3.901225	0.000291	2.907464	0.492538	0.005816
 673	3.3600e-01	6.7188	3.917903	0.000167	1.667516	0.282485	0.003335
 674	3.3650e-01	6.7268	3.946126	0.000282	2.821950	0.478051	0.005645
 675	3.3700e-01	6.7374	3.959810	0.000137	1.368218	0.231782	0.002737
 676	3.3750e-01	6.7444	3.988461	0.000286	2.864707	0.485294	0.005730
 677	3.3800e-01	6.7581	3.998296	0.000098	0.983407	0.166594	0.001967
 678	3.3850e-01	6.7661	4.019678	0.000214	2.137841	0.362160	0.004276
 679	3.3900e-01	6.7755	4.028230	0.000086	0.855136	0.144864	0.001711
 680	3.3950e-01	6.7859	4.075269	0.000470	4.703250	0.796752	0.009408
 681	3.4000e-01	6.7984	4.078690	0.000034	0.342055	0.057946	0.000684
 682	3.4050e-01	6.8063	4.106058	0.000274	2.736436	0.463565	0.005474
 683	3.4100e-01	6.8152	4.118887	0.000128	1.282705	0.217296	0.002566
 684	3.4150e-01	6.8271	4.150959	0.000321	3.206761	0.543240	0.006414
 685	3.4200e-01	6.8378	4.165498	0.000145	1.453732	0.246269	0.002908
 686	3.4250e-01	6.8494	4.174478	0.000090	0.897893	0.152107	0.001796
 687	3.4300e-01	6.8561	4.200563	0.000261	2.608166	0.441835	0.005217
 688	3.4350e-01	6.8665	4.209971	0.000094	0.940650	0.159350	0.001882
 689	3.4400e-01	6.8768	4.236911	0.000269	2.693680	0.456322	0.005388
 690	3.4450e-01	6.8874	4.265562	0.000286	2.864707	0.485294	0.005730
 691	3.4500e-01	6.8982	4.271976	0.000064	0.641352	0.108648	0.001283
 692	3.4550e-01	6.9061	4.320726	0.000487	4.874277	0.825725	0.009750
 693	3.4600e-01	6.9186	4.333982	0.000133	1.325461	0.224539	0.002651
 694	3.4650e-01	6.9293	4.351087	0.000171	1.710273	0.289728	0.003421
 695	3.4700e-01	6.9373	4.355363	0.000043	0.427568	0.072432	0.000855
 696	3.4750e-01	6.9466	4.390001	0.000346	3.463302	0.586699	0.006928
 697	3.4800e-01	6.9543	4.411382	0.000214	2.137841	0.362160	0.004276
 698	3.4850e-01	6.9662	4.422928	0.000115	1.154434	0.195566	0.002309
 699	3.4900e-01	6.9775	4.456711	0.000338	3.377789	0.572213	0.006756
 700	3.4950e-01	6.9855	4.472533	0.000158	1.582002	0.267998	0.003164
 701	3.5000e-01	6.9977	4.496052	0.000235	2.351625	0.398376	0.004704
 702	3.5050e-01	7.0068	4.509309	0.000133	1.325461	0.224539	0.002651
 703	3.5100e-01	7.0184	4.527696	0.000184	1.838543	0.311458	0.003678
 704	3.5150e-01	7.0276	4.564472	0.000368	3.677086	0.622915	0.007355
 705	3.5200e-01	7.0381	4.582005	0.000175	1.753030	0.296971	0.003507
 706	3.5250e-01	7.0465	4.594406	0.000124	1.239948	0.210053	0.002480
 707	3.5300e-01	7.0581	4.614077	0.000197	1.966814	0.333187	0.003934
 708	3.5350e-01	7.0667	4.639307	0.000252	2.522652	0.427349	0.005046
 709	3.5400e-01	7.0753	4.643155	0.000038	0.384811	0.065189	0.000770
 710	3.5450e-01	7.0868	4.671379	0.000282	2.821950	0.478051	0.005645
 711	3.5500e-01	7.0963	4.691049	0.000197	1.966814	0.333187	0.003934
 712	3.5550e-01	7.1069	4.715852	0.000248	2.479895	0.420106	0.004960
 713	3.5600e-01	7.1149	4.738516	0.000227	2.266111	0.383890	0.004533
 714	3.5650e-01	7.1259	4.747068	0.000086	0.855136	0.144864	0.001711
 715	3.5700e-01	7.1375	4.779568	0.000325	3.249518	0.550483	0.006500
 716	3.5750e-01	7.1472	4.799238	0.000197	1.966814	0.333187	0.003934
 717	3.5800e-01	7.1581	4.813350	0.000141	1.410975	0.239026	0.002822
 718	3.5850e-01	7.1674	4.837725	0.000244	2.437139	0.412862	0.004875
 719	3.5900e-01	7.1803	4.855685	0.000180	1.795786	0.304214	0.003592
 720	3.5950e-01	7.1854	4.883053	0.000274	2.736436	0.463565	0.005474
 721	3.6000e-01	7.1985	4.900158	0.000171	1.710273	0.289728	0.003421
 722	3.6050e-01	7.2070	4.918546	0.000184	1.838543	0.311458	0.003678
 723	3.6100e-01	7.2171	4.939072	0.000205	2.052327	0.347674	0.004105
 724	3.6150e-01	7.2272	4.965585	0.000265	2.650923	0.449078	0.005303
 725	3.6200e-01	7.2366	4.988249	0.000227	2.266111	0.383890	0.004533
 726	3.6250e-01	7.2480	5.000650	0.000124	1.239948	0.210053	0.002480
 727	3.6300e-01	7.2571	5.021604	0.000210	2.095084	0.354917	0.004191
 728	3.6350e-01	7.2690	5.054103	0.000325	3.249518	0.550483	0.006500
 729	3.6400e-01	7.2778	5.071208	0.000171	1.710273	0.289728	0.003421
 730	3.6450e-01	7.2876	5.092589	0.000214	2.137841	0.362160	0.004276
 731	3.6500e-01	7.2986	5.109267	0.000167	1.667516	0.282485	0.003335
 732	3.6550e-01	7.3077	5.128938	0.000197	1.966814	0.333187	0.003934
 733	3.6600e-01	7.3138	5.174693	0.000457	4.574980	0.775023	0.009151
 734	3.6650e-01	7.3285	5.164430	-0.000103	-1.026164	-0.173837	-0.002053
 735	3.6700e-01	7.3370	5.200351	0.000359	3.591573	0.608429	0.007184
 736	3.6750e-01	7.3462	5.215745	0.000154	1.539245	0.260755	0.003079
 737	3.6800e-01	7.3584	5.236699	0.000210	2.095084	0.354917	0.004191
 738	3.6850e-01	7.3663	5.246534	0.000098	0.983407	0.166594	0.001967
 739	3.6900e-01	7.3761	5.270909	0.000244	2.437139	0.412862	0.004875
 740	3.6950e-01	7.3871	5.285876	0.000150	1.496489	0.253512	0.002993
 741	3.7000e-01	7.3972	5.321369	0.000355	3.548816	0.601186	0.007099
 742	3.7050e-01	7.4045	5.341895	0.000205	2.052327	0.347674	0.004105
 743	3.7100e-01	7.4170	5.369263	0.000274	2.736436	0.463565	0.005474
 744	3.7150e-01	7.4261	5.392782	0.000235	2.351625	0.398376	0.004704
 745	3.7200e-01	7.4384	5.397914	0.000051	0.513082	0.086918	0.001026
 746	3.7250e-01	7.4460	5.418867	0.000210	2.095084	0.354917	0.004191
 747	3.7300e-01	7.4573	5.438111	0.000192	1.924057	0.325944	0.003849
 748	3.7350e-01	7.4689	5.465906	0.000278	2.779193	0.470808	0.005559
 749	3.7400e-01	7.4759	5.474031	0.000081	0.812380	0.137621	0.001625
 750	3.7450e-01	7.4878	5.509952	0.000359	3.591573	0.608429	0.007184
 751	3.7500e-01	7.4939	5.522353	0.000124	1.239948	0.210053	0.002480
 752	3.7550e-01	7.5050	5.561267	0.000389	3.890871	0.659131	0.007783
 753	3.7600e-01	7.5180	5.570247	0.000090	0.897893	0.152107	0.001796
 754	3.7650e-01	7.5269	5.574523	0.000043	0.427568	0.072432	0.000855
 755	3.7700e-01	7.5372	5.613437	0.000389	3.890871	0.659131	0.007783
 756	3.7750e-01	7.5473	5.624128	0.000107	1.068920	0.181080	0.002138
 757	3.7800e-01	7.5574	5.654917	0.000308	3.078491	0.521510	0.006158
 758	3.7850e-01	7.5665	5.666890	0.000120	1.197191	0.202810	0.002395
 759	3.7900e-01	7.5732	5.713074	0.000462	4.617736	0.782266	0.009237
 760	3.7950e-01	7.5854	5.722054	0.000090	0.897893	0.152107	0.001796
 761	3.8000e-01	7.5983	5.731462	0.000094	0.940650	0.159350	0.001882
 762	3.8050e-01	7.6071	5.744718	0.000133	1.325461	0.224539	0.002651
 763	3.8100e-01	7.6172	5.775935	0.000312	3.121248	0.528754	0.006243
 764	3.8150e-01	7.6251	5.796888	0.000210	2.095084	0.354917	0.004191
 765	3.8200e-01	7.6361	5.805013	0.000081	0.812380	0.137621	0.001625
 766	3.8250e-01	7.6489	5.829815	0.000248	2.479895	0.420106	0.004960
 767	3.8300e-01	7.6563	5.859749	0.000299	2.992977	0.507024	0.005987
 768	3.8350e-01	7.6654	5.868302	0.000086	0.855136	0.144864	0.001711
 769	3.8400e-01	7.6776	5.902512	0.000342	3.420546	0.579456	0.006842
 770	3.8450e-01	7.6874	5.920472	0.000180	1.795786	0.304214	0.003592
 771	3.8500e-01	7.6984	5.945274	0.000248	2.479895	0.420106	0.004960
 772	3.8550e-01	7.7058	5.961952	0.000167	1.667516	0.282485	0.003335
 773	3.8600e-01	7.7156	5.976491	0.000145	1.453732	0.246269	0.002908
 774	3.8650e-01	7.7260	5.997444	0.000210	2.095084	0.354917	0.004191
 775	3.8700e-01	7.7368	6.015832	0.000184	1.838543	0.311458	0.003678
 776	3.8750e-01	7.7466	6.046621	0.000308	3.078491	0.521510	0.006158
 777	3.8800e-01	7.7588	6.058167	0.000115	1.154434	0.195566	0.002309
 778	3.8850e-01	7.7655	6.094088	0.000359	3.591573	0.608429	0.007184
 779	3.8900e-01	7.7765	6.112903	0.000188	1.881300	0.318701	0.003763
 780	3.8950e-01	7.7869	6.128298	0.000154	1.539245	0.260755	0.003079
 781	3.9000e-01	7.7951	6.136850	0.000086	0.855136	0.144864	0.001711
 782	3.9050e-01	7.8064	6.168922	0.000321	3.206761	0.543240	0.006414
 783	3.9100e-01	7.8189	6.203132	0.000342	3.420546	0.579456	0.006842
 784	3.9150e-01	7.8262	6.207836	0.000047	0.470325	0.079675	0.000941
 785	3.9200e-01	7.8381	6.238625	0.000308	3.078491	0.521510	0.006158
 786	3.9250e-01	7.8467	6.253164	0.000145	1.453732	0.246269	0.002908
 787	3.9300e-01	7.8564	6.271125	0.000180	1.795786	0.304214	0.003592
 788	3.9350e-01	7.8702	6.290368	0.000192	1.924057	0.325944	0.003849
 789	3.9400e-01	7.8763	6.316453	0.000261	2.608166	0.441835	0.005217
 790	3.9450e-01	7.8870	6.331420	0.000150	1.496489	0.253512	0.002993
 791	3.9500e-01	7.8986	6.360926	0.000295	2.950220	0.499781	0.005901
 792	3.9550e-01	7.9071	6.372044	0.000111	1.111677	0.188323	0.002224
 793	3.9600e-01	7.9156	6.392998	0.000210	2.095084	0.354917	0.004191
 794	3.9650e-01	7.9267	6.414379	0.000214	2.137841	0.362160	0.004276
 795	3.9700e-01	7.9352	6.446451	0.000321	3.206761	0.543240	0.006414
 796	3.9750e-01	7.9468	6.466122	0.000197	1.966814	0.333187	0.003934
 797	3.9800e-01	7.9562	6.480233	0.000141	1.410975	0.239026	0.002822
 798	3.9850e-01	7.9663	6.508457	0.000282	2.821950	0.478051	0.005645
 799	3.9900e-01	7.9770	6.536252	0.000278	2.779193	0.470808	0.005559
 800	3.9950e-01	7.9883	6.562337	0.000261	2.608166	0.441835	0.005217
 801	4.0000e-01	7.9974	6.570462	0.000081	0.812380	0.137621	0.001625
 802	4.0050e-01	8.0054	6.599113	0.000286	2.864707	0.485294	0.005730
 803	4.0100e-01	8.0153	6.623916	0.000248	2.479895	0.420106	0.004960
 804	4.0150e-01	8.0237	6.644014	0.000201	2.009570	0.340430	0.004020
 805	4.0200e-01	8.0371	6.670099	0.000261	2.608166	0.441835	0.005217
 806	4.0250e-01	8.0481	6.695329	0.000252	2.522652	0.427349	0.005046
 807	4.0300e-01	8.0560	6.704737	0.000094	0.940650	0.159350	0.001882
 808	4.0350e-01	8.0676	6.727828	0.000231	2.308868	0.391133	0.004618
 809	4.0400e-01	8.0762	6.749637	0.000218	2.180598	0.369403	0.004362
 810	4.0450e-01	8.0861	6.759045	0.000094	0.940650	0.159350	0.001882
 811	4.0500e-01	8.0956	6.779571	0.000205	2.052327	0.347674	0.004105
 812	4.0550e-01	8.1061	6.812498	0.000329	3.292275	0.557726	0.006585
 813	4.0600e-01	8.1158	6.827893	0.000154	1.539245	0.260755	0.003079
 814	4.0650e-01	8.1256	6.845425	0.000175	1.753030	0.296971	0.003507
 815	4.0700e-01	8.1384	6.861675	0.000162	1.624759	0.275242	0.003250
 816	4.0750e-01	8.1473	6.884339	0.000227	2.266111	0.383890	0.004533
 817	4.0800e-01	8.1580	6.904438	0.000201	2.009570	0.340430	0.004020
 818	4.0850e-01	8.1667	6.921115	0.000167	1.667516	0.282485	0.003335
 819	4.0900e-01	8.1781	6.951049	0.000299	2.992977	0.507024	0.005987
 820	4.0950e-01	8.1882	6.967299	0.000162	1.624759	0.275242	0.003250
 821	4.1000e-01	8.1982	7.001081	0.000338	3.377789	0.572213	0.006756
 822	4.1050e-01	8.2104	7.003647	0.000026	0.256541	0.043459	0.000513
 823	4.1100e-01	8.2149	7.039140	0.000355	3.548816	0.601186	0.007099
 824	4.1150e-01	8.2263	7.052824	0.000137	1.368218	0.231782	0.002737
 825	4.1200e-01	8.2422	7.084468	0.000316	3.164005	0.535997	0.006329
 826	4.1250e-01	8.2471	7.093448	0.000090	0.897893	0.152107	0.001796
 827	4.1300e-01	8.2538	7.126375	0.000329	3.292275	0.557726	0.006585
 828	4.1350e-01	8.2672	7.131934	0.000056	0.555839	0.094162	0.001112
 829	4.1400e-01	8.2782	7.164006	0.000321	3.206761	0.543240	0.006414
 830	4.1450e-01	8.2892	7.181966	0.000180	1.795786	0.304214	0.003592
 831	4.1500e-01	8.2971	7.207196	0.000252	2.522652	0.427349	0.005046
 832	4.1550e-01	8.3057	7.218742	0.000115	1.154434	0.195566	0.002309
 833	4.1600e-01	8.3154	7.264926	0.000462	4.617736	0.782266	0.009237
 834	4.1650e-01	8.3282	7.279037	0.000141	1.410975	0.239026	0.002822
 835	4.1700e-01	8.3374	7.295715	0.000167	1.667516	0.282485	0.003335
 836	4.1750e-01	8.3472	7.314103	0.000184	1.838543	0.311458	0.003678
 837	4.1800e-01	8.3548	7.345319	0.000312	3.121248	0.528754	0.006243
 838	4.1850e-01	8.3679	7.371404	0.000261	2.608166	0.441835	0.005217
 839	4.1900e-01	8.3789	7.381667	0.000103	1.026164	0.173837	0.002053
 840	4.1950e-01	8.3868	7.395779	0.000141	1.410975	0.239026	0.002822
 841	4.2000e-01	8.3960	7.421009	0.000252	2.522652	0.427349	0.005046
 842	4.2050e-01	8.4064	7.452226	0.000312	3.121248	0.528754	0.006243
 843	4.2100e-01	8.4155	7.474890	0.000227	2.266111	0.383890	0.004533
 844	4.2150e-01	8.4290	7.488574	0.000137	1.368218	0.231782	0.002737
 845	4.2200e-01	8.4375	7.498409	0.000098	0.983407	0.166594	0.001967
 846	4.2250e-01	8.4480	7.533474	0.000351	3.506059	0.593942	0.007013
 847	4.2300e-01	8.4564	7.556139	0.000227	2.266111	0.383890	0.004533
 848	4.2350e-01	8.4686	7.568112	0.000120	1.197191	0.202810	0.002395
 849	4.2400e-01	8.4779	7.589066	0.000210	2.095084	0.354917	0.004191
 850	4.2450e-01	8.4888	7.620282	0.000312	3.121248	0.528754	0.006243
 851	4.2500e-01	8.4967	7.633111	0.000128	1.282705	0.217296	0.002566
 852	4.2550e-01	8.5104	7.664755	0.000316	3.164005	0.535997	0.006329
 853	4.2600e-01	8.5165	7.675018	0.000103	1.026164	0.173837	0.002053
 854	4.2650e-01	8.5281	7.699821	0.000248	2.479895	0.420106	0.004960
 855	4.2700e-01	8.5382	7.731465	0.000316	3.164005	0.535997	0.006329
 856	4.2750e-01	8.5461	7.740445	0.000090	0.897893	0.152107	0.001796
 857	4.2800e-01	8.5556	7.780214	0.000398	3.976384	0.673618	0.007954
 858	4.2850e-01	8.5669	7.785773	0.000056	0.555839	0.094162	0.001112
 859	4.2900e-01	8.5757	7.805872	0.000201	2.009570	0.340430	0.004020
 860	4.2950e-01	8.5913	7.837088	0.000312	3.121248	0.528754	0.006243
 861	4.3000e-01	8.5983	7.850345	0.000133	1.325461	0.224539	0.002651
 862	4.3050e-01	8.6032	7.884982	0.000346	3.463302	0.586699	0.006928
 863	4.3100e-01	8.6182	7.892680	0.000077	0.769623	0.130378	0.001539
 864	4.3150e-01	8.6267	7.920903	0.000282	2.821950	0.478051	0.005645
 865	4.3200e-01	8.6371	7.941857	0.000210	2.095084	0.354917	0.004191
 866	4.3250e-01	8.6475	7.958106	0.000162	1.624759	0.275242	0.003250
 867	4.3300e-01	8.6560	7.984619	0.000265	2.650923	0.449078	0.005303
 868	4.3350e-01	8.6670	8.013270	0.000286	2.864707	0.485294	0.005730
 869	4.3400e-01	8.6768	8.032513	0.000192	1.924057	0.325944	0.003849
 870	4.3450e-01	8.6853	8.060736	0.000282	2.821950	0.478051	0.005645
 871	4.3500e-01	8.6969	8.082973	0.000222	2.223355	0.376646	0.004447
 872	4.3550e-01	8.7061	8.101788	0.000188	1.881300	0.318701	0.003763
 873	4.3600e-01	8.7195	8.122742	0.000210	2.095084	0.354917	0.004191
 874	4.3650e-01	8.7268	8.148400	0.000257	2.565409	0.434592	0.005132
 875	4.3700e-01	8.7366	8.154386	0.000060	0.598595	0.101405	0.001197
 876	4.3750e-01	8.7482	8.187741	0.000334	3.335032	0.564970	0.006671
 877	4.3800e-01	8.7585	8.217247	0.000295	2.950220	0.499781	0.005901
 878	4.3850e-01	8.7695	8.230504	0.000133	1.325461	0.224539	0.002651
 879	4.3900e-01	8.7781	8.256161	0.000257	2.565409	0.434592	0.005132
 880	4.3950e-01	8.7885	8.272839	0.000167	1.667516	0.282485	0.003335
 881	4.4000e-01	8.7988	8.303628	0.000308	3.078491	0.521510	0.006158
 882	4.4050e-01	8.8062	8.320305	0.000167	1.667516	0.282485	0.003335
 883	4.4100e-01	8.8159	8.335272	0.000150	1.496489	0.253512	0.002993
 884	4.4150e-01	8.8300	8.348101	0.000128	1.282705	0.217296	0.002566
 885	4.4200e-01	8.8385	8.384449	0.000363	3.634330	0.615672	0.007270
 886	4.4250e-01	8.8470	8.417804	0.000334	3.335032	0.564970	0.006671
 887	4.4300e-01	8.8568	8.425928	0.000081	0.812380	0.137621	0.001625
 888	4.4350e-01	8.8660	8.446882	0.000210	2.095084	0.354917	0.004191
 889	4.4400e-01	8.8751	8.479382	0.000325	3.249518	0.550483	0.006500
 890	4.4450e-01	8.8885	8.497342	0.000180	1.795786	0.304214	0.003592
 891	4.4500e-01	8.8965	8.508032	0.000107	1.068920	0.181080	0.002138
 892	4.4550e-01	8.9069	8.542242	0.000342	3.420546	0.579456	0.006842
 893	4.4600e-01	8.9160	8.565334	0.000231	2.308868	0.391133	0.004618
 894	4.4650e-01	8.9282	8.594840	0.000295	2.950220	0.499781	0.005901
 895	4.4700e-01	8.9374	8.596123	0.000013	0.128270	0.021730	0.000257
 896	4.4750e-01	8.9484	8.629050	0.000329	3.292275	0.557726	0.006585
 897	4.4800e-01	8.9539	8.658129	0.000291	2.907464	0.492538	0.005816
 898	4.4850e-01	8.9639	8.683786	0.000257	2.565409	0.434592	0.005132
 899	4.4900e-01	8.9746	8.708161	0.000244	2.437139	0.412862	0.004875
 900	4.4950e-01	8.9850	8.714148	0.000060	0.598595	0.101405	0.001197
 901	4.5000e-01	8.9996	8.749213	0.000351	3.506059	0.593942	0.007013
 902	4.5050e-01	9.0070	8.774871	0.000257	2.565409	0.434592	0.005132
 903	4.5100e-01	9.0149	8.780002	0.000051	0.513082	0.086918	0.001026
 904	4.5150e-01	9.0253	8.806943	0.000269	2.693680	0.456322	0.005388
 905	4.5200e-01	9.0369	8.833455	0.000265	2.650923	0.449078	0.005303
 906	4.5250e-01	9.0472	8.851843	0.000184	1.838543	0.311458	0.003678
 907	4.5300e-01	9.0552	8.873652	0.000218	2.180598	0.369403	0.004362
 908	4.5350e-01	9.0698	8.910855	0.000372	3.719843	0.630159	0.007441
 909	4.5400e-01	9.0778	8.927533	0.000167	1.667516	0.282485	0.003335
 910	4.5450e-01	9.0869	8.938223	0.000107	1.068920	0.181080	0.002138
 911	4.5500e-01	9.0961	8.980986	0.000428	4.275682	0.724320	0.008553
 912	4.5550e-01	9.1052	8.994242	0.000133	1.325461	0.224539	0.002651
 913	4.5600e-01	9.1147	9.015624	0.000214	2.137841	0.362160	0.004276
 914	4.5650e-01	9.1278	9.038288	0.000227	2.266111	0.383890	0.004533
 915	4.5700e-01	9.1364	9.053682	0.000154	1.539245	0.260755	0.003079
 916	4.5750e-01	9.1464	9.070360	0.000167	1.667516	0.282485	0.003335
 917	4.5800e-01	9.1565	9.113122	0.000428	4.275682	0.724320	0.008553
 918	4.5850e-01	9.1650	9.132793	0.000197	1.966814	0.333187	0.003934
 919	4.5900e-01	9.1779	9.153319	0.000205	2.052327	0.347674	0.004105
 920	4.5950e-01	9.1858	9.184536	0.000312	3.121248	0.528754	0.006243
 921	4.6000e-01	9.1943	9.217035	0.000325	3.249518	0.550483	0.006500
 922	4.6050e-01	9.2065	9.224305	0.000073	0.726866	0.123134	0.001454
 923	4.6100e-01	9.2151	9.237989	0.000137	1.368218	0.231782	0.002737
 924	4.6150e-01	9.2261	9.273054	0.000351	3.506059	0.593942	0.007013
 925	4.6200e-01	9.2377	9.306836	0.000338	3.377789	0.572213	0.006756
 926	4.6250e-01	9.2493	9.309402	0.000026	0.256541	0.043459	0.000513
 927	4.6300e-01	9.2572	9.331211	0.000218	2.180598	0.369403	0.004362
 928	4.6350e-01	9.2676	9.369270	0.000381	3.805357	0.644645	0.007612
 929	4.6400e-01	9.2786	9.376112	0.000068	0.684109	0.115891	0.001368
 930	4.6450e-01	9.2865	9.398348	0.000222	2.223355	0.376646	0.004447
 931	4.6500e-01	9.2957	9.435552	0.000372	3.719843	0.630159	0.007441
 932	4.6550e-01	9.3054	9.459071	0.000235	2.351625	0.398376	0.004704
 933	4.6600e-01	9.3176	9.479597	0.000205	2.052327	0.347674	0.004105
 934	4.6650e-01	9.3280	9.494136	0.000145	1.453732	0.246269	0.002908
 935	4.6700e-01	9.3353	9.530912	0.000368	3.677086	0.622915	0.007355
 936	4.6750e-01	9.3463	9.555714	0.000248	2.479895	0.420106	0.004960
 937	4.6800e-01	9.3564	9.578379	0.000227	2.266111	0.383890	0.004533
 938	4.6850e-01	9.3665	9.582655	0.000043	0.427568	0.072432	0.000855
 939	4.6900e-01	9.3768	9.616010	0.000334	3.335032	0.564970	0.006671
 940	4.6950e-01	9.3866	9.638246	0.000222	2.223355	0.376646	0.004447
 941	4.7000e-01	9.3982	9.672028	0.000338	3.377789	0.572213	0.006756
 942	4.7050e-01	9.4055	9.681864	0.000098	0.983407	0.166594	0.001967
 943	4.7100e-01	9.4165	9.712653	0.000308	3.078491	0.521510	0.006158
 944	4.7150e-01	9.4250	9.731041	0.000184	1.838543	0.311458	0.003678
 945	4.7200e-01	9.4354	9.764396	0.000334	3.335032	0.564970	0.006671
 946	4.7250e-01	9.4476	9.793046	0.000286	2.864707	0.485294	0.005730
 947	4.7300e-01	9.4580	9.804592	0.000115	1.154434	0.195566	0.002309
 948	4.7350e-01	9.4672	9.816993	0.000124	1.239948	0.210053	0.002480
 949	4.7400e-01	9.4745	9.852059	0.000351	3.506059	0.593942	0.007013
 950	4.7450e-01	9.4861	9.887552	0.000355	3.548816	0.601186	0.007099
 951	4.7500e-01	9.4958	9.909360	0.000218	2.180598	0.369403	0.004362
 952	4.7550e-01	9.5074	9.930742	0.000214	2.137841	0.362160	0.004276
 953	4.7600e-01	9.5178	9.939294	0.000086	0.855136	0.144864	0.001711
 954	4.7650e-01	9.5258	9.991465	0.000522	5.216332	0.883671	0.010434
 955	4.7700e-01	9.5355	10.007714	0.000162	1.624759	0.275242	0.003250
 956	4.7750e-01	9.5471	10.032944	0.000252	2.522652	0.427349	0.005046
 957	4.7800e-01	9.5557	10.044062	0.000111	1.111677	0.188323	0.002224
 958	4.7850e-01	9.5642	10.084687	0.000406	4.061898	0.688104	0.008125
 959	4.7900e-01	9.5764	10.108206	0.000235	2.351625	0.398376	0.004704
 960	4.7950e-01	9.5892	10.120607	0.000124	1.239948	0.210053	0.002480
 961	4.8000e-01	9.5972	10.132581	0.000120	1.197191	0.202810	0.002395
 962	4.8050e-01	9.6045	10.174488	0.000419	4.190168	0.709834	0.008381
 963	4.8100e-01	9.6155	10.192021	0.000175	1.753030	0.296971	0.003507
 964	4.8150e-01	9.6268	10.245046	0.000530	5.301846	0.898157	0.010605
 965	4.8200e-01	9.6350	10.241198	-0.000038	-0.384811	-0.065189	-0.000770
 966	4.8250e-01	9.6460	10.265145	0.000239	2.394382	0.405619	0.004789
 967	4.8300e-01	9.6558	10.283105	0.000180	1.795786	0.304214	0.003592
 968	4.8350e-01	9.6683	10.320308	0.000372	3.719843	0.630159	0.007441
 969	4.8400e-01	9.6777	10.348532	0.000282	2.821950	0.478051	0.005645
 970	4.8450e-01	9.6893	10.349387	0.000009	0.085514	0.014486	0.000171
 971	4.8500e-01	9.6954	10.397281	0.000479	4.788764	0.811239	0.009579
 972	4.8550e-01	9.7046	10.416096	0.000188	1.881300	0.318701	0.003763
 973	4.8600e-01	9.7168	10.444320	0.000282	2.821950	0.478051	0.005645
 974	4.8650e-01	9.7266	10.454155	0.000098	0.983407	0.166594	0.001967
 975	4.8700e-01	9.7363	10.486655	0.000325	3.249518	0.550483	0.006500
 976	4.8750e-01	9.7491	10.511885	0.000252	2.522652	0.427349	0.005046
 977	4.8800e-01	9.7577	10.534121	0.000222	2.223355	0.376646	0.004447
 978	4.8850e-01	9.7681	10.569614	0.000355	3.548816	0.601186	0.007099
 979	4.8900e-01	9.7766	10.609811	0.000402	4.019141	0.680861	0.008039
 980	4.8950e-01	9.7858	10.615370	0.000056	0.555839	0.094162	0.001112
 981	4.9000e-01	9.7974	10.653001	0.000376	3.762600	0.637402	0.007526
 982	4.9050e-01	9.8047	10.667540	0.000145	1.453732	0.246269	0.002908
 983	4.9100e-01	9.8151	10.702605	0.000351	3.506059	0.593942	0.007013
 984	4.9150e-01	9.8254	10.718428	0.000158	1.582002	0.267998	0.003164
 985	4.9200e-01	9.8380	10.753065	0.000346	3.463302	0.586699	0.006928
 986	4.9250e-01	9.8476	10.774874	0.000218	2.180598	0.369403	0.004362
 987	4.9300e-01	9.8572	10.791551	0.000167	1.667516	0.282485	0.003335
 988	4.9350e-01	9.8660	10.825334	0.000338	3.377789	0.572213	0.006756
 989	4.9400e-01	9.8767	10.845860	0.000205	2.052327	0.347674	0.004105
 990	4.9450e-01	9.8859	10.875794	0.000299	2.992977	0.507024	0.005987
 991	4.9500e-01	9.8950	10.908293	0.000325	3.249518	0.550483	0.006500
 992	4.9550e-01	9.9054	10.920694	0.000124	1.239948	0.210053	0.002480
 993	4.9600e-01	9.9152	10.945497	0.000248	2.479895	0.420106	0.004960
 994	4.9650e-01	9.9249	10.984410	0.000389	3.890871	0.659131	0.007783
 995	4.9700e-01	9.9356	11.006219	0.000218	2.180598	0.369403	0.004362
 996	4.9750e-01	9.9438	11.020759	0.000145	1.453732	0.246269	0.002908
 997	4.9800e-01	9.9561	11.060528	0.000398	3.976384	0.673618	0.007954
 998	4.9850e-01	9.9658	11.082337	0.000218	2.180598	0.369403	0.004362
 999	4.9900e-01	9.9768	11.112698	0.000304	3.035734	0.514267	0.006072
1000	4.9950e-01	9.9863	11.132796	0.000201	2.009570	0.340430	0.004020
1001	5.0000e-01	9.9976	11.146053	0.000133	1.325461	0.224539	0.002651
1002	5.0050e-01	9.9854	11.143487	0.000026	0.256541	0.043459	-0.000513
1003	5.0100e-01	9.9768	11.128093	0.000154	1.539245	0.260755	-0.003079
1004	5.0150e-01	9.9670	11.127665	0.000004	0.042757	0.007243	-0.000086
1005	5.0200e-01	9.9579	11.107567	0.000201	2.009570	0.340430	-0.004020
1006	5.0250e-01	9.9469	11.108849	-0.000013	-0.128270	-0.021730	0.000257
1007	5.0300e-01	9.9390	11.109705	-0.000009	-0.085514	-0.014486	0.000171
1008	5.0350e-01	9.9255	11.088323	0.000214	2.137841	0.362160	-0.004276
1009	5.0400e-01	9.9176	11.099014	-0.000107	-1.068920	-0.181080	0.002138
1010	5.0450e-01	9.9048	11.076350	0.000227	2.266111	0.383890	-0.004533
1011	5.0500e-01	9.8975	11.090889	-0.000145	-1.453732	-0.246269	0.002908
1012	5.0550e-01	9.8865	11.057534	0.000334	3.335032	0.564970	-0.006671
1013	5.0600e-01	9.8755	11.062666	-0.000051	-0.513082	-0.086918	0.001026
1014	5.0650e-01	9.8657	11.022041	0.000406	4.061898	0.688104	-0.008125
1015	5.0700e-01	9.8532	11.038291	-0.000162	-1.624759	-0.275242	0.003250
1016	5.0750e-01	9.8462	11.020331	0.000180	1.795786	0.304214	-0.003592
1017	5.0800e-01	9.8364	11.022041	-0.000017	-0.171027	-0.028973	0.000342
1018	5.0850e-01	9.8254	11.005364	0.000167	1.667516	0.282485	-0.003335
1019	5.0900e-01	9.8148	11.004936	0.000004	0.042757	0.007243	-0.000086
1020	5.0950e-01	9.8059	10.996384	0.000086	0.855136	0.144864	-0.001711
1021	5.1000e-01	9.7946	10.994673	0.000017	0.171027	0.028973	-0.000342
1022	5.1050e-01	9.7864	10.956615	0.000381	3.805357	0.644645	-0.007612
1023	5.1100e-01	9.7784	10.957042	-0.000004	-0.042757	-0.007243	0.000086
1024	5.1150e-01	9.7659	10.954049	0.000030	0.299298	0.050702	-0.000599
1025	5.1200e-01	9.7577	10.954904	-0.000009	-0.085514	-0.014486	0.000171
1026	5.1250e-01	9.7473	10.944641	0.000103	1.026164	0.173837	-0.002053
1027	5.1300e-01	9.7375	10.926253	0.000184	1.838543	0.311458	-0.003678
1028	5.1350e-01	9.7253	10.901879	0.000244	2.437139	0.412862	-0.004875
1029	5.1400e-01	9.7211	10.902734	-0.000009	-0.085514	-0.014486	0.000171
1030	5.1450e-01	9.7049	10.889478	0.000133	1.325461	0.224539	-0.002651
1031	5.1500e-01	9.6960	10.889050	0.000004	0.042757	0.007243	-0.000086
1032	5.1550e-01	9.6875	10.883491	0.000056	0.555839	0.094162	-0.001112
1033	5.1600e-01	9.6790	10.860399	0.000231	2.308868	0.391133	-0.004618
1034	5.1650e-01	9.6667	10.846715	0.000137	1.368218	0.231782	-0.002737
1035	5.1700e-01	9.6582	10.828755	0.000180	1.795786	0.304214	-0.003592
1036	5.1750e-01	9.6484	10.820202	0.000086	0.855136	0.144864	-0.001711
1037	5.1800e-01	9.6381	10.807801	0.000124	1.239948	0.210053	-0.002480
1038	5.1850e-01	9.6271	10.798821	0.000090	0.897893	0.152107	-0.001796
1039	5.1900e-01	9.6167	10.792407	0.000064	0.641352	0.108648	-0.001283
1040	5.1950e-01	9.6063	10.787275	0.000051	0.513082	0.086918	-0.001026
1041	5.2000e-01	9.5984	10.783854	0.000034	0.342055	0.057946	-0.000684
1042	5.2050e-01	9.5880	10.767177	0.000167	1.667516	0.282485	-0.003335
1043	5.2100e-01	9.5746	10.754776	0.000124	1.239948	0.210053	-0.002480
1044	5.2150e-01	9.5673	10.736388	0.000184	1.838543	0.311458	-0.003678
1045	5.2200e-01	9.5572	10.718000	0.000184	1.838543	0.311458	-0.003678
1046	5.2250e-01	9.5477	10.707309	0.000107	1.068920	0.181080	-0.002138
1047	5.2300e-01	9.5361	10.683362	0.000239	2.394382	0.405619	-0.004789
1048	5.2350e-01	9.5264	10.679941	0.000034	0.342055	0.057946	-0.000684
1049	5.2400e-01	9.5160	10.665402	0.000145	1.453732	0.246269	-0.002908
1050	5.2450e-01	9.5050	10.660698	0.000047	0.470325	0.079675	-0.000941
1051	5.2500e-01	9.4977	10.639744	0.000210	2.095084	0.354917	-0.004191
1052	5.2550e-01	9.4879	10.635041	0.000047	0.470325	0.079675	-0.000941
1053	5.2600e-01	9.4763	10.625633	0.000094	0.940650	0.159350	-0.001882
1054	5.2650e-01	9.4678	10.618363	0.000073	0.726866	0.123134	-0.001454
1055	5.2700e-01	9.4586	10.614515	0.000038	0.384811	0.065189	-0.000770
1056	5.2750e-01	9.4482	10.599120	0.000154	1.539245	0.260755	-0.003079
1057	5.2800e-01	9.4373	10.579449	0.000197	1.966814	0.333187	-0.003934
1058	5.2850e-01	9.4275	10.562344	0.000171	1.710273	0.289728	-0.003421
1059	5.2900e-01	9.4177	10.550371	0.000120	1.197191	0.202810	-0.002395
1060	5.2950e-01	9.4086	10.544812	0.000056	0.555839	0.094162	-0.001112
1061	5.3000e-01	9.3988	10.522575	0.000222	2.223355	0.376646	-0.004447
1062	5.3050e-01	9.3878	10.520437	0.000021	0.213784	0.036216	-0.000428
1063	5.3100e-01	9.3762	10.499056	0.000214	2.137841	0.362160	-0.004276
1064	5.3150e-01	9.3671	10.479385	0.000197	1.966814	0.333187	-0.003934
1065	5.3200e-01	9.3616	10.461852	0.000175	1.753030	0.296971	-0.003507
1066	5.3250e-01	9.3488	10.458004	0.000038	0.384811	0.065189	-0.000770
1067	5.3300e-01	9.3384	10.443037	0.000150	1.496489	0.253512	-0.002993
1068	5.3350e-01	9.3262	10.431063	0.000120	1.197191	0.202810	-0.002395
1069	5.3400e-01	9.3158	10.415669	0.000154	1.539245	0.260755	-0.003079
1070	5.3450e-01	9.3057	10.434057	-0.000184	-1.838543	-0.311458	0.003678
1071	5.3500e-01	9.2975	10.403268	0.000308	3.078491	0.521510	-0.006158
1072	5.3550e-01	9.2865	10.382742	0.000205	2.052327	0.347674	-0.004105
1073	5.3600e-01	9.2755	10.375472	0.000073	0.726866	0.123134	-0.001454
1074	5.3650e-01	9.2676	10.345966	0.000295	2.950220	0.499781	-0.005901
1075	5.3700e-01	9.2566	10.358367	-0.000124	-1.239948	-0.210053	0.002480
1076	5.3750e-01	9.2444	10.352808	0.000056	0.555839	0.094162	-0.001112
1077	5.3800e-01	9.2352	10.326295	0.000265	2.650923	0.449078	-0.005303
1078	5.3850e-01	9.2270	10.294223	0.000321	3.206761	0.543240	-0.006414
1079	5.3900e-01	9.2163	10.287381	0.000068	0.684109	0.115891	-0.001368
1080	5.3950e-01	9.2065	10.285671	0.000017	0.171027	0.028973	-0.000342
1081	5.4000e-01	9.1986	10.265145	0.000205	2.052327	0.347674	-0.004105
1082	5.4050e-01	9.1876	10.232645	0.000325	3.249518	0.550483	-0.006500
1083	5.4100e-01	9.1748	10.231362	0.000013	0.128270	0.021730	-0.000257
1084	5.4150e-01	9.1666	10.218534	0.000128	1.282705	0.217296	-0.002566
1085	5.4200e-01	9.1586	10.205277	0.000133	1.325461	0.224539	-0.002651
1086	5.4250e-01	9.1492	10.197152	0.000081	0.812380	0.137621	-0.001625
1087	5.4300e-01	9.1370	10.171922	0.000252	2.522652	0.427349	-0.005046
1088	5.4350e-01	9.1254	10.162942	0.000090	0.897893	0.152107	-0.001796
1089	5.4400e-01	9.1187	10.151396	0.000115	1.154434	0.195566	-0.002309
1090	5.4450e-01	9.1052	10.135574	0.000158	1.582002	0.267998	-0.003164
1091	5.4500e-01	9.0961	10.134719	0.000009	0.085514	0.014486	-0.000171
1092	5.4550e-01	9.0869	10.109061	0.000257	2.565409	0.434592	-0.005132
1093	5.4600e-01	9.0759	10.096233	0.000128	1.282705	0.217296	-0.002566
1094	5.4650e-01	9.0656	10.062878	0.000334	3.335032	0.564970	-0.006671
1095	5.4700e-01	9.0582	10.069292	-0.000064	-0.641352	-0.108648	0.001283
1096	5.4750e-01	9.0482	10.046628	0.000227	2.266111	0.383890	-0.004533
1097	5.4800e-01	9.0369	10.034655	0.000120	1.197191	0.202810	-0.002395
1098	5.4850e-01	9.0259	10.028668	0.000060	0.598595	0.101405	-0.001197
1099	5.4900e-01	9.0161	10.011135	0.000175	1.753030	0.296971	-0.003507
1100	5.4950e-01	9.0070	9.982484	0.000286	2.864707	0.485294	-0.005730
1101	5.5000e-01	8.9954	9.980774	0.000017	0.171027	0.028973	-0.000342
1102	5.5050e-01	8.9868	9.963241	0.000175	1.753030	0.296971	-0.003507
1103	5.5100e-01	8.9764	9.952978	0.000103	1.026164	0.173837	-0.002053
1104	5.5150e-01	8.9673	9.936729	0.000162	1.624759	0.275242	-0.003250
1105	5.5200e-01	8.9545	9.911499	0.000252	2.522652	0.427349	-0.005046
1106	5.5250e-01	8.9478	9.900380	0.000111	1.111677	0.188323	-0.002224
1107	5.5300e-01	8.9362	9.892683	0.000077	0.769623	0.130378	-0.001539
1108	5.5350e-01	8.9270	9.873440	0.000192	1.924057	0.325944	-0.003849
1109	5.5400e-01	8.9178	9.859328	0.000141	1.410975	0.239026	-0.002822
1110	5.5450e-01	8.9063	9.836664	0.000227	2.266111	0.383890	-0.004533
1111	5.5500e-01	8.8959	9.835381	0.000013	0.128270	0.021730	-0.000257
1112	5.5550e-01	8.8849	9.829822	0.000056	0.555839	0.094162	-0.001112
1113	5.5600e-01	8.8751	9.803737	0.000261	2.608166	0.441835	-0.005217
1114	5.5650e-01	8.8660	9.782783	0.000210	2.095084	0.354917	-0.004191
1115	5.5700e-01	8.8562	9.765678	0.000171	1.710273	0.289728	-0.003421
1116	5.5750e-01	8.8489	9.761402	0.000043	0.427568	0.072432	-0.000855
1117	5.5800e-01	8.8354	9.738738	0.000227	2.266111	0.383890	-0.004533
1118	5.5850e-01	8.8269	9.735317	0.000034	0.342055	0.057946	-0.000684
1119	5.5900e-01	8.8159	9.743870	-0.000086	-0.855136	-0.144864	0.001711
1120	5.5950e-01	8.8049	9.707949	0.000359	3.591573	0.608429	-0.007184
1121	5.6000e-01	8.7952	9.699824	0.000081	0.812380	0.137621	-0.001625
1122	5.6050e-01	8.7872	9.687423	0.000124	1.239948	0.210053	-0.002480
1123	5.6100e-01	8.7769	9.659627	0.000278	2.779193	0.470808	-0.005559
1124	5.6150e-01	8.7659	9.645088	0.000145	1.453732	0.246269	-0.002908
1125	5.6200e-01	8.7579	9.615582	0.000295	2.950220	0.499781	-0.005901
1126	5.6250e-01	8.7457	9.605319	0.000103	1.026164	0.173837	-0.002053
1127	5.6300e-01	8.7378	9.588642	0.000167	1.667516	0.282485	-0.003335
1128	5.6350e-01	8.7265	9.580517	0.000081	0.812380	0.137621	-0.001625
1129	5.6400e-01	8.7164	9.559563	0.000210	2.095084	0.354917	-0.004191
1130	5.6450e-01	8.7061	9.549300	0.000103	1.026164	0.173837	-0.002053
1131	5.6500e-01	8.6996	9.544169	0.000051	0.513082	0.086918	-0.001026
1132	5.6550e-01	8.6859	9.509103	0.000351	3.506059	0.593942	-0.007013
1133	5.6600e-01	8.6768	9.513379	-0.000043	-0.427568	-0.072432	0.000855
1134	5.6650e-01	8.6661	9.496702	0.000167	1.667516	0.282485	-0.003335
1135	5.6700e-01	8.6566	9.456078	0.000406	4.061898	0.688104	-0.008125
1136	5.6750e-01	8.6456	9.452657	0.000034	0.342055	0.057946	-0.000684
1137	5.6800e-01	8.6346	9.429565	0.000231	2.308868	0.391133	-0.004618
1138	5.6850e-01	8.6249	9.425289	0.000043	0.427568	0.072432	-0.000855
1139	5.6900e-01	8.6176	9.402197	0.000231	2.308868	0.391133	-0.004618
1140	5.6950e-01	8.6102	9.391079	0.000111	1.111677	0.188323	-0.002224
1141	5.7000e-01	8.5968	9.375257	0.000158	1.582002	0.267998	-0.003164
1142	5.7050e-01	8.5870	9.367559	0.000077	0.769623	0.130378	-0.001539
1143	5.7100e-01	8.5767	9.339764	0.000278	2.779193	0.470808	-0.005559
1144	5.7150e-01	8.5657	9.335060	0.000047	0.470325	0.079675	-0.000941
1145	5.7200e-01	8.5559	9.316672	0.000184	1.838543	0.311458	-0.003678
1146	5.7250e-01	8.5489	9.303843	0.000128	1.282705	0.217296	-0.002566
1147	5.7300e-01	8.5370	9.278613	0.000252	2.522652	0.427349	-0.005046
1148	5.7350e-01	8.5284	9.264929	0.000137	1.368218	0.231782	-0.002737
1149	5.7400e-01	8.5172	9.245686	0.000192	1.924057	0.325944	-0.003849
1150	5.7450e-01	8.5077	9.229436	0.000162	1.624759	0.275242	-0.003250
1151	5.7500e-01	8.4967	9.211048	0.000184	1.838543	0.311458	-0.003678
1152	5.7550e-01	8.4842	9.205489	0.000056	0.555839	0.094162	-0.001112
1153	5.7600e-01	8.4778	9.179832	0.000257	2.565409	0.434592	-0.005132
1154	5.7650e-01	8.4644	9.167431	0.000124	1.239948	0.210053	-0.002480
1155	5.7700e-01	8.4589	9.154174	0.000133	1.325461	0.224539	-0.002651
1156	5.7750e-01	8.4467	9.142201	0.000120	1.197191	0.202810	-0.002395
1157	5.7800e-01	8.4357	9.105425	0.000368	3.677086	0.622915	-0.007355
1158	5.7850e-01	8.4253	9.110556	-0.000051	-0.513082	-0.086918	0.001026
1159	5.7900e-01	8.4174	9.076774	0.000338	3.377789	0.572213	-0.006756
1160	5.7950e-01	8.4064	9.066083	0.000107	1.068920	0.181080	-0.002138
1161	5.8000e-01	8.3994	9.056248	0.000098	0.983407	0.166594	-0.001967
1162	5.8050e-01	8.3905	9.032729	0.000235	2.351625	0.398376	-0.004704
1163	5.8100e-01	8.3765	9.014341	0.000184	1.838543	0.311458	-0.003678
1164	5.8150e-01	8.3667	8.998091	0.000162	1.624759	0.275242	-0.003250
1165	5.8200e-01	8.3569	8.986545	0.000115	1.154434	0.195566	-0.002309
1166	5.8250e-01	8.3472	8.975427	0.000111	1.111677	0.188323	-0.002224
1167	5.8300e-01	8.3368	8.961315	0.000141	1.410975	0.239026	-0.002822
1168	5.8350e-01	8.3270	8.931381	0.000299	2.992977	0.507024	-0.005987
1169	5.8400e-01	8.3142	8.934802	-0.000034	-0.342055	-0.057946	0.000684
1170	5.8450e-01	8.3066	8.923684	0.000111	1.111677	0.188323	-0.002224
1171	5.8500e-01	8.2983	8.891612	0.000321	3.206761	0.543240	-0.006414
1172	5.8550e-01	8.2867	8.871514	0.000201	2.009570	0.340430	-0.004020
1173	5.8600e-01	8.2758	8.858685	0.000128	1.282705	0.217296	-0.002566
1174	5.8650e-01	8.2666	8.840725	0.000180	1.795786	0.304214	-0.003592
1175	5.8700e-01	8.2526	8.819344	0.000214	2.137841	0.362160	-0.004276
1176	5.8750e-01	8.2501	8.808653	0.000107	1.068920	0.181080	-0.002138
1177	5.8800e-01	8.2373	8.784278	0.000244	2.437139	0.412862	-0.004875
1178	5.8850e-01	8.2269	8.784706	-0.000004	-0.042757	-0.007243	0.000086
1179	5.8900e-01	8.2153	8.752634	0.000321	3.206761	0.543240	-0.006414
1180	5.8950e-01	8.2056	8.751779	0.000009	0.085514	0.014486	-0.000171
1181	5.9000e-01	8.1976	8.735529	0.000162	1.624759	0.275242	-0.003250
1182	5.9050e-01	8.1854	8.723128	0.000124	1.239948	0.210053	-0.002480
1183	5.9100e-01	8.1781	8.681648	0.000415	4.147411	0.702591	-0.008296
1184	5.9150e-01	8.1650	8.673523	0.000081	0.812380	0.137621	-0.001625
1185	5.9200e-01	8.1561	8.661122	0.000124	1.239948	0.210053	-0.002480
1186	5.9250e-01	8.1494	8.645300	0.000158	1.582002	0.267998	-0.003164
1187	5.9300e-01	8.1415	8.620498	0.000248	2.479895	0.420106	-0.004960
1188	5.9350e-01	8.1268	8.595268	0.000252	2.522652	0.427349	-0.005046
1189	5.9400e-01	8.1183	8.593130	0.000021	0.213784	0.036216	-0.000428
1190	5.9450e-01	8.1070	8.561913	0.000312	3.121248	0.528754	-0.006243
1191	5.9500e-01	8.0966	8.561913	-0.000000	-0.000000	-0.000000	0.000000
1192	5.9550e-01	8.0872	8.551650	0.000103	1.026164	0.173837	-0.002053
1193	5.9600e-01	8.0780	8.532835	0.000188	1.881300	0.318701	-0.003763
1194	5.9650e-01	8.0673	8.502046	0.000308	3.078491	0.521510	-0.006158
1195	5.9700e-01	8.0585	8.493921	0.000081	0.812380	0.137621	-0.001625
1196	5.9750e-01	8.0475	8.469974	0.000239	2.394382	0.405619	-0.004789
1197	5.9800e-01	8.0383	8.451158	0.000188	1.881300	0.318701	-0.003763
1198	5.9850e-01	8.0255	8.445172	0.000060	0.598595	0.101405	-0.001197
1199	5.9900e-01	8.0191	8.408823	0.000363	3.634330	0.615672	-0.007270
1200	5.9950e-01	8.0054	8.409679	-0.000009	-0.085514	-0.014486	0.000171
1201	6.0000e-01	8.0005	8.406258	0.000034	0.342055	0.057946	-0.000684
1202	6.0050e-01	7.9871	8.363923	0.000423	4.232925	0.717077	-0.008467
1203	6.0100e-01	7.9749	8.346818	0.000171	1.710273	0.289728	-0.003421
1204	6.0150e-01	7.9663	8.345107	0.000017	0.171027	0.028973	-0.000342
1205	6.0200e-01	7.9553	8.327147	0.000180	1.795786	0.304214	-0.003592
1206	6.0250e-01	7.9443	8.310897	0.000162	1.624759	0.275242	-0.003250
1207	6.0300e-01	7.9359	8.309614	0.000013	0.128270	0.021730	-0.000257
1208	6.0350e-01	7.9269	8.276687	0.000329	3.292275	0.557726	-0.006585
1209	6.0400e-01	7.9178	8.247609	0.000291	2.907464	0.492538	-0.005816
1210	6.0450e-01	7.9071	8.236063	0.000115	1.154434	0.195566	-0.002309
1211	6.0500e-01	7.8961	8.222806	0.000133	1.325461	0.224539	-0.002651
1212	6.0550e-01	7.8882	8.200570	0.000222	2.223355	0.376646	-0.004447
1213	6.0600e-01	7.8769	8.183893	0.000167	1.667516	0.282485	-0.003335
1214	6.0650e-01	7.8668	8.168070	0.000158	1.582002	0.267998	-0.003164
1215	6.0700e-01	7.8571	8.157807	0.000103	1.026164	0.173837	-0.002053
1216	6.0750e-01	7.8473	8.124453	0.000334	3.335032	0.564970	-0.006671
1217	6.0800e-01	7.8360	8.107348	0.000171	1.710273	0.289728	-0.003421
1218	6.0850e-01	7.8247	8.102644	0.000047	0.470325	0.079675	-0.000941
1219	6.0900e-01	7.8159	8.088960	0.000137	1.368218	0.231782	-0.002737
1220	6.0950e-01	7.8076	8.053039	0.000359	3.591573	0.608429	-0.007184
1221	6.1000e-01	7.7982	8.044487	0.000086	0.855136	0.144864	-0.001711
1222	6.1050e-01	7.7863	8.031230	0.000133	1.325461	0.224539	-0.002651
1223	6.1100e-01	7.7789	8.013698	0.000175	1.753030	0.296971	-0.003507
1224	6.1150e-01	7.7661	7.994455	0.000192	1.924057	0.325944	-0.003849
1225	6.1200e-01	7.7545	7.976067	0.000184	1.838543	0.311458	-0.003678
1226	6.1250e-01	7.7448	7.958106	0.000180	1.795786	0.304214	-0.003592
1227	6.1300e-01	7.7356	7.933732	0.000244	2.437139	0.412862	-0.004875
1228	6.1350e-01	7.7258	7.914489	0.000192	1.924057	0.325944	-0.003849
1229	6.1400e-01	7.7170	7.905081	0.000094	0.940650	0.159350	-0.001882
1230	6.1450e-01	7.7097	7.879423	0.000257	2.565409	0.434592	-0.005132
1231	6.1500e-01	7.6947	7.870443	0.000090	0.897893	0.152107	-0.001796
1232	6.1550e-01	7.6855	7.843930	0.000265	2.650923	0.449078	-0.005303
1233	6.1600e-01	7.6761	7.836661	0.000073	0.726866	0.123134	-0.001454
1234	6.1650e-01	7.6691	7.825543	0.000111	1.111677	0.188323	-0.002224
1235	6.1700e-01	7.6550	7.796036	0.000295	2.950220	0.499781	-0.005901
1236	6.1750e-01	7.6492	7.781069	0.000150	1.496489	0.253512	-0.002993
1237	6.1800e-01	7.6349	7.764392	0.000167	1.667516	0.282485	-0.003335
1238	6.1850e-01	7.6276	7.746859	0.000175	1.753030	0.296971	-0.003507
1239	6.1900e-01	7.6196	7.723768	0.000231	2.308868	0.391133	-0.004618
1240	6.1950e-01	7.6077	7.698965	0.000248	2.479895	0.420106	-0.004960
1241	6.2000e-01	7.5964	7.695117	0.000038	0.384811	0.065189	-0.000770
1242	6.2050e-01	7.5861	7.678012	0.000171	1.710273	0.289728	-0.003421
1243	6.2100e-01	7.5787	7.667749	0.000103	1.026164	0.173837	-0.002053
1244	6.2150e-01	7.5684	7.626269	0.000415	4.147411	0.702591	-0.008296
1245	6.2200e-01	7.5549	7.633111	-0.000068	-0.684109	-0.115891	0.001368
1246	6.2250e-01	7.5470	7.619000	0.000141	1.410975	0.239026	-0.002822
1247	6.2300e-01	7.5360	7.594625	0.000244	2.437139	0.412862	-0.004875
1248	6.2350e-01	7.5264	7.571961	0.000227	2.266111	0.383890	-0.004533
1249	6.2400e-01	7.5214	7.548869	0.000231	2.308868	0.391133	-0.004618
1250	6.2450e-01	7.5085	7.533474	0.000154	1.539245	0.260755	-0.003079
1251	6.2500e-01	7.4969	7.503541	0.000299	2.992977	0.507024	-0.005987
1252	6.2550e-01	7.4872	7.497126	0.000064	0.641352	0.108648	-0.001283
1253	6.2600e-01	7.4756	7.489001	0.000081	0.812380	0.137621	-0.001625
1254	6.2650e-01	7.4646	7.462916	0.000261	2.608166	0.441835	-0.005217
1255	6.2700e-01	7.4561	7.436404	0.000265	2.650923	0.449078	-0.005303
1256	6.2750e-01	7.4475	7.422720	0.000137	1.368218	0.231782	-0.002737
1257	6.2800e-01	7.4353	7.401766	0.000210	2.095084	0.354917	-0.004191
1258	6.2850e-01	7.4274	7.397490	0.000043	0.427568	0.072432	-0.000855
1259	6.2900e-01	7.4188	7.364990	0.000325	3.249518	0.550483	-0.006500
1260	6.2950e-01	7.4048	7.369694	-0.000047	-0.470325	-0.079675	0.000941
1261	6.3000e-01	7.3932	7.360286	0.000094	0.940650	0.159350	-0.001882
1262	6.3050e-01	7.3865	7.316241	0.000440	4.403952	0.746050	-0.008809
1263	6.3100e-01	7.3782	7.287162	0.000291	2.907464	0.492538	-0.005816
1264	6.3150e-01	7.3657	7.288018	-0.000009	-0.085514	-0.014486	0.000171
1265	6.3200e-01	7.3553	7.276044	0.000120	1.197191	0.202810	-0.002395
1266	6.3250e-01	7.3480	7.260222	0.000158	1.582002	0.267998	-0.003164
1267	6.3300e-01	7.3370	7.229433	0.000308	3.078491	0.521510	-0.006158
1268	6.3350e-01	7.3248	7.208907	0.000205	2.052327	0.347674	-0.004105
1269	6.3400e-01	7.3181	7.195650	0.000133	1.325461	0.224539	-0.002651
1270	6.3450e-01	7.3050	7.171703	0.000239	2.394382	0.405619	-0.004789
1271	6.3500e-01	7.2931	7.173842	-0.000021	-0.213784	-0.036216	0.000428
1272	6.3550e-01	7.2876	7.140914	0.000329	3.292275	0.557726	-0.006585
1273	6.3600e-01	7.2760	7.130224	0.000107	1.068920	0.181080	-0.002138
1274	6.3650e-01	7.2653	7.103283	0.000269	2.693680	0.456322	-0.005388
1275	6.3700e-01	7.2583	7.084896	0.000184	1.838543	0.311458	-0.003678
1276	6.3750e-01	7.2461	7.078054	0.000068	0.684109	0.115891	-0.001368
1277	6.3800e-01	7.2388	7.064370	0.000137	1.368218	0.231782	-0.002737
1278	6.3850e-01	7.2275	7.029732	0.000346	3.463302	0.586699	-0.006928
1279	6.3900e-01	7.2180	7.026311	0.000034	0.342055	0.057946	-0.000684
1280	6.3950e-01	7.2055	6.989963	0.000363	3.634330	0.615672	-0.007270
1281	6.4000e-01	7.1973	6.977134	0.000128	1.282705	0.217296	-0.002566
1282	6.4050e-01	7.1881	6.971575	0.000056	0.555839	0.094162	-0.001112
1283	6.4100e-01	7.1790	6.936082	0.000355	3.548816	0.601186	-0.007099
1284	6.4150e-01	7.1677	6.924108	0.000120	1.197191	0.202810	-0.002395
1285	6.4200e-01	7.1613	6.901872	0.000222	2.223355	0.376646	-0.004447
1286	6.4250e-01	7.1472	6.895885	0.000060	0.598595	0.101405	-0.001197
1287	6.4300e-01	7.1356	6.867234	0.000286	2.864707	0.485294	-0.005730
1288	6.4350e-01	7.1246	6.844998	0.000222	2.223355	0.376646	-0.004447
1289	6.4400e-01	7.1173	6.845853	-0.000009	-0.085514	-0.014486	0.000171
1290	6.4450e-01	7.1066	6.819340	0.000265	2.650923	0.449078	-0.005303
1291	6.4500e-01	7.0978	6.787268	0.000321	3.206761	0.543240	-0.006414
1292	6.4550e-01	7.0862	6.779143	0.000081	0.812380	0.137621	-0.001625
1293	6.4600e-01	7.0755	6.751775	0.000274	2.736436	0.463565	-0.005474
1294	6.4650e-01	7.0660	6.742795	0.000090	0.897893	0.152107	-0.001796
1295	6.4700e-01	7.0569	6.728684	0.000141	1.410975	0.239026	-0.002822
1296	6.4750e-01	7.0486	6.696612	0.000321	3.206761	0.543240	-0.006414
1297	6.4800e-01	7.0367	6.685066	0.000115	1.154434	0.195566	-0.002309
1298	6.4850e-01	7.0282	6.664540	0.000205	2.052327	0.347674	-0.004105
1299	6.4900e-01	7.0172	6.647863	0.000167	1.667516	0.282485	-0.003335
1300	6.4950e-01	7.0068	6.626909	0.000210	2.095084	0.354917	-0.004191
1301	6.5000e-01	6.9965	6.618784	0.000081	0.812380	0.137621	-0.001625
1302	6.5050e-01	6.9873	6.585857	0.000329	3.292275	0.557726	-0.006585
1303	6.5100e-01	6.9775	6.579015	0.000068	0.684109	0.115891	-0.001368
1304	6.5150e-01	6.9666	6.554213	0.000248	2.479895	0.420106	-0.004960
1305	6.5200e-01	6.9562	6.544377	0.000098	0.983407	0.166594	-0.001967
1306	6.5250e-01	6.9476	6.516154	0.000282	2.821950	0.478051	-0.005645
1307	6.5300e-01	6.9385	6.485365	0.000308	3.078491	0.521510	-0.006158
1308	6.5350e-01	6.9254	6.497766	-0.000124	-1.239948	-0.210053	0.002480
1309	6.5400e-01	6.9159	6.466977	0.000308	3.078491	0.521510	-0.006158
1310	6.5450e-01	6.9038	6.451583	0.000154	1.539245	0.260755	-0.003079
1311	6.5500e-01	6.8958	6.431057	0.000205	2.052327	0.347674	-0.004105
1312	6.5550e-01	6.8890	6.408392	0.000227	2.266111	0.383890	-0.004533
1313	6.5600e-01	6.8744	6.378459	0.000299	2.992977	0.507024	-0.005987
1314	6.5650e-01	6.8646	6.376748	0.000017	0.171027	0.028973	-0.000342
1315	6.5700e-01	6.8556	6.361781	0.000150	1.496489	0.253512	-0.002993
1316	6.5750e-01	6.8477	6.342110	0.000197	1.966814	0.333187	-0.003934
1317	6.5800e-01	6.8379	6.311749	0.000304	3.035734	0.514267	-0.006072
1318	6.5850e-01	6.8246	6.307473	0.000043	0.427568	0.072432	-0.000855
1319	6.5900e-01	6.8167	6.283953	0.000235	2.351625	0.398376	-0.004704
1320	6.5950e-01	6.8091	6.260434	0.000235	2.351625	0.398376	-0.004704
1321	6.6000e-01	6.7966	6.239480	0.000210	2.095084	0.354917	-0.004191
1322	6.6050e-01	6.7865	6.224941	0.000145	1.453732	0.246269	-0.002908
1323	6.6100e-01	6.7769	6.209547	0.000154	1.539245	0.260755	-0.003079
1324	6.6150e-01	6.7691	6.176192	0.000334	3.335032	0.564970	-0.006671
1325	6.6200e-01	6.7596	6.162080	0.000141	1.410975	0.239026	-0.002822
1326	6.6250e-01	6.7468	6.156093	0.000060	0.598595	0.101405	-0.001197
1327	6.6300e-01	6.7358	6.141982	0.000141	1.410975	0.239026	-0.002822
1328	6.6350e-01	6.7242	6.130008	0.000120	1.197191	0.202810	-0.002395
1329	6.6400e-01	6.7184	6.091094	0.000389	3.890871	0.659131	-0.007783
1330	6.6450e-01	6.7078	6.062871	0.000282	2.821950	0.478051	-0.005645
1331	6.6500e-01	6.6968	6.047904	0.000150	1.496489	0.253512	-0.002993
1332	6.6550e-01	6.6867	6.035931	0.000120	1.197191	0.202810	-0.002395
1333	6.6600e-01	6.6754	6.026951	0.000090	0.897893	0.152107	-0.001796
1334	6.6650e-01	6.6672	6.007707	0.000192	1.924057	0.325944	-0.003849
1335	6.6700e-01	6.6565	5.974780	0.000329	3.292275	0.557726	-0.006585
1336	6.6750e-01	6.6467	5.948268	0.000265	2.650923	0.449078	-0.005303
1337	6.6800e-01	6.6364	5.948268	-0.000000	-0.000000	-0.000000	0.000000
1338	6.6850e-01	6.6269	5.924748	0.000235	2.351625	0.398376	-0.004704
1339	6.6900e-01	6.6162	5.906788	0.000180	1.795786	0.304214	-0.003592
1340	6.6950e-01	6.6055	5.886690	0.000201	2.009570	0.340430	-0.004020
1341	6.7000e-01	6.5944	5.881130	0.000056	0.555839	0.094162	-0.001112
1342	6.7050e-01	6.5884	5.846920	0.000342	3.420546	0.579456	-0.006842
1343	6.7100e-01	6.5755	5.840934	0.000060	0.598595	0.101405	-0.001197
1344	6.7150e-01	6.5656	5.796033	0.000449	4.489466	0.760536	-0.008980
1345	6.7200e-01	6.5582	5.803730	-0.000077	-0.769623	-0.130378	0.001539
1346	6.7250e-01	6.5456	5.768237	0.000355	3.548816	0.601186	-0.007099
1347	6.7300e-01	6.5369	5.743007	0.000252	2.522652	0.427349	-0.005046
1348	6.7350e-01	6.5265	5.728468	0.000145	1.453732	0.246269	-0.002908
1349	6.7400e-01	6.5149	5.713929	0.000145	1.453732	0.246269	-0.002908
1350	6.7450e-01	6.5057	5.693403	0.000205	2.052327	0.347674	-0.004105
1351	6.7500e-01	6.4957	5.662186	0.000312	3.121248	0.528754	-0.006243
1352	6.7550e-01	6.4850	5.662186	-0.000000	-0.000000	-0.000000	0.000000
1353	6.7600e-01	6.4758	5.642088	0.000201	2.009570	0.340430	-0.004020
1354	6.7650e-01	6.4679	5.616858	0.000252	2.522652	0.427349	-0.005046
1355	6.7700e-01	6.4566	5.583503	0.000334	3.335032	0.564970	-0.006671
1356	6.7750e-01	6.4474	5.576234	0.000073	0.726866	0.123134	-0.001454
1357	6.7800e-01	6.4362	5.553997	0.000222	2.223355	0.376646	-0.004447
1358	6.7850e-01	6.4282	5.524919	0.000291	2.907464	0.492538	-0.005816
1359	6.7900e-01	6.4178	5.510807	0.000141	1.410975	0.239026	-0.002822
1360	6.7950e-01	6.4066	5.500116	0.000107	1.068920	0.181080	-0.002138
1361	6.8000e-01	6.3968	5.480873	0.000192	1.924057	0.325944	-0.003849
1362	6.8050e-01	6.3864	5.465906	0.000150	1.496489	0.253512	-0.002993
1363	6.8100e-01	6.3779	5.437683	0.000282	2.821950	0.478051	-0.005645
1364	6.8150e-01	6.3681	5.424427	0.000133	1.325461	0.224539	-0.002651
1365	6.8200e-01	6.3556	5.415019	0.000094	0.940650	0.159350	-0.001882
1366	6.8250e-01	6.3464	5.396203	0.000188	1.881300	0.318701	-0.003763
1367	6.8300e-01	6.3373	5.375250	0.000210	2.095084	0.354917	-0.004191
1368	6.8350e-01	6.3232	5.352586	0.000227	2.266111	0.383890	-0.004533
1369	6.8400e-01	6.3181	5.329494	0.000231	2.308868	0.391133	-0.004618
1370	6.8450e-01	6.3058	5.312389	0.000171	1.710273	0.289728	-0.003421
1371	6.8500e-01	6.2949	5.316237	-0.000038	-0.384811	-0.065189	0.000770
1372	6.8550e-01	6.2866	5.265778	0.000505	5.045305	0.854698	-0.010092
1373	6.8600e-01	6.2750	5.263212	0.000026	0.256541	0.043459	-0.000513
1374	6.8650e-01	6.2659	5.247817	0.000154	1.539245	0.260755	-0.003079
1375	6.8700e-01	6.2567	5.225153	0.000227	2.266111	0.383890	-0.004533
1376	6.8750e-01	6.2436	5.198213	0.000269	2.693680	0.456322	-0.005388
1377	6.8800e-01	6.2411	5.182391	0.000158	1.582002	0.267998	-0.003164
1378	6.8850e-01	6.2253	5.161437	0.000210	2.095084	0.354917	-0.004191
1379	6.8900e-01	6.2189	5.144332	0.000171	1.710273	0.289728	-0.003421
1380	6.8950e-01	6.2054	5.113971	0.000304	3.035734	0.514267	-0.006072
1381	6.9000e-01	6.1969	5.100714	0.000133	1.325461	0.224539	-0.002651
1382	6.9050e-01	6.1884	5.090024	0.000107	1.068920	0.181080	-0.002138
1383	6.9100e-01	6.1792	5.055814	0.000342	3.420546	0.579456	-0.006842
1384	6.9150e-01	6.1661	5.042130	0.000137	1.368218	0.231782	-0.002737
1385	6.9200e-01	6.1572	5.014334	0.000278	2.779193	0.470808	-0.005559
1386	6.9250e-01	6.1469	5.007492	0.000068	0.684109	0.115891	-0.001368
1387	6.9300e-01	6.1374	4.978841	0.000286	2.864707	0.485294	-0.005730
1388	6.9350e-01	6.1288	4.968578	0.000103	1.026164	0.173837	-0.002053
1389	6.9400e-01	6.1158	4.949763	0.000188	1.881300	0.318701	-0.003763
1390	6.9450e-01	6.1066	4.930092	0.000197	1.966814	0.333187	-0.003934
1391	6.9500e-01	6.0974	4.907428	0.000227	2.266111	0.383890	-0.004533
1392	6.9550e-01	6.0875	4.897165	0.000103	1.026164	0.173837	-0.002053
1393	6.9600e-01	6.0760	4.870224	0.000269	2.693680	0.456322	-0.005388
1394	6.9650e-01	6.0664	4.846277	0.000239	2.394382	0.405619	-0.004789
1395	6.9700e-01	6.0556	4.839008	0.000073	0.726866	0.123134	-0.001454
1396	6.9750e-01	6.0468	4.815488	0.000235	2.351625	0.398376	-0.004704
1397	6.9800e-01	6.0358	4.780851	0.000346	3.463302	0.586699	-0.006928
1398	6.9850e-01	6.0269	4.780423	0.000004	0.042757	0.007243	-0.000086
1399	6.9900e-01	6.0168	4.758614	0.000218	2.180598	0.369403	-0.004362
1400	6.9950e-01	6.0059	4.740226	0.000184	1.838543	0.311458	-0.003678
1401	7.0000e-01	5.9964	4.713713	0.000265	2.650923	0.449078	-0.005303
1402	7.0050e-01	5.9869	4.702168	0.000115	1.154434	0.195566	-0.002309
1403	7.0100e-01	5.9796	4.676938	0.000252	2.522652	0.427349	-0.005046
1404	7.0150e-01	5.9662	4.660688	0.000162	1.624759	0.275242	-0.003250
1405	7.0200e-01	5.9567	4.644866	0.000158	1.582002	0.267998	-0.003164
1406	7.0250e-01	5.9442	4.633320	0.000115	1.154434	0.195566	-0.002309
1407	7.0300e-01	5.9375	4.594406	0.000389	3.890871	0.659131	-0.007783
1408	7.0350e-01	5.9247	4.591413	0.000030	0.299298	0.050702	-0.000599
1409	7.0400e-01	5.9193	4.564900	0.000265	2.650923	0.449078	-0.005303
1410	7.0450e-01	5.9064	4.540525	0.000244	2.437139	0.412862	-0.004875
1411	7.0500e-01	5.8966	4.525131	0.000154	1.539245	0.260755	-0.003079
1412	7.0550e-01	5.8876	4.500328	0.000248	2.479895	0.420106	-0.004960
1413	7.0600e-01	5.8783	4.479802	0.000205	2.052327	0.347674	-0.004105
1414	7.0650e-01	5.8674	4.466974	0.000128	1.282705	0.217296	-0.002566
1415	7.0700e-01	5.8566	4.450724	0.000162	1.624759	0.275242	-0.003250
1416	7.0750e-01	5.8464	4.425494	0.000252	2.522652	0.427349	-0.005046
1417	7.0800e-01	5.8365	4.410099	0.000154	1.539245	0.260755	-0.003079
1418	7.0850e-01	5.8259	4.395560	0.000145	1.453732	0.246269	-0.002908
1419	7.0900e-01	5.8163	4.372896	0.000227	2.266111	0.383890	-0.004533
1420	7.0950e-01	5.8064	4.349804	0.000231	2.308868	0.391133	-0.004618
1421	7.1000e-01	5.7953	4.336120	0.000137	1.368218	0.231782	-0.002737
1422	7.1050e-01	5.7863	4.302338	0.000338	3.377789	0.572213	-0.006756
1423	7.1100e-01	5.7770	4.299772	0.000026	0.256541	0.043459	-0.000513
1424	7.1150e-01	5.7666	4.273259	0.000265	2.650923	0.449078	-0.005303
1425	7.1200e-01	5.7599	4.250168	0.000231	2.308868	0.391133	-0.004618
1426	7.1250e-01	5.7458	4.235201	0.000150	1.496489	0.253512	-0.002993
1427	7.1300e-01	5.7349	4.218096	0.000171	1.710273	0.289728	-0.003421
1428	7.1350e-01	5.7233	4.194576	0.000235	2.351625	0.398376	-0.004704
1429	7.1400e-01	5.7166	4.172340	0.000222	2.223355	0.376646	-0.004447
1430	7.1450e-01	5.7053	4.155662	0.000167	1.667516	0.282485	-0.003335
1431	7.1500e-01	5.6949	4.137702	0.000180	1.795786	0.304214	-0.003592
1432	7.1550e-01	5.6856	4.117176	0.000205	2.052327	0.347674	-0.004105
1433	7.1600e-01	5.6784	4.094940	0.000222	2.223355	0.376646	-0.004447
1434	7.1650e-01	5.6665	4.091091	0.000038	0.384811	0.065189	-0.000770
1435	7.1700e-01	5.6577	4.055598	0.000355	3.548816	0.601186	-0.007099
1436	7.1750e-01	5.6482	4.023099	0.000325	3.249518	0.550483	-0.006500
1437	7.1800e-01	5.6343	4.008132	0.000150	1.496489	0.253512	-0.002993
1438	7.1850e-01	5.6273	3.990171	0.000180	1.795786	0.304214	-0.003592
1439	7.1900e-01	5.6171	3.968363	0.000218	2.180598	0.369403	-0.004362
1440	7.1950e-01	5.6094	3.951685	0.000167	1.667516	0.282485	-0.003335
1441	7.2000e-01	5.5939	3.923890	0.000278	2.779193	0.470808	-0.005559
1442	7.2050e-01	5.5856	3.925600	-0.000017	-0.171027	-0.028973	0.000342
1443	7.2100e-01	5.5762	3.925172	0.000004	0.042757	0.007243	-0.000086
1444	7.2150e-01	5.5670	3.877278	0.000479	4.788764	0.811239	-0.009579
1445	7.2200e-01	5.5557	3.870009	0.000073	0.726866	0.123134	-0.001454
1446	7.2250e-01	5.5473	3.837937	0.000321	3.206761	0.543240	-0.006414
1447	7.2300e-01	5.5380	3.805437	0.000325	3.249518	0.550483	-0.006500
1448	7.2350e-01	5.5273	3.799023	0.000064	0.641352	0.108648	-0.001283
1449	7.2400e-01	5.5157	3.766096	0.000329	3.292275	0.557726	-0.006585
1450	7.2450e-01	5.5090	3.749418	0.000167	1.667516	0.282485	-0.003335
1451	7.2500e-01	5.4980	3.731458	0.000180	1.795786	0.304214	-0.003592
1452	7.2550e-01	5.4837	3.717347	0.000141	1.410975	0.239026	-0.002822
1453	7.2600e-01	5.4761	3.715208	0.000021	0.213784	0.036216	-0.000428
1454	7.2650e-01	5.4645	3.673729	0.000415	4.147411	0.702591	-0.008296
1455	7.2700e-01	5.4562	3.653203	0.000205	2.052327	0.347674	-0.004105
1456	7.2750e-01	5.4475	3.633960	0.000192	1.924057	0.325944	-0.003849
1457	7.2800e-01	5.4364	3.623697	0.000103	1.026164	0.173837	-0.002053
1458	7.2850e-01	5.4273	3.591197	0.000325	3.249518	0.550483	-0.006500
1459	7.2900e-01	5.4199	3.566822	0.000244	2.437139	0.412862	-0.004875
1460	7.2950e-01	5.4075	3.556559	0.000103	1.026164	0.173837	-0.002053
1461	7.3000e-01	5.3967	3.548435	0.000081	0.812380	0.137621	-0.001625
1462	7.3050e-01	5.3851	3.522777	0.000257	2.565409	0.434592	-0.005132
1463	7.3100e-01	5.3766	3.488567	0.000342	3.420546	0.579456	-0.006842
1464	7.3150e-01	5.3656	3.486001	0.000026	0.256541	0.043459	-0.000513
1465	7.3200e-01	5.3561	3.445377	0.000406	4.061898	0.688104	-0.008125
1466	7.3250e-01	5.3467	3.438107	0.000073	0.726866	0.123134	-0.001454
1467	7.3300e-01	5.3363	3.419719	0.000184	1.838543	0.311458	-0.003678
1468	7.3350e-01	5.3266	3.398338	0.000214	2.137841	0.362160	-0.004276
1469	7.3400e-01	5.3180	3.382944	0.000154	1.539245	0.260755	-0.003079
1470	7.3450e-01	5.3033	3.361135	0.000218	2.180598	0.369403	-0.004362
1471	7.3500e-01	5.2957	3.335477	0.000257	2.565409	0.434592	-0.005132
1472	7.3550e-01	5.2863	3.306399	0.000291	2.907464	0.492538	-0.005816
1473	7.3600e-01	5.2765	3.299557	0.000068	0.684109	0.115891	-0.001368
1474	7.3650e-01	5.2669	3.286728	0.000128	1.282705	0.217296	-0.002566
1475	7.3700e-01	5.2547	3.248242	0.000385	3.848114	0.651888	-0.007697
1476	7.3750e-01	5.2481	3.231564	0.000167	1.667516	0.282485	-0.003335
1477	7.3800e-01	5.2386	3.213604	0.000180	1.795786	0.304214	-0.003592
1478	7.3850e-01	5.2264	3.189229	0.000244	2.437139	0.412862	-0.004875
1479	7.3900e-01	5.2179	3.185808	0.000034	0.342055	0.057946	-0.000684
1480	7.3950e-01	5.2075	3.148177	0.000376	3.762600	0.637402	-0.007526
1481	7.4000e-01	5.2005	3.148177	-0.000000	-0.000000	-0.000000	0.000000
1482	7.4050e-01	5.1871	3.104132	0.000440	4.403952	0.746050	-0.008809
1483	7.4100e-01	5.1767	3.100283	0.000038	0.384811	0.065189	-0.000770
1484	7.4150e-01	5.1654	3.080185	0.000201	2.009570	0.340430	-0.004020
1485	7.4200e-01	5.1566	3.056665	0.000235	2.351625	0.398376	-0.004704
1486	7.4250e-01	5.1431	3.054527	0.000021	0.213784	0.036216	-0.000428
1487	7.4300e-01	5.1373	3.007061	0.000475	4.746007	0.803995	-0.009493
1488	7.4350e-01	5.1263	2.979265	0.000278	2.779193	0.470808	-0.005559
1489	7.4400e-01	5.1172	2.991666	-0.000124	-1.239948	-0.210053	0.002480
1490	7.4450e-01	5.1056	2.958739	0.000329	3.292275	0.557726	-0.006585
1491	7.4500e-01	5.0952	2.925812	0.000329	3.292275	0.557726	-0.006585
1492	7.4550e-01	5.0861	2.914266	0.000115	1.154434	0.195566	-0.002309
1493	7.4600e-01	5.0778	2.906141	0.000081	0.812380	0.137621	-0.001625
1494	7.4650e-01	5.0673	2.869366	0.000368	3.677086	0.622915	-0.007355
1495	7.4700e-01	5.0543	2.855682	0.000137	1.368218	0.231782	-0.002737
1496	7.4750e-01	5.0455	2.836866	0.000188	1.881300	0.318701	-0.003763
1497	7.4800e-01	5.0372	2.826603	0.000103	1.026164	0.173837	-0.002053
1498	7.4850e-01	5.0244	2.805649	0.000210	2.095084	0.354917	-0.004191
1499	7.4900e-01	5.0159	2.794959	0.000107	1.068920	0.181080	-0.002138
1500	7.4950e-01	5.0086	2.758183	0.000368	3.677086	0.622915	-0.007355
1501	7.5000e-01	4.9973	2.736374	0.000218	2.180598	0.369403	-0.004362
1502	7.5050e-01	4.9860	2.717986	0.000184	1.838543	0.311458	-0.003678
1503	7.5100e-01	4.9768	2.695322	0.000227	2.266111	0.383890	-0.004533
1504	7.5150e-01	4.9637	2.674368	0.000210	2.095084	0.354917	-0.004191
1505	7.5200e-01	4.9561	2.667526	0.000068	0.684109	0.115891	-0.001368
1506	7.5250e-01	4.9487	2.632461	0.000351	3.506059	0.593942	-0.007013
1507	7.5300e-01	4.9371	2.600817	0.000316	3.164005	0.535997	-0.006329
1508	7.5350e-01	4.9310	2.587561	0.000133	1.325461	0.224539	-0.002651
1509	7.5400e-01	4.9146	2.561475	0.000261	2.608166	0.441835	-0.005217
1510	7.5450e-01	4.9051	2.545226	0.000162	1.624759	0.275242	-0.003250
1511	7.5500e-01	4.8978	2.536246	0.000090	0.897893	0.152107	-0.001796
1512	7.5550e-01	4.8865	2.506739	0.000295	2.950220	0.499781	-0.005901
1513	7.5600e-01	4.8761	2.493055	0.000137	1.368218	0.231782	-0.002737
1514	7.5650e-01	4.8657	2.463977	0.000291	2.907464	0.492538	-0.005816
1515	7.5700e-01	4.8581	2.439175	0.000248	2.479895	0.420106	-0.004960
1516	7.5750e-01	4.8441	2.435326	0.000038	0.384811	0.065189	-0.000770
1517	7.5800e-01	4.8359	2.401971	0.000334	3.335032	0.564970	-0.006671
1518	7.5850e-01	4.8264	2.389998	0.000120	1.197191	0.202810	-0.002395
1519	7.5900e-01	4.8190	2.357498	0.000325	3.249518	0.550483	-0.006500
1520	7.5950e-01	4.8071	2.347663	0.000098	0.983407	0.166594	-0.001967
1521	7.6000e-01	4.7968	2.329275	0.000184	1.838543	0.311458	-0.003678
1522	7.6050e-01	4.7882	2.291644	0.000376	3.762600	0.637402	-0.007526
1523	7.6100e-01	4.7760	2.277532	0.000141	1.410975	0.239026	-0.002822
1524	7.6150e-01	4.7662	2.262138	0.000154	1.539245	0.260755	-0.003079
1525	7.6200e-01	4.7554	2.230066	0.000321	3.206761	0.543240	-0.006414
1526	7.6250e-01	4.7479	2.216809	0.000133	1.325461	0.224539	-0.002651
1527	7.6300e-01	4.7363	2.198849	0.000180	1.795786	0.304214	-0.003592
1528	7.6350e-01	4.7266	2.177896	0.000210	2.095084	0.354917	-0.004191
1529	7.6400e-01	4.7145	2.161218	0.000167	1.667516	0.282485	-0.003335
1530	7.6450e-01	4.7054	2.130857	0.000304	3.035734	0.514267	-0.006072
1531	7.6500e-01	4.6967	2.106910	0.000239	2.394382	0.405619	-0.004789
1532	7.6550e-01	4.6881	2.097502	0.000094	0.940650	0.159350	-0.001882
1533	7.6600e-01	4.6751	2.071844	0.000257	2.565409	0.434592	-0.005132
1534	7.6650e-01	4.6661	2.049180	0.000227	2.266111	0.383890	-0.004533
1535	7.6700e-01	4.6552	2.039773	0.000094	0.940650	0.159350	-0.001882
1536	7.6750e-01	4.6469	2.018391	0.000214	2.137841	0.362160	-0.004276
1537	7.6800e-01	4.6347	2.000859	0.000175	1.753030	0.296971	-0.003507
1538	7.6850e-01	4.6266	1.981188	0.000197	1.966814	0.333187	-0.003934
1539	7.6900e-01	4.6172	1.951682	0.000295	2.950220	0.499781	-0.005901
1540	7.6950e-01	4.6063	1.937570	0.000141	1.410975	0.239026	-0.002822
1541	7.7000e-01	4.5950	1.916616	0.000210	2.095084	0.354917	-0.004191
1542	7.7050e-01	4.5874	1.895663	0.000210	2.095084	0.354917	-0.004191
1543	7.7100e-01	4.5755	1.872999	0.000227	2.266111	0.383890	-0.004533
1544	7.7150e-01	4.5660	1.840499	0.000325	3.249518	0.550483	-0.006500
1545	7.7200e-01	4.5557	1.820401	0.000201	2.009570	0.340430	-0.004020
1546	7.7250e-01	4.5471	1.805006	0.000154	1.539245	0.260755	-0.003079
1547	7.7300e-01	4.5358	1.790467	0.000145	1.453732	0.246269	-0.002908
1548	7.7350e-01	4.5245	1.749415	0.000410	4.104655	0.695347	-0.008210
1549	7.7400e-01	4.5168	1.746422	0.000030	0.299298	0.050702	-0.000599
1550	7.7450e-01	4.5058	1.724185	0.000222	2.223355	0.376646	-0.004447
1551	7.7500e-01	4.4974	1.698955	0.000252	2.522652	0.427349	-0.005046
1552	7.7550e-01	4.4873	1.680995	0.000180	1.795786	0.304214	-0.003592
1553	7.7600e-01	4.4763	1.657048	0.000239	2.394382	0.405619	-0.004789
1554	7.7650e-01	4.4666	1.635667	0.000214	2.137841	0.362160	-0.004276
1555	7.7700e-01	4.4556	1.628397	0.000073	0.726866	0.123134	-0.001454
1556	7.7750e-01	4.4495	1.586062	0.000423	4.232925	0.717077	-0.008467
1557	7.7800e-01	4.4379	1.562970	0.000231	2.308868	0.391133	-0.004618
1558	7.7850e-01	4.4270	1.561260	0.000017	0.171027	0.028973	-0.000342
1559	7.7900e-01	4.4167	1.530471	0.000308	3.078491	0.521510	-0.006158
1560	7.7950e-01	4.4067	1.511655	0.000188	1.881300	0.318701	-0.003763
1561	7.8000e-01	4.3970	1.500537	0.000111	1.111677	0.188323	-0.002224
1562	7.8050e-01	4.3884	1.455209	0.000453	4.532223	0.767779	-0.009066
1563	7.8100e-01	4.3765	1.444091	0.000111	1.111677	0.188323	-0.002224
1564	7.8150e-01	4.3661	1.419716	0.000244	2.437139	0.412862	-0.004875
1565	7.8200e-01	4.3558	1.414584	0.000051	0.513082	0.086918	-0.001026
1566	7.8250e-01	4.3451	1.397479	0.000171	1.710273	0.289728	-0.003421
1567	7.8300e-01	4.3365	1.363697	0.000338	3.377789	0.572213	-0.006756
1568	7.8350e-01	4.3262	1.347020	0.000167	1.667516	0.282485	-0.003335
1569	7.8400e-01	4.3201	1.323073	0.000239	2.394382	0.405619	-0.004789
1570	7.8450e-01	4.3083	1.288007	0.000351	3.506059	0.593942	-0.007013
1571	7.8500e-01	4.2957	1.285014	0.000030	0.299298	0.050702	-0.000599
1572	7.8550e-01	4.2856	1.252514	0.000325	3.249518	0.550483	-0.006500
1573	7.8600e-01	4.2780	1.234127	0.000184	1.838543	0.311458	-0.003678
1574	7.8650e-01	4.2694	1.230278	0.000038	0.384811	0.065189	-0.000770
1575	7.8700e-01	4.2551	1.207186	0.000231	2.308868	0.391133	-0.004618
1576	7.8750e-01	4.2462	1.175114	0.000321	3.206761	0.543240	-0.006414
1577	7.8800e-01	4.2346	1.166562	0.000086	0.855136	0.144864	-0.001711
1578	7.8850e-01	4.2258	1.135773	0.000308	3.078491	0.521510	-0.006158
1579	7.8900e-01	4.2148	1.103701	0.000321	3.206761	0.543240	-0.006414
1580	7.8950e-01	4.2072	1.096859	0.000068	0.684109	0.115891	-0.001368
1581	7.9000e-01	4.1962	1.076760	0.000201	2.009570	0.340430	-0.004020
1582	7.9050e-01	4.1841	1.060083	0.000167	1.667516	0.282485	-0.003335
1583	7.9100e-01	4.1794	1.031432	0.000286	2.864707	0.485294	-0.005730
1584	7.9150e-01	4.1650	0.999360	0.000321	3.206761	0.543240	-0.006414
1585	7.9200e-01	4.1556	0.986104	0.000133	1.325461	0.224539	-0.002651
1586	7.9250e-01	4.1437	0.979690	0.000064	0.641352	0.108648	-0.001283
1587	7.9300e-01	4.1333	0.949756	0.000299	2.992977	0.507024	-0.005987
1588	7.9350e-01	4.1278	0.923671	0.000261	2.608166	0.441835	-0.005217
1589	7.9400e-01	4.1156	0.914263	0.000094	0.940650	0.159350	-0.001882
1590	7.9450e-01	4.1061	0.877059	0.000372	3.719843	0.630159	-0.007441
1591	7.9500e-01	4.0962	0.869362	0.000077	0.769623	0.130378	-0.001539
1592	7.9550e-01	4.0851	0.844988	0.000244	2.437139	0.412862	-0.004875
1593	7.9600e-01	4.0765	0.812488	0.000325	3.249518	0.550483	-0.006500
1594	7.9650e-01	4.0665	0.790252	0.000222	2.223355	0.376646	-0.004447
1595	7.9700e-01	4.0562	0.777423	0.000128	1.282705	0.217296	-0.002566
1596	7.9750e-01	4.0469	0.758607	0.000188	1.881300	0.318701	-0.003763
1597	7.9800e-01	4.0347	0.737226	0.000214	2.137841	0.362160	-0.004276
1598	7.9850e-01	4.0259	0.726535	0.000107	1.068920	0.181080	-0.002138
1599	7.9900e-01	4.0173	0.701305	0.000252	2.522652	0.427349	-0.005046
1600	7.9950e-01	4.0076	0.665385	0.000359	3.591573	0.608429	-0.007184
1601	8.0000e-01	3.9981	0.661536	0.000038	0.384811	0.065189	-0.000770
1602	8.0050e-01	3.9868	0.629892	0.000316	3.164005	0.535997	-0.006329
1603	8.0100e-01	3.9764	0.596110	0.000338	3.377789	0.572213	-0.006756
1604	8.0150e-01	3.9673	0.574301	0.000218	2.180598	0.369403	-0.004362
1605	8.0200e-01	3.9557	0.562327	0.000120	1.197191	0.202810	-0.002395
1606	8.0250e-01	3.9459	0.545222	0.000171	1.710273	0.289728	-0.003421
1607	8.0300e-01	3.9357	0.530255	0.000150	1.496489	0.253512	-0.002993
1608	8.0350e-01	3.9255	0.508446	0.000218	2.180598	0.369403	-0.004362
1609	8.0400e-01	3.9162	0.467822	0.000406	4.061898	0.688104	-0.008125
1610	8.0450e-01	3.9066	0.447724	0.000201	2.009570	0.340430	-0.004020
1611	8.0500e-01	3.8953	0.443875	0.000038	0.384811	0.065189	-0.000770
1612	8.0550e-01	3.8883	0.410520	0.000334	3.335032	0.564970	-0.006671
1613	8.0600e-01	3.8762	0.381442	0.000291	2.907464	0.492538	-0.005816
1614	8.0650e-01	3.8683	0.358350	0.000231	2.308868	0.391133	-0.004618
1615	8.0700e-01	3.8551	0.339534	0.000188	1.881300	0.318701	-0.003763
1616	8.0750e-01	3.8464	0.319864	0.000197	1.966814	0.333187	-0.003934
1617	8.0800e-01	3.8374	0.301476	0.000184	1.838543	0.311458	-0.003678
1618	8.0850e-01	3.8264	0.285654	0.000158	1.582002	0.267998	-0.003164
1619	8.0900e-01	3.8147	0.259996	0.000257	2.565409	0.434592	-0.005132
1620	8.0950e-01	3.8068	0.244602	0.000154	1.539245	0.260755	-0.003079
1621	8.1000e-01	3.7952	0.226214	0.000184	1.838543	0.311458	-0.003678
1622	8.1050e-01	3.7839	0.204405	0.000218	2.180598	0.369403	-0.004362
1623	8.1100e-01	3.7747	0.187727	0.000167	1.667516	0.282485	-0.003335
1624	8.1150e-01	3.7671	0.149241	0.000385	3.848114	0.651888	-0.007697
1625	8.1200e-01	3.7567	0.126577	0.000227	2.266111	0.383890	-0.004533
1626	8.1250e-01	3.7476	0.114604	0.000120	1.197191	0.202810	-0.002395
1627	8.1300e-01	3.7357	0.088091	0.000265	2.650923	0.449078	-0.005303
1628	8.1350e-01	3.7280	0.073552	0.000145	1.453732	0.246269	-0.002908
1629	8.1400e-01	3.7151	0.059440	0.000141	1.410975	0.239026	-0.002822
1630	8.1450e-01	3.7074	0.030361	0.000291	2.907464	0.492538	-0.005816
1631	8.1500e-01	3.6993	0.013256	0.000171	1.710273	0.289728	-0.003421
1632	8.1550e-01	3.6871	-0.014539	0.000278	2.779193	0.470808	-0.005559
1633	8.1600e-01	3.6746	-0.037203	0.000227	2.266111	0.383890	-0.004533
1634	8.1650e-01	3.6670	-0.055591	0.000184	1.838543	0.311458	-0.003678
1635	8.1700e-01	3.6578	-0.076545	0.000210	2.095084	0.354917	-0.004191
1636	8.1750e-01	3.6469	-0.105623	0.000291	2.907464	0.492538	-0.005816
1637	8.1800e-01	3.6377	-0.123156	0.000175	1.753030	0.296971	-0.003507
1638	8.1850e-01	3.6252	-0.144110	0.000210	2.095084	0.354917	-0.004191
1639	8.1900e-01	3.6156	-0.170622	0.000265	2.650923	0.449078	-0.005303
1640	8.1950e-01	3.6029	-0.186017	0.000154	1.539245	0.260755	-0.003079
1641	8.2000e-01	3.5956	-0.206971	0.000210	2.095084	0.354917	-0.004191
1642	8.2050e-01	3.5867	-0.217661	0.000107	1.068920	0.181080	-0.002138
1643	8.2100e-01	3.5754	-0.256575	0.000389	3.890871	0.659131	-0.007783
1644	8.2150e-01	3.5675	-0.273680	0.000171	1.710273	0.289728	-0.003421
1645	8.2200e-01	3.5602	-0.290785	0.000171	1.710273	0.289728	-0.003421
1646	8.2250e-01	3.5462	-0.332265	0.000415	4.147411	0.702591	-0.008296
1647	8.2300e-01	3.5376	-0.342100	0.000098	0.983407	0.166594	-0.001967
1648	8.2350e-01	3.5260	-0.355784	0.000137	1.368218	0.231782	-0.002737
1649	8.2400e-01	3.5153	-0.385290	0.000295	2.950220	0.499781	-0.005901
1650	8.2450e-01	3.5028	-0.388284	0.000030	0.299298	0.050702	-0.000599
1651	8.2500e-01	3.4987	-0.424204	0.000359	3.591573	0.608429	-0.007184
1652	8.2550e-01	3.4839	-0.449434	0.000252	2.522652	0.427349	-0.005046
1653	8.2600e-01	3.4773	-0.482789	0.000334	3.335032	0.564970	-0.006671
1654	8.2650e-01	3.4680	-0.491341	0.000086	0.855136	0.144864	-0.001711
1655	8.2700e-01	3.4586	-0.517427	0.000261	2.608166	0.441835	-0.005217
1656	8.2750e-01	3.4468	-0.542656	0.000252	2.522652	0.427349	-0.005046
1657	8.2800e-01	3.4367	-0.550781	0.000081	0.812380	0.137621	-0.001625
1658	8.2850e-01	3.4242	-0.573873	0.000231	2.308868	0.391133	-0.004618
1659	8.2900e-01	3.4156	-0.600814	0.000269	2.693680	0.456322	-0.005388
1660	8.2950e-01	3.4084	-0.624761	0.000239	2.394382	0.405619	-0.004789
1661	8.3000e-01	3.3942	-0.646569	0.000218	2.180598	0.369403	-0.004362
1662	8.3050e-01	3.3850	-0.664957	0.000184	1.838543	0.311458	-0.003678
1663	8.3100e-01	3.3769	-0.706009	0.000410	4.104655	0.695347	-0.008210
1664	8.3150e-01	3.3656	-0.706437	0.000004	0.042757	0.007243	-0.000086
1665	8.3200e-01	3.3557	-0.750910	0.000445	4.446709	0.753293	-0.008895
1666	8.3250e-01	3.3459	-0.757752	0.000068	0.684109	0.115891	-0.001368
1667	8.3300e-01	3.3356	-0.777423	0.000197	1.966814	0.333187	-0.003934
1668	8.3350e-01	3.3270	-0.782982	0.000056	0.555839	0.094162	-0.001112
1669	8.3400e-01	3.3142	-0.809922	0.000269	2.693680	0.456322	-0.005388
1670	8.3450e-01	3.3051	-0.847981	0.000381	3.805357	0.644645	-0.007612
1671	8.3500e-01	3.2968	-0.859099	0.000111	1.111677	0.188323	-0.002224
1672	8.3550e-01	3.2851	-0.892026	0.000329	3.292275	0.557726	-0.006585
1673	8.3600e-01	3.2742	-0.909559	0.000175	1.753030	0.296971	-0.003507
1674	8.3650e-01	3.2643	-0.925381	0.000158	1.582002	0.267998	-0.003164
1675	8.3700e-01	3.2533	-0.949328	0.000239	2.394382	0.405619	-0.004789
1676	8.3750e-01	3.2452	-0.968999	0.000197	1.966814	0.333187	-0.003934
1677	8.3800e-01	3.2355	-0.986104	0.000171	1.710273	0.289728	-0.003421
1678	8.3850e-01	3.2251	-1.019031	0.000329	3.292275	0.557726	-0.006585
1679	8.3900e-01	3.2154	-1.041695	0.000227	2.266111	0.383890	-0.004533
1680	8.3950e-01	3.2053	-1.062649	0.000210	2.095084	0.354917	-0.004191
1681	8.4000e-01	3.1960	-1.082747	0.000201	2.009570	0.340430	-0.004020
1682	8.4050e-01	3.1860	-1.106267	0.000235	2.351625	0.398376	-0.004704
1683	8.4100e-01	3.1760	-1.147746	0.000415	4.147411	0.702591	-0.008296
1684	8.4150e-01	3.1665	-1.150740	0.000030	0.299298	0.050702	-0.000599
1685	8.4200e-01	3.1555	-1.167417	0.000167	1.667516	0.282485	-0.003335
1686	8.4250e-01	3.1435	-1.187943	0.000205	2.052327	0.347674	-0.004105
1687	8.4300e-01	3.1377	-1.223008	0.000351	3.506059	0.593942	-0.007013
1688	8.4350e-01	3.1252	-1.252942	0.000299	2.992977	0.507024	-0.005987
1689	8.4400e-01	3.1149	-1.262350	0.000094	0.940650	0.159350	-0.001882
1690	8.4450e-01	3.1064	-1.291001	0.000286	2.864707	0.485294	-0.005730
1691	8.4500e-01	3.0939	-1.305968	0.000150	1.496489	0.253512	-0.002993
1692	8.4550e-01	3.0850	-1.334618	0.000286	2.864707	0.485294	-0.005730
1693	8.4600e-01	3.0746	-1.338467	0.000038	0.384811	0.065189	-0.000770
1694	8.4650e-01	3.0679	-1.377381	0.000389	3.890871	0.659131	-0.007783
1695	8.4700e-01	3.0554	-1.378664	0.000013	0.128270	0.021730	-0.000257
1696	8.4750e-01	3.0461	-1.414157	0.000355	3.548816	0.601186	-0.007099
1697	8.4800e-01	3.0365	-1.456492	0.000423	4.232925	0.717077	-0.008467
1698	8.4850e-01	3.0258	-1.458202	0.000017	0.171027	0.028973	-0.000342
1699	8.4900e-01	3.0173	-1.486853	0.000286	2.864707	0.485294	-0.005730
1700	8.4950e-01	3.0069	-1.514649	0.000278	2.779193	0.470808	-0.005559
1701	8.5000e-01	2.9942	-1.522774	0.000081	0.812380	0.137621	-0.001625
1702	8.5050e-01	2.9826	-1.542872	0.000201	2.009570	0.340430	-0.004020
1703	8.5100e-01	2.9753	-1.586917	0.000440	4.403952	0.746050	-0.008809
1704	8.5150e-01	2.9669	-1.602312	0.000154	1.539245	0.260755	-0.003079
1705	8.5200e-01	2.9562	-1.627542	0.000252	2.522652	0.427349	-0.005046
1706	8.5250e-01	2.9471	-1.642936	0.000154	1.539245	0.260755	-0.003079
1707	8.5300e-01	2.9364	-1.657048	0.000141	1.410975	0.239026	-0.002822
1708	8.5350e-01	2.9270	-1.677574	0.000205	2.052327	0.347674	-0.004105
1709	8.5400e-01	2.9166	-1.725468	0.000479	4.788764	0.811239	-0.009579
1710	8.5450e-01	2.9062	-1.721619	-0.000038	-0.384811	-0.065189	0.000770
1711	8.5500e-01	2.8946	-1.748987	0.000274	2.736436	0.463565	-0.005474
1712	8.5550e-01	2.8848	-1.770796	0.000218	2.180598	0.369403	-0.004362
1713	8.5600e-01	2.8757	-1.788329	0.000175	1.753030	0.296971	-0.003507
1714	8.5650e-01	2.8647	-1.803296	0.000150	1.496489	0.253512	-0.002993
1715	8.5700e-01	2.8572	-1.855038	0.000517	5.173575	0.876427	-0.010349
1716	8.5750e-01	2.8445	-1.870005	0.000150	1.496489	0.253512	-0.002993
1717	8.5800e-01	2.8334	-1.882406	0.000124	1.239948	0.210053	-0.002480
1718	8.5850e-01	2.8249	-1.907209	0.000248	2.479895	0.420106	-0.004960
1719	8.5900e-01	2.8143	-1.935004	0.000278	2.779193	0.470808	-0.005559
1720	8.5950e-01	2.8052	-1.955103	0.000201	2.009570	0.340430	-0.004020
1721	8.6000e-01	2.7950	-1.973063	0.000180	1.795786	0.304214	-0.003592
1722	8.6050e-01	2.7870	-2.006418	0.000334	3.335032	0.564970	-0.006671
1723	8.6100e-01	2.7762	-2.022240	0.000158	1.582002	0.267998	-0.003164
1724	8.6150e-01	2.7650	-2.044476	0.000222	2.223355	0.376646	-0.004447
1725	8.6200e-01	2.7552	-2.067568	0.000231	2.308868	0.391133	-0.004618
1726	8.6250e-01	2.7460	-2.090232	0.000227	2.266111	0.383890	-0.004533
1727	8.6300e-01	2.7371	-2.110331	0.000201	2.009570	0.340430	-0.004020
1728	8.6350e-01	2.7252	-2.127436	0.000171	1.710273	0.289728	-0.003421
1729	8.6400e-01	2.7149	-2.166777	0.000393	3.933627	0.666375	-0.007868
1730	8.6450e-01	2.7063	-2.174047	0.000073	0.726866	0.123134	-0.001454
1731	8.6500e-01	2.6967	-2.215527	0.000415	4.147411	0.702591	-0.008296
1732	8.6550e-01	2.6843	-2.229638	0.000141	1.410975	0.239026	-0.002822
1733	8.6600e-01	2.6761	-2.249309	0.000197	1.966814	0.333187	-0.003934
1734	8.6650e-01	2.6661	-2.280526	0.000312	3.121248	0.528754	-0.006243
1735	8.6700e-01	2.6572	-2.304900	0.000244	2.437139	0.412862	-0.004875
1736	8.6750e-01	2.6449	-2.307894	0.000030	0.299298	0.050702	-0.000599
1737	8.6800e-01	2.6367	-2.357498	0.000496	4.959791	0.840211	-0.009921
1738	8.6850e-01	2.6247	-2.362202	0.000047	0.470325	0.079675	-0.000941
1739	8.6900e-01	2.6154	-2.376741	0.000145	1.453732	0.246269	-0.002908
1740	8.6950e-01	2.6044	-2.410951	0.000342	3.420546	0.579456	-0.006842
1741	8.7000e-01	2.5938	-2.434043	0.000231	2.308868	0.391133	-0.004618
1742	8.7050e-01	2.5868	-2.454997	0.000210	2.095084	0.354917	-0.004191
1743	8.7100e-01	2.5755	-2.484075	0.000291	2.907464	0.492538	-0.005816
1744	8.7150e-01	2.5659	-2.503318	0.000192	1.924057	0.325944	-0.003849
1745	8.7200e-01	2.5540	-2.513581	0.000103	1.026164	0.173837	-0.002053
1746	8.7250e-01	2.5458	-2.540094	0.000265	2.650923	0.449078	-0.005303
1747	8.7300e-01	2.5372	-2.584567	0.000445	4.446709	0.753293	-0.008895
1748	8.7350e-01	2.5249	-2.607231	0.000227	2.266111	0.383890	-0.004533
1749	8.7400e-01	2.5134	-2.596968	-0.000103	-1.026164	-0.173837	0.002053
1750	8.7450e-01	2.5034	-2.632034	0.000351	3.506059	0.593942	-0.007013
1751	8.7500e-01	2.4957	-2.658119	0.000261	2.608166	0.441835	-0.005217
1752	8.7550e-01	2.4835	-2.681638	0.000235	2.351625	0.398376	-0.004704
1753	8.7600e-01	2.4762	-2.708151	0.000265	2.650923	0.449078	-0.005303
1754	8.7650e-01	2.4673	-2.731670	0.000235	2.351625	0.398376	-0.004704
1755	8.7700e-01	2.4564	-2.733808	0.000021	0.213784	0.036216	-0.000428
1756	8.7750e-01	2.4461	-2.766736	0.000329	3.292275	0.557726	-0.006585
1757	8.7800e-01	2.4353	-2.793676	0.000269	2.693680	0.456322	-0.005388
1758	8.7850e-01	2.4264	-2.809926	0.000162	1.624759	0.275242	-0.003250
1759	8.7900e-01	2.4191	-2.847557	0.000376	3.762600	0.637402	-0.007526
1760	8.7950e-01	2.4060	-2.882622	0.000351	3.506059	0.593942	-0.007013
1761	8.8000e-01	2.3936	-2.870648	-0.000120	-1.197191	-0.202810	0.002395
1762	8.8050e-01	2.3859	-2.903576	0.000329	3.292275	0.557726	-0.006585
1763	8.8100e-01	2.3763	-2.928378	0.000248	2.479895	0.420106	-0.004960
1764	8.8150e-01	2.3688	-2.954891	0.000265	2.650923	0.449078	-0.005303
1765	8.8200e-01	2.3553	-2.981831	0.000269	2.693680	0.456322	-0.005388
1766	8.8250e-01	2.3436	-3.004068	0.000222	2.223355	0.376646	-0.004447
1767	8.8300e-01	2.3331	-3.009199	0.000051	0.513082	0.086918	-0.001026
1768	8.8350e-01	2.3260	-3.054100	0.000449	4.489466	0.760536	-0.008980
1769	8.8400e-01	2.3160	-3.078902	0.000248	2.479895	0.420106	-0.004960
1770	8.8450e-01	2.3053	-3.099428	0.000205	2.052327	0.347674	-0.004105
1771	8.8500e-01	2.2964	-3.113112	0.000137	1.368218	0.231782	-0.002737
1772	8.8550e-01	2.2856	-3.140908	0.000278	2.779193	0.470808	-0.005559
1773	8.8600e-01	2.2771	-3.163999	0.000231	2.308868	0.391133	-0.004618
1774	8.8650e-01	2.2658	-3.187946	0.000239	2.394382	0.405619	-0.004789
1775	8.8700e-01	2.2571	-3.208900	0.000210	2.095084	0.354917	-0.004191
1776	8.8750e-01	2.2455	-3.235840	0.000269	2.693680	0.456322	-0.005388
1777	8.8800e-01	2.2363	-3.252518	0.000167	1.667516	0.282485	-0.003335
1778	8.8850e-01	2.2239	-3.293997	0.000415	4.147411	0.702591	-0.008296
1779	8.8900e-01	2.2182	-3.311530	0.000175	1.753030	0.296971	-0.003507
1780	8.8950e-01	2.2067	-3.329063	0.000175	1.753030	0.296971	-0.003507
1781	8.9000e-01	2.1948	-3.348306	0.000192	1.924057	0.325944	-0.003849
1782	8.9050e-01	2.1848	-3.376529	0.000282	2.821950	0.478051	-0.005645
1783	8.9100e-01	2.1759	-3.396200	0.000197	1.966814	0.333187	-0.003934
1784	8.9150e-01	2.1669	-3.413733	0.000175	1.753030	0.296971	-0.003507
1785	8.9200e-01	2.1564	-3.434686	0.000210	2.095084	0.354917	-0.004191
1786	8.9250e-01	2.1451	-3.454357	0.000197	1.966814	0.333187	-0.003934
1787	8.9300e-01	2.1353	-3.477449	0.000231	2.308868	0.391133	-0.004618
1788	8.9350e-01	2.1249	-3.510376	0.000329	3.292275	0.557726	-0.006585
1789	8.9400e-01	2.1173	-3.533040	0.000227	2.266111	0.383890	-0.004533
1790	8.9450e-01	2.1063	-3.566395	0.000334	3.335032	0.564970	-0.006671
1791	8.9500e-01	2.0980	-3.589487	0.000231	2.308868	0.391133	-0.004618
1792	8.9550e-01	2.0857	-3.620703	0.000312	3.121248	0.528754	-0.006243
1793	8.9600e-01	2.0772	-3.629683	0.000090	0.897893	0.152107	-0.001796
1794	8.9650e-01	2.0663	-3.654913	0.000252	2.522652	0.427349	-0.005046
1795	8.9700e-01	2.0575	-3.680998	0.000261	2.608166	0.441835	-0.005217
1796	8.9750e-01	2.0467	-3.708366	0.000274	2.736436	0.463565	-0.005474
1797	8.9800e-01	2.0360	-3.734452	0.000261	2.608166	0.441835	-0.005217
1798	8.9850e-01	2.0254	-3.749846	0.000154	1.539245	0.260755	-0.003079
1799	8.9900e-01	2.0154	-3.766523	0.000167	1.667516	0.282485	-0.003335
1800	8.9950e-01	2.0065	-3.793464	0.000269	2.693680	0.456322	-0.005388
1801	9.0000e-01	1.9946	-3.812707	0.000192	1.924057	0.325944	-0.003849
1802	9.0050e-01	1.9865	-3.840503	0.000278	2.779193	0.470808	-0.005559
1803	9.0100e-01	1.9760	-3.873430	0.000329	3.292275	0.557726	-0.006585
1804	9.0150e-01	1.9653	-3.900798	0.000274	2.736436	0.463565	-0.005474
1805	9.0200e-01	1.9554	-3.915337	0.000145	1.453732	0.246269	-0.002908
1806	9.0250e-01	1.9461	-3.929021	0.000137	1.368218	0.231782	-0.002737
1807	9.0300e-01	1.9354	-3.957244	0.000282	2.821950	0.478051	-0.005645
1808	9.0350e-01	1.9276	-3.980336	0.000231	2.308868	0.391133	-0.004618
1809	9.0400e-01	1.9151	-4.002573	0.000222	2.223355	0.376646	-0.004447
1810	9.0450e-01	1.9064	-4.041486	0.000389	3.890871	0.659131	-0.007783
1811	9.0500e-01	1.8976	-4.059874	0.000184	1.838543	0.311458	-0.003678
1812	9.0550e-01	1.8863	-4.060730	0.000009	0.085514	0.014486	-0.000171
1813	9.0600e-01	1.8761	-4.101782	0.000410	4.104655	0.695347	-0.008210
1814	9.0650e-01	1.8663	-4.131288	0.000295	2.950220	0.499781	-0.005901
1815	9.0700e-01	1.8567	-4.149248	0.000180	1.795786	0.304214	-0.003592
1816	9.0750e-01	1.8478	-4.173195	0.000239	2.394382	0.405619	-0.004789
1817	9.0800e-01	1.8372	-4.199708	0.000265	2.650923	0.449078	-0.005303
1818	9.0850e-01	1.8278	-4.211254	0.000115	1.154434	0.195566	-0.002309
1819	9.0900e-01	1.8145	-4.245464	0.000342	3.420546	0.579456	-0.006842
1820	9.0950e-01	1.8094	-4.273687	0.000282	2.821950	0.478051	-0.005645
1821	9.1000e-01	1.7963	-4.290364	0.000167	1.667516	0.282485	-0.003335
1822	9.1050e-01	1.7842	-4.300200	0.000098	0.983407	0.166594	-0.001967
1823	9.1100e-01	1.7780	-4.329278	0.000291	2.907464	0.492538	-0.005816
1824	9.1150e-01	1.7648	-4.362633	0.000334	3.335032	0.564970	-0.006671
1825	9.1200e-01	1.7577	-4.384442	0.000218	2.180598	0.369403	-0.004362
1826	9.1250e-01	1.7438	-4.404968	0.000205	2.052327	0.347674	-0.004105
1827	9.1300e-01	1.7355	-4.443027	0.000381	3.805357	0.644645	-0.007612
1828	9.1350e-01	1.7249	-4.449013	0.000060	0.598595	0.101405	-0.001197
1829	9.1400e-01	1.7149	-4.486217	0.000372	3.719843	0.630159	-0.007441
1830	9.1450e-01	1.7046	-4.500328	0.000141	1.410975	0.239026	-0.002822
1831	9.1500e-01	1.6927	-4.514868	0.000145	1.453732	0.246269	-0.002908
1832	9.1550e-01	1.6834	-4.558485	0.000436	4.361196	0.738807	-0.008724
1833	9.1600e-01	1.6760	-4.579867	0.000214	2.137841	0.362160	-0.004276
1834	9.1650e-01	1.6633	-4.596116	0.000162	1.624759	0.275242	-0.003250
1835	9.1700e-01	1.6569	-4.618781	0.000227	2.266111	0.383890	-0.004533
1836	9.1750e-01	1.6449	-4.631182	0.000124	1.239948	0.210053	-0.002480
1837	9.1800e-01	1.6370	-4.670951	0.000398	3.976384	0.673618	-0.007954
1838	9.1850e-01	1.6258	-4.681214	0.000103	1.026164	0.173837	-0.002053
1839	9.1900e-01	1.6145	-4.720555	0.000393	3.933627	0.666375	-0.007868
1840	9.1950e-01	1.6058	-4.745785	0.000252	2.522652	0.427349	-0.005046
1841	9.2000e-01	1.5948	-4.774436	0.000286	2.864707	0.485294	-0.005730
1842	9.2050e-01	1.5864	-4.784272	0.000098	0.983407	0.166594	-0.001967
1843	9.2100e-01	1.5764	-4.819764	0.000355	3.548816	0.601186	-0.007099
1844	9.2150e-01	1.5659	-4.851836	0.000321	3.206761	0.543240	-0.006414
1845	9.2200e-01	1.5528	-4.868086	0.000162	1.624759	0.275242	-0.003250
1846	9.2250e-01	1.5462	-4.899303	0.000312	3.121248	0.528754	-0.006243
1847	9.2300e-01	1.5367	-4.914697	0.000154	1.539245	0.260755	-0.003079
1848	9.2350e-01	1.5257	-4.939927	0.000252	2.522652	0.427349	-0.005046
1849	9.2400e-01	1.5131	-4.947197	0.000073	0.726866	0.123134	-0.001454
1850	9.2450e-01	1.5073	-4.989104	0.000419	4.190168	0.709834	-0.008381
1851	9.2500e-01	1.4928	-5.009630	0.000205	2.052327	0.347674	-0.004105
1852	9.2550e-01	1.4825	-5.026735	0.000171	1.710273	0.289728	-0.003421
1853	9.2600e-01	1.4741	-5.063939	0.000372	3.719843	0.630159	-0.007441
1854	9.2650e-01	1.4679	-5.090451	0.000265	2.650923	0.449078	-0.005303
1855	9.2700e-01	1.4557	-5.103708	0.000133	1.325461	0.224539	-0.002651
1856	9.2750e-01	1.4452	-5.139628	0.000359	3.591573	0.608429	-0.007184
1857	9.2800e-01	1.4342	-5.153312	0.000137	1.368218	0.231782	-0.002737
1858	9.2850e-01	1.4246	-5.169990	0.000167	1.667516	0.282485	-0.003335
1859	9.2900e-01	1.4154	-5.204627	0.000346	3.463302	0.586699	-0.006928
1860	9.2950e-01	1.4029	-5.207193	0.000026	0.256541	0.043459	-0.000513
1861	9.3000e-01	1.3959	-5.240975	0.000338	3.377789	0.572213	-0.006756
1862	9.3050e-01	1.3862	-5.281600	0.000406	4.061898	0.688104	-0.008125
1863	9.3100e-01	1.3766	-5.295711	0.000141	1.410975	0.239026	-0.002822
1864	9.3150e-01	1.3672	-5.323079	0.000274	2.736436	0.463565	-0.005474
1865	9.3200e-01	1.3535	-5.344888	0.000218	2.180598	0.369403	-0.004362
1866	9.3250e-01	1.3416	-5.366270	0.000214	2.137841	0.362160	-0.004276
1867	9.3300e-01	1.3338	-5.382092	0.000158	1.582002	0.267998	-0.003164
1868	9.3350e-01	1.3223	-5.403045	0.000210	2.095084	0.354917	-0.004191
1869	9.3400e-01	1.3123	-5.431269	0.000282	2.821950	0.478051	-0.005645
1870	9.3450e-01	1.3080	-5.459492	0.000282	2.821950	0.478051	-0.005645
1871	9.3500e-01	1.2955	-5.492847	0.000334	3.335032	0.564970	-0.006671
1872	9.3550e-01	1.2848	-5.521925	0.000291	2.907464	0.492538	-0.005816
1873	9.3600e-01	1.2752	-5.539030	0.000171	1.710273	0.289728	-0.003421
1874	9.3650e-01	1.2654	-5.568109	0.000291	2.907464	0.492538	-0.005816
1875	9.3700e-01	1.2538	-5.555708	-0.000124	-1.239948	-0.210053	0.002480
1876	9.3750e-01	1.2463	-5.606595	0.000509	5.088061	0.861941	-0.010177
1877	9.3800e-01	1.2370	-5.641233	0.000346	3.463302	0.586699	-0.006928
1878	9.3850e-01	1.2257	-5.659193	0.000180	1.795786	0.304214	-0.003592
1879	9.3900e-01	1.2167	-5.677153	0.000180	1.795786	0.304214	-0.003592
1880	9.3950e-01	1.2064	-5.725047	0.000479	4.788764	0.811239	-0.009579
1881	9.4000e-01	1.1960	-5.739159	0.000141	1.410975	0.239026	-0.002822
1882	9.4050e-01	1.1884	-5.752415	0.000133	1.325461	0.224539	-0.002651
1883	9.4100e-01	1.1768	-5.784059	0.000316	3.164005	0.535997	-0.006329
1884	9.4150e-01	1.1667	-5.807579	0.000235	2.351625	0.398376	-0.004704
1885	9.4200e-01	1.1559	-5.828960	0.000214	2.137841	0.362160	-0.004276
1886	9.4250e-01	1.1441	-5.856328	0.000274	2.736436	0.463565	-0.005474
1887	9.4300e-01	1.1346	-5.866164	0.000098	0.983407	0.166594	-0.001967
1888	9.4350e-01	1.1253	-5.914485	0.000483	4.831521	0.818482	-0.009664
1889	9.4400e-01	1.1166	-5.931590	0.000171	1.710273	0.289728	-0.003421
1890	9.4450e-01	1.1069	-5.956820	0.000252	2.522652	0.427349	-0.005046
1891	9.4500e-01	1.0973	-5.976918	0.000201	2.009570	0.340430	-0.004020
1892	9.4550e-01	1.0854	-5.994023	0.000171	1.710273	0.289728	-0.003421
1893	9.4600e-01	1.0741	-6.027378	0.000334	3.335032	0.564970	-0.006671
1894	9.4650e-01	1.0682	-6.064154	0.000368	3.677086	0.622915	-0.007355
1895	9.4700e-01	1.0575	-6.101357	0.000372	3.719843	0.630159	-0.007441
1896	9.4750e-01	1.0461	-6.110765	0.000094	0.940650	0.159350	-0.001882
1897	9.4800e-01	1.0339	-6.125304	0.000145	1.453732	0.246269	-0.002908
1898	9.4850e-01	1.0299	-6.150534	0.000252	2.522652	0.427349	-0.005046
1899	9.4900e-01	1.0158	-6.173626	0.000231	2.308868	0.391133	-0.004618
1900	9.4950e-01	1.0063	-6.205270	0.000316	3.164005	0.535997	-0.006329
1901	9.5000e-01	0.9946	-6.223658	0.000184	1.838543	0.311458	-0.003678
1902	9.5050e-01	0.9872	-6.249316	0.000257	2.565409	0.434592	-0.005132
1903	9.5100e-01	0.9756	-6.272835	0.000235	2.351625	0.398376	-0.004704
1904	9.5150e-01	0.9669	-6.295927	0.000231	2.308868	0.391133	-0.004618
1905	9.5200e-01	0.9555	-6.322012	0.000261	2.608166	0.441835	-0.005217
1906	9.5250e-01	0.9465	-6.354512	0.000325	3.249518	0.550483	-0.006500
1907	9.5300e-01	0.9356	-6.365202	0.000107	1.068920	0.181080	-0.002138
1908	9.5350e-01	0.9271	-6.392998	0.000278	2.779193	0.470808	-0.005559
1909	9.5400e-01	0.9133	-6.422504	0.000295	2.950220	0.499781	-0.005901
1910	9.5450e-01	0.9071	-6.438326	0.000158	1.582002	0.267998	-0.003164
1911	9.5500e-01	0.8968	-6.472109	0.000338	3.377789	0.572213	-0.006756
1912	9.5550e-01	0.8875	-6.501615	0.000295	2.950220	0.499781	-0.005901
1913	9.5600e-01	0.8754	-6.528127	0.000265	2.650923	0.449078	-0.005303
1914	9.5650e-01	0.8665	-6.542239	0.000141	1.410975	0.239026	-0.002822
1915	9.5700e-01	0.8558	-6.562765	0.000205	2.052327	0.347674	-0.004105
1916	9.5750e-01	0.8443	-6.594409	0.000316	3.164005	0.535997	-0.006329
1917	9.5800e-01	0.8342	-6.632040	0.000376	3.762600	0.637402	-0.007526
1918	9.5850e-01	0.8237	-6.650001	0.000180	1.795786	0.304214	-0.003592
1919	9.5900e-01	0.8163	-6.679934	0.000299	2.992977	0.507024	-0.005987
1920	9.5950e-01	0.8061	-6.684211	0.000043	0.427568	0.072432	-0.000855
1921	9.6000e-01	0.7968	-6.719704	0.000355	3.548816	0.601186	-0.007099
1922	9.6050e-01	0.7868	-6.744078	0.000244	2.437139	0.412862	-0.004875
1923	9.6100e-01	0.7753	-6.772729	0.000286	2.864707	0.485294	-0.005730
1924	9.6150e-01	0.7613	-6.813354	0.000406	4.061898	0.688104	-0.008125
1925	9.6200e-01	0.7545	-6.836018	0.000227	2.266111	0.383890	-0.004533
1926	9.6250e-01	0.7476	-6.842860	0.000068	0.684109	0.115891	-0.001368
1927	9.6300e-01	0.7359	-6.885622	0.000428	4.275682	0.724320	-0.008553
1928	9.6350e-01	0.7256	-6.899306	0.000137	1.368218	0.231782	-0.002737
1929	9.6400e-01	0.7178	-6.922398	0.000231	2.308868	0.391133	-0.004618
1930	9.6450e-01	0.7046	-6.953615	0.000312	3.121248	0.528754	-0.006243
1931	9.6500e-01	0.6982	-6.977989	0.000244	2.437139	0.412862	-0.004875
1932	9.6550e-01	0.6818	-6.990390	0.000124	1.239948	0.210053	-0.002480
1933	9.6600e-01	0.6745	-7.024600	0.000342	3.420546	0.579456	-0.006842
1934	9.6650e-01	0.6654	-7.045982	0.000214	2.137841	0.362160	-0.004276
1935	9.6700e-01	0.6547	-7.068646	0.000227	2.266111	0.383890	-0.004533
1936	9.6750e-01	0.6461	-7.100718	0.000321	3.206761	0.543240	-0.006414
1937	9.6800e-01	0.6345	-7.123382	0.000227	2.266111	0.383890	-0.004533
1938	9.6850e-01	0.6230	-7.128513	0.000051	0.513082	0.086918	-0.001026
1939	9.6900e-01	0.6171	-7.170421	0.000419	4.190168	0.709834	-0.008381
1940	9.6950e-01	0.6061	-7.198644	0.000282	2.821950	0.478051	-0.005645
1941	9.7000e-01	0.5970	-7.224301	0.000257	2.565409	0.434592	-0.005132
1942	9.7050e-01	0.5865	-7.252525	0.000282	2.821950	0.478051	-0.005645
1943	9.7100e-01	0.5775	-7.261077	0.000086	0.855136	0.144864	-0.001711
1944	9.7150e-01	0.5669	-7.301274	0.000402	4.019141	0.680861	-0.008039
1945	9.7200e-01	0.5556	-7.328642	0.000274	2.736436	0.463565	-0.005474
1946	9.7250e-01	0.5447	-7.347457	0.000188	1.881300	0.318701	-0.003763
1947	9.7300e-01	0.5337	-7.376108	0.000286	2.864707	0.485294	-0.005730
1948	9.7350e-01	0.5239	-7.388082	0.000120	1.197191	0.202810	-0.002395
1949	9.7400e-01	0.5151	-7.441963	0.000539	5.387359	0.912643	-0.010776
1950	9.7450e-01	0.5043	-7.462916	0.000210	2.095084	0.354917	-0.004191
1951	9.7500e-01	0.4949	-7.477456	0.000145	1.453732	0.246269	-0.002908
1952	9.7550e-01	0.4854	-7.504824	0.000274	2.736436	0.463565	-0.005474
1953	9.7600e-01	0.4778	-7.532192	0.000274	2.736436	0.463565	-0.005474
1954	9.7650e-01	0.4660	-7.571533	0.000393	3.933627	0.666375	-0.007868
1955	9.7700e-01	0.4539	-7.582224	0.000107	1.068920	0.181080	-0.002138
1956	9.7750e-01	0.4450	-7.614296	0.000321	3.206761	0.543240	-0.006414
1957	9.7800e-01	0.4356	-7.618144	0.000038	0.384811	0.065189	-0.000770
1958	9.7850e-01	0.4256	-7.660479	0.000423	4.232925	0.717077	-0.008467
1959	9.7900e-01	0.4156	-7.673308	0.000128	1.282705	0.217296	-0.002566
1960	9.7950e-01	0.4042	-7.705807	0.000325	3.249518	0.550483	-0.006500
1961	9.8000e-01	0.3947	-7.728899	0.000231	2.308868	0.391133	-0.004618
1962	9.8050e-01	0.3859	-7.757550	0.000286	2.864707	0.485294	-0.005730
1963	9.8100e-01	0.3765	-7.773800	0.000162	1.624759	0.275242	-0.003250
1964	9.8150e-01	0.3652	-7.812286	0.000385	3.848114	0.651888	-0.007697
1965	9.8200e-01	0.3554	-7.834095	0.000218	2.180598	0.369403	-0.004362
1966	9.8250e-01	0.3458	-7.857187	0.000231	2.308868	0.391133	-0.004618
1967	9.8300e-01	0.3379	-7.881561	0.000244	2.437139	0.412862	-0.004875
1968	9.8350e-01	0.3243	-7.914489	0.000329	3.292275	0.557726	-0.006585
1969	9.8400e-01	0.3136	-7.929028	0.000145	1.453732	0.246269	-0.002908
1970	9.8450e-01	0.3056	-7.949554	0.000205	2.052327	0.347674	-0.004105
1971	9.8500e-01	0.2942	-7.994027	0.000445	4.446709	0.753293	-0.008895
1972	9.8550e-01	0.2850	-8.019257	0.000252	2.522652	0.427349	-0.005046
1973	9.8600e-01	0.2777	-8.029947	0.000107	1.068920	0.181080	-0.002138
1974	9.8650e-01	0.2640	-8.061592	0.000316	3.164005	0.535997	-0.006329
1975	9.8700e-01	0.2556	-8.094091	0.000325	3.249518	0.550483	-0.006500
1976	9.8750e-01	0.2443	-8.100506	0.000064	0.641352	0.108648	-0.001283
1977	9.8800e-01	0.2357	-8.145834	0.000453	4.532223	0.767779	-0.009066
1978	9.8850e-01	0.2254	-8.166360	0.000205	2.052327	0.347674	-0.004105
1979	9.8900e-01	0.2200	-8.206129	0.000398	3.976384	0.673618	-0.007954
1980	9.8950e-01	0.2036	-8.210833	0.000047	0.470325	0.079675	-0.000941
1981	9.9000e-01	0.1962	-8.241622	0.000308	3.078491	0.521510	-0.006158
1982	9.9050e-01	0.1860	-8.262576	0.000210	2.095084	0.354917	-0.004191
1983	9.9100e-01	0.1759	-8.302345	0.000398	3.976384	0.673618	-0.007954
1984	9.9150e-01	0.1652	-8.299779	-0.000026	-0.256541	-0.043459	0.000513
1985	9.9200e-01	0.1543	-8.336127	0.000363	3.634330	0.615672	-0.007270
1986	9.9250e-01	0.1437	-8.359219	0.000231	2.308868	0.391133	-0.004618
1987	9.9300e-01	0.1365	-8.374613	0.000154	1.539245	0.260755	-0.003079
1988	9.9350e-01	0.1220	-8.402409	0.000278	2.779193	0.470808	-0.005559
1989	9.9400e-01	0.1162	-8.452869	0.000505	5.045305	0.854698	-0.010092
1990	9.9450e-01	0.1052	-8.476388	0.000235	2.351625	0.398376	-0.004704
1991	9.9500e-01	0.0980	-8.500335	0.000239	2.394382	0.405619	-0.004789
1992	9.9550e-01	0.0856	-8.528558	0.000282	2.821950	0.478051	-0.005645
1993	9.9600e-01	0.0743	-8.549512	0.000210	2.095084	0.354917	-0.004191
1994	9.9650e-01	0.0672	-8.568328	0.000188	1.881300	0.318701	-0.003763
1995	9.9700e-01	0.0557	-8.589281	0.000210	2.095084	0.354917	-0.004191
1996	9.9750e-01	0.0461	-8.627768	0.000385	3.848114	0.651888	-0.007697
1997	9.9800e-01	0.0356	-8.640169	0.000124	1.239948	0.210053	-0.002480
1998	9.9850e-01	0.0265	-8.685925	0.000457	4.574980	0.775023	-0.009151
1999	9.9900e-01	0.0153	-8.714575	0.000286	2.864707	0.485294	-0.005730
2000	9.9950e-01	0.0078	-8.738950	0.000244	2.437139	0.412862	-0.004875
2001	1.0000e+00	-0.0035	-8.753062	0.000244	2.437139	0.412862	-0.002822

PMax (uC/cm2):	2.23e+01
Pr (uC/cm2):	2.38e+00
-Pr (uC/cm2):	0.00e+00
PLoss (uC/cm2):	0.00e+00
C (Max-Eff) (nF):	2.23e-01
K (Eff):	3.78e+02
Vert. (+/-Pr) Shift (uC/cm2):	1.19e+00
Offset (uC/cm2):	1.11e+01

A (Loop Area - uC/cm2·Volts):	-2.16e-02



Hysteresis Version: 5.48.1 - Radiant Technologies, Inc., 1999 - 9/12/24

