»»»»»»»»»»»»»»»»»»»»»»»»»»»»»»»»»»»» Hysteresis ««««««««««««««««««««««««««««««««««««
»»»  Executed Version:	5.48.1
»»»  Vision Version:	5.48.4 (R)
»»»  Vision Compiled:	9/18/24
»»»  Driver Version:	5.47.0
»»»  Windows Version:	Windows 8 or 8.1
»»»  Processor Information:	x86 (AMD or Intel) - 32 Processors
»»»  Tester Name:	PMF21124-494 (100V)
»»»  Tester S/N:	PMF21124-494
»»»  Internal Amp Type:	100V RevK 270k
»»»  Internal Amp S/N:	iAB2-596/K     
»»»  Execution Count:	1
»»»»»»»»»»»»»»»»»»»»»»»»»»»»»»»»»»»»»»»»»»««««««««««««««««««««««««««««««««««««««««««

Stored:	6/26/2025 - 17:27:37
Configured:	06/26/25 10:24:47 AM
Executed:	06/26/25 05:27:00 PM

»»»»»»»»»»»»»»»»»»»»»»»»»»»»»»»»»»» Sample Info ««««««««««««««««««««««««««««««««««««
Sample Name:	
Lot Name:	
Wafer Name:	
Die Row/Column:	0/0
Capacitor Number:	0
Sample Area (cm2):	1.00e-04
Sample Thickness (microns):	1.50e-01

Amplifier:	Internal

»»»»»»»»»»»»»»»»»»»»»»»»»»»»»»»»»»» Tester Info «««««««««««««««««««««««««««««««««««
Tester Name:	PMF21124-494 (100V)
Tester Serial Number:	PMF21124-494
Return Signal Amp. Level:	1.79 [Index: 2]

»»»»»»»»»»»»»»»»»»»»»»»»»»»»»»»» Hysteresis Info ««««««««««««««««««««««««««««««««««
Task Name:	Hyst-562
Volts:	10.00
Field:	666.67 (kV/cm)
DCBias:	0.00
DCField:	0.00 (kV/cm)
Hysteresis Period (ms):	1.00e+00
Preset:	Enabled
Preset Delay (ms):	1.00e+03
Profile:	Standard Monopolar

»»»»»»»»»»»»»»»»»»»»»»»»»»»»»»»»»»»»»» Data «««««««««««««««««««««««««««««««««««««««
Points:	2001

Valid Data

Point	Time (ms)	Drive Voltage	Measured Polarization (uC/cm2)	Capacitance (uF)	Normalized Capacitance (uF/cm2)	Dielectric Constant	Instantaneous Current (mA)
   1	0.0000e+00	-0.0048	-10.690846	0.000406	4.062254	0.688164	0.008125
   2	5.0000e-04	0.0043	-10.650221	0.000406	4.062254	0.688164	0.008125
   3	1.0000e-03	0.0161	-10.624991	0.000252	2.522874	0.427386	0.005046
   4	1.5000e-03	0.0259	-10.616867	0.000081	0.812451	0.137633	0.001625
   5	2.0000e-03	0.0365	-10.580091	0.000368	3.677409	0.622970	0.007355
   6	2.5000e-03	0.0452	-10.558282	0.000218	2.180789	0.369436	0.004362
   7	3.0000e-03	0.0540	-10.530914	0.000274	2.736676	0.463606	0.005474
   8	3.5000e-03	0.0661	-10.503118	0.000278	2.779437	0.470849	0.005559
   9	4.0000e-03	0.0781	-10.480026	0.000231	2.309071	0.391167	0.004618
  10	4.5000e-03	0.0873	-10.446244	0.000338	3.378085	0.572263	0.006756
  11	5.0000e-03	0.0957	-10.426573	0.000197	1.966986	0.333216	0.003934
  12	5.5000e-03	0.1074	-10.410323	0.000162	1.624902	0.275266	0.003250
  13	6.0000e-03	0.1140	-10.390225	0.000201	2.009747	0.340460	0.004020
  14	6.5000e-03	0.1280	-10.361574	0.000286	2.864958	0.485337	0.005730
  15	7.0000e-03	0.1386	-10.332923	0.000286	2.864958	0.485337	0.005730
  16	7.5000e-03	0.1458	-10.301279	0.000316	3.164282	0.536044	0.006329
  17	8.0000e-03	0.1541	-10.279898	0.000214	2.138029	0.362192	0.004276
  18	8.5000e-03	0.1643	-10.254668	0.000252	2.522874	0.427386	0.005046
  19	9.0000e-03	0.1742	-10.232859	0.000218	2.180789	0.369436	0.004362
  20	9.5000e-03	0.1871	-10.215326	0.000175	1.753183	0.296997	0.003507
  21	1.0000e-02	0.1955	-10.183682	0.000316	3.164282	0.536044	0.006329
  22	1.0500e-02	0.2076	-10.162301	0.000214	2.138029	0.362192	0.004276
  23	1.1000e-02	0.2155	-10.140920	0.000214	2.138029	0.362192	0.004276
  24	1.1500e-02	0.2258	-10.120394	0.000205	2.052507	0.347704	0.004105
  25	1.2000e-02	0.2356	-10.074210	0.000462	4.618142	0.782334	0.009237
  26	1.2500e-02	0.2467	-10.060098	0.000141	1.411099	0.239047	0.002822
  27	1.3000e-02	0.2554	-10.031875	0.000282	2.822198	0.478093	0.005645
  28	1.3500e-02	0.2647	-10.001514	0.000304	3.036000	0.514312	0.006072
  29	1.4000e-02	0.2745	-9.995099	0.000064	0.641409	0.108658	0.001283
  30	1.4500e-02	0.2864	-9.955758	0.000393	3.933972	0.666433	0.007868
  31	1.5000e-02	0.2940	-9.939936	0.000158	1.582141	0.268022	0.003164
  32	1.5500e-02	0.3049	-9.907864	0.000321	3.207043	0.543288	0.006414
  33	1.6000e-02	0.3154	-9.879641	0.000282	2.822198	0.478093	0.005645
  34	1.6500e-02	0.3260	-9.867239	0.000124	1.240057	0.210071	0.002480
  35	1.7000e-02	0.3348	-9.827043	0.000402	4.019494	0.680921	0.008039
  36	1.7500e-02	0.3468	-9.809510	0.000175	1.753183	0.296997	0.003507
  37	1.8000e-02	0.3588	-9.798819	0.000107	1.069014	0.181096	0.002138
  38	1.8500e-02	0.3680	-9.762899	0.000359	3.591888	0.608482	0.007184
  39	1.9000e-02	0.3781	-9.745366	0.000175	1.753183	0.296997	0.003507
  40	1.9500e-02	0.3842	-9.707308	0.000381	3.805691	0.644701	0.007612
  41	2.0000e-02	0.3966	-9.687637	0.000197	1.966986	0.333216	0.003934
  42	2.0500e-02	0.4060	-9.667966	0.000197	1.966986	0.333216	0.003934
  43	2.1000e-02	0.4166	-9.636322	0.000316	3.164282	0.536044	0.006329
  44	2.1500e-02	0.4251	-9.616651	0.000197	1.966986	0.333216	0.003934
  45	2.2000e-02	0.4358	-9.585862	0.000308	3.078761	0.521556	0.006158
  46	2.2500e-02	0.4421	-9.555501	0.000304	3.036000	0.514312	0.006072
  47	2.3000e-02	0.4550	-9.545238	0.000103	1.026254	0.173852	0.002053
  48	2.3500e-02	0.4649	-9.508462	0.000368	3.677409	0.622970	0.007355
  49	2.4000e-02	0.4775	-9.490074	0.000184	1.838705	0.311485	0.003678
  50	2.4500e-02	0.4871	-9.484942	0.000051	0.513127	0.086926	0.001026
  51	2.5000e-02	0.4938	-9.433627	0.000513	5.131268	0.869260	0.010263
  52	2.5500e-02	0.5057	-9.412674	0.000210	2.095268	0.354948	0.004191
  53	2.6000e-02	0.5190	-9.388299	0.000244	2.437352	0.412899	0.004875
  54	2.6500e-02	0.5267	-9.355372	0.000329	3.292564	0.557775	0.006585
  55	2.7000e-02	0.5354	-9.341688	0.000137	1.368338	0.231803	0.002737
  56	2.7500e-02	0.5460	-9.324155	0.000175	1.753183	0.296997	0.003507
  57	2.8000e-02	0.5541	-9.295932	0.000282	2.822198	0.478093	0.005645
  58	2.8500e-02	0.5666	-9.268564	0.000274	2.736676	0.463606	0.005474
  59	2.9000e-02	0.5775	-9.242906	0.000257	2.565634	0.434630	0.005132
  60	2.9500e-02	0.5836	-9.209552	0.000334	3.335324	0.565019	0.006671
  61	3.0000e-02	0.5958	-9.179190	0.000304	3.036000	0.514312	0.006072
  62	3.0500e-02	0.6058	-9.163368	0.000158	1.582141	0.268022	0.003164
  63	3.1000e-02	0.6158	-9.133007	0.000304	3.036000	0.514312	0.006072
  64	3.1500e-02	0.6296	-9.118040	0.000150	1.496620	0.253534	0.002993
  65	3.2000e-02	0.6359	-9.101790	0.000162	1.624902	0.275266	0.003250
  66	3.2500e-02	0.6464	-9.077416	0.000244	2.437352	0.412899	0.004875
  67	3.3000e-02	0.6541	-9.044916	0.000325	3.249803	0.550532	0.006500
  68	3.3500e-02	0.6654	-9.023107	0.000218	2.180789	0.369436	0.004362
  69	3.4000e-02	0.6778	-9.016265	0.000068	0.684169	0.115901	0.001368
  70	3.4500e-02	0.6866	-8.964522	0.000517	5.174029	0.876504	0.010349
  71	3.5000e-02	0.6960	-8.940148	0.000244	2.437352	0.412899	0.004875
  72	3.5500e-02	0.7063	-8.913207	0.000269	2.693916	0.456362	0.005388
  73	3.6000e-02	0.7160	-8.898241	0.000150	1.496620	0.253534	0.002993
  74	3.6500e-02	0.7246	-8.876432	0.000218	2.180789	0.369436	0.004362
  75	3.7000e-02	0.7358	-8.835807	0.000406	4.062254	0.688164	0.008125
  76	3.7500e-02	0.7461	-8.822551	0.000133	1.325578	0.224559	0.002651
  77	3.8000e-02	0.7543	-8.805018	0.000175	1.753183	0.296997	0.003507
  78	3.8500e-02	0.7655	-8.773802	0.000312	3.121522	0.528800	0.006243
  79	3.9000e-02	0.7786	-8.759690	0.000141	1.411099	0.239047	0.002822
  80	3.9500e-02	0.7834	-8.726335	0.000334	3.335324	0.565019	0.006671
  81	4.0000e-02	0.7961	-8.708375	0.000180	1.795944	0.304241	0.003592
  82	4.0500e-02	0.8064	-8.680152	0.000282	2.822198	0.478093	0.005645
  83	4.1000e-02	0.8148	-8.652356	0.000278	2.779437	0.470849	0.005559
  84	4.1500e-02	0.8252	-8.614297	0.000381	3.805691	0.644701	0.007612
  85	4.2000e-02	0.8354	-8.606600	0.000077	0.769690	0.130389	0.001539
  86	4.2500e-02	0.8472	-8.576239	0.000304	3.036000	0.514312	0.006072
  87	4.3000e-02	0.8549	-8.545022	0.000312	3.121522	0.528800	0.006243
  88	4.3500e-02	0.8665	-8.524496	0.000205	2.052507	0.347704	0.004105
  89	4.4000e-02	0.8784	-8.503542	0.000210	2.095268	0.354948	0.004191
  90	4.4500e-02	0.8856	-8.480023	0.000235	2.351831	0.398411	0.004704
  91	4.5000e-02	0.8990	-8.449234	0.000308	3.078761	0.521556	0.006158
  92	4.5500e-02	0.9079	-8.426142	0.000231	2.309071	0.391167	0.004618
  93	4.6000e-02	0.9175	-8.391505	0.000346	3.463606	0.586751	0.006928
  94	4.6500e-02	0.9257	-8.373972	0.000175	1.753183	0.296997	0.003507
  95	4.7000e-02	0.9348	-8.352163	0.000218	2.180789	0.369436	0.004362
  96	4.7500e-02	0.9467	-8.335913	0.000162	1.624902	0.275266	0.003250
  97	4.8000e-02	0.9579	-8.300848	0.000351	3.506367	0.593995	0.007013
  98	4.8500e-02	0.9662	-8.279039	0.000218	2.180789	0.369436	0.004362
  99	4.9000e-02	0.9775	-8.254664	0.000244	2.437352	0.412899	0.004875
 100	4.9500e-02	0.9868	-8.227296	0.000274	2.736676	0.463606	0.005474
 101	5.0000e-02	0.9985	-8.206770	0.000205	2.052507	0.347704	0.004105
 102	5.0500e-02	1.0059	-8.174271	0.000325	3.249803	0.550532	0.006500
 103	5.1000e-02	1.0160	-8.158876	0.000154	1.539381	0.260778	0.003079
 104	5.1500e-02	1.0253	-8.137068	0.000218	2.180789	0.369436	0.004362
 105	5.2000e-02	1.0371	-8.105423	0.000316	3.164282	0.536044	0.006329
 106	5.2500e-02	1.0486	-8.079766	0.000257	2.565634	0.434630	0.005132
 107	5.3000e-02	1.0537	-8.057529	0.000222	2.223550	0.376680	0.004447
 108	5.3500e-02	1.0657	-8.038286	0.000192	1.924226	0.325973	0.003849
 109	5.4000e-02	1.0754	-8.011773	0.000265	2.651155	0.449118	0.005303
 110	5.4500e-02	1.0847	-7.970721	0.000411	4.105015	0.695408	0.008210
 111	5.5000e-02	1.0962	-7.963452	0.000073	0.726930	0.123145	0.001454
 112	5.5500e-02	1.1071	-7.946347	0.000171	1.710423	0.289753	0.003421
 113	5.6000e-02	1.1183	-7.912564	0.000338	3.378085	0.572263	0.006756
 114	5.6500e-02	1.1266	-7.889473	0.000231	2.309071	0.391167	0.004618
 115	5.7000e-02	1.1367	-7.863815	0.000257	2.565634	0.434630	0.005132
 116	5.7500e-02	1.1474	-7.850986	0.000128	1.282817	0.217315	0.002566
 117	5.8000e-02	1.1554	-7.819770	0.000312	3.121522	0.528800	0.006243
 118	5.8500e-02	1.1653	-7.794540	0.000252	2.522874	0.427386	0.005046
 119	5.9000e-02	1.1782	-7.767599	0.000269	2.693916	0.456362	0.005388
 120	5.9500e-02	1.1875	-7.751777	0.000158	1.582141	0.268022	0.003164
 121	6.0000e-02	1.1956	-7.730396	0.000214	2.138029	0.362192	0.004276
 122	6.0500e-02	1.2061	-7.690199	0.000402	4.019494	0.680921	0.008039
 123	6.1000e-02	1.2147	-7.663686	0.000265	2.651155	0.449118	0.005303
 124	6.1500e-02	1.2267	-7.658127	0.000056	0.555887	0.094170	0.001112
 125	6.2000e-02	1.2340	-7.623490	0.000346	3.463606	0.586751	0.006928
 126	6.2500e-02	1.2471	-7.592273	0.000312	3.121522	0.528800	0.006243
 127	6.3000e-02	1.2555	-7.567471	0.000248	2.480113	0.420143	0.004960
 128	6.3500e-02	1.2666	-7.562767	0.000047	0.470366	0.079682	0.000941
 129	6.4000e-02	1.2782	-7.523853	0.000389	3.891212	0.659189	0.007783
 130	6.4500e-02	1.2856	-7.503327	0.000205	2.052507	0.347704	0.004105
 131	6.5000e-02	1.2950	-7.478525	0.000248	2.480113	0.420143	0.004960
 132	6.5500e-02	1.3054	-7.456288	0.000222	2.223550	0.376680	0.004447
 133	6.6000e-02	1.3150	-7.425927	0.000304	3.036000	0.514312	0.006072
 134	6.6500e-02	1.3253	-7.403690	0.000222	2.223550	0.376680	0.004447
 135	6.7000e-02	1.3370	-7.384875	0.000188	1.881465	0.318729	0.003763
 136	6.7500e-02	1.3496	-7.352375	0.000325	3.249803	0.550532	0.006500
 137	6.8000e-02	1.3573	-7.348099	0.000043	0.427606	0.072438	0.000855
 138	6.8500e-02	1.3658	-7.309185	0.000389	3.891212	0.659189	0.007783
 139	6.9000e-02	1.3755	-7.299777	0.000094	0.940733	0.159364	0.001882
 140	6.9500e-02	1.3838	-7.266850	0.000329	3.292564	0.557775	0.006585
 141	7.0000e-02	1.3960	-7.237772	0.000291	2.907719	0.492581	0.005816
 142	7.0500e-02	1.4045	-7.219384	0.000184	1.838705	0.311485	0.003678
 143	7.1000e-02	1.4146	-7.212542	0.000068	0.684169	0.115901	0.001368
 144	7.1500e-02	1.4248	-7.166786	0.000458	4.575381	0.775091	0.009151
 145	7.2000e-02	1.4337	-7.133859	0.000329	3.292564	0.557775	0.006585
 146	7.2500e-02	1.4432	-7.109484	0.000244	2.437352	0.412899	0.004875
 147	7.3000e-02	1.4529	-7.080833	0.000286	2.864958	0.485337	0.005730
 148	7.3500e-02	1.4677	-7.072281	0.000086	0.855211	0.144877	0.001711
 149	7.4000e-02	1.4745	-7.039781	0.000325	3.249803	0.550532	0.006500
 150	7.4500e-02	1.4844	-7.012413	0.000274	2.736676	0.463606	0.005474
 151	7.5000e-02	1.4960	-7.003433	0.000090	0.897972	0.152121	0.001796
 152	7.5500e-02	1.5058	-6.967512	0.000359	3.591888	0.608482	0.007184
 153	7.6000e-02	1.5160	-6.946131	0.000214	2.138029	0.362192	0.004276
 154	7.6500e-02	1.5266	-6.930737	0.000154	1.539381	0.260778	0.003079
 155	7.7000e-02	1.5363	-6.909783	0.000210	2.095268	0.354948	0.004191
 156	7.7500e-02	1.5479	-6.873007	0.000368	3.677409	0.622970	0.007355
 157	7.8000e-02	1.5552	-6.844356	0.000286	2.864958	0.485337	0.005730
 158	7.8500e-02	1.5657	-6.827679	0.000167	1.667662	0.282510	0.003335
 159	7.9000e-02	1.5760	-6.811429	0.000162	1.624902	0.275266	0.003250
 160	7.9500e-02	1.5887	-6.776792	0.000346	3.463606	0.586751	0.006928
 161	8.0000e-02	1.5976	-6.754127	0.000227	2.266310	0.383923	0.004533
 162	8.0500e-02	1.6040	-6.734029	0.000201	2.009747	0.340460	0.004020
 163	8.1000e-02	1.6183	-6.706661	0.000274	2.736676	0.463606	0.005474
 164	8.1500e-02	1.6241	-6.677155	0.000295	2.950479	0.499825	0.005901
 165	8.2000e-02	1.6357	-6.655346	0.000218	2.180789	0.369436	0.004362
 166	8.2500e-02	1.6451	-6.648504	0.000068	0.684169	0.115901	0.001368
 167	8.3000e-02	1.6575	-6.623702	0.000248	2.480113	0.420143	0.004960
 168	8.3500e-02	1.6685	-6.593340	0.000304	3.036000	0.514312	0.006072
 169	8.4000e-02	1.6760	-6.567683	0.000257	2.565634	0.434630	0.005132
 170	8.4500e-02	1.6883	-6.544591	0.000231	2.309071	0.391167	0.004618
 171	8.5000e-02	1.6969	-6.521499	0.000231	2.309071	0.391167	0.004618
 172	8.5500e-02	1.7062	-6.489000	0.000325	3.249803	0.550532	0.006500
 173	8.6000e-02	1.7157	-6.474033	0.000150	1.496620	0.253534	0.002993
 174	8.6500e-02	1.7274	-6.452652	0.000214	2.138029	0.362192	0.004276
 175	8.7000e-02	1.7380	-6.434691	0.000180	1.795944	0.304241	0.003592
 176	8.7500e-02	1.7481	-6.394067	0.000406	4.062254	0.688164	0.008125
 177	8.8000e-02	1.7566	-6.371830	0.000222	2.223550	0.376680	0.004447
 178	8.8500e-02	1.7642	-6.351304	0.000205	2.052507	0.347704	0.004105
 179	8.9000e-02	1.7749	-6.337193	0.000141	1.411099	0.239047	0.002822
 180	8.9500e-02	1.7877	-6.301272	0.000359	3.591888	0.608482	0.007184
 181	9.0000e-02	1.7944	-6.286733	0.000145	1.453859	0.246290	0.002908
 182	9.0500e-02	1.8063	-6.259793	0.000269	2.693916	0.456362	0.005388
 183	9.1000e-02	1.8161	-6.240549	0.000192	1.924226	0.325973	0.003849
 184	9.1500e-02	1.8265	-6.221734	0.000188	1.881465	0.318729	0.003763
 185	9.2000e-02	1.8353	-6.187096	0.000346	3.463606	0.586751	0.006928
 186	9.2500e-02	1.8457	-6.145189	0.000419	4.190536	0.709896	0.008381
 187	9.3000e-02	1.8585	-6.125091	0.000201	2.009747	0.340460	0.004020
 188	9.3500e-02	1.8656	-6.106703	0.000184	1.838705	0.311485	0.003678
 189	9.4000e-02	1.8767	-6.101999	0.000047	0.470366	0.079682	0.000941
 190	9.4500e-02	1.8847	-6.064368	0.000376	3.762930	0.637458	0.007526
 191	9.5000e-02	1.9001	-6.042131	0.000222	2.223550	0.376680	0.004447
 192	9.5500e-02	1.9077	-6.022461	0.000197	1.966986	0.333216	0.003934
 193	9.6000e-02	1.9153	-6.000224	0.000222	2.223550	0.376680	0.004447
 194	9.6500e-02	1.9238	-5.965159	0.000351	3.506367	0.593995	0.007013
 195	9.7000e-02	1.9343	-5.945060	0.000201	2.009747	0.340460	0.004020
 196	9.7500e-02	1.9460	-5.918548	0.000265	2.651155	0.449118	0.005303
 197	9.8000e-02	1.9548	-5.900160	0.000184	1.838705	0.311485	0.003678
 198	9.8500e-02	1.9648	-5.872364	0.000278	2.779437	0.470849	0.005559
 199	9.9000e-02	1.9762	-5.850128	0.000222	2.223550	0.376680	0.004447
 200	9.9500e-02	1.9849	-5.854404	-0.000043	-0.427606	-0.072438	-0.000855
 201	1.0000e-01	1.9954	-5.807793	0.000466	4.660902	0.789578	0.009322
 202	1.0050e-01	2.0047	-5.787267	0.000205	2.052507	0.347704	0.004105
 203	1.0100e-01	2.0176	-5.759471	0.000278	2.779437	0.470849	0.005559
 204	1.0150e-01	2.0239	-5.733813	0.000257	2.565634	0.434630	0.005132
 205	1.0200e-01	2.0368	-5.708584	0.000252	2.522874	0.427386	0.005046
 206	1.0250e-01	2.0447	-5.694472	0.000141	1.411099	0.239047	0.002822
 207	1.0300e-01	2.0557	-5.667532	0.000269	2.693916	0.456362	0.005388
 208	1.0350e-01	2.0654	-5.639308	0.000282	2.822198	0.478093	0.005645
 209	1.0400e-01	2.0764	-5.620493	0.000188	1.881465	0.318729	0.003763
 210	1.0450e-01	2.0856	-5.601677	0.000188	1.881465	0.318729	0.003763
 211	1.0500e-01	2.0974	-5.575165	0.000265	2.651155	0.449118	0.005303
 212	1.0550e-01	2.1063	-5.552500	0.000227	2.266310	0.383923	0.004533
 213	1.0600e-01	2.1182	-5.525988	0.000265	2.651155	0.449118	0.005303
 214	1.0650e-01	2.1248	-5.491778	0.000342	3.420846	0.579507	0.006842
 215	1.0700e-01	2.1369	-5.467831	0.000239	2.394592	0.405655	0.004789
 216	1.0750e-01	2.1455	-5.453291	0.000145	1.453859	0.246290	0.002908
 217	1.0800e-01	2.1570	-5.430627	0.000227	2.266310	0.383923	0.004533
 218	1.0850e-01	2.1641	-5.406680	0.000239	2.394592	0.405655	0.004789
 219	1.0900e-01	2.1735	-5.378885	0.000278	2.779437	0.470849	0.005559
 220	1.0950e-01	2.1863	-5.348095	0.000308	3.078761	0.521556	0.006158
 221	1.1000e-01	2.1954	-5.323721	0.000244	2.437352	0.412899	0.004875
 222	1.1050e-01	2.2058	-5.306616	0.000171	1.710423	0.289753	0.003421
 223	1.1100e-01	2.2150	-5.289938	0.000167	1.667662	0.282510	0.003335
 224	1.1150e-01	2.2258	-5.270268	0.000197	1.966986	0.333216	0.003934
 225	1.1200e-01	2.2351	-5.239051	0.000312	3.121522	0.528800	0.006243
 226	1.1250e-01	2.2466	-5.218953	0.000201	2.009747	0.340460	0.004020
 227	1.1300e-01	2.2562	-5.194578	0.000244	2.437352	0.412899	0.004875
 228	1.1350e-01	2.2688	-5.167210	0.000274	2.736676	0.463606	0.005474
 229	1.1400e-01	2.2723	-5.135993	0.000312	3.121522	0.528800	0.006243
 230	1.1450e-01	2.2848	-5.123165	0.000128	1.282817	0.217315	0.002566
 231	1.1500e-01	2.2974	-5.097507	0.000257	2.565634	0.434630	0.005132
 232	1.1550e-01	2.3070	-5.085961	0.000115	1.154535	0.195584	0.002309
 233	1.1600e-01	2.3184	-5.051751	0.000342	3.420846	0.579507	0.006842
 234	1.1650e-01	2.3260	-5.028232	0.000235	2.351831	0.398411	0.004704
 235	1.1700e-01	2.3378	-5.011982	0.000162	1.624902	0.275266	0.003250
 236	1.1750e-01	2.3450	-4.970930	0.000411	4.105015	0.695408	0.008210
 237	1.1800e-01	2.3572	-4.958529	0.000124	1.240057	0.210071	0.002480
 238	1.1850e-01	2.3637	-4.926885	0.000316	3.164282	0.536044	0.006329
 239	1.1900e-01	2.3795	-4.908497	0.000184	1.838705	0.311485	0.003678
 240	1.1950e-01	2.3859	-4.884550	0.000239	2.394592	0.405655	0.004789
 241	1.2000e-01	2.3947	-4.869155	0.000154	1.539381	0.260778	0.003079
 242	1.2050e-01	2.4048	-4.843925	0.000252	2.522874	0.427386	0.005046
 243	1.2100e-01	2.4170	-4.828103	0.000158	1.582141	0.268022	0.003164
 244	1.2150e-01	2.4274	-4.805011	0.000231	2.309071	0.391167	0.004618
 245	1.2200e-01	2.4354	-4.781064	0.000239	2.394592	0.405655	0.004789
 246	1.2250e-01	2.4471	-4.748137	0.000329	3.292564	0.557775	0.006585
 247	1.2300e-01	2.4573	-4.724618	0.000235	2.351831	0.398411	0.004704
 248	1.2350e-01	2.4673	-4.702381	0.000222	2.223550	0.376680	0.004447
 249	1.2400e-01	2.4762	-4.684849	0.000175	1.753183	0.296997	0.003507
 250	1.2450e-01	2.4867	-4.672448	0.000124	1.240057	0.210071	0.002480
 251	1.2500e-01	2.4942	-4.639520	0.000329	3.292564	0.557775	0.006585
 252	1.2550e-01	2.5055	-4.607021	0.000325	3.249803	0.550532	0.006500
 253	1.2600e-01	2.5153	-4.584784	0.000222	2.223550	0.376680	0.004447
 254	1.2650e-01	2.5275	-4.577087	0.000077	0.769690	0.130389	0.001539
 255	1.2700e-01	2.5349	-4.541594	0.000355	3.549127	0.601238	0.007099
 256	1.2750e-01	2.5455	-4.518502	0.000231	2.309071	0.391167	0.004618
 257	1.2800e-01	2.5571	-4.489852	0.000286	2.864958	0.485337	0.005730
 258	1.2850e-01	2.5659	-4.470181	0.000197	1.966986	0.333216	0.003934
 259	1.2900e-01	2.5771	-4.461201	0.000090	0.897972	0.152121	0.001796
 260	1.2950e-01	2.5851	-4.440675	0.000205	2.052507	0.347704	0.004105
 261	1.3000e-01	2.5957	-4.401761	0.000389	3.891212	0.659189	0.007783
 262	1.3050e-01	2.6074	-4.378669	0.000231	2.309071	0.391167	0.004618
 263	1.3100e-01	2.6160	-4.363702	0.000150	1.496620	0.253534	0.002993
 264	1.3150e-01	2.6245	-4.334624	0.000291	2.907719	0.492581	0.005816
 265	1.3200e-01	2.6358	-4.314953	0.000197	1.966986	0.333216	0.003934
 266	1.3250e-01	2.6456	-4.279032	0.000359	3.591888	0.608482	0.007184
 267	1.3300e-01	2.6556	-4.267914	0.000111	1.111775	0.188340	0.002224
 268	1.3350e-01	2.6659	-4.234987	0.000329	3.292564	0.557775	0.006585
 269	1.3400e-01	2.6759	-4.207191	0.000278	2.779437	0.470849	0.005559
 270	1.3450e-01	2.6871	-4.193080	0.000141	1.411099	0.239047	0.002822
 271	1.3500e-01	2.6978	-4.169560	0.000235	2.351831	0.398411	0.004704
 272	1.3550e-01	2.7048	-4.146896	0.000227	2.266310	0.383923	0.004533
 273	1.3600e-01	2.7181	-4.122094	0.000248	2.480113	0.420143	0.004960
 274	1.3650e-01	2.7256	-4.096009	0.000261	2.608395	0.441874	0.005217
 275	1.3700e-01	2.7368	-4.087029	0.000090	0.897972	0.152121	0.001796
 276	1.3750e-01	2.7423	-4.048542	0.000385	3.848451	0.651945	0.007697
 277	1.3800e-01	2.7567	-4.035286	0.000133	1.325578	0.224559	0.002651
 278	1.3850e-01	2.7625	-4.008346	0.000269	2.693916	0.456362	0.005388
 279	1.3900e-01	2.7753	-3.984398	0.000239	2.394592	0.405655	0.004789
 280	1.3950e-01	2.7898	-3.974135	0.000103	1.026254	0.173852	0.002053
 281	1.4000e-01	2.7965	-3.943774	0.000304	3.036000	0.514312	0.006072
 282	1.4050e-01	2.8043	-3.918117	0.000257	2.565634	0.434630	0.005132
 283	1.4100e-01	2.8149	-3.890321	0.000278	2.779437	0.470849	0.005559
 284	1.4150e-01	2.8256	-3.872361	0.000180	1.795944	0.304241	0.003592
 285	1.4200e-01	2.8374	-3.858249	0.000141	1.411099	0.239047	0.002822
 286	1.4250e-01	2.8461	-3.827032	0.000312	3.121522	0.528800	0.006243
 287	1.4300e-01	2.8561	-3.802658	0.000244	2.437352	0.412899	0.004875
 288	1.4350e-01	2.8668	-3.783415	0.000192	1.924226	0.325973	0.003849
 289	1.4400e-01	2.8743	-3.761178	0.000222	2.223550	0.376680	0.004447
 290	1.4450e-01	2.8864	-3.740652	0.000205	2.052507	0.347704	0.004105
 291	1.4500e-01	2.8962	-3.713712	0.000269	2.693916	0.456362	0.005388
 292	1.4550e-01	2.9077	-3.698745	0.000150	1.496620	0.253534	0.002993
 293	1.4600e-01	2.9163	-3.673087	0.000257	2.565634	0.434630	0.005132
 294	1.4650e-01	2.9239	-3.646147	0.000269	2.693916	0.456362	0.005388
 295	1.4700e-01	2.9348	-3.616641	0.000295	2.950479	0.499825	0.005901
 296	1.4750e-01	2.9443	-3.593977	0.000227	2.266310	0.383923	0.004533
 297	1.4800e-01	2.9578	-3.578154	0.000158	1.582141	0.268022	0.003164
 298	1.4850e-01	2.9688	-3.557201	0.000210	2.095268	0.354948	0.004191
 299	1.4900e-01	2.9781	-3.541379	0.000158	1.582141	0.268022	0.003164
 300	1.4950e-01	2.9828	-3.503748	0.000376	3.762930	0.637458	0.007526
 301	1.5000e-01	2.9952	-3.487926	0.000158	1.582141	0.268022	0.003164
 302	1.5050e-01	3.0080	-3.452860	0.000351	3.506367	0.593995	0.007013
 303	1.5100e-01	3.0182	-3.444308	0.000086	0.855211	0.144877	0.001711
 304	1.5150e-01	3.0249	-3.415229	0.000291	2.907719	0.492581	0.005816
 305	1.5200e-01	3.0359	-3.396414	0.000188	1.881465	0.318729	0.003763
 306	1.5250e-01	3.0460	-3.386578	0.000098	0.983493	0.166608	0.001967
 307	1.5300e-01	3.0566	-3.357500	0.000291	2.907719	0.492581	0.005816
 308	1.5350e-01	3.0655	-3.317731	0.000398	3.976733	0.673677	0.007954
 309	1.5400e-01	3.0768	-3.306185	0.000115	1.154535	0.195584	0.002309
 310	1.5450e-01	3.0902	-3.282665	0.000235	2.351831	0.398411	0.004704
 311	1.5500e-01	3.0973	-3.262567	0.000201	2.009747	0.340460	0.004020
 312	1.5550e-01	3.1067	-3.219377	0.000432	4.318818	0.731628	0.008638
 313	1.5600e-01	3.1168	-3.201844	0.000175	1.753183	0.296997	0.003507
 314	1.5650e-01	3.1290	-3.186877	0.000150	1.496620	0.253534	0.002993
 315	1.5700e-01	3.1366	-3.160792	0.000261	2.608395	0.441874	0.005217
 316	1.5750e-01	3.1480	-3.141977	0.000188	1.881465	0.318729	0.003763
 317	1.5800e-01	3.1563	-3.122306	0.000197	1.966986	0.333216	0.003934
 318	1.5850e-01	3.1664	-3.098359	0.000239	2.394592	0.405655	0.004789
 319	1.5900e-01	3.1757	-3.060728	0.000376	3.762930	0.637458	0.007526
 320	1.5950e-01	3.1864	-3.058590	0.000021	0.213803	0.036219	0.000428
 321	1.6000e-01	3.1964	-3.030794	0.000278	2.779437	0.470849	0.005559
 322	1.6050e-01	3.2047	-3.007702	0.000231	2.309071	0.391167	0.004618
 323	1.6100e-01	3.2178	-2.990597	0.000171	1.710423	0.289753	0.003421
 324	1.6150e-01	3.2245	-2.957243	0.000334	3.335324	0.565019	0.006671
 325	1.6200e-01	3.2365	-2.938427	0.000188	1.881465	0.318729	0.003763
 326	1.6250e-01	3.2442	-2.905928	0.000325	3.249803	0.550532	0.006500
 327	1.6300e-01	3.2542	-2.889250	0.000167	1.667662	0.282510	0.003335
 328	1.6350e-01	3.2672	-2.877277	0.000120	1.197296	0.202827	0.002395
 329	1.6400e-01	3.2776	-2.840073	0.000372	3.720170	0.630214	0.007441
 330	1.6450e-01	3.2851	-2.819120	0.000210	2.095268	0.354948	0.004191
 331	1.6500e-01	3.2965	-2.808001	0.000111	1.111775	0.188340	0.002224
 332	1.6550e-01	3.3044	-2.778068	0.000299	2.993240	0.507069	0.005987
 333	1.6600e-01	3.3176	-2.755403	0.000227	2.266310	0.383923	0.004533
 334	1.6650e-01	3.3247	-2.739581	0.000158	1.582141	0.268022	0.003164
 335	1.6700e-01	3.3362	-2.715207	0.000244	2.437352	0.412899	0.004875
 336	1.6750e-01	3.3459	-2.693825	0.000214	2.138029	0.362192	0.004276
 337	1.6800e-01	3.3570	-2.678859	0.000150	1.496620	0.253534	0.002993
 338	1.6850e-01	3.3631	-2.650208	0.000286	2.864958	0.485337	0.005730
 339	1.6900e-01	3.3771	-2.623695	0.000265	2.651155	0.449118	0.005303
 340	1.6950e-01	3.3841	-2.605307	0.000184	1.838705	0.311485	0.003678
 341	1.7000e-01	3.3967	-2.580932	0.000244	2.437352	0.412899	0.004875
 342	1.7050e-01	3.4050	-2.551854	0.000291	2.907719	0.492581	0.005816
 343	1.7100e-01	3.4180	-2.531755	0.000201	2.009747	0.340460	0.004020
 344	1.7150e-01	3.4259	-2.513795	0.000180	1.795944	0.304241	0.003592
 345	1.7200e-01	3.4351	-2.480868	0.000329	3.292564	0.557775	0.006585
 346	1.7250e-01	3.4451	-2.470605	0.000103	1.026254	0.173852	0.002053
 347	1.7300e-01	3.4586	-2.437678	0.000329	3.292564	0.557775	0.006585
 348	1.7350e-01	3.4656	-2.432974	0.000047	0.470366	0.079682	0.000941
 349	1.7400e-01	3.4766	-2.397909	0.000351	3.506367	0.593995	0.007013
 350	1.7450e-01	3.4872	-2.369685	0.000282	2.822198	0.478093	0.005645
 351	1.7500e-01	3.4991	-2.370541	-0.000009	-0.085521	-0.014488	-0.000171
 352	1.7550e-01	3.5043	-2.328206	0.000423	4.233296	0.717140	0.008467
 353	1.7600e-01	3.5172	-2.321791	0.000064	0.641409	0.108658	0.001283
 354	1.7650e-01	3.5248	-2.285443	0.000363	3.634648	0.615726	0.007270
 355	1.7700e-01	3.5388	-2.263207	0.000222	2.223550	0.376680	0.004447
 356	1.7750e-01	3.5458	-2.240543	0.000227	2.266310	0.383923	0.004533
 357	1.7800e-01	3.5576	-2.237122	0.000034	0.342085	0.057951	0.000684
 358	1.7850e-01	3.5663	-2.194359	0.000428	4.276057	0.724384	0.008553
 359	1.7900e-01	3.5751	-2.171267	0.000231	2.309071	0.391167	0.004618
 360	1.7950e-01	3.5885	-2.143472	0.000278	2.779437	0.470849	0.005559
 361	1.8000e-01	3.5980	-2.135774	0.000077	0.769690	0.130389	0.001539
 362	1.8050e-01	3.6063	-2.114393	0.000214	2.138029	0.362192	0.004276
 363	1.8100e-01	3.6159	-2.093440	0.000210	2.095268	0.354948	0.004191
 364	1.8150e-01	3.6292	-2.077617	0.000158	1.582141	0.268022	0.003164
 365	1.8200e-01	3.6328	-2.053243	0.000244	2.437352	0.412899	0.004875
 366	1.8250e-01	3.6459	-2.031861	0.000214	2.138029	0.362192	0.004276
 367	1.8300e-01	3.6561	-1.993803	0.000381	3.805691	0.644701	0.007612
 368	1.8350e-01	3.6667	-1.980119	0.000137	1.368338	0.231803	0.002737
 369	1.8400e-01	3.6798	-1.962159	0.000180	1.795944	0.304241	0.003592
 370	1.8450e-01	3.6847	-1.922817	0.000393	3.933972	0.666433	0.007868
 371	1.8500e-01	3.6969	-1.905712	0.000171	1.710423	0.289753	0.003421
 372	1.8550e-01	3.7068	-1.886041	0.000197	1.966986	0.333216	0.003934
 373	1.8600e-01	3.7170	-1.868081	0.000180	1.795944	0.304241	0.003592
 374	1.8650e-01	3.7265	-1.835581	0.000325	3.249803	0.550532	0.006500
 375	1.8700e-01	3.7367	-1.839430	-0.000038	-0.384845	-0.065195	-0.000770
 376	1.8750e-01	3.7463	-1.801371	0.000381	3.805691	0.644701	0.007612
 377	1.8800e-01	3.7579	-1.779990	0.000214	2.138029	0.362192	0.004276
 378	1.8850e-01	3.7646	-1.754760	0.000252	2.522874	0.427386	0.005046
 379	1.8900e-01	3.7741	-1.732096	0.000227	2.266310	0.383923	0.004533
 380	1.8950e-01	3.7872	-1.719267	0.000128	1.282817	0.217315	0.002566
 381	1.9000e-01	3.7952	-1.692755	0.000265	2.651155	0.449118	0.005303
 382	1.9050e-01	3.8049	-1.661966	0.000308	3.078761	0.521556	0.006158
 383	1.9100e-01	3.8153	-1.644433	0.000175	1.753183	0.296997	0.003507
 384	1.9150e-01	3.8252	-1.618775	0.000257	2.565634	0.434630	0.005132
 385	1.9200e-01	3.8370	-1.604664	0.000141	1.411099	0.239047	0.002822
 386	1.9250e-01	3.8464	-1.582427	0.000222	2.223550	0.376680	0.004447
 387	1.9300e-01	3.8544	-1.552921	0.000295	2.950479	0.499825	0.005901
 388	1.9350e-01	3.8657	-1.545652	0.000073	0.726930	0.123145	0.001454
 389	1.9400e-01	3.8765	-1.516145	0.000295	2.950479	0.499825	0.005901
 390	1.9450e-01	3.8858	-1.492626	0.000235	2.351831	0.398411	0.004704
 391	1.9500e-01	3.8976	-1.481080	0.000115	1.154535	0.195584	0.002309
 392	1.9550e-01	3.9084	-1.437890	0.000432	4.318818	0.731628	0.008638
 393	1.9600e-01	3.9182	-1.431903	0.000060	0.598648	0.101414	0.001197
 394	1.9650e-01	3.9273	-1.407101	0.000248	2.480113	0.420143	0.004960
 395	1.9700e-01	3.9349	-1.389996	0.000171	1.710423	0.289753	0.003421
 396	1.9750e-01	3.9438	-1.354075	0.000359	3.591888	0.608482	0.007184
 397	1.9800e-01	3.9581	-1.336543	0.000175	1.753183	0.296997	0.003507
 398	1.9850e-01	3.9642	-1.314306	0.000222	2.223550	0.376680	0.004447
 399	1.9900e-01	3.9771	-1.287366	0.000269	2.693916	0.456362	0.005388
 400	1.9950e-01	3.9847	-1.268123	0.000192	1.924226	0.325973	0.003849
 401	2.0000e-01	3.9987	-1.246314	0.000218	2.180789	0.369436	0.004362
 402	2.0050e-01	4.0051	-1.224933	0.000214	2.138029	0.362192	0.004276
 403	2.0100e-01	4.0137	-1.198420	0.000265	2.651155	0.449118	0.005303
 404	2.0150e-01	4.0250	-1.188584	0.000098	0.983493	0.166608	0.001967
 405	2.0200e-01	4.0363	-1.153947	0.000346	3.463606	0.586751	0.006928
 406	2.0250e-01	4.0451	-1.135987	0.000180	1.795944	0.304241	0.003592
 407	2.0300e-01	4.0558	-1.132566	0.000034	0.342085	0.057951	0.000684
 408	2.0350e-01	4.0657	-1.111184	0.000214	2.138029	0.362192	0.004276
 409	2.0400e-01	4.0732	-1.076547	0.000346	3.463606	0.586751	0.006928
 410	2.0450e-01	4.0852	-1.064573	0.000120	1.197296	0.202827	0.002395
 411	2.0500e-01	4.0956	-1.046185	0.000184	1.838705	0.311485	0.003678
 412	2.0550e-01	4.1046	-1.003423	0.000428	4.276057	0.724384	0.008553
 413	2.0600e-01	4.1174	-0.990594	0.000128	1.282817	0.217315	0.002566
 414	2.0650e-01	4.1266	-0.961088	0.000295	2.950479	0.499825	0.005901
 415	2.0700e-01	4.1370	-0.949970	0.000111	1.111775	0.188340	0.002224
 416	2.0750e-01	4.1476	-0.927733	0.000222	2.223550	0.376680	0.004447
 417	2.0800e-01	4.1559	-0.902076	0.000257	2.565634	0.434630	0.005132
 418	2.0850e-01	4.1663	-0.887109	0.000150	1.496620	0.253534	0.002993
 419	2.0900e-01	4.1754	-0.861879	0.000252	2.522874	0.427386	0.005046
 420	2.0950e-01	4.1872	-0.835366	0.000265	2.651155	0.449118	0.005303
 421	2.1000e-01	4.1959	-0.801584	0.000338	3.378085	0.572263	0.006756
 422	2.1050e-01	4.2065	-0.789182	0.000124	1.240057	0.210071	0.002480
 423	2.1100e-01	4.2192	-0.766946	0.000222	2.223550	0.376680	0.004447
 424	2.1150e-01	4.2243	-0.740433	0.000265	2.651155	0.449118	0.005303
 425	2.1200e-01	4.2352	-0.722045	0.000184	1.838705	0.311485	0.003678
 426	2.1250e-01	4.2444	-0.698526	0.000235	2.351831	0.398411	0.004704
 427	2.1300e-01	4.2551	-0.677145	0.000214	2.138029	0.362192	0.004276
 428	2.1350e-01	4.2651	-0.656191	0.000210	2.095268	0.354948	0.004191
 429	2.1400e-01	4.2755	-0.628823	0.000274	2.736676	0.463606	0.005474
 430	2.1450e-01	4.2886	-0.613428	0.000154	1.539381	0.260778	0.003079
 431	2.1500e-01	4.2987	-0.607869	0.000056	0.555887	0.094170	0.001112
 432	2.1550e-01	4.3062	-0.581784	0.000261	2.608395	0.441874	0.005217
 433	2.1600e-01	4.3164	-0.564252	0.000175	1.753183	0.296997	0.003507
 434	2.1650e-01	4.3243	-0.522344	0.000419	4.190536	0.709896	0.008381
 435	2.1700e-01	4.3373	-0.506522	0.000158	1.582141	0.268022	0.003164
 436	2.1750e-01	4.3460	-0.478726	0.000278	2.779437	0.470849	0.005559
 437	2.1800e-01	4.3556	-0.469319	0.000094	0.940733	0.159364	0.001882
 438	2.1850e-01	4.3658	-0.444944	0.000244	2.437352	0.412899	0.004875
 439	2.1900e-01	4.3770	-0.424846	0.000201	2.009747	0.340460	0.004020
 440	2.1950e-01	4.3878	-0.397478	0.000274	2.736676	0.463606	0.005474
 441	2.2000e-01	4.3965	-0.368827	0.000286	2.864958	0.485337	0.005730
 442	2.2050e-01	4.4073	-0.355143	0.000137	1.368338	0.231803	0.002737
 443	2.2100e-01	4.4180	-0.335044	0.000201	2.009747	0.340460	0.004020
 444	2.2150e-01	4.4228	-0.304683	0.000304	3.036000	0.514312	0.006072
 445	2.2200e-01	4.4364	-0.289716	0.000150	1.496620	0.253534	0.002993
 446	2.2250e-01	4.4446	-0.268762	0.000210	2.095268	0.354948	0.004191
 447	2.2300e-01	4.4576	-0.251230	0.000175	1.753183	0.296997	0.003507
 448	2.2350e-01	4.4638	-0.219586	0.000316	3.164282	0.536044	0.006329
 449	2.2400e-01	4.4781	-0.199060	0.000205	2.052507	0.347704	0.004105
 450	2.2450e-01	4.4855	-0.190079	0.000090	0.897972	0.152121	0.001796
 451	2.2500e-01	4.4971	-0.156297	0.000338	3.378085	0.572263	0.006756
 452	2.2550e-01	4.5099	-0.143896	0.000124	1.240057	0.210071	0.002480
 453	2.2600e-01	4.5160	-0.120804	0.000231	2.309071	0.391167	0.004618
 454	2.2650e-01	4.5273	-0.093008	0.000278	2.779437	0.470849	0.005559
 455	2.2700e-01	4.5374	-0.065640	0.000274	2.736676	0.463606	0.005474
 456	2.2750e-01	4.5464	-0.039555	0.000261	2.608395	0.441874	0.005217
 457	2.2800e-01	4.5557	-0.031430	0.000081	0.812451	0.137633	0.001625
 458	2.2850e-01	4.5660	-0.008339	0.000231	2.309071	0.391167	0.004618
 459	2.2900e-01	4.5778	0.001497	0.000098	0.983493	0.166608	0.001967
 460	2.2950e-01	4.5874	0.031430	0.000299	2.993240	0.507069	0.005987
 461	2.3000e-01	4.5978	0.052384	0.000210	2.095268	0.354948	0.004191
 462	2.3050e-01	4.6072	0.069061	0.000167	1.667662	0.282510	0.003335
 463	2.3100e-01	4.6156	0.101133	0.000321	3.207043	0.543288	0.006414
 464	2.3150e-01	4.6268	0.105837	0.000047	0.470366	0.079682	0.000941
 465	2.3200e-01	4.6369	0.123370	0.000175	1.753183	0.296997	0.003507
 466	2.3250e-01	4.6476	0.146462	0.000231	2.309071	0.391167	0.004618
 467	2.3300e-01	4.6558	0.180244	0.000338	3.378085	0.572263	0.006756
 468	2.3350e-01	4.6655	0.199060	0.000188	1.881465	0.318729	0.003763
 469	2.3400e-01	4.6771	0.220441	0.000214	2.138029	0.362192	0.004276
 470	2.3450e-01	4.6857	0.255078	0.000346	3.463606	0.586751	0.006928
 471	2.3500e-01	4.6976	0.271756	0.000167	1.667662	0.282510	0.003335
 472	2.3550e-01	4.7047	0.297413	0.000257	2.565634	0.434630	0.005132
 473	2.3600e-01	4.7169	0.300834	0.000034	0.342085	0.057951	0.000684
 474	2.3650e-01	4.7264	0.329058	0.000282	2.822198	0.478093	0.005645
 475	2.3700e-01	4.7375	0.358136	0.000291	2.907719	0.492581	0.005816
 476	2.3750e-01	4.7461	0.362840	0.000047	0.470366	0.079682	0.000941
 477	2.3800e-01	4.7571	0.403037	0.000402	4.019494	0.680921	0.008039
 478	2.3850e-01	4.7650	0.411589	0.000086	0.855211	0.144877	0.001711
 479	2.3900e-01	4.7774	0.435536	0.000239	2.394592	0.405655	0.004789
 480	2.3950e-01	4.7859	0.458628	0.000231	2.309071	0.391167	0.004618
 481	2.4000e-01	4.7955	0.474878	0.000162	1.624902	0.275266	0.003250
 482	2.4050e-01	4.8067	0.496259	0.000214	2.138029	0.362192	0.004276
 483	2.4100e-01	4.8169	0.533890	0.000376	3.762930	0.637458	0.007526
 484	2.4150e-01	4.8260	0.539877	0.000060	0.598648	0.101414	0.001197
 485	2.4200e-01	4.8389	0.553133	0.000133	1.325578	0.224559	0.002651
 486	2.4250e-01	4.8468	0.580501	0.000274	2.736676	0.463606	0.005474
 487	2.4300e-01	4.8578	0.606159	0.000257	2.565634	0.434630	0.005132
 488	2.4350e-01	4.8651	0.627540	0.000214	2.138029	0.362192	0.004276
 489	2.4400e-01	4.8782	0.648066	0.000205	2.052507	0.347704	0.004105
 490	2.4450e-01	4.8920	0.664743	0.000167	1.667662	0.282510	0.003335
 491	2.4500e-01	4.8962	0.685270	0.000205	2.052507	0.347704	0.004105
 492	2.4550e-01	4.9051	0.719480	0.000342	3.420846	0.579507	0.006842
 493	2.4600e-01	4.9170	0.734874	0.000154	1.539381	0.260778	0.003079
 494	2.4650e-01	4.9266	0.757111	0.000222	2.223550	0.376680	0.004447
 495	2.4700e-01	4.9371	0.785761	0.000286	2.864958	0.485337	0.005730
 496	2.4750e-01	4.9464	0.812274	0.000265	2.651155	0.449118	0.005303
 497	2.4800e-01	4.9567	0.819116	0.000068	0.684169	0.115901	0.001368
 498	2.4850e-01	4.9684	0.849050	0.000299	2.993240	0.507069	0.005987
 499	2.4900e-01	4.9762	0.870859	0.000218	2.180789	0.369436	0.004362
 500	2.4950e-01	4.9857	0.884543	0.000137	1.368338	0.231803	0.002737
 501	2.5000e-01	4.9991	0.894378	0.000098	0.983493	0.166608	0.001967
 502	2.5050e-01	5.0073	0.926450	0.000321	3.207043	0.543288	0.006414
 503	2.5100e-01	5.0171	0.936713	0.000103	1.026254	0.173852	0.002053
 504	2.5150e-01	5.0313	0.963226	0.000265	2.651155	0.449118	0.005303
 505	2.5200e-01	5.0369	0.997864	0.000346	3.463606	0.586751	0.006928
 506	2.5250e-01	5.0476	0.995298	-0.000026	-0.256563	-0.043463	-0.000513
 507	2.5300e-01	5.0594	1.029080	0.000338	3.378085	0.572263	0.006756
 508	2.5350e-01	5.0662	1.041054	0.000120	1.197296	0.202827	0.002395
 509	2.5400e-01	5.0754	1.066711	0.000257	2.565634	0.434630	0.005132
 510	2.5450e-01	5.0845	1.086382	0.000197	1.966986	0.333216	0.003934
 511	2.5500e-01	5.0989	1.124441	0.000381	3.805691	0.644701	0.007612
 512	2.5550e-01	5.1062	1.137269	0.000128	1.282817	0.217315	0.002566
 513	2.5600e-01	5.1169	1.154802	0.000175	1.753183	0.296997	0.003507
 514	2.5650e-01	5.1270	1.175328	0.000205	2.052507	0.347704	0.004105
 515	2.5700e-01	5.1361	1.202696	0.000274	2.736676	0.463606	0.005474
 516	2.5750e-01	5.1477	1.213387	0.000107	1.069014	0.181096	0.002138
 517	2.5800e-01	5.1563	1.240327	0.000269	2.693916	0.456362	0.005388
 518	2.5850e-01	5.1637	1.271544	0.000312	3.121522	0.528800	0.006243
 519	2.5900e-01	5.1747	1.286511	0.000150	1.496620	0.253534	0.002993
 520	2.5950e-01	5.1853	1.308320	0.000218	2.180789	0.369436	0.004362
 521	2.6000e-01	5.1978	1.324997	0.000167	1.667662	0.282510	0.003335
 522	2.6050e-01	5.2069	1.347233	0.000222	2.223550	0.376680	0.004447
 523	2.6100e-01	5.2124	1.365621	0.000184	1.838705	0.311485	0.003678
 524	2.6150e-01	5.2264	1.379305	0.000137	1.368338	0.231803	0.002737
 525	2.6200e-01	5.2368	1.409239	0.000299	2.993240	0.507069	0.005987
 526	2.6250e-01	5.2448	1.437462	0.000282	2.822198	0.478093	0.005645
 527	2.6300e-01	5.2557	1.444304	0.000068	0.684169	0.115901	0.001368
 528	2.6350e-01	5.2657	1.462692	0.000184	1.838705	0.311485	0.003678
 529	2.6400e-01	5.2765	1.497758	0.000351	3.506367	0.593995	0.007013
 530	2.6450e-01	5.2856	1.525981	0.000282	2.822198	0.478093	0.005645
 531	2.6500e-01	5.2966	1.539237	0.000133	1.325578	0.224559	0.002651
 532	2.6550e-01	5.3058	1.561046	0.000218	2.180789	0.369436	0.004362
 533	2.6600e-01	5.3180	1.576013	0.000150	1.496620	0.253534	0.002993
 534	2.6650e-01	5.3265	1.604664	0.000286	2.864958	0.485337	0.005730
 535	2.6700e-01	5.3363	1.619203	0.000145	1.453859	0.246290	0.002908
 536	2.6750e-01	5.3442	1.638019	0.000188	1.881465	0.318729	0.003763
 537	2.6800e-01	5.3569	1.670946	0.000329	3.292564	0.557775	0.006585
 538	2.6850e-01	5.3668	1.668808	-0.000021	-0.213803	-0.036219	-0.000428
 539	2.6900e-01	5.3754	1.700024	0.000312	3.121522	0.528800	0.006243
 540	2.6950e-01	5.3870	1.731241	0.000312	3.121522	0.528800	0.006243
 541	2.7000e-01	5.3973	1.742359	0.000111	1.111775	0.188340	0.002224
 542	2.7050e-01	5.4077	1.777852	0.000355	3.549127	0.601238	0.007099
 543	2.7100e-01	5.4172	1.784266	0.000064	0.641409	0.108658	0.001283
 544	2.7150e-01	5.4257	1.796668	0.000124	1.240057	0.210071	0.002480
 545	2.7200e-01	5.4337	1.827884	0.000312	3.121522	0.528800	0.006243
 546	2.7250e-01	5.4472	1.847555	0.000197	1.966986	0.333216	0.003934
 547	2.7300e-01	5.4565	1.869792	0.000222	2.223550	0.376680	0.004447
 548	2.7350e-01	5.4669	1.900153	0.000304	3.036000	0.514312	0.006072
 549	2.7400e-01	5.4732	1.920679	0.000205	2.052507	0.347704	0.004105
 550	2.7450e-01	5.4865	1.931370	0.000107	1.069014	0.181096	0.002138
 551	2.7500e-01	5.4974	1.963869	0.000325	3.249803	0.550532	0.006500
 552	2.7550e-01	5.5048	1.986961	0.000231	2.309071	0.391167	0.004618
 553	2.7600e-01	5.5191	1.994230	0.000073	0.726930	0.123145	0.001454
 554	2.7650e-01	5.5261	2.010908	0.000167	1.667662	0.282510	0.003335
 555	2.7700e-01	5.5342	2.045546	0.000346	3.463606	0.586751	0.006928
 556	2.7750e-01	5.5457	2.058374	0.000128	1.282817	0.217315	0.002566
 557	2.7800e-01	5.5559	2.078900	0.000205	2.052507	0.347704	0.004105
 558	2.7850e-01	5.5672	2.097716	0.000188	1.881465	0.318729	0.003763
 559	2.7900e-01	5.5745	2.110972	0.000133	1.325578	0.224559	0.002651
 560	2.7950e-01	5.5835	2.147320	0.000363	3.634648	0.615726	0.007270
 561	2.8000e-01	5.5981	2.150314	0.000030	0.299324	0.050707	0.000599
 562	2.8050e-01	5.6042	2.195642	0.000453	4.532620	0.767847	0.009066
 563	2.8100e-01	5.6172	2.191793	-0.000038	-0.384845	-0.065195	-0.000770
 564	2.8150e-01	5.6262	2.217878	0.000261	2.608395	0.441874	0.005217
 565	2.8200e-01	5.6372	2.255510	0.000376	3.762930	0.637458	0.007526
 566	2.8250e-01	5.6448	2.277318	0.000218	2.180789	0.369436	0.004362
 567	2.8300e-01	5.6598	2.290147	0.000128	1.282817	0.217315	0.002566
 568	2.8350e-01	5.6671	2.305969	0.000158	1.582141	0.268022	0.003164
 569	2.8400e-01	5.6781	2.318370	0.000124	1.240057	0.210071	0.002480
 570	2.8450e-01	5.6866	2.340607	0.000222	2.223550	0.376680	0.004447
 571	2.8500e-01	5.6940	2.375672	0.000351	3.506367	0.593995	0.007013
 572	2.8550e-01	5.7037	2.392777	0.000171	1.710423	0.289753	0.003421
 573	2.8600e-01	5.7138	2.412020	0.000192	1.924226	0.325973	0.003849
 574	2.8650e-01	5.7278	2.428270	0.000162	1.624902	0.275266	0.003250
 575	2.8700e-01	5.7361	2.442809	0.000145	1.453859	0.246290	0.002908
 576	2.8750e-01	5.7465	2.461197	0.000184	1.838705	0.311485	0.003678
 577	2.8800e-01	5.7559	2.484717	0.000235	2.351831	0.398411	0.004704
 578	2.8850e-01	5.7684	2.506526	0.000218	2.180789	0.369436	0.004362
 579	2.8900e-01	5.7755	2.527052	0.000205	2.052507	0.347704	0.004105
 580	2.8950e-01	5.7867	2.553564	0.000265	2.651155	0.449118	0.005303
 581	2.9000e-01	5.7983	2.571952	0.000184	1.838705	0.311485	0.003678
 582	2.9050e-01	5.8044	2.583926	0.000120	1.197296	0.202827	0.002395
 583	2.9100e-01	5.8145	2.608728	0.000248	2.480113	0.420143	0.004960
 584	2.9150e-01	5.8246	2.638234	0.000295	2.950479	0.499825	0.005901
 585	2.9200e-01	5.8369	2.658760	0.000205	2.052507	0.347704	0.004105
 586	2.9250e-01	5.8441	2.666885	0.000081	0.812451	0.137633	0.001625
 587	2.9300e-01	5.8582	2.691260	0.000244	2.437352	0.412899	0.004875
 588	2.9350e-01	5.8667	2.706654	0.000154	1.539381	0.260778	0.003079
 589	2.9400e-01	5.8765	2.740009	0.000334	3.335324	0.565019	0.006671
 590	2.9450e-01	5.8852	2.762245	0.000222	2.223550	0.376680	0.004447
 591	2.9500e-01	5.8966	2.773791	0.000115	1.154535	0.195584	0.002309
 592	2.9550e-01	5.9039	2.811422	0.000376	3.762930	0.637458	0.007526
 593	2.9600e-01	5.9152	2.820402	0.000090	0.897972	0.152121	0.001796
 594	2.9650e-01	5.9274	2.840501	0.000201	2.009747	0.340460	0.004020
 595	2.9700e-01	5.9378	2.840073	-0.000004	-0.042761	-0.007244	-0.000086
 596	2.9750e-01	5.9467	2.871718	0.000316	3.164282	0.536044	0.006329
 597	2.9800e-01	5.9564	2.892671	0.000210	2.095268	0.354948	0.004191
 598	2.9850e-01	5.9662	2.907638	0.000150	1.496620	0.253534	0.002993
 599	2.9900e-01	5.9766	2.950401	0.000428	4.276057	0.724384	0.008553
 600	2.9950e-01	5.9877	2.961946	0.000115	1.154535	0.195584	0.002309
 601	3.0000e-01	5.9961	2.979051	0.000171	1.710423	0.289753	0.003421
 602	3.0050e-01	6.0040	3.009840	0.000308	3.078761	0.521556	0.006158
 603	3.0100e-01	6.0144	3.021814	0.000120	1.197296	0.202827	0.002395
 604	3.0150e-01	6.0248	3.044051	0.000222	2.223550	0.376680	0.004447
 605	3.0200e-01	6.0355	3.077833	0.000338	3.378085	0.572263	0.006756
 606	3.0250e-01	6.0461	3.080399	0.000026	0.256563	0.043463	0.000513
 607	3.0300e-01	6.0565	3.109477	0.000291	2.907719	0.492581	0.005816
 608	3.0350e-01	6.0663	3.109905	0.000004	0.042761	0.007244	0.000086
 609	3.0400e-01	6.0748	3.135990	0.000261	2.608395	0.441874	0.005217
 610	3.0450e-01	6.0858	3.167207	0.000312	3.121522	0.528800	0.006243
 611	3.0500e-01	6.0962	3.193292	0.000261	2.608395	0.441874	0.005217
 612	3.0550e-01	6.1060	3.203555	0.000103	1.026254	0.173852	0.002053
 613	3.0600e-01	6.1163	3.217239	0.000137	1.368338	0.231803	0.002737
 614	3.0650e-01	6.1267	3.254015	0.000368	3.677409	0.622970	0.007355
 615	3.0700e-01	6.1371	3.257436	0.000034	0.342085	0.057951	0.000684
 616	3.0750e-01	6.1462	3.280955	0.000235	2.351831	0.398411	0.004704
 617	3.0800e-01	6.1566	3.312599	0.000316	3.164282	0.536044	0.006329
 618	3.0850e-01	6.1682	3.325000	0.000124	1.240057	0.210071	0.002480
 619	3.0900e-01	6.1755	3.348520	0.000235	2.351831	0.398411	0.004704
 620	3.0950e-01	6.1865	3.359638	0.000111	1.111775	0.188340	0.002224
 621	3.1000e-01	6.1975	3.388289	0.000286	2.864958	0.485337	0.005730
 622	3.1050e-01	6.2073	3.412664	0.000244	2.437352	0.412899	0.004875
 623	3.1100e-01	6.2172	3.433190	0.000205	2.052507	0.347704	0.004105
 624	3.1150e-01	6.2267	3.440459	0.000073	0.726930	0.123145	0.001454
 625	3.1200e-01	6.2355	3.475097	0.000346	3.463606	0.586751	0.006928
 626	3.1250e-01	6.2457	3.487926	0.000128	1.282817	0.217315	0.002566
 627	3.1300e-01	6.2579	3.505886	0.000180	1.795944	0.304241	0.003592
 628	3.1350e-01	6.2656	3.524701	0.000188	1.881465	0.318729	0.003763
 629	3.1400e-01	6.2776	3.546938	0.000222	2.223550	0.376680	0.004447
 630	3.1450e-01	6.2897	3.578154	0.000312	3.121522	0.528800	0.006243
 631	3.1500e-01	6.2967	3.592694	0.000145	1.453859	0.246290	0.002908
 632	3.1550e-01	6.3062	3.584141	-0.000086	-0.855211	-0.144877	-0.001711
 633	3.1600e-01	6.3159	3.624338	0.000402	4.019494	0.680921	0.008039
 634	3.1650e-01	6.3251	3.649996	0.000257	2.565634	0.434630	0.005132
 635	3.1700e-01	6.3342	3.665818	0.000158	1.582141	0.268022	0.003164
 636	3.1750e-01	6.3452	3.691048	0.000252	2.522874	0.427386	0.005046
 637	3.1800e-01	6.3574	3.699172	0.000081	0.812451	0.137633	0.001625
 638	3.1850e-01	6.3641	3.728251	0.000291	2.907719	0.492581	0.005816
 639	3.1900e-01	6.3779	3.743645	0.000154	1.539381	0.260778	0.003079
 640	3.1950e-01	6.3855	3.769303	0.000257	2.565634	0.434630	0.005132
 641	3.2000e-01	6.3953	3.801375	0.000321	3.207043	0.543288	0.006414
 642	3.2050e-01	6.4069	3.811638	0.000103	1.026254	0.173852	0.002053
 643	3.2100e-01	6.4178	3.829171	0.000175	1.753183	0.296997	0.003507
 644	3.2150e-01	6.4273	3.837295	0.000081	0.812451	0.137633	0.001625
 645	3.2200e-01	6.4369	3.877065	0.000398	3.976733	0.673677	0.007954
 646	3.2250e-01	6.4450	3.888610	0.000115	1.154535	0.195584	0.002309
 647	3.2300e-01	6.4575	3.911702	0.000231	2.309071	0.391167	0.004618
 648	3.2350e-01	6.4662	3.936932	0.000252	2.522874	0.427386	0.005046
 649	3.2400e-01	6.4777	3.935649	-0.000013	-0.128282	-0.021732	-0.000257
 650	3.2450e-01	6.4856	3.965583	0.000299	2.993240	0.507069	0.005987
 651	3.2500e-01	6.4960	3.986964	0.000214	2.138029	0.362192	0.004276
 652	3.2550e-01	6.5070	4.013477	0.000265	2.651155	0.449118	0.005303
 653	3.2600e-01	6.5164	4.025451	0.000120	1.197296	0.202827	0.002395
 654	3.2650e-01	6.5259	4.049825	0.000244	2.437352	0.412899	0.004875
 655	3.2700e-01	6.5363	4.071634	0.000218	2.180789	0.369436	0.004362
 656	3.2750e-01	6.5448	4.089594	0.000180	1.795944	0.304241	0.003592
 657	3.2800e-01	6.5555	4.111403	0.000218	2.180789	0.369436	0.004362
 658	3.2850e-01	6.5649	4.122949	0.000115	1.154535	0.195584	0.002309
 659	3.2900e-01	6.5784	4.146468	0.000235	2.351831	0.398411	0.004704
 660	3.2950e-01	6.5842	4.169560	0.000231	2.309071	0.391167	0.004618
 661	3.3000e-01	6.5967	4.190086	0.000205	2.052507	0.347704	0.004105
 662	3.3050e-01	6.6064	4.214461	0.000244	2.437352	0.412899	0.004875
 663	3.3100e-01	6.6145	4.234559	0.000201	2.009747	0.340460	0.004020
 664	3.3150e-01	6.6266	4.260644	0.000261	2.608395	0.441874	0.005217
 665	3.3200e-01	6.6364	4.288868	0.000282	2.822198	0.478093	0.005645
 666	3.3250e-01	6.6452	4.293999	0.000051	0.513127	0.086926	0.001026
 667	3.3300e-01	6.6548	4.311959	0.000180	1.795944	0.304241	0.003592
 668	3.3350e-01	6.6635	4.341466	0.000295	2.950479	0.499825	0.005901
 669	3.3400e-01	6.6754	4.354722	0.000133	1.325578	0.224559	0.002651
 670	3.3450e-01	6.6870	4.374820	0.000201	2.009747	0.340460	0.004020
 671	3.3500e-01	6.6931	4.387222	0.000124	1.240057	0.210071	0.002480
 672	3.3550e-01	6.7056	4.411596	0.000244	2.437352	0.412899	0.004875
 673	3.3600e-01	6.7194	4.415017	0.000034	0.342085	0.057951	0.000684
 674	3.3650e-01	6.7267	4.440675	0.000257	2.565634	0.434630	0.005132
 675	3.3700e-01	6.7386	4.473602	0.000329	3.292564	0.557775	0.006585
 676	3.3750e-01	6.7468	4.490279	0.000167	1.667662	0.282510	0.003335
 677	3.3800e-01	6.7566	4.504818	0.000145	1.453859	0.246290	0.002908
 678	3.3850e-01	6.7676	4.544160	0.000393	3.933972	0.666433	0.007868
 679	3.3900e-01	6.7767	4.557844	0.000137	1.368338	0.231803	0.002737
 680	3.3950e-01	6.7883	4.575377	0.000175	1.753183	0.296997	0.003507
 681	3.4000e-01	6.7957	4.589916	0.000145	1.453859	0.246290	0.002908
 682	3.4050e-01	6.8060	4.611725	0.000218	2.180789	0.369436	0.004362
 683	3.4100e-01	6.8161	4.633106	0.000214	2.138029	0.362192	0.004276
 684	3.4150e-01	6.8271	4.659191	0.000261	2.608395	0.441874	0.005217
 685	3.4200e-01	6.8347	4.672875	0.000137	1.368338	0.231803	0.002737
 686	3.4250e-01	6.8454	4.698533	0.000257	2.565634	0.434630	0.005132
 687	3.4300e-01	6.8561	4.711789	0.000133	1.325578	0.224559	0.002651
 688	3.4350e-01	6.8658	4.726328	0.000145	1.453859	0.246290	0.002908
 689	3.4400e-01	6.8787	4.745999	0.000197	1.966986	0.333216	0.003934
 690	3.4450e-01	6.8848	4.767808	0.000218	2.180789	0.369436	0.004362
 691	3.4500e-01	6.8958	4.784913	0.000171	1.710423	0.289753	0.003421
 692	3.4550e-01	6.9043	4.816130	0.000312	3.121522	0.528800	0.006243
 693	3.4600e-01	6.9183	4.833235	0.000171	1.710423	0.289753	0.003421
 694	3.4650e-01	6.9260	4.851623	0.000184	1.838705	0.311485	0.003678
 695	3.4700e-01	6.9360	4.862313	0.000107	1.069014	0.181096	0.002138
 696	3.4750e-01	6.9434	4.887115	0.000248	2.480113	0.420143	0.004960
 697	3.4800e-01	6.9568	4.900372	0.000133	1.325578	0.224559	0.002651
 698	3.4850e-01	6.9659	4.922608	0.000222	2.223550	0.376680	0.004447
 699	3.4900e-01	6.9781	4.943990	0.000214	2.138029	0.362192	0.004276
 700	3.4950e-01	6.9867	4.969647	0.000257	2.565634	0.434630	0.005132
 701	3.5000e-01	6.9984	4.987180	0.000175	1.753183	0.296997	0.003507
 702	3.5050e-01	7.0069	5.008133	0.000210	2.095268	0.354948	0.004191
 703	3.5100e-01	7.0155	5.019252	0.000111	1.111775	0.188340	0.002224
 704	3.5150e-01	7.0270	5.044482	0.000252	2.522874	0.427386	0.005046
 705	3.5200e-01	7.0367	5.068001	0.000235	2.351831	0.398411	0.004704
 706	3.5250e-01	7.0453	5.085961	0.000180	1.795944	0.304241	0.003592
 707	3.5300e-01	7.0557	5.094514	0.000086	0.855211	0.144877	0.001711
 708	3.5350e-01	7.0660	5.137704	0.000432	4.318818	0.731628	0.008638
 709	3.5400e-01	7.0752	5.145829	0.000081	0.812451	0.137633	0.001625
 710	3.5450e-01	7.0874	5.157802	0.000120	1.197296	0.202827	0.002395
 711	3.5500e-01	7.0954	5.190729	0.000329	3.292564	0.557775	0.006585
 712	3.5550e-01	7.1063	5.204413	0.000137	1.368338	0.231803	0.002737
 713	3.5600e-01	7.1161	5.219380	0.000150	1.496620	0.253534	0.002993
 714	3.5650e-01	7.1277	5.234775	0.000154	1.539381	0.260778	0.003079
 715	3.5700e-01	7.1368	5.266419	0.000316	3.164282	0.536044	0.006329
 716	3.5750e-01	7.1445	5.276682	0.000103	1.026254	0.173852	0.002053
 717	3.5800e-01	7.1564	5.308326	0.000316	3.164282	0.536044	0.006329
 718	3.5850e-01	7.1671	5.324576	0.000162	1.624902	0.275266	0.003250
 719	3.5900e-01	7.1771	5.348095	0.000235	2.351831	0.398411	0.004704
 720	3.5950e-01	7.1875	5.357076	0.000090	0.897972	0.152121	0.001796
 721	3.6000e-01	7.1979	5.378885	0.000218	2.180789	0.369436	0.004362
 722	3.6050e-01	7.2076	5.404114	0.000252	2.522874	0.427386	0.005046
 723	3.6100e-01	7.2177	5.416516	0.000124	1.240057	0.210071	0.002480
 724	3.6150e-01	7.2278	5.435759	0.000192	1.924226	0.325973	0.003849
 725	3.6200e-01	7.2359	5.445594	0.000098	0.983493	0.166608	0.001967
 726	3.6250e-01	7.2455	5.462271	0.000167	1.667662	0.282510	0.003335
 727	3.6300e-01	7.2577	5.491350	0.000291	2.907719	0.492581	0.005816
 728	3.6350e-01	7.2717	5.527698	0.000363	3.634648	0.615726	0.007270
 729	3.6400e-01	7.2772	5.531974	0.000043	0.427606	0.072438	0.000855
 730	3.6450e-01	7.2870	5.544803	0.000128	1.282817	0.217315	0.002566
 731	3.6500e-01	7.2946	5.585428	0.000406	4.062254	0.688164	0.008125
 732	3.6550e-01	7.3065	5.600394	0.000150	1.496620	0.253534	0.002993
 733	3.6600e-01	7.3169	5.621348	0.000210	2.095268	0.354948	0.004191
 734	3.6650e-01	7.3267	5.625197	0.000038	0.384845	0.065195	0.000770
 735	3.6700e-01	7.3358	5.650427	0.000252	2.522874	0.427386	0.005046
 736	3.6750e-01	7.3450	5.682926	0.000325	3.249803	0.550532	0.006500
 737	3.6800e-01	7.3553	5.703024	0.000201	2.009747	0.340460	0.004020
 738	3.6850e-01	7.3682	5.712860	0.000098	0.983493	0.166608	0.001967
 739	3.6900e-01	7.3763	5.723978	0.000111	1.111775	0.188340	0.002224
 740	3.6950e-01	7.3871	5.747498	0.000235	2.351831	0.398411	0.004704
 741	3.7000e-01	7.3978	5.757333	0.000098	0.983493	0.166608	0.001967
 742	3.7050e-01	7.4060	5.794964	0.000376	3.762930	0.637458	0.007526
 743	3.7100e-01	7.4164	5.809503	0.000145	1.453859	0.246290	0.002908
 744	3.7150e-01	7.4280	5.823187	0.000137	1.368338	0.231803	0.002737
 745	3.7200e-01	7.4353	5.843286	0.000201	2.009747	0.340460	0.004020
 746	3.7250e-01	7.4457	5.869371	0.000261	2.608395	0.441874	0.005217
 747	3.7300e-01	7.4567	5.881344	0.000120	1.197296	0.202827	0.002395
 748	3.7350e-01	7.4670	5.897594	0.000162	1.624902	0.275266	0.003250
 749	3.7400e-01	7.4771	5.926672	0.000291	2.907719	0.492581	0.005816
 750	3.7450e-01	7.4860	5.950620	0.000239	2.394592	0.405655	0.004789
 751	3.7500e-01	7.4976	5.968152	0.000175	1.753183	0.296997	0.003507
 752	3.7550e-01	7.5067	5.983974	0.000158	1.582141	0.268022	0.003164
 753	3.7600e-01	7.5172	6.009632	0.000257	2.565634	0.434630	0.005132
 754	3.7650e-01	7.5253	6.022461	0.000128	1.282817	0.217315	0.002566
 755	3.7700e-01	7.5354	6.043842	0.000214	2.138029	0.362192	0.004276
 756	3.7750e-01	7.5464	6.065223	0.000214	2.138029	0.362192	0.004276
 757	3.7800e-01	7.5552	6.084894	0.000197	1.966986	0.333216	0.003934
 758	3.7850e-01	7.5665	6.097295	0.000124	1.240057	0.210071	0.002480
 759	3.7900e-01	7.5757	6.107986	0.000107	1.069014	0.181096	0.002138
 760	3.7950e-01	7.5862	6.125091	0.000171	1.710423	0.289753	0.003421
 761	3.8000e-01	7.5970	6.154169	0.000291	2.907719	0.492581	0.005816
 762	3.8050e-01	7.6068	6.175123	0.000210	2.095268	0.354948	0.004191
 763	3.8100e-01	7.6149	6.200780	0.000257	2.565634	0.434630	0.005132
 764	3.8150e-01	7.6270	6.214892	0.000141	1.411099	0.239047	0.002822
 765	3.8200e-01	7.6367	6.236701	0.000218	2.180789	0.369436	0.004362
 766	3.8250e-01	7.6459	6.270911	0.000342	3.420846	0.579507	0.006842
 767	3.8300e-01	7.6556	6.280746	0.000098	0.983493	0.166608	0.001967
 768	3.8350e-01	7.6672	6.287161	0.000064	0.641409	0.108658	0.001283
 769	3.8400e-01	7.6776	6.310252	0.000231	2.309071	0.391167	0.004618
 770	3.8450e-01	7.6898	6.325647	0.000154	1.539381	0.260778	0.003079
 771	3.8500e-01	7.6953	6.343607	0.000180	1.795944	0.304241	0.003592
 772	3.8550e-01	7.7057	6.370120	0.000265	2.651155	0.449118	0.005303
 773	3.8600e-01	7.7156	6.404330	0.000342	3.420846	0.579507	0.006842
 774	3.8650e-01	7.7271	6.408179	0.000038	0.384845	0.065195	0.000770
 775	3.8700e-01	7.7362	6.424001	0.000158	1.582141	0.268022	0.003164
 776	3.8750e-01	7.7466	6.443244	0.000192	1.924226	0.325973	0.003849
 777	3.8800e-01	7.7551	6.465480	0.000222	2.223550	0.376680	0.004447
 778	3.8850e-01	7.7695	6.497980	0.000325	3.249803	0.550532	0.006500
 779	3.8900e-01	7.7759	6.498835	0.000009	0.085521	0.014488	0.000171
 780	3.8950e-01	7.7869	6.520216	0.000214	2.138029	0.362192	0.004276
 781	3.9000e-01	7.7972	6.536894	0.000167	1.667662	0.282510	0.003335
 782	3.9050e-01	7.8064	6.546302	0.000094	0.940733	0.159364	0.001882
 783	3.9100e-01	7.8149	6.575380	0.000291	2.907719	0.492581	0.005816
 784	3.9150e-01	7.8265	6.592913	0.000175	1.753183	0.296997	0.003507
 785	3.9200e-01	7.8339	6.624985	0.000321	3.207043	0.543288	0.006414
 786	3.9250e-01	7.8436	6.642945	0.000180	1.795944	0.304241	0.003592
 787	3.9300e-01	7.8571	6.667747	0.000248	2.480113	0.420143	0.004960
 788	3.9350e-01	7.8656	6.690839	0.000231	2.309071	0.391167	0.004618
 789	3.9400e-01	7.8763	6.702812	0.000120	1.197296	0.202827	0.002395
 790	3.9450e-01	7.8877	6.710937	0.000081	0.812451	0.137633	0.001625
 791	3.9500e-01	7.8961	6.741299	0.000304	3.036000	0.514312	0.006072
 792	3.9550e-01	7.9047	6.753272	0.000120	1.197296	0.202827	0.002395
 793	3.9600e-01	7.9156	6.777647	0.000244	2.437352	0.412899	0.004875
 794	3.9650e-01	7.9242	6.796462	0.000188	1.881465	0.318729	0.003763
 795	3.9700e-01	7.9395	6.820409	0.000239	2.394592	0.405655	0.004789
 796	3.9750e-01	7.9456	6.837942	0.000175	1.753183	0.296997	0.003507
 797	3.9800e-01	7.9553	6.855902	0.000180	1.795944	0.304241	0.003592
 798	3.9850e-01	7.9651	6.863599	0.000077	0.769690	0.130389	0.001539
 799	3.9900e-01	7.9767	6.901230	0.000376	3.762930	0.637458	0.007526
 800	3.9950e-01	7.9865	6.907645	0.000064	0.641409	0.108658	0.001283
 801	4.0000e-01	7.9932	6.917908	0.000103	1.026254	0.173852	0.002053
 802	4.0050e-01	8.0060	6.946131	0.000282	2.822198	0.478093	0.005645
 803	4.0100e-01	8.0151	6.957249	0.000111	1.111775	0.188340	0.002224
 804	4.0150e-01	8.0261	6.982052	0.000248	2.480113	0.420143	0.004960
 805	4.0200e-01	8.0353	6.991887	0.000098	0.983493	0.166608	0.001967
 806	4.0250e-01	8.0457	7.032084	0.000402	4.019494	0.680921	0.008039
 807	4.0300e-01	8.0560	7.041064	0.000090	0.897972	0.152121	0.001796
 808	4.0350e-01	8.0682	7.060735	0.000197	1.966986	0.333216	0.003934
 809	4.0400e-01	8.0750	7.097938	0.000372	3.720170	0.630214	0.007441
 810	4.0450e-01	8.0850	7.102214	0.000043	0.427606	0.072438	0.000855
 811	4.0500e-01	8.0969	7.120602	0.000184	1.838705	0.311485	0.003678
 812	4.0550e-01	8.1061	7.143266	0.000227	2.266310	0.383923	0.004533
 813	4.0600e-01	8.1140	7.157378	0.000141	1.411099	0.239047	0.002822
 814	4.0650e-01	8.1256	7.179615	0.000222	2.223550	0.376680	0.004447
 815	4.0700e-01	8.1342	7.201423	0.000218	2.180789	0.369436	0.004362
 816	4.0750e-01	8.1479	7.229647	0.000282	2.822198	0.478093	0.005645
 817	4.0800e-01	8.1561	7.231357	0.000017	0.171042	0.028975	0.000342
 818	4.0850e-01	8.1665	7.254877	0.000235	2.351831	0.398411	0.004704
 819	4.0900e-01	8.1744	7.265567	0.000107	1.069014	0.181096	0.002138
 820	4.0950e-01	8.1866	7.289514	0.000239	2.394592	0.405655	0.004789
 821	4.1000e-01	8.1949	7.306619	0.000171	1.710423	0.289753	0.003421
 822	4.1050e-01	8.2071	7.326718	0.000201	2.009747	0.340460	0.004020
 823	4.1100e-01	8.2147	7.339546	0.000128	1.282817	0.217315	0.002566
 824	4.1150e-01	8.2269	7.354086	0.000145	1.453859	0.246290	0.002908
 825	4.1200e-01	8.2367	7.374184	0.000201	2.009747	0.340460	0.004020
 826	4.1250e-01	8.2471	7.413098	0.000389	3.891212	0.659189	0.007783
 827	4.1300e-01	8.2562	7.420368	0.000073	0.726930	0.123145	0.001454
 828	4.1350e-01	8.2623	7.451157	0.000308	3.078761	0.521556	0.006158
 829	4.1400e-01	8.2776	7.469972	0.000188	1.881465	0.318729	0.003763
 830	4.1450e-01	8.2861	7.480663	0.000107	1.069014	0.181096	0.002138
 831	4.1500e-01	8.2953	7.508031	0.000274	2.736676	0.463606	0.005474
 832	4.1550e-01	8.3057	7.523425	0.000154	1.539381	0.260778	0.003079
 833	4.1600e-01	8.3167	7.532833	0.000094	0.940733	0.159364	0.001882
 834	4.1650e-01	8.3270	7.557208	0.000244	2.437352	0.412899	0.004875
 835	4.1700e-01	8.3362	7.587141	0.000299	2.993240	0.507069	0.005987
 836	4.1750e-01	8.3472	7.597832	0.000107	1.069014	0.181096	0.002138
 837	4.1800e-01	8.3557	7.611516	0.000137	1.368338	0.231803	0.002737
 838	4.1850e-01	8.3646	7.640167	0.000286	2.864958	0.485337	0.005730
 839	4.1900e-01	8.3783	7.655989	0.000158	1.582141	0.268022	0.003164
 840	4.1950e-01	8.3850	7.680791	0.000248	2.480113	0.420143	0.004960
 841	4.2000e-01	8.3954	7.700890	0.000201	2.009747	0.340460	0.004020
 842	4.2050e-01	8.4064	7.705166	0.000043	0.427606	0.072438	0.000855
 843	4.2100e-01	8.4155	7.731251	0.000261	2.608395	0.441874	0.005217
 844	4.2150e-01	8.4259	7.740659	0.000094	0.940733	0.159364	0.001882
 845	4.2200e-01	8.4351	7.763323	0.000227	2.266310	0.383923	0.004533
 846	4.2250e-01	8.4454	7.787270	0.000239	2.394592	0.405655	0.004789
 847	4.2300e-01	8.4583	7.797961	0.000107	1.069014	0.181096	0.002138
 848	4.2350e-01	8.4653	7.823618	0.000257	2.565634	0.434630	0.005132
 849	4.2400e-01	8.4747	7.853124	0.000295	2.950479	0.499825	0.005901
 850	4.2450e-01	8.4857	7.869374	0.000162	1.624902	0.275266	0.003250
 851	4.2500e-01	8.4979	7.877499	0.000081	0.812451	0.137633	0.001625
 852	4.2550e-01	8.5071	7.895887	0.000184	1.838705	0.311485	0.003678
 853	4.2600e-01	8.5168	7.907433	0.000115	1.154535	0.195584	0.002309
 854	4.2650e-01	8.5266	7.936084	0.000286	2.864958	0.485337	0.005730
 855	4.2700e-01	8.5345	7.960458	0.000244	2.437352	0.412899	0.004875
 856	4.2750e-01	8.5443	7.979701	0.000192	1.924226	0.325973	0.003849
 857	4.2800e-01	8.5574	8.000655	0.000210	2.095268	0.354948	0.004191
 858	4.2850e-01	8.5660	8.002793	0.000021	0.213803	0.036219	0.000428
 859	4.2900e-01	8.5773	8.025457	0.000227	2.266310	0.383923	0.004533
 860	4.2950e-01	8.5858	8.051970	0.000265	2.651155	0.449118	0.005303
 861	4.3000e-01	8.5980	8.073351	0.000214	2.138029	0.362192	0.004276
 862	4.3050e-01	8.6072	8.082332	0.000090	0.897972	0.152121	0.001796
 863	4.3100e-01	8.6163	8.108844	0.000265	2.651155	0.449118	0.005303
 864	4.3150e-01	8.6255	8.122101	0.000133	1.325578	0.224559	0.002651
 865	4.3200e-01	8.6346	8.147758	0.000257	2.565634	0.434630	0.005132
 866	4.3250e-01	8.6475	8.150324	0.000026	0.256563	0.043463	0.000513
 867	4.3300e-01	8.6566	8.185389	0.000351	3.506367	0.593995	0.007013
 868	4.3350e-01	8.6670	8.194797	0.000094	0.940733	0.159364	0.001882
 869	4.3400e-01	8.6761	8.215323	0.000205	2.052507	0.347704	0.004105
 870	4.3450e-01	8.6853	8.242263	0.000269	2.693916	0.456362	0.005388
 871	4.3500e-01	8.6957	8.251243	0.000090	0.897972	0.152121	0.001796
 872	4.3550e-01	8.7042	8.261934	0.000107	1.069014	0.181096	0.002138
 873	4.3600e-01	8.7164	8.301276	0.000393	3.933972	0.666433	0.007868
 874	4.3650e-01	8.7271	8.320946	0.000197	1.966986	0.333216	0.003934
 875	4.3700e-01	8.7366	8.328644	0.000077	0.769690	0.130389	0.001539
 876	4.3750e-01	8.7463	8.360716	0.000321	3.207043	0.543288	0.006414
 877	4.3800e-01	8.7604	8.368413	0.000077	0.769690	0.130389	0.001539
 878	4.3850e-01	8.7668	8.387656	0.000192	1.924226	0.325973	0.003849
 879	4.3900e-01	8.7735	8.407754	0.000201	2.009747	0.340460	0.004020
 880	4.3950e-01	8.7872	8.428280	0.000205	2.052507	0.347704	0.004105
 881	4.4000e-01	8.7994	8.451800	0.000235	2.351831	0.398411	0.004704
 882	4.4050e-01	8.8062	8.468905	0.000171	1.710423	0.289753	0.003421
 883	4.4100e-01	8.8171	8.485582	0.000167	1.667662	0.282510	0.003335
 884	4.4150e-01	8.8264	8.499266	0.000137	1.368338	0.231803	0.002737
 885	4.4200e-01	8.8391	8.514661	0.000154	1.539381	0.260778	0.003079
 886	4.4250e-01	8.8452	8.539891	0.000252	2.522874	0.427386	0.005046
 887	4.4300e-01	8.8556	8.565548	0.000257	2.565634	0.434630	0.005132
 888	4.4350e-01	8.8647	8.587785	0.000222	2.223550	0.376680	0.004447
 889	4.4400e-01	8.8770	8.613442	0.000257	2.565634	0.434630	0.005132
 890	4.4450e-01	8.8867	8.607883	-0.000056	-0.555887	-0.094170	-0.001112
 891	4.4500e-01	8.8968	8.635251	0.000274	2.736676	0.463606	0.005474
 892	4.4550e-01	8.9063	8.652356	0.000171	1.710423	0.289753	0.003421
 893	4.4600e-01	8.9172	8.666895	0.000145	1.453859	0.246290	0.002908
 894	4.4650e-01	8.9288	8.686994	0.000201	2.009747	0.340460	0.004020
 895	4.4700e-01	8.9337	8.707947	0.000210	2.095268	0.354948	0.004191
 896	4.4750e-01	8.9462	8.725480	0.000175	1.753183	0.296997	0.003507
 897	4.4800e-01	8.9557	8.751993	0.000265	2.651155	0.449118	0.005303
 898	4.4850e-01	8.9667	8.769953	0.000180	1.795944	0.304241	0.003592
 899	4.4900e-01	8.9761	8.783209	0.000133	1.325578	0.224559	0.002651
 900	4.4950e-01	8.9844	8.818275	0.000351	3.506367	0.593995	0.007013
 901	4.5000e-01	8.9960	8.819130	0.000009	0.085521	0.014488	0.000171
 902	4.5050e-01	9.0060	8.844360	0.000252	2.522874	0.427386	0.005046
 903	4.5100e-01	9.0152	8.870445	0.000261	2.608395	0.441874	0.005217
 904	4.5150e-01	9.0271	8.881991	0.000115	1.154535	0.195584	0.002309
 905	4.5200e-01	9.0390	8.899096	0.000171	1.710423	0.289753	0.003421
 906	4.5250e-01	9.0454	8.923043	0.000239	2.394592	0.405655	0.004789
 907	4.5300e-01	9.0567	8.915346	-0.000077	-0.769690	-0.130389	-0.001539
 908	4.5350e-01	9.0674	8.954259	0.000389	3.891212	0.659189	0.007783
 909	4.5400e-01	9.0741	8.989752	0.000355	3.549127	0.601238	0.007099
 910	4.5450e-01	9.0839	9.004292	0.000145	1.453859	0.246290	0.002908
 911	4.5500e-01	9.0973	9.003864	-0.000004	-0.042761	-0.007244	-0.000086
 912	4.5550e-01	9.1049	9.029521	0.000257	2.565634	0.434630	0.005132
 913	4.5600e-01	9.1156	9.047054	0.000175	1.753183	0.296997	0.003507
 914	4.5650e-01	9.1260	9.076560	0.000295	2.950479	0.499825	0.005901
 915	4.5700e-01	9.1357	9.091100	0.000145	1.453859	0.246290	0.002908
 916	4.5750e-01	9.1443	9.106922	0.000158	1.582141	0.268022	0.003164
 917	4.5800e-01	9.1559	9.117185	0.000103	1.026254	0.173852	0.002053
 918	4.5850e-01	9.1650	9.138994	0.000218	2.180789	0.369436	0.004362
 919	4.5900e-01	9.1748	9.159520	0.000205	2.052507	0.347704	0.004105
 920	4.5950e-01	9.1858	9.174059	0.000145	1.453859	0.246290	0.002908
 921	4.6000e-01	9.1943	9.206131	0.000321	3.207043	0.543288	0.006414
 922	4.6050e-01	9.2065	9.204848	-0.000013	-0.128282	-0.021732	-0.000257
 923	4.6100e-01	9.2178	9.236920	0.000321	3.207043	0.543288	0.006414
 924	4.6150e-01	9.2291	9.238630	0.000017	0.171042	0.028975	0.000342
 925	4.6200e-01	9.2371	9.262577	0.000239	2.394592	0.405655	0.004789
 926	4.6250e-01	9.2468	9.302346	0.000398	3.976733	0.673677	0.007954
 927	4.6300e-01	9.2554	9.304912	0.000026	0.256563	0.043463	0.000513
 928	4.6350e-01	9.2676	9.325438	0.000205	2.052507	0.347704	0.004105
 929	4.6400e-01	9.2761	9.351096	0.000257	2.565634	0.434630	0.005132
 930	4.6450e-01	9.2865	9.354944	0.000038	0.384845	0.065195	0.000770
 931	4.6500e-01	9.2981	9.371622	0.000167	1.667662	0.282510	0.003335
 932	4.6550e-01	9.3066	9.404549	0.000329	3.292564	0.557775	0.006585
 933	4.6600e-01	9.3176	9.415239	0.000107	1.069014	0.181096	0.002138
 934	4.6650e-01	9.3256	9.449450	0.000342	3.420846	0.579507	0.006842
 935	4.6700e-01	9.3353	9.466555	0.000171	1.710423	0.289753	0.003421
 936	4.6750e-01	9.3445	9.481094	0.000145	1.453859	0.246290	0.002908
 937	4.6800e-01	9.3591	9.501192	0.000201	2.009747	0.340460	0.004020
 938	4.6850e-01	9.3680	9.515304	0.000141	1.411099	0.239047	0.002822
 939	4.6900e-01	9.3756	9.525567	0.000103	1.026254	0.173852	0.002053
 940	4.6950e-01	9.3860	9.551224	0.000257	2.565634	0.434630	0.005132
 941	4.7000e-01	9.3979	9.570895	0.000197	1.966986	0.333216	0.003934
 942	4.7050e-01	9.4049	9.590138	0.000192	1.924226	0.325973	0.003849
 943	4.7100e-01	9.4153	9.615368	0.000252	2.522874	0.427386	0.005046
 944	4.7150e-01	9.4250	9.629907	0.000145	1.453859	0.246290	0.002908
 945	4.7200e-01	9.4366	9.635467	0.000056	0.555887	0.094170	0.001112
 946	4.7250e-01	9.4458	9.674808	0.000393	3.933972	0.666433	0.007868
 947	4.7300e-01	9.4568	9.673953	-0.000009	-0.085521	-0.014488	-0.000171
 948	4.7350e-01	9.4641	9.694051	0.000201	2.009747	0.340460	0.004020
 949	4.7400e-01	9.4757	9.719281	0.000252	2.522874	0.427386	0.005046
 950	4.7450e-01	9.4873	9.748360	0.000291	2.907719	0.492581	0.005816
 951	4.7500e-01	9.4965	9.756912	0.000086	0.855211	0.144877	0.001711
 952	4.7550e-01	9.5068	9.773589	0.000167	1.667662	0.282510	0.003335
 953	4.7600e-01	9.5160	9.809938	0.000363	3.634648	0.615726	0.007270
 954	4.7650e-01	9.5258	9.813786	0.000038	0.384845	0.065195	0.000770
 955	4.7700e-01	9.5352	9.825332	0.000115	1.154535	0.195584	0.002309
 956	4.7750e-01	9.5447	9.854411	0.000291	2.907719	0.492581	0.005816
 957	4.7800e-01	9.5569	9.875364	0.000210	2.095268	0.354948	0.004191
 958	4.7850e-01	9.5679	9.888621	0.000133	1.325578	0.224559	0.002651
 959	4.7900e-01	9.5764	9.914278	0.000257	2.565634	0.434630	0.005132
 960	4.7950e-01	9.5850	9.936942	0.000227	2.266310	0.383923	0.004533
 961	4.8000e-01	9.5941	9.955330	0.000184	1.838705	0.311485	0.003678
 962	4.8050e-01	9.6039	9.977994	0.000227	2.266310	0.383923	0.004533
 963	4.8100e-01	9.6143	9.983126	0.000051	0.513127	0.086926	0.001026
 964	4.8150e-01	9.6265	10.001086	0.000180	1.795944	0.304241	0.003592
 965	4.8200e-01	9.6375	10.019474	0.000184	1.838705	0.311485	0.003678
 966	4.8250e-01	9.6451	10.033158	0.000137	1.368338	0.231803	0.002737
 967	4.8300e-01	9.6539	10.068223	0.000351	3.506367	0.593995	0.007013
 968	4.8350e-01	9.6674	10.082335	0.000141	1.411099	0.239047	0.002822
 969	4.8400e-01	9.6759	10.096874	0.000145	1.453859	0.246290	0.002908
 970	4.8450e-01	9.6875	10.110558	0.000137	1.368338	0.231803	0.002737
 971	4.8500e-01	9.6967	10.130229	0.000197	1.966986	0.333216	0.003934
 972	4.8550e-01	9.7046	10.149472	0.000192	1.924226	0.325973	0.003849
 973	4.8600e-01	9.7174	10.177695	0.000282	2.822198	0.478093	0.005645
 974	4.8650e-01	9.7241	10.194373	0.000167	1.667662	0.282510	0.003335
 975	4.8700e-01	9.7360	10.218747	0.000244	2.437352	0.412899	0.004875
 976	4.8750e-01	9.7476	10.230293	0.000115	1.154535	0.195584	0.002309
 977	4.8800e-01	9.7565	10.244405	0.000141	1.411099	0.239047	0.002822
 978	4.8850e-01	9.7638	10.270062	0.000257	2.565634	0.434630	0.005132
 979	4.8900e-01	9.7760	10.291871	0.000218	2.180789	0.369436	0.004362
 980	4.8950e-01	9.7852	10.299569	0.000077	0.769690	0.130389	0.001539
 981	4.9000e-01	9.7961	10.305128	0.000056	0.555887	0.094170	0.001112
 982	4.9050e-01	9.8071	10.334634	0.000295	2.950479	0.499825	0.005901
 983	4.9100e-01	9.8157	10.345324	0.000107	1.069014	0.181096	0.002138
 984	4.9150e-01	9.8242	10.372692	0.000274	2.736676	0.463606	0.005474
 985	4.9200e-01	9.8361	10.401771	0.000291	2.907719	0.492581	0.005816
 986	4.9250e-01	9.8450	10.405192	0.000034	0.342085	0.057951	0.000684
 987	4.9300e-01	9.8535	10.430850	0.000257	2.565634	0.434630	0.005132
 988	4.9350e-01	9.8663	10.459928	0.000291	2.907719	0.492581	0.005816
 989	4.9400e-01	9.8740	10.463349	0.000034	0.342085	0.057951	0.000684
 990	4.9450e-01	9.8828	10.491145	0.000278	2.779437	0.470849	0.005559
 991	4.9500e-01	9.8956	10.507394	0.000162	1.624902	0.275266	0.003250
 992	4.9550e-01	9.9051	10.523217	0.000158	1.582141	0.268022	0.003164
 993	4.9600e-01	9.9158	10.545881	0.000227	2.266310	0.383923	0.004533
 994	4.9650e-01	9.9240	10.562986	0.000171	1.710423	0.289753	0.003421
 995	4.9700e-01	9.9353	10.584367	0.000214	2.138029	0.362192	0.004276
 996	4.9750e-01	9.9457	10.605748	0.000214	2.138029	0.362192	0.004276
 997	4.9800e-01	9.9579	10.603610	-0.000021	-0.213803	-0.036219	-0.000428
 998	4.9850e-01	9.9640	10.649366	0.000458	4.575381	0.775091	0.009151
 999	4.9900e-01	9.9756	10.654070	0.000047	0.470366	0.079682	0.000941
1000	4.9950e-01	9.9878	10.677589	0.000235	2.351831	0.398411	0.004704
1001	5.0000e-01	9.9957	10.690846	0.000133	1.325578	0.224559	0.002651
1002	5.0050e-01	9.9841	10.679300	0.000115	1.154535	0.195584	-0.002309
1003	5.0100e-01	9.9744	10.655780	0.000235	2.351831	0.398411	-0.004704
1004	5.0150e-01	9.9658	10.642096	0.000137	1.368338	0.231803	-0.002737
1005	5.0200e-01	9.9561	10.615156	0.000269	2.693916	0.456362	-0.005388
1006	5.0250e-01	9.9442	10.604893	0.000103	1.026254	0.173852	-0.002053
1007	5.0300e-01	9.9359	10.597196	0.000077	0.769690	0.130389	-0.001539
1008	5.0350e-01	9.9261	10.585222	0.000120	1.197296	0.202827	-0.002395
1009	5.0400e-01	9.9170	10.562558	0.000227	2.266310	0.383923	-0.004533
1010	5.0450e-01	9.9060	10.551012	0.000115	1.154535	0.195584	-0.002309
1011	5.0500e-01	9.8956	10.542887	0.000081	0.812451	0.137633	-0.001625
1012	5.0550e-01	9.8859	10.523217	0.000197	1.966986	0.333216	-0.003934
1013	5.0600e-01	9.8758	10.490289	0.000329	3.292564	0.557775	-0.006585
1014	5.0650e-01	9.8663	10.489434	0.000009	0.085521	0.014488	-0.000171
1015	5.0700e-01	9.8532	10.474040	0.000154	1.539381	0.260778	-0.003079
1016	5.0750e-01	9.8456	10.463349	0.000107	1.069014	0.181096	-0.002138
1017	5.0800e-01	9.8376	10.454369	0.000090	0.897972	0.152121	-0.001796
1018	5.0850e-01	9.8257	10.427429	0.000269	2.693916	0.456362	-0.005388
1019	5.0900e-01	9.8157	10.410751	0.000167	1.667662	0.282510	-0.003335
1020	5.0950e-01	9.8071	10.382955	0.000278	2.779437	0.470849	-0.005559
1021	5.1000e-01	9.7964	10.368844	0.000141	1.411099	0.239047	-0.002822
1022	5.1050e-01	9.7839	10.357726	0.000111	1.111775	0.188340	-0.002224
1023	5.1100e-01	9.7751	10.349173	0.000086	0.855211	0.144877	-0.001711
1024	5.1150e-01	9.7675	10.341476	0.000077	0.769690	0.130389	-0.001539
1025	5.1200e-01	9.7577	10.322660	0.000188	1.881465	0.318729	-0.003763
1026	5.1250e-01	9.7461	10.303845	0.000188	1.881465	0.318729	-0.003763
1027	5.1300e-01	9.7333	10.297858	0.000060	0.598648	0.101414	-0.001197
1028	5.1350e-01	9.7272	10.263648	0.000342	3.420846	0.579507	-0.006842
1029	5.1400e-01	9.7156	10.267924	-0.000043	-0.427606	-0.072438	0.000855
1030	5.1450e-01	9.7046	10.248254	0.000197	1.966986	0.333216	-0.003934
1031	5.1500e-01	9.6960	10.214471	0.000338	3.378085	0.572263	-0.006756
1032	5.1550e-01	9.6857	10.208484	0.000060	0.598648	0.101414	-0.001197
1033	5.1600e-01	9.6759	10.176840	0.000316	3.164282	0.536044	-0.006329
1034	5.1650e-01	9.6655	10.176840	-0.000000	-0.000000	-0.000000	0.000000
1035	5.1700e-01	9.6564	10.161446	0.000154	1.539381	0.260778	-0.003079
1036	5.1750e-01	9.6436	10.143913	0.000175	1.753183	0.296997	-0.003507
1037	5.1800e-01	9.6356	10.124242	0.000197	1.966986	0.333216	-0.003934
1038	5.1850e-01	9.6248	10.103716	0.000205	2.052507	0.347704	-0.004105
1039	5.1900e-01	9.6149	10.102861	0.000009	0.085521	0.014488	-0.000171
1040	5.1950e-01	9.6063	10.076348	0.000265	2.651155	0.449118	-0.005303
1041	5.2000e-01	9.5950	10.068223	0.000081	0.812451	0.137633	-0.001625
1042	5.2050e-01	9.5868	10.049835	0.000184	1.838705	0.311485	-0.003678
1043	5.2100e-01	9.5734	10.025033	0.000248	2.480113	0.420143	-0.004960
1044	5.2150e-01	9.5682	10.009639	0.000154	1.539381	0.260778	-0.003079
1045	5.2200e-01	9.5569	9.985692	0.000239	2.394592	0.405655	-0.004789
1046	5.2250e-01	9.5477	9.970297	0.000154	1.539381	0.260778	-0.003079
1047	5.2300e-01	9.5374	9.954903	0.000154	1.539381	0.260778	-0.003079
1048	5.2350e-01	9.5245	9.945067	0.000098	0.983493	0.166608	-0.001967
1049	5.2400e-01	9.5160	9.924114	0.000210	2.095268	0.354948	-0.004191
1050	5.2450e-01	9.5056	9.903588	0.000205	2.052507	0.347704	-0.004105
1051	5.2500e-01	9.4952	9.904443	-0.000009	-0.085521	-0.014488	0.000171
1052	5.2550e-01	9.4867	9.881779	0.000227	2.266310	0.383923	-0.004533
1053	5.2600e-01	9.4788	9.865101	0.000167	1.667662	0.282510	-0.003335
1054	5.2650e-01	9.4641	9.839871	0.000252	2.522874	0.427386	-0.005046
1055	5.2700e-01	9.4531	9.836450	0.000034	0.342085	0.057951	-0.000684
1056	5.2750e-01	9.4446	9.812076	0.000244	2.437352	0.412899	-0.004875
1057	5.2800e-01	9.4330	9.802240	0.000098	0.983493	0.166608	-0.001967
1058	5.2850e-01	9.4263	9.778721	0.000235	2.351831	0.398411	-0.004704
1059	5.2900e-01	9.4128	9.760333	0.000184	1.838705	0.311485	-0.003678
1060	5.2950e-01	9.4049	9.751781	0.000086	0.855211	0.144877	-0.001711
1061	5.3000e-01	9.3976	9.729116	0.000227	2.266310	0.383923	-0.004533
1062	5.3050e-01	9.3872	9.684643	0.000445	4.447099	0.753359	-0.008895
1063	5.3100e-01	9.3750	9.690630	-0.000060	-0.598648	-0.101414	0.001197
1064	5.3150e-01	9.3665	9.688492	0.000021	0.213803	0.036219	-0.000428
1065	5.3200e-01	9.3567	9.670532	0.000180	1.795944	0.304241	-0.003592
1066	5.3250e-01	9.3451	9.654282	0.000162	1.624902	0.275266	-0.003250
1067	5.3300e-01	9.3347	9.631190	0.000231	2.309071	0.391167	-0.004618
1068	5.3350e-01	9.3274	9.611947	0.000192	1.924226	0.325973	-0.003849
1069	5.3400e-01	9.3140	9.590138	0.000218	2.180789	0.369436	-0.004362
1070	5.3450e-01	9.3066	9.580303	0.000098	0.983493	0.166608	-0.001967
1071	5.3500e-01	9.2944	9.571323	0.000090	0.897972	0.152121	-0.001796
1072	5.3550e-01	9.2834	9.540534	0.000308	3.078761	0.521556	-0.006158
1073	5.3600e-01	9.2728	9.544810	-0.000043	-0.427606	-0.072438	0.000855
1074	5.3650e-01	9.2651	9.511028	0.000338	3.378085	0.572263	-0.006756
1075	5.3700e-01	9.2538	9.495205	0.000158	1.582141	0.268022	-0.003164
1076	5.3750e-01	9.2438	9.511028	-0.000158	-1.582141	-0.268022	0.003164
1077	5.3800e-01	9.2343	9.469548	0.000415	4.147775	0.702652	-0.008296
1078	5.3850e-01	9.2249	9.447311	0.000222	2.223550	0.376680	-0.004447
1079	5.3900e-01	9.2139	9.430206	0.000171	1.710423	0.289753	-0.003421
1080	5.3950e-01	9.2065	9.410536	0.000197	1.966986	0.333216	-0.003934
1081	5.4000e-01	9.1943	9.381885	0.000286	2.864958	0.485337	-0.005730
1082	5.4050e-01	9.1858	9.374615	0.000073	0.726930	0.123145	-0.001454
1083	5.4100e-01	9.1763	9.354517	0.000201	2.009747	0.340460	-0.004020
1084	5.4150e-01	9.1684	9.345537	0.000090	0.897972	0.152121	-0.001796
1085	5.4200e-01	9.1528	9.325011	0.000205	2.052507	0.347704	-0.004105
1086	5.4250e-01	9.1455	9.308333	0.000167	1.667662	0.282510	-0.003335
1087	5.4300e-01	9.1364	9.298925	0.000094	0.940733	0.159364	-0.001882
1088	5.4350e-01	9.1251	9.268992	0.000299	2.993240	0.507069	-0.005987
1089	5.4400e-01	9.1153	9.259156	0.000098	0.983493	0.166608	-0.001967
1090	5.4450e-01	9.1071	9.253170	0.000060	0.598648	0.101414	-0.001197
1091	5.4500e-01	9.0955	9.215538	0.000376	3.762930	0.637458	-0.007526
1092	5.4550e-01	9.0851	9.215538	-0.000000	-0.000000	-0.000000	0.000000
1093	5.4600e-01	9.0759	9.182184	0.000334	3.335324	0.565019	-0.006671
1094	5.4650e-01	9.0649	9.188598	-0.000064	-0.641409	-0.108658	0.001283
1095	5.4700e-01	9.0558	9.163368	0.000252	2.522874	0.427386	-0.005046
1096	5.4750e-01	9.0472	9.142415	0.000210	2.095268	0.354948	-0.004191
1097	5.4800e-01	9.0375	9.122744	0.000197	1.966986	0.333216	-0.003934
1098	5.4850e-01	9.0265	9.098369	0.000244	2.437352	0.412899	-0.004875
1099	5.4900e-01	9.0143	9.098369	-0.000000	-0.000000	-0.000000	0.000000
1100	5.4950e-01	9.0047	9.073139	0.000252	2.522874	0.427386	-0.005046
1101	5.5000e-01	8.9966	9.061166	0.000120	1.197296	0.202827	-0.002395
1102	5.5050e-01	8.9862	9.033370	0.000278	2.779437	0.470849	-0.005559
1103	5.5100e-01	8.9758	9.029949	0.000034	0.342085	0.057951	-0.000684
1104	5.5150e-01	8.9661	9.005147	0.000248	2.480113	0.420143	-0.004960
1105	5.5200e-01	8.9581	8.982483	0.000227	2.266310	0.383923	-0.004533
1106	5.5250e-01	8.9459	8.964522	0.000180	1.795944	0.304241	-0.003592
1107	5.5300e-01	8.9343	8.962384	0.000021	0.213803	0.036219	-0.000428
1108	5.5350e-01	8.9258	8.933733	0.000286	2.864958	0.485337	-0.005730
1109	5.5400e-01	8.9154	8.923470	0.000103	1.026254	0.173852	-0.002053
1110	5.5450e-01	8.9069	8.892254	0.000312	3.121522	0.528800	-0.006243
1111	5.5500e-01	8.8983	8.881563	0.000107	1.069014	0.181096	-0.002138
1112	5.5550e-01	8.8849	8.867452	0.000141	1.411099	0.239047	-0.002822
1113	5.5600e-01	8.8760	8.851202	0.000162	1.624902	0.275266	-0.003250
1114	5.5650e-01	8.8672	8.839228	0.000120	1.197296	0.202827	-0.002395
1115	5.5700e-01	8.8556	8.809722	0.000295	2.950479	0.499825	-0.005901
1116	5.5750e-01	8.8440	8.808867	0.000009	0.085521	0.014488	-0.000171
1117	5.5800e-01	8.8354	8.781499	0.000274	2.736676	0.463606	-0.005474
1118	5.5850e-01	8.8248	8.769525	0.000120	1.197296	0.202827	-0.002395
1119	5.5900e-01	8.8147	8.769098	0.000004	0.042761	0.007244	-0.000086
1120	5.5950e-01	8.8055	8.735315	0.000338	3.378085	0.572263	-0.006756
1121	5.6000e-01	8.7976	8.730184	0.000051	0.513127	0.086926	-0.001026
1122	5.6050e-01	8.7854	8.698540	0.000316	3.164282	0.536044	-0.006329
1123	5.6100e-01	8.7744	8.672454	0.000261	2.608395	0.441874	-0.005217
1124	5.6150e-01	8.7683	8.670744	0.000017	0.171042	0.028975	-0.000342
1125	5.6200e-01	8.7555	8.653639	0.000171	1.710423	0.289753	-0.003421
1126	5.6250e-01	8.7463	8.624560	0.000291	2.907719	0.492581	-0.005816
1127	5.6300e-01	8.7341	8.599758	0.000248	2.480113	0.420143	-0.004960
1128	5.6350e-01	8.7268	8.595909	0.000038	0.384845	0.065195	-0.000770
1129	5.6400e-01	8.7198	8.556568	0.000393	3.933972	0.666433	-0.007868
1130	5.6450e-01	8.7051	8.541601	0.000150	1.496620	0.253534	-0.002993
1131	5.6500e-01	8.6975	8.533904	0.000077	0.769690	0.130389	-0.001539
1132	5.6550e-01	8.6877	8.524924	0.000090	0.897972	0.152121	-0.001796
1133	5.6600e-01	8.6761	8.506536	0.000184	1.838705	0.311485	-0.003678
1134	5.6650e-01	8.6688	8.482589	0.000239	2.394592	0.405655	-0.004789
1135	5.6700e-01	8.6568	8.469332	0.000133	1.325578	0.224559	-0.002651
1136	5.6750e-01	8.6469	8.444102	0.000252	2.522874	0.427386	-0.005046
1137	5.6800e-01	8.6365	8.429563	0.000145	1.453859	0.246290	-0.002908
1138	5.6850e-01	8.6279	8.416307	0.000133	1.325578	0.224559	-0.002651
1139	5.6900e-01	8.6176	8.389366	0.000269	2.693916	0.456362	-0.005388
1140	5.6950e-01	8.6102	8.384663	0.000047	0.470366	0.079682	-0.000941
1141	5.7000e-01	8.5986	8.359433	0.000252	2.522874	0.427386	-0.005046
1142	5.7050e-01	8.5852	8.350453	0.000090	0.897972	0.152121	-0.001796
1143	5.7100e-01	8.5742	8.335913	0.000145	1.453859	0.246290	-0.002908
1144	5.7150e-01	8.5657	8.313677	0.000222	2.223550	0.376680	-0.004447
1145	5.7200e-01	8.5587	8.295289	0.000184	1.838705	0.311485	-0.003678
1146	5.7250e-01	8.5480	8.268776	0.000265	2.651155	0.449118	-0.005303
1147	5.7300e-01	8.5358	8.268348	0.000004	0.042761	0.007244	-0.000086
1148	5.7350e-01	8.5248	8.247395	0.000210	2.095268	0.354948	-0.004191
1149	5.7400e-01	8.5159	8.217461	0.000299	2.993240	0.507069	-0.005987
1150	5.7450e-01	8.5040	8.210619	0.000068	0.684169	0.115901	-0.001368
1151	5.7500e-01	8.4967	8.184962	0.000257	2.565634	0.434630	-0.005132
1152	5.7550e-01	8.4869	8.173843	0.000111	1.111775	0.188340	-0.002224
1153	5.7600e-01	8.4760	8.163153	0.000107	1.069014	0.181096	-0.002138
1154	5.7650e-01	8.4680	8.131936	0.000312	3.121522	0.528800	-0.006243
1155	5.7700e-01	8.4573	8.121245	0.000107	1.069014	0.181096	-0.002138
1156	5.7750e-01	8.4479	8.102858	0.000184	1.838705	0.311485	-0.003678
1157	5.7800e-01	8.4326	8.084042	0.000188	1.881465	0.318729	-0.003763
1158	5.7850e-01	8.4259	8.054536	0.000295	2.950479	0.499825	-0.005901
1159	5.7900e-01	8.4149	8.048549	0.000060	0.598648	0.101414	-0.001197
1160	5.7950e-01	8.4064	8.044273	0.000043	0.427606	0.072438	-0.000855
1161	5.8000e-01	8.3942	8.012629	0.000316	3.164282	0.536044	-0.006329
1162	5.8050e-01	8.3850	7.988254	0.000244	2.437352	0.412899	-0.004875
1163	5.8100e-01	8.3783	7.969866	0.000184	1.838705	0.311485	-0.003678
1164	5.8150e-01	8.3649	7.973287	-0.000034	-0.342085	-0.057951	0.000684
1165	5.8200e-01	8.3569	7.943353	0.000299	2.993240	0.507069	-0.005987
1166	5.8250e-01	8.3459	7.929242	0.000141	1.411099	0.239047	-0.002822
1167	5.8300e-01	8.3340	7.912992	0.000162	1.624902	0.275266	-0.003250
1168	5.8350e-01	8.3270	7.880492	0.000325	3.249803	0.550532	-0.006500
1169	5.8400e-01	8.3167	7.871085	0.000094	0.940733	0.159364	-0.001882
1170	5.8450e-01	8.3081	7.844144	0.000269	2.693916	0.456362	-0.005388
1171	5.8500e-01	8.2941	7.829605	0.000145	1.453859	0.246290	-0.002908
1172	5.8550e-01	8.2874	7.824473	0.000051	0.513127	0.086926	-0.001026
1173	5.8600e-01	8.2794	7.789836	0.000346	3.463606	0.586751	-0.006928
1174	5.8650e-01	8.2672	7.772731	0.000171	1.710423	0.289753	-0.003421
1175	5.8700e-01	8.2568	7.753915	0.000188	1.881465	0.318729	-0.003763
1176	5.8750e-01	8.2477	7.739804	0.000141	1.411099	0.239047	-0.002822
1177	5.8800e-01	8.2343	7.728685	0.000111	1.111775	0.188340	-0.002224
1178	5.8850e-01	8.2245	7.707732	0.000210	2.095268	0.354948	-0.004191
1179	5.8900e-01	8.2172	7.692765	0.000150	1.496620	0.253534	-0.002993
1180	5.8950e-01	8.2056	7.671384	0.000214	2.138029	0.362192	-0.004276
1181	5.9000e-01	8.1958	7.652996	0.000184	1.838705	0.311485	-0.003678
1182	5.9050e-01	8.1840	7.639312	0.000137	1.368338	0.231803	-0.002737
1183	5.9100e-01	8.1763	7.617503	0.000218	2.180789	0.369436	-0.004362
1184	5.9150e-01	8.1659	7.598260	0.000192	1.924226	0.325973	-0.003849
1185	5.9200e-01	8.1589	7.576023	0.000222	2.223550	0.376680	-0.004447
1186	5.9250e-01	8.1470	7.564905	0.000111	1.111775	0.188340	-0.002224
1187	5.9300e-01	8.1372	7.532405	0.000325	3.249803	0.550532	-0.006500
1188	5.9350e-01	8.1253	7.523853	0.000086	0.855211	0.144877	-0.001711
1189	5.9400e-01	8.1195	7.522142	0.000017	0.171042	0.028975	-0.000342
1190	5.9450e-01	8.1061	7.493919	0.000282	2.822198	0.478093	-0.005645
1191	5.9500e-01	8.0960	7.470827	0.000231	2.309071	0.391167	-0.004618
1192	5.9550e-01	8.0872	7.458426	0.000124	1.240057	0.210071	-0.002480
1193	5.9600e-01	8.0762	7.434907	0.000235	2.351831	0.398411	-0.004704
1194	5.9650e-01	8.0646	7.429348	0.000056	0.555887	0.094170	-0.001112
1195	5.9700e-01	8.0566	7.409677	0.000197	1.966986	0.333216	-0.003934
1196	5.9750e-01	8.0463	7.380171	0.000295	2.950479	0.499825	-0.005901
1197	5.9800e-01	8.0365	7.366914	0.000133	1.325578	0.224559	-0.002651
1198	5.9850e-01	8.0273	7.338264	0.000286	2.864958	0.485337	-0.005730
1199	5.9900e-01	8.0151	7.346388	-0.000081	-0.812451	-0.137633	0.001625
1200	5.9950e-01	8.0072	7.314744	0.000316	3.164282	0.536044	-0.006329
1201	6.0000e-01	7.9968	7.286521	0.000282	2.822198	0.478093	-0.005645
1202	6.0050e-01	7.9852	7.277541	0.000090	0.897972	0.152121	-0.001796
1203	6.0100e-01	7.9773	7.257870	0.000197	1.966986	0.333216	-0.003934
1204	6.0150e-01	7.9675	7.242903	0.000150	1.496620	0.253534	-0.002993
1205	6.0200e-01	7.9556	7.217673	0.000252	2.522874	0.427386	-0.005046
1206	6.0250e-01	7.9456	7.201851	0.000158	1.582141	0.268022	-0.003164
1207	6.0300e-01	7.9376	7.177049	0.000248	2.480113	0.420143	-0.004960
1208	6.0350e-01	7.9260	7.162082	0.000150	1.496620	0.253534	-0.002993
1209	6.0400e-01	7.9169	7.156095	0.000060	0.598648	0.101414	-0.001197
1210	6.0450e-01	7.9077	7.132148	0.000239	2.394592	0.405655	-0.004789
1211	6.0500e-01	7.8992	7.110767	0.000214	2.138029	0.362192	-0.004276
1212	6.0550e-01	7.8864	7.085109	0.000257	2.565634	0.434630	-0.005132
1213	6.0600e-01	7.8778	7.065011	0.000201	2.009747	0.340460	-0.004020
1214	6.0650e-01	7.8687	7.056031	0.000090	0.897972	0.152121	-0.001796
1215	6.0700e-01	7.8528	7.030801	0.000252	2.522874	0.427386	-0.005046
1216	6.0750e-01	7.8461	7.020538	0.000103	1.026254	0.173852	-0.002053
1217	6.0800e-01	7.8381	7.013696	0.000068	0.684169	0.115901	-0.001368
1218	6.0850e-01	7.8265	6.979914	0.000338	3.378085	0.572263	-0.006756
1219	6.0900e-01	7.8156	6.964091	0.000158	1.582141	0.268022	-0.003164
1220	6.0950e-01	7.8064	6.952118	0.000120	1.197296	0.202827	-0.002395
1221	6.1000e-01	7.7972	6.936296	0.000158	1.582141	0.268022	-0.003164
1222	6.1050e-01	7.7856	6.912349	0.000239	2.394592	0.405655	-0.004789
1223	6.1100e-01	7.7725	6.901230	0.000111	1.111775	0.188340	-0.002224
1224	6.1150e-01	7.7658	6.878139	0.000231	2.309071	0.391167	-0.004618
1225	6.1200e-01	7.7563	6.845639	0.000325	3.249803	0.550532	-0.006500
1226	6.1250e-01	7.7466	6.842218	0.000034	0.342085	0.057951	-0.000684
1227	6.1300e-01	7.7362	6.828107	0.000141	1.411099	0.239047	-0.002822
1228	6.1350e-01	7.7264	6.800739	0.000274	2.736676	0.463606	-0.005474
1229	6.1400e-01	7.7191	6.779357	0.000214	2.138029	0.362192	-0.004276
1230	6.1450e-01	7.7071	6.763108	0.000162	1.624902	0.275266	-0.003250
1231	6.1500e-01	7.6990	6.760114	0.000030	0.299324	0.050707	-0.000599
1232	6.1550e-01	7.6874	6.734457	0.000257	2.565634	0.434630	-0.005132
1233	6.1600e-01	7.6758	6.695970	0.000385	3.848451	0.651945	-0.007697
1234	6.1650e-01	7.6666	6.700247	-0.000043	-0.427606	-0.072438	0.000855
1235	6.1700e-01	7.6575	6.670313	0.000299	2.993240	0.507069	-0.005987
1236	6.1750e-01	7.6459	6.657912	0.000124	1.240057	0.210071	-0.002480
1237	6.1800e-01	7.6349	6.641662	0.000162	1.624902	0.275266	-0.003250
1238	6.1850e-01	7.6233	6.624557	0.000171	1.710423	0.289753	-0.003421
1239	6.1900e-01	7.6151	6.607452	0.000171	1.710423	0.289753	-0.003421
1240	6.1950e-01	7.6056	6.583933	0.000235	2.351831	0.398411	-0.004704
1241	6.2000e-01	7.5958	6.565545	0.000184	1.838705	0.311485	-0.003678
1242	6.2050e-01	7.5879	6.530907	0.000346	3.463606	0.586751	-0.006928
1243	6.2100e-01	7.5769	6.534328	-0.000034	-0.342085	-0.057951	0.000684
1244	6.2150e-01	7.5668	6.497980	0.000363	3.634648	0.615726	-0.007270
1245	6.2200e-01	7.5562	6.503111	-0.000051	-0.513127	-0.086926	0.001026
1246	6.2250e-01	7.5464	6.474888	0.000282	2.822198	0.478093	-0.005645
1247	6.2300e-01	7.5360	6.458638	0.000162	1.624902	0.275266	-0.003250
1248	6.2350e-01	7.5293	6.437257	0.000214	2.138029	0.362192	-0.004276
1249	6.2400e-01	7.5177	6.411600	0.000257	2.565634	0.434630	-0.005132
1250	6.2450e-01	7.5073	6.396205	0.000154	1.539381	0.260778	-0.003079
1251	6.2500e-01	7.4966	6.385514	0.000107	1.069014	0.181096	-0.002138
1252	6.2550e-01	7.4872	6.367982	0.000175	1.753183	0.296997	-0.003507
1253	6.2600e-01	7.4731	6.352587	0.000154	1.539381	0.260778	-0.003079
1254	6.2650e-01	7.4683	6.324792	0.000278	2.779437	0.470849	-0.005559
1255	6.2700e-01	7.4538	6.305976	0.000188	1.881465	0.318729	-0.003763
1256	6.2750e-01	7.4458	6.287161	0.000188	1.881465	0.318729	-0.003763
1257	6.2800e-01	7.4371	6.270483	0.000167	1.667662	0.282510	-0.003335
1258	6.2850e-01	7.4268	6.239694	0.000308	3.078761	0.521556	-0.006158
1259	6.2900e-01	7.4161	6.218313	0.000214	2.138029	0.362192	-0.004276
1260	6.2950e-01	7.4072	6.202063	0.000162	1.624902	0.275266	-0.003250
1261	6.3000e-01	7.3969	6.194366	0.000077	0.769690	0.130389	-0.001539
1262	6.3050e-01	7.3883	6.173412	0.000210	2.095268	0.354948	-0.004191
1263	6.3100e-01	7.3792	6.164432	0.000090	0.897972	0.152121	-0.001796
1264	6.3150e-01	7.3694	6.126373	0.000381	3.805691	0.644701	-0.007612
1265	6.3200e-01	7.3590	6.113117	0.000133	1.325578	0.224559	-0.002651
1266	6.3250e-01	7.3471	6.109268	0.000038	0.384845	0.065195	-0.000770
1267	6.3300e-01	7.3349	6.076769	0.000325	3.249803	0.550532	-0.006500
1268	6.3350e-01	7.3242	6.064368	0.000124	1.240057	0.210071	-0.002480
1269	6.3400e-01	7.3157	6.050256	0.000141	1.411099	0.239047	-0.002822
1270	6.3450e-01	7.3038	6.032724	0.000175	1.753183	0.296997	-0.003507
1271	6.3500e-01	7.2949	5.999796	0.000329	3.292564	0.557775	-0.006585
1272	6.3550e-01	7.2867	5.985685	0.000141	1.411099	0.239047	-0.002822
1273	6.3600e-01	7.2780	5.972428	0.000133	1.325578	0.224559	-0.002651
1274	6.3650e-01	7.2659	5.958744	0.000137	1.368338	0.231803	-0.002737
1275	6.3700e-01	7.2571	5.927528	0.000312	3.121522	0.528800	-0.006243
1276	6.3750e-01	7.2461	5.910850	0.000167	1.667662	0.282510	-0.003335
1277	6.3800e-01	7.2351	5.890752	0.000201	2.009747	0.340460	-0.004020
1278	6.3850e-01	7.2272	5.884765	0.000060	0.598648	0.101414	-0.001197
1279	6.3900e-01	7.2153	5.861246	0.000235	2.351831	0.398411	-0.004704
1280	6.3950e-01	7.2076	5.843713	0.000175	1.753183	0.296997	-0.003507
1281	6.4000e-01	7.1948	5.818056	0.000257	2.565634	0.434630	-0.005132
1282	6.4050e-01	7.1878	5.789832	0.000282	2.822198	0.478093	-0.005645
1283	6.4100e-01	7.1768	5.776148	0.000137	1.368338	0.231803	-0.002737
1284	6.4150e-01	7.1661	5.761182	0.000150	1.496620	0.253534	-0.002993
1285	6.4200e-01	7.1579	5.732531	0.000286	2.864958	0.485337	-0.005730
1286	6.4250e-01	7.1472	5.725689	0.000068	0.684169	0.115901	-0.001368
1287	6.4300e-01	7.1344	5.709011	0.000167	1.667662	0.282510	-0.003335
1288	6.4350e-01	7.1234	5.694900	0.000141	1.411099	0.239047	-0.002822
1289	6.4400e-01	7.1161	5.666676	0.000282	2.822198	0.478093	-0.005645
1290	6.4450e-01	7.1063	5.652137	0.000145	1.453859	0.246290	-0.002908
1291	6.4500e-01	7.0959	5.639308	0.000128	1.282817	0.217315	-0.002566
1292	6.4550e-01	7.0850	5.614506	0.000248	2.480113	0.420143	-0.004960
1293	6.4600e-01	7.0764	5.592697	0.000218	2.180789	0.369436	-0.004362
1294	6.4650e-01	7.0660	5.574309	0.000184	1.838705	0.311485	-0.003678
1295	6.4700e-01	7.0560	5.565329	0.000090	0.897972	0.152121	-0.001796
1296	6.4750e-01	7.0438	5.531119	0.000342	3.420846	0.579507	-0.006842
1297	6.4800e-01	7.0367	5.511448	0.000197	1.966986	0.333216	-0.003934
1298	6.4850e-01	7.0276	5.487501	0.000239	2.394592	0.405655	-0.004789
1299	6.4900e-01	7.0148	5.472962	0.000145	1.453859	0.246290	-0.002908
1300	6.4950e-01	7.0062	5.459706	0.000133	1.325578	0.224559	-0.002651
1301	6.5000e-01	6.9958	5.443884	0.000158	1.582141	0.268022	-0.003164
1302	6.5050e-01	6.9873	5.431910	0.000120	1.197296	0.202827	-0.002395
1303	6.5100e-01	6.9763	5.410529	0.000214	2.138029	0.362192	-0.004276
1304	6.5150e-01	6.9666	5.378457	0.000321	3.207043	0.543288	-0.006414
1305	6.5200e-01	6.9550	5.350234	0.000282	2.822198	0.478093	-0.005645
1306	6.5250e-01	6.9458	5.333556	0.000167	1.667662	0.282510	-0.003335
1307	6.5300e-01	6.9373	5.330563	0.000030	0.299324	0.050707	-0.000599
1308	6.5350e-01	6.9252	5.318589	0.000120	1.197296	0.202827	-0.002395
1309	6.5400e-01	6.9156	5.307471	0.000111	1.111775	0.188340	-0.002224
1310	6.5450e-01	6.9080	5.271551	0.000359	3.591888	0.608482	-0.007184
1311	6.5500e-01	6.8954	5.251025	0.000205	2.052507	0.347704	-0.004105
1312	6.5550e-01	6.8860	5.225795	0.000252	2.522874	0.427386	-0.005046
1313	6.5600e-01	6.8750	5.227505	-0.000017	-0.171042	-0.028975	0.000342
1314	6.5650e-01	6.8646	5.195433	0.000321	3.207043	0.543288	-0.006414
1315	6.5700e-01	6.8555	5.174052	0.000214	2.138029	0.362192	-0.004276
1316	6.5750e-01	6.8496	5.169348	0.000047	0.470366	0.079682	-0.000941
1317	6.5800e-01	6.8396	5.112902	0.000564	5.644395	0.956186	-0.011289
1318	6.5850e-01	6.8256	5.119316	-0.000064	-0.641409	-0.108658	0.001283
1319	6.5900e-01	6.8152	5.092803	0.000265	2.651155	0.449118	-0.005303
1320	6.5950e-01	6.8092	5.073988	0.000188	1.881465	0.318729	-0.003763
1321	6.6000e-01	6.7960	5.052606	0.000214	2.138029	0.362192	-0.004276
1322	6.6050e-01	6.7859	5.035929	0.000167	1.667662	0.282510	-0.003335
1323	6.6100e-01	6.7761	5.023956	0.000120	1.197296	0.202827	-0.002395
1324	6.6150e-01	6.7661	5.006851	0.000171	1.710423	0.289753	-0.003421
1325	6.6200e-01	6.7566	4.994877	0.000120	1.197296	0.202827	-0.002395
1326	6.6250e-01	6.7450	4.955535	0.000393	3.933972	0.666433	-0.007868
1327	6.6300e-01	6.7377	4.938858	0.000167	1.667662	0.282510	-0.003335
1328	6.6350e-01	6.7255	4.923891	0.000150	1.496620	0.253534	-0.002993
1329	6.6400e-01	6.7151	4.905076	0.000188	1.881465	0.318729	-0.003763
1330	6.6450e-01	6.7062	4.886688	0.000184	1.838705	0.311485	-0.003678
1331	6.6500e-01	6.6968	4.861458	0.000252	2.522874	0.427386	-0.005046
1332	6.6550e-01	6.6884	4.844781	0.000167	1.667662	0.282510	-0.003335
1333	6.6600e-01	6.6772	4.841360	0.000034	0.342085	0.057951	-0.000684
1334	6.6650e-01	6.6669	4.806294	0.000351	3.506367	0.593995	-0.007013
1335	6.6700e-01	6.6559	4.785768	0.000205	2.052507	0.347704	-0.004105
1336	6.6750e-01	6.6449	4.778926	0.000068	0.684169	0.115901	-0.001368
1337	6.6800e-01	6.6376	4.747710	0.000312	3.121522	0.528800	-0.006243
1338	6.6850e-01	6.6248	4.743006	0.000047	0.470366	0.079682	-0.000941
1339	6.6900e-01	6.6125	4.727611	0.000154	1.539381	0.260778	-0.003079
1340	6.6950e-01	6.6040	4.708796	0.000188	1.881465	0.318729	-0.003763
1341	6.7000e-01	6.5961	4.684849	0.000239	2.394592	0.405655	-0.004789
1342	6.7050e-01	6.5878	4.657481	0.000274	2.736676	0.463606	-0.005474
1343	6.7100e-01	6.5779	4.639093	0.000184	1.838705	0.311485	-0.003678
1344	6.7150e-01	6.5668	4.607449	0.000316	3.164282	0.536044	-0.006329
1345	6.7200e-01	6.5576	4.597613	0.000098	0.983493	0.166608	-0.001967
1346	6.7250e-01	6.5454	4.581791	0.000158	1.582141	0.268022	-0.003164
1347	6.7300e-01	6.5369	4.554851	0.000269	2.693916	0.456362	-0.005388
1348	6.7350e-01	6.5247	4.550147	0.000047	0.470366	0.079682	-0.000941
1349	6.7400e-01	6.5170	4.514226	0.000359	3.591888	0.608482	-0.007184
1350	6.7450e-01	6.5063	4.503963	0.000103	1.026254	0.173852	-0.002053
1351	6.7500e-01	6.4932	4.486431	0.000175	1.753183	0.296997	-0.003507
1352	6.7550e-01	6.4838	4.473174	0.000133	1.325578	0.224559	-0.002651
1353	6.7600e-01	6.4777	4.444096	0.000291	2.907719	0.492581	-0.005816
1354	6.7650e-01	6.4651	4.420149	0.000239	2.394592	0.405655	-0.004789
1355	6.7700e-01	6.4548	4.408175	0.000120	1.197296	0.202827	-0.002395
1356	6.7750e-01	6.4435	4.411169	-0.000030	-0.299324	-0.050707	0.000599
1357	6.7800e-01	6.4377	4.366268	0.000449	4.489860	0.760603	-0.008980
1358	6.7850e-01	6.4246	4.353867	0.000124	1.240057	0.210071	-0.002480
1359	6.7900e-01	6.4166	4.332058	0.000218	2.180789	0.369436	-0.004362
1360	6.7950e-01	6.4069	4.317946	0.000141	1.411099	0.239047	-0.002822
1361	6.8000e-01	6.3968	4.289295	0.000286	2.864958	0.485337	-0.005730
1362	6.8050e-01	6.3861	4.266204	0.000231	2.309071	0.391167	-0.004618
1363	6.8100e-01	6.3757	4.259362	0.000068	0.684169	0.115901	-0.001368
1364	6.8150e-01	6.3666	4.223441	0.000359	3.591888	0.608482	-0.007184
1365	6.8200e-01	6.3547	4.206764	0.000167	1.667662	0.282510	-0.003335
1366	6.8250e-01	6.3460	4.193080	0.000137	1.368338	0.231803	-0.002737
1367	6.8300e-01	6.3370	4.172981	0.000201	2.009747	0.340460	-0.004020
1368	6.8350e-01	6.3251	4.157587	0.000154	1.539381	0.260778	-0.003079
1369	6.8400e-01	6.3162	4.128508	0.000291	2.907719	0.492581	-0.005816
1370	6.8450e-01	6.3051	4.114397	0.000141	1.411099	0.239047	-0.002822
1371	6.8500e-01	6.2958	4.111831	0.000026	0.256563	0.043463	-0.000513
1372	6.8550e-01	6.2854	4.076338	0.000355	3.549127	0.601238	-0.007099
1373	6.8600e-01	6.2775	4.057522	0.000188	1.881465	0.318729	-0.003763
1374	6.8650e-01	6.2640	4.042128	0.000154	1.539381	0.260778	-0.003079
1375	6.8700e-01	6.2576	4.007918	0.000342	3.420846	0.579507	-0.006842
1376	6.8750e-01	6.2457	4.004925	0.000030	0.299324	0.050707	-0.000599
1377	6.8800e-01	6.2360	3.983543	0.000214	2.138029	0.362192	-0.004276
1378	6.8850e-01	6.2268	3.948906	0.000346	3.463606	0.586751	-0.006928
1379	6.8900e-01	6.2180	3.931373	0.000175	1.753183	0.296997	-0.003507
1380	6.8950e-01	6.2079	3.927524	0.000038	0.384845	0.065195	-0.000770
1381	6.9000e-01	6.1963	3.899301	0.000282	2.822198	0.478093	-0.005645
1382	6.9050e-01	6.1859	3.882196	0.000171	1.710423	0.289753	-0.003421
1383	6.9100e-01	6.1774	3.860387	0.000218	2.180789	0.369436	-0.004362
1384	6.9150e-01	6.1664	3.831736	0.000286	2.864958	0.485337	-0.005730
1385	6.9200e-01	6.1578	3.827888	0.000038	0.384845	0.065195	-0.000770
1386	6.9250e-01	6.1469	3.795388	0.000325	3.249803	0.550532	-0.006500
1387	6.9300e-01	6.1374	3.781704	0.000137	1.368338	0.231803	-0.002737
1388	6.9350e-01	6.1258	3.754764	0.000269	2.693916	0.456362	-0.005388
1389	6.9400e-01	6.1143	3.733810	0.000210	2.095268	0.354948	-0.004191
1390	6.9450e-01	6.1072	3.724830	0.000090	0.897972	0.152121	-0.001796
1391	6.9500e-01	6.0959	3.696607	0.000282	2.822198	0.478093	-0.005645
1392	6.9550e-01	6.0860	3.693186	0.000034	0.342085	0.057951	-0.000684
1393	6.9600e-01	6.0776	3.670949	0.000222	2.223550	0.376680	-0.004447
1394	6.9650e-01	6.0654	3.655555	0.000154	1.539381	0.260778	-0.003079
1395	6.9700e-01	6.0583	3.631180	0.000244	2.437352	0.412899	-0.004875
1396	6.9750e-01	6.0471	3.595259	0.000359	3.591888	0.608482	-0.007184
1397	6.9800e-01	6.0321	3.590556	0.000047	0.470366	0.079682	-0.000941
1398	6.9850e-01	6.0266	3.559767	0.000308	3.078761	0.521556	-0.006158
1399	6.9900e-01	6.0168	3.532399	0.000274	2.736676	0.463606	-0.005474
1400	6.9950e-01	6.0042	3.537102	-0.000047	-0.470366	-0.079682	0.000941
1401	7.0000e-01	5.9958	3.514866	0.000222	2.223550	0.376680	-0.004447
1402	7.0050e-01	5.9872	3.488781	0.000261	2.608395	0.441874	-0.005217
1403	7.0100e-01	5.9790	3.463551	0.000252	2.522874	0.427386	-0.005046
1404	7.0150e-01	5.9650	3.440887	0.000227	2.266310	0.383923	-0.004533
1405	7.0200e-01	5.9540	3.433190	0.000077	0.769690	0.130389	-0.001539
1406	7.0250e-01	5.9454	3.410953	0.000222	2.223550	0.376680	-0.004447
1407	7.0300e-01	5.9364	3.387434	0.000235	2.351831	0.398411	-0.004704
1408	7.0350e-01	5.9253	3.373750	0.000137	1.368338	0.231803	-0.002737
1409	7.0400e-01	5.9155	3.350230	0.000235	2.351831	0.398411	-0.004704
1410	7.0450e-01	5.9070	3.330132	0.000201	2.009747	0.340460	-0.004020
1411	7.0500e-01	5.8960	3.300626	0.000295	2.950479	0.499825	-0.005901
1412	7.0550e-01	5.8858	3.274113	0.000265	2.651155	0.449118	-0.005303
1413	7.0600e-01	5.8792	3.264705	0.000094	0.940733	0.159364	-0.001882
1414	7.0650e-01	5.8667	3.246745	0.000180	1.795944	0.304241	-0.003592
1415	7.0700e-01	5.8575	3.242896	0.000038	0.384845	0.065195	-0.000770
1416	7.0750e-01	5.8453	3.207831	0.000351	3.506367	0.593995	-0.007013
1417	7.0800e-01	5.8356	3.185167	0.000227	2.266310	0.383923	-0.004533
1418	7.0850e-01	5.8261	3.167207	0.000180	1.795944	0.304241	-0.003592
1419	7.0900e-01	5.8148	3.153950	0.000133	1.325578	0.224559	-0.002651
1420	7.0950e-01	5.8069	3.122734	0.000312	3.121522	0.528800	-0.006243
1421	7.1000e-01	5.7959	3.116747	0.000060	0.598648	0.101414	-0.001197
1422	7.1050e-01	5.7861	3.084675	0.000321	3.207043	0.543288	-0.006414
1423	7.1100e-01	5.7767	3.069280	0.000154	1.539381	0.260778	-0.003079
1424	7.1150e-01	5.7635	3.043623	0.000257	2.565634	0.434630	-0.005132
1425	7.1200e-01	5.7544	3.028656	0.000150	1.496620	0.253534	-0.002993
1426	7.1250e-01	5.7468	3.016683	0.000120	1.197296	0.202827	-0.002395
1427	7.1300e-01	5.7367	2.988032	0.000286	2.864958	0.485337	-0.005730
1428	7.1350e-01	5.7242	2.967078	0.000210	2.095268	0.354948	-0.004191
1429	7.1400e-01	5.7175	2.932868	0.000342	3.420846	0.579507	-0.006842
1430	7.1450e-01	5.7080	2.929447	0.000034	0.342085	0.057951	-0.000684
1431	7.1500e-01	5.6964	2.899513	0.000299	2.993240	0.507069	-0.005987
1432	7.1550e-01	5.6866	2.882408	0.000171	1.710423	0.289753	-0.003421
1433	7.1600e-01	5.6772	2.882408	-0.000000	-0.000000	-0.000000	0.000000
1434	7.1650e-01	5.6647	2.867869	0.000145	1.453859	0.246290	-0.002908
1435	7.1700e-01	5.6549	2.828100	0.000398	3.976733	0.673677	-0.007954
1436	7.1750e-01	5.6458	2.807574	0.000205	2.052507	0.347704	-0.004105
1437	7.1800e-01	5.6390	2.787475	0.000201	2.009747	0.340460	-0.004020
1438	7.1850e-01	5.6226	2.782344	0.000051	0.513127	0.086926	-0.001026
1439	7.1900e-01	5.6158	2.751127	0.000312	3.121522	0.528800	-0.006243
1440	7.1950e-01	5.6073	2.726325	0.000248	2.480113	0.420143	-0.004960
1441	7.2000e-01	5.5954	2.706227	0.000201	2.009747	0.340460	-0.004020
1442	7.2050e-01	5.5853	2.694253	0.000120	1.197296	0.202827	-0.002395
1443	7.2100e-01	5.5769	2.660898	0.000334	3.335324	0.565019	-0.006671
1444	7.2150e-01	5.5667	2.640800	0.000201	2.009747	0.340460	-0.004020
1445	7.2200e-01	5.5566	2.618136	0.000227	2.266310	0.383923	-0.004533
1446	7.2250e-01	5.5452	2.594189	0.000239	2.394592	0.405655	-0.004789
1447	7.2300e-01	5.5359	2.581360	0.000128	1.282817	0.217315	-0.002566
1448	7.2350e-01	5.5269	2.569814	0.000115	1.154535	0.195584	-0.002309
1449	7.2400e-01	5.5157	2.553564	0.000162	1.624902	0.275266	-0.003250
1450	7.2450e-01	5.5066	2.523631	0.000299	2.993240	0.507069	-0.005987
1451	7.2500e-01	5.4971	2.506098	0.000175	1.753183	0.296997	-0.003507
1452	7.2550e-01	5.4872	2.485144	0.000210	2.095268	0.354948	-0.004191
1453	7.2600e-01	5.4782	2.447086	0.000381	3.805691	0.644701	-0.007612
1454	7.2650e-01	5.4663	2.443237	0.000038	0.384845	0.065195	-0.000770
1455	7.2700e-01	5.4547	2.425277	0.000180	1.795944	0.304241	-0.003592
1456	7.2750e-01	5.4431	2.401330	0.000239	2.394592	0.405655	-0.004789
1457	7.2800e-01	5.4358	2.385080	0.000162	1.624902	0.275266	-0.003250
1458	7.2850e-01	5.4288	2.346594	0.000385	3.848451	0.651945	-0.007697
1459	7.2900e-01	5.4138	2.331627	0.000150	1.496620	0.253534	-0.002993
1460	7.2950e-01	5.4059	2.322647	0.000090	0.897972	0.152121	-0.001796
1461	7.3000e-01	5.3943	2.303831	0.000188	1.881465	0.318729	-0.003763
1462	7.3050e-01	5.3857	2.279457	0.000244	2.437352	0.412899	-0.004875
1463	7.3100e-01	5.3760	2.259358	0.000201	2.009747	0.340460	-0.004020
1464	7.3150e-01	5.3662	2.244819	0.000145	1.453859	0.246290	-0.002908
1465	7.3200e-01	5.3552	2.232418	0.000124	1.240057	0.210071	-0.002480
1466	7.3250e-01	5.3467	2.199918	0.000325	3.249803	0.550532	-0.006500
1467	7.3300e-01	5.3357	2.183241	0.000167	1.667662	0.282510	-0.003335
1468	7.3350e-01	5.3279	2.158439	0.000248	2.480113	0.420143	-0.004960
1469	7.3400e-01	5.3189	2.126794	0.000316	3.164282	0.536044	-0.006329
1470	7.3450e-01	5.3064	2.124229	0.000026	0.256563	0.043463	-0.000513
1471	7.3500e-01	5.2979	2.083604	0.000406	4.062254	0.688164	-0.008125
1472	7.3550e-01	5.2878	2.084032	-0.000004	-0.042761	-0.007244	0.000086
1473	7.3600e-01	5.2774	2.049394	0.000346	3.463606	0.586751	-0.006928
1474	7.3650e-01	5.2664	2.037421	0.000120	1.197296	0.202827	-0.002395
1475	7.3700e-01	5.2576	2.021171	0.000162	1.624902	0.275266	-0.003250
1476	7.3750e-01	5.2457	1.991665	0.000295	2.950479	0.499825	-0.005901
1477	7.3800e-01	5.2359	1.978408	0.000133	1.325578	0.224559	-0.002651
1478	7.3850e-01	5.2264	1.961731	0.000167	1.667662	0.282510	-0.003335
1479	7.3900e-01	5.2168	1.923672	0.000381	3.805691	0.644701	-0.007612
1480	7.3950e-01	5.2048	1.916830	0.000068	0.684169	0.115901	-0.001368
1481	7.4000e-01	5.1993	1.897587	0.000192	1.924226	0.325973	-0.003849
1482	7.4050e-01	5.1862	1.864660	0.000329	3.292564	0.557775	-0.006585
1483	7.4100e-01	5.1767	1.856535	0.000081	0.812451	0.137633	-0.001625
1484	7.4150e-01	5.1651	1.829167	0.000274	2.736676	0.463606	-0.005474
1485	7.4200e-01	5.1567	1.809069	0.000201	2.009747	0.340460	-0.004020
1486	7.4250e-01	5.1480	1.780418	0.000286	2.864958	0.485337	-0.005730
1487	7.4300e-01	5.1373	1.757326	0.000231	2.309071	0.391167	-0.004618
1488	7.4350e-01	5.1241	1.756043	0.000013	0.128282	0.021732	-0.000257
1489	7.4400e-01	5.1167	1.715419	0.000406	4.062254	0.688164	-0.008125
1490	7.4450e-01	5.1044	1.704728	0.000107	1.069014	0.181096	-0.002138
1491	7.4500e-01	5.0964	1.680354	0.000244	2.437352	0.412899	-0.004875
1492	7.4550e-01	5.0861	1.661110	0.000192	1.924226	0.325973	-0.003849
1493	7.4600e-01	5.0754	1.649992	0.000111	1.111775	0.188340	-0.002224
1494	7.4650e-01	5.0662	1.615354	0.000346	3.463606	0.586751	-0.006928
1495	7.4700e-01	5.0549	1.607657	0.000077	0.769690	0.130389	-0.001539
1496	7.4750e-01	5.0479	1.591835	0.000158	1.582141	0.268022	-0.003164
1497	7.4800e-01	5.0366	1.577296	0.000145	1.453859	0.246290	-0.002908
1498	7.4850e-01	5.0287	1.544369	0.000329	3.292564	0.557775	-0.006585
1499	7.4900e-01	5.0185	1.525126	0.000192	1.924226	0.325973	-0.003849
1500	7.4950e-01	5.0057	1.499468	0.000257	2.565634	0.434630	-0.005132
1501	7.5000e-01	4.9965	1.491343	0.000081	0.812451	0.137633	-0.001625
1502	7.5050e-01	4.9857	1.460127	0.000312	3.121522	0.528800	-0.006243
1503	7.5100e-01	4.9786	1.445587	0.000145	1.453859	0.246290	-0.002908
1504	7.5150e-01	4.9649	1.418647	0.000269	2.693916	0.456362	-0.005388
1505	7.5200e-01	4.9594	1.388713	0.000299	2.993240	0.507069	-0.005987
1506	7.5250e-01	4.9481	1.381016	0.000077	0.769690	0.130389	-0.001539
1507	7.5300e-01	4.9359	1.361773	0.000192	1.924226	0.325973	-0.003849
1508	7.5350e-01	4.9246	1.328418	0.000334	3.335324	0.565019	-0.006671
1509	7.5400e-01	4.9146	1.316444	0.000120	1.197296	0.202827	-0.002395
1510	7.5450e-01	4.9049	1.290359	0.000261	2.608395	0.441874	-0.005217
1511	7.5500e-01	4.8956	1.269833	0.000205	2.052507	0.347704	-0.004105
1512	7.5550e-01	4.8854	1.257004	0.000128	1.282817	0.217315	-0.002566
1513	7.5600e-01	4.8759	1.235196	0.000218	2.180789	0.369436	-0.004362
1514	7.5650e-01	4.8665	1.217235	0.000180	1.795944	0.304241	-0.003592
1515	7.5700e-01	4.8547	1.194571	0.000227	2.266310	0.383923	-0.004533
1516	7.5750e-01	4.8474	1.160361	0.000342	3.420846	0.579507	-0.006842
1517	7.5800e-01	4.8340	1.144539	0.000158	1.582141	0.268022	-0.003164
1518	7.5850e-01	4.8293	1.117599	0.000269	2.693916	0.456362	-0.005388
1519	7.5900e-01	4.8169	1.109046	0.000086	0.855211	0.144877	-0.001711
1520	7.5950e-01	4.8053	1.081678	0.000274	2.736676	0.463606	-0.005474
1521	7.6000e-01	4.7974	1.062007	0.000197	1.966986	0.333216	-0.003934
1522	7.6050e-01	4.7852	1.045330	0.000167	1.667662	0.282510	-0.003335
1523	7.6100e-01	4.7749	1.030791	0.000145	1.453859	0.246290	-0.002908
1524	7.6150e-01	4.7687	1.011120	0.000197	1.966986	0.333216	-0.003934
1525	7.6200e-01	4.7540	0.982469	0.000286	2.864958	0.485337	-0.005730
1526	7.6250e-01	4.7472	0.964081	0.000184	1.838705	0.311485	-0.003678
1527	7.6300e-01	4.7356	0.932437	0.000316	3.164282	0.536044	-0.006329
1528	7.6350e-01	4.7275	0.916187	0.000162	1.624902	0.275266	-0.003250
1529	7.6400e-01	4.7183	0.883688	0.000325	3.249803	0.550532	-0.006500
1530	7.6450e-01	4.7076	0.867438	0.000162	1.624902	0.275266	-0.003250
1531	7.6500e-01	4.6954	0.855037	0.000124	1.240057	0.210071	-0.002480
1532	7.6550e-01	4.6857	0.835794	0.000192	1.924226	0.325973	-0.003849
1533	7.6600e-01	4.6759	0.812702	0.000231	2.309071	0.391167	-0.004618
1534	7.6650e-01	4.6649	0.784051	0.000286	2.864958	0.485337	-0.005730
1535	7.6700e-01	4.6556	0.769939	0.000141	1.411099	0.239047	-0.002822
1536	7.6750e-01	4.6437	0.745565	0.000244	2.437352	0.412899	-0.004875
1537	7.6800e-01	4.6356	0.726322	0.000192	1.924226	0.325973	-0.003849
1538	7.6850e-01	4.6278	0.710499	0.000158	1.582141	0.268022	-0.003164
1539	7.6900e-01	4.6155	0.677145	0.000334	3.335324	0.565019	-0.006671
1540	7.6950e-01	4.6039	0.658329	0.000188	1.881465	0.318729	-0.003763
1541	7.7000e-01	4.5969	0.639086	0.000192	1.924226	0.325973	-0.003849
1542	7.7050e-01	4.5866	0.618560	0.000205	2.052507	0.347704	-0.004105
1543	7.7100e-01	4.5758	0.604021	0.000145	1.453859	0.246290	-0.002908
1544	7.7150e-01	4.5673	0.577508	0.000265	2.651155	0.449118	-0.005303
1545	7.7200e-01	4.5557	0.557410	0.000201	2.009747	0.340460	-0.004020
1546	7.7250e-01	4.5483	0.538166	0.000192	1.924226	0.325973	-0.003849
1547	7.7300e-01	4.5366	0.505239	0.000329	3.292564	0.557775	-0.006585
1548	7.7350e-01	4.5258	0.495832	0.000094	0.940733	0.159364	-0.001882
1549	7.7400e-01	4.5148	0.471029	0.000248	2.480113	0.420143	-0.004960
1550	7.7450e-01	4.5071	0.465042	0.000060	0.598648	0.101414	-0.001197
1551	7.7500e-01	4.4971	0.424418	0.000406	4.062254	0.688164	-0.008125
1552	7.7550e-01	4.4849	0.417576	0.000068	0.684169	0.115901	-0.001368
1553	7.7600e-01	4.4769	0.389353	0.000282	2.822198	0.478093	-0.005645
1554	7.7650e-01	4.4643	0.361985	0.000274	2.736676	0.463606	-0.005474
1555	7.7700e-01	4.4534	0.346590	0.000154	1.539381	0.260778	-0.003079
1556	7.7750e-01	4.4452	0.317939	0.000286	2.864958	0.485337	-0.005730
1557	7.7800e-01	4.4382	0.321360	-0.000034	-0.342085	-0.057951	0.000684
1558	7.7850e-01	4.4269	0.270901	0.000505	5.045747	0.854773	-0.010092
1559	7.7900e-01	4.4174	0.261493	0.000094	0.940733	0.159364	-0.001882
1560	7.7950e-01	4.4055	0.258927	0.000026	0.256563	0.043463	-0.000513
1561	7.8000e-01	4.3948	0.215309	0.000436	4.361578	0.738871	-0.008724
1562	7.8050e-01	4.3839	0.196494	0.000188	1.881465	0.318729	-0.003763
1563	7.8100e-01	4.3739	0.203763	-0.000073	-0.726930	-0.123145	0.001454
1564	7.8150e-01	4.3647	0.160573	0.000432	4.318818	0.731628	-0.008638
1565	7.8200e-01	4.3565	0.129357	0.000312	3.121522	0.528800	-0.006243
1566	7.8250e-01	4.3451	0.112252	0.000171	1.710423	0.289753	-0.003421
1567	7.8300e-01	4.3362	0.092581	0.000197	1.966986	0.333216	-0.003934
1568	7.8350e-01	4.3250	0.083173	0.000094	0.940733	0.159364	-0.001882
1569	7.8400e-01	4.3167	0.039128	0.000440	4.404339	0.746115	-0.008809
1570	7.8450e-01	4.3060	0.033996	0.000051	0.513127	0.086926	-0.001026
1571	7.8500e-01	4.2984	0.014753	0.000192	1.924226	0.325973	-0.003849
1572	7.8550e-01	4.2856	-0.009622	0.000244	2.437352	0.412899	-0.004875
1573	7.8600e-01	4.2750	-0.037417	0.000278	2.779437	0.470849	-0.005559
1574	7.8650e-01	4.2665	-0.055377	0.000180	1.795944	0.304241	-0.003592
1575	7.8700e-01	4.2579	-0.078469	0.000231	2.309071	0.391167	-0.004618
1576	7.8750e-01	4.2438	-0.110969	0.000325	3.249803	0.550532	-0.006500
1577	7.8800e-01	4.2342	-0.116528	0.000056	0.555887	0.094170	-0.001112
1578	7.8850e-01	4.2276	-0.125508	0.000090	0.897972	0.152121	-0.001796
1579	7.8900e-01	4.2175	-0.172974	0.000475	4.746423	0.804066	-0.009493
1580	7.8950e-01	4.2059	-0.179816	0.000068	0.684169	0.115901	-0.001368
1581	7.9000e-01	4.1931	-0.214882	0.000351	3.506367	0.593995	-0.007013
1582	7.9050e-01	4.1859	-0.223862	0.000090	0.897972	0.152121	-0.001796
1583	7.9100e-01	4.1766	-0.239256	0.000154	1.539381	0.260778	-0.003079
1584	7.9150e-01	4.1647	-0.273894	0.000346	3.463606	0.586751	-0.006928
1585	7.9200e-01	4.1562	-0.296986	0.000231	2.309071	0.391167	-0.004618
1586	7.9250e-01	4.1451	-0.316657	0.000197	1.966986	0.333216	-0.003934
1587	7.9300e-01	4.1359	-0.328202	0.000115	1.154535	0.195584	-0.002309
1588	7.9350e-01	4.1248	-0.350439	0.000222	2.223550	0.376680	-0.004447
1589	7.9400e-01	4.1150	-0.376952	0.000265	2.651155	0.449118	-0.005303
1590	7.9450e-01	4.1080	-0.412445	0.000355	3.549127	0.601238	-0.007099
1591	7.9500e-01	4.0948	-0.423563	0.000111	1.111775	0.188340	-0.002224
1592	7.9550e-01	4.0858	-0.445372	0.000218	2.180789	0.369436	-0.004362
1593	7.9600e-01	4.0738	-0.450931	0.000056	0.555887	0.094170	-0.001112
1594	7.9650e-01	4.0656	-0.485996	0.000351	3.506367	0.593995	-0.007013
1595	7.9700e-01	4.0558	-0.503529	0.000175	1.753183	0.296997	-0.003507
1596	7.9750e-01	4.0482	-0.529186	0.000257	2.565634	0.434630	-0.005132
1597	7.9800e-01	4.0369	-0.562113	0.000329	3.292564	0.557775	-0.006585
1598	7.9850e-01	4.0268	-0.569383	0.000073	0.726930	0.123145	-0.001454
1599	7.9900e-01	4.0161	-0.592047	0.000227	2.266310	0.383923	-0.004533
1600	7.9950e-01	4.0058	-0.621126	0.000291	2.907719	0.492581	-0.005816
1601	8.0000e-01	3.9966	-0.623691	0.000026	0.256563	0.043463	-0.000513
1602	8.0050e-01	3.9841	-0.659184	0.000355	3.549127	0.601238	-0.007099
1603	8.0100e-01	3.9737	-0.693822	0.000346	3.463606	0.586751	-0.006928
1604	8.0150e-01	3.9667	-0.701092	0.000073	0.726930	0.123145	-0.001454
1605	8.0200e-01	3.9563	-0.731453	0.000304	3.036000	0.514312	-0.006072
1606	8.0250e-01	3.9485	-0.760104	0.000286	2.864958	0.485337	-0.005730
1607	8.0300e-01	3.9355	-0.771222	0.000111	1.111775	0.188340	-0.002224
1608	8.0350e-01	3.9270	-0.794314	0.000231	2.309071	0.391167	-0.004618
1609	8.0400e-01	3.9154	-0.805432	0.000111	1.111775	0.188340	-0.002224
1610	8.0450e-01	3.9053	-0.837504	0.000321	3.207043	0.543288	-0.006414
1611	8.0500e-01	3.8928	-0.859313	0.000218	2.180789	0.369436	-0.004362
1612	8.0550e-01	3.8843	-0.886681	0.000274	2.736676	0.463606	-0.005474
1613	8.0600e-01	3.8748	-0.910200	0.000235	2.351831	0.398411	-0.004704
1614	8.0650e-01	3.8654	-0.919181	0.000090	0.897972	0.152121	-0.001796
1615	8.0700e-01	3.8541	-0.942700	0.000235	2.351831	0.398411	-0.004704
1616	8.0750e-01	3.8446	-0.956812	0.000141	1.411099	0.239047	-0.002822
1617	8.0800e-01	3.8358	-0.993160	0.000363	3.634648	0.615726	-0.007270
1618	8.0850e-01	3.8300	-1.019672	0.000265	2.651155	0.449118	-0.005303
1619	8.0900e-01	3.8165	-1.036777	0.000171	1.710423	0.289753	-0.003421
1620	8.0950e-01	3.8077	-1.074409	0.000376	3.762930	0.637458	-0.007526
1621	8.1000e-01	3.7938	-1.071415	-0.000030	-0.299324	-0.050707	0.000599
1622	8.1050e-01	3.7855	-1.093224	0.000218	2.180789	0.369436	-0.004362
1623	8.1100e-01	3.7759	-1.108191	0.000150	1.496620	0.253534	-0.002993
1624	8.1150e-01	3.7666	-1.136414	0.000282	2.822198	0.478093	-0.005645
1625	8.1200e-01	3.7579	-1.169341	0.000329	3.292564	0.557775	-0.006585
1626	8.1250e-01	3.7465	-1.186019	0.000167	1.667662	0.282510	-0.003335
1627	8.1300e-01	3.7360	-1.214242	0.000282	2.822198	0.478093	-0.005645
1628	8.1350e-01	3.7252	-1.222794	0.000086	0.855211	0.144877	-0.001711
1629	8.1400e-01	3.7160	-1.237761	0.000150	1.496620	0.253534	-0.002993
1630	8.1450e-01	3.7064	-1.275820	0.000381	3.805691	0.644701	-0.007612
1631	8.1500e-01	3.6932	-1.283090	0.000073	0.726930	0.123145	-0.001454
1632	8.1550e-01	3.6878	-1.326280	0.000432	4.318818	0.731628	-0.008638
1633	8.1600e-01	3.6768	-1.334832	0.000086	0.855211	0.144877	-0.001711
1634	8.1650e-01	3.6649	-1.349372	0.000145	1.453859	0.246290	-0.002908
1635	8.1700e-01	3.6554	-1.380588	0.000312	3.121522	0.528800	-0.006243
1636	8.1750e-01	3.6453	-1.394700	0.000141	1.411099	0.239047	-0.002822
1637	8.1800e-01	3.6346	-1.428910	0.000342	3.420846	0.579507	-0.006842
1638	8.1850e-01	3.6292	-1.452002	0.000231	2.309071	0.391167	-0.004618
1639	8.1900e-01	3.6152	-1.479370	0.000274	2.736676	0.463606	-0.005474
1640	8.1950e-01	3.6066	-1.493054	0.000137	1.368338	0.231803	-0.002737
1641	8.2000e-01	3.5963	-1.521705	0.000286	2.864958	0.485337	-0.005730
1642	8.2050e-01	3.5876	-1.537099	0.000154	1.539381	0.260778	-0.003079
1643	8.2100e-01	3.5760	-1.558480	0.000214	2.138029	0.362192	-0.004276
1644	8.2150e-01	3.5666	-1.586276	0.000278	2.779437	0.470849	-0.005559
1645	8.2200e-01	3.5553	-1.601670	0.000154	1.539381	0.260778	-0.003079
1646	8.2250e-01	3.5452	-1.617065	0.000154	1.539381	0.260778	-0.003079
1647	8.2300e-01	3.5358	-1.646571	0.000295	2.950479	0.499825	-0.005901
1648	8.2350e-01	3.5275	-1.672229	0.000257	2.565634	0.434630	-0.005132
1649	8.2400e-01	3.5132	-1.696603	0.000244	2.437352	0.412899	-0.004875
1650	8.2450e-01	3.5037	-1.699169	0.000026	0.256563	0.043463	-0.000513
1651	8.2500e-01	3.4940	-1.717985	0.000188	1.881465	0.318729	-0.003763
1652	8.2550e-01	3.4839	-1.756471	0.000385	3.848451	0.651945	-0.007697
1653	8.2600e-01	3.4753	-1.768017	0.000115	1.154535	0.195584	-0.002309
1654	8.2650e-01	3.4650	-1.810779	0.000428	4.276057	0.724384	-0.008553
1655	8.2700e-01	3.4554	-1.823180	0.000124	1.240057	0.210071	-0.002480
1656	8.2750e-01	3.4451	-1.840713	0.000175	1.753183	0.296997	-0.003507
1657	8.2800e-01	3.4333	-1.871930	0.000312	3.121522	0.528800	-0.006243
1658	8.2850e-01	3.4241	-1.898015	0.000261	2.608395	0.441874	-0.005217
1659	8.2900e-01	3.4161	-1.909988	0.000120	1.197296	0.202827	-0.002395
1660	8.2950e-01	3.4058	-1.926666	0.000167	1.667662	0.282510	-0.003335
1661	8.3000e-01	3.3960	-1.945481	0.000188	1.881465	0.318729	-0.003763
1662	8.3050e-01	3.3875	-1.982257	0.000368	3.677409	0.622970	-0.007355
1663	8.3100e-01	3.3778	-1.996369	0.000141	1.411099	0.239047	-0.002822
1664	8.3150e-01	3.3649	-2.031434	0.000351	3.506367	0.593995	-0.007013
1665	8.3200e-01	3.3585	-2.040414	0.000090	0.897972	0.152121	-0.001796
1666	8.3250e-01	3.3469	-2.068210	0.000278	2.779437	0.470849	-0.005559
1667	8.3300e-01	3.3365	-2.094722	0.000265	2.651155	0.449118	-0.005303
1668	8.3350e-01	3.3292	-2.106268	0.000115	1.154535	0.195584	-0.002309
1669	8.3400e-01	3.3160	-2.144755	0.000385	3.848451	0.651945	-0.007697
1670	8.3450e-01	3.3044	-2.155873	0.000111	1.111775	0.188340	-0.002224
1671	8.3500e-01	3.2959	-2.176399	0.000205	2.052507	0.347704	-0.004105
1672	8.3550e-01	3.2867	-2.199918	0.000235	2.351831	0.398411	-0.004704
1673	8.3600e-01	3.2761	-2.226431	0.000265	2.651155	0.449118	-0.005303
1674	8.3650e-01	3.2629	-2.236694	0.000103	1.026254	0.173852	-0.002053
1675	8.3700e-01	3.2566	-2.263634	0.000269	2.693916	0.456362	-0.005388
1676	8.3750e-01	3.2455	-2.283733	0.000201	2.009747	0.340460	-0.004020
1677	8.3800e-01	3.2375	-2.299555	0.000158	1.582141	0.268022	-0.003164
1678	8.3850e-01	3.2274	-2.331627	0.000321	3.207043	0.543288	-0.006414
1679	8.3900e-01	3.2173	-2.361988	0.000304	3.036000	0.514312	-0.006072
1680	8.3950e-01	3.2056	-2.377383	0.000154	1.539381	0.260778	-0.003079
1681	8.4000e-01	3.1946	-2.404751	0.000274	2.736676	0.463606	-0.005474
1682	8.4050e-01	3.1848	-2.438961	0.000342	3.420846	0.579507	-0.006842
1683	8.4100e-01	3.1775	-2.438106	-0.000009	-0.085521	-0.014488	0.000171
1684	8.4150e-01	3.1638	-2.467184	0.000291	2.907719	0.492581	-0.005816
1685	8.4200e-01	3.1555	-2.494124	0.000269	2.693916	0.456362	-0.005388
1686	8.4250e-01	3.1473	-2.517644	0.000235	2.351831	0.398411	-0.004704
1687	8.4300e-01	3.1367	-2.543301	0.000257	2.565634	0.434630	-0.005132
1688	8.4350e-01	3.1262	-2.555275	0.000120	1.197296	0.202827	-0.002395
1689	8.4400e-01	3.1166	-2.576228	0.000210	2.095268	0.354948	-0.004191
1690	8.4450e-01	3.1061	-2.603169	0.000269	2.693916	0.456362	-0.005388
1691	8.4500e-01	3.0927	-2.626261	0.000231	2.309071	0.391167	-0.004618
1692	8.4550e-01	3.0876	-2.657905	0.000316	3.164282	0.536044	-0.006329
1693	8.4600e-01	3.0759	-2.668168	0.000103	1.026254	0.173852	-0.002053
1694	8.4650e-01	3.0640	-2.700240	0.000321	3.207043	0.543288	-0.006414
1695	8.4700e-01	3.0542	-2.727608	0.000274	2.736676	0.463606	-0.005474
1696	8.4750e-01	3.0451	-2.751982	0.000244	2.437352	0.412899	-0.004875
1697	8.4800e-01	3.0391	-2.766949	0.000150	1.496620	0.253534	-0.002993
1698	8.4850e-01	3.0256	-2.782771	0.000158	1.582141	0.268022	-0.003164
1699	8.4900e-01	3.0173	-2.808001	0.000252	2.522874	0.427386	-0.005046
1700	8.4950e-01	3.0087	-2.840929	0.000329	3.292564	0.557775	-0.006585
1701	8.5000e-01	2.9944	-2.855040	0.000141	1.411099	0.239047	-0.002822
1702	8.5050e-01	2.9858	-2.878132	0.000231	2.309071	0.391167	-0.004618
1703	8.5100e-01	2.9756	-2.896092	0.000180	1.795944	0.304241	-0.003592
1704	8.5150e-01	2.9637	-2.933296	0.000372	3.720170	0.630214	-0.007441
1705	8.5200e-01	2.9550	-2.962374	0.000291	2.907719	0.492581	-0.005816
1706	8.5250e-01	2.9471	-2.968788	0.000064	0.641409	0.108658	-0.001283
1707	8.5300e-01	2.9382	-3.001716	0.000329	3.292564	0.557775	-0.006585
1708	8.5350e-01	2.9236	-3.016683	0.000150	1.496620	0.253534	-0.002993
1709	8.5400e-01	2.9143	-3.033788	0.000171	1.710423	0.289753	-0.003421
1710	8.5450e-01	2.9060	-3.057735	0.000239	2.394592	0.405655	-0.004789
1711	8.5500e-01	2.8961	-3.085103	0.000274	2.736676	0.463606	-0.005474
1712	8.5550e-01	2.8843	-3.105201	0.000201	2.009747	0.340460	-0.004020
1713	8.5600e-01	2.8751	-3.123589	0.000184	1.838705	0.311485	-0.003678
1714	8.5650e-01	2.8633	-3.150102	0.000265	2.651155	0.449118	-0.005303
1715	8.5700e-01	2.8564	-3.176614	0.000265	2.651155	0.449118	-0.005303
1716	8.5750e-01	2.8474	-3.184739	0.000081	0.812451	0.137633	-0.001625
1717	8.5800e-01	2.8381	-3.223653	0.000389	3.891212	0.659189	-0.007783
1718	8.5850e-01	2.8259	-3.246317	0.000227	2.266310	0.383923	-0.004533
1719	8.5900e-01	2.8186	-3.268554	0.000222	2.223550	0.376680	-0.004447
1720	8.5950e-01	2.8065	-3.291646	0.000231	2.309071	0.391167	-0.004618
1721	8.6000e-01	2.7951	-3.307895	0.000162	1.624902	0.275266	-0.003250
1722	8.6050e-01	2.7872	-3.335691	0.000278	2.779437	0.470849	-0.005559
1723	8.6100e-01	2.7760	-3.353224	0.000175	1.753183	0.296997	-0.003507
1724	8.6150e-01	2.7655	-3.381447	0.000282	2.822198	0.478093	-0.005645
1725	8.6200e-01	2.7556	-3.398552	0.000171	1.710423	0.289753	-0.003421
1726	8.6250e-01	2.7460	-3.425920	0.000274	2.736676	0.463606	-0.005474
1727	8.6300e-01	2.7357	-3.439176	0.000133	1.325578	0.224559	-0.002651
1728	8.6350e-01	2.7252	-3.467400	0.000282	2.822198	0.478093	-0.005645
1729	8.6400e-01	2.7158	-3.492202	0.000248	2.480113	0.420143	-0.004960
1730	8.6450e-01	2.7054	-3.518715	0.000265	2.651155	0.449118	-0.005303
1731	8.6500e-01	2.6963	-3.525984	0.000073	0.726930	0.123145	-0.001454
1732	8.6550e-01	2.6837	-3.554207	0.000282	2.822198	0.478093	-0.005645
1733	8.6600e-01	2.6761	-3.578582	0.000244	2.437352	0.412899	-0.004875
1734	8.6650e-01	2.6648	-3.613220	0.000346	3.463606	0.586751	-0.006928
1735	8.6700e-01	2.6564	-3.636312	0.000231	2.309071	0.391167	-0.004618
1736	8.6750e-01	2.6466	-3.670094	0.000338	3.378085	0.572263	-0.006756
1737	8.6800e-01	2.6361	-3.691903	0.000218	2.180789	0.369436	-0.004362
1738	8.6850e-01	2.6251	-3.709863	0.000180	1.795944	0.304241	-0.003592
1739	8.6900e-01	2.6154	-3.723975	0.000141	1.411099	0.239047	-0.002822
1740	8.6950e-01	2.6044	-3.751770	0.000278	2.779437	0.470849	-0.005559
1741	8.7000e-01	2.5961	-3.783415	0.000316	3.164282	0.536044	-0.006329
1742	8.7050e-01	2.5831	-3.791967	0.000086	0.855211	0.144877	-0.001711
1743	8.7100e-01	2.5721	-3.816342	0.000244	2.437352	0.412899	-0.004875
1744	8.7150e-01	2.5635	-3.835585	0.000192	1.924226	0.325973	-0.003849
1745	8.7200e-01	2.5552	-3.860815	0.000252	2.522874	0.427386	-0.005046
1746	8.7250e-01	2.5464	-3.891176	0.000304	3.036000	0.514312	-0.006072
1747	8.7300e-01	2.5360	-3.918117	0.000269	2.693916	0.456362	-0.005388
1748	8.7350e-01	2.5266	-3.934366	0.000162	1.624902	0.275266	-0.003250
1749	8.7400e-01	2.5134	-3.939498	0.000051	0.513127	0.086926	-0.001026
1750	8.7450e-01	2.5037	-3.979695	0.000402	4.019494	0.680921	-0.008039
1751	8.7500e-01	2.4942	-3.990813	0.000111	1.111775	0.188340	-0.002224
1752	8.7550e-01	2.4842	-4.025451	0.000346	3.463606	0.586751	-0.006928
1753	8.7600e-01	2.4735	-4.044266	0.000188	1.881465	0.318729	-0.003763
1754	8.7650e-01	2.4658	-4.073345	0.000291	2.907719	0.492581	-0.005816
1755	8.7700e-01	2.4563	-4.088739	0.000154	1.539381	0.260778	-0.003079
1756	8.7750e-01	2.4469	-4.116107	0.000274	2.736676	0.463606	-0.005474
1757	8.7800e-01	2.4341	-4.150317	0.000342	3.420846	0.579507	-0.006842
1758	8.7850e-01	2.4259	-4.175547	0.000252	2.522874	0.427386	-0.005046
1759	8.7900e-01	2.4139	-4.185382	0.000098	0.983493	0.166608	-0.001967
1760	8.7950e-01	2.4059	-4.211468	0.000261	2.608395	0.441874	-0.005217
1761	8.8000e-01	2.3955	-4.225579	0.000141	1.411099	0.239047	-0.002822
1762	8.8050e-01	2.3862	-4.256796	0.000312	3.121522	0.528800	-0.006243
1763	8.8100e-01	2.3745	-4.270907	0.000141	1.411099	0.239047	-0.002822
1764	8.8150e-01	2.3672	-4.306828	0.000359	3.591888	0.608482	-0.007184
1765	8.8200e-01	2.3560	-4.329920	0.000231	2.309071	0.391167	-0.004618
1766	8.8250e-01	2.3482	-4.349163	0.000192	1.924226	0.325973	-0.003849
1767	8.8300e-01	2.3338	-4.364557	0.000154	1.539381	0.260778	-0.003079
1768	8.8350e-01	2.3264	-4.400050	0.000355	3.549127	0.601238	-0.007099
1769	8.8400e-01	2.3157	-4.423570	0.000235	2.351831	0.398411	-0.004704
1770	8.8450e-01	2.3057	-4.438109	0.000145	1.453859	0.246290	-0.002908
1771	8.8500e-01	2.2969	-4.471464	0.000334	3.335324	0.565019	-0.006671
1772	8.8550e-01	2.2868	-4.488141	0.000167	1.667662	0.282510	-0.003335
1773	8.8600e-01	2.2740	-4.521496	0.000334	3.335324	0.565019	-0.006671
1774	8.8650e-01	2.2653	-4.543305	0.000218	2.180789	0.369436	-0.004362
1775	8.8700e-01	2.2552	-4.557416	0.000141	1.411099	0.239047	-0.002822
1776	8.8750e-01	2.2471	-4.592482	0.000351	3.506367	0.593995	-0.007013
1777	8.8800e-01	2.2363	-4.614291	0.000218	2.180789	0.369436	-0.004362
1778	8.8850e-01	2.2244	-4.635672	0.000214	2.138029	0.362192	-0.004276
1779	8.8900e-01	2.2153	-4.651066	0.000154	1.539381	0.260778	-0.003079
1780	8.8950e-01	2.2050	-4.662185	0.000111	1.111775	0.188340	-0.002224
1781	8.9000e-01	2.1945	-4.702381	0.000402	4.019494	0.680921	-0.008039
1782	8.9050e-01	2.1858	-4.720342	0.000180	1.795944	0.304241	-0.003592
1783	8.9100e-01	2.1771	-4.756690	0.000363	3.634648	0.615726	-0.007270
1784	8.9150e-01	2.1677	-4.776361	0.000197	1.966986	0.333216	-0.003934
1785	8.9200e-01	2.1565	-4.798169	0.000218	2.180789	0.369436	-0.004362
1786	8.9250e-01	2.1454	-4.831524	0.000334	3.335324	0.565019	-0.006671
1787	8.9300e-01	2.1356	-4.830669	-0.000009	-0.085521	-0.014488	0.000171
1788	8.9350e-01	2.1246	-4.877280	0.000466	4.660902	0.789578	-0.009322
1789	8.9400e-01	2.1198	-4.900372	0.000231	2.309071	0.391167	-0.004618
1790	8.9450e-01	2.1066	-4.917049	0.000167	1.667662	0.282510	-0.003335
1791	8.9500e-01	2.0969	-4.942707	0.000257	2.565634	0.434630	-0.005132
1792	8.9550e-01	2.0833	-4.950832	0.000081	0.812451	0.137633	-0.001625
1793	8.9600e-01	2.0766	-4.989318	0.000385	3.848451	0.651945	-0.007697
1794	8.9650e-01	2.0671	-5.002574	0.000133	1.325578	0.224559	-0.002651
1795	8.9700e-01	2.0557	-5.036357	0.000338	3.378085	0.572263	-0.006756
1796	8.9750e-01	2.0450	-5.061159	0.000248	2.480113	0.420143	-0.004960
1797	8.9800e-01	2.0358	-5.084678	0.000235	2.351831	0.398411	-0.004704
1798	8.9850e-01	2.0259	-5.095369	0.000107	1.069014	0.181096	-0.002138
1799	8.9900e-01	2.0145	-5.140697	0.000453	4.532620	0.767847	-0.009066
1800	8.9950e-01	2.0058	-5.159513	0.000188	1.881465	0.318729	-0.003763
1801	9.0000e-01	1.9937	-5.170203	0.000107	1.069014	0.181096	-0.002138
1802	9.0050e-01	1.9858	-5.196716	0.000265	2.651155	0.449118	-0.005303
1803	9.0100e-01	1.9749	-5.226650	0.000299	2.993240	0.507069	-0.005987
1804	9.0150e-01	1.9660	-5.245465	0.000188	1.881465	0.318729	-0.003763
1805	9.0200e-01	1.9550	-5.268130	0.000227	2.266310	0.383923	-0.004533
1806	9.0250e-01	1.9452	-5.300201	0.000321	3.207043	0.543288	-0.006414
1807	9.0300e-01	1.9368	-5.309182	0.000090	0.897972	0.152121	-0.001796
1808	9.0350e-01	1.9231	-5.348523	0.000393	3.933972	0.666433	-0.007868
1809	9.0400e-01	1.9171	-5.369477	0.000210	2.095268	0.354948	-0.004191
1810	9.0450e-01	1.9070	-5.392996	0.000235	2.351831	0.398411	-0.004704
1811	9.0500e-01	1.8967	-5.405825	0.000128	1.282817	0.217315	-0.002566
1812	9.0550e-01	1.8873	-5.438752	0.000329	3.292564	0.557775	-0.006585
1813	9.0600e-01	1.8743	-5.462699	0.000239	2.394592	0.405655	-0.004789
1814	9.0650e-01	1.8649	-5.485791	0.000231	2.309071	0.391167	-0.004618
1815	9.0700e-01	1.8567	-5.513586	0.000278	2.779437	0.470849	-0.005559
1816	9.0750e-01	1.8481	-5.538816	0.000252	2.522874	0.427386	-0.005046
1817	9.0800e-01	1.8365	-5.564046	0.000252	2.522874	0.427386	-0.005046
1818	9.0850e-01	1.8279	-5.577303	0.000133	1.325578	0.224559	-0.002651
1819	9.0900e-01	1.8143	-5.602105	0.000248	2.480113	0.420143	-0.004960
1820	9.0950e-01	1.8049	-5.638025	0.000359	3.591888	0.608482	-0.007184
1821	9.1000e-01	1.7947	-5.649571	0.000115	1.154535	0.195584	-0.002309
1822	9.1050e-01	1.7848	-5.678222	0.000286	2.864958	0.485337	-0.005730
1823	9.1100e-01	1.7761	-5.664966	-0.000133	-1.325578	-0.224559	0.002651
1824	9.1150e-01	1.7632	-5.718847	0.000539	5.387832	0.912723	-0.010776
1825	9.1200e-01	1.7554	-5.749208	0.000304	3.036000	0.514312	-0.006072
1826	9.1250e-01	1.7450	-5.762037	0.000128	1.282817	0.217315	-0.002566
1827	9.1300e-01	1.7380	-5.795819	0.000338	3.378085	0.572263	-0.006756
1828	9.1350e-01	1.7262	-5.817628	0.000218	2.180789	0.369436	-0.004362
1829	9.1400e-01	1.7170	-5.837299	0.000197	1.966986	0.333216	-0.003934
1830	9.1450e-01	1.7059	-5.869371	0.000321	3.207043	0.543288	-0.006414
1831	9.1500e-01	1.6956	-5.893745	0.000244	2.437352	0.412899	-0.004875
1832	9.1550e-01	1.6843	-5.921969	0.000282	2.822198	0.478093	-0.005645
1833	9.1600e-01	1.6726	-5.935653	0.000137	1.368338	0.231803	-0.002737
1834	9.1650e-01	1.6633	-5.959600	0.000239	2.394592	0.405655	-0.004789
1835	9.1700e-01	1.6565	-5.992954	0.000334	3.335324	0.565019	-0.006671
1836	9.1750e-01	1.6443	-6.013480	0.000205	2.052507	0.347704	-0.004105
1837	9.1800e-01	1.6371	-6.027592	0.000141	1.411099	0.239047	-0.002822
1838	9.1850e-01	1.6267	-6.066934	0.000393	3.933972	0.666433	-0.007868
1839	9.1900e-01	1.6145	-6.083611	0.000167	1.667662	0.282510	-0.003335
1840	9.1950e-01	1.6058	-6.114400	0.000308	3.078761	0.521556	-0.006158
1841	9.2000e-01	1.5967	-6.128084	0.000137	1.368338	0.231803	-0.002737
1842	9.2050e-01	1.5845	-6.158873	0.000308	3.078761	0.521556	-0.006158
1843	9.2100e-01	1.5749	-6.171274	0.000124	1.240057	0.210071	-0.002480
1844	9.2150e-01	1.5622	-6.189234	0.000180	1.795944	0.304241	-0.003592
1845	9.2200e-01	1.5541	-6.215747	0.000265	2.651155	0.449118	-0.005303
1846	9.2250e-01	1.5446	-6.244398	0.000286	2.864958	0.485337	-0.005730
1847	9.2300e-01	1.5355	-6.284595	0.000402	4.019494	0.680921	-0.008039
1848	9.2350e-01	1.5243	-6.292720	0.000081	0.812451	0.137633	-0.001625
1849	9.2400e-01	1.5147	-6.326502	0.000338	3.378085	0.572263	-0.006756
1850	9.2450e-01	1.5057	-6.360285	0.000338	3.378085	0.572263	-0.006756
1851	9.2500e-01	1.4958	-6.377390	0.000171	1.710423	0.289753	-0.003421
1852	9.2550e-01	1.4845	-6.405185	0.000278	2.779437	0.470849	-0.005559
1853	9.2600e-01	1.4752	-6.414593	0.000094	0.940733	0.159364	-0.001882
1854	9.2650e-01	1.4639	-6.443244	0.000286	2.864958	0.485337	-0.005730
1855	9.2700e-01	1.4547	-6.473605	0.000304	3.036000	0.514312	-0.006072
1856	9.2750e-01	1.4435	-6.477026	0.000034	0.342085	0.057951	-0.000684
1857	9.2800e-01	1.4352	-6.526203	0.000492	4.917466	0.833041	-0.009835
1858	9.2850e-01	1.4231	-6.543308	0.000171	1.710423	0.289753	-0.003421
1859	9.2900e-01	1.4140	-6.566828	0.000235	2.351831	0.398411	-0.004704
1860	9.2950e-01	1.4005	-6.592913	0.000261	2.608395	0.441874	-0.005217
1861	9.3000e-01	1.3957	-6.617287	0.000244	2.437352	0.412899	-0.004875
1862	9.3050e-01	1.3854	-6.634392	0.000171	1.710423	0.289753	-0.003421
1863	9.3100e-01	1.3732	-6.664326	0.000299	2.993240	0.507069	-0.005987
1864	9.3150e-01	1.3673	-6.681859	0.000175	1.753183	0.296997	-0.003507
1865	9.3200e-01	1.3544	-6.712220	0.000304	3.036000	0.514312	-0.006072
1866	9.3250e-01	1.3459	-6.733174	0.000210	2.095268	0.354948	-0.004191
1867	9.3300e-01	1.3361	-6.767811	0.000346	3.463606	0.586751	-0.006928
1868	9.3350e-01	1.3263	-6.778074	0.000103	1.026254	0.173852	-0.002053
1869	9.3400e-01	1.3140	-6.814423	0.000363	3.634648	0.615726	-0.007270
1870	9.3450e-01	1.3049	-6.835376	0.000210	2.095268	0.354948	-0.004191
1871	9.3500e-01	1.2937	-6.864882	0.000295	2.950479	0.499825	-0.005901
1872	9.3550e-01	1.2851	-6.883270	0.000184	1.838705	0.311485	-0.003678
1873	9.3600e-01	1.2729	-6.907217	0.000239	2.394592	0.405655	-0.004789
1874	9.3650e-01	1.2653	-6.932875	0.000257	2.565634	0.434630	-0.005132
1875	9.3700e-01	1.2528	-6.943565	0.000107	1.069014	0.181096	-0.002138
1876	9.3750e-01	1.2456	-6.978203	0.000346	3.463606	0.586751	-0.006928
1877	9.3800e-01	1.2376	-7.003005	0.000248	2.480113	0.420143	-0.004960
1878	9.3850e-01	1.2238	-7.018400	0.000154	1.539381	0.260778	-0.003079
1879	9.3900e-01	1.2164	-7.059452	0.000411	4.105015	0.695408	-0.008210
1880	9.3950e-01	1.2066	-7.068004	0.000086	0.855211	0.144877	-0.001711
1881	9.4000e-01	1.1971	-7.093234	0.000252	2.522874	0.427386	-0.005046
1882	9.4050e-01	1.1865	-7.128727	0.000355	3.549127	0.601238	-0.007099
1883	9.4100e-01	1.1748	-7.149681	0.000210	2.095268	0.354948	-0.004191
1884	9.4150e-01	1.1660	-7.180470	0.000308	3.078761	0.521556	-0.006158
1885	9.4200e-01	1.1543	-7.194154	0.000137	1.368338	0.231803	-0.002737
1886	9.4250e-01	1.1440	-7.216818	0.000227	2.266310	0.383923	-0.004533
1887	9.4300e-01	1.1362	-7.238627	0.000218	2.180789	0.369436	-0.004362
1888	9.4350e-01	1.1253	-7.272837	0.000342	3.420846	0.579507	-0.006842
1889	9.4400e-01	1.1173	-7.299777	0.000269	2.693916	0.456362	-0.005388
1890	9.4450e-01	1.1066	-7.326290	0.000265	2.651155	0.449118	-0.005303
1891	9.4500e-01	1.0952	-7.356651	0.000304	3.036000	0.514312	-0.006072
1892	9.4550e-01	1.0855	-7.375039	0.000184	1.838705	0.311485	-0.003678
1893	9.4600e-01	1.0754	-7.392572	0.000175	1.753183	0.296997	-0.003507
1894	9.4650e-01	1.0663	-7.426354	0.000338	3.378085	0.572263	-0.006756
1895	9.4700e-01	1.0548	-7.433196	0.000068	0.684169	0.115901	-0.001368
1896	9.4750e-01	1.0468	-7.469544	0.000363	3.634648	0.615726	-0.007270
1897	9.4800e-01	1.0351	-7.489215	0.000197	1.966986	0.333216	-0.003934
1898	9.4850e-01	1.0255	-7.524708	0.000355	3.549127	0.601238	-0.007099
1899	9.4900e-01	1.0155	-7.548655	0.000239	2.394592	0.405655	-0.004789
1900	9.4950e-01	1.0056	-7.582865	0.000342	3.420846	0.579507	-0.006842
1901	9.5000e-01	0.9961	-7.603391	0.000205	2.052507	0.347704	-0.004105
1902	9.5050e-01	0.9834	-7.608950	0.000056	0.555887	0.094170	-0.001112
1903	9.5100e-01	0.9743	-7.656844	0.000479	4.789184	0.811310	-0.009579
1904	9.5150e-01	0.9653	-7.658982	0.000021	0.213803	0.036219	-0.000428
1905	9.5200e-01	0.9525	-7.685923	0.000269	2.693916	0.456362	-0.005388
1906	9.5250e-01	0.9457	-7.711580	0.000257	2.565634	0.434630	-0.005132
1907	9.5300e-01	0.9322	-7.721843	0.000103	1.026254	0.173852	-0.002053
1908	9.5350e-01	0.9235	-7.763751	0.000419	4.190536	0.709896	-0.008381
1909	9.5400e-01	0.9151	-7.792402	0.000286	2.864958	0.485337	-0.005730
1910	9.5450e-01	0.9049	-7.824473	0.000321	3.207043	0.543288	-0.006414
1911	9.5500e-01	0.8956	-7.846282	0.000218	2.180789	0.369436	-0.004362
1912	9.5550e-01	0.8867	-7.861249	0.000150	1.496620	0.253534	-0.002993
1913	9.5600e-01	0.8768	-7.906578	0.000453	4.532620	0.767847	-0.009066
1914	9.5650e-01	0.8688	-7.936084	0.000295	2.950479	0.499825	-0.005901
1915	9.5700e-01	0.8566	-7.937794	0.000017	0.171042	0.028975	-0.000342
1916	9.5750e-01	0.8460	-7.965590	0.000278	2.779437	0.470849	-0.005559
1917	9.5800e-01	0.8380	-7.985688	0.000201	2.009747	0.340460	-0.004020
1918	9.5850e-01	0.8264	-8.015194	0.000295	2.950479	0.499825	-0.005901
1919	9.5900e-01	0.8149	-8.037858	0.000227	2.266310	0.383923	-0.004533
1920	9.5950e-01	0.8054	-8.077200	0.000393	3.933972	0.666433	-0.007868
1921	9.6000e-01	0.7951	-8.090456	0.000133	1.325578	0.224559	-0.002651
1922	9.6050e-01	0.7896	-8.111838	0.000214	2.138029	0.362192	-0.004276
1923	9.6100e-01	0.7764	-8.151607	0.000398	3.976733	0.673677	-0.007954
1924	9.6150e-01	0.7649	-8.170850	0.000192	1.924226	0.325973	-0.003849
1925	9.6200e-01	0.7545	-8.196080	0.000252	2.522874	0.427386	-0.005046
1926	9.6250e-01	0.7452	-8.223448	0.000274	2.736676	0.463606	-0.005474
1927	9.6300e-01	0.7343	-8.237559	0.000141	1.411099	0.239047	-0.002822
1928	9.6350e-01	0.7255	-8.270914	0.000334	3.335324	0.565019	-0.006671
1929	9.6400e-01	0.7155	-8.297855	0.000269	2.693916	0.456362	-0.005388
1930	9.6450e-01	0.7070	-8.308545	0.000107	1.069014	0.181096	-0.002138
1931	9.6500e-01	0.6921	-8.340617	0.000321	3.207043	0.543288	-0.006414
1932	9.6550e-01	0.6858	-8.370123	0.000295	2.950479	0.499825	-0.005901
1933	9.6600e-01	0.6763	-8.386373	0.000162	1.624902	0.275266	-0.003250
1934	9.6650e-01	0.6671	-8.400485	0.000141	1.411099	0.239047	-0.002822
1935	9.6700e-01	0.6565	-8.452227	0.000517	5.174029	0.876504	-0.010349
1936	9.6750e-01	0.6463	-8.482589	0.000304	3.036000	0.514312	-0.006072
1937	9.6800e-01	0.6358	-8.491141	0.000086	0.855211	0.144877	-0.001711
1938	9.6850e-01	0.6260	-8.513378	0.000222	2.223550	0.376680	-0.004447
1939	9.6900e-01	0.6142	-8.546733	0.000334	3.335324	0.565019	-0.006671
1940	9.6950e-01	0.6074	-8.567259	0.000205	2.052507	0.347704	-0.004105
1941	9.7000e-01	0.5956	-8.598048	0.000308	3.078761	0.521556	-0.006158
1942	9.7050e-01	0.5856	-8.616435	0.000184	1.838705	0.311485	-0.003678
1943	9.7100e-01	0.5753	-8.638672	0.000222	2.223550	0.376680	-0.004447
1944	9.7150e-01	0.5658	-8.666468	0.000278	2.779437	0.470849	-0.005559
1945	9.7200e-01	0.5550	-8.691270	0.000248	2.480113	0.420143	-0.004960
1946	9.7250e-01	0.5441	-8.716072	0.000248	2.480113	0.420143	-0.004960
1947	9.7300e-01	0.5379	-8.752420	0.000363	3.634648	0.615726	-0.007270
1948	9.7350e-01	0.5249	-8.766960	0.000145	1.453859	0.246290	-0.002908
1949	9.7400e-01	0.5167	-8.808867	0.000419	4.190536	0.709896	-0.008381
1950	9.7450e-01	0.5063	-8.821268	0.000124	1.240057	0.210071	-0.002480
1951	9.7500e-01	0.4960	-8.842222	0.000210	2.095268	0.354948	-0.004191
1952	9.7550e-01	0.4848	-8.870445	0.000282	2.822198	0.478093	-0.005645
1953	9.7600e-01	0.4747	-8.902517	0.000321	3.207043	0.543288	-0.006414
1954	9.7650e-01	0.4685	-8.932451	0.000299	2.993240	0.507069	-0.005987
1955	9.7700e-01	0.4553	-8.956825	0.000244	2.437352	0.412899	-0.004875
1956	9.7750e-01	0.4446	-8.971792	0.000150	1.496620	0.253534	-0.002993
1957	9.7800e-01	0.4351	-8.999588	0.000278	2.779437	0.470849	-0.005559
1958	9.7850e-01	0.4267	-9.022252	0.000227	2.266310	0.383923	-0.004533
1959	9.7900e-01	0.4170	-9.032515	0.000103	1.026254	0.173852	-0.002053
1960	9.7950e-01	0.4076	-9.074850	0.000423	4.233296	0.717140	-0.008467
1961	9.8000e-01	0.3951	-9.098369	0.000235	2.351831	0.398411	-0.004704
1962	9.8050e-01	0.3855	-9.124454	0.000261	2.608395	0.441874	-0.005217
1963	9.8100e-01	0.3741	-9.144980	0.000205	2.052507	0.347704	-0.004105
1964	9.8150e-01	0.3642	-9.171065	0.000261	2.608395	0.441874	-0.005217
1965	9.8200e-01	0.3558	-9.198861	0.000278	2.779437	0.470849	-0.005559
1966	9.8250e-01	0.3438	-9.239485	0.000406	4.062254	0.688164	-0.008125
1967	9.8300e-01	0.3351	-9.251459	0.000120	1.197296	0.202827	-0.002395
1968	9.8350e-01	0.3246	-9.276261	0.000248	2.480113	0.420143	-0.004960
1969	9.8400e-01	0.3165	-9.303629	0.000274	2.736676	0.463606	-0.005474
1970	9.8450e-01	0.3060	-9.327576	0.000239	2.394592	0.405655	-0.004789
1971	9.8500e-01	0.2951	-9.355372	0.000278	2.779437	0.470849	-0.005559
1972	9.8550e-01	0.2861	-9.375043	0.000197	1.966986	0.333216	-0.003934
1973	9.8600e-01	0.2752	-9.404976	0.000299	2.993240	0.507069	-0.005987
1974	9.8650e-01	0.2666	-9.420799	0.000158	1.582141	0.268022	-0.003164
1975	9.8700e-01	0.2554	-9.456292	0.000355	3.549127	0.601238	-0.007099
1976	9.8750e-01	0.2447	-9.472114	0.000158	1.582141	0.268022	-0.003164
1977	9.8800e-01	0.2341	-9.503758	0.000316	3.164282	0.536044	-0.006329
1978	9.8850e-01	0.2253	-9.534975	0.000312	3.121522	0.528800	-0.006243
1979	9.8900e-01	0.2145	-9.548231	0.000133	1.325578	0.224559	-0.002651
1980	9.8950e-01	0.2061	-9.574316	0.000261	2.608395	0.441874	-0.005217
1981	9.9000e-01	0.1952	-9.604677	0.000304	3.036000	0.514312	-0.006072
1982	9.9050e-01	0.1853	-9.637177	0.000325	3.249803	0.550532	-0.006500
1983	9.9100e-01	0.1745	-9.661124	0.000239	2.394592	0.405655	-0.004789
1984	9.9150e-01	0.1641	-9.683788	0.000227	2.266310	0.383923	-0.004533
1985	9.9200e-01	0.1534	-9.708590	0.000248	2.480113	0.420143	-0.004960
1986	9.9250e-01	0.1451	-9.732965	0.000244	2.437352	0.412899	-0.004875
1987	9.9300e-01	0.1346	-9.769313	0.000363	3.634648	0.615726	-0.007270
1988	9.9350e-01	0.1233	-9.797536	0.000282	2.822198	0.478093	-0.005645
1989	9.9400e-01	0.1139	-9.802240	0.000047	0.470366	0.079682	-0.000941
1990	9.9450e-01	0.1050	-9.821056	0.000188	1.881465	0.318729	-0.003763
1991	9.9500e-01	0.0946	-9.867239	0.000462	4.618142	0.782334	-0.009237
1992	9.9550e-01	0.0848	-9.883489	0.000162	1.624902	0.275266	-0.003250
1993	9.9600e-01	0.0753	-9.905726	0.000222	2.223550	0.376680	-0.004447
1994	9.9650e-01	0.0646	-9.924969	0.000192	1.924226	0.325973	-0.003849
1995	9.9700e-01	0.0558	-9.960462	0.000355	3.549127	0.601238	-0.007099
1996	9.9750e-01	0.0454	-9.980560	0.000201	2.009747	0.340460	-0.004020
1997	9.9800e-01	0.0347	-10.010494	0.000299	2.993240	0.507069	-0.005987
1998	9.9850e-01	0.0249	-10.044704	0.000342	3.420846	0.579507	-0.006842
1999	9.9900e-01	0.0150	-10.074638	0.000299	2.993240	0.507069	-0.005987
2000	9.9950e-01	0.0040	-10.094736	0.000201	2.009747	0.340460	-0.004020
2001	1.0000e+00	-0.0047	-10.125525	0.000201	2.009747	0.340460	-0.006158

PMax (uC/cm2):	2.14e+01
Pr (uC/cm2):	5.61e-01
-Pr (uC/cm2):	0.00e+00
PLoss (uC/cm2):	0.00e+00
C (Max-Eff) (nF):	2.14e-01
K (Eff):	3.62e+02
Vert. (+/-Pr) Shift (uC/cm2):	2.81e-01
Offset (uC/cm2):	1.07e+01

A (Loop Area - uC/cm2·Volts):	-3.20e-03



Hysteresis Version: 5.48.1 - Radiant Technologies, Inc., 1999 - 9/12/24

