»»»»»»»»»»»»»»»»»»»»»»»»»»»»»»»»»»»» Hysteresis ««««««««««««««««««««««««««««««««««««
»»»  Executed Version:	5.48.1
»»»  Vision Version:	5.48.4 (R)
»»»  Vision Compiled:	9/18/24
»»»  Driver Version:	5.47.0
»»»  Windows Version:	Windows 8 or 8.1
»»»  Processor Information:	x86 (AMD or Intel) - 32 Processors
»»»  Tester Name:	PMF21124-494 (100V)
»»»  Tester S/N:	PMF21124-494
»»»  Internal Amp Type:	100V RevK 270k
»»»  Internal Amp S/N:	iAB2-596/K     
»»»  Execution Count:	1
»»»»»»»»»»»»»»»»»»»»»»»»»»»»»»»»»»»»»»»»»»««««««««««««««««««««««««««««««««««««««««««

Stored:	6/26/2025 - 17:11:24
Configured:	06/26/25 10:24:47 AM
Executed:	06/26/25 05:10:46 PM

»»»»»»»»»»»»»»»»»»»»»»»»»»»»»»»»»»» Sample Info ««««««««««««««««««««««««««««««««««««
Sample Name:	
Lot Name:	
Wafer Name:	
Die Row/Column:	0/0
Capacitor Number:	0
Sample Area (cm2):	1.00e-04
Sample Thickness (microns):	1.50e-01

Amplifier:	Internal

»»»»»»»»»»»»»»»»»»»»»»»»»»»»»»»»»»» Tester Info «««««««««««««««««««««««««««««««««««
Tester Name:	PMF21124-494 (100V)
Tester Serial Number:	PMF21124-494
Return Signal Amp. Level:	1.79 [Index: 2]

»»»»»»»»»»»»»»»»»»»»»»»»»»»»»»»» Hysteresis Info ««««««««««««««««««««««««««««««««««
Task Name:	Hyst-562
Volts:	10.00
Field:	666.67 (kV/cm)
DCBias:	0.00
DCField:	0.00 (kV/cm)
Hysteresis Period (ms):	1.00e+00
Preset:	Enabled
Preset Delay (ms):	1.00e+03
Profile:	Standard Monopolar

»»»»»»»»»»»»»»»»»»»»»»»»»»»»»»»»»»»»»» Data «««««««««««««««««««««««««««««««««««««««
Points:	2001

Valid Data

Point	Time (ms)	Drive Voltage	Measured Polarization (uC/cm2)	Capacitance (uF)	Normalized Capacitance (uF/cm2)	Dielectric Constant	Instantaneous Current (mA)
   1	0.0000e+00	-0.0027	-10.041924	0.000394	3.935729	0.666731	0.007868
   2	5.0000e-04	0.0076	-10.002583	0.000394	3.935729	0.666731	0.007868
   3	1.0000e-03	0.0148	-9.961958	0.000406	4.064068	0.688472	0.008125
   4	1.5000e-03	0.0293	-9.938867	0.000231	2.310102	0.391342	0.004618
   5	2.0000e-03	0.0346	-9.919196	0.000197	1.967864	0.333365	0.003934
   6	2.5000e-03	0.0462	-9.893538	0.000257	2.566780	0.434824	0.005132
   7	3.0000e-03	0.0589	-9.873012	0.000205	2.053424	0.347859	0.004105
   8	3.5000e-03	0.0646	-9.843079	0.000299	2.994576	0.507295	0.005987
   9	4.0000e-03	0.0771	-9.825118	0.000180	1.796746	0.304377	0.003592
  10	4.5000e-03	0.0871	-9.817849	0.000073	0.727254	0.123200	0.001454
  11	5.0000e-03	0.0960	-9.788770	0.000291	2.909017	0.492801	0.005816
  12	5.5000e-03	0.1045	-9.777224	0.000116	1.155051	0.195671	0.002309
  13	6.0000e-03	0.1138	-9.737455	0.000398	3.978509	0.673978	0.007954
  14	6.5000e-03	0.1260	-9.708377	0.000291	2.909017	0.492801	0.005816
  15	7.0000e-03	0.1356	-9.706238	0.000021	0.213898	0.036235	0.000428
  16	7.5000e-03	0.1438	-9.667752	0.000385	3.850170	0.652236	0.007697
  17	8.0000e-03	0.1555	-9.630976	0.000368	3.679051	0.623248	0.007355
  18	8.5000e-03	0.1659	-9.613871	0.000171	1.711187	0.289883	0.003421
  19	9.0000e-03	0.1752	-9.589497	0.000244	2.438441	0.413083	0.004875
  20	9.5000e-03	0.1878	-9.571537	0.000180	1.796746	0.304377	0.003592
  21	1.0000e-02	0.1959	-9.553576	0.000180	1.796746	0.304377	0.003592
  22	1.0500e-02	0.2083	-9.522360	0.000312	3.122915	0.529036	0.006243
  23	1.1000e-02	0.2160	-9.501834	0.000205	2.053424	0.347859	0.004105
  24	1.1500e-02	0.2241	-9.468051	0.000338	3.379593	0.572519	0.006756
  25	1.2000e-02	0.2357	-9.442394	0.000257	2.566780	0.434824	0.005132
  26	1.2500e-02	0.2457	-9.429137	0.000133	1.326170	0.224659	0.002651
  27	1.3000e-02	0.2558	-9.415026	0.000141	1.411729	0.239153	0.002822
  28	1.3500e-02	0.2652	-9.372263	0.000428	4.277966	0.724707	0.008553
  29	1.4000e-02	0.2791	-9.358579	0.000137	1.368949	0.231906	0.002737
  30	1.4500e-02	0.2848	-9.316672	0.000419	4.192407	0.710213	0.008381
  31	1.5000e-02	0.2976	-9.324369	-0.000077	-0.770034	-0.130447	-0.001539
  32	1.5500e-02	0.3062	-9.300422	0.000240	2.395661	0.405836	0.004789
  33	1.6000e-02	0.3141	-9.267067	0.000334	3.336814	0.565272	0.006671
  34	1.6500e-02	0.3263	-9.252100	0.000150	1.497288	0.253647	0.002993
  35	1.7000e-02	0.3349	-9.207200	0.000449	4.491865	0.760942	0.008980
  36	1.7500e-02	0.3498	-9.195226	0.000120	1.197831	0.202918	0.002395
  37	1.8000e-02	0.3574	-9.174700	0.000205	2.053424	0.347859	0.004105
  38	1.8500e-02	0.3669	-9.141773	0.000329	3.294034	0.558024	0.006585
  39	1.9000e-02	0.3766	-9.122102	0.000197	1.967864	0.333365	0.003934
  40	1.9500e-02	0.3825	-9.113550	0.000086	0.855593	0.144941	0.001711
  41	2.0000e-02	0.3957	-9.084044	0.000295	2.951797	0.500048	0.005901
  42	2.0500e-02	0.4047	-9.072498	0.000116	1.155051	0.195671	0.002309
  43	2.1000e-02	0.4147	-9.043847	0.000287	2.866237	0.485554	0.005730
  44	2.1500e-02	0.4250	-9.014341	0.000295	2.951797	0.500048	0.005901
  45	2.2000e-02	0.4384	-8.991249	0.000231	2.310102	0.391342	0.004618
  46	2.2500e-02	0.4456	-8.976282	0.000150	1.497288	0.253647	0.002993
  47	2.3000e-02	0.4542	-8.923684	0.000526	5.261898	0.891390	0.010520
  48	2.3500e-02	0.4660	-8.924112	-0.000004	-0.042780	-0.007247	-0.000086
  49	2.4000e-02	0.4764	-8.889047	0.000351	3.507932	0.594260	0.007013
  50	2.4500e-02	0.4871	-8.862106	0.000270	2.695119	0.456565	0.005388
  51	2.5000e-02	0.4957	-8.855264	0.000068	0.684475	0.115953	0.001368
  52	2.5500e-02	0.5063	-8.833455	0.000218	2.181763	0.369601	0.004362
  53	2.6000e-02	0.5180	-8.812502	0.000210	2.096203	0.355106	0.004191
  54	2.6500e-02	0.5274	-8.787272	0.000252	2.524000	0.427577	0.005046
  55	2.7000e-02	0.5333	-8.756483	0.000308	3.080136	0.521789	0.006158
  56	2.7500e-02	0.5455	-8.741943	0.000145	1.454509	0.246400	0.002908
  57	2.8000e-02	0.5555	-8.700891	0.000411	4.106848	0.695719	0.008210
  58	2.8500e-02	0.5663	-8.688918	0.000120	1.197831	0.202918	0.002395
  59	2.9000e-02	0.5753	-8.663688	0.000252	2.524000	0.427577	0.005046
  60	2.9500e-02	0.5862	-8.641452	0.000222	2.224542	0.376848	0.004447
  61	3.0000e-02	0.5939	-8.631189	0.000103	1.026712	0.173930	0.002053
  62	3.0500e-02	0.6055	-8.589709	0.000415	4.149627	0.702966	0.008296
  63	3.1000e-02	0.6152	-8.583722	0.000060	0.598915	0.101459	0.001197
  64	3.1500e-02	0.6242	-8.542242	0.000415	4.149627	0.702966	0.008296
  65	3.2000e-02	0.6367	-8.541387	0.000009	0.085559	0.014494	0.000171
  66	3.2500e-02	0.6459	-8.511881	0.000295	2.951797	0.500048	0.005901
  67	3.3000e-02	0.6545	-8.469546	0.000424	4.235187	0.717460	0.008467
  68	3.3500e-02	0.6638	-8.466125	0.000034	0.342237	0.057977	0.000684
  69	3.4000e-02	0.6775	-8.433198	0.000329	3.294034	0.558024	0.006585
  70	3.4500e-02	0.6873	-8.412672	0.000205	2.053424	0.347859	0.004105
  71	3.5000e-02	0.6976	-8.390008	0.000227	2.267322	0.384095	0.004533
  72	3.5500e-02	0.7058	-8.351522	0.000385	3.850170	0.652236	0.007697
  73	3.6000e-02	0.7167	-8.351094	0.000004	0.042780	0.007247	0.000086
  74	3.6500e-02	0.7250	-8.313035	0.000381	3.807390	0.644989	0.007612
  75	3.7000e-02	0.7368	-8.293365	0.000197	1.967864	0.333365	0.003934
  76	3.7500e-02	0.7500	-8.281819	0.000116	1.155051	0.195671	0.002309
  77	3.8000e-02	0.7556	-8.250602	0.000312	3.122915	0.529036	0.006243
  78	3.8500e-02	0.7657	-8.224517	0.000261	2.609559	0.442071	0.005217
  79	3.9000e-02	0.7752	-8.183037	0.000415	4.149627	0.702966	0.008296
  80	3.9500e-02	0.7867	-8.197577	-0.000145	-1.454509	-0.246400	-0.002908
  81	4.0000e-02	0.7960	-8.147972	0.000496	4.962441	0.840660	0.009921
  82	4.0500e-02	0.8051	-8.142840	0.000051	0.513356	0.086965	0.001026
  83	4.1000e-02	0.8152	-8.117183	0.000257	2.566780	0.434824	0.005132
  84	4.1500e-02	0.8281	-8.090243	0.000270	2.695119	0.456565	0.005388
  85	4.2000e-02	0.8340	-8.051756	0.000385	3.850170	0.652236	0.007697
  86	4.2500e-02	0.8475	-8.043204	0.000086	0.855593	0.144941	0.001711
  87	4.3000e-02	0.8543	-8.014981	0.000282	2.823458	0.478307	0.005645
  88	4.3500e-02	0.8685	-7.997448	0.000175	1.753966	0.297130	0.003507
  89	4.4000e-02	0.8751	-7.987613	0.000098	0.983932	0.166683	0.001967
  90	4.4500e-02	0.8862	-7.947416	0.000402	4.021288	0.681225	0.008039
  91	4.5000e-02	0.8974	-7.924752	0.000227	2.267322	0.384095	0.004533
  92	4.5500e-02	0.9050	-7.910212	0.000145	1.454509	0.246400	0.002908
  93	4.6000e-02	0.9159	-7.879851	0.000304	3.037356	0.514542	0.006072
  94	4.6500e-02	0.9248	-7.849062	0.000308	3.080136	0.521789	0.006158
  95	4.7000e-02	0.9346	-7.844358	0.000047	0.470576	0.079718	0.000941
  96	4.7500e-02	0.9474	-7.831529	0.000128	1.283390	0.217412	0.002566
  97	4.8000e-02	0.9574	-7.797319	0.000342	3.422373	0.579766	0.006842
  98	4.8500e-02	0.9654	-7.765675	0.000317	3.165695	0.536283	0.006329
  99	4.9000e-02	0.9749	-7.733603	0.000321	3.208475	0.543530	0.006414
 100	4.9500e-02	0.9853	-7.728044	0.000056	0.556136	0.094212	0.001112
 101	5.0000e-02	0.9947	-7.691268	0.000368	3.679051	0.623248	0.007355
 102	5.0500e-02	1.0049	-7.682288	0.000090	0.898373	0.152188	0.001796
 103	5.1000e-02	1.0106	-7.640381	0.000419	4.192407	0.710213	0.008381
 104	5.1500e-02	1.0261	-7.615579	0.000248	2.481220	0.420330	0.004960
 105	5.2000e-02	1.0369	-7.617717	-0.000021	-0.213898	-0.036235	-0.000428
 106	5.2500e-02	1.0471	-7.565546	0.000522	5.219119	0.884143	0.010434
 107	5.3000e-02	1.0553	-7.550152	0.000154	1.540068	0.260895	0.003079
 108	5.3500e-02	1.0692	-7.551435	-0.000013	-0.128339	-0.021741	-0.000257
 109	5.4000e-02	1.0797	-7.510810	0.000406	4.064068	0.688472	0.008125
 110	5.4500e-02	1.0866	-7.495416	0.000154	1.540068	0.260895	0.003079
 111	5.5000e-02	1.0943	-7.468475	0.000270	2.695119	0.456565	0.005388
 112	5.5500e-02	1.1071	-7.462489	0.000060	0.598915	0.101459	0.001197
 113	5.6000e-02	1.1163	-7.424430	0.000381	3.807390	0.644989	0.007612
 114	5.6500e-02	1.1269	-7.404759	0.000197	1.967864	0.333365	0.003934
 115	5.7000e-02	1.1347	-7.368839	0.000359	3.593492	0.608754	0.007184
 116	5.7500e-02	1.1451	-7.358148	0.000107	1.069492	0.181177	0.002138
 117	5.8000e-02	1.1552	-7.322655	0.000355	3.550712	0.601507	0.007099
 118	5.8500e-02	1.1681	-7.307261	0.000154	1.540068	0.260895	0.003079
 119	5.9000e-02	1.1773	-7.298708	0.000086	0.855593	0.144941	0.001711
 120	5.9500e-02	1.1868	-7.271768	0.000270	2.695119	0.456565	0.005388
 121	6.0000e-02	1.1961	-7.252097	0.000197	1.967864	0.333365	0.003934
 122	6.0500e-02	1.2073	-7.226012	0.000261	2.609559	0.442071	0.005217
 123	6.1000e-02	1.2169	-7.193512	0.000325	3.251254	0.550777	0.006500
 124	6.1500e-02	1.2269	-7.175552	0.000180	1.796746	0.304377	0.003592
 125	6.2000e-02	1.2345	-7.153743	0.000218	2.181763	0.369601	0.004362
 126	6.2500e-02	1.2466	-7.127230	0.000265	2.652339	0.449318	0.005303
 127	6.3000e-02	1.2550	-7.105849	0.000214	2.138983	0.362354	0.004276
 128	6.3500e-02	1.2637	-7.107132	-0.000013	-0.128339	-0.021741	-0.000257
 129	6.4000e-02	1.2730	-7.066080	0.000411	4.106848	0.695719	0.008210
 130	6.4500e-02	1.2859	-7.056672	0.000094	0.941153	0.159436	0.001882
 131	6.5000e-02	1.2958	-7.019041	0.000376	3.764610	0.637742	0.007526
 132	6.5500e-02	1.3037	-7.013910	0.000051	0.513356	0.086965	0.001026
 133	6.6000e-02	1.3142	-6.981410	0.000325	3.251254	0.550777	0.006500
 134	6.6500e-02	1.3251	-6.957463	0.000240	2.395661	0.405836	0.004789
 135	6.7000e-02	1.3348	-6.930523	0.000270	2.695119	0.456565	0.005388
 136	6.7500e-02	1.3448	-6.895885	0.000347	3.465153	0.587013	0.006928
 137	6.8000e-02	1.3580	-6.874504	0.000214	2.138983	0.362354	0.004276
 138	6.8500e-02	1.3658	-6.874932	-0.000004	-0.042780	-0.007247	-0.000086
 139	6.9000e-02	1.3751	-6.838583	0.000364	3.636271	0.616001	0.007270
 140	6.9500e-02	1.3876	-6.811215	0.000274	2.737898	0.463813	0.005474
 141	7.0000e-02	1.3955	-6.803946	0.000073	0.727254	0.123200	0.001454
 142	7.0500e-02	1.4069	-6.778716	0.000252	2.524000	0.427577	0.005046
 143	7.1000e-02	1.4156	-6.746644	0.000321	3.208475	0.543530	0.006414
 144	7.1500e-02	1.4275	-6.732532	0.000141	1.411729	0.239153	0.002822
 145	7.2000e-02	1.4338	-6.694474	0.000381	3.807390	0.644989	0.007612
 146	7.2500e-02	1.4465	-6.686349	0.000081	0.812814	0.137694	0.001625
 147	7.3000e-02	1.4545	-6.655987	0.000304	3.037356	0.514542	0.006072
 148	7.3500e-02	1.4635	-6.654277	0.000017	0.171119	0.028988	0.000342
 149	7.4000e-02	1.4752	-6.621777	0.000325	3.251254	0.550777	0.006500
 150	7.4500e-02	1.4853	-6.576877	0.000449	4.491865	0.760942	0.008980
 151	7.5000e-02	1.4982	-6.581153	-0.000043	-0.427797	-0.072471	-0.000855
 152	7.5500e-02	1.5067	-6.532831	0.000483	4.834102	0.818919	0.009664
 153	7.6000e-02	1.5172	-6.524706	0.000081	0.812814	0.137694	0.001625
 154	7.6500e-02	1.5266	-6.511450	0.000133	1.326170	0.224659	0.002651
 155	7.7000e-02	1.5345	-6.484510	0.000270	2.695119	0.456565	0.005388
 156	7.7500e-02	1.5465	-6.469115	0.000154	1.540068	0.260895	0.003079
 157	7.8000e-02	1.5556	-6.433195	0.000359	3.593492	0.608754	0.007184
 158	7.8500e-02	1.5656	-6.424642	0.000086	0.855593	0.144941	0.001711
 159	7.9000e-02	1.5772	-6.388294	0.000364	3.636271	0.616001	0.007270
 160	7.9500e-02	1.5858	-6.373327	0.000150	1.497288	0.253647	0.002993
 161	8.0000e-02	1.5949	-6.339117	0.000342	3.422373	0.579766	0.006842
 162	8.0500e-02	1.6079	-6.318591	0.000205	2.053424	0.347859	0.004105
 163	8.1000e-02	1.6145	-6.304479	0.000141	1.411729	0.239153	0.002822
 164	8.1500e-02	1.6287	-6.277539	0.000270	2.695119	0.456565	0.005388
 165	8.2000e-02	1.6346	-6.255303	0.000222	2.224542	0.376848	0.004447
 166	8.2500e-02	1.6416	-6.230500	0.000248	2.481220	0.420330	0.004960
 167	8.3000e-02	1.6574	-6.203987	0.000265	2.652339	0.449318	0.005303
 168	8.3500e-02	1.6667	-6.197145	0.000068	0.684475	0.115953	0.001368
 169	8.4000e-02	1.6737	-6.162935	0.000342	3.422373	0.579766	0.006842
 170	8.4500e-02	1.6847	-6.139416	0.000235	2.352881	0.398589	0.004704
 171	8.5000e-02	1.6946	-6.142409	-0.000030	-0.299458	-0.050729	-0.000599
 172	8.5500e-02	1.7065	-6.106061	0.000364	3.636271	0.616001	0.007270
 173	8.6000e-02	1.7157	-6.077410	0.000287	2.866237	0.485554	0.005730
 174	8.6500e-02	1.7276	-6.051753	0.000257	2.566780	0.434824	0.005132
 175	8.7000e-02	1.7377	-6.046194	0.000056	0.556136	0.094212	0.001112
 176	8.7500e-02	1.7457	-6.010701	0.000355	3.550712	0.601507	0.007099
 177	8.8000e-02	1.7549	-5.982050	0.000287	2.866237	0.485554	0.005730
 178	8.8500e-02	1.7629	-5.954254	0.000278	2.780678	0.471060	0.005559
 179	8.9000e-02	1.7737	-5.944419	0.000098	0.983932	0.166683	0.001967
 180	8.9500e-02	1.7865	-5.923893	0.000205	2.053424	0.347859	0.004105
 181	9.0000e-02	1.7953	-5.897380	0.000265	2.652339	0.449318	0.005303
 182	9.0500e-02	1.8060	-5.880275	0.000171	1.711187	0.289883	0.003421
 183	9.1000e-02	1.8164	-5.851197	0.000291	2.909017	0.492801	0.005816
 184	9.1500e-02	1.8262	-5.831953	0.000193	1.925085	0.326118	0.003849
 185	9.2000e-02	1.8378	-5.822118	0.000098	0.983932	0.166683	0.001967
 186	9.2500e-02	1.8460	-5.797316	0.000248	2.481220	0.420330	0.004960
 187	9.3000e-02	1.8555	-5.780638	0.000167	1.668407	0.282636	0.003335
 188	9.3500e-02	1.8637	-5.744718	0.000359	3.593492	0.608754	0.007184
 189	9.4000e-02	1.8755	-5.725047	0.000197	1.967864	0.333365	0.003934
 190	9.4500e-02	1.8874	-5.715212	0.000098	0.983932	0.166683	0.001967
 191	9.5000e-02	1.8979	-5.686133	0.000291	2.909017	0.492801	0.005816
 192	9.5500e-02	1.9070	-5.658338	0.000278	2.780678	0.471060	0.005559
 193	9.6000e-02	1.9167	-5.650640	0.000077	0.770034	0.130447	0.001539
 194	9.6500e-02	1.9278	-5.610016	0.000406	4.064068	0.688472	0.008125
 195	9.7000e-02	1.9351	-5.587352	0.000227	2.267322	0.384095	0.004533
 196	9.7500e-02	1.9476	-5.567681	0.000197	1.967864	0.333365	0.003934
 197	9.8000e-02	1.9564	-5.555708	0.000120	1.197831	0.202918	0.002395
 198	9.8500e-02	1.9656	-5.526201	0.000295	2.951797	0.500048	0.005901
 199	9.9000e-02	1.9789	-5.494557	0.000317	3.165695	0.536283	0.006329
 200	9.9500e-02	1.9839	-5.472748	0.000218	2.181763	0.369601	0.004362
 201	1.0000e-01	1.9965	-5.441959	0.000308	3.080136	0.521789	0.006158
 202	1.0050e-01	2.0062	-5.453078	-0.000111	-1.112271	-0.188424	-0.002224
 203	1.0100e-01	2.0172	-5.411598	0.000415	4.149627	0.702966	0.008296
 204	1.0150e-01	2.0262	-5.412453	-0.000009	-0.085559	-0.014494	-0.000171
 205	1.0200e-01	2.0337	-5.368835	0.000436	4.363526	0.739201	0.008724
 206	1.0250e-01	2.0471	-5.357717	0.000111	1.112271	0.188424	0.002224
 207	1.0300e-01	2.0567	-5.322652	0.000351	3.507932	0.594260	0.007013
 208	1.0350e-01	2.0660	-5.324790	-0.000021	-0.213898	-0.036235	-0.000428
 209	1.0400e-01	2.0779	-5.302981	0.000218	2.181763	0.369601	0.004362
 210	1.0450e-01	2.0883	-5.279462	0.000235	2.352881	0.398589	0.004704
 211	1.0500e-01	2.0935	-5.242258	0.000372	3.721831	0.630495	0.007441
 212	1.0550e-01	2.1074	-5.196930	0.000453	4.534644	0.768190	0.009066
 213	1.0600e-01	2.1133	-5.208476	-0.000116	-1.155051	-0.195671	-0.002309
 214	1.0650e-01	2.1280	-5.186667	0.000218	2.181763	0.369601	0.004362
 215	1.0700e-01	2.1364	-5.166569	0.000201	2.010644	0.340612	0.004020
 216	1.0750e-01	2.1451	-5.135780	0.000308	3.080136	0.521789	0.006158
 217	1.0800e-01	2.1573	-5.114398	0.000214	2.138983	0.362354	0.004276
 218	1.0850e-01	2.1644	-5.090024	0.000244	2.438441	0.413083	0.004875
 219	1.0900e-01	2.1762	-5.066932	0.000231	2.310102	0.391342	0.004618
 220	1.0950e-01	2.1835	-5.030584	0.000364	3.636271	0.616001	0.007270
 221	1.1000e-01	2.1954	-5.011768	0.000188	1.882305	0.318871	0.003763
 222	1.1050e-01	2.2055	-5.016472	-0.000047	-0.470576	-0.079718	-0.000941
 223	1.1100e-01	2.2157	-4.969433	0.000471	4.705763	0.797178	0.009408
 224	1.1150e-01	2.2275	-4.957032	0.000124	1.240610	0.210165	0.002480
 225	1.1200e-01	2.2379	-4.936934	0.000201	2.010644	0.340612	0.004020
 226	1.1250e-01	2.2443	-4.920256	0.000167	1.668407	0.282636	0.003335
 227	1.1300e-01	2.2561	-4.904862	0.000154	1.540068	0.260895	0.003079
 228	1.1350e-01	2.2667	-4.873218	0.000317	3.165695	0.536283	0.006329
 229	1.1400e-01	2.2804	-4.833448	0.000398	3.978509	0.673978	0.007954
 230	1.1450e-01	2.2858	-4.833021	0.000004	0.042780	0.007247	0.000086
 231	1.1500e-01	2.2942	-4.794962	0.000381	3.807390	0.644989	0.007612
 232	1.1550e-01	2.3056	-4.788548	0.000064	0.641695	0.108706	0.001283
 233	1.1600e-01	2.3135	-4.769305	0.000193	1.925085	0.326118	0.003849
 234	1.1650e-01	2.3262	-4.744930	0.000244	2.438441	0.413083	0.004875
 235	1.1700e-01	2.3354	-4.710720	0.000342	3.422373	0.579766	0.006842
 236	1.1750e-01	2.3450	-4.682069	0.000287	2.866237	0.485554	0.005730
 237	1.1800e-01	2.3584	-4.672661	0.000094	0.941153	0.159436	0.001882
 238	1.1850e-01	2.3692	-4.671379	0.000013	0.128339	0.021741	0.000257
 239	1.1900e-01	2.3773	-4.642728	0.000287	2.866237	0.485554	0.005730
 240	1.1950e-01	2.3856	-4.615787	0.000270	2.695119	0.456565	0.005388
 241	1.2000e-01	2.3969	-4.578584	0.000372	3.721831	0.630495	0.007441
 242	1.2050e-01	2.4054	-4.564045	0.000145	1.454509	0.246400	0.002908
 243	1.2100e-01	2.4149	-4.550788	0.000133	1.326170	0.224659	0.002651
 244	1.2150e-01	2.4257	-4.521282	0.000295	2.951797	0.500048	0.005901
 245	1.2200e-01	2.4359	-4.492631	0.000287	2.866237	0.485554	0.005730
 246	1.2250e-01	2.4458	-4.495625	-0.000030	-0.299458	-0.050729	-0.000599
 247	1.2300e-01	2.4561	-4.457993	0.000376	3.764610	0.637742	0.007526
 248	1.2350e-01	2.4670	-4.440033	0.000180	1.796746	0.304377	0.003592
 249	1.2400e-01	2.4777	-4.418224	0.000218	2.181763	0.369601	0.004362
 250	1.2450e-01	2.4875	-4.392567	0.000257	2.566780	0.434824	0.005132
 251	1.2500e-01	2.4969	-4.375889	0.000167	1.668407	0.282636	0.003335
 252	1.2550e-01	2.5061	-4.363061	0.000128	1.283390	0.217412	0.002566
 253	1.2600e-01	2.5166	-4.332272	0.000308	3.080136	0.521789	0.006158
 254	1.2650e-01	2.5284	-4.322436	0.000098	0.983932	0.166683	0.001967
 255	1.2700e-01	2.5363	-4.285233	0.000372	3.721831	0.630495	0.007441
 256	1.2750e-01	2.5439	-4.272832	0.000124	1.240610	0.210165	0.002480
 257	1.2800e-01	2.5555	-4.245464	0.000274	2.737898	0.463813	0.005474
 258	1.2850e-01	2.5655	-4.218951	0.000265	2.652339	0.449318	0.005303
 259	1.2900e-01	2.5757	-4.208688	0.000103	1.026712	0.173930	0.002053
 260	1.2950e-01	2.5866	-4.177471	0.000312	3.122915	0.529036	0.006243
 261	1.3000e-01	2.5971	-4.175761	0.000017	0.171119	0.028988	0.000342
 262	1.3050e-01	2.6051	-4.119742	0.000560	5.604136	0.949366	0.011204
 263	1.3100e-01	2.6155	-4.116321	0.000034	0.342237	0.057977	0.000684
 264	1.3150e-01	2.6254	-4.095795	0.000205	2.053424	0.347859	0.004105
 265	1.3200e-01	2.6355	-4.078690	0.000171	1.711187	0.289883	0.003421
 266	1.3250e-01	2.6466	-4.036783	0.000419	4.192407	0.710213	0.008381
 267	1.3300e-01	2.6559	-4.022243	0.000145	1.454509	0.246400	0.002908
 268	1.3350e-01	2.6643	-4.004711	0.000175	1.753966	0.297130	0.003507
 269	1.3400e-01	2.6758	-3.973922	0.000308	3.080136	0.521789	0.006158
 270	1.3450e-01	2.6855	-3.966224	0.000077	0.770034	0.130447	0.001539
 271	1.3500e-01	2.6978	-3.947837	0.000184	1.839525	0.311624	0.003678
 272	1.3550e-01	2.7065	-3.934580	0.000133	1.326170	0.224659	0.002651
 273	1.3600e-01	2.7164	-3.902508	0.000321	3.208475	0.543530	0.006414
 274	1.3650e-01	2.7243	-3.871292	0.000312	3.122915	0.529036	0.006243
 275	1.3700e-01	2.7371	-3.865305	0.000060	0.598915	0.101459	0.001197
 276	1.3750e-01	2.7460	-3.841785	0.000235	2.352881	0.398589	0.004704
 277	1.3800e-01	2.7548	-3.801161	0.000406	4.064068	0.688472	0.008125
 278	1.3850e-01	2.7655	-3.798595	0.000026	0.256678	0.043482	0.000513
 279	1.3900e-01	2.7751	-3.769944	0.000287	2.866237	0.485554	0.005730
 280	1.3950e-01	2.7856	-3.764813	0.000051	0.513356	0.086965	0.001026
 281	1.4000e-01	2.7942	-3.729320	0.000355	3.550712	0.601507	0.007099
 282	1.4050e-01	2.8067	-3.719485	0.000098	0.983932	0.166683	0.001967
 283	1.4100e-01	2.8201	-3.682709	0.000368	3.679051	0.623248	0.007355
 284	1.4150e-01	2.8259	-3.667742	0.000150	1.497288	0.253647	0.002993
 285	1.4200e-01	2.8369	-3.646361	0.000214	2.138983	0.362354	0.004276
 286	1.4250e-01	2.8449	-3.618565	0.000278	2.780678	0.471060	0.005559
 287	1.4300e-01	2.8569	-3.604453	0.000141	1.411729	0.239153	0.002822
 288	1.4350e-01	2.8687	-3.571526	0.000329	3.294034	0.558024	0.006585
 289	1.4400e-01	2.8760	-3.563829	0.000077	0.770034	0.130447	0.001539
 290	1.4450e-01	2.8851	-3.536461	0.000274	2.737898	0.463813	0.005474
 291	1.4500e-01	2.8961	-3.515507	0.000210	2.096203	0.355106	0.004191
 292	1.4550e-01	2.9069	-3.492416	0.000231	2.310102	0.391342	0.004618
 293	1.4600e-01	2.9185	-3.483863	0.000086	0.855593	0.144941	0.001711
 294	1.4650e-01	2.9251	-3.466758	0.000171	1.711187	0.289883	0.003421
 295	1.4700e-01	2.9347	-3.438962	0.000278	2.780678	0.471060	0.005559
 296	1.4750e-01	2.9437	-3.421002	0.000180	1.796746	0.304377	0.003592
 297	1.4800e-01	2.9565	-3.388503	0.000325	3.251254	0.550777	0.006500
 298	1.4850e-01	2.9668	-3.375674	0.000128	1.283390	0.217412	0.002566
 299	1.4900e-01	2.9756	-3.343602	0.000321	3.208475	0.543530	0.006414
 300	1.4950e-01	2.9872	-3.334194	0.000094	0.941153	0.159436	0.001882
 301	1.5000e-01	2.9938	-3.295280	0.000389	3.892949	0.659483	0.007783
 302	1.5050e-01	3.0048	-3.276037	0.000193	1.925085	0.326118	0.003849
 303	1.5100e-01	3.0161	-3.264064	0.000120	1.197831	0.202918	0.002395
 304	1.5150e-01	3.0267	-3.230709	0.000334	3.336814	0.565272	0.006671
 305	1.5200e-01	3.0356	-3.206334	0.000244	2.438441	0.413083	0.004875
 306	1.5250e-01	3.0466	-3.217453	-0.000111	-1.112271	-0.188424	-0.002224
 307	1.5300e-01	3.0551	-3.182815	0.000347	3.465153	0.587013	0.006928
 308	1.5350e-01	3.0676	-3.152881	0.000299	2.994576	0.507295	0.005987
 309	1.5400e-01	3.0782	-3.140052	0.000128	1.283390	0.217412	0.002566
 310	1.5450e-01	3.0853	-3.105842	0.000342	3.422373	0.579766	0.006842
 311	1.5500e-01	3.0971	-3.090875	0.000150	1.497288	0.253647	0.002993
 312	1.5550e-01	3.1046	-3.065646	0.000252	2.524000	0.427577	0.005046
 313	1.5600e-01	3.1161	-3.058804	0.000068	0.684475	0.115953	0.001368
 314	1.5650e-01	3.1265	-3.039133	0.000197	1.967864	0.333365	0.003934
 315	1.5700e-01	3.1384	-3.001929	0.000372	3.721831	0.630495	0.007441
 316	1.5750e-01	3.1441	-2.992522	0.000094	0.941153	0.159436	0.001882
 317	1.5800e-01	3.1577	-2.971568	0.000210	2.096203	0.355106	0.004191
 318	1.5850e-01	3.1654	-2.932227	0.000394	3.935729	0.666731	0.007868
 319	1.5900e-01	3.1751	-2.935648	-0.000034	-0.342237	-0.057977	-0.000684
 320	1.5950e-01	3.1874	-2.900582	0.000351	3.507932	0.594260	0.007013
 321	1.6000e-01	3.1937	-2.874925	0.000257	2.566780	0.434824	0.005132
 322	1.6050e-01	3.2062	-2.849267	0.000257	2.566780	0.434824	0.005132
 323	1.6100e-01	3.2162	-2.836011	0.000133	1.326170	0.224659	0.002651
 324	1.6150e-01	3.2263	-2.824465	0.000116	1.155051	0.195671	0.002309
 325	1.6200e-01	3.2337	-2.797525	0.000270	2.695119	0.456565	0.005388
 326	1.6250e-01	3.2446	-2.775716	0.000218	2.181763	0.369601	0.004362
 327	1.6300e-01	3.2568	-2.746210	0.000295	2.951797	0.500048	0.005901
 328	1.6350e-01	3.2648	-2.740223	0.000060	0.598915	0.101459	0.001197
 329	1.6400e-01	3.2758	-2.698743	0.000415	4.149627	0.702966	0.008296
 330	1.6450e-01	3.2849	-2.693184	0.000056	0.556136	0.094212	0.001112
 331	1.6500e-01	3.2967	-2.674796	0.000184	1.839525	0.311624	0.003678
 332	1.6550e-01	3.3057	-2.654698	0.000201	2.010644	0.340612	0.004020
 333	1.6600e-01	3.3156	-2.635882	0.000188	1.882305	0.318871	0.003763
 334	1.6650e-01	3.3264	-2.628613	0.000073	0.727254	0.123200	0.001454
 335	1.6700e-01	3.3356	-2.574304	0.000543	5.433017	0.920378	0.010862
 336	1.6750e-01	3.3472	-2.565324	0.000090	0.898373	0.152188	0.001796
 337	1.6800e-01	3.3560	-2.549074	0.000163	1.625627	0.275389	0.003250
 338	1.6850e-01	3.3658	-2.532397	0.000167	1.668407	0.282636	0.003335
 339	1.6900e-01	3.3768	-2.510588	0.000218	2.181763	0.369601	0.004362
 340	1.6950e-01	3.3852	-2.485786	0.000248	2.481220	0.420330	0.004960
 341	1.7000e-01	3.4004	-2.470819	0.000150	1.497288	0.253647	0.002993
 342	1.7050e-01	3.4052	-2.438319	0.000325	3.251254	0.550777	0.006500
 343	1.7100e-01	3.4161	-2.401544	0.000368	3.679051	0.623248	0.007355
 344	1.7150e-01	3.4241	-2.397267	0.000043	0.427797	0.072471	0.000855
 345	1.7200e-01	3.4338	-2.371610	0.000257	2.566780	0.434824	0.005132
 346	1.7250e-01	3.4457	-2.366051	0.000056	0.556136	0.094212	0.001112
 347	1.7300e-01	3.4558	-2.319439	0.000466	4.662983	0.789931	0.009322
 348	1.7350e-01	3.4686	-2.322433	-0.000030	-0.299458	-0.050729	-0.000599
 349	1.7400e-01	3.4729	-2.293354	0.000291	2.909017	0.492801	0.005816
 350	1.7450e-01	3.4872	-2.276677	0.000167	1.668407	0.282636	0.003335
 351	1.7500e-01	3.4963	-2.254868	0.000218	2.181763	0.369601	0.004362
 352	1.7550e-01	3.5071	-2.247171	0.000077	0.770034	0.130447	0.001539
 353	1.7600e-01	3.5156	-2.227928	0.000193	1.925085	0.326118	0.003849
 354	1.7650e-01	3.5245	-2.192862	0.000351	3.507932	0.594260	0.007013
 355	1.7700e-01	3.5358	-2.168060	0.000248	2.481220	0.420330	0.004960
 356	1.7750e-01	3.5470	-2.144541	0.000235	2.352881	0.398589	0.004704
 357	1.7800e-01	3.5556	-2.130429	0.000141	1.411729	0.239153	0.002822
 358	1.7850e-01	3.5665	-2.110758	0.000197	1.967864	0.333365	0.003934
 359	1.7900e-01	3.5760	-2.099640	0.000111	1.112271	0.188424	0.002224
 360	1.7950e-01	3.5857	-2.050891	0.000488	4.876882	0.826166	0.009750
 361	1.8000e-01	3.5970	-2.051318	-0.000004	-0.042780	-0.007247	-0.000086
 362	1.8050e-01	3.6043	-2.030792	0.000205	2.053424	0.347859	0.004105
 363	1.8100e-01	3.6166	-2.012405	0.000184	1.839525	0.311624	0.003678
 364	1.8150e-01	3.6257	-1.988030	0.000244	2.438441	0.413083	0.004875
 365	1.8200e-01	3.6383	-1.964083	0.000240	2.395661	0.405836	0.004789
 366	1.8250e-01	3.6447	-1.941846	0.000222	2.224542	0.376848	0.004447
 367	1.8300e-01	3.6568	-1.923458	0.000184	1.839525	0.311624	0.003678
 368	1.8350e-01	3.6664	-1.901222	0.000222	2.224542	0.376848	0.004447
 369	1.8400e-01	3.6783	-1.882406	0.000188	1.882305	0.318871	0.003763
 370	1.8450e-01	3.6884	-1.859742	0.000227	2.267322	0.384095	0.004533
 371	1.8500e-01	3.6973	-1.832802	0.000270	2.695119	0.456565	0.005388
 372	1.8550e-01	3.7077	-1.825532	0.000073	0.727254	0.123200	0.001454
 373	1.8600e-01	3.7154	-1.798592	0.000270	2.695119	0.456565	0.005388
 374	1.8650e-01	3.7247	-1.772507	0.000261	2.609559	0.442071	0.005217
 375	1.8700e-01	3.7360	-1.760961	0.000116	1.155051	0.195671	0.002309
 376	1.8750e-01	3.7482	-1.733593	0.000274	2.737898	0.463813	0.005474
 377	1.8800e-01	3.7552	-1.713494	0.000201	2.010644	0.340612	0.004020
 378	1.8850e-01	3.7650	-1.707935	0.000056	0.556136	0.094212	0.001112
 379	1.8900e-01	3.7750	-1.674153	0.000338	3.379593	0.572519	0.006756
 380	1.8950e-01	3.7868	-1.663890	0.000103	1.026712	0.173930	0.002053
 381	1.9000e-01	3.7971	-1.626259	0.000376	3.764610	0.637742	0.007526
 382	1.9050e-01	3.8052	-1.618134	0.000081	0.812814	0.137694	0.001625
 383	1.9100e-01	3.8150	-1.598463	0.000197	1.967864	0.333365	0.003934
 384	1.9150e-01	3.8245	-1.583496	0.000150	1.497288	0.253647	0.002993
 385	1.9200e-01	3.8388	-1.543727	0.000398	3.978509	0.673978	0.007954
 386	1.9250e-01	3.8486	-1.549714	-0.000060	-0.598915	-0.101459	-0.001197
 387	1.9300e-01	3.8559	-1.511228	0.000385	3.850170	0.652236	0.007697
 388	1.9350e-01	3.8629	-1.487708	0.000235	2.352881	0.398589	0.004704
 389	1.9400e-01	3.8792	-1.474452	0.000133	1.326170	0.224659	0.002651
 390	1.9450e-01	3.8852	-1.443663	0.000308	3.080136	0.521789	0.006158
 391	1.9500e-01	3.8974	-1.437249	0.000064	0.641695	0.108706	0.001283
 392	1.9550e-01	3.9050	-1.397907	0.000394	3.935729	0.666731	0.007868
 393	1.9600e-01	3.9151	-1.392348	0.000056	0.556136	0.094212	0.001112
 394	1.9650e-01	3.9273	-1.366263	0.000261	2.609559	0.442071	0.005217
 395	1.9700e-01	3.9343	-1.346592	0.000197	1.967864	0.333365	0.003934
 396	1.9750e-01	3.9484	-1.335474	0.000111	1.112271	0.188424	0.002224
 397	1.9800e-01	3.9565	-1.312810	0.000227	2.267322	0.384095	0.004533
 398	1.9850e-01	3.9650	-1.269619	0.000432	4.320746	0.731954	0.008638
 399	1.9900e-01	3.9740	-1.276889	-0.000073	-0.727254	-0.123200	-0.001454
 400	1.9950e-01	3.9875	-1.258501	0.000184	1.839525	0.311624	0.003678
 401	2.0000e-01	3.9944	-1.217449	0.000411	4.106848	0.695719	0.008210
 402	2.0050e-01	4.0045	-1.190936	0.000265	2.652339	0.449318	0.005303
 403	2.0100e-01	4.0137	-1.163141	0.000278	2.780678	0.471060	0.005559
 404	2.0150e-01	4.0265	-1.152450	0.000107	1.069492	0.181177	0.002138
 405	2.0200e-01	4.0341	-1.142615	0.000098	0.983932	0.166683	0.001967
 406	2.0250e-01	4.0460	-1.120806	0.000218	2.181763	0.369601	0.004362
 407	2.0300e-01	4.0558	-1.105411	0.000154	1.540068	0.260895	0.003079
 408	2.0350e-01	4.0649	-1.081037	0.000244	2.438441	0.413083	0.004875
 409	2.0400e-01	4.0765	-1.087879	-0.000068	-0.684475	-0.115953	-0.001368
 410	2.0450e-01	4.0851	-1.036136	0.000518	5.176339	0.876896	0.010349
 411	2.0500e-01	4.0961	-1.026301	0.000098	0.983932	0.166683	0.001967
 412	2.0550e-01	4.1040	-0.990808	0.000355	3.550712	0.601507	0.007099
 413	2.0600e-01	4.1162	-0.980972	0.000098	0.983932	0.166683	0.001967
 414	2.0650e-01	4.1263	-0.954887	0.000261	2.609559	0.442071	0.005217
 415	2.0700e-01	4.1351	-0.936927	0.000180	1.796746	0.304377	0.003592
 416	2.0750e-01	4.1483	-0.926664	0.000103	1.026712	0.173930	0.002053
 417	2.0800e-01	4.1562	-0.912125	0.000145	1.454509	0.246400	0.002908
 418	2.0850e-01	4.1676	-0.870645	0.000415	4.149627	0.702966	0.008296
 419	2.0900e-01	4.1761	-0.867224	0.000034	0.342237	0.057977	0.000684
 420	2.0950e-01	4.1862	-0.833442	0.000338	3.379593	0.572519	0.006756
 421	2.1000e-01	4.1965	-0.809495	0.000240	2.395661	0.405836	0.004789
 422	2.1050e-01	4.2074	-0.794955	0.000145	1.454509	0.246400	0.002908
 423	2.1100e-01	4.2148	-0.764166	0.000308	3.080136	0.521789	0.006158
 424	2.1150e-01	4.2250	-0.765022	-0.000009	-0.085559	-0.014494	-0.000171
 425	2.1200e-01	4.2377	-0.741502	0.000235	2.352881	0.398589	0.004704
 426	2.1250e-01	4.2493	-0.712851	0.000287	2.866237	0.485554	0.005730
 427	2.1300e-01	4.2566	-0.709858	0.000030	0.299458	0.050729	0.000599
 428	2.1350e-01	4.2645	-0.666240	0.000436	4.363526	0.739201	0.008724
 429	2.1400e-01	4.2763	-0.646569	0.000197	1.967864	0.333365	0.003934
 430	2.1450e-01	4.2853	-0.631603	0.000150	1.497288	0.253647	0.002993
 431	2.1500e-01	4.2975	-0.627754	0.000039	0.385017	0.065224	0.000770
 432	2.1550e-01	4.3048	-0.600386	0.000274	2.737898	0.463813	0.005474
 433	2.1600e-01	4.3167	-0.574301	0.000261	2.609559	0.442071	0.005217
 434	2.1650e-01	4.3268	-0.568314	0.000060	0.598915	0.101459	0.001197
 435	2.1700e-01	4.3347	-0.548216	0.000201	2.010644	0.340612	0.004020
 436	2.1750e-01	4.3474	-0.512723	0.000355	3.550712	0.601507	0.007099
 437	2.1800e-01	4.3567	-0.513150	-0.000004	-0.042780	-0.007247	-0.000086
 438	2.1850e-01	4.3683	-0.490059	0.000231	2.310102	0.391342	0.004618
 439	2.1900e-01	4.3756	-0.456704	0.000334	3.336814	0.565272	0.006671
 440	2.1950e-01	4.3889	-0.428053	0.000287	2.866237	0.485554	0.005730
 441	2.2000e-01	4.3970	-0.406672	0.000214	2.138983	0.362354	0.004276
 442	2.2050e-01	4.4052	-0.389994	0.000167	1.668407	0.282636	0.003335
 443	2.2100e-01	4.4177	-0.388711	0.000013	0.128339	0.021741	0.000257
 444	2.2150e-01	4.4265	-0.347232	0.000415	4.149627	0.702966	0.008296
 445	2.2200e-01	4.4391	-0.328844	0.000184	1.839525	0.311624	0.003678
 446	2.2250e-01	4.4455	-0.330127	-0.000013	-0.128339	-0.021741	-0.000257
 447	2.2300e-01	4.4586	-0.302759	0.000274	2.737898	0.463813	0.005474
 448	2.2350e-01	4.4662	-0.283088	0.000197	1.967864	0.333365	0.003934
 449	2.2400e-01	4.4804	-0.242036	0.000411	4.106848	0.695719	0.008210
 450	2.2450e-01	4.4862	-0.236477	0.000056	0.556136	0.094212	0.001112
 451	2.2500e-01	4.4962	-0.226214	0.000103	1.026712	0.173930	0.002053
 452	2.2550e-01	4.5074	-0.197991	0.000282	2.823458	0.478307	0.005645
 453	2.2600e-01	4.5184	-0.172333	0.000257	2.566780	0.434824	0.005132
 454	2.2650e-01	4.5261	-0.165919	0.000064	0.641695	0.108706	0.001283
 455	2.2700e-01	4.5367	-0.138123	0.000278	2.780678	0.471060	0.005559
 456	2.2750e-01	4.5480	-0.113321	0.000248	2.481220	0.420330	0.004960
 457	2.2800e-01	4.5564	-0.094933	0.000184	1.839525	0.311624	0.003678
 458	2.2850e-01	4.5679	-0.060723	0.000342	3.422373	0.579766	0.006842
 459	2.2900e-01	4.5749	-0.048749	0.000120	1.197831	0.202918	0.002395
 460	2.2950e-01	4.5898	-0.030361	0.000184	1.839525	0.311624	0.003678
 461	2.3000e-01	4.5969	-0.008980	0.000214	2.138983	0.362354	0.004276
 462	2.3050e-01	4.6082	0.001283	0.000103	1.026712	0.173930	0.002053
 463	2.3100e-01	4.6155	0.020526	0.000193	1.925085	0.326118	0.003849
 464	2.3150e-01	4.6283	0.050887	0.000304	3.037356	0.514542	0.006072
 465	2.3200e-01	4.6371	0.067565	0.000167	1.668407	0.282636	0.003335
 466	2.3250e-01	4.6457	0.079111	0.000116	1.155051	0.195671	0.002309
 467	2.3300e-01	4.6558	0.113748	0.000347	3.465153	0.587013	0.006928
 468	2.3350e-01	4.6649	0.145393	0.000317	3.165695	0.536283	0.006329
 469	2.3400e-01	4.6774	0.147531	0.000021	0.213898	0.036235	0.000428
 470	2.3450e-01	4.6884	0.169767	0.000222	2.224542	0.376848	0.004447
 471	2.3500e-01	4.6956	0.180885	0.000111	1.112271	0.188424	0.002224
 472	2.3550e-01	4.7070	0.217234	0.000364	3.636271	0.616001	0.007270
 473	2.3600e-01	4.7157	0.225359	0.000081	0.812814	0.137694	0.001625
 474	2.3650e-01	4.7278	0.241608	0.000163	1.625627	0.275389	0.003250
 475	2.3700e-01	4.7401	0.256148	0.000145	1.454509	0.246400	0.002908
 476	2.3750e-01	4.7456	0.281377	0.000252	2.524000	0.427577	0.005046
 477	2.3800e-01	4.7546	0.314305	0.000329	3.294034	0.558024	0.006585
 478	2.3850e-01	4.7665	0.330982	0.000167	1.668407	0.282636	0.003335
 479	2.3900e-01	4.7772	0.357067	0.000261	2.609559	0.442071	0.005217
 480	2.3950e-01	4.7835	0.370323	0.000133	1.326170	0.224659	0.002651
 481	2.4000e-01	4.7968	0.387856	0.000175	1.753966	0.297130	0.003507
 482	2.4050e-01	4.8053	0.410948	0.000231	2.310102	0.391342	0.004618
 483	2.4100e-01	4.8157	0.437461	0.000265	2.652339	0.449318	0.005303
 484	2.4150e-01	4.8250	0.462691	0.000252	2.524000	0.427577	0.005046
 485	2.4200e-01	4.8377	0.467822	0.000051	0.513356	0.086965	0.001026
 486	2.4250e-01	4.8495	0.486210	0.000184	1.839525	0.311624	0.003678
 487	2.4300e-01	4.8547	0.500322	0.000141	1.411729	0.239153	0.002822
 488	2.4350e-01	4.8682	0.529400	0.000291	2.909017	0.492801	0.005816
 489	2.4400e-01	4.8746	0.537525	0.000081	0.812814	0.137694	0.001625
 490	2.4450e-01	4.8877	0.560617	0.000231	2.310102	0.391342	0.004618
 491	2.4500e-01	4.8958	0.579432	0.000188	1.882305	0.318871	0.003763
 492	2.4550e-01	4.9078	0.589268	0.000098	0.983932	0.166683	0.001967
 493	2.4600e-01	4.9164	0.615780	0.000265	2.652339	0.449318	0.005303
 494	2.4650e-01	4.9292	0.647425	0.000317	3.165695	0.536283	0.006329
 495	2.4700e-01	4.9374	0.650418	0.000030	0.299458	0.050729	0.000599
 496	2.4750e-01	4.9478	0.683345	0.000329	3.294034	0.558024	0.006585
 497	2.4800e-01	4.9576	0.699167	0.000158	1.582848	0.268142	0.003164
 498	2.4850e-01	4.9666	0.728673	0.000295	2.951797	0.500048	0.005901
 499	2.4900e-01	4.9745	0.751338	0.000227	2.267322	0.384095	0.004533
 500	2.4950e-01	4.9878	0.762883	0.000116	1.155051	0.195671	0.002309
 501	2.5000e-01	4.9982	0.793673	0.000308	3.080136	0.521789	0.006158
 502	2.5050e-01	5.0040	0.788969	-0.000047	-0.470576	-0.079718	-0.000941
 503	2.5100e-01	5.0147	0.818902	0.000299	2.994576	0.507295	0.005987
 504	2.5150e-01	5.0252	0.841139	0.000222	2.224542	0.376848	0.004447
 505	2.5200e-01	5.0360	0.855678	0.000145	1.454509	0.246400	0.002908
 506	2.5250e-01	5.0470	0.847981	-0.000077	-0.770034	-0.130447	-0.001539
 507	2.5300e-01	5.0555	0.895020	0.000471	4.705763	0.797178	0.009408
 508	2.5350e-01	5.0653	0.928802	0.000338	3.379593	0.572519	0.006756
 509	2.5400e-01	5.0775	0.937355	0.000086	0.855593	0.144941	0.001711
 510	2.5450e-01	5.0858	0.952321	0.000150	1.497288	0.253647	0.002993
 511	2.5500e-01	5.0970	0.974986	0.000227	2.267322	0.384095	0.004533
 512	2.5550e-01	5.1077	0.997650	0.000227	2.267322	0.384095	0.004533
 513	2.5600e-01	5.1147	1.013900	0.000163	1.625627	0.275389	0.003250
 514	2.5650e-01	5.1253	1.027584	0.000137	1.368949	0.231906	0.002737
 515	2.5700e-01	5.1349	1.048110	0.000205	2.053424	0.347859	0.004105
 516	2.5750e-01	5.1443	1.102418	0.000543	5.433017	0.920378	0.010862
 517	2.5800e-01	5.1544	1.089589	-0.000128	-1.283390	-0.217412	-0.002566
 518	2.5850e-01	5.1654	1.124654	0.000351	3.507932	0.594260	0.007013
 519	2.5900e-01	5.1758	1.124227	-0.000004	-0.042780	-0.007247	-0.000086
 520	2.5950e-01	5.1859	1.146891	0.000227	2.267322	0.384095	0.004533
 521	2.6000e-01	5.1959	1.170838	0.000240	2.395661	0.405836	0.004789
 522	2.6050e-01	5.2032	1.194785	0.000240	2.395661	0.405836	0.004789
 523	2.6100e-01	5.2147	1.214883	0.000201	2.010644	0.340612	0.004020
 524	2.6150e-01	5.2254	1.220870	0.000060	0.598915	0.101459	0.001197
 525	2.6200e-01	5.2356	1.231133	0.000103	1.026712	0.173930	0.002053
 526	2.6250e-01	5.2454	1.277317	0.000462	4.620204	0.782684	0.009237
 527	2.6300e-01	5.2551	1.310671	0.000334	3.336814	0.565272	0.006671
 528	2.6350e-01	5.2663	1.311099	0.000004	0.042780	0.007247	0.000086
 529	2.6400e-01	5.2760	1.334191	0.000231	2.310102	0.391342	0.004618
 530	2.6450e-01	5.2866	1.338895	0.000047	0.470576	0.079718	0.000941
 531	2.6500e-01	5.2953	1.361986	0.000231	2.310102	0.391342	0.004618
 532	2.6550e-01	5.3052	1.389355	0.000274	2.737898	0.463813	0.005474
 533	2.6600e-01	5.3156	1.422282	0.000329	3.294034	0.558024	0.006585
 534	2.6650e-01	5.3279	1.428696	0.000064	0.641695	0.108706	0.001283
 535	2.6700e-01	5.3358	1.446656	0.000180	1.796746	0.304377	0.003592
 536	2.6750e-01	5.3464	1.450933	0.000043	0.427797	0.072471	0.000855
 537	2.6800e-01	5.3561	1.487708	0.000368	3.679051	0.623248	0.007355
 538	2.6850e-01	5.3659	1.508662	0.000210	2.096203	0.355106	0.004191
 539	2.6900e-01	5.3757	1.518497	0.000098	0.983932	0.166683	0.001967
 540	2.6950e-01	5.3867	1.525339	0.000068	0.684475	0.115953	0.001368
 541	2.7000e-01	5.3940	1.564253	0.000389	3.892949	0.659483	0.007783
 542	2.7050e-01	5.4061	1.588628	0.000244	2.438441	0.413083	0.004875
 543	2.7100e-01	5.4138	1.593759	0.000051	0.513356	0.086965	0.001026
 544	2.7150e-01	5.4272	1.619845	0.000261	2.609559	0.442071	0.005217
 545	2.7200e-01	5.4340	1.644219	0.000244	2.438441	0.413083	0.004875
 546	2.7250e-01	5.4431	1.666456	0.000222	2.224542	0.376848	0.004447
 547	2.7300e-01	5.4578	1.686554	0.000201	2.010644	0.340612	0.004020
 548	2.7350e-01	5.4639	1.706225	0.000197	1.967864	0.333365	0.003934
 549	2.7400e-01	5.4761	1.720336	0.000141	1.411729	0.239153	0.002822
 550	2.7450e-01	5.4861	1.736159	0.000158	1.582848	0.268142	0.003164
 551	2.7500e-01	5.4953	1.756685	0.000205	2.053424	0.347859	0.004105
 552	2.7550e-01	5.5034	1.766092	0.000094	0.941153	0.159436	0.001882
 553	2.7600e-01	5.5151	1.784053	0.000180	1.796746	0.304377	0.003592
 554	2.7650e-01	5.5273	1.802868	0.000188	1.882305	0.318871	0.003763
 555	2.7700e-01	5.5353	1.830236	0.000274	2.737898	0.463813	0.005474
 556	2.7750e-01	5.5463	1.857604	0.000274	2.737898	0.463813	0.005474
 557	2.7800e-01	5.5542	1.879841	0.000222	2.224542	0.376848	0.004447
 558	2.7850e-01	5.5666	1.881124	0.000013	0.128339	0.021741	0.000257
 559	2.7900e-01	5.5768	1.906353	0.000252	2.524000	0.427577	0.005046
 560	2.7950e-01	5.5859	1.931156	0.000248	2.481220	0.420330	0.004960
 561	2.8000e-01	5.5951	1.951682	0.000205	2.053424	0.347859	0.004105
 562	2.8050e-01	5.6094	1.967076	0.000154	1.540068	0.260895	0.003079
 563	2.8100e-01	5.6161	1.981188	0.000141	1.411729	0.239153	0.002822
 564	2.8150e-01	5.6252	2.015826	0.000347	3.465153	0.587013	0.006928
 565	2.8200e-01	5.6366	2.025661	0.000098	0.983932	0.166683	0.001967
 566	2.8250e-01	5.6506	2.047897	0.000222	2.224542	0.376848	0.004447
 567	2.8300e-01	5.6561	2.063720	0.000158	1.582848	0.268142	0.003164
 568	2.8350e-01	5.6673	2.081680	0.000180	1.796746	0.304377	0.003592
 569	2.8400e-01	5.6799	2.100495	0.000188	1.882305	0.318871	0.003763
 570	2.8450e-01	5.6860	2.124442	0.000240	2.395661	0.405836	0.004789
 571	2.8500e-01	5.6970	2.140264	0.000158	1.582848	0.268142	0.003164
 572	2.8550e-01	5.7062	2.162501	0.000222	2.224542	0.376848	0.004447
 573	2.8600e-01	5.7161	2.192862	0.000304	3.037356	0.514542	0.006072
 574	2.8650e-01	5.7257	2.204408	0.000116	1.155051	0.195671	0.002309
 575	2.8700e-01	5.7416	2.225790	0.000214	2.138983	0.362354	0.004276
 576	2.8750e-01	5.7478	2.239046	0.000133	1.326170	0.224659	0.002651
 577	2.8800e-01	5.7562	2.272401	0.000334	3.336814	0.565272	0.006671
 578	2.8850e-01	5.7684	2.273256	0.000009	0.085559	0.014494	0.000171
 579	2.8900e-01	5.7764	2.304900	0.000317	3.165695	0.536283	0.006329
 580	2.8950e-01	5.7889	2.315591	0.000107	1.069492	0.181177	0.002138
 581	2.9000e-01	5.7967	2.336117	0.000205	2.053424	0.347859	0.004105
 582	2.9050e-01	5.8057	2.352794	0.000167	1.668407	0.282636	0.003335
 583	2.9100e-01	5.8179	2.372465	0.000197	1.967864	0.333365	0.003934
 584	2.9150e-01	5.8289	2.371182	-0.000013	-0.128339	-0.021741	-0.000257
 585	2.9200e-01	5.8386	2.392991	0.000218	2.181763	0.369601	0.004362
 586	2.9250e-01	5.8466	2.443878	0.000509	5.090780	0.862401	0.010177
 587	2.9300e-01	5.8563	2.466543	0.000227	2.267322	0.384095	0.004533
 588	2.9350e-01	5.8667	2.469536	0.000030	0.299458	0.050729	0.000599
 589	2.9400e-01	5.8777	2.493055	0.000235	2.352881	0.398589	0.004704
 590	2.9450e-01	5.8832	2.496476	0.000034	0.342237	0.057977	0.000684
 591	2.9500e-01	5.8954	2.547791	0.000513	5.133560	0.869649	0.010263
 592	2.9550e-01	5.9070	2.538384	-0.000094	-0.941153	-0.159436	-0.001882
 593	2.9600e-01	5.9151	2.566179	0.000278	2.780678	0.471060	0.005559
 594	2.9650e-01	5.9247	2.578153	0.000120	1.197831	0.202918	0.002395
 595	2.9700e-01	5.9351	2.597824	0.000197	1.967864	0.333365	0.003934
 596	2.9750e-01	5.9509	2.620060	0.000222	2.224542	0.376848	0.004447
 597	2.9800e-01	5.9578	2.633316	0.000133	1.326170	0.224659	0.002651
 598	2.9850e-01	5.9656	2.657263	0.000240	2.395661	0.405836	0.004789
 599	2.9900e-01	5.9766	2.669237	0.000120	1.197831	0.202918	0.002395
 600	2.9950e-01	5.9845	2.702592	0.000334	3.336814	0.565272	0.006671
 601	3.0000e-01	5.9979	2.693184	-0.000094	-0.941153	-0.159436	-0.001882
 602	3.0050e-01	6.0083	2.721407	0.000282	2.823458	0.478307	0.005645
 603	3.0100e-01	6.0217	2.749631	0.000282	2.823458	0.478307	0.005645
 604	3.0150e-01	6.0254	2.774433	0.000248	2.481220	0.420330	0.004960
 605	3.0200e-01	6.0373	2.791965	0.000175	1.753966	0.297130	0.003507
 606	3.0250e-01	6.0468	2.815912	0.000240	2.395661	0.405836	0.004789
 607	3.0300e-01	6.0577	2.817623	0.000017	0.171119	0.028988	0.000342
 608	3.0350e-01	6.0684	2.852688	0.000351	3.507932	0.594260	0.007013
 609	3.0400e-01	6.0785	2.860813	0.000081	0.812814	0.137694	0.001625
 610	3.0450e-01	6.0864	2.895451	0.000347	3.465153	0.587013	0.006928
 611	3.0500e-01	6.0986	2.906997	0.000116	1.155051	0.195671	0.002309
 612	3.0550e-01	6.1105	2.922391	0.000154	1.540068	0.260895	0.003079
 613	3.0600e-01	6.1191	2.927523	0.000051	0.513356	0.086965	0.001026
 614	3.0650e-01	6.1279	2.952753	0.000252	2.524000	0.427577	0.005046
 615	3.0700e-01	6.1377	2.977127	0.000244	2.438441	0.413083	0.004875
 616	3.0750e-01	6.1481	2.998081	0.000210	2.096203	0.355106	0.004191
 617	3.0800e-01	6.1566	3.025876	0.000278	2.780678	0.471060	0.005559
 618	3.0850e-01	6.1688	3.033146	0.000073	0.727254	0.123200	0.001454
 619	3.0900e-01	6.1768	3.047685	0.000145	1.454509	0.246400	0.002908
 620	3.0950e-01	6.1871	3.071205	0.000235	2.352881	0.398589	0.004704
 621	3.1000e-01	6.1981	3.095579	0.000244	2.438441	0.413083	0.004875
 622	3.1050e-01	6.2067	3.111401	0.000158	1.582848	0.268142	0.003164
 623	3.1100e-01	6.2152	3.137059	0.000257	2.566780	0.434824	0.005132
 624	3.1150e-01	6.2257	3.153736	0.000167	1.668407	0.282636	0.003335
 625	3.1200e-01	6.2378	3.159723	0.000060	0.598915	0.101459	0.001197
 626	3.1250e-01	6.2451	3.192650	0.000329	3.294034	0.558024	0.006585
 627	3.1300e-01	6.2573	3.218735	0.000261	2.609559	0.442071	0.005217
 628	3.1350e-01	6.2674	3.223867	0.000051	0.513356	0.086965	0.001026
 629	3.1400e-01	6.2784	3.252518	0.000287	2.866237	0.485554	0.005730
 630	3.1450e-01	6.2866	3.257649	0.000051	0.513356	0.086965	0.001026
 631	3.1500e-01	6.3022	3.274754	0.000171	1.711187	0.289883	0.003421
 632	3.1550e-01	6.3055	3.270050	-0.000047	-0.470576	-0.079718	-0.000941
 633	3.1600e-01	6.3165	3.335050	0.000650	6.502509	1.101555	0.013000
 634	3.1650e-01	6.3269	3.325642	-0.000094	-0.941153	-0.159436	-0.001882
 635	3.1700e-01	6.3373	3.335905	0.000103	1.026712	0.173930	0.002053
 636	3.1750e-01	6.3470	3.358997	0.000231	2.310102	0.391342	0.004618
 637	3.1800e-01	6.3596	3.391924	0.000329	3.294034	0.558024	0.006585
 638	3.1850e-01	6.3669	3.418009	0.000261	2.609559	0.442071	0.005217
 639	3.1900e-01	6.3770	3.437252	0.000193	1.925085	0.326118	0.003849
 640	3.1950e-01	6.3858	3.453929	0.000167	1.668407	0.282636	0.003335
 641	3.2000e-01	6.3989	3.471890	0.000180	1.796746	0.304377	0.003592
 642	3.2050e-01	6.4063	3.478304	0.000064	0.641695	0.108706	0.001283
 643	3.2100e-01	6.4160	3.514225	0.000359	3.593492	0.608754	0.007184
 644	3.2150e-01	6.4247	3.533468	0.000193	1.925085	0.326118	0.003849
 645	3.2200e-01	6.4365	3.553566	0.000201	2.010644	0.340612	0.004020
 646	3.2250e-01	6.4465	3.563401	0.000098	0.983932	0.166683	0.001967
 647	3.2300e-01	6.4563	3.583927	0.000205	2.053424	0.347859	0.004105
 648	3.2350e-01	6.4648	3.600605	0.000167	1.668407	0.282636	0.003335
 649	3.2400e-01	6.4777	3.621986	0.000214	2.138983	0.362354	0.004276
 650	3.2450e-01	6.4856	3.636953	0.000150	1.497288	0.253647	0.002993
 651	3.2500e-01	6.4978	3.660900	0.000240	2.395661	0.405836	0.004789
 652	3.2550e-01	6.5048	3.678860	0.000180	1.796746	0.304377	0.003592
 653	3.2600e-01	6.5167	3.701952	0.000231	2.310102	0.391342	0.004618
 654	3.2650e-01	6.5247	3.706228	0.000043	0.427797	0.072471	0.000855
 655	3.2700e-01	6.5363	3.733596	0.000274	2.737898	0.463813	0.005474
 656	3.2750e-01	6.5471	3.756260	0.000227	2.267322	0.384095	0.004533
 657	3.2800e-01	6.5561	3.771655	0.000154	1.540068	0.260895	0.003079
 658	3.2850e-01	6.5643	3.793464	0.000218	2.181763	0.369601	0.004362
 659	3.2900e-01	6.5765	3.817838	0.000244	2.438441	0.413083	0.004875
 660	3.2950e-01	6.5875	3.823825	0.000060	0.598915	0.101459	0.001197
 661	3.3000e-01	6.5967	3.845634	0.000218	2.181763	0.369601	0.004362
 662	3.3050e-01	6.6090	3.872574	0.000270	2.695119	0.456565	0.005388
 663	3.3100e-01	6.6162	3.881982	0.000094	0.941153	0.159436	0.001882
 664	3.3150e-01	6.6260	3.902508	0.000205	2.053424	0.347859	0.004105
 665	3.3200e-01	6.6382	3.912344	0.000098	0.983932	0.166683	0.001967
 666	3.3250e-01	6.6455	3.943133	0.000308	3.080136	0.521789	0.006158
 667	3.3300e-01	6.6547	3.958955	0.000158	1.582848	0.268142	0.003164
 668	3.3350e-01	6.6647	3.985468	0.000265	2.652339	0.449318	0.005303
 669	3.3400e-01	6.6768	3.997013	0.000116	1.155051	0.195671	0.002309
 670	3.3450e-01	6.6876	4.014974	0.000180	1.796746	0.304377	0.003592
 671	3.3500e-01	6.6940	4.035072	0.000201	2.010644	0.340612	0.004020
 672	3.3550e-01	6.7075	4.057736	0.000227	2.267322	0.384095	0.004533
 673	3.3600e-01	6.7169	4.083394	0.000257	2.566780	0.434824	0.005132
 674	3.3650e-01	6.7250	4.091946	0.000086	0.855593	0.144941	0.001711
 675	3.3700e-01	6.7389	4.116749	0.000248	2.481220	0.420330	0.004960
 676	3.3750e-01	6.7456	4.126156	0.000094	0.941153	0.159436	0.001882
 677	3.3800e-01	6.7578	4.135564	0.000094	0.941153	0.159436	0.001882
 678	3.3850e-01	6.7651	4.161222	0.000257	2.566780	0.434824	0.005132
 679	3.3900e-01	6.7773	4.183886	0.000227	2.267322	0.384095	0.004533
 680	3.3950e-01	6.7868	4.203556	0.000197	1.967864	0.333365	0.003934
 681	3.4000e-01	6.7950	4.230924	0.000274	2.737898	0.463813	0.005474
 682	3.4050e-01	6.8066	4.244181	0.000133	1.326170	0.224659	0.002651
 683	3.4100e-01	6.8152	4.262141	0.000180	1.796746	0.304377	0.003592
 684	3.4150e-01	6.8274	4.293785	0.000317	3.165695	0.536283	0.006329
 685	3.4200e-01	6.8365	4.291220	-0.000026	-0.256678	-0.043482	-0.000513
 686	3.4250e-01	6.8463	4.327140	0.000359	3.593492	0.608754	0.007184
 687	3.4300e-01	6.8561	4.326285	-0.000009	-0.085559	-0.014494	-0.000171
 688	3.4350e-01	6.8665	4.343390	0.000171	1.711187	0.289883	0.003421
 689	3.4400e-01	6.8774	4.365626	0.000222	2.224542	0.376848	0.004447
 690	3.4450e-01	6.8872	4.390001	0.000244	2.438441	0.413083	0.004875
 691	3.4500e-01	6.8970	4.406251	0.000163	1.625627	0.275389	0.003250
 692	3.4550e-01	6.9080	4.422501	0.000163	1.625627	0.275389	0.003250
 693	3.4600e-01	6.9183	4.429770	0.000073	0.727254	0.123200	0.001454
 694	3.4650e-01	6.9269	4.464835	0.000351	3.507932	0.594260	0.007013
 695	3.4700e-01	6.9379	4.466546	0.000017	0.171119	0.028988	0.000342
 696	3.4750e-01	6.9464	4.490493	0.000240	2.395661	0.405836	0.004789
 697	3.4800e-01	6.9547	4.536677	0.000462	4.620204	0.782684	0.009237
 698	3.4850e-01	6.9672	4.526414	-0.000103	-1.026712	-0.173930	-0.002053
 699	3.4900e-01	6.9757	4.549078	0.000227	2.267322	0.384095	0.004533
 700	3.4950e-01	6.9861	4.566183	0.000171	1.711187	0.289883	0.003421
 701	3.5000e-01	6.9928	4.603386	0.000372	3.721831	0.630495	0.007441
 702	3.5050e-01	7.0050	4.599965	-0.000034	-0.342237	-0.057977	-0.000684
 703	3.5100e-01	7.0184	4.619636	0.000197	1.967864	0.333365	0.003934
 704	3.5150e-01	7.0267	4.629044	0.000094	0.941153	0.159436	0.001882
 705	3.5200e-01	7.0361	4.680359	0.000513	5.133560	0.869649	0.010263
 706	3.5250e-01	7.0459	4.689766	0.000094	0.941153	0.159436	0.001882
 707	3.5300e-01	7.0557	4.706871	0.000171	1.711187	0.289883	0.003421
 708	3.5350e-01	7.0660	4.722694	0.000158	1.582848	0.268142	0.003164
 709	3.5400e-01	7.0782	4.747496	0.000248	2.481220	0.420330	0.004960
 710	3.5450e-01	7.0862	4.742792	-0.000047	-0.470576	-0.079718	-0.000941
 711	3.5500e-01	7.0953	4.775719	0.000329	3.294034	0.558024	0.006585
 712	3.5550e-01	7.1063	4.791541	0.000158	1.582848	0.268142	0.003164
 713	3.5600e-01	7.1167	4.809929	0.000184	1.839525	0.311624	0.003678
 714	3.5650e-01	7.1228	4.845850	0.000359	3.593492	0.608754	0.007184
 715	3.5700e-01	7.1366	4.843284	-0.000026	-0.256678	-0.043482	-0.000513
 716	3.5750e-01	7.1457	4.865520	0.000222	2.224542	0.376848	0.004447
 717	3.5800e-01	7.1570	4.873218	0.000077	0.770034	0.130447	0.001539
 718	3.5850e-01	7.1661	4.905290	0.000321	3.208475	0.543530	0.006414
 719	3.5900e-01	7.1759	4.915125	0.000098	0.983932	0.166683	0.001967
 720	3.5950e-01	7.1860	4.943776	0.000287	2.866237	0.485554	0.005730
 721	3.6000e-01	7.1939	4.969006	0.000252	2.524000	0.427577	0.005046
 722	3.6050e-01	7.2037	4.973710	0.000047	0.470576	0.079718	0.000941
 723	3.6100e-01	7.2151	4.991242	0.000175	1.753966	0.297130	0.003507
 724	3.6150e-01	7.2253	5.013479	0.000222	2.224542	0.376848	0.004447
 725	3.6200e-01	7.2372	5.037426	0.000240	2.395661	0.405836	0.004789
 726	3.6250e-01	7.2479	5.051110	0.000137	1.368949	0.231906	0.002737
 727	3.6300e-01	7.2577	5.058379	0.000073	0.727254	0.123200	0.001454
 728	3.6350e-01	7.2662	5.084465	0.000261	2.609559	0.442071	0.005217
 729	3.6400e-01	7.2754	5.108839	0.000244	2.438441	0.413083	0.004875
 730	3.6450e-01	7.2870	5.121240	0.000124	1.240610	0.210165	0.002480
 731	3.6500e-01	7.2937	5.150746	0.000295	2.951797	0.500048	0.005901
 732	3.6550e-01	7.3041	5.164430	0.000137	1.368949	0.231906	0.002737
 733	3.6600e-01	7.3154	5.175976	0.000116	1.155051	0.195671	0.002309
 734	3.6650e-01	7.3276	5.197358	0.000214	2.138983	0.362354	0.004276
 735	3.6700e-01	7.3361	5.213607	0.000163	1.625627	0.275389	0.003250
 736	3.6750e-01	7.3462	5.232850	0.000193	1.925085	0.326118	0.003849
 737	3.6800e-01	7.3553	5.257225	0.000244	2.438441	0.413083	0.004875
 738	3.6850e-01	7.3663	5.276041	0.000188	1.882305	0.318871	0.003763
 739	3.6900e-01	7.3761	5.283310	0.000073	0.727254	0.123200	0.001454
 740	3.6950e-01	7.3877	5.287159	0.000039	0.385017	0.065224	0.000770
 741	3.7000e-01	7.3969	5.315810	0.000287	2.866237	0.485554	0.005730
 742	3.7050e-01	7.4060	5.344033	0.000282	2.823458	0.478307	0.005645
 743	3.7100e-01	7.4152	5.351730	0.000077	0.770034	0.130447	0.001539
 744	3.7150e-01	7.4292	5.368835	0.000171	1.711187	0.289883	0.003421
 745	3.7200e-01	7.4359	5.404756	0.000359	3.593492	0.608754	0.007184
 746	3.7250e-01	7.4481	5.419723	0.000150	1.497288	0.253647	0.002993
 747	3.7300e-01	7.4567	5.431269	0.000116	1.155051	0.195671	0.002309
 748	3.7350e-01	7.4677	5.444525	0.000133	1.326170	0.224659	0.002651
 749	3.7400e-01	7.4747	5.472321	0.000278	2.780678	0.471060	0.005559
 750	3.7450e-01	7.4896	5.486432	0.000141	1.411729	0.239153	0.002822
 751	3.7500e-01	7.4942	5.522353	0.000359	3.593492	0.608754	0.007184
 752	3.7550e-01	7.5043	5.516794	-0.000056	-0.556136	-0.094212	-0.001112
 753	3.7600e-01	7.5146	5.544162	0.000274	2.737898	0.463813	0.005474
 754	3.7650e-01	7.5269	5.576661	0.000325	3.251254	0.550777	0.006500
 755	3.7700e-01	7.5360	5.585641	0.000090	0.898373	0.152188	0.001796
 756	3.7750e-01	7.5452	5.600608	0.000150	1.497288	0.253647	0.002993
 757	3.7800e-01	7.5562	5.629259	0.000287	2.866237	0.485554	0.005730
 758	3.7850e-01	7.5665	5.624983	-0.000043	-0.427797	-0.072471	-0.000855
 759	3.7900e-01	7.5745	5.654917	0.000299	2.994576	0.507295	0.005987
 760	3.7950e-01	7.5842	5.673305	0.000184	1.839525	0.311624	0.003678
 761	3.8000e-01	7.5977	5.701528	0.000282	2.823458	0.478307	0.005645
 762	3.8050e-01	7.6056	5.722909	0.000214	2.138983	0.362354	0.004276
 763	3.8100e-01	7.6135	5.720771	-0.000021	-0.213898	-0.036235	-0.000428
 764	3.8150e-01	7.6251	5.739586	0.000188	1.882305	0.318871	0.003763
 765	3.8200e-01	7.6376	5.759257	0.000197	1.967864	0.333365	0.003934
 766	3.8250e-01	7.6459	5.769948	0.000107	1.069492	0.181177	0.002138
 767	3.8300e-01	7.6556	5.803730	0.000338	3.379593	0.572519	0.006756
 768	3.8350e-01	7.6678	5.824256	0.000205	2.053424	0.347859	0.004105
 769	3.8400e-01	7.6770	5.837940	0.000137	1.368949	0.231906	0.002737
 770	3.8450e-01	7.6843	5.852052	0.000141	1.411729	0.239153	0.002822
 771	3.8500e-01	7.6978	5.881986	0.000299	2.994576	0.507295	0.005987
 772	3.8550e-01	7.7087	5.887117	0.000051	0.513356	0.086965	0.001026
 773	3.8600e-01	7.7164	5.899946	0.000128	1.283390	0.217412	0.002566
 774	3.8650e-01	7.7246	5.935439	0.000355	3.550712	0.601507	0.007099
 775	3.8700e-01	7.7368	5.944419	0.000090	0.898373	0.152188	0.001796
 776	3.8750e-01	7.7448	5.964945	0.000205	2.053424	0.347859	0.004105
 777	3.8800e-01	7.7570	5.975208	0.000103	1.026712	0.173930	0.002053
 778	3.8850e-01	7.7649	6.005142	0.000299	2.994576	0.507295	0.005987
 779	3.8900e-01	7.7753	6.028233	0.000231	2.310102	0.391342	0.004618
 780	3.8950e-01	7.7844	6.048760	0.000205	2.053424	0.347859	0.004105
 781	3.9000e-01	7.7966	6.068003	0.000193	1.925085	0.326118	0.003849
 782	3.9050e-01	7.8058	6.073134	0.000051	0.513356	0.086965	0.001026
 783	3.9100e-01	7.8149	6.112048	0.000389	3.892949	0.659483	0.007783
 784	3.9150e-01	7.8250	6.122311	0.000103	1.026712	0.173930	0.002053
 785	3.9200e-01	7.8369	6.130436	0.000081	0.812814	0.137694	0.001625
 786	3.9250e-01	7.8464	6.140699	0.000103	1.026712	0.173930	0.002053
 787	3.9300e-01	7.8546	6.162508	0.000218	2.181763	0.369601	0.004362
 788	3.9350e-01	7.8687	6.189876	0.000274	2.737898	0.463813	0.005474
 789	3.9400e-01	7.8766	6.189876	0.000000	0.000000	0.000000	0.000000
 790	3.9450e-01	7.8851	6.217244	0.000274	2.737898	0.463813	0.005474
 791	3.9500e-01	7.8949	6.243329	0.000261	2.609559	0.442071	0.005217
 792	3.9550e-01	7.9071	6.259151	0.000158	1.582848	0.268142	0.003164
 793	3.9600e-01	7.9156	6.269842	0.000107	1.069492	0.181177	0.002138
 794	3.9650e-01	7.9272	6.300203	0.000304	3.037356	0.514542	0.006072
 795	3.9700e-01	7.9358	6.307473	0.000073	0.727254	0.123200	0.001454
 796	3.9750e-01	7.9431	6.317308	0.000098	0.983932	0.166683	0.001967
 797	3.9800e-01	7.9572	6.349380	0.000321	3.208475	0.543530	0.006414
 798	3.9850e-01	7.9657	6.357077	0.000077	0.770034	0.130447	0.001539
 799	3.9900e-01	7.9758	6.389149	0.000321	3.208475	0.543530	0.006414
 800	3.9950e-01	7.9846	6.393853	0.000047	0.470576	0.079718	0.000941
 801	4.0000e-01	7.9968	6.422076	0.000282	2.823458	0.478307	0.005645
 802	4.0050e-01	8.0042	6.444741	0.000227	2.267322	0.384095	0.004533
 803	4.0100e-01	8.0164	6.458425	0.000137	1.368949	0.231906	0.002737
 804	4.0150e-01	8.0270	6.469543	0.000111	1.112271	0.188424	0.002224
 805	4.0200e-01	8.0365	6.490924	0.000214	2.138983	0.362354	0.004276
 806	4.0250e-01	8.0469	6.506319	0.000154	1.540068	0.260895	0.003079
 807	4.0300e-01	8.0554	6.525562	0.000193	1.925085	0.326118	0.003849
 808	4.0350e-01	8.0676	6.536680	0.000111	1.112271	0.188424	0.002224
 809	4.0400e-01	8.0762	6.555068	0.000184	1.839525	0.311624	0.003678
 810	4.0450e-01	8.0869	6.576449	0.000214	2.138983	0.362354	0.004276
 811	4.0500e-01	8.0969	6.604672	0.000282	2.823458	0.478307	0.005645
 812	4.0550e-01	8.1055	6.612797	0.000081	0.812814	0.137694	0.001625
 813	4.0600e-01	8.1171	6.626054	0.000133	1.326170	0.224659	0.002651
 814	4.0650e-01	8.1256	6.648290	0.000222	2.224542	0.376848	0.004447
 815	4.0700e-01	8.1372	6.685494	0.000372	3.721831	0.630495	0.007441
 816	4.0750e-01	8.1451	6.697039	0.000116	1.155051	0.195671	0.002309
 817	4.0800e-01	8.1555	6.721842	0.000248	2.481220	0.420330	0.004960
 818	4.0850e-01	8.1665	6.732532	0.000107	1.069492	0.181177	0.002138
 819	4.0900e-01	8.1769	6.742368	0.000098	0.983932	0.166683	0.001967
 820	4.0950e-01	8.1854	6.764604	0.000222	2.224542	0.376848	0.004447
 821	4.1000e-01	8.1978	6.776150	0.000116	1.155051	0.195671	0.002309
 822	4.1050e-01	8.2050	6.792827	0.000167	1.668407	0.282636	0.003335
 823	4.1100e-01	8.2161	6.811643	0.000188	1.882305	0.318871	0.003763
 824	4.1150e-01	8.2257	6.842432	0.000308	3.080136	0.521789	0.006158
 825	4.1200e-01	8.2361	6.860820	0.000184	1.839525	0.311624	0.003678
 826	4.1250e-01	8.2477	6.866807	0.000060	0.598915	0.101459	0.001197
 827	4.1300e-01	8.2562	6.891181	0.000244	2.438441	0.413083	0.004875
 828	4.1350e-01	8.2654	6.904865	0.000137	1.368949	0.231906	0.002737
 829	4.1400e-01	8.2745	6.935227	0.000304	3.037356	0.514542	0.006072
 830	4.1450e-01	8.2855	6.947200	0.000120	1.197831	0.202918	0.002395
 831	4.1500e-01	8.2948	6.971147	0.000240	2.395661	0.405836	0.004789
 832	4.1550e-01	8.3063	6.991246	0.000201	2.010644	0.340612	0.004020
 833	4.1600e-01	8.3142	7.001081	0.000098	0.983932	0.166683	0.001967
 834	4.1650e-01	8.3240	7.011772	0.000107	1.069492	0.181177	0.002138
 835	4.1700e-01	8.3356	7.040850	0.000291	2.909017	0.492801	0.005816
 836	4.1750e-01	8.3490	7.049830	0.000090	0.898373	0.152188	0.001796
 837	4.1800e-01	8.3572	7.063942	0.000141	1.411729	0.239153	0.002822
 838	4.1850e-01	8.3661	7.089599	0.000257	2.566780	0.434824	0.005132
 839	4.1900e-01	8.3774	7.104994	0.000154	1.540068	0.260895	0.003079
 840	4.1950e-01	8.3887	7.125520	0.000205	2.053424	0.347859	0.004105
 841	4.2000e-01	8.3966	7.145618	0.000201	2.010644	0.340612	0.004020
 842	4.2050e-01	8.4064	7.169993	0.000244	2.438441	0.413083	0.004875
 843	4.2100e-01	8.4145	7.170421	0.000004	0.042780	0.007247	0.000086
 844	4.2150e-01	8.4253	7.198216	0.000278	2.780678	0.471060	0.005559
 845	4.2200e-01	8.4363	7.223019	0.000248	2.481220	0.420330	0.004960
 846	4.2250e-01	8.4467	7.222163	-0.000009	-0.085559	-0.014494	-0.000171
 847	4.2300e-01	8.4583	7.257656	0.000355	3.550712	0.601507	0.007099
 848	4.2350e-01	8.4650	7.257229	-0.000004	-0.042780	-0.007247	-0.000086
 849	4.2400e-01	8.4760	7.299991	0.000428	4.277966	0.724707	0.008553
 850	4.2450e-01	8.4888	7.309826	0.000098	0.983932	0.166683	0.001967
 851	4.2500e-01	8.4949	7.318379	0.000086	0.855593	0.144941	0.001711
 852	4.2550e-01	8.5065	7.334201	0.000158	1.582848	0.268142	0.003164
 853	4.2600e-01	8.5181	7.356865	0.000227	2.267322	0.384095	0.004533
 854	4.2650e-01	8.5275	7.382523	0.000257	2.566780	0.434824	0.005132
 855	4.2700e-01	8.5352	7.383806	0.000013	0.128339	0.021741	0.000257
 856	4.2750e-01	8.5461	7.400055	0.000163	1.625627	0.275389	0.003250
 857	4.2800e-01	8.5571	7.437686	0.000376	3.764610	0.637742	0.007526
 858	4.2850e-01	8.5675	7.449660	0.000120	1.197831	0.202918	0.002395
 859	4.2900e-01	8.5748	7.471469	0.000218	2.181763	0.369601	0.004362
 860	4.2950e-01	8.5846	7.493705	0.000222	2.224542	0.376848	0.004447
 861	4.3000e-01	8.5962	7.503113	0.000094	0.941153	0.159436	0.001882
 862	4.3050e-01	8.6047	7.526205	0.000231	2.310102	0.391342	0.004618
 863	4.3100e-01	8.6163	7.540744	0.000145	1.454509	0.246400	0.002908
 864	4.3150e-01	8.6243	7.569395	0.000287	2.866237	0.485554	0.005730
 865	4.3200e-01	8.6346	7.568967	-0.000004	-0.042780	-0.007247	-0.000086
 866	4.3250e-01	8.6462	7.575809	0.000068	0.684475	0.115953	0.001368
 867	4.3300e-01	8.6569	7.617289	0.000415	4.149627	0.702966	0.008296
 868	4.3350e-01	8.6664	7.624986	0.000077	0.770034	0.130447	0.001539
 869	4.3400e-01	8.6768	7.647650	0.000227	2.267322	0.384095	0.004533
 870	4.3450e-01	8.6871	7.662190	0.000145	1.454509	0.246400	0.002908
 871	4.3500e-01	8.6975	7.663473	0.000013	0.128339	0.021741	0.000257
 872	4.3550e-01	8.7067	7.716926	0.000535	5.347458	0.905884	0.010691
 873	4.3600e-01	8.7154	7.720774	0.000039	0.385017	0.065224	0.000770
 874	4.3650e-01	8.7262	7.747287	0.000265	2.652339	0.449318	0.005303
 875	4.3700e-01	8.7384	7.760543	0.000133	1.326170	0.224659	0.002651
 876	4.3750e-01	8.7457	7.774227	0.000137	1.368949	0.231906	0.002737
 877	4.3800e-01	8.7604	7.799457	0.000252	2.524000	0.427577	0.005046
 878	4.3850e-01	8.7653	7.814852	0.000154	1.540068	0.260895	0.003079
 879	4.3900e-01	8.7756	7.839227	0.000244	2.438441	0.413083	0.004875
 880	4.3950e-01	8.7888	7.848634	0.000094	0.941153	0.159436	0.001882
 881	4.4000e-01	8.7970	7.855476	0.000068	0.684475	0.115953	0.001368
 882	4.4050e-01	8.8074	7.877285	0.000218	2.181763	0.369601	0.004362
 883	4.4100e-01	8.8153	7.893963	0.000167	1.668407	0.282636	0.003335
 884	4.4150e-01	8.8281	7.894818	0.000009	0.085559	0.014494	0.000171
 885	4.4200e-01	8.8361	7.946988	0.000522	5.219119	0.884143	0.010434
 886	4.4250e-01	8.8464	7.959817	0.000128	1.283390	0.217412	0.002566
 887	4.4300e-01	8.8556	7.971790	0.000120	1.197831	0.202918	0.002395
 888	4.4350e-01	8.8702	7.987613	0.000158	1.582848	0.268142	0.003164
 889	4.4400e-01	8.8788	8.000014	0.000124	1.240610	0.210165	0.002480
 890	4.4450e-01	8.8879	8.016691	0.000167	1.668407	0.282636	0.003335
 891	4.4500e-01	8.8959	8.039355	0.000227	2.267322	0.384095	0.004533
 892	4.4550e-01	8.9026	8.079124	0.000398	3.978509	0.673978	0.007954
 893	4.4600e-01	8.9163	8.070144	-0.000090	-0.898373	-0.152188	-0.001796
 894	4.4650e-01	8.9246	8.097512	0.000274	2.737898	0.463813	0.005474
 895	4.4700e-01	8.9355	8.118893	0.000214	2.138983	0.362354	0.004276
 896	4.4750e-01	8.9471	8.120176	0.000013	0.128339	0.021741	0.000257
 897	4.4800e-01	8.9571	8.138992	0.000188	1.882305	0.318871	0.003763
 898	4.4850e-01	8.9645	8.161656	0.000227	2.267322	0.384095	0.004533
 899	4.4900e-01	8.9780	8.189879	0.000282	2.823458	0.478307	0.005645
 900	4.4950e-01	8.9868	8.183893	-0.000060	-0.598915	-0.101459	-0.001197
 901	4.5000e-01	8.9975	8.233497	0.000496	4.962441	0.840660	0.009921
 902	4.5050e-01	9.0076	8.232214	-0.000013	-0.128339	-0.021741	-0.000257
 903	4.5100e-01	9.0149	8.251030	0.000188	1.882305	0.318871	0.003763
 904	4.5150e-01	9.0247	8.273266	0.000222	2.224542	0.376848	0.004447
 905	4.5200e-01	9.0356	8.297641	0.000244	2.438441	0.413083	0.004875
 906	4.5250e-01	9.0491	8.308759	0.000111	1.112271	0.188424	0.002224
 907	4.5300e-01	9.0570	8.322443	0.000137	1.368949	0.231906	0.002737
 908	4.5350e-01	9.0656	8.343824	0.000214	2.138983	0.362354	0.004276
 909	4.5400e-01	9.0741	8.375041	0.000312	3.122915	0.529036	0.006243
 910	4.5450e-01	9.0878	8.374613	-0.000004	-0.042780	-0.007247	-0.000086
 911	4.5500e-01	9.0964	8.387870	0.000133	1.326170	0.224659	0.002651
 912	4.5550e-01	9.1058	8.421225	0.000334	3.336814	0.565272	0.006671
 913	4.5600e-01	9.1132	8.445172	0.000240	2.395661	0.405836	0.004789
 914	4.5650e-01	9.1272	8.467408	0.000222	2.224542	0.376848	0.004447
 915	4.5700e-01	9.1406	8.468691	0.000013	0.128339	0.021741	0.000257
 916	4.5750e-01	9.1461	8.481520	0.000128	1.283390	0.217412	0.002566
 917	4.5800e-01	9.1565	8.499480	0.000180	1.796746	0.304377	0.003592
 918	4.5850e-01	9.1669	8.526848	0.000274	2.737898	0.463813	0.005474
 919	4.5900e-01	9.1769	8.561486	0.000347	3.465153	0.587013	0.006928
 920	4.5950e-01	9.1864	8.569183	0.000077	0.770034	0.130447	0.001539
 921	4.6000e-01	9.1914	8.582439	0.000133	1.326170	0.224659	0.002651
 922	4.6050e-01	9.2072	8.601682	0.000193	1.925085	0.326118	0.003849
 923	4.6100e-01	9.2151	8.619643	0.000180	1.796746	0.304377	0.003592
 924	4.6150e-01	9.2255	8.628623	0.000090	0.898373	0.152188	0.001796
 925	4.6200e-01	9.2355	8.650859	0.000222	2.224542	0.376848	0.004447
 926	4.6250e-01	9.2468	8.670102	0.000193	1.925085	0.326118	0.003849
 927	4.6300e-01	9.2572	8.684642	0.000145	1.454509	0.246400	0.002908
 928	4.6350e-01	9.2633	8.700036	0.000154	1.540068	0.260895	0.003079
 929	4.6400e-01	9.2755	8.722700	0.000227	2.267322	0.384095	0.004533
 930	4.6450e-01	9.2847	8.756910	0.000342	3.422373	0.579766	0.006842
 931	4.6500e-01	9.2981	8.759476	0.000026	0.256678	0.043482	0.000513
 932	4.6550e-01	9.3060	8.779575	0.000201	2.010644	0.340612	0.004020
 933	4.6600e-01	9.3164	8.800528	0.000210	2.096203	0.355106	0.004191
 934	4.6650e-01	9.3253	8.811646	0.000111	1.112271	0.188424	0.002224
 935	4.6700e-01	9.3341	8.854837	0.000432	4.320746	0.731954	0.008638
 936	4.6750e-01	9.3457	8.847139	-0.000077	-0.770034	-0.130447	-0.001539
 937	4.6800e-01	9.3600	8.870659	0.000235	2.352881	0.398589	0.004704
 938	4.6850e-01	9.3701	8.876218	0.000056	0.556136	0.094212	0.001112
 939	4.6900e-01	9.3750	8.896744	0.000205	2.053424	0.347859	0.004105
 940	4.6950e-01	9.3848	8.917697	0.000210	2.096203	0.355106	0.004191
 941	4.7000e-01	9.3915	8.936941	0.000193	1.925085	0.326118	0.003849
 942	4.7050e-01	9.4055	8.969013	0.000321	3.208475	0.543530	0.006414
 943	4.7100e-01	9.4159	8.964736	-0.000043	-0.427797	-0.072471	-0.000855
 944	4.7150e-01	9.4238	8.995953	0.000312	3.122915	0.529036	0.006243
 945	4.7200e-01	9.4336	9.028025	0.000321	3.208475	0.543530	0.006414
 946	4.7250e-01	9.4452	9.036150	0.000081	0.812814	0.137694	0.001625
 947	4.7300e-01	9.4589	9.044702	0.000086	0.855593	0.144941	0.001711
 948	4.7350e-01	9.4647	9.053682	0.000090	0.898373	0.152188	0.001796
 949	4.7400e-01	9.4766	9.082761	0.000291	2.909017	0.492801	0.005816
 950	4.7450e-01	9.4876	9.094734	0.000120	1.197831	0.202918	0.002395
 951	4.7500e-01	9.4946	9.108846	0.000141	1.411729	0.239153	0.002822
 952	4.7550e-01	9.5062	9.140918	0.000321	3.208475	0.543530	0.006414
 953	4.7600e-01	9.5181	9.158878	0.000180	1.796746	0.304377	0.003592
 954	4.7650e-01	9.5251	9.172990	0.000141	1.411729	0.239153	0.002822
 955	4.7700e-01	9.5364	9.191805	0.000188	1.882305	0.318871	0.003763
 956	4.7750e-01	9.5465	9.203351	0.000116	1.155051	0.195671	0.002309
 957	4.7800e-01	9.5538	9.237561	0.000342	3.422373	0.579766	0.006842
 958	4.7850e-01	9.5645	9.241837	0.000043	0.427797	0.072471	0.000855
 959	4.7900e-01	9.5764	9.263219	0.000214	2.138983	0.362354	0.004276
 960	4.7950e-01	9.5862	9.288021	0.000248	2.481220	0.420330	0.004960
 961	4.8000e-01	9.5959	9.290587	0.000026	0.256678	0.043482	0.000513
 962	4.8050e-01	9.6051	9.320093	0.000295	2.951797	0.500048	0.005901
 963	4.8100e-01	9.6161	9.326935	0.000068	0.684475	0.115953	0.001368
 964	4.8150e-01	9.6265	9.358152	0.000312	3.122915	0.529036	0.006243
 965	4.8200e-01	9.6344	9.379533	0.000214	2.138983	0.362354	0.004276
 966	4.8250e-01	9.6448	9.378678	-0.000009	-0.085559	-0.014494	-0.000171
 967	4.8300e-01	9.6552	9.407328	0.000287	2.866237	0.485554	0.005730
 968	4.8350e-01	9.6655	9.429565	0.000222	2.224542	0.376848	0.004447
 969	4.8400e-01	9.6741	9.437262	0.000077	0.770034	0.130447	0.001539
 970	4.8450e-01	9.6826	9.465913	0.000287	2.866237	0.485554	0.005730
 971	4.8500e-01	9.6942	9.486439	0.000205	2.053424	0.347859	0.004105
 972	4.8550e-01	9.7052	9.500123	0.000137	1.368949	0.231906	0.002737
 973	4.8600e-01	9.7150	9.511241	0.000111	1.112271	0.188424	0.002224
 974	4.8650e-01	9.7247	9.540748	0.000295	2.951797	0.500048	0.005901
 975	4.8700e-01	9.7339	9.550583	0.000098	0.983932	0.166683	0.001967
 976	4.8750e-01	9.7461	9.568543	0.000180	1.796746	0.304377	0.003592
 977	4.8800e-01	9.7577	9.578379	0.000098	0.983932	0.166683	0.001967
 978	4.8850e-01	9.7638	9.604036	0.000257	2.566780	0.434824	0.005132
 979	4.8900e-01	9.7742	9.624134	0.000201	2.010644	0.340612	0.004020
 980	4.8950e-01	9.7839	9.652358	0.000282	2.823458	0.478307	0.005645
 981	4.9000e-01	9.7974	9.654068	0.000017	0.171119	0.028988	0.000342
 982	4.9050e-01	9.8050	9.679726	0.000257	2.566780	0.434824	0.005132
 983	4.9100e-01	9.8145	9.699396	0.000197	1.967864	0.333365	0.003934
 984	4.9150e-01	9.8242	9.713936	0.000145	1.454509	0.246400	0.002908
 985	4.9200e-01	9.8340	9.732324	0.000184	1.839525	0.311624	0.003678
 986	4.9250e-01	9.8438	9.745152	0.000128	1.283390	0.217412	0.002566
 987	4.9300e-01	9.8566	9.781928	0.000368	3.679051	0.623248	0.007355
 988	4.9350e-01	9.8651	9.784922	0.000030	0.299458	0.050729	0.000599
 989	4.9400e-01	9.8767	9.805448	0.000205	2.053424	0.347859	0.004105
 990	4.9450e-01	9.8865	9.819987	0.000145	1.454509	0.246400	0.002908
 991	4.9500e-01	9.8941	9.835809	0.000158	1.582848	0.268142	0.003164
 992	4.9550e-01	9.9042	9.859328	0.000235	2.352881	0.398589	0.004704
 993	4.9600e-01	9.9176	9.882848	0.000235	2.352881	0.398589	0.004704
 994	4.9650e-01	9.9261	9.875578	-0.000073	-0.727254	-0.123200	-0.001454
 995	4.9700e-01	9.9329	9.909360	0.000338	3.379593	0.572519	0.006756
 996	4.9750e-01	9.9451	9.926893	0.000175	1.753966	0.297130	0.003507
 997	4.9800e-01	9.9536	9.945281	0.000184	1.839525	0.311624	0.003678
 998	4.9850e-01	9.9667	9.967090	0.000218	2.181763	0.369601	0.004362
 999	4.9900e-01	9.9744	9.987616	0.000205	2.053424	0.347859	0.004105
1000	4.9950e-01	9.9841	10.001728	0.000141	1.411729	0.239153	0.002822
1001	5.0000e-01	9.9921	10.041924	0.000402	4.021288	0.681225	0.008039
1002	5.0050e-01	9.9869	9.988899	0.000530	5.304678	0.898637	-0.010605
1003	5.0100e-01	9.9768	9.978636	0.000103	1.026712	0.173930	-0.002053
1004	5.0150e-01	9.9652	9.985050	-0.000064	-0.641695	-0.108706	0.001283
1005	5.0200e-01	9.9548	9.955116	0.000299	2.994576	0.507295	-0.005987
1006	5.0250e-01	9.9438	9.959393	-0.000043	-0.427797	-0.072471	0.000855
1007	5.0300e-01	9.9365	9.941432	0.000180	1.796746	0.304377	-0.003592
1008	5.0350e-01	9.9243	9.908505	0.000329	3.294034	0.558024	-0.006585
1009	5.0400e-01	9.9139	9.913637	-0.000051	-0.513356	-0.086965	0.001026
1010	5.0450e-01	9.9066	9.887979	0.000257	2.566780	0.434824	-0.005132
1011	5.0500e-01	9.8944	9.887979	-0.000000	-0.000000	-0.000000	0.000000
1012	5.0550e-01	9.8853	9.867881	0.000201	2.010644	0.340612	-0.004020
1013	5.0600e-01	9.8761	9.850348	0.000175	1.753966	0.297130	-0.003507
1014	5.0650e-01	9.8657	9.833671	0.000167	1.668407	0.282636	-0.003335
1015	5.0700e-01	9.8553	9.834526	-0.000009	-0.085559	-0.014494	0.000171
1016	5.0750e-01	9.8462	9.820414	0.000141	1.411729	0.239153	-0.002822
1017	5.0800e-01	9.8358	9.784494	0.000359	3.593492	0.608754	-0.007184
1018	5.0850e-01	9.8248	9.782783	0.000017	0.171119	0.028988	-0.000342
1019	5.0900e-01	9.8149	9.762257	0.000205	2.053424	0.347859	-0.004105
1020	5.0950e-01	9.8035	9.745580	0.000167	1.668407	0.282636	-0.003335
1021	5.1000e-01	9.7961	9.734889	0.000107	1.069492	0.181177	-0.002138
1022	5.1050e-01	9.7888	9.735317	-0.000004	-0.042780	-0.007247	0.000086
1023	5.1100e-01	9.7748	9.701107	0.000342	3.422373	0.579766	-0.006842
1024	5.1150e-01	9.7650	9.701962	-0.000009	-0.085559	-0.014494	0.000171
1025	5.1200e-01	9.7571	9.689561	0.000124	1.240610	0.210165	-0.002480
1026	5.1250e-01	9.7455	9.666042	0.000235	2.352881	0.398589	-0.004704
1027	5.1300e-01	9.7366	9.660483	0.000056	0.556136	0.094212	-0.001112
1028	5.1350e-01	9.7253	9.634825	0.000257	2.566780	0.434824	-0.005132
1029	5.1400e-01	9.7156	9.619858	0.000150	1.497288	0.253647	-0.002993
1030	5.1450e-01	9.7064	9.610023	0.000098	0.983932	0.166683	-0.001967
1031	5.1500e-01	9.6954	9.596766	0.000133	1.326170	0.224659	-0.002651
1032	5.1550e-01	9.6838	9.588214	0.000086	0.855593	0.144941	-0.001711
1033	5.1600e-01	9.6735	9.578379	0.000098	0.983932	0.166683	-0.001967
1034	5.1650e-01	9.6655	9.548872	0.000295	2.951797	0.500048	-0.005901
1035	5.1700e-01	9.6552	9.543741	0.000051	0.513356	0.086965	-0.001026
1036	5.1750e-01	9.6460	9.525353	0.000184	1.839525	0.311624	-0.003678
1037	5.1800e-01	9.6371	9.504399	0.000210	2.096203	0.355106	-0.004191
1038	5.1850e-01	9.6246	9.498840	0.000056	0.556136	0.094212	-0.001112
1039	5.1900e-01	9.6161	9.488150	0.000107	1.069492	0.181177	-0.002138
1040	5.1950e-01	9.6082	9.470617	0.000175	1.753966	0.297130	-0.003507
1041	5.2000e-01	9.5959	9.449236	0.000214	2.138983	0.362354	-0.004276
1042	5.2050e-01	9.5831	9.422723	0.000265	2.652339	0.449318	-0.005303
1043	5.2100e-01	9.5764	9.420157	0.000026	0.256678	0.043482	-0.000513
1044	5.2150e-01	9.5654	9.401342	0.000188	1.882305	0.318871	-0.003763
1045	5.2200e-01	9.5563	9.393217	0.000081	0.812814	0.137694	-0.001625
1046	5.2250e-01	9.5441	9.374829	0.000184	1.839525	0.311624	-0.003678
1047	5.2300e-01	9.5343	9.365421	0.000094	0.941153	0.159436	-0.001882
1048	5.2350e-01	9.5264	9.345323	0.000201	2.010644	0.340612	-0.004020
1049	5.2400e-01	9.5178	9.330783	0.000145	1.454509	0.246400	-0.002908
1050	5.2450e-01	9.5068	9.313678	0.000171	1.711187	0.289883	-0.003421
1051	5.2500e-01	9.4940	9.297429	0.000163	1.625627	0.275389	-0.003250
1052	5.2550e-01	9.4885	9.286738	0.000107	1.069492	0.181177	-0.002138
1053	5.2600e-01	9.4788	9.261081	0.000257	2.566780	0.434824	-0.005132
1054	5.2650e-01	9.4659	9.239699	0.000214	2.138983	0.362354	-0.004276
1055	5.2700e-01	9.4550	9.252100	-0.000124	-1.240610	-0.210165	0.002480
1056	5.2750e-01	9.4482	9.231147	0.000210	2.096203	0.355106	-0.004191
1057	5.2800e-01	9.4360	9.196082	0.000351	3.507932	0.594260	-0.007013
1058	5.2850e-01	9.4244	9.197364	-0.000013	-0.128339	-0.021741	0.000257
1059	5.2900e-01	9.4156	9.172562	0.000248	2.481220	0.420330	-0.004960
1060	5.2950e-01	9.4043	9.164865	0.000077	0.770034	0.130447	-0.001539
1061	5.3000e-01	9.3945	9.152464	0.000124	1.240610	0.210165	-0.002480
1062	5.3050e-01	9.3835	9.129372	0.000231	2.310102	0.391342	-0.004618
1063	5.3100e-01	9.3768	9.122958	0.000064	0.641695	0.108706	-0.001283
1064	5.3150e-01	9.3668	9.107135	0.000158	1.582848	0.268142	-0.003164
1065	5.3200e-01	9.3546	9.091313	0.000158	1.582848	0.268142	-0.003164
1066	5.3250e-01	9.3439	9.059669	0.000317	3.165695	0.536283	-0.006329
1067	5.3300e-01	9.3353	9.066511	-0.000068	-0.684475	-0.115953	0.001368
1068	5.3350e-01	9.3268	9.044702	0.000218	2.181763	0.369601	-0.004362
1069	5.3400e-01	9.3195	9.048551	-0.000039	-0.385017	-0.065224	0.000770
1070	5.3450e-01	9.3073	9.004078	0.000445	4.449085	0.753695	-0.008895
1071	5.3500e-01	9.2957	8.985262	0.000188	1.882305	0.318871	-0.003763
1072	5.3550e-01	9.2865	8.980558	0.000047	0.470576	0.079718	-0.000941
1073	5.3600e-01	9.2767	8.955329	0.000252	2.524000	0.427577	-0.005046
1074	5.3650e-01	9.2657	8.944210	0.000111	1.112271	0.188424	-0.002224
1075	5.3700e-01	9.2548	8.934802	0.000094	0.941153	0.159436	-0.001882
1076	5.3750e-01	9.2474	8.923257	0.000116	1.155051	0.195671	-0.002309
1077	5.3800e-01	9.2377	8.886481	0.000368	3.679051	0.623248	-0.007355
1078	5.3850e-01	9.2261	8.877501	0.000090	0.898373	0.152188	-0.001796
1079	5.3900e-01	9.2157	8.885198	-0.000077	-0.770034	-0.130447	0.001539
1080	5.3950e-01	9.2081	8.859540	0.000257	2.566780	0.434824	-0.005132
1081	5.4000e-01	9.1937	8.843291	0.000163	1.625627	0.275389	-0.003250
1082	5.4050e-01	9.1840	8.833883	0.000094	0.941153	0.159436	-0.001882
1083	5.4100e-01	9.1748	8.813357	0.000205	2.053424	0.347859	-0.004105
1084	5.4150e-01	9.1656	8.794969	0.000184	1.839525	0.311624	-0.003678
1085	5.4200e-01	9.1571	8.763325	0.000317	3.165695	0.536283	-0.006329
1086	5.4250e-01	9.1461	8.770167	-0.000068	-0.684475	-0.115953	0.001368
1087	5.4300e-01	9.1367	8.749213	0.000210	2.096203	0.355106	-0.004191
1088	5.4350e-01	9.1254	8.721417	0.000278	2.780678	0.471060	-0.005559
1089	5.4400e-01	9.1174	8.707306	0.000141	1.411729	0.239153	-0.002822
1090	5.4450e-01	9.1071	8.697470	0.000098	0.983932	0.166683	-0.001967
1091	5.4500e-01	9.0948	8.687635	0.000098	0.983932	0.166683	-0.001967
1092	5.4550e-01	9.0857	8.668392	0.000193	1.925085	0.326118	-0.003849
1093	5.4600e-01	9.0759	8.656418	0.000120	1.197831	0.202918	-0.002395
1094	5.4650e-01	9.0668	8.640169	0.000163	1.625627	0.275389	-0.003250
1095	5.4700e-01	9.0570	8.614939	0.000252	2.524000	0.427577	-0.005046
1096	5.4750e-01	9.0460	8.582012	0.000329	3.294034	0.558024	-0.006585
1097	5.4800e-01	9.0375	8.591847	-0.000098	-0.983932	-0.166683	0.001967
1098	5.4850e-01	9.0280	8.570466	0.000214	2.138983	0.362354	-0.004276
1099	5.4900e-01	9.0164	8.558920	0.000116	1.155051	0.195671	-0.002309
1100	5.4950e-01	9.0063	8.549940	0.000090	0.898373	0.152188	-0.001796
1101	5.5000e-01	8.9960	8.528131	0.000218	2.181763	0.369601	-0.004362
1102	5.5050e-01	8.9862	8.517440	0.000107	1.069492	0.181177	-0.002138
1103	5.5100e-01	8.9783	8.496914	0.000205	2.053424	0.347859	-0.004105
1104	5.5150e-01	8.9645	8.473395	0.000235	2.352881	0.398589	-0.004704
1105	5.5200e-01	8.9551	8.457145	0.000163	1.625627	0.275389	-0.003250
1106	5.5250e-01	8.9453	8.452869	0.000043	0.427797	0.072471	-0.000855
1107	5.5300e-01	8.9343	8.437474	0.000154	1.540068	0.260895	-0.003079
1108	5.5350e-01	8.9270	8.397278	0.000402	4.021288	0.681225	-0.008039
1109	5.5400e-01	8.9160	8.395567	0.000017	0.171119	0.028988	-0.000342
1110	5.5450e-01	8.9075	8.389580	0.000060	0.598915	0.101459	-0.001197
1111	5.5500e-01	8.8947	8.376324	0.000133	1.326170	0.224659	-0.002651
1112	5.5550e-01	8.8861	8.351949	0.000244	2.438441	0.413083	-0.004875
1113	5.5600e-01	8.8770	8.340831	0.000111	1.112271	0.188424	-0.002224
1114	5.5650e-01	8.8690	8.323298	0.000175	1.753966	0.297130	-0.003507
1115	5.5700e-01	8.8562	8.292082	0.000312	3.122915	0.529036	-0.006243
1116	5.5750e-01	8.8477	8.283529	0.000086	0.855593	0.144941	-0.001711
1117	5.5800e-01	8.8358	8.269418	0.000141	1.411729	0.239153	-0.002822
1118	5.5850e-01	8.8275	8.267707	0.000017	0.171119	0.028988	-0.000342
1119	5.5900e-01	8.8147	8.250174	0.000175	1.753966	0.297130	-0.003507
1120	5.5950e-01	8.8055	8.231359	0.000188	1.882305	0.318871	-0.003763
1121	5.6000e-01	8.7970	8.209978	0.000214	2.138983	0.362354	-0.004276
1122	5.6050e-01	8.7860	8.196294	0.000137	1.368949	0.231906	-0.002737
1123	5.6100e-01	8.7769	8.180472	0.000158	1.582848	0.268142	-0.003164
1124	5.6150e-01	8.7677	8.158663	0.000218	2.181763	0.369601	-0.004362
1125	5.6200e-01	8.7598	8.147972	0.000107	1.069492	0.181177	-0.002138
1126	5.6250e-01	8.7463	8.132577	0.000154	1.540068	0.260895	-0.003079
1127	5.6300e-01	8.7366	8.103071	0.000295	2.951797	0.500048	-0.005901
1128	5.6350e-01	8.7253	8.099223	0.000039	0.385017	0.065224	-0.000770
1129	5.6400e-01	8.7164	8.070572	0.000287	2.866237	0.485554	-0.005730
1130	5.6450e-01	8.7054	8.058598	0.000120	1.197831	0.202918	-0.002395
1131	5.6500e-01	8.6960	8.045770	0.000128	1.283390	0.217412	-0.002566
1132	5.6550e-01	8.6853	8.039783	0.000060	0.598915	0.101459	-0.001197
1133	5.6600e-01	8.6752	8.011560	0.000282	2.823458	0.478307	-0.005645
1134	5.6650e-01	8.6649	8.011560	-0.000000	-0.000000	-0.000000	0.000000
1135	5.6700e-01	8.6542	7.979488	0.000321	3.208475	0.543530	-0.006414
1136	5.6750e-01	8.6481	7.967514	0.000120	1.197831	0.202918	-0.002395
1137	5.6800e-01	8.6377	7.941001	0.000265	2.652339	0.449318	-0.005303
1138	5.6850e-01	8.6273	7.923469	0.000175	1.753966	0.297130	-0.003507
1139	5.6900e-01	8.6151	7.907647	0.000158	1.582848	0.268142	-0.003164
1140	5.6950e-01	8.6050	7.899094	0.000086	0.855593	0.144941	-0.001711
1141	5.7000e-01	8.5950	7.886265	0.000128	1.283390	0.217412	-0.002566
1142	5.7050e-01	8.5867	7.867450	0.000188	1.882305	0.318871	-0.003763
1143	5.7100e-01	8.5760	7.837944	0.000295	2.951797	0.500048	-0.005901
1144	5.7150e-01	8.5663	7.837516	0.000004	0.042780	0.007247	-0.000086
1145	5.7200e-01	8.5577	7.823832	0.000137	1.368949	0.231906	-0.002737
1146	5.7250e-01	8.5477	7.796892	0.000270	2.695119	0.456565	-0.005388
1147	5.7300e-01	8.5327	7.779787	0.000171	1.711187	0.289883	-0.003421
1148	5.7350e-01	8.5263	7.771234	0.000086	0.855593	0.144941	-0.001711
1149	5.7400e-01	8.5147	7.744721	0.000265	2.652339	0.449318	-0.005303
1150	5.7450e-01	8.5059	7.741300	0.000034	0.342237	0.057977	-0.000684
1151	5.7500e-01	8.4961	7.726761	0.000145	1.454509	0.246400	-0.002908
1152	5.7550e-01	8.4858	7.707090	0.000197	1.967864	0.333365	-0.003934
1153	5.7600e-01	8.4778	7.679722	0.000274	2.737898	0.463813	-0.005474
1154	5.7650e-01	8.4668	7.662617	0.000171	1.711187	0.289883	-0.003421
1155	5.7700e-01	8.4546	7.675446	-0.000128	-1.283390	-0.217412	0.002566
1156	5.7750e-01	8.4467	7.632684	0.000428	4.277966	0.724707	-0.008553
1157	5.7800e-01	8.4357	7.626697	0.000060	0.598915	0.101459	-0.001197
1158	5.7850e-01	8.4279	7.605743	0.000210	2.096203	0.355106	-0.004191
1159	5.7900e-01	8.4167	7.579658	0.000261	2.609559	0.442071	-0.005217
1160	5.7950e-01	8.4045	7.584362	-0.000047	-0.470576	-0.079718	0.000941
1161	5.8000e-01	8.3948	7.565546	0.000188	1.882305	0.318871	-0.003763
1162	5.8050e-01	8.3881	7.535185	0.000304	3.037356	0.514542	-0.006072
1163	5.8100e-01	8.3765	7.508672	0.000265	2.652339	0.449318	-0.005303
1164	5.8150e-01	8.3673	7.497554	0.000111	1.112271	0.188424	-0.002224
1165	5.8200e-01	8.3569	7.485580	0.000120	1.197831	0.202918	-0.002395
1166	5.8250e-01	8.3453	7.466765	0.000188	1.882305	0.318871	-0.003763
1167	5.8300e-01	8.3359	7.442818	0.000240	2.395661	0.405836	-0.004789
1168	5.8350e-01	8.3264	7.439397	0.000034	0.342237	0.057977	-0.000684
1169	5.8400e-01	8.3170	7.423575	0.000158	1.582848	0.268142	-0.003164
1170	5.8450e-01	8.3069	7.393213	0.000304	3.037356	0.514542	-0.006072
1171	5.8500e-01	8.2983	7.400483	-0.000073	-0.727254	-0.123200	0.001454
1172	5.8550e-01	8.2874	7.372687	0.000278	2.780678	0.471060	-0.005559
1173	5.8600e-01	8.2764	7.347457	0.000252	2.524000	0.427577	-0.005046
1174	5.8650e-01	8.2635	7.349596	-0.000021	-0.213898	-0.036235	0.000428
1175	5.8700e-01	8.2578	7.335056	0.000145	1.454509	0.246400	-0.002908
1176	5.8750e-01	8.2489	7.288873	0.000462	4.620204	0.782684	-0.009237
1177	5.8800e-01	8.2379	7.284597	0.000043	0.427797	0.072471	-0.000855
1178	5.8850e-01	8.2236	7.260650	0.000240	2.395661	0.405836	-0.004789
1179	5.8900e-01	8.2153	7.264498	-0.000039	-0.385017	-0.065224	0.000770
1180	5.8950e-01	8.2063	7.247821	0.000167	1.668407	0.282636	-0.003335
1181	5.9000e-01	8.1958	7.235420	0.000124	1.240610	0.210165	-0.002480
1182	5.9050e-01	8.1866	7.203348	0.000321	3.208475	0.543530	-0.006414
1183	5.9100e-01	8.1757	7.191374	0.000120	1.197831	0.202918	-0.002395
1184	5.9150e-01	8.1628	7.197361	-0.000060	-0.598915	-0.101459	0.001197
1185	5.9200e-01	8.1570	7.162296	0.000351	3.507932	0.594260	-0.007013
1186	5.9250e-01	8.1458	7.139204	0.000231	2.310102	0.391342	-0.004618
1187	5.9300e-01	8.1348	7.122099	0.000171	1.711187	0.289883	-0.003421
1188	5.9350e-01	8.1250	7.120816	0.000013	0.128339	0.021741	-0.000257
1189	5.9400e-01	8.1158	7.107987	0.000128	1.283390	0.217412	-0.002566
1190	5.9450e-01	8.1073	7.070784	0.000372	3.721831	0.630495	-0.007441
1191	5.9500e-01	8.0957	7.059238	0.000116	1.155051	0.195671	-0.002309
1192	5.9550e-01	8.0847	7.035719	0.000235	2.352881	0.398589	-0.004704
1193	5.9600e-01	8.0762	7.032298	0.000034	0.342237	0.057977	-0.000684
1194	5.9650e-01	8.0737	7.016048	0.000163	1.625627	0.275389	-0.003250
1195	5.9700e-01	8.0566	6.988680	0.000274	2.737898	0.463813	-0.005474
1196	5.9750e-01	8.0444	6.976279	0.000124	1.240610	0.210165	-0.002480
1197	5.9800e-01	8.0365	6.957891	0.000184	1.839525	0.311624	-0.003678
1198	5.9850e-01	8.0273	6.942924	0.000150	1.497288	0.253647	-0.002993
1199	5.9900e-01	8.0157	6.911280	0.000317	3.165695	0.536283	-0.006329
1200	5.9950e-01	8.0048	6.904010	0.000073	0.727254	0.123200	-0.001454
1201	6.0000e-01	7.9962	6.889898	0.000141	1.411729	0.239153	-0.002822
1202	6.0050e-01	7.9846	6.880491	0.000094	0.941153	0.159436	-0.001882
1203	6.0100e-01	7.9761	6.861248	0.000193	1.925085	0.326118	-0.003849
1204	6.0150e-01	7.9663	6.833024	0.000282	2.823458	0.478307	-0.005645
1205	6.0200e-01	7.9568	6.820196	0.000128	1.283390	0.217412	-0.002566
1206	6.0250e-01	7.9440	6.791972	0.000282	2.823458	0.478307	-0.005645
1207	6.0300e-01	7.9358	6.785130	0.000068	0.684475	0.115953	-0.001368
1208	6.0350e-01	7.9254	6.774440	0.000107	1.069492	0.181177	-0.002138
1209	6.0400e-01	7.9175	6.741085	0.000334	3.336814	0.565272	-0.006671
1210	6.0450e-01	7.9034	6.744506	-0.000034	-0.342237	-0.057977	0.000684
1211	6.0500e-01	7.8961	6.717993	0.000265	2.652339	0.449318	-0.005303
1212	6.0550e-01	7.8833	6.709013	0.000090	0.898373	0.152188	-0.001796
1213	6.0600e-01	7.8766	6.706447	0.000026	0.256678	0.043482	-0.000513
1214	6.0650e-01	7.8662	6.670954	0.000355	3.550712	0.601507	-0.007099
1215	6.0700e-01	7.8566	6.644869	0.000261	2.609559	0.442071	-0.005217
1216	6.0750e-01	7.8464	6.634606	0.000103	1.026712	0.173930	-0.002053
1217	6.0800e-01	7.8383	6.611514	0.000231	2.310102	0.391342	-0.004618
1218	6.0850e-01	7.8253	6.602534	0.000090	0.898373	0.152188	-0.001796
1219	6.0900e-01	7.8131	6.585002	0.000175	1.753966	0.297130	-0.003507
1220	6.0950e-01	7.8064	6.559772	0.000252	2.524000	0.427577	-0.005046
1221	6.1000e-01	7.7942	6.540529	0.000193	1.925085	0.326118	-0.003849
1222	6.1050e-01	7.7869	6.537963	0.000026	0.256678	0.043482	-0.000513
1223	6.1100e-01	7.7783	6.511022	0.000270	2.695119	0.456565	-0.005388
1224	6.1150e-01	7.7655	6.501615	0.000094	0.941153	0.159436	-0.001882
1225	6.1200e-01	7.7557	6.474674	0.000270	2.695119	0.456565	-0.005388
1226	6.1250e-01	7.7466	6.461418	0.000133	1.326170	0.224659	-0.002651
1227	6.1300e-01	7.7386	6.455431	0.000060	0.598915	0.101459	-0.001197
1228	6.1350e-01	7.7264	6.435760	0.000197	1.967864	0.333365	-0.003934
1229	6.1400e-01	7.7161	6.402833	0.000329	3.294034	0.558024	-0.006585
1230	6.1450e-01	7.7048	6.403261	-0.000004	-0.042780	-0.007247	0.000086
1231	6.1500e-01	7.6965	6.380169	0.000231	2.310102	0.391342	-0.004618
1232	6.1550e-01	7.6862	6.364347	0.000158	1.582848	0.268142	-0.003164
1233	6.1600e-01	7.6773	6.335696	0.000287	2.866237	0.485554	-0.005730
1234	6.1650e-01	7.6654	6.327999	0.000077	0.770034	0.130447	-0.001539
1235	6.1700e-01	7.6550	6.315170	0.000128	1.283390	0.217412	-0.002566
1236	6.1750e-01	7.6465	6.291651	0.000235	2.352881	0.398589	-0.004704
1237	6.1800e-01	7.6337	6.274973	0.000167	1.668407	0.282636	-0.003335
1238	6.1850e-01	7.6245	6.279250	-0.000043	-0.427797	-0.072471	0.000855
1239	6.1900e-01	7.6141	6.243757	0.000355	3.550712	0.601507	-0.007099
1240	6.1950e-01	7.6056	6.236915	0.000068	0.684475	0.115953	-0.001368
1241	6.2000e-01	7.5958	6.211257	0.000257	2.566780	0.434824	-0.005132
1242	6.2050e-01	7.5854	6.190303	0.000210	2.096203	0.355106	-0.004191
1243	6.2100e-01	7.5745	6.168067	0.000222	2.224542	0.376848	-0.004447
1244	6.2150e-01	7.5671	6.167639	0.000004	0.042780	0.007247	-0.000086
1245	6.2200e-01	7.5555	6.165929	0.000017	0.171119	0.028988	-0.000342
1246	6.2250e-01	7.5446	6.130008	0.000359	3.593492	0.608754	-0.007184
1247	6.2300e-01	7.5363	6.101357	0.000287	2.866237	0.485554	-0.005730
1248	6.2350e-01	7.5275	6.085535	0.000158	1.582848	0.268142	-0.003164
1249	6.2400e-01	7.5165	6.062444	0.000231	2.310102	0.391342	-0.004618
1250	6.2450e-01	7.5061	6.041490	0.000210	2.096203	0.355106	-0.004191
1251	6.2500e-01	7.4957	6.039352	0.000021	0.213898	0.036235	-0.000428
1252	6.2550e-01	7.4844	6.014549	0.000248	2.481220	0.420330	-0.004960
1253	6.2600e-01	7.4780	6.000438	0.000141	1.411729	0.239153	-0.002822
1254	6.2650e-01	7.4634	5.975636	0.000248	2.481220	0.420330	-0.004960
1255	6.2700e-01	7.4564	5.973497	0.000021	0.213898	0.036235	-0.000428
1256	6.2750e-01	7.4432	5.969221	0.000043	0.427797	0.072471	-0.000855
1257	6.2800e-01	7.4373	5.932018	0.000372	3.721831	0.630495	-0.007441
1258	6.2850e-01	7.4268	5.900801	0.000312	3.122915	0.529036	-0.006243
1259	6.2900e-01	7.4176	5.885834	0.000150	1.497288	0.253647	-0.002993
1260	6.2950e-01	7.4054	5.884124	0.000017	0.171119	0.028988	-0.000342
1261	6.3000e-01	7.3944	5.869585	0.000145	1.454509	0.246400	-0.002908
1262	6.3050e-01	7.3853	5.861887	0.000077	0.770034	0.130447	-0.001539
1263	6.3100e-01	7.3755	5.826822	0.000351	3.507932	0.594260	-0.007013
1264	6.3150e-01	7.3645	5.832381	-0.000056	-0.556136	-0.094212	0.001112
1265	6.3200e-01	7.3572	5.793895	0.000385	3.850170	0.652236	-0.007697
1266	6.3250e-01	7.3465	5.772941	0.000210	2.096203	0.355106	-0.004191
1267	6.3300e-01	7.3364	5.765244	0.000077	0.770034	0.130447	-0.001539
1268	6.3350e-01	7.3242	5.745573	0.000197	1.967864	0.333365	-0.003934
1269	6.3400e-01	7.3181	5.732317	0.000133	1.326170	0.224659	-0.002651
1270	6.3450e-01	7.3077	5.704949	0.000274	2.737898	0.463813	-0.005474
1271	6.3500e-01	7.2961	5.694258	0.000107	1.069492	0.181177	-0.002138
1272	6.3550e-01	7.2858	5.680574	0.000137	1.368949	0.231906	-0.002737
1273	6.3600e-01	7.2766	5.645081	0.000355	3.550712	0.601507	-0.007099
1274	6.3650e-01	7.2656	5.643371	0.000017	0.171119	0.028988	-0.000342
1275	6.3700e-01	7.2595	5.616858	0.000265	2.652339	0.449318	-0.005303
1276	6.3750e-01	7.2467	5.600608	0.000163	1.625627	0.275389	-0.003250
1277	6.3800e-01	7.2363	5.578799	0.000218	2.181763	0.369601	-0.004362
1278	6.3850e-01	7.2272	5.570674	0.000081	0.812814	0.137694	-0.001625
1279	6.3900e-01	7.2174	5.553997	0.000167	1.668407	0.282636	-0.003335
1280	6.3950e-01	7.2003	5.517649	0.000364	3.636271	0.616001	-0.007270
1281	6.4000e-01	7.1954	5.506103	0.000116	1.155051	0.195671	-0.002309
1282	6.4050e-01	7.1899	5.498406	0.000077	0.770034	0.130447	-0.001539
1283	6.4100e-01	7.1741	5.471465	0.000270	2.695119	0.456565	-0.005388
1284	6.4150e-01	7.1677	5.464196	0.000073	0.727254	0.123200	-0.001454
1285	6.4200e-01	7.1570	5.450084	0.000141	1.411729	0.239153	-0.002822
1286	6.4250e-01	7.1460	5.417585	0.000325	3.251254	0.550777	-0.006500
1287	6.4300e-01	7.1368	5.412453	0.000051	0.513356	0.086965	-0.001026
1288	6.4350e-01	7.1246	5.388078	0.000244	2.438441	0.413083	-0.004875
1289	6.4400e-01	7.1155	5.392355	-0.000043	-0.427797	-0.072471	0.000855
1290	6.4450e-01	7.1075	5.344033	0.000483	4.834102	0.818919	-0.009664
1291	6.4500e-01	7.0966	5.342323	0.000017	0.171119	0.028988	-0.000342
1292	6.4550e-01	7.0850	5.331204	0.000111	1.112271	0.188424	-0.002224
1293	6.4600e-01	7.0755	5.308113	0.000231	2.310102	0.391342	-0.004618
1294	6.4650e-01	7.0654	5.300843	0.000073	0.727254	0.123200	-0.001454
1295	6.4700e-01	7.0590	5.273475	0.000274	2.737898	0.463813	-0.005474
1296	6.4750e-01	7.0456	5.255942	0.000175	1.753966	0.297130	-0.003507
1297	6.4800e-01	7.0357	5.235844	0.000201	2.010644	0.340612	-0.004020
1298	6.4850e-01	7.0253	5.223015	0.000128	1.283390	0.217412	-0.002566
1299	6.4900e-01	7.0197	5.203772	0.000193	1.925085	0.326118	-0.003849
1300	6.4950e-01	7.0026	5.167851	0.000359	3.593492	0.608754	-0.007184
1301	6.5000e-01	6.9958	5.158871	0.000090	0.898373	0.152188	-0.001796
1302	6.5050e-01	6.9849	5.145615	0.000133	1.326170	0.224659	-0.002651
1303	6.5100e-01	6.9775	5.133214	0.000124	1.240610	0.210165	-0.002480
1304	6.5150e-01	6.9643	5.116109	0.000171	1.711187	0.289883	-0.003421
1305	6.5200e-01	6.9550	5.100714	0.000154	1.540068	0.260895	-0.003079
1306	6.5250e-01	6.9463	5.081899	0.000188	1.882305	0.318871	-0.003763
1307	6.5300e-01	6.9354	5.075484	0.000064	0.641695	0.108706	-0.001283
1308	6.5350e-01	6.9266	5.051965	0.000235	2.352881	0.398589	-0.004704
1309	6.5400e-01	6.9162	5.036570	0.000154	1.540068	0.260895	-0.003079
1310	6.5450e-01	6.9105	5.013906	0.000227	2.267322	0.384095	-0.004533
1311	6.5500e-01	6.8958	4.986111	0.000278	2.780678	0.471060	-0.005559
1312	6.5550e-01	6.8867	4.961736	0.000244	2.438441	0.413083	-0.004875
1313	6.5600e-01	6.8756	4.969861	-0.000081	-0.812814	-0.137694	0.001625
1314	6.5650e-01	6.8655	4.934796	0.000351	3.507932	0.594260	-0.007013
1315	6.5700e-01	6.8549	4.926243	0.000086	0.855593	0.144941	-0.001711
1316	6.5750e-01	6.8466	4.890323	0.000359	3.593492	0.608754	-0.007184
1317	6.5800e-01	6.8347	4.870652	0.000197	1.967864	0.333365	-0.003934
1318	6.5850e-01	6.8256	4.864237	0.000064	0.641695	0.108706	-0.001283
1319	6.5900e-01	6.8134	4.858678	0.000056	0.556136	0.094212	-0.001112
1320	6.5950e-01	6.8060	4.835587	0.000231	2.310102	0.391342	-0.004618
1321	6.6000e-01	6.7999	4.800521	0.000351	3.507932	0.594260	-0.007013
1322	6.6050e-01	6.7859	4.772726	0.000278	2.780678	0.471060	-0.005559
1323	6.6100e-01	6.7743	4.769305	0.000034	0.342237	0.057977	-0.000684
1324	6.6150e-01	6.7664	4.748351	0.000210	2.096203	0.355106	-0.004191
1325	6.6200e-01	6.7551	4.747068	0.000013	0.128339	0.021741	-0.000257
1326	6.6250e-01	6.7448	4.738516	0.000086	0.855593	0.144941	-0.001711
1327	6.6300e-01	6.7365	4.705161	0.000334	3.336814	0.565272	-0.006671
1328	6.6350e-01	6.7273	4.673517	0.000317	3.165695	0.536283	-0.006329
1329	6.6400e-01	6.7142	4.667530	0.000060	0.598915	0.101459	-0.001197
1330	6.6450e-01	6.7090	4.655129	0.000124	1.240610	0.210165	-0.002480
1331	6.6500e-01	6.6983	4.626905	0.000282	2.823458	0.478307	-0.005645
1332	6.6550e-01	6.6864	4.608518	0.000184	1.839525	0.311624	-0.003678
1333	6.6600e-01	6.6760	4.596972	0.000116	1.155051	0.195671	-0.002309
1334	6.6650e-01	6.6632	4.573452	0.000235	2.352881	0.398589	-0.004704
1335	6.6700e-01	6.6536	4.565327	0.000081	0.812814	0.137694	-0.001625
1336	6.6750e-01	6.6437	4.540098	0.000252	2.524000	0.427577	-0.005046
1337	6.6800e-01	6.6371	4.521710	0.000184	1.839525	0.311624	-0.003678
1338	6.6850e-01	6.6246	4.504177	0.000175	1.753966	0.297130	-0.003507
1339	6.6900e-01	6.6170	4.481941	0.000222	2.224542	0.376848	-0.004447
1340	6.6950e-01	6.6064	4.465263	0.000167	1.668407	0.282636	-0.003335
1341	6.7000e-01	6.5988	4.449441	0.000158	1.582848	0.268142	-0.003164
1342	6.7050e-01	6.5875	4.419935	0.000295	2.951797	0.500048	-0.005901
1343	6.7100e-01	6.5748	4.413948	0.000060	0.598915	0.101459	-0.001197
1344	6.7150e-01	6.5656	4.389573	0.000244	2.438441	0.413083	-0.004875
1345	6.7200e-01	6.5543	4.384014	0.000056	0.556136	0.094212	-0.001112
1346	6.7250e-01	6.5442	4.363061	0.000210	2.096203	0.355106	-0.004191
1347	6.7300e-01	6.5332	4.362633	0.000004	0.042780	0.007247	-0.000086
1348	6.7350e-01	6.5259	4.329706	0.000329	3.294034	0.558024	-0.006585
1349	6.7400e-01	6.5155	4.306187	0.000235	2.352881	0.398589	-0.004704
1350	6.7450e-01	6.5042	4.295924	0.000103	1.026712	0.173930	-0.002053
1351	6.7500e-01	6.4960	4.265562	0.000304	3.037356	0.514542	-0.006072
1352	6.7550e-01	6.4850	4.260003	0.000056	0.556136	0.094212	-0.001112
1353	6.7600e-01	6.4737	4.229642	0.000304	3.037356	0.514542	-0.006072
1354	6.7650e-01	6.4655	4.206977	0.000227	2.267322	0.384095	-0.004533
1355	6.7700e-01	6.4545	4.204839	0.000021	0.213898	0.036235	-0.000428
1356	6.7750e-01	6.4441	4.175333	0.000295	2.951797	0.500048	-0.005901
1357	6.7800e-01	6.4359	4.156945	0.000184	1.839525	0.311624	-0.003678
1358	6.7850e-01	6.4279	4.148393	0.000086	0.855593	0.144941	-0.001711
1359	6.7900e-01	6.4139	4.126156	0.000222	2.224542	0.376848	-0.004447
1360	6.7950e-01	6.4063	4.100499	0.000257	2.566780	0.434824	-0.005132
1361	6.8000e-01	6.3940	4.084677	0.000158	1.582848	0.268142	-0.003164
1362	6.8050e-01	6.3844	4.070137	0.000145	1.454509	0.246400	-0.002908
1363	6.8100e-01	6.3773	4.053888	0.000163	1.625627	0.275389	-0.003250
1364	6.8150e-01	6.3666	4.037210	0.000167	1.668407	0.282636	-0.003335
1365	6.8200e-01	6.3550	4.008559	0.000287	2.866237	0.485554	-0.005730
1366	6.8250e-01	6.3470	4.017967	-0.000094	-0.941153	-0.159436	0.001882
1367	6.8300e-01	6.3336	3.973922	0.000441	4.406305	0.746448	-0.008809
1368	6.8350e-01	6.3222	3.972211	0.000017	0.171119	0.028988	-0.000342
1369	6.8400e-01	6.3168	3.940995	0.000312	3.122915	0.529036	-0.006243
1370	6.8450e-01	6.3043	3.931587	0.000094	0.941153	0.159436	-0.001882
1371	6.8500e-01	6.2952	3.936718	-0.000051	-0.513356	-0.086965	0.001026
1372	6.8550e-01	6.2842	3.911061	0.000257	2.566780	0.434824	-0.005132
1373	6.8600e-01	6.2723	3.872574	0.000385	3.850170	0.652236	-0.007697
1374	6.8650e-01	6.2680	3.860601	0.000120	1.197831	0.202918	-0.002395
1375	6.8700e-01	6.2573	3.828957	0.000317	3.165695	0.536283	-0.006329
1376	6.8750e-01	6.2463	3.823825	0.000051	0.513356	0.086965	-0.001026
1377	6.8800e-01	6.2354	3.810996	0.000128	1.283390	0.217412	-0.002566
1378	6.8850e-01	6.2250	3.775931	0.000351	3.507932	0.594260	-0.007013
1379	6.8900e-01	6.2170	3.764385	0.000116	1.155051	0.195671	-0.002309
1380	6.8950e-01	6.2061	3.740866	0.000235	2.352881	0.398589	-0.004704
1381	6.9000e-01	6.1969	3.732741	0.000081	0.812814	0.137694	-0.001625
1382	6.9050e-01	6.1871	3.705801	0.000270	2.695119	0.456565	-0.005388
1383	6.9100e-01	6.1765	3.686130	0.000197	1.967864	0.333365	-0.003934
1384	6.9150e-01	6.1670	3.662610	0.000235	2.352881	0.398589	-0.004704
1385	6.9200e-01	6.1548	3.656196	0.000064	0.641695	0.108706	-0.001283
1386	6.9250e-01	6.1476	3.642940	0.000133	1.326170	0.224659	-0.002651
1387	6.9300e-01	6.1346	3.610013	0.000329	3.294034	0.558024	-0.006585
1388	6.9350e-01	6.1264	3.595473	0.000145	1.454509	0.246400	-0.002908
1389	6.9400e-01	6.1157	3.592052	0.000034	0.342237	0.057977	-0.000684
1390	6.9450e-01	6.1060	3.561263	0.000308	3.080136	0.521789	-0.006158
1391	6.9500e-01	6.0950	3.549717	0.000116	1.155051	0.195671	-0.002309
1392	6.9550e-01	6.0876	3.514652	0.000351	3.507932	0.594260	-0.007013
1393	6.9600e-01	6.0742	3.509093	0.000056	0.556136	0.094212	-0.001112
1394	6.9650e-01	6.0669	3.490277	0.000188	1.882305	0.318871	-0.003763
1395	6.9700e-01	6.0536	3.476166	0.000141	1.411729	0.239153	-0.002822
1396	6.9750e-01	6.0437	3.453502	0.000227	2.267322	0.384095	-0.004533
1397	6.9800e-01	6.0358	3.441528	0.000120	1.197831	0.202918	-0.002395
1398	6.9850e-01	6.0260	3.421002	0.000205	2.053424	0.347859	-0.004105
1399	6.9900e-01	6.0150	3.399621	0.000214	2.138983	0.362354	-0.004276
1400	6.9950e-01	6.0083	3.370970	0.000287	2.866237	0.485554	-0.005730
1401	7.0000e-01	5.9958	3.374391	-0.000034	-0.342237	-0.057977	0.000684
1402	7.0050e-01	5.9863	3.344885	0.000295	2.951797	0.500048	-0.005901
1403	7.0100e-01	5.9752	3.329063	0.000158	1.582848	0.268142	-0.003164
1404	7.0150e-01	5.9683	3.296563	0.000325	3.251254	0.550777	-0.006500
1405	7.0200e-01	5.9570	3.294853	0.000017	0.171119	0.028988	-0.000342
1406	7.0250e-01	5.9451	3.281596	0.000133	1.326170	0.224659	-0.002651
1407	7.0300e-01	5.9369	3.243538	0.000381	3.807390	0.644989	-0.007612
1408	7.0350e-01	5.9259	3.212321	0.000312	3.122915	0.529036	-0.006243
1409	7.0400e-01	5.9155	3.205479	0.000068	0.684475	0.115953	-0.001368
1410	7.0450e-01	5.9065	3.187519	0.000180	1.796746	0.304377	-0.003592
1411	7.0500e-01	5.8942	3.176828	0.000107	1.069492	0.181177	-0.002138
1412	7.0550e-01	5.8856	3.150743	0.000261	2.609559	0.442071	-0.005217
1413	7.0600e-01	5.8771	3.134921	0.000158	1.582848	0.268142	-0.003164
1414	7.0650e-01	5.8661	3.121237	0.000137	1.368949	0.231906	-0.002737
1415	7.0700e-01	5.8545	3.091303	0.000299	2.994576	0.507295	-0.005987
1416	7.0750e-01	5.8453	3.085744	0.000056	0.556136	0.094212	-0.001112
1417	7.0800e-01	5.8359	3.062652	0.000231	2.310102	0.391342	-0.004618
1418	7.0850e-01	5.8304	3.039560	0.000231	2.310102	0.391342	-0.004618
1419	7.0900e-01	5.8154	3.021173	0.000184	1.839525	0.311624	-0.003678
1420	7.0950e-01	5.8072	3.001929	0.000193	1.925085	0.326118	-0.003849
1421	7.1000e-01	5.7947	3.001929	-0.000000	-0.000000	-0.000000	0.000000
1422	7.1050e-01	5.7867	2.974561	0.000274	2.737898	0.463813	-0.005474
1423	7.1100e-01	5.7748	2.945483	0.000291	2.909017	0.492801	-0.005816
1424	7.1150e-01	5.7660	2.942917	0.000026	0.256678	0.043482	-0.000513
1425	7.1200e-01	5.7532	2.909562	0.000334	3.336814	0.565272	-0.006671
1426	7.1250e-01	5.7483	2.877490	0.000321	3.208475	0.543530	-0.006414
1427	7.1300e-01	5.7379	2.863806	0.000137	1.368949	0.231906	-0.002737
1428	7.1350e-01	5.7248	2.864662	-0.000009	-0.085559	-0.014494	0.000171
1429	7.1400e-01	5.7150	2.831735	0.000329	3.294034	0.558024	-0.006585
1430	7.1450e-01	5.7086	2.816340	0.000154	1.540068	0.260895	-0.003079
1431	7.1500e-01	5.6982	2.781702	0.000347	3.465153	0.587013	-0.006928
1432	7.1550e-01	5.6873	2.778709	0.000030	0.299458	0.050729	-0.000599
1433	7.1600e-01	5.6778	2.770157	0.000086	0.855593	0.144941	-0.001711
1434	7.1650e-01	5.6635	2.750058	0.000201	2.010644	0.340612	-0.004020
1435	7.1700e-01	5.6561	2.716703	0.000334	3.336814	0.565272	-0.006671
1436	7.1750e-01	5.6451	2.697888	0.000188	1.882305	0.318871	-0.003763
1437	7.1800e-01	5.6349	2.697033	0.000009	0.085559	0.014494	-0.000171
1438	7.1850e-01	5.6274	2.664533	0.000325	3.251254	0.550777	-0.006500
1439	7.1900e-01	5.6158	2.643152	0.000214	2.138983	0.362354	-0.004276
1440	7.1950e-01	5.6062	2.641014	0.000021	0.213898	0.036235	-0.000428
1441	7.2000e-01	5.5960	2.618350	0.000227	2.267322	0.384095	-0.004533
1442	7.2050e-01	5.5820	2.618777	-0.000004	-0.042780	-0.007247	0.000086
1443	7.2100e-01	5.5751	2.603383	0.000154	1.540068	0.260895	-0.003079
1444	7.2150e-01	5.5652	2.566179	0.000372	3.721831	0.630495	-0.007441
1445	7.2200e-01	5.5585	2.537101	0.000291	2.909017	0.492801	-0.005816
1446	7.2250e-01	5.5469	2.515719	0.000214	2.138983	0.362354	-0.004276
1447	7.2300e-01	5.5350	2.505884	0.000098	0.983932	0.166683	-0.001967
1448	7.2350e-01	5.5281	2.486641	0.000193	1.925085	0.326118	-0.003849
1449	7.2400e-01	5.5170	2.452003	0.000347	3.465153	0.587013	-0.006928
1450	7.2450e-01	5.5042	2.450720	0.000013	0.128339	0.021741	-0.000257
1451	7.2500e-01	5.4962	2.429339	0.000214	2.138983	0.362354	-0.004276
1452	7.2550e-01	5.4852	2.393419	0.000359	3.593492	0.608754	-0.007184
1453	7.2600e-01	5.4745	2.378879	0.000145	1.454509	0.246400	-0.002908
1454	7.2650e-01	5.4681	2.359209	0.000197	1.967864	0.333365	-0.003934
1455	7.2700e-01	5.4581	2.329702	0.000295	2.951797	0.500048	-0.005901
1456	7.2750e-01	5.4471	2.332268	-0.000026	-0.256678	-0.043482	0.000513
1457	7.2800e-01	5.4370	2.299341	0.000329	3.294034	0.558024	-0.006585
1458	7.2850e-01	5.4242	2.297203	0.000021	0.213898	0.036235	-0.000428
1459	7.2900e-01	5.4163	2.265131	0.000321	3.208475	0.543530	-0.006414
1460	7.2950e-01	5.4083	2.270263	-0.000051	-0.513356	-0.086965	0.001026
1461	7.3000e-01	5.3967	2.239046	0.000312	3.122915	0.529036	-0.006243
1462	7.3050e-01	5.3864	2.221086	0.000180	1.796746	0.304377	-0.003592
1463	7.3100e-01	5.3755	2.201843	0.000193	1.925085	0.326118	-0.003849
1464	7.3150e-01	5.3668	2.178751	0.000231	2.310102	0.391342	-0.004618
1465	7.3200e-01	5.3559	2.153521	0.000252	2.524000	0.427577	-0.005046
1466	7.3250e-01	5.3461	2.124442	0.000291	2.909017	0.492801	-0.005816
1467	7.3300e-01	5.3342	2.124870	-0.000004	-0.042780	-0.007247	0.000086
1468	7.3350e-01	5.3247	2.097074	0.000278	2.780678	0.471060	-0.005559
1469	7.3400e-01	5.3168	2.106482	-0.000094	-0.941153	-0.159436	0.001882
1470	7.3450e-01	5.3064	2.071844	0.000347	3.465153	0.587013	-0.006928
1471	7.3500e-01	5.2972	2.048325	0.000235	2.352881	0.398589	-0.004704
1472	7.3550e-01	5.2869	2.031220	0.000171	1.711187	0.289883	-0.003421
1473	7.3600e-01	5.2747	2.003424	0.000278	2.780678	0.471060	-0.005559
1474	7.3650e-01	5.2674	1.988458	0.000150	1.497288	0.253647	-0.002993
1475	7.3700e-01	5.2565	1.961517	0.000270	2.695119	0.456565	-0.005388
1476	7.3750e-01	5.2469	1.952965	0.000086	0.855593	0.144941	-0.001711
1477	7.3800e-01	5.2344	1.924314	0.000287	2.866237	0.485554	-0.005730
1478	7.3850e-01	5.2254	1.912340	0.000120	1.197831	0.202918	-0.002395
1479	7.3900e-01	5.2142	1.900367	0.000120	1.197831	0.202918	-0.002395
1480	7.3950e-01	5.2057	1.867440	0.000329	3.294034	0.558024	-0.006585
1481	7.4000e-01	5.1950	1.850335	0.000171	1.711187	0.289883	-0.003421
1482	7.4050e-01	5.1886	1.819546	0.000308	3.080136	0.521789	-0.006158
1483	7.4100e-01	5.1758	1.802868	0.000167	1.668407	0.282636	-0.003335
1484	7.4150e-01	5.1654	1.793033	0.000098	0.983932	0.166683	-0.001967
1485	7.4200e-01	5.1556	1.775500	0.000175	1.753966	0.297130	-0.003507
1486	7.4250e-01	5.1456	1.748987	0.000265	2.652339	0.449318	-0.005303
1487	7.4300e-01	5.1355	1.728889	0.000201	2.010644	0.340612	-0.004020
1488	7.4350e-01	5.1257	1.716915	0.000120	1.197831	0.202918	-0.002395
1489	7.4400e-01	5.1144	1.700238	0.000167	1.668407	0.282636	-0.003335
1490	7.4450e-01	5.1041	1.679284	0.000210	2.096203	0.355106	-0.004191
1491	7.4500e-01	5.0941	1.666028	0.000133	1.326170	0.224659	-0.002651
1492	7.4550e-01	5.0846	1.643792	0.000222	2.224542	0.376848	-0.004447
1493	7.4600e-01	5.0739	1.642509	0.000013	0.128339	0.021741	-0.000257
1494	7.4650e-01	5.0647	1.607016	0.000355	3.550712	0.601507	-0.007099
1495	7.4700e-01	5.0566	1.590338	0.000167	1.668407	0.282636	-0.003335
1496	7.4750e-01	5.0476	1.584352	0.000060	0.598915	0.101459	-0.001197
1497	7.4800e-01	5.0348	1.564253	0.000201	2.010644	0.340612	-0.004020
1498	7.4850e-01	5.0269	1.538596	0.000257	2.566780	0.434824	-0.005132
1499	7.4900e-01	5.0174	1.502675	0.000359	3.593492	0.608754	-0.007184
1500	7.4950e-01	5.0055	1.466755	0.000359	3.593492	0.608754	-0.007184
1501	7.5000e-01	4.9951	1.481722	-0.000150	-1.497288	-0.253647	0.002993
1502	7.5050e-01	4.9847	1.462906	0.000188	1.882305	0.318871	-0.003763
1503	7.5100e-01	4.9762	1.438531	0.000244	2.438441	0.413083	-0.004875
1504	7.5150e-01	4.9655	1.419288	0.000193	1.925085	0.326118	-0.003849
1505	7.5200e-01	4.9548	1.396197	0.000231	2.310102	0.391342	-0.004618
1506	7.5250e-01	4.9463	1.380374	0.000158	1.582848	0.268142	-0.003164
1507	7.5300e-01	4.9367	1.355144	0.000252	2.524000	0.427577	-0.005046
1508	7.5350e-01	4.9234	1.323928	0.000312	3.122915	0.529036	-0.006243
1509	7.5400e-01	4.9152	1.308961	0.000150	1.497288	0.253647	-0.002993
1510	7.5450e-01	4.9054	1.296132	0.000128	1.283390	0.217412	-0.002566
1511	7.5500e-01	4.8962	1.276889	0.000193	1.925085	0.326118	-0.003849
1512	7.5550e-01	4.8889	1.246100	0.000308	3.080136	0.521789	-0.006158
1513	7.5600e-01	4.8755	1.242679	0.000034	0.342237	0.057977	-0.000684
1514	7.5650e-01	4.8688	1.226002	0.000167	1.668407	0.282636	-0.003335
1515	7.5700e-01	4.8566	1.196068	0.000299	2.994576	0.507295	-0.005987
1516	7.5750e-01	4.8474	1.177252	0.000188	1.882305	0.318871	-0.003763
1517	7.5800e-01	4.8370	1.161003	0.000163	1.625627	0.275389	-0.003250
1518	7.5850e-01	4.8248	1.140477	0.000205	2.053424	0.347859	-0.004105
1519	7.5900e-01	4.8163	1.115247	0.000252	2.524000	0.427577	-0.005046
1520	7.5950e-01	4.8068	1.098569	0.000167	1.668407	0.282636	-0.003335
1521	7.6000e-01	4.7955	1.079754	0.000188	1.882305	0.318871	-0.003763
1522	7.6050e-01	4.7858	1.071629	0.000081	0.812814	0.137694	-0.001625
1523	7.6100e-01	4.7760	1.044689	0.000270	2.695119	0.456565	-0.005388
1524	7.6150e-01	4.7668	1.023307	0.000214	2.138983	0.362354	-0.004276
1525	7.6200e-01	4.7559	1.003209	0.000201	2.010644	0.340612	-0.004020
1526	7.6250e-01	4.7443	0.986104	0.000171	1.711187	0.289883	-0.003421
1527	7.6300e-01	4.7348	0.979262	0.000068	0.684475	0.115953	-0.001368
1528	7.6350e-01	4.7238	0.937782	0.000415	4.149627	0.702966	-0.008296
1529	7.6400e-01	4.7174	0.929230	0.000086	0.855593	0.144941	-0.001711
1530	7.6450e-01	4.7064	0.893737	0.000355	3.550712	0.601507	-0.007099
1531	7.6500e-01	4.6939	0.873638	0.000201	2.010644	0.340612	-0.004020
1532	7.6550e-01	4.6857	0.865086	0.000086	0.855593	0.144941	-0.001711
1533	7.6600e-01	4.6753	0.845843	0.000193	1.925085	0.326118	-0.003849
1534	7.6650e-01	4.6661	0.814199	0.000317	3.165695	0.536283	-0.006329
1535	7.6700e-01	4.6539	0.809922	0.000043	0.427797	0.072471	-0.000855
1536	7.6750e-01	4.6448	0.791107	0.000188	1.882305	0.318871	-0.003763
1537	7.6800e-01	4.6344	0.771008	0.000201	2.010644	0.340612	-0.004020
1538	7.6850e-01	4.6246	0.759035	0.000120	1.197831	0.202918	-0.002395
1539	7.6900e-01	4.6173	0.725252	0.000338	3.379593	0.572519	-0.006756
1540	7.6950e-01	4.6045	0.714989	0.000103	1.026712	0.173930	-0.002053
1541	7.7000e-01	4.5950	0.688477	0.000265	2.652339	0.449318	-0.005303
1542	7.7050e-01	4.5869	0.655122	0.000334	3.336814	0.565272	-0.006671
1543	7.7100e-01	4.5741	0.645287	0.000098	0.983932	0.166683	-0.001967
1544	7.7150e-01	4.5667	0.631175	0.000141	1.411729	0.239153	-0.002822
1545	7.7200e-01	4.5583	0.617491	0.000137	1.368949	0.231906	-0.002737
1546	7.7250e-01	4.5444	0.599103	0.000184	1.839525	0.311624	-0.003678
1547	7.7300e-01	4.5334	0.582853	0.000163	1.625627	0.275389	-0.003250
1548	7.7350e-01	4.5258	0.563182	0.000197	1.967864	0.333365	-0.003934
1549	7.7400e-01	4.5160	0.534104	0.000291	2.909017	0.492801	-0.005816
1550	7.7450e-01	4.5050	0.519992	0.000141	1.411729	0.239153	-0.002822
1551	7.7500e-01	4.4952	0.473809	0.000462	4.620204	0.782684	-0.009237
1552	7.7550e-01	4.4830	0.482361	-0.000086	-0.855593	-0.144941	0.001711
1553	7.7600e-01	4.4781	0.449434	0.000329	3.294034	0.558024	-0.006585
1554	7.7650e-01	4.4669	0.442165	0.000073	0.727254	0.123200	-0.001454
1555	7.7700e-01	4.4547	0.399402	0.000428	4.277966	0.724707	-0.008553
1556	7.7750e-01	4.4478	0.391705	0.000077	0.770034	0.130447	-0.001539
1557	7.7800e-01	4.4339	0.357495	0.000342	3.422373	0.579766	-0.006842
1558	7.7850e-01	4.4254	0.347659	0.000098	0.983932	0.166683	-0.001967
1559	7.7900e-01	4.4165	0.334831	0.000128	1.283390	0.217412	-0.002566
1560	7.7950e-01	4.4055	0.314732	0.000201	2.010644	0.340612	-0.004020
1561	7.8000e-01	4.3967	0.292923	0.000218	2.181763	0.369601	-0.004362
1562	7.8050e-01	4.3890	0.273253	0.000197	1.967864	0.333365	-0.003934
1563	7.8100e-01	4.3768	0.243746	0.000295	2.951797	0.500048	-0.005901
1564	7.8150e-01	4.3652	0.226214	0.000175	1.753966	0.297130	-0.003507
1565	7.8200e-01	4.3539	0.220655	0.000056	0.556136	0.094212	-0.001112
1566	7.8250e-01	4.3457	0.193714	0.000270	2.695119	0.456565	-0.005388
1567	7.8300e-01	4.3353	0.177037	0.000167	1.668407	0.282636	-0.003335
1568	7.8350e-01	4.3262	0.159932	0.000171	1.711187	0.289883	-0.003421
1569	7.8400e-01	4.3158	0.119307	0.000406	4.064068	0.688472	-0.008125
1570	7.8450e-01	4.3053	0.115031	0.000043	0.427797	0.072471	-0.000855
1571	7.8500e-01	4.2966	0.100064	0.000150	1.497288	0.253647	-0.002993
1572	7.8550e-01	4.2854	0.080821	0.000193	1.925085	0.326118	-0.003849
1573	7.8600e-01	4.2780	0.050032	0.000308	3.080136	0.521789	-0.006158
1574	7.8650e-01	4.2648	0.033355	0.000167	1.668407	0.282636	-0.003335
1575	7.8700e-01	4.2557	0.015822	0.000175	1.753966	0.297130	-0.003507
1576	7.8750e-01	4.2445	0.000428	0.000154	1.540068	0.260895	-0.003079
1577	7.8800e-01	4.2349	-0.026085	0.000265	2.652339	0.449318	-0.005303
1578	7.8850e-01	4.2242	-0.047894	0.000218	2.181763	0.369601	-0.004362
1579	7.8900e-01	4.2152	-0.041052	-0.000068	-0.684475	-0.115953	0.001368
1580	7.8950e-01	4.2053	-0.086808	0.000458	4.577424	0.775437	-0.009151
1581	7.9000e-01	4.1937	-0.110327	0.000235	2.352881	0.398589	-0.004704
1582	7.9050e-01	4.1861	-0.113321	0.000030	0.299458	0.050729	-0.000599
1583	7.9100e-01	4.1756	-0.133419	0.000201	2.010644	0.340612	-0.004020
1584	7.9150e-01	4.1638	-0.161642	0.000282	2.823458	0.478307	-0.005645
1585	7.9200e-01	4.1556	-0.186445	0.000248	2.481220	0.420330	-0.004960
1586	7.9250e-01	4.1455	-0.197135	0.000107	1.069492	0.181177	-0.002138
1587	7.9300e-01	4.1376	-0.227924	0.000308	3.080136	0.521789	-0.006158
1588	7.9350e-01	4.1248	-0.247595	0.000197	1.967864	0.333365	-0.003934
1589	7.9400e-01	4.1163	-0.271970	0.000244	2.438441	0.413083	-0.004875
1590	7.9450e-01	4.1064	-0.287364	0.000154	1.540068	0.260895	-0.003079
1591	7.9500e-01	4.0942	-0.315587	0.000282	2.823458	0.478307	-0.005645
1592	7.9550e-01	4.0845	-0.317298	0.000017	0.171119	0.028988	-0.000342
1593	7.9600e-01	4.0762	-0.345521	0.000282	2.823458	0.478307	-0.005645
1594	7.9650e-01	4.0652	-0.367758	0.000222	2.224542	0.376848	-0.004447
1595	7.9700e-01	4.0576	-0.392132	0.000244	2.438441	0.413083	-0.004875
1596	7.9750e-01	4.0442	-0.411376	0.000193	1.925085	0.326118	-0.003849
1597	7.9800e-01	4.0369	-0.420356	0.000090	0.898373	0.152188	-0.001796
1598	7.9850e-01	4.0259	-0.446013	0.000257	2.566780	0.434824	-0.005132
1599	7.9900e-01	4.0161	-0.453283	0.000073	0.727254	0.123200	-0.001454
1600	7.9950e-01	4.0076	-0.486210	0.000329	3.294034	0.558024	-0.006585
1601	8.0000e-01	3.9975	-0.509302	0.000231	2.310102	0.391342	-0.004618
1602	8.0050e-01	3.9862	-0.534959	0.000257	2.566780	0.434824	-0.005132
1603	8.0100e-01	3.9723	-0.551637	0.000167	1.668407	0.282636	-0.003335
1604	8.0150e-01	3.9658	-0.568314	0.000167	1.668407	0.282636	-0.003335
1605	8.0200e-01	3.9569	-0.571307	0.000030	0.299458	0.050729	-0.000599
1606	8.0250e-01	3.9447	-0.622622	0.000513	5.133560	0.869649	-0.010263
1607	8.0300e-01	3.9362	-0.625188	0.000026	0.256678	0.043482	-0.000513
1608	8.0350e-01	3.9254	-0.641866	0.000167	1.668407	0.282636	-0.003335
1609	8.0400e-01	3.9151	-0.670089	0.000282	2.823458	0.478307	-0.005645
1610	8.0450e-01	3.9075	-0.696602	0.000265	2.652339	0.449318	-0.005303
1611	8.0500e-01	3.8931	-0.708147	0.000116	1.155051	0.195671	-0.002309
1612	8.0550e-01	3.8846	-0.741075	0.000329	3.294034	0.558024	-0.006585
1613	8.0600e-01	3.8754	-0.756897	0.000158	1.582848	0.268142	-0.003164
1614	8.0650e-01	3.8660	-0.777423	0.000205	2.053424	0.347859	-0.004105
1615	8.0700e-01	3.8551	-0.805218	0.000278	2.780678	0.471060	-0.005559
1616	8.0750e-01	3.8440	-0.809067	0.000039	0.385017	0.065224	-0.000770
1617	8.0800e-01	3.8373	-0.840711	0.000317	3.165695	0.536283	-0.006329
1618	8.0850e-01	3.8260	-0.850974	0.000103	1.026712	0.173930	-0.002053
1619	8.0900e-01	3.8142	-0.872356	0.000214	2.138983	0.362354	-0.004276
1620	8.0950e-01	3.8052	-0.891171	0.000188	1.882305	0.318871	-0.003763
1621	8.1000e-01	3.7976	-0.910414	0.000193	1.925085	0.326118	-0.003849
1622	8.1050e-01	3.7866	-0.933934	0.000235	2.352881	0.398589	-0.004704
1623	8.1100e-01	3.7747	-0.925809	-0.000081	-0.812814	-0.137694	0.001625
1624	8.1150e-01	3.7643	-0.972847	0.000471	4.705763	0.797178	-0.009408
1625	8.1200e-01	3.7556	-1.001071	0.000282	2.823458	0.478307	-0.005645
1626	8.1250e-01	3.7444	-0.998933	-0.000021	-0.213898	-0.036235	0.000428
1627	8.1300e-01	3.7347	-1.042123	0.000432	4.320746	0.731954	-0.008638
1628	8.1350e-01	3.7244	-1.047682	0.000056	0.556136	0.094212	-0.001112
1629	8.1400e-01	3.7170	-1.072057	0.000244	2.438441	0.413083	-0.004875
1630	8.1450e-01	3.7048	-1.104556	0.000325	3.251254	0.550777	-0.006500
1631	8.1500e-01	3.6951	-1.117385	0.000128	1.283390	0.217412	-0.002566
1632	8.1550e-01	3.6853	-1.131924	0.000145	1.454509	0.246400	-0.002908
1633	8.1600e-01	3.6758	-1.168700	0.000368	3.679051	0.623248	-0.007355
1634	8.1650e-01	3.6676	-1.169555	0.000009	0.085559	0.014494	-0.000171
1635	8.1700e-01	3.6578	-1.195213	0.000257	2.566780	0.434824	-0.005132
1636	8.1750e-01	3.6438	-1.212318	0.000171	1.711187	0.289883	-0.003421
1637	8.1800e-01	3.6343	-1.238830	0.000265	2.652339	0.449318	-0.005303
1638	8.1850e-01	3.6261	-1.239258	0.000004	0.042780	0.007247	-0.000086
1639	8.1900e-01	3.6166	-1.271758	0.000325	3.251254	0.550777	-0.006500
1640	8.1950e-01	3.6041	-1.297843	0.000261	2.609559	0.442071	-0.005217
1641	8.2000e-01	3.5957	-1.321362	0.000235	2.352881	0.398589	-0.004704
1642	8.2050e-01	3.5849	-1.326066	0.000047	0.470576	0.079718	-0.000941
1643	8.2100e-01	3.5748	-1.358993	0.000329	3.294034	0.558024	-0.006585
1644	8.2150e-01	3.5663	-1.376953	0.000180	1.796746	0.304377	-0.003592
1645	8.2200e-01	3.5577	-1.406887	0.000299	2.994576	0.507295	-0.005987
1646	8.2250e-01	3.5484	-1.426558	0.000197	1.967864	0.333365	-0.003934
1647	8.2300e-01	3.5365	-1.450505	0.000240	2.395661	0.405836	-0.004789
1648	8.2350e-01	3.5272	-1.478301	0.000278	2.780678	0.471060	-0.005559
1649	8.2400e-01	3.5156	-1.487708	0.000094	0.941153	0.159436	-0.001882
1650	8.2450e-01	3.5052	-1.500109	0.000124	1.240610	0.210165	-0.002480
1651	8.2500e-01	3.4955	-1.521491	0.000214	2.138983	0.362354	-0.004276
1652	8.2550e-01	3.4857	-1.550569	0.000291	2.909017	0.492801	-0.005816
1653	8.2600e-01	3.4767	-1.556556	0.000060	0.598915	0.101459	-0.001197
1654	8.2650e-01	3.4665	-1.598036	0.000415	4.149627	0.702966	-0.008296
1655	8.2700e-01	3.4554	-1.602312	0.000043	0.427797	0.072471	-0.000855
1656	8.2750e-01	3.4442	-1.630963	0.000287	2.866237	0.485554	-0.005730
1657	8.2800e-01	3.4357	-1.650634	0.000197	1.967864	0.333365	-0.003934
1658	8.2850e-01	3.4260	-1.677146	0.000265	2.652339	0.449318	-0.005303
1659	8.2900e-01	3.4152	-1.680567	0.000034	0.342237	0.057977	-0.000684
1660	8.2950e-01	3.4073	-1.718626	0.000381	3.807390	0.644989	-0.007612
1661	8.3000e-01	3.3956	-1.729744	0.000111	1.112271	0.188424	-0.002224
1662	8.3050e-01	3.3868	-1.748132	0.000184	1.839525	0.311624	-0.003678
1663	8.3100e-01	3.3789	-1.777211	0.000291	2.909017	0.492801	-0.005816
1664	8.3150e-01	3.3652	-1.795599	0.000184	1.839525	0.311624	-0.003678
1665	8.3200e-01	3.3557	-1.806717	0.000111	1.112271	0.188424	-0.002224
1666	8.3250e-01	3.3459	-1.850335	0.000436	4.363526	0.739201	-0.008724
1667	8.3300e-01	3.3369	-1.865301	0.000150	1.497288	0.253647	-0.002993
1668	8.3350e-01	3.3254	-1.881979	0.000167	1.668407	0.282636	-0.003335
1669	8.3400e-01	3.3156	-1.899084	0.000171	1.711187	0.289883	-0.003421
1670	8.3450e-01	3.3054	-1.929018	0.000299	2.994576	0.507295	-0.005987
1671	8.3500e-01	3.2971	-1.949971	0.000210	2.096203	0.355106	-0.004191
1672	8.3550e-01	3.2860	-1.970070	0.000201	2.010644	0.340612	-0.004020
1673	8.3600e-01	3.2796	-1.986319	0.000163	1.625627	0.275389	-0.003250
1674	8.3650e-01	3.2654	-2.011122	0.000248	2.481220	0.420330	-0.004960
1675	8.3700e-01	3.2571	-2.032931	0.000218	2.181763	0.369601	-0.004362
1676	8.3750e-01	3.2458	-2.053029	0.000201	2.010644	0.340612	-0.004020
1677	8.3800e-01	3.2350	-2.065002	0.000120	1.197831	0.202918	-0.002395
1678	8.3850e-01	3.2245	-2.086384	0.000214	2.138983	0.362354	-0.004276
1679	8.3900e-01	3.2167	-2.102206	0.000158	1.582848	0.268142	-0.003164
1680	8.3950e-01	3.2069	-2.137699	0.000355	3.550712	0.601507	-0.007099
1681	8.4000e-01	3.1947	-2.150528	0.000128	1.283390	0.217412	-0.002566
1682	8.4050e-01	3.1845	-2.164212	0.000137	1.368949	0.231906	-0.002737
1683	8.4100e-01	3.1766	-2.195428	0.000312	3.122915	0.529036	-0.006243
1684	8.4150e-01	3.1677	-2.219803	0.000244	2.438441	0.413083	-0.004875
1685	8.4200e-01	3.1592	-2.239046	0.000193	1.925085	0.326118	-0.003849
1686	8.4250e-01	3.1458	-2.232204	-0.000068	-0.684475	-0.115953	0.001368
1687	8.4300e-01	3.1351	-2.275394	0.000432	4.320746	0.731954	-0.008638
1688	8.4350e-01	3.1256	-2.305755	0.000304	3.037356	0.514542	-0.006072
1689	8.4400e-01	3.1152	-2.330558	0.000248	2.481220	0.420330	-0.004960
1690	8.4450e-01	3.1055	-2.335689	0.000051	0.513356	0.086965	-0.001026
1691	8.4500e-01	3.0945	-2.359209	0.000235	2.352881	0.398589	-0.004704
1692	8.4550e-01	3.0853	-2.381018	0.000218	2.181763	0.369601	-0.004362
1693	8.4600e-01	3.0753	-2.404109	0.000231	2.310102	0.391342	-0.004618
1694	8.4650e-01	3.0664	-2.416938	0.000128	1.283390	0.217412	-0.002566
1695	8.4700e-01	3.0560	-2.428056	0.000111	1.112271	0.188424	-0.002224
1696	8.4750e-01	3.0457	-2.474667	0.000466	4.662983	0.789931	-0.009322
1697	8.4800e-01	3.0354	-2.494338	0.000197	1.967864	0.333365	-0.003934
1698	8.4850e-01	3.0278	-2.508450	0.000141	1.411729	0.239153	-0.002822
1699	8.4900e-01	3.0151	-2.518285	0.000098	0.983932	0.166683	-0.001967
1700	8.4950e-01	3.0042	-2.535818	0.000175	1.753966	0.297130	-0.003507
1701	8.5000e-01	2.9993	-2.580291	0.000445	4.449085	0.753695	-0.008895
1702	8.5050e-01	2.9843	-2.593547	0.000133	1.326170	0.224659	-0.002651
1703	8.5100e-01	2.9749	-2.613646	0.000201	2.010644	0.340612	-0.004020
1704	8.5150e-01	2.9657	-2.624764	0.000111	1.112271	0.188424	-0.002224
1705	8.5200e-01	2.9556	-2.653842	0.000291	2.909017	0.492801	-0.005816
1706	8.5250e-01	2.9474	-2.689763	0.000359	3.593492	0.608754	-0.007184
1707	8.5300e-01	2.9372	-2.701736	0.000120	1.197831	0.202918	-0.002395
1708	8.5350e-01	2.9248	-2.714138	0.000124	1.240610	0.210165	-0.002480
1709	8.5400e-01	2.9176	-2.750058	0.000359	3.593492	0.608754	-0.007184
1710	8.5450e-01	2.9062	-2.756900	0.000068	0.684475	0.115953	-0.001368
1711	8.5500e-01	2.8955	-2.789827	0.000329	3.294034	0.558024	-0.006585
1712	8.5550e-01	2.8861	-2.812491	0.000227	2.267322	0.384095	-0.004533
1713	8.5600e-01	2.8745	-2.837294	0.000248	2.481220	0.420330	-0.004960
1714	8.5650e-01	2.8671	-2.847129	0.000098	0.983932	0.166683	-0.001967
1715	8.5700e-01	2.8578	-2.876635	0.000295	2.951797	0.500048	-0.005901
1716	8.5750e-01	2.8439	-2.889464	0.000128	1.283390	0.217412	-0.002566
1717	8.5800e-01	2.8345	-2.922391	0.000329	3.294034	0.558024	-0.006585
1718	8.5850e-01	2.8265	-2.922819	0.000004	0.042780	0.007247	-0.000086
1719	8.5900e-01	2.8172	-2.957029	0.000342	3.422373	0.579766	-0.006842
1720	8.5950e-01	2.8061	-2.983969	0.000270	2.695119	0.456565	-0.005388
1721	8.6000e-01	2.7960	-2.993377	0.000094	0.941153	0.159436	-0.001882
1722	8.6050e-01	2.7836	-3.020745	0.000274	2.737898	0.463813	-0.005474
1723	8.6100e-01	2.7783	-3.042126	0.000214	2.138983	0.362354	-0.004276
1724	8.6150e-01	2.7641	-3.064363	0.000222	2.224542	0.376848	-0.004447
1725	8.6200e-01	2.7554	-3.086599	0.000222	2.224542	0.376848	-0.004447
1726	8.6250e-01	2.7454	-3.116105	0.000295	2.951797	0.500048	-0.005901
1727	8.6300e-01	2.7368	-3.126368	0.000103	1.026712	0.173930	-0.002053
1728	8.6350e-01	2.7271	-3.140480	0.000141	1.411729	0.239153	-0.002822
1729	8.6400e-01	2.7138	-3.150315	0.000098	0.983932	0.166683	-0.001967
1730	8.6450e-01	2.7057	-3.193506	0.000432	4.320746	0.731954	-0.008638
1731	8.6500e-01	2.6967	-3.208472	0.000150	1.497288	0.253647	-0.002993
1732	8.6550e-01	2.6843	-3.227288	0.000188	1.882305	0.318871	-0.003763
1733	8.6600e-01	2.6749	-3.249952	0.000227	2.267322	0.384095	-0.004533
1734	8.6650e-01	2.6631	-3.273899	0.000240	2.395661	0.405836	-0.004789
1735	8.6700e-01	2.6575	-3.288438	0.000145	1.454509	0.246400	-0.002908
1736	8.6750e-01	2.6452	-3.315806	0.000274	2.737898	0.463813	-0.005474
1737	8.6800e-01	2.6355	-3.335477	0.000197	1.967864	0.333365	-0.003934
1738	8.6850e-01	2.6264	-3.370542	0.000351	3.507932	0.594260	-0.007013
1739	8.6900e-01	2.6164	-3.378240	0.000077	0.770034	0.130447	-0.001539
1740	8.6950e-01	2.6065	-3.405608	0.000274	2.737898	0.463813	-0.005474
1741	8.7000e-01	2.5958	-3.417581	0.000120	1.197831	0.202918	-0.002395
1742	8.7050e-01	2.5861	-3.445377	0.000278	2.780678	0.471060	-0.005559
1743	8.7100e-01	2.5763	-3.462482	0.000171	1.711187	0.289883	-0.003421
1744	8.7150e-01	2.5655	-3.483863	0.000214	2.138983	0.362354	-0.004276
1745	8.7200e-01	2.5555	-3.495837	0.000120	1.197831	0.202918	-0.002395
1746	8.7250e-01	2.5467	-3.537744	0.000419	4.192407	0.710213	-0.008381
1747	8.7300e-01	2.5336	-3.537744	-0.000000	-0.000000	-0.000000	0.000000
1748	8.7350e-01	2.5275	-3.571526	0.000338	3.379593	0.572519	-0.006756
1749	8.7400e-01	2.5137	-3.584783	0.000133	1.326170	0.224659	-0.002651
1750	8.7450e-01	2.5076	-3.621558	0.000368	3.679051	0.623248	-0.007355
1751	8.7500e-01	2.4973	-3.650637	0.000291	2.909017	0.492801	-0.005816
1752	8.7550e-01	2.4857	-3.663038	0.000124	1.240610	0.210165	-0.002480
1753	8.7600e-01	2.4770	-3.684419	0.000214	2.138983	0.362354	-0.004276
1754	8.7650e-01	2.4656	-3.714353	0.000299	2.994576	0.507295	-0.005987
1755	8.7700e-01	2.4545	-3.720768	0.000064	0.641695	0.108706	-0.001283
1756	8.7750e-01	2.4451	-3.743004	0.000222	2.224542	0.376848	-0.004447
1757	8.7800e-01	2.4354	-3.753267	0.000103	1.026712	0.173930	-0.002053
1758	8.7850e-01	2.4249	-3.800733	0.000475	4.748543	0.804425	-0.009493
1759	8.7900e-01	2.4140	-3.819977	0.000193	1.925085	0.326118	-0.003849
1760	8.7950e-01	2.4043	-3.819121	-0.000009	-0.085559	-0.014494	0.000171
1761	8.8000e-01	2.3969	-3.852476	0.000334	3.336814	0.565272	-0.006671
1762	8.8050e-01	2.3861	-3.864877	0.000124	1.240610	0.210165	-0.002480
1763	8.8100e-01	2.3746	-3.894383	0.000295	2.951797	0.500048	-0.005901
1764	8.8150e-01	2.3676	-3.904646	0.000103	1.026712	0.173930	-0.002053
1765	8.8200e-01	2.3572	-3.941850	0.000372	3.721831	0.630495	-0.007441
1766	8.8250e-01	2.3444	-3.957672	0.000158	1.582848	0.268142	-0.003164
1767	8.8300e-01	2.3372	-3.974349	0.000167	1.668407	0.282636	-0.003335
1768	8.8350e-01	2.3254	-4.008987	0.000347	3.465153	0.587013	-0.006928
1769	8.8400e-01	2.3172	-4.034217	0.000252	2.524000	0.427577	-0.005046
1770	8.8450e-01	2.3077	-4.061585	0.000274	2.737898	0.463813	-0.005474
1771	8.8500e-01	2.2940	-4.070993	0.000094	0.941153	0.159436	-0.001882
1772	8.8550e-01	2.2857	-4.091091	0.000201	2.010644	0.340612	-0.004020
1773	8.8600e-01	2.2736	-4.121025	0.000299	2.994576	0.507295	-0.005987
1774	8.8650e-01	2.2665	-4.150103	0.000291	2.909017	0.492801	-0.005816
1775	8.8700e-01	2.2565	-4.169774	0.000197	1.967864	0.333365	-0.003934
1776	8.8750e-01	2.2459	-4.185169	0.000154	1.540068	0.260895	-0.003079
1777	8.8800e-01	2.2382	-4.195004	0.000098	0.983932	0.166683	-0.001967
1778	8.8850e-01	2.2255	-4.244181	0.000492	4.919661	0.833413	-0.009835
1779	8.8900e-01	2.2174	-4.258292	0.000141	1.411729	0.239153	-0.002822
1780	8.8950e-01	2.2061	-4.272404	0.000141	1.411729	0.239153	-0.002822
1781	8.9000e-01	2.1936	-4.280101	0.000077	0.770034	0.130447	-0.001539
1782	8.9050e-01	2.1848	-4.307897	0.000278	2.780678	0.471060	-0.005559
1783	8.9100e-01	2.1737	-4.347239	0.000394	3.935729	0.666731	-0.007868
1784	8.9150e-01	2.1658	-4.363061	0.000158	1.582848	0.268142	-0.003164
1785	8.9200e-01	2.1573	-4.366482	0.000034	0.342237	0.057977	-0.000684
1786	8.9250e-01	2.1442	-4.384442	0.000180	1.796746	0.304377	-0.003592
1787	8.9300e-01	2.1335	-4.419507	0.000351	3.507932	0.594260	-0.007013
1788	8.9350e-01	2.1249	-4.443027	0.000235	2.352881	0.398589	-0.004704
1789	8.9400e-01	2.1171	-4.462270	0.000193	1.925085	0.326118	-0.003849
1790	8.9450e-01	2.1036	-4.493486	0.000312	3.122915	0.529036	-0.006243
1791	8.9500e-01	2.0941	-4.505888	0.000124	1.240610	0.210165	-0.002480
1792	8.9550e-01	2.0850	-4.527269	0.000214	2.138983	0.362354	-0.004276
1793	8.9600e-01	2.0730	-4.538387	0.000111	1.112271	0.188424	-0.002224
1794	8.9650e-01	2.0657	-4.567466	0.000291	2.909017	0.492801	-0.005816
1795	8.9700e-01	2.0547	-4.607235	0.000398	3.978509	0.673978	-0.007954
1796	8.9750e-01	2.0441	-4.614504	0.000073	0.727254	0.123200	-0.001454
1797	8.9800e-01	2.0355	-4.650425	0.000359	3.593492	0.608754	-0.007184
1798	8.9850e-01	2.0258	-4.650425	-0.000000	-0.000000	-0.000000	0.000000
1799	8.9900e-01	2.0163	-4.690194	0.000398	3.978509	0.673978	-0.007954
1800	8.9950e-01	2.0059	-4.728253	0.000381	3.807390	0.644989	-0.007612
1801	9.0000e-01	1.9954	-4.731246	0.000030	0.299458	0.050729	-0.000599
1802	9.0050e-01	1.9850	-4.765884	0.000347	3.465153	0.587013	-0.006928
1803	9.0100e-01	1.9748	-4.768877	0.000030	0.299458	0.050729	-0.000599
1804	9.0150e-01	1.9652	-4.795817	0.000270	2.695119	0.456565	-0.005388
1805	9.0200e-01	1.9586	-4.816343	0.000205	2.053424	0.347859	-0.004105
1806	9.0250e-01	1.9459	-4.848415	0.000321	3.208475	0.543530	-0.006414
1807	9.0300e-01	1.9326	-4.861244	0.000128	1.283390	0.217412	-0.002566
1808	9.0350e-01	1.9254	-4.891606	0.000304	3.037356	0.514542	-0.006072
1809	9.0400e-01	1.9174	-4.896309	0.000047	0.470576	0.079718	-0.000941
1810	9.0450e-01	1.9026	-4.946342	0.000501	5.005221	0.847907	-0.010006
1811	9.0500e-01	1.8942	-4.960881	0.000145	1.454509	0.246400	-0.002908
1812	9.0550e-01	1.8854	-4.970289	0.000094	0.941153	0.159436	-0.001882
1813	9.0600e-01	1.8771	-4.989959	0.000197	1.967864	0.333365	-0.003934
1814	9.0650e-01	1.8629	-5.003643	0.000137	1.368949	0.231906	-0.002737
1815	9.0700e-01	1.8536	-5.039564	0.000359	3.593492	0.608754	-0.007184
1816	9.0750e-01	1.8420	-5.058807	0.000193	1.925085	0.326118	-0.003849
1817	9.0800e-01	1.8372	-5.089596	0.000308	3.080136	0.521789	-0.006158
1818	9.0850e-01	1.8244	-5.107556	0.000180	1.796746	0.304377	-0.003592
1819	9.0900e-01	1.8158	-5.125517	0.000180	1.796746	0.304377	-0.003592
1820	9.0950e-01	1.8057	-5.154167	0.000287	2.866237	0.485554	-0.005730
1821	9.1000e-01	1.7950	-5.167851	0.000137	1.368949	0.231906	-0.002737
1822	9.1050e-01	1.7844	-5.199923	0.000321	3.208475	0.543530	-0.006414
1823	9.1100e-01	1.7763	-5.220449	0.000205	2.053424	0.347859	-0.004105
1824	9.1150e-01	1.7651	-5.239692	0.000193	1.925085	0.326118	-0.003849
1825	9.1200e-01	1.7538	-5.255087	0.000154	1.540068	0.260895	-0.003079
1826	9.1250e-01	1.7426	-5.288442	0.000334	3.336814	0.565272	-0.006671
1827	9.1300e-01	1.7332	-5.305547	0.000171	1.711187	0.289883	-0.003421
1828	9.1350e-01	1.7252	-5.323079	0.000175	1.753966	0.297130	-0.003507
1829	9.1400e-01	1.7172	-5.353441	0.000304	3.037356	0.514542	-0.006072
1830	9.1450e-01	1.7044	-5.368835	0.000154	1.540068	0.260895	-0.003079
1831	9.1500e-01	1.6954	-5.399197	0.000304	3.037356	0.514542	-0.006072
1832	9.1550e-01	1.6859	-5.407749	0.000086	0.855593	0.144941	-0.001711
1833	9.1600e-01	1.6765	-5.438538	0.000308	3.080136	0.521789	-0.006158
1834	9.1650e-01	1.6678	-5.468472	0.000299	2.994576	0.507295	-0.005987
1835	9.1700e-01	1.6541	-5.504393	0.000359	3.593492	0.608754	-0.007184
1836	9.1750e-01	1.6451	-5.510807	0.000064	0.641695	0.108706	-0.001283
1837	9.1800e-01	1.6354	-5.524491	0.000137	1.368949	0.231906	-0.002737
1838	9.1850e-01	1.6233	-5.550576	0.000261	2.609559	0.442071	-0.005217
1839	9.1900e-01	1.6164	-5.569392	0.000188	1.882305	0.318871	-0.003763
1840	9.1950e-01	1.6051	-5.599325	0.000299	2.994576	0.507295	-0.005987
1841	9.2000e-01	1.5938	-5.629687	0.000304	3.037356	0.514542	-0.006072
1842	9.2050e-01	1.5839	-5.635246	0.000056	0.556136	0.094212	-0.001112
1843	9.2100e-01	1.5766	-5.669028	0.000338	3.379593	0.572519	-0.006756
1844	9.2150e-01	1.5686	-5.680574	0.000116	1.155051	0.195671	-0.002309
1845	9.2200e-01	1.5555	-5.713074	0.000325	3.251254	0.550777	-0.006500
1846	9.2250e-01	1.5469	-5.737021	0.000240	2.395661	0.405836	-0.004789
1847	9.2300e-01	1.5369	-5.766954	0.000299	2.994576	0.507295	-0.005987
1848	9.2350e-01	1.5251	-5.775507	0.000086	0.855593	0.144941	-0.001711
1849	9.2400e-01	1.5155	-5.799026	0.000235	2.352881	0.398589	-0.004704
1850	9.2450e-01	1.5061	-5.815704	0.000167	1.668407	0.282636	-0.003335
1851	9.2500e-01	1.4951	-5.850341	0.000347	3.465153	0.587013	-0.006928
1852	9.2550e-01	1.4835	-5.860177	0.000098	0.983932	0.166683	-0.001967
1853	9.2600e-01	1.4752	-5.886262	0.000261	2.609559	0.442071	-0.005217
1854	9.2650e-01	1.4638	-5.913202	0.000270	2.695119	0.456565	-0.005388
1855	9.2700e-01	1.4536	-5.944847	0.000317	3.165695	0.536283	-0.006329
1856	9.2750e-01	1.4432	-5.957675	0.000128	1.283390	0.217412	-0.002566
1857	9.2800e-01	1.4347	-5.979484	0.000218	2.181763	0.369601	-0.004362
1858	9.2850e-01	1.4231	-6.001293	0.000218	2.181763	0.369601	-0.004362
1859	9.2900e-01	1.4141	-6.025668	0.000244	2.438441	0.413083	-0.004875
1860	9.2950e-01	1.4040	-6.062871	0.000372	3.721831	0.630495	-0.007441
1861	9.3000e-01	1.3927	-6.073562	0.000107	1.069492	0.181177	-0.002138
1862	9.3050e-01	1.3835	-6.074417	0.000009	0.085559	0.014494	-0.000171
1863	9.3100e-01	1.3748	-6.112048	0.000376	3.764610	0.637742	-0.007526
1864	9.3150e-01	1.3613	-6.120601	0.000086	0.855593	0.144941	-0.001711
1865	9.3200e-01	1.3526	-6.162080	0.000415	4.149627	0.702966	-0.008296
1866	9.3250e-01	1.3451	-6.186455	0.000244	2.438441	0.413083	-0.004875
1867	9.3300e-01	1.3356	-6.195007	0.000086	0.855593	0.144941	-0.001711
1868	9.3350e-01	1.3247	-6.217671	0.000227	2.267322	0.384095	-0.004533
1869	9.3400e-01	1.3162	-6.244184	0.000265	2.652339	0.449318	-0.005303
1870	9.3450e-01	1.3042	-6.275401	0.000312	3.122915	0.529036	-0.006243
1871	9.3500e-01	1.2961	-6.293789	0.000184	1.839525	0.311624	-0.003678
1872	9.3550e-01	1.2866	-6.314315	0.000205	2.053424	0.347859	-0.004105
1873	9.3600e-01	1.2767	-6.340828	0.000265	2.652339	0.449318	-0.005303
1874	9.3650e-01	1.2625	-6.363064	0.000222	2.224542	0.376848	-0.004447
1875	9.3700e-01	1.2540	-6.363919	0.000009	0.085559	0.014494	-0.000171
1876	9.3750e-01	1.2463	-6.416090	0.000522	5.219119	0.884143	-0.010434
1877	9.3800e-01	1.2372	-6.446879	0.000308	3.080136	0.521789	-0.006158
1878	9.3850e-01	1.2257	-6.452010	0.000051	0.513356	0.086965	-0.001026
1879	9.3900e-01	1.2161	-6.480233	0.000282	2.823458	0.478307	-0.005645
1880	9.3950e-01	1.2057	-6.496056	0.000158	1.582848	0.268142	-0.003164
1881	9.4000e-01	1.1957	-6.532831	0.000368	3.679051	0.623248	-0.007355
1882	9.4050e-01	1.1874	-6.536252	0.000034	0.342237	0.057977	-0.000684
1883	9.4100e-01	1.1757	-6.563620	0.000274	2.737898	0.463813	-0.005474
1884	9.4150e-01	1.1646	-6.580725	0.000171	1.711187	0.289883	-0.003421
1885	9.4200e-01	1.1566	-6.611942	0.000312	3.122915	0.529036	-0.006243
1886	9.4250e-01	1.1454	-6.615363	0.000034	0.342237	0.057977	-0.000684
1887	9.4300e-01	1.1357	-6.666678	0.000513	5.133560	0.869649	-0.010263
1888	9.4350e-01	1.1266	-6.679507	0.000128	1.283390	0.217412	-0.002566
1889	9.4400e-01	1.1157	-6.694474	0.000150	1.497288	0.253647	-0.002993
1890	9.4450e-01	1.1073	-6.734670	0.000402	4.021288	0.681225	-0.008039
1891	9.4500e-01	1.0979	-6.745361	0.000107	1.069492	0.181177	-0.002138
1892	9.4550e-01	1.0853	-6.780426	0.000351	3.507932	0.594260	-0.007013
1893	9.4600e-01	1.0742	-6.801380	0.000210	2.096203	0.355106	-0.004191
1894	9.4650e-01	1.0656	-6.830459	0.000291	2.909017	0.492801	-0.005816
1895	9.4700e-01	1.0545	-6.839011	0.000086	0.855593	0.144941	-0.001711
1896	9.4750e-01	1.0477	-6.868090	0.000291	2.909017	0.492801	-0.005816
1897	9.4800e-01	1.0342	-6.893747	0.000257	2.566780	0.434824	-0.005132
1898	9.4850e-01	1.0236	-6.898023	0.000043	0.427797	0.072471	-0.000855
1899	9.4900e-01	1.0162	-6.931378	0.000334	3.336814	0.565272	-0.006671
1900	9.4950e-01	1.0047	-6.966871	0.000355	3.550712	0.601507	-0.007099
1901	9.5000e-01	0.9952	-6.966871	-0.000000	-0.000000	-0.000000	0.000000
1902	9.5050e-01	0.9845	-7.001509	0.000347	3.465153	0.587013	-0.006928
1903	9.5100e-01	0.9757	-7.035291	0.000338	3.379593	0.572519	-0.006756
1904	9.5150e-01	0.9650	-7.057100	0.000218	2.181763	0.369601	-0.004362
1905	9.5200e-01	0.9564	-7.091738	0.000347	3.465153	0.587013	-0.006928
1906	9.5250e-01	0.9460	-7.087889	-0.000039	-0.385017	-0.065224	0.000770
1907	9.5300e-01	0.9362	-7.118250	0.000304	3.037356	0.514542	-0.006072
1908	9.5350e-01	0.9266	-7.137921	0.000197	1.967864	0.333365	-0.003934
1909	9.5400e-01	0.9145	-7.171276	0.000334	3.336814	0.565272	-0.006671
1910	9.5450e-01	0.9071	-7.181539	0.000103	1.026712	0.173930	-0.002053
1911	9.5500e-01	0.8928	-7.195223	0.000137	1.368949	0.231906	-0.002737
1912	9.5550e-01	0.8825	-7.234137	0.000389	3.892949	0.659483	-0.007783
1913	9.5600e-01	0.8745	-7.246966	0.000128	1.283390	0.217412	-0.002566
1914	9.5650e-01	0.8654	-7.284597	0.000376	3.764610	0.637742	-0.007526
1915	9.5700e-01	0.8548	-7.289300	0.000047	0.470576	0.079718	-0.000941
1916	9.5750e-01	0.8469	-7.327359	0.000381	3.807390	0.644989	-0.007612
1917	9.5800e-01	0.8332	-7.339333	0.000120	1.197831	0.202918	-0.002395
1918	9.5850e-01	0.8260	-7.384233	0.000449	4.491865	0.760942	-0.008980
1919	9.5900e-01	0.8165	-7.400055	0.000158	1.582848	0.268142	-0.003164
1920	9.5950e-01	0.8047	-7.409036	0.000090	0.898373	0.152188	-0.001796
1921	9.6000e-01	0.7961	-7.443673	0.000347	3.465153	0.587013	-0.006928
1922	9.6050e-01	0.7838	-7.461633	0.000180	1.796746	0.304377	-0.003592
1923	9.6100e-01	0.7749	-7.480021	0.000184	1.839525	0.311624	-0.003678
1924	9.6150e-01	0.7646	-7.502258	0.000222	2.224542	0.376848	-0.004447
1925	9.6200e-01	0.7544	-7.530909	0.000287	2.866237	0.485554	-0.005730
1926	9.6250e-01	0.7456	-7.562125	0.000312	3.122915	0.529036	-0.006243
1927	9.6300e-01	0.7352	-7.575809	0.000137	1.368949	0.231906	-0.002737
1928	9.6350e-01	0.7251	-7.596763	0.000210	2.096203	0.355106	-0.004191
1929	9.6400e-01	0.7146	-7.623703	0.000270	2.695119	0.456565	-0.005388
1930	9.6450e-01	0.7066	-7.654492	0.000308	3.080136	0.521789	-0.006158
1931	9.6500e-01	0.6941	-7.675874	0.000214	2.138983	0.362354	-0.004276
1932	9.6550e-01	0.6848	-7.699393	0.000235	2.352881	0.398589	-0.004704
1933	9.6600e-01	0.6728	-7.719491	0.000201	2.010644	0.340612	-0.004020
1934	9.6650e-01	0.6639	-7.748998	0.000295	2.951797	0.500048	-0.005901
1935	9.6700e-01	0.6560	-7.769096	0.000201	2.010644	0.340612	-0.004020
1936	9.6750e-01	0.6464	-7.789194	0.000201	2.010644	0.340612	-0.004020
1937	9.6800e-01	0.6375	-7.820411	0.000312	3.122915	0.529036	-0.006243
1938	9.6850e-01	0.6256	-7.829819	0.000094	0.941153	0.159436	-0.001882
1939	9.6900e-01	0.6143	-7.846496	0.000167	1.668407	0.282636	-0.003335
1940	9.6950e-01	0.6065	-7.882417	0.000359	3.593492	0.608754	-0.007184
1941	9.7000e-01	0.5937	-7.915344	0.000329	3.294034	0.558024	-0.006585
1942	9.7050e-01	0.5822	-7.939291	0.000240	2.395661	0.405836	-0.004789
1943	9.7100e-01	0.5762	-7.947416	0.000081	0.812814	0.137694	-0.001625
1944	9.7150e-01	0.5664	-7.973928	0.000265	2.652339	0.449318	-0.005303
1945	9.7200e-01	0.5556	-7.998731	0.000248	2.481220	0.420330	-0.004960
1946	9.7250e-01	0.5450	-8.028237	0.000295	2.951797	0.500048	-0.005901
1947	9.7300e-01	0.5356	-8.043204	0.000150	1.497288	0.253647	-0.002993
1948	9.7350e-01	0.5262	-8.073565	0.000304	3.037356	0.514542	-0.006072
1949	9.7400e-01	0.5148	-8.082545	0.000090	0.898373	0.152188	-0.001796
1950	9.7450e-01	0.5032	-8.111624	0.000291	2.909017	0.492801	-0.005816
1951	9.7500e-01	0.4956	-8.126163	0.000145	1.454509	0.246400	-0.002908
1952	9.7550e-01	0.4836	-8.176623	0.000505	5.048000	0.855154	-0.010092
1953	9.7600e-01	0.4749	-8.185603	0.000090	0.898373	0.152188	-0.001796
1954	9.7650e-01	0.4655	-8.211261	0.000257	2.566780	0.434824	-0.005132
1955	9.7700e-01	0.4589	-8.233497	0.000222	2.224542	0.376848	-0.004447
1956	9.7750e-01	0.4458	-8.272839	0.000394	3.935729	0.666731	-0.007868
1957	9.7800e-01	0.4338	-8.292082	0.000193	1.925085	0.326118	-0.003849
1958	9.7850e-01	0.4276	-8.305766	0.000137	1.368949	0.231906	-0.002737
1959	9.7900e-01	0.4168	-8.333561	0.000278	2.780678	0.471060	-0.005559
1960	9.7950e-01	0.4066	-8.362640	0.000291	2.909017	0.492801	-0.005816
1961	9.8000e-01	0.3963	-8.395567	0.000329	3.294034	0.558024	-0.006585
1962	9.8050e-01	0.3844	-8.400271	0.000047	0.470576	0.079718	-0.000941
1963	9.8100e-01	0.3741	-8.439185	0.000389	3.892949	0.659483	-0.007783
1964	9.8150e-01	0.3659	-8.449020	0.000098	0.983932	0.166683	-0.001967
1965	9.8200e-01	0.3560	-8.463559	0.000145	1.454509	0.246400	-0.002908
1966	9.8250e-01	0.3449	-8.485368	0.000218	2.181763	0.369601	-0.004362
1967	9.8300e-01	0.3361	-8.513592	0.000282	2.823458	0.478307	-0.005645
1968	9.8350e-01	0.3253	-8.534545	0.000210	2.096203	0.355106	-0.004191
1969	9.8400e-01	0.3144	-8.560203	0.000257	2.566780	0.434824	-0.005132
1970	9.8450e-01	0.3061	-8.588854	0.000287	2.866237	0.485554	-0.005730
1971	9.8500e-01	0.2975	-8.618360	0.000295	2.951797	0.500048	-0.005901
1972	9.8550e-01	0.2856	-8.632899	0.000145	1.454509	0.246400	-0.002908
1973	9.8600e-01	0.2745	-8.655563	0.000227	2.267322	0.384095	-0.004533
1974	9.8650e-01	0.2647	-8.681221	0.000257	2.566780	0.434824	-0.005132
1975	9.8700e-01	0.2537	-8.695332	0.000141	1.411729	0.239153	-0.002822
1976	9.8750e-01	0.2467	-8.743226	0.000479	4.791322	0.811672	-0.009579
1977	9.8800e-01	0.2345	-8.752634	0.000094	0.941153	0.159436	-0.001882
1978	9.8850e-01	0.2242	-8.779575	0.000270	2.695119	0.456565	-0.005388
1979	9.8900e-01	0.2137	-8.796680	0.000171	1.711187	0.289883	-0.003421
1980	9.8950e-01	0.2057	-8.828751	0.000321	3.208475	0.543530	-0.006414
1981	9.9000e-01	0.1971	-8.869803	0.000411	4.106848	0.695719	-0.008210
1982	9.9050e-01	0.1849	-8.876218	0.000064	0.641695	0.108706	-0.001283
1983	9.9100e-01	0.1742	-8.896744	0.000205	2.053424	0.347859	-0.004105
1984	9.9150e-01	0.1640	-8.918980	0.000222	2.224542	0.376848	-0.004447
1985	9.9200e-01	0.1574	-8.943355	0.000244	2.438441	0.413083	-0.004875
1986	9.9250e-01	0.1472	-8.974144	0.000308	3.080136	0.521789	-0.006158
1987	9.9300e-01	0.1344	-9.004078	0.000299	2.994576	0.507295	-0.005987
1988	9.9350e-01	0.1250	-9.033584	0.000295	2.951797	0.500048	-0.005901
1989	9.9400e-01	0.1147	-9.043419	0.000098	0.983932	0.166683	-0.001967
1990	9.9450e-01	0.1062	-9.077202	0.000338	3.379593	0.572519	-0.006756
1991	9.9500e-01	0.0940	-9.099011	0.000218	2.181763	0.369601	-0.004362
1992	9.9550e-01	0.0813	-9.107563	0.000086	0.855593	0.144941	-0.001711
1993	9.9600e-01	0.0768	-9.149898	0.000424	4.235187	0.717460	-0.008467
1994	9.9650e-01	0.0642	-9.170852	0.000210	2.096203	0.355106	-0.004191
1995	9.9700e-01	0.0533	-9.199503	0.000287	2.866237	0.485554	-0.005730
1996	9.9750e-01	0.0440	-9.212759	0.000133	1.326170	0.224659	-0.002651
1997	9.9800e-01	0.0400	-9.237561	0.000248	2.481220	0.420330	-0.004960
1998	9.9850e-01	0.0260	-9.261508	0.000240	2.395661	0.405836	-0.004789
1999	9.9900e-01	0.0163	-9.278613	0.000171	1.711187	0.289883	-0.003421
2000	9.9950e-01	0.0054	-9.316672	0.000381	3.807390	0.644989	-0.007612
2001	1.0000e+00	-0.0052	-9.332922	0.000381	3.807390	0.644989	-0.003250

PMax (uC/cm2):	2.01e+01
Pr (uC/cm2):	6.95e-01
-Pr (uC/cm2):	0.00e+00
PLoss (uC/cm2):	0.00e+00
C (Max-Eff) (nF):	2.01e-01
K (Eff):	3.40e+02
Vert. (+/-Pr) Shift (uC/cm2):	3.47e-01
Offset (uC/cm2):	1.00e+01

A (Loop Area - uC/cm2·Volts):	-7.06e-03



Hysteresis Version: 5.48.1 - Radiant Technologies, Inc., 1999 - 9/12/24

