»»»»»»»»»»»»»»»»»»»»»»»»»»»»»»»»»»»» Hysteresis ««««««««««««««««««««««««««««««««««««
»»»  Executed Version:	5.48.1
»»»  Vision Version:	5.48.4 (R)
»»»  Vision Compiled:	9/18/24
»»»  Driver Version:	5.47.0
»»»  Windows Version:	Windows 8 or 8.1
»»»  Processor Information:	x86 (AMD or Intel) - 32 Processors
»»»  Tester Name:	PMF21124-494 (100V)
»»»  Tester S/N:	PMF21124-494
»»»  Internal Amp Type:	100V RevK 270k
»»»  Internal Amp S/N:	iAB2-596/K     
»»»  Execution Count:	1
»»»»»»»»»»»»»»»»»»»»»»»»»»»»»»»»»»»»»»»»»»««««««««««««««««««««««««««««««««««««««««««

Stored:	6/26/2025 - 18:34:57
Configured:	06/26/25 10:24:47 AM
Executed:	06/26/25 06:34:35 PM

»»»»»»»»»»»»»»»»»»»»»»»»»»»»»»»»»»» Sample Info ««««««««««««««««««««««««««««««««««««
Sample Name:	
Lot Name:	
Wafer Name:	
Die Row/Column:	0/0
Capacitor Number:	0
Sample Area (cm2):	1.00e-04
Sample Thickness (microns):	1.50e-01

Amplifier:	Internal

»»»»»»»»»»»»»»»»»»»»»»»»»»»»»»»»»»» Tester Info «««««««««««««««««««««««««««««««««««
Tester Name:	PMF21124-494 (100V)
Tester Serial Number:	PMF21124-494
Return Signal Amp. Level:	1.79 [Index: 2]

»»»»»»»»»»»»»»»»»»»»»»»»»»»»»»»» Hysteresis Info ««««««««««««««««««««««««««««««««««
Task Name:	Hyst-562
Volts:	10.00
Field:	666.67 (kV/cm)
DCBias:	0.00
DCField:	0.00 (kV/cm)
Hysteresis Period (ms):	1.00e+00
Preset:	Enabled
Preset Delay (ms):	1.00e+03
Profile:	Standard Monopolar

»»»»»»»»»»»»»»»»»»»»»»»»»»»»»»»»»»»»»» Data «««««««««««««««««««««««««««««««««««««««
Points:	2001

Valid Data

Point	Time (ms)	Drive Voltage	Measured Polarization (uC/cm2)	Capacitance (uF)	Normalized Capacitance (uF/cm2)	Dielectric Constant	Instantaneous Current (mA)
   1	0.0000e+00	-0.0037	-12.560423	0.000445	4.448185	0.753543	0.008895
   2	5.0000e-04	0.0067	-12.515950	0.000445	4.448185	0.753543	0.008895
   3	1.0000e-03	0.0155	-12.492431	0.000235	2.352406	0.398508	0.004704
   4	1.5000e-03	0.0264	-12.468912	0.000235	2.352406	0.398508	0.004704
   5	2.0000e-03	0.0356	-12.427004	0.000419	4.191559	0.710069	0.008381
   6	2.5000e-03	0.0491	-12.395788	0.000312	3.122284	0.528929	0.006243
   7	3.0000e-03	0.0579	-12.375689	0.000201	2.010238	0.340543	0.004020
   8	3.5000e-03	0.0659	-12.333782	0.000419	4.191559	0.710069	0.008381
   9	4.0000e-03	0.0766	-12.307269	0.000265	2.651803	0.449228	0.005303
  10	4.5000e-03	0.0832	-12.276908	0.000304	3.036742	0.514438	0.006072
  11	5.0000e-03	0.0951	-12.243981	0.000329	3.293368	0.557912	0.006585
  12	5.5000e-03	0.1019	-12.216185	0.000278	2.780116	0.470964	0.005559
  13	6.0000e-03	0.1152	-12.196087	0.000201	2.010238	0.340543	0.004020
  14	6.5000e-03	0.1261	-12.152896	0.000432	4.319872	0.731806	0.008638
  15	7.0000e-03	0.1357	-12.153752	-0.000009	-0.085542	-0.014491	-0.000171
  16	7.5000e-03	0.1489	-12.106713	0.000470	4.704811	0.797017	0.009408
  17	8.0000e-03	0.1566	-12.081055	0.000257	2.566261	0.434736	0.005132
  18	8.5000e-03	0.1658	-12.052832	0.000282	2.822887	0.478210	0.005645
  19	9.0000e-03	0.1762	-12.011780	0.000411	4.106017	0.695578	0.008210
  20	9.5000e-03	0.1862	-12.005366	0.000064	0.641565	0.108684	0.001283
  21	1.0000e-02	0.1959	-11.950630	0.000547	5.474689	0.927438	0.010947
  22	1.0500e-02	0.2068	-11.949347	0.000013	0.128313	0.021737	0.000257
  23	1.1000e-02	0.2151	-11.916420	0.000329	3.293368	0.557912	0.006585
  24	1.1500e-02	0.2259	-11.890335	0.000261	2.609032	0.441982	0.005217
  25	1.2000e-02	0.2335	-11.856980	0.000334	3.336139	0.565157	0.006671
  26	1.2500e-02	0.2476	-11.838164	0.000188	1.881925	0.318807	0.003763
  27	1.3000e-02	0.2570	-11.784711	0.000535	5.346376	0.905701	0.010691
  28	1.3500e-02	0.2655	-11.779152	0.000056	0.556023	0.094193	0.001112
  29	1.4000e-02	0.2794	-11.739810	0.000393	3.934933	0.666596	0.007868
  30	1.4500e-02	0.2879	-11.698758	0.000411	4.106017	0.695578	0.008210
  31	1.5000e-02	0.2967	-11.680798	0.000180	1.796382	0.304315	0.003592
  32	1.5500e-02	0.3042	-11.658134	0.000227	2.266864	0.384017	0.004533
  33	1.6000e-02	0.3143	-11.635042	0.000231	2.309635	0.391263	0.004618
  34	1.6500e-02	0.3247	-11.586293	0.000488	4.875895	0.825999	0.009750
  35	1.7000e-02	0.3342	-11.573037	0.000133	1.325901	0.224614	0.002651
  36	1.7500e-02	0.3465	-11.559780	0.000133	1.325901	0.224614	0.002651
  37	1.8000e-02	0.3584	-11.512741	0.000470	4.704811	0.797017	0.009408
  38	1.8500e-02	0.3667	-11.490505	0.000222	2.224093	0.376771	0.004447
  39	1.9000e-02	0.3759	-11.444321	0.000462	4.619269	0.782525	0.009237
  40	1.9500e-02	0.3900	-11.415243	0.000291	2.908429	0.492701	0.005816
  41	2.0000e-02	0.3963	-11.391724	0.000235	2.352406	0.398508	0.004704
  42	2.0500e-02	0.4079	-11.372908	0.000188	1.881925	0.318807	0.003763
  43	2.1000e-02	0.4159	-11.336987	0.000359	3.592765	0.608631	0.007184
  44	2.1500e-02	0.4282	-11.303633	0.000334	3.336139	0.565157	0.006671
  45	2.2000e-02	0.4364	-11.278830	0.000248	2.480719	0.420245	0.004960
  46	2.2500e-02	0.4446	-11.241199	0.000376	3.763849	0.637613	0.007526
  47	2.3000e-02	0.4549	-11.221529	0.000197	1.967467	0.333298	0.003934
  48	2.3500e-02	0.4639	-11.180477	0.000411	4.106017	0.695578	0.008210
  49	2.4000e-02	0.4775	-11.185608	-0.000051	-0.513252	-0.086947	-0.001026
  50	2.4500e-02	0.4870	-11.136431	0.000492	4.918666	0.833245	0.009835
  51	2.5000e-02	0.4980	-11.104787	0.000317	3.165055	0.536175	0.006329
  52	2.5500e-02	0.5034	-11.068439	0.000364	3.635536	0.615876	0.007270
  53	2.6000e-02	0.5167	-11.063735	0.000047	0.470481	0.079702	0.000941
  54	2.6500e-02	0.5251	-11.017979	0.000458	4.576498	0.775280	0.009151
  55	2.7000e-02	0.5385	-10.987618	0.000304	3.036742	0.514438	0.006072
  56	2.7500e-02	0.5457	-10.952552	0.000351	3.507223	0.594140	0.007013
  57	2.8000e-02	0.5570	-10.917915	0.000346	3.464452	0.586894	0.006928
  58	2.8500e-02	0.5681	-10.923046	-0.000051	-0.513252	-0.086947	-0.001026
  59	2.9000e-02	0.5771	-10.847357	0.000757	7.570469	1.282472	0.015138
  60	2.9500e-02	0.5866	-10.854199	-0.000068	-0.684336	-0.115930	-0.001368
  61	3.0000e-02	0.5962	-10.818278	0.000359	3.592765	0.608631	0.007184
  62	3.0500e-02	0.6071	-10.787917	0.000304	3.036742	0.514438	0.006072
  63	3.1000e-02	0.6165	-10.764825	0.000231	2.309635	0.391263	0.004618
  64	3.1500e-02	0.6247	-10.728477	0.000364	3.635536	0.615876	0.007270
  65	3.2000e-02	0.6385	-10.700681	0.000278	2.780116	0.470964	0.005559
  66	3.2500e-02	0.6461	-10.662195	0.000385	3.849391	0.652104	0.007697
  67	3.3000e-02	0.6563	-10.650649	0.000115	1.154817	0.195631	0.002309
  68	3.3500e-02	0.6654	-10.613446	0.000372	3.721078	0.630368	0.007441
  69	3.4000e-02	0.6771	-10.601044	0.000124	1.240359	0.210123	0.002480
  70	3.4500e-02	0.6846	-10.547164	0.000539	5.389147	0.912946	0.010776
  71	3.5000e-02	0.6962	-10.541177	0.000060	0.598794	0.101438	0.001197
  72	3.5500e-02	0.7054	-10.503546	0.000376	3.763849	0.637613	0.007526
  73	3.6000e-02	0.7142	-10.477033	0.000265	2.651803	0.449228	0.005303
  74	3.6500e-02	0.7251	-10.437692	0.000393	3.934933	0.666596	0.007868
  75	3.7000e-02	0.7358	-10.418876	0.000188	1.881925	0.318807	0.003763
  76	3.7500e-02	0.7437	-10.374831	0.000441	4.405414	0.746297	0.008809
  77	3.8000e-02	0.7578	-10.367133	0.000077	0.769878	0.130421	0.001539
  78	3.8500e-02	0.7668	-10.338910	0.000282	2.822887	0.478210	0.005645
  79	3.9000e-02	0.7751	-10.308121	0.000308	3.079513	0.521684	0.006158
  80	3.9500e-02	0.7864	-10.275194	0.000329	3.293368	0.557912	0.006585
  81	4.0000e-02	0.7938	-10.240556	0.000346	3.464452	0.586894	0.006928
  82	4.0500e-02	0.8091	-10.226445	0.000141	1.411443	0.239105	0.002822
  83	4.1000e-02	0.8175	-10.191379	0.000351	3.507223	0.594140	0.007013
  84	4.1500e-02	0.8270	-10.175985	0.000154	1.539756	0.260842	0.003079
  85	4.2000e-02	0.8344	-10.132367	0.000436	4.362643	0.739052	0.008724
  86	4.2500e-02	0.8465	-10.107992	0.000244	2.437948	0.413000	0.004875
  87	4.3000e-02	0.8557	-10.082763	0.000252	2.523490	0.427491	0.005046
  88	4.3500e-02	0.8669	-10.052829	0.000299	2.993971	0.507192	0.005987
  89	4.4000e-02	0.8756	-10.020329	0.000325	3.250597	0.550666	0.006500
  90	4.4500e-02	0.8852	-9.994244	0.000261	2.609032	0.441982	0.005217
  91	4.5000e-02	0.8931	-9.962600	0.000317	3.165055	0.536175	0.006329
  92	4.5500e-02	0.9072	-9.930956	0.000317	3.165055	0.536175	0.006329
  93	4.6000e-02	0.9192	-9.897601	0.000334	3.336139	0.565157	0.006671
  94	4.6500e-02	0.9282	-9.883062	0.000145	1.454214	0.246351	0.002908
  95	4.7000e-02	0.9373	-9.854411	0.000287	2.865658	0.485456	0.005730
  96	4.7500e-02	0.9460	-9.826187	0.000282	2.822887	0.478210	0.005645
  97	4.8000e-02	0.9579	-9.802668	0.000235	2.352406	0.398508	0.004704
  98	4.8500e-02	0.9665	-9.758623	0.000441	4.405414	0.746297	0.008809
  99	4.9000e-02	0.9762	-9.731255	0.000274	2.737345	0.463719	0.005474
 100	4.9500e-02	0.9854	-9.716715	0.000145	1.454214	0.246351	0.002908
 101	5.0000e-02	0.9962	-9.664545	0.000522	5.218063	0.883964	0.010434
 102	5.0500e-02	1.0068	-9.648723	0.000158	1.582527	0.268087	0.003164
 103	5.1000e-02	1.0139	-9.626059	0.000227	2.266864	0.384017	0.004533
 104	5.1500e-02	1.0291	-9.608954	0.000171	1.710840	0.289824	0.003421
 105	5.2000e-02	1.0389	-9.574316	0.000346	3.464452	0.586894	0.006928
 106	5.2500e-02	1.0463	-9.521718	0.000526	5.260834	0.891209	0.010520
 107	5.3000e-02	1.0565	-9.528988	-0.000073	-0.727107	-0.123175	-0.001454
 108	5.3500e-02	1.0670	-9.472969	0.000560	5.603003	0.949174	0.011204
 109	5.4000e-02	1.0741	-9.469120	0.000038	0.384939	0.065210	0.000770
 110	5.4500e-02	1.0838	-9.410108	0.000590	5.902400	0.999894	0.011802
 111	5.5000e-02	1.0954	-9.391720	0.000184	1.839154	0.311561	0.003678
 112	5.5500e-02	1.1072	-9.379319	0.000124	1.240359	0.210123	0.002480
 113	5.6000e-02	1.1157	-9.340833	0.000385	3.849391	0.652104	0.007697
 114	5.6500e-02	1.1227	-9.318169	0.000227	2.266864	0.384017	0.004533
 115	5.7000e-02	1.1362	-9.299781	0.000184	1.839154	0.311561	0.003678
 116	5.7500e-02	1.1465	-9.263005	0.000368	3.678307	0.623122	0.007355
 117	5.8000e-02	1.1565	-9.233071	0.000299	2.993971	0.507192	0.005987
 118	5.8500e-02	1.1694	-9.195012	0.000381	3.806620	0.644859	0.007612
 119	5.9000e-02	1.1764	-9.186460	0.000086	0.855420	0.144912	0.001711
 120	5.9500e-02	1.1833	-9.148401	0.000381	3.806620	0.644859	0.007612
 121	6.0000e-02	1.1966	-9.127875	0.000205	2.053009	0.347789	0.004105
 122	6.0500e-02	1.2087	-9.082547	0.000453	4.533727	0.768034	0.009066
 123	6.1000e-02	1.2184	-9.068863	0.000137	1.368672	0.231859	0.002737
 124	6.1500e-02	1.2257	-9.031660	0.000372	3.721078	0.630368	0.007441
 125	6.2000e-02	1.2338	-9.014982	0.000167	1.668069	0.282579	0.003335
 126	6.2500e-02	1.2512	-8.988042	0.000269	2.694574	0.456473	0.005388
 127	6.3000e-02	1.2549	-8.939293	0.000488	4.875895	0.825999	0.009750
 128	6.3500e-02	1.2677	-8.932451	0.000068	0.684336	0.115930	0.001368
 129	6.4000e-02	1.2747	-8.900379	0.000321	3.207826	0.543420	0.006414
 130	6.4500e-02	1.2842	-8.876859	0.000235	2.352406	0.398508	0.004704
 131	6.5000e-02	1.2956	-8.846925	0.000299	2.993971	0.507192	0.005987
 132	6.5500e-02	1.3072	-8.791762	0.000552	5.517461	0.934683	0.011033
 133	6.6000e-02	1.3147	-8.778505	0.000133	1.325901	0.224614	0.002651
 134	6.6500e-02	1.3286	-8.751993	0.000265	2.651803	0.449228	0.005303
 135	6.7000e-02	1.3357	-8.724625	0.000274	2.737345	0.463719	0.005474
 136	6.7500e-02	1.3445	-8.708803	0.000158	1.582527	0.268087	0.003164
 137	6.8000e-02	1.3544	-8.671172	0.000376	3.763849	0.637613	0.007526
 138	6.8500e-02	1.3655	-8.643376	0.000278	2.780116	0.470964	0.005559
 139	6.9000e-02	1.3759	-8.617718	0.000257	2.566261	0.434736	0.005132
 140	6.9500e-02	1.3855	-8.570252	0.000475	4.747582	0.804262	0.009493
 141	7.0000e-02	1.3955	-8.569824	0.000004	0.042771	0.007246	0.000086
 142	7.0500e-02	1.4071	-8.540318	0.000295	2.951200	0.499947	0.005901
 143	7.1000e-02	1.4169	-8.511240	0.000291	2.908429	0.492701	0.005816
 144	7.1500e-02	1.4259	-8.473609	0.000376	3.763849	0.637613	0.007526
 145	7.2000e-02	1.4355	-8.436833	0.000368	3.678307	0.623122	0.007355
 146	7.2500e-02	1.4442	-8.418445	0.000184	1.839154	0.311561	0.003678
 147	7.3000e-02	1.4568	-8.385945	0.000325	3.250597	0.550666	0.006500
 148	7.3500e-02	1.4655	-8.361998	0.000240	2.395177	0.405754	0.004789
 149	7.4000e-02	1.4764	-8.320946	0.000411	4.106017	0.695578	0.008210
 150	7.4500e-02	1.4872	-8.302559	0.000184	1.839154	0.311561	0.003678
 151	7.5000e-02	1.4957	-8.286736	0.000158	1.582527	0.268087	0.003164
 152	7.5500e-02	1.5078	-8.242263	0.000445	4.448185	0.753543	0.008895
 153	7.6000e-02	1.5158	-8.211902	0.000304	3.036742	0.514438	0.006072
 154	7.6500e-02	1.5256	-8.193514	0.000184	1.839154	0.311561	0.003678
 155	7.7000e-02	1.5367	-8.162297	0.000312	3.122284	0.528929	0.006243
 156	7.7500e-02	1.5429	-8.137923	0.000244	2.437948	0.413000	0.004875
 157	7.8000e-02	1.5578	-8.098154	0.000398	3.977704	0.673841	0.007954
 158	7.8500e-02	1.5656	-8.084470	0.000137	1.368672	0.231859	0.002737
 159	7.9000e-02	1.5776	-8.059240	0.000252	2.523490	0.427491	0.005046
 160	7.9500e-02	1.5851	-8.030589	0.000287	2.865658	0.485456	0.005730
 161	8.0000e-02	1.5957	-7.998089	0.000325	3.250597	0.550666	0.006500
 162	8.0500e-02	1.6055	-7.966873	0.000312	3.122284	0.528929	0.006243
 163	8.1000e-02	1.6167	-7.945064	0.000218	2.181322	0.369526	0.004362
 164	8.1500e-02	1.6254	-7.913847	0.000312	3.122284	0.528929	0.006243
 165	8.2000e-02	1.6352	-7.892038	0.000218	2.181322	0.369526	0.004362
 166	8.2500e-02	1.6457	-7.868091	0.000240	2.395177	0.405754	0.004789
 167	8.3000e-02	1.6544	-7.818059	0.000500	5.004208	0.847736	0.010006
 168	8.3500e-02	1.6624	-7.791119	0.000269	2.694574	0.456473	0.005388
 169	8.4000e-02	1.6760	-7.777435	0.000137	1.368672	0.231859	0.002737
 170	8.4500e-02	1.6882	-7.747929	0.000295	2.951200	0.499947	0.005901
 171	8.5000e-02	1.6984	-7.731679	0.000163	1.625298	0.275333	0.003250
 172	8.5500e-02	1.7066	-7.692765	0.000389	3.892162	0.659350	0.007783
 173	8.6000e-02	1.7137	-7.662403	0.000304	3.036742	0.514438	0.006072
 174	8.6500e-02	1.7278	-7.638884	0.000235	2.352406	0.398508	0.004704
 175	8.7000e-02	1.7331	-7.605957	0.000329	3.293368	0.557912	0.006585
 176	8.7500e-02	1.7468	-7.588424	0.000175	1.753611	0.297070	0.003507
 177	8.8000e-02	1.7566	-7.546517	0.000419	4.191559	0.710069	0.008381
 178	8.8500e-02	1.7663	-7.528984	0.000175	1.753611	0.297070	0.003507
 179	8.9000e-02	1.7767	-7.486222	0.000428	4.277101	0.724561	0.008553
 180	8.9500e-02	1.7879	-7.458854	0.000274	2.737345	0.463719	0.005474
 181	9.0000e-02	1.7942	-7.443032	0.000158	1.582527	0.268087	0.003164
 182	9.0500e-02	1.8066	-7.423789	0.000192	1.924696	0.326052	0.003849
 183	9.1000e-02	1.8179	-7.394282	0.000295	2.951200	0.499947	0.005901
 184	9.1500e-02	1.8274	-7.372046	0.000222	2.224093	0.376771	0.004447
 185	9.2000e-02	1.8382	-7.340829	0.000312	3.122284	0.528929	0.006243
 186	9.2500e-02	1.8462	-7.295929	0.000449	4.490956	0.760789	0.008980
 187	9.3000e-02	1.8526	-7.272837	0.000231	2.309635	0.391263	0.004618
 188	9.3500e-02	1.8680	-7.260863	0.000120	1.197588	0.202877	0.002395
 189	9.4000e-02	1.8762	-7.219811	0.000411	4.106017	0.695578	0.008210
 190	9.4500e-02	1.8884	-7.193726	0.000261	2.609032	0.441982	0.005217
 191	9.5000e-02	1.8955	-7.172773	0.000210	2.095780	0.355035	0.004191
 192	9.5500e-02	1.9078	-7.151819	0.000210	2.095780	0.355035	0.004191
 193	9.6000e-02	1.9141	-7.114616	0.000372	3.721078	0.630368	0.007441
 194	9.6500e-02	1.9250	-7.085537	0.000291	2.908429	0.492701	0.005816
 195	9.7000e-02	1.9366	-7.050899	0.000346	3.464452	0.586894	0.006928
 196	9.7500e-02	1.9508	-7.023959	0.000269	2.694574	0.456473	0.005388
 197	9.8000e-02	1.9557	-7.009847	0.000141	1.411443	0.239105	0.002822
 198	9.8500e-02	1.9646	-6.961526	0.000483	4.833124	0.818753	0.009664
 199	9.9000e-02	1.9769	-6.952118	0.000094	0.940962	0.159403	0.001882
 200	9.9500e-02	1.9871	-6.920046	0.000321	3.207826	0.543420	0.006414
 201	1.0000e-01	1.9986	-6.885836	0.000342	3.421681	0.579648	0.006842
 202	1.0050e-01	2.0055	-6.866593	0.000192	1.924696	0.326052	0.003849
 203	1.0100e-01	2.0163	-6.835804	0.000308	3.079513	0.521684	0.006158
 204	1.0150e-01	2.0285	-6.810146	0.000257	2.566261	0.434736	0.005132
 205	1.0200e-01	2.0383	-6.773798	0.000364	3.635536	0.615876	0.007270
 206	1.0250e-01	2.0468	-6.751989	0.000218	2.181322	0.369526	0.004362
 207	1.0300e-01	2.0554	-6.715214	0.000368	3.678307	0.623122	0.007355
 208	1.0350e-01	2.0663	-6.688701	0.000265	2.651803	0.449228	0.005303
 209	1.0400e-01	2.0765	-6.673734	0.000150	1.496985	0.253596	0.002993
 210	1.0450e-01	2.0875	-6.643372	0.000304	3.036742	0.514438	0.006072
 211	1.0500e-01	2.0975	-6.613439	0.000299	2.993971	0.507192	0.005987
 212	1.0550e-01	2.1047	-6.584360	0.000291	2.908429	0.492701	0.005816
 213	1.0600e-01	2.1162	-6.555282	0.000291	2.908429	0.492701	0.005816
 214	1.0650e-01	2.1265	-6.520644	0.000346	3.464452	0.586894	0.006928
 215	1.0700e-01	2.1356	-6.490710	0.000299	2.993971	0.507192	0.005987
 216	1.0750e-01	2.1468	-6.491138	-0.000004	-0.042771	-0.007246	-0.000086
 217	1.0800e-01	2.1588	-6.455645	0.000355	3.549994	0.601385	0.007099
 218	1.0850e-01	2.1671	-6.424856	0.000308	3.079513	0.521684	0.006158
 219	1.0900e-01	2.1751	-6.393212	0.000317	3.165055	0.536175	0.006329
 220	1.0950e-01	2.1857	-6.363278	0.000299	2.993971	0.507192	0.005987
 221	1.1000e-01	2.2000	-6.338476	0.000248	2.480719	0.420245	0.004960
 222	1.1050e-01	2.2052	-6.325219	0.000133	1.325901	0.224614	0.002651
 223	1.1100e-01	2.2153	-6.302983	0.000222	2.224093	0.376771	0.004447
 224	1.1150e-01	2.2308	-6.282029	0.000210	2.095780	0.355035	0.004191
 225	1.1200e-01	2.2356	-6.257654	0.000244	2.437948	0.413000	0.004875
 226	1.1250e-01	2.2490	-6.219168	0.000385	3.849391	0.652104	0.007697
 227	1.1300e-01	2.2562	-6.173840	0.000453	4.533727	0.768034	0.009066
 228	1.1350e-01	2.2663	-6.163149	0.000107	1.069275	0.181140	0.002138
 229	1.1400e-01	2.2761	-6.121670	0.000415	4.148788	0.702824	0.008296
 230	1.1450e-01	2.2842	-6.107130	0.000145	1.454214	0.246351	0.002908
 231	1.1500e-01	2.2989	-6.075058	0.000321	3.207826	0.543420	0.006414
 232	1.1550e-01	2.3064	-6.047690	0.000274	2.737345	0.463719	0.005474
 233	1.1600e-01	2.3158	-6.013053	0.000346	3.464452	0.586894	0.006928
 234	1.1650e-01	2.3256	-5.984402	0.000287	2.865658	0.485456	0.005730
 235	1.1700e-01	2.3359	-5.967297	0.000171	1.710840	0.289824	0.003421
 236	1.1750e-01	2.3465	-5.934797	0.000325	3.250597	0.550666	0.006500
 237	1.1800e-01	2.3550	-5.899732	0.000351	3.507223	0.594140	0.007013
 238	1.1850e-01	2.3676	-5.896739	0.000030	0.299397	0.050719	0.000599
 239	1.1900e-01	2.3779	-5.850555	0.000462	4.619269	0.782525	0.009237
 240	1.1950e-01	2.3875	-5.827463	0.000231	2.309635	0.391263	0.004618
 241	1.2000e-01	2.3976	-5.794109	0.000334	3.336139	0.565157	0.006671
 242	1.2050e-01	2.4057	-5.752629	0.000415	4.148788	0.702824	0.008296
 243	1.2100e-01	2.4164	-5.746642	0.000060	0.598794	0.101438	0.001197
 244	1.2150e-01	2.4307	-5.712432	0.000342	3.421681	0.579648	0.006842
 245	1.2200e-01	2.4374	-5.697038	0.000154	1.539756	0.260842	0.003079
 246	1.2250e-01	2.4471	-5.663255	0.000338	3.378910	0.572403	0.006756
 247	1.2300e-01	2.4565	-5.639308	0.000240	2.395177	0.405754	0.004789
 248	1.2350e-01	2.4677	-5.608092	0.000312	3.122284	0.528929	0.006243
 249	1.2400e-01	2.4761	-5.569605	0.000385	3.849391	0.652104	0.007697
 250	1.2450e-01	2.4864	-5.549935	0.000197	1.967467	0.333298	0.003934
 251	1.2500e-01	2.4956	-5.533257	0.000167	1.668069	0.282579	0.003335
 252	1.2550e-01	2.5031	-5.488357	0.000449	4.490956	0.760789	0.008980
 253	1.2600e-01	2.5150	-5.455429	0.000329	3.293368	0.557912	0.006585
 254	1.2650e-01	2.5278	-5.446449	0.000090	0.898191	0.152158	0.001796
 255	1.2700e-01	2.5348	-5.417798	0.000287	2.865658	0.485456	0.005730
 256	1.2750e-01	2.5436	-5.412667	0.000051	0.513252	0.086947	0.001026
 257	1.2800e-01	2.5578	-5.359214	0.000535	5.346376	0.905701	0.010691
 258	1.2850e-01	2.5653	-5.334839	0.000244	2.437948	0.413000	0.004875
 259	1.2900e-01	2.5763	-5.311320	0.000235	2.352406	0.398508	0.004704
 260	1.2950e-01	2.5851	-5.284807	0.000265	2.651803	0.449228	0.005303
 261	1.3000e-01	2.5972	-5.249742	0.000351	3.507223	0.594140	0.007013
 262	1.3050e-01	2.6072	-5.227933	0.000218	2.181322	0.369526	0.004362
 263	1.3100e-01	2.6155	-5.213821	0.000141	1.411443	0.239105	0.002822
 264	1.3150e-01	2.6263	-5.173624	0.000402	4.020475	0.681087	0.008039
 265	1.3200e-01	2.6367	-5.147539	0.000261	2.609032	0.441982	0.005217
 266	1.3250e-01	2.6474	-5.127441	0.000201	2.010238	0.340543	0.004020
 267	1.3300e-01	2.6585	-5.086389	0.000411	4.106017	0.695578	0.008210
 268	1.3350e-01	2.6669	-5.061159	0.000252	2.523490	0.427491	0.005046
 269	1.3400e-01	2.6782	-5.034646	0.000265	2.651803	0.449228	0.005303
 270	1.3450e-01	2.6852	-5.014548	0.000201	2.010238	0.340543	0.004020
 271	1.3500e-01	2.6957	-4.979055	0.000355	3.549994	0.601385	0.007099
 272	1.3550e-01	2.7027	-4.954253	0.000248	2.480719	0.420245	0.004960
 273	1.3600e-01	2.7183	-4.929450	0.000248	2.480719	0.420245	0.004960
 274	1.3650e-01	2.7271	-4.909352	0.000201	2.010238	0.340543	0.004020
 275	1.3700e-01	2.7354	-4.876425	0.000329	3.293368	0.557912	0.006585
 276	1.3750e-01	2.7448	-4.854616	0.000218	2.181322	0.369526	0.004362
 277	1.3800e-01	2.7576	-4.827248	0.000274	2.737345	0.463719	0.005474
 278	1.3850e-01	2.7684	-4.807150	0.000201	2.010238	0.340543	0.004020
 279	1.3900e-01	2.7762	-4.771657	0.000355	3.549994	0.601385	0.007099
 280	1.3950e-01	2.7847	-4.743006	0.000287	2.865658	0.485456	0.005730
 281	1.4000e-01	2.7991	-4.716493	0.000265	2.651803	0.449228	0.005303
 282	1.4050e-01	2.8064	-4.703237	0.000133	1.325901	0.224614	0.002651
 283	1.4100e-01	2.8186	-4.669454	0.000338	3.378910	0.572403	0.006756
 284	1.4150e-01	2.8266	-4.645080	0.000244	2.437948	0.413000	0.004875
 285	1.4200e-01	2.8369	-4.618994	0.000261	2.609032	0.441982	0.005217
 286	1.4250e-01	2.8467	-4.566396	0.000526	5.260834	0.891209	0.010520
 287	1.4300e-01	2.8555	-4.556561	0.000098	0.983733	0.166649	0.001967
 288	1.4350e-01	2.8656	-4.515509	0.000411	4.106017	0.695578	0.008210
 289	1.4400e-01	2.8775	-4.494555	0.000210	2.095780	0.355035	0.004191
 290	1.4450e-01	2.8871	-4.475740	0.000188	1.881925	0.318807	0.003763
 291	1.4500e-01	2.8979	-4.445379	0.000304	3.036742	0.514438	0.006072
 292	1.4550e-01	2.9053	-4.424853	0.000205	2.053009	0.347789	0.004105
 293	1.4600e-01	2.9178	-4.393636	0.000312	3.122284	0.528929	0.006243
 294	1.4650e-01	2.9260	-4.368834	0.000248	2.480719	0.420245	0.004960
 295	1.4700e-01	2.9349	-4.324361	0.000445	4.448185	0.753543	0.008895
 296	1.4750e-01	2.9477	-4.311104	0.000133	1.325901	0.224614	0.002651
 297	1.4800e-01	2.9550	-4.274328	0.000368	3.678307	0.623122	0.007355
 298	1.4850e-01	2.9684	-4.260644	0.000137	1.368672	0.231859	0.002737
 299	1.4900e-01	2.9779	-4.244395	0.000163	1.625298	0.275333	0.003250
 300	1.4950e-01	2.9871	-4.212323	0.000321	3.207826	0.543420	0.006414
 301	1.5000e-01	2.9962	-4.196073	0.000163	1.625298	0.275333	0.003250
 302	1.5050e-01	3.0054	-4.158442	0.000376	3.763849	0.637613	0.007526
 303	1.5100e-01	3.0170	-4.136205	0.000222	2.224093	0.376771	0.004447
 304	1.5150e-01	3.0264	-4.088311	0.000479	4.790353	0.811508	0.009579
 305	1.5200e-01	3.0376	-4.073772	0.000145	1.454214	0.246351	0.002908
 306	1.5250e-01	3.0469	-4.055384	0.000184	1.839154	0.311561	0.003678
 307	1.5300e-01	3.0560	-4.022885	0.000325	3.250597	0.550666	0.006500
 308	1.5350e-01	3.0677	-3.998083	0.000248	2.480719	0.420245	0.004960
 309	1.5400e-01	3.0762	-3.976701	0.000214	2.138551	0.362280	0.004276
 310	1.5450e-01	3.0853	-3.942064	0.000346	3.464452	0.586894	0.006928
 311	1.5500e-01	3.0963	-3.910419	0.000317	3.165055	0.536175	0.006329
 312	1.5550e-01	3.1039	-3.882196	0.000282	2.822887	0.478210	0.005645
 313	1.5600e-01	3.1148	-3.863808	0.000184	1.839154	0.311561	0.003678
 314	1.5650e-01	3.1284	-3.830026	0.000338	3.378910	0.572403	0.006756
 315	1.5700e-01	3.1354	-3.805224	0.000248	2.480719	0.420245	0.004960
 316	1.5750e-01	3.1448	-3.777855	0.000274	2.737345	0.463719	0.005474
 317	1.5800e-01	3.1583	-3.758185	0.000197	1.967467	0.333298	0.003934
 318	1.5850e-01	3.1672	-3.715850	0.000423	4.234330	0.717315	0.008467
 319	1.5900e-01	3.1738	-3.692758	0.000231	2.309635	0.391263	0.004618
 320	1.5950e-01	3.1860	-3.664535	0.000282	2.822887	0.478210	0.005645
 321	1.6000e-01	3.1964	-3.645719	0.000188	1.881925	0.318807	0.003763
 322	1.6050e-01	3.2056	-3.608944	0.000368	3.678307	0.623122	0.007355
 323	1.6100e-01	3.2166	-3.603384	0.000056	0.556023	0.094193	0.001112
 324	1.6150e-01	3.2269	-3.565326	0.000381	3.806620	0.644859	0.007612
 325	1.6200e-01	3.2330	-3.542662	0.000227	2.266864	0.384017	0.004533
 326	1.6250e-01	3.2465	-3.519142	0.000235	2.352406	0.398508	0.004704
 327	1.6300e-01	3.2568	-3.497333	0.000218	2.181322	0.369526	0.004362
 328	1.6350e-01	3.2657	-3.489208	0.000081	0.812649	0.137667	0.001625
 329	1.6400e-01	3.2739	-3.429341	0.000599	5.987942	1.014385	0.011974
 330	1.6450e-01	3.2863	-3.418650	0.000107	1.069275	0.181140	0.002138
 331	1.6500e-01	3.2947	-3.388289	0.000304	3.036742	0.514438	0.006072
 332	1.6550e-01	3.3049	-3.371184	0.000171	1.710840	0.289824	0.003421
 333	1.6600e-01	3.3203	-3.334836	0.000364	3.635536	0.615876	0.007270
 334	1.6650e-01	3.3282	-3.315165	0.000197	1.967467	0.333298	0.003934
 335	1.6700e-01	3.3369	-3.274968	0.000402	4.020475	0.681087	0.008039
 336	1.6750e-01	3.3490	-3.243324	0.000317	3.165055	0.536175	0.006329
 337	1.6800e-01	3.3614	-3.241613	0.000017	0.171084	0.028982	0.000342
 338	1.6850e-01	3.3669	-3.194575	0.000470	4.704811	0.797017	0.009408
 339	1.6900e-01	3.3766	-3.164213	0.000304	3.036742	0.514438	0.006072
 340	1.6950e-01	3.3862	-3.162930	0.000013	0.128313	0.021737	0.000257
 341	1.7000e-01	3.3972	-3.130431	0.000325	3.250597	0.550666	0.006500
 342	1.7050e-01	3.4077	-3.111188	0.000192	1.924696	0.326052	0.003849
 343	1.7100e-01	3.4169	-3.066287	0.000449	4.490956	0.760789	0.008980
 344	1.7150e-01	3.4268	-3.043623	0.000227	2.266864	0.384017	0.004533
 345	1.7200e-01	3.4378	-3.038919	0.000047	0.470481	0.079702	0.000941
 346	1.7250e-01	3.4460	-2.989314	0.000496	4.961437	0.840490	0.009921
 347	1.7300e-01	3.4560	-2.962802	0.000265	2.651803	0.449228	0.005303
 348	1.7350e-01	3.4689	-2.934578	0.000282	2.822887	0.478210	0.005645
 349	1.7400e-01	3.4760	-2.909349	0.000252	2.523490	0.427491	0.005046
 350	1.7450e-01	3.4863	-2.898658	0.000107	1.069275	0.181140	0.002138
 351	1.7500e-01	3.4963	-2.875139	0.000235	2.352406	0.398508	0.004704
 352	1.7550e-01	3.5067	-2.837508	0.000376	3.763849	0.637613	0.007526
 353	1.7600e-01	3.5162	-2.810567	0.000269	2.694574	0.456473	0.005388
 354	1.7650e-01	3.5266	-2.774647	0.000359	3.592765	0.608631	0.007184
 355	1.7700e-01	3.5349	-2.745568	0.000291	2.908429	0.492701	0.005816
 356	1.7750e-01	3.5486	-2.735305	0.000103	1.026504	0.173895	0.002053
 357	1.7800e-01	3.5553	-2.692543	0.000428	4.277101	0.724561	0.008553
 358	1.7850e-01	3.5672	-2.673299	0.000192	1.924696	0.326052	0.003849
 359	1.7900e-01	3.5754	-2.654912	0.000184	1.839154	0.311561	0.003678
 360	1.7950e-01	3.5840	-2.624550	0.000304	3.036742	0.514438	0.006072
 361	1.8000e-01	3.5974	-2.603169	0.000214	2.138551	0.362280	0.004276
 362	1.8050e-01	3.6053	-2.565538	0.000376	3.763849	0.637613	0.007526
 363	1.8100e-01	3.6179	-2.550571	0.000150	1.496985	0.253596	0.002993
 364	1.8150e-01	3.6264	-2.525769	0.000248	2.480719	0.420245	0.004960
 365	1.8200e-01	3.6353	-2.509091	0.000167	1.668069	0.282579	0.003335
 366	1.8250e-01	3.6458	-2.468895	0.000402	4.020475	0.681087	0.008039
 367	1.8300e-01	3.6578	-2.445375	0.000235	2.352406	0.398508	0.004704
 368	1.8350e-01	3.6670	-2.405178	0.000402	4.020475	0.681087	0.008039
 369	1.8400e-01	3.6771	-2.391494	0.000137	1.368672	0.231859	0.002737
 370	1.8450e-01	3.6880	-2.376100	0.000154	1.539756	0.260842	0.003079
 371	1.8500e-01	3.6963	-2.335048	0.000411	4.106017	0.695578	0.008210
 372	1.8550e-01	3.7055	-2.325640	0.000094	0.940962	0.159403	0.001882
 373	1.8600e-01	3.7158	-2.262779	0.000629	6.287339	1.065104	0.012572
 374	1.8650e-01	3.7271	-2.254654	0.000081	0.812649	0.137667	0.001625
 375	1.8700e-01	3.7350	-2.223438	0.000312	3.122284	0.528929	0.006243
 376	1.8750e-01	3.7476	-2.208898	0.000145	1.454214	0.246351	0.002908
 377	1.8800e-01	3.7581	-2.179392	0.000295	2.951200	0.499947	0.005901
 378	1.8850e-01	3.7677	-2.159721	0.000197	1.967467	0.333298	0.003934
 379	1.8900e-01	3.7766	-2.121235	0.000385	3.849391	0.652104	0.007697
 380	1.8950e-01	3.7875	-2.123801	-0.000026	-0.256626	-0.043474	-0.000513
 381	1.9000e-01	3.7961	-2.080183	0.000436	4.362643	0.739052	0.008724
 382	1.9050e-01	3.8069	-2.054953	0.000252	2.523490	0.427491	0.005046
 383	1.9100e-01	3.8184	-2.021171	0.000338	3.378910	0.572403	0.006756
 384	1.9150e-01	3.8266	-2.010480	0.000107	1.069275	0.181140	0.002138
 385	1.9200e-01	3.8351	-1.965580	0.000449	4.490956	0.760789	0.008980
 386	1.9250e-01	3.8460	-1.942915	0.000227	2.266864	0.384017	0.004533
 387	1.9300e-01	3.8562	-1.922817	0.000201	2.010238	0.340543	0.004020
 388	1.9350e-01	3.8672	-1.880910	0.000419	4.191559	0.710069	0.008381
 389	1.9400e-01	3.8753	-1.886897	-0.000060	-0.598794	-0.101438	-0.001197
 390	1.9450e-01	3.8875	-1.846700	0.000402	4.020475	0.681087	0.008039
 391	1.9500e-01	3.8968	-1.826601	0.000201	2.010238	0.340543	0.004020
 392	1.9550e-01	3.9059	-1.782984	0.000436	4.362643	0.739052	0.008724
 393	1.9600e-01	3.9182	-1.766306	0.000167	1.668069	0.282579	0.003335
 394	1.9650e-01	3.9291	-1.759892	0.000064	0.641565	0.108684	0.001283
 395	1.9700e-01	3.9349	-1.732524	0.000274	2.737345	0.463719	0.005474
 396	1.9750e-01	3.9435	-1.679498	0.000530	5.303605	0.898455	0.010605
 397	1.9800e-01	3.9572	-1.668380	0.000111	1.112046	0.188386	0.002224
 398	1.9850e-01	3.9626	-1.631604	0.000368	3.678307	0.623122	0.007355
 399	1.9900e-01	3.9762	-1.610651	0.000210	2.095780	0.355035	0.004191
 400	1.9950e-01	3.9856	-1.582000	0.000287	2.865658	0.485456	0.005730
 401	2.0000e-01	3.9984	-1.555487	0.000265	2.651803	0.449228	0.005303
 402	2.0050e-01	4.0082	-1.527691	0.000278	2.780116	0.470964	0.005559
 403	2.0100e-01	4.0178	-1.511014	0.000167	1.668069	0.282579	0.003335
 404	2.0150e-01	4.0247	-1.473811	0.000372	3.721078	0.630368	0.007441
 405	2.0200e-01	4.0363	-1.465258	0.000086	0.855420	0.144912	0.001711
 406	2.0250e-01	4.0460	-1.440883	0.000244	2.437948	0.413000	0.004875
 407	2.0300e-01	4.0582	-1.410950	0.000299	2.993971	0.507192	0.005987
 408	2.0350e-01	4.0662	-1.384009	0.000269	2.694574	0.456473	0.005388
 409	2.0400e-01	4.0759	-1.365194	0.000188	1.881925	0.318807	0.003763
 410	2.0450e-01	4.0851	-1.330556	0.000346	3.464452	0.586894	0.006928
 411	2.0500e-01	4.0979	-1.289076	0.000415	4.148788	0.702824	0.008296
 412	2.0550e-01	4.1083	-1.277958	0.000111	1.112046	0.188386	0.002224
 413	2.0600e-01	4.1174	-1.246741	0.000312	3.122284	0.528929	0.006243
 414	2.0650e-01	4.1275	-1.203124	0.000436	4.362643	0.739052	0.008724
 415	2.0700e-01	4.1359	-1.199275	0.000038	0.384939	0.065210	0.000770
 416	2.0750e-01	4.1450	-1.169769	0.000295	2.951200	0.499947	0.005901
 417	2.0800e-01	4.1592	-1.164210	0.000056	0.556023	0.094193	0.001112
 418	2.0850e-01	4.1650	-1.133421	0.000308	3.079513	0.521684	0.006158
 419	2.0900e-01	4.1791	-1.110329	0.000231	2.309635	0.391263	0.004618
 420	2.0950e-01	4.1866	-1.068849	0.000415	4.148788	0.702824	0.008296
 421	2.1000e-01	4.1989	-1.039771	0.000291	2.908429	0.492701	0.005816
 422	2.1050e-01	4.2044	-1.012830	0.000269	2.694574	0.456473	0.005388
 423	2.1100e-01	4.2163	-0.987601	0.000252	2.523490	0.427491	0.005046
 424	2.1150e-01	4.2282	-0.985462	0.000021	0.213855	0.036228	0.000428
 425	2.1200e-01	4.2395	-0.943128	0.000423	4.234330	0.717315	0.008467
 426	2.1250e-01	4.2484	-0.923029	0.000201	2.010238	0.340543	0.004020
 427	2.1300e-01	4.2560	-0.898655	0.000244	2.437948	0.413000	0.004875
 428	2.1350e-01	4.2679	-0.875135	0.000235	2.352406	0.398508	0.004704
 429	2.1400e-01	4.2752	-0.841353	0.000338	3.378910	0.572403	0.006756
 430	2.1450e-01	4.2880	-0.815268	0.000261	2.609032	0.441982	0.005217
 431	2.1500e-01	4.2969	-0.792603	0.000227	2.266864	0.384017	0.004533
 432	2.1550e-01	4.3062	-0.770367	0.000222	2.224093	0.376771	0.004447
 433	2.1600e-01	4.3185	-0.747275	0.000231	2.309635	0.391263	0.004618
 434	2.1650e-01	4.3262	-0.719480	0.000278	2.780116	0.470964	0.005559
 435	2.1700e-01	4.3372	-0.691256	0.000282	2.822887	0.478210	0.005645
 436	2.1750e-01	4.3475	-0.662605	0.000287	2.865658	0.485456	0.005730
 437	2.1800e-01	4.3567	-0.646783	0.000158	1.582527	0.268087	0.003164
 438	2.1850e-01	4.3671	-0.615994	0.000308	3.079513	0.521684	0.006158
 439	2.1900e-01	4.3776	-0.569383	0.000466	4.662040	0.789771	0.009322
 440	2.1950e-01	4.3890	-0.568528	0.000009	0.085542	0.014491	0.000171
 441	2.2000e-01	4.3997	-0.542870	0.000257	2.566261	0.434736	0.005132
 442	2.2050e-01	4.4062	-0.498397	0.000445	4.448185	0.753543	0.008895
 443	2.2100e-01	4.4177	-0.497970	0.000004	0.042771	0.007246	0.000086
 444	2.2150e-01	4.4257	-0.462049	0.000359	3.592765	0.608631	0.007184
 445	2.2200e-01	4.4373	-0.436819	0.000252	2.523490	0.427491	0.005046
 446	2.2250e-01	4.4479	-0.419714	0.000171	1.710840	0.289824	0.003421
 447	2.2300e-01	4.4565	-0.392346	0.000274	2.737345	0.463719	0.005474
 448	2.2350e-01	4.4684	-0.370537	0.000218	2.181322	0.369526	0.004362
 449	2.2400e-01	4.4781	-0.336755	0.000338	3.378910	0.572403	0.006756
 450	2.2450e-01	4.4849	-0.305111	0.000317	3.165055	0.536175	0.006329
 451	2.2500e-01	4.4930	-0.282446	0.000227	2.266864	0.384017	0.004533
 452	2.2550e-01	4.5058	-0.262348	0.000201	2.010238	0.340543	0.004020
 453	2.2600e-01	4.5154	-0.219158	0.000432	4.319872	0.731806	0.008638
 454	2.2650e-01	4.5300	-0.199487	0.000197	1.967467	0.333298	0.003934
 455	2.2700e-01	4.5362	-0.194356	0.000051	0.513252	0.086947	0.001026
 456	2.2750e-01	4.5477	-0.155014	0.000393	3.934933	0.666596	0.007868
 457	2.2800e-01	4.5592	-0.127646	0.000274	2.737345	0.463719	0.005474
 458	2.2850e-01	4.5676	-0.113962	0.000137	1.368672	0.231859	0.002737
 459	2.2900e-01	4.5758	-0.081035	0.000329	3.293368	0.557912	0.006585
 460	2.2950e-01	4.5868	-0.041266	0.000398	3.977704	0.673841	0.007954
 461	2.3000e-01	4.5959	-0.035707	0.000056	0.556023	0.094193	0.001112
 462	2.3050e-01	4.6082	-0.003635	0.000321	3.207826	0.543420	0.006414
 463	2.3100e-01	4.6173	0.021595	0.000252	2.523490	0.427491	0.005046
 464	2.3150e-01	4.6266	0.044687	0.000231	2.309635	0.391263	0.004618
 465	2.3200e-01	4.6365	0.060937	0.000163	1.625298	0.275333	0.003250
 466	2.3250e-01	4.6494	0.088732	0.000278	2.780116	0.470964	0.005559
 467	2.3300e-01	4.6576	0.125508	0.000368	3.678307	0.623122	0.007355
 468	2.3350e-01	4.6660	0.153304	0.000278	2.780116	0.470964	0.005559
 469	2.3400e-01	4.6780	0.171692	0.000184	1.839154	0.311561	0.003678
 470	2.3450e-01	4.6881	0.181099	0.000094	0.940962	0.159403	0.001882
 471	2.3500e-01	4.6948	0.212744	0.000317	3.165055	0.536175	0.006329
 472	2.3550e-01	4.7083	0.260638	0.000479	4.790353	0.811508	0.009579
 473	2.3600e-01	4.7205	0.261065	0.000004	0.042771	0.007246	0.000086
 474	2.3650e-01	4.7278	0.280308	0.000192	1.924696	0.326052	0.003849
 475	2.3700e-01	4.7382	0.312380	0.000321	3.207826	0.543420	0.006414
 476	2.3750e-01	4.7449	0.338465	0.000261	2.609032	0.441982	0.005217
 477	2.3800e-01	4.7565	0.379090	0.000406	4.063246	0.688333	0.008125
 478	2.3850e-01	4.7670	0.396622	0.000175	1.753611	0.297070	0.003507
 479	2.3900e-01	4.7748	0.417148	0.000205	2.053009	0.347789	0.004105
 480	2.3950e-01	4.7867	0.443661	0.000265	2.651803	0.449228	0.005303
 481	2.4000e-01	4.8004	0.467608	0.000240	2.395177	0.405754	0.004789
 482	2.4050e-01	4.8071	0.486424	0.000188	1.881925	0.318807	0.003763
 483	2.4100e-01	4.8169	0.510798	0.000244	2.437948	0.413000	0.004875
 484	2.4150e-01	4.8242	0.546291	0.000355	3.549994	0.601385	0.007099
 485	2.4200e-01	4.8346	0.568100	0.000218	2.181322	0.369526	0.004362
 486	2.4250e-01	4.8453	0.598034	0.000299	2.993971	0.507192	0.005987
 487	2.4300e-01	4.8590	0.621553	0.000235	2.352406	0.398508	0.004704
 488	2.4350e-01	4.8659	0.654053	0.000325	3.250597	0.550666	0.006500
 489	2.4400e-01	4.8756	0.685697	0.000317	3.165055	0.536175	0.006329
 490	2.4450e-01	4.8889	0.684414	-0.000013	-0.128313	-0.021737	-0.000257
 491	2.4500e-01	4.8975	0.726749	0.000423	4.234330	0.717315	0.008467
 492	2.4550e-01	4.9060	0.756683	0.000299	2.993971	0.507192	0.005987
 493	2.4600e-01	4.9176	0.759249	0.000026	0.256626	0.043474	0.000513
 494	2.4650e-01	4.9286	0.792176	0.000329	3.293368	0.557912	0.006585
 495	2.4700e-01	4.9368	0.822965	0.000308	3.079513	0.521684	0.006158
 496	2.4750e-01	4.9458	0.858458	0.000355	3.549994	0.601385	0.007099
 497	2.4800e-01	4.9573	0.846057	-0.000124	-1.240359	-0.210123	-0.002480
 498	2.4850e-01	4.9661	0.896516	0.000505	5.046979	0.854981	0.010092
 499	2.4900e-01	4.9751	0.916615	0.000201	2.010238	0.340543	0.004020
 500	2.4950e-01	4.9884	0.947404	0.000308	3.079513	0.521684	0.006158
 501	2.5000e-01	4.9988	0.970923	0.000235	2.352406	0.398508	0.004704
 502	2.5050e-01	5.0085	0.994443	0.000235	2.352406	0.398508	0.004704
 503	2.5100e-01	5.0165	1.017107	0.000227	2.266864	0.384017	0.004533
 504	2.5150e-01	5.0250	1.047040	0.000299	2.993971	0.507192	0.005987
 505	2.5200e-01	5.0391	1.067994	0.000210	2.095780	0.355035	0.004191
 506	2.5250e-01	5.0468	1.068849	0.000009	0.085542	0.014491	0.000171
 507	2.5300e-01	5.0568	1.107336	0.000385	3.849391	0.652104	0.007697
 508	2.5350e-01	5.0661	1.133421	0.000261	2.609032	0.441982	0.005217
 509	2.5400e-01	5.0797	1.171479	0.000381	3.806620	0.644859	0.007612
 510	2.5450e-01	5.0887	1.181315	0.000098	0.983733	0.166649	0.001967
 511	2.5500e-01	5.0967	1.215097	0.000338	3.378910	0.572403	0.006756
 512	2.5550e-01	5.1059	1.241182	0.000261	2.609032	0.441982	0.005217
 513	2.5600e-01	5.1160	1.257432	0.000163	1.625298	0.275333	0.003250
 514	2.5650e-01	5.1276	1.299767	0.000423	4.234330	0.717315	0.008467
 515	2.5700e-01	5.1337	1.323286	0.000235	2.352406	0.398508	0.004704
 516	2.5750e-01	5.1477	1.334832	0.000115	1.154817	0.195631	0.002309
 517	2.5800e-01	5.1556	1.373319	0.000385	3.849391	0.652104	0.007697
 518	2.5850e-01	5.1668	1.384437	0.000111	1.112046	0.188386	0.002224
 519	2.5900e-01	5.1728	1.417364	0.000329	3.293368	0.557912	0.006585
 520	2.5950e-01	5.1855	1.473811	0.000565	5.645774	0.956420	0.011289
 521	2.6000e-01	5.1965	1.461837	-0.000120	-1.197588	-0.202877	-0.002395
 522	2.6050e-01	5.2075	1.471245	0.000094	0.940962	0.159403	0.001882
 523	2.6100e-01	5.2179	1.513580	0.000423	4.234330	0.717315	0.008467
 524	2.6150e-01	5.2255	1.533250	0.000197	1.967467	0.333298	0.003934
 525	2.6200e-01	5.2350	1.552921	0.000197	1.967467	0.333298	0.003934
 526	2.6250e-01	5.2467	1.587131	0.000342	3.421681	0.579648	0.006842
 527	2.6300e-01	5.2560	1.617920	0.000308	3.079513	0.521684	0.006158
 528	2.6350e-01	5.2689	1.629038	0.000111	1.112046	0.188386	0.002224
 529	2.6400e-01	5.2795	1.655124	0.000261	2.609032	0.441982	0.005217
 530	2.6450e-01	5.2863	1.684202	0.000291	2.908429	0.492701	0.005816
 531	2.6500e-01	5.2972	1.713708	0.000295	2.951200	0.499947	0.005901
 532	2.6550e-01	5.3070	1.735945	0.000222	2.224093	0.376771	0.004447
 533	2.6600e-01	5.3180	1.756043	0.000201	2.010238	0.340543	0.004020
 534	2.6650e-01	5.3247	1.802227	0.000462	4.619269	0.782525	0.009237
 535	2.6700e-01	5.3384	1.813773	0.000115	1.154817	0.195631	0.002309
 536	2.6750e-01	5.3461	1.817194	0.000034	0.342168	0.057965	0.000684
 537	2.6800e-01	5.3543	1.868081	0.000509	5.089750	0.862227	0.010177
 538	2.6850e-01	5.3662	1.881765	0.000137	1.368672	0.231859	0.002737
 539	2.6900e-01	5.3766	1.896304	0.000145	1.454214	0.246351	0.002908
 540	2.6950e-01	5.3857	1.919396	0.000231	2.309635	0.391263	0.004618
 541	2.7000e-01	5.3967	1.943343	0.000240	2.395177	0.405754	0.004789
 542	2.7050e-01	5.4077	1.980546	0.000372	3.721078	0.630368	0.007441
 543	2.7100e-01	5.4133	1.987816	0.000073	0.727107	0.123175	0.001454
 544	2.7150e-01	5.4279	2.021598	0.000338	3.378910	0.572403	0.006756
 545	2.7200e-01	5.4376	2.036138	0.000145	1.454214	0.246351	0.002908
 546	2.7250e-01	5.4489	2.077190	0.000411	4.106017	0.695578	0.008210
 547	2.7300e-01	5.4547	2.093440	0.000163	1.625298	0.275333	0.003250
 548	2.7350e-01	5.4684	2.116104	0.000227	2.266864	0.384017	0.004533
 549	2.7400e-01	5.4758	2.152024	0.000359	3.592765	0.608631	0.007184
 550	2.7450e-01	5.4868	2.172978	0.000210	2.095780	0.355035	0.004191
 551	2.7500e-01	5.4956	2.214885	0.000419	4.191559	0.710069	0.008381
 552	2.7550e-01	5.5049	2.241398	0.000265	2.651803	0.449228	0.005303
 553	2.7600e-01	5.5159	2.240115	-0.000013	-0.128313	-0.021737	-0.000257
 554	2.7650e-01	5.5281	2.269194	0.000291	2.908429	0.492701	0.005816
 555	2.7700e-01	5.5359	2.308107	0.000389	3.892162	0.659350	0.007783
 556	2.7750e-01	5.5457	2.311956	0.000038	0.384939	0.065210	0.000770
 557	2.7800e-01	5.5579	2.342317	0.000304	3.036742	0.514438	0.006072
 558	2.7850e-01	5.5676	2.384225	0.000419	4.191559	0.710069	0.008381
 559	2.7900e-01	5.5774	2.399192	0.000150	1.496985	0.253596	0.002993
 560	2.7950e-01	5.5875	2.419718	0.000205	2.053009	0.347789	0.004105
 561	2.8000e-01	5.5963	2.446230	0.000265	2.651803	0.449228	0.005303
 562	2.8050e-01	5.6073	2.473171	0.000269	2.694574	0.456473	0.005388
 563	2.8100e-01	5.6152	2.511657	0.000385	3.849391	0.652104	0.007697
 564	2.8150e-01	5.6250	2.524486	0.000128	1.283130	0.217368	0.002566
 565	2.8200e-01	5.6372	2.548433	0.000240	2.395177	0.405754	0.004789
 566	2.8250e-01	5.6476	2.551426	0.000030	0.299397	0.050719	0.000599
 567	2.8300e-01	5.6555	2.581788	0.000304	3.036742	0.514438	0.006072
 568	2.8350e-01	5.6671	2.604879	0.000231	2.309635	0.391263	0.004618
 569	2.8400e-01	5.6781	2.617708	0.000128	1.283130	0.217368	0.002566
 570	2.8450e-01	5.6866	2.654484	0.000368	3.678307	0.623122	0.007355
 571	2.8500e-01	5.6964	2.666457	0.000120	1.197588	0.202877	0.002395
 572	2.8550e-01	5.7062	2.711358	0.000449	4.490956	0.760789	0.008980
 573	2.8600e-01	5.7144	2.741719	0.000304	3.036742	0.514438	0.006072
 574	2.8650e-01	5.7239	2.775074	0.000334	3.336139	0.565157	0.006671
 575	2.8700e-01	5.7361	2.784054	0.000090	0.898191	0.152158	0.001796
 576	2.8750e-01	5.7452	2.792607	0.000086	0.855420	0.144912	0.001711
 577	2.8800e-01	5.7538	2.832376	0.000398	3.977704	0.673841	0.007954
 578	2.8850e-01	5.7648	2.845632	0.000133	1.325901	0.224614	0.002651
 579	2.8900e-01	5.7767	2.887967	0.000423	4.234330	0.717315	0.008467
 580	2.8950e-01	5.7867	2.904217	0.000163	1.625298	0.275333	0.003250
 581	2.9000e-01	5.7950	2.919612	0.000154	1.539756	0.260842	0.003079
 582	2.9050e-01	5.8060	2.940565	0.000210	2.095780	0.355035	0.004191
 583	2.9100e-01	5.8157	2.960664	0.000201	2.010238	0.340543	0.004020
 584	2.9150e-01	5.8264	2.997439	0.000368	3.678307	0.623122	0.007355
 585	2.9200e-01	5.8374	3.029084	0.000317	3.165055	0.536175	0.006329
 586	2.9250e-01	5.8478	3.032077	0.000030	0.299397	0.050719	0.000599
 587	2.9300e-01	5.8557	3.064577	0.000325	3.250597	0.550666	0.006500
 588	2.9350e-01	5.8649	3.087668	0.000231	2.309635	0.391263	0.004618
 589	2.9400e-01	5.8798	3.121878	0.000342	3.421681	0.579648	0.006842
 590	2.9450e-01	5.8862	3.155661	0.000338	3.378910	0.572403	0.006756
 591	2.9500e-01	5.8948	3.176614	0.000210	2.095780	0.355035	0.004191
 592	2.9550e-01	5.9109	3.200134	0.000235	2.352406	0.398508	0.004704
 593	2.9600e-01	5.9158	3.215101	0.000150	1.496985	0.253596	0.002993
 594	2.9650e-01	5.9261	3.249738	0.000346	3.464452	0.586894	0.006928
 595	2.9700e-01	5.9357	3.257863	0.000081	0.812649	0.137667	0.001625
 596	2.9750e-01	5.9460	3.306612	0.000488	4.875895	0.825999	0.009750
 597	2.9800e-01	5.9559	3.332698	0.000261	2.609032	0.441982	0.005217
 598	2.9850e-01	5.9653	3.354934	0.000222	2.224093	0.376771	0.004447
 599	2.9900e-01	5.9741	3.366480	0.000115	1.154817	0.195631	0.002309
 600	2.9950e-01	5.9858	3.383157	0.000167	1.668069	0.282579	0.003335
 601	3.0000e-01	5.9955	3.409243	0.000261	2.609032	0.441982	0.005217
 602	3.0050e-01	6.0077	3.437038	0.000278	2.780116	0.470964	0.005559
 603	3.0100e-01	6.0175	3.443880	0.000068	0.684336	0.115930	0.001368
 604	3.0150e-01	6.0266	3.499471	0.000556	5.560232	0.941929	0.011118
 605	3.0200e-01	6.0364	3.494340	-0.000051	-0.513252	-0.086947	-0.001026
 606	3.0250e-01	6.0449	3.531543	0.000372	3.721078	0.630368	0.007441
 607	3.0300e-01	6.0571	3.549076	0.000175	1.753611	0.297070	0.003507
 608	3.0350e-01	6.0701	3.572168	0.000231	2.309635	0.391263	0.004618
 609	3.0400e-01	6.0767	3.600391	0.000282	2.822887	0.478210	0.005645
 610	3.0450e-01	6.0869	3.623910	0.000235	2.352406	0.398508	0.004704
 611	3.0500e-01	6.0983	3.644864	0.000210	2.095780	0.355035	0.004191
 612	3.0550e-01	6.1087	3.669239	0.000244	2.437948	0.413000	0.004875
 613	3.0600e-01	6.1169	3.691048	0.000218	2.181322	0.369526	0.004362
 614	3.0650e-01	6.1285	3.712429	0.000214	2.138551	0.362280	0.004276
 615	3.0700e-01	6.1389	3.753481	0.000411	4.106017	0.695578	0.008210
 616	3.0750e-01	6.1465	3.753908	0.000004	0.042771	0.007246	0.000086
 617	3.0800e-01	6.1581	3.790257	0.000364	3.635536	0.615876	0.007270
 618	3.0850e-01	6.1661	3.818052	0.000278	2.780116	0.470964	0.005559
 619	3.0900e-01	6.1801	3.828315	0.000103	1.026504	0.173895	0.002053
 620	3.0950e-01	6.1838	3.859104	0.000308	3.079513	0.521684	0.006158
 621	3.1000e-01	6.1957	3.882624	0.000235	2.352406	0.398508	0.004704
 622	3.1050e-01	6.2064	3.924959	0.000423	4.234330	0.717315	0.008467
 623	3.1100e-01	6.2172	3.930518	0.000056	0.556023	0.094193	0.001112
 624	3.1150e-01	6.2292	3.936932	0.000064	0.641565	0.108684	0.001283
 625	3.1200e-01	6.2408	3.966011	0.000291	2.908429	0.492701	0.005816
 626	3.1250e-01	6.2476	4.007918	0.000419	4.191559	0.710069	0.008381
 627	3.1300e-01	6.2549	4.038279	0.000304	3.036742	0.514438	0.006072
 628	3.1350e-01	6.2701	4.050253	0.000120	1.197588	0.202877	0.002395
 629	3.1400e-01	6.2769	4.067785	0.000175	1.753611	0.297070	0.003507
 630	3.1450e-01	6.2866	4.094726	0.000269	2.694574	0.456473	0.005388
 631	3.1500e-01	6.3013	4.118245	0.000235	2.352406	0.398508	0.004704
 632	3.1550e-01	6.3074	4.130646	0.000124	1.240359	0.210123	0.002480
 633	3.1600e-01	6.3168	4.164429	0.000338	3.378910	0.572403	0.006756
 634	3.1650e-01	6.3272	4.181534	0.000171	1.710840	0.289824	0.003421
 635	3.1700e-01	6.3358	4.213606	0.000321	3.207826	0.543420	0.006414
 636	3.1750e-01	6.3464	4.258506	0.000449	4.490956	0.760789	0.008980
 637	3.1800e-01	6.3568	4.275184	0.000167	1.668069	0.282579	0.003335
 638	3.1850e-01	6.3660	4.301696	0.000265	2.651803	0.449228	0.005303
 639	3.1900e-01	6.3763	4.326071	0.000244	2.437948	0.413000	0.004875
 640	3.1950e-01	6.3855	4.328209	0.000021	0.213855	0.036228	0.000428
 641	3.2000e-01	6.3977	4.356432	0.000282	2.822887	0.478210	0.005645
 642	3.2050e-01	6.4032	4.382090	0.000257	2.566261	0.434736	0.005132
 643	3.2100e-01	6.4159	4.397057	0.000150	1.496985	0.253596	0.002993
 644	3.2150e-01	6.4255	4.417583	0.000205	2.053009	0.347789	0.004105
 645	3.2200e-01	6.4368	4.440675	0.000231	2.309635	0.391263	0.004618
 646	3.2250e-01	6.4468	4.487713	0.000470	4.704811	0.797017	0.009408
 647	3.2300e-01	6.4557	4.489852	0.000021	0.213855	0.036228	0.000428
 648	3.2350e-01	6.4667	4.533042	0.000432	4.319872	0.731806	0.008638
 649	3.2400e-01	6.4764	4.540739	0.000077	0.769878	0.130421	0.001539
 650	3.2450e-01	6.4905	4.578798	0.000381	3.806620	0.644859	0.007612
 651	3.2500e-01	6.4957	4.570673	-0.000081	-0.812649	-0.137667	-0.001625
 652	3.2550e-01	6.5053	4.626692	0.000560	5.603003	0.949174	0.011204
 653	3.2600e-01	6.5164	4.654487	0.000278	2.780116	0.470964	0.005559
 654	3.2650e-01	6.5247	4.677151	0.000227	2.266864	0.384017	0.004533
 655	3.2700e-01	6.5369	4.692546	0.000154	1.539756	0.260842	0.003079
 656	3.2750e-01	6.5448	4.715210	0.000227	2.266864	0.384017	0.004533
 657	3.2800e-01	6.5571	4.736591	0.000214	2.138551	0.362280	0.004276
 658	3.2850e-01	6.5668	4.776361	0.000398	3.977704	0.673841	0.007954
 659	3.2900e-01	6.5723	4.792610	0.000163	1.625298	0.275333	0.003250
 660	3.2950e-01	6.5864	4.799880	0.000073	0.727107	0.123175	0.001454
 661	3.3000e-01	6.5936	4.837939	0.000381	3.806620	0.644859	0.007612
 662	3.3050e-01	6.6061	4.857609	0.000197	1.967467	0.333298	0.003934
 663	3.3100e-01	6.6165	4.861030	0.000034	0.342168	0.057965	0.000684
 664	3.3150e-01	6.6235	4.902082	0.000411	4.106017	0.695578	0.008210
 665	3.3200e-01	6.6347	4.920898	0.000188	1.881925	0.318807	0.003763
 666	3.3250e-01	6.6473	4.951259	0.000304	3.036742	0.514438	0.006072
 667	3.3300e-01	6.6559	4.969647	0.000184	1.839154	0.311561	0.003678
 668	3.3350e-01	6.6663	4.991884	0.000222	2.224093	0.376771	0.004447
 669	3.3400e-01	6.6797	4.995305	0.000034	0.342168	0.057965	0.000684
 670	3.3450e-01	6.6876	5.028659	0.000334	3.336139	0.565157	0.006671
 671	3.3500e-01	6.6934	5.070994	0.000423	4.234330	0.717315	0.008467
 672	3.3550e-01	6.7065	5.078264	0.000073	0.727107	0.123175	0.001454
 673	3.3600e-01	6.7169	5.113757	0.000355	3.549994	0.601385	0.007099
 674	3.3650e-01	6.7255	5.139414	0.000257	2.566261	0.434736	0.005132
 675	3.3700e-01	6.7371	5.153954	0.000145	1.454214	0.246351	0.002908
 676	3.3750e-01	6.7490	5.165072	0.000111	1.112046	0.188386	0.002224
 677	3.3800e-01	6.7563	5.195006	0.000299	2.993971	0.507192	0.005987
 678	3.3850e-01	6.7664	5.201420	0.000064	0.641565	0.108684	0.001283
 679	3.3900e-01	6.7758	5.250169	0.000488	4.875895	0.825999	0.009750
 680	3.3950e-01	6.7859	5.284807	0.000346	3.464452	0.586894	0.006928
 681	3.4000e-01	6.7966	5.294215	0.000094	0.940962	0.159403	0.001882
 682	3.4050e-01	6.8073	5.309609	0.000154	1.539756	0.260842	0.003079
 683	3.4100e-01	6.8152	5.347668	0.000381	3.806620	0.644859	0.007612
 684	3.4150e-01	6.8253	5.363490	0.000158	1.582527	0.268087	0.003164
 685	3.4200e-01	6.8372	5.397700	0.000342	3.421681	0.579648	0.006842
 686	3.4250e-01	6.8469	5.413950	0.000163	1.625298	0.275333	0.003250
 687	3.4300e-01	6.8561	5.432338	0.000184	1.839154	0.311561	0.003678
 688	3.4350e-01	6.8658	5.459706	0.000274	2.737345	0.463719	0.005474
 689	3.4400e-01	6.8768	5.471679	0.000120	1.197588	0.202877	0.002395
 690	3.4450e-01	6.8878	5.499475	0.000278	2.780116	0.470964	0.005559
 691	3.4500e-01	6.8958	5.526843	0.000274	2.737345	0.463719	0.005474
 692	3.4550e-01	6.9070	5.552928	0.000261	2.609032	0.441982	0.005217
 693	3.4600e-01	6.9177	5.575592	0.000227	2.266864	0.384017	0.004533
 694	3.4650e-01	6.9275	5.601677	0.000261	2.609032	0.441982	0.005217
 695	3.4700e-01	6.9397	5.620065	0.000184	1.839154	0.311561	0.003678
 696	3.4750e-01	6.9458	5.643157	0.000231	2.309635	0.391263	0.004618
 697	3.4800e-01	6.9592	5.657696	0.000145	1.454214	0.246351	0.002908
 698	3.4850e-01	6.9666	5.690196	0.000325	3.250597	0.550666	0.006500
 699	3.4900e-01	6.9775	5.711577	0.000214	2.138551	0.362280	0.004276
 700	3.4950e-01	6.9836	5.729965	0.000184	1.839154	0.311561	0.003678
 701	3.5000e-01	6.9971	5.756905	0.000269	2.694574	0.456473	0.005388
 702	3.5050e-01	7.0050	5.798385	0.000415	4.148788	0.702824	0.008296
 703	3.5100e-01	7.0142	5.821477	0.000231	2.309635	0.391263	0.004618
 704	3.5150e-01	7.0271	5.832595	0.000111	1.112046	0.188386	0.002224
 705	3.5200e-01	7.0374	5.860818	0.000282	2.822887	0.478210	0.005645
 706	3.5250e-01	7.0490	5.874930	0.000141	1.411443	0.239105	0.002822
 707	3.5300e-01	7.0566	5.906574	0.000317	3.165055	0.536175	0.006329
 708	3.5350e-01	7.0642	5.931804	0.000252	2.523490	0.427491	0.005046
 709	3.5400e-01	7.0770	5.928811	-0.000030	-0.299397	-0.050719	-0.000599
 710	3.5450e-01	7.0850	5.956606	0.000278	2.780116	0.470964	0.005559
 711	3.5500e-01	7.0953	5.990816	0.000342	3.421681	0.579648	0.006842
 712	3.5550e-01	7.1075	6.017757	0.000269	2.694574	0.456473	0.005388
 713	3.5600e-01	7.1182	6.024171	0.000064	0.641565	0.108684	0.001283
 714	3.5650e-01	7.1271	6.073348	0.000492	4.918666	0.833245	0.009835
 715	3.5700e-01	7.1378	6.083611	0.000103	1.026504	0.173895	0.002053
 716	3.5750e-01	7.1454	6.109268	0.000257	2.566261	0.434736	0.005132
 717	3.5800e-01	7.1570	6.146044	0.000368	3.678307	0.623122	0.007355
 718	3.5850e-01	7.1652	6.154597	0.000086	0.855420	0.144912	0.001711
 719	3.5900e-01	7.1774	6.158873	0.000043	0.427710	0.072456	0.000855
 720	3.5950e-01	7.1857	6.217885	0.000590	5.902400	0.999894	0.011802
 721	3.6000e-01	7.1985	6.208478	-0.000094	-0.940962	-0.159403	-0.001882
 722	3.6050e-01	7.2064	6.231569	0.000231	2.309635	0.391263	0.004618
 723	3.6100e-01	7.2159	6.276898	0.000453	4.533727	0.768034	0.009066
 724	3.6150e-01	7.2266	6.295285	0.000184	1.839154	0.311561	0.003678
 725	3.6200e-01	7.2375	6.322653	0.000274	2.737345	0.463719	0.005474
 726	3.6250e-01	7.2437	6.347883	0.000252	2.523490	0.427491	0.005046
 727	3.6300e-01	7.2571	6.359857	0.000120	1.197588	0.202877	0.002395
 728	3.6350e-01	7.2687	6.385087	0.000252	2.523490	0.427491	0.005046
 729	3.6400e-01	7.2784	6.394067	0.000090	0.898191	0.152158	0.001796
 730	3.6450e-01	7.2888	6.416731	0.000227	2.266864	0.384017	0.004533
 731	3.6500e-01	7.2986	6.443244	0.000265	2.651803	0.449228	0.005303
 732	3.6550e-01	7.3065	6.477454	0.000342	3.421681	0.579648	0.006842
 733	3.6600e-01	7.3169	6.487289	0.000098	0.983733	0.166649	0.001967
 734	3.6650e-01	7.3299	6.514230	0.000269	2.694574	0.456473	0.005388
 735	3.6700e-01	7.3352	6.551861	0.000376	3.763849	0.637613	0.007526
 736	3.6750e-01	7.3450	6.568966	0.000171	1.710840	0.289824	0.003421
 737	3.6800e-01	7.3587	6.581367	0.000124	1.240359	0.210123	0.002480
 738	3.6850e-01	7.3648	6.596761	0.000154	1.539756	0.260842	0.003079
 739	3.6900e-01	7.3764	6.629261	0.000325	3.250597	0.550666	0.006500
 740	3.6950e-01	7.3868	6.663471	0.000342	3.421681	0.579648	0.006842
 741	3.7000e-01	7.3981	6.683569	0.000201	2.010238	0.340543	0.004020
 742	3.7050e-01	7.4057	6.707089	0.000235	2.352406	0.398508	0.004704
 743	3.7100e-01	7.4158	6.710937	0.000038	0.384939	0.065210	0.000770
 744	3.7150e-01	7.4274	6.743009	0.000321	3.207826	0.543420	0.006414
 745	3.7200e-01	7.4371	6.769094	0.000261	2.609032	0.441982	0.005217
 746	3.7250e-01	7.4454	6.801166	0.000321	3.207826	0.543420	0.006414
 747	3.7300e-01	7.4603	6.826396	0.000252	2.523490	0.427491	0.005046
 748	3.7350e-01	7.4686	6.834093	0.000077	0.769878	0.130421	0.001539
 749	3.7400e-01	7.4774	6.870441	0.000364	3.635536	0.615876	0.007270
 750	3.7450e-01	7.4872	6.885408	0.000150	1.496985	0.253596	0.002993
 751	3.7500e-01	7.4969	6.905934	0.000205	2.053009	0.347789	0.004105
 752	3.7550e-01	7.5085	6.924322	0.000184	1.839154	0.311561	0.003678
 753	3.7600e-01	7.5146	6.956394	0.000321	3.207826	0.543420	0.006414
 754	3.7650e-01	7.5250	6.961953	0.000056	0.556023	0.094193	0.001112
 755	3.7700e-01	7.5366	6.992315	0.000304	3.036742	0.514438	0.006072
 756	3.7750e-01	7.5446	7.031229	0.000389	3.892162	0.659350	0.007783
 757	3.7800e-01	7.5574	7.038926	0.000077	0.769878	0.130421	0.001539
 758	3.7850e-01	7.5690	7.040209	0.000013	0.128313	0.021737	0.000257
 759	3.7900e-01	7.5751	7.084254	0.000441	4.405414	0.746297	0.008809
 760	3.7950e-01	7.5867	7.127872	0.000436	4.362643	0.739052	0.008724
 761	3.8000e-01	7.5989	7.152247	0.000244	2.437948	0.413000	0.004875
 762	3.8050e-01	7.6068	7.148398	-0.000038	-0.384939	-0.065210	-0.000770
 763	3.8100e-01	7.6154	7.182180	0.000338	3.378910	0.572403	0.006756
 764	3.8150e-01	7.6257	7.209548	0.000274	2.737345	0.463719	0.005474
 765	3.8200e-01	7.6364	7.230502	0.000210	2.095780	0.355035	0.004191
 766	3.8250e-01	7.6477	7.254877	0.000244	2.437948	0.413000	0.004875
 767	3.8300e-01	7.6581	7.277968	0.000231	2.309635	0.391263	0.004618
 768	3.8350e-01	7.6685	7.303198	0.000252	2.523490	0.427491	0.005046
 769	3.8400e-01	7.6764	7.327145	0.000240	2.395177	0.405754	0.004789
 770	3.8450e-01	7.6855	7.354513	0.000274	2.737345	0.463719	0.005474
 771	3.8500e-01	7.6959	7.372901	0.000184	1.839154	0.311561	0.003678
 772	3.8550e-01	7.7087	7.395565	0.000227	2.266864	0.384017	0.004533
 773	3.8600e-01	7.7179	7.414381	0.000188	1.881925	0.318807	0.003763
 774	3.8650e-01	7.7271	7.439183	0.000248	2.480719	0.420245	0.004960
 775	3.8700e-01	7.7393	7.455005	0.000158	1.582527	0.268087	0.003164
 776	3.8750e-01	7.7451	7.470400	0.000154	1.539756	0.260842	0.003079
 777	3.8800e-01	7.7539	7.492636	0.000222	2.224093	0.376771	0.004447
 778	3.8850e-01	7.7673	7.520860	0.000282	2.822887	0.478210	0.005645
 779	3.8900e-01	7.7783	7.552931	0.000321	3.207826	0.543420	0.006414
 780	3.8950e-01	7.7869	7.552931	0.000000	0.000000	0.000000	0.000000
 781	3.9000e-01	7.7966	7.597404	0.000445	4.448185	0.753543	0.008895
 782	3.9050e-01	7.8088	7.607240	0.000098	0.983733	0.166649	0.001967
 783	3.9100e-01	7.8180	7.644443	0.000372	3.721078	0.630368	0.007441
 784	3.9150e-01	7.8278	7.660265	0.000158	1.582527	0.268087	0.003164
 785	3.9200e-01	7.8363	7.698324	0.000381	3.806620	0.644859	0.007612
 786	3.9250e-01	7.8467	7.694475	-0.000038	-0.384939	-0.065210	-0.000770
 787	3.9300e-01	7.8558	7.744080	0.000496	4.961437	0.840490	0.009921
 788	3.9350e-01	7.8699	7.734672	-0.000094	-0.940962	-0.159403	-0.001882
 789	3.9400e-01	7.8760	7.774869	0.000402	4.020475	0.681087	0.008039
 790	3.9450e-01	7.8870	7.810789	0.000359	3.592765	0.608631	0.007184
 791	3.9500e-01	7.8979	7.809934	-0.000009	-0.085542	-0.014491	-0.000171
 792	3.9550e-01	7.9086	7.827039	0.000171	1.710840	0.289824	0.003421
 793	3.9600e-01	7.9184	7.876216	0.000492	4.918666	0.833245	0.009835
 794	3.9650e-01	7.9274	7.873650	-0.000026	-0.256626	-0.043474	-0.000513
 795	3.9700e-01	7.9346	7.915558	0.000419	4.191559	0.710069	0.008381
 796	3.9750e-01	7.9504	7.936511	0.000210	2.095780	0.355035	0.004191
 797	3.9800e-01	7.9581	7.955327	0.000188	1.881925	0.318807	0.003763
 798	3.9850e-01	7.9657	7.980129	0.000248	2.480719	0.420245	0.004960
 799	3.9900e-01	7.9767	7.999372	0.000192	1.924696	0.326052	0.003849
 800	3.9950e-01	7.9871	8.024602	0.000252	2.523490	0.427491	0.005046
 801	4.0000e-01	7.9941	8.044273	0.000197	1.967467	0.333298	0.003934
 802	4.0050e-01	8.0048	8.062233	0.000180	1.796382	0.304315	0.003592
 803	4.0100e-01	8.0145	8.103713	0.000415	4.148788	0.702824	0.008296
 804	4.0150e-01	8.0264	8.107989	0.000043	0.427710	0.072456	0.000855
 805	4.0200e-01	8.0371	8.151179	0.000432	4.319872	0.731806	0.008638
 806	4.0250e-01	8.0469	8.164863	0.000137	1.368672	0.231859	0.002737
 807	4.0300e-01	8.0548	8.189665	0.000248	2.480719	0.420245	0.004960
 808	4.0350e-01	8.0652	8.211047	0.000214	2.138551	0.362280	0.004276
 809	4.0400e-01	8.0746	8.226441	0.000154	1.539756	0.260842	0.003079
 810	4.0450e-01	8.0859	8.237559	0.000111	1.112046	0.188386	0.002224
 811	4.0500e-01	8.0981	8.270914	0.000334	3.336139	0.565157	0.006671
 812	4.0550e-01	8.1079	8.310256	0.000393	3.934933	0.666596	0.007868
 813	4.0600e-01	8.1152	8.319664	0.000094	0.940962	0.159403	0.001882
 814	4.0650e-01	8.1268	8.347887	0.000282	2.822887	0.478210	0.005645
 815	4.0700e-01	8.1375	8.365419	0.000175	1.753611	0.297070	0.003507
 816	4.0750e-01	8.1464	8.387228	0.000218	2.181322	0.369526	0.004362
 817	4.0800e-01	8.1546	8.426997	0.000398	3.977704	0.673841	0.007954
 818	4.0850e-01	8.1668	8.438116	0.000111	1.112046	0.188386	0.002224
 819	4.0900e-01	8.1775	8.454793	0.000167	1.668069	0.282579	0.003335
 820	4.0950e-01	8.1873	8.474464	0.000197	1.967467	0.333298	0.003934
 821	4.1000e-01	8.1958	8.485582	0.000111	1.112046	0.188386	0.002224
 822	4.1050e-01	8.2068	8.502260	0.000167	1.668069	0.282579	0.003335
 823	4.1100e-01	8.2138	8.547160	0.000449	4.490956	0.760789	0.008980
 824	4.1150e-01	8.2245	8.593344	0.000462	4.619269	0.782525	0.009237
 825	4.1200e-01	8.2355	8.585219	-0.000081	-0.812649	-0.137667	-0.001625
 826	4.1250e-01	8.2477	8.609593	0.000244	2.437948	0.413000	0.004875
 827	4.1300e-01	8.2568	8.630119	0.000205	2.053009	0.347789	0.004105
 828	4.1350e-01	8.2657	8.667751	0.000376	3.763849	0.637613	0.007526
 829	4.1400e-01	8.2788	8.679724	0.000120	1.197588	0.202877	0.002395
 830	4.1450e-01	8.2855	8.703243	0.000235	2.352406	0.398508	0.004704
 831	4.1500e-01	8.2953	8.728473	0.000252	2.523490	0.427491	0.005046
 832	4.1550e-01	8.3057	8.740874	0.000124	1.240359	0.210123	0.002480
 833	4.1600e-01	8.3179	8.783209	0.000423	4.234330	0.717315	0.008467
 834	4.1650e-01	8.3258	8.794328	0.000111	1.112046	0.188386	0.002224
 835	4.1700e-01	8.3386	8.827255	0.000329	3.293368	0.557912	0.006585
 836	4.1750e-01	8.3435	8.826827	-0.000004	-0.042771	-0.007246	-0.000086
 837	4.1800e-01	8.3563	8.842649	0.000158	1.582527	0.268087	0.003164
 838	4.1850e-01	8.3685	8.876432	0.000338	3.378910	0.572403	0.006756
 839	4.1900e-01	8.3777	8.891826	0.000154	1.539756	0.260842	0.003079
 840	4.1950e-01	8.3875	8.925609	0.000338	3.378910	0.572403	0.006756
 841	4.2000e-01	8.3978	8.952977	0.000274	2.737345	0.463719	0.005474
 842	4.2050e-01	8.4070	8.976496	0.000235	2.352406	0.398508	0.004704
 843	4.2100e-01	8.4174	9.004719	0.000282	2.822887	0.478210	0.005645
 844	4.2150e-01	8.4247	9.017976	0.000133	1.325901	0.224614	0.002651
 845	4.2200e-01	8.4399	9.039357	0.000214	2.138551	0.362280	0.004276
 846	4.2250e-01	8.4454	9.057317	0.000180	1.796382	0.304315	0.003592
 847	4.2300e-01	8.4546	9.103073	0.000458	4.576498	0.775280	0.009151
 848	4.2350e-01	8.4680	9.092810	-0.000103	-1.026504	-0.173895	-0.002053
 849	4.2400e-01	8.4796	9.133007	0.000402	4.020475	0.681087	0.008039
 850	4.2450e-01	8.4875	9.152678	0.000197	1.967467	0.333298	0.003934
 851	4.2500e-01	8.4946	9.176197	0.000235	2.352406	0.398508	0.004704
 852	4.2550e-01	8.5059	9.181328	0.000051	0.513252	0.086947	0.001026
 853	4.2600e-01	8.5162	9.222808	0.000415	4.148788	0.702824	0.008296
 854	4.2650e-01	8.5260	9.226657	0.000038	0.384939	0.065210	0.000770
 855	4.2700e-01	8.5364	9.266426	0.000398	3.977704	0.673841	0.007954
 856	4.2750e-01	8.5486	9.278399	0.000120	1.197588	0.202877	0.002395
 857	4.2800e-01	8.5553	9.306195	0.000278	2.780116	0.470964	0.005559
 858	4.2850e-01	8.5638	9.335701	0.000295	2.951200	0.499947	0.005901
 859	4.2900e-01	8.5785	9.351096	0.000154	1.539756	0.260842	0.003079
 860	4.2950e-01	8.5846	9.387016	0.000359	3.592765	0.608631	0.007184
 861	4.3000e-01	8.5956	9.395996	0.000090	0.898191	0.152158	0.001796
 862	4.3050e-01	8.6078	9.423364	0.000274	2.737345	0.463719	0.005474
 863	4.3100e-01	8.6165	9.446456	0.000231	2.309635	0.391263	0.004618
 864	4.3150e-01	8.6264	9.466555	0.000201	2.010238	0.340543	0.004020
 865	4.3200e-01	8.6362	9.484087	0.000175	1.753611	0.297070	0.003507
 866	4.3250e-01	8.6444	9.508462	0.000244	2.437948	0.413000	0.004875
 867	4.3300e-01	8.6572	9.538823	0.000304	3.036742	0.514438	0.006072
 868	4.3350e-01	8.6652	9.565336	0.000265	2.651803	0.449228	0.005303
 869	4.3400e-01	8.6761	9.576027	0.000107	1.069275	0.181140	0.002138
 870	4.3450e-01	8.6862	9.592704	0.000167	1.668069	0.282579	0.003335
 871	4.3500e-01	8.6978	9.636322	0.000436	4.362643	0.739052	0.008724
 872	4.3550e-01	8.7073	9.619217	-0.000171	-1.710840	-0.289824	-0.003421
 873	4.3600e-01	8.7177	9.665828	0.000466	4.662040	0.789771	0.009322
 874	4.3650e-01	8.7274	9.689347	0.000235	2.352406	0.398508	0.004704
 875	4.3700e-01	8.7360	9.715432	0.000261	2.609032	0.441982	0.005217
 876	4.3750e-01	8.7454	9.741090	0.000257	2.566261	0.434736	0.005132
 877	4.3800e-01	8.7555	9.753491	0.000124	1.240359	0.210123	0.002480
 878	4.3850e-01	8.7660	9.779149	0.000257	2.566261	0.434736	0.005132
 879	4.3900e-01	8.7750	9.815069	0.000359	3.592765	0.608631	0.007184
 880	4.3950e-01	8.7878	9.827470	0.000124	1.240359	0.210123	0.002480
 881	4.4000e-01	8.7964	9.843720	0.000163	1.625298	0.275333	0.003250
 882	4.4050e-01	8.8068	9.872371	0.000287	2.865658	0.485456	0.005730
 883	4.4100e-01	8.8174	9.874937	0.000026	0.256626	0.043474	0.000513
 884	4.4150e-01	8.8263	9.883917	0.000090	0.898191	0.152158	0.001796
 885	4.4200e-01	8.8348	9.948061	0.000642	6.415652	1.086841	0.012829
 886	4.4250e-01	8.8440	9.972863	0.000248	2.480719	0.420245	0.004960
 887	4.4300e-01	8.8544	9.979705	0.000068	0.684336	0.115930	0.001368
 888	4.4350e-01	8.8684	9.992534	0.000128	1.283130	0.217368	0.002566
 889	4.4400e-01	8.8745	10.014770	0.000222	2.224093	0.376771	0.004447
 890	4.4450e-01	8.8837	10.036151	0.000214	2.138551	0.362280	0.004276
 891	4.4500e-01	8.8940	10.072072	0.000359	3.592765	0.608631	0.007184
 892	4.4550e-01	8.9056	10.104144	0.000321	3.207826	0.543420	0.006414
 893	4.4600e-01	8.9175	10.108848	0.000047	0.470481	0.079702	0.000941
 894	4.4650e-01	8.9246	10.134078	0.000252	2.523490	0.427491	0.005046
 895	4.4700e-01	8.9375	10.167860	0.000338	3.378910	0.572403	0.006756
 896	4.4750e-01	8.9453	10.181972	0.000141	1.411443	0.239105	0.002822
 897	4.4800e-01	8.9554	10.194373	0.000124	1.240359	0.210123	0.002480
 898	4.4850e-01	8.9655	10.223024	0.000287	2.865658	0.485456	0.005730
 899	4.4900e-01	8.9760	10.258944	0.000359	3.592765	0.608631	0.007184
 900	4.4950e-01	8.9862	10.266641	0.000077	0.769878	0.130421	0.001539
 901	4.5000e-01	8.9966	10.297430	0.000308	3.079513	0.521684	0.006158
 902	4.5050e-01	9.0076	10.316246	0.000188	1.881925	0.318807	0.003763
 903	4.5100e-01	9.0186	10.345752	0.000295	2.951200	0.499947	0.005901
 904	4.5150e-01	9.0283	10.335061	-0.000107	-1.069275	-0.181140	-0.002138
 905	4.5200e-01	9.0375	10.374831	0.000398	3.977704	0.673841	0.007954
 906	4.5250e-01	9.0466	10.403481	0.000287	2.865658	0.485456	0.005730
 907	4.5300e-01	9.0559	10.423152	0.000197	1.967467	0.333298	0.003934
 908	4.5350e-01	9.0662	10.462921	0.000398	3.977704	0.673841	0.007954
 909	4.5400e-01	9.0735	10.477461	0.000145	1.454214	0.246351	0.002908
 910	4.5450e-01	9.0863	10.493710	0.000163	1.625298	0.275333	0.003250
 911	4.5500e-01	9.0973	10.501835	0.000081	0.812649	0.137667	0.001625
 912	4.5550e-01	9.1040	10.541604	0.000398	3.977704	0.673841	0.007954
 913	4.5600e-01	9.1174	10.563841	0.000222	2.224093	0.376771	0.004447
 914	4.5650e-01	9.1248	10.583084	0.000192	1.924696	0.326052	0.003849
 915	4.5700e-01	9.1351	10.611735	0.000287	2.865658	0.485456	0.005730
 916	4.5750e-01	9.1461	10.632261	0.000205	2.053009	0.347789	0.004105
 917	4.5800e-01	9.1559	10.653215	0.000210	2.095780	0.355035	0.004191
 918	4.5850e-01	9.1656	10.665188	0.000120	1.197588	0.202877	0.002395
 919	4.5900e-01	9.1754	10.690418	0.000252	2.523490	0.427491	0.005046
 920	4.5950e-01	9.1870	10.712655	0.000222	2.224093	0.376771	0.004447
 921	4.6000e-01	9.1940	10.734891	0.000222	2.224093	0.376771	0.004447
 922	4.6050e-01	9.2047	10.757983	0.000231	2.309635	0.391263	0.004618
 923	4.6100e-01	9.2200	10.790910	0.000329	3.293368	0.557912	0.006585
 924	4.6150e-01	9.2267	10.800745	0.000098	0.983733	0.166649	0.001967
 925	4.6200e-01	9.2343	10.836238	0.000355	3.549994	0.601385	0.007099
 926	4.6250e-01	9.2456	10.858475	0.000222	2.224093	0.376771	0.004447
 927	4.6300e-01	9.2578	10.872586	0.000141	1.411443	0.239105	0.002822
 928	4.6350e-01	9.2651	10.900810	0.000282	2.822887	0.478210	0.005645
 929	4.6400e-01	9.2792	10.928178	0.000274	2.737345	0.463719	0.005474
 930	4.6450e-01	9.2853	10.945710	0.000175	1.753611	0.297070	0.003507
 931	4.6500e-01	9.2987	10.973934	0.000282	2.822887	0.478210	0.005645
 932	4.6550e-01	9.3085	10.968374	-0.000056	-0.556023	-0.094193	-0.001112
 933	4.6600e-01	9.3176	10.999591	0.000312	3.122284	0.528929	0.006243
 934	4.6650e-01	9.3256	11.044492	0.000449	4.490956	0.760789	0.008980
 935	4.6700e-01	9.3365	11.058176	0.000137	1.368672	0.231859	0.002737
 936	4.6750e-01	9.3469	11.073998	0.000158	1.582527	0.268087	0.003164
 937	4.6800e-01	9.3555	11.088965	0.000150	1.496985	0.253596	0.002993
 938	4.6850e-01	9.3665	11.121892	0.000329	3.293368	0.557912	0.006585
 939	4.6900e-01	9.3750	11.149688	0.000278	2.780116	0.470964	0.005559
 940	4.6950e-01	9.3872	11.178766	0.000291	2.908429	0.492701	0.005816
 941	4.7000e-01	9.3976	11.190740	0.000120	1.197588	0.202877	0.002395
 942	4.7050e-01	9.4061	11.207417	0.000167	1.668069	0.282579	0.003335
 943	4.7100e-01	9.4165	11.234785	0.000274	2.737345	0.463719	0.005474
 944	4.7150e-01	9.4299	11.265574	0.000308	3.079513	0.521684	0.006158
 945	4.7200e-01	9.4351	11.275409	0.000098	0.983733	0.166649	0.001967
 946	4.7250e-01	9.4452	11.301922	0.000265	2.651803	0.449228	0.005303
 947	4.7300e-01	9.4574	11.326297	0.000244	2.437948	0.413000	0.004875
 948	4.7350e-01	9.4641	11.333566	0.000073	0.727107	0.123175	0.001454
 949	4.7400e-01	9.4763	11.368204	0.000346	3.464452	0.586894	0.006928
 950	4.7450e-01	9.4849	11.400704	0.000325	3.250597	0.550666	0.006500
 951	4.7500e-01	9.4949	11.403269	0.000026	0.256626	0.043474	0.000513
 952	4.7550e-01	9.5093	11.435769	0.000325	3.250597	0.550666	0.006500
 953	4.7600e-01	9.5166	11.466130	0.000304	3.036742	0.514438	0.006072
 954	4.7650e-01	9.5267	11.471262	0.000051	0.513252	0.086947	0.001026
 955	4.7700e-01	9.5370	11.495209	0.000240	2.395177	0.405754	0.004789
 956	4.7750e-01	9.5456	11.518301	0.000231	2.309635	0.391263	0.004618
 957	4.7800e-01	9.5514	11.568760	0.000505	5.046979	0.854981	0.010092
 958	4.7850e-01	9.5642	11.581589	0.000128	1.283130	0.217368	0.002566
 959	4.7900e-01	9.5740	11.590142	0.000086	0.855420	0.144912	0.001711
 960	4.7950e-01	9.5844	11.617510	0.000274	2.737345	0.463719	0.005474
 961	4.8000e-01	9.5984	11.639746	0.000222	2.224093	0.376771	0.004447
 962	4.8050e-01	9.6082	11.650864	0.000111	1.112046	0.188386	0.002224
 963	4.8100e-01	9.6173	11.676950	0.000261	2.609032	0.441982	0.005217
 964	4.8150e-01	9.6234	11.700469	0.000235	2.352406	0.398508	0.004704
 965	4.8200e-01	9.6344	11.730830	0.000304	3.036742	0.514438	0.006072
 966	4.8250e-01	9.6490	11.744942	0.000141	1.411443	0.239105	0.002822
 967	4.8300e-01	9.6558	11.762047	0.000171	1.710840	0.289824	0.003421
 968	4.8350e-01	9.6649	11.794974	0.000329	3.293368	0.557912	0.006585
 969	4.8400e-01	9.6747	11.833888	0.000389	3.892162	0.659350	0.007783
 970	4.8450e-01	9.6829	11.851848	0.000180	1.796382	0.304315	0.003592
 971	4.8500e-01	9.6948	11.873657	0.000218	2.181322	0.369526	0.004362
 972	4.8550e-01	9.7058	11.887769	0.000141	1.411443	0.239105	0.002822
 973	4.8600e-01	9.7150	11.933525	0.000458	4.576498	0.775280	0.009151
 974	4.8650e-01	9.7267	11.930104	-0.000034	-0.342168	-0.057965	-0.000684
 975	4.8700e-01	9.7345	11.949347	0.000192	1.924696	0.326052	0.003849
 976	4.8750e-01	9.7461	11.972439	0.000231	2.309635	0.391263	0.004618
 977	4.8800e-01	9.7565	12.006221	0.000338	3.378910	0.572403	0.006756
 978	4.8850e-01	9.7644	12.045990	0.000398	3.977704	0.673841	0.007954
 979	4.8900e-01	9.7729	12.049411	0.000034	0.342168	0.057965	0.000684
 980	4.8950e-01	9.7870	12.072931	0.000235	2.352406	0.398508	0.004704
 981	4.9000e-01	9.7980	12.077634	0.000047	0.470481	0.079702	0.000941
 982	4.9050e-01	9.8077	12.101154	0.000235	2.352406	0.398508	0.004704
 983	4.9100e-01	9.8163	12.139640	0.000385	3.849391	0.652104	0.007697
 984	4.9150e-01	9.8267	12.144772	0.000051	0.513252	0.086947	0.001026
 985	4.9200e-01	9.8340	12.177271	0.000325	3.250597	0.550666	0.006500
 986	4.9250e-01	9.8468	12.204212	0.000269	2.694574	0.456473	0.005388
 987	4.9300e-01	9.8566	12.233290	0.000291	2.908429	0.492701	0.005816
 988	4.9350e-01	9.8663	12.247829	0.000145	1.454214	0.246351	0.002908
 989	4.9400e-01	9.8764	12.270921	0.000231	2.309635	0.391263	0.004618
 990	4.9450e-01	9.8859	12.294868	0.000240	2.395177	0.405754	0.004789
 991	4.9500e-01	9.8933	12.335920	0.000411	4.106017	0.695578	0.008210
 992	4.9550e-01	9.9066	12.327795	-0.000081	-0.812649	-0.137667	-0.001625
 993	4.9600e-01	9.9152	12.366282	0.000385	3.849391	0.652104	0.007697
 994	4.9650e-01	9.9274	12.379538	0.000133	1.325901	0.224614	0.002651
 995	4.9700e-01	9.9359	12.408189	0.000287	2.865658	0.485456	0.005730
 996	4.9750e-01	9.9463	12.434702	0.000265	2.651803	0.449228	0.005303
 997	4.9800e-01	9.9542	12.456938	0.000222	2.224093	0.376771	0.004447
 998	4.9850e-01	9.9683	12.470622	0.000137	1.368672	0.231859	0.002737
 999	4.9900e-01	9.9762	12.489865	0.000192	1.924696	0.326052	0.003849
1000	4.9950e-01	9.9847	12.518516	0.000287	2.865658	0.485456	0.005730
1001	5.0000e-01	9.9954	12.560423	0.000419	4.191559	0.710069	0.008381
1002	5.0050e-01	9.9841	12.516806	0.000436	4.362643	0.739052	-0.008724
1003	5.0100e-01	9.9786	12.496707	0.000201	2.010238	0.340543	-0.004020
1004	5.0150e-01	9.9646	12.485161	0.000115	1.154817	0.195631	-0.002309
1005	5.0200e-01	9.9561	12.477464	0.000077	0.769878	0.130421	-0.001539
1006	5.0250e-01	9.9472	12.451807	0.000257	2.566261	0.434736	-0.005132
1007	5.0300e-01	9.9359	12.443254	0.000086	0.855420	0.144912	-0.001711
1008	5.0350e-01	9.9261	12.431281	0.000120	1.197588	0.202877	-0.002395
1009	5.0400e-01	9.9158	12.410327	0.000210	2.095780	0.355035	-0.004191
1010	5.0450e-01	9.9054	12.401774	0.000086	0.855420	0.144912	-0.001711
1011	5.0500e-01	9.8969	12.365854	0.000359	3.592765	0.608631	-0.007184
1012	5.0550e-01	9.8878	12.358157	0.000077	0.769878	0.130421	-0.001539
1013	5.0600e-01	9.8767	12.323519	0.000346	3.464452	0.586894	-0.006928
1014	5.0650e-01	9.8642	12.331216	-0.000077	-0.769878	-0.130421	0.001539
1015	5.0700e-01	9.8547	12.320953	0.000103	1.026504	0.173895	-0.002053
1016	5.0750e-01	9.8456	12.284177	0.000368	3.678307	0.623122	-0.007355
1017	5.0800e-01	9.8364	12.278618	0.000056	0.556023	0.094193	-0.001112
1018	5.0850e-01	9.8248	12.258520	0.000201	2.010238	0.340543	-0.004020
1019	5.0900e-01	9.8157	12.245264	0.000133	1.325901	0.224614	-0.002651
1020	5.0950e-01	9.8047	12.218751	0.000265	2.651803	0.449228	-0.005303
1021	5.1000e-01	9.7949	12.211054	0.000077	0.769878	0.130421	-0.001539
1022	5.1050e-01	9.7821	12.191383	0.000197	1.967467	0.333298	-0.003934
1023	5.1100e-01	9.7751	12.170002	0.000214	2.138551	0.362280	-0.004276
1024	5.1150e-01	9.7659	12.180265	-0.000103	-1.026504	-0.173895	0.002053
1025	5.1200e-01	9.7577	12.142633	0.000376	3.763849	0.637613	-0.007526
1026	5.1250e-01	9.7485	12.113555	0.000291	2.908429	0.492701	-0.005816
1027	5.1300e-01	9.7351	12.107141	0.000064	0.641565	0.108684	-0.001283
1028	5.1350e-01	9.7260	12.099443	0.000077	0.769878	0.130421	-0.001539
1029	5.1400e-01	9.7180	12.079773	0.000197	1.967467	0.333298	-0.003934
1030	5.1450e-01	9.7070	12.057536	0.000222	2.224093	0.376771	-0.004447
1031	5.1500e-01	9.6967	12.049839	0.000077	0.769878	0.130421	-0.001539
1032	5.1550e-01	9.6857	12.018195	0.000317	3.165055	0.536175	-0.006329
1033	5.1600e-01	9.6753	12.007932	0.000103	1.026504	0.173895	-0.002053
1034	5.1650e-01	9.6631	12.009214	-0.000013	-0.128313	-0.021737	0.000257
1035	5.1700e-01	9.6564	11.970301	0.000389	3.892162	0.659350	-0.007783
1036	5.1750e-01	9.6436	11.967307	0.000030	0.299397	0.050719	-0.000599
1037	5.1800e-01	9.6375	11.947636	0.000197	1.967467	0.333298	-0.003934
1038	5.1850e-01	9.6265	11.910433	0.000372	3.721078	0.630368	-0.007441
1039	5.1900e-01	9.6143	11.903591	0.000068	0.684336	0.115930	-0.001368
1040	5.1950e-01	9.6039	11.905729	-0.000021	-0.213855	-0.036228	0.000428
1041	5.2000e-01	9.5972	11.867670	0.000381	3.806620	0.644859	-0.007612
1042	5.2050e-01	9.5850	11.854414	0.000133	1.325901	0.224614	-0.002651
1043	5.2100e-01	9.5752	11.842441	0.000120	1.197588	0.202877	-0.002395
1044	5.2150e-01	9.5654	11.805237	0.000372	3.721078	0.630368	-0.007441
1045	5.2200e-01	9.5551	11.794974	0.000103	1.026504	0.173895	-0.002053
1046	5.2250e-01	9.5477	11.773593	0.000214	2.138551	0.362280	-0.004276
1047	5.2300e-01	9.5331	11.740666	0.000329	3.293368	0.557912	-0.006585
1048	5.2350e-01	9.5258	11.741949	-0.000013	-0.128313	-0.021737	0.000257
1049	5.2400e-01	9.5160	11.738100	0.000038	0.384939	0.065210	-0.000770
1050	5.2450e-01	9.5071	11.699186	0.000389	3.892162	0.659350	-0.007783
1051	5.2500e-01	9.4965	11.678660	0.000205	2.053009	0.347789	-0.004105
1052	5.2550e-01	9.4849	11.658562	0.000201	2.010238	0.340543	-0.004020
1053	5.2600e-01	9.4769	11.652147	0.000064	0.641565	0.108684	-0.001283
1054	5.2650e-01	9.4659	11.628200	0.000240	2.395177	0.405754	-0.004789
1055	5.2700e-01	9.4531	11.624779	0.000034	0.342168	0.057965	-0.000684
1056	5.2750e-01	9.4452	11.605536	0.000192	1.924696	0.326052	-0.003849
1057	5.2800e-01	9.4348	11.586721	0.000188	1.881925	0.318807	-0.003763
1058	5.2850e-01	9.4275	11.567050	0.000197	1.967467	0.333298	-0.003934
1059	5.2900e-01	9.4168	11.546096	0.000210	2.095780	0.355035	-0.004191
1060	5.2950e-01	9.4061	11.520866	0.000252	2.523490	0.427491	-0.005046
1061	5.3000e-01	9.3964	11.514452	0.000064	0.641565	0.108684	-0.001283
1062	5.3050e-01	9.3863	11.484946	0.000295	2.951200	0.499947	-0.005901
1063	5.3100e-01	9.3768	11.475966	0.000090	0.898191	0.152158	-0.001796
1064	5.3150e-01	9.3671	11.445604	0.000304	3.036742	0.514438	-0.006072
1065	5.3200e-01	9.3567	11.446460	-0.000009	-0.085542	-0.014491	0.000171
1066	5.3250e-01	9.3451	11.413532	0.000329	3.293368	0.557912	-0.006585
1067	5.3300e-01	9.3353	11.388303	0.000252	2.523490	0.427491	-0.005046
1068	5.3350e-01	9.3250	11.376757	0.000115	1.154817	0.195631	-0.002309
1069	5.3400e-01	9.3152	11.365211	0.000115	1.154817	0.195631	-0.002309
1070	5.3450e-01	9.3048	11.338698	0.000265	2.651803	0.449228	-0.005303
1071	5.3500e-01	9.2969	11.325014	0.000137	1.368672	0.231859	-0.002737
1072	5.3550e-01	9.2853	11.304488	0.000205	2.053009	0.347789	-0.004105
1073	5.3600e-01	9.2767	11.298074	0.000064	0.641565	0.108684	-0.001283
1074	5.3650e-01	9.2657	11.253601	0.000445	4.448185	0.753543	-0.008895
1075	5.3700e-01	9.2566	11.249752	0.000038	0.384939	0.065210	-0.000770
1076	5.3750e-01	9.2462	11.230509	0.000192	1.924696	0.326052	-0.003849
1077	5.3800e-01	9.2365	11.206134	0.000244	2.437948	0.413000	-0.004875
1078	5.3850e-01	9.2255	11.173635	0.000325	3.250597	0.550666	-0.006500
1079	5.3900e-01	9.2166	11.165082	0.000086	0.855420	0.144912	-0.001711
1080	5.3950e-01	9.2047	11.159095	0.000060	0.598794	0.101438	-0.001197
1081	5.4000e-01	9.1974	11.124458	0.000346	3.464452	0.586894	-0.006928
1082	5.4050e-01	9.1846	11.127023	-0.000026	-0.256626	-0.043474	0.000513
1083	5.4100e-01	9.1785	11.108208	0.000188	1.881925	0.318807	-0.003763
1084	5.4150e-01	9.1656	11.085116	0.000231	2.309635	0.391263	-0.004618
1085	5.4200e-01	9.1589	11.066728	0.000184	1.839154	0.311561	-0.003678
1086	5.4250e-01	9.1452	11.050906	0.000158	1.582527	0.268087	-0.003164
1087	5.4300e-01	9.1345	11.020545	0.000304	3.036742	0.514438	-0.006072
1088	5.4350e-01	9.1235	11.008999	0.000115	1.154817	0.195631	-0.002309
1089	5.4400e-01	9.1150	10.989756	0.000192	1.924696	0.326052	-0.003849
1090	5.4450e-01	9.1071	10.977782	0.000120	1.197588	0.202877	-0.002395
1091	5.4500e-01	9.0930	10.946566	0.000312	3.122284	0.528929	-0.006243
1092	5.4550e-01	9.0845	10.913211	0.000334	3.336139	0.565157	-0.006671
1093	5.4600e-01	9.0753	10.923901	-0.000107	-1.069275	-0.181140	0.002138
1094	5.4650e-01	9.0674	10.855054	0.000689	6.886133	1.166542	-0.013770
1095	5.4700e-01	9.0558	10.884988	-0.000299	-2.993971	-0.507192	0.005987
1096	5.4750e-01	9.0479	10.849922	0.000351	3.507223	0.594140	-0.007013
1097	5.4800e-01	9.0356	10.837949	0.000120	1.197588	0.202877	-0.002395
1098	5.4850e-01	9.0259	10.805877	0.000321	3.207826	0.543420	-0.006414
1099	5.4900e-01	9.0173	10.817423	-0.000115	-1.154817	-0.195631	0.002309
1100	5.4950e-01	9.0057	10.773805	0.000436	4.362643	0.739052	-0.008724
1101	5.5000e-01	8.9938	10.754134	0.000197	1.967467	0.333298	-0.003934
1102	5.5050e-01	8.9844	10.747720	0.000064	0.641565	0.108684	-0.001283
1103	5.5100e-01	8.9771	10.731898	0.000158	1.582527	0.268087	-0.003164
1104	5.5150e-01	8.9651	10.699826	0.000321	3.207826	0.543420	-0.006414
1105	5.5200e-01	8.9575	10.690846	0.000090	0.898191	0.152158	-0.001796
1106	5.5250e-01	8.9430	10.681010	0.000098	0.983733	0.166649	-0.001967
1107	5.5300e-01	8.9343	10.654070	0.000269	2.694574	0.456473	-0.005388
1108	5.5350e-01	8.9258	10.623281	0.000308	3.079513	0.521684	-0.006158
1109	5.5400e-01	8.9163	10.612163	0.000111	1.112046	0.188386	-0.002224
1110	5.5450e-01	8.9020	10.578380	0.000338	3.378910	0.572403	-0.006756
1111	5.5500e-01	8.8947	10.560848	0.000175	1.753611	0.297070	-0.003507
1112	5.5550e-01	8.8837	10.548446	0.000124	1.240359	0.210123	-0.002480
1113	5.5600e-01	8.8745	10.538183	0.000103	1.026504	0.173895	-0.002053
1114	5.5650e-01	8.8654	10.506539	0.000317	3.165055	0.536175	-0.006329
1115	5.5700e-01	8.8528	10.499270	0.000073	0.727107	0.123175	-0.001454
1116	5.5750e-01	8.8455	10.465915	0.000334	3.336139	0.565157	-0.006671
1117	5.5800e-01	8.8361	10.447099	0.000188	1.881925	0.318807	-0.003763
1118	5.5850e-01	8.8239	10.434271	0.000128	1.283130	0.217368	-0.002566
1119	5.5900e-01	8.8159	10.422297	0.000120	1.197588	0.202877	-0.002395
1120	5.5950e-01	8.8080	10.375258	0.000470	4.704811	0.797017	-0.009408
1121	5.6000e-01	8.7949	10.369699	0.000056	0.556023	0.094193	-0.001112
1122	5.6050e-01	8.7860	10.346607	0.000231	2.309635	0.391263	-0.004618
1123	5.6100e-01	8.7775	10.328219	0.000184	1.839154	0.311561	-0.003678
1124	5.6150e-01	8.7683	10.307266	0.000210	2.095780	0.355035	-0.004191
1125	5.6200e-01	8.7543	10.294437	0.000128	1.283130	0.217368	-0.002566
1126	5.6250e-01	8.7463	10.279470	0.000150	1.496985	0.253596	-0.002993
1127	5.6300e-01	8.7390	10.254240	0.000252	2.523490	0.427491	-0.005046
1128	5.6350e-01	8.7265	10.226445	0.000278	2.780116	0.470964	-0.005559
1129	5.6400e-01	8.7164	10.214471	0.000120	1.197588	0.202877	-0.002395
1130	5.6450e-01	8.7067	10.184965	0.000295	2.951200	0.499947	-0.005901
1131	5.6500e-01	8.6969	10.172991	0.000120	1.197588	0.202877	-0.002395
1132	5.6550e-01	8.6859	10.157169	0.000158	1.582527	0.268087	-0.003164
1133	5.6600e-01	8.6755	10.152465	0.000047	0.470481	0.079702	-0.000941
1134	5.6650e-01	8.6646	10.126380	0.000261	2.609032	0.441982	-0.005217
1135	5.6700e-01	8.6542	10.075493	0.000509	5.089750	0.862227	-0.010177
1136	5.6750e-01	8.6456	10.086184	-0.000107	-1.069275	-0.181140	0.002138
1137	5.6800e-01	8.6389	10.057105	0.000291	2.908429	0.492701	-0.005816
1138	5.6850e-01	8.6249	10.038717	0.000184	1.839154	0.311561	-0.003678
1139	5.6900e-01	8.6182	10.009211	0.000295	2.951200	0.499947	-0.005901
1140	5.6950e-01	8.6081	9.998948	0.000103	1.026504	0.173895	-0.002053
1141	5.7000e-01	8.5956	9.986119	0.000128	1.283130	0.217368	-0.002566
1142	5.7050e-01	8.5847	9.957896	0.000282	2.822887	0.478210	-0.005645
1143	5.7100e-01	8.5742	9.957468	0.000004	0.042771	0.007246	-0.000086
1144	5.7150e-01	8.5638	9.915133	0.000423	4.234330	0.717315	-0.008467
1145	5.7200e-01	8.5553	9.895890	0.000192	1.924696	0.326052	-0.003849
1146	5.7250e-01	8.5455	9.878358	0.000175	1.753611	0.297070	-0.003507
1147	5.7300e-01	8.5370	9.850134	0.000282	2.822887	0.478210	-0.005645
1148	5.7350e-01	8.5300	9.844148	0.000060	0.598794	0.101438	-0.001197
1149	5.7400e-01	8.5156	9.808655	0.000355	3.549994	0.601385	-0.007099
1150	5.7450e-01	8.5065	9.799675	0.000090	0.898191	0.152158	-0.001796
1151	5.7500e-01	8.4949	9.772734	0.000269	2.694574	0.456473	-0.005388
1152	5.7550e-01	8.4875	9.778721	-0.000060	-0.598794	-0.101438	0.001197
1153	5.7600e-01	8.4753	9.731682	0.000470	4.704811	0.797017	-0.009408
1154	5.7650e-01	8.4644	9.717143	0.000145	1.454214	0.246351	-0.002908
1155	5.7700e-01	8.4570	9.687637	0.000295	2.951200	0.499947	-0.005901
1156	5.7750e-01	8.4479	9.678229	0.000094	0.940962	0.159403	-0.001882
1157	5.7800e-01	8.4375	9.650861	0.000274	2.737345	0.463719	-0.005474
1158	5.7850e-01	8.4302	9.622210	0.000287	2.865658	0.485456	-0.005730
1159	5.7900e-01	8.4140	9.627769	-0.000056	-0.556023	-0.094193	0.001112
1160	5.7950e-01	8.4058	9.608526	0.000192	1.924696	0.326052	-0.003849
1161	5.8000e-01	8.3957	9.578592	0.000299	2.993971	0.507192	-0.005987
1162	5.8050e-01	8.3862	9.543955	0.000346	3.464452	0.586894	-0.006928
1163	5.8100e-01	8.3783	9.533264	0.000107	1.069275	0.181140	-0.002138
1164	5.8150e-01	8.3661	9.521718	0.000115	1.154817	0.195631	-0.002309
1165	5.8200e-01	8.3575	9.484942	0.000368	3.678307	0.623122	-0.007355
1166	5.8250e-01	8.3453	9.471686	0.000133	1.325901	0.224614	-0.002651
1167	5.8300e-01	8.3353	9.464416	0.000073	0.727107	0.123175	-0.001454
1168	5.8350e-01	8.3270	9.421226	0.000432	4.319872	0.731806	-0.008638
1169	5.8400e-01	8.3167	9.410108	0.000111	1.112046	0.188386	-0.002224
1170	5.8450e-01	8.3069	9.402838	0.000073	0.727107	0.123175	-0.001454
1171	5.8500e-01	8.2947	9.378891	0.000240	2.395177	0.405754	-0.004789
1172	5.8550e-01	8.2874	9.348530	0.000304	3.036742	0.514438	-0.006072
1173	5.8600e-01	8.2751	9.343826	0.000047	0.470481	0.079702	-0.000941
1174	5.8650e-01	8.2657	9.319451	0.000244	2.437948	0.413000	-0.004875
1175	5.8700e-01	8.2556	9.302774	0.000167	1.668069	0.282579	-0.003335
1176	5.8750e-01	8.2458	9.286097	0.000167	1.668069	0.282579	-0.003335
1177	5.8800e-01	8.2373	9.249321	0.000368	3.678307	0.623122	-0.007355
1178	5.8850e-01	8.2239	9.240768	0.000086	0.855420	0.144912	-0.001711
1179	5.8900e-01	8.2184	9.222380	0.000184	1.839154	0.311561	-0.003678
1180	5.8950e-01	8.2056	9.190309	0.000321	3.207826	0.543420	-0.006414
1181	5.9000e-01	8.1964	9.166789	0.000235	2.352406	0.398508	-0.004704
1182	5.9050e-01	8.1860	9.157809	0.000090	0.898191	0.152158	-0.001796
1183	5.9100e-01	8.1757	9.137283	0.000205	2.053009	0.347789	-0.004105
1184	5.9150e-01	8.1647	9.113336	0.000240	2.395177	0.405754	-0.004789
1185	5.9200e-01	8.1567	9.082547	0.000308	3.079513	0.521684	-0.006158
1186	5.9250e-01	8.1451	9.090244	-0.000077	-0.769878	-0.130421	0.001539
1187	5.9300e-01	8.1366	9.055607	0.000346	3.464452	0.586894	-0.006928
1188	5.9350e-01	8.1287	9.030377	0.000252	2.523490	0.427491	-0.005046
1189	5.9400e-01	8.1165	9.016265	0.000141	1.411443	0.239105	-0.002822
1190	5.9450e-01	8.1073	8.985048	0.000312	3.122284	0.528929	-0.006243
1191	5.9500e-01	8.0981	8.972220	0.000128	1.283130	0.217368	-0.002566
1192	5.9550e-01	8.0865	8.937154	0.000351	3.507223	0.594140	-0.007013
1193	5.9600e-01	8.0750	8.934161	0.000030	0.299397	0.050719	-0.000599
1194	5.9650e-01	8.0658	8.896530	0.000376	3.763849	0.637613	-0.007526
1195	5.9700e-01	8.0542	8.888405	0.000081	0.812649	0.137667	-0.001625
1196	5.9750e-01	8.0469	8.872583	0.000158	1.582527	0.268087	-0.003164
1197	5.9800e-01	8.0365	8.846925	0.000257	2.566261	0.434736	-0.005132
1198	5.9850e-01	8.0255	8.818702	0.000282	2.822887	0.478210	-0.005645
1199	5.9900e-01	8.0136	8.797749	0.000210	2.095780	0.355035	-0.004191
1200	5.9950e-01	8.0078	8.781499	0.000163	1.625298	0.275333	-0.003250
1201	6.0000e-01	7.9974	8.760118	0.000214	2.138551	0.362280	-0.004276
1202	6.0050e-01	7.9895	8.746861	0.000133	1.325901	0.224614	-0.002651
1203	6.0100e-01	7.9749	8.712224	0.000346	3.464452	0.586894	-0.006928
1204	6.0150e-01	7.9642	8.704099	0.000081	0.812649	0.137667	-0.001625
1205	6.0200e-01	7.9553	8.683573	0.000205	2.053009	0.347789	-0.004105
1206	6.0250e-01	7.9443	8.657487	0.000261	2.609032	0.441982	-0.005217
1207	6.0300e-01	7.9327	8.648507	0.000090	0.898191	0.152158	-0.001796
1208	6.0350e-01	7.9266	8.611732	0.000368	3.678307	0.623122	-0.007355
1209	6.0400e-01	7.9156	8.592488	0.000192	1.924696	0.326052	-0.003849
1210	6.0450e-01	7.9077	8.569824	0.000227	2.266864	0.384017	-0.004533
1211	6.0500e-01	7.8979	8.540746	0.000291	2.908429	0.492701	-0.005816
1212	6.0550e-01	7.8882	8.551864	-0.000111	-1.112046	-0.188386	0.002224
1213	6.0600e-01	7.8760	8.501832	0.000500	5.004208	0.847736	-0.010006
1214	6.0650e-01	7.8656	8.496700	0.000051	0.513252	0.086947	-0.001026
1215	6.0700e-01	7.8555	8.469760	0.000269	2.694574	0.456473	-0.005388
1216	6.0750e-01	7.8479	8.472326	-0.000026	-0.256626	-0.043474	0.000513
1217	6.0800e-01	7.8339	8.437260	0.000351	3.507223	0.594140	-0.007013
1218	6.0850e-01	7.8223	8.429563	0.000077	0.769878	0.130421	-0.001539
1219	6.0900e-01	7.8169	8.395781	0.000338	3.378910	0.572403	-0.006756
1220	6.0950e-01	7.8076	8.384235	0.000115	1.154817	0.195631	-0.002309
1221	6.1000e-01	7.7936	8.342328	0.000419	4.191559	0.710069	-0.008381
1222	6.1050e-01	7.7853	8.340617	0.000017	0.171084	0.028982	-0.000342
1223	6.1100e-01	7.7771	8.313249	0.000274	2.737345	0.463719	-0.005474
1224	6.1150e-01	7.7692	8.288875	0.000244	2.437948	0.413000	-0.004875
1225	6.1200e-01	7.7560	8.263645	0.000252	2.523490	0.427491	-0.005046
1226	6.1250e-01	7.7466	8.249533	0.000141	1.411443	0.239105	-0.002822
1227	6.1300e-01	7.7332	8.235421	0.000141	1.411443	0.239105	-0.002822
1228	6.1350e-01	7.7234	8.218744	0.000167	1.668069	0.282579	-0.003335
1229	6.1400e-01	7.7155	8.178547	0.000402	4.020475	0.681087	-0.008039
1230	6.1450e-01	7.7069	8.134074	0.000445	4.448185	0.753543	-0.008895
1231	6.1500e-01	7.6959	8.152034	-0.000180	-1.796382	-0.304315	0.003592
1232	6.1550e-01	7.6857	8.099437	0.000526	5.260834	0.891209	-0.010520
1233	6.1600e-01	7.6752	8.085753	0.000137	1.368672	0.231859	-0.002737
1234	6.1650e-01	7.6666	8.057957	0.000278	2.780116	0.470964	-0.005559
1235	6.1700e-01	7.6550	8.048549	0.000094	0.940962	0.159403	-0.001882
1236	6.1750e-01	7.6459	8.016905	0.000317	3.165055	0.536175	-0.006329
1237	6.1800e-01	7.6379	8.026740	-0.000098	-0.983733	-0.166649	0.001967
1238	6.1850e-01	7.6260	7.983122	0.000436	4.362643	0.739052	-0.008724
1239	6.1900e-01	7.6154	7.962169	0.000210	2.095780	0.355035	-0.004191
1240	6.1950e-01	7.6062	7.953189	0.000090	0.898191	0.152158	-0.001796
1241	6.2000e-01	7.5955	7.938222	0.000150	1.496985	0.253596	-0.002993
1242	6.2050e-01	7.5861	7.910426	0.000278	2.780116	0.470964	-0.005559
1243	6.2100e-01	7.5745	7.886052	0.000244	2.437948	0.413000	-0.004875
1244	6.2150e-01	7.5665	7.868946	0.000171	1.710840	0.289824	-0.003421
1245	6.2200e-01	7.5543	7.872367	-0.000034	-0.342168	-0.057965	0.000684
1246	6.2250e-01	7.5449	7.811645	0.000607	6.073484	1.028876	-0.012145
1247	6.2300e-01	7.5336	7.791546	0.000201	2.010238	0.340543	-0.004020
1248	6.2350e-01	7.5253	7.775724	0.000158	1.582527	0.268087	-0.003164
1249	6.2400e-01	7.5159	7.751777	0.000240	2.395177	0.405754	-0.004789
1250	6.2450e-01	7.5058	7.734245	0.000175	1.753611	0.297070	-0.003507
1251	6.2500e-01	7.4976	7.721416	0.000128	1.283130	0.217368	-0.002566
1252	6.2550e-01	7.4890	7.685923	0.000355	3.549994	0.601385	-0.007099
1253	6.2600e-01	7.4768	7.665397	0.000205	2.053009	0.347789	-0.004105
1254	6.2650e-01	7.4658	7.656844	0.000086	0.855420	0.144912	-0.001711
1255	6.2700e-01	7.4542	7.635891	0.000210	2.095780	0.355035	-0.004191
1256	6.2750e-01	7.4463	7.601681	0.000342	3.421681	0.579648	-0.006842
1257	6.2800e-01	7.4368	7.585859	0.000158	1.582527	0.268087	-0.003164
1258	6.2850e-01	7.4268	7.558918	0.000269	2.694574	0.456473	-0.005388
1259	6.2900e-01	7.4152	7.538820	0.000201	2.010238	0.340543	-0.004020
1260	6.2950e-01	7.4084	7.523853	0.000150	1.496985	0.253596	-0.002993
1261	6.3000e-01	7.3962	7.493064	0.000308	3.079513	0.521684	-0.006158
1262	6.3050e-01	7.3846	7.475531	0.000175	1.753611	0.297070	-0.003507
1263	6.3100e-01	7.3779	7.456288	0.000192	1.924696	0.326052	-0.003849
1264	6.3150e-01	7.3676	7.441749	0.000145	1.454214	0.246351	-0.002908
1265	6.3200e-01	7.3596	7.425499	0.000163	1.625298	0.275333	-0.003250
1266	6.3250e-01	7.3480	7.401124	0.000244	2.437948	0.413000	-0.004875
1267	6.3300e-01	7.3401	7.375895	0.000252	2.523490	0.427491	-0.005046
1268	6.3350e-01	7.3291	7.359217	0.000167	1.668069	0.282579	-0.003335
1269	6.3400e-01	7.3163	7.321159	0.000381	3.806620	0.644859	-0.007612
1270	6.3450e-01	7.3053	7.309185	0.000120	1.197588	0.202877	-0.002395
1271	6.3500e-01	7.2964	7.291652	0.000175	1.753611	0.297070	-0.003507
1272	6.3550e-01	7.2852	7.260008	0.000317	3.165055	0.536175	-0.006329
1273	6.3600e-01	7.2745	7.237344	0.000227	2.266864	0.384017	-0.004533
1274	6.3650e-01	7.2647	7.224943	0.000124	1.240359	0.210123	-0.002480
1275	6.3700e-01	7.2549	7.197575	0.000274	2.737345	0.463719	-0.005474
1276	6.3750e-01	7.2437	7.192443	0.000051	0.513252	0.086947	-0.001026
1277	6.3800e-01	7.2363	7.157378	0.000351	3.507223	0.594140	-0.007013
1278	6.3850e-01	7.2253	7.128727	0.000287	2.865658	0.485456	-0.005730
1279	6.3900e-01	7.2169	7.119747	0.000090	0.898191	0.152158	-0.001796
1280	6.3950e-01	7.2058	7.080833	0.000389	3.892162	0.659350	-0.007783
1281	6.4000e-01	7.1968	7.074419	0.000064	0.641565	0.108684	-0.001283
1282	6.4050e-01	7.1857	7.056458	0.000180	1.796382	0.304315	-0.003592
1283	6.4100e-01	7.1759	7.037215	0.000192	1.924696	0.326052	-0.003849
1284	6.4150e-01	7.1646	6.994025	0.000432	4.319872	0.731806	-0.008638
1285	6.4200e-01	7.1570	6.982907	0.000111	1.112046	0.188386	-0.002224
1286	6.4250e-01	7.1478	6.963236	0.000197	1.967467	0.333298	-0.003934
1287	6.4300e-01	7.1381	6.956822	0.000064	0.641565	0.108684	-0.001283
1288	6.4350e-01	7.1271	6.916625	0.000402	4.020475	0.681087	-0.008039
1289	6.4400e-01	7.1155	6.906362	0.000103	1.026504	0.173895	-0.002053
1290	6.4450e-01	7.1075	6.881132	0.000252	2.523490	0.427491	-0.005046
1291	6.4500e-01	7.0972	6.844356	0.000368	3.678307	0.623122	-0.007355
1292	6.4550e-01	7.0862	6.828534	0.000158	1.582527	0.268087	-0.003164
1293	6.4600e-01	7.0770	6.802877	0.000257	2.566261	0.434736	-0.005132
1294	6.4650e-01	7.0679	6.770805	0.000321	3.207826	0.543420	-0.006414
1295	6.4700e-01	7.0538	6.770377	0.000004	0.042771	0.007246	-0.000086
1296	6.4750e-01	7.0465	6.754127	0.000163	1.625298	0.275333	-0.003250
1297	6.4800e-01	7.0367	6.724621	0.000295	2.951200	0.499947	-0.005901
1298	6.4850e-01	7.0282	6.710937	0.000137	1.368672	0.231859	-0.002737
1299	6.4900e-01	7.0174	6.684424	0.000265	2.651803	0.449228	-0.005303
1300	6.4950e-01	7.0078	6.646793	0.000376	3.763849	0.637613	-0.007526
1301	6.5000e-01	6.9974	6.615149	0.000317	3.165055	0.536175	-0.006329
1302	6.5050e-01	6.9846	6.614722	0.000004	0.042771	0.007246	-0.000086
1303	6.5100e-01	6.9766	6.590347	0.000244	2.437948	0.413000	-0.004875
1304	6.5150e-01	6.9656	6.552716	0.000376	3.763849	0.637613	-0.007526
1305	6.5200e-01	6.9580	6.553144	-0.000004	-0.042771	-0.007246	0.000086
1306	6.5250e-01	6.9476	6.545874	0.000073	0.727107	0.123175	-0.001454
1307	6.5300e-01	6.9342	6.504822	0.000411	4.106017	0.695578	-0.008210
1308	6.5350e-01	6.9281	6.499263	0.000056	0.556023	0.094193	-0.001112
1309	6.5400e-01	6.9177	6.461204	0.000381	3.806620	0.644859	-0.007612
1310	6.5450e-01	6.9049	6.449658	0.000115	1.154817	0.195631	-0.002309
1311	6.5500e-01	6.8976	6.420152	0.000295	2.951200	0.499947	-0.005901
1312	6.5550e-01	6.8874	6.401764	0.000184	1.839154	0.311561	-0.003678
1313	6.5600e-01	6.8759	6.376534	0.000252	2.523490	0.427491	-0.005046
1314	6.5650e-01	6.8665	6.339759	0.000368	3.678307	0.623122	-0.007355
1315	6.5700e-01	6.8542	6.333344	0.000064	0.641565	0.108684	-0.001283
1316	6.5750e-01	6.8451	6.304693	0.000287	2.865658	0.485456	-0.005730
1317	6.5800e-01	6.8365	6.266207	0.000385	3.849391	0.652104	-0.007697
1318	6.5850e-01	6.8274	6.261931	0.000043	0.427710	0.072456	-0.000855
1319	6.5900e-01	6.8192	6.241832	0.000201	2.010238	0.340543	-0.004020
1320	6.5950e-01	6.8066	6.193938	0.000479	4.790353	0.811508	-0.009579
1321	6.6000e-01	6.7957	6.174695	0.000192	1.924696	0.326052	-0.003849
1322	6.6050e-01	6.7859	6.172129	0.000026	0.256626	0.043474	-0.000513
1323	6.6100e-01	6.7749	6.150321	0.000218	2.181322	0.369526	-0.004362
1324	6.6150e-01	6.7657	6.125518	0.000248	2.480719	0.420245	-0.004960
1325	6.6200e-01	6.7560	6.113972	0.000115	1.154817	0.195631	-0.002309
1326	6.6250e-01	6.7444	6.087460	0.000265	2.651803	0.449228	-0.005303
1327	6.6300e-01	6.7371	6.068216	0.000192	1.924696	0.326052	-0.003849
1328	6.6350e-01	6.7261	6.034862	0.000334	3.336139	0.565157	-0.006671
1329	6.6400e-01	6.7169	6.002362	0.000325	3.250597	0.550666	-0.006500
1330	6.6450e-01	6.7084	5.995520	0.000068	0.684336	0.115930	-0.001368
1331	6.6500e-01	6.6956	5.964304	0.000312	3.122284	0.528929	-0.006243
1332	6.6550e-01	6.6852	5.947199	0.000171	1.710840	0.289824	-0.003421
1333	6.6600e-01	6.6748	5.933087	0.000141	1.411443	0.239105	-0.002822
1334	6.6650e-01	6.6684	5.907857	0.000252	2.523490	0.427491	-0.005046
1335	6.6700e-01	6.6562	5.881344	0.000265	2.651803	0.449228	-0.005303
1336	6.6750e-01	6.6467	5.868088	0.000133	1.325901	0.224614	-0.002651
1337	6.6800e-01	6.6364	5.839437	0.000287	2.865658	0.485456	-0.005730
1338	6.6850e-01	6.6272	5.800095	0.000393	3.934933	0.666596	-0.007868
1339	6.6900e-01	6.6150	5.782990	0.000171	1.710840	0.289824	-0.003421
1340	6.6950e-01	6.6071	5.769734	0.000133	1.325901	0.224614	-0.002651
1341	6.7000e-01	6.5962	5.747498	0.000222	2.224093	0.376771	-0.004447
1342	6.7050e-01	6.5878	5.730392	0.000171	1.710840	0.289824	-0.003421
1343	6.7100e-01	6.5750	5.705590	0.000248	2.480719	0.420245	-0.004960
1344	6.7150e-01	6.5656	5.684209	0.000214	2.138551	0.362280	-0.004276
1345	6.7200e-01	6.5564	5.673518	0.000107	1.069275	0.181140	-0.002138
1346	6.7250e-01	6.5472	5.659407	0.000141	1.411443	0.239105	-0.002822
1347	6.7300e-01	6.5382	5.620493	0.000389	3.892162	0.659350	-0.007783
1348	6.7350e-01	6.5259	5.579868	0.000406	4.063246	0.688333	-0.008125
1349	6.7400e-01	6.5175	5.554639	0.000252	2.523490	0.427491	-0.005046
1350	6.7450e-01	6.5045	5.549079	0.000056	0.556023	0.094193	-0.001112
1351	6.7500e-01	6.4941	5.511876	0.000372	3.721078	0.630368	-0.007441
1352	6.7550e-01	6.4844	5.505462	0.000064	0.641565	0.108684	-0.001283
1353	6.7600e-01	6.4746	5.478521	0.000269	2.694574	0.456473	-0.005388
1354	6.7650e-01	6.4667	5.465265	0.000133	1.325901	0.224614	-0.002651
1355	6.7700e-01	6.4557	5.447732	0.000175	1.753611	0.297070	-0.003507
1356	6.7750e-01	6.4453	5.410101	0.000376	3.763849	0.637613	-0.007526
1357	6.7800e-01	6.4352	5.386154	0.000240	2.395177	0.405754	-0.004789
1358	6.7850e-01	6.4258	5.364345	0.000218	2.181322	0.369526	-0.004362
1359	6.7900e-01	6.4142	5.350661	0.000137	1.368672	0.231859	-0.002737
1360	6.7950e-01	6.4056	5.317306	0.000334	3.336139	0.565157	-0.006671
1361	6.8000e-01	6.3983	5.289938	0.000274	2.737345	0.463719	-0.005474
1362	6.8050e-01	6.3861	5.286517	0.000034	0.342168	0.057965	-0.000684
1363	6.8100e-01	6.3757	5.268557	0.000180	1.796382	0.304315	-0.003592
1364	6.8150e-01	6.3675	5.229216	0.000393	3.934933	0.666596	-0.007868
1365	6.8200e-01	6.3580	5.210400	0.000188	1.881925	0.318807	-0.003763
1366	6.8250e-01	6.3470	5.200137	0.000103	1.026504	0.173895	-0.002053
1367	6.8300e-01	6.3354	5.159085	0.000411	4.106017	0.695578	-0.008210
1368	6.8350e-01	6.3257	5.144546	0.000145	1.454214	0.246351	-0.002908
1369	6.8400e-01	6.3153	5.121026	0.000235	2.352406	0.398508	-0.004704
1370	6.8450e-01	6.3080	5.099218	0.000218	2.181322	0.369526	-0.004362
1371	6.8500e-01	6.2958	5.079547	0.000197	1.967467	0.333298	-0.003934
1372	6.8550e-01	6.2842	5.054745	0.000248	2.480719	0.420245	-0.004960
1373	6.8600e-01	6.2750	5.029942	0.000248	2.480719	0.420245	-0.004960
1374	6.8650e-01	6.2653	5.026521	0.000034	0.342168	0.057965	-0.000684
1375	6.8700e-01	6.2573	4.983759	0.000428	4.277101	0.724561	-0.008553
1376	6.8750e-01	6.2469	4.954680	0.000291	2.908429	0.492701	-0.005816
1377	6.8800e-01	6.2354	4.945700	0.000090	0.898191	0.152158	-0.001796
1378	6.8850e-01	6.2262	4.915766	0.000299	2.993971	0.507192	-0.005987
1379	6.8900e-01	6.2149	4.899944	0.000158	1.582527	0.268087	-0.003164
1380	6.8950e-01	6.2056	4.860603	0.000393	3.934933	0.666596	-0.007868
1381	6.9000e-01	6.1969	4.850340	0.000103	1.026504	0.173895	-0.002053
1382	6.9050e-01	6.1853	4.840077	0.000103	1.026504	0.173895	-0.002053
1383	6.9100e-01	6.1749	4.802446	0.000376	3.763849	0.637613	-0.007526
1384	6.9150e-01	6.1673	4.772512	0.000299	2.993971	0.507192	-0.005987
1385	6.9200e-01	6.1562	4.746854	0.000257	2.566261	0.434736	-0.005132
1386	6.9250e-01	6.1475	4.741723	0.000051	0.513252	0.086947	-0.001026
1387	6.9300e-01	6.1377	4.710934	0.000308	3.079513	0.521684	-0.006158
1388	6.9350e-01	6.1255	4.699388	0.000115	1.154817	0.195631	-0.002309
1389	6.9400e-01	6.1163	4.681855	0.000175	1.753611	0.297070	-0.003507
1390	6.9450e-01	6.1060	4.653632	0.000282	2.822887	0.478210	-0.005645
1391	6.9500e-01	6.0956	4.625409	0.000282	2.822887	0.478210	-0.005645
1392	6.9550e-01	6.0872	4.583502	0.000419	4.191559	0.710069	-0.008381
1393	6.9600e-01	6.0773	4.581791	0.000017	0.171084	0.028982	-0.000342
1394	6.9650e-01	6.0675	4.565114	0.000167	1.668069	0.282579	-0.003335
1395	6.9700e-01	6.0583	4.534752	0.000304	3.036742	0.514438	-0.006072
1396	6.9750e-01	6.0431	4.522351	0.000124	1.240359	0.210123	-0.002480
1397	6.9800e-01	6.0358	4.496266	0.000261	2.609032	0.441982	-0.005217
1398	6.9850e-01	6.0254	4.458207	0.000381	3.806620	0.644859	-0.007612
1399	6.9900e-01	6.0181	4.449227	0.000090	0.898191	0.152158	-0.001796
1400	6.9950e-01	6.0071	4.421432	0.000278	2.780116	0.470964	-0.005559
1401	7.0000e-01	5.9967	4.399195	0.000222	2.224093	0.376771	-0.004447
1402	7.0050e-01	5.9883	4.380807	0.000184	1.839154	0.311561	-0.003678
1403	7.0100e-01	5.9747	4.356432	0.000244	2.437948	0.413000	-0.004875
1404	7.0150e-01	5.9662	4.344887	0.000115	1.154817	0.195631	-0.002309
1405	7.0200e-01	5.9566	4.314953	0.000299	2.993971	0.507192	-0.005987
1406	7.0250e-01	5.9454	4.285874	0.000291	2.908429	0.492701	-0.005816
1407	7.0300e-01	5.9381	4.253375	0.000325	3.250597	0.550666	-0.006500
1408	7.0350e-01	5.9253	4.241829	0.000115	1.154817	0.195631	-0.002309
1409	7.0400e-01	5.9172	4.196928	0.000449	4.490956	0.760789	-0.008980
1410	7.0450e-01	5.9042	4.205481	-0.000086	-0.855420	-0.144912	0.001711
1411	7.0500e-01	5.8966	4.167850	0.000376	3.763849	0.637613	-0.007526
1412	7.0550e-01	5.8875	4.146041	0.000218	2.181322	0.369526	-0.004362
1413	7.0600e-01	5.8740	4.104561	0.000415	4.148788	0.702824	-0.008296
1414	7.0650e-01	5.8655	4.093871	0.000107	1.069275	0.181140	-0.002138
1415	7.0700e-01	5.8569	4.087029	0.000068	0.684336	0.115930	-0.001368
1416	7.0750e-01	5.8453	4.056667	0.000304	3.036742	0.514438	-0.006072
1417	7.0800e-01	5.8368	4.018181	0.000385	3.849391	0.652104	-0.007697
1418	7.0850e-01	5.8264	4.007918	0.000103	1.026504	0.173895	-0.002053
1419	7.0900e-01	5.8154	3.971997	0.000359	3.592765	0.608631	-0.007184
1420	7.0950e-01	5.8075	3.955748	0.000163	1.625298	0.275333	-0.003250
1421	7.1000e-01	5.7965	3.932656	0.000231	2.309635	0.391263	-0.004618
1422	7.1050e-01	5.7861	3.919827	0.000128	1.283130	0.217368	-0.002566
1423	7.1100e-01	5.7758	3.895025	0.000248	2.480719	0.420245	-0.004960
1424	7.1150e-01	5.7642	3.868084	0.000269	2.694574	0.456473	-0.005388
1425	7.1200e-01	5.7562	3.827460	0.000406	4.063246	0.688333	-0.008125
1426	7.1250e-01	5.7458	3.819335	0.000081	0.812649	0.137667	-0.001625
1427	7.1300e-01	5.7373	3.790684	0.000287	2.865658	0.485456	-0.005730
1428	7.1350e-01	5.7263	3.762033	0.000287	2.865658	0.485456	-0.005730
1429	7.1400e-01	5.7135	3.748777	0.000133	1.325901	0.224614	-0.002651
1430	7.1450e-01	5.7080	3.717988	0.000308	3.079513	0.521684	-0.006158
1431	7.1500e-01	5.6989	3.700883	0.000171	1.710840	0.289824	-0.003421
1432	7.1550e-01	5.6857	3.682495	0.000184	1.839154	0.311561	-0.003678
1433	7.1600e-01	5.6763	3.651278	0.000312	3.122284	0.528929	-0.006243
1434	7.1650e-01	5.6656	3.626904	0.000244	2.437948	0.413000	-0.004875
1435	7.1700e-01	5.6555	3.602957	0.000240	2.395177	0.405754	-0.004789
1436	7.1750e-01	5.6483	3.590983	0.000120	1.197588	0.202877	-0.002395
1437	7.1800e-01	5.6363	3.564898	0.000261	2.609032	0.441982	-0.005217
1438	7.1850e-01	5.6290	3.540096	0.000248	2.480719	0.420245	-0.004960
1439	7.1900e-01	5.6210	3.509734	0.000304	3.036742	0.514438	-0.006072
1440	7.1950e-01	5.6079	3.481939	0.000278	2.780116	0.470964	-0.005559
1441	7.2000e-01	5.5946	3.474242	0.000077	0.769878	0.130421	-0.001539
1442	7.2050e-01	5.5847	3.440887	0.000334	3.336139	0.565157	-0.006671
1443	7.2100e-01	5.5792	3.421216	0.000197	1.967467	0.333298	-0.003934
1444	7.2150e-01	5.5658	3.393420	0.000278	2.780116	0.470964	-0.005559
1445	7.2200e-01	5.5560	3.369046	0.000244	2.437948	0.413000	-0.004875
1446	7.2250e-01	5.5466	3.362631	0.000064	0.641565	0.108684	-0.001283
1447	7.2300e-01	5.5341	3.317303	0.000453	4.533727	0.768034	-0.009066
1448	7.2350e-01	5.5280	3.312172	0.000051	0.513252	0.086947	-0.001026
1449	7.2400e-01	5.5122	3.282238	0.000299	2.993971	0.507192	-0.005987
1450	7.2450e-01	5.5048	3.253159	0.000291	2.908429	0.492701	-0.005816
1451	7.2500e-01	5.4938	3.223226	0.000299	2.993971	0.507192	-0.005987
1452	7.2550e-01	5.4865	3.211252	0.000120	1.197588	0.202877	-0.002395
1453	7.2600e-01	5.4779	3.182173	0.000291	2.908429	0.492701	-0.005816
1454	7.2650e-01	5.4657	3.161647	0.000205	2.053009	0.347789	-0.004105
1455	7.2700e-01	5.4553	3.137273	0.000244	2.437948	0.413000	-0.004875
1456	7.2750e-01	5.4454	3.108194	0.000291	2.908429	0.492701	-0.005816
1457	7.2800e-01	5.4376	3.097931	0.000103	1.026504	0.173895	-0.002053
1458	7.2850e-01	5.4255	3.067142	0.000308	3.079513	0.521684	-0.006158
1459	7.2900e-01	5.4163	3.034215	0.000329	3.293368	0.557912	-0.006585
1460	7.2950e-01	5.4068	3.022242	0.000120	1.197588	0.202877	-0.002395
1461	7.3000e-01	5.3973	3.001716	0.000205	2.053009	0.347789	-0.004105
1462	7.3050e-01	5.3851	2.961519	0.000402	4.020475	0.681087	-0.008039
1463	7.3100e-01	5.3732	2.948262	0.000133	1.325901	0.224614	-0.002651
1464	7.3150e-01	5.3677	2.936717	0.000115	1.154817	0.195631	-0.002309
1465	7.3200e-01	5.3571	2.909349	0.000274	2.737345	0.463719	-0.005474
1466	7.3250e-01	5.3452	2.894382	0.000150	1.496985	0.253596	-0.002993
1467	7.3300e-01	5.3351	2.863165	0.000312	3.122284	0.528929	-0.006243
1468	7.3350e-01	5.3253	2.830666	0.000325	3.250597	0.550666	-0.006500
1469	7.3400e-01	5.3162	2.814843	0.000158	1.582527	0.268087	-0.003164
1470	7.3450e-01	5.3046	2.796455	0.000184	1.839154	0.311561	-0.003678
1471	7.3500e-01	5.2942	2.750700	0.000458	4.576498	0.775280	-0.009151
1472	7.3550e-01	5.2832	2.737016	0.000137	1.368672	0.231859	-0.002737
1473	7.3600e-01	5.2753	2.710503	0.000265	2.651803	0.449228	-0.005303
1474	7.3650e-01	5.2646	2.692543	0.000180	1.796382	0.304315	-0.003592
1475	7.3700e-01	5.2545	2.663892	0.000287	2.865658	0.485456	-0.005730
1476	7.3750e-01	5.2441	2.645931	0.000180	1.796382	0.304315	-0.003592
1477	7.3800e-01	5.2351	2.619846	0.000261	2.609032	0.441982	-0.005217
1478	7.3850e-01	5.2274	2.582215	0.000376	3.763849	0.637613	-0.007526
1479	7.3900e-01	5.2148	2.562544	0.000197	1.967467	0.333298	-0.003934
1480	7.3950e-01	5.2039	2.534749	0.000278	2.780116	0.470964	-0.005559
1481	7.4000e-01	5.1973	2.535604	-0.000009	-0.085542	-0.014491	0.000171
1482	7.4050e-01	5.1868	2.491986	0.000436	4.362643	0.739052	-0.008724
1483	7.4100e-01	5.1773	2.470605	0.000214	2.138551	0.362280	-0.004276
1484	7.4150e-01	5.1654	2.450507	0.000201	2.010238	0.340543	-0.004020
1485	7.4200e-01	5.1566	2.400902	0.000496	4.961437	0.840490	-0.009921
1486	7.4250e-01	5.1456	2.407316	-0.000064	-0.641565	-0.108684	0.001283
1487	7.4300e-01	5.1357	2.387218	0.000201	2.010238	0.340543	-0.004020
1488	7.4350e-01	5.1263	2.338469	0.000488	4.875895	0.825999	-0.009750
1489	7.4400e-01	5.1123	2.342745	-0.000043	-0.427710	-0.072456	0.000855
1490	7.4450e-01	5.1062	2.297417	0.000453	4.533727	0.768034	-0.009066
1491	7.4500e-01	5.0925	2.285443	0.000120	1.197588	0.202877	-0.002395
1492	7.4550e-01	5.0862	2.246957	0.000385	3.849391	0.652104	-0.007697
1493	7.4600e-01	5.0715	2.238832	0.000081	0.812649	0.137667	-0.001625
1494	7.4650e-01	5.0677	2.220872	0.000180	1.796382	0.304315	-0.003592
1495	7.4700e-01	5.0569	2.169984	0.000509	5.089750	0.862227	-0.010177
1496	7.4750e-01	5.0443	2.180247	-0.000103	-1.026504	-0.173895	0.002053
1497	7.4800e-01	5.0342	2.145182	0.000351	3.507223	0.594140	-0.007013
1498	7.4850e-01	5.0250	2.119952	0.000252	2.523490	0.427491	-0.005046
1499	7.4900e-01	5.0164	2.099426	0.000205	2.053009	0.347789	-0.004105
1500	7.4950e-01	5.0056	2.062651	0.000368	3.678307	0.623122	-0.007355
1501	7.5000e-01	4.9945	2.038276	0.000244	2.437948	0.413000	-0.004875
1502	7.5050e-01	4.9866	2.012618	0.000257	2.566261	0.434736	-0.005132
1503	7.5100e-01	4.9776	1.995941	0.000167	1.668069	0.282579	-0.003335
1504	7.5150e-01	4.9686	1.957027	0.000389	3.892162	0.659350	-0.007783
1505	7.5200e-01	4.9555	1.945481	0.000115	1.154817	0.195631	-0.002309
1506	7.5250e-01	4.9478	1.928804	0.000167	1.668069	0.282579	-0.003335
1507	7.5300e-01	4.9384	1.894166	0.000346	3.464452	0.586894	-0.006928
1508	7.5350e-01	4.9258	1.876634	0.000175	1.753611	0.297070	-0.003507
1509	7.5400e-01	4.9146	1.837292	0.000393	3.934933	0.666596	-0.007868
1510	7.5450e-01	4.9061	1.826601	0.000107	1.069275	0.181140	-0.002138
1511	7.5500e-01	4.8959	1.796668	0.000299	2.993971	0.507192	-0.005987
1512	7.5550e-01	4.8856	1.768872	0.000278	2.780116	0.470964	-0.005559
1513	7.5600e-01	4.8755	1.746208	0.000227	2.266864	0.384017	-0.004533
1514	7.5650e-01	4.8657	1.711570	0.000346	3.464452	0.586894	-0.006928
1515	7.5700e-01	4.8557	1.711998	-0.000004	-0.042771	-0.007246	0.000086
1516	7.5750e-01	4.8453	1.671373	0.000406	4.063246	0.688333	-0.008125
1517	7.5800e-01	4.8340	1.643578	0.000278	2.780116	0.470964	-0.005559
1518	7.5850e-01	4.8248	1.621341	0.000222	2.224093	0.376771	-0.004447
1519	7.5900e-01	4.8169	1.604236	0.000171	1.710840	0.289824	-0.003421
1520	7.5950e-01	4.8062	1.559763	0.000445	4.448185	0.753543	-0.008895
1521	7.6000e-01	4.7963	1.554204	0.000056	0.556023	0.094193	-0.001112
1522	7.6050e-01	4.7873	1.518284	0.000359	3.592765	0.608631	-0.007184
1523	7.6100e-01	4.7769	1.518284	-0.000000	-0.000000	-0.000000	0.000000
1524	7.6150e-01	4.7668	1.477659	0.000406	4.063246	0.688333	-0.008125
1525	7.6200e-01	4.7543	1.440456	0.000372	3.721078	0.630368	-0.007441
1526	7.6250e-01	4.7443	1.438745	0.000017	0.171084	0.028982	-0.000342
1527	7.6300e-01	4.7363	1.409667	0.000291	2.908429	0.492701	-0.005816
1528	7.6350e-01	4.7253	1.383582	0.000261	2.609032	0.441982	-0.005217
1529	7.6400e-01	4.7189	1.363483	0.000201	2.010238	0.340543	-0.004020
1530	7.6450e-01	4.7086	1.325425	0.000381	3.806620	0.644859	-0.007612
1531	7.6500e-01	4.6942	1.319438	0.000060	0.598794	0.101438	-0.001197
1532	7.6550e-01	4.6848	1.283517	0.000359	3.592765	0.608631	-0.007184
1533	7.6600e-01	4.6759	1.259998	0.000235	2.352406	0.398508	-0.004704
1534	7.6650e-01	4.6671	1.218946	0.000411	4.106017	0.695578	-0.008210
1535	7.6700e-01	4.6570	1.207828	0.000111	1.112046	0.188386	-0.002224
1536	7.6750e-01	4.6442	1.188157	0.000197	1.967467	0.333298	-0.003934
1537	7.6800e-01	4.6359	1.144967	0.000432	4.319872	0.731806	-0.008638
1538	7.6850e-01	4.6244	1.139835	0.000051	0.513252	0.086947	-0.001026
1539	7.6900e-01	4.6186	1.115888	0.000240	2.395177	0.405754	-0.004789
1540	7.6950e-01	4.6071	1.079540	0.000364	3.635536	0.615876	-0.007270
1541	7.7000e-01	4.5959	1.057731	0.000218	2.181322	0.369526	-0.004362
1542	7.7050e-01	4.5862	1.053455	0.000043	0.427710	0.072456	-0.000855
1543	7.7100e-01	4.5790	1.005561	0.000479	4.790353	0.811508	-0.009579
1544	7.7150e-01	4.5642	1.002567	0.000030	0.299397	0.050719	-0.000599
1545	7.7200e-01	4.5554	0.977338	0.000252	2.523490	0.427491	-0.005046
1546	7.7250e-01	4.5470	0.936713	0.000406	4.063246	0.688333	-0.008125
1547	7.7300e-01	4.5361	0.922174	0.000145	1.454214	0.246351	-0.002908
1548	7.7350e-01	4.5242	0.914904	0.000073	0.727107	0.123175	-0.001454
1549	7.7400e-01	4.5154	0.884543	0.000304	3.036742	0.514438	-0.006072
1550	7.7450e-01	4.5041	0.838359	0.000462	4.619269	0.782525	-0.009237
1551	7.7500e-01	4.4958	0.825103	0.000133	1.325901	0.224614	-0.002651
1552	7.7550e-01	4.4833	0.792603	0.000325	3.250597	0.550666	-0.006500
1553	7.7600e-01	4.4757	0.772077	0.000205	2.053009	0.347789	-0.004105
1554	7.7650e-01	4.4693	0.730598	0.000415	4.148788	0.702824	-0.008296
1555	7.7700e-01	4.4551	0.714776	0.000158	1.582527	0.268087	-0.003164
1556	7.7750e-01	4.4464	0.685697	0.000291	2.908429	0.492701	-0.005816
1557	7.7800e-01	4.4354	0.670730	0.000150	1.496985	0.253596	-0.002993
1558	7.7850e-01	4.4250	0.646783	0.000240	2.395177	0.405754	-0.004789
1559	7.7900e-01	4.4144	0.610863	0.000359	3.592765	0.608631	-0.007184
1560	7.7950e-01	4.4064	0.593330	0.000175	1.753611	0.297070	-0.003507
1561	7.8000e-01	4.3958	0.554844	0.000385	3.849391	0.652104	-0.007697
1562	7.8050e-01	4.3872	0.544153	0.000107	1.069275	0.181140	-0.002138
1563	7.8100e-01	4.3774	0.514647	0.000295	2.951200	0.499947	-0.005901
1564	7.8150e-01	4.3649	0.488134	0.000265	2.651803	0.449228	-0.005303
1565	7.8200e-01	4.3585	0.468891	0.000192	1.924696	0.326052	-0.003849
1566	7.8250e-01	4.3457	0.426556	0.000423	4.234330	0.717315	-0.008467
1567	7.8300e-01	4.3372	0.411589	0.000150	1.496985	0.253596	-0.002993
1568	7.8350e-01	4.3286	0.406030	0.000056	0.556023	0.094193	-0.001112
1569	7.8400e-01	4.3164	0.358991	0.000470	4.704811	0.797017	-0.009408
1570	7.8450e-01	4.3079	0.344025	0.000150	1.496985	0.253596	-0.002993
1571	7.8500e-01	4.2963	0.329485	0.000145	1.454214	0.246351	-0.002908
1572	7.8550e-01	4.2865	0.293992	0.000355	3.549994	0.601385	-0.007099
1573	7.8600e-01	4.2737	0.257644	0.000364	3.635536	0.615876	-0.007270
1574	7.8650e-01	4.2670	0.250802	0.000068	0.684336	0.115930	-0.001368
1575	7.8700e-01	4.2566	0.214454	0.000364	3.635536	0.615876	-0.007270
1576	7.8750e-01	4.2444	0.196494	0.000180	1.796382	0.304315	-0.003592
1577	7.8800e-01	4.2371	0.176823	0.000197	1.967467	0.333298	-0.003934
1578	7.8850e-01	4.2288	0.135771	0.000411	4.106017	0.695578	-0.008210
1579	7.8900e-01	4.2140	0.122942	0.000128	1.283130	0.217368	-0.002566
1580	7.8950e-01	4.2041	0.085311	0.000376	3.763849	0.637613	-0.007526
1581	7.9000e-01	4.1962	0.059226	0.000261	2.609032	0.441982	-0.005217
1582	7.9050e-01	4.1833	0.042549	0.000167	1.668069	0.282579	-0.003335
1583	7.9100e-01	4.1748	0.019885	0.000227	2.266864	0.384017	-0.004533
1584	7.9150e-01	4.1638	-0.008339	0.000282	2.822887	0.478210	-0.005645
1585	7.9200e-01	4.1556	-0.035279	0.000269	2.694574	0.456473	-0.005388
1586	7.9250e-01	4.1461	-0.069061	0.000338	3.378910	0.572403	-0.006756
1587	7.9300e-01	4.1351	-0.084456	0.000154	1.539756	0.260842	-0.003079
1588	7.9350e-01	4.1284	-0.106265	0.000218	2.181322	0.369526	-0.004362
1589	7.9400e-01	4.1171	-0.132350	0.000261	2.609032	0.441982	-0.005217
1590	7.9450e-01	4.1046	-0.158008	0.000257	2.566261	0.434736	-0.005132
1591	7.9500e-01	4.0948	-0.184520	0.000265	2.651803	0.449228	-0.005303
1592	7.9550e-01	4.0857	-0.210178	0.000257	2.566261	0.434736	-0.005132
1593	7.9600e-01	4.0759	-0.236263	0.000261	2.609032	0.441982	-0.005217
1594	7.9650e-01	4.0665	-0.270473	0.000342	3.421681	0.579648	-0.006842
1595	7.9700e-01	4.0581	-0.288006	0.000175	1.753611	0.297070	-0.003507
1596	7.9750e-01	4.0466	-0.311953	0.000240	2.395177	0.405754	-0.004789
1597	7.9800e-01	4.0366	-0.332051	0.000201	2.010238	0.340543	-0.004020
1598	7.9850e-01	4.0262	-0.350439	0.000184	1.839154	0.311561	-0.003678
1599	7.9900e-01	4.0158	-0.376096	0.000257	2.566261	0.434736	-0.005132
1600	7.9950e-01	4.0076	-0.388925	0.000128	1.283130	0.217368	-0.002566
1601	8.0000e-01	3.9944	-0.432971	0.000441	4.405414	0.746297	-0.008809
1602	8.0050e-01	3.9856	-0.465470	0.000325	3.250597	0.550666	-0.006500
1603	8.0100e-01	3.9772	-0.469746	0.000043	0.427710	0.072456	-0.000855
1604	8.0150e-01	3.9670	-0.515075	0.000453	4.533727	0.768034	-0.009066
1605	8.0200e-01	3.9566	-0.532180	0.000171	1.710840	0.289824	-0.003421
1606	8.0250e-01	3.9467	-0.561686	0.000295	2.951200	0.499947	-0.005901
1607	8.0300e-01	3.9365	-0.589909	0.000282	2.822887	0.478210	-0.005645
1608	8.0350e-01	3.9265	-0.608725	0.000188	1.881925	0.318807	-0.003763
1609	8.0400e-01	3.9168	-0.640369	0.000317	3.165055	0.536175	-0.006329
1610	8.0450e-01	3.9075	-0.684414	0.000441	4.405414	0.746297	-0.008809
1611	8.0500e-01	3.8953	-0.689973	0.000056	0.556023	0.094193	-0.001112
1612	8.0550e-01	3.8863	-0.712210	0.000222	2.224093	0.376771	-0.004447
1613	8.0600e-01	3.8773	-0.737012	0.000248	2.480719	0.420245	-0.004960
1614	8.0650e-01	3.8660	-0.758393	0.000214	2.138551	0.362280	-0.004276
1615	8.0700e-01	3.8554	-0.800728	0.000423	4.234330	0.717315	-0.008467
1616	8.0750e-01	3.8445	-0.803294	0.000026	0.256626	0.043474	-0.000513
1617	8.0800e-01	3.8368	-0.845629	0.000423	4.234330	0.717315	-0.008467
1618	8.0850e-01	3.8239	-0.866583	0.000210	2.095780	0.355035	-0.004191
1619	8.0900e-01	3.8136	-0.894378	0.000278	2.780116	0.470964	-0.005559
1620	8.0950e-01	3.8055	-0.900365	0.000060	0.598794	0.101438	-0.001197
1621	8.1000e-01	3.7956	-0.944838	0.000445	4.448185	0.753543	-0.008895
1622	8.1050e-01	3.7872	-0.968357	0.000235	2.352406	0.398508	-0.004704
1623	8.1100e-01	3.7708	-0.985462	0.000171	1.710840	0.289824	-0.003421
1624	8.1150e-01	3.7656	-1.011548	0.000261	2.609032	0.441982	-0.005217
1625	8.1200e-01	3.7546	-1.035067	0.000235	2.352406	0.398508	-0.004704
1626	8.1250e-01	3.7469	-1.058586	0.000235	2.352406	0.398508	-0.004704
1627	8.1300e-01	3.7347	-1.092369	0.000338	3.378910	0.572403	-0.006756
1628	8.1350e-01	3.7256	-1.131710	0.000393	3.934933	0.666596	-0.007868
1629	8.1400e-01	3.7170	-1.140690	0.000090	0.898191	0.152158	-0.001796
1630	8.1450e-01	3.7073	-1.155657	0.000150	1.496985	0.253596	-0.002993
1631	8.1500e-01	3.6966	-1.207400	0.000518	5.175292	0.876718	-0.010349
1632	8.1550e-01	3.6853	-1.228781	0.000214	2.138551	0.362280	-0.004276
1633	8.1600e-01	3.6768	-1.263846	0.000351	3.507223	0.594140	-0.007013
1634	8.1650e-01	3.6646	-1.273682	0.000098	0.983733	0.166649	-0.001967
1635	8.1700e-01	3.6563	-1.296346	0.000227	2.266864	0.384017	-0.004533
1636	8.1750e-01	3.6469	-1.334405	0.000381	3.806620	0.644859	-0.007612
1637	8.1800e-01	3.6354	-1.360062	0.000257	2.566261	0.434736	-0.005132
1638	8.1850e-01	3.6249	-1.369898	0.000098	0.983733	0.166649	-0.001967
1639	8.1900e-01	3.6148	-1.413515	0.000436	4.362643	0.739052	-0.008724
1640	8.1950e-01	3.6050	-1.434469	0.000210	2.095780	0.355035	-0.004191
1641	8.2000e-01	3.5962	-1.457561	0.000231	2.309635	0.391263	-0.004618
1642	8.2050e-01	3.5847	-1.484929	0.000274	2.737345	0.463719	-0.005474
1643	8.2100e-01	3.5764	-1.512297	0.000274	2.737345	0.463719	-0.005474
1644	8.2150e-01	3.5638	-1.546934	0.000346	3.464452	0.586894	-0.006928
1645	8.2200e-01	3.5529	-1.552921	0.000060	0.598794	0.101438	-0.001197
1646	8.2250e-01	3.5475	-1.578151	0.000252	2.523490	0.427491	-0.005046
1647	8.2300e-01	3.5361	-1.611933	0.000338	3.378910	0.572403	-0.006756
1648	8.2350e-01	3.5251	-1.648709	0.000368	3.678307	0.623122	-0.007355
1649	8.2400e-01	3.5150	-1.661966	0.000133	1.325901	0.224614	-0.002651
1650	8.2450e-01	3.5075	-1.681209	0.000192	1.924696	0.326052	-0.003849
1651	8.2500e-01	3.4973	-1.720550	0.000393	3.934933	0.666596	-0.007868
1652	8.2550e-01	3.4833	-1.748774	0.000282	2.822887	0.478210	-0.005645
1653	8.2600e-01	3.4772	-1.753905	0.000051	0.513252	0.086947	-0.001026
1654	8.2650e-01	3.4656	-1.785122	0.000312	3.122284	0.528929	-0.006243
1655	8.2700e-01	3.4560	-1.821042	0.000359	3.592765	0.608631	-0.007184
1656	8.2750e-01	3.4447	-1.855680	0.000346	3.464452	0.586894	-0.006928
1657	8.2800e-01	3.4375	-1.880055	0.000244	2.437948	0.413000	-0.004875
1658	8.2850e-01	3.4276	-1.915120	0.000351	3.507223	0.594140	-0.007013
1659	8.2900e-01	3.4161	-1.917258	0.000021	0.213855	0.036228	-0.000428
1660	8.2950e-01	3.4045	-1.942060	0.000248	2.480719	0.420245	-0.004960
1661	8.3000e-01	3.3968	-1.976698	0.000346	3.464452	0.586894	-0.006928
1662	8.3050e-01	3.3852	-2.008770	0.000321	3.207826	0.543420	-0.006414
1663	8.3100e-01	3.3746	-2.012618	0.000038	0.384939	0.065210	-0.000770
1664	8.3150e-01	3.3691	-2.067782	0.000552	5.517461	0.934683	-0.011033
1665	8.3200e-01	3.3566	-2.083177	0.000154	1.539756	0.260842	-0.003079
1666	8.3250e-01	3.3472	-2.101137	0.000180	1.796382	0.304315	-0.003592
1667	8.3300e-01	3.3357	-2.121235	0.000201	2.010238	0.340543	-0.004020
1668	8.3350e-01	3.3240	-2.152024	0.000308	3.079513	0.521684	-0.006158
1669	8.3400e-01	3.3179	-2.179392	0.000274	2.737345	0.463719	-0.005474
1670	8.3450e-01	3.3072	-2.215740	0.000364	3.635536	0.615876	-0.007270
1671	8.3500e-01	3.2959	-2.235411	0.000197	1.967467	0.333298	-0.003934
1672	8.3550e-01	3.2862	-2.267055	0.000317	3.165055	0.536175	-0.006329
1673	8.3600e-01	3.2782	-2.294423	0.000274	2.737345	0.463719	-0.005474
1674	8.3650e-01	3.2660	-2.293568	-0.000009	-0.085542	-0.014491	0.000171
1675	8.3700e-01	3.2570	-2.350015	0.000565	5.645774	0.956420	-0.011289
1676	8.3750e-01	3.2458	-2.376955	0.000269	2.694574	0.456473	-0.005388
1677	8.3800e-01	3.2356	-2.388073	0.000111	1.112046	0.188386	-0.002224
1678	8.3850e-01	3.2239	-2.428698	0.000406	4.063246	0.688333	-0.008125
1679	8.3900e-01	3.2160	-2.452645	0.000240	2.395177	0.405754	-0.004789
1680	8.3950e-01	3.2047	-2.467184	0.000145	1.454214	0.246351	-0.002908
1681	8.4000e-01	3.1998	-2.501394	0.000342	3.421681	0.579648	-0.006842
1682	8.4050e-01	3.1849	-2.531328	0.000299	2.993971	0.507192	-0.005987
1683	8.4100e-01	3.1754	-2.561689	0.000304	3.036742	0.514438	-0.006072
1684	8.4150e-01	3.1665	-2.569386	0.000077	0.769878	0.130421	-0.001539
1685	8.4200e-01	3.1558	-2.590768	0.000214	2.138551	0.362280	-0.004276
1686	8.4250e-01	3.1439	-2.605307	0.000145	1.454214	0.246351	-0.002908
1687	8.4300e-01	3.1351	-2.658760	0.000535	5.346376	0.905701	-0.010691
1688	8.4350e-01	3.1255	-2.687411	0.000287	2.865658	0.485456	-0.005730
1689	8.4400e-01	3.1165	-2.714779	0.000274	2.737345	0.463719	-0.005474
1690	8.4450e-01	3.1079	-2.740009	0.000252	2.523490	0.427491	-0.005046
1691	8.4500e-01	3.0942	-2.764811	0.000248	2.480719	0.420245	-0.004960
1692	8.4550e-01	3.0869	-2.797311	0.000325	3.250597	0.550666	-0.006500
1693	8.4600e-01	3.0746	-2.793034	-0.000043	-0.427710	-0.072456	0.000855
1694	8.4650e-01	3.0652	-2.840501	0.000475	4.747582	0.804262	-0.009493
1695	8.4700e-01	3.0581	-2.862737	0.000222	2.224093	0.376771	-0.004447
1696	8.4750e-01	3.0474	-2.899941	0.000372	3.721078	0.630368	-0.007441
1697	8.4800e-01	3.0387	-2.922177	0.000222	2.224093	0.376771	-0.004447
1698	8.4850e-01	3.0261	-2.949545	0.000274	2.737345	0.463719	-0.005474
1699	8.4900e-01	3.0179	-2.970927	0.000214	2.138551	0.362280	-0.004276
1700	8.4950e-01	3.0054	-2.979479	0.000086	0.855420	0.144912	-0.001711
1701	8.5000e-01	2.9956	-3.028228	0.000488	4.875895	0.825999	-0.009750
1702	8.5050e-01	2.9854	-3.050037	0.000218	2.181322	0.369526	-0.004362
1703	8.5100e-01	2.9763	-3.072274	0.000222	2.224093	0.376771	-0.004447
1704	8.5150e-01	2.9645	-3.109905	0.000376	3.763849	0.637613	-0.007526
1705	8.5200e-01	2.9579	-3.138983	0.000291	2.908429	0.492701	-0.005816
1706	8.5250e-01	2.9446	-3.153095	0.000141	1.411443	0.239105	-0.002822
1707	8.5300e-01	2.9330	-3.171483	0.000184	1.839154	0.311561	-0.003678
1708	8.5350e-01	2.9254	-3.195430	0.000240	2.395177	0.405754	-0.004789
1709	8.5400e-01	2.9132	-3.248883	0.000535	5.346376	0.905701	-0.010691
1710	8.5450e-01	2.9032	-3.267699	0.000188	1.881925	0.318807	-0.003763
1711	8.5500e-01	2.8955	-3.297632	0.000299	2.993971	0.507192	-0.005987
1712	8.5550e-01	2.8841	-3.327566	0.000299	2.993971	0.507192	-0.005987
1713	8.5600e-01	2.8738	-3.339112	0.000115	1.154817	0.195631	-0.002309
1714	8.5650e-01	2.8662	-3.365625	0.000265	2.651803	0.449228	-0.005303
1715	8.5700e-01	2.8564	-3.404111	0.000385	3.849391	0.652104	-0.007697
1716	8.5750e-01	2.8455	-3.434045	0.000299	2.993971	0.507192	-0.005987
1717	8.5800e-01	2.8378	-3.463551	0.000295	2.951200	0.499947	-0.005901
1718	8.5850e-01	2.8247	-3.476807	0.000133	1.325901	0.224614	-0.002651
1719	8.5900e-01	2.8169	-3.504603	0.000278	2.780116	0.470964	-0.005559
1720	8.5950e-01	2.8027	-3.514011	0.000094	0.940962	0.159403	-0.001882
1721	8.6000e-01	2.7952	-3.567891	0.000539	5.389147	0.912946	-0.010776
1722	8.6050e-01	2.7869	-3.598680	0.000308	3.079513	0.521684	-0.006158
1723	8.6100e-01	2.7734	-3.609371	0.000107	1.069275	0.181140	-0.002138
1724	8.6150e-01	2.7667	-3.641871	0.000325	3.250597	0.550666	-0.006500
1725	8.6200e-01	2.7586	-3.665818	0.000240	2.395177	0.405754	-0.004789
1726	8.6250e-01	2.7445	-3.706014	0.000402	4.020475	0.681087	-0.008039
1727	8.6300e-01	2.7353	-3.717988	0.000120	1.197588	0.202877	-0.002395
1728	8.6350e-01	2.7271	-3.742363	0.000244	2.437948	0.413000	-0.004875
1729	8.6400e-01	2.7155	-3.784697	0.000423	4.234330	0.717315	-0.008467
1730	8.6450e-01	2.7045	-3.798382	0.000137	1.368672	0.231859	-0.002737
1731	8.6500e-01	2.6984	-3.829598	0.000312	3.122284	0.528929	-0.006243
1732	8.6550e-01	2.6839	-3.856539	0.000269	2.694574	0.456473	-0.005388
1733	8.6600e-01	2.6773	-3.880486	0.000240	2.395177	0.405754	-0.004789
1734	8.6650e-01	2.6663	-3.915123	0.000346	3.464452	0.586894	-0.006928
1735	8.6700e-01	2.6541	-3.931373	0.000163	1.625298	0.275333	-0.003250
1736	8.6750e-01	2.6440	-3.959169	0.000278	2.780116	0.470964	-0.005559
1737	8.6800e-01	2.6355	-3.997655	0.000385	3.849391	0.652104	-0.007697
1738	8.6850e-01	2.6251	-4.022030	0.000244	2.437948	0.413000	-0.004875
1739	8.6900e-01	2.6162	-4.059661	0.000376	3.763849	0.637613	-0.007526
1740	8.6950e-01	2.6053	-4.082752	0.000231	2.309635	0.391263	-0.004618
1741	8.7000e-01	2.5962	-4.113541	0.000308	3.079513	0.521684	-0.006158
1742	8.7050e-01	2.5861	-4.127225	0.000137	1.368672	0.231859	-0.002737
1743	8.7100e-01	2.5740	-4.153738	0.000265	2.651803	0.449228	-0.005303
1744	8.7150e-01	2.5641	-4.171271	0.000175	1.753611	0.297070	-0.003507
1745	8.7200e-01	2.5565	-4.205053	0.000338	3.378910	0.572403	-0.006756
1746	8.7250e-01	2.5449	-4.226007	0.000210	2.095780	0.355035	-0.004191
1747	8.7300e-01	2.5345	-4.249954	0.000240	2.395177	0.405754	-0.004789
1748	8.7350e-01	2.5259	-4.282881	0.000329	3.293368	0.557912	-0.006585
1749	8.7400e-01	2.5140	-4.297848	0.000150	1.496985	0.253596	-0.002993
1750	8.7450e-01	2.5043	-4.335906	0.000381	3.806620	0.644859	-0.007612
1751	8.7500e-01	2.4942	-4.353011	0.000171	1.710840	0.289824	-0.003421
1752	8.7550e-01	2.4857	-4.387222	0.000342	3.421681	0.579648	-0.006842
1753	8.7600e-01	2.4762	-4.399623	0.000124	1.240359	0.210123	-0.002480
1754	8.7650e-01	2.4644	-4.449655	0.000500	5.004208	0.847736	-0.010006
1755	8.7700e-01	2.4570	-4.469753	0.000201	2.010238	0.340543	-0.004020
1756	8.7750e-01	2.4445	-4.505246	0.000355	3.549994	0.601385	-0.007099
1757	8.7800e-01	2.4356	-4.520213	0.000150	1.496985	0.253596	-0.002993
1758	8.7850e-01	2.4243	-4.541594	0.000214	2.138551	0.362280	-0.004276
1759	8.7900e-01	2.4146	-4.581363	0.000398	3.977704	0.673841	-0.007954
1760	8.7950e-01	2.4047	-4.607021	0.000257	2.566261	0.434736	-0.005132
1761	8.8000e-01	2.3948	-4.632678	0.000257	2.566261	0.434736	-0.005132
1762	8.8050e-01	2.3847	-4.648501	0.000158	1.582527	0.268087	-0.003164
1763	8.8100e-01	2.3798	-4.698105	0.000496	4.961437	0.840490	-0.009921
1764	8.8150e-01	2.3648	-4.704519	0.000064	0.641565	0.108684	-0.001283
1765	8.8200e-01	2.3563	-4.739157	0.000346	3.464452	0.586894	-0.006928
1766	8.8250e-01	2.3468	-4.783630	0.000445	4.448185	0.753543	-0.008895
1767	8.8300e-01	2.3327	-4.817840	0.000342	3.421681	0.579648	-0.006842
1768	8.8350e-01	2.3267	-4.828103	0.000103	1.026504	0.173895	-0.002053
1769	8.8400e-01	2.3141	-4.865734	0.000376	3.763849	0.637613	-0.007526
1770	8.8450e-01	2.3047	-4.886688	0.000210	2.095780	0.355035	-0.004191
1771	8.8500e-01	2.2949	-4.921325	0.000346	3.464452	0.586894	-0.006928
1772	8.8550e-01	2.2869	-4.956391	0.000351	3.507223	0.594140	-0.007013
1773	8.8600e-01	2.2751	-4.953825	-0.000026	-0.256626	-0.043474	0.000513
1774	8.8650e-01	2.2672	-4.990601	0.000368	3.678307	0.623122	-0.007355
1775	8.8700e-01	2.2555	-5.031653	0.000411	4.106017	0.695578	-0.008210
1776	8.8750e-01	2.2443	-5.046620	0.000150	1.496985	0.253596	-0.002993
1777	8.8800e-01	2.2350	-5.067573	0.000210	2.095780	0.355035	-0.004191
1778	8.8850e-01	2.2253	-5.115467	0.000479	4.790353	0.811508	-0.009579
1779	8.8900e-01	2.2134	-5.140270	0.000248	2.480719	0.420245	-0.004960
1780	8.8950e-01	2.2049	-5.166355	0.000261	2.609032	0.441982	-0.005217
1781	8.9000e-01	2.1933	-5.174907	0.000086	0.855420	0.144912	-0.001711
1782	8.9050e-01	2.1878	-5.211255	0.000364	3.635536	0.615876	-0.007270
1783	8.9100e-01	2.1774	-5.236058	0.000248	2.480719	0.420245	-0.004960
1784	8.9150e-01	2.1649	-5.265136	0.000291	2.908429	0.492701	-0.005816
1785	8.9200e-01	2.1570	-5.306616	0.000415	4.148788	0.702824	-0.008296
1786	8.9250e-01	2.1457	-5.321583	0.000150	1.496985	0.253596	-0.002993
1787	8.9300e-01	2.1375	-5.353655	0.000321	3.207826	0.543420	-0.006414
1788	8.9350e-01	2.1271	-5.400693	0.000470	4.704811	0.797017	-0.009408
1789	8.9400e-01	2.1156	-5.397272	-0.000034	-0.342168	-0.057965	0.000684
1790	8.9450e-01	2.1071	-5.449015	0.000518	5.175292	0.876718	-0.010349
1791	8.9500e-01	2.0944	-5.454147	0.000051	0.513252	0.086947	-0.001026
1792	8.9550e-01	2.0853	-5.484936	0.000308	3.079513	0.521684	-0.006158
1793	8.9600e-01	2.0770	-5.519146	0.000342	3.421681	0.579648	-0.006842
1794	8.9650e-01	2.0651	-5.550790	0.000317	3.165055	0.536175	-0.006329
1795	8.9700e-01	2.0551	-5.576447	0.000257	2.566261	0.434736	-0.005132
1796	8.9750e-01	2.0459	-5.585855	0.000094	0.940962	0.159403	-0.001882
1797	8.9800e-01	2.0343	-5.623914	0.000381	3.806620	0.644859	-0.007612
1798	8.9850e-01	2.0264	-5.653848	0.000299	2.993971	0.507192	-0.005987
1799	8.9900e-01	2.0154	-5.680788	0.000269	2.694574	0.456473	-0.005388
1800	8.9950e-01	2.0070	-5.711149	0.000304	3.036742	0.514438	-0.006072
1801	9.0000e-01	1.9965	-5.730820	0.000197	1.967467	0.333298	-0.003934
1802	9.0050e-01	1.9858	-5.768879	0.000381	3.806620	0.644859	-0.007612
1803	9.0100e-01	1.9761	-5.809503	0.000406	4.063246	0.688333	-0.008125
1804	9.0150e-01	1.9662	-5.821904	0.000124	1.240359	0.210123	-0.002480
1805	9.0200e-01	1.9548	-5.855687	0.000338	3.378910	0.572403	-0.006756
1806	9.0250e-01	1.9450	-5.891180	0.000355	3.549994	0.601385	-0.007099
1807	9.0300e-01	1.9350	-5.902298	0.000111	1.112046	0.188386	-0.002224
1808	9.0350e-01	1.9263	-5.946771	0.000445	4.448185	0.753543	-0.008895
1809	9.0400e-01	1.9147	-5.961738	0.000150	1.496985	0.253596	-0.002993
1810	9.0450e-01	1.9039	-5.989961	0.000282	2.822887	0.478210	-0.005645
1811	9.0500e-01	1.8915	-6.010487	0.000205	2.053009	0.347789	-0.004105
1812	9.0550e-01	1.8835	-6.041276	0.000308	3.079513	0.521684	-0.006158
1813	9.0600e-01	1.8741	-6.058809	0.000175	1.753611	0.297070	-0.003507
1814	9.0650e-01	1.8661	-6.084039	0.000252	2.523490	0.427491	-0.005046
1815	9.0700e-01	1.8542	-6.155452	0.000714	7.142759	1.210016	-0.014283
1816	9.0750e-01	1.8472	-6.154597	-0.000009	-0.085542	-0.014491	0.000171
1817	9.0800e-01	1.8355	-6.178544	0.000240	2.395177	0.405754	-0.004789
1818	9.0850e-01	1.8259	-6.208478	0.000299	2.993971	0.507192	-0.005987
1819	9.0900e-01	1.8143	-6.255516	0.000470	4.704811	0.797017	-0.009408
1820	9.0950e-01	1.8045	-6.258082	0.000026	0.256626	0.043474	-0.000513
1821	9.1000e-01	1.7957	-6.287588	0.000295	2.951200	0.499947	-0.005901
1822	9.1050e-01	1.7862	-6.339331	0.000518	5.175292	0.876718	-0.010349
1823	9.1100e-01	1.7770	-6.331206	-0.000081	-0.812649	-0.137667	0.001625
1824	9.1150e-01	1.7664	-6.380383	0.000492	4.918666	0.833245	-0.009835
1825	9.1200e-01	1.7563	-6.401764	0.000214	2.138551	0.362280	-0.004276
1826	9.1250e-01	1.7458	-6.438968	0.000372	3.721078	0.630368	-0.007441
1827	9.1300e-01	1.7352	-6.453934	0.000150	1.496985	0.253596	-0.002993
1828	9.1350e-01	1.7265	-6.497552	0.000436	4.362643	0.739052	-0.008724
1829	9.1400e-01	1.7153	-6.526203	0.000287	2.865658	0.485456	-0.005730
1830	9.1450e-01	1.7044	-6.553144	0.000269	2.694574	0.456473	-0.005388
1831	9.1500e-01	1.6949	-6.593340	0.000402	4.020475	0.681087	-0.008039
1832	9.1550e-01	1.6846	-6.610873	0.000175	1.753611	0.297070	-0.003507
1833	9.1600e-01	1.6763	-6.632682	0.000218	2.181322	0.369526	-0.004362
1834	9.1650e-01	1.6672	-6.656629	0.000240	2.395177	0.405754	-0.004789
1835	9.1700e-01	1.6562	-6.680148	0.000235	2.352406	0.398508	-0.004704
1836	9.1750e-01	1.6440	-6.686990	0.000068	0.684336	0.115930	-0.001368
1837	9.1800e-01	1.6364	-6.740871	0.000539	5.389147	0.912946	-0.010776
1838	9.1850e-01	1.6234	-6.768667	0.000278	2.780116	0.470964	-0.005559
1839	9.1900e-01	1.6177	-6.800311	0.000317	3.165055	0.536175	-0.006329
1840	9.1950e-01	1.6051	-6.819982	0.000197	1.967467	0.333298	-0.003934
1841	9.2000e-01	1.5955	-6.846067	0.000261	2.609032	0.441982	-0.005217
1842	9.2050e-01	1.5839	-6.873007	0.000269	2.694574	0.456473	-0.005388
1843	9.2100e-01	1.5752	-6.913204	0.000402	4.020475	0.681087	-0.008039
1844	9.2150e-01	1.5670	-6.938006	0.000248	2.480719	0.420245	-0.004960
1845	9.2200e-01	1.5570	-6.970933	0.000329	3.293368	0.557912	-0.006585
1846	9.2250e-01	1.5468	-6.988894	0.000180	1.796382	0.304315	-0.003592
1847	9.2300e-01	1.5335	-7.034222	0.000453	4.533727	0.768034	-0.009066
1848	9.2350e-01	1.5247	-7.063300	0.000291	2.908429	0.492701	-0.005816
1849	9.2400e-01	1.5127	-7.070570	0.000073	0.727107	0.123175	-0.001454
1850	9.2450e-01	1.5042	-7.115471	0.000449	4.490956	0.760789	-0.008980
1851	9.2500e-01	1.4938	-7.140701	0.000252	2.523490	0.427491	-0.005046
1852	9.2550e-01	1.4835	-7.160371	0.000197	1.967467	0.333298	-0.003934
1853	9.2600e-01	1.4747	-7.189878	0.000295	2.951200	0.499947	-0.005901
1854	9.2650e-01	1.4634	-7.223660	0.000338	3.378910	0.572403	-0.006756
1855	9.2700e-01	1.4540	-7.242475	0.000188	1.881925	0.318807	-0.003763
1856	9.2750e-01	1.4453	-7.265140	0.000227	2.266864	0.384017	-0.004533
1857	9.2800e-01	1.4377	-7.300205	0.000351	3.507223	0.594140	-0.007013
1858	9.2850e-01	1.4278	-7.349382	0.000492	4.918666	0.833245	-0.009835
1859	9.2900e-01	1.4145	-7.360928	0.000115	1.154817	0.195631	-0.002309
1860	9.2950e-01	1.4127	-7.401552	0.000406	4.063246	0.688333	-0.008125
1861	9.3000e-01	1.3976	-7.431913	0.000304	3.036742	0.514438	-0.006072
1862	9.3050e-01	1.3863	-7.455860	0.000240	2.395177	0.405754	-0.004789
1863	9.3100e-01	1.3754	-7.485367	0.000295	2.951200	0.499947	-0.005901
1864	9.3150e-01	1.3663	-7.509314	0.000240	2.395177	0.405754	-0.004789
1865	9.3200e-01	1.3602	-7.543096	0.000338	3.378910	0.572403	-0.006756
1866	9.3250e-01	1.3453	-7.576878	0.000338	3.378910	0.572403	-0.006756
1867	9.3300e-01	1.3351	-7.580727	0.000038	0.384939	0.065210	-0.000770
1868	9.3350e-01	1.3239	-7.615365	0.000346	3.464452	0.586894	-0.006928
1869	9.3400e-01	1.3141	-7.647437	0.000321	3.207826	0.543420	-0.006414
1870	9.3450e-01	1.3040	-7.673949	0.000265	2.651803	0.449228	-0.005303
1871	9.3500e-01	1.2966	-7.694475	0.000205	2.053009	0.347789	-0.004105
1872	9.3550e-01	1.2827	-7.725264	0.000308	3.079513	0.521684	-0.006158
1873	9.3600e-01	1.2760	-7.772303	0.000470	4.704811	0.797017	-0.009408
1874	9.3650e-01	1.2676	-7.806086	0.000338	3.378910	0.572403	-0.006756
1875	9.3700e-01	1.2569	-7.791974	-0.000141	-1.411443	-0.239105	0.002822
1876	9.3750e-01	1.2477	-7.847138	0.000552	5.517461	0.934683	-0.011033
1877	9.3800e-01	1.2370	-7.880065	0.000329	3.293368	0.557912	-0.006585
1878	9.3850e-01	1.2258	-7.893749	0.000137	1.368672	0.231859	-0.002737
1879	9.3900e-01	1.2134	-7.936511	0.000428	4.277101	0.724561	-0.008553
1880	9.3950e-01	1.2051	-7.954472	0.000180	1.796382	0.304315	-0.003592
1881	9.4000e-01	1.1975	-7.986116	0.000317	3.165055	0.536175	-0.006329
1882	9.4050e-01	1.1861	-8.028023	0.000419	4.191559	0.710069	-0.008381
1883	9.4100e-01	1.1753	-8.031872	0.000038	0.384939	0.065210	-0.000770
1884	9.4150e-01	1.1654	-8.082759	0.000509	5.089750	0.862227	-0.010177
1885	9.4200e-01	1.1552	-8.113548	0.000308	3.079513	0.521684	-0.006158
1886	9.4250e-01	1.1430	-8.123384	0.000098	0.983733	0.166649	-0.001967
1887	9.4300e-01	1.1328	-8.159732	0.000364	3.635536	0.615876	-0.007270
1888	9.4350e-01	1.1263	-8.206770	0.000470	4.704811	0.797017	-0.009408
1889	9.4400e-01	1.1152	-8.221310	0.000145	1.454214	0.246351	-0.002908
1890	9.4450e-01	1.1063	-8.252099	0.000308	3.079513	0.521684	-0.006158
1891	9.4500e-01	1.0965	-8.279039	0.000269	2.694574	0.456473	-0.005388
1892	9.4550e-01	1.0868	-8.315815	0.000368	3.678307	0.623122	-0.007355
1893	9.4600e-01	1.0737	-8.344466	0.000287	2.865658	0.485456	-0.005730
1894	9.4650e-01	1.0670	-8.366702	0.000222	2.224093	0.376771	-0.004447
1895	9.4700e-01	1.0558	-8.383807	0.000171	1.710840	0.289824	-0.003421
1896	9.4750e-01	1.0439	-8.420583	0.000368	3.678307	0.623122	-0.007355
1897	9.4800e-01	1.0373	-8.427425	0.000068	0.684336	0.115930	-0.001368
1898	9.4850e-01	1.0258	-8.489858	0.000624	6.244568	1.057858	-0.012487
1899	9.4900e-01	1.0138	-8.490714	0.000009	0.085542	0.014491	-0.000171
1900	9.4950e-01	1.0058	-8.533904	0.000432	4.319872	0.731806	-0.008638
1901	9.5000e-01	0.9955	-8.575811	0.000419	4.191559	0.710069	-0.008381
1902	9.5050e-01	0.9852	-8.598475	0.000227	2.266864	0.384017	-0.004533
1903	9.5100e-01	0.9741	-8.621567	0.000231	2.309635	0.391263	-0.004618
1904	9.5150e-01	0.9672	-8.650218	0.000287	2.865658	0.485456	-0.005730
1905	9.5200e-01	0.9583	-8.677158	0.000269	2.694574	0.456473	-0.005388
1906	9.5250e-01	0.9467	-8.695119	0.000180	1.796382	0.304315	-0.003592
1907	9.5300e-01	0.9352	-8.735315	0.000402	4.020475	0.681087	-0.008039
1908	9.5350e-01	0.9264	-8.762683	0.000274	2.737345	0.463719	-0.005474
1909	9.5400e-01	0.9148	-8.800314	0.000376	3.763849	0.637613	-0.007526
1910	9.5450e-01	0.9067	-8.834952	0.000346	3.464452	0.586894	-0.006928
1911	9.5500e-01	0.8947	-8.852485	0.000175	1.753611	0.297070	-0.003507
1912	9.5550e-01	0.8871	-8.890116	0.000376	3.763849	0.637613	-0.007526
1913	9.5600e-01	0.8763	-8.914918	0.000248	2.480719	0.420245	-0.004960
1914	9.5650e-01	0.8662	-8.945707	0.000308	3.079513	0.521684	-0.006158
1915	9.5700e-01	0.8553	-8.969226	0.000235	2.352406	0.398508	-0.004704
1916	9.5750e-01	0.8453	-9.003436	0.000342	3.421681	0.579648	-0.006842
1917	9.5800e-01	0.8329	-9.024818	0.000214	2.138551	0.362280	-0.004276
1918	9.5850e-01	0.8249	-9.065014	0.000402	4.020475	0.681087	-0.008039
1919	9.5900e-01	0.8155	-9.087251	0.000222	2.224093	0.376771	-0.004447
1920	9.5950e-01	0.8047	-9.124454	0.000372	3.721078	0.630368	-0.007441
1921	9.6000e-01	0.7950	-9.138566	0.000141	1.411443	0.239105	-0.002822
1922	9.6050e-01	0.7857	-9.174914	0.000364	3.635536	0.615876	-0.007270
1923	9.6100e-01	0.7751	-9.203137	0.000282	2.822887	0.478210	-0.005645
1924	9.6150e-01	0.7642	-9.231788	0.000287	2.865658	0.485456	-0.005730
1925	9.6200e-01	0.7549	-9.248893	0.000171	1.710840	0.289824	-0.003421
1926	9.6250e-01	0.7458	-9.297215	0.000483	4.833124	0.818753	-0.009664
1927	9.6300e-01	0.7352	-9.309616	0.000124	1.240359	0.210123	-0.002480
1928	9.6350e-01	0.7248	-9.331853	0.000222	2.224093	0.376771	-0.004447
1929	9.6400e-01	0.7153	-9.373760	0.000419	4.191559	0.710069	-0.008381
1930	9.6450e-01	0.7040	-9.386589	0.000128	1.283130	0.217368	-0.002566
1931	9.6500e-01	0.6973	-9.418233	0.000317	3.165055	0.536175	-0.006329
1932	9.6550e-01	0.6841	-9.458430	0.000402	4.020475	0.681087	-0.008039
1933	9.6600e-01	0.6750	-9.492212	0.000338	3.378910	0.572403	-0.006756
1934	9.6650e-01	0.6671	-9.510600	0.000184	1.839154	0.311561	-0.003678
1935	9.6700e-01	0.6549	-9.554645	0.000441	4.405414	0.746297	-0.008809
1936	9.6750e-01	0.6449	-9.573033	0.000184	1.839154	0.311561	-0.003678
1937	9.6800e-01	0.6346	-9.604250	0.000312	3.122284	0.528929	-0.006243
1938	9.6850e-01	0.6243	-9.632045	0.000278	2.780116	0.470964	-0.005559
1939	9.6900e-01	0.6159	-9.681222	0.000492	4.918666	0.833245	-0.009835
1940	9.6950e-01	0.6043	-9.706880	0.000257	2.566261	0.434736	-0.005132
1941	9.7000e-01	0.5940	-9.735531	0.000287	2.865658	0.485456	-0.005730
1942	9.7050e-01	0.5875	-9.755202	0.000197	1.967467	0.333298	-0.003934
1943	9.7100e-01	0.5792	-9.787701	0.000325	3.250597	0.550666	-0.006500
1944	9.7150e-01	0.5667	-9.822339	0.000346	3.464452	0.586894	-0.006928
1945	9.7200e-01	0.5554	-9.840727	0.000184	1.839154	0.311561	-0.003678
1946	9.7250e-01	0.5479	-9.863818	0.000231	2.309635	0.391263	-0.004618
1947	9.7300e-01	0.5359	-9.892042	0.000282	2.822887	0.478210	-0.005645
1948	9.7350e-01	0.5259	-9.933949	0.000419	4.191559	0.710069	-0.008381
1949	9.7400e-01	0.5144	-9.948488	0.000145	1.454214	0.246351	-0.002908
1950	9.7450e-01	0.5014	-9.993389	0.000449	4.490956	0.760789	-0.008980
1951	9.7500e-01	0.4964	-10.017763	0.000244	2.437948	0.413000	-0.004875
1952	9.7550e-01	0.4847	-10.027171	0.000094	0.940962	0.159403	-0.001882
1953	9.7600e-01	0.4739	-10.094308	0.000672	6.715049	1.137560	-0.013427
1954	9.7650e-01	0.4672	-10.104144	0.000098	0.983733	0.166649	-0.001967
1955	9.7700e-01	0.4564	-10.137071	0.000329	3.293368	0.557912	-0.006585
1956	9.7750e-01	0.4433	-10.168715	0.000317	3.165055	0.536175	-0.006329
1957	9.7800e-01	0.4351	-10.197366	0.000287	2.865658	0.485456	-0.005730
1958	9.7850e-01	0.4258	-10.230293	0.000329	3.293368	0.557912	-0.006585
1959	9.7900e-01	0.4145	-10.246971	0.000167	1.668069	0.282579	-0.003335
1960	9.7950e-01	0.4056	-10.291871	0.000449	4.490956	0.760789	-0.008980
1961	9.8000e-01	0.3965	-10.329502	0.000376	3.763849	0.637613	-0.007526
1962	9.8050e-01	0.3848	-10.335489	0.000060	0.598794	0.101438	-0.001197
1963	9.8100e-01	0.3729	-10.380390	0.000449	4.490956	0.760789	-0.008980
1964	9.8150e-01	0.3653	-10.397495	0.000171	1.710840	0.289824	-0.003421
1965	9.8200e-01	0.3534	-10.431705	0.000342	3.421681	0.579648	-0.006842
1966	9.8250e-01	0.3451	-10.454797	0.000231	2.309635	0.391263	-0.004618
1967	9.8300e-01	0.3349	-10.496704	0.000419	4.191559	0.710069	-0.008381
1968	9.8350e-01	0.3238	-10.525355	0.000287	2.865658	0.485456	-0.005730
1969	9.8400e-01	0.3169	-10.545025	0.000197	1.967467	0.333298	-0.003934
1970	9.8450e-01	0.3024	-10.576670	0.000317	3.165055	0.536175	-0.006329
1971	9.8500e-01	0.2945	-10.604893	0.000282	2.822887	0.478210	-0.005645
1972	9.8550e-01	0.2856	-10.644662	0.000398	3.977704	0.673841	-0.007954
1973	9.8600e-01	0.2748	-10.658346	0.000137	1.368672	0.231859	-0.002737
1974	9.8650e-01	0.2663	-10.704530	0.000462	4.619269	0.782525	-0.009237
1975	9.8700e-01	0.2554	-10.708378	0.000038	0.384939	0.065210	-0.000770
1976	9.8750e-01	0.2446	-10.759693	0.000513	5.132521	0.869473	-0.010263
1977	9.8800e-01	0.2349	-10.769529	0.000098	0.983733	0.166649	-0.001967
1978	9.8850e-01	0.2262	-10.825548	0.000560	5.603003	0.949174	-0.011204
1979	9.8900e-01	0.2151	-10.853771	0.000282	2.822887	0.478210	-0.005645
1980	9.8950e-01	0.2044	-10.888836	0.000351	3.507223	0.594140	-0.007013
1981	9.9000e-01	0.1936	-10.906369	0.000175	1.753611	0.297070	-0.003507
1982	9.9050e-01	0.1851	-10.932882	0.000265	2.651803	0.449228	-0.005303
1983	9.9100e-01	0.1778	-10.967092	0.000342	3.421681	0.579648	-0.006842
1984	9.9150e-01	0.1632	-10.993604	0.000265	2.651803	0.449228	-0.005303
1985	9.9200e-01	0.1546	-11.031235	0.000376	3.763849	0.637613	-0.007526
1986	9.9250e-01	0.1434	-11.057321	0.000261	2.609032	0.441982	-0.005217
1987	9.9300e-01	0.1337	-11.091103	0.000338	3.378910	0.572403	-0.006756
1988	9.9350e-01	0.1244	-11.115050	0.000240	2.395177	0.405754	-0.004789
1989	9.9400e-01	0.1134	-11.138569	0.000235	2.352406	0.398508	-0.004704
1990	9.9450e-01	0.1038	-11.179194	0.000406	4.063246	0.688333	-0.008125
1991	9.9500e-01	0.0951	-11.214687	0.000355	3.549994	0.601385	-0.007099
1992	9.9550e-01	0.0836	-11.236496	0.000218	2.181322	0.369526	-0.004362
1993	9.9600e-01	0.0767	-11.259587	0.000231	2.309635	0.391263	-0.004618
1994	9.9650e-01	0.0657	-11.309192	0.000496	4.961437	0.840490	-0.009921
1995	9.9700e-01	0.0538	-11.317317	0.000081	0.812649	0.137667	-0.001625
1996	9.9750e-01	0.0428	-11.356231	0.000389	3.892162	0.659350	-0.007783
1997	9.9800e-01	0.0346	-11.376757	0.000205	2.053009	0.347789	-0.004105
1998	9.9850e-01	0.0237	-11.410539	0.000338	3.378910	0.572403	-0.006756
1999	9.9900e-01	0.0133	-11.450736	0.000402	4.020475	0.681087	-0.008039
2000	9.9950e-01	0.0060	-11.471689	0.000210	2.095780	0.355035	-0.004191
2001	1.0000e+00	-0.0014	-11.497347	0.000210	2.095780	0.355035	-0.005132

PMax (uC/cm2):	2.51e+01
Pr (uC/cm2):	1.06e+00
-Pr (uC/cm2):	0.00e+00
PLoss (uC/cm2):	0.00e+00
C (Max-Eff) (nF):	2.51e-01
K (Eff):	4.26e+02
Vert. (+/-Pr) Shift (uC/cm2):	5.29e-01
Offset (uC/cm2):	1.26e+01

A (Loop Area - uC/cm2·Volts):	-8.05e-03



Hysteresis Version: 5.48.1 - Radiant Technologies, Inc., 1999 - 9/12/24

