»»»»»»»»»»»»»»»»»»»»»»»»»»»»»»»»»»»» Hysteresis ««««««««««««««««««««««««««««««««««««
»»»  Executed Version:	5.48.1
»»»  Vision Version:	5.48.4 (R)
»»»  Vision Compiled:	9/18/24
»»»  Driver Version:	5.47.0
»»»  Windows Version:	Windows 8 or 8.1
»»»  Processor Information:	x86 (AMD or Intel) - 32 Processors
»»»  Tester Name:	PMF21124-494 (100V)
»»»  Tester S/N:	PMF21124-494
»»»  Internal Amp Type:	100V RevK 270k
»»»  Internal Amp S/N:	iAB2-596/K     
»»»  Execution Count:	1
»»»»»»»»»»»»»»»»»»»»»»»»»»»»»»»»»»»»»»»»»»««««««««««««««««««««««««««««««««««««««««««

Stored:	6/26/2025 - 19:21:6
Configured:	06/26/25 10:24:47 AM
Executed:	06/26/25 07:20:43 PM

»»»»»»»»»»»»»»»»»»»»»»»»»»»»»»»»»»» Sample Info ««««««««««««««««««««««««««««««««««««
Sample Name:	
Lot Name:	
Wafer Name:	
Die Row/Column:	0/0
Capacitor Number:	0
Sample Area (cm2):	1.00e-04
Sample Thickness (microns):	1.50e-01

Amplifier:	Internal

»»»»»»»»»»»»»»»»»»»»»»»»»»»»»»»»»»» Tester Info «««««««««««««««««««««««««««««««««««
Tester Name:	PMF21124-494 (100V)
Tester Serial Number:	PMF21124-494
Return Signal Amp. Level:	1.79 [Index: 2]

»»»»»»»»»»»»»»»»»»»»»»»»»»»»»»»» Hysteresis Info ««««««««««««««««««««««««««««««««««
Task Name:	Hyst-562
Volts:	10.00
Field:	666.67 (kV/cm)
DCBias:	0.00
DCField:	0.00 (kV/cm)
Hysteresis Period (ms):	1.00e+00
Preset:	Enabled
Preset Delay (ms):	1.00e+03
Profile:	Standard Monopolar

»»»»»»»»»»»»»»»»»»»»»»»»»»»»»»»»»»»»»» Data «««««««««««««««««««««««««««««««««««««««
Points:	2001

Valid Data

Point	Time (ms)	Drive Voltage	Measured Polarization (uC/cm2)	Capacitance (uF)	Normalized Capacitance (uF/cm2)	Dielectric Constant	Instantaneous Current (mA)
   1	0.0000e+00	-0.0050	-14.106075	0.000462	4.616574	0.782069	0.009237
   2	5.0000e-04	0.0051	-14.059891	0.000462	4.616574	0.782069	0.009237
   3	1.0000e-03	0.0146	-14.032096	0.000278	2.778494	0.470690	0.005559
   4	1.5000e-03	0.0232	-13.995320	0.000368	3.676161	0.622759	0.007355
   5	2.0000e-03	0.0373	-13.969235	0.000261	2.607510	0.441724	0.005217
   6	2.5000e-03	0.0473	-13.943577	0.000256	2.564763	0.434483	0.005132
   7	3.0000e-03	0.0541	-13.908940	0.000346	3.462431	0.586552	0.006928
   8	3.5000e-03	0.0617	-13.858908	0.000500	5.001289	0.847241	0.010006
   9	4.0000e-03	0.0750	-13.848645	0.000103	1.025905	0.173793	0.002053
  10	4.5000e-03	0.0859	-13.817000	0.000316	3.163208	0.535862	0.006329
  11	5.0000e-03	0.0942	-13.784928	0.000321	3.205954	0.543103	0.006414
  12	5.5000e-03	0.1062	-13.755850	0.000291	2.906732	0.492414	0.005816
  13	6.0000e-03	0.1149	-13.721640	0.000342	3.419685	0.579310	0.006842
  14	6.5000e-03	0.1253	-13.681015	0.000406	4.060876	0.687931	0.008125
  15	7.0000e-03	0.1363	-13.661345	0.000197	1.966319	0.333103	0.003934
  16	7.5000e-03	0.1457	-13.626279	0.000351	3.505177	0.593793	0.007013
  17	8.0000e-03	0.1554	-13.601905	0.000244	2.436525	0.412759	0.004875
  18	8.5000e-03	0.1654	-13.551873	0.000500	5.001289	0.847241	0.010006
  19	9.0000e-03	0.1769	-13.536478	0.000154	1.538858	0.260690	0.003079
  20	9.5000e-03	0.1859	-13.494571	0.000419	4.189114	0.709655	0.008381
  21	1.0000e-02	0.1945	-13.459506	0.000351	3.505177	0.593793	0.007013
  22	1.0500e-02	0.2045	-13.449670	0.000098	0.983159	0.166552	0.001967
  23	1.1000e-02	0.2163	-13.412467	0.000372	3.718907	0.630000	0.007441
  24	1.1500e-02	0.2261	-13.375691	0.000368	3.676161	0.622759	0.007355
  25	1.2000e-02	0.2370	-13.346185	0.000295	2.949478	0.499655	0.005901
  26	1.2500e-02	0.2507	-13.314113	0.000321	3.205954	0.543103	0.006414
  27	1.3000e-02	0.2551	-13.291021	0.000231	2.308287	0.391034	0.004618
  28	1.3500e-02	0.2661	-13.250397	0.000406	4.060876	0.687931	0.008125
  29	1.4000e-02	0.2743	-13.233719	0.000167	1.667096	0.282414	0.003335
  30	1.4500e-02	0.2846	-13.192667	0.000410	4.103622	0.695172	0.008210
  31	1.5000e-02	0.2943	-13.152043	0.000406	4.060876	0.687931	0.008125
  32	1.5500e-02	0.3076	-13.122537	0.000295	2.949478	0.499655	0.005901
  33	1.6000e-02	0.3168	-13.092175	0.000303	3.034970	0.514138	0.006072
  34	1.6500e-02	0.3275	-13.054972	0.000372	3.718907	0.630000	0.007441
  35	1.7000e-02	0.3345	-13.032308	0.000227	2.265541	0.383793	0.004533
  36	1.7500e-02	0.3471	-13.002802	0.000295	2.949478	0.499655	0.005901
  37	1.8000e-02	0.3564	-12.957473	0.000453	4.531082	0.767586	0.009066
  38	1.8500e-02	0.3651	-12.930105	0.000274	2.735748	0.463448	0.005474
  39	1.9000e-02	0.3806	-12.904448	0.000256	2.564763	0.434483	0.005132
  40	1.9500e-02	0.3845	-12.871948	0.000325	3.248700	0.550345	0.006500
  41	2.0000e-02	0.3952	-12.853561	0.000184	1.838080	0.311379	0.003678
  42	2.0500e-02	0.4073	-12.822771	0.000308	3.077716	0.521379	0.006158
  43	2.1000e-02	0.4151	-12.777016	0.000457	4.573828	0.774827	0.009151
  44	2.1500e-02	0.4247	-12.742806	0.000342	3.419685	0.579310	0.006842
  45	2.2000e-02	0.4357	-12.718859	0.000239	2.393779	0.405517	0.004789
  46	2.2500e-02	0.4473	-12.690635	0.000282	2.821240	0.477931	0.005645
  47	2.3000e-02	0.4565	-12.651721	0.000389	3.889891	0.658965	0.007783
  48	2.3500e-02	0.4638	-12.617511	0.000342	3.419685	0.579310	0.006842
  49	2.4000e-02	0.4752	-12.588433	0.000291	2.906732	0.492414	0.005816
  50	2.4500e-02	0.4865	-12.550374	0.000380	3.804399	0.644483	0.007612
  51	2.5000e-02	0.4961	-12.524289	0.000261	2.607510	0.441724	0.005217
  52	2.5500e-02	0.5060	-12.491790	0.000325	3.248700	0.550345	0.006500
  53	2.6000e-02	0.5153	-12.461428	0.000303	3.034970	0.514138	0.006072
  54	2.6500e-02	0.5289	-12.436198	0.000252	2.522017	0.427241	0.005046
  55	2.7000e-02	0.5389	-12.408403	0.000278	2.778494	0.470690	0.005559
  56	2.7500e-02	0.5467	-12.364357	0.000440	4.402844	0.745862	0.008809
  57	2.8000e-02	0.5588	-12.331858	0.000325	3.248700	0.550345	0.006500
  58	2.8500e-02	0.5642	-12.305345	0.000265	2.650256	0.448965	0.005303
  59	2.9000e-02	0.5769	-12.274984	0.000303	3.034970	0.514138	0.006072
  60	2.9500e-02	0.5875	-12.237352	0.000376	3.761653	0.637241	0.007526
  61	3.0000e-02	0.5966	-12.212978	0.000244	2.436525	0.412759	0.004875
  62	3.0500e-02	0.6048	-12.179195	0.000338	3.376939	0.572069	0.006756
  63	3.1000e-02	0.6151	-12.143275	0.000359	3.590669	0.608276	0.007184
  64	3.1500e-02	0.6237	-12.118900	0.000244	2.436525	0.412759	0.004875
  65	3.2000e-02	0.6361	-12.095381	0.000235	2.351033	0.398276	0.004704
  66	3.2500e-02	0.6445	-12.064592	0.000308	3.077716	0.521379	0.006158
  67	3.3000e-02	0.6570	-12.026533	0.000380	3.804399	0.644483	0.007612
  68	3.3500e-02	0.6653	-11.990613	0.000359	3.590669	0.608276	0.007184
  69	3.4000e-02	0.6756	-11.958541	0.000321	3.205954	0.543103	0.006414
  70	3.4500e-02	0.6850	-11.925186	0.000333	3.334193	0.564828	0.006671
  71	3.5000e-02	0.6956	-11.902522	0.000227	2.265541	0.383793	0.004533
  72	3.5500e-02	0.7047	-11.855911	0.000466	4.659320	0.789310	0.009322
  73	3.6000e-02	0.7159	-11.830253	0.000256	2.564763	0.434483	0.005132
  74	3.6500e-02	0.7228	-11.795188	0.000351	3.505177	0.593793	0.007013
  75	3.7000e-02	0.7349	-11.766537	0.000286	2.863986	0.485172	0.005730
  76	3.7500e-02	0.7443	-11.746011	0.000205	2.051811	0.347586	0.004105
  77	3.8000e-02	0.7551	-11.708808	0.000372	3.718907	0.630000	0.007441
  78	3.8500e-02	0.7615	-11.675453	0.000333	3.334193	0.564828	0.006671
  79	3.9000e-02	0.7761	-11.645091	0.000303	3.034970	0.514138	0.006072
  80	3.9500e-02	0.7846	-11.614730	0.000303	3.034970	0.514138	0.006072
  81	4.0000e-02	0.7957	-11.586079	0.000286	2.863986	0.485172	0.005730
  82	4.0500e-02	0.8052	-11.563415	0.000227	2.265541	0.383793	0.004533
  83	4.1000e-02	0.8169	-11.519370	0.000440	4.402844	0.745862	0.008809
  84	4.1500e-02	0.8263	-11.482166	0.000372	3.718907	0.630000	0.007441
  85	4.2000e-02	0.8360	-11.450522	0.000316	3.163208	0.535862	0.006329
  86	4.2500e-02	0.8457	-11.429996	0.000205	2.051811	0.347586	0.004105
  87	4.3000e-02	0.8561	-11.387661	0.000423	4.231860	0.716896	0.008467
  88	4.3500e-02	0.8654	-11.375688	0.000120	1.196890	0.202759	0.002395
  89	4.4000e-02	0.8771	-11.326938	0.000487	4.873051	0.825517	0.009750
  90	4.4500e-02	0.8864	-11.309406	0.000175	1.752588	0.296897	0.003507
  91	4.5000e-02	0.8965	-11.269209	0.000402	4.018129	0.680690	0.008039
  92	4.5500e-02	0.9046	-11.232433	0.000368	3.676161	0.622759	0.007355
  93	4.6000e-02	0.9174	-11.215756	0.000167	1.667096	0.282414	0.003335
  94	4.6500e-02	0.9266	-11.184539	0.000312	3.120462	0.528621	0.006243
  95	4.7000e-02	0.9336	-11.153322	0.000312	3.120462	0.528621	0.006243
  96	4.7500e-02	0.9487	-11.108422	0.000449	4.488336	0.760345	0.008980
  97	4.8000e-02	0.9585	-11.088323	0.000201	2.009065	0.340345	0.004020
  98	4.8500e-02	0.9651	-11.057107	0.000312	3.120462	0.528621	0.006243
  99	4.9000e-02	0.9741	-11.029311	0.000278	2.778494	0.470690	0.005559
 100	4.9500e-02	0.9880	-10.987831	0.000415	4.146368	0.702414	0.008296
 101	5.0000e-02	0.9988	-10.971154	0.000167	1.667096	0.282414	0.003335
 102	5.0500e-02	1.0034	-10.924115	0.000470	4.702066	0.796552	0.009408
 103	5.1000e-02	1.0166	-10.902306	0.000218	2.180049	0.369310	0.004362
 104	5.1500e-02	1.0241	-10.872800	0.000295	2.949478	0.499655	0.005901
 105	5.2000e-02	1.0344	-10.847570	0.000252	2.522017	0.427241	0.005046
 106	5.2500e-02	1.0444	-10.797538	0.000500	5.001289	0.847241	0.010006
 107	5.3000e-02	1.0547	-10.778723	0.000188	1.880827	0.318621	0.003763
 108	5.3500e-02	1.0637	-10.741947	0.000368	3.676161	0.622759	0.007355
 109	5.4000e-02	1.0768	-10.712868	0.000291	2.906732	0.492414	0.005816
 110	5.4500e-02	1.0880	-10.698329	0.000145	1.453366	0.246207	0.002908
 111	5.5000e-02	1.0967	-10.653856	0.000445	4.445590	0.753103	0.008895
 112	5.5500e-02	1.1062	-10.624350	0.000295	2.949478	0.499655	0.005901
 113	5.6000e-02	1.1180	-10.607673	0.000167	1.667096	0.282414	0.003335
 114	5.6500e-02	1.1270	-10.555502	0.000522	5.215019	0.883448	0.010434
 115	5.7000e-02	1.1356	-10.523430	0.000321	3.205954	0.543103	0.006414
 116	5.7500e-02	1.1441	-10.497345	0.000261	2.607510	0.441724	0.005217
 117	5.8000e-02	1.1562	-10.464418	0.000329	3.291446	0.557586	0.006585
 118	5.8500e-02	1.1665	-10.434912	0.000295	2.949478	0.499655	0.005901
 119	5.9000e-02	1.1755	-10.402840	0.000321	3.205954	0.543103	0.006414
 120	5.9500e-02	1.1832	-10.358795	0.000440	4.402844	0.745862	0.008809
 121	6.0000e-02	1.1966	-10.346394	0.000124	1.239636	0.210000	0.002480
 122	6.0500e-02	1.2073	-10.319881	0.000265	2.650256	0.448965	0.005303
 123	6.1000e-02	1.2186	-10.282677	0.000372	3.718907	0.630000	0.007441
 124	6.1500e-02	1.2235	-10.243763	0.000389	3.889891	0.658965	0.007783
 125	6.2000e-02	1.2341	-10.228369	0.000154	1.538858	0.260690	0.003079
 126	6.2500e-02	1.2476	-10.198863	0.000295	2.949478	0.499655	0.005901
 127	6.3000e-02	1.2592	-10.167646	0.000312	3.120462	0.528621	0.006243
 128	6.3500e-02	1.2657	-10.138140	0.000295	2.949478	0.499655	0.005901
 129	6.4000e-02	1.2747	-10.107779	0.000303	3.034970	0.514138	0.006072
 130	6.4500e-02	1.2857	-10.068437	0.000393	3.932637	0.666207	0.007868
 131	6.5000e-02	1.2958	-10.037648	0.000308	3.077716	0.521379	0.006158
 132	6.5500e-02	1.3041	-10.013273	0.000244	2.436525	0.412759	0.004875
 133	6.6000e-02	1.3158	-9.980774	0.000325	3.248700	0.550345	0.006500
 134	6.6500e-02	1.3257	-9.944853	0.000359	3.590669	0.608276	0.007184
 135	6.7000e-02	1.3336	-9.913209	0.000316	3.163208	0.535862	0.006329
 136	6.7500e-02	1.3486	-9.885841	0.000274	2.735748	0.463448	0.005474
 137	6.8000e-02	1.3562	-9.861039	0.000248	2.479271	0.420000	0.004960
 138	6.8500e-02	1.3652	-9.829822	0.000312	3.120462	0.528621	0.006243
 139	6.9000e-02	1.3761	-9.799461	0.000303	3.034970	0.514138	0.006072
 140	6.9500e-02	1.3829	-9.766534	0.000329	3.291446	0.557586	0.006585
 141	7.0000e-02	1.3972	-9.723771	0.000427	4.274606	0.724138	0.008553
 142	7.0500e-02	1.4046	-9.697686	0.000261	2.607510	0.441724	0.005217
 143	7.1000e-02	1.4149	-9.672028	0.000256	2.564763	0.434483	0.005132
 144	7.1500e-02	1.4282	-9.641667	0.000303	3.034970	0.514138	0.006072
 145	7.2000e-02	1.4355	-9.606174	0.000355	3.547923	0.601034	0.007099
 146	7.2500e-02	1.4439	-9.579661	0.000265	2.650256	0.448965	0.005303
 147	7.3000e-02	1.4558	-9.551011	0.000286	2.863986	0.485172	0.005730
 148	7.3500e-02	1.4646	-9.512524	0.000385	3.847145	0.651724	0.007697
 149	7.4000e-02	1.4755	-9.497985	0.000145	1.453366	0.246207	0.002908
 150	7.4500e-02	1.4870	-9.454367	0.000436	4.360098	0.738621	0.008724
 151	7.5000e-02	1.4948	-9.429137	0.000252	2.522017	0.427241	0.005046
 152	7.5500e-02	1.5037	-9.391934	0.000372	3.718907	0.630000	0.007441
 153	7.6000e-02	1.5174	-9.370553	0.000214	2.137303	0.362069	0.004276
 154	7.6500e-02	1.5259	-9.329928	0.000406	4.060876	0.687931	0.008125
 155	7.7000e-02	1.5375	-9.297001	0.000329	3.291446	0.557586	0.006585
 156	7.7500e-02	1.5448	-9.267067	0.000299	2.992224	0.506896	0.005987
 157	7.8000e-02	1.5546	-9.240982	0.000261	2.607510	0.441724	0.005217
 158	7.8500e-02	1.5654	-9.211904	0.000291	2.906732	0.492414	0.005816
 159	7.9000e-02	1.5771	-9.182398	0.000295	2.949478	0.499655	0.005901
 160	7.9500e-02	1.5855	-9.154174	0.000282	2.821240	0.477931	0.005645
 161	8.0000e-02	1.5965	-9.123385	0.000308	3.077716	0.521379	0.006158
 162	8.0500e-02	1.6071	-9.099438	0.000239	2.393779	0.405517	0.004789
 163	8.1000e-02	1.6187	-9.052399	0.000470	4.702066	0.796552	0.009408
 164	8.1500e-02	1.6264	-9.029735	0.000227	2.265541	0.383793	0.004533
 165	8.2000e-02	1.6357	-8.994670	0.000351	3.505177	0.593793	0.007013
 166	8.2500e-02	1.6494	-8.970723	0.000239	2.393779	0.405517	0.004789
 167	8.3000e-02	1.6568	-8.942072	0.000286	2.863986	0.485172	0.005730
 168	8.3500e-02	1.6683	-8.901875	0.000402	4.018129	0.680690	0.008039
 169	8.4000e-02	1.6728	-8.886053	0.000158	1.581604	0.267931	0.003164
 170	8.4500e-02	1.6850	-8.847995	0.000380	3.804399	0.644483	0.007612
 171	8.5000e-02	1.6958	-8.813785	0.000342	3.419685	0.579310	0.006842
 172	8.5500e-02	1.7068	-8.782140	0.000316	3.163208	0.535862	0.006329
 173	8.6000e-02	1.7137	-8.762042	0.000201	2.009065	0.340345	0.004020
 174	8.6500e-02	1.7261	-8.721845	0.000402	4.018129	0.680690	0.008039
 175	8.7000e-02	1.7383	-8.711154	0.000107	1.068651	0.181034	0.002138
 176	8.7500e-02	1.7469	-8.670958	0.000402	4.018129	0.680690	0.008039
 177	8.8000e-02	1.7567	-8.626912	0.000440	4.402844	0.745862	0.008809
 178	8.8500e-02	1.7676	-8.597406	0.000295	2.949478	0.499655	0.005901
 179	8.9000e-02	1.7758	-8.579018	0.000184	1.838080	0.311379	0.003678
 180	8.9500e-02	1.7862	-8.543953	0.000351	3.505177	0.593793	0.007013
 181	9.0000e-02	1.7971	-8.514019	0.000299	2.992224	0.506896	0.005987
 182	9.0500e-02	1.8066	-8.493493	0.000205	2.051811	0.347586	0.004105
 183	9.1000e-02	1.8185	-8.451158	0.000423	4.231860	0.716896	0.008467
 184	9.1500e-02	1.8246	-8.428067	0.000231	2.308287	0.391034	0.004618
 185	9.2000e-02	1.8350	-8.391291	0.000368	3.676161	0.622759	0.007355
 186	9.2500e-02	1.8460	-8.371620	0.000197	1.966319	0.333103	0.003934
 187	9.3000e-02	1.8571	-8.333989	0.000376	3.761653	0.637241	0.007526
 188	9.3500e-02	1.8671	-8.305766	0.000282	2.821240	0.477931	0.005645
 189	9.4000e-02	1.8780	-8.277970	0.000278	2.778494	0.470690	0.005559
 190	9.4500e-02	1.8867	-8.245043	0.000329	3.291446	0.557586	0.006585
 191	9.5000e-02	1.8970	-8.227083	0.000180	1.795334	0.304138	0.003592
 192	9.5500e-02	1.9070	-8.186031	0.000410	4.103622	0.695172	0.008210
 193	9.6000e-02	1.9170	-8.151821	0.000342	3.419685	0.579310	0.006842
 194	9.6500e-02	1.9263	-8.124453	0.000274	2.735748	0.463448	0.005474
 195	9.7000e-02	1.9370	-8.098367	0.000261	2.607510	0.441724	0.005217
 196	9.7500e-02	1.9453	-8.047052	0.000513	5.129527	0.868965	0.010263
 197	9.8000e-02	1.9563	-8.030803	0.000162	1.624350	0.275172	0.003250
 198	9.8500e-02	1.9675	-8.008139	0.000227	2.265541	0.383793	0.004533
 199	9.9000e-02	1.9720	-7.963238	0.000449	4.488336	0.760345	0.008980
 200	9.9500e-02	1.9833	-7.953830	0.000094	0.940413	0.159310	0.001882
 201	1.0000e-01	1.9975	-7.910212	0.000436	4.360098	0.738621	0.008724
 202	1.0050e-01	2.0062	-7.874719	0.000355	3.547923	0.601034	0.007099
 203	1.0100e-01	2.0155	-7.864884	0.000098	0.983159	0.166552	0.001967
 204	1.0150e-01	2.0261	-7.822122	0.000427	4.274606	0.724138	0.008553
 205	1.0200e-01	2.0356	-7.797747	0.000244	2.436525	0.412759	0.004875
 206	1.0250e-01	2.0470	-7.764820	0.000329	3.291446	0.557586	0.006585
 207	1.0300e-01	2.0572	-7.741300	0.000235	2.351033	0.398276	0.004704
 208	1.0350e-01	2.0634	-7.710084	0.000312	3.120462	0.528621	0.006243
 209	1.0400e-01	2.0771	-7.687847	0.000222	2.222795	0.376552	0.004447
 210	1.0450e-01	2.0868	-7.647650	0.000402	4.018129	0.680690	0.008039
 211	1.0500e-01	2.0945	-7.619427	0.000282	2.821240	0.477931	0.005645
 212	1.0550e-01	2.1072	-7.590776	0.000286	2.863986	0.485172	0.005730
 213	1.0600e-01	2.1157	-7.557849	0.000329	3.291446	0.557586	0.006585
 214	1.0650e-01	2.1265	-7.532192	0.000256	2.564763	0.434483	0.005132
 215	1.0700e-01	2.1356	-7.493278	0.000389	3.889891	0.658965	0.007783
 216	1.0750e-01	2.1460	-7.473607	0.000197	1.966319	0.333103	0.003934
 217	1.0800e-01	2.1567	-7.431272	0.000423	4.231860	0.716896	0.008467
 218	1.0850e-01	2.1620	-7.403904	0.000274	2.735748	0.463448	0.005474
 219	1.0900e-01	2.1754	-7.379957	0.000239	2.393779	0.405517	0.004789
 220	1.0950e-01	2.1832	-7.345747	0.000342	3.419685	0.579310	0.006842
 221	1.1000e-01	2.1939	-7.315386	0.000303	3.034970	0.514138	0.006072
 222	1.1050e-01	2.2076	-7.287162	0.000282	2.821240	0.477931	0.005645
 223	1.1100e-01	2.2171	-7.269630	0.000175	1.752588	0.296897	0.003507
 224	1.1150e-01	2.2266	-7.239268	0.000303	3.034970	0.514138	0.006072
 225	1.1200e-01	2.2361	-7.197789	0.000415	4.146368	0.702414	0.008296
 226	1.1250e-01	2.2459	-7.175124	0.000227	2.265541	0.383793	0.004533
 227	1.1300e-01	2.2572	-7.143480	0.000316	3.163208	0.535862	0.006329
 228	1.1350e-01	2.2660	-7.111408	0.000321	3.205954	0.543103	0.006414
 229	1.1400e-01	2.2765	-7.090027	0.000214	2.137303	0.362069	0.004276
 230	1.1450e-01	2.2861	-7.054962	0.000351	3.505177	0.593793	0.007013
 231	1.1500e-01	2.2950	-7.024173	0.000308	3.077716	0.521379	0.006158
 232	1.1550e-01	2.3096	-6.999370	0.000248	2.479271	0.420000	0.004960
 233	1.1600e-01	2.3148	-6.961739	0.000376	3.761653	0.637241	0.007526
 234	1.1650e-01	2.3271	-6.924108	0.000376	3.761653	0.637241	0.007526
 235	1.1700e-01	2.3359	-6.896313	0.000278	2.778494	0.470690	0.005559
 236	1.1750e-01	2.3447	-6.870228	0.000261	2.607510	0.441724	0.005217
 237	1.1800e-01	2.3543	-6.837728	0.000325	3.248700	0.550345	0.006500
 238	1.1850e-01	2.3666	-6.815919	0.000218	2.180049	0.369310	0.004362
 239	1.1900e-01	2.3753	-6.792400	0.000235	2.351033	0.398276	0.004704
 240	1.1950e-01	2.3874	-6.748782	0.000436	4.360098	0.738621	0.008724
 241	1.2000e-01	2.3944	-6.729111	0.000197	1.966319	0.333103	0.003934
 242	1.2050e-01	2.4054	-6.702171	0.000269	2.693002	0.456207	0.005388
 243	1.2100e-01	2.4139	-6.666678	0.000355	3.547923	0.601034	0.007099
 244	1.2150e-01	2.4289	-6.634179	0.000325	3.248700	0.550345	0.006500
 245	1.2200e-01	2.4365	-6.621777	0.000124	1.239636	0.210000	0.002480
 246	1.2250e-01	2.4475	-6.567041	0.000547	5.471495	0.926896	0.010947
 247	1.2300e-01	2.4551	-6.557206	0.000098	0.983159	0.166552	0.001967
 248	1.2350e-01	2.4673	-6.522568	0.000346	3.462431	0.586552	0.006928
 249	1.2400e-01	2.4762	-6.486220	0.000363	3.633415	0.615517	0.007270
 250	1.2450e-01	2.4875	-6.464411	0.000218	2.180049	0.369310	0.004362
 251	1.2500e-01	2.4973	-6.428918	0.000355	3.547923	0.601034	0.007099
 252	1.2550e-01	2.5035	-6.396846	0.000321	3.205954	0.543103	0.006414
 253	1.2600e-01	2.5181	-6.379741	0.000171	1.709842	0.289655	0.003421
 254	1.2650e-01	2.5256	-6.351091	0.000286	2.863986	0.485172	0.005730
 255	1.2700e-01	2.5341	-6.309183	0.000419	4.189114	0.709655	0.008381
 256	1.2750e-01	2.5465	-6.291223	0.000180	1.795334	0.304138	0.003592
 257	1.2800e-01	2.5575	-6.263427	0.000278	2.778494	0.470690	0.005559
 258	1.2850e-01	2.5665	-6.223658	0.000398	3.975383	0.673448	0.007954
 259	1.2900e-01	2.5752	-6.192014	0.000316	3.163208	0.535862	0.006329
 260	1.2950e-01	2.5879	-6.164218	0.000278	2.778494	0.470690	0.005559
 261	1.3000e-01	2.5958	-6.147113	0.000171	1.709842	0.289655	0.003421
 262	1.3050e-01	2.6074	-6.124877	0.000222	2.222795	0.376552	0.004447
 263	1.3100e-01	2.6183	-6.089384	0.000355	3.547923	0.601034	0.007099
 264	1.3150e-01	2.6253	-6.041490	0.000479	4.787559	0.811034	0.009579
 265	1.3200e-01	2.6379	-6.016688	0.000248	2.479271	0.420000	0.004960
 266	1.3250e-01	2.6465	-5.994451	0.000222	2.222795	0.376552	0.004447
 267	1.3300e-01	2.6590	-5.960241	0.000342	3.419685	0.579310	0.006842
 268	1.3350e-01	2.6678	-5.934584	0.000256	2.564763	0.434483	0.005132
 269	1.3400e-01	2.6788	-5.911492	0.000231	2.308287	0.391034	0.004618
 270	1.3450e-01	2.6869	-5.872150	0.000393	3.932637	0.666207	0.007868
 271	1.3500e-01	2.6964	-5.837513	0.000346	3.462431	0.586552	0.006928
 272	1.3550e-01	2.7054	-5.806296	0.000312	3.120462	0.528621	0.006243
 273	1.3600e-01	2.7158	-5.797316	0.000090	0.897667	0.152069	0.001796
 274	1.3650e-01	2.7284	-5.753698	0.000436	4.360098	0.738621	0.008724
 275	1.3700e-01	2.7356	-5.731889	0.000218	2.180049	0.369310	0.004362
 276	1.3750e-01	2.7454	-5.706232	0.000256	2.564763	0.434483	0.005132
 277	1.3800e-01	2.7557	-5.667318	0.000389	3.889891	0.658965	0.007783
 278	1.3850e-01	2.7664	-5.651068	0.000162	1.624350	0.275172	0.003250
 279	1.3900e-01	2.7753	-5.613009	0.000380	3.804399	0.644483	0.007612
 280	1.3950e-01	2.7884	-5.573668	0.000393	3.932637	0.666207	0.007868
 281	1.4000e-01	2.7952	-5.557418	0.000162	1.624350	0.275172	0.003250
 282	1.4050e-01	2.8055	-5.518077	0.000393	3.932637	0.666207	0.007868
 283	1.4100e-01	2.8163	-5.497978	0.000201	2.009065	0.340345	0.004020
 284	1.4150e-01	2.8262	-5.465479	0.000325	3.248700	0.550345	0.006500
 285	1.4200e-01	2.8377	-5.447091	0.000184	1.838080	0.311379	0.003678
 286	1.4250e-01	2.8468	-5.415446	0.000316	3.163208	0.535862	0.006329
 287	1.4300e-01	2.8566	-5.374822	0.000406	4.060876	0.687931	0.008125
 288	1.4350e-01	2.8652	-5.354724	0.000201	2.009065	0.340345	0.004020
 289	1.4400e-01	2.8761	-5.321797	0.000329	3.291446	0.557586	0.006585
 290	1.4450e-01	2.8879	-5.291435	0.000303	3.034970	0.514138	0.006072
 291	1.4500e-01	2.8966	-5.256370	0.000351	3.505177	0.593793	0.007013
 292	1.4550e-01	2.9065	-5.233278	0.000231	2.308287	0.391034	0.004618
 293	1.4600e-01	2.9185	-5.213607	0.000197	1.966319	0.333103	0.003934
 294	1.4650e-01	2.9266	-5.174693	0.000389	3.889891	0.658965	0.007783
 295	1.4700e-01	2.9349	-5.147325	0.000274	2.735748	0.463448	0.005474
 296	1.4750e-01	2.9456	-5.113971	0.000333	3.334193	0.564828	0.006671
 297	1.4800e-01	2.9570	-5.088741	0.000252	2.522017	0.427241	0.005046
 298	1.4850e-01	2.9660	-5.050682	0.000380	3.804399	0.644483	0.007612
 299	1.4900e-01	2.9773	-5.027163	0.000235	2.351033	0.398276	0.004704
 300	1.4950e-01	2.9866	-4.999795	0.000274	2.735748	0.463448	0.005474
 301	1.5000e-01	2.9956	-4.965585	0.000342	3.419685	0.579310	0.006842
 302	1.5050e-01	3.0082	-4.936079	0.000295	2.949478	0.499655	0.005901
 303	1.5100e-01	3.0182	-4.926671	0.000094	0.940413	0.159310	0.001882
 304	1.5150e-01	3.0267	-4.886902	0.000398	3.975383	0.673448	0.007954
 305	1.5200e-01	3.0371	-4.862527	0.000244	2.436525	0.412759	0.004875
 306	1.5250e-01	3.0453	-4.833448	0.000291	2.906732	0.492414	0.005816
 307	1.5300e-01	3.0557	-4.790686	0.000427	4.274606	0.724138	0.008553
 308	1.5350e-01	3.0655	-4.769305	0.000214	2.137303	0.362069	0.004276
 309	1.5400e-01	3.0759	-4.734667	0.000346	3.462431	0.586552	0.006928
 310	1.5450e-01	3.0859	-4.715424	0.000192	1.923573	0.325862	0.003849
 311	1.5500e-01	3.0940	-4.675227	0.000402	4.018129	0.680690	0.008039
 312	1.5550e-01	3.1018	-4.656412	0.000188	1.880827	0.318621	0.003763
 313	1.5600e-01	3.1161	-4.617498	0.000389	3.889891	0.658965	0.007783
 314	1.5650e-01	3.1271	-4.583288	0.000342	3.419685	0.579310	0.006842
 315	1.5700e-01	3.1372	-4.566183	0.000171	1.709842	0.289655	0.003421
 316	1.5750e-01	3.1482	-4.542663	0.000235	2.351033	0.398276	0.004704
 317	1.5800e-01	3.1563	-4.514440	0.000282	2.821240	0.477931	0.005645
 318	1.5850e-01	3.1659	-4.484506	0.000299	2.992224	0.506896	0.005987
 319	1.5900e-01	3.1802	-4.451151	0.000333	3.334193	0.564828	0.006671
 320	1.5950e-01	3.1876	-4.432336	0.000188	1.880827	0.318621	0.003763
 321	1.6000e-01	3.1967	-4.397698	0.000346	3.462431	0.586552	0.006928
 322	1.6050e-01	3.2068	-4.365199	0.000325	3.248700	0.550345	0.006500
 323	1.6100e-01	3.2153	-4.343818	0.000214	2.137303	0.362069	0.004276
 324	1.6150e-01	3.2275	-4.312173	0.000316	3.163208	0.535862	0.006329
 325	1.6200e-01	3.2352	-4.293358	0.000188	1.880827	0.318621	0.003763
 326	1.6250e-01	3.2471	-4.257437	0.000359	3.590669	0.608276	0.007184
 327	1.6300e-01	3.2568	-4.221944	0.000355	3.547923	0.601034	0.007099
 328	1.6350e-01	3.2649	-4.188590	0.000333	3.334193	0.564828	0.006671
 329	1.6400e-01	3.2765	-4.165498	0.000231	2.308287	0.391034	0.004618
 330	1.6450e-01	3.2866	-4.145399	0.000201	2.009065	0.340345	0.004020
 331	1.6500e-01	3.2962	-4.109907	0.000355	3.547923	0.601034	0.007099
 332	1.6550e-01	3.3036	-4.082111	0.000278	2.778494	0.470690	0.005559
 333	1.6600e-01	3.3173	-4.057736	0.000244	2.436525	0.412759	0.004875
 334	1.6650e-01	3.3237	-4.022243	0.000355	3.547923	0.601034	0.007099
 335	1.6700e-01	3.3380	-4.001290	0.000209	2.094557	0.354828	0.004191
 336	1.6750e-01	3.3459	-3.966224	0.000351	3.505177	0.593793	0.007013
 337	1.6800e-01	3.3557	-3.939284	0.000269	2.693002	0.456207	0.005388
 338	1.6850e-01	3.3658	-3.908923	0.000303	3.034970	0.514138	0.006072
 339	1.6900e-01	3.3779	-3.872147	0.000368	3.676161	0.622759	0.007355
 340	1.6950e-01	3.3875	-3.858035	0.000141	1.410620	0.238965	0.002822
 341	1.7000e-01	3.3969	-3.817838	0.000402	4.018129	0.680690	0.008039
 342	1.7050e-01	3.4062	-3.795174	0.000227	2.265541	0.383793	0.004533
 343	1.7100e-01	3.4161	-3.763102	0.000321	3.205954	0.543103	0.006414
 344	1.7150e-01	3.4265	-3.742576	0.000205	2.051811	0.347586	0.004105
 345	1.7200e-01	3.4357	-3.708794	0.000338	3.376939	0.572069	0.006756
 346	1.7250e-01	3.4451	-3.665176	0.000436	4.360098	0.738621	0.008724
 347	1.7300e-01	3.4579	-3.653630	0.000115	1.154144	0.195517	0.002309
 348	1.7350e-01	3.4677	-3.627973	0.000256	2.564763	0.434483	0.005132
 349	1.7400e-01	3.4775	-3.597611	0.000303	3.034970	0.514138	0.006072
 350	1.7450e-01	3.4883	-3.562119	0.000355	3.547923	0.601034	0.007099
 351	1.7500e-01	3.4949	-3.534751	0.000274	2.735748	0.463448	0.005474
 352	1.7550e-01	3.5074	-3.497975	0.000368	3.676161	0.622759	0.007355
 353	1.7600e-01	3.5156	-3.477449	0.000205	2.051811	0.347586	0.004105
 354	1.7650e-01	3.5270	-3.450508	0.000269	2.693002	0.456207	0.005388
 355	1.7700e-01	3.5352	-3.426561	0.000239	2.393779	0.405517	0.004789
 356	1.7750e-01	3.5452	-3.395772	0.000308	3.077716	0.521379	0.006158
 357	1.7800e-01	3.5553	-3.373963	0.000218	2.180049	0.369310	0.004362
 358	1.7850e-01	3.5654	-3.334194	0.000398	3.975383	0.673448	0.007954
 359	1.7900e-01	3.5744	-3.306826	0.000274	2.735748	0.463448	0.005474
 360	1.7950e-01	3.5869	-3.276465	0.000303	3.034970	0.514138	0.006072
 361	1.8000e-01	3.5976	-3.257222	0.000192	1.923573	0.325862	0.003849
 362	1.8050e-01	3.6053	-3.222156	0.000351	3.505177	0.593793	0.007013
 363	1.8100e-01	3.6168	-3.210183	0.000120	1.196890	0.202759	0.002395
 364	1.8150e-01	3.6263	-3.167420	0.000427	4.274606	0.724138	0.008553
 365	1.8200e-01	3.6353	-3.141335	0.000261	2.607510	0.441724	0.005217
 366	1.8250e-01	3.6452	-3.106698	0.000346	3.462431	0.586552	0.006928
 367	1.8300e-01	3.6560	-3.074626	0.000321	3.205954	0.543103	0.006414
 368	1.8350e-01	3.6661	-3.053244	0.000214	2.137303	0.362069	0.004276
 369	1.8400e-01	3.6768	-3.025876	0.000274	2.735748	0.463448	0.005474
 370	1.8450e-01	3.6859	-3.012620	0.000133	1.325128	0.224483	0.002651
 371	1.8500e-01	3.6955	-2.966437	0.000462	4.616574	0.782069	0.009237
 372	1.8550e-01	3.7042	-2.935220	0.000312	3.120462	0.528621	0.006243
 373	1.8600e-01	3.7158	-2.909562	0.000256	2.564763	0.434483	0.005132
 374	1.8650e-01	3.7271	-2.875780	0.000338	3.376939	0.572069	0.006756
 375	1.8700e-01	3.7360	-2.859530	0.000162	1.624350	0.275172	0.003250
 376	1.8750e-01	3.7463	-2.836438	0.000231	2.308287	0.391034	0.004618
 377	1.8800e-01	3.7579	-2.801801	0.000346	3.462431	0.586552	0.006928
 378	1.8850e-01	3.7679	-2.779564	0.000222	2.222795	0.376552	0.004447
 379	1.8900e-01	3.7766	-2.742361	0.000372	3.718907	0.630000	0.007441
 380	1.8950e-01	3.7865	-2.725684	0.000167	1.667096	0.282414	0.003335
 381	1.9000e-01	3.7973	-2.678217	0.000474	4.744812	0.803793	0.009493
 382	1.9050e-01	3.8037	-2.644435	0.000338	3.376939	0.572069	0.006756
 383	1.9100e-01	3.8148	-2.623909	0.000205	2.051811	0.347586	0.004105
 384	1.9150e-01	3.8251	-2.599106	0.000248	2.479271	0.420000	0.004960
 385	1.9200e-01	3.8348	-2.582429	0.000167	1.667096	0.282414	0.003335
 386	1.9250e-01	3.8458	-2.548647	0.000338	3.376939	0.572069	0.006756
 387	1.9300e-01	3.8559	-2.518713	0.000299	2.992224	0.506896	0.005987
 388	1.9350e-01	3.8660	-2.497759	0.000209	2.094557	0.354828	0.004191
 389	1.9400e-01	3.8757	-2.454997	0.000427	4.274606	0.724138	0.008553
 390	1.9450e-01	3.8849	-2.431050	0.000239	2.393779	0.405517	0.004789
 391	1.9500e-01	3.8971	-2.406675	0.000244	2.436525	0.412759	0.004875
 392	1.9550e-01	3.9064	-2.385721	0.000209	2.094557	0.354828	0.004191
 393	1.9600e-01	3.9160	-2.354505	0.000312	3.120462	0.528621	0.006243
 394	1.9650e-01	3.9267	-2.319439	0.000351	3.505177	0.593793	0.007013
 395	1.9700e-01	3.9355	-2.300624	0.000188	1.880827	0.318621	0.003763
 396	1.9750e-01	3.9465	-2.263848	0.000368	3.676161	0.622759	0.007355
 397	1.9800e-01	3.9554	-2.229638	0.000342	3.419685	0.579310	0.006842
 398	1.9850e-01	3.9668	-2.212106	0.000175	1.752588	0.296897	0.003507
 399	1.9900e-01	3.9777	-2.180461	0.000316	3.163208	0.535862	0.006329
 400	1.9950e-01	3.9871	-2.147534	0.000329	3.291446	0.557586	0.006585
 401	2.0000e-01	3.9967	-2.127008	0.000205	2.051811	0.347586	0.004105
 402	2.0050e-01	4.0067	-2.100923	0.000261	2.607510	0.441724	0.005217
 403	2.0100e-01	4.0166	-2.091088	0.000098	0.983159	0.166552	0.001967
 404	2.0150e-01	4.0247	-2.043194	0.000479	4.787559	0.811034	0.009579
 405	2.0200e-01	4.0338	-2.022668	0.000205	2.051811	0.347586	0.004105
 406	2.0250e-01	4.0481	-1.992306	0.000303	3.034970	0.514138	0.006072
 407	2.0300e-01	4.0518	-1.946978	0.000453	4.531082	0.767586	0.009066
 408	2.0350e-01	4.0656	-1.922603	0.000244	2.436525	0.412759	0.004875
 409	2.0400e-01	4.0771	-1.899511	0.000231	2.308287	0.391034	0.004618
 410	2.0450e-01	4.0857	-1.868295	0.000312	3.120462	0.528621	0.006243
 411	2.0500e-01	4.0924	-1.848196	0.000201	2.009065	0.340345	0.004020
 412	2.0550e-01	4.1055	-1.814414	0.000338	3.376939	0.572069	0.006756
 413	2.0600e-01	4.1153	-1.796026	0.000184	1.838080	0.311379	0.003678
 414	2.0650e-01	4.1245	-1.759250	0.000368	3.676161	0.622759	0.007355
 415	2.0700e-01	4.1364	-1.739152	0.000201	2.009065	0.340345	0.004020
 416	2.0750e-01	4.1461	-1.700666	0.000385	3.847145	0.651724	0.007697
 417	2.0800e-01	4.1571	-1.675008	0.000256	2.564763	0.434483	0.005132
 418	2.0850e-01	4.1663	-1.646357	0.000286	2.863986	0.485172	0.005730
 419	2.0900e-01	4.1748	-1.612147	0.000342	3.419685	0.579310	0.006842
 420	2.0950e-01	4.1830	-1.593332	0.000188	1.880827	0.318621	0.003763
 421	2.1000e-01	4.1939	-1.556984	0.000363	3.633415	0.615517	0.007270
 422	2.1050e-01	4.2075	-1.542444	0.000145	1.453366	0.246207	0.002908
 423	2.1100e-01	4.2136	-1.495833	0.000466	4.659320	0.789310	0.009322
 424	2.1150e-01	4.2261	-1.476162	0.000197	1.966319	0.333103	0.003934
 425	2.1200e-01	4.2380	-1.458202	0.000180	1.795334	0.304138	0.003592
 426	2.1250e-01	4.2447	-1.433400	0.000248	2.479271	0.420000	0.004960
 427	2.1300e-01	4.2578	-1.400900	0.000325	3.248700	0.550345	0.006500
 428	2.1350e-01	4.2657	-1.374815	0.000261	2.607510	0.441724	0.005217
 429	2.1400e-01	4.2773	-1.353862	0.000209	2.094557	0.354828	0.004191
 430	2.1450e-01	4.2856	-1.316231	0.000376	3.761653	0.637241	0.007526
 431	2.1500e-01	4.2960	-1.278600	0.000376	3.761653	0.637241	0.007526
 432	2.1550e-01	4.3054	-1.252087	0.000265	2.650256	0.448965	0.005303
 433	2.1600e-01	4.3176	-1.227285	0.000248	2.479271	0.420000	0.004960
 434	2.1650e-01	4.3246	-1.200344	0.000269	2.693002	0.456207	0.005388
 435	2.1700e-01	4.3359	-1.175114	0.000252	2.522017	0.427241	0.005046
 436	2.1750e-01	4.3445	-1.134062	0.000410	4.103622	0.695172	0.008210
 437	2.1800e-01	4.3575	-1.127220	0.000068	0.683937	0.115862	0.001368
 438	2.1850e-01	4.3649	-1.087879	0.000393	3.932637	0.666207	0.007868
 439	2.1900e-01	4.3764	-1.060511	0.000274	2.735748	0.463448	0.005474
 440	2.1950e-01	4.3848	-1.038702	0.000218	2.180049	0.369310	0.004362
 441	2.2000e-01	4.3982	-1.010479	0.000282	2.821240	0.477931	0.005645
 442	2.2050e-01	4.4077	-0.981828	0.000286	2.863986	0.485172	0.005730
 443	2.2100e-01	4.4168	-0.961729	0.000201	2.009065	0.340345	0.004020
 444	2.2150e-01	4.4257	-0.924098	0.000376	3.761653	0.637241	0.007526
 445	2.2200e-01	4.4382	-0.894164	0.000299	2.992224	0.506896	0.005987
 446	2.2250e-01	4.4447	-0.874494	0.000197	1.966319	0.333103	0.003934
 447	2.2300e-01	4.4595	-0.851402	0.000231	2.308287	0.391034	0.004618
 448	2.2350e-01	4.4653	-0.809495	0.000419	4.189114	0.709655	0.008381
 449	2.2400e-01	4.4779	-0.782554	0.000269	2.693002	0.456207	0.005388
 450	2.2450e-01	4.4855	-0.753048	0.000295	2.949478	0.499655	0.005901
 451	2.2500e-01	4.4958	-0.726108	0.000269	2.693002	0.456207	0.005388
 452	2.2550e-01	4.5068	-0.707292	0.000188	1.880827	0.318621	0.003763
 453	2.2600e-01	4.5157	-0.684200	0.000231	2.308287	0.391034	0.004618
 454	2.2650e-01	4.5251	-0.653411	0.000308	3.077716	0.521379	0.006158
 455	2.2700e-01	4.5343	-0.625188	0.000282	2.821240	0.477931	0.005645
 456	2.2750e-01	4.5447	-0.590978	0.000342	3.419685	0.579310	0.006842
 457	2.2800e-01	4.5601	-0.564893	0.000261	2.607510	0.441724	0.005217
 458	2.2850e-01	4.5663	-0.543512	0.000214	2.137303	0.362069	0.004276
 459	2.2900e-01	4.5740	-0.504598	0.000389	3.889891	0.658965	0.007783
 460	2.2950e-01	4.5901	-0.468677	0.000359	3.590669	0.608276	0.007184
 461	2.3000e-01	4.5965	-0.470815	-0.000021	-0.213730	-0.036207	-0.000428
 462	2.3050e-01	4.6063	-0.426342	0.000445	4.445590	0.753103	0.008895
 463	2.3100e-01	4.6169	-0.391705	0.000346	3.462431	0.586552	0.006928
 464	2.3150e-01	4.6262	-0.373744	0.000180	1.795334	0.304138	0.003592
 465	2.3200e-01	4.6362	-0.352791	0.000209	2.094557	0.354828	0.004191
 466	2.3250e-01	4.6472	-0.324140	0.000286	2.863986	0.485172	0.005730
 467	2.3300e-01	4.6594	-0.290785	0.000333	3.334193	0.564828	0.006671
 468	2.3350e-01	4.6680	-0.265128	0.000256	2.564763	0.434483	0.005132
 469	2.3400e-01	4.6765	-0.238615	0.000265	2.650256	0.448965	0.005303
 470	2.3450e-01	4.6901	-0.211675	0.000269	2.693002	0.456207	0.005388
 471	2.3500e-01	4.6957	-0.169767	0.000419	4.189114	0.709655	0.008381
 472	2.3550e-01	4.7046	-0.157366	0.000124	1.239636	0.210000	0.002480
 473	2.3600e-01	4.7150	-0.119307	0.000380	3.804399	0.644483	0.007612
 474	2.3650e-01	4.7227	-0.091084	0.000282	2.821240	0.477931	0.005645
 475	2.3700e-01	4.7351	-0.059868	0.000312	3.120462	0.528621	0.006243
 476	2.3750e-01	4.7473	-0.040624	0.000192	1.923573	0.325862	0.003849
 477	2.3800e-01	4.7571	-0.005132	0.000355	3.547923	0.601034	0.007099
 478	2.3850e-01	4.7681	0.008553	0.000137	1.367874	0.231724	0.002737
 479	2.3900e-01	4.7760	0.038914	0.000303	3.034970	0.514138	0.006072
 480	2.3950e-01	4.7861	0.056019	0.000171	1.709842	0.289655	0.003421
 481	2.4000e-01	4.7943	0.095360	0.000393	3.932637	0.666207	0.007868
 482	2.4050e-01	4.8068	0.119735	0.000244	2.436525	0.412759	0.004875
 483	2.4100e-01	4.8199	0.147958	0.000282	2.821240	0.477931	0.005645
 484	2.4150e-01	4.8270	0.176609	0.000286	2.863986	0.485172	0.005730
 485	2.4200e-01	4.8337	0.203122	0.000265	2.650256	0.448965	0.005303
 486	2.4250e-01	4.8474	0.216806	0.000137	1.367874	0.231724	0.002737
 487	2.4300e-01	4.8560	0.261707	0.000449	4.488336	0.760345	0.008980
 488	2.4350e-01	4.8663	0.279239	0.000175	1.752588	0.296897	0.003507
 489	2.4400e-01	4.8767	0.319436	0.000402	4.018129	0.680690	0.008039
 490	2.4450e-01	4.8840	0.334831	0.000154	1.538858	0.260690	0.003079
 491	2.4500e-01	4.8984	0.366902	0.000321	3.205954	0.543103	0.006414
 492	2.4550e-01	4.9054	0.392132	0.000252	2.522017	0.427241	0.005046
 493	2.4600e-01	4.9146	0.421211	0.000291	2.906732	0.492414	0.005816
 494	2.4650e-01	4.9251	0.440454	0.000192	1.923573	0.325862	0.003849
 495	2.4700e-01	4.9371	0.471671	0.000312	3.120462	0.528621	0.006243
 496	2.4750e-01	4.9487	0.502032	0.000303	3.034970	0.514138	0.006072
 497	2.4800e-01	4.9542	0.540091	0.000380	3.804399	0.644483	0.007612
 498	2.4850e-01	4.9641	0.548216	0.000081	0.812175	0.137586	0.001625
 499	2.4900e-01	4.9784	0.589268	0.000410	4.103622	0.695172	0.008210
 500	2.4950e-01	4.9860	0.604662	0.000154	1.538858	0.260690	0.003079
 501	2.5000e-01	4.9988	0.637589	0.000329	3.291446	0.557586	0.006585
 502	2.5050e-01	5.0064	0.665813	0.000282	2.821240	0.477931	0.005645
 503	2.5100e-01	5.0177	0.690615	0.000248	2.479271	0.420000	0.004960
 504	2.5150e-01	5.0269	0.720121	0.000295	2.949478	0.499655	0.005901
 505	2.5200e-01	5.0357	0.759035	0.000389	3.889891	0.658965	0.007783
 506	2.5250e-01	5.0461	0.769725	0.000107	1.068651	0.181034	0.002138
 507	2.5300e-01	5.0562	0.805218	0.000355	3.547923	0.601034	0.007099
 508	2.5350e-01	5.0659	0.832159	0.000269	2.693002	0.456207	0.005388
 509	2.5400e-01	5.0772	0.849264	0.000171	1.709842	0.289655	0.003421
 510	2.5450e-01	5.0854	0.887322	0.000380	3.804399	0.644483	0.007612
 511	2.5500e-01	5.0986	0.912980	0.000256	2.564763	0.434483	0.005132
 512	2.5550e-01	5.1086	0.936927	0.000239	2.393779	0.405517	0.004789
 513	2.5600e-01	5.1149	0.968144	0.000312	3.120462	0.528621	0.006243
 514	2.5650e-01	5.1233	0.998077	0.000299	2.992224	0.506896	0.005987
 515	2.5700e-01	5.1355	1.014327	0.000162	1.624350	0.275172	0.003250
 516	2.5750e-01	5.1477	1.040412	0.000261	2.607510	0.441724	0.005217
 517	2.5800e-01	5.1569	1.069918	0.000295	2.949478	0.499655	0.005901
 518	2.5850e-01	5.1651	1.104556	0.000346	3.462431	0.586552	0.006928
 519	2.5900e-01	5.1764	1.129358	0.000248	2.479271	0.420000	0.004960
 520	2.5950e-01	5.1877	1.149029	0.000197	1.966319	0.333103	0.003934
 521	2.6000e-01	5.1974	1.173831	0.000248	2.479271	0.420000	0.004960
 522	2.6050e-01	5.2072	1.211890	0.000380	3.804399	0.644483	0.007612
 523	2.6100e-01	5.2179	1.232844	0.000209	2.094557	0.354828	0.004191
 524	2.6150e-01	5.2267	1.261067	0.000282	2.821240	0.477931	0.005645
 525	2.6200e-01	5.2390	1.288435	0.000274	2.735748	0.463448	0.005474
 526	2.6250e-01	5.2449	1.313237	0.000248	2.479271	0.420000	0.004960
 527	2.6300e-01	5.2563	1.333763	0.000205	2.051811	0.347586	0.004105
 528	2.6350e-01	5.2661	1.363269	0.000295	2.949478	0.499655	0.005901
 529	2.6400e-01	5.2759	1.395341	0.000321	3.205954	0.543103	0.006414
 530	2.6450e-01	5.2869	1.431262	0.000359	3.590669	0.608276	0.007184
 531	2.6500e-01	5.2974	1.451788	0.000205	2.051811	0.347586	0.004105
 532	2.6550e-01	5.3052	1.480011	0.000282	2.821240	0.477931	0.005645
 533	2.6600e-01	5.3180	1.508234	0.000282	2.821240	0.477931	0.005645
 534	2.6650e-01	5.3271	1.529188	0.000209	2.094557	0.354828	0.004191
 535	2.6700e-01	5.3351	1.554845	0.000256	2.564763	0.434483	0.005132
 536	2.6750e-01	5.3452	1.577510	0.000227	2.265541	0.383793	0.004533
 537	2.6800e-01	5.3577	1.621127	0.000436	4.360098	0.738621	0.008724
 538	2.6850e-01	5.3668	1.640798	0.000197	1.966319	0.333103	0.003934
 539	2.6900e-01	5.3748	1.664318	0.000235	2.351033	0.398276	0.004704
 540	2.6950e-01	5.3864	1.694251	0.000299	2.992224	0.506896	0.005987
 541	2.7000e-01	5.3964	1.717771	0.000235	2.351033	0.398276	0.004704
 542	2.7050e-01	5.4034	1.745139	0.000274	2.735748	0.463448	0.005474
 543	2.7100e-01	5.4155	1.770796	0.000256	2.564763	0.434483	0.005132
 544	2.7150e-01	5.4260	1.796881	0.000261	2.607510	0.441724	0.005217
 545	2.7200e-01	5.4388	1.831519	0.000346	3.462431	0.586552	0.006928
 546	2.7250e-01	5.4439	1.865729	0.000342	3.419685	0.579310	0.006842
 547	2.7300e-01	5.4578	1.884117	0.000184	1.838080	0.311379	0.003678
 548	2.7350e-01	5.4684	1.916189	0.000321	3.205954	0.543103	0.006414
 549	2.7400e-01	5.4773	1.936715	0.000205	2.051811	0.347586	0.004105
 550	2.7450e-01	5.4877	1.959379	0.000227	2.265541	0.383793	0.004533
 551	2.7500e-01	5.4974	1.991023	0.000316	3.163208	0.535862	0.006329
 552	2.7550e-01	5.5054	2.010266	0.000192	1.923573	0.325862	0.003849
 553	2.7600e-01	5.5188	2.049608	0.000393	3.932637	0.666207	0.007868
 554	2.7650e-01	5.5258	2.070989	0.000214	2.137303	0.362069	0.004276
 555	2.7700e-01	5.5371	2.098785	0.000278	2.778494	0.470690	0.005559
 556	2.7750e-01	5.5469	2.120166	0.000214	2.137303	0.362069	0.004276
 557	2.7800e-01	5.5536	2.144541	0.000244	2.436525	0.412759	0.004875
 558	2.7850e-01	5.5627	2.176185	0.000316	3.163208	0.535862	0.006329
 559	2.7900e-01	5.5771	2.202270	0.000261	2.607510	0.441724	0.005217
 560	2.7950e-01	5.5869	2.236908	0.000346	3.462431	0.586552	0.006928
 561	2.8000e-01	5.5980	2.254440	0.000175	1.752588	0.296897	0.003507
 562	2.8050e-01	5.6049	2.288650	0.000342	3.419685	0.579310	0.006842
 563	2.8100e-01	5.6168	2.308321	0.000197	1.966319	0.333103	0.003934
 564	2.8150e-01	5.6284	2.337400	0.000291	2.906732	0.492414	0.005816
 565	2.8200e-01	5.6372	2.371182	0.000338	3.376939	0.572069	0.006756
 566	2.8250e-01	5.6470	2.395557	0.000244	2.436525	0.412759	0.004875
 567	2.8300e-01	5.6595	2.420787	0.000252	2.522017	0.427241	0.005046
 568	2.8350e-01	5.6680	2.453714	0.000329	3.291446	0.557586	0.006585
 569	2.8400e-01	5.6772	2.469108	0.000154	1.538858	0.260690	0.003079
 570	2.8450e-01	5.6860	2.502463	0.000333	3.334193	0.564828	0.006671
 571	2.8500e-01	5.6949	2.533680	0.000312	3.120462	0.528621	0.006243
 572	2.8550e-01	5.7050	2.553351	0.000197	1.966319	0.333103	0.003934
 573	2.8600e-01	5.7135	2.576870	0.000235	2.351033	0.398276	0.004704
 574	2.8650e-01	5.7288	2.605093	0.000282	2.821240	0.477931	0.005645
 575	2.8700e-01	5.7346	2.630751	0.000256	2.564763	0.434483	0.005132
 576	2.8750e-01	5.7452	2.661540	0.000308	3.077716	0.521379	0.006158
 577	2.8800e-01	5.7556	2.681210	0.000197	1.966319	0.333103	0.003934
 578	2.8850e-01	5.7655	2.710289	0.000291	2.906732	0.492414	0.005816
 579	2.8900e-01	5.7794	2.739795	0.000295	2.949478	0.499655	0.005901
 580	2.8950e-01	5.7857	2.775716	0.000359	3.590669	0.608276	0.007184
 581	2.9000e-01	5.7959	2.788544	0.000128	1.282382	0.217241	0.002566
 582	2.9050e-01	5.8073	2.811636	0.000231	2.308287	0.391034	0.004618
 583	2.9100e-01	5.8179	2.843708	0.000321	3.205954	0.543103	0.006414
 584	2.9150e-01	5.8258	2.876635	0.000329	3.291446	0.557586	0.006585
 585	2.9200e-01	5.8405	2.902293	0.000256	2.564763	0.434483	0.005132
 586	2.9250e-01	5.8478	2.924529	0.000222	2.222795	0.376552	0.004447
 587	2.9300e-01	5.8557	2.957456	0.000329	3.291446	0.557586	0.006585
 588	2.9350e-01	5.8624	2.990384	0.000329	3.291446	0.557586	0.006585
 589	2.9400e-01	5.8765	3.012192	0.000218	2.180049	0.369310	0.004362
 590	2.9450e-01	5.8862	3.031008	0.000188	1.880827	0.318621	0.003763
 591	2.9500e-01	5.8954	3.059231	0.000282	2.821240	0.477931	0.005645
 592	2.9550e-01	5.9052	3.096862	0.000376	3.761653	0.637241	0.007526
 593	2.9600e-01	5.9180	3.105842	0.000090	0.897667	0.152069	0.001796
 594	2.9650e-01	5.9283	3.142618	0.000368	3.676161	0.622759	0.007355
 595	2.9700e-01	5.9390	3.155019	0.000124	1.239636	0.210000	0.002480
 596	2.9750e-01	5.9442	3.197782	0.000427	4.274606	0.724138	0.008553
 597	2.9800e-01	5.9595	3.223012	0.000252	2.522017	0.427241	0.005046
 598	2.9850e-01	5.9653	3.246103	0.000231	2.308287	0.391034	0.004618
 599	2.9900e-01	5.9790	3.280741	0.000346	3.462431	0.586552	0.006928
 600	2.9950e-01	5.9863	3.308964	0.000282	2.821240	0.477931	0.005645
 601	3.0000e-01	5.9973	3.325642	0.000167	1.667096	0.282414	0.003335
 602	3.0050e-01	6.0031	3.344885	0.000192	1.923573	0.325862	0.003849
 603	3.0100e-01	6.0168	3.370115	0.000252	2.522017	0.427241	0.005046
 604	3.0150e-01	6.0260	3.406891	0.000368	3.676161	0.622759	0.007355
 605	3.0200e-01	6.0345	3.449653	0.000427	4.274606	0.724138	0.008553
 606	3.0250e-01	6.0474	3.459916	0.000103	1.025905	0.173793	0.002053
 607	3.0300e-01	6.0553	3.482153	0.000222	2.222795	0.376552	0.004447
 608	3.0350e-01	6.0675	3.509521	0.000274	2.735748	0.463448	0.005474
 609	3.0400e-01	6.0754	3.529191	0.000197	1.966319	0.333103	0.003934
 610	3.0450e-01	6.0852	3.568533	0.000393	3.932637	0.666207	0.007868
 611	3.0500e-01	6.0947	3.595901	0.000274	2.735748	0.463448	0.005474
 612	3.0550e-01	6.1057	3.610440	0.000145	1.453366	0.246207	0.002908
 613	3.0600e-01	6.1165	3.639519	0.000291	2.906732	0.492414	0.005816
 614	3.0650e-01	6.1316	3.669025	0.000295	2.949478	0.499655	0.005901
 615	3.0700e-01	6.1377	3.687840	0.000188	1.880827	0.318621	0.003763
 616	3.0750e-01	6.1469	3.707511	0.000197	1.966319	0.333103	0.003934
 617	3.0800e-01	6.1572	3.754550	0.000470	4.702066	0.796552	0.009408
 618	3.0850e-01	6.1682	3.784911	0.000303	3.034970	0.514138	0.006072
 619	3.0900e-01	6.1749	3.804582	0.000197	1.966319	0.333103	0.003934
 620	3.0950e-01	6.1850	3.823825	0.000192	1.923573	0.325862	0.003849
 621	3.1000e-01	6.1963	3.867871	0.000440	4.402844	0.745862	0.008809
 622	3.1050e-01	6.2048	3.874713	0.000068	0.683937	0.115862	0.001368
 623	3.1100e-01	6.2164	3.914054	0.000393	3.932637	0.666207	0.007868
 624	3.1150e-01	6.2271	3.937146	0.000231	2.308287	0.391034	0.004618
 625	3.1200e-01	6.2357	3.977343	0.000402	4.018129	0.680690	0.008039
 626	3.1250e-01	6.2457	3.995731	0.000184	1.838080	0.311379	0.003678
 627	3.1300e-01	6.2561	4.023954	0.000282	2.821240	0.477931	0.005645
 628	3.1350e-01	6.2659	4.049611	0.000256	2.564763	0.434483	0.005132
 629	3.1400e-01	6.2769	4.068427	0.000188	1.880827	0.318621	0.003763
 630	3.1450e-01	6.2878	4.086815	0.000184	1.838080	0.311379	0.003678
 631	3.1500e-01	6.2988	4.118887	0.000321	3.205954	0.543103	0.006414
 632	3.1550e-01	6.3086	4.130005	0.000111	1.111398	0.188276	0.002224
 633	3.1600e-01	6.3165	4.168491	0.000385	3.847145	0.651724	0.007697
 634	3.1650e-01	6.3269	4.186024	0.000175	1.752588	0.296897	0.003507
 635	3.1700e-01	6.3339	4.233490	0.000474	4.744812	0.803793	0.009493
 636	3.1750e-01	6.3458	4.234773	0.000013	0.128238	0.021724	0.000257
 637	3.1800e-01	6.3525	4.289082	0.000543	5.428749	0.919655	0.010862
 638	3.1850e-01	6.3657	4.305331	0.000162	1.624350	0.275172	0.003250
 639	3.1900e-01	6.3733	4.342535	0.000372	3.718907	0.630000	0.007441
 640	3.1950e-01	6.3843	4.354508	0.000120	1.196890	0.202759	0.002395
 641	3.2000e-01	6.3953	4.373751	0.000192	1.923573	0.325862	0.003849
 642	3.2050e-01	6.4050	4.413948	0.000402	4.018129	0.680690	0.008039
 643	3.2100e-01	6.4154	4.441744	0.000278	2.778494	0.470690	0.005559
 644	3.2150e-01	6.4276	4.458421	0.000167	1.667096	0.282414	0.003335
 645	3.2200e-01	6.4343	4.496480	0.000380	3.804399	0.644483	0.007612
 646	3.2250e-01	6.4441	4.525986	0.000295	2.949478	0.499655	0.005901
 647	3.2300e-01	6.4557	4.540525	0.000145	1.453366	0.246207	0.002908
 648	3.2350e-01	6.4651	4.570031	0.000295	2.949478	0.499655	0.005901
 649	3.2400e-01	6.4746	4.601676	0.000316	3.163208	0.535862	0.006329
 650	3.2450e-01	6.4853	4.630326	0.000286	2.863986	0.485172	0.005730
 651	3.2500e-01	6.4944	4.639734	0.000094	0.940413	0.159310	0.001882
 652	3.2550e-01	6.5057	4.667530	0.000278	2.778494	0.470690	0.005559
 653	3.2600e-01	6.5164	4.706016	0.000385	3.847145	0.651724	0.007697
 654	3.2650e-01	6.5253	4.722694	0.000167	1.667096	0.282414	0.003335
 655	3.2700e-01	6.5375	4.754338	0.000316	3.163208	0.535862	0.006329
 656	3.2750e-01	6.5443	4.769732	0.000154	1.538858	0.260690	0.003079
 657	3.2800e-01	6.5555	4.802659	0.000329	3.291446	0.557586	0.006585
 658	3.2850e-01	6.5677	4.826606	0.000239	2.393779	0.405517	0.004789
 659	3.2900e-01	6.5771	4.839863	0.000133	1.325128	0.224483	0.002651
 660	3.2950e-01	6.5875	4.881343	0.000415	4.146368	0.702414	0.008296
 661	3.3000e-01	6.5973	4.919401	0.000380	3.804399	0.644483	0.007612
 662	3.3050e-01	6.6058	4.942065	0.000227	2.265541	0.383793	0.004533
 663	3.3100e-01	6.6162	4.958743	0.000167	1.667096	0.282414	0.003335
 664	3.3150e-01	6.6263	4.983117	0.000244	2.436525	0.412759	0.004875
 665	3.3200e-01	6.6376	5.014334	0.000312	3.120462	0.528621	0.006243
 666	3.3250e-01	6.6475	5.022886	0.000085	0.854921	0.144828	0.001711
 667	3.3300e-01	6.6553	5.072919	0.000500	5.001289	0.847241	0.010006
 668	3.3350e-01	6.6675	5.089168	0.000162	1.624350	0.275172	0.003250
 669	3.3400e-01	6.6751	5.117819	0.000286	2.863986	0.485172	0.005730
 670	3.3450e-01	6.6840	5.150746	0.000329	3.291446	0.557586	0.006585
 671	3.3500e-01	6.6975	5.167424	0.000167	1.667096	0.282414	0.003335
 672	3.3550e-01	6.7023	5.203772	0.000363	3.633415	0.615517	0.007270
 673	3.3600e-01	6.7178	5.210186	0.000064	0.641191	0.108621	0.001283
 674	3.3650e-01	6.7255	5.256370	0.000462	4.616574	0.782069	0.009237
 675	3.3700e-01	6.7377	5.277751	0.000214	2.137303	0.362069	0.004276
 676	3.3750e-01	6.7453	5.309395	0.000316	3.163208	0.535862	0.006329
 677	3.3800e-01	6.7560	5.341895	0.000325	3.248700	0.550345	0.006500
 678	3.3850e-01	6.7651	5.348737	0.000068	0.683937	0.115862	0.001368
 679	3.3900e-01	6.7767	5.386368	0.000376	3.761653	0.637241	0.007526
 680	3.3950e-01	6.7886	5.413308	0.000269	2.693002	0.456207	0.005388
 681	3.4000e-01	6.7987	5.426137	0.000128	1.282382	0.217241	0.002566
 682	3.4050e-01	6.8079	5.459920	0.000338	3.376939	0.572069	0.006756
 683	3.4100e-01	6.8146	5.490281	0.000303	3.034970	0.514138	0.006072
 684	3.4150e-01	6.8268	5.519359	0.000291	2.906732	0.492414	0.005816
 685	3.4200e-01	6.8356	5.540313	0.000209	2.094557	0.354828	0.004191
 686	3.4250e-01	6.8484	5.553142	0.000128	1.282382	0.217241	0.002566
 687	3.4300e-01	6.8579	5.582648	0.000295	2.949478	0.499655	0.005901
 688	3.4350e-01	6.8660	5.612154	0.000295	2.949478	0.499655	0.005901
 689	3.4400e-01	6.8781	5.650213	0.000380	3.804399	0.644483	0.007612
 690	3.4450e-01	6.8872	5.667318	0.000171	1.709842	0.289655	0.003421
 691	3.4500e-01	6.8948	5.686561	0.000192	1.923573	0.325862	0.003849
 692	3.4550e-01	6.9049	5.726330	0.000398	3.975383	0.673448	0.007954
 693	3.4600e-01	6.9165	5.736593	0.000103	1.025905	0.173793	0.002053
 694	3.4650e-01	6.9250	5.779783	0.000432	4.317352	0.731379	0.008638
 695	3.4700e-01	6.9385	5.788336	0.000085	0.854921	0.144828	0.001711
 696	3.4750e-01	6.9461	5.817842	0.000295	2.949478	0.499655	0.005901
 697	3.4800e-01	6.9550	5.854618	0.000368	3.676161	0.622759	0.007355
 698	3.4850e-01	6.9659	5.875999	0.000214	2.137303	0.362069	0.004276
 699	3.4900e-01	6.9812	5.902084	0.000261	2.607510	0.441724	0.005217
 700	3.4950e-01	6.9867	5.930307	0.000282	2.821240	0.477931	0.005645
 701	3.5000e-01	6.9995	5.966655	0.000363	3.633415	0.615517	0.007270
 702	3.5050e-01	7.0047	5.980339	0.000137	1.367874	0.231724	0.002737
 703	3.5100e-01	7.0172	6.008563	0.000282	2.821240	0.477931	0.005645
 704	3.5150e-01	7.0270	6.046621	0.000380	3.804399	0.644483	0.007612
 705	3.5200e-01	7.0364	6.064154	0.000175	1.752588	0.296897	0.003507
 706	3.5250e-01	7.0416	6.085108	0.000209	2.094557	0.354828	0.004191
 707	3.5300e-01	7.0572	6.101785	0.000167	1.667096	0.282414	0.003335
 708	3.5350e-01	7.0639	6.143692	0.000419	4.189114	0.709655	0.008381
 709	3.5400e-01	7.0758	6.178758	0.000351	3.505177	0.593793	0.007013
 710	3.5450e-01	7.0850	6.190731	0.000120	1.196890	0.202759	0.002395
 711	3.5500e-01	7.0935	6.218954	0.000282	2.821240	0.477931	0.005645
 712	3.5550e-01	7.1063	6.249743	0.000308	3.077716	0.521379	0.006158
 713	3.5600e-01	7.1155	6.271552	0.000218	2.180049	0.369310	0.004362
 714	3.5650e-01	7.1265	6.302769	0.000312	3.120462	0.528621	0.006243
 715	3.5700e-01	7.1376	6.329709	0.000269	2.693002	0.456207	0.005388
 716	3.5750e-01	7.1478	6.351091	0.000214	2.137303	0.362069	0.004276
 717	3.5800e-01	7.1545	6.372899	0.000218	2.180049	0.369310	0.004362
 718	3.5850e-01	7.1658	6.410958	0.000380	3.804399	0.644483	0.007612
 719	3.5900e-01	7.1777	6.418228	0.000073	0.726683	0.123103	0.001454
 720	3.5950e-01	7.1863	6.449872	0.000316	3.163208	0.535862	0.006329
 721	3.6000e-01	7.1968	6.473819	0.000239	2.393779	0.405517	0.004789
 722	3.6050e-01	7.2061	6.490924	0.000171	1.709842	0.289655	0.003421
 723	3.6100e-01	7.2162	6.540529	0.000496	4.958543	0.840000	0.009921
 724	3.6150e-01	7.2247	6.555923	0.000154	1.538858	0.260690	0.003079
 725	3.6200e-01	7.2351	6.578587	0.000227	2.265541	0.383793	0.004533
 726	3.6250e-01	7.2461	6.603817	0.000252	2.522017	0.427241	0.005046
 727	3.6300e-01	7.2583	6.646152	0.000423	4.231860	0.716896	0.008467
 728	3.6350e-01	7.2681	6.663685	0.000175	1.752588	0.296897	0.003507
 729	3.6400e-01	7.2760	6.691480	0.000278	2.778494	0.470690	0.005559
 730	3.6450e-01	7.2864	6.711151	0.000197	1.966319	0.333103	0.003934
 731	3.6500e-01	7.2986	6.746216	0.000351	3.505177	0.593793	0.007013
 732	3.6550e-01	7.3059	6.768880	0.000227	2.265541	0.383793	0.004533
 733	3.6600e-01	7.3175	6.787268	0.000184	1.838080	0.311379	0.003678
 734	3.6650e-01	7.3267	6.809932	0.000227	2.265541	0.383793	0.004533
 735	3.6700e-01	7.3346	6.839439	0.000295	2.949478	0.499655	0.005901
 736	3.6750e-01	7.3447	6.869372	0.000299	2.992224	0.506896	0.005987
 737	3.6800e-01	7.3566	6.891181	0.000218	2.180049	0.369310	0.004362
 738	3.6850e-01	7.3669	6.927957	0.000368	3.676161	0.622759	0.007355
 739	3.6900e-01	7.3764	6.941213	0.000133	1.325128	0.224483	0.002651
 740	3.6950e-01	7.3877	6.986114	0.000449	4.488336	0.760345	0.008980
 741	3.7000e-01	7.3938	6.998515	0.000124	1.239636	0.210000	0.002480
 742	3.7050e-01	7.4084	7.019041	0.000205	2.051811	0.347586	0.004105
 743	3.7100e-01	7.4173	7.051968	0.000329	3.291446	0.557586	0.006585
 744	3.7150e-01	7.4280	7.077198	0.000252	2.522017	0.427241	0.005046
 745	3.7200e-01	7.4365	7.100718	0.000235	2.351033	0.398276	0.004704
 746	3.7250e-01	7.4448	7.127658	0.000269	2.693002	0.456207	0.005388
 747	3.7300e-01	7.4564	7.157164	0.000295	2.949478	0.499655	0.005901
 748	3.7350e-01	7.4683	7.190519	0.000333	3.334193	0.564828	0.006671
 749	3.7400e-01	7.4774	7.203348	0.000128	1.282382	0.217241	0.002566
 750	3.7450e-01	7.4884	7.240979	0.000376	3.761653	0.637241	0.007526
 751	3.7500e-01	7.4945	7.267919	0.000269	2.693002	0.456207	0.005388
 752	3.7550e-01	7.5043	7.291011	0.000231	2.308287	0.391034	0.004618
 753	3.7600e-01	7.5162	7.315386	0.000244	2.436525	0.412759	0.004875
 754	3.7650e-01	7.5269	7.338477	0.000231	2.308287	0.391034	0.004618
 755	3.7700e-01	7.5366	7.366273	0.000278	2.778494	0.470690	0.005559
 756	3.7750e-01	7.5452	7.391503	0.000252	2.522017	0.427241	0.005046
 757	3.7800e-01	7.5568	7.423575	0.000321	3.205954	0.543103	0.006414
 758	3.7850e-01	7.5681	7.435976	0.000124	1.239636	0.210000	0.002480
 759	3.7900e-01	7.5739	7.474890	0.000389	3.889891	0.658965	0.007783
 760	3.7950e-01	7.5842	7.491140	0.000162	1.624350	0.275172	0.003250
 761	3.8000e-01	7.5977	7.524494	0.000333	3.334193	0.564828	0.006671
 762	3.8050e-01	7.6068	7.542882	0.000184	1.838080	0.311379	0.003678
 763	3.8100e-01	7.6154	7.580941	0.000380	3.804399	0.644483	0.007612
 764	3.8150e-01	7.6263	7.598474	0.000175	1.752588	0.296897	0.003507
 765	3.8200e-01	7.6367	7.624559	0.000261	2.607510	0.441724	0.005217
 766	3.8250e-01	7.6447	7.653637	0.000291	2.906732	0.492414	0.005816
 767	3.8300e-01	7.6563	7.678012	0.000244	2.436525	0.412759	0.004875
 768	3.8350e-01	7.6654	7.707518	0.000295	2.949478	0.499655	0.005901
 769	3.8400e-01	7.6752	7.725906	0.000184	1.838080	0.311379	0.003678
 770	3.8450e-01	7.6849	7.766958	0.000410	4.103622	0.695172	0.008210
 771	3.8500e-01	7.6971	7.772945	0.000060	0.598445	0.101379	0.001197
 772	3.8550e-01	7.7057	7.814852	0.000419	4.189114	0.709655	0.008381
 773	3.8600e-01	7.7174	7.831529	0.000167	1.667096	0.282414	0.003335
 774	3.8650e-01	7.7307	7.860608	0.000291	2.906732	0.492414	0.005816
 775	3.8700e-01	7.7353	7.878996	0.000184	1.838080	0.311379	0.003678
 776	3.8750e-01	7.7448	7.908502	0.000295	2.949478	0.499655	0.005901
 777	3.8800e-01	7.7551	7.935870	0.000274	2.735748	0.463448	0.005474
 778	3.8850e-01	7.7707	7.955968	0.000201	2.009065	0.340345	0.004020
 779	3.8900e-01	7.7783	7.991034	0.000351	3.505177	0.593793	0.007013
 780	3.8950e-01	7.7850	8.016263	0.000252	2.522017	0.427241	0.005046
 781	3.9000e-01	7.7979	8.038072	0.000218	2.180049	0.369310	0.004362
 782	3.9050e-01	7.8104	8.068861	0.000308	3.077716	0.521379	0.006158
 783	3.9100e-01	7.8174	8.084683	0.000158	1.581604	0.267931	0.003164
 784	3.9150e-01	7.8253	8.133433	0.000487	4.873051	0.825517	0.009750
 785	3.9200e-01	7.8363	8.147972	0.000145	1.453366	0.246207	0.002908
 786	3.9250e-01	7.8445	8.161656	0.000137	1.367874	0.231724	0.002737
 787	3.9300e-01	7.8546	8.207412	0.000457	4.573828	0.774827	0.009151
 788	3.9350e-01	7.8662	8.208267	0.000009	0.085492	0.014483	0.000171
 789	3.9400e-01	7.8778	8.255734	0.000474	4.744812	0.803793	0.009493
 790	3.9450e-01	7.8894	8.274121	0.000184	1.838080	0.311379	0.003678
 791	3.9500e-01	7.8986	8.295075	0.000209	2.094557	0.354828	0.004191
 792	3.9550e-01	7.9065	8.324154	0.000291	2.906732	0.492414	0.005816
 793	3.9600e-01	7.9175	8.357508	0.000333	3.334193	0.564828	0.006671
 794	3.9650e-01	7.9248	8.374186	0.000167	1.667096	0.282414	0.003335
 795	3.9700e-01	7.9358	8.404547	0.000303	3.034970	0.514138	0.006072
 796	3.9750e-01	7.9477	8.432343	0.000278	2.778494	0.470690	0.005559
 797	3.9800e-01	7.9572	8.446454	0.000141	1.410620	0.238965	0.002822
 798	3.9850e-01	7.9657	8.478099	0.000316	3.163208	0.535862	0.006329
 799	3.9900e-01	7.9761	8.498197	0.000201	2.009065	0.340345	0.004020
 800	3.9950e-01	7.9871	8.540960	0.000427	4.274606	0.724138	0.008553
 801	4.0000e-01	7.9956	8.564051	0.000231	2.308287	0.391034	0.004618
 802	4.0050e-01	8.0060	8.579874	0.000158	1.581604	0.267931	0.003164
 803	4.0100e-01	8.0145	8.615366	0.000355	3.547923	0.601034	0.007099
 804	4.0150e-01	8.0255	8.647011	0.000316	3.163208	0.535862	0.006329
 805	4.0200e-01	8.0362	8.680365	0.000333	3.334193	0.564828	0.006671
 806	4.0250e-01	8.0450	8.689346	0.000090	0.897667	0.152069	0.001796
 807	4.0300e-01	8.0580	8.717569	0.000282	2.821240	0.477931	0.005645
 808	4.0350e-01	8.0664	8.750924	0.000333	3.334193	0.564828	0.006671
 809	4.0400e-01	8.0780	8.768456	0.000175	1.752588	0.296897	0.003507
 810	4.0450e-01	8.0853	8.794541	0.000261	2.607510	0.441724	0.005217
 811	4.0500e-01	8.0969	8.814212	0.000197	1.966319	0.333103	0.003934
 812	4.0550e-01	8.1055	8.851843	0.000376	3.761653	0.637241	0.007526
 813	4.0600e-01	8.1174	8.876645	0.000248	2.479271	0.420000	0.004960
 814	4.0650e-01	8.1250	8.904013	0.000274	2.735748	0.463448	0.005474
 815	4.0700e-01	8.1366	8.939934	0.000359	3.590669	0.608276	0.007184
 816	4.0750e-01	8.1451	8.958750	0.000188	1.880827	0.318621	0.003763
 817	4.0800e-01	8.1558	8.984407	0.000256	2.564763	0.434483	0.005132
 818	4.0850e-01	8.1671	9.004078	0.000197	1.966319	0.333103	0.003934
 819	4.0900e-01	8.1781	9.037860	0.000338	3.376939	0.572069	0.006756
 820	4.0950e-01	8.1848	9.063090	0.000252	2.522017	0.427241	0.005046
 821	4.1000e-01	8.1964	9.081906	0.000188	1.880827	0.318621	0.003763
 822	4.1050e-01	8.2074	9.110556	0.000286	2.863986	0.485172	0.005730
 823	4.1100e-01	8.2141	9.141773	0.000312	3.120462	0.528621	0.006243
 824	4.1150e-01	8.2269	9.168286	0.000265	2.650256	0.448965	0.005303
 825	4.1200e-01	8.2367	9.190950	0.000227	2.265541	0.383793	0.004533
 826	4.1250e-01	8.2452	9.220029	0.000291	2.906732	0.492414	0.005816
 827	4.1300e-01	8.2556	9.250390	0.000303	3.034970	0.514138	0.006072
 828	4.1350e-01	8.2666	9.276047	0.000256	2.564763	0.434483	0.005132
 829	4.1400e-01	8.2764	9.286310	0.000103	1.025905	0.173793	0.002053
 830	4.1450e-01	8.2861	9.316672	0.000303	3.034970	0.514138	0.006072
 831	4.1500e-01	8.2968	9.354303	0.000376	3.761653	0.637241	0.007526
 832	4.1550e-01	8.3075	9.376967	0.000227	2.265541	0.383793	0.004533
 833	4.1600e-01	8.3160	9.406901	0.000299	2.992224	0.506896	0.005987
 834	4.1650e-01	8.3258	9.425289	0.000184	1.838080	0.311379	0.003678
 835	4.1700e-01	8.3331	9.462920	0.000376	3.761653	0.637241	0.007526
 836	4.1750e-01	8.3447	9.489860	0.000269	2.693002	0.456207	0.005388
 837	4.1800e-01	8.3557	9.509958	0.000201	2.009065	0.340345	0.004020
 838	4.1850e-01	8.3649	9.542886	0.000329	3.291446	0.557586	0.006585
 839	4.1900e-01	8.3771	9.560418	0.000175	1.752588	0.296897	0.003507
 840	4.1950e-01	8.3862	9.587786	0.000274	2.735748	0.463448	0.005474
 841	4.2000e-01	8.3960	9.609168	0.000214	2.137303	0.362069	0.004276
 842	4.2050e-01	8.4070	9.631404	0.000222	2.222795	0.376552	0.004447
 843	4.2100e-01	8.4137	9.670746	0.000393	3.932637	0.666207	0.007868
 844	4.2150e-01	8.4265	9.687851	0.000171	1.709842	0.289655	0.003421
 845	4.2200e-01	8.4357	9.727620	0.000398	3.975383	0.673448	0.007954
 846	4.2250e-01	8.4460	9.753277	0.000256	2.564763	0.434483	0.005132
 847	4.2300e-01	8.4589	9.774659	0.000214	2.137303	0.362069	0.004276
 848	4.2350e-01	8.4650	9.796895	0.000222	2.222795	0.376552	0.004447
 849	4.2400e-01	8.4741	9.827256	0.000303	3.034970	0.514138	0.006072
 850	4.2450e-01	8.4863	9.855907	0.000286	2.863986	0.485172	0.005730
 851	4.2500e-01	8.4973	9.871302	0.000154	1.538858	0.260690	0.003079
 852	4.2550e-01	8.5077	9.904229	0.000329	3.291446	0.557586	0.006585
 853	4.2600e-01	8.5156	9.938439	0.000342	3.419685	0.579310	0.006842
 854	4.2650e-01	8.5272	9.947847	0.000094	0.940413	0.159310	0.001882
 855	4.2700e-01	8.5373	9.981629	0.000338	3.376939	0.572069	0.006756
 856	4.2750e-01	8.5461	10.002583	0.000209	2.094557	0.354828	0.004191
 857	4.2800e-01	8.5577	10.040214	0.000376	3.761653	0.637241	0.007526
 858	4.2850e-01	8.5651	10.058602	0.000184	1.838080	0.311379	0.003678
 859	4.2900e-01	8.5767	10.089818	0.000312	3.120462	0.528621	0.006243
 860	4.2950e-01	8.5852	10.108634	0.000188	1.880827	0.318621	0.003763
 861	4.3000e-01	8.5950	10.138140	0.000295	2.949478	0.499655	0.005901
 862	4.3050e-01	8.6047	10.168929	0.000308	3.077716	0.521379	0.006158
 863	4.3100e-01	8.6172	10.188172	0.000192	1.923573	0.325862	0.003849
 864	4.3150e-01	8.6285	10.218534	0.000303	3.034970	0.514138	0.006072
 865	4.3200e-01	8.6371	10.251033	0.000325	3.248700	0.550345	0.006500
 866	4.3250e-01	8.6475	10.271559	0.000205	2.051811	0.347586	0.004105
 867	4.3300e-01	8.6566	10.298072	0.000265	2.650256	0.448965	0.005303
 868	4.3350e-01	8.6688	10.320736	0.000227	2.265541	0.383793	0.004533
 869	4.3400e-01	8.6749	10.345538	0.000248	2.479271	0.420000	0.004960
 870	4.3450e-01	8.6877	10.381886	0.000363	3.633415	0.615517	0.007270
 871	4.3500e-01	8.6945	10.415669	0.000338	3.376939	0.572069	0.006756
 872	4.3550e-01	8.7067	10.435767	0.000201	2.009065	0.340345	0.004020
 873	4.3600e-01	8.7152	10.467839	0.000321	3.205954	0.543103	0.006414
 874	4.3650e-01	8.7262	10.499056	0.000312	3.120462	0.528621	0.006243
 875	4.3700e-01	8.7366	10.514023	0.000150	1.496112	0.253448	0.002993
 876	4.3750e-01	8.7451	10.550798	0.000368	3.676161	0.622759	0.007355
 877	4.3800e-01	8.7540	10.575601	0.000248	2.479271	0.420000	0.004960
 878	4.3850e-01	8.7671	10.590568	0.000150	1.496112	0.253448	0.002993
 879	4.3900e-01	8.7744	10.622212	0.000316	3.163208	0.535862	0.006329
 880	4.3950e-01	8.7891	10.655139	0.000329	3.291446	0.557586	0.006585
 881	4.4000e-01	8.7952	10.673527	0.000184	1.838080	0.311379	0.003678
 882	4.4050e-01	8.8055	10.701750	0.000282	2.821240	0.477931	0.005645
 883	4.4100e-01	8.8159	10.725697	0.000239	2.393779	0.405517	0.004789
 884	4.4150e-01	8.8275	10.742375	0.000167	1.667096	0.282414	0.003335
 885	4.4200e-01	8.8373	10.788130	0.000457	4.573828	0.774827	0.009151
 886	4.4250e-01	8.8454	10.812933	0.000248	2.479271	0.420000	0.004960
 887	4.4300e-01	8.8553	10.827044	0.000141	1.410620	0.238965	0.002822
 888	4.4350e-01	8.8681	10.856550	0.000295	2.949478	0.499655	0.005901
 889	4.4400e-01	8.8733	10.900168	0.000436	4.360098	0.738621	0.008724
 890	4.4450e-01	8.8873	10.910004	0.000098	0.983159	0.166552	0.001967
 891	4.4500e-01	8.8959	10.936089	0.000261	2.607510	0.441724	0.005217
 892	4.4550e-01	8.9069	10.971582	0.000355	3.547923	0.601034	0.007099
 893	4.4600e-01	8.9178	11.007502	0.000359	3.590669	0.608276	0.007184
 894	4.4650e-01	8.9240	11.037436	0.000299	2.992224	0.506896	0.005987
 895	4.4700e-01	8.9355	11.063093	0.000256	2.564763	0.434483	0.005132
 896	4.4750e-01	8.9484	11.069080	0.000060	0.598445	0.101379	0.001197
 897	4.4800e-01	8.9584	11.110560	0.000415	4.146368	0.702414	0.008296
 898	4.4850e-01	8.9667	11.125527	0.000150	1.496112	0.253448	0.002993
 899	4.4900e-01	8.9767	11.167862	0.000423	4.231860	0.716896	0.008467
 900	4.4950e-01	8.9856	11.186677	0.000188	1.880827	0.318621	0.003763
 901	4.5000e-01	8.9972	11.225163	0.000385	3.847145	0.651724	0.007697
 902	4.5050e-01	9.0100	11.229867	0.000047	0.470207	0.079655	0.000941
 903	4.5100e-01	9.0167	11.264505	0.000346	3.462431	0.586552	0.006928
 904	4.5150e-01	9.0277	11.296149	0.000316	3.163208	0.535862	0.006329
 905	4.5200e-01	9.0363	11.328221	0.000321	3.205954	0.543103	0.006414
 906	4.5250e-01	9.0466	11.347464	0.000192	1.923573	0.325862	0.003849
 907	4.5300e-01	9.0552	11.382957	0.000355	3.547923	0.601034	0.007099
 908	4.5350e-01	9.0665	11.407332	0.000244	2.436525	0.412759	0.004875
 909	4.5400e-01	9.0787	11.441114	0.000338	3.376939	0.572069	0.006756
 910	4.5450e-01	9.0869	11.459502	0.000184	1.838080	0.311379	0.003678
 911	4.5500e-01	9.0948	11.497988	0.000385	3.847145	0.651724	0.007697
 912	4.5550e-01	9.1046	11.512528	0.000145	1.453366	0.246207	0.002908
 913	4.5600e-01	9.1156	11.556573	0.000440	4.402844	0.745862	0.008809
 914	4.5650e-01	9.1278	11.573678	0.000171	1.709842	0.289655	0.003421
 915	4.5700e-01	9.1370	11.605750	0.000321	3.205954	0.543103	0.006414
 916	4.5750e-01	9.1443	11.625848	0.000201	2.009065	0.340345	0.004020
 917	4.5800e-01	9.1557	11.671604	0.000457	4.573828	0.774827	0.009151
 918	4.5850e-01	9.1656	11.704959	0.000333	3.334193	0.564828	0.006671
 919	4.5900e-01	9.1785	11.708380	0.000034	0.341968	0.057931	0.000684
 920	4.5950e-01	9.1846	11.738741	0.000303	3.034970	0.514138	0.006072
 921	4.6000e-01	9.1968	11.767392	0.000286	2.863986	0.485172	0.005730
 922	4.6050e-01	9.2059	11.804596	0.000372	3.718907	0.630000	0.007441
 923	4.6100e-01	9.2188	11.820418	0.000158	1.581604	0.267931	0.003164
 924	4.6150e-01	9.2282	11.843082	0.000227	2.265541	0.383793	0.004533
 925	4.6200e-01	9.2395	11.873016	0.000299	2.992224	0.506896	0.005987
 926	4.6250e-01	9.2487	11.901667	0.000286	2.863986	0.485172	0.005730
 927	4.6300e-01	9.2554	11.938870	0.000372	3.718907	0.630000	0.007441
 928	4.6350e-01	9.2664	11.968804	0.000299	2.992224	0.506896	0.005987
 929	4.6400e-01	9.2743	11.997027	0.000282	2.821240	0.477931	0.005645
 930	4.6450e-01	9.2859	12.018836	0.000218	2.180049	0.369310	0.004362
 931	4.6500e-01	9.2963	12.045776	0.000269	2.693002	0.456207	0.005388
 932	4.6550e-01	9.3048	12.074855	0.000291	2.906732	0.492414	0.005816
 933	4.6600e-01	9.3158	12.108637	0.000338	3.376939	0.572069	0.006756
 934	4.6650e-01	9.3250	12.138571	0.000299	2.992224	0.506896	0.005987
 935	4.6700e-01	9.3341	12.161663	0.000231	2.308287	0.391034	0.004618
 936	4.6750e-01	9.3481	12.191169	0.000295	2.949478	0.499655	0.005901
 937	4.6800e-01	9.3561	12.213833	0.000227	2.265541	0.383793	0.004533
 938	4.6850e-01	9.3665	12.244194	0.000303	3.034970	0.514138	0.006072
 939	4.6900e-01	9.3774	12.280115	0.000359	3.590669	0.608276	0.007184
 940	4.6950e-01	9.3866	12.291661	0.000115	1.154144	0.195517	0.002309
 941	4.7000e-01	9.3964	12.333568	0.000419	4.189114	0.709655	0.008381
 942	4.7050e-01	9.4067	12.364357	0.000308	3.077716	0.521379	0.006158
 943	4.7100e-01	9.4165	12.403271	0.000389	3.889891	0.658965	0.007783
 944	4.7150e-01	9.4263	12.421231	0.000180	1.795334	0.304138	0.003592
 945	4.7200e-01	9.4392	12.453303	0.000321	3.205954	0.543103	0.006414
 946	4.7250e-01	9.4452	12.476395	0.000231	2.308287	0.391034	0.004618
 947	4.7300e-01	9.4562	12.510177	0.000338	3.376939	0.572069	0.006756
 948	4.7350e-01	9.4666	12.528138	0.000180	1.795334	0.304138	0.003592
 949	4.7400e-01	9.4745	12.562348	0.000342	3.419685	0.579310	0.006842
 950	4.7450e-01	9.4836	12.606821	0.000445	4.445590	0.753103	0.008895
 951	4.7500e-01	9.4940	12.633761	0.000269	2.693002	0.456207	0.005388
 952	4.7550e-01	9.5062	12.647017	0.000133	1.325128	0.224483	0.002651
 953	4.7600e-01	9.5172	12.678234	0.000312	3.120462	0.528621	0.006243
 954	4.7650e-01	9.5255	12.704747	0.000265	2.650256	0.448965	0.005303
 955	4.7700e-01	9.5361	12.738957	0.000342	3.419685	0.579310	0.006842
 956	4.7750e-01	9.5465	12.757772	0.000188	1.880827	0.318621	0.003763
 957	4.7800e-01	9.5563	12.799680	0.000419	4.189114	0.709655	0.008381
 958	4.7850e-01	9.5654	12.806949	0.000073	0.726683	0.123103	0.001454
 959	4.7900e-01	9.5776	12.848001	0.000410	4.103622	0.695172	0.008210
 960	4.7950e-01	9.5856	12.878363	0.000303	3.034970	0.514138	0.006072
 961	4.8000e-01	9.5953	12.912145	0.000338	3.376939	0.572069	0.006756
 962	4.8050e-01	9.6054	12.933954	0.000218	2.180049	0.369310	0.004362
 963	4.8100e-01	9.6155	12.968164	0.000342	3.419685	0.579310	0.006842
 964	4.8150e-01	9.6265	12.990401	0.000222	2.222795	0.376552	0.004447
 965	4.8200e-01	9.6362	13.019907	0.000295	2.949478	0.499655	0.005901
 966	4.8250e-01	9.6454	13.058821	0.000389	3.889891	0.658965	0.007783
 967	4.8300e-01	9.6545	13.093031	0.000342	3.419685	0.579310	0.006842
 968	4.8350e-01	9.6655	13.118688	0.000256	2.564763	0.434483	0.005132
 969	4.8400e-01	9.6768	13.149477	0.000308	3.077716	0.521379	0.006158
 970	4.8450e-01	9.6808	13.175562	0.000261	2.607510	0.441724	0.005217
 971	4.8500e-01	9.6942	13.205924	0.000303	3.034970	0.514138	0.006072
 972	4.8550e-01	9.7040	13.224312	0.000184	1.838080	0.311379	0.003678
 973	4.8600e-01	9.7131	13.255956	0.000316	3.163208	0.535862	0.006329
 974	4.8650e-01	9.7260	13.289738	0.000338	3.376939	0.572069	0.006756
 975	4.8700e-01	9.7351	13.313685	0.000239	2.393779	0.405517	0.004789
 976	4.8750e-01	9.7479	13.350889	0.000372	3.718907	0.630000	0.007441
 977	4.8800e-01	9.7583	13.386382	0.000355	3.547923	0.601034	0.007099
 978	4.8850e-01	9.7665	13.409901	0.000235	2.351033	0.398276	0.004704
 979	4.8900e-01	9.7754	13.428717	0.000188	1.880827	0.318621	0.003763
 980	4.8950e-01	9.7858	13.474472	0.000457	4.573828	0.774827	0.009151
 981	4.9000e-01	9.7961	13.484308	0.000098	0.983159	0.166552	0.001967
 982	4.9050e-01	9.8059	13.523649	0.000393	3.932637	0.666207	0.007868
 983	4.9100e-01	9.8169	13.557004	0.000333	3.334193	0.564828	0.006671
 984	4.9150e-01	9.8236	13.580951	0.000239	2.393779	0.405517	0.004789
 985	4.9200e-01	9.8328	13.634832	0.000539	5.386003	0.912414	0.010776
 986	4.9250e-01	9.8450	13.646805	0.000120	1.196890	0.202759	0.002395
 987	4.9300e-01	9.8547	13.684009	0.000372	3.718907	0.630000	0.007441
 988	4.9350e-01	9.8639	13.704107	0.000201	2.009065	0.340345	0.004020
 989	4.9400e-01	9.8743	13.740883	0.000368	3.676161	0.622759	0.007355
 990	4.9450e-01	9.8846	13.757560	0.000167	1.667096	0.282414	0.003335
 991	4.9500e-01	9.8950	13.801178	0.000436	4.360098	0.738621	0.008724
 992	4.9550e-01	9.9036	13.820849	0.000197	1.966319	0.333103	0.003934
 993	4.9600e-01	9.9158	13.858908	0.000380	3.804399	0.644483	0.007612
 994	4.9650e-01	9.9252	13.893973	0.000351	3.505177	0.593793	0.007013
 995	4.9700e-01	9.9353	13.922196	0.000282	2.821240	0.477931	0.005645
 996	4.9750e-01	9.9426	13.960255	0.000380	3.804399	0.644483	0.007612
 997	4.9800e-01	9.9554	13.988906	0.000286	2.863986	0.485172	0.005730
 998	4.9850e-01	9.9640	14.007721	0.000188	1.880827	0.318621	0.003763
 999	4.9900e-01	9.9771	14.050056	0.000423	4.231860	0.716896	0.008467
1000	4.9950e-01	9.9854	14.074858	0.000248	2.479271	0.420000	0.004960
1001	5.0000e-01	9.9999	14.106075	0.000312	3.120462	0.528621	0.006243
1002	5.0050e-01	9.9841	14.090253	0.000158	1.581604	0.267931	-0.003164
1003	5.0100e-01	9.9774	14.073575	0.000167	1.667096	0.282414	-0.003335
1004	5.0150e-01	9.9664	14.075714	-0.000021	-0.213730	-0.036207	0.000428
1005	5.0200e-01	9.9536	14.068872	0.000068	0.683937	0.115862	-0.001368
1006	5.0250e-01	9.9438	14.048346	0.000205	2.051811	0.347586	-0.004105
1007	5.0300e-01	9.9347	14.035517	0.000128	1.282382	0.217241	-0.002566
1008	5.0350e-01	9.9243	14.051339	-0.000158	-1.581604	-0.267931	0.003164
1009	5.0400e-01	9.9149	14.026109	0.000252	2.522017	0.427241	-0.005046
1010	5.0450e-01	9.9066	14.020122	0.000060	0.598445	0.101379	-0.001197
1011	5.0500e-01	9.8959	14.022260	-0.000021	-0.213730	-0.036207	0.000428
1012	5.0550e-01	9.8846	13.997030	0.000252	2.522017	0.427241	-0.005046
1013	5.0600e-01	9.8749	13.988478	0.000085	0.854921	0.144828	-0.001711
1014	5.0650e-01	9.8657	13.981208	0.000073	0.726683	0.123103	-0.001454
1015	5.0700e-01	9.8547	13.974794	0.000064	0.641191	0.108621	-0.001283
1016	5.0750e-01	9.8450	13.965814	0.000090	0.897667	0.152069	-0.001796
1017	5.0800e-01	9.8343	13.961538	0.000043	0.427461	0.072414	-0.000855
1018	5.0850e-01	9.8285	13.942722	0.000188	1.880827	0.318621	-0.003763
1019	5.0900e-01	9.8132	13.923907	0.000188	1.880827	0.318621	-0.003763
1020	5.0950e-01	9.8087	13.919630	0.000043	0.427461	0.072414	-0.000855
1021	5.1000e-01	9.7949	13.901670	0.000180	1.795334	0.304138	-0.003592
1022	5.1050e-01	9.7882	13.879861	0.000218	2.180049	0.369310	-0.004362
1023	5.1100e-01	9.7748	13.883282	-0.000034	-0.341968	-0.057931	0.000684
1024	5.1150e-01	9.7675	13.872592	0.000107	1.068651	0.181034	-0.002138
1025	5.1200e-01	9.7568	13.844796	0.000278	2.778494	0.470690	-0.005559
1026	5.1250e-01	9.7455	13.837526	0.000073	0.726683	0.123103	-0.001454
1027	5.1300e-01	9.7339	13.835388	0.000021	0.213730	0.036207	-0.000428
1028	5.1350e-01	9.7235	13.816573	0.000188	1.880827	0.318621	-0.003763
1029	5.1400e-01	9.7150	13.817428	-0.000009	-0.085492	-0.014483	0.000171
1030	5.1450e-01	9.7064	13.800323	0.000171	1.709842	0.289655	-0.003421
1031	5.1500e-01	9.6954	13.783645	0.000167	1.667096	0.282414	-0.003335
1032	5.1550e-01	9.6875	13.770389	0.000133	1.325128	0.224483	-0.002651
1033	5.1600e-01	9.6771	13.762264	0.000081	0.812175	0.137586	-0.001625
1034	5.1650e-01	9.6637	13.744304	0.000180	1.795334	0.304138	-0.003592
1035	5.1700e-01	9.6558	13.730620	0.000137	1.367874	0.231724	-0.002737
1036	5.1750e-01	9.6460	13.698548	0.000321	3.205954	0.543103	-0.006414
1037	5.1800e-01	9.6362	13.699403	-0.000009	-0.085492	-0.014483	0.000171
1038	5.1850e-01	9.6252	13.679733	0.000197	1.966319	0.333103	-0.003934
1039	5.1900e-01	9.6185	13.670325	0.000094	0.940413	0.159310	-0.001882
1040	5.1950e-01	9.6039	13.661772	0.000085	0.854921	0.144828	-0.001711
1041	5.2000e-01	9.5953	13.642957	0.000188	1.880827	0.318621	-0.003763
1042	5.2050e-01	9.5874	13.622431	0.000205	2.051811	0.347586	-0.004105
1043	5.2100e-01	9.5755	13.612595	0.000098	0.983159	0.166552	-0.001967
1044	5.2150e-01	9.5660	13.597201	0.000154	1.538858	0.260690	-0.003079
1045	5.2200e-01	9.5575	13.586938	0.000103	1.025905	0.173793	-0.002053
1046	5.2250e-01	9.5459	13.563418	0.000235	2.351033	0.398276	-0.004704
1047	5.2300e-01	9.5377	13.543748	0.000197	1.966319	0.333103	-0.003934
1048	5.2350e-01	9.5264	13.551017	-0.000073	-0.726683	-0.123103	0.001454
1049	5.2400e-01	9.5155	13.520228	0.000308	3.077716	0.521379	-0.006158
1050	5.2450e-01	9.5068	13.503979	0.000162	1.624350	0.275172	-0.003250
1051	5.2500e-01	9.4940	13.485591	0.000184	1.838080	0.311379	-0.003678
1052	5.2550e-01	9.4870	13.480887	0.000047	0.470207	0.079655	-0.000941
1053	5.2600e-01	9.4763	13.462499	0.000184	1.838080	0.311379	-0.003678
1054	5.2650e-01	9.4662	13.450098	0.000124	1.239636	0.210000	-0.002480
1055	5.2700e-01	9.4559	13.428717	0.000214	2.137303	0.362069	-0.004276
1056	5.2750e-01	9.4461	13.413750	0.000150	1.496112	0.253448	-0.002993
1057	5.2800e-01	9.4360	13.393651	0.000201	2.009065	0.340345	-0.004020
1058	5.2850e-01	9.4257	13.388092	0.000056	0.555699	0.094138	-0.001112
1059	5.2900e-01	9.4159	13.376119	0.000120	1.196890	0.202759	-0.002395
1060	5.2950e-01	9.4070	13.354737	0.000214	2.137303	0.362069	-0.004276
1061	5.3000e-01	9.3976	13.341053	0.000137	1.367874	0.231724	-0.002737
1062	5.3050e-01	9.3896	13.319672	0.000214	2.137303	0.362069	-0.004276
1063	5.3100e-01	9.3750	13.308126	0.000115	1.154144	0.195517	-0.002309
1064	5.3150e-01	9.3683	13.294442	0.000137	1.367874	0.231724	-0.002737
1065	5.3200e-01	9.3542	13.278192	0.000162	1.624350	0.275172	-0.003250
1066	5.3250e-01	9.3460	13.254673	0.000235	2.351033	0.398276	-0.004704
1067	5.3300e-01	9.3335	13.246121	0.000085	0.854921	0.144828	-0.001711
1068	5.3350e-01	9.3262	13.232009	0.000141	1.410620	0.238965	-0.002822
1069	5.3400e-01	9.3161	13.208917	0.000231	2.308287	0.391034	-0.004618
1070	5.3450e-01	9.3079	13.190102	0.000188	1.880827	0.318621	-0.003763
1071	5.3500e-01	9.2981	13.175562	0.000145	1.453366	0.246207	-0.002908
1072	5.3550e-01	9.2877	13.154609	0.000209	2.094557	0.354828	-0.004191
1073	5.3600e-01	9.2749	13.142635	0.000120	1.196890	0.202759	-0.002395
1074	5.3650e-01	9.2670	13.126813	0.000158	1.581604	0.267931	-0.003164
1075	5.3700e-01	9.2581	13.103721	0.000231	2.308287	0.391034	-0.004618
1076	5.3750e-01	9.2435	13.104577	-0.000009	-0.085492	-0.014483	0.000171
1077	5.3800e-01	9.2352	13.077209	0.000274	2.735748	0.463448	-0.005474
1078	5.3850e-01	9.2267	13.065663	0.000115	1.154144	0.195517	-0.002309
1079	5.3900e-01	9.2145	13.034446	0.000312	3.120462	0.528621	-0.006243
1080	5.3950e-01	9.2072	13.025038	0.000094	0.940413	0.159310	-0.001882
1081	5.4000e-01	9.1953	13.011354	0.000137	1.367874	0.231724	-0.002737
1082	5.4050e-01	9.1852	12.985697	0.000256	2.564763	0.434483	-0.005132
1083	5.4100e-01	9.1772	12.980565	0.000051	0.512953	0.086897	-0.001026
1084	5.4150e-01	9.1650	12.948493	0.000321	3.205954	0.543103	-0.006414
1085	5.4200e-01	9.1559	12.945928	0.000026	0.256476	0.043448	-0.000513
1086	5.4250e-01	9.1461	12.932244	0.000137	1.367874	0.231724	-0.002737
1087	5.4300e-01	9.1382	12.916849	0.000154	1.538858	0.260690	-0.003079
1088	5.4350e-01	9.1278	12.883067	0.000338	3.376939	0.572069	-0.006756
1089	5.4400e-01	9.1168	12.870238	0.000128	1.282382	0.217241	-0.002566
1090	5.4450e-01	9.1071	12.848429	0.000218	2.180049	0.369310	-0.004362
1091	5.4500e-01	9.0945	12.839449	0.000090	0.897667	0.152069	-0.001796
1092	5.4550e-01	9.0839	12.833034	0.000064	0.641191	0.108621	-0.001283
1093	5.4600e-01	9.0765	12.794976	0.000380	3.804399	0.644483	-0.007612
1094	5.4650e-01	9.0643	12.786851	0.000081	0.812175	0.137586	-0.001625
1095	5.4700e-01	9.0552	12.763759	0.000231	2.308287	0.391034	-0.004618
1096	5.4750e-01	9.0454	12.749220	0.000145	1.453366	0.246207	-0.002908
1097	5.4800e-01	9.0387	12.720997	0.000282	2.821240	0.477931	-0.005645
1098	5.4850e-01	9.0259	12.711589	0.000094	0.940413	0.159310	-0.001882
1099	5.4900e-01	9.0161	12.695767	0.000158	1.581604	0.267931	-0.003164
1100	5.4950e-01	9.0070	12.670537	0.000252	2.522017	0.427241	-0.005046
1101	5.5000e-01	8.9967	12.666261	0.000043	0.427461	0.072414	-0.000855
1102	5.5050e-01	8.9844	12.647873	0.000184	1.838080	0.311379	-0.003678
1103	5.5100e-01	8.9777	12.628202	0.000197	1.966319	0.333103	-0.003934
1104	5.5150e-01	8.9680	12.604255	0.000239	2.393779	0.405517	-0.004789
1105	5.5200e-01	8.9554	12.587578	0.000167	1.667096	0.282414	-0.003335
1106	5.5250e-01	8.9453	12.566196	0.000214	2.137303	0.362069	-0.004276
1107	5.5300e-01	8.9380	12.549519	0.000167	1.667096	0.282414	-0.003335
1108	5.5350e-01	8.9288	12.515309	0.000342	3.419685	0.579310	-0.006842
1109	5.5400e-01	8.9188	12.505901	0.000094	0.940413	0.159310	-0.001882
1110	5.5450e-01	8.9038	12.497349	0.000085	0.854921	0.144828	-0.001711
1111	5.5500e-01	8.8940	12.477250	0.000201	2.009065	0.340345	-0.004020
1112	5.5550e-01	8.8843	12.456297	0.000209	2.094557	0.354828	-0.004191
1113	5.5600e-01	8.8760	12.451165	0.000051	0.512953	0.086897	-0.001026
1114	5.5650e-01	8.8678	12.414817	0.000363	3.633415	0.615517	-0.007270
1115	5.5700e-01	8.8538	12.404126	0.000107	1.068651	0.181034	-0.002138
1116	5.5750e-01	8.8440	12.387877	0.000162	1.624350	0.275172	-0.003250
1117	5.5800e-01	8.8394	12.366068	0.000218	2.180049	0.369310	-0.004362
1118	5.5850e-01	8.8252	12.348107	0.000180	1.795334	0.304138	-0.003592
1119	5.5900e-01	8.8135	12.332285	0.000158	1.581604	0.267931	-0.003164
1120	5.5950e-01	8.8065	12.309194	0.000231	2.308287	0.391034	-0.004618
1121	5.6000e-01	8.7982	12.286957	0.000222	2.222795	0.376552	-0.004447
1122	5.6050e-01	8.7878	12.260872	0.000261	2.607510	0.441724	-0.005217
1123	5.6100e-01	8.7787	12.245905	0.000150	1.496112	0.253448	-0.002993
1124	5.6150e-01	8.7683	12.226662	0.000192	1.923573	0.325862	-0.003849
1125	5.6200e-01	8.7579	12.210412	0.000162	1.624350	0.275172	-0.003250
1126	5.6250e-01	8.7445	12.195445	0.000150	1.496112	0.253448	-0.002993
1127	5.6300e-01	8.7378	12.175774	0.000197	1.966319	0.333103	-0.003934
1128	5.6350e-01	8.7268	12.159952	0.000158	1.581604	0.267931	-0.003164
1129	5.6400e-01	8.7158	12.143703	0.000162	1.624350	0.275172	-0.003250
1130	5.6450e-01	8.7048	12.128308	0.000154	1.538858	0.260690	-0.003079
1131	5.6500e-01	8.6951	12.113769	0.000145	1.453366	0.246207	-0.002908
1132	5.6550e-01	8.6859	12.087684	0.000261	2.607510	0.441724	-0.005217
1133	5.6600e-01	8.6786	12.064164	0.000235	2.351033	0.398276	-0.004704
1134	5.6650e-01	8.6688	12.032520	0.000316	3.163208	0.535862	-0.006329
1135	5.6700e-01	8.6566	12.017553	0.000150	1.496112	0.253448	-0.002993
1136	5.6750e-01	8.6469	12.003869	0.000137	1.367874	0.231724	-0.002737
1137	5.6800e-01	8.6346	11.982060	0.000218	2.180049	0.369310	-0.004362
1138	5.6850e-01	8.6285	11.966666	0.000154	1.538858	0.260690	-0.003079
1139	5.6900e-01	8.6169	11.935877	0.000308	3.077716	0.521379	-0.006158
1140	5.6950e-01	8.6084	11.920482	0.000154	1.538858	0.260690	-0.003079
1141	5.7000e-01	8.5956	11.909792	0.000107	1.068651	0.181034	-0.002138
1142	5.7050e-01	8.5864	11.893969	0.000158	1.581604	0.267931	-0.003164
1143	5.7100e-01	8.5748	11.860615	0.000333	3.334193	0.564828	-0.006671
1144	5.7150e-01	8.5632	11.853345	0.000073	0.726683	0.123103	-0.001454
1145	5.7200e-01	8.5565	11.833674	0.000197	1.966319	0.333103	-0.003934
1146	5.7250e-01	8.5455	11.802030	0.000316	3.163208	0.535862	-0.006329
1147	5.7300e-01	8.5400	11.787063	0.000150	1.496112	0.253448	-0.002993
1148	5.7350e-01	8.5260	11.765682	0.000214	2.137303	0.362069	-0.004276
1149	5.7400e-01	8.5168	11.746866	0.000188	1.880827	0.318621	-0.003763
1150	5.7450e-01	8.5071	11.727196	0.000197	1.966319	0.333103	-0.003934
1151	5.7500e-01	8.4949	11.711801	0.000154	1.538858	0.260690	-0.003079
1152	5.7550e-01	8.4863	11.686144	0.000256	2.564763	0.434483	-0.005132
1153	5.7600e-01	8.4778	11.671604	0.000145	1.453366	0.246207	-0.002908
1154	5.7650e-01	8.4674	11.647230	0.000244	2.436525	0.412759	-0.004875
1155	5.7700e-01	8.4601	11.615158	0.000321	3.205954	0.543103	-0.006414
1156	5.7750e-01	8.4468	11.612164	0.000030	0.299222	0.050690	-0.000599
1157	5.7800e-01	8.4363	11.586079	0.000261	2.607510	0.441724	-0.005217
1158	5.7850e-01	8.4222	11.577954	0.000081	0.812175	0.137586	-0.001625
1159	5.7900e-01	8.4177	11.545882	0.000321	3.205954	0.543103	-0.006414
1160	5.7950e-01	8.4082	11.525784	0.000201	2.009065	0.340345	-0.004020
1161	5.8000e-01	8.3966	11.496278	0.000295	2.949478	0.499655	-0.005901
1162	5.8050e-01	8.3878	11.487298	0.000090	0.897667	0.152069	-0.001796
1163	5.8100e-01	8.3768	11.474041	0.000133	1.325128	0.224483	-0.002651
1164	5.8150e-01	8.3667	11.453088	0.000209	2.094557	0.354828	-0.004191
1165	5.8200e-01	8.3548	11.434272	0.000188	1.880827	0.318621	-0.003763
1166	5.8250e-01	8.3449	11.431279	0.000030	0.299222	0.050690	-0.000599
1167	5.8300e-01	8.3365	11.395358	0.000359	3.590669	0.608276	-0.007184
1168	5.8350e-01	8.3273	11.368418	0.000269	2.693002	0.456207	-0.005388
1169	5.8400e-01	8.3167	11.347464	0.000209	2.094557	0.354828	-0.004191
1170	5.8450e-01	8.3069	11.321807	0.000256	2.564763	0.434483	-0.005132
1171	5.8500e-01	8.2953	11.310261	0.000115	1.154144	0.195517	-0.002309
1172	5.8550e-01	8.2880	11.288880	0.000214	2.137303	0.362069	-0.004276
1173	5.8600e-01	8.2745	11.270492	0.000184	1.838080	0.311379	-0.003678
1174	5.8650e-01	8.2648	11.255097	0.000154	1.538858	0.260690	-0.003079
1175	5.8700e-01	8.2544	11.237992	0.000171	1.709842	0.289655	-0.003421
1176	5.8750e-01	8.2483	11.202927	0.000351	3.505177	0.593793	-0.007013
1177	5.8800e-01	8.2373	11.191381	0.000115	1.154144	0.195517	-0.002309
1178	5.8850e-01	8.2266	11.164868	0.000265	2.650256	0.448965	-0.005303
1179	5.8900e-01	8.2166	11.141777	0.000231	2.308287	0.391034	-0.004618
1180	5.8950e-01	8.2062	11.123816	0.000180	1.795334	0.304138	-0.003592
1181	5.9000e-01	8.1958	11.104146	0.000197	1.966319	0.333103	-0.003934
1182	5.9050e-01	8.1842	11.097731	0.000064	0.641191	0.108621	-0.001283
1183	5.9100e-01	8.1781	11.065232	0.000325	3.248700	0.550345	-0.006500
1184	5.9150e-01	8.1656	11.041285	0.000239	2.393779	0.405517	-0.004789
1185	5.9200e-01	8.1555	11.031877	0.000094	0.940413	0.159310	-0.001882
1186	5.9250e-01	8.1458	11.007075	0.000248	2.479271	0.420000	-0.004960
1187	5.9300e-01	8.1332	10.970726	0.000363	3.633415	0.615517	-0.007270
1188	5.9350e-01	8.1250	10.958325	0.000124	1.239636	0.210000	-0.002480
1189	5.9400e-01	8.1165	10.945069	0.000133	1.325128	0.224483	-0.002651
1190	5.9450e-01	8.1070	10.915563	0.000295	2.949478	0.499655	-0.005901
1191	5.9500e-01	8.0994	10.889050	0.000265	2.650256	0.448965	-0.005303
1192	5.9550e-01	8.0862	10.887339	0.000017	0.170984	0.028966	-0.000342
1193	5.9600e-01	8.0762	10.856550	0.000308	3.077716	0.521379	-0.006158
1194	5.9650e-01	8.0658	10.833031	0.000235	2.351033	0.398276	-0.004704
1195	5.9700e-01	8.0551	10.809939	0.000231	2.308287	0.391034	-0.004618
1196	5.9750e-01	8.0472	10.802242	0.000077	0.769429	0.130345	-0.001539
1197	5.9800e-01	8.0341	10.778295	0.000239	2.393779	0.405517	-0.004789
1198	5.9850e-01	8.0267	10.761618	0.000167	1.667096	0.282414	-0.003335
1199	5.9900e-01	8.0145	10.733394	0.000282	2.821240	0.477931	-0.005645
1200	5.9950e-01	8.0084	10.703888	0.000295	2.949478	0.499655	-0.005901
1201	6.0000e-01	7.9974	10.691915	0.000120	1.196890	0.202759	-0.002395
1202	6.0050e-01	7.9846	10.669251	0.000227	2.265541	0.383793	-0.004533
1203	6.0100e-01	7.9755	10.653001	0.000162	1.624350	0.275172	-0.003250
1204	6.0150e-01	7.9660	10.629909	0.000231	2.308287	0.391034	-0.004618
1205	6.0200e-01	7.9565	10.608955	0.000209	2.094557	0.354828	-0.004191
1206	6.0250e-01	7.9456	10.582443	0.000265	2.650256	0.448965	-0.005303
1207	6.0300e-01	7.9379	10.569186	0.000133	1.325128	0.224483	-0.002651
1208	6.0350e-01	7.9242	10.550371	0.000188	1.880827	0.318621	-0.003763
1209	6.0400e-01	7.9164	10.520437	0.000299	2.992224	0.506896	-0.005987
1210	6.0450e-01	7.9065	10.494352	0.000261	2.607510	0.441724	-0.005217
1211	6.0500e-01	7.8983	10.472971	0.000214	2.137303	0.362069	-0.004276
1212	6.0550e-01	7.8876	10.452017	0.000209	2.094557	0.354828	-0.004191
1213	6.0600e-01	7.8748	10.439616	0.000124	1.239636	0.210000	-0.002480
1214	6.0650e-01	7.8659	10.431063	0.000085	0.854921	0.144828	-0.001711
1215	6.0700e-01	7.8577	10.399419	0.000316	3.163208	0.535862	-0.006329
1216	6.0750e-01	7.8467	10.366064	0.000333	3.334193	0.564828	-0.006671
1217	6.0800e-01	7.8381	10.357084	0.000090	0.897667	0.152069	-0.001796
1218	6.0850e-01	7.8271	10.348104	0.000090	0.897667	0.152069	-0.001796
1219	6.0900e-01	7.8159	10.310901	0.000372	3.718907	0.630000	-0.007441
1220	6.0950e-01	7.8058	10.295506	0.000154	1.538858	0.260690	-0.003079
1221	6.1000e-01	7.7956	10.272842	0.000227	2.265541	0.383793	-0.004533
1222	6.1050e-01	7.7853	10.245474	0.000274	2.735748	0.463448	-0.005474
1223	6.1100e-01	7.7747	10.237777	0.000077	0.769429	0.130345	-0.001539
1224	6.1150e-01	7.7655	10.208271	0.000295	2.949478	0.499655	-0.005901
1225	6.1200e-01	7.7554	10.177054	0.000312	3.120462	0.528621	-0.006243
1226	6.1250e-01	7.7441	10.166363	0.000107	1.068651	0.181034	-0.002138
1227	6.1300e-01	7.7380	10.139851	0.000265	2.650256	0.448965	-0.005303
1228	6.1350e-01	7.7295	10.118042	0.000218	2.180049	0.369310	-0.004362
1229	6.1400e-01	7.7155	10.109489	0.000085	0.854921	0.144828	-0.001711
1230	6.1450e-01	7.7072	10.060740	0.000487	4.873051	0.825517	-0.009750
1231	6.1500e-01	7.6953	10.058602	0.000021	0.213730	0.036207	-0.000428
1232	6.1550e-01	7.6843	10.034227	0.000244	2.436525	0.412759	-0.004875
1233	6.1600e-01	7.6758	10.007287	0.000269	2.693002	0.456207	-0.005388
1234	6.1650e-01	7.6666	9.985905	0.000214	2.137303	0.362069	-0.004276
1235	6.1700e-01	7.6563	9.963241	0.000227	2.265541	0.383793	-0.004533
1236	6.1750e-01	7.6453	9.948274	0.000150	1.496112	0.253448	-0.002993
1237	6.1800e-01	7.6361	9.920479	0.000278	2.778494	0.470690	-0.005559
1238	6.1850e-01	7.6245	9.905512	0.000150	1.496112	0.253448	-0.002993
1239	6.1900e-01	7.6178	9.886269	0.000192	1.923573	0.325862	-0.003849
1240	6.1950e-01	7.6071	9.858045	0.000282	2.821240	0.477931	-0.005645
1241	6.2000e-01	7.5970	9.834526	0.000235	2.351033	0.398276	-0.004704
1242	6.2050e-01	7.5848	9.813145	0.000214	2.137303	0.362069	-0.004276
1243	6.2100e-01	7.5772	9.791764	0.000214	2.137303	0.362069	-0.004276
1244	6.2150e-01	7.5653	9.760975	0.000308	3.077716	0.521379	-0.006158
1245	6.2200e-01	7.5543	9.778507	-0.000175	-1.752588	-0.296897	0.003507
1246	6.2250e-01	7.5491	9.729758	0.000487	4.873051	0.825517	-0.009750
1247	6.2300e-01	7.5348	9.704528	0.000252	2.522017	0.427241	-0.005046
1248	6.2350e-01	7.5250	9.684430	0.000201	2.009065	0.340345	-0.004020
1249	6.2400e-01	7.5171	9.666469	0.000180	1.795334	0.304138	-0.003592
1250	6.2450e-01	7.5058	9.636963	0.000295	2.949478	0.499655	-0.005901
1251	6.2500e-01	7.4957	9.626700	0.000103	1.025905	0.173793	-0.002053
1252	6.2550e-01	7.4872	9.609595	0.000171	1.709842	0.289655	-0.003421
1253	6.2600e-01	7.4765	9.577096	0.000325	3.248700	0.550345	-0.006500
1254	6.2650e-01	7.4673	9.550155	0.000269	2.693002	0.456207	-0.005388
1255	6.2700e-01	7.4545	9.539037	0.000111	1.111398	0.188276	-0.002224
1256	6.2750e-01	7.4438	9.516373	0.000227	2.265541	0.383793	-0.004533
1257	6.2800e-01	7.4365	9.491998	0.000244	2.436525	0.412759	-0.004875
1258	6.2850e-01	7.4255	9.480452	0.000115	1.154144	0.195517	-0.002309
1259	6.2900e-01	7.4174	9.451374	0.000291	2.906732	0.492414	-0.005816
1260	6.2950e-01	7.4055	9.424006	0.000274	2.735748	0.463448	-0.005474
1261	6.3000e-01	7.3969	9.396638	0.000274	2.735748	0.463448	-0.005474
1262	6.3050e-01	7.3865	9.392362	0.000043	0.427461	0.072414	-0.000855
1263	6.3100e-01	7.3752	9.347033	0.000453	4.531082	0.767586	-0.009066
1264	6.3150e-01	7.3648	9.332922	0.000141	1.410620	0.238965	-0.002822
1265	6.3200e-01	7.3566	9.328218	0.000047	0.470207	0.079655	-0.000941
1266	6.3250e-01	7.3419	9.304698	0.000235	2.351033	0.398276	-0.004704
1267	6.3300e-01	7.3361	9.277758	0.000269	2.693002	0.456207	-0.005388
1268	6.3350e-01	7.3248	9.258087	0.000197	1.966319	0.333103	-0.003934
1269	6.3400e-01	7.3157	9.229864	0.000282	2.821240	0.477931	-0.005645
1270	6.3450e-01	7.3085	9.189667	0.000402	4.018129	0.680690	-0.008039
1271	6.3500e-01	7.2968	9.177694	0.000120	1.196890	0.202759	-0.002395
1272	6.3550e-01	7.2867	9.165293	0.000124	1.239636	0.210000	-0.002480
1273	6.3600e-01	7.2784	9.143911	0.000214	2.137303	0.362069	-0.004276
1274	6.3650e-01	7.2653	9.111839	0.000321	3.205954	0.543103	-0.006414
1275	6.3700e-01	7.2546	9.094734	0.000171	1.709842	0.289655	-0.003421
1276	6.3750e-01	7.2473	9.064373	0.000303	3.034970	0.514138	-0.006072
1277	6.3800e-01	7.2330	9.054538	0.000098	0.983159	0.166552	-0.001967
1278	6.3850e-01	7.2235	9.034439	0.000201	2.009065	0.340345	-0.004020
1279	6.3900e-01	7.2183	9.015196	0.000192	1.923573	0.325862	-0.003849
1280	6.3950e-01	7.2076	8.987400	0.000278	2.778494	0.470690	-0.005559
1281	6.4000e-01	7.1964	8.969868	0.000175	1.752588	0.296897	-0.003507
1282	6.4050e-01	7.1866	8.937796	0.000321	3.205954	0.543103	-0.006414
1283	6.4100e-01	7.1780	8.902731	0.000351	3.505177	0.593793	-0.007013
1284	6.4150e-01	7.1667	8.892040	0.000107	1.068651	0.181034	-0.002138
1285	6.4200e-01	7.1570	8.850988	0.000410	4.103622	0.695172	-0.008210
1286	6.4250e-01	7.1448	8.853554	-0.000026	-0.256476	-0.043448	0.000513
1287	6.4300e-01	7.1332	8.847567	0.000060	0.598445	0.101379	-0.001197
1288	6.4350e-01	7.1271	8.807798	0.000398	3.975383	0.673448	-0.007954
1289	6.4400e-01	7.1179	8.785989	0.000218	2.180049	0.369310	-0.004362
1290	6.4450e-01	7.1051	8.778292	0.000077	0.769429	0.130345	-0.001539
1291	6.4500e-01	7.0966	8.738522	0.000398	3.975383	0.673448	-0.007954
1292	6.4550e-01	7.0856	8.723128	0.000154	1.538858	0.260690	-0.003079
1293	6.4600e-01	7.0770	8.689773	0.000333	3.334193	0.564828	-0.006671
1294	6.4650e-01	7.0648	8.671385	0.000184	1.838080	0.311379	-0.003678
1295	6.4700e-01	7.0575	8.650004	0.000214	2.137303	0.362069	-0.004276
1296	6.4750e-01	7.0471	8.630761	0.000192	1.923573	0.325862	-0.003849
1297	6.4800e-01	7.0380	8.596979	0.000338	3.376939	0.572069	-0.006756
1298	6.4850e-01	7.0255	8.579018	0.000180	1.795334	0.304138	-0.003592
1299	6.4900e-01	7.0157	8.561486	0.000175	1.752588	0.296897	-0.003507
1300	6.4950e-01	7.0050	8.545236	0.000162	1.624350	0.275172	-0.003250
1301	6.5000e-01	6.9965	8.524710	0.000205	2.051811	0.347586	-0.004105
1302	6.5050e-01	6.9867	8.483230	0.000415	4.146368	0.702414	-0.008296
1303	6.5100e-01	6.9763	8.478099	0.000051	0.512953	0.086897	-0.001026
1304	6.5150e-01	6.9644	8.449020	0.000291	2.906732	0.492414	-0.005816
1305	6.5200e-01	6.9537	8.427211	0.000218	2.180049	0.369310	-0.004362
1306	6.5250e-01	6.9458	8.406685	0.000205	2.051811	0.347586	-0.004105
1307	6.5300e-01	6.9324	8.386159	0.000205	2.051811	0.347586	-0.004105
1308	6.5350e-01	6.9250	8.361785	0.000244	2.436525	0.412759	-0.004875
1309	6.5400e-01	6.9159	8.336555	0.000252	2.522017	0.427241	-0.005046
1310	6.5450e-01	6.9055	8.304910	0.000316	3.163208	0.535862	-0.006329
1311	6.5500e-01	6.8976	8.286523	0.000184	1.838080	0.311379	-0.003678
1312	6.5550e-01	6.8842	8.274977	0.000115	1.154144	0.195517	-0.002309
1313	6.5600e-01	6.8762	8.245471	0.000295	2.949478	0.499655	-0.005901
1314	6.5650e-01	6.8658	8.222806	0.000227	2.265541	0.383793	-0.004533
1315	6.5700e-01	6.8561	8.188169	0.000346	3.462431	0.586552	-0.006928
1316	6.5750e-01	6.8463	8.181754	0.000064	0.641191	0.108621	-0.001283
1317	6.5800e-01	6.8365	8.145406	0.000363	3.633415	0.615517	-0.007270
1318	6.5850e-01	6.8283	8.133433	0.000120	1.196890	0.202759	-0.002395
1319	6.5900e-01	6.8164	8.106492	0.000269	2.693002	0.456207	-0.005388
1320	6.5950e-01	6.8074	8.079980	0.000265	2.650256	0.448965	-0.005303
1321	6.6000e-01	6.7963	8.065868	0.000141	1.410620	0.238965	-0.002822
1322	6.6050e-01	6.7818	8.046197	0.000197	1.966319	0.333103	-0.003934
1323	6.6100e-01	6.7737	8.025244	0.000209	2.094557	0.354828	-0.004191
1324	6.6150e-01	6.7657	7.993172	0.000321	3.205954	0.543103	-0.006414
1325	6.6200e-01	6.7535	7.972646	0.000205	2.051811	0.347586	-0.004105
1326	6.6250e-01	6.7459	7.952975	0.000197	1.966319	0.333103	-0.003934
1327	6.6300e-01	6.7371	7.926890	0.000261	2.607510	0.441724	-0.005217
1328	6.6350e-01	6.7285	7.901660	0.000252	2.522017	0.427241	-0.005046
1329	6.6400e-01	6.7157	7.894818	0.000068	0.683937	0.115862	-0.001368
1330	6.6450e-01	6.7102	7.851628	0.000432	4.317352	0.731379	-0.008638
1331	6.6500e-01	6.6937	7.842648	0.000090	0.897667	0.152069	-0.001796
1332	6.6550e-01	6.6849	7.806727	0.000359	3.590669	0.608276	-0.007184
1333	6.6600e-01	6.6763	7.788767	0.000180	1.795334	0.304138	-0.003592
1334	6.6650e-01	6.6669	7.770379	0.000184	1.838080	0.311379	-0.003678
1335	6.6700e-01	6.6559	7.733603	0.000368	3.676161	0.622759	-0.007355
1336	6.6750e-01	6.6486	7.713932	0.000197	1.966319	0.333103	-0.003934
1337	6.6800e-01	6.6364	7.699821	0.000141	1.410620	0.238965	-0.002822
1338	6.6850e-01	6.6281	7.667749	0.000321	3.205954	0.543103	-0.006414
1339	6.6900e-01	6.6171	7.646795	0.000209	2.094557	0.354828	-0.004191
1340	6.6950e-01	6.6048	7.625414	0.000214	2.137303	0.362069	-0.004276
1341	6.7000e-01	6.5967	7.595053	0.000303	3.034970	0.514138	-0.006072
1342	6.7050e-01	6.5869	7.581796	0.000133	1.325128	0.224483	-0.002651
1343	6.7100e-01	6.5759	7.550152	0.000316	3.163208	0.535862	-0.006329
1344	6.7150e-01	6.5677	7.539034	0.000111	1.111398	0.188276	-0.002224
1345	6.7200e-01	6.5561	7.521073	0.000180	1.795334	0.304138	-0.003592
1346	6.7250e-01	6.5460	7.487719	0.000333	3.334193	0.564828	-0.006671
1347	6.7300e-01	6.5363	7.462061	0.000256	2.564763	0.434483	-0.005132
1348	6.7350e-01	6.5273	7.444956	0.000171	1.709842	0.289655	-0.003421
1349	6.7400e-01	6.5173	7.420154	0.000248	2.479271	0.420000	-0.004960
1350	6.7450e-01	6.5053	7.397490	0.000227	2.265541	0.383793	-0.004533
1351	6.7500e-01	6.4963	7.367983	0.000295	2.949478	0.499655	-0.005901
1352	6.7550e-01	6.4850	7.347457	0.000205	2.051811	0.347586	-0.004105
1353	6.7600e-01	6.4746	7.318807	0.000286	2.863986	0.485172	-0.005730
1354	6.7650e-01	6.4655	7.299991	0.000188	1.880827	0.318621	-0.003763
1355	6.7700e-01	6.4563	7.283741	0.000162	1.624350	0.275172	-0.003250
1356	6.7750e-01	6.4461	7.258084	0.000256	2.564763	0.434483	-0.005132
1357	6.7800e-01	6.4362	7.226867	0.000312	3.120462	0.528621	-0.006243
1358	6.7850e-01	6.4279	7.206769	0.000201	2.009065	0.340345	-0.004020
1359	6.7900e-01	6.4178	7.175124	0.000316	3.163208	0.535862	-0.006329
1360	6.7950e-01	6.4066	7.149895	0.000252	2.522017	0.427241	-0.005046
1361	6.8000e-01	6.3953	7.132362	0.000175	1.752588	0.296897	-0.003507
1362	6.8050e-01	6.3828	7.127658	0.000047	0.470207	0.079655	-0.000941
1363	6.8100e-01	6.3770	7.096869	0.000308	3.077716	0.521379	-0.006158
1364	6.8150e-01	6.3678	7.069929	0.000269	2.693002	0.456207	-0.005388
1365	6.8200e-01	6.3586	7.054534	0.000154	1.538858	0.260690	-0.003079
1366	6.8250e-01	6.3446	7.022462	0.000321	3.205954	0.543103	-0.006414
1367	6.8300e-01	6.3354	6.991246	0.000312	3.120462	0.528621	-0.006243
1368	6.8350e-01	6.3257	6.977989	0.000133	1.325128	0.224483	-0.002651
1369	6.8400e-01	6.3135	6.948055	0.000299	2.992224	0.506896	-0.005987
1370	6.8450e-01	6.3062	6.922398	0.000256	2.564763	0.434483	-0.005132
1371	6.8500e-01	6.2952	6.906576	0.000158	1.581604	0.267931	-0.003164
1372	6.8550e-01	6.2845	6.885195	0.000214	2.137303	0.362069	-0.004276
1373	6.8600e-01	6.2732	6.857399	0.000278	2.778494	0.470690	-0.005559
1374	6.8650e-01	6.2662	6.828320	0.000291	2.906732	0.492414	-0.005816
1375	6.8700e-01	6.2552	6.798814	0.000295	2.949478	0.499655	-0.005901
1376	6.8750e-01	6.2451	6.785985	0.000128	1.282382	0.217241	-0.002566
1377	6.8800e-01	6.2360	6.760328	0.000256	2.564763	0.434483	-0.005132
1378	6.8850e-01	6.2253	6.733815	0.000265	2.650256	0.448965	-0.005303
1379	6.8900e-01	6.2167	6.713717	0.000201	2.009065	0.340345	-0.004020
1380	6.8950e-01	6.2061	6.690625	0.000231	2.308287	0.391034	-0.004618
1381	6.9000e-01	6.1952	6.660691	0.000299	2.992224	0.506896	-0.005987
1382	6.9050e-01	6.1868	6.654277	0.000064	0.641191	0.108621	-0.001283
1383	6.9100e-01	6.1774	6.620922	0.000333	3.334193	0.564828	-0.006671
1384	6.9150e-01	6.1649	6.600824	0.000201	2.009065	0.340345	-0.004020
1385	6.9200e-01	6.1557	6.574739	0.000261	2.607510	0.441724	-0.005217
1386	6.9250e-01	6.1456	6.545232	0.000295	2.949478	0.499655	-0.005901
1387	6.9300e-01	6.1359	6.519575	0.000256	2.564763	0.434483	-0.005132
1388	6.9350e-01	6.1285	6.496056	0.000235	2.351033	0.398276	-0.004704
1389	6.9400e-01	6.1166	6.471253	0.000248	2.479271	0.420000	-0.004960
1390	6.9450e-01	6.1069	6.448162	0.000231	2.308287	0.391034	-0.004618
1391	6.9500e-01	6.0974	6.436616	0.000115	1.154144	0.195517	-0.002309
1392	6.9550e-01	6.0867	6.406254	0.000303	3.034970	0.514138	-0.006072
1393	6.9600e-01	6.0760	6.374182	0.000321	3.205954	0.543103	-0.006414
1394	6.9650e-01	6.0632	6.367340	0.000068	0.683937	0.115862	-0.001368
1395	6.9700e-01	6.0571	6.335696	0.000316	3.163208	0.535862	-0.006329
1396	6.9750e-01	6.0468	6.302341	0.000333	3.334193	0.564828	-0.006671
1397	6.9800e-01	6.0367	6.285664	0.000167	1.667096	0.282414	-0.003335
1398	6.9850e-01	6.0263	6.247605	0.000380	3.804399	0.644483	-0.007612
1399	6.9900e-01	6.0172	6.238625	0.000090	0.897667	0.152069	-0.001796
1400	6.9950e-01	6.0049	6.220237	0.000184	1.838080	0.311379	-0.003678
1401	7.0000e-01	5.9967	6.190731	0.000295	2.949478	0.499655	-0.005901
1402	7.0050e-01	5.9845	6.166784	0.000239	2.393779	0.405517	-0.004789
1403	7.0100e-01	5.9751	6.139416	0.000274	2.735748	0.463448	-0.005474
1404	7.0150e-01	5.9668	6.124449	0.000150	1.496112	0.253448	-0.002993
1405	7.0200e-01	5.9544	6.093233	0.000312	3.120462	0.528621	-0.006243
1406	7.0250e-01	5.9454	6.075700	0.000175	1.752588	0.296897	-0.003507
1407	7.0300e-01	5.9351	6.044483	0.000312	3.120462	0.528621	-0.006243
1408	7.0350e-01	5.9259	6.023102	0.000214	2.137303	0.362069	-0.004276
1409	7.0400e-01	5.9167	6.008990	0.000141	1.410620	0.238965	-0.002822
1410	7.0450e-01	5.9073	5.968794	0.000402	4.018129	0.680690	-0.008039
1411	7.0500e-01	5.8966	5.955537	0.000133	1.325128	0.224483	-0.002651
1412	7.0550e-01	5.8859	5.931590	0.000239	2.393779	0.405517	-0.004789
1413	7.0600e-01	5.8774	5.887545	0.000440	4.402844	0.745862	-0.008809
1414	7.0650e-01	5.8673	5.875999	0.000115	1.154144	0.195517	-0.002309
1415	7.0700e-01	5.8563	5.855045	0.000209	2.094557	0.354828	-0.004191
1416	7.0750e-01	5.8459	5.831526	0.000235	2.351033	0.398276	-0.004704
1417	7.0800e-01	5.8362	5.801592	0.000299	2.992224	0.506896	-0.005987
1418	7.0850e-01	5.8258	5.785342	0.000162	1.624350	0.275172	-0.003250
1419	7.0900e-01	5.8170	5.758402	0.000269	2.693002	0.456207	-0.005388
1420	7.0950e-01	5.8060	5.731034	0.000274	2.735748	0.463448	-0.005474
1421	7.1000e-01	5.7941	5.707515	0.000235	2.351033	0.398276	-0.004704
1422	7.1050e-01	5.7843	5.695113	0.000124	1.239636	0.210000	-0.002480
1423	7.1100e-01	5.7739	5.664752	0.000303	3.034970	0.514138	-0.006072
1424	7.1150e-01	5.7654	5.648930	0.000158	1.581604	0.267931	-0.003164
1425	7.1200e-01	5.7526	5.610871	0.000380	3.804399	0.644483	-0.007612
1426	7.1250e-01	5.7465	5.591628	0.000192	1.923573	0.325862	-0.003849
1427	7.1300e-01	5.7367	5.568536	0.000231	2.308287	0.391034	-0.004618
1428	7.1350e-01	5.7269	5.544162	0.000244	2.436525	0.412759	-0.004875
1429	7.1400e-01	5.7172	5.509952	0.000342	3.419685	0.579310	-0.006842
1430	7.1450e-01	5.7089	5.489853	0.000201	2.009065	0.340345	-0.004020
1431	7.1500e-01	5.6967	5.458637	0.000312	3.120462	0.528621	-0.006243
1432	7.1550e-01	5.6851	5.443670	0.000150	1.496112	0.253448	-0.002993
1433	7.1600e-01	5.6775	5.422288	0.000214	2.137303	0.362069	-0.004276
1434	7.1650e-01	5.6648	5.399197	0.000231	2.308287	0.391034	-0.004618
1435	7.1700e-01	5.6577	5.362421	0.000368	3.676161	0.622759	-0.007355
1436	7.1750e-01	5.6464	5.345744	0.000167	1.667096	0.282414	-0.003335
1437	7.1800e-01	5.6360	5.326073	0.000197	1.966319	0.333103	-0.003934
1438	7.1850e-01	5.6287	5.306830	0.000192	1.923573	0.325862	-0.003849
1439	7.1900e-01	5.6140	5.284593	0.000222	2.222795	0.376552	-0.004447
1440	7.1950e-01	5.6070	5.254232	0.000303	3.034970	0.514138	-0.006072
1441	7.2000e-01	5.5963	5.214035	0.000402	4.018129	0.680690	-0.008039
1442	7.2050e-01	5.5847	5.187950	0.000261	2.607510	0.441724	-0.005217
1443	7.2100e-01	5.5768	5.178114	0.000098	0.983159	0.166552	-0.001967
1444	7.2150e-01	5.5643	5.158871	0.000192	1.923573	0.325862	-0.003849
1445	7.2200e-01	5.5569	5.132359	0.000265	2.650256	0.448965	-0.005303
1446	7.2250e-01	5.5444	5.094300	0.000380	3.804399	0.644483	-0.007612
1447	7.2300e-01	5.5371	5.071208	0.000231	2.308287	0.391034	-0.004618
1448	7.2350e-01	5.5273	5.045123	0.000261	2.607510	0.441724	-0.005217
1449	7.2400e-01	5.5170	5.022031	0.000231	2.308287	0.391034	-0.004618
1450	7.2450e-01	5.5067	4.998939	0.000231	2.308287	0.391034	-0.004618
1451	7.2500e-01	5.4974	4.964729	0.000342	3.419685	0.579310	-0.006842
1452	7.2550e-01	5.4860	4.950190	0.000145	1.453366	0.246207	-0.002908
1453	7.2600e-01	5.4755	4.920256	0.000299	2.992224	0.506896	-0.005987
1454	7.2650e-01	5.4652	4.900586	0.000197	1.966319	0.333103	-0.003934
1455	7.2700e-01	5.4565	4.875356	0.000252	2.522017	0.427241	-0.005046
1456	7.2750e-01	5.4462	4.864665	0.000107	1.068651	0.181034	-0.002138
1457	7.2800e-01	5.4346	4.842001	0.000227	2.265541	0.383793	-0.004533
1458	7.2850e-01	5.4254	4.797956	0.000440	4.402844	0.745862	-0.008809
1459	7.2900e-01	5.4144	4.776574	0.000214	2.137303	0.362069	-0.004276
1460	7.2950e-01	5.4083	4.755621	0.000209	2.094557	0.354828	-0.004191
1461	7.3000e-01	5.3973	4.732957	0.000227	2.265541	0.383793	-0.004533
1462	7.3050e-01	5.3865	4.699602	0.000333	3.334193	0.564828	-0.006671
1463	7.3100e-01	5.3774	4.679076	0.000205	2.051811	0.347586	-0.004105
1464	7.3150e-01	5.3659	4.661543	0.000175	1.752588	0.296897	-0.003507
1465	7.3200e-01	5.3577	4.628616	0.000329	3.291446	0.557586	-0.006585
1466	7.3250e-01	5.3473	4.604669	0.000239	2.393779	0.405517	-0.004789
1467	7.3300e-01	5.3354	4.592695	0.000120	1.196890	0.202759	-0.002395
1468	7.3350e-01	5.3271	4.550788	0.000419	4.189114	0.709655	-0.008381
1469	7.3400e-01	5.3149	4.530690	0.000201	2.009065	0.340345	-0.004020
1470	7.3450e-01	5.3058	4.513585	0.000171	1.709842	0.289655	-0.003421
1471	7.3500e-01	5.2972	4.483223	0.000303	3.034970	0.514138	-0.006072
1472	7.3550e-01	5.2841	4.461414	0.000218	2.180049	0.369310	-0.004362
1473	7.3600e-01	5.2771	4.428915	0.000325	3.248700	0.550345	-0.006500
1474	7.3650e-01	5.2652	4.400692	0.000282	2.821240	0.477931	-0.005645
1475	7.3700e-01	5.2536	4.385725	0.000150	1.496112	0.253448	-0.002993
1476	7.3750e-01	5.2441	4.359640	0.000261	2.607510	0.441724	-0.005217
1477	7.3800e-01	5.2338	4.339969	0.000197	1.966319	0.333103	-0.003934
1478	7.3850e-01	5.2258	4.302338	0.000376	3.761653	0.637241	-0.007526
1479	7.3900e-01	5.2161	4.272832	0.000295	2.949478	0.499655	-0.005901
1480	7.3950e-01	5.2046	4.256154	0.000167	1.667096	0.282414	-0.003335
1481	7.4000e-01	5.1968	4.234345	0.000218	2.180049	0.369310	-0.004362
1482	7.4050e-01	5.1852	4.203129	0.000312	3.120462	0.528621	-0.006243
1483	7.4100e-01	5.1752	4.180892	0.000222	2.222795	0.376552	-0.004447
1484	7.4150e-01	5.1654	4.158656	0.000222	2.222795	0.376552	-0.004447
1485	7.4200e-01	5.1556	4.131288	0.000274	2.735748	0.463448	-0.005474
1486	7.4250e-01	5.1454	4.102637	0.000286	2.863986	0.485172	-0.005730
1487	7.4300e-01	5.1343	4.080400	0.000222	2.222795	0.376552	-0.004447
1488	7.4350e-01	5.1279	4.051749	0.000286	2.863986	0.485172	-0.005730
1489	7.4400e-01	5.1141	4.039348	0.000124	1.239636	0.210000	-0.002480
1490	7.4450e-01	5.1077	4.001290	0.000380	3.804399	0.644483	-0.007612
1491	7.4500e-01	5.0940	3.986323	0.000150	1.496112	0.253448	-0.002993
1492	7.4550e-01	5.0836	3.964086	0.000222	2.222795	0.376552	-0.004447
1493	7.4600e-01	5.0769	3.913199	0.000509	5.086781	0.861724	-0.010177
1494	7.4650e-01	5.0690	3.901653	0.000115	1.154144	0.195517	-0.002309
1495	7.4700e-01	5.0574	3.876851	0.000248	2.479271	0.420000	-0.004960
1496	7.4750e-01	5.0491	3.847772	0.000291	2.906732	0.492414	-0.005816
1497	7.4800e-01	5.0345	3.840503	0.000073	0.726683	0.123103	-0.001454
1498	7.4850e-01	5.0296	3.811852	0.000286	2.863986	0.485172	-0.005730
1499	7.4900e-01	5.0159	3.778497	0.000333	3.334193	0.564828	-0.006671
1500	7.4950e-01	5.0055	3.745997	0.000325	3.248700	0.550345	-0.006500
1501	7.5000e-01	4.9945	3.729748	0.000162	1.624350	0.275172	-0.003250
1502	7.5050e-01	4.9866	3.692972	0.000368	3.676161	0.622759	-0.007355
1503	7.5100e-01	4.9759	3.677577	0.000154	1.538858	0.260690	-0.003079
1504	7.5150e-01	4.9658	3.655768	0.000218	2.180049	0.369310	-0.004362
1505	7.5200e-01	4.9542	3.638236	0.000175	1.752588	0.296897	-0.003507
1506	7.5250e-01	4.9454	3.592908	0.000453	4.531082	0.767586	-0.009066
1507	7.5300e-01	4.9359	3.575803	0.000171	1.709842	0.289655	-0.003421
1508	7.5350e-01	4.9277	3.554849	0.000209	2.094557	0.354828	-0.004191
1509	7.5400e-01	4.9182	3.523205	0.000316	3.163208	0.535862	-0.006329
1510	7.5450e-01	4.9103	3.489422	0.000338	3.376939	0.572069	-0.006756
1511	7.5500e-01	4.8978	3.481725	0.000077	0.769429	0.130345	-0.001539
1512	7.5550e-01	4.8849	3.458206	0.000235	2.351033	0.398276	-0.004704
1513	7.5600e-01	4.8776	3.423140	0.000351	3.505177	0.593793	-0.007013
1514	7.5650e-01	4.8663	3.397483	0.000256	2.564763	0.434483	-0.005132
1515	7.5700e-01	4.8578	3.373963	0.000235	2.351033	0.398276	-0.004704
1516	7.5750e-01	4.8450	3.339326	0.000346	3.462431	0.586552	-0.006928
1517	7.5800e-01	4.8398	3.324787	0.000145	1.453366	0.246207	-0.002908
1518	7.5850e-01	4.8242	3.270906	0.000539	5.386003	0.912414	-0.010776
1519	7.5900e-01	4.8193	3.271761	-0.000009	-0.085492	-0.014483	0.000171
1520	7.5950e-01	4.8065	3.241400	0.000303	3.034970	0.514138	-0.006072
1521	7.6000e-01	4.7989	3.208472	0.000329	3.291446	0.557586	-0.006585
1522	7.6050e-01	4.7852	3.187946	0.000205	2.051811	0.347586	-0.004105
1523	7.6100e-01	4.7794	3.166138	0.000218	2.180049	0.369310	-0.004362
1524	7.6150e-01	4.7659	3.129789	0.000363	3.633415	0.615517	-0.007270
1525	7.6200e-01	4.7565	3.108408	0.000214	2.137303	0.362069	-0.004276
1526	7.6250e-01	4.7467	3.092158	0.000162	1.624350	0.275172	-0.003250
1527	7.6300e-01	4.7357	3.058376	0.000338	3.376939	0.572069	-0.006756
1528	7.6350e-01	4.7250	3.050679	0.000077	0.769429	0.130345	-0.001539
1529	7.6400e-01	4.7173	3.004068	0.000466	4.659320	0.789310	-0.009322
1530	7.6450e-01	4.7040	2.982259	0.000218	2.180049	0.369310	-0.004362
1531	7.6500e-01	4.6979	2.963871	0.000184	1.838080	0.311379	-0.003678
1532	7.6550e-01	4.6881	2.919825	0.000440	4.402844	0.745862	-0.008809
1533	7.6600e-01	4.6749	2.908707	0.000111	1.111398	0.188276	-0.002224
1534	7.6650e-01	4.6658	2.884332	0.000244	2.436525	0.412759	-0.004875
1535	7.6700e-01	4.6585	2.844136	0.000402	4.018129	0.680690	-0.008039
1536	7.6750e-01	4.6454	2.839432	0.000047	0.470207	0.079655	-0.000941
1537	7.6800e-01	4.6338	2.804794	0.000346	3.462431	0.586552	-0.006928
1538	7.6850e-01	4.6271	2.777854	0.000269	2.693002	0.456207	-0.005388
1539	7.6900e-01	4.6161	2.746210	0.000316	3.163208	0.535862	-0.006329
1540	7.6950e-01	4.6060	2.725256	0.000209	2.094557	0.354828	-0.004191
1541	7.7000e-01	4.5999	2.696177	0.000291	2.906732	0.492414	-0.005816
1542	7.7050e-01	4.5877	2.671803	0.000244	2.436525	0.412759	-0.004875
1543	7.7100e-01	4.5752	2.649566	0.000222	2.222795	0.376552	-0.004447
1544	7.7150e-01	4.5657	2.626474	0.000231	2.308287	0.391034	-0.004618
1545	7.7200e-01	4.5575	2.599534	0.000269	2.693002	0.456207	-0.005388
1546	7.7250e-01	4.5493	2.564896	0.000346	3.462431	0.586552	-0.006928
1547	7.7300e-01	4.5361	2.543943	0.000209	2.094557	0.354828	-0.004191
1548	7.7350e-01	4.5242	2.522989	0.000209	2.094557	0.354828	-0.004191
1549	7.7400e-01	4.5142	2.496049	0.000269	2.693002	0.456207	-0.005388
1550	7.7450e-01	4.5047	2.466970	0.000291	2.906732	0.492414	-0.005816
1551	7.7500e-01	4.4937	2.427201	0.000398	3.975383	0.673448	-0.007954
1552	7.7550e-01	4.4885	2.412234	0.000150	1.496112	0.253448	-0.002993
1553	7.7600e-01	4.4800	2.386149	0.000261	2.607510	0.441724	-0.005217
1554	7.7650e-01	4.4659	2.368616	0.000175	1.752588	0.296897	-0.003507
1555	7.7700e-01	4.4537	2.330130	0.000385	3.847145	0.651724	-0.007697
1556	7.7750e-01	4.4456	2.317301	0.000128	1.282382	0.217241	-0.002566
1557	7.7800e-01	4.4373	2.275822	0.000415	4.146368	0.702414	-0.008296
1558	7.7850e-01	4.4257	2.264703	0.000111	1.111398	0.188276	-0.002224
1559	7.7900e-01	4.4153	2.215954	0.000487	4.873051	0.825517	-0.009750
1560	7.7950e-01	4.4048	2.203125	0.000128	1.282382	0.217241	-0.002566
1561	7.8000e-01	4.3951	2.180034	0.000231	2.308287	0.391034	-0.004618
1562	7.8050e-01	4.3878	2.154376	0.000256	2.564763	0.434483	-0.005132
1563	7.8100e-01	4.3765	2.127863	0.000265	2.650256	0.448965	-0.005303
1564	7.8150e-01	4.3660	2.100495	0.000274	2.735748	0.463448	-0.005474
1565	7.8200e-01	4.3561	2.070989	0.000295	2.949478	0.499655	-0.005901
1566	7.8250e-01	4.3469	2.051318	0.000197	1.966319	0.333103	-0.003934
1567	7.8300e-01	4.3372	2.018819	0.000325	3.248700	0.550345	-0.006500
1568	7.8350e-01	4.3280	1.994444	0.000244	2.436525	0.412759	-0.004875
1569	7.8400e-01	4.3147	1.972208	0.000222	2.222795	0.376552	-0.004447
1570	7.8450e-01	4.3079	1.931156	0.000410	4.103622	0.695172	-0.008210
1571	7.8500e-01	4.2957	1.903788	0.000274	2.735748	0.463448	-0.005474
1572	7.8550e-01	4.2848	1.884545	0.000192	1.923573	0.325862	-0.003849
1573	7.8600e-01	4.2753	1.848196	0.000363	3.633415	0.615517	-0.007270
1574	7.8650e-01	4.2651	1.837933	0.000103	1.025905	0.173793	-0.002053
1575	7.8700e-01	4.2563	1.808855	0.000291	2.906732	0.492414	-0.005816
1576	7.8750e-01	4.2433	1.791750	0.000171	1.709842	0.289655	-0.003421
1577	7.8800e-01	4.2354	1.757112	0.000346	3.462431	0.586552	-0.006928
1578	7.8850e-01	4.2255	1.724185	0.000329	3.291446	0.557586	-0.006585
1579	7.8900e-01	4.2145	1.707080	0.000171	1.709842	0.289655	-0.003421
1580	7.8950e-01	4.2032	1.677574	0.000295	2.949478	0.499655	-0.005901
1581	7.9000e-01	4.1968	1.649778	0.000278	2.778494	0.470690	-0.005559
1582	7.9050e-01	4.1849	1.631390	0.000184	1.838080	0.311379	-0.003678
1583	7.9100e-01	4.1785	1.590766	0.000406	4.060876	0.687931	-0.008125
1584	7.9150e-01	4.1653	1.582641	0.000081	0.812175	0.137586	-0.001625
1585	7.9200e-01	4.1566	1.536030	0.000466	4.659320	0.789310	-0.009322
1586	7.9250e-01	4.1461	1.512938	0.000231	2.308287	0.391034	-0.004618
1587	7.9300e-01	4.1348	1.498827	0.000141	1.410620	0.238965	-0.002822
1588	7.9350e-01	4.1254	1.461623	0.000372	3.718907	0.630000	-0.007441
1589	7.9400e-01	4.1165	1.421854	0.000398	3.975383	0.673448	-0.007954
1590	7.9450e-01	4.1064	1.408170	0.000137	1.367874	0.231724	-0.002737
1591	7.9500e-01	4.0955	1.381230	0.000269	2.693002	0.456207	-0.005388
1592	7.9550e-01	4.0848	1.360276	0.000209	2.094557	0.354828	-0.004191
1593	7.9600e-01	4.0753	1.326921	0.000333	3.334193	0.564828	-0.006671
1594	7.9650e-01	4.0662	1.302119	0.000248	2.479271	0.420000	-0.004960
1595	7.9700e-01	4.0533	1.279027	0.000231	2.308287	0.391034	-0.004618
1596	7.9750e-01	4.0469	1.243962	0.000351	3.505177	0.593793	-0.007013
1597	7.9800e-01	4.0363	1.215311	0.000286	2.863986	0.485172	-0.005730
1598	7.9850e-01	4.0256	1.182812	0.000325	3.248700	0.550345	-0.006500
1599	7.9900e-01	4.0155	1.172549	0.000103	1.025905	0.173793	-0.002053
1600	7.9950e-01	4.0047	1.134490	0.000380	3.804399	0.644483	-0.007612
1601	8.0000e-01	3.9974	1.121661	0.000128	1.282382	0.217241	-0.002566
1602	8.0050e-01	3.9844	1.080609	0.000410	4.103622	0.695172	-0.008210
1603	8.0100e-01	3.9740	1.056234	0.000244	2.436525	0.412759	-0.004875
1604	8.0150e-01	3.9644	1.026301	0.000299	2.992224	0.506896	-0.005987
1605	8.0200e-01	3.9571	1.012617	0.000137	1.367874	0.231724	-0.002737
1606	8.0250e-01	3.9453	0.983111	0.000295	2.949478	0.499655	-0.005901
1607	8.0300e-01	3.9368	0.948473	0.000346	3.462431	0.586552	-0.006928
1608	8.0350e-01	3.9259	0.927519	0.000209	2.094557	0.354828	-0.004191
1609	8.0400e-01	3.9197	0.901434	0.000261	2.607510	0.441724	-0.005217
1610	8.0450e-01	3.9037	0.863375	0.000380	3.804399	0.644483	-0.007612
1611	8.0500e-01	3.8953	0.841567	0.000218	2.180049	0.369310	-0.004362
1612	8.0550e-01	3.8861	0.807357	0.000342	3.419685	0.579310	-0.006842
1613	8.0600e-01	3.8741	0.779133	0.000282	2.821240	0.477931	-0.005645
1614	8.0650e-01	3.8660	0.756897	0.000222	2.222795	0.376552	-0.004447
1615	8.0700e-01	3.8538	0.726535	0.000303	3.034970	0.514138	-0.006072
1616	8.0750e-01	3.8458	0.709430	0.000171	1.709842	0.289655	-0.003421
1617	8.0800e-01	3.8376	0.675648	0.000338	3.376939	0.572069	-0.006756
1618	8.0850e-01	3.8245	0.649135	0.000265	2.650256	0.448965	-0.005303
1619	8.0900e-01	3.8156	0.625188	0.000239	2.393779	0.405517	-0.004789
1620	8.0950e-01	3.8062	0.597393	0.000278	2.778494	0.470690	-0.005559
1621	8.1000e-01	3.7988	0.567886	0.000295	2.949478	0.499655	-0.005901
1622	8.1050e-01	3.7856	0.546933	0.000209	2.094557	0.354828	-0.004191
1623	8.1100e-01	3.7756	0.530255	0.000167	1.667096	0.282414	-0.003335
1624	8.1150e-01	3.7637	0.491769	0.000385	3.847145	0.651724	-0.007697
1625	8.1200e-01	3.7573	0.456704	0.000351	3.505177	0.593793	-0.007013
1626	8.1250e-01	3.7457	0.434895	0.000218	2.180049	0.369310	-0.004362
1627	8.1300e-01	3.7354	0.407955	0.000269	2.693002	0.456207	-0.005388
1628	8.1350e-01	3.7262	0.383152	0.000248	2.479271	0.420000	-0.004960
1629	8.1400e-01	3.7128	0.360060	0.000231	2.308287	0.391034	-0.004618
1630	8.1450e-01	3.7061	0.329271	0.000308	3.077716	0.521379	-0.006158
1631	8.1500e-01	3.6954	0.304042	0.000252	2.522017	0.427241	-0.005046
1632	8.1550e-01	3.6882	0.269832	0.000342	3.419685	0.579310	-0.006842
1633	8.1600e-01	3.6752	0.253582	0.000162	1.624350	0.275172	-0.003250
1634	8.1650e-01	3.6664	0.223220	0.000303	3.034970	0.514138	-0.006072
1635	8.1700e-01	3.6560	0.204833	0.000184	1.838080	0.311379	-0.003678
1636	8.1750e-01	3.6450	0.159504	0.000453	4.531082	0.767586	-0.009066
1637	8.1800e-01	3.6346	0.135985	0.000235	2.351033	0.398276	-0.004704
1638	8.1850e-01	3.6267	0.107762	0.000282	2.821240	0.477931	-0.005645
1639	8.1900e-01	3.6169	0.075262	0.000325	3.248700	0.550345	-0.006500
1640	8.1950e-01	3.6072	0.053881	0.000214	2.137303	0.362069	-0.004276
1641	8.2000e-01	3.5925	0.015822	0.000380	3.804399	0.644483	-0.007612
1642	8.2050e-01	3.5852	0.003849	0.000120	1.196890	0.202759	-0.002395
1643	8.2100e-01	3.5760	-0.026513	0.000303	3.034970	0.514138	-0.006072
1644	8.2150e-01	3.5666	-0.064571	0.000380	3.804399	0.644483	-0.007612
1645	8.2200e-01	3.5564	-0.081249	0.000167	1.667096	0.282414	-0.003335
1646	8.2250e-01	3.5474	-0.099209	0.000180	1.795334	0.304138	-0.003592
1647	8.2300e-01	3.5359	-0.140261	0.000410	4.103622	0.695172	-0.008210
1648	8.2350e-01	3.5242	-0.165919	0.000256	2.564763	0.434483	-0.005132
1649	8.2400e-01	3.5144	-0.186445	0.000205	2.051811	0.347586	-0.004105
1650	8.2450e-01	3.5063	-0.215951	0.000295	2.949478	0.499655	-0.005901
1651	8.2500e-01	3.4949	-0.249306	0.000333	3.334193	0.564828	-0.006671
1652	8.2550e-01	3.4875	-0.270687	0.000214	2.137303	0.362069	-0.004276
1653	8.2600e-01	3.4766	-0.310028	0.000393	3.932637	0.666207	-0.007868
1654	8.2650e-01	3.4674	-0.336113	0.000261	2.607510	0.441724	-0.005217
1655	8.2700e-01	3.4555	-0.371179	0.000351	3.505177	0.593793	-0.007013
1656	8.2750e-01	3.4485	-0.398974	0.000278	2.778494	0.470690	-0.005559
1657	8.2800e-01	3.4363	-0.422494	0.000235	2.351033	0.398276	-0.004704
1658	8.2850e-01	3.4264	-0.447724	0.000252	2.522017	0.427241	-0.005046
1659	8.2900e-01	3.4155	-0.465684	0.000180	1.795334	0.304138	-0.003592
1660	8.2950e-01	3.4070	-0.498183	0.000325	3.248700	0.550345	-0.006500
1661	8.3000e-01	3.3960	-0.522986	0.000248	2.479271	0.420000	-0.004960
1662	8.3050e-01	3.3849	-0.555058	0.000321	3.205954	0.543103	-0.006414
1663	8.3100e-01	3.3766	-0.577722	0.000227	2.265541	0.383793	-0.004533
1664	8.3150e-01	3.3685	-0.614070	0.000363	3.633415	0.615517	-0.007270
1665	8.3200e-01	3.3558	-0.633313	0.000192	1.923573	0.325862	-0.003849
1666	8.3250e-01	3.3464	-0.667951	0.000346	3.462431	0.586552	-0.006928
1667	8.3300e-01	3.3374	-0.691470	0.000235	2.351033	0.398276	-0.004704
1668	8.3350e-01	3.3240	-0.724825	0.000333	3.334193	0.564828	-0.006671
1669	8.3400e-01	3.3163	-0.753476	0.000286	2.863986	0.485172	-0.005730
1670	8.3450e-01	3.3060	-0.785975	0.000325	3.248700	0.550345	-0.006500
1671	8.3500e-01	3.2971	-0.800515	0.000145	1.453366	0.246207	-0.002908
1672	8.3550e-01	3.2848	-0.822323	0.000218	2.180049	0.369310	-0.004362
1673	8.3600e-01	3.2739	-0.858672	0.000363	3.633415	0.615517	-0.007270
1674	8.3650e-01	3.2629	-0.881763	0.000231	2.308287	0.391034	-0.004618
1675	8.3700e-01	3.2553	-0.916829	0.000351	3.505177	0.593793	-0.007013
1676	8.3750e-01	3.2452	-0.952321	0.000355	3.547923	0.601034	-0.007099
1677	8.3800e-01	3.2356	-0.971565	0.000192	1.923573	0.325862	-0.003849
1678	8.3850e-01	3.2269	-1.002781	0.000312	3.120462	0.528621	-0.006243
1679	8.3900e-01	3.2181	-1.028866	0.000261	2.607510	0.441724	-0.005217
1680	8.3950e-01	3.2044	-1.049820	0.000209	2.094557	0.354828	-0.004191
1681	8.4000e-01	3.1960	-1.081037	0.000312	3.120462	0.528621	-0.006243
1682	8.4050e-01	3.1866	-1.111398	0.000303	3.034970	0.514138	-0.006072
1683	8.4100e-01	3.1750	-1.134062	0.000227	2.265541	0.383793	-0.004533
1684	8.4150e-01	3.1662	-1.168272	0.000342	3.419685	0.579310	-0.006842
1685	8.4200e-01	3.1540	-1.201627	0.000333	3.334193	0.564828	-0.006671
1686	8.4250e-01	3.1451	-1.219587	0.000180	1.795334	0.304138	-0.003592
1687	8.4300e-01	3.1336	-1.252514	0.000329	3.291446	0.557586	-0.006585
1688	8.4350e-01	3.1273	-1.287580	0.000351	3.505177	0.593793	-0.007013
1689	8.4400e-01	3.1155	-1.312810	0.000252	2.522017	0.427241	-0.005046
1690	8.4450e-01	3.1047	-1.338895	0.000261	2.607510	0.441724	-0.005217
1691	8.4500e-01	3.0957	-1.361559	0.000227	2.265541	0.383793	-0.004533
1692	8.4550e-01	3.0836	-1.391493	0.000299	2.992224	0.506896	-0.005987
1693	8.4600e-01	3.0770	-1.427413	0.000359	3.590669	0.608276	-0.007184
1694	8.4650e-01	3.0664	-1.449222	0.000218	2.180049	0.369310	-0.004362
1695	8.4700e-01	3.0566	-1.488136	0.000389	3.889891	0.658965	-0.007783
1696	8.4750e-01	3.0466	-1.523629	0.000355	3.547923	0.601034	-0.007099
1697	8.4800e-01	3.0347	-1.535602	0.000120	1.196890	0.202759	-0.002395
1698	8.4850e-01	3.0255	-1.573661	0.000380	3.804399	0.644483	-0.007612
1699	8.4900e-01	3.0158	-1.592904	0.000192	1.923573	0.325862	-0.003849
1700	8.4950e-01	3.0060	-1.636950	0.000440	4.402844	0.745862	-0.008809
1701	8.5000e-01	2.9968	-1.651489	0.000145	1.453366	0.246207	-0.002908
1702	8.5050e-01	2.9837	-1.683988	0.000325	3.248700	0.550345	-0.006500
1703	8.5100e-01	2.9757	-1.707080	0.000231	2.308287	0.391034	-0.004618
1704	8.5150e-01	2.9646	-1.737441	0.000303	3.034970	0.514138	-0.006072
1705	8.5200e-01	2.9566	-1.770369	0.000329	3.291446	0.557586	-0.006585
1706	8.5250e-01	2.9456	-1.800302	0.000299	2.992224	0.506896	-0.005987
1707	8.5300e-01	2.9391	-1.826815	0.000265	2.650256	0.448965	-0.005303
1708	8.5350e-01	2.9255	-1.852045	0.000252	2.522017	0.427241	-0.005046
1709	8.5400e-01	2.9176	-1.879841	0.000278	2.778494	0.470690	-0.005559
1710	8.5450e-01	2.9034	-1.900794	0.000209	2.094557	0.354828	-0.004191
1711	8.5500e-01	2.8959	-1.949116	0.000483	4.830305	0.818276	-0.009664
1712	8.5550e-01	2.8867	-1.967932	0.000188	1.880827	0.318621	-0.003763
1713	8.5600e-01	2.8773	-2.000859	0.000329	3.291446	0.557586	-0.006585
1714	8.5650e-01	2.8660	-2.017964	0.000171	1.709842	0.289655	-0.003421
1715	8.5700e-01	2.8552	-2.051746	0.000338	3.376939	0.572069	-0.006756
1716	8.5750e-01	2.8452	-2.094081	0.000423	4.231860	0.716896	-0.008467
1717	8.5800e-01	2.8371	-2.115890	0.000218	2.180049	0.369310	-0.004362
1718	8.5850e-01	2.8259	-2.132995	0.000171	1.709842	0.289655	-0.003421
1719	8.5900e-01	2.8156	-2.170198	0.000372	3.718907	0.630000	-0.007441
1720	8.5950e-01	2.8053	-2.204408	0.000342	3.419685	0.579310	-0.006842
1721	8.6000e-01	2.7985	-2.223651	0.000192	1.923573	0.325862	-0.003849
1722	8.6050e-01	2.7843	-2.257006	0.000333	3.334193	0.564828	-0.006671
1723	8.6100e-01	2.7760	-2.284802	0.000278	2.778494	0.470690	-0.005559
1724	8.6150e-01	2.7638	-2.299769	0.000150	1.496112	0.253448	-0.002993
1725	8.6200e-01	2.7530	-2.359209	0.000594	5.941702	1.006552	-0.011888
1726	8.6250e-01	2.7438	-2.362202	0.000030	0.299222	0.050690	-0.000599
1727	8.6300e-01	2.7361	-2.391281	0.000291	2.906732	0.492414	-0.005816
1728	8.6350e-01	2.7267	-2.433188	0.000419	4.189114	0.709655	-0.008381
1729	8.6400e-01	2.7153	-2.469964	0.000368	3.676161	0.622759	-0.007355
1730	8.6450e-01	2.7086	-2.490917	0.000209	2.094557	0.354828	-0.004191
1731	8.6500e-01	2.6968	-2.511871	0.000209	2.094557	0.354828	-0.004191
1732	8.6550e-01	2.6859	-2.543088	0.000312	3.120462	0.528621	-0.006243
1733	8.6600e-01	2.6758	-2.575159	0.000321	3.205954	0.543103	-0.006414
1734	8.6650e-01	2.6649	-2.602100	0.000269	2.693002	0.456207	-0.005388
1735	8.6700e-01	2.6527	-2.623909	0.000218	2.180049	0.369310	-0.004362
1736	8.6750e-01	2.6459	-2.664961	0.000410	4.103622	0.695172	-0.008210
1737	8.6800e-01	2.6358	-2.696605	0.000316	3.163208	0.535862	-0.006329
1738	8.6850e-01	2.6246	-2.729105	0.000325	3.248700	0.550345	-0.006500
1739	8.6900e-01	2.6169	-2.748775	0.000197	1.966319	0.333103	-0.003934
1740	8.6950e-01	2.6056	-2.767591	0.000188	1.880827	0.318621	-0.003763
1741	8.7000e-01	2.5950	-2.806077	0.000385	3.847145	0.651724	-0.007697
1742	8.7050e-01	2.5830	-2.833873	0.000278	2.778494	0.470690	-0.005559
1743	8.7100e-01	2.5751	-2.862524	0.000286	2.863986	0.485172	-0.005730
1744	8.7150e-01	2.5655	-2.890319	0.000278	2.778494	0.470690	-0.005559
1745	8.7200e-01	2.5546	-2.912128	0.000218	2.180049	0.369310	-0.004362
1746	8.7250e-01	2.5494	-2.949332	0.000372	3.718907	0.630000	-0.007441
1747	8.7300e-01	2.5360	-2.989101	0.000398	3.975383	0.673448	-0.007954
1748	8.7350e-01	2.5252	-3.001929	0.000128	1.282382	0.217241	-0.002566
1749	8.7400e-01	2.5127	-3.032718	0.000308	3.077716	0.521379	-0.006158
1750	8.7450e-01	2.5043	-3.086172	0.000534	5.343257	0.905172	-0.010691
1751	8.7500e-01	2.4964	-3.100711	0.000145	1.453366	0.246207	-0.002908
1752	8.7550e-01	2.4857	-3.126368	0.000256	2.564763	0.434483	-0.005132
1753	8.7600e-01	2.4756	-3.161861	0.000355	3.547923	0.601034	-0.007099
1754	8.7650e-01	2.4646	-3.190085	0.000282	2.821240	0.477931	-0.005645
1755	8.7700e-01	2.4525	-3.215314	0.000252	2.522017	0.427241	-0.005046
1756	8.7750e-01	2.4499	-3.227716	0.000124	1.239636	0.210000	-0.002480
1757	8.7800e-01	2.4357	-3.278175	0.000504	5.044035	0.854483	-0.010092
1758	8.7850e-01	2.4264	-3.308537	0.000303	3.034970	0.514138	-0.006072
1759	8.7900e-01	2.4141	-3.334194	0.000256	2.564763	0.434483	-0.005132
1760	8.7950e-01	2.4062	-3.365411	0.000312	3.120462	0.528621	-0.006243
1761	8.8000e-01	2.3975	-3.382088	0.000167	1.667096	0.282414	-0.003335
1762	8.8050e-01	2.3856	-3.417581	0.000355	3.547923	0.601034	-0.007099
1763	8.8100e-01	2.3737	-3.445804	0.000282	2.821240	0.477931	-0.005645
1764	8.8150e-01	2.3673	-3.483435	0.000376	3.761653	0.637241	-0.007526
1765	8.8200e-01	2.3572	-3.515507	0.000321	3.205954	0.543103	-0.006414
1766	8.8250e-01	2.3457	-3.544586	0.000291	2.906732	0.492414	-0.005816
1767	8.8300e-01	2.3373	-3.562974	0.000184	1.838080	0.311379	-0.003678
1768	8.8350e-01	2.3254	-3.597184	0.000342	3.419685	0.579310	-0.006842
1769	8.8400e-01	2.3154	-3.630111	0.000329	3.291446	0.557586	-0.006585
1770	8.8450e-01	2.3040	-3.654486	0.000244	2.436525	0.412759	-0.004875
1771	8.8500e-01	2.2963	-3.672873	0.000184	1.838080	0.311379	-0.003678
1772	8.8550e-01	2.2850	-3.719912	0.000470	4.702066	0.796552	-0.009408
1773	8.8600e-01	2.2760	-3.746853	0.000269	2.693002	0.456207	-0.005388
1774	8.8650e-01	2.2658	-3.781063	0.000342	3.419685	0.579310	-0.006842
1775	8.8700e-01	2.2536	-3.797312	0.000162	1.624350	0.275172	-0.003250
1776	8.8750e-01	2.2437	-3.831950	0.000346	3.462431	0.586552	-0.006928
1777	8.8800e-01	2.2346	-3.865305	0.000333	3.334193	0.564828	-0.006671
1778	8.8850e-01	2.2261	-3.888824	0.000235	2.351033	0.398276	-0.004704
1779	8.8900e-01	2.2140	-3.914909	0.000261	2.607510	0.441724	-0.005217
1780	8.8950e-01	2.2077	-3.961948	0.000470	4.702066	0.796552	-0.009408
1781	8.9000e-01	2.1942	-3.991882	0.000299	2.992224	0.506896	-0.005987
1782	8.9050e-01	2.1848	-4.008559	0.000167	1.667096	0.282414	-0.003335
1783	8.9100e-01	2.1755	-4.034217	0.000256	2.564763	0.434483	-0.005132
1784	8.9150e-01	2.1663	-4.078690	0.000445	4.445590	0.753103	-0.008895
1785	8.9200e-01	2.1567	-4.107341	0.000286	2.863986	0.485172	-0.005730
1786	8.9250e-01	2.1451	-4.130433	0.000231	2.308287	0.391034	-0.004618
1787	8.9300e-01	2.1344	-4.165925	0.000355	3.547923	0.601034	-0.007099
1788	8.9350e-01	2.1227	-4.197142	0.000312	3.120462	0.528621	-0.006243
1789	8.9400e-01	2.1133	-4.227076	0.000299	2.992224	0.506896	-0.005987
1790	8.9450e-01	2.1043	-4.252733	0.000256	2.564763	0.434483	-0.005132
1791	8.9500e-01	2.0941	-4.289509	0.000368	3.676161	0.622759	-0.007355
1792	8.9550e-01	2.0847	-4.308752	0.000192	1.923573	0.325862	-0.003849
1793	8.9600e-01	2.0758	-4.345100	0.000363	3.633415	0.615517	-0.007270
1794	8.9650e-01	2.0667	-4.375462	0.000303	3.034970	0.514138	-0.006072
1795	8.9700e-01	2.0569	-4.404540	0.000291	2.906732	0.492414	-0.005816
1796	8.9750e-01	2.0465	-4.443882	0.000393	3.932637	0.666207	-0.007868
1797	8.9800e-01	2.0349	-4.466974	0.000231	2.308287	0.391034	-0.004618
1798	8.9850e-01	2.0243	-4.488355	0.000214	2.137303	0.362069	-0.004276
1799	8.9900e-01	2.0157	-4.531545	0.000432	4.317352	0.731379	-0.008638
1800	8.9950e-01	2.0064	-4.557203	0.000256	2.564763	0.434483	-0.005132
1801	9.0000e-01	1.9949	-4.590557	0.000333	3.334193	0.564828	-0.006671
1802	9.0050e-01	1.9847	-4.613649	0.000231	2.308287	0.391034	-0.004618
1803	9.0100e-01	1.9745	-4.641872	0.000282	2.821240	0.477931	-0.005645
1804	9.0150e-01	1.9656	-4.687201	0.000453	4.531082	0.767586	-0.009066
1805	9.0200e-01	1.9570	-4.704733	0.000175	1.752588	0.296897	-0.003507
1806	9.0250e-01	1.9453	-4.730391	0.000256	2.564763	0.434483	-0.005132
1807	9.0300e-01	1.9373	-4.768449	0.000380	3.804399	0.644483	-0.007612
1808	9.0350e-01	1.9251	-4.804798	0.000363	3.633415	0.615517	-0.007270
1809	9.0400e-01	1.9151	-4.830027	0.000252	2.522017	0.427241	-0.005046
1810	9.0450e-01	1.9051	-4.856968	0.000269	2.693002	0.456207	-0.005388
1811	9.0500e-01	1.8961	-4.894171	0.000372	3.718907	0.630000	-0.007441
1812	9.0550e-01	1.8844	-4.922395	0.000282	2.821240	0.477931	-0.005645
1813	9.0600e-01	1.8753	-4.948052	0.000256	2.564763	0.434483	-0.005132
1814	9.0650e-01	1.8659	-4.981407	0.000333	3.334193	0.564828	-0.006671
1815	9.0700e-01	1.8579	-5.015189	0.000338	3.376939	0.572069	-0.006756
1816	9.0750e-01	1.8463	-5.041274	0.000261	2.607510	0.441724	-0.005217
1817	9.0800e-01	1.8372	-5.069925	0.000286	2.863986	0.485172	-0.005730
1818	9.0850e-01	1.8253	-5.103708	0.000338	3.376939	0.572069	-0.006756
1819	9.0900e-01	1.8152	-5.140911	0.000372	3.718907	0.630000	-0.007441
1820	9.0950e-01	1.8066	-5.172128	0.000312	3.120462	0.528621	-0.006243
1821	9.1000e-01	1.7982	-5.202061	0.000299	2.992224	0.506896	-0.005987
1822	9.1050e-01	1.7853	-5.227719	0.000256	2.564763	0.434483	-0.005132
1823	9.1100e-01	1.7740	-5.246962	0.000192	1.923573	0.325862	-0.003849
1824	9.1150e-01	1.7653	-5.282883	0.000359	3.590669	0.608276	-0.007184
1825	9.1200e-01	1.7569	-5.320514	0.000376	3.761653	0.637241	-0.007526
1826	9.1250e-01	1.7456	-5.361566	0.000410	4.103622	0.695172	-0.008210
1827	9.1300e-01	1.7369	-5.389361	0.000278	2.778494	0.470690	-0.005559
1828	9.1350e-01	1.7245	-5.414164	0.000248	2.479271	0.420000	-0.004960
1829	9.1400e-01	1.7128	-5.445808	0.000316	3.163208	0.535862	-0.006329
1830	9.1450e-01	1.7067	-5.472321	0.000265	2.650256	0.448965	-0.005303
1831	9.1500e-01	1.6945	-5.508669	0.000363	3.633415	0.615517	-0.007270
1832	9.1550e-01	1.6867	-5.533471	0.000248	2.479271	0.420000	-0.004960
1833	9.1600e-01	1.6763	-5.561694	0.000282	2.821240	0.477931	-0.005645
1834	9.1650e-01	1.6667	-5.595477	0.000338	3.376939	0.572069	-0.006756
1835	9.1700e-01	1.6570	-5.622417	0.000269	2.693002	0.456207	-0.005388
1836	9.1750e-01	1.6462	-5.648502	0.000261	2.607510	0.441724	-0.005217
1837	9.1800e-01	1.6376	-5.695113	0.000466	4.659320	0.789310	-0.009322
1838	9.1850e-01	1.6298	-5.724620	0.000295	2.949478	0.499655	-0.005901
1839	9.1900e-01	1.6187	-5.754981	0.000303	3.034970	0.514138	-0.006072
1840	9.1950e-01	1.6048	-5.775507	0.000205	2.051811	0.347586	-0.004105
1841	9.2000e-01	1.5974	-5.810572	0.000351	3.505177	0.593793	-0.007013
1842	9.2050e-01	1.5840	-5.838796	0.000282	2.821240	0.477931	-0.005645
1843	9.2100e-01	1.5778	-5.867019	0.000282	2.821240	0.477931	-0.005645
1844	9.2150e-01	1.5664	-5.908071	0.000410	4.103622	0.695172	-0.008210
1845	9.2200e-01	1.5564	-5.930307	0.000222	2.222795	0.376552	-0.004447
1846	9.2250e-01	1.5445	-5.964945	0.000346	3.462431	0.586552	-0.006928
1847	9.2300e-01	1.5337	-5.997872	0.000329	3.291446	0.557586	-0.006585
1848	9.2350e-01	1.5213	-6.022247	0.000244	2.436525	0.412759	-0.004875
1849	9.2400e-01	1.5148	-6.053463	0.000312	3.120462	0.528621	-0.006243
1850	9.2450e-01	1.5051	-6.089812	0.000363	3.633415	0.615517	-0.007270
1851	9.2500e-01	1.4951	-6.129153	0.000393	3.932637	0.666207	-0.007868
1852	9.2550e-01	1.4859	-6.149251	0.000201	2.009065	0.340345	-0.004020
1853	9.2600e-01	1.4752	-6.189448	0.000402	4.018129	0.680690	-0.008039
1854	9.2650e-01	1.4658	-6.210829	0.000214	2.137303	0.362069	-0.004276
1855	9.2700e-01	1.4559	-6.251454	0.000406	4.060876	0.687931	-0.008125
1856	9.2750e-01	1.4467	-6.278822	0.000274	2.735748	0.463448	-0.005474
1857	9.2800e-01	1.4344	-6.317736	0.000389	3.889891	0.658965	-0.007783
1858	9.2850e-01	1.4240	-6.341255	0.000235	2.351033	0.398276	-0.004704
1859	9.2900e-01	1.4155	-6.371617	0.000303	3.034970	0.514138	-0.006072
1860	9.2950e-01	1.4050	-6.401550	0.000299	2.992224	0.506896	-0.005987
1861	9.3000e-01	1.3940	-6.431057	0.000295	2.949478	0.499655	-0.005901
1862	9.3050e-01	1.3866	-6.451583	0.000205	2.051811	0.347586	-0.004105
1863	9.3100e-01	1.3768	-6.504608	0.000530	5.300511	0.897931	-0.010605
1864	9.3150e-01	1.3647	-6.534542	0.000299	2.992224	0.506896	-0.005987
1865	9.3200e-01	1.3576	-6.560199	0.000256	2.564763	0.434483	-0.005132
1866	9.3250e-01	1.3454	-6.594409	0.000342	3.419685	0.579310	-0.006842
1867	9.3300e-01	1.3369	-6.629047	0.000346	3.462431	0.586552	-0.006928
1868	9.3350e-01	1.3263	-6.655987	0.000269	2.693002	0.456207	-0.005388
1869	9.3400e-01	1.3150	-6.678224	0.000222	2.222795	0.376552	-0.004447
1870	9.3450e-01	1.3043	-6.709868	0.000316	3.163208	0.535862	-0.006329
1871	9.3500e-01	1.2957	-6.739802	0.000299	2.992224	0.506896	-0.005987
1872	9.3550e-01	1.2866	-6.770591	0.000308	3.077716	0.521379	-0.006158
1873	9.3600e-01	1.2759	-6.824899	0.000543	5.428749	0.919655	-0.010862
1874	9.3650e-01	1.2646	-6.846708	0.000218	2.180049	0.369310	-0.004362
1875	9.3700e-01	1.2540	-6.867234	0.000205	2.051811	0.347586	-0.004105
1876	9.3750e-01	1.2441	-6.903582	0.000363	3.633415	0.615517	-0.007270
1877	9.3800e-01	1.2347	-6.921543	0.000180	1.795334	0.304138	-0.003592
1878	9.3850e-01	1.2226	-6.952332	0.000308	3.077716	0.521379	-0.006158
1879	9.3900e-01	1.2168	-6.993384	0.000410	4.103622	0.695172	-0.008210
1880	9.3950e-01	1.2041	-7.037429	0.000440	4.402844	0.745862	-0.008809
1881	9.4000e-01	1.1961	-7.067791	0.000303	3.034970	0.514138	-0.006072
1882	9.4050e-01	1.1848	-7.096441	0.000286	2.863986	0.485172	-0.005730
1883	9.4100e-01	1.1747	-7.121244	0.000248	2.479271	0.420000	-0.004960
1884	9.4150e-01	1.1626	-7.152460	0.000312	3.120462	0.528621	-0.006243
1885	9.4200e-01	1.1545	-7.193085	0.000406	4.060876	0.687931	-0.008125
1886	9.4250e-01	1.1439	-7.217459	0.000244	2.436525	0.412759	-0.004875
1887	9.4300e-01	1.1392	-7.254235	0.000368	3.676161	0.622759	-0.007355
1888	9.4350e-01	1.1256	-7.273478	0.000192	1.923573	0.325862	-0.003849
1889	9.4400e-01	1.1154	-7.319662	0.000462	4.616574	0.782069	-0.009237
1890	9.4450e-01	1.1045	-7.350451	0.000308	3.077716	0.521379	-0.006158
1891	9.4500e-01	1.0960	-7.382950	0.000325	3.248700	0.550345	-0.006500
1892	9.4550e-01	1.0871	-7.409036	0.000261	2.607510	0.441724	-0.005217
1893	9.4600e-01	1.0764	-7.448377	0.000393	3.932637	0.666207	-0.007868
1894	9.4650e-01	1.0627	-7.481304	0.000329	3.291446	0.557586	-0.006585
1895	9.4700e-01	1.0548	-7.494561	0.000133	1.325128	0.224483	-0.002651
1896	9.4750e-01	1.0452	-7.539034	0.000445	4.445590	0.753103	-0.008895
1897	9.4800e-01	1.0356	-7.566829	0.000278	2.778494	0.470690	-0.005559
1898	9.4850e-01	1.0229	-7.592914	0.000261	2.607510	0.441724	-0.005217
1899	9.4900e-01	1.0157	-7.632684	0.000398	3.975383	0.673448	-0.007954
1900	9.4950e-01	1.0069	-7.670742	0.000380	3.804399	0.644483	-0.007612
1901	9.5000e-01	0.9955	-7.693406	0.000227	2.265541	0.383793	-0.004533
1902	9.5050e-01	0.9875	-7.733175	0.000398	3.975383	0.673448	-0.007954
1903	9.5100e-01	0.9770	-7.780642	0.000474	4.744812	0.803793	-0.009493
1904	9.5150e-01	0.9641	-7.795609	0.000150	1.496112	0.253448	-0.002993
1905	9.5200e-01	0.9536	-7.823404	0.000278	2.778494	0.470690	-0.005559
1906	9.5250e-01	0.9450	-7.858897	0.000355	3.547923	0.601034	-0.007099
1907	9.5300e-01	0.9373	-7.895245	0.000363	3.633415	0.615517	-0.007270
1908	9.5350e-01	0.9279	-7.926890	0.000316	3.163208	0.535862	-0.006329
1909	9.5400e-01	0.9140	-7.960244	0.000333	3.334193	0.564828	-0.006671
1910	9.5450e-01	0.9036	-7.979488	0.000192	1.923573	0.325862	-0.003849
1911	9.5500e-01	0.8953	-8.022678	0.000432	4.317352	0.731379	-0.008638
1912	9.5550e-01	0.8847	-8.038928	0.000162	1.624350	0.275172	-0.003250
1913	9.5600e-01	0.8771	-8.073138	0.000342	3.419685	0.579310	-0.006842
1914	9.5650e-01	0.8635	-8.115900	0.000427	4.274606	0.724138	-0.008553
1915	9.5700e-01	0.8547	-8.152248	0.000363	3.633415	0.615517	-0.007270
1916	9.5750e-01	0.8453	-8.178761	0.000265	2.650256	0.448965	-0.005303
1917	9.5800e-01	0.8366	-8.217675	0.000389	3.889891	0.658965	-0.007783
1918	9.5850e-01	0.8270	-8.249319	0.000316	3.163208	0.535862	-0.006329
1919	9.5900e-01	0.8174	-8.285240	0.000359	3.590669	0.608276	-0.007184
1920	9.5950e-01	0.8048	-8.316456	0.000312	3.120462	0.528621	-0.006243
1921	9.6000e-01	0.7944	-8.340831	0.000244	2.436525	0.412759	-0.004875
1922	9.6050e-01	0.7901	-8.381455	0.000406	4.060876	0.687931	-0.008125
1923	9.6100e-01	0.7768	-8.423363	0.000419	4.189114	0.709655	-0.008381
1924	9.6150e-01	0.7678	-8.450731	0.000274	2.735748	0.463448	-0.005474
1925	9.6200e-01	0.7550	-8.481520	0.000308	3.077716	0.521379	-0.006158
1926	9.6250e-01	0.7449	-8.516585	0.000351	3.505177	0.593793	-0.007013
1927	9.6300e-01	0.7367	-8.536256	0.000197	1.966319	0.333103	-0.003934
1928	9.6350e-01	0.7240	-8.555499	0.000192	1.923573	0.325862	-0.003849
1929	9.6400e-01	0.7148	-8.605531	0.000500	5.001289	0.847241	-0.010006
1930	9.6450e-01	0.7049	-8.627768	0.000222	2.222795	0.376552	-0.004447
1931	9.6500e-01	0.6982	-8.666681	0.000389	3.889891	0.658965	-0.007783
1932	9.6550e-01	0.6833	-8.702174	0.000355	3.547923	0.601034	-0.007099
1933	9.6600e-01	0.6738	-8.722700	0.000205	2.051811	0.347586	-0.004105
1934	9.6650e-01	0.6631	-8.765035	0.000423	4.231860	0.716896	-0.008467
1935	9.6700e-01	0.6551	-8.803949	0.000389	3.889891	0.658965	-0.007783
1936	9.6750e-01	0.6442	-8.842435	0.000385	3.847145	0.651724	-0.007697
1937	9.6800e-01	0.6375	-8.889047	0.000466	4.659320	0.789310	-0.009322
1938	9.6850e-01	0.6262	-8.901875	0.000128	1.282382	0.217241	-0.002566
1939	9.6900e-01	0.6155	-8.946776	0.000449	4.488336	0.760345	-0.008980
1940	9.6950e-01	0.6050	-8.964736	0.000180	1.795334	0.304138	-0.003592
1941	9.7000e-01	0.5957	-9.000229	0.000355	3.547923	0.601034	-0.007099
1942	9.7050e-01	0.5844	-9.028880	0.000286	2.863986	0.485172	-0.005730
1943	9.7100e-01	0.5753	-9.048123	0.000192	1.923573	0.325862	-0.003849
1944	9.7150e-01	0.5643	-9.104570	0.000564	5.642480	0.955862	-0.011289
1945	9.7200e-01	0.5576	-9.131938	0.000274	2.735748	0.463448	-0.005474
1946	9.7250e-01	0.5445	-9.163154	0.000312	3.120462	0.528621	-0.006243
1947	9.7300e-01	0.5344	-9.190522	0.000274	2.735748	0.463448	-0.005474
1948	9.7350e-01	0.5273	-9.231574	0.000410	4.103622	0.695172	-0.008210
1949	9.7400e-01	0.5159	-9.270916	0.000393	3.932637	0.666207	-0.007868
1950	9.7450e-01	0.5047	-9.290159	0.000192	1.923573	0.325862	-0.003849
1951	9.7500e-01	0.4949	-9.319665	0.000295	2.949478	0.499655	-0.005901
1952	9.7550e-01	0.4851	-9.361145	0.000415	4.146368	0.702414	-0.008296
1953	9.7600e-01	0.4744	-9.388085	0.000269	2.693002	0.456207	-0.005388
1954	9.7650e-01	0.4668	-9.431275	0.000432	4.317352	0.731379	-0.008638
1955	9.7700e-01	0.4572	-9.460354	0.000291	2.906732	0.492414	-0.005816
1956	9.7750e-01	0.4441	-9.502261	0.000419	4.189114	0.709655	-0.008381
1957	9.7800e-01	0.4343	-9.530484	0.000282	2.821240	0.477931	-0.005645
1958	9.7850e-01	0.4254	-9.551866	0.000214	2.137303	0.362069	-0.004276
1959	9.7900e-01	0.4156	-9.590780	0.000389	3.889891	0.658965	-0.007783
1960	9.7950e-01	0.4058	-9.633115	0.000423	4.231860	0.716896	-0.008467
1961	9.8000e-01	0.3931	-9.657489	0.000244	2.436525	0.412759	-0.004875
1962	9.8050e-01	0.3863	-9.696831	0.000393	3.932637	0.666207	-0.007868
1963	9.8100e-01	0.3732	-9.726337	0.000295	2.949478	0.499655	-0.005901
1964	9.8150e-01	0.3660	-9.767817	0.000415	4.146368	0.702414	-0.008296
1965	9.8200e-01	0.3555	-9.787487	0.000197	1.966319	0.333103	-0.003934
1966	9.8250e-01	0.3435	-9.832388	0.000449	4.488336	0.760345	-0.008980
1967	9.8300e-01	0.3369	-9.855052	0.000227	2.265541	0.383793	-0.004533
1968	9.8350e-01	0.3218	-9.884131	0.000291	2.906732	0.492414	-0.005816
1969	9.8400e-01	0.3148	-9.931597	0.000474	4.744812	0.803793	-0.009493
1970	9.8450e-01	0.3024	-9.966235	0.000346	3.462431	0.586552	-0.006928
1971	9.8500e-01	0.2947	-10.008997	0.000427	4.274606	0.724138	-0.008553
1972	9.8550e-01	0.2853	-10.033372	0.000244	2.436525	0.412759	-0.004875
1973	9.8600e-01	0.2769	-10.067154	0.000338	3.376939	0.572069	-0.006756
1974	9.8650e-01	0.2653	-10.094950	0.000278	2.778494	0.470690	-0.005559
1975	9.8700e-01	0.2532	-10.144127	0.000492	4.915797	0.832759	-0.009835
1976	9.8750e-01	0.2447	-10.163798	0.000197	1.966319	0.333103	-0.003934
1977	9.8800e-01	0.2344	-10.195869	0.000321	3.205954	0.543103	-0.006414
1978	9.8850e-01	0.2264	-10.227086	0.000312	3.120462	0.528621	-0.006243
1979	9.8900e-01	0.2160	-10.266855	0.000398	3.975383	0.673448	-0.007954
1980	9.8950e-01	0.2058	-10.294651	0.000278	2.778494	0.470690	-0.005559
1981	9.9000e-01	0.1951	-10.337413	0.000427	4.274606	0.724138	-0.008553
1982	9.9050e-01	0.1849	-10.365637	0.000282	2.821240	0.477931	-0.005645
1983	9.9100e-01	0.1745	-10.410965	0.000453	4.531082	0.767586	-0.009066
1984	9.9150e-01	0.1676	-10.440043	0.000291	2.906732	0.492414	-0.005816
1985	9.9200e-01	0.1554	-10.466129	0.000261	2.607510	0.441724	-0.005217
1986	9.9250e-01	0.1443	-10.505042	0.000389	3.889891	0.658965	-0.007783
1987	9.9300e-01	0.1360	-10.537970	0.000329	3.291446	0.557586	-0.006585
1988	9.9350e-01	0.1274	-10.576028	0.000380	3.804399	0.644483	-0.007612
1989	9.9400e-01	0.1148	-10.607245	0.000312	3.120462	0.528621	-0.006243
1990	9.9450e-01	0.1056	-10.642310	0.000351	3.505177	0.593793	-0.007013
1991	9.9500e-01	0.0948	-10.674810	0.000325	3.248700	0.550345	-0.006500
1992	9.9550e-01	0.0866	-10.722704	0.000479	4.787559	0.811034	-0.009579
1993	9.9600e-01	0.0756	-10.727408	0.000047	0.470207	0.079655	-0.000941
1994	9.9650e-01	0.0652	-10.764611	0.000372	3.718907	0.630000	-0.007441
1995	9.9700e-01	0.0563	-10.809084	0.000445	4.445590	0.753103	-0.008895
1996	9.9750e-01	0.0441	-10.838163	0.000291	2.906732	0.492414	-0.005816
1997	9.9800e-01	0.0362	-10.874083	0.000359	3.590669	0.608276	-0.007184
1998	9.9850e-01	0.0268	-10.907866	0.000338	3.376939	0.572069	-0.006756
1999	9.9900e-01	0.0149	-10.948062	0.000402	4.018129	0.680690	-0.008039
2000	9.9950e-01	0.0049	-10.977568	0.000295	2.949478	0.499655	-0.005901
2001	1.0000e+00	-0.0028	-11.010923	0.000295	2.949478	0.499655	-0.006671

PMax (uC/cm2):	2.82e+01
Pr (uC/cm2):	3.09e+00
-Pr (uC/cm2):	0.00e+00
PLoss (uC/cm2):	0.00e+00
C (Max-Eff) (nF):	2.82e-01
K (Eff):	4.78e+02
Vert. (+/-Pr) Shift (uC/cm2):	1.54e+00
Offset (uC/cm2):	1.41e+01

A (Loop Area - uC/cm2·Volts):	-3.07e-02



Hysteresis Version: 5.48.1 - Radiant Technologies, Inc., 1999 - 9/12/24

